DTS Sentinel unit serial number:	SN413079Multiplexer serial number:	ORYXHardware model number:	OX4-SRSoftware version number:	ORYX F/W v4.00 Oryx Data Collector v3.7.2.0data status	okinstallation	princeton_trtdifferential loss correction	single-endedforward channel	channel 1reverse channel	N/Adate	2019/09/12time	08:00:11forward acquisition time	60.00reverse acquisition time	0.00gamma	496.2192k internal	0.2315k external	0.2315temperature offset calibration	1.0039default loss term (dB/km)	0.3790temperature slope calibration	1.0000multiplexer offset coefficient	1.0000multiplexer slope coefficient	1.0000fibre end	0.00T internal ref (°C)	33.06T ext. ref 1 (°C)	1.66T ext. ref 2 (°C)	29.52length (m)	temperature (°C)	Stokes	anti-Stokes-747.200	-200.000	-0.001	0.100
-746.185	-45.198	0.485	0.244
-745.171	-48.550	0.205	0.100
-744.156	77.797	0.244	0.264
-743.142	800.000	-0.069	0.304
-742.127	-200.000	0.057	0.303
-741.112	-130.185	0.368	0.051
-740.098	-127.257	-0.216	-0.032
-739.083	703.966	-0.120	-0.321
-738.069	298.580	-0.249	0.464
-737.054	-200.000	0.045	0.286
-736.039	273.276	-0.077	-0.137
-735.025	517.164	0.123	0.292
-734.010	-200.000	0.048	-0.281
-732.996	-118.700	-0.383	0.069
-731.981	-160.287	-0.206	-0.011
-730.966	800.000	-0.041	0.126
-729.952	800.000	-0.027	-0.089
-728.937	-200.000	-0.084	0.000
-727.923	-200.000	-0.032	-0.507
-726.908	-80.169	0.240	-0.081
-725.894	-200.000	0.034	0.212
-724.879	-76.501	-0.039	-0.014
-723.864	209.675	0.095	0.150
-722.850	800.000	-0.073	-0.253
-721.835	-81.447	-0.056	-0.019
-720.821	-46.048	-0.199	-0.099
-719.806	-200.000	0.011	0.054
-718.791	-99.618	0.166	-0.042
-717.777	224.223	0.040	0.065
-716.762	800.000	-0.047	0.178
-715.748	-200.000	-0.018	0.325
-714.733	-107.192	0.548	0.122
-713.718	800.000	0.078	0.235
-712.704	126.081	-0.227	-0.290
-711.689	-132.889	-0.170	0.022
-710.675	-200.000	-0.020	0.103
-709.660	-3.164	-0.117	-0.082
-708.645	114.624	0.216	0.266
-707.631	-96.924	-0.084	0.022
-706.616	124.077	0.203	0.258
-705.602	38.014	-0.131	0.118
-704.587	98.202	-0.237	0.277
-703.572	139.990	0.062	-0.083
-702.558	10.191	0.150	-0.115
-701.543	11.969	0.162	0.126
-700.529	-134.684	-0.052	-0.006
-699.514	169.836	0.123	0.178
-698.499	-129.291	0.277	0.039
-697.485	169.625	0.165	-0.239
-696.470	-11.461	-0.054	-0.036
-695.456	344.458	-0.166	0.330
-694.441	14.268	-0.332	-0.262
-693.426	-71.562	0.305	0.115
-692.412	-33.509	0.285	-0.159
-691.397	77.381	-0.147	-0.158
-690.383	288.426	0.055	0.101
-689.368	98.693	0.038	-0.044
-688.354	-112.260	-0.128	-0.026
-687.339	-92.301	0.487	-0.139
-686.324	-58.345	-0.459	0.202
-685.310	254.904	-0.062	0.108
-684.295	-143.810	-0.147	0.014
-683.281	800.000	0.034	-0.097
-682.266	-2.082	0.193	-0.137
-681.251	-131.652	0.266	-0.035
-680.237	16.425	0.021	-0.017
-679.222	99.728	-0.153	0.180
-678.208	-200.000	0.022	0.222
-677.193	104.984	-0.136	0.162
-676.178	-174.337	0.204	-0.006
-675.164	-20.669	0.175	-0.109
-674.149	800.000	-0.097	-0.403
-673.135	616.520	-0.045	0.114
-672.120	34.194	-0.087	-0.077
-671.105	71.027	0.165	0.173
-670.091	183.044	-0.107	0.160
-669.076	-62.560	0.060	-0.025
-668.062	-110.323	-0.398	0.084
-667.047	235.370	-0.043	-0.072
-666.032	-72.883	0.097	0.036
-665.018	-136.473	0.380	-0.045
-664.003	-131.047	-0.310	0.042
-662.989	-58.202	0.130	0.057
-661.974	-200.000	-0.002	0.015
-660.959	-200.000	-0.031	0.140
-659.945	65.390	0.310	-0.317
-658.930	259.823	0.113	-0.198
-657.916	174.340	0.166	-0.242
-656.901	-43.014	0.620	-0.318
-655.886	385.507	-0.141	-0.294
-654.872	56.134	-0.296	-0.290
-653.857	750.512	-0.099	-0.269
-652.843	-200.000	0.210	0.001
-651.828	-33.412	-0.280	0.156
-650.814	494.328	-0.101	-0.233
-649.799	800.000	-0.062	-0.254
-648.784	-172.131	0.238	0.008
-647.770	-200.000	0.002	0.036
-646.755	16.820	-0.312	-0.249
-645.741	23.450	-0.186	0.155
-644.726	-149.009	0.166	-0.013
-643.711	800.000	-0.034	-0.101
-642.697	-200.000	-0.021	-0.185
-641.682	46.527	-0.032	-0.030
-640.668	155.819	0.049	-0.068
-639.653	11.196	0.329	0.254
-638.638	-1.791	0.243	0.173
-637.624	-79.376	0.313	0.107
-636.609	-193.117	0.167	0.002
-635.595	-200.000	-0.053	-0.322
-634.580	-52.240	0.264	-0.124
-633.565	-200.000	-0.077	-0.479
-632.551	-121.569	-0.402	-0.067
-631.536	188.191	-0.024	-0.036
-630.522	-36.514	0.130	-0.070
-629.507	298.099	0.073	-0.136
-628.492	-23.919	-0.101	-0.061
-627.478	-8.883	-0.381	-0.258
-626.463	262.236	-0.055	-0.097
-625.449	-200.000	0.008	0.071
-624.434	92.783	-0.075	0.086
-623.419	44.719	0.096	-0.089
-622.405	-161.541	0.114	-0.006
-621.390	-62.111	-0.196	-0.082
-620.376	7.114	0.049	-0.037
-619.361	454.128	0.075	-0.167
-618.346	-200.000	0.002	0.209
-617.332	-200.000	-0.048	0.287
-616.317	21.787	-0.354	0.291
-615.303	-63.820	-0.522	-0.216
-614.288	-95.970	0.114	-0.031
-613.273	64.736	0.212	0.216
-612.259	27.474	0.231	0.196
-611.244	800.000	-0.079	-0.269
-610.230	-200.000	0.033	-0.211
-609.215	216.445	-0.138	0.221
-608.201	213.438	-0.026	0.041
-607.186	-200.000	0.025	-0.131
-606.171	-65.330	0.523	0.212
-605.157	800.000	0.065	-0.205
-604.142	-62.532	0.209	-0.087
-603.128	-200.000	-0.029	-0.250
-602.113	1.608	0.356	-0.258
-601.098	-200.000	0.019	0.214
-600.084	27.713	0.067	0.057
-599.069	63.640	0.264	-0.267
-598.055	192.344	-0.049	0.074
-597.040	30.161	0.077	0.066
-596.025	104.168	0.226	0.267
-595.011	-200.000	-0.008	0.059
-593.996	307.067	0.071	-0.134
-592.982	30.841	-0.116	0.100
-591.967	440.497	-0.122	0.269
-590.952	-62.342	-0.063	0.026
-589.938	-8.944	-0.136	-0.092
-588.923	-200.000	-0.020	-0.137
-587.909	800.000	0.058	-0.200
-586.894	377.629	-0.191	0.393
-585.879	329.668	0.055	-0.106
-584.865	800.000	-0.036	-0.106
-583.850	276.383	-0.160	-0.287
-582.836	131.450	0.229	-0.296
-581.821	-105.743	-0.275	-0.063
-580.806	46.709	-0.190	-0.177
-579.792	122.453	0.069	0.087
-578.777	-114.517	-0.582	0.112
-577.763	-104.128	0.073	-0.017
-576.748	-200.000	0.006	0.048
-575.733	-200.000	0.000	0.121
-574.719	96.451	0.050	-0.057
-573.704	72.809	-0.062	-0.065
-572.690	-200.000	-0.042	-0.225
-571.675	111.601	-0.183	-0.222
-570.661	-61.672	-0.094	0.040
-569.646	253.849	0.084	0.145
-568.631	800.000	0.090	-0.283
-567.617	-34.097	-0.243	0.134
-566.602	25.422	0.283	-0.237
-565.588	173.558	0.231	0.336
-564.573	615.300	0.069	0.175
-563.558	-32.890	-0.417	0.233
-562.544	-200.000	0.015	-0.149
-561.529	346.420	0.145	-0.286
-560.515	-102.215	-0.173	0.042
-559.500	199.970	-0.219	-0.338
-558.485	-33.452	-0.397	0.221
-557.471	-128.290	-0.160	0.023
-556.456	504.692	-0.190	0.443
-555.442	-70.257	0.310	-0.118
-554.427	121.525	0.035	-0.043
-553.412	-200.000	0.005	-0.385
-552.398	-177.939	-0.338	0.008
-551.383	-165.638	-0.191	0.008
-550.369	289.709	0.085	0.155
-549.354	713.071	-0.075	-0.200
-548.339	310.079	-0.188	-0.355
-547.325	-66.135	-0.128	-0.051
-546.310	2.005	-0.274	0.199
-545.296	88.836	-0.126	-0.141
-544.281	800.000	-0.052	0.217
-543.266	-116.269	0.241	0.045
-542.252	699.517	-0.167	-0.442
-541.237	-200.000	-0.036	-0.372
-540.223	189.018	-0.191	-0.288
-539.208	-200.000	-0.002	-0.243
-538.193	128.055	0.312	0.398
-537.179	54.397	0.062	0.060
-536.164	343.698	0.107	0.212
-535.150	800.000	0.044	-0.165
-534.135	-181.141	0.035	0.001
-533.121	-27.848	0.211	0.123
-532.106	235.234	-0.152	-0.253
-531.091	-84.877	-0.171	-0.054
-530.077	-200.000	0.031	0.168
-529.062	387.936	0.111	-0.231
-528.048	800.000	0.103	-0.394
-527.033	-136.813	-0.191	0.022
-526.018	168.917	0.069	0.100
-525.004	-200.000	-0.001	-0.070
-523.989	-111.009	0.126	-0.026
-522.975	-21.803	0.315	-0.193
-521.960	253.059	-0.144	-0.247
-520.945	89.704	0.265	0.297
-519.931	621.892	0.089	0.224
-518.916	484.025	0.037	-0.084
-517.902	11.647	-0.228	-0.176
-516.887	-200.000	0.026	0.176
-515.872	-200.000	0.047	-0.256
-514.858	115.520	-0.074	0.091
-513.843	-152.116	-0.299	-0.022
-512.829	800.000	-0.067	0.194
-511.814	800.000	-0.114	-0.471
-510.799	122.510	0.228	0.286
-509.785	-200.000	0.017	0.213
-508.770	-24.956	0.174	-0.104
-507.756	-178.946	-0.145	-0.003
-506.741	-58.889	0.197	-0.085
-505.726	136.785	-0.102	-0.133
-504.712	75.535	-0.164	-0.173
-503.697	-5.900	0.209	0.143
-502.683	204.891	0.215	0.335
-501.668	32.514	-0.388	-0.337
-500.653	-3.498	-0.167	-0.117
-499.639	325.954	-0.164	0.316
-498.624	-200.000	-0.048	0.282
-497.610	-200.000	-0.002	0.137
-496.595	-134.887	0.077	-0.009
-495.581	-200.000	0.035	0.239
-494.566	125.255	0.032	-0.040
-493.551	-200.000	0.014	0.136
-492.537	-27.752	-0.241	0.140
-491.522	-200.000	-0.025	-0.151
-490.508	723.019	-0.119	0.317
-489.493	800.000	-0.105	-0.354
-488.478	800.000	-0.039	0.123
-487.464	152.449	-0.034	0.047
-486.449	-7.102	-0.056	0.038
-485.435	-191.268	0.018	-0.000
-484.420	-89.631	0.134	-0.039
-483.405	-92.200	0.173	0.049
-482.391	-70.445	0.141	-0.054
-481.376	-109.712	-0.089	-0.019
-480.362	800.000	0.080	0.262
-479.347	-8.870	0.064	0.043
-478.332	-115.909	-0.174	0.033
-477.318	-23.414	0.159	-0.096
-476.303	-200.000	0.065	0.291
-475.289	-200.000	0.015	0.203
-474.274	7.660	0.173	0.130
-473.259	800.000	0.080	-0.296
-472.245	297.003	0.183	-0.337
-471.230	59.108	-0.211	-0.208
-470.216	271.198	0.149	0.264
-469.201	-200.000	-0.067	0.445
-468.186	116.274	0.138	-0.169
-467.172	-63.305	0.103	0.043
-466.157	-71.695	0.134	-0.050
-465.143	28.871	0.117	-0.100
-464.128	-200.000	0.017	-0.412
-463.113	800.000	-0.088	-0.244
-462.099	58.643	-0.280	0.276
-461.084	107.090	0.054	0.064
-460.070	-8.135	-0.164	-0.111
-459.055	-38.453	-0.163	-0.087
-458.040	-78.266	-0.236	0.081
-457.026	-60.875	0.180	-0.076
-456.011	713.309	-0.057	0.153
-454.997	-101.861	0.082	0.020
-453.982	554.492	0.091	0.220
-452.968	60.944	0.084	0.084
-451.953	-109.006	-0.170	0.036
-450.938	-22.573	-0.115	-0.070
-449.924	119.222	0.246	-0.305
-448.909	98.433	0.302	-0.349
-447.895	215.474	-0.149	-0.237
-446.880	-55.780	0.381	0.171
-445.865	-92.004	0.182	0.052
-444.851	139.443	-0.175	0.230
-443.836	208.040	0.092	0.145
-442.822	456.823	-0.076	0.169
-441.807	-60.087	-0.336	0.143
-440.792	-200.000	0.418	0.002
-439.778	-150.674	0.060	-0.005
-438.763	-113.523	-0.503	-0.099
-437.749	-23.869	-0.116	0.070
-436.734	171.952	0.193	0.278
-435.719	-75.157	0.251	0.090
-434.705	23.886	-0.167	0.138
-433.690	150.784	0.278	0.378
-432.676	-65.141	0.391	-0.158
-431.661	15.918	-0.196	0.154
-430.646	-39.302	0.184	-0.097
-429.632	103.655	-0.028	0.032
-428.617	-20.606	0.283	-0.174
-427.603	-108.099	-0.105	-0.023
-426.588	168.925	0.152	0.217
-425.573	157.393	-0.244	0.338
-424.559	-116.075	0.224	0.042
-423.544	32.181	-0.160	0.138
-422.530	-116.270	-0.376	-0.070
-421.515	81.297	-0.187	0.202
-420.500	-200.000	-0.019	0.258
-419.486	-155.208	-0.062	0.004
-418.471	-200.000	-0.012	-0.118
-417.457	112.232	0.286	0.346
-416.442	800.000	-0.040	0.122
-415.428	79.477	-0.207	0.223
-414.413	-82.972	0.187	-0.060
-413.398	367.636	0.064	-0.129
-412.384	-35.704	0.099	-0.054
-411.369	141.955	-0.241	0.320
-410.355	-98.317	-0.199	0.051
-409.340	195.193	0.128	-0.195
-408.325	-163.823	0.158	0.007
-407.311	-93.051	0.075	-0.021
-406.296	-62.199	-0.274	0.114
-405.282	278.175	0.150	-0.268
-404.267	200.416	-0.040	0.061
-403.252	-96.694	-0.042	0.011
-402.238	0.303	-0.144	-0.103
-401.223	-30.416	0.112	-0.063
-400.209	-55.482	0.212	-0.095
-399.194	-8.749	-0.173	0.116
-398.179	150.506	-0.093	0.127
-397.165	16.974	0.278	0.221
-396.150	151.897	0.126	0.172
-395.136	161.023	-0.072	0.101
-394.121	504.069	0.142	0.328
-393.106	-97.342	0.100	-0.026
-392.092	-200.000	0.006	-0.085
-391.077	314.809	-0.129	0.242
-390.063	-55.779	0.221	-0.099
-389.048	-124.567	0.085	-0.013
-388.033	-61.933	0.107	0.045
-387.019	420.188	-0.071	0.151
-386.004	-89.713	0.437	-0.128
-384.990	-7.424	0.261	-0.177
-383.975	-75.011	0.098	-0.035
-382.960	380.401	0.024	-0.049
-381.946	-104.671	-0.267	-0.061
-380.931	264.112	0.041	0.071
-379.917	800.000	-0.033	-0.114
-378.902	800.000	0.040	-0.157
-377.888	800.000	-0.016	0.063
-376.873	93.876	0.071	-0.080
-375.858	-25.745	-0.190	0.112
-374.844	169.373	-0.061	-0.088
-373.829	29.718	0.088	-0.075
-372.815	204.142	-0.259	-0.400
-371.800	-109.109	-0.344	-0.073
-370.785	-17.440	-0.239	0.150
-369.771	800.000	-0.027	-0.077
-368.756	-77.828	-0.114	0.039
-367.742	648.554	-0.060	0.153
-366.727	788.994	-0.130	0.357
-365.712	-200.000	0.038	0.199
-364.698	-110.535	-0.078	0.016
-363.683	13.937	0.046	-0.036
-362.669	98.066	0.148	-0.171
-361.654	101.659	0.051	-0.059
-360.639	-138.306	-0.358	0.039
-359.625	467.429	-0.136	0.305
-358.610	300.821	-0.043	0.080
-357.596	-55.444	-0.256	-0.115
-356.581	-120.485	-0.152	-0.026
-355.566	800.000	0.055	-0.200
-354.552	-95.495	-0.250	0.067
-353.537	-135.568	0.169	-0.020
-352.523	-200.000	0.013	0.139
-351.508	-103.461	0.294	-0.069
-350.493	-200.000	0.008	-0.109
-349.479	378.102	-0.079	0.161
-348.464	323.947	0.023	-0.044
-347.450	-13.136	0.244	0.159
-346.435	-117.460	-0.140	-0.025
-345.420	70.257	0.148	0.153
-344.406	537.766	-0.148	-0.351
-343.391	59.210	0.217	-0.213
-342.377	171.268	-0.111	-0.159
-341.362	15.048	-0.271	-0.211
-340.348	-122.487	0.175	-0.028
-339.333	-68.813	0.271	-0.104
-338.318	103.234	0.186	0.218
-337.304	800.000	0.092	-0.374
-336.289	-200.000	0.030	-0.418
-335.275	78.211	0.126	0.134
-334.260	-25.639	-0.266	0.157
-333.245	60.329	-0.167	-0.164
-332.231	176.628	0.110	0.159
-331.216	-52.772	-0.125	-0.057
-330.202	-200.000	-0.049	0.295
-329.187	-200.000	-0.042	0.280
-328.172	800.000	0.035	0.102
-327.158	98.957	-0.222	-0.255
-326.143	800.000	0.010	-0.036
-325.129	94.800	-0.180	0.204
-324.114	241.246	0.108	0.180
-323.099	-15.205	-0.301	-0.192
-322.085	-60.114	0.269	-0.114
-321.070	-42.369	0.224	-0.114
-320.056	123.317	0.044	-0.055
-319.041	146.380	0.050	0.067
-318.026	273.642	-0.058	-0.103
-317.012	-16.937	-0.298	-0.188
-315.997	128.614	0.097	-0.123
-314.983	326.721	-0.054	0.104
-313.968	-10.264	0.279	-0.185
-312.953	-200.000	0.017	-0.137
-311.939	67.655	-0.144	0.146
-310.924	-28.364	-0.270	-0.155
-309.910	-16.819	0.121	-0.076
-308.895	87.221	-0.099	0.109
-307.880	601.202	0.033	0.081
-306.866	-29.433	-0.115	0.066
-305.851	-126.261	-0.103	0.015
-304.837	788.795	0.031	-0.084
-303.822	-160.996	-0.374	-0.020
-302.807	-200.000	-0.032	-0.309
-301.793	-200.000	-0.041	-0.202
-300.778	23.559	-0.384	-0.315
-299.764	152.218	0.123	0.168
-298.749	-122.355	-0.633	0.103
-297.735	-159.800	-0.308	-0.017
-296.720	78.725	0.046	-0.049
-295.705	-144.216	0.129	0.012
-294.691	800.000	-0.177	0.512
-293.676	362.037	0.184	0.368
-292.662	-102.469	0.388	0.092
-291.647	-97.744	-0.302	-0.078
-290.632	279.011	-0.060	0.107
-289.618	-45.696	0.196	0.097
-288.603	-12.306	-0.235	0.153
-287.589	73.859	-0.096	0.101
-286.574	-88.319	0.211	-0.063
-285.559	-26.215	0.179	-0.105
-284.545	-3.038	0.312	-0.217
-283.530	125.784	0.158	0.199
-282.516	404.578	0.224	-0.470
-281.501	129.136	-0.127	0.161
-280.486	-200.000	-0.003	-0.236
-279.472	-200.000	0.015	0.203
-278.457	-200.000	-0.008	-0.066
-277.443	147.279	-0.169	-0.227
-276.428	-150.060	0.351	-0.027
-275.413	-200.000	-0.012	-0.145
-274.399	-200.000	-0.021	-0.172
-273.384	800.000	0.097	-0.348
-272.370	-55.266	0.280	-0.125
-271.355	-200.000	0.010	-0.049
-270.340	-113.307	-0.218	-0.043
-269.326	800.000	-0.017	-0.052
-268.311	-58.824	0.279	0.120
-267.297	446.457	-0.032	-0.071
-266.282	-123.813	0.415	-0.065
-265.267	30.409	-0.087	0.074
-264.253	-157.496	0.322	0.019
-263.238	-96.940	-0.137	0.036
-262.224	186.364	0.129	0.191
-261.209	-6.697	-0.424	0.287
-260.195	-74.060	-0.315	0.113
-259.180	-55.175	0.129	-0.058
-258.165	-200.000	-0.011	-0.269
-257.151	-200.000	0.064	-0.278
-256.136	443.955	0.175	0.382
-255.122	-200.000	-0.023	-0.338
-254.107	-200.000	0.007	0.062
-253.092	-59.788	-0.153	0.065
-252.078	-139.687	-0.260	-0.027
-251.063	-116.141	-0.149	0.028
-250.049	-200.000	0.029	0.212
-249.034	-2.100	-0.256	0.179
-248.019	-127.895	0.175	-0.025
-247.005	-74.846	0.245	0.088
-245.990	-200.000	-0.017	-0.078
-244.976	-59.866	0.185	0.078
-243.961	688.779	-0.052	0.135
-242.946	-118.721	0.386	-0.068
-241.932	-86.761	-0.354	0.108
-240.917	96.329	-0.241	0.274
-239.903	-200.000	0.007	-0.047
-238.888	-200.000	-0.031	-0.174
-237.873	-200.000	-0.004	0.031
-236.859	155.454	-0.136	-0.187
-235.844	76.002	0.360	0.378
-234.830	-105.075	0.095	0.022
-233.815	-200.000	0.119	0.583
-232.800	493.779	0.105	-0.239
-231.786	-200.000	0.016	0.363
-230.771	-200.000	-0.005	-0.228
-229.757	604.917	-0.163	-0.403
-228.742	-44.965	0.189	-0.094
-227.727	-140.732	0.033	0.003
-226.713	-200.000	0.030	-0.347
-225.698	24.212	0.105	0.086
-224.684	461.833	-0.047	-0.103
-223.669	-200.000	0.108	0.498
-222.655	-63.245	0.109	0.045
-221.640	-200.000	0.005	-0.255
-220.625	-200.000	-0.010	0.050
-219.611	-116.306	0.236	-0.043
-218.596	-200.000	0.037	-0.193
-217.582	800.000	-0.059	-0.171
-216.567	-200.000	-0.030	-0.342
-215.552	105.435	-0.199	0.233
-214.538	65.299	-0.122	-0.123
-213.523	-107.929	0.354	-0.076
-212.509	-48.425	0.119	0.057
-211.494	-30.092	0.159	0.090
-210.479	-47.205	-0.132	-0.064
-209.465	-103.211	0.262	0.061
-208.450	-38.021	0.231	-0.122
-207.436	-118.518	0.172	0.030
-206.421	-148.608	0.315	-0.025
-205.406	234.071	0.037	0.061
-204.392	-153.906	-0.265	-0.018
-203.377	-131.449	0.247	-0.032
-202.363	81.370	-0.122	0.131
-201.348	-200.000	0.042	0.318
-200.333	-200.000	-0.036	0.375
-199.319	111.358	0.094	0.112
-198.304	800.000	0.065	0.273
-197.290	-200.000	0.017	-0.076
-196.275	-74.261	-0.198	-0.071
-195.260	69.870	0.063	0.064
-194.246	47.696	0.076	0.071
-193.231	-116.840	-0.081	-0.015
-192.217	82.433	-0.234	0.251
-191.202	9.370	0.185	0.139
-190.187	-70.941	0.079	-0.030
-189.173	800.000	0.072	0.225
-188.158	68.642	0.106	-0.108
-187.144	-200.000	0.021	0.430
-186.129	69.531	0.166	0.169
-185.114	-200.000	0.039	-0.472
-184.100	-177.974	0.277	0.007
-183.085	146.167	-0.106	-0.141
-182.071	0.856	-0.201	0.143
-181.056	-71.376	0.132	-0.049
-180.042	-1.635	-0.364	-0.254
-179.027	-54.723	0.340	0.152
-178.012	-127.308	-0.209	0.030
-176.998	-40.158	-0.280	-0.145
-175.983	-155.132	-0.133	0.009
-174.969	423.254	-0.127	0.270
-173.954	-158.412	0.343	-0.020
-172.939	-64.829	-0.214	-0.086
-171.925	-26.780	0.204	-0.118
-170.910	-100.323	0.145	0.036
-169.896	-165.164	-0.145	-0.006
-168.881	230.756	-0.084	0.137
-167.866	56.221	-0.082	-0.079
-166.852	69.914	-0.073	0.074
-165.837	249.509	-0.084	-0.141
-164.823	345.043	0.047	0.092
-163.808	92.912	0.099	-0.111
-162.793	232.193	-0.069	0.112
-161.779	-56.113	-0.338	-0.149
-160.764	696.291	0.053	0.137
-159.750	-48.111	0.172	-0.082
-158.735	-95.307	-0.456	0.121
-157.720	321.031	0.152	0.286
-156.706	-47.571	-0.029	-0.014
-155.691	-200.000	0.042	-0.295
-154.677	6.213	0.017	0.012
-153.662	-200.000	-0.002	0.217
-152.647	800.000	0.143	0.455
-151.633	-200.000	0.002	-0.170
-150.618	123.292	-0.062	-0.077
-149.604	800.000	0.040	0.143
-148.589	-29.038	0.139	0.079
-147.574	-45.646	-0.240	-0.118
-146.560	-127.952	-0.267	0.038
-145.545	146.339	-0.031	-0.042
-144.531	173.859	-0.071	0.101
-143.516	74.943	0.117	0.122
-142.502	800.000	-0.026	-0.112
-141.487	-200.000	0.019	0.107
-140.472	52.047	0.260	-0.245
-139.458	-151.323	0.237	-0.017
-138.443	-200.000	-0.049	0.258
-137.429	130.176	-0.129	0.163
-136.414	-28.777	0.161	-0.092
-135.399	219.216	0.153	-0.241
-134.385	-164.589	0.110	-0.005
-133.370	-196.945	-0.135	-0.001
-132.356	-4.450	0.217	0.149
-131.341	462.357	-0.101	0.223
-130.326	-3.026	-0.329	0.227
-129.312	190.387	-0.103	-0.153
-128.297	-4.947	0.144	0.098
-127.283	-73.852	-0.068	0.024
-126.268	462.472	-0.119	0.263
-125.253	-77.225	0.225	-0.077
-124.239	310.760	0.078	0.145
-123.224	478.600	0.054	-0.120
-122.210	80.662	0.110	-0.118
-121.195	315.242	-0.046	-0.086
