DTS Sentinel unit serial number:	SN413079Multiplexer serial number:	ORYXHardware model number:	OX4-SRSoftware version number:	ORYX F/W v4.00 Oryx Data Collector v3.7.2.0data status	okinstallation	princeton_trtdifferential loss correction	single-endedforward channel	channel 1reverse channel	N/Adate	2019/09/14time	17:50:35forward acquisition time	60.00reverse acquisition time	0.00gamma	496.2192k internal	0.2298k external	0.2298temperature offset calibration	1.0043default loss term (dB/km)	0.3790temperature slope calibration	1.0000multiplexer offset coefficient	1.0000multiplexer slope coefficient	1.0000fibre end	0.00T internal ref (°C)	37.44T ext. ref 1 (°C)	5.02T ext. ref 2 (°C)	32.45length (m)	temperature (°C)	Stokes	anti-Stokes-747.200	552.097	0.054	-0.134
-746.185	112.303	-0.169	0.209
-745.171	131.063	0.188	-0.246
-744.156	800.000	-0.092	0.366
-743.142	-200.000	-0.037	0.188
-742.127	-51.518	-0.361	0.172
-741.112	-86.292	-0.142	0.045
-740.098	800.000	-0.087	0.362
-739.083	-3.633	0.239	-0.169
-738.069	-56.408	-0.244	0.111
-737.054	800.000	-0.022	0.081
-736.039	-51.365	0.196	0.094
-735.025	5.872	0.050	0.038
-734.010	-86.013	-0.310	0.098
-732.996	-48.856	-0.200	0.098
-731.981	-98.518	-0.175	-0.046
-730.966	198.710	-0.142	-0.222
-729.952	800.000	0.027	-0.100
-728.937	-136.294	-0.393	-0.047
-727.923	335.424	-0.153	0.303
-726.908	232.667	0.121	-0.204
-725.894	459.351	-0.137	-0.311
-724.879	99.035	-0.082	-0.097
-723.864	-57.752	-0.228	0.102
-722.850	-112.736	0.094	-0.019
-721.835	800.000	0.032	-0.090
-720.821	-21.828	0.330	-0.205
-719.806	-113.922	-0.381	0.076
-718.791	-200.000	0.008	-0.298
-717.777	-200.000	-0.004	0.071
-716.762	339.976	0.097	-0.193
-715.748	-100.821	-0.050	-0.013
-714.733	-42.529	0.225	-0.117
-713.718	29.146	0.094	0.082
-712.704	800.000	-0.056	0.244
-711.689	254.276	0.058	0.101
-710.675	-77.669	0.161	0.057
-709.660	-200.000	-0.011	0.049
-708.645	34.001	0.059	-0.053
-707.631	-24.173	0.293	-0.179
-706.616	32.158	0.144	-0.126
-705.602	10.809	0.225	-0.175
-704.587	183.495	-0.132	-0.198
-703.572	53.600	0.256	0.251
-702.558	-156.739	0.259	0.016
-701.543	-69.151	-0.229	-0.090
-700.529	308.523	-0.080	-0.152
-699.514	67.344	0.152	-0.158
-698.499	-60.902	0.291	0.125
-697.485	-200.000	0.030	0.252
-696.470	104.911	0.164	-0.197
-695.456	-5.788	-0.382	-0.267
-694.441	-96.269	-0.302	-0.082
-693.426	203.727	0.067	0.105
-692.412	2.176	-0.125	0.092
-691.397	-200.000	-0.026	-0.150
-690.383	173.259	0.148	0.218
-689.368	-152.482	-0.248	-0.018
-688.354	43.155	-0.320	-0.298
-687.339	-200.000	-0.008	-0.092
-686.324	85.040	-0.182	-0.203
-685.310	-7.711	-0.302	0.208
-684.295	488.726	0.054	0.126
-683.281	136.983	-0.132	0.176
-682.266	111.203	-0.177	-0.218
-681.251	7.099	-0.331	-0.251
-680.237	-136.458	0.304	0.036
-679.222	-6.761	-0.244	-0.169
-678.208	323.104	0.010	-0.019
-677.193	188.051	-0.075	0.114
-676.178	182.025	-0.159	0.239
-675.164	-88.870	-0.247	0.075
-674.149	-42.480	-0.276	-0.143
-673.135	-96.669	-0.163	0.044
-672.120	-109.287	0.074	-0.016
-671.105	-26.427	-0.066	-0.039
-670.091	-33.111	0.404	-0.228
-669.076	-148.532	-0.039	0.003
-668.062	349.379	-0.039	-0.078
-667.047	127.914	0.110	-0.142
-666.032	-20.603	-0.242	-0.151
-665.018	800.000	-0.006	-0.022
-664.003	800.000	0.059	-0.233
-662.989	-200.000	0.028	-0.156
-661.974	800.000	0.085	-0.253
-660.959	155.266	0.247	-0.346
-659.945	-175.565	0.213	0.006
-658.930	333.754	-0.047	-0.093
-657.916	-200.000	-0.079	-0.486
-656.901	800.000	0.082	-0.246
-655.886	800.000	0.066	0.284
-654.872	-174.018	-0.481	0.014
-653.857	314.559	-0.135	0.258
-652.843	14.065	0.447	0.354
-651.828	95.771	-0.157	-0.182
-650.814	-113.099	0.197	-0.040
-649.799	-124.901	-0.276	0.043
-648.784	-19.473	0.148	-0.093
-647.770	800.000	0.077	-0.342
-646.755	-143.275	-0.152	0.015
-645.741	800.000	-0.037	-0.147
-644.726	-87.378	-0.191	-0.059
-643.711	-113.896	-0.351	0.069
-642.697	40.460	0.144	0.132
-641.682	-125.592	0.432	0.067
-640.668	-148.401	-0.584	-0.049
-639.653	-53.466	0.271	0.126
-638.638	-104.251	0.250	-0.059
-637.624	-129.624	-0.099	-0.014
-636.609	-116.171	-0.230	0.043
-635.595	-162.066	-0.259	-0.013
-634.580	800.000	-0.043	-0.156
-633.565	-200.000	0.057	-0.458
-632.551	99.634	-0.158	0.186
-631.536	-103.202	-0.303	-0.073
-630.522	-200.000	-0.037	-0.201
-629.507	800.000	-0.068	-0.302
-628.492	-200.000	-0.053	-0.345
-627.478	449.686	0.073	0.163
-626.463	800.000	-0.012	-0.038
-625.449	10.503	-0.255	0.198
-624.434	-96.076	-0.080	-0.022
-623.419	-37.007	-0.221	-0.121
-622.405	175.266	0.144	-0.212
-621.390	-64.100	-0.145	0.060
-620.376	-155.125	-0.157	-0.010
-619.361	-200.000	0.018	0.102
-618.346	787.633	0.075	-0.209
-617.332	98.723	-0.031	-0.037
-616.317	61.128	0.099	-0.100
-615.303	-51.860	-0.118	-0.056
-614.288	209.449	-0.063	0.100
-613.273	-62.721	-0.183	-0.077
-612.259	-200.000	-0.014	-0.153
-611.244	-200.000	-0.014	0.115
-610.230	77.795	0.157	-0.170
-609.215	229.309	0.140	-0.231
-608.201	136.879	-0.147	-0.196
-607.186	-200.000	0.020	-0.088
-606.171	800.000	-0.032	0.130
-605.157	23.781	0.131	-0.109
-604.142	-60.187	0.334	-0.144
-603.128	-200.000	0.012	0.100
-602.113	-200.000	-0.016	-0.149
-601.098	-46.748	-0.088	0.044
-600.084	-114.298	-0.100	-0.019
-599.069	-54.341	0.252	0.116
-598.055	59.268	0.078	-0.078
-597.040	-103.010	0.103	-0.025
-596.025	-200.000	-0.025	0.216
-595.011	-20.849	0.142	-0.088
-593.996	283.541	-0.040	-0.074
-592.982	-70.015	-0.102	-0.039
-591.967	-40.450	0.167	0.088
-590.952	-13.989	0.027	-0.018
-589.938	800.000	-0.058	0.169
-588.923	-96.163	-0.313	0.084
-587.909	-19.401	-0.032	0.020
-586.894	-2.645	0.223	0.158
-585.879	-200.000	-0.022	0.399
-584.865	-200.000	-0.030	0.215
-583.850	72.523	-0.115	0.122
-582.836	-12.250	0.247	-0.164
-581.821	109.703	-0.044	0.054
-580.806	137.467	-0.081	-0.107
-579.792	-20.577	-0.093	0.058
-578.777	82.773	0.108	0.119
-577.763	356.727	-0.107	0.215
-576.748	602.614	0.029	0.073
-575.733	-71.700	0.148	-0.056
-574.719	-139.862	-0.150	0.016
-573.704	387.041	0.117	-0.245
-572.690	-9.637	0.068	-0.046
-571.675	266.705	0.090	-0.160
-570.661	-200.000	0.029	0.249
-569.646	153.642	-0.089	0.124
-568.631	800.000	0.060	0.240
-567.617	-15.349	0.089	-0.057
-566.602	-200.000	-0.003	0.281
-565.588	-129.747	-0.168	-0.023
-564.573	3.985	-0.123	0.092
-563.558	800.000	-0.114	0.368
-562.544	-79.739	0.115	0.039
-561.529	-200.000	0.012	-0.130
-560.515	-182.535	0.242	-0.005
-559.500	103.947	0.093	-0.111
-558.485	579.924	0.035	0.088
-557.471	-35.509	0.130	0.072
-556.456	524.841	-0.116	0.276
-555.442	106.366	0.064	0.077
-554.427	-200.000	0.016	0.160
-553.412	40.414	-0.060	-0.055
-552.398	-20.205	-0.368	0.230
-551.383	25.166	-0.331	0.279
-550.369	157.146	-0.171	-0.239
-549.354	-113.497	-0.162	0.032
-548.339	261.153	-0.166	-0.291
-547.325	-66.059	0.287	-0.116
-546.310	-200.000	0.008	0.156
-545.296	800.000	-0.054	-0.181
-544.281	62.677	0.141	-0.143
-543.266	128.144	-0.131	0.168
-542.252	61.648	0.221	-0.223
-541.237	63.432	-0.139	0.142
-540.223	104.122	0.143	0.171
-539.208	41.573	0.261	0.239
-538.193	-119.189	0.068	-0.012
-537.179	-135.144	-0.187	0.023
-536.164	-103.671	-0.131	-0.031
-535.150	-98.356	-0.137	-0.036
-534.135	99.654	0.177	-0.207
-533.121	-120.654	0.196	0.034
-532.106	385.719	-0.193	0.403
-531.091	8.494	0.144	0.110
-530.077	-26.445	-0.134	-0.079
-529.062	-200.000	0.008	-0.264
-528.048	67.578	-0.187	0.193
-527.033	115.879	-0.260	-0.322
-526.018	123.591	-0.064	-0.081
-525.004	107.673	0.124	0.149
-523.989	43.706	0.322	0.298
-522.975	-200.000	0.014	-0.120
-521.960	-200.000	0.014	0.102
-520.945	209.903	0.165	-0.261
-519.931	-200.000	0.011	0.160
-518.916	-200.000	0.000	-0.216
-517.902	-200.000	-0.002	-0.127
-516.887	82.424	0.086	-0.094
-515.872	-4.605	-0.257	0.179
-514.858	-41.469	0.094	-0.049
-513.843	-200.000	0.052	-0.264
-512.829	-200.000	-0.001	-0.054
-511.814	341.059	0.068	-0.135
-510.799	295.193	-0.159	-0.294
-509.785	59.213	0.243	0.242
-508.770	800.000	-0.039	0.133
-507.756	800.000	0.031	0.100
-506.741	-66.386	-0.218	0.088
-505.726	-200.000	0.008	0.050
-504.712	-200.000	0.007	-0.188
-503.697	-24.234	0.072	0.043
-502.683	800.000	-0.046	-0.146
-501.668	-200.000	-0.031	-0.224
-500.653	-38.208	0.333	-0.179
-499.639	120.966	-0.129	-0.162
-498.624	-200.000	0.037	-0.239
-497.610	-150.936	-0.209	-0.016
-496.595	-117.652	-0.364	-0.066
-495.581	800.000	-0.077	-0.219
-494.566	594.910	0.151	-0.377
-493.551	-138.228	-0.099	-0.011
-492.537	155.264	0.076	0.106
-491.522	-200.000	-0.011	-0.152
-490.508	417.117	0.029	-0.062
-489.493	-200.000	0.018	0.311
-488.478	37.723	0.136	0.122
-487.464	-155.791	0.199	0.013
-486.449	13.696	-0.099	-0.078
-485.435	279.903	0.094	-0.169
-484.420	-200.000	0.033	0.163
-483.405	-147.443	-0.030	-0.003
-482.391	-159.420	0.222	-0.013
-481.376	-35.101	0.246	0.136
-480.362	-200.000	-0.020	-0.250
-479.347	-126.628	0.242	0.036
-478.332	5.383	-0.180	-0.134
-477.318	-152.935	-0.101	0.007
-476.303	210.393	-0.039	-0.062
-475.289	800.000	-0.036	0.139
-474.274	418.498	-0.037	0.079
-473.259	60.912	0.035	0.035
-472.245	492.011	-0.116	0.270
-471.230	55.086	0.302	-0.295
-470.216	-109.910	0.146	-0.031
-469.201	-1.842	0.241	0.172
-468.186	-200.000	0.053	-0.260
-467.172	-121.149	-0.335	0.057
-466.157	439.603	-0.015	0.033
-465.143	-77.538	0.230	-0.080
-464.128	18.662	-0.176	0.142
-463.113	-200.000	-0.005	0.090
-462.099	-69.718	-0.361	-0.139
-461.084	258.886	0.126	-0.219
-460.070	-200.000	0.089	-0.557
-459.055	800.000	0.114	-0.394
-458.040	-169.245	0.248	-0.009
-457.026	282.031	0.065	-0.119
-456.011	-135.313	0.164	-0.020
-454.997	-7.080	0.187	-0.128
-453.982	-80.853	-0.109	0.036
-452.968	149.357	0.066	-0.090
-451.953	433.673	0.088	0.193
-450.938	96.140	-0.199	-0.230
-449.924	-36.406	-0.203	-0.111
-448.909	-38.626	0.351	0.187
-447.895	800.000	-0.028	-0.093
-446.880	-125.833	-0.084	-0.013
-445.865	-59.109	0.226	0.098
-444.851	674.985	-0.081	-0.213
-443.836	-200.000	-0.028	0.146
-442.822	-200.000	-0.022	0.210
-441.807	800.000	-0.039	0.118
-440.792	-200.000	-0.029	-0.156
-439.778	-103.262	-0.166	0.039
-438.763	398.056	-0.135	-0.285
-437.749	53.918	-0.072	0.070
-436.734	-44.907	0.241	-0.121
-435.719	-200.000	-0.059	0.315
-434.705	-32.718	-0.167	0.094
-433.690	331.713	-0.053	0.104
-432.676	-200.000	0.036	-0.216
-431.661	155.234	0.154	0.213
-430.646	-161.663	-0.054	0.003
-429.632	-95.540	-0.019	-0.005
-428.617	306.575	-0.067	-0.126
-427.603	-74.852	-0.196	0.071
-426.588	-96.649	-0.140	0.037
-425.573	-31.088	-0.114	0.065
-424.559	85.364	0.077	0.085
-423.544	260.542	-0.025	0.043
-422.530	60.949	-0.189	-0.189
-421.515	-28.673	0.293	-0.170
-420.500	-63.183	0.229	0.095
-419.486	-139.642	-0.225	0.024
-418.471	800.000	-0.097	-0.398
-417.457	-200.000	-0.020	0.091
-416.442	152.719	0.149	-0.205
-415.428	-200.000	-0.062	-0.316
-414.413	800.000	-0.037	-0.127
-413.398	152.073	-0.161	0.221
-412.384	-60.737	0.233	0.099
-411.369	193.020	0.133	0.203
-410.355	327.732	0.053	0.102
-409.340	45.845	0.142	-0.132
-408.325	-67.501	-0.054	0.021
-407.311	-190.024	0.128	0.001
-406.296	136.460	0.073	0.096
-405.282	-46.434	-0.185	-0.091
-404.267	-14.960	-0.090	0.058
-403.252	-131.686	0.152	-0.020
-402.238	-47.945	-0.192	0.094
-401.223	30.306	-0.217	0.186
-400.209	-117.491	0.472	-0.086
-399.194	-148.004	0.191	0.016
-398.179	90.774	0.284	0.321
-397.165	800.000	0.075	-0.252
-396.150	180.683	-0.153	-0.227
-395.136	-105.963	-0.209	0.047
-394.121	-11.418	-0.223	0.148
-393.106	-200.000	-0.018	-0.106
-392.092	-191.609	0.098	0.001
-391.077	380.216	-0.089	0.183
-390.063	236.491	-0.062	-0.104
-389.048	73.662	-0.030	0.032
-388.033	800.000	0.061	-0.184
-387.019	123.391	0.153	0.192
-386.004	800.000	0.080	-0.228
-384.990	-200.000	0.026	0.213
-383.975	800.000	-0.015	-0.056
-382.960	29.681	0.125	0.107
-381.946	126.954	0.187	-0.239
-380.931	49.940	-0.127	-0.121
-379.917	-200.000	0.031	-0.253
-378.902	-72.516	-0.232	0.086
-377.888	-200.000	-0.006	0.284
-376.873	-122.648	0.264	0.043
-375.858	800.000	-0.014	0.042
-374.844	-64.290	-0.215	-0.088
-373.829	800.000	-0.082	-0.281
-372.815	-181.805	0.021	0.000
-371.800	298.663	0.066	-0.122
-370.785	-200.000	0.036	0.175
-369.771	35.308	0.091	0.081
-368.756	-62.392	0.045	-0.019
-367.742	638.694	0.094	-0.242
-366.727	177.211	0.077	-0.113
-365.712	-24.959	0.205	0.122
-364.698	-7.872	-0.191	-0.130
-363.683	-29.770	0.217	-0.124
-362.669	526.988	0.150	-0.357
-361.654	-50.245	-0.190	-0.090
-360.639	-173.003	-0.305	0.009
-359.625	155.868	0.158	0.219
-358.610	-153.122	0.162	-0.011
-357.596	-72.976	0.083	0.031
-356.581	800.000	0.005	0.014
-355.566	800.000	-0.114	0.497
-354.552	188.272	0.152	0.228
-353.537	-200.000	0.016	0.285
-352.523	800.000	-0.120	0.385
-351.508	101.290	-0.073	0.085
-350.493	-137.535	0.152	-0.017
-349.479	-95.783	-0.156	-0.042
-348.464	-200.000	0.015	-0.148
-347.450	150.680	-0.213	0.291
-346.435	-22.291	0.056	0.034
-345.420	622.620	0.036	-0.091
-344.406	5.624	-0.183	-0.136
-343.391	134.668	-0.175	-0.229
-342.377	644.793	-0.026	0.066
-341.362	53.649	0.096	-0.092
-340.348	-33.944	0.091	0.050
-339.333	-46.660	-0.293	-0.144
-338.318	184.360	-0.067	-0.099
-337.304	189.031	0.201	0.302
-336.289	-38.002	0.254	0.135
-335.275	800.000	-0.092	-0.257
-334.260	479.320	-0.085	-0.194
-333.245	-63.490	0.217	0.090
-332.231	-138.860	0.194	0.021
-331.216	-9.484	0.278	0.186
-330.202	800.000	0.029	0.103
-329.187	800.000	-0.092	-0.361
-328.172	-178.938	-0.041	-0.001
-327.158	-37.856	-0.334	-0.178
-326.143	176.451	-0.070	0.103
-325.129	-200.000	0.016	-0.116
-324.114	-116.334	-0.226	-0.042
-323.099	-83.558	-0.175	-0.056
-322.085	800.000	-0.054	-0.238
-321.070	111.786	-0.166	0.202
-320.056	-200.000	-0.040	0.250
-319.041	31.985	0.088	0.076
-318.026	-50.521	-0.217	0.103
-317.012	-200.000	-0.010	0.105
-315.997	-200.000	-0.003	-0.057
-314.983	-200.000	0.009	-0.234
-313.968	-200.000	0.004	-0.375
-312.953	357.823	-0.209	0.418
-311.939	-37.454	0.067	0.036
-310.924	-112.833	-0.299	-0.060
-309.910	605.432	-0.078	-0.195
-308.895	-75.276	0.342	-0.122
-307.880	-97.105	0.177	0.047
-306.866	49.628	-0.338	-0.319
-305.851	-44.784	-0.097	-0.048
-304.837	-67.033	-0.390	-0.154
-303.822	-153.399	0.247	-0.017
-302.807	-200.000	-0.001	-0.477
-301.793	800.000	0.027	-0.112
-300.778	-27.643	-0.269	0.157
-299.764	-27.321	0.261	0.153
-298.749	-94.799	0.037	-0.010
-297.735	47.388	0.252	0.236
-296.720	55.325	-0.068	-0.066
-295.705	-150.280	-0.279	0.022
-294.691	-132.797	-0.182	0.023
-293.676	-123.683	0.185	-0.029
-292.662	-129.036	0.130	0.018
-291.647	-1.466	-0.386	0.273
-290.632	67.333	-0.107	0.109
-289.618	-14.821	0.240	-0.154
-288.603	-200.000	-0.024	0.323
-287.589	-78.892	0.227	0.077
-286.574	151.771	-0.064	0.088
-285.559	-200.000	0.080	0.410
-284.545	-200.000	0.022	0.481
-283.530	51.095	-0.224	0.213
-282.516	194.334	0.079	-0.120
-281.501	-153.271	0.439	-0.031
-280.486	-191.804	0.111	-0.001
-279.472	-135.589	-0.332	0.040
-278.457	-200.000	0.016	0.309
-277.443	800.000	-0.025	0.106
-276.428	-200.000	-0.021	-0.177
-275.413	-181.187	0.434	-0.009
-274.399	-168.519	0.289	0.011
-273.384	-37.003	0.354	-0.190
-272.370	-75.440	-0.392	0.140
-271.355	2.104	0.382	0.276
-270.340	-117.212	-0.132	-0.024
-269.326	-200.000	0.042	-0.251
-268.311	-200.000	-0.124	0.000
-267.297	4.903	0.147	-0.108
-266.282	-200.000	0.070	0.443
-265.267	800.000	0.028	0.099
-264.253	385.019	0.069	0.142
-263.238	-145.169	-0.446	-0.041
-262.224	99.247	0.122	-0.142
-261.209	-200.000	-0.003	0.140
-260.195	-129.557	-0.120	0.017
-259.180	165.949	-0.148	-0.209
-258.165	44.218	0.064	-0.059
-257.151	-77.159	-0.190	-0.066
-256.136	200.672	0.110	-0.169
-255.122	16.144	0.047	-0.037
-254.107	550.748	-0.052	-0.124
-253.092	-55.576	-0.243	-0.109
-252.078	-97.018	-0.202	0.053
-251.063	151.796	-0.201	0.274
-250.049	-3.157	-0.331	-0.231
-249.034	137.763	0.081	-0.107
-248.019	-52.546	-0.240	0.111
-247.005	-200.000	0.029	0.402
-245.990	100.791	0.201	0.234
-244.976	-200.000	0.012	0.091
-243.961	22.367	-0.165	0.135
-242.946	-148.806	0.385	-0.031
-241.932	198.755	-0.309	-0.473
-240.917	3.503	-0.226	-0.165
-239.903	-25.149	0.181	0.107
-238.888	314.096	0.091	0.171
-237.873	620.464	0.039	-0.098
-236.859	-95.617	0.199	-0.053
-235.844	-153.810	-0.222	0.015
-234.830	-0.725	0.166	0.118
-233.815	740.151	0.148	0.399
-232.800	154.788	0.219	0.302
-231.786	-105.898	0.531	0.120
-230.771	800.000	-0.017	-0.073
-229.757	-74.311	0.279	0.101
-228.742	-33.841	-0.171	0.094
-227.727	-200.000	0.020	0.155
-226.713	396.402	0.163	0.340
-225.698	-111.760	-0.098	0.020
-224.684	660.058	-0.010	0.026
-223.669	-38.448	-0.193	-0.102
-222.655	387.319	0.095	-0.197
-221.640	-25.755	0.198	0.117
-220.625	-200.000	-0.017	0.175
-219.611	-38.323	-0.074	0.039
-218.596	150.245	0.139	0.188
-217.582	325.350	-0.167	0.319
-216.567	-200.000	0.019	-0.221
-215.552	386.056	0.190	-0.391
-214.538	-132.100	-0.301	0.039
-213.523	85.406	-0.089	0.098
-212.509	323.945	0.011	0.022
-211.494	25.405	-0.066	-0.055
-210.479	-45.493	0.046	0.023
-209.465	406.435	-0.103	0.217
-208.450	156.643	0.299	0.412
-207.436	-157.306	-0.176	0.011
-206.421	800.000	-0.125	-0.421
-205.406	-200.000	0.037	-0.222
-204.392	556.957	-0.030	0.072
-203.377	163.374	-0.040	0.057
-202.363	-86.252	0.093	-0.029
-201.348	469.370	0.131	-0.294
-200.333	429.007	0.017	-0.037
-199.319	800.000	0.059	0.191
-198.304	-200.000	0.008	-0.047
-197.290	-44.972	-0.331	0.165
-196.275	-200.000	0.033	0.231
-195.260	-172.992	0.204	-0.006
-194.246	-200.000	-0.030	-0.242
-193.231	800.000	0.086	-0.245
-192.217	42.532	-0.229	-0.208
-191.202	95.710	-0.127	0.145
-190.187	800.000	0.019	-0.076
-189.173	-16.677	-0.210	-0.133
-188.158	-43.022	-0.231	0.117
-187.144	-200.000	-0.008	0.101
-186.129	-200.000	0.015	0.266
-185.114	14.122	0.293	-0.228
-184.100	800.000	0.054	0.191
-183.085	6.674	-0.053	0.039
-182.071	800.000	-0.091	0.337
-181.056	-66.286	0.165	0.066
-180.042	578.036	0.042	-0.103
-179.027	-12.136	0.147	-0.096
-178.012	507.629	-0.040	-0.092
-176.998	-13.468	-0.051	0.033
-175.983	-144.284	-0.114	-0.011
-174.969	404.670	-0.208	0.438
-173.954	313.743	0.035	-0.065
-172.939	-9.552	-0.045	-0.030
-171.925	-101.711	-0.241	-0.058
-170.910	-77.398	0.298	0.103
-169.896	5.722	0.166	-0.123
-168.881	800.000	-0.025	-0.101
-167.866	44.408	0.412	-0.378
-166.852	20.778	0.290	0.235
-165.837	-133.472	0.216	-0.027
-164.823	14.396	0.240	0.187
-163.808	332.544	0.004	0.008
-162.793	762.164	-0.151	0.410
-161.779	117.239	-0.214	0.262
-160.764	8.208	0.254	-0.190
-159.750	-80.841	-0.312	0.103
-158.735	713.610	-0.164	-0.433
-157.720	152.261	0.155	-0.211
-156.706	800.000	0.048	0.193
-155.691	44.458	-0.293	0.269
-154.677	-133.650	0.167	0.021
-153.662	-72.418	0.279	-0.103
-152.647	26.228	0.157	-0.131
-151.633	-200.000	0.013	-0.075
-150.618	361.364	-0.023	0.045
-149.604	800.000	-0.090	0.305
-148.589	-200.000	-0.064	-0.461
-147.574	40.593	-0.253	-0.227
-146.560	77.680	0.192	0.204
-145.545	-74.730	0.166	0.059
-144.531	108.008	0.107	0.127
-143.516	114.614	-0.134	0.163
-142.502	-200.000	-0.038	0.170
-141.487	612.883	-0.046	-0.115
-140.472	-162.446	-0.206	0.010
-139.458	-92.557	-0.256	-0.072
-138.443	-140.701	0.322	-0.033
-137.429	153.208	0.192	0.262
-136.414	92.140	0.120	0.135
-135.399	260.639	-0.134	0.232
-134.385	-0.874	0.261	0.184
-133.370	343.012	0.056	0.109
-132.356	-167.790	0.330	-0.013
-131.341	18.431	-0.070	-0.055
-130.326	-200.000	0.007	0.073
-129.312	-182.838	0.349	-0.006
-128.297	-172.910	-0.242	-0.007
-127.283	290.348	-0.061	0.111
-126.268	800.000	0.154	0.464
-125.253	-147.131	-0.259	0.022
-124.239	-200.000	0.007	0.349
-123.224	326.176	0.044	-0.084
-122.210	-200.000	0.018	0.244
-121.195	-62.632	0.103	-0.042
