DTS Sentinel unit serial number:	SN413079Multiplexer serial number:	ORYXHardware model number:	OX4-SRSoftware version number:	ORYX F/W v4.00 Oryx Data Collector v3.7.2.0data status	okinstallation	princeton_trtdifferential loss correction	single-endedforward channel	channel 1reverse channel	N/Adate	2019/09/17time	16:10:35forward acquisition time	60.00reverse acquisition time	0.00gamma	496.2192k internal	0.2291k external	0.2291temperature offset calibration	0.9955default loss term (dB/km)	0.3790temperature slope calibration	1.0000multiplexer offset coefficient	1.0000multiplexer slope coefficient	1.0000fibre end	0.00T internal ref (°C)	40.52T ext. ref 1 (°C)	0.38T ext. ref 2 (°C)	38.71length (m)	temperature (°C)	Stokes	anti-Stokes-747.200	-54.509	-0.195	0.091
-746.185	405.652	-0.188	0.406
-745.171	212.077	0.080	0.128
-744.156	-200.000	-0.010	-0.066
-743.142	48.104	-0.227	0.218
-742.127	-200.000	-0.003	0.250
-741.112	-200.000	0.016	-0.133
-740.098	754.646	0.148	-0.410
-739.083	129.844	0.116	0.153
-738.069	-200.000	-0.107	0.578
-737.054	208.818	0.045	-0.072
-736.039	31.715	-0.181	0.160
-735.025	34.761	-0.107	-0.096
-734.010	106.046	-0.060	-0.073
-732.996	-123.139	-0.157	-0.026
-731.981	197.836	-0.180	-0.282
-730.966	21.741	0.138	-0.115
-729.952	800.000	-0.079	0.259
-728.937	-200.000	-0.042	-0.301
-727.923	-163.874	-0.195	0.009
-726.908	-200.000	-0.028	-0.459
-725.894	-44.296	-0.358	-0.184
-724.879	-53.788	-0.080	-0.037
-723.864	370.894	-0.107	-0.223
-722.850	248.605	-0.150	0.260
-721.835	-82.464	-0.088	-0.029
-720.821	-86.916	-0.083	-0.026
-719.806	383.818	-0.153	-0.321
-718.791	92.506	-0.157	-0.181
-717.777	8.876	0.028	-0.021
-716.762	-117.639	-0.341	-0.063
-715.748	-200.000	-0.004	0.017
-714.733	-200.000	0.089	0.409
-713.718	114.325	-0.225	0.280
-712.704	-200.000	0.030	0.323
-711.689	37.045	0.106	0.096
-710.675	494.884	0.082	0.192
-709.660	800.000	0.033	0.131
-708.645	-185.490	0.199	0.003
-707.631	-200.000	0.014	-0.088
-706.616	-200.000	-0.005	-0.262
-705.602	-92.305	0.103	0.030
-704.587	-105.543	0.151	0.035
-703.572	-104.606	0.084	0.020
-702.558	66.431	0.095	0.099
-701.543	-117.542	-0.248	-0.046
-700.529	176.021	0.192	-0.285
-699.514	-195.357	-0.315	-0.002
-698.499	156.212	0.127	-0.179
-697.485	486.809	0.053	-0.123
-696.470	800.000	-0.016	0.049
-695.456	-23.094	-0.300	-0.184
-694.441	-134.388	0.054	0.007
-693.426	148.567	0.129	0.178
-692.412	359.242	0.101	-0.206
-691.397	-68.439	-0.157	-0.062
-690.383	-123.637	-0.151	-0.025
-689.368	549.995	-0.144	0.353
-688.354	-24.239	-0.372	0.227
-687.339	163.839	-0.289	-0.416
-686.324	46.234	-0.119	-0.113
-685.310	-75.443	-0.094	0.034
-684.295	-34.993	0.182	-0.101
-683.281	-124.704	-0.208	0.033
-682.266	11.061	-0.165	-0.129
-681.251	49.796	0.163	0.157
-680.237	174.476	-0.154	0.227
-679.222	-14.508	0.183	0.120
-678.208	-200.000	0.002	0.063
-677.193	-200.000	0.061	-0.328
-676.178	-152.411	0.148	-0.011
-675.164	-200.000	0.024	-0.303
-674.149	-28.065	-0.187	0.110
-673.135	149.722	0.043	0.060
-672.120	789.319	0.092	-0.257
-671.105	65.558	0.191	-0.198
-670.091	93.557	0.210	0.243
-669.076	749.517	0.103	-0.285
-668.062	0.666	-0.068	-0.049
-667.047	86.986	-0.033	-0.038
-666.032	364.731	-0.083	0.171
-665.018	100.101	0.216	0.256
-664.003	118.798	0.096	0.121
-662.989	153.920	-0.129	-0.181
-661.974	84.390	0.119	-0.133
-660.959	-60.453	-0.192	-0.083
-659.945	800.000	-0.053	0.169
-658.930	275.485	0.152	0.275
-657.916	-200.000	0.121	-0.548
-656.901	75.241	-0.163	-0.175
-655.886	-8.864	-0.359	0.246
-654.872	398.270	0.162	-0.347
-653.857	-38.147	0.236	-0.128
-652.843	33.401	0.160	-0.142
-651.828	-200.000	0.007	-0.126
-650.814	266.593	0.090	0.161
-649.799	-135.524	-0.374	0.045
-648.784	248.187	0.137	-0.237
-647.770	195.256	0.066	-0.103
-646.755	800.000	-0.018	-0.071
-645.741	-70.708	0.224	0.086
-644.726	-41.569	-0.200	-0.105
-643.711	53.905	-0.097	-0.095
-642.697	-120.322	-0.161	0.028
-641.682	5.664	-0.061	0.046
-640.668	-78.842	0.055	-0.019
-639.653	-147.465	-0.165	0.014
-638.638	-105.761	0.295	0.068
-637.624	800.000	0.025	0.072
-636.609	203.015	-0.057	-0.089
-635.595	7.844	-0.342	0.262
-634.580	-146.506	0.351	-0.031
-633.565	-127.477	0.076	-0.011
-632.551	-40.523	0.063	-0.033
-631.536	800.000	-0.062	-0.186
-630.522	-103.357	-0.130	-0.031
-629.507	385.314	0.079	-0.165
-628.492	31.007	-0.089	0.078
-627.478	800.000	-0.060	0.266
-626.463	-200.000	0.022	0.244
-625.449	-150.334	-0.172	-0.014
-624.434	-23.613	-0.355	0.217
-623.419	-86.581	0.207	0.065
-622.405	800.000	0.064	-0.213
-621.390	-200.000	0.002	0.023
-620.376	290.568	-0.092	0.170
-619.361	-95.184	0.276	-0.076
-618.346	68.548	-0.256	-0.268
-617.332	96.638	-0.119	0.139
-616.317	420.273	0.173	-0.378
-615.303	105.560	-0.320	-0.385
-614.288	89.342	-0.233	-0.264
-613.273	-1.460	0.103	-0.074
-612.259	169.079	0.023	-0.033
-611.244	-23.775	-0.096	0.059
-610.230	-200.000	0.020	0.133
-609.215	-79.334	0.160	0.055
-608.201	-34.152	0.155	-0.087
-607.186	-44.284	0.292	-0.149
-606.171	72.575	-0.220	0.234
-605.157	273.097	0.040	0.072
-604.142	-82.386	0.279	0.092
-603.128	192.263	0.156	-0.239
-602.113	-123.456	0.325	0.053
-601.098	42.269	0.123	0.114
-600.084	-164.211	0.133	-0.006
-599.069	-107.775	0.157	0.035
-598.055	265.244	-0.064	-0.114
-597.040	-127.760	-0.196	-0.029
-596.025	261.842	-0.011	-0.020
-595.011	-200.000	0.005	-0.025
-593.996	-74.252	0.258	0.095
-592.982	-18.239	0.248	0.158
-591.967	38.887	-0.219	0.199
-590.952	-2.932	0.023	0.016
-589.938	-90.340	0.105	-0.031
-588.923	-26.327	-0.328	0.196
-587.909	-33.557	-0.255	0.143
-586.894	605.544	-0.125	0.318
-585.879	-56.459	-0.245	0.111
-584.865	800.000	-0.099	0.342
-583.850	800.000	-0.056	0.158
-582.836	-42.852	0.152	0.079
-581.821	-5.419	0.188	-0.131
-580.806	800.000	0.077	-0.263
-579.792	-85.357	-0.260	-0.083
-578.777	-200.000	-0.041	-0.186
-577.763	-21.129	-0.086	0.054
-576.748	-131.343	0.325	-0.044
-575.733	172.334	0.085	0.124
-574.719	800.000	0.117	-0.346
-573.704	-64.747	-0.184	-0.076
-572.690	-20.566	-0.335	0.209
-571.675	-29.152	0.039	0.023
-570.661	-200.000	-0.031	0.185
-569.646	-35.100	-0.181	0.100
-568.631	-200.000	-0.035	-0.212
-567.617	-67.465	-0.119	-0.047
-566.602	-200.000	0.129	0.000
-565.588	-99.700	-0.232	0.059
-564.573	716.522	-0.062	0.168
-563.558	800.000	0.044	-0.181
-562.544	-75.658	-0.314	-0.113
-561.529	97.583	-0.229	0.267
-560.515	-46.305	-0.135	0.068
-559.500	230.033	-0.164	-0.272
-558.485	-200.000	-0.020	-0.268
-557.471	265.577	0.160	0.283
-556.456	-200.000	-0.048	-0.225
-555.442	-200.000	0.014	0.351
-554.427	106.135	0.207	-0.249
-553.412	800.000	-0.030	-0.112
-552.398	82.852	-0.108	-0.119
-551.383	-200.000	0.015	0.211
-550.369	-104.882	-0.206	-0.048
-549.354	452.660	0.172	-0.387
-548.339	-200.000	0.057	-0.379
-547.325	-129.524	-0.138	-0.019
-546.310	-200.000	0.035	-0.233
-545.296	-99.874	0.324	-0.082
-544.281	-88.389	-0.303	-0.092
-543.266	589.595	-0.119	0.298
-542.252	800.000	0.082	0.236
-541.237	800.000	0.081	0.232
-540.223	800.000	0.101	0.436
-539.208	-200.000	-0.002	0.056
-538.193	-77.783	0.186	-0.065
-537.179	279.440	0.126	-0.229
-536.164	116.807	0.172	-0.214
-535.150	12.612	-0.174	0.136
-534.135	414.730	0.052	-0.113
-533.121	35.376	0.056	-0.050
-532.106	100.585	0.070	-0.082
-531.091	-200.000	0.008	0.116
-530.077	239.799	-0.196	-0.332
-529.062	67.797	-0.206	-0.213
-528.048	185.344	-0.171	-0.257
-527.033	-113.733	0.201	0.040
-526.018	-200.000	-0.026	-0.215
-525.004	0.215	-0.147	-0.106
-523.989	113.582	0.216	-0.266
-522.975	800.000	-0.021	-0.065
-521.960	-127.160	0.233	-0.035
-520.945	209.484	-0.110	-0.175
-519.931	254.106	-0.203	-0.352
-518.916	-157.058	0.220	0.014
-517.902	-9.476	0.082	0.056
-516.887	-50.552	0.202	-0.096
-515.872	800.000	0.085	-0.285
-514.858	-200.000	-0.065	0.404
-513.843	116.615	0.116	-0.145
-512.829	800.000	0.037	0.147
-511.814	-200.000	-0.099	-0.000
-510.799	244.524	-0.057	-0.098
-509.785	-113.379	0.529	0.105
-508.770	-107.936	0.363	0.080
-507.756	-162.902	0.316	-0.016
-506.741	-54.292	-0.316	-0.145
-505.726	-54.821	0.213	-0.098
-504.712	-129.642	0.362	-0.051
-503.697	-115.289	0.091	-0.017
-502.683	-12.423	-0.240	-0.159
-501.668	-157.657	-0.230	0.014
-500.653	-51.224	0.139	0.066
-499.639	507.851	0.078	-0.183
-498.624	85.803	-0.110	0.123
-497.610	354.553	0.031	-0.062
-496.595	-51.535	0.115	-0.055
-495.581	351.565	0.098	-0.197
-494.566	-35.487	0.032	-0.018
-493.551	478.697	-0.085	0.196
-492.537	54.190	-0.101	0.099
-491.522	350.450	0.039	-0.078
-490.508	-200.000	0.093	-0.000
-489.493	-26.594	-0.045	-0.026
-488.478	-10.012	-0.283	-0.191
-487.464	102.412	0.034	-0.040
-486.449	-62.910	-0.332	-0.139
-485.435	-20.027	0.147	0.092
-484.420	-101.226	0.102	0.025
-483.405	-39.087	0.019	-0.010
-482.391	-65.681	-0.274	0.111
-481.376	620.603	0.039	0.101
-480.362	-17.221	0.273	0.174
-479.347	658.656	0.089	-0.232
-478.332	800.000	-0.043	-0.152
-477.318	614.610	0.025	0.063
-476.303	-200.000	0.042	-0.230
-475.289	-27.624	-0.124	-0.073
-474.274	208.685	0.181	0.287
-473.259	-60.249	-0.311	-0.134
-472.245	-121.809	-0.285	0.048
-471.230	800.000	0.092	-0.315
-470.216	135.228	-0.101	-0.133
-469.201	-133.691	-0.251	0.032
-468.186	307.394	0.176	-0.333
-467.172	-95.045	-0.161	-0.044
-466.157	485.753	0.179	-0.413
-465.143	-200.000	0.028	0.369
-464.128	800.000	0.033	-0.119
-463.113	-63.340	0.314	0.131
-462.099	333.384	-0.075	0.146
-461.084	-200.000	0.036	0.214
-460.070	-0.757	-0.276	-0.198
-459.055	384.053	-0.104	-0.218
-458.040	-27.647	0.135	0.080
-457.026	195.057	-0.245	0.377
-456.011	281.718	0.047	0.086
-454.997	-17.394	0.195	-0.124
-453.982	-200.000	0.001	-0.324
-452.968	177.498	-0.086	-0.126
-451.953	36.338	0.243	0.217
-450.938	193.157	0.043	-0.065
-449.924	-200.000	-0.016	-0.448
-448.909	-97.598	-0.307	0.081
-447.895	-159.944	-0.139	0.008
-446.880	123.101	-0.239	0.303
-445.865	-68.397	0.278	0.109
-444.851	627.189	0.151	-0.387
-443.836	9.418	-0.033	-0.025
-442.822	299.878	-0.144	-0.269
-441.807	800.000	-0.078	0.231
-440.792	475.264	0.089	0.202
-439.778	-200.000	-0.006	0.250
-438.763	-17.010	0.255	0.163
-437.749	28.671	-0.119	-0.102
-436.734	198.742	-0.231	-0.357
-435.719	-200.000	0.049	0.378
-434.705	-13.648	-0.367	-0.240
-433.690	-130.348	0.403	-0.055
-432.676	57.571	0.079	0.078
-431.661	9.440	0.220	0.169
-430.646	800.000	-0.081	-0.269
-429.632	211.214	0.239	-0.381
-428.617	368.926	0.090	0.184
-427.603	-200.000	-0.019	0.285
-426.588	189.369	0.106	-0.161
-425.573	-70.523	-0.234	0.090
-424.559	315.776	0.029	0.055
-423.544	-126.428	0.139	0.021
-422.530	60.668	0.209	0.209
-421.515	800.000	0.018	-0.054
-420.500	403.026	-0.173	0.368
-419.486	0.515	-0.274	0.198
-418.471	387.113	0.115	-0.240
-417.457	11.006	-0.208	0.161
-416.442	101.609	0.072	-0.084
-415.428	161.366	0.148	-0.210
-414.413	-113.653	-0.297	0.059
-413.398	-137.345	0.189	-0.022
-412.384	385.333	0.046	0.095
-411.369	5.950	0.169	0.127
-410.355	7.577	-0.081	-0.061
-409.340	-37.270	-0.422	0.228
-408.325	-125.133	-0.061	0.009
-407.311	78.099	0.154	0.166
-406.296	-167.000	-0.075	0.003
-405.282	108.386	0.292	0.352
-404.267	331.829	-0.177	-0.344
-403.252	188.390	0.042	0.063
-402.238	-200.000	0.016	0.118
-401.223	647.758	0.099	-0.256
-400.209	400.381	-0.087	0.184
-399.194	-122.450	-0.040	-0.007
-398.179	19.302	0.213	-0.173
-397.165	-104.950	0.097	-0.022
-396.150	-1.378	-0.132	0.094
-395.136	-76.699	-0.332	-0.118
-394.121	-4.376	-0.292	-0.204
-393.106	-56.885	0.098	-0.044
-392.092	-110.165	-0.280	0.059
-391.077	-96.326	0.569	-0.152
-390.063	-97.068	0.233	-0.062
-389.048	-29.351	0.182	-0.105
-388.033	800.000	-0.012	0.045
-387.019	-200.000	0.000	0.252
-386.004	-78.500	-0.217	-0.075
-384.990	195.139	-0.054	0.083
-383.975	-120.576	0.265	-0.045
-382.960	-178.056	-0.073	0.002
-381.946	429.307	-0.181	0.395
-380.931	-153.407	-0.368	-0.026
-379.917	-200.000	0.014	-0.434
-378.902	-200.000	-0.021	0.178
-377.888	-63.566	-0.270	-0.112
-376.873	672.530	-0.056	0.147
-375.858	-61.488	-0.284	0.120
-374.844	-200.000	-0.038	0.254
-373.829	-60.697	-0.178	0.076
-372.815	650.876	0.093	-0.241
-371.800	0.178	0.200	0.144
-370.785	-139.890	0.103	-0.011
-369.771	67.155	-0.076	0.079
-368.756	291.206	-0.102	0.187
-367.742	-200.000	-0.025	0.369
-366.727	683.424	0.018	0.047
-365.712	-200.000	-0.033	0.251
-364.698	31.443	-0.172	-0.149
-363.683	52.762	0.192	0.185
-362.669	221.975	0.085	0.139
-361.654	103.597	0.081	-0.096
-360.639	10.237	0.167	-0.128
-359.625	-129.940	-0.344	-0.048
-358.610	62.374	-0.076	-0.077
-357.596	6.446	-0.127	0.095
-356.581	71.171	0.051	-0.053
-355.566	175.268	0.257	0.376
-354.552	85.779	0.152	-0.169
-353.537	-165.543	-0.145	0.006
-352.523	-10.605	0.146	0.097
-351.508	-38.605	0.183	-0.097
-350.493	5.592	-0.086	-0.064
-349.479	763.900	0.046	-0.125
-348.464	56.976	-0.200	-0.196
-347.450	-127.522	0.310	-0.045
-346.435	-43.764	-0.284	-0.144
-345.420	243.674	-0.174	-0.294
-344.406	35.237	-0.084	0.074
-343.391	-144.897	0.170	0.016
-342.377	-200.000	0.029	-0.144
-341.362	338.776	-0.100	-0.197
-340.348	800.000	-0.014	-0.050
-339.333	-3.882	0.178	-0.124
-338.318	-200.000	-0.016	-0.089
-337.304	36.189	0.196	0.174
-336.289	800.000	-0.067	0.247
-335.275	-200.000	-0.048	0.262
-334.260	-200.000	-0.066	0.331
-333.245	-99.131	-0.225	0.057
-332.231	-200.000	-0.058	0.296
-331.216	-80.758	0.055	0.019
-330.202	59.796	-0.255	-0.253
-329.187	800.000	0.076	0.288
-328.172	75.770	0.381	0.406
-327.158	-200.000	-0.006	0.304
-326.143	-197.635	-0.020	0.000
-325.129	-92.094	0.137	0.039
-324.114	272.330	-0.137	-0.244
-323.099	-148.701	0.368	0.030
-322.085	-101.934	-0.166	0.040
-321.070	-200.000	0.020	-0.210
-320.056	134.740	0.140	-0.183
-319.041	-104.006	0.344	0.081
-318.026	-109.139	-0.185	-0.040
-317.012	-128.057	-0.242	0.035
-315.997	-200.000	0.288	0.000
-314.983	800.000	0.040	0.157
-313.968	-111.806	-0.309	-0.063
-312.953	273.288	0.053	0.095
-311.939	-200.000	0.016	-0.449
-310.924	-200.000	0.056	0.266
-309.910	-85.212	-0.196	0.062
-308.895	-122.302	-0.035	-0.006
-307.880	-153.369	-0.263	-0.018
-306.866	-64.674	0.233	-0.095
-305.851	-153.936	-0.179	0.012
-304.837	129.750	-0.282	0.362
-303.822	22.386	0.197	0.162
-302.807	800.000	-0.041	0.126
-301.793	56.347	-0.092	0.090
-300.778	95.256	0.114	-0.130
-299.764	10.388	0.252	-0.193
-298.749	800.000	0.058	0.237
-297.735	-48.676	-0.206	-0.100
-296.720	800.000	0.069	-0.198
-295.705	11.413	-0.180	-0.138
-294.691	-200.000	0.011	-0.389
-293.676	-200.000	-0.099	-0.449
-292.662	-140.003	0.405	0.043
-291.647	-178.010	-0.359	0.009
-290.632	-200.000	-0.066	0.564
-289.618	202.817	0.144	0.224
-288.603	800.000	0.079	0.304
-287.589	740.282	0.056	0.153
-286.574	-200.000	-0.012	-0.119
-285.559	53.139	-0.154	-0.148
-284.545	800.000	0.014	0.047
-283.530	28.203	-0.087	-0.074
-282.516	-53.948	-0.210	0.096
-281.501	-200.000	-0.027	0.351
-280.486	-154.101	0.135	0.009
-279.472	-97.895	-0.211	0.055
-278.457	23.814	-0.262	-0.217
-277.443	-200.000	0.072	0.351
-276.428	362.396	0.118	-0.238
-275.413	-33.105	0.156	0.087
-274.399	-200.000	-0.026	0.267
-273.384	-155.030	-0.245	0.016
-272.370	387.490	0.127	0.264
-271.355	-200.000	-0.024	0.124
-270.340	195.124	0.137	0.209
-269.326	800.000	0.033	0.140
-268.311	11.510	-0.049	0.038
-267.297	-104.065	0.221	-0.052
-266.282	377.224	-0.077	0.158
-265.267	-73.384	0.352	-0.129
-264.253	-13.955	-0.070	-0.045
-263.238	253.780	0.257	-0.441
-262.224	177.138	0.097	-0.141
-261.209	-106.276	0.344	-0.077
-260.195	15.083	0.172	0.135
-259.180	250.695	-0.341	-0.582
-258.165	-118.221	0.240	0.043
-257.151	197.573	0.145	-0.223
-256.136	-200.000	0.050	-0.293
-255.122	-95.168	0.449	-0.122
-254.107	800.000	-0.091	0.343
-253.092	38.365	0.027	-0.025
-252.078	-58.523	-0.208	0.091
-251.063	-63.379	-0.194	-0.080
-250.049	38.920	0.164	0.147
-249.034	17.270	0.074	-0.059
-248.019	95.809	0.031	-0.035
-247.005	800.000	-0.172	-0.481
-245.990	-71.757	0.093	-0.035
-244.976	800.000	0.058	0.185
-243.961	800.000	-0.039	0.139
-242.946	800.000	0.074	0.249
-241.932	64.033	-0.072	0.073
-240.917	219.573	0.134	-0.215
-239.903	-163.786	0.286	0.013
-238.888	47.648	-0.156	0.146
-237.873	316.390	-0.094	-0.178
-236.859	247.222	0.134	-0.227
-235.844	321.625	-0.196	0.374
-234.830	8.945	-0.165	0.125
-233.815	432.300	-0.153	0.332
-232.800	-92.334	-0.207	0.059
-231.786	320.191	-0.152	-0.290
-230.771	434.881	0.157	0.343
-229.757	139.629	-0.049	0.065
-228.742	-99.417	-0.149	-0.038
-227.727	-32.854	0.449	0.250
-226.713	-200.000	0.026	0.142
-225.698	-161.890	0.251	0.013
-224.684	-200.000	-0.017	0.171
-223.669	-114.798	0.270	-0.052
-222.655	-200.000	-0.067	-0.326
-221.640	-200.000	-0.026	0.116
-220.625	123.973	0.099	0.125
-219.611	800.000	-0.107	-0.303
-218.596	-14.840	-0.141	-0.091
-217.582	-129.804	-0.347	0.048
-216.567	-159.251	0.085	-0.005
-215.552	360.159	0.176	0.353
-214.538	800.000	0.139	0.421
-213.523	-100.393	-0.197	-0.049
-212.509	-162.430	0.197	-0.010
-211.494	41.326	-0.341	-0.310
-210.479	-200.000	0.001	-0.129
-209.465	-139.861	-0.285	0.030
-208.450	-156.186	-0.246	0.016
-207.436	38.951	-0.307	-0.275
-206.421	330.898	0.031	0.060
-205.406	800.000	-0.042	0.130
-204.392	202.798	-0.154	0.239
-203.377	-30.044	-0.124	0.071
-202.363	245.334	-0.079	-0.133
-201.348	-96.593	0.146	0.039
-200.333	268.569	0.138	0.242
-199.319	-67.697	-0.152	0.060
-198.304	-200.000	0.001	-0.129
-197.290	-120.010	-0.258	0.044
-196.275	38.765	0.314	0.281
-195.260	800.000	0.075	-0.269
-194.246	-148.456	0.047	-0.004
-193.231	-99.715	0.357	0.090
-192.217	248.145	0.252	0.426
-191.202	72.357	0.336	-0.351
-190.187	419.902	-0.016	-0.033
-189.173	800.000	0.031	-0.104
-188.158	-68.959	0.321	0.124
-187.144	181.115	0.076	0.112
-186.129	118.370	0.197	-0.243
-185.114	-19.995	-0.069	-0.043
-184.100	-121.264	-0.091	-0.015
-183.085	310.721	-0.214	-0.401
-182.071	-8.088	0.132	-0.089
-181.056	-90.534	0.303	0.088
-180.042	21.170	0.197	0.161
-179.027	72.100	-0.097	0.101
-178.012	-75.122	0.215	-0.077
-176.998	129.021	0.062	0.080
-175.983	-18.275	-0.184	0.115
-174.969	70.644	-0.176	0.182
-173.954	34.339	0.120	0.104
-172.939	-104.475	-0.236	-0.055
-171.925	800.000	-0.059	-0.178
-170.910	369.605	0.099	-0.201
-169.896	-159.056	-0.458	0.026
-168.881	-200.000	-0.014	0.098
-167.866	-141.921	0.034	-0.003
-166.852	-126.019	-0.310	0.047
-165.837	233.393	0.143	-0.236
-164.823	-4.472	0.040	-0.028
-163.808	-39.127	0.078	-0.041
-162.793	-200.000	0.014	-0.095
-161.779	111.651	-0.213	-0.257
-160.764	131.500	0.128	0.165
-159.750	129.340	-0.309	0.394
-158.735	-54.526	-0.252	-0.114
-157.720	-200.000	0.008	0.224
-156.706	-157.594	-0.251	-0.015
-155.691	25.976	-0.164	-0.137
-154.677	-76.403	0.253	-0.089
-153.662	-200.000	0.046	-0.315
-152.647	10.380	0.435	0.331
-151.633	-39.147	0.188	-0.099
-150.618	-115.127	0.211	-0.040
-149.604	-65.391	0.370	-0.149
-148.589	272.297	0.092	-0.162
-147.574	305.597	0.076	-0.141
-146.560	4.540	0.122	-0.089
-145.545	688.783	-0.022	0.057
-144.531	-18.725	-0.116	0.072
-143.516	-40.742	0.477	-0.247
-142.502	36.558	-0.134	-0.118
-141.487	-37.727	-0.208	0.111
-140.472	129.379	-0.181	0.231
-139.458	-64.572	0.026	0.011
-138.443	800.000	-0.062	-0.204
-137.429	174.821	-0.048	-0.069
-136.414	132.878	-0.241	0.311
-135.399	176.598	0.106	-0.154
-134.385	32.547	-0.095	-0.082
-133.370	-129.323	-0.299	0.042
-132.356	162.213	-0.198	0.278
-131.341	-200.000	-0.003	0.057
-130.326	800.000	0.032	-0.092
-129.312	113.732	-0.061	-0.074
-128.297	-200.000	0.001	0.012
-127.283	-178.257	0.214	0.005
-126.268	349.201	0.026	-0.052
-125.253	446.196	-0.124	-0.272
-124.239	-24.340	0.128	-0.076
-123.224	100.329	0.081	0.094
-122.210	800.000	0.162	0.527
-121.195	-148.673	0.223	-0.018
