DTS Sentinel unit serial number:	SN413079Multiplexer serial number:	ORYXHardware model number:	OX4-SRSoftware version number:	ORYX F/W v4.00 Oryx Data Collector v3.7.2.0data status	okinstallation	princeton_trtdifferential loss correction	single-endedforward channel	channel 1reverse channel	N/Adate	2019/09/14time	15:30:35forward acquisition time	60.00reverse acquisition time	0.00gamma	496.2192k internal	0.2295k external	0.2295temperature offset calibration	1.0079default loss term (dB/km)	0.3790temperature slope calibration	1.0000multiplexer offset coefficient	1.0000multiplexer slope coefficient	1.0000fibre end	0.00T internal ref (°C)	38.91T ext. ref 1 (°C)	5.14T ext. ref 2 (°C)	33.39length (m)	temperature (°C)	Stokes	anti-Stokes-747.200	-180.926	0.152	-0.003
-746.185	-78.720	0.389	-0.136
-745.171	-200.000	-0.084	0.430
-744.156	-4.295	0.328	0.232
-743.142	-60.440	0.076	-0.033
-742.127	-123.008	0.201	0.033
-741.112	72.722	-0.167	-0.178
-740.098	-134.633	-0.330	-0.041
-739.083	800.000	-0.084	-0.287
-738.069	-122.766	-0.059	-0.010
-737.054	-200.000	-0.273	0.001
-736.039	17.549	-0.102	0.083
-735.025	-58.610	0.154	0.068
-734.010	-187.009	-0.176	0.002
-732.996	161.809	-0.171	-0.245
-731.981	-200.000	-0.012	-0.074
-730.966	-157.501	0.058	0.004
-729.952	334.879	0.037	-0.073
-728.937	800.000	-0.093	-0.277
-727.923	800.000	-0.130	-0.496
-726.908	800.000	0.024	-0.101
-725.894	-148.033	-0.100	-0.008
-724.879	-127.807	-0.443	-0.065
-723.864	30.596	0.212	0.185
-722.850	-200.000	0.011	0.081
-721.835	-69.253	-0.174	-0.068
-720.821	-74.729	-0.166	-0.061
-719.806	-136.732	0.172	0.020
-718.791	31.385	0.376	-0.330
-717.777	263.925	-0.124	-0.221
-716.762	-200.000	0.015	-0.103
-715.748	90.038	0.184	0.211
-714.733	-20.682	0.252	-0.158
-713.718	156.231	0.058	-0.081
-712.704	-149.345	-0.301	-0.024
-711.689	-31.989	0.101	0.058
-710.675	145.793	-0.169	-0.232
-709.660	-65.186	0.214	-0.088
-708.645	-84.631	0.037	-0.012
-707.631	-200.000	-0.023	-0.292
-706.616	313.902	-0.097	-0.187
-705.602	155.299	-0.243	-0.341
-704.587	231.449	0.028	0.047
-703.572	12.240	0.106	0.083
-702.558	53.783	0.037	-0.037
-701.543	-160.220	-0.206	0.011
-700.529	59.983	0.159	0.160
-699.514	-52.423	0.106	0.050
-698.499	4.278	-0.049	0.037
-697.485	-136.764	0.171	-0.020
-696.470	-95.498	0.292	0.080
-695.456	647.054	0.087	-0.228
-694.441	107.793	-0.223	0.271
-693.426	-96.987	0.147	-0.039
-692.412	-55.283	0.337	0.154
-691.397	-200.000	0.025	0.261
-690.383	367.911	-0.017	0.035
-689.368	-200.000	0.075	-0.424
-688.354	-200.000	0.030	-0.204
-687.339	82.381	0.345	0.382
-686.324	116.019	0.016	0.020
-685.310	4.308	-0.019	0.015
-684.295	-200.000	0.002	-0.202
-683.281	-200.000	0.059	-0.457
-682.266	789.855	0.063	-0.176
-681.251	149.905	0.164	-0.227
-680.237	584.090	0.138	0.345
-679.222	57.833	0.225	0.224
-678.208	136.635	0.075	0.100
-677.193	-200.000	0.024	-0.241
-676.178	800.000	0.031	-0.131
-675.164	-91.414	0.166	-0.048
-674.149	88.148	0.164	-0.186
-673.135	344.695	0.068	0.135
-672.120	369.793	-0.113	-0.233
-671.105	-200.000	0.020	0.132
-670.091	-200.000	-0.004	-0.113
-669.076	-171.225	-0.161	-0.006
-668.062	5.040	-0.080	0.060
-667.047	-95.938	-0.136	0.037
-666.032	-200.000	0.057	0.436
-665.018	-196.852	0.239	0.002
-664.003	-135.892	-0.220	-0.026
-662.989	800.000	0.065	-0.226
-661.974	-118.862	-0.192	-0.034
-660.959	-128.206	-0.193	0.028
-659.945	3.755	-0.260	-0.194
-658.930	-125.808	0.326	-0.050
-657.916	126.006	-0.077	0.100
-656.901	458.084	0.041	-0.092
-655.886	-200.000	0.037	-0.298
-654.872	-142.583	-0.169	0.017
-653.857	323.071	-0.074	-0.143
-652.843	-60.765	0.152	-0.066
-651.828	484.927	0.126	0.293
-650.814	764.213	-0.130	-0.359
-649.799	-27.499	0.177	-0.105
-648.784	-168.554	0.303	-0.012
-647.770	132.506	-0.053	-0.070
-646.755	58.306	0.101	-0.101
-645.741	37.120	0.160	-0.144
-644.726	8.538	-0.256	-0.196
-643.711	-83.627	0.245	0.080
-642.697	-103.637	0.181	0.043
-641.682	135.216	-0.186	-0.246
-640.668	-200.000	0.006	-0.211
-639.653	800.000	0.035	-0.109
-638.638	32.719	0.137	0.121
-637.624	-200.000	0.015	-0.272
-636.609	-121.708	0.102	-0.017
-635.595	-200.000	0.283	0.000
-634.580	293.242	0.147	0.273
-633.565	115.421	-0.096	0.120
-632.551	90.514	-0.295	-0.336
-631.536	-188.143	-0.045	0.001
-630.522	-200.000	0.017	-0.146
-629.507	223.514	-0.123	-0.203
-628.492	107.035	-0.294	0.355
-627.478	548.062	-0.080	0.195
-626.463	-68.309	0.021	-0.008
-625.449	162.205	-0.028	-0.040
-624.434	170.870	-0.034	0.049
-623.419	631.977	0.012	-0.030
-622.405	800.000	0.171	-0.483
-621.390	-200.000	0.008	-0.063
-620.376	800.000	0.048	-0.137
-619.361	-97.686	0.102	-0.027
-618.346	397.028	0.086	-0.183
-617.332	133.621	0.239	0.314
-616.317	-200.000	-0.009	0.237
-615.303	-200.000	0.001	0.064
-614.288	-114.173	0.223	-0.044
-613.273	344.926	0.054	0.107
-612.259	-78.875	-0.176	-0.061
-611.244	61.761	0.138	0.140
-610.230	800.000	0.033	-0.131
-609.215	-73.300	0.250	0.093
-608.201	172.359	0.032	-0.047
-607.186	122.146	-0.162	-0.206
-606.171	-58.160	0.468	-0.207
-605.157	800.000	-0.102	-0.414
-604.142	-130.415	-0.236	-0.033
-603.128	-86.456	0.255	-0.080
-602.113	82.076	-0.192	0.212
-601.098	-88.434	0.295	0.090
-600.084	764.631	0.082	0.226
-599.069	2.068	0.067	-0.049
-598.055	-141.484	0.266	-0.027
-597.040	-200.000	0.036	0.301
-596.025	7.379	0.069	0.052
-595.011	-200.000	0.012	0.055
-593.996	-200.000	-0.033	0.397
-592.982	-68.427	-0.077	0.030
-591.967	-17.901	-0.599	0.381
-590.952	425.306	-0.238	0.521
-589.938	800.000	0.080	-0.258
-588.923	-115.523	0.254	-0.049
-587.909	-6.675	0.167	-0.116
-586.894	-67.427	0.417	-0.167
-585.879	4.183	0.165	0.123
-584.865	-98.751	-0.071	0.018
-583.850	-194.280	0.212	0.002
-582.836	-136.683	-0.114	-0.013
-581.821	63.711	0.066	-0.068
-580.806	-200.000	0.013	0.251
-579.792	800.000	-0.033	0.127
-578.777	-200.000	0.259	-0.001
-577.763	410.849	-0.117	0.253
-576.748	-200.000	-0.049	0.237
-575.733	36.631	-0.116	-0.104
-574.719	113.778	0.081	0.100
-573.704	-152.749	0.227	-0.016
-572.690	-7.654	0.343	-0.236
-571.675	-103.658	-0.365	0.087
-570.661	-9.794	0.101	-0.068
-569.646	-200.000	-0.041	0.187
-568.631	317.024	-0.159	-0.306
-567.617	709.082	0.026	-0.070
-566.602	-112.826	-0.417	-0.084
-565.588	-55.003	0.229	-0.105
-564.573	43.737	0.057	0.053
-563.558	105.288	-0.150	-0.179
-562.544	-159.507	-0.050	0.003
-561.529	37.391	0.248	0.223
-560.515	281.769	0.258	-0.469
-559.500	-200.000	0.003	-0.106
-558.485	-101.568	-0.162	-0.040
-557.471	725.498	0.121	-0.328
-556.456	-22.961	0.216	-0.132
-555.442	-88.041	-0.373	0.114
-554.427	-175.926	-0.192	0.005
-553.412	-200.000	0.061	-0.278
-552.398	437.309	0.132	-0.292
-551.383	-26.136	-0.108	-0.065
-550.369	-200.000	-0.017	-0.260
-549.354	315.117	-0.034	0.064
-548.339	800.000	0.144	0.427
-547.325	-82.724	-0.083	0.027
-546.310	-1.535	-0.332	-0.238
-545.296	26.723	-0.356	-0.302
-544.281	60.307	-0.046	-0.047
-543.266	-92.476	-0.117	0.034
-542.252	-93.771	-0.398	-0.111
-541.237	181.673	0.071	-0.107
-540.223	73.110	0.352	0.373
-539.208	177.684	0.238	0.352
-538.193	-200.000	-0.013	0.299
-537.179	-80.148	0.066	-0.022
-536.164	-200.000	0.043	0.204
-535.150	-200.000	-0.005	0.046
-534.135	-36.619	-0.499	0.272
-533.121	800.000	-0.053	-0.156
-532.106	781.161	-0.086	0.238
-531.091	800.000	-0.031	0.135
-530.077	-104.201	-0.183	0.043
-529.062	10.212	-0.247	0.190
-528.048	48.964	0.249	0.237
-527.033	301.919	0.054	0.101
-526.018	800.000	-0.099	-0.278
-525.004	-200.000	0.030	0.212
-523.989	-125.167	0.069	0.011
-522.975	800.000	0.032	-0.103
-521.960	56.328	-0.204	-0.201
-520.945	-39.749	0.237	-0.126
-519.931	-38.337	-0.217	-0.117
-518.916	-15.487	-0.242	0.157
-517.902	1.524	0.145	0.105
-516.887	-150.003	0.185	-0.015
-515.872	-126.324	0.179	0.027
-514.858	216.978	-0.078	0.126
-513.843	169.322	0.029	-0.042
-512.829	-13.650	-0.190	0.124
-511.814	471.397	0.170	0.388
-510.799	81.068	0.132	-0.144
-509.785	505.434	0.039	0.091
-508.770	-53.817	0.087	0.040
-507.756	69.814	0.221	-0.231
-506.741	800.000	0.066	-0.225
-505.726	21.179	-0.152	0.125
-504.712	31.597	0.102	0.089
-503.697	-77.436	0.139	-0.049
-502.683	23.848	0.158	-0.132
-501.668	-200.000	0.003	0.180
-500.653	29.737	-0.206	-0.178
-499.639	289.747	-0.059	-0.109
-498.624	496.371	0.024	-0.057
-497.610	-200.000	0.015	0.231
-496.595	375.638	0.056	0.116
-495.581	292.467	-0.030	-0.054
-494.566	-119.938	-0.295	0.051
-493.551	800.000	-0.049	-0.148
-492.537	800.000	-0.138	0.410
-491.522	-188.621	0.096	-0.001
-490.508	63.297	0.261	-0.265
-489.493	50.130	0.244	0.234
-488.478	-161.054	-0.219	-0.012
-487.464	-126.886	0.171	0.026
-486.449	-73.555	-0.335	-0.123
-485.435	45.772	-0.060	-0.056
-484.420	-139.014	0.213	0.023
-483.405	-151.186	0.354	-0.027
-482.391	46.230	0.232	0.217
-481.376	114.834	0.136	0.167
-480.362	176.176	-0.186	-0.274
-479.347	24.353	-0.309	-0.258
-478.332	-143.677	-0.323	0.031
-477.318	278.670	-0.080	0.145
-476.303	326.745	0.044	-0.085
-475.289	-163.826	-0.113	-0.005
-474.274	-200.000	-0.028	-0.203
-473.259	800.000	-0.066	-0.223
-472.245	-7.627	0.211	-0.144
-471.230	-160.109	-0.191	0.011
-470.216	100.105	-0.174	0.204
-469.201	454.797	-0.023	-0.051
-468.186	60.293	-0.115	-0.115
-467.172	610.040	0.048	-0.120
-466.157	-200.000	0.003	-0.017
-465.143	41.874	-0.172	0.158
-464.128	-200.000	-0.011	0.157
-463.113	236.736	-0.049	-0.082
-462.099	686.114	-0.005	-0.014
-461.084	-200.000	-0.380	-0.001
-460.070	-58.532	0.139	-0.061
-459.055	-78.039	0.257	-0.089
-458.040	-200.000	0.009	0.059
-457.026	-76.764	-0.272	0.096
-456.011	-109.337	0.218	-0.047
-454.997	-80.642	-0.069	-0.023
-453.982	800.000	0.122	-0.404
-452.968	-101.833	-0.113	-0.028
-451.953	51.403	-0.241	0.231
-450.938	-32.775	0.046	0.026
-449.924	-200.000	0.032	-0.407
-448.909	12.257	0.100	0.078
-447.895	-44.092	-0.287	-0.146
-446.880	91.080	0.134	0.152
-445.865	-21.879	0.364	-0.224
-444.851	-91.092	0.233	0.068
-443.836	-140.937	0.126	-0.013
-442.822	599.165	-0.081	0.203
-441.807	44.392	0.392	-0.364
-440.792	-107.563	-0.099	0.022
-439.778	0.941	0.267	-0.194
-438.763	-36.950	0.216	0.117
-437.749	7.506	-0.370	-0.279
-436.734	112.533	0.090	-0.110
-435.719	12.966	-0.168	0.131
-434.705	800.000	-0.030	0.112
-433.690	-166.453	-0.390	-0.017
-432.676	-184.012	0.447	0.008
-431.661	-200.000	-0.025	0.134
-430.646	-200.000	0.033	-0.164
-429.632	-200.000	-0.009	-0.234
-428.617	-53.633	0.208	0.096
-427.603	-94.167	0.042	0.012
-426.588	-89.116	-0.281	-0.084
-425.573	-35.378	0.307	-0.169
-424.559	-200.000	0.002	-0.123
-423.544	625.755	0.070	0.179
-422.530	-57.386	0.167	0.074
-421.515	-75.678	0.120	0.043
-420.500	36.992	0.288	-0.258
-419.486	-102.613	0.088	-0.021
-418.471	-200.000	0.066	-0.462
-417.457	82.944	0.163	0.179
-416.442	-156.045	0.177	-0.011
-415.428	-200.000	-0.200	0.000
-414.413	-200.000	-0.041	-0.198
-413.398	211.060	-0.243	-0.385
-412.384	800.000	0.062	0.249
-411.369	93.291	0.094	0.107
-410.355	63.308	0.087	0.088
-409.340	85.277	-0.136	-0.151
-408.325	-18.871	0.166	-0.104
-407.311	226.260	-0.163	0.267
-406.296	-171.283	-0.122	0.004
-405.282	-26.320	0.376	-0.222
-404.267	91.629	0.124	0.140
-403.252	68.113	-0.113	0.117
-402.238	800.000	-0.011	0.036
-401.223	-133.262	-0.284	0.036
-400.209	-20.709	0.049	0.030
-399.194	-200.000	0.057	0.307
-398.179	-10.866	-0.103	-0.068
-397.165	-158.000	-0.093	-0.006
-396.150	-159.416	-0.095	-0.005
-395.136	439.104	-0.074	0.162
-394.121	575.731	-0.241	0.592
-393.106	244.929	0.098	-0.165
-392.092	-46.454	0.132	-0.065
-391.077	35.548	0.333	-0.294
-390.063	-200.000	-0.061	-0.378
-389.048	250.515	-0.069	0.118
-388.033	240.639	0.081	0.137
-387.019	-88.417	-0.209	0.063
-386.004	-200.000	0.011	-0.179
-384.990	27.633	-0.079	-0.067
-383.975	111.060	-0.176	0.214
-382.960	48.711	0.206	-0.194
-381.946	115.251	-0.142	0.175
-380.931	68.138	0.157	0.162
-379.917	-200.000	-0.022	-0.110
-378.902	-66.826	-0.114	-0.046
-377.888	51.457	-0.241	0.230
-376.873	-132.644	-0.205	0.027
-375.858	-32.657	0.198	0.111
-374.844	3.945	0.120	0.089
-373.829	-187.390	0.165	-0.002
-372.815	65.688	-0.218	-0.222
-371.800	-200.000	0.011	-0.309
-370.785	369.792	0.069	-0.142
-369.771	-32.166	-0.179	-0.101
-368.756	-30.737	0.367	0.209
-367.742	-49.976	-0.230	0.110
-366.727	10.170	-0.069	-0.053
-365.712	-200.000	0.012	0.245
-364.698	-85.109	-0.403	-0.127
-363.683	105.451	-0.049	-0.058
-362.669	-123.715	-0.121	-0.019
-361.654	-118.567	0.278	-0.050
-360.639	-146.434	-0.401	0.035
-359.625	-67.558	-0.136	0.054
-358.610	49.089	-0.256	0.242
-357.596	223.007	-0.111	0.180
-356.581	-9.532	-0.175	0.117
-355.566	-124.988	-0.077	-0.012
-354.552	-200.000	0.014	0.329
-353.537	34.254	-0.160	0.140
-352.523	-94.763	0.057	-0.016
-351.508	-118.402	0.346	-0.062
-350.493	135.560	-0.076	0.100
-349.479	213.947	0.206	0.328
-348.464	164.065	-0.244	0.346
-347.450	201.107	0.168	-0.260
-346.435	-19.798	0.241	0.150
-345.420	800.000	-0.026	0.090
-344.406	223.320	0.143	0.232
-343.391	366.837	-0.217	-0.441
-342.377	-200.000	-0.016	-0.076
-341.362	-55.358	0.087	-0.039
-340.348	800.000	0.052	-0.189
-339.333	163.693	0.072	0.101
-338.318	433.293	-0.065	-0.142
-337.304	-64.903	-0.327	0.133
-336.289	-110.316	0.641	0.134
-335.275	-145.019	0.033	-0.003
-334.260	-76.870	-0.618	-0.217
-333.245	245.469	-0.151	0.256
-332.231	-111.429	-0.102	0.021
-331.216	344.065	0.099	0.194
-330.202	-68.445	0.246	-0.096
-329.187	-200.000	-0.002	-0.191
-328.172	-20.896	-0.249	0.154
-327.158	78.441	-0.175	0.188
-326.143	800.000	0.073	0.319
-325.129	-22.093	0.128	-0.078
-324.114	301.392	-0.056	0.104
-323.099	141.335	0.189	0.251
-322.085	-200.000	-0.027	-0.250
-321.070	800.000	-0.077	0.219
-320.056	-89.383	-0.235	-0.069
-319.041	800.000	0.134	-0.410
-318.026	-128.984	0.404	0.057
-317.012	66.404	-0.227	-0.232
-315.997	800.000	-0.082	-0.344
-314.983	800.000	-0.048	-0.145
-313.968	212.256	0.106	0.168
-312.953	-116.109	-0.287	-0.054
-311.939	-74.133	0.259	-0.094
-310.924	-200.000	0.031	-0.437
-309.910	-200.000	0.030	0.212
-308.895	-200.000	-0.043	-0.193
-307.880	72.388	0.121	0.126
-306.866	22.628	-0.160	0.131
-305.851	-138.968	0.300	-0.033
-304.837	-200.000	-0.040	-0.233
-303.822	-151.274	0.292	0.022
-302.807	-200.000	-0.034	-0.262
-301.793	-117.775	0.287	0.052
-300.778	-107.331	-0.162	0.036
-299.764	-173.794	-0.148	0.004
-298.749	12.925	0.375	0.291
-297.735	55.750	-0.048	-0.047
-296.720	-67.023	-0.309	-0.122
-295.705	-109.980	-0.249	-0.052
-294.691	-93.194	0.368	0.103
-293.676	-91.216	-0.041	-0.012
-292.662	407.242	-0.089	-0.188
-291.647	-200.000	0.063	-0.423
-290.632	-173.081	0.129	0.004
-289.618	-126.976	-0.225	-0.033
-288.603	800.000	-0.050	-0.159
-287.589	574.310	-0.062	0.151
-286.574	118.430	0.156	-0.193
-285.559	-200.000	-0.059	-0.319
-284.545	-93.546	-0.167	-0.046
-283.530	-200.000	-0.048	0.298
-282.516	-163.480	-0.367	0.017
-281.501	20.258	-0.148	0.120
-280.486	-1.048	-0.170	-0.121
-279.472	318.670	0.095	0.180
-278.457	800.000	0.142	0.399
-277.443	-131.432	0.306	0.041
-276.428	-80.621	0.346	0.116
-275.413	290.079	0.125	0.228
-274.399	-77.933	0.132	-0.046
-273.384	800.000	-0.087	-0.321
-272.370	-26.325	0.142	-0.084
-271.355	-57.981	0.367	0.161
-270.340	286.102	-0.136	-0.247
-269.326	168.068	-0.030	0.043
-268.311	71.567	-0.306	-0.319
-267.297	-140.274	-0.197	-0.021
-266.282	-200.000	-0.034	-0.184
-265.267	800.000	0.024	-0.091
-264.253	-40.131	0.101	0.053
-263.238	-92.938	0.115	-0.032
-262.224	-74.031	-0.493	0.179
-261.209	-5.573	-0.272	0.187
-260.195	800.000	0.027	0.076
-259.180	582.223	-0.088	0.216
-258.165	-4.235	0.260	0.181
-257.151	82.268	0.071	-0.077
-256.136	-73.743	0.377	0.138
-255.122	410.556	0.192	0.409
-254.107	-84.883	-0.029	-0.009
-253.092	-200.000	0.015	-0.165
-252.078	59.001	-0.153	0.151
-251.063	-200.000	-0.050	0.543
-250.049	-200.000	0.002	-0.057
-249.034	-200.000	-0.053	-0.419
-248.019	-148.828	-0.062	-0.005
-247.005	-47.374	-0.276	0.135
-245.990	-125.667	-0.111	0.017
-244.976	72.420	-0.235	-0.246
-243.961	10.095	0.160	-0.122
-242.946	-82.289	0.413	0.135
-241.932	41.925	0.226	-0.205
-240.917	116.110	-0.071	-0.088
-239.903	404.657	-0.083	0.176
-238.888	448.799	0.081	0.180
-237.873	-50.248	0.092	0.044
-236.859	-200.000	-0.029	0.291
-235.844	800.000	0.132	0.426
-234.830	-200.000	-0.006	0.072
-233.815	-119.567	-0.215	-0.037
-232.800	-42.244	0.387	0.198
-231.786	-41.583	0.256	-0.132
-230.771	114.795	-0.071	-0.087
-229.757	54.274	-0.162	-0.157
-228.742	-200.000	-0.014	-0.129
-227.727	-21.135	0.064	0.039
-226.713	-91.432	-0.342	-0.098
-225.698	-200.000	0.033	-0.209
-224.684	217.089	0.063	-0.101
-223.669	800.000	-0.055	-0.207
-222.655	560.478	-0.064	-0.154
-221.640	1.463	-0.375	0.270
-220.625	139.198	-0.192	0.253
-219.611	90.500	-0.154	0.173
-218.596	800.000	-0.039	0.108
-217.582	-48.241	0.243	0.118
-216.567	-123.524	-0.303	-0.048
-215.552	-22.850	0.278	-0.168
-214.538	-63.337	0.035	0.015
-213.523	-95.704	0.065	-0.018
-212.509	199.739	0.176	-0.270
-211.494	-149.693	-0.205	0.016
-210.479	-79.295	0.190	-0.064
-209.465	-200.000	-0.021	0.101
-208.450	107.415	0.216	-0.257
-207.436	-83.350	-0.039	-0.013
-206.421	-66.737	-0.237	-0.094
-205.406	-200.000	0.027	0.124
-204.392	-67.646	-0.101	0.039
-203.377	161.291	0.172	0.240
-202.363	-90.216	0.116	-0.034
-201.348	-200.000	0.009	-0.139
-200.333	149.010	0.187	0.253
-199.319	-102.707	-0.093	-0.022
-198.304	42.402	-0.218	-0.199
-197.290	249.155	-0.114	-0.192
-196.275	-62.370	-0.174	0.073
-195.260	800.000	-0.041	0.176
-194.246	20.842	-0.191	0.154
-193.231	15.989	-0.244	-0.192
-192.217	-166.228	0.424	0.018
-191.202	370.909	-0.125	-0.253
-190.187	271.867	0.059	0.105
-189.173	52.064	-0.104	-0.099
-188.158	52.296	0.030	0.029
-187.144	-200.000	-0.007	0.089
-186.129	58.497	-0.234	0.230
-185.114	-33.110	-0.147	-0.082
-184.100	388.654	0.080	-0.165
-183.085	231.279	0.014	-0.023
-182.071	634.517	-0.047	-0.120
-181.056	-41.511	-0.303	0.156
-180.042	90.759	0.225	0.252
-179.027	-116.725	-0.053	0.010
-178.012	-200.000	0.016	-0.194
-176.998	-48.304	0.062	-0.030
-175.983	-200.000	0.025	0.146
-174.969	800.000	0.087	-0.257
-173.954	85.006	-0.160	-0.175
-172.939	92.634	-0.134	0.151
-171.925	-78.739	0.186	-0.063
-170.910	-200.000	-0.238	0.000
-169.896	-64.442	-0.232	-0.094
-168.881	-200.000	0.034	-0.289
-167.866	-165.297	-0.252	0.011
-166.852	-200.000	0.070	0.477
-165.837	25.255	0.124	-0.103
-164.823	-73.416	-0.313	-0.114
-163.808	-8.660	0.156	0.105
-162.793	522.853	-0.087	0.204
-161.779	80.728	-0.128	0.138
-160.764	-51.152	-0.098	-0.046
-159.750	800.000	0.057	0.204
-158.735	286.492	0.039	-0.071
-157.720	-57.836	-0.105	-0.046
-156.706	-200.000	-0.013	0.081
-155.691	-51.588	0.388	0.181
-154.677	-200.000	-0.026	0.233
-153.662	530.378	0.073	0.172
-152.647	-157.869	-0.043	-0.003
-151.633	440.648	0.033	-0.072
-150.618	-200.000	0.014	-0.110
-149.604	-75.040	0.401	0.143
-148.589	-68.052	-0.099	0.038
-147.574	-45.298	-0.041	-0.020
-146.560	800.000	0.139	-0.385
-145.545	17.740	-0.269	-0.214
-144.531	-133.020	-0.203	-0.026
-143.516	160.071	0.258	0.359
-142.502	597.456	-0.083	-0.205
-141.487	-69.779	0.282	0.108
-140.472	-3.236	0.197	-0.137
-139.458	-83.544	0.229	-0.073
-138.443	415.802	-0.129	-0.275
-137.429	437.231	-0.036	-0.078
-136.414	89.891	-0.123	-0.137
-135.399	-200.000	0.094	0.514
-134.385	109.335	0.059	0.071
-133.370	-103.264	0.143	0.034
-132.356	-200.000	-0.006	-0.181
-131.341	37.286	0.059	-0.052
-130.326	-37.682	-0.068	0.036
-129.312	339.790	0.094	-0.183
-128.297	-1.342	-0.162	0.114
-127.283	-8.776	-0.212	-0.142
-126.268	-141.545	-0.018	-0.002
-125.253	800.000	0.028	-0.077
-124.239	800.000	-0.034	-0.141
-123.224	132.220	-0.294	0.378
-122.210	261.360	-0.083	0.144
-121.195	-200.000	-0.024	0.115
