DTS Sentinel unit serial number:	SN413079Multiplexer serial number:	ORYXHardware model number:	OX4-SRSoftware version number:	ORYX F/W v4.00 Oryx Data Collector v3.7.2.0data status	okinstallation	princeton_trtdifferential loss correction	single-endedforward channel	channel 1reverse channel	N/Adate	2019/09/13time	02:06:35forward acquisition time	60.00reverse acquisition time	0.00gamma	496.2192k internal	0.2331k external	0.2331temperature offset calibration	1.0151default loss term (dB/km)	0.3790temperature slope calibration	1.0000multiplexer offset coefficient	1.0000multiplexer slope coefficient	1.0000fibre end	0.00T internal ref (°C)	27.56T ext. ref 1 (°C)	3.87T ext. ref 2 (°C)	22.19length (m)	temperature (°C)	Stokes	anti-Stokes-747.200	-200.000	-0.002	-0.311
-746.185	363.956	-0.079	0.161
-745.171	229.764	-0.129	-0.212
-744.156	565.455	0.076	0.187
-743.142	94.544	0.178	-0.203
-742.127	800.000	0.131	0.381
-741.112	68.157	0.125	0.129
-740.098	-85.323	0.264	0.083
-739.083	-200.000	-0.037	0.222
-738.069	-200.000	0.002	0.049
-737.054	292.089	-0.140	0.257
-736.039	-142.486	0.034	-0.003
-735.025	-127.310	0.508	0.075
-734.010	-92.215	-0.425	-0.121
-732.996	800.000	-0.009	-0.034
-731.981	-200.000	0.008	-0.179
-730.966	-75.509	0.086	-0.031
-729.952	121.883	-0.118	0.149
-728.937	8.735	0.112	-0.085
-727.923	-149.674	0.222	-0.018
-726.908	110.620	0.235	-0.284
-725.894	50.320	-0.176	-0.168
-724.879	800.000	-0.020	0.063
-723.864	-64.483	-0.318	0.130
-722.850	18.385	0.101	-0.081
-721.835	49.376	0.244	-0.230
-720.821	-200.000	0.031	-0.331
-719.806	800.000	-0.115	-0.387
-718.791	171.111	0.044	-0.063
-717.777	22.026	0.290	-0.238
-716.762	-200.000	-0.021	0.094
-715.748	-116.331	0.270	-0.050
-714.733	-53.820	0.244	0.112
-713.718	-63.590	0.220	-0.091
-712.704	93.909	0.216	-0.246
-711.689	-122.716	-0.040	0.006
-710.675	195.955	0.055	0.084
-709.660	-109.681	-0.470	0.099
-708.645	800.000	-0.079	0.322
-707.631	526.483	-0.041	0.098
-706.616	-200.000	0.013	-0.169
-705.602	116.767	0.262	-0.323
-704.587	123.147	0.070	0.089
-703.572	-94.925	-0.188	0.051
-702.558	-119.036	0.436	-0.077
-701.543	-134.850	-0.152	0.018
-700.529	221.460	-0.215	0.347
-699.514	800.000	-0.057	-0.234
-698.499	-134.665	-0.130	0.016
-697.485	-81.101	0.318	0.106
-696.470	91.480	0.099	-0.112
-695.456	187.900	-0.280	0.420
-694.441	-190.848	0.347	-0.004
-693.426	-132.718	-0.228	0.029
-692.412	-101.457	-0.176	0.043
-691.397	-200.000	-0.000	0.203
-690.383	-102.369	-0.168	-0.040
-689.368	-49.152	0.244	0.117
-688.354	645.922	0.034	0.087
-687.339	186.955	0.147	-0.220
-686.324	-107.095	-0.091	-0.020
-685.310	-200.000	0.029	0.265
-684.295	800.000	-0.110	0.385
-683.281	800.000	0.024	0.100
-682.266	86.996	0.167	0.185
-681.251	-78.799	0.259	0.089
-680.237	66.401	-0.105	-0.107
-679.222	52.015	-0.149	0.143
-678.208	-26.019	0.133	0.078
-677.193	219.359	-0.104	-0.167
-676.178	116.069	-0.347	-0.427
-675.164	800.000	0.049	-0.204
-674.149	9.995	0.090	0.069
-673.135	-128.783	0.196	-0.028
-672.120	-55.150	-0.204	-0.092
-671.105	800.000	-0.061	0.204
-670.091	-103.768	-0.147	0.035
-669.076	-200.000	0.011	0.329
-668.062	104.511	0.160	-0.189
-667.047	143.243	-0.170	0.227
-666.032	-200.000	-0.039	0.266
-665.018	-175.044	-0.024	0.001
-664.003	-200.000	0.019	0.353
-662.989	51.309	-0.316	0.301
-661.974	261.735	-0.148	-0.257
-660.959	152.312	-0.105	0.143
-659.945	286.411	-0.099	0.179
-658.930	-134.675	0.223	-0.027
-657.916	-200.000	0.039	-0.313
-656.901	252.876	0.153	0.263
-655.886	-152.729	0.104	-0.007
-654.872	-200.000	0.041	-0.250
-653.857	-47.211	0.020	-0.010
-652.843	-200.000	0.040	0.231
-651.828	-100.742	-0.086	0.021
-650.814	138.704	0.214	-0.282
-649.799	-8.273	0.182	0.123
-648.784	-119.770	-0.110	-0.019
-647.770	173.673	-0.313	-0.453
-646.755	-162.755	-0.386	-0.019
-645.741	-93.614	0.321	-0.089
-644.726	-200.000	0.021	-0.236
-643.711	-108.602	0.257	0.055
-642.697	-2.103	-0.062	-0.044
-641.682	-45.568	0.147	0.073
-640.668	248.704	0.082	-0.138
-639.653	-200.000	0.013	0.100
-638.638	-200.000	0.010	0.129
-637.624	263.329	-0.097	0.168
-636.609	261.381	-0.060	0.103
-635.595	-26.390	-0.136	0.080
-634.580	-135.702	0.182	0.022
-633.565	277.644	-0.201	0.359
-632.551	-184.987	0.212	-0.003
-631.536	40.225	-0.221	-0.199
-630.522	800.000	-0.050	0.206
-629.507	-200.000	0.053	0.419
-628.492	103.413	0.216	-0.253
-627.478	-98.520	-0.143	-0.037
-626.463	800.000	0.065	0.263
-625.449	800.000	-0.056	0.223
-624.434	800.000	-0.032	-0.100
-623.419	-101.301	0.196	0.048
-622.405	-94.249	-0.210	0.057
-621.390	-200.000	-0.103	0.529
-620.376	-74.713	-0.150	0.054
-619.361	253.817	0.092	0.158
-618.346	-144.242	0.058	-0.005
-617.332	-158.493	-0.330	-0.019
-616.317	-56.944	-0.081	-0.036
-615.303	615.529	-0.118	-0.296
-614.288	-76.822	-0.227	-0.079
-613.273	-200.000	0.009	-0.079
-612.259	-57.402	-0.054	0.024
-611.244	-151.704	-0.420	0.031
-610.230	-188.402	-0.514	-0.006
-609.215	-55.461	0.079	-0.035
-608.201	168.959	0.095	-0.136
-607.186	-74.684	0.339	-0.122
-606.171	800.000	0.163	-0.496
-605.157	53.210	0.117	0.112
-604.142	-200.000	0.014	0.217
-603.128	-200.000	0.006	-0.053
-602.113	118.801	0.255	0.315
-601.098	-200.000	-0.003	-0.100
-600.084	800.000	0.093	0.314
-599.069	-63.794	0.084	0.035
-598.055	18.968	0.097	0.078
-597.040	212.602	-0.104	0.164
-596.025	94.935	-0.061	-0.070
-595.011	-81.413	0.239	0.079
-593.996	-200.000	0.019	0.297
-592.982	-43.598	0.153	0.077
-591.967	21.425	-0.083	0.067
-590.952	800.000	0.041	-0.179
-589.938	-200.000	0.000	0.022
-588.923	99.585	0.101	0.117
-587.909	-169.445	0.306	0.011
-586.894	542.887	-0.019	-0.045
-585.879	-135.988	0.263	0.031
-584.865	800.000	-0.016	-0.044
-583.850	151.552	-0.104	0.142
-582.836	-81.143	0.116	-0.038
-581.821	8.523	0.197	-0.149
-580.806	69.971	-0.255	0.263
-579.792	-102.644	-0.132	-0.031
-578.777	-115.111	-0.088	-0.017
-577.763	173.725	-0.163	0.235
-576.748	-200.000	-0.038	-0.252
-575.733	5.274	0.141	-0.104
-574.719	-89.408	0.338	-0.099
-573.704	12.209	-0.326	0.251
-572.690	477.688	0.158	-0.358
-571.675	360.624	0.119	0.239
-570.661	133.115	0.140	-0.181
-569.646	3.638	-0.115	-0.084
-568.631	-58.457	-0.016	0.007
-567.617	-8.427	0.236	0.158
-566.602	-163.564	-0.235	-0.011
-565.588	-24.586	-0.166	0.099
-564.573	-111.976	-0.263	0.053
-563.558	-200.000	-0.010	0.046
-562.544	63.462	-0.307	0.308
-561.529	98.058	0.267	-0.308
-560.515	-200.000	-0.001	-0.167
-559.500	115.016	-0.184	0.225
-558.485	-45.956	-0.168	-0.083
-557.471	18.926	0.245	0.196
-556.456	-52.435	0.144	0.067
-555.442	-167.580	0.177	-0.007
-554.427	-53.604	-0.117	0.053
-553.412	-90.371	-0.383	-0.111
-552.398	96.208	-0.092	-0.105
-551.383	246.334	-0.060	0.101
-550.369	-66.487	0.065	-0.026
-549.354	-46.540	-0.195	0.096
-548.339	-79.531	-0.047	-0.016
-547.325	-109.883	-0.300	0.063
-546.310	-50.929	-0.203	0.095
-545.296	-88.946	-0.137	-0.041
-544.281	13.126	-0.191	0.148
-543.266	48.080	0.032	0.030
-542.252	121.204	-0.158	-0.197
-541.237	-109.721	0.241	-0.051
-540.223	11.860	-0.094	0.072
-539.208	-82.504	-0.244	-0.079
-538.193	243.368	0.152	0.255
-537.179	-41.901	-0.270	0.138
-536.164	800.000	-0.041	-0.154
-535.150	389.669	0.077	-0.160
-534.135	314.902	0.146	-0.274
-533.121	57.759	-0.100	0.097
-532.106	-124.226	-0.062	0.010
-531.091	238.512	-0.089	0.147
-530.077	-200.000	-0.023	-0.303
-529.062	425.657	-0.140	0.300
-528.048	-46.728	0.172	0.084
-527.033	800.000	-0.047	-0.133
-526.018	-13.005	0.221	-0.144
-525.004	179.993	0.139	0.203
-523.989	-200.000	0.020	0.101
-522.975	800.000	0.044	0.123
-521.960	-200.000	0.018	-0.300
-520.945	63.524	0.181	-0.181
-519.931	-106.033	0.132	0.030
-518.916	-155.364	0.054	0.003
-517.902	-200.000	-0.060	-0.271
-516.887	-103.949	0.224	0.052
-515.872	10.672	-0.175	0.133
-514.858	153.578	-0.123	0.169
-513.843	119.502	0.092	-0.114
-512.829	278.108	0.145	0.257
-511.814	-62.766	0.105	0.044
-510.799	-119.083	-0.281	0.049
-509.785	-190.715	-0.339	0.004
-508.770	-29.093	-0.141	-0.081
-507.756	800.000	0.065	-0.204
-506.741	148.916	-0.125	0.169
-505.726	-54.145	0.094	0.043
-504.712	-106.116	-0.382	-0.086
-503.697	258.982	0.106	0.183
-502.683	-200.000	0.036	0.171
-501.668	800.000	-0.098	0.287
-500.653	-42.519	-0.107	0.055
-499.639	78.136	-0.257	-0.273
-498.624	311.159	-0.149	-0.279
-497.610	800.000	0.068	-0.246
-496.595	-200.000	-0.007	-0.224
-495.581	-78.511	-0.126	0.043
-494.566	156.791	-0.100	0.137
-493.551	40.867	0.059	-0.053
-492.537	-135.733	-0.469	-0.055
-491.522	-169.402	-0.200	0.007
-490.508	-200.000	0.016	-0.264
-489.493	-200.000	0.009	-0.045
-488.478	-87.276	0.076	-0.023
-487.464	-200.000	0.027	-0.189
-486.449	-37.253	0.143	-0.076
-485.435	273.817	0.096	0.169
-484.420	800.000	0.049	-0.158
-483.405	220.107	-0.090	0.144
-482.391	48.449	-0.326	-0.304
-481.376	-7.389	-0.051	-0.035
-480.362	-2.951	0.240	0.167
-479.347	800.000	0.042	0.180
-478.332	-178.666	0.380	0.009
-477.318	-200.000	0.197	-0.000
-476.303	-153.509	-0.214	0.015
-475.289	416.258	0.084	-0.179
-474.274	58.599	0.224	-0.219
-473.259	-200.000	0.004	0.162
-472.245	-72.201	0.327	-0.121
-471.230	134.473	0.131	-0.169
-470.216	-200.000	0.020	0.125
-469.201	-60.759	-0.364	-0.154
-468.186	-99.947	0.295	-0.073
-467.172	800.000	-0.045	0.160
-466.157	-103.527	0.070	0.016
-465.143	247.433	-0.088	-0.148
-464.128	-74.419	0.045	0.016
-463.113	12.268	-0.224	0.172
-462.099	94.451	-0.456	-0.516
-461.084	280.580	-0.024	0.043
-460.070	-200.000	-0.023	0.170
-459.055	-163.682	0.243	-0.011
-458.040	-200.000	0.006	-0.441
-457.026	255.148	-0.134	0.228
-456.011	-44.744	-0.162	-0.080
-454.997	129.639	0.061	-0.077
-453.982	-90.890	-0.109	-0.031
-452.968	-200.000	0.018	-0.142
-451.953	800.000	0.039	-0.120
-450.938	646.425	0.157	-0.399
-449.924	-44.841	0.091	-0.045
-448.909	-200.000	-0.009	0.111
-447.895	-200.000	-0.046	-0.352
-446.880	364.912	-0.062	0.125
-445.865	733.570	-0.060	0.159
-444.851	-33.055	-0.145	0.080
-443.836	486.849	-0.154	0.348
-442.822	-32.029	-0.211	0.117
-441.807	490.247	-0.057	0.129
-440.792	-25.725	-0.128	-0.075
-439.778	-200.000	0.019	0.158
-438.763	-112.186	-0.189	-0.038
-437.749	1.786	-0.174	-0.124
-436.734	-25.751	-0.070	0.041
-435.719	-81.478	-0.072	0.024
-434.705	9.061	0.131	-0.098
-433.690	800.000	0.045	-0.129
-432.676	-200.000	-0.039	-0.252
-431.661	-200.000	0.022	0.199
-430.646	-55.468	-0.309	0.138
-429.632	24.710	-0.219	0.181
-428.617	130.464	-0.060	0.076
-427.603	340.897	-0.043	-0.084
-426.588	-88.766	0.314	0.093
-425.573	-164.472	-0.208	0.009
-424.559	602.078	-0.188	0.466
-423.544	35.715	-0.156	-0.136
-422.530	6.008	0.194	-0.143
-421.515	98.211	-0.206	0.235
-420.500	2.601	-0.093	-0.067
-419.486	800.000	-0.114	-0.483
-418.471	-80.328	-0.032	0.011
-417.457	-56.854	-0.116	-0.051
-416.442	2.118	0.075	-0.054
-415.428	-31.307	-0.067	0.038
-414.413	800.000	0.030	0.108
-413.398	96.545	0.374	-0.425
-412.384	219.925	-0.101	-0.160
-411.369	19.337	-0.196	0.156
-410.355	162.684	0.109	0.152
-409.340	202.920	0.054	-0.083
-408.325	-43.000	0.204	-0.103
-407.311	-85.166	-0.093	-0.029
-406.296	41.665	-0.179	-0.161
-405.282	-200.000	-0.049	0.429
-404.267	-127.288	-0.212	0.031
-403.252	378.999	-0.013	0.027
-402.238	800.000	0.062	-0.256
-401.223	645.907	-0.104	-0.264
-400.209	-111.074	-0.150	0.030
-399.194	-20.816	0.116	0.071
-398.179	76.614	0.245	0.258
-397.165	-108.132	0.261	0.056
-396.150	375.039	-0.015	0.030
-395.136	212.867	-0.036	-0.056
-394.121	26.946	0.117	0.097
-393.106	-200.000	-0.087	0.392
-392.092	-125.564	0.075	-0.011
-391.077	800.000	-0.025	0.086
-390.063	23.753	0.237	0.194
-389.048	-91.069	-0.057	-0.016
-388.033	24.106	-0.062	0.051
-387.019	60.130	0.050	0.049
-386.004	-25.373	-0.047	-0.028
-384.990	696.524	-0.132	-0.343
-383.975	800.000	0.092	0.314
-382.960	-200.000	-0.003	-0.074
-381.946	800.000	0.065	-0.191
-380.931	-200.000	0.048	-0.262
-379.917	-24.548	-0.225	-0.133
-378.902	-64.559	0.094	-0.038
-377.888	-153.804	-0.222	-0.015
-376.873	163.660	0.219	-0.306
-375.858	9.827	-0.271	0.204
-374.844	-200.000	0.057	0.295
-373.829	524.526	-0.136	-0.317
-372.815	-135.201	-0.140	0.017
-371.800	107.201	-0.220	0.259
-370.785	-28.540	0.444	0.254
-369.771	-200.000	-0.003	-0.167
-368.756	120.736	-0.047	0.058
-367.742	25.190	0.315	0.259
-366.727	7.361	-0.082	0.061
-365.712	269.702	0.138	0.240
-364.698	-200.000	0.007	0.347
-363.683	636.167	0.114	0.288
-362.669	-200.000	-0.038	0.302
-361.654	56.884	-0.058	0.056
-360.639	-165.790	-0.311	-0.013
-359.625	-74.474	0.134	0.048
-358.610	163.121	0.181	-0.252
-357.596	-164.871	0.175	0.008
-356.581	9.403	0.101	-0.076
-355.566	-33.312	-0.073	0.040
-354.552	-11.871	0.329	0.214
-353.537	-137.405	-0.235	0.026
-352.523	-200.000	-0.007	-0.329
-351.508	-97.683	-0.198	0.051
-350.493	-134.019	0.194	0.024
-349.479	-21.025	0.111	0.067
-348.464	30.156	0.155	-0.131
-347.450	-124.714	-0.054	0.008
-346.435	-200.000	-0.010	-0.064
-345.420	-24.935	-0.074	-0.044
-344.406	164.030	0.226	0.315
-343.391	-200.000	-0.052	0.276
-342.377	800.000	0.048	-0.191
-341.362	125.852	-0.092	0.116
-340.348	301.923	0.078	-0.143
-339.333	234.758	0.128	-0.209
-338.318	800.000	0.034	0.116
-337.304	237.876	0.195	-0.321
-336.289	-200.000	0.052	-0.341
-335.275	-33.208	-0.108	-0.059
-334.260	-200.000	-0.013	0.187
-333.245	-30.739	-0.219	-0.123
-332.231	-66.946	-0.064	0.025
-331.216	-63.962	0.319	0.129
-330.202	-97.000	0.323	0.084
-329.187	-109.482	-0.306	0.064
-328.172	249.008	0.160	-0.268
-327.158	-58.002	0.330	-0.143
-326.143	234.622	0.042	-0.068
-325.129	34.846	0.173	-0.150
-324.114	-38.568	-0.130	-0.068
-323.099	132.417	0.150	-0.191
-322.085	-154.434	-0.417	0.028
-321.070	139.423	-0.238	-0.311
-320.056	-63.753	-0.216	0.088
-319.041	-81.337	0.052	-0.017
-318.026	800.000	0.034	0.112
-317.012	-200.000	-0.020	-0.229
-315.997	-200.000	-0.123	-0.604
-314.983	13.429	0.082	0.063
-313.968	-107.807	-0.558	-0.120
-312.953	800.000	-0.051	-0.196
-311.939	-200.000	0.008	-0.262
-310.924	-112.948	0.242	-0.047
-309.910	-123.461	-0.178	0.028
-308.895	-124.417	0.440	-0.068
-307.880	-60.961	0.202	-0.084
-306.866	800.000	-0.037	-0.129
-305.851	279.073	0.189	-0.333
-304.837	-137.026	-0.162	0.018
-303.822	145.114	0.137	-0.181
-302.807	3.734	-0.060	0.043
-301.793	59.323	-0.174	0.169
-300.778	800.000	-0.155	0.490
-299.764	94.558	0.102	-0.115
-298.749	-2.269	-0.093	-0.065
-297.735	156.107	0.244	0.333
-296.720	-63.618	-0.217	-0.088
-295.705	114.790	0.174	0.210
-294.691	23.968	-0.064	-0.052
-293.676	-40.490	-0.042	0.022
-292.662	500.543	0.080	-0.184
-291.647	800.000	0.046	-0.139
-290.632	-128.738	0.252	-0.035
-289.618	-64.136	-0.395	-0.159
-288.603	-106.062	0.128	-0.028
-287.589	-200.000	0.021	-0.342
-286.574	-166.684	0.199	-0.008
-285.559	348.222	0.094	0.184
-284.545	-145.345	-0.224	-0.020
-283.530	-65.443	0.379	0.151
-282.516	-40.483	0.383	-0.197
-281.501	284.080	0.034	-0.061
-280.486	-20.691	0.199	-0.121
-279.472	-137.453	0.092	-0.010
-278.457	118.836	-0.160	0.195
-277.443	-52.810	-0.035	-0.016
-276.428	-139.832	0.258	-0.027
-275.413	108.332	0.056	-0.066
-274.399	-58.118	-0.335	-0.144
-273.384	414.869	0.085	0.178
-272.370	111.814	0.096	0.114
-271.355	2.398	-0.165	-0.118
-270.340	312.585	0.058	0.107
-269.326	-70.735	0.269	-0.100
-268.311	-130.771	-0.127	-0.017
-267.297	506.296	-0.134	-0.307
-266.282	-200.000	-0.050	0.257
-265.267	-84.534	-0.218	0.068
-264.253	-31.073	0.363	0.202
-263.238	-200.000	0.042	0.310
-262.224	-200.000	0.009	-0.088
-261.209	-96.392	0.386	-0.101
-260.195	-50.897	-0.120	-0.056
-259.180	221.417	-0.057	-0.090
-258.165	582.768	0.042	0.102
-257.151	-200.000	-0.261	0.001
-256.136	-200.000	0.006	-0.159
-255.122	5.234	-0.053	0.039
-254.107	-35.956	-0.205	-0.109
-253.092	-88.024	0.255	0.076
-252.078	-180.445	-0.165	-0.003
-251.063	-49.742	-0.207	-0.097
-250.049	-200.000	0.023	0.124
-249.034	-200.000	0.001	0.137
-248.019	-80.361	-0.254	-0.084
-247.005	-118.490	-0.105	0.018
-245.990	-4.874	0.194	0.132
-244.976	743.825	-0.019	0.051
-243.961	-52.624	-0.185	-0.084
-242.946	-117.889	-0.036	-0.006
-241.932	80.042	0.207	-0.219
-240.917	108.087	-0.212	0.250
-239.903	278.235	-0.133	0.233
-238.888	-99.627	0.112	0.028
-237.873	143.221	-0.171	-0.224
-236.859	-200.000	-0.000	-0.075
-235.844	248.261	-0.098	0.163
-234.830	161.881	0.018	-0.025
-233.815	-200.000	0.009	0.206
-232.800	-113.091	0.267	0.052
-231.786	-55.887	0.273	0.120
-230.771	-75.905	0.247	0.086
-229.757	36.034	-0.249	0.216
-228.742	2.263	0.141	0.101
-227.727	45.055	0.105	0.095
-226.713	-93.555	-0.341	0.093
-225.698	-21.618	0.370	0.223
-224.684	-187.757	-0.097	0.001
-223.669	139.534	-0.157	-0.204
-222.655	-200.000	-0.050	0.272
-221.640	-8.210	-0.158	0.105
-220.625	-68.653	-0.265	-0.101
-219.611	-98.427	0.114	-0.029
-218.596	82.744	-0.117	0.125
-217.582	275.946	0.042	-0.073
-216.567	405.483	0.091	-0.190
-215.552	-162.796	0.069	0.003
-214.538	-92.359	0.034	-0.009
-213.523	-126.748	-0.232	0.034
-212.509	-125.324	-0.189	-0.028
-211.494	800.000	-0.018	-0.065
-210.479	-200.000	-0.031	-0.160
-209.465	-67.773	-0.235	-0.091
-208.450	-6.099	-0.107	-0.072
-207.436	-130.297	0.197	-0.026
-206.421	-15.343	-0.326	0.205
-205.406	-53.916	0.250	0.112
-204.392	26.926	0.191	-0.158
-203.377	-132.885	-0.237	0.030
-202.363	-93.021	-0.162	-0.045
-201.348	89.642	0.084	0.093
-200.333	800.000	-0.043	0.153
-199.319	-15.176	0.412	-0.260
-198.304	24.693	0.393	0.320
-197.290	10.410	-0.098	-0.074
-196.275	192.237	0.144	0.214
-195.260	-131.626	-0.030	0.004
-194.246	-175.819	0.476	-0.013
-193.231	-8.837	0.391	0.258
-192.217	-99.097	0.181	-0.045
-191.202	-171.340	0.265	-0.009
-190.187	326.732	0.059	-0.112
-189.173	-200.000	0.009	0.258
-188.158	-64.663	0.194	-0.077
-187.144	-60.602	0.124	0.052
-186.129	28.163	0.138	-0.114
-185.114	-50.277	0.093	0.043
-184.100	-200.000	0.040	0.237
-183.085	0.032	0.190	-0.133
-182.071	-200.000	-0.018	-0.176
-181.056	-200.000	0.014	-0.124
-180.042	800.000	-0.080	-0.340
-179.027	-118.816	-0.228	-0.039
-178.012	-156.454	0.330	0.020
-176.998	-14.730	0.473	-0.299
-175.983	-59.964	0.188	-0.079
-174.969	-200.000	0.037	-0.208
-173.954	-14.984	0.153	0.097
-172.939	578.813	-0.055	0.132
-171.925	478.223	-0.089	0.199
-170.910	800.000	-0.127	-0.424
-169.896	-14.457	-0.211	-0.134
-168.881	800.000	0.037	-0.122
-167.866	-21.860	0.141	-0.084
-166.852	800.000	-0.078	-0.244
-165.837	-43.834	0.141	0.070
-164.823	117.492	-0.143	-0.174
-163.808	31.746	0.117	0.099
-162.793	-112.168	0.273	0.054
-161.779	277.943	0.165	0.290
-160.764	-85.293	-0.322	0.099
-159.750	-51.049	-0.138	0.064
-158.735	-106.854	0.444	0.097
-157.720	9.386	-0.098	0.073
-156.706	-200.000	0.019	0.511
-155.691	122.835	0.229	-0.282
-154.677	-200.000	-0.195	-0.000
-153.662	-2.353	0.172	-0.119
-152.647	719.366	-0.059	0.155
-151.633	-200.000	0.039	0.255
-150.618	800.000	-0.049	-0.178
-149.604	342.351	-0.106	0.204
-148.589	-14.513	0.045	-0.028
-147.574	-105.426	-0.176	0.039
-146.560	653.219	-0.143	0.361
-145.545	255.141	0.165	0.277
-144.531	-172.259	0.218	0.007
-143.516	-200.000	-0.002	-0.076
-142.502	-200.000	0.043	0.232
-141.487	-144.892	0.482	-0.043
-140.472	55.580	0.134	0.128
-139.458	-92.007	0.115	-0.032
-138.443	-52.171	0.053	0.024
-137.429	504.590	0.123	0.280
-136.414	-101.814	0.382	-0.091
-135.399	26.689	0.181	0.149
-134.385	791.165	0.046	-0.125
-133.370	136.170	-0.065	0.083
-132.356	-200.000	0.016	-0.146
-131.341	-73.085	0.162	-0.058
-130.326	-200.000	-0.092	0.527
-129.312	800.000	0.104	-0.297
-128.297	-200.000	0.081	-0.480
-127.283	-200.000	-0.003	-0.076
-126.268	-29.163	0.111	0.063
-125.253	36.790	0.237	-0.206
-124.239	35.494	-0.207	0.178
-123.224	800.000	0.079	-0.224
-122.210	62.709	-0.171	0.168
-121.195	74.448	0.331	-0.342
