DTS Sentinel unit serial number:	SN413079Multiplexer serial number:	ORYXHardware model number:	OX4-SRSoftware version number:	ORYX F/W v4.00 Oryx Data Collector v3.7.2.0data status	okinstallation	princeton_trtdifferential loss correction	single-endedforward channel	channel 1reverse channel	N/Adate	2019/09/13time	10:30:35forward acquisition time	60.00reverse acquisition time	0.00gamma	496.2192k internal	0.2321k external	0.2321temperature offset calibration	1.0161default loss term (dB/km)	0.3790temperature slope calibration	1.0000multiplexer offset coefficient	1.0000multiplexer slope coefficient	1.0000fibre end	0.00T internal ref (°C)	31.14T ext. ref 1 (°C)	4.55T ext. ref 2 (°C)	28.27length (m)	temperature (°C)	Stokes	anti-Stokes-747.200	800.000	-0.126	0.378
-746.185	-33.605	-0.281	-0.157
-745.171	-143.131	-0.173	0.017
-744.156	-36.763	-0.066	0.036
-743.142	-200.000	0.032	-0.245
-742.127	-10.493	-0.242	0.162
-741.112	-116.995	0.143	0.026
-740.098	-200.000	0.006	0.104
-739.083	-200.000	-0.018	0.088
-738.069	-82.720	0.298	0.097
-737.054	90.476	0.058	0.065
-736.039	39.564	-0.323	-0.293
-735.025	112.335	0.061	-0.074
-734.010	243.964	-0.099	0.167
-732.996	114.076	-0.017	-0.021
-731.981	69.730	-0.053	-0.055
-730.966	-91.199	-0.216	-0.062
-729.952	800.000	-0.052	-0.164
-728.937	381.659	0.066	0.136
-727.923	393.155	0.140	-0.294
-726.908	29.030	-0.254	-0.217
-725.894	504.039	-0.128	0.299
-724.879	-200.000	0.031	0.188
-723.864	-18.315	-0.317	0.200
-722.850	-200.000	-0.004	-0.086
-721.835	80.964	-0.116	0.126
-720.821	-110.686	-0.273	-0.057
-719.806	-93.646	0.149	-0.041
-718.791	-33.353	0.387	-0.216
-717.777	-62.647	0.209	-0.088
-716.762	46.758	-0.203	-0.190
-715.748	275.191	-0.192	-0.343
-714.733	33.987	-0.103	-0.091
-713.718	-137.974	-0.260	0.029
-712.704	-23.002	0.100	-0.061
-711.689	800.000	-0.058	0.199
-710.675	182.096	-0.061	0.091
-709.660	800.000	0.073	0.226
-708.645	-18.939	0.067	0.042
-707.631	-200.000	0.018	-0.243
-706.616	-200.000	-0.009	0.232
-705.602	-109.620	0.109	0.023
-704.587	-4.174	-0.017	-0.012
-703.572	39.044	0.191	-0.172
-702.558	-42.098	-0.160	-0.083
-701.543	317.742	0.059	-0.113
-700.529	800.000	0.062	-0.207
-699.514	-128.166	0.179	0.026
-698.499	-135.935	-0.096	0.011
-697.485	13.553	0.265	0.207
-696.470	101.517	-0.139	-0.163
-695.456	-85.288	0.223	-0.070
-694.441	15.970	0.224	-0.178
-693.426	151.280	0.208	-0.286
-692.412	-54.344	-0.180	-0.083
-691.397	737.295	-0.053	-0.144
-690.383	-200.000	-0.050	-0.383
-689.368	800.000	0.058	-0.196
-688.354	-67.859	0.216	0.085
-687.339	1.328	-0.218	-0.158
-686.324	800.000	-0.066	0.188
-685.310	-53.179	0.232	-0.107
-684.295	98.666	-0.243	-0.283
-683.281	-200.000	-0.013	-0.223
-682.266	63.022	-0.172	-0.174
-681.251	-200.000	0.026	0.198
-680.237	-98.662	-0.362	0.093
-679.222	-164.106	-0.185	0.009
-678.208	-35.162	0.328	0.180
-677.193	-51.464	0.385	0.181
-676.178	-150.677	-0.227	0.017
-675.164	-200.000	0.029	-0.245
-674.149	-200.000	0.008	0.404
-673.135	-200.000	-0.018	-0.114
-672.120	167.536	0.176	-0.252
-671.105	-71.438	0.181	-0.068
-670.091	399.786	0.113	-0.239
-669.076	4.837	0.113	0.083
-668.062	653.940	-0.020	0.051
-667.047	-181.532	-0.197	0.004
-666.032	370.351	-0.059	0.121
-665.018	-22.817	-0.083	-0.051
-664.003	-48.808	0.141	-0.068
-662.989	-179.688	-0.306	0.007
-661.974	800.000	-0.096	-0.307
-660.959	800.000	-0.097	0.380
-659.945	-3.179	-0.210	0.147
-658.930	-13.490	-0.365	-0.238
-657.916	-114.278	0.268	-0.052
-656.901	-200.000	0.011	0.060
-655.886	45.348	-0.186	-0.173
-654.872	-200.000	0.021	0.150
-653.857	800.000	0.113	0.340
-652.843	-27.848	0.114	0.067
-651.828	-200.000	-0.024	-0.106
-650.814	149.397	-0.162	-0.222
-649.799	-45.187	0.038	0.019
-648.784	74.224	-0.066	-0.070
-647.770	148.282	0.187	0.253
-646.755	-83.402	-0.150	0.048
-645.741	-10.674	0.319	-0.213
-644.726	-45.540	-0.165	0.082
-643.711	-10.110	0.096	-0.064
-642.697	-150.600	0.141	0.011
-641.682	-49.459	-0.126	0.061
-640.668	70.165	-0.154	-0.160
-639.653	-80.468	-0.245	0.082
-638.638	179.756	0.157	-0.231
-637.624	-160.060	-0.209	0.011
-636.609	142.601	-0.130	0.174
-635.595	-34.781	0.134	-0.074
-634.580	442.930	0.139	-0.306
-633.565	-41.187	-0.200	0.104
-632.551	54.675	0.068	0.066
-631.536	-112.402	0.238	0.048
-630.522	147.403	-0.235	-0.318
-629.507	72.463	-0.298	-0.312
-628.492	67.802	0.179	0.184
-627.478	2.019	-0.042	-0.031
-626.463	31.972	-0.104	0.090
-625.449	-80.337	0.130	0.044
-624.434	189.573	-0.101	0.153
-623.419	800.000	0.065	0.216
-622.405	-200.000	-0.007	-0.051
-621.390	-82.007	-0.213	-0.070
-620.376	-123.704	-0.042	-0.007
-619.361	-33.993	-0.228	-0.126
-618.346	-97.345	0.163	0.043
-617.332	-140.989	0.164	0.017
-616.317	-200.000	-0.024	0.140
-615.303	-200.000	0.007	-0.338
-614.288	-60.488	0.036	-0.016
-613.273	-60.224	-0.260	-0.111
-612.259	-48.384	-0.135	-0.065
-611.244	-82.227	0.132	0.043
-610.230	-200.000	-0.056	0.325
-609.215	-200.000	-0.038	-0.169
-608.201	-85.943	-0.098	0.030
-607.186	-127.800	-0.302	-0.044
-606.171	191.827	-0.194	-0.293
-605.157	-106.251	-0.097	-0.022
-604.142	21.094	-0.047	-0.038
-603.128	189.422	0.243	-0.366
-602.113	-200.000	-0.006	-0.369
-601.098	608.894	0.104	0.260
-600.084	-17.353	-0.094	0.060
-599.069	-59.344	0.288	-0.125
-598.055	116.480	-0.137	0.169
-597.040	-66.502	0.253	0.101
-596.025	800.000	0.097	-0.412
-595.011	800.000	-0.064	-0.180
-593.996	143.991	-0.236	0.317
-592.982	800.000	0.051	0.183
-591.967	-100.394	0.166	0.041
-590.952	70.592	0.188	-0.195
-589.938	-25.712	0.259	0.153
-588.923	-149.204	-0.277	-0.022
-587.909	800.000	0.052	-0.190
-586.894	-45.820	-0.368	0.182
-585.879	-200.000	-0.000	-0.081
-584.865	-6.803	0.082	0.056
-583.850	-110.596	-0.276	0.057
-582.836	-200.000	0.044	0.233
-581.821	-200.000	0.031	-0.439
-580.806	777.902	-0.073	0.201
-579.792	68.400	-0.080	0.083
-578.777	-53.899	0.150	0.069
-577.763	-54.542	0.055	0.025
-576.748	-103.111	0.083	0.020
-575.733	777.233	0.132	-0.361
-574.719	122.488	-0.060	0.075
-573.704	-69.960	-0.235	-0.090
-572.690	-22.833	0.280	-0.170
-571.675	54.350	0.256	0.248
-570.661	86.127	0.087	-0.096
-569.646	-149.480	-0.062	0.005
-568.631	43.822	-0.340	0.313
-567.617	800.000	0.091	-0.263
-566.602	-200.000	-0.018	-0.254
-565.588	176.693	-0.143	0.209
-564.573	453.194	0.086	-0.190
-563.558	49.804	0.227	-0.215
-562.544	172.060	-0.144	0.208
-561.529	288.018	-0.214	0.389
-560.515	7.847	-0.283	0.213
-559.500	-200.000	0.031	0.203
-558.485	350.263	0.073	0.145
-557.471	224.111	-0.131	-0.212
-556.456	-44.226	0.153	-0.077
-555.442	44.560	0.157	0.145
-554.427	-38.330	0.322	-0.171
-553.412	-200.000	-0.010	0.265
-552.398	-200.000	0.005	0.082
-551.383	800.000	-0.044	-0.130
-550.369	-63.793	0.397	-0.163
-549.354	-43.531	-0.150	-0.076
-548.339	198.527	-0.127	-0.195
-547.325	49.673	-0.186	0.176
-546.310	800.000	0.121	-0.338
-545.296	-200.000	-0.017	-0.296
-544.281	-200.000	-0.016	0.145
-543.266	800.000	0.104	0.326
-542.252	-149.459	-0.170	-0.013
-541.237	-200.000	0.040	-0.226
-540.223	5.649	0.293	-0.217
-539.208	-130.624	-0.360	-0.049
-538.193	-14.677	-0.336	-0.216
-537.179	451.364	-0.090	-0.198
-536.164	163.340	-0.093	-0.131
-535.150	101.606	0.221	-0.259
-534.135	-200.000	0.095	-0.458
-533.121	23.038	-0.169	0.139
-532.106	-19.256	-0.039	0.024
-531.091	16.616	-0.123	0.098
-530.077	-146.806	-0.256	-0.022
-529.062	-200.000	0.014	-0.080
-528.048	455.229	0.101	-0.224
-527.033	29.579	-0.095	-0.081
-526.018	-200.000	0.028	0.217
-525.004	-64.694	-0.262	-0.106
-523.989	800.000	-0.084	0.325
-522.975	-76.484	-0.379	-0.133
-521.960	676.067	0.080	0.208
-520.945	-114.738	-0.420	0.080
-519.931	-200.000	0.002	0.045
-518.916	85.311	0.239	0.263
-517.902	-124.740	0.251	-0.039
-516.887	-80.204	0.332	-0.111
-515.872	-200.000	-0.004	0.398
-514.858	45.943	0.095	-0.088
-513.843	-200.000	-0.021	0.094
-512.829	325.337	0.092	-0.176
-511.814	-92.668	-0.232	0.065
-510.799	677.523	0.078	0.203
-509.785	-73.604	-0.205	0.075
-508.770	-200.000	-0.044	-0.219
-507.756	-94.827	-0.122	-0.033
-506.741	-39.794	-0.216	-0.113
-505.726	-191.181	0.190	0.002
-504.712	387.366	-0.129	-0.267
-503.697	-21.732	-0.174	-0.106
-502.683	800.000	0.094	0.272
-501.668	800.000	0.043	-0.184
-500.653	-85.471	0.162	-0.051
-499.639	-73.826	0.215	-0.078
-498.624	-57.211	-0.123	-0.054
-497.610	-200.000	-0.031	0.308
-496.595	68.508	-0.123	0.126
-495.581	-200.000	-0.022	-0.276
-494.566	-72.666	0.195	0.072
-493.551	-200.000	-0.018	0.195
-492.537	-0.717	-0.232	0.165
-491.522	-49.372	0.075	0.036
-490.508	279.261	0.079	-0.141
-489.493	-159.024	-0.310	0.018
-488.478	800.000	-0.106	-0.295
-487.464	-200.000	0.021	0.102
-486.449	-15.475	-0.387	0.247
-485.435	133.502	0.384	0.496
-484.420	38.776	-0.217	0.194
-483.405	-200.000	-0.001	0.031
-482.391	117.578	0.230	-0.284
-481.376	-30.296	0.289	0.164
-480.362	52.401	-0.304	-0.291
-479.347	70.634	0.066	-0.069
-478.332	-144.856	0.211	-0.019
-477.318	-200.000	-0.019	-0.160
-476.303	800.000	0.059	0.197
-475.289	20.938	-0.183	0.149
-474.274	800.000	0.039	0.153
-473.259	-104.205	-0.181	-0.042
-472.245	58.898	-0.186	0.183
-471.230	800.000	0.087	-0.275
-470.216	-78.656	-0.154	0.053
-469.201	-7.837	0.019	0.013
-468.186	-81.256	-0.198	-0.065
-467.172	-14.662	0.118	0.076
-466.157	-200.000	0.002	0.050
-465.143	800.000	-0.042	-0.136
-464.128	-54.668	-0.203	0.092
-463.113	541.172	0.042	0.101
-462.099	800.000	0.133	0.417
-461.084	-173.235	0.150	-0.005
-460.070	310.313	-0.162	0.302
-459.055	21.774	-0.082	-0.067
-458.040	-200.000	-0.030	-0.159
-457.026	260.099	0.099	-0.171
-456.011	21.926	0.083	-0.068
-454.997	27.541	0.114	-0.096
-453.982	-64.155	-0.093	0.038
-452.968	21.360	-0.162	0.131
-451.953	-1.030	0.294	-0.208
-450.938	-200.000	0.037	-0.189
-449.924	80.773	0.033	0.036
-448.909	-155.291	-0.220	0.014
-447.895	398.768	-0.129	0.270
-446.880	61.226	0.125	-0.124
-445.865	-14.820	-0.195	-0.125
-444.851	-36.047	0.144	-0.078
-443.836	-200.000	0.050	-0.335
-442.822	800.000	0.105	0.430
-441.807	-200.000	0.003	0.156
-440.792	-200.000	0.058	-0.280
-439.778	-90.084	-0.108	0.031
-438.763	237.759	-0.105	-0.175
-437.749	169.466	-0.102	-0.146
-436.734	-200.000	0.028	0.251
-435.719	-112.843	-0.105	0.021
-434.705	-163.377	-0.308	-0.015
-433.690	-44.214	0.243	0.122
-432.676	-200.000	-0.040	0.296
-431.661	-189.498	0.255	-0.003
-430.646	-119.126	-0.449	0.078
-429.632	800.000	0.097	-0.319
-428.617	-200.000	-0.045	-0.245
-427.603	209.722	0.038	0.059
-426.588	-60.708	-0.226	-0.096
-425.573	720.069	-0.194	0.514
-424.559	14.673	0.226	0.176
-423.544	-142.643	0.237	0.023
-422.530	800.000	0.128	-0.376
-421.515	-28.702	-0.366	-0.210
-420.500	81.097	-0.142	-0.153
-419.486	220.188	-0.137	0.219
-418.471	800.000	-0.059	0.254
-417.457	20.585	-0.237	-0.191
-416.442	-58.929	0.284	-0.123
-415.428	481.762	0.106	0.239
-414.413	13.909	-0.247	-0.191
-413.398	46.131	0.198	0.183
-412.384	-106.803	0.155	-0.034
-411.369	72.740	0.027	0.028
-410.355	-200.000	0.004	-0.258
-409.340	-151.784	-0.152	0.011
-408.325	-200.000	-0.007	0.287
-407.311	-45.838	0.205	0.101
-406.296	-134.530	0.175	0.021
-405.282	800.000	0.064	0.233
-404.267	123.343	0.211	-0.264
-403.252	298.233	-0.114	-0.209
-402.238	-148.987	-0.128	0.010
-401.223	-66.842	-0.122	0.048
-400.209	-200.000	0.019	-0.143
-399.194	271.640	-0.121	0.213
-398.179	-169.805	0.365	0.013
-397.165	351.003	0.019	-0.037
-396.150	-106.497	0.147	-0.033
-395.136	-125.387	-0.328	-0.050
-394.121	-43.851	-0.258	-0.129
-393.106	800.000	-0.064	-0.178
-392.092	800.000	-0.033	0.120
-391.077	-118.010	0.122	-0.022
-390.063	-29.809	-0.072	0.041
-389.048	165.840	-0.236	-0.332
-388.033	-30.859	-0.204	-0.115
-387.019	-137.908	0.281	-0.031
-386.004	-35.893	0.197	0.106
-384.990	28.737	0.338	-0.285
-383.975	8.177	-0.196	-0.147
-382.960	-200.000	-0.037	0.187
-381.946	61.967	-0.184	0.183
-380.931	800.000	0.077	0.273
-379.917	-19.774	-0.153	0.094
-378.902	-39.018	0.258	0.135
-377.888	-26.914	-0.409	-0.238
-376.873	-18.214	0.137	0.085
-375.858	-84.351	0.136	-0.043
-374.844	-104.984	-0.070	0.016
-373.829	61.628	-0.231	0.229
-372.815	-46.679	0.274	-0.134
-371.800	-141.119	0.048	0.005
-370.785	-109.101	0.183	0.039
-369.771	-200.000	0.017	-0.198
-368.756	800.000	0.123	0.339
-367.742	-127.086	0.231	-0.034
-366.727	-149.539	-0.168	0.013
-365.712	266.485	0.152	0.264
-364.698	112.431	0.238	0.286
-363.683	-200.000	-0.006	0.060
-362.669	-200.000	0.018	0.102
-361.654	-200.000	-0.049	0.223
-360.639	525.765	0.159	-0.372
-359.625	0.121	-0.379	-0.269
-358.610	800.000	-0.007	-0.031
-357.596	-200.000	0.040	0.275
-356.581	20.558	-0.275	0.222
-355.566	-166.390	0.193	0.008
-354.552	-55.513	0.060	-0.027
-353.537	78.002	0.056	0.059
-352.523	-107.074	0.199	-0.044
-351.508	-48.568	0.301	0.144
-350.493	-160.259	-0.044	0.002
-349.479	-159.928	-0.185	-0.010
-348.464	30.214	-0.127	0.108
-347.450	13.275	0.090	0.070
-346.435	-116.593	-0.057	0.010
-345.420	800.000	0.042	-0.123
-344.406	62.273	-0.090	0.090
-343.391	87.180	-0.210	0.231
-342.377	340.523	0.026	0.051
-341.362	41.956	-0.154	-0.139
-340.348	800.000	0.116	0.325
-339.333	256.885	-0.148	0.253
-338.318	-200.000	-0.005	-0.241
-337.304	800.000	0.010	-0.037
-336.289	22.341	-0.343	-0.279
-335.275	-200.000	-0.015	-0.163
-334.260	-200.000	0.072	-0.482
-333.245	476.064	-0.141	-0.318
-332.231	-87.273	-0.282	0.085
-331.216	-53.511	0.075	-0.034
-330.202	-168.988	-0.192	0.007
-329.187	-200.000	-0.010	0.073
-328.172	800.000	0.100	0.398
-327.158	70.399	-0.083	0.085
-326.143	-79.554	0.046	-0.015
-325.129	-67.898	-0.130	0.051
-324.114	-200.000	-0.021	0.122
-323.099	-136.658	0.044	-0.005
-322.085	173.116	0.143	0.205
-321.070	293.265	0.137	-0.248
-320.056	79.964	0.099	0.105
-319.041	-10.118	-0.130	0.086
-318.026	800.000	0.100	-0.305
-317.012	46.042	-0.144	0.132
-315.997	-139.263	0.244	-0.026
-314.983	3.397	-0.252	0.182
-313.968	230.859	-0.108	0.176
-312.953	117.140	0.183	-0.224
-311.939	-83.522	0.202	0.064
-310.924	-34.056	0.119	-0.065
-309.910	126.060	0.211	-0.265
-308.895	44.754	0.211	0.192
-307.880	-53.544	-0.379	-0.172
-306.866	-129.104	0.229	-0.032
-305.851	100.711	-0.227	0.262
-304.837	-61.987	-0.115	-0.048
-303.822	195.220	-0.093	-0.141
-302.807	800.000	0.059	-0.179
-301.793	247.831	0.103	0.173
-300.778	-200.000	-0.051	0.323
-299.764	71.093	0.052	0.054
-298.749	-109.356	0.352	0.074
-297.735	477.907	0.088	0.198
-296.720	35.297	-0.114	0.100
-295.705	33.552	0.173	-0.149
-294.691	17.043	0.114	0.089
-293.676	-97.048	-0.238	-0.062
-292.662	-107.277	-0.145	-0.032
-291.647	-152.161	0.237	-0.017
-290.632	318.701	0.077	-0.145
-289.618	12.593	-0.090	0.069
-288.603	-99.736	0.179	-0.045
-287.589	-149.149	0.245	-0.019
-286.574	-200.000	-0.045	-0.330
-285.559	132.946	0.120	-0.154
-284.545	506.792	-0.126	0.289
-283.530	-37.312	0.452	-0.240
-282.516	-35.657	0.104	-0.056
-281.501	-117.247	0.351	0.063
-280.486	-135.883	0.130	-0.015
-279.472	-7.058	-0.101	-0.068
-278.457	-35.670	0.115	0.062
-277.443	-69.584	-0.154	0.059
-276.428	-200.000	-0.006	-0.044
-275.413	141.216	-0.037	-0.048
-274.399	-77.486	0.119	-0.041
-273.384	117.442	-0.128	-0.157
-272.370	-0.924	-0.200	-0.140
-271.355	-117.568	0.269	-0.048
-270.340	215.386	-0.064	-0.101
-269.326	-200.000	0.053	0.307
-268.311	-53.401	-0.242	0.110
-267.297	459.707	0.030	-0.065
-266.282	800.000	-0.077	0.316
-265.267	535.909	-0.083	0.196
-264.253	153.059	0.261	-0.355
-263.238	-103.346	0.140	-0.033
-262.224	-95.899	-0.112	-0.030
-261.209	309.231	0.060	0.111
-260.195	61.577	0.223	0.220
-259.180	-200.000	-0.050	0.382
-258.165	-35.413	0.323	0.174
-257.151	49.010	-0.169	-0.157
-256.136	-200.000	0.025	-0.363
-255.122	8.832	0.049	-0.037
-254.107	214.607	-0.123	0.194
-253.092	-125.928	0.193	0.029
-252.078	-200.000	0.026	-0.248
-251.063	138.481	0.091	0.119
-250.049	35.644	0.205	-0.179
-249.034	-91.717	-0.106	0.030
-248.019	80.960	-0.030	-0.032
-247.005	-53.995	-0.349	0.158
-245.990	405.460	-0.042	0.088
-244.976	-200.000	0.047	-0.226
-243.961	-92.215	0.249	-0.070
-242.946	170.702	0.042	0.059
-241.932	-56.952	0.086	-0.038
-240.917	800.000	-0.080	-0.324
-239.903	-161.321	-0.193	-0.010
-238.888	-122.807	0.235	-0.038
-237.873	-92.068	0.216	-0.061
-236.859	-200.000	0.007	-0.211
-235.844	247.157	0.196	0.328
-234.830	117.721	-0.145	0.176
-233.815	301.376	-0.148	0.271
-232.800	-21.499	0.312	-0.188
-231.786	-200.000	0.051	-0.311
-230.771	-64.693	0.334	0.134
-229.757	4.394	0.117	-0.085
-228.742	-200.000	0.031	0.236
-227.727	800.000	-0.103	0.385
-226.713	147.953	-0.149	-0.198
-225.698	800.000	0.044	0.148
-224.684	-71.950	-0.220	0.081
-223.669	800.000	0.029	-0.080
-222.655	800.000	0.088	-0.372
-221.640	800.000	-0.098	-0.299
-220.625	-112.668	-0.361	-0.071
-219.611	800.000	-0.094	0.324
-218.596	185.489	0.025	-0.037
-217.582	211.549	-0.103	0.161
-216.567	-62.043	-0.403	0.167
-215.552	-18.013	0.213	0.132
-214.538	168.390	0.184	0.260
-213.523	560.375	-0.128	0.306
-212.509	229.865	0.091	-0.146
-211.494	-110.379	-0.153	-0.031
-210.479	-156.772	0.070	-0.004
-209.465	-73.369	-0.139	-0.050
-208.450	-36.297	0.261	-0.139
-207.436	74.272	0.188	0.196
-206.421	800.000	-0.054	0.183
-205.406	-46.962	-0.207	0.100
-204.392	-142.041	0.410	-0.040
-203.377	-200.000	0.025	0.240
-202.363	219.264	-0.196	0.310
-201.348	385.489	-0.024	0.050
-200.333	-200.000	0.056	0.258
-199.319	-167.574	-0.173	-0.007
-198.304	-200.000	0.013	0.124
-197.290	-3.708	-0.125	-0.086
-196.275	199.769	-0.150	-0.228
-195.260	-74.968	0.309	0.109
-194.246	384.794	-0.178	-0.364
-193.231	-16.247	-0.356	-0.224
-192.217	13.120	0.183	0.140
-191.202	114.134	-0.049	0.059
-190.187	128.749	0.173	-0.218
-189.173	-63.049	-0.108	0.044
-188.158	278.790	0.098	-0.173
-187.144	-84.031	-0.078	0.025
-186.129	331.256	0.037	-0.071
-185.114	195.981	0.098	0.147
-184.100	180.447	-0.080	-0.116
-183.085	152.309	-0.168	0.226
-182.071	246.489	0.062	-0.104
-181.056	-115.087	-0.232	-0.043
-180.042	114.316	-0.102	-0.123
-179.027	-13.190	0.129	-0.083
-178.012	-130.646	0.362	-0.048
-176.998	-121.551	0.166	-0.027
-175.983	-200.000	-0.098	0.502
-174.969	800.000	-0.086	-0.297
-173.954	-6.386	0.353	-0.238
-172.939	343.405	0.067	-0.129
-171.925	800.000	-0.045	-0.128
-170.910	-11.276	0.261	-0.170
-169.896	666.252	0.142	-0.363
-168.881	-142.868	0.168	-0.016
-167.866	134.436	-0.089	-0.114
-166.852	466.319	-0.123	-0.272
-165.837	-200.000	0.043	0.201
-164.823	-161.552	-0.225	-0.011
-163.808	47.628	0.446	0.411
-162.793	460.482	-0.094	-0.207
-161.779	51.118	0.193	-0.180
-160.764	800.000	-0.094	-0.292
-159.750	291.482	-0.071	0.128
-158.735	113.374	0.218	0.262
-157.720	-117.977	0.268	0.047
-156.706	-200.000	0.004	0.089
-155.691	241.369	0.123	-0.203
-154.677	800.000	-0.034	0.116
-153.662	-117.273	-0.114	-0.020
-152.647	192.947	0.238	0.355
-151.633	84.033	-0.219	0.236
-150.618	148.068	0.086	0.115
-149.604	-172.006	-0.213	-0.007
-148.589	-189.543	0.062	-0.001
-147.574	-63.710	0.183	0.074
-146.560	-103.384	-0.099	-0.023
-145.545	-200.000	0.019	-0.157
-144.531	513.780	-0.041	0.095
-143.516	69.073	0.197	0.200
-142.502	248.088	-0.160	-0.267
-141.487	118.795	-0.086	-0.105
-140.472	-80.894	-0.200	0.066
-139.458	-56.596	-0.117	0.051
-138.443	30.980	0.198	-0.167
-137.429	0.108	0.122	0.086
-136.414	-200.000	-0.014	0.096
-135.399	234.624	0.047	-0.077
-134.385	89.470	-0.058	-0.064
-133.370	-52.143	0.355	-0.163
-132.356	-131.723	0.227	-0.029
-131.341	-84.893	0.174	0.054
-130.326	16.664	-0.075	-0.058
-129.312	-200.000	0.038	0.210
-128.297	-138.240	-0.102	-0.011
-127.283	21.900	0.190	0.153
-126.268	376.917	0.094	-0.190
-125.253	169.488	0.119	-0.167
-124.239	63.822	-0.161	0.159
-123.224	258.131	0.039	0.065
-122.210	21.987	-0.047	-0.038
-121.195	800.000	0.036	0.141
