DTS Sentinel unit serial number:	SN413079Multiplexer serial number:	ORYXHardware model number:	OX4-SRSoftware version number:	ORYX F/W v4.00 Oryx Data Collector v3.7.2.0data status	okinstallation	princeton_trtdifferential loss correction	single-endedforward channel	channel 1reverse channel	N/Adate	2019/09/18time	11:46:35forward acquisition time	60.00reverse acquisition time	0.00gamma	496.2192k internal	0.2325k external	0.2325temperature offset calibration	0.9977default loss term (dB/km)	0.3790temperature slope calibration	1.0000multiplexer offset coefficient	1.0000multiplexer slope coefficient	1.0000fibre end	0.00T internal ref (°C)	31.12T ext. ref 1 (°C)	0.47T ext. ref 2 (°C)	28.38length (m)	temperature (°C)	Stokes	anti-Stokes-747.200	-95.014	-0.192	-0.052
-746.185	162.950	0.245	0.347
-745.171	-23.376	-0.095	0.057
-744.156	51.412	-0.312	0.299
-743.142	-74.581	0.124	0.045
-742.127	-200.000	0.005	-0.047
-741.112	461.933	-0.110	0.247
-740.098	-58.465	-0.105	0.046
-739.083	-200.000	-0.063	-0.359
-738.069	-64.731	-0.150	0.061
-737.054	130.350	-0.064	-0.083
-736.039	-45.488	-0.285	0.142
-735.025	-93.638	0.201	-0.056
-734.010	-21.975	-0.279	-0.171
-732.996	-32.730	0.020	0.011
-731.981	800.000	0.053	0.178
-730.966	-200.000	-0.029	-0.273
-729.952	92.825	0.142	-0.162
-728.937	-20.493	0.151	-0.093
-727.923	-24.675	-0.170	-0.102
-726.908	239.396	-0.201	-0.337
-725.894	-200.000	-0.013	-0.112
-724.879	-35.619	-0.140	0.077
-723.864	28.843	-0.046	-0.039
-722.850	800.000	0.003	0.011
-721.835	21.144	-0.189	-0.154
-720.821	800.000	-0.062	-0.199
-719.806	372.466	0.050	0.102
-718.791	-200.000	-0.011	-0.307
-717.777	447.553	-0.159	-0.354
-716.762	-200.000	-0.020	-0.118
-715.748	-44.020	0.040	-0.020
-714.733	800.000	0.030	0.092
-713.718	-131.175	-0.130	-0.017
-712.704	111.390	0.161	-0.196
-711.689	453.387	0.116	-0.259
-710.675	345.845	-0.090	-0.178
-709.660	343.827	-0.167	0.329
-708.645	-200.000	0.030	-0.138
-707.631	800.000	0.059	0.178
-706.616	89.303	0.126	-0.142
-705.602	163.358	-0.107	-0.151
-704.587	-125.469	-0.143	-0.022
-703.572	-63.703	0.168	-0.069
-702.558	-102.462	0.291	0.070
-701.543	-121.305	0.015	0.002
-700.529	-139.259	-0.265	-0.029
-699.514	-110.640	0.123	0.026
-698.499	134.033	0.131	-0.171
-697.485	557.427	0.083	0.201
-696.470	-93.682	-0.194	-0.054
-695.456	800.000	-0.070	-0.277
-694.441	137.093	0.107	0.140
-693.426	-115.996	0.233	0.044
-692.412	-36.622	0.246	-0.133
-691.397	632.376	-0.031	-0.080
-690.383	70.389	-0.181	-0.189
-689.368	90.254	0.054	-0.061
-688.354	-112.722	-0.045	-0.009
-687.339	800.000	-0.084	0.279
-686.324	800.000	-0.026	0.099
-685.310	130.909	0.167	0.216
-684.295	-145.228	0.205	0.019
-683.281	-189.366	-0.284	-0.003
-682.266	-154.034	0.261	-0.018
-681.251	-200.000	0.003	0.045
-680.237	-200.000	-0.018	-0.259
-679.222	-2.575	-0.144	0.101
-678.208	283.906	-0.094	0.171
-677.193	51.699	0.074	0.071
-676.178	1.406	-0.547	0.396
-675.164	-22.017	-0.128	0.079
-674.149	333.485	0.097	-0.189
-673.135	800.000	-0.014	0.039
-672.120	95.178	0.092	0.105
-671.105	-28.231	0.281	0.163
-670.091	54.113	0.156	-0.151
-669.076	-30.534	-0.203	-0.116
-668.062	-200.000	-0.018	-0.200
-667.047	677.354	0.096	-0.252
-666.032	355.168	-0.065	-0.131
-665.018	-117.603	0.261	-0.047
-664.003	137.559	-0.090	-0.118
-662.989	29.813	-0.133	-0.114
-661.974	-70.716	0.187	0.071
-660.959	35.379	0.022	0.019
-659.945	-81.271	-0.105	-0.035
-658.930	42.144	0.098	0.090
-657.916	-94.738	0.174	-0.047
-656.901	800.000	0.036	0.106
-655.886	-100.427	0.257	0.064
-654.872	-33.282	0.105	0.058
-653.857	-74.029	0.164	-0.060
-652.843	-200.000	0.001	-0.128
-651.828	-16.085	-0.170	0.109
-650.814	800.000	-0.011	-0.039
-649.799	-108.991	0.249	0.053
-648.784	800.000	0.084	0.289
-647.770	-21.600	-0.280	0.171
-646.755	-103.136	-0.299	0.071
-645.741	212.676	0.152	0.242
-644.726	401.784	-0.061	-0.129
-643.711	798.282	-0.094	-0.261
-642.697	800.000	0.036	-0.156
-641.682	220.502	-0.028	-0.045
-640.668	-18.725	-0.221	-0.138
-639.653	-108.290	-0.348	0.076
-638.638	-101.078	0.381	-0.094
-637.624	800.000	-0.110	-0.395
-636.609	106.833	-0.190	-0.227
-635.595	-76.488	0.349	-0.123
-634.580	-147.981	0.124	-0.010
-633.565	252.157	-0.020	0.034
-632.551	-95.526	-0.231	-0.062
-631.536	303.200	-0.121	0.224
-630.522	-138.903	0.462	-0.050
-629.507	96.765	0.059	0.068
-628.492	-200.000	0.004	-0.118
-627.478	255.835	-0.106	-0.182
-626.463	227.231	0.072	-0.118
-625.449	-200.000	0.008	0.067
-624.434	-200.000	-0.013	0.183
-623.419	800.000	0.060	-0.175
-622.405	-53.416	-0.192	0.088
-621.390	84.285	0.122	-0.134
-620.376	346.845	0.030	-0.059
-619.361	109.961	-0.209	0.252
-618.346	796.250	0.009	-0.025
-617.332	-200.000	-0.033	0.179
-616.317	41.677	-0.243	0.221
-615.303	-9.161	-0.276	0.185
-614.288	115.755	-0.083	0.102
-613.273	12.922	-0.321	-0.249
-612.259	-200.000	-0.018	-0.178
-611.244	46.291	-0.193	-0.179
-610.230	-69.889	-0.180	-0.069
-609.215	-200.000	0.039	0.401
-608.201	359.690	0.080	-0.160
-607.186	285.115	-0.137	-0.249
-606.171	-116.172	0.139	-0.026
-605.157	-40.439	0.040	-0.021
-604.142	729.373	-0.046	-0.123
-603.128	466.326	-0.074	-0.166
-602.113	296.733	0.191	-0.352
-601.098	111.415	0.060	-0.073
-600.084	4.016	0.140	-0.102
-599.069	185.936	-0.160	-0.239
-598.055	-139.645	-0.137	-0.015
-597.040	-10.093	0.068	-0.046
-596.025	537.653	-0.174	-0.414
-595.011	175.688	-0.128	0.186
-593.996	-200.000	0.032	-0.266
-592.982	352.972	0.034	-0.068
-591.967	191.183	-0.113	0.171
-590.952	-200.000	-0.017	-0.272
-589.938	177.357	0.051	-0.074
-588.923	-50.087	-0.246	-0.117
-587.909	-174.986	0.023	0.001
-586.894	800.000	0.047	0.203
-585.879	-142.291	0.370	0.037
-584.865	-76.686	-0.106	-0.037
-583.850	-56.670	0.234	-0.104
-582.836	649.284	-0.093	-0.240
-581.821	-200.000	0.004	-0.551
-580.806	394.283	0.056	-0.118
-579.792	330.971	0.085	0.165
-578.777	800.000	0.113	-0.420
-577.763	179.967	-0.241	-0.354
-576.748	-110.381	-0.286	-0.060
-575.733	-113.688	0.024	0.005
-574.719	222.164	0.064	-0.103
-573.704	-200.000	0.034	0.160
-572.690	68.462	-0.175	0.180
-571.675	229.598	-0.095	0.156
-570.661	-200.000	-0.020	-0.113
-569.646	800.000	-0.050	-0.139
-568.631	-20.419	0.252	-0.155
-567.617	-82.690	-0.486	-0.158
-566.602	10.725	0.098	-0.075
-565.588	-200.000	-0.061	-0.558
-564.573	295.560	-0.246	-0.452
-563.558	428.452	0.047	0.102
-562.544	262.367	-0.049	-0.085
-561.529	592.601	0.159	0.393
-560.515	-200.000	0.036	0.364
-559.500	-0.480	0.105	0.075
-558.485	-37.661	0.263	0.140
-557.471	800.000	-0.069	-0.211
-556.456	-101.238	0.217	-0.053
-555.442	180.579	0.137	-0.202
-554.427	-24.205	0.083	-0.050
-553.412	-200.000	-0.012	-0.130
-552.398	-200.000	-0.009	0.152
-551.383	-33.235	-0.145	-0.080
-550.369	800.000	0.017	-0.065
-549.354	-139.562	0.055	0.006
-548.339	-200.000	0.007	0.039
-547.325	-85.815	0.286	0.089
-546.310	-68.290	-0.036	-0.014
-545.296	-162.208	0.171	-0.009
-544.281	421.421	-0.061	-0.131
-543.266	-71.660	0.239	0.090
-542.252	800.000	-0.007	-0.027
-541.237	-151.388	-0.260	-0.019
-540.223	-60.723	0.152	0.064
-539.208	8.006	-0.181	0.136
-538.193	-152.430	0.205	-0.015
-537.179	-1.643	0.135	0.095
-536.164	-114.272	0.236	-0.045
-535.150	-80.937	0.126	-0.042
-534.135	56.310	0.150	0.146
-533.121	-71.936	0.187	-0.069
-532.106	164.147	0.155	0.219
-531.091	-200.000	-0.013	-0.255
-530.077	800.000	-0.028	-0.095
-529.062	754.743	-0.152	-0.412
-528.048	-68.901	0.114	-0.044
-527.033	-200.000	-0.072	0.369
-526.018	-26.238	0.323	-0.190
-525.004	-200.000	-0.022	-0.449
-523.989	243.193	-0.021	0.034
-522.975	-200.000	-0.001	-0.041
-521.960	153.337	-0.036	0.050
-520.945	800.000	0.048	-0.184
-519.931	697.243	0.104	0.273
-518.916	-200.000	-0.034	0.303
-517.902	800.000	-0.023	-0.100
-516.887	-73.298	0.100	0.036
-515.872	13.007	-0.091	-0.071
-514.858	680.959	0.090	0.235
-513.843	104.572	0.067	-0.079
-512.829	140.186	-0.201	-0.265
-511.814	-200.000	-0.004	-0.143
-510.799	-200.000	0.053	0.410
-509.785	87.098	0.129	-0.143
-508.770	-181.699	0.127	0.002
-507.756	224.589	0.137	0.222
-506.741	188.746	0.153	-0.229
-505.726	465.360	-0.130	-0.291
-504.712	131.999	-0.154	-0.198
-503.697	-153.533	-0.318	-0.022
-502.683	800.000	-0.050	-0.149
-501.668	-173.561	-0.228	-0.007
-500.653	-4.374	-0.195	-0.135
-499.639	294.348	-0.037	0.068
-498.624	292.341	0.080	-0.146
-497.610	-163.136	0.043	0.002
-496.595	46.126	-0.186	0.172
-495.581	-200.000	0.027	-0.181
-494.566	-73.447	0.235	-0.086
-493.551	623.663	-0.051	0.129
-492.537	190.495	-0.109	-0.164
-491.522	64.266	-0.212	0.213
-490.508	2.849	-0.224	0.162
-489.493	-12.764	0.117	0.076
-488.478	-120.661	-0.356	-0.060
-487.464	800.000	-0.073	-0.254
-486.449	261.963	0.100	0.173
-485.435	214.911	0.114	0.181
-484.420	-141.731	0.073	0.007
-483.405	-79.765	0.197	0.066
-482.391	-68.431	-0.168	-0.065
-481.376	-200.000	-0.005	-0.048
-480.362	-172.723	-0.221	-0.007
-479.347	79.321	-0.426	0.456
-478.332	800.000	-0.072	0.269
-477.318	-200.000	0.003	0.000
-476.303	-137.615	0.215	-0.024
-475.289	349.743	0.052	0.102
-474.274	45.051	-0.157	-0.145
-473.259	25.447	-0.225	0.187
-472.245	786.705	0.044	0.120
-471.230	307.306	0.089	0.166
-470.216	383.618	0.071	0.145
-469.201	557.082	-0.169	0.408
-468.186	73.126	-0.236	-0.246
-467.172	-154.895	-0.045	-0.003
-466.157	-170.917	-0.250	0.009
-465.143	-66.233	0.190	0.075
-464.128	272.987	0.092	0.162
-463.113	-200.000	0.019	-0.180
-462.099	-32.950	-0.358	0.198
-461.084	-27.034	0.172	0.100
-460.070	-30.439	0.240	0.136
-459.055	21.768	0.233	0.189
-458.040	-200.000	-0.127	-0.614
-457.026	-30.136	0.162	0.092
-456.011	-94.163	-0.328	-0.090
-454.997	48.996	-0.248	-0.232
-453.982	-123.931	-0.078	-0.012
-452.968	-200.000	-0.059	-0.375
-451.953	31.559	-0.325	0.279
-450.938	800.000	-0.057	-0.189
-449.924	-21.725	-0.144	-0.088
-448.909	367.625	0.057	-0.114
-447.895	70.997	0.159	-0.164
-446.880	-15.588	0.089	-0.057
-445.865	442.420	0.053	-0.115
-444.851	499.207	-0.160	-0.368
-443.836	199.110	-0.103	-0.158
-442.822	-194.975	0.099	-0.001
-441.807	-99.404	0.208	0.052
-440.792	-200.000	0.056	-0.409
-439.778	-41.983	-0.228	-0.116
-438.763	51.326	0.072	0.068
-437.749	548.044	0.150	0.359
-436.734	-9.954	-0.253	-0.168
-435.719	-104.028	0.379	-0.088
-434.705	-76.855	-0.198	0.069
-433.690	-109.567	-0.260	-0.055
-432.676	-200.000	0.023	0.162
-431.661	-36.641	-0.125	0.067
-430.646	238.006	0.066	-0.109
-429.632	-200.000	0.014	0.091
-428.617	10.547	-0.242	0.184
-427.603	-144.701	0.283	0.026
-426.588	-0.822	0.257	0.181
-425.573	-133.934	-0.161	-0.020
-424.559	22.586	0.028	0.023
-423.544	79.288	0.198	0.211
-422.530	-200.000	0.001	0.222
-421.515	-109.689	0.068	0.014
-420.500	800.000	0.107	-0.384
-419.486	411.282	0.074	0.157
-418.471	249.362	-0.093	-0.157
-417.457	536.543	0.092	-0.217
-416.442	-2.336	-0.056	0.039
-415.428	800.000	0.063	0.186
-414.413	265.788	-0.142	-0.246
-413.398	404.710	0.093	-0.196
-412.384	-200.000	0.073	-0.382
-411.369	-141.828	0.261	0.026
-410.355	-200.000	-0.065	0.458
-409.340	800.000	-0.043	0.147
-408.325	-117.155	0.223	0.040
-407.311	436.888	0.052	-0.113
-406.296	-19.161	-0.206	-0.128
-405.282	-200.000	-0.000	-0.152
-404.267	91.434	0.057	0.063
-403.252	155.728	0.142	0.195
-402.238	-200.000	-0.004	0.371
-401.223	-50.354	-0.204	-0.096
-400.209	-200.000	-0.006	0.257
-399.194	96.933	0.187	0.213
-398.179	-39.337	0.050	0.026
-397.165	-2.818	-0.238	-0.165
-396.150	206.097	-0.219	0.339
-395.136	88.415	0.322	0.356
-394.121	-97.697	0.217	0.056
-393.106	-200.000	0.008	0.062
-392.092	517.557	-0.220	-0.513
-391.077	-83.867	0.071	0.023
-390.063	-8.588	-0.109	-0.073
-389.048	127.394	-0.107	-0.136
-388.033	-200.000	-0.037	-0.254
-387.019	466.322	-0.045	-0.101
-386.004	-200.000	-0.008	0.118
-384.990	-200.000	-0.011	-0.206
-383.975	-200.000	0.033	-0.145
-382.960	-200.000	0.011	-0.219
-381.946	800.000	-0.045	-0.154
-380.931	800.000	0.101	0.298
-379.917	-155.519	-0.150	0.010
-378.902	-200.000	-0.030	-0.201
-377.888	87.388	0.102	-0.113
-376.873	-200.000	-0.045	0.273
-375.858	-46.926	0.267	0.130
-374.844	211.366	-0.073	0.114
-373.829	259.942	0.186	-0.319
-372.815	44.387	0.341	0.312
-371.800	89.689	-0.075	-0.084
-370.785	188.879	0.133	0.198
-369.771	-200.000	-0.005	-0.085
-368.756	311.339	0.067	0.124
-367.742	228.397	-0.030	-0.048
-366.727	37.772	0.082	-0.072
-365.712	-200.000	-0.003	-0.073
-364.698	-200.000	-0.003	-0.047
-363.683	648.746	0.049	-0.126
-362.669	591.774	-0.072	0.176
-361.654	162.948	0.049	-0.069
-360.639	-142.764	0.174	0.017
-359.625	21.987	-0.076	0.061
-358.610	-200.000	-0.043	0.340
-357.596	17.162	0.260	0.205
-356.581	-133.936	0.256	0.032
-355.566	-200.000	-0.038	0.188
-354.552	16.646	-0.125	-0.098
-353.537	318.345	-0.161	-0.302
-352.523	64.170	-0.239	-0.239
-351.508	-200.000	0.100	0.537
-350.493	800.000	0.057	0.194
-349.479	-27.675	0.126	0.073
-348.464	-200.000	0.039	-0.288
-347.450	-200.000	0.093	0.503
-346.435	282.382	-0.122	0.218
-345.420	47.770	-0.166	-0.154
-344.406	-12.564	0.299	-0.194
-343.391	-60.135	0.267	0.113
-342.377	557.731	0.093	-0.222
-341.362	69.516	-0.108	0.110
-340.348	155.668	0.060	-0.082
-339.333	-148.294	-0.193	-0.016
-338.318	82.249	0.079	-0.085
-337.304	-140.647	-0.289	-0.030
-336.289	-200.000	0.023	-0.145
-335.275	-159.155	-0.215	-0.012
-334.260	-137.520	0.302	-0.034
-333.245	51.385	0.148	0.140
-332.231	-165.881	0.368	0.016
-331.216	800.000	0.046	0.143
-330.202	84.048	0.318	0.345
-329.187	-200.000	0.022	0.212
-328.172	37.414	-0.209	-0.184
-327.158	-34.878	0.113	0.061
-326.143	-178.052	-0.250	-0.006
-325.129	-121.192	0.137	0.023
-324.114	-115.046	-0.320	0.060
-323.099	-36.406	-0.113	-0.060
-322.085	445.834	-0.113	0.246
-321.070	800.000	-0.085	-0.251
-320.056	-158.998	-0.091	0.005
-319.041	-200.000	-0.024	-0.247
-318.026	-107.772	-0.291	0.063
-317.012	-183.121	0.202	0.004
-315.997	542.109	-0.067	0.158
-314.983	-6.577	0.265	0.179
-313.968	42.028	0.159	0.143
-312.953	-54.312	-0.160	-0.072
-311.939	-200.000	-0.010	0.103
-310.924	436.584	-0.084	-0.181
-309.910	-109.341	0.085	-0.018
-308.895	365.574	0.181	-0.362
-307.880	28.899	-0.046	0.038
-306.866	130.173	0.231	0.294
-305.851	800.000	0.063	-0.187
-304.837	-113.487	-0.082	0.016
-303.822	-200.000	-0.046	-0.510
-302.807	800.000	0.089	-0.263
-301.793	-200.000	-0.030	-0.210
-300.778	6.185	-0.344	-0.253
-299.764	-2.830	-0.156	0.108
-298.749	-200.000	-0.001	0.186
-297.735	-52.760	-0.266	-0.122
-296.720	-31.442	-0.205	0.115
-295.705	-110.229	0.356	0.073
-294.691	57.992	-0.135	0.131
-293.676	-28.705	0.221	0.126
-292.662	39.121	-0.133	0.118
-291.647	358.956	-0.098	0.194
-290.632	-164.142	-0.133	-0.006
-289.618	-200.000	-0.001	0.186
-288.603	-200.000	0.020	-0.161
-287.589	409.218	0.030	-0.064
-286.574	0.530	-0.166	-0.118
-285.559	-200.000	-0.018	0.174
-284.545	-96.597	0.065	0.017
-283.530	5.637	-0.065	-0.047
-282.516	4.842	0.158	0.115
-281.501	-15.473	-0.312	-0.197
-280.486	-3.278	0.102	-0.070
-279.472	-19.850	0.031	-0.019
-278.457	406.254	0.242	0.507
-277.443	431.254	-0.034	0.073
-276.428	-200.000	-0.024	-0.333
-275.413	64.250	0.064	-0.063
-274.399	-200.000	0.024	-0.562
-273.384	-200.000	-0.016	-0.214
-272.370	-130.214	0.040	-0.005
-271.355	9.466	0.161	0.121
-270.340	85.636	-0.172	0.187
-269.326	315.924	0.138	-0.259
-268.311	460.238	-0.025	-0.055
-267.297	-79.747	0.212	-0.071
-266.282	13.289	0.160	0.123
-265.267	-200.000	-0.024	-0.227
-264.253	769.865	-0.092	-0.249
-263.238	63.798	-0.177	0.177
-262.224	-84.471	-0.176	-0.055
-261.209	-105.298	0.208	0.047
-260.195	800.000	-0.117	-0.486
-259.180	-200.000	0.065	0.427
-258.165	-133.985	0.340	0.042
-257.151	283.717	0.138	0.246
-256.136	360.379	-0.137	-0.272
-255.122	-200.000	-0.003	-0.127
-254.107	-200.000	-0.003	0.096
-253.092	-88.187	0.213	-0.063
-252.078	-200.000	-0.013	0.088
-251.063	455.282	0.057	-0.126
-250.049	-200.000	-0.057	0.247
-249.034	44.148	0.136	0.123
-248.019	104.806	-0.099	0.115
-247.005	-200.000	-0.033	0.239
-245.990	36.482	0.279	0.243
-244.976	-200.000	0.005	-0.144
-243.961	800.000	-0.084	-0.260
-242.946	181.263	0.075	-0.110
-241.932	124.467	-0.050	-0.062
-240.917	-101.616	0.276	-0.066
-239.903	-200.000	-0.024	0.275
-238.888	-200.000	-0.083	-0.394
-237.873	668.591	-0.157	0.401
-236.859	-84.021	0.194	-0.061
-235.844	0.218	0.347	0.245
-234.830	147.889	-0.140	-0.187
-233.815	58.011	0.089	0.086
-232.800	-200.000	-0.010	0.055
-231.786	800.000	0.077	0.244
-230.771	98.310	-0.144	0.164
-229.757	-130.873	0.244	0.032
-228.742	-200.000	-0.008	0.058
-227.727	211.607	0.141	0.219
-226.713	398.287	0.067	-0.139
-225.698	-200.000	0.048	-0.233
-224.684	-200.000	-0.015	0.254
-223.669	800.000	-0.020	-0.070
-222.655	-106.363	-0.157	-0.035
-221.640	71.982	0.306	0.315
-220.625	-200.000	0.084	0.418
-219.611	786.771	0.115	0.311
-218.596	800.000	0.018	0.071
-217.582	-200.000	0.060	0.317
-216.567	754.609	-0.120	0.321
-215.552	114.468	0.083	0.100
-214.538	22.771	-0.014	-0.011
-213.523	-200.000	0.030	0.176
-212.509	642.161	0.014	0.036
-211.494	356.013	-0.017	0.034
-210.479	47.388	0.152	-0.140
-209.465	-89.604	0.046	-0.013
-208.450	157.397	0.085	0.116
-207.436	-149.288	-0.145	-0.011
-206.421	202.502	0.077	-0.117
-205.406	-87.607	0.339	-0.101
-204.392	53.252	-0.200	0.190
-203.377	-200.000	0.014	0.249
-202.363	-179.101	-0.231	0.005
-201.348	-200.000	-0.003	-0.302
-200.333	773.174	0.080	0.215
-199.319	479.309	0.153	-0.343
-198.304	14.926	0.074	0.057
-197.290	-26.476	-0.273	0.158
-196.275	48.557	-0.122	0.113
-195.260	800.000	-0.063	0.244
-194.246	507.205	-0.066	0.152
-193.231	-126.494	0.427	0.063
-192.217	41.351	0.194	0.173
-191.202	142.317	-0.043	-0.057
-190.187	-131.195	-0.236	-0.031
-189.173	43.572	0.113	0.102
-188.158	-0.070	-0.200	0.140
-187.144	-99.444	-0.341	-0.085
-186.129	-68.244	-0.227	0.087
-185.114	695.410	-0.055	0.143
-184.100	157.393	0.200	0.273
-183.085	800.000	0.031	-0.118
-182.071	-52.249	-0.138	0.063
-181.056	286.201	0.087	0.156
-180.042	448.105	0.108	0.234
-179.027	-2.882	0.169	0.116
-178.012	-29.119	0.252	0.143
-176.998	800.000	-0.144	-0.400
-175.983	800.000	0.062	-0.197
-174.969	-155.537	0.254	0.016
-173.954	4.025	-0.072	-0.052
-172.939	131.917	-0.192	0.244
-171.925	193.764	0.075	0.111
-170.910	25.600	0.150	0.123
-169.896	53.509	-0.264	0.249
-168.881	-8.169	-0.115	0.076
-167.866	-90.171	-0.235	-0.068
-166.852	-71.407	0.068	-0.025
-165.837	800.000	0.108	0.362
-164.823	-88.808	-0.246	-0.072
-163.808	171.629	0.075	0.106
-162.793	84.728	-0.155	0.167
-161.779	384.320	-0.124	0.253
-160.764	-99.310	0.070	0.018
-159.750	-200.000	0.008	-0.118
-158.735	-200.000	-0.010	0.228
-157.720	328.591	-0.131	-0.248
-156.706	351.658	-0.204	-0.398
-155.691	16.404	-0.203	0.158
-154.677	-200.000	-0.006	-0.040
-153.662	-53.421	-0.076	-0.034
-152.647	48.424	-0.042	0.038
-151.633	800.000	-0.064	0.176
-150.618	124.954	0.195	-0.242
-149.604	-142.559	-0.045	0.004
-148.589	-84.289	0.229	0.072
-147.574	-200.000	-0.015	-0.279
-146.560	-126.364	0.060	0.009
-145.545	-156.020	0.254	-0.016
-144.531	-134.398	0.508	0.061
-143.516	-28.563	-0.118	0.067
-142.502	-89.014	0.204	0.059
-141.487	344.223	-0.058	0.113
-140.472	-108.245	-0.107	-0.023
-139.458	-54.640	-0.230	-0.103
-138.443	-84.496	-0.205	-0.064
-137.429	-200.000	-0.020	0.446
-136.414	-53.636	-0.120	0.054
-135.399	-200.000	-0.007	-0.093
-134.385	247.684	-0.039	-0.065
-133.370	207.068	-0.138	-0.212
-132.356	-133.002	0.053	0.007
-131.341	-16.080	-0.444	-0.278
-130.326	800.000	-0.063	-0.176
-129.312	800.000	0.025	-0.087
-128.297	127.626	0.080	0.100
-127.283	-69.466	-0.272	-0.103
-126.268	-23.429	0.250	0.148
-125.253	800.000	0.080	-0.312
-124.239	-77.306	-0.313	-0.107
-123.224	-200.000	-0.024	0.246
-122.210	-32.550	0.083	-0.046
