DTS Sentinel unit serial number:	SN413079Multiplexer serial number:	ORYXHardware model number:	OX4-SRSoftware version number:	ORYX F/W v4.00 Oryx Data Collector v3.7.2.0data status	okinstallation	princeton_trtdifferential loss correction	single-endedforward channel	channel 1reverse channel	N/Adate	2019/09/17time	13:46:35forward acquisition time	60.00reverse acquisition time	0.00gamma	496.2192k internal	0.2304k external	0.2304temperature offset calibration	0.9971default loss term (dB/km)	0.3790temperature slope calibration	1.0000multiplexer offset coefficient	1.0000multiplexer slope coefficient	1.0000fibre end	0.00T internal ref (°C)	35.11T ext. ref 1 (°C)	0.42T ext. ref 2 (°C)	32.30length (m)	temperature (°C)	Stokes	anti-Stokes-747.200	110.917	0.208	-0.255
-746.185	800.000	-0.078	0.251
-745.171	800.000	0.096	0.340
-744.156	-114.665	-0.044	0.009
-743.142	800.000	0.082	-0.351
-742.127	-120.105	-0.051	-0.009
-741.112	61.488	0.050	0.051
-740.098	-110.962	-0.197	0.041
-739.083	-200.000	-0.003	-0.019
-738.069	-98.689	-0.313	0.081
-737.054	800.000	-0.147	-0.457
-736.039	-109.908	-0.061	0.013
-735.025	-97.762	0.114	-0.030
-734.010	23.813	0.205	-0.172
-732.996	-159.996	-0.259	0.014
-731.981	109.108	0.045	0.055
-730.966	-138.303	-0.160	-0.018
-729.952	-200.000	0.038	-0.354
-728.937	-107.022	-0.261	0.059
-727.923	-130.255	0.387	0.054
-726.908	-107.389	-0.084	-0.019
-725.894	-54.550	-0.332	-0.153
-724.879	-197.752	0.073	0.000
-723.864	637.074	0.151	0.389
-722.850	452.247	-0.088	0.198
-721.835	800.000	0.091	0.394
-720.821	-6.673	-0.143	-0.099
-719.806	-50.244	0.168	-0.081
-718.791	800.000	0.062	-0.235
-717.777	309.472	-0.085	0.162
-716.762	-200.000	0.022	-0.202
-715.748	800.000	-0.046	0.177
-714.733	289.980	-0.121	0.224
-713.718	-200.000	-0.006	-0.076
-712.704	257.140	0.147	0.257
-711.689	-21.181	0.361	0.224
-710.675	316.978	-0.199	0.383
-709.660	331.964	0.080	0.157
-708.645	-200.000	-0.020	0.175
-707.631	205.795	-0.046	0.072
-706.616	-132.429	0.183	0.024
-705.602	-161.201	-0.207	-0.011
-704.587	-38.917	-0.411	-0.220
-703.572	67.393	-0.132	-0.137
-702.558	99.955	-0.056	0.067
-701.543	-178.425	-0.224	-0.005
-700.529	10.995	0.282	-0.219
-699.514	145.582	0.096	-0.130
-698.499	120.673	0.198	-0.250
-697.485	-200.000	-0.008	-0.050
-696.470	-200.000	-0.056	-0.379
-695.456	87.234	0.107	-0.120
-694.441	800.000	0.062	0.264
-693.426	157.186	0.060	0.084
-692.412	-38.673	-0.227	-0.122
-691.397	156.910	-0.079	0.111
-690.383	194.903	-0.130	-0.201
-689.368	48.862	0.395	0.377
-688.354	800.000	0.059	0.168
-687.339	-200.000	-0.006	-0.227
-686.324	219.305	-0.118	0.191
-685.310	154.346	-0.115	-0.160
-684.295	-200.000	-0.001	-0.329
-683.281	-45.496	-0.247	-0.124
-682.266	-58.745	-0.220	0.097
-681.251	148.753	-0.186	-0.256
-680.237	28.811	0.207	0.178
-679.222	220.931	0.106	0.172
-678.208	10.182	-0.210	0.162
-677.193	-85.724	-0.287	0.091
-676.178	-91.332	-0.055	-0.016
-675.164	-200.000	0.007	-0.417
-674.149	422.219	-0.114	-0.248
-673.135	-25.313	0.173	-0.104
-672.120	631.925	-0.074	0.192
-671.105	158.989	0.064	-0.090
-670.091	-200.000	-0.436	-0.002
-669.076	800.000	-0.094	-0.265
-668.062	-179.429	-0.073	-0.002
-667.047	800.000	-0.044	0.157
-666.032	-96.868	0.323	0.086
-665.018	-100.163	0.037	0.009
-664.003	798.905	0.120	-0.337
-662.989	62.779	-0.101	-0.102
-661.974	-113.861	0.218	0.043
-660.959	-200.000	-0.006	-0.283
-659.945	-122.690	0.166	0.027
-658.930	-82.949	0.247	0.081
-657.916	158.923	-0.062	0.087
-656.901	474.749	-0.155	0.355
-655.886	111.691	-0.108	0.132
-654.872	386.631	0.075	-0.156
-653.857	162.871	-0.066	-0.094
-652.843	-200.000	-0.078	-0.421
-651.828	59.778	-0.266	-0.266
-650.814	145.213	-0.168	-0.229
-649.799	800.000	0.062	-0.192
-648.784	356.457	-0.225	-0.455
-647.770	-113.516	0.204	-0.041
-646.755	532.013	0.171	-0.409
-645.741	-78.813	0.100	0.035
-644.726	-200.000	-0.000	-0.139
-643.711	-41.461	-0.472	-0.246
-642.697	198.741	0.160	-0.249
-641.682	-50.383	0.091	-0.044
-640.668	-200.000	-0.036	-0.195
-639.653	-173.830	0.213	0.006
-638.638	-147.663	-0.306	0.026
-637.624	800.000	-0.018	-0.070
-636.609	161.163	0.050	0.071
-635.595	-90.140	-0.242	-0.071
-634.580	-138.663	-0.148	0.016
-633.565	800.000	-0.141	-0.426
-632.551	-200.000	-0.010	-0.454
-631.536	-49.315	-0.043	-0.021
-630.522	-200.000	0.000	-0.360
-629.507	-43.666	-0.286	-0.146
-628.492	-158.935	0.365	-0.021
-627.478	-200.000	0.011	0.175
-626.463	54.083	0.079	0.077
-625.449	185.214	-0.244	0.367
-624.434	130.263	-0.094	-0.122
-623.419	135.299	0.054	-0.072
-622.405	-80.507	-0.302	-0.102
-621.390	-105.244	0.396	0.092
-620.376	-59.979	-0.115	-0.050
-619.361	147.762	0.180	-0.245
-618.346	-200.000	-0.042	0.197
-617.332	-66.075	-0.274	-0.111
-616.317	34.972	0.303	-0.268
-615.303	74.845	0.112	-0.119
-614.288	131.109	-0.096	-0.125
-613.273	605.276	0.071	0.180
-612.259	800.000	0.107	0.446
-611.244	800.000	0.046	0.181
-610.230	-66.782	-0.100	-0.040
-609.215	-22.278	-0.357	-0.219
-608.201	-200.000	0.031	0.440
-607.186	93.989	0.199	-0.229
-606.171	-0.669	0.277	-0.199
-605.157	800.000	-0.064	0.225
-604.142	411.946	0.040	0.087
-603.128	-122.167	0.217	-0.036
-602.113	-143.718	0.140	-0.013
-601.098	631.852	-0.039	-0.100
-600.084	-163.244	0.304	0.015
-599.069	800.000	-0.118	0.359
-598.055	-200.000	-0.000	-0.051
-597.040	165.336	0.168	0.241
-596.025	-84.760	-0.044	-0.014
-595.011	-88.166	-0.156	0.047
-593.996	-200.000	-0.027	0.165
-592.982	108.659	-0.059	0.072
-591.967	-200.000	-0.019	0.107
-590.952	271.364	0.092	-0.164
-589.938	492.260	0.054	-0.125
-588.923	148.056	0.167	0.228
-587.909	-156.302	0.169	0.011
-586.894	-30.612	-0.247	-0.142
-585.879	423.779	0.101	-0.219
-584.865	800.000	-0.125	-0.375
-583.850	72.595	-0.127	-0.134
-582.836	136.579	-0.196	0.259
-581.821	394.632	0.026	-0.055
-580.806	186.618	-0.135	-0.203
-579.792	2.349	-0.091	0.067
-578.777	-162.573	0.060	0.003
-577.763	-136.594	-0.258	-0.030
-576.748	800.000	0.036	-0.136
-575.733	17.842	-0.320	-0.258
-574.719	2.181	0.110	0.080
-573.704	-200.000	0.039	0.351
-572.690	-39.647	-0.058	0.031
-571.675	-39.639	-0.108	0.057
-570.661	-200.000	-0.020	-0.248
-569.646	689.663	0.135	-0.358
-568.631	47.491	-0.123	0.116
-567.617	107.038	-0.134	0.161
-566.602	378.366	0.094	-0.194
-565.588	-101.106	-0.185	-0.046
-564.573	-200.000	0.030	-0.142
-563.558	-75.123	-0.168	-0.061
-562.544	800.000	-0.049	0.202
-561.529	-55.915	-0.178	-0.080
-560.515	-200.000	-0.001	0.127
-559.500	177.859	-0.207	0.306
-558.485	-200.000	0.002	0.207
-557.471	-39.515	-0.098	-0.052
-556.456	-128.850	0.272	0.039
-555.442	-147.010	-0.185	-0.016
-554.427	148.490	0.223	0.304
-553.412	-23.529	-0.444	-0.269
-552.398	-6.661	-0.238	0.164
-551.383	-200.000	-0.036	-0.194
-550.369	26.893	-0.226	-0.191
-549.354	-83.614	0.459	0.148
-548.339	121.684	0.183	0.231
-547.325	-90.787	-0.263	-0.077
-546.310	-120.517	0.098	-0.017
-545.296	-137.122	-0.195	-0.023
-544.281	301.359	0.044	-0.082
-543.266	85.852	0.141	0.157
-542.252	-184.595	0.291	-0.005
-541.237	773.058	-0.052	0.144
-540.223	-21.319	0.130	-0.080
-539.208	156.198	0.156	-0.217
-538.193	800.000	-0.072	-0.287
-537.179	-137.895	0.141	0.016
-536.164	518.193	0.019	-0.045
-535.150	-200.000	0.023	-0.186
-534.135	-44.585	0.159	-0.080
-533.121	101.990	-0.063	-0.075
-532.106	98.211	0.082	0.096
-531.091	19.207	-0.112	0.091
-530.077	-200.000	-0.031	-0.199
-529.062	-61.865	0.131	0.055
-528.048	27.409	-0.197	-0.167
-527.033	136.848	0.069	0.091
-526.018	800.000	-0.088	0.340
-525.004	205.561	-0.089	0.140
-523.989	744.395	0.114	0.309
-522.975	69.738	-0.122	-0.127
-521.960	-200.000	-0.007	-0.529
-520.945	575.615	0.199	-0.490
-519.931	183.829	-0.129	0.192
-518.916	-12.491	0.375	0.247
-517.902	74.267	0.107	0.113
-516.887	-200.000	-0.019	0.224
-515.872	82.024	-0.306	-0.334
-514.858	-34.195	-0.122	0.068
-513.843	116.613	-0.072	-0.089
-512.829	800.000	-0.077	0.299
-511.814	201.005	0.156	-0.243
-510.799	-158.806	-0.168	0.010
-509.785	28.978	-0.199	-0.170
-508.770	-102.461	-0.214	0.052
-507.756	-200.000	0.036	-0.193
-506.741	-102.748	-0.399	0.096
-505.726	4.830	-0.250	-0.185
-504.712	35.472	0.078	-0.069
-503.697	21.971	0.105	0.087
-502.683	-94.797	0.270	0.074
-501.668	-101.959	-0.134	-0.033
-500.653	24.739	-0.204	-0.170
-499.639	800.000	-0.024	-0.090
-498.624	-62.353	0.224	-0.094
-497.610	-143.881	-0.233	-0.022
-496.595	800.000	0.061	-0.247
-495.581	-200.000	0.054	-0.301
-494.566	62.516	-0.278	0.280
-493.551	-136.505	0.053	-0.006
-492.537	19.678	-0.272	-0.220
-491.522	258.883	-0.055	-0.095
-490.508	-13.736	-0.181	-0.118
-489.493	50.072	-0.182	-0.173
-488.478	-200.000	-0.014	-0.121
-487.464	442.949	-0.166	-0.366
-486.449	-66.771	-0.164	0.066
-485.435	-149.015	-0.055	0.004
-484.420	122.095	0.037	0.047
-483.405	800.000	-0.061	0.211
-482.391	-128.608	-0.403	0.057
-481.376	-93.416	0.164	-0.046
-480.362	-65.715	-0.282	-0.114
-479.347	-91.058	-0.311	-0.090
-478.332	31.616	-0.115	-0.100
-477.318	-200.000	0.001	-0.247
-476.303	800.000	0.081	-0.251
-475.289	-132.611	-0.249	-0.032
-474.274	800.000	-0.063	0.193
-473.259	800.000	-0.058	0.179
-472.245	-132.293	-0.070	-0.009
-471.230	-12.464	0.140	-0.092
-470.216	-106.281	0.220	0.050
-469.201	-128.585	-0.172	0.025
-468.186	-18.128	-0.189	0.119
-467.172	-200.000	-0.057	-0.307
-466.157	-171.571	-0.505	0.017
-465.143	-88.362	0.182	0.055
-464.128	-172.170	0.281	0.009
-463.113	13.416	0.279	-0.218
-462.099	233.898	-0.062	-0.102
-461.084	-18.657	-0.199	-0.125
-460.070	-200.000	0.005	0.052
-459.055	-27.128	0.356	-0.209
-458.040	-200.000	-0.039	0.247
-457.026	-163.732	0.386	0.018
-456.011	-113.343	-0.078	-0.015
-454.997	205.348	0.202	0.316
-453.982	-137.954	-0.224	0.025
-452.968	800.000	-0.133	0.382
-451.953	-200.000	0.076	0.382
-450.938	185.069	0.177	-0.264
-449.924	-119.491	-0.121	0.021
-448.909	-17.640	0.164	0.104
-447.895	-101.987	0.074	-0.018
-446.880	-170.758	0.279	-0.010
-445.865	32.846	0.200	0.174
-444.851	-171.573	-0.370	-0.012
-443.836	274.663	0.062	-0.111
-442.822	95.554	-0.080	0.092
-441.807	-69.608	0.168	0.065
-440.792	800.000	0.029	-0.091
-439.778	-104.372	-0.202	0.047
-438.763	800.000	0.074	0.296
-437.749	-54.423	0.078	0.036
-436.734	73.713	-0.076	-0.080
-435.719	227.025	-0.051	0.084
-434.705	-200.000	-0.012	0.345
-433.690	-101.261	0.196	0.048
-432.676	-97.561	-0.273	0.071
-431.661	-146.278	-0.141	-0.012
-430.646	16.905	-0.163	0.130
-429.632	800.000	-0.038	0.131
-428.617	-200.000	-0.022	0.130
-427.603	-114.745	0.104	-0.020
-426.588	590.534	0.030	0.073
-425.573	111.491	-0.189	0.229
-424.559	-145.992	-0.189	0.017
-423.544	232.030	0.139	-0.230
-422.530	-55.305	0.109	0.049
-421.515	-3.871	0.324	-0.226
-420.500	270.533	-0.194	0.342
-419.486	-110.195	-0.232	0.049
-418.471	-26.159	0.115	-0.068
-417.457	130.794	0.219	0.282
-416.442	72.078	0.308	0.322
-415.428	-194.067	0.245	-0.002
-414.413	157.450	-0.113	0.157
-413.398	-95.862	0.333	0.089
-412.384	10.967	0.161	0.123
-411.369	-118.002	0.029	-0.005
-410.355	39.105	-0.341	0.307
-409.340	457.913	0.076	-0.171
-408.325	-140.624	-0.234	-0.024
-407.311	203.100	0.170	-0.264
-406.296	-126.590	0.503	-0.075
-405.282	800.000	0.105	0.352
-404.267	245.158	-0.071	0.120
-403.252	73.305	0.100	0.105
-402.238	8.168	-0.151	0.114
-401.223	-200.000	0.001	-0.232
-400.209	-44.004	0.428	-0.216
-399.194	-74.864	0.231	-0.083
-398.179	-200.000	0.009	0.246
-397.165	-31.278	0.104	0.059
-396.150	-71.596	0.213	-0.080
-395.136	-200.000	-0.013	0.159
-394.121	684.361	-0.034	-0.089
-393.106	-123.100	-0.177	0.029
-392.092	8.947	-0.151	-0.115
-391.077	-200.000	-0.022	0.308
-390.063	22.893	0.362	-0.298
-389.048	-128.343	0.106	0.015
-388.033	800.000	-0.053	0.170
-387.019	-102.800	-0.140	-0.034
-386.004	50.960	0.101	0.096
-384.990	-92.476	-0.158	-0.045
-383.975	678.992	-0.051	0.134
-382.960	201.464	-0.096	0.148
-381.946	260.349	0.090	0.155
-380.931	74.884	0.095	0.100
-379.917	-86.534	-0.092	0.028
-378.902	-200.000	-0.014	0.073
-377.888	-200.000	-0.022	0.195
-376.873	800.000	0.061	-0.216
-375.858	800.000	-0.094	-0.308
-374.844	-14.849	-0.093	0.060
-373.829	-200.000	-0.055	0.375
-372.815	800.000	0.037	-0.140
-371.800	-200.000	0.005	0.091
-370.785	85.814	-0.089	0.098
-369.771	17.733	-0.059	0.047
-368.756	-92.897	-0.108	-0.030
-367.742	-200.000	0.054	-0.520
-366.727	158.713	-0.054	0.076
-365.712	704.080	0.083	-0.220
-364.698	95.497	0.025	-0.028
-363.683	229.953	0.089	-0.146
-362.669	-144.539	0.062	-0.006
-361.654	800.000	0.098	-0.288
-360.639	-200.000	-0.039	-0.205
-359.625	-200.000	-0.014	-0.123
-358.610	-95.132	-0.132	-0.036
-357.596	270.533	0.140	0.247
-356.581	-200.000	-0.038	0.186
-355.566	-82.735	-0.203	-0.066
-354.552	800.000	-0.093	-0.306
-353.537	800.000	-0.048	-0.181
-352.523	-154.729	-0.245	-0.016
-351.508	-10.239	-0.235	0.156
-350.493	-200.000	0.028	0.125
-349.479	-190.139	0.360	-0.004
-348.464	165.281	-0.033	-0.047
-347.450	-79.900	-0.076	-0.026
-346.435	-134.938	0.223	-0.027
-345.420	160.598	-0.166	-0.232
-344.406	18.351	-0.158	-0.126
-343.391	558.553	-0.027	0.065
-342.377	-20.811	0.247	0.152
-341.362	-116.744	0.334	0.061
-340.348	-200.000	0.001	-0.114
-339.333	-132.782	-0.214	0.027
-338.318	411.892	0.130	-0.276
-337.304	-16.637	-0.407	-0.258
-336.289	173.943	-0.090	0.131
-335.275	14.962	0.109	0.085
-334.260	-77.408	0.163	0.057
-333.245	329.113	-0.082	0.157
-332.231	-3.379	0.136	0.095
-331.216	-90.296	-0.085	-0.025
-330.202	-126.745	-0.091	-0.013
-329.187	-99.183	0.413	-0.105
-328.172	266.493	-0.095	0.166
-327.158	-82.560	-0.166	-0.054
-326.143	-54.424	-0.252	0.114
-325.129	-200.000	-0.008	0.079
-324.114	401.920	0.041	-0.087
-323.099	-200.000	0.024	-0.340
-322.085	-200.000	-0.100	-0.603
-321.070	-128.895	-0.175	-0.025
-320.056	-200.000	-0.045	0.213
-319.041	-200.000	-0.018	-0.183
-318.026	-102.805	0.316	0.075
-317.012	2.578	-0.173	0.125
-315.997	800.000	-0.030	0.094
-314.983	82.004	0.132	0.143
-313.968	-200.000	-0.006	-0.091
-312.953	-115.039	0.132	0.025
-311.939	46.017	0.218	0.202
-310.924	77.590	-0.011	-0.011
-309.910	800.000	-0.106	0.303
-308.895	-200.000	-0.027	0.161
-307.880	3.249	0.358	-0.261
-306.866	257.525	0.069	0.118
-305.851	540.355	-0.057	0.136
-304.837	-109.688	0.236	-0.050
-303.822	509.408	0.184	-0.428
-302.807	393.653	0.047	-0.098
-301.793	-200.000	0.028	0.354
-300.778	-100.167	-0.481	0.120
-299.764	21.257	-0.150	-0.122
-298.749	-120.907	0.043	-0.007
-297.735	-163.890	0.179	0.008
-296.720	-72.544	0.166	0.061
-295.705	-87.307	0.100	0.030
-294.691	253.824	-0.211	0.361
-293.676	-70.227	0.185	0.070
-292.662	56.654	-0.211	-0.205
-291.647	-188.154	0.298	-0.004
-290.632	145.590	-0.109	0.146
-289.618	89.090	0.095	0.105
-288.603	-129.901	-0.072	0.010
-287.589	313.886	0.078	0.148
-286.574	800.000	-0.108	0.371
-285.559	0.396	0.197	0.141
-284.545	5.931	0.145	0.107
-283.530	-156.253	-0.352	-0.022
-282.516	-160.367	0.077	-0.004
-281.501	506.198	-0.084	-0.194
-280.486	-161.504	0.234	-0.012
-279.472	-200.000	0.048	-0.298
-278.457	-160.244	0.157	-0.008
-277.443	-97.748	-0.089	0.023
-276.428	-37.221	0.131	0.070
-275.413	309.224	0.148	-0.276
-274.399	117.979	0.114	0.140
-273.384	384.886	-0.161	0.332
-272.370	-145.627	0.068	0.006
-271.355	129.950	0.070	-0.090
-270.340	-92.182	0.325	0.092
-269.326	800.000	0.051	0.158
-268.311	6.572	0.096	0.072
-267.297	222.874	0.029	-0.047
-266.282	37.423	-0.171	-0.152
-265.267	15.270	0.373	-0.293
-264.253	-200.000	-0.039	0.263
-263.238	359.743	-0.195	0.389
-262.224	-48.082	0.242	-0.117
-261.209	61.569	0.233	-0.232
-260.195	800.000	0.066	-0.204
-259.180	40.691	-0.127	-0.114
-258.165	-200.000	0.009	0.178
-257.151	800.000	-0.061	-0.227
-256.136	-197.468	-0.359	0.002
-255.122	-83.752	0.202	-0.064
-254.107	-200.000	-0.026	-0.174
-253.092	800.000	0.017	-0.063
-252.078	-200.000	-0.019	-0.141
-251.063	-82.683	0.128	0.041
-250.049	266.561	0.046	0.080
-249.034	-5.103	0.119	0.082
-248.019	278.491	-0.131	0.234
-247.005	-200.000	0.018	0.266
-245.990	97.437	-0.082	-0.094
-244.976	-44.311	-0.084	0.042
-243.961	-121.976	-0.307	0.050
-242.946	-155.075	-0.285	-0.019
-241.932	29.422	0.128	0.109
-240.917	800.000	0.125	0.369
-239.903	-200.000	0.015	-0.178
-238.888	-5.772	-0.290	-0.198
-237.873	-200.000	-0.012	0.086
-236.859	-200.000	0.008	-0.302
-235.844	-53.608	0.226	0.103
-234.830	-53.767	0.212	0.097
-233.815	-60.523	-0.452	0.192
-232.800	259.859	-0.013	-0.022
-231.786	-200.000	0.026	0.231
-230.771	7.557	-0.221	0.165
-229.757	18.018	-0.087	-0.070
-228.742	800.000	0.086	0.270
-227.727	251.801	-0.115	-0.196
-226.713	112.655	0.165	-0.200
-225.698	800.000	0.113	0.354
-224.684	800.000	0.056	0.185
-223.669	-116.926	0.305	0.056
-222.655	-113.446	0.290	-0.057
-221.640	-111.990	0.217	-0.044
-220.625	-97.156	0.156	-0.041
-219.611	69.503	0.159	-0.164
-218.596	-16.681	0.216	-0.136
-217.582	-180.000	0.091	0.002
-216.567	61.823	-0.106	-0.105
-215.552	421.880	-0.040	0.085
-214.538	800.000	-0.140	0.520
-213.523	150.280	0.059	0.079
-212.509	107.407	-0.071	0.084
-211.494	-133.302	-0.226	0.028
-210.479	-43.212	0.301	0.152
-209.465	-200.000	-0.033	-0.293
-208.450	-200.000	0.000	-0.021
-207.436	-77.222	-0.300	-0.104
-206.421	-48.125	0.087	-0.042
-205.406	-200.000	0.063	0.381
-204.392	-115.648	0.319	-0.060
-203.377	177.686	0.083	0.120
-202.363	88.961	-0.060	-0.067
-201.348	37.204	-0.151	0.134
-200.333	-35.360	-0.339	0.184
-199.319	690.237	0.107	-0.278
-198.304	800.000	-0.010	-0.037
-197.290	800.000	0.095	-0.307
-196.275	-200.000	-0.039	-0.351
-195.260	800.000	0.015	-0.048
-194.246	712.321	-0.127	0.334
-193.231	-200.000	-0.039	-0.182
-192.217	94.759	-0.129	-0.146
-191.202	-200.000	0.014	-0.290
-190.187	-148.525	-0.271	0.022
-189.173	-200.000	0.024	-0.249
-188.158	242.293	0.019	0.032
-187.144	800.000	0.121	-0.387
-186.129	558.490	-0.081	-0.195
-185.114	240.136	0.089	0.148
-184.100	8.843	0.091	0.068
-183.085	-200.000	-0.007	0.229
-182.071	326.287	0.048	-0.091
-181.056	-114.047	0.196	0.038
-180.042	325.228	0.105	0.199
-179.027	800.000	-0.091	-0.317
-178.012	421.328	-0.119	-0.255
-176.998	-200.000	0.061	0.327
-175.983	91.848	0.168	0.189
-174.969	111.206	-0.200	0.241
-173.954	336.067	-0.060	0.115
-172.939	-16.184	0.086	0.055
-171.925	10.646	-0.329	0.250
-170.910	-85.474	0.055	0.017
-169.896	800.000	-0.097	0.277
-168.881	-135.326	0.151	0.018
-167.866	231.234	0.033	0.054
-166.852	66.170	0.144	0.145
-165.837	372.656	0.040	-0.080
-164.823	138.741	-0.113	0.148
-163.808	685.272	0.078	-0.202
-162.793	141.455	0.124	0.163
-161.779	182.123	0.037	0.054
-160.764	294.615	-0.064	0.116
-159.750	60.474	0.011	-0.011
-158.735	-25.706	-0.245	-0.144
-157.720	106.066	-0.028	0.033
-156.706	-200.000	0.005	0.274
-155.691	104.157	0.076	0.089
-154.677	-48.251	0.177	0.085
-153.662	-73.408	0.394	0.143
-152.647	117.951	0.012	-0.015
-151.633	141.173	0.127	0.167
-150.618	800.000	-0.044	-0.133
-149.604	-88.271	0.287	-0.086
-148.589	28.113	-0.105	-0.088
-147.574	800.000	-0.076	0.209
-146.560	-151.887	0.459	-0.033
-145.545	-152.141	0.336	0.024
-144.531	-158.990	0.111	0.006
-143.516	-133.455	-0.125	0.016
-142.502	338.113	0.150	0.291
-141.487	-200.000	0.005	-0.240
-140.472	-33.727	-0.022	-0.012
-139.458	800.000	-0.033	0.140
-138.443	-42.970	-0.333	0.168
-137.429	-84.763	-0.423	-0.132
-136.414	147.234	-0.108	-0.144
-135.399	800.000	-0.104	-0.361
-134.385	-135.231	0.154	0.018
-133.370	-167.102	-0.042	0.002
-132.356	-102.160	-0.139	-0.033
-131.341	-200.000	-0.020	-0.388
-130.326	254.921	0.069	0.118
-129.312	274.765	0.162	0.286
-128.297	8.878	0.214	-0.161
-127.283	-83.051	0.112	0.036
-126.268	-145.190	-0.033	0.003
-125.253	74.576	0.098	-0.102
-124.239	-200.000	-0.003	-0.393
-123.224	20.244	0.360	-0.289
-122.210	92.567	0.102	-0.114
