DTS Sentinel unit serial number:	SN413079Multiplexer serial number:	ORYXHardware model number:	OX4-SRSoftware version number:	ORYX F/W v4.00 Oryx Data Collector v3.7.2.0data status	okinstallation	princeton_trtdifferential loss correction	single-endedforward channel	channel 1reverse channel	N/Adate	2019/09/17time	17:14:35forward acquisition time	60.00reverse acquisition time	0.00gamma	496.2192k internal	0.2292k external	0.2292temperature offset calibration	0.9954default loss term (dB/km)	0.3790temperature slope calibration	1.0000multiplexer offset coefficient	1.0000multiplexer slope coefficient	1.0000fibre end	0.00T internal ref (°C)	42.87T ext. ref 1 (°C)	0.35T ext. ref 2 (°C)	38.88length (m)	temperature (°C)	Stokes	anti-Stokes-747.200	-108.385	-0.180	-0.040
-746.185	146.074	-0.276	0.380
-745.171	800.000	0.040	0.141
-744.156	201.782	-0.115	-0.181
-743.142	-200.000	0.019	-0.140
-742.127	142.360	-0.267	0.362
-741.112	-27.836	-0.159	0.094
-740.098	800.000	-0.015	0.065
-739.083	-200.000	-0.002	0.062
-738.069	-146.134	-0.246	-0.022
-737.054	137.042	0.173	0.232
-736.039	-88.811	-0.020	0.006
-735.025	-55.700	0.118	-0.054
-734.010	-143.316	0.239	0.023
-732.996	512.301	-0.061	0.145
-731.981	124.671	-0.205	-0.263
-730.966	109.845	0.203	-0.249
-729.952	-2.816	0.046	-0.033
-728.937	-18.095	-0.221	-0.141
-727.923	-40.728	0.182	0.097
-726.908	177.074	-0.070	0.104
-725.894	-160.801	-0.045	-0.002
-724.879	258.868	0.089	0.157
-723.864	96.722	0.041	0.048
-722.850	800.000	-0.123	0.376
-721.835	105.783	-0.015	-0.018
-720.821	-200.000	-0.009	-0.335
-719.806	-200.000	0.054	-0.283
-718.791	-2.839	-0.175	-0.125
-717.777	37.123	0.109	0.099
-716.762	114.548	-0.128	0.159
-715.748	-114.873	0.222	-0.043
-714.733	-127.125	0.279	0.042
-713.718	-200.000	-0.015	0.092
-712.704	-97.957	0.159	-0.042
-711.689	346.923	-0.125	-0.253
-710.675	-155.091	-0.161	-0.011
-709.660	800.000	0.060	-0.239
-708.645	-11.943	0.130	0.087
-707.631	179.249	0.073	0.109
-706.616	32.359	0.199	-0.176
-705.602	-48.364	-0.188	-0.093
-704.587	73.130	-0.092	-0.099
-703.572	-108.743	0.426	-0.093
-702.558	-112.208	-0.223	-0.046
-701.543	-69.091	-0.313	0.123
-700.529	-11.178	0.235	0.158
-699.514	248.869	-0.155	-0.269
-698.499	631.810	-0.036	0.094
-697.485	3.836	0.143	0.107
-696.470	2.882	-0.250	0.186
-695.456	114.190	-0.197	0.244
-694.441	659.030	-0.070	0.183
-693.426	-37.058	-0.300	0.164
-692.412	66.748	-0.074	0.077
-691.397	-78.098	0.060	-0.021
-690.383	-97.009	-0.068	0.018
-689.368	-66.410	-0.304	0.123
-688.354	-140.167	0.105	-0.011
-687.339	228.116	-0.025	0.041
-686.324	-47.315	-0.264	0.131
-685.310	196.454	0.126	0.197
-684.295	171.704	0.079	0.116
-683.281	-79.496	0.129	0.044
-682.266	260.713	-0.173	-0.305
-681.251	-200.000	-0.002	0.169
-680.237	75.132	-0.141	0.152
-679.222	-200.000	0.035	-0.355
-678.208	-96.045	0.082	0.022
-677.193	800.000	-0.088	0.372
-676.178	19.131	0.161	0.132
-675.164	-153.123	0.140	0.010
-674.149	800.000	-0.025	0.081
-673.135	800.000	0.109	-0.314
-672.120	7.140	0.033	0.025
-671.105	-61.999	-0.300	0.128
-670.091	305.610	0.190	0.360
-669.076	643.104	-0.161	0.419
-668.062	-17.689	0.100	0.064
-667.047	153.270	-0.032	-0.045
-666.032	59.354	-0.183	0.184
-665.018	-39.458	0.244	-0.131
-664.003	326.159	-0.145	0.283
-662.989	-123.596	-0.316	0.051
-661.974	-200.000	0.059	-0.310
-660.959	87.891	-0.215	-0.243
-659.945	196.328	0.128	0.199
-658.930	-158.473	0.248	0.015
-657.916	368.621	-0.080	-0.164
-656.901	-200.000	0.037	0.243
-655.886	-92.526	0.309	0.089
-654.872	111.027	0.063	-0.078
-653.857	-75.746	-0.439	0.159
-652.843	-85.364	-0.653	0.208
-651.828	-86.280	-0.196	0.062
-650.814	-200.000	0.006	-0.097
-649.799	-200.000	-0.027	-0.249
-648.784	-120.932	-0.117	0.020
-647.770	41.510	0.140	0.130
-646.755	-23.560	0.146	0.090
-645.741	-200.000	0.037	-0.270
-644.726	-200.000	-0.045	-0.204
-643.711	136.027	0.204	-0.271
-642.697	800.000	0.070	-0.237
-641.682	617.550	-0.074	0.189
-640.668	-109.265	0.171	0.037
-639.653	-200.000	0.004	0.053
-638.638	-88.175	-0.145	-0.044
-637.624	264.031	0.131	0.232
-636.609	120.405	0.103	0.130
-635.595	-200.000	0.049	-0.358
-634.580	-200.000	-0.015	0.078
-633.565	800.000	0.016	-0.049
-632.551	-105.365	-0.287	-0.067
-631.536	64.045	-0.057	0.059
-630.522	-115.945	-0.314	0.060
-629.507	762.769	-0.061	0.168
-628.492	13.688	-0.174	0.137
-627.478	191.239	-0.017	-0.025
-626.463	83.723	-0.243	0.270
-625.449	800.000	0.082	0.275
-624.434	-85.716	-0.261	0.082
-623.419	-57.067	0.364	0.163
-622.405	-91.030	0.340	0.100
-621.390	62.256	0.030	-0.030
-620.376	800.000	0.047	0.153
-619.361	-78.020	-0.308	0.108
-618.346	170.870	0.145	-0.211
-617.332	-45.459	0.043	-0.022
-616.317	-166.475	-0.267	0.011
-615.303	-4.750	-0.065	0.045
-614.288	-77.908	-0.017	-0.006
-613.273	-17.286	0.186	0.119
-612.259	675.819	-0.087	-0.229
-611.244	96.016	-0.197	0.229
-610.230	-109.297	-0.144	0.031
-609.215	800.000	-0.111	0.318
-608.201	92.208	-0.081	-0.092
-607.186	800.000	0.013	0.054
-606.171	492.041	0.118	0.275
-605.157	-77.328	0.330	-0.117
-604.142	774.013	0.045	0.126
-603.128	-2.219	0.192	-0.137
-602.113	487.427	-0.036	0.084
-601.098	-155.820	0.102	-0.007
-600.084	673.182	-0.076	0.202
-599.069	-55.849	-0.155	0.070
-598.055	-200.000	-0.021	-0.284
-597.040	6.519	0.102	0.077
-596.025	800.000	0.106	-0.321
-595.011	148.672	-0.069	0.094
-593.996	-199.293	-0.090	-0.000
-592.982	-87.211	0.137	-0.042
-591.967	-120.290	-0.220	-0.038
-590.952	-81.556	0.393	0.132
-589.938	-55.312	0.343	-0.157
-588.923	-156.308	0.113	0.007
-587.909	800.000	0.009	0.038
-586.894	-68.311	0.083	-0.033
-585.879	119.503	0.080	-0.101
-584.865	268.170	-0.237	0.422
-583.850	242.294	-0.025	0.043
-582.836	57.104	0.217	0.216
-581.821	-200.000	0.022	0.205
-580.806	170.034	0.061	0.089
-579.792	-54.165	-0.137	-0.064
-578.777	800.000	0.052	0.164
-577.763	-197.542	0.124	-0.001
-576.748	138.329	-0.178	0.238
-575.733	-24.692	-0.313	-0.189
-574.719	-132.968	0.431	-0.056
-573.704	-200.000	-0.031	0.276
-572.690	-36.284	0.214	0.118
-571.675	-200.000	-0.027	-0.134
-570.661	443.249	-0.178	-0.396
-569.646	-200.000	0.002	-0.385
-568.631	-108.043	-0.425	0.094
-567.617	800.000	-0.021	0.086
-566.602	-162.711	0.225	0.011
-565.588	-200.000	0.032	0.285
-564.573	-136.105	-0.255	-0.030
-563.558	472.782	-0.154	0.352
-562.544	-200.000	-0.031	0.235
-561.529	-50.919	0.165	-0.079
-560.515	0.606	-0.034	-0.025
-559.500	20.060	-0.134	0.110
-558.485	237.079	-0.154	0.260
-557.471	800.000	0.073	0.235
-556.456	-23.667	-0.122	0.074
-555.442	299.567	-0.125	-0.234
-554.427	-183.831	-0.116	-0.002
-553.412	-165.039	0.278	0.013
-552.398	-86.079	-0.135	0.042
-551.383	-153.532	0.198	0.014
-550.369	174.439	0.186	0.273
-549.354	-10.846	-0.075	-0.050
-548.339	-200.000	0.127	-0.638
-547.325	293.062	-0.162	-0.300
-546.310	53.182	-0.177	0.172
-545.296	75.608	0.123	0.132
-544.281	43.962	-0.331	0.308
-543.266	660.043	-0.082	-0.214
-542.252	-90.500	-0.205	-0.060
-541.237	156.359	-0.094	0.132
-540.223	-90.818	0.119	0.035
-539.208	-127.437	0.150	-0.022
-538.193	-58.376	0.084	-0.037
-537.179	22.865	-0.246	0.204
-536.164	800.000	0.053	0.165
-535.150	223.450	0.099	0.163
-534.135	48.524	-0.244	-0.233
-533.121	113.903	-0.244	0.301
-532.106	-4.271	0.216	-0.152
-531.091	-200.000	0.036	-0.243
-530.077	57.211	0.197	-0.195
-529.062	-141.091	0.303	0.031
-528.048	146.174	-0.179	0.244
-527.033	-63.256	0.065	-0.027
-526.018	-60.442	-0.330	-0.142
-525.004	376.382	-0.066	0.137
-523.989	-57.182	-0.271	-0.121
-522.975	-165.038	0.336	-0.015
-521.960	-189.963	-0.267	-0.003
-520.945	-200.000	0.003	-0.336
-519.931	-18.959	0.241	0.152
-518.916	-109.279	0.098	0.021
-517.902	800.000	-0.073	0.284
-516.887	-200.000	0.056	-0.261
-515.872	-82.627	-0.078	-0.026
-514.858	-59.581	-0.055	-0.024
-513.843	-102.167	-0.343	0.084
-512.829	-200.000	0.005	-0.057
-511.814	356.655	-0.089	-0.179
-510.799	-81.619	0.113	0.038
-509.785	14.813	-0.194	-0.154
-508.770	110.069	0.044	0.054
-507.756	236.541	0.146	0.246
-506.741	-72.024	-0.247	-0.093
-505.726	87.167	0.304	-0.341
-504.712	66.311	0.048	-0.049
-503.697	-84.121	0.141	0.045
-502.683	-66.200	0.108	0.044
-501.668	-108.099	0.337	-0.074
-500.653	451.313	0.070	-0.157
-499.639	305.235	-0.146	-0.275
-498.624	-133.087	0.023	-0.003
-497.610	-135.936	0.223	0.027
-496.595	800.000	-0.063	0.197
-495.581	800.000	-0.065	0.271
-494.566	-100.119	0.269	-0.068
-493.551	37.571	-0.364	-0.327
-492.537	667.232	0.090	0.237
-491.522	-147.808	0.032	0.003
-490.508	111.489	0.191	0.233
-489.493	94.788	0.138	0.159
-488.478	800.000	-0.054	0.155
-487.464	305.524	0.096	0.180
-486.449	524.063	0.124	0.295
-485.435	3.774	0.297	0.220
-484.420	-18.871	-0.299	0.188
-483.405	-145.848	-0.260	0.023
-482.391	22.932	0.210	-0.174
-481.376	26.741	0.131	-0.111
-480.362	800.000	-0.075	-0.240
-479.347	-200.000	-0.032	0.222
-478.332	192.441	-0.192	0.294
-477.318	47.048	-0.176	-0.166
-476.303	-33.865	0.151	-0.084
-475.289	157.008	-0.063	-0.088
-474.274	-131.272	-0.158	0.021
-473.259	-200.000	-0.013	0.122
-472.245	-146.379	-0.508	-0.045
-471.230	-200.000	-0.010	-0.066
-470.216	192.309	0.055	-0.084
-469.201	381.525	0.124	0.257
-468.186	-25.231	0.111	-0.067
-467.172	125.327	-0.062	0.080
-466.157	-200.000	-0.002	-0.210
-465.143	32.869	-0.157	0.138
-464.128	375.393	-0.074	0.152
-463.113	-200.000	0.018	0.294
-462.099	800.000	0.041	0.142
-461.084	800.000	-0.066	0.226
-460.070	-200.000	-0.017	-0.201
-459.055	250.609	-0.192	-0.330
-458.040	-25.683	-0.199	-0.119
-457.026	1.129	-0.267	0.194
-456.011	365.831	-0.100	0.204
-454.997	528.512	-0.029	0.068
-453.982	182.443	0.137	-0.205
-452.968	62.097	-0.393	0.396
-451.953	-72.697	0.281	0.105
-450.938	578.154	-0.079	-0.196
-449.924	-156.879	0.216	-0.013
-448.909	-147.844	0.310	0.026
-447.895	-45.110	-0.212	-0.106
-446.880	474.725	0.126	-0.287
-445.865	-10.696	0.180	-0.121
-444.851	-58.823	-0.167	-0.073
-443.836	715.081	-0.065	-0.175
-442.822	800.000	-0.149	-0.636
-441.807	-154.698	0.418	-0.028
-440.792	800.000	-0.120	-0.484
-439.778	534.031	-0.087	0.208
-438.763	-52.733	0.158	0.074
-437.749	-65.750	-0.167	-0.068
-436.734	-95.154	-0.348	0.095
-435.719	229.172	-0.180	0.297
-434.705	800.000	0.156	0.504
-433.690	-18.272	0.090	-0.057
-432.676	15.282	0.226	-0.179
-431.661	-105.473	-0.111	-0.025
-430.646	-200.000	0.014	-0.090
-429.632	-34.101	0.159	0.089
-428.617	-200.000	0.043	-0.223
-427.603	289.798	-0.032	0.059
-426.588	-52.805	0.260	0.121
-425.573	-103.646	0.241	-0.057
-424.559	207.996	0.020	0.032
-423.544	-74.643	-0.155	0.056
-422.530	-200.000	0.008	0.197
-421.515	-74.556	-0.148	0.054
-420.500	-113.820	0.407	0.080
-419.486	182.678	-0.056	-0.083
-418.471	427.576	-0.117	-0.255
-417.457	-200.000	-0.015	-0.225
-416.442	10.059	-0.115	-0.089
-415.428	-171.897	-0.296	0.010
-414.413	104.980	-0.161	0.192
-413.398	403.802	0.047	-0.099
-412.384	-21.537	-0.123	-0.076
-411.369	170.217	0.297	0.429
-410.355	-32.053	0.240	0.135
-409.340	530.083	0.103	-0.246
-408.325	-78.535	0.193	0.067
-407.311	182.333	-0.183	0.273
-406.296	-13.791	0.263	-0.172
-405.282	-181.367	-0.200	0.004
-404.267	-73.274	0.281	-0.104
-403.252	800.000	-0.065	-0.246
-402.238	107.556	-0.023	-0.028
-401.223	-200.000	-0.010	0.061
-400.209	-16.684	0.254	-0.162
-399.194	22.381	0.128	0.106
-398.179	-200.000	0.011	0.107
-397.165	348.116	0.072	0.143
-396.150	-143.514	-0.417	-0.040
-395.136	-58.031	-0.075	-0.033
-394.121	-70.473	0.171	0.065
-393.106	800.000	-0.072	0.261
-392.092	-59.680	-0.226	-0.098
-391.077	-141.484	-0.213	-0.022
-390.063	50.672	-0.208	-0.199
-389.048	-200.000	0.014	-0.174
-388.033	6.424	-0.365	-0.274
-387.019	167.087	-0.175	-0.251
-386.004	-200.000	0.004	-0.115
-384.990	-200.000	0.042	0.220
-383.975	800.000	0.041	0.151
-382.960	800.000	-0.056	-0.182
-381.946	-23.690	-0.315	-0.190
-380.931	-200.000	-0.025	-0.137
-379.917	-10.225	0.361	0.242
-378.902	176.174	-0.066	-0.097
-377.888	-106.014	0.038	0.009
-376.873	-139.556	-0.170	0.018
-375.858	-148.512	-0.148	0.012
-374.844	-14.998	-0.158	0.102
-373.829	4.831	-0.056	-0.041
-372.815	293.304	-0.062	0.114
-371.800	472.631	-0.065	-0.148
-370.785	800.000	0.041	-0.131
-369.771	-200.000	0.040	-0.195
-368.756	800.000	0.086	-0.342
-367.742	-158.271	-0.143	-0.008
-366.727	-127.861	-0.314	-0.046
-365.712	702.687	0.072	-0.193
-364.698	450.196	0.049	0.109
-363.683	-37.795	-0.132	-0.071
-362.669	-111.063	0.336	0.070
-361.654	-98.340	0.200	-0.052
-360.639	79.531	-0.125	-0.135
-359.625	322.260	0.180	-0.345
-358.610	-200.000	0.014	-0.269
-357.596	-200.000	-0.011	0.184
-356.581	-200.000	0.082	0.458
-355.566	-123.647	-0.144	-0.023
-354.552	512.468	-0.089	-0.208
-353.537	800.000	-0.018	0.059
-352.523	31.753	0.443	0.384
-351.508	63.435	0.057	0.058
-350.493	800.000	0.087	-0.350
-349.479	-200.000	-0.006	0.099
-348.464	275.409	-0.097	-0.174
-347.450	-75.481	-0.225	0.081
-346.435	187.112	-0.038	-0.058
-345.420	23.511	-0.088	0.073
-344.406	-23.421	-0.052	0.032
-343.391	-57.177	-0.165	-0.073
-342.377	34.592	0.208	-0.183
-341.362	-61.920	-0.101	0.043
-340.348	95.843	-0.093	-0.106
-339.333	-200.000	0.021	-0.254
-338.318	-131.895	0.139	-0.018
-337.304	-200.000	0.051	0.288
-336.289	167.387	0.035	0.050
-335.275	-33.030	-0.324	-0.181
-334.260	-166.137	-0.450	0.019
-333.245	544.908	-0.103	0.249
-332.231	84.389	0.202	0.222
-331.216	800.000	-0.007	-0.018
-330.202	-152.366	0.132	0.010
-329.187	-200.000	0.008	0.260
-328.172	57.726	-0.164	0.162
-327.158	-200.000	-0.033	0.362
-326.143	-157.737	-0.123	0.007
-325.129	-63.437	-0.352	0.146
-324.114	-71.254	-0.118	0.044
-323.099	-189.057	0.252	-0.003
-322.085	-11.714	0.013	-0.008
-321.070	-100.205	0.095	-0.024
-320.056	-200.000	-0.002	-0.075
-319.041	49.852	-0.194	-0.184
-318.026	800.000	-0.032	-0.089
-317.012	192.162	-0.183	-0.278
-315.997	84.450	-0.157	-0.173
-314.983	-18.356	-0.267	0.168
-313.968	-150.295	-0.347	0.027
-312.953	221.291	-0.066	-0.106
-311.939	-97.152	0.061	-0.016
-310.924	-142.973	-0.159	0.016
-309.910	432.204	-0.053	0.115
-308.895	-80.716	-0.065	0.022
-307.880	180.382	0.187	-0.276
-306.866	-77.423	0.075	-0.026
-305.851	-20.773	0.067	0.041
-304.837	404.696	-0.068	-0.143
-303.822	455.417	0.123	-0.274
-302.807	-200.000	-0.017	-0.165
-301.793	-194.952	-0.283	0.002
-300.778	-140.580	0.215	0.022
-299.764	407.931	0.046	0.098
-298.749	175.883	-0.200	-0.292
-297.735	-146.205	0.057	0.005
-296.720	-168.702	0.306	0.012
-295.705	73.811	0.111	-0.117
-294.691	21.651	0.068	0.055
-293.676	-200.000	0.021	0.096
-292.662	-200.000	0.004	-0.078
-291.647	265.454	0.219	-0.385
-290.632	-200.000	0.005	-0.105
-289.618	-200.000	0.021	-0.128
-288.603	800.000	-0.061	-0.260
-287.589	-200.000	-0.029	0.286
-286.574	800.000	0.074	0.281
-285.559	159.400	0.121	0.170
-284.545	36.490	-0.287	-0.255
-283.530	-200.000	-0.038	-0.239
-282.516	126.674	0.229	-0.291
-281.501	150.497	0.022	-0.030
-280.486	-200.000	0.029	-0.148
-279.472	358.645	-0.089	0.180
-278.457	411.790	-0.114	0.243
-277.443	800.000	0.060	0.260
-276.428	800.000	-0.007	0.025
-275.413	66.976	0.116	-0.119
-274.399	800.000	0.100	0.306
-273.384	343.280	0.116	0.229
-272.370	-137.340	0.269	-0.031
-271.355	-47.028	0.301	0.147
-270.340	-85.263	0.236	0.074
-269.326	-200.000	0.007	-0.151
-268.311	-89.030	-0.204	0.061
-267.297	-92.595	0.162	0.046
-266.282	-58.431	0.370	0.161
-265.267	-200.000	-0.007	0.107
-264.253	-200.000	-0.002	-0.487
-263.238	-200.000	0.016	0.233
-262.224	-84.615	-0.090	-0.028
-261.209	11.312	0.299	0.230
-260.195	364.089	0.082	-0.166
-259.180	424.003	0.056	0.121
-258.165	81.575	0.090	-0.098
-257.151	180.554	-0.186	-0.274
-256.136	-200.000	0.057	-0.259
-255.122	-200.000	-0.017	0.091
-254.107	-119.730	-0.090	-0.016
-253.092	-7.743	-0.403	0.273
-252.078	54.915	0.130	-0.126
-251.063	-94.082	-0.350	0.096
-250.049	-200.000	0.015	-0.261
-249.034	800.000	0.012	0.044
-248.019	800.000	0.090	0.265
-247.005	70.184	-0.300	0.311
-245.990	-31.066	0.034	-0.020
-244.976	-28.568	-0.129	-0.075
-243.961	247.594	0.124	0.209
-242.946	-200.000	-0.005	-0.122
-241.932	-54.997	0.229	0.104
-240.917	-95.018	-0.123	0.033
-239.903	-83.247	-0.115	0.037
-238.888	9.701	-0.067	0.051
-237.873	-200.000	-0.015	-0.170
-236.859	-31.668	-0.150	0.085
-235.844	85.755	-0.053	0.058
-234.830	276.124	0.090	-0.161
-233.815	40.024	0.126	0.114
-232.800	157.606	0.114	-0.159
-231.786	-120.208	-0.236	-0.040
-230.771	-200.000	0.010	-0.189
-229.757	193.093	0.200	0.303
-228.742	-92.191	0.447	-0.127
-227.727	800.000	-0.032	-0.107
-226.713	-107.479	0.049	-0.011
-225.698	-200.000	-0.032	-0.238
-224.684	-200.000	0.010	-0.094
-223.669	-90.568	-0.019	-0.005
-222.655	-113.854	0.366	-0.071
-221.640	800.000	-0.032	-0.102
-220.625	209.607	-0.067	-0.106
-219.611	-113.995	0.111	0.022
-218.596	-200.000	-0.017	0.083
-217.582	323.980	-0.164	-0.314
-216.567	135.483	0.137	-0.178
-215.552	-16.752	0.295	-0.187
-214.538	8.476	0.052	0.040
-213.523	-140.468	0.444	0.046
-212.509	42.781	-0.173	-0.158
-211.494	69.007	0.243	-0.250
-210.479	-200.000	-0.014	0.232
-209.465	800.000	-0.035	-0.107
-208.450	-105.381	0.316	-0.072
-207.436	292.475	-0.169	-0.308
-206.421	-200.000	-0.008	-0.106
-205.406	800.000	0.032	-0.118
-204.392	43.356	-0.254	-0.232
-203.377	-200.000	-0.042	0.192
-202.363	800.000	0.023	-0.094
-201.348	-200.000	0.010	0.252
-200.333	-61.221	0.167	-0.071
-199.319	130.977	0.147	0.189
-198.304	639.972	-0.147	0.374
-197.290	414.848	-0.122	0.261
-196.275	-135.277	0.251	0.030
-195.260	-200.000	0.026	-0.139
-194.246	-200.000	0.002	0.117
-193.231	540.937	0.116	0.277
-192.217	-149.011	0.175	-0.014
-191.202	172.967	0.080	0.116
-190.187	-200.000	-0.014	0.204
-189.173	800.000	-0.065	0.241
-188.158	-200.000	-0.046	0.440
-187.144	352.632	0.114	0.227
-186.129	-98.934	0.116	-0.030
-185.114	-200.000	-0.008	-0.152
-184.100	-84.005	-0.096	0.031
-183.085	132.328	0.209	0.269
-182.071	206.779	-0.068	-0.106
-181.056	-76.014	-0.212	-0.075
-180.042	-200.000	0.015	-0.069
-179.027	-117.836	-0.184	0.033
-178.012	-44.380	-0.274	0.137
-176.998	-75.413	0.236	-0.084
-175.983	-8.650	-0.064	-0.043
-174.969	800.000	-0.029	0.106
-173.954	-16.996	0.115	0.072
-172.939	296.066	0.254	0.465
-171.925	-200.000	-0.007	-0.286
-170.910	656.302	0.051	-0.131
-169.896	132.070	0.176	-0.226
-168.881	149.362	-0.230	-0.312
-167.866	800.000	-0.072	-0.270
-166.852	-89.009	-0.446	0.132
-165.837	246.741	0.011	-0.018
-164.823	-97.151	0.167	-0.044
-163.808	-200.000	0.000	0.069
-162.793	-28.391	0.193	-0.111
-161.779	29.688	-0.158	-0.135
-160.764	800.000	-0.011	0.036
-159.750	338.652	-0.079	-0.154
-158.735	150.460	0.246	-0.334
-157.720	-183.916	0.429	0.007
-156.706	-77.763	-0.106	-0.037
-155.691	321.170	0.178	0.338
-154.677	-37.009	-0.266	-0.143
-153.662	-92.916	0.312	-0.087
-152.647	32.390	-0.021	-0.018
-151.633	45.065	0.062	0.057
-150.618	95.506	-0.181	-0.207
-149.604	11.633	-0.173	0.133
-148.589	800.000	0.117	-0.384
-147.574	243.834	-0.109	0.183
-146.560	647.504	-0.057	-0.145
-145.545	800.000	-0.070	0.195
-144.531	314.332	-0.033	-0.062
-143.516	-200.000	0.051	-0.496
-142.502	-67.383	0.083	-0.032
-141.487	-130.766	-0.115	-0.015
-140.472	31.351	0.175	0.150
-139.458	800.000	-0.032	0.099
-138.443	-68.383	0.163	0.063
-137.429	-31.352	0.430	0.242
-136.414	-200.000	0.009	-0.097
-135.399	-162.173	-0.078	-0.004
-134.385	-145.052	0.166	0.015
-133.370	88.829	-0.221	0.245
-132.356	689.592	0.041	-0.106
-131.341	-113.218	0.222	-0.044
-130.326	-42.004	0.189	0.097
-129.312	441.591	-0.188	0.411
-128.297	-200.000	-0.002	-0.197
-127.283	-6.608	0.072	0.049
-126.268	-49.081	-0.440	0.210
-125.253	280.967	-0.173	0.309
-124.239	28.789	0.103	0.087
-123.224	221.160	0.094	-0.150
-122.210	-126.816	0.397	-0.059
-121.195	407.143	0.072	0.152
