DTS Sentinel unit serial number:	SN413079Multiplexer serial number:	ORYXHardware model number:	OX4-SRSoftware version number:	ORYX F/W v4.00 Oryx Data Collector v3.7.2.0data status	okinstallation	princeton_trtdifferential loss correction	single-endedforward channel	channel 1reverse channel	N/Adate	2019/09/15time	18:46:35forward acquisition time	60.00reverse acquisition time	0.00gamma	496.2192k internal	0.2289k external	0.2289temperature offset calibration	0.9941default loss term (dB/km)	0.3790temperature slope calibration	1.0000multiplexer offset coefficient	1.0000multiplexer slope coefficient	1.0000fibre end	0.00T internal ref (°C)	43.34T ext. ref 1 (°C)	6.90T ext. ref 2 (°C)	35.02length (m)	temperature (°C)	Stokes	anti-Stokes-747.200	-47.360	0.212	-0.106
-746.185	569.579	-0.129	0.321
-745.171	-174.404	-0.186	-0.005
-744.156	394.480	-0.085	0.181
-743.142	578.627	-0.086	0.216
-742.127	-200.000	-0.101	0.489
-741.112	89.640	-0.186	0.213
-740.098	54.634	0.184	0.182
-739.083	-21.709	-0.147	0.092
-738.069	6.208	0.263	0.200
-737.054	739.797	-0.098	-0.269
-736.039	-52.060	-0.173	-0.082
-735.025	-121.138	-0.156	0.027
-734.010	-200.000	0.020	-0.171
-732.996	269.051	-0.081	-0.145
-731.981	434.701	0.116	-0.258
-730.966	-25.855	-0.095	0.057
-729.952	57.920	0.062	-0.062
-728.937	-200.000	-0.006	0.056
-727.923	-86.018	0.141	-0.045
-726.908	175.238	-0.087	0.128
-725.894	800.000	-0.036	0.145
-724.879	-106.923	0.097	0.022
-723.864	-168.127	-0.253	-0.010
-722.850	-8.242	-0.322	-0.222
-721.835	519.178	-0.113	0.270
-720.821	304.333	-0.091	-0.172
-719.806	-115.509	-0.340	0.066
-718.791	550.929	0.028	-0.069
-717.777	800.000	-0.091	0.397
-716.762	-36.648	0.079	0.043
-715.748	-33.908	-0.213	0.120
-714.733	-26.998	0.026	-0.015
-713.718	280.876	0.077	-0.141
-712.704	800.000	0.021	0.082
-711.689	-200.000	0.036	-0.453
-710.675	-200.000	-0.274	0.000
-709.660	-29.722	0.212	-0.124
-708.645	179.311	-0.123	0.184
-707.631	-148.017	-0.189	0.016
-706.616	493.835	0.176	0.412
-705.602	254.044	0.093	0.162
-704.587	232.813	-0.160	-0.269
-703.572	-200.000	0.074	-0.342
-702.558	65.746	-0.231	0.239
-701.543	116.941	0.059	0.074
-700.529	50.876	-0.172	-0.167
-699.514	-200.000	-0.047	-0.213
-698.499	131.607	0.231	-0.304
-697.485	-200.000	-0.011	-0.289
-696.470	800.000	0.040	0.121
-695.456	10.592	0.214	-0.167
-694.441	800.000	0.076	-0.242
-693.426	729.086	-0.134	-0.365
-692.412	-66.108	-0.092	0.038
-691.397	116.386	0.112	0.140
-690.383	214.931	-0.167	0.271
-689.368	140.115	0.183	0.246
-688.354	-92.383	-0.393	-0.113
-687.339	528.886	-0.168	-0.405
-686.324	106.506	-0.152	0.184
-685.310	222.912	0.102	0.168
-684.295	128.033	-0.157	-0.204
-683.281	-200.000	-0.004	-0.025
-682.266	800.000	-0.033	-0.141
-681.251	148.159	0.152	0.209
-680.237	445.073	0.051	-0.114
-679.222	-200.000	0.015	-0.073
-678.208	173.286	-0.073	-0.107
-677.193	-200.000	0.018	0.339
-676.178	375.252	0.123	-0.255
-675.164	-3.293	-0.354	-0.252
-674.149	-98.373	-0.227	-0.059
-673.135	77.568	0.095	0.103
-672.120	-163.243	-0.185	-0.009
-671.105	-200.000	0.048	-0.250
-670.091	-19.176	-0.090	-0.057
-669.076	-53.166	-0.333	0.156
-668.062	189.636	-0.044	0.068
-667.047	-200.000	0.013	0.224
-666.032	-2.703	-0.161	-0.115
-665.018	-200.000	-0.029	-0.265
-664.003	800.000	-0.036	0.126
-662.989	37.750	-0.141	-0.128
-661.974	46.628	0.125	-0.119
-660.959	278.204	-0.123	-0.224
-659.945	-41.579	-0.064	-0.033
-658.930	-32.254	0.137	0.078
-657.916	44.359	0.125	-0.117
-656.901	53.860	0.157	0.154
-655.886	-70.874	-0.208	0.080
-654.872	726.643	-0.062	0.169
-653.857	53.507	0.302	-0.296
-652.843	343.149	0.127	-0.254
-651.828	800.000	0.069	-0.197
-650.814	463.583	0.069	-0.157
-649.799	-97.480	-0.359	-0.095
-648.784	-96.233	-0.058	-0.016
-647.770	29.628	-0.230	-0.200
-646.755	375.428	0.059	-0.122
-645.741	-13.512	-0.366	-0.242
-644.726	-119.097	0.203	-0.036
-643.711	-200.000	0.001	-0.409
-642.697	390.692	-0.105	-0.222
-641.682	-18.156	0.164	-0.105
-640.668	2.262	0.148	-0.109
-639.653	800.000	0.126	-0.374
-638.638	-139.528	-0.323	-0.035
-637.624	-81.461	0.158	0.053
-636.609	-95.963	-0.385	-0.105
-635.595	204.715	0.080	-0.127
-634.580	800.000	-0.089	-0.329
-633.565	-102.047	0.155	0.038
-632.551	486.329	0.056	-0.130
-631.536	-141.451	0.324	0.034
-630.522	4.571	0.297	-0.222
-629.507	800.000	-0.084	0.335
-628.492	-200.000	-0.000	-0.067
-627.478	-168.247	0.132	-0.005
-626.463	91.248	-0.093	0.106
-625.449	-200.000	-0.042	0.264
-624.434	8.681	0.125	-0.096
-623.419	204.075	-0.113	0.179
-622.405	-200.000	-0.033	-0.235
-621.390	-41.789	-0.196	-0.102
-620.376	-200.000	0.025	0.324
-619.361	-187.767	0.044	0.001
-618.346	-170.233	-0.396	0.014
-617.332	18.286	-0.048	-0.039
-616.317	-200.000	0.001	-0.062
-615.303	-200.000	0.046	-0.445
-614.288	-200.000	-0.006	-0.310
-613.273	-14.643	-0.069	-0.046
-612.259	-200.000	-0.015	0.225
-611.244	21.011	0.114	0.095
-610.230	-74.178	-0.322	0.119
-609.215	-119.791	0.262	-0.046
-608.201	-130.830	-0.171	-0.023
-607.186	7.849	0.120	0.092
-606.171	-148.162	0.107	-0.009
-605.157	-0.925	-0.163	-0.117
-604.142	348.163	-0.147	-0.296
-603.128	-114.436	-0.123	0.024
-602.113	-66.897	0.318	0.128
-601.098	-144.897	0.272	0.025
-600.084	-200.000	0.059	-0.277
-599.069	-60.689	-0.193	-0.083
-598.055	-37.897	0.137	-0.074
-597.040	-21.729	0.312	-0.194
-596.025	655.463	-0.019	0.050
-595.011	-80.735	0.447	0.151
-593.996	-86.827	0.329	0.102
-592.982	-72.336	0.110	0.041
-591.967	105.960	0.275	0.332
-590.952	-6.895	-0.257	0.178
-589.938	-14.368	-0.286	0.187
-588.923	-77.087	-0.294	0.104
-587.909	-200.000	0.039	-0.194
-586.894	-200.000	0.001	-0.177
-585.879	84.845	0.169	-0.188
-584.865	800.000	-0.095	0.327
-583.850	-36.409	-0.155	-0.085
-582.836	201.063	0.234	-0.367
-581.821	65.875	0.032	-0.034
-580.806	107.137	0.213	-0.257
-579.792	48.789	-0.097	-0.093
-578.777	579.711	-0.066	-0.164
-577.763	11.411	-0.105	0.082
-576.748	-130.673	-0.312	-0.043
-575.733	0.173	0.321	-0.233
-574.719	708.138	-0.047	-0.127
-573.704	323.244	-0.011	-0.022
-572.690	-67.343	-0.155	-0.062
-571.675	15.887	-0.258	0.207
-570.661	-200.000	0.239	0.000
-569.646	764.640	0.053	0.146
-568.631	-103.129	-0.247	0.060
-567.617	739.402	-0.061	-0.167
-566.602	3.063	0.205	0.152
-565.588	4.679	0.107	0.080
-564.573	41.002	0.136	0.125
-563.558	-69.482	0.276	0.108
-562.544	267.981	-0.057	-0.101
-561.529	-110.046	-0.508	0.108
-560.515	-44.907	-0.289	0.147
-559.500	-56.931	0.220	0.099
-558.485	696.641	-0.053	0.141
-557.471	-134.113	-0.096	0.012
-556.456	-9.788	-0.077	0.052
-555.442	-63.684	-0.329	-0.137
-554.427	-27.156	0.151	0.090
-553.412	-47.223	-0.248	-0.123
-552.398	-200.000	-0.016	-0.149
-551.383	-200.000	0.023	0.103
-550.369	800.000	0.008	0.035
-549.354	-27.614	0.136	-0.080
-548.339	515.828	0.159	-0.379
-547.325	380.908	0.127	0.265
-546.310	-91.170	-0.182	-0.053
-545.296	71.952	-0.117	-0.124
-544.281	31.570	-0.267	-0.234
-543.266	-105.135	-0.196	0.046
-542.252	563.545	0.116	-0.287
-541.237	-72.061	-0.108	0.041
-540.223	31.513	-0.138	-0.121
-539.208	-200.000	0.028	-0.262
-538.193	-82.602	0.396	0.130
-537.179	45.028	0.095	-0.089
-536.164	-200.000	-0.014	0.130
-535.150	145.700	0.113	0.154
-534.135	-81.612	-0.196	0.065
-533.121	432.877	0.020	-0.045
-532.106	-2.490	-0.136	-0.097
-531.091	250.929	0.036	0.062
-530.077	-200.000	-0.009	-0.057
-529.062	423.825	0.052	-0.114
-528.048	-200.000	0.064	0.476
-527.033	111.645	0.278	0.341
-526.018	215.093	-0.086	0.139
-525.004	-11.025	-0.243	-0.163
-523.989	-200.000	-0.360	-0.002
-522.975	800.000	0.029	0.110
-521.960	-138.975	0.017	0.002
-520.945	-49.371	-0.075	-0.036
-519.931	800.000	0.026	-0.089
-518.916	-200.000	0.023	0.207
-517.902	722.587	-0.034	-0.092
-516.887	60.412	-0.073	-0.073
-515.872	414.449	-0.048	0.104
-514.858	62.631	-0.219	-0.222
-513.843	617.101	-0.056	0.144
-512.829	-200.000	0.272	-0.001
-511.814	-95.941	-0.244	-0.066
-510.799	-92.110	-0.125	-0.036
-509.785	186.965	0.086	-0.131
-508.770	32.092	-0.209	0.183
-507.756	-42.219	0.119	0.062
-506.741	227.124	0.251	0.415
-505.726	-174.513	0.112	-0.003
-504.712	-29.432	0.116	0.067
-503.697	-158.907	-0.082	-0.005
-502.683	-120.843	-0.490	-0.084
-501.668	-76.505	-0.394	0.141
-500.653	280.575	-0.076	-0.138
-499.639	266.691	-0.068	0.120
-498.624	43.973	-0.153	0.143
-497.610	-200.000	0.035	0.168
-496.595	-145.165	-0.074	0.007
-495.581	7.026	0.096	0.073
-494.566	800.000	0.090	0.395
-493.551	-75.282	0.219	-0.079
-492.537	-87.352	0.241	-0.074
-491.522	-110.021	0.197	-0.042
-490.508	53.591	0.192	-0.187
-489.493	0.754	0.122	0.089
-488.478	308.715	-0.099	0.188
-487.464	98.508	0.221	0.259
-486.449	-100.259	0.190	0.048
-485.435	-200.000	0.001	0.012
-484.420	169.116	0.052	-0.075
-483.405	-24.162	0.340	0.206
-482.391	342.258	-0.102	-0.202
-481.376	159.276	0.191	0.270
-480.362	13.418	0.300	0.236
-479.347	-200.000	0.057	0.266
-478.332	-4.582	-0.225	0.158
-477.318	614.113	0.029	0.073
-476.303	-116.429	0.304	0.057
-475.289	-92.200	-0.242	0.069
-474.274	-98.233	0.113	-0.030
-473.259	-200.000	0.012	-0.421
-472.245	-39.394	-0.393	-0.209
-471.230	-51.764	0.154	-0.073
-470.216	-54.755	0.461	0.211
-469.201	800.000	0.044	0.164
-468.186	-125.779	-0.228	0.035
-467.172	-200.000	0.057	0.256
-466.157	86.322	-0.062	0.069
-465.143	136.679	-0.218	-0.289
-464.128	-39.434	-0.132	0.070
-463.113	218.583	-0.110	0.179
-462.099	48.757	-0.223	0.212
-461.084	-200.000	-0.014	0.225
-460.070	800.000	-0.119	0.469
-459.055	194.405	-0.126	-0.194
-458.040	-90.588	-0.287	-0.084
-457.026	279.745	0.133	-0.241
-456.011	-68.673	-0.186	0.073
-454.997	800.000	-0.067	0.227
-453.982	163.944	0.187	-0.267
-452.968	-125.864	-0.242	-0.037
-451.953	-57.434	0.185	-0.082
-450.938	213.545	-0.190	0.304
-449.924	4.452	0.073	-0.054
-448.909	-109.491	-0.411	-0.088
-447.895	-66.975	-0.126	0.050
-446.880	-20.095	-0.190	0.119
-445.865	-57.009	-0.180	0.081
-444.851	219.440	0.088	0.143
-443.836	-65.091	-0.119	0.049
-442.822	-200.000	-0.018	-0.157
-441.807	31.471	0.106	0.092
-440.792	-55.936	0.081	-0.036
-439.778	-16.042	-0.076	-0.049
-438.763	165.833	0.095	-0.137
-437.749	28.520	0.229	-0.196
-436.734	-160.226	0.230	0.013
-435.719	-60.666	0.203	0.087
-434.705	-73.940	0.211	-0.077
-433.690	137.435	0.070	0.093
-432.676	-117.302	0.219	0.040
-431.661	-124.872	-0.188	0.029
-430.646	47.923	0.174	-0.164
-429.632	92.342	-0.181	0.206
-428.617	-177.003	0.332	0.008
-427.603	-200.000	0.002	-0.087
-426.588	-8.365	-0.351	0.239
-425.573	367.319	-0.097	0.198
-424.559	-63.390	0.379	0.158
-423.544	-176.367	0.136	0.004
-422.530	-200.000	-0.015	-0.292
-421.515	800.000	-0.109	-0.437
-420.500	-120.191	-0.310	-0.054
-419.486	-80.897	0.180	0.061
-418.471	543.779	-0.084	-0.203
-417.457	-28.391	0.130	-0.076
-416.442	-54.227	-0.341	0.157
-415.428	29.834	0.153	0.132
-414.413	-180.566	-0.598	-0.012
-413.398	555.773	-0.052	0.127
-412.384	-106.799	0.193	0.043
-411.369	74.177	-0.240	0.255
-410.355	-85.099	0.112	0.035
-409.340	182.404	0.048	-0.071
-408.325	-40.908	0.063	-0.033
-407.311	135.561	-0.150	-0.198
-406.296	79.407	0.081	0.088
-405.282	154.478	-0.100	0.139
-404.267	-200.000	-0.033	0.223
-403.252	-200.000	0.027	0.186
-402.238	21.656	-0.039	0.032
-401.223	-200.000	-0.037	-0.311
-400.209	-50.730	0.218	0.104
-399.194	-64.020	-0.330	-0.136
-398.179	310.242	0.087	-0.164
-397.165	-141.001	0.198	0.020
-396.150	387.568	0.043	0.089
-395.136	-140.540	0.304	0.032
-394.121	749.554	0.089	0.242
-393.106	800.000	0.024	0.091
-392.092	111.995	0.098	-0.120
-391.077	22.940	-0.165	0.137
-390.063	-86.457	-0.362	-0.112
-389.048	143.090	0.100	-0.134
-388.033	-200.000	-0.035	0.163
-387.019	568.259	0.098	0.241
-386.004	800.000	0.045	-0.181
-384.990	-38.677	-0.093	0.050
-383.975	171.180	0.116	-0.169
-382.960	-90.124	0.186	0.055
-381.946	-61.944	0.153	0.065
-380.931	132.562	-0.046	-0.060
-379.917	57.549	-0.111	-0.110
-378.902	-123.063	-0.156	0.025
-377.888	130.692	-0.134	-0.173
-376.873	-35.897	0.107	0.058
-375.858	-8.883	0.120	-0.082
-374.844	-69.997	0.221	-0.085
-373.829	1.489	0.171	-0.124
-372.815	0.626	0.047	0.034
-371.800	-200.000	-0.037	0.205
-370.785	-99.659	-0.045	0.011
-369.771	800.000	-0.084	0.304
-368.756	74.577	0.168	0.178
-367.742	-200.000	-0.016	0.098
-366.727	293.749	-0.037	0.069
-365.712	-135.894	-0.360	-0.043
-364.698	75.492	-0.125	-0.133
-363.683	-52.101	0.205	-0.096
-362.669	152.280	-0.043	0.060
-361.654	622.072	-0.072	-0.183
-360.639	-138.651	-0.191	0.021
-359.625	-160.219	-0.220	0.012
-358.610	-200.000	-0.050	-0.349
-357.596	-200.000	0.020	-0.256
-356.581	-93.011	0.095	-0.027
-355.566	411.371	0.183	-0.393
-354.552	-45.608	0.302	0.151
-353.537	-80.349	0.325	-0.110
-352.523	-46.418	-0.109	-0.054
-351.508	-71.561	-0.197	0.074
-350.493	-200.000	-0.001	0.196
-349.479	-200.000	0.128	0.616
-348.464	-200.000	0.063	-0.341
-347.450	-200.000	0.019	0.226
-346.435	-36.024	-0.110	-0.060
-345.420	70.433	-0.036	0.037
-344.406	675.217	0.117	-0.307
-343.391	800.000	0.104	-0.380
-342.377	-172.763	0.080	-0.003
-341.362	242.334	0.055	-0.092
-340.348	-18.409	-0.328	-0.207
-339.333	294.285	0.066	0.122
-338.318	-133.945	-0.369	0.046
-337.304	-3.920	0.132	-0.092
-336.289	-55.819	0.257	-0.116
-335.275	-200.000	0.027	-0.193
-334.260	46.936	-0.172	0.161
-333.245	-188.213	0.231	0.003
-332.231	-164.171	-0.169	-0.008
-331.216	279.682	-0.092	0.165
-330.202	45.051	0.079	0.073
-329.187	-41.623	-0.218	-0.113
-328.172	-200.000	-0.034	0.252
-327.158	-75.931	-0.083	-0.030
-326.143	-63.782	0.272	0.112
-325.129	-200.000	0.013	0.129
-324.114	13.621	-0.261	0.204
-323.099	-1.169	0.070	0.050
-322.085	19.740	0.158	0.128
-321.070	8.342	-0.238	0.180
-320.056	6.763	-0.140	-0.105
-319.041	-82.973	-0.308	0.100
-318.026	-200.000	0.016	0.166
-317.012	-200.000	-0.034	0.356
-315.997	-200.000	0.014	0.326
-314.983	800.000	-0.021	-0.063
-313.968	-62.206	0.216	0.091
-312.953	-134.162	-0.237	0.030
-311.939	348.982	-0.126	-0.250
-310.924	-91.265	0.135	0.039
-309.910	35.669	-0.179	-0.158
-308.895	-200.000	-0.039	0.237
-307.880	-53.382	-0.165	0.076
-306.866	-111.300	-0.222	0.046
-305.851	-69.411	0.358	0.139
-304.837	-7.358	-0.203	0.139
-303.822	-83.514	-0.206	-0.066
-302.807	175.943	-0.030	-0.044
-301.793	732.040	0.066	0.178
-300.778	229.968	0.073	0.121
-299.764	52.106	-0.367	-0.352
-298.749	-200.000	0.024	-0.400
-297.735	211.287	0.207	0.328
-296.720	413.241	0.030	-0.065
-295.705	-200.000	-0.004	-0.115
-294.691	9.852	-0.224	-0.171
-293.676	-95.061	0.312	0.085
-292.662	-147.922	0.217	0.018
-291.647	81.587	0.128	-0.140
-290.632	218.888	0.048	0.077
-289.618	206.269	0.090	-0.141
-288.603	-200.000	0.022	0.173
-287.589	293.763	-0.128	0.235
-286.574	95.085	-0.115	-0.132
-285.559	-120.090	0.184	-0.032
-284.545	101.103	0.280	0.328
-283.530	6.872	-0.267	-0.200
-282.516	5.276	0.095	-0.071
-281.501	490.661	0.201	0.462
-280.486	-16.938	0.168	-0.107
-279.472	-57.708	0.087	-0.039
-278.457	48.415	-0.099	-0.093
-277.443	-182.833	0.040	-0.001
-276.428	-103.646	-0.320	-0.075
-275.413	137.567	0.244	-0.322
-274.399	-102.056	0.142	0.035
-273.384	-155.706	0.486	0.031
-272.370	-68.913	-0.121	-0.047
-271.355	153.083	-0.151	-0.208
-270.340	-91.008	-0.411	0.119
-269.326	86.135	0.127	-0.140
-268.311	-200.000	0.007	-0.038
-267.297	-195.900	-0.105	0.001
-266.282	-200.000	-0.021	-0.176
-265.267	-12.428	-0.094	0.062
-264.253	800.000	0.110	0.435
-263.238	139.479	-0.122	-0.162
-262.224	386.785	-0.112	-0.234
-261.209	800.000	0.039	-0.134
-260.195	51.831	-0.085	-0.081
-259.180	-200.000	-0.017	-0.188
-258.165	-8.582	0.017	0.011
-257.151	-200.000	-0.021	0.280
-256.136	245.000	0.074	0.126
-255.122	74.792	0.186	-0.196
-254.107	-13.823	0.188	-0.122
-253.092	113.210	0.109	-0.133
-252.078	-3.460	-0.188	0.132
-251.063	11.770	0.130	0.100
-250.049	310.912	0.056	0.105
-249.034	-64.683	-0.036	-0.015
-248.019	800.000	-0.046	0.151
-247.005	89.457	-0.232	0.260
-245.990	800.000	-0.064	0.268
-244.976	-87.087	0.162	-0.050
-243.961	-92.984	0.131	0.037
-242.946	-80.811	0.184	0.062
-241.932	106.932	0.240	0.287
-240.917	-22.621	-0.110	-0.067
-239.903	27.428	-0.147	-0.124
-238.888	-140.427	0.115	-0.012
-237.873	6.251	0.233	0.174
-236.859	-102.475	0.305	0.073
-235.844	140.587	0.069	0.091
-234.830	114.513	-0.198	-0.243
-233.815	-61.475	0.268	-0.113
-232.800	-153.150	0.158	-0.011
-231.786	-149.427	0.141	-0.011
-230.771	-124.400	0.097	-0.015
-229.757	-179.252	-0.286	-0.006
-228.742	-200.000	-0.039	-0.245
-227.727	-89.825	-0.100	-0.030
-226.713	-200.000	0.032	-0.188
-225.698	553.933	-0.106	-0.257
-224.684	-200.000	-0.030	-0.154
-223.669	108.856	0.124	0.149
-222.655	-200.000	0.016	-0.094
-221.640	129.182	0.089	0.114
-220.625	565.636	-0.065	-0.159
-219.611	-32.843	-0.140	-0.078
-218.596	173.072	0.140	0.203
-217.582	41.955	-0.224	-0.204
-216.567	353.086	0.066	-0.132
-215.552	800.000	-0.025	-0.104
-214.538	-20.807	-0.296	0.182
-213.523	228.711	0.015	0.025
-212.509	-200.000	0.019	-0.208
-211.494	-58.942	0.164	-0.071
-210.479	206.653	-0.042	-0.066
-209.465	238.437	-0.039	-0.065
-208.450	800.000	0.060	0.198
-207.436	297.975	0.061	0.113
-206.421	-60.816	-0.133	-0.056
-205.406	-200.000	-0.036	0.233
-204.392	23.992	0.108	-0.090
-203.377	-114.965	0.172	0.033
-202.363	-176.432	0.160	0.004
-201.348	-117.417	0.133	-0.024
-200.333	-106.605	-0.210	0.047
-199.319	280.494	0.238	-0.427
-198.304	-160.600	0.150	0.008
-197.290	800.000	-0.113	0.385
-196.275	-170.297	-0.307	0.011
-195.260	11.792	0.191	-0.147
-194.246	38.355	-0.224	-0.200
-193.231	649.697	-0.021	-0.055
-192.217	-90.663	0.241	0.070
-191.202	394.385	0.122	-0.256
-190.187	374.116	0.080	0.163
-189.173	306.995	0.169	0.315
-188.158	-128.901	-0.191	-0.027
-187.144	-36.490	0.234	0.126
-186.129	-35.371	0.307	-0.167
-185.114	88.378	-0.131	-0.146
-184.100	-42.235	0.163	-0.083
-183.085	205.542	0.057	-0.089
-182.071	-22.583	0.123	-0.074
-181.056	77.820	0.261	-0.279
-180.042	-20.607	-0.224	0.138
-179.027	-121.671	0.461	0.077
-178.012	-106.818	-0.138	0.031
-176.998	-200.000	-0.011	-0.067
-175.983	800.000	0.024	-0.102
-174.969	-200.000	-0.096	-0.523
-173.954	307.852	0.130	-0.244
-172.939	246.218	0.092	-0.155
-171.925	228.443	-0.121	0.198
-170.910	180.272	0.124	-0.183
-169.896	273.296	-0.110	0.194
-168.881	-135.934	-0.229	0.027
-167.866	137.897	-0.126	-0.166
-166.852	102.841	0.275	0.323
-165.837	250.115	-0.148	0.252
-164.823	-25.190	-0.160	-0.095
-163.808	33.843	-0.061	-0.053
-162.793	-170.076	-0.383	0.014
-161.779	119.329	0.272	0.337
-160.764	-19.593	-0.257	-0.159
-159.750	95.950	0.134	0.153
-158.735	-110.951	0.371	0.076
-157.720	68.753	0.054	0.056
-156.706	-42.264	-0.220	-0.113
-155.691	684.849	-0.123	0.320
-154.677	52.392	-0.153	0.146
-153.662	-80.785	0.076	-0.025
-152.647	15.783	-0.220	0.173
-151.633	202.173	0.161	-0.249
-150.618	171.302	-0.037	0.053
-149.604	50.543	-0.127	-0.121
-148.589	183.027	0.119	0.175
-147.574	-61.755	-0.148	-0.062
-146.560	272.963	-0.047	-0.084
-145.545	-126.767	-0.195	0.029
-144.531	-156.955	0.199	-0.012
-143.516	84.022	0.053	-0.058
-142.502	117.120	0.250	0.307
-141.487	-1.119	0.427	-0.302
-140.472	144.312	-0.141	-0.188
-139.458	-69.020	-0.373	0.144
-138.443	-200.000	-0.011	0.230
-137.429	134.362	0.157	0.204
-136.414	1.680	-0.130	-0.094
-135.399	-200.000	0.029	0.168
-134.385	-200.000	-0.022	-0.194
-133.370	-125.701	-0.128	0.019
-132.356	-97.453	-0.197	0.051
-131.341	-200.000	0.002	0.072
-130.326	-200.000	0.048	0.288
-129.312	800.000	0.035	0.121
-128.297	751.817	-0.151	-0.409
-127.283	800.000	-0.097	0.306
-126.268	-200.000	0.040	-0.243
-125.253	800.000	0.023	0.082
-124.239	-72.651	0.055	-0.020
-123.224	800.000	-0.041	-0.126
-122.210	-200.000	0.017	0.142
-121.195	55.849	-0.154	-0.149
-120.180	11.749	-0.309	0.237
