DTS Sentinel unit serial number:	SN413079Multiplexer serial number:	ORYXHardware model number:	OX4-SRSoftware version number:	ORYX F/W v4.00 Oryx Data Collector v3.7.2.0data status	okinstallation	princeton_trtdifferential loss correction	single-endedforward channel	channel 1reverse channel	N/Adate	2019/09/12time	19:06:34forward acquisition time	15.00reverse acquisition time	0.00gamma	496.2192k internal	0.2320k external	0.2320temperature offset calibration	1.0108default loss term (dB/km)	0.3790temperature slope calibration	1.0000multiplexer offset coefficient	1.0000multiplexer slope coefficient	1.0000fibre end	0.00T internal ref (°C)	32.62T ext. ref 1 (°C)	3.07T ext. ref 2 (°C)	27.17length (m)	temperature (°C)	Stokes	anti-Stokes-747.200	-102.989	0.417	-0.100
-746.185	-26.161	-0.228	0.136
-745.171	55.558	0.570	0.558
-744.156	1.572	-0.234	-0.170
-743.142	-139.124	-1.013	0.111
-742.127	129.506	0.510	-0.659
-741.112	800.000	0.236	0.740
-740.098	-44.202	-0.158	0.080
-739.083	-14.199	-0.692	0.451
-738.069	114.774	-0.469	-0.579
-737.054	-71.292	0.093	-0.035
-736.039	-162.719	-1.007	0.050
-735.025	-109.005	0.170	0.037
-734.010	86.014	0.041	0.046
-732.996	181.535	0.329	-0.489
-731.981	613.980	0.231	-0.586
-730.966	-11.804	0.244	-0.162
-729.952	159.720	0.168	-0.236
-728.937	277.258	0.219	0.394
-727.923	-100.587	0.217	0.054
-726.908	-200.000	0.144	-1.104
-725.894	238.699	-0.241	-0.404
-724.879	197.523	0.137	0.211
-723.864	-100.781	0.353	-0.088
-722.850	-107.159	-0.473	0.105
-721.835	-200.000	-0.683	0.000
-720.821	398.013	0.324	0.685
-719.806	13.958	0.328	-0.258
-718.791	-200.000	0.050	0.457
-717.777	-200.000	0.154	-1.068
-716.762	223.874	-0.342	-0.557
-715.748	-85.883	0.283	-0.089
-714.733	-118.013	-1.430	0.258
-713.718	29.724	-0.269	-0.231
-712.704	800.000	-0.089	-0.249
-711.689	-133.616	-0.768	0.097
-710.675	-200.000	-0.244	1.175
-709.660	800.000	-0.146	0.451
-708.645	-139.439	0.062	-0.007
-707.631	-35.047	-0.806	-0.444
-706.616	25.463	0.462	0.388
-705.602	-44.756	-0.280	0.141
-704.587	-89.769	-0.655	0.194
-703.572	-200.000	-0.049	0.580
-702.558	-97.241	-0.488	0.129
-701.543	-118.184	-0.506	-0.091
-700.529	800.000	-0.004	0.014
-699.514	-19.365	-0.987	-0.618
-698.499	-127.453	-0.263	0.039
-697.485	-100.796	0.902	-0.224
-696.470	49.626	0.075	0.072
-695.456	-43.140	-0.477	0.244
-694.441	800.000	-0.180	0.699
-693.426	800.000	-0.160	-0.583
-692.412	800.000	0.087	0.243
-691.397	5.946	-0.220	0.164
-690.383	57.923	-0.494	0.488
-689.368	-200.000	0.013	-0.501
-688.354	42.269	-0.699	0.641
-687.339	4.893	-0.636	-0.472
-686.324	128.273	-0.457	-0.587
-685.310	30.656	0.340	0.294
-684.295	0.827	0.233	0.169
-683.281	-3.723	0.112	-0.079
-682.266	-200.000	0.050	-0.438
-681.251	-103.304	-0.544	-0.129
-680.237	-200.000	-0.154	-1.352
-679.222	-68.837	-1.247	-0.486
-678.208	17.134	1.187	-0.949
-677.193	0.682	0.542	-0.391
-676.178	687.414	0.206	0.544
-675.164	20.498	0.487	0.397
-674.149	-200.000	0.030	-0.872
-673.135	-155.917	0.187	-0.012
-672.120	461.335	0.420	0.944
-671.105	-53.396	-0.301	0.139
-670.091	800.000	-0.185	-0.582
-669.076	362.389	-0.309	0.625
-668.062	129.662	-0.630	0.812
-667.047	-96.560	0.839	0.223
-666.032	-71.534	0.991	0.374
-665.018	-200.000	-0.013	-0.242
-664.003	-24.247	0.196	0.118
-662.989	-200.000	-0.050	0.244
-661.974	-118.080	-0.230	0.041
-660.959	329.484	-0.248	-0.480
-659.945	-200.000	0.046	-0.654
-658.930	-200.000	-0.019	-0.126
-657.916	-171.855	-0.790	-0.026
-656.901	-200.000	-0.041	0.237
-655.886	-200.000	0.057	0.870
-654.872	-134.912	-0.518	-0.063
-653.857	-200.000	0.011	-0.154
-652.843	-13.276	0.479	0.313
-651.828	-200.000	-0.149	0.734
-650.814	-71.685	-0.435	-0.164
-649.799	-163.676	0.442	-0.021
-648.784	800.000	-0.203	-0.873
-647.770	-200.000	0.085	0.905
-646.755	-159.305	0.736	0.042
-645.741	-27.300	-0.483	0.284
-644.726	-200.000	-0.037	0.267
-643.711	-117.120	0.267	0.049
-642.697	223.890	0.150	-0.244
-641.682	-85.695	-0.810	0.253
-640.668	71.098	-0.270	-0.282
-639.653	-170.194	0.306	0.011
-638.638	-6.342	-0.275	0.189
-637.624	117.364	0.021	-0.026
-636.609	-14.659	0.357	0.231
-635.595	121.252	0.223	-0.279
-634.580	187.651	0.311	0.468
-633.565	800.000	-0.167	0.618
-632.551	-79.481	-0.690	-0.235
-631.536	800.000	-0.135	0.405
-630.522	161.012	-0.099	0.140
-629.507	-200.000	0.145	-0.954
-628.492	-14.303	0.341	0.221
-627.478	-3.300	-0.557	0.391
-626.463	-45.880	-0.425	-0.211
-625.449	-9.489	0.738	-0.496
-624.434	77.306	0.219	0.234
-623.419	494.839	-0.225	-0.520
-622.405	193.681	0.058	0.088
-621.390	426.236	-0.127	0.275
-620.376	24.378	-0.357	0.297
-619.361	-200.000	0.003	-1.101
-618.346	6.642	-0.241	0.180
-617.332	-36.808	-0.470	0.254
-616.317	-85.860	-0.798	0.249
-615.303	324.697	0.074	-0.141
-614.288	-61.203	-0.328	0.139
-613.273	476.433	0.263	0.599
-612.259	594.260	0.175	0.435
-611.244	800.000	0.097	0.381
-610.230	54.328	0.192	-0.186
-609.215	800.000	-0.046	0.172
-608.201	-200.000	-0.088	-0.585
-607.186	-97.504	0.701	0.183
-606.171	-73.734	-0.341	-0.125
-605.157	95.416	-0.253	-0.291
-604.142	31.538	0.165	0.143
-603.128	-90.334	-0.697	0.203
-602.113	-76.339	0.381	0.135
-601.098	-200.000	0.157	0.000
-600.084	569.078	0.130	-0.319
-599.069	-200.000	0.018	0.804
-598.055	-44.763	-0.468	0.235
-597.040	632.113	0.213	-0.542
-596.025	800.000	0.384	-1.206
-595.011	-30.170	-0.257	-0.147
-593.996	-108.979	-0.056	0.012
-592.982	-23.183	0.080	-0.048
-591.967	59.841	-0.231	0.230
-590.952	222.805	-0.220	0.356
-589.938	-41.747	-0.918	-0.474
-588.923	-112.688	-0.469	0.094
-587.909	-1.036	-0.389	0.277
-586.894	19.318	0.403	-0.325
-585.879	-137.029	0.203	-0.023
-584.865	271.920	-0.418	-0.741
-583.850	-93.350	0.403	-0.112
-582.836	290.587	0.184	-0.336
-581.821	370.914	-0.377	-0.767
-580.806	-200.000	-0.046	-0.256
-579.792	14.987	0.577	-0.454
-578.777	-71.472	0.533	0.200
-577.763	-154.799	-1.019	0.068
-576.748	-200.000	0.101	-0.776
-575.733	800.000	-0.050	-0.203
-574.719	-39.677	-0.777	0.408
-573.704	-70.144	0.507	-0.194
-572.690	-23.510	-0.636	-0.384
-571.675	-105.482	-0.702	0.160
-570.661	-62.974	-0.443	0.184
-569.646	-78.606	-0.844	-0.290
-568.631	-200.000	0.078	-0.847
-567.617	-200.000	-0.014	-0.390
-566.602	28.471	0.415	0.352
-565.588	18.550	-0.062	0.049
-564.573	-54.371	-0.245	-0.112
-563.558	160.752	-0.431	0.604
-562.544	295.536	-0.166	0.306
-561.529	615.976	0.271	-0.681
-560.515	61.670	0.245	0.245
-559.500	800.000	-0.284	-0.996
-558.485	-39.168	0.225	0.119
-557.471	-200.000	-0.017	-0.444
-556.456	115.743	-0.014	0.018
-555.442	440.019	0.025	-0.054
-554.427	-119.948	0.666	-0.115
-553.412	800.000	0.233	0.763
-552.398	800.000	-0.173	0.630
-551.383	66.031	-0.242	0.247
-550.369	800.000	-0.289	-1.164
-549.354	-155.441	0.554	-0.036
-548.339	-82.320	-0.403	-0.132
-547.325	800.000	0.124	-0.528
-546.310	-84.726	-0.050	0.016
-545.296	78.408	-0.612	-0.656
-544.281	-153.000	-0.487	-0.034
-543.266	-64.021	0.244	0.100
-542.252	54.591	-0.444	-0.429
-541.237	-133.533	0.890	0.112
-540.223	-171.446	0.376	-0.013
-539.208	743.917	-0.085	-0.229
-538.193	429.748	-0.102	0.221
-537.179	174.101	-0.460	0.667
-536.164	123.136	0.186	0.233
-535.150	-169.840	-0.750	0.027
-534.135	-38.508	-0.897	0.476
-533.121	-178.459	0.655	-0.015
-532.106	-200.000	-0.275	-1.354
-531.091	-133.236	0.583	0.074
-530.077	613.679	0.201	-0.506
-529.062	22.510	-0.286	-0.235
-528.048	39.124	-0.255	-0.229
-527.033	189.145	-0.229	0.344
-526.018	56.824	0.393	0.384
-525.004	118.558	-0.424	0.525
-523.989	-151.334	0.601	0.045
-522.975	800.000	-0.206	-0.656
-521.960	32.908	0.437	-0.379
-520.945	154.676	-0.417	0.574
-519.931	315.779	-0.619	-1.172
-518.916	-39.938	-0.570	-0.298
-517.902	-148.563	0.307	0.025
-516.887	50.340	0.392	-0.371
-515.872	188.636	-0.376	0.564
-514.858	-98.278	0.422	0.108
-513.843	800.000	-0.230	-0.867
-512.829	106.271	-0.298	-0.354
-511.814	137.364	0.128	0.167
-510.799	106.326	0.184	-0.218
-509.785	-90.902	0.965	-0.278
-508.770	-78.473	0.310	-0.107
-507.756	80.436	-0.451	-0.486
-506.741	665.222	0.290	0.751
-505.726	800.000	0.426	1.627
-504.712	-200.000	-0.030	0.651
-503.697	-200.000	-0.027	0.408
-502.683	86.766	-0.438	-0.485
-501.668	-200.000	0.025	0.305
-500.653	506.392	0.314	0.729
-499.639	-18.601	-0.280	-0.175
-498.624	519.927	0.087	-0.204
-497.610	736.267	-0.060	0.160
-496.595	69.836	-0.715	-0.738
-495.581	640.214	-0.196	0.500
-494.566	-37.363	0.561	0.300
-493.551	-86.865	1.005	0.307
-492.537	-200.000	-0.053	-0.245
-491.522	-200.000	0.018	-0.104
-490.508	-200.000	-0.007	0.034
-489.493	357.200	0.272	-0.543
-488.478	-36.498	-0.726	-0.392
-487.464	34.311	-0.345	0.301
-486.449	43.784	0.350	-0.320
-485.435	800.000	-0.210	0.911
-484.420	-73.576	-0.225	0.082
-483.405	-88.850	-0.508	0.151
-482.391	2.143	0.494	-0.357
-481.376	800.000	-0.171	-0.603
-480.362	158.750	-0.010	-0.014
-479.347	-102.738	-0.580	0.138
-478.332	-35.001	-0.317	0.173
-477.318	800.000	0.091	-0.357
-476.303	-45.874	0.467	0.231
-475.289	495.287	-0.232	-0.534
-474.274	8.764	0.665	0.501
-473.259	-200.000	-0.001	-0.133
-472.245	136.966	-0.691	-0.903
-471.230	212.466	0.282	-0.446
-470.216	-8.844	0.251	0.168
-469.201	-200.000	-0.027	-0.250
-468.186	-40.675	0.275	0.142
-467.172	10.459	-0.604	0.461
-466.157	-106.413	0.718	0.160
-465.143	-200.000	0.084	0.523
-464.128	690.552	0.348	0.911
-463.113	-70.740	0.518	0.196
-462.099	173.521	-0.106	0.153
-461.084	-125.715	-0.564	0.085
-460.070	369.346	0.238	0.481
-459.055	38.152	0.543	-0.483
-458.040	-132.534	0.764	0.098
-457.026	285.867	0.416	-0.750
-456.011	-81.474	0.289	-0.095
-454.997	422.000	-0.216	0.462
-453.982	80.251	-0.740	0.797
-452.968	-200.000	0.047	-0.259
-451.953	23.046	0.262	0.215
-450.938	70.745	0.689	0.713
-449.924	-65.904	0.457	-0.183
-448.909	161.312	0.147	-0.205
-447.895	-21.445	0.287	-0.175
-446.880	-29.198	-0.374	0.214
-445.865	-200.000	0.043	0.398
-444.851	353.166	-0.273	0.541
-443.836	-20.751	0.393	-0.241
-442.822	-76.601	0.884	0.310
-441.807	-50.118	0.910	-0.431
-440.792	199.851	0.331	0.508
-439.778	-77.239	0.456	-0.159
-438.763	-200.000	-0.159	0.856
-437.749	232.961	0.213	0.350
-436.734	-148.251	-0.552	0.045
-435.719	-90.326	-0.711	-0.206
-434.705	-49.373	0.170	0.081
-433.690	-109.061	0.390	-0.083
-432.676	800.000	0.187	0.567
-431.661	161.440	0.602	0.841
-430.646	-126.103	0.684	0.102
-429.632	-38.886	-0.081	0.043
-428.617	108.520	-0.234	-0.279
-427.603	-135.434	-0.828	-0.099
-426.588	26.241	0.315	-0.263
-425.573	42.493	0.293	0.266
-424.559	94.695	-0.378	-0.429
-423.544	219.596	-0.564	0.901
-422.530	-101.149	-0.126	0.031
-421.515	-49.072	0.085	0.041
-420.500	-50.085	-0.372	-0.176
-419.486	-200.000	0.155	0.856
-418.471	20.658	0.862	0.697
-417.457	-179.998	-0.281	-0.006
-416.442	95.786	0.530	0.604
-415.428	-8.870	0.244	0.163
-414.413	625.174	0.083	0.209
-413.398	-49.684	-0.597	0.283
-412.384	-103.335	0.730	-0.172
-411.369	-108.876	-0.761	-0.162
-410.355	-200.000	0.128	1.141
-409.340	-200.000	-0.012	-0.711
-408.325	-200.000	0.078	-0.689
-407.311	-15.287	0.357	0.228
-406.296	-86.889	0.067	-0.020
-405.282	-37.146	0.539	0.288
-404.267	-104.240	0.548	-0.127
-403.252	-149.452	-0.903	0.071
-402.238	43.186	-0.581	-0.529
-401.223	486.851	-0.323	-0.735
-400.209	-52.649	0.831	-0.383
-399.194	-200.000	0.002	-0.314
-398.179	65.389	0.258	-0.261
-397.165	22.275	-0.585	-0.476
-396.150	-200.000	0.042	0.249
-395.136	90.562	0.350	0.391
-394.121	-109.870	-0.109	0.023
-393.106	-30.674	-0.115	-0.065
-392.092	-50.907	0.373	0.175
-391.077	800.000	0.231	0.658
-390.063	-159.993	0.227	0.012
-389.048	173.168	-0.261	0.375
-388.033	-154.312	-0.364	0.024
-387.019	274.158	-0.193	-0.341
-386.004	-176.271	0.157	-0.004
-384.990	221.597	-0.348	0.558
-383.975	117.967	-0.224	0.275
-382.960	90.732	0.275	0.308
-381.946	-17.285	0.540	-0.339
-380.931	-200.000	-0.029	-0.468
-379.917	10.431	0.250	-0.190
-378.902	800.000	-0.175	-0.705
-377.888	-89.469	-0.503	0.148
-376.873	192.773	-0.445	-0.670
-375.858	192.897	0.337	-0.507
-374.844	-66.053	-0.676	0.269
-373.829	-107.877	0.480	0.104
-372.815	-200.000	0.058	0.484
-371.800	409.575	-0.106	0.223
-370.785	-55.479	-0.234	0.105
-369.771	800.000	-0.220	0.674
-368.756	-84.869	0.365	0.114
-367.742	-200.000	0.034	-0.366
-366.727	-123.269	0.482	-0.077
-365.712	-158.023	-0.449	0.026
-364.698	-200.000	-0.021	-0.254
-363.683	-1.534	-1.152	-0.809
-362.669	-85.093	-0.971	-0.303
-361.654	22.392	-0.114	-0.093
-360.639	-115.024	-0.310	-0.059
-359.625	-151.602	0.288	-0.021
-358.610	-200.000	-0.155	-0.947
-357.596	-74.416	-0.320	0.115
-356.581	-200.000	0.106	-0.698
-355.566	31.551	0.670	-0.574
-354.552	315.767	0.541	-1.016
-353.537	-31.905	0.340	0.190
-352.523	-15.439	0.431	0.274
-351.508	-200.000	-0.038	0.950
-350.493	333.210	0.305	-0.588
-349.479	-200.000	-0.055	0.396
-348.464	-148.585	-0.490	0.040
-347.450	53.603	0.461	0.441
-346.435	-57.815	0.440	0.192
-345.420	36.040	-0.633	-0.555
-344.406	-200.000	-0.003	0.124
-343.391	15.573	0.469	-0.367
-342.377	-42.206	0.284	-0.145
-341.362	-200.000	0.075	0.339
-340.348	-17.817	-0.385	-0.241
-339.333	-90.946	-0.979	0.280
-338.318	-200.000	0.107	0.614
-337.304	800.000	-0.050	-0.218
-336.289	167.613	-0.502	-0.711
-335.275	800.000	-0.146	0.613
-334.260	-200.000	0.030	-1.089
-333.245	9.049	0.196	0.148
-332.231	-159.782	0.712	0.039
-331.216	-106.930	0.259	-0.057
-330.202	17.929	-0.396	0.314
-329.187	-96.455	-0.793	-0.209
-328.172	-140.133	0.798	0.083
-327.158	-42.725	0.391	-0.198
-326.143	-183.282	1.228	-0.021
-325.129	-165.925	0.810	0.035
-324.114	196.956	0.498	-0.755
-323.099	-41.675	0.621	0.317
-322.085	206.197	0.204	-0.315
-321.070	43.434	-0.239	-0.217
-320.056	459.431	-0.206	-0.457
-319.041	-95.535	0.697	-0.186
-318.026	-55.925	-0.273	-0.121
-317.012	65.586	0.297	0.299
-315.997	-32.026	-0.476	0.265
-314.983	50.458	-0.448	-0.421
-313.968	139.919	0.189	-0.248
-312.953	-63.246	0.427	0.175
-311.939	-200.000	-0.002	0.137
-310.924	57.030	-0.539	0.523
-309.910	-173.853	0.599	0.018
-308.895	677.155	-0.113	0.292
-307.880	281.692	-0.252	0.448
-306.866	-32.426	0.110	0.061
-305.851	-48.894	-0.190	0.091
-304.837	-133.925	-0.529	0.065
-303.822	218.890	0.351	-0.557
-302.807	-200.000	-0.066	-0.557
-301.793	-200.000	-0.049	0.222
-300.778	94.749	-0.162	-0.184
-299.764	387.128	0.140	-0.287
-298.749	800.000	-0.121	-0.502
-297.735	-164.592	-0.332	0.015
-296.720	-74.180	0.497	0.179
-295.705	-19.025	0.174	-0.108
-294.691	-36.519	-0.228	-0.122
-293.676	-129.380	-0.371	0.051
-292.662	800.000	0.104	-0.446
-291.647	16.006	0.123	0.096
-290.632	-135.526	-0.231	0.027
-289.618	112.142	0.495	-0.594
-288.603	-125.753	0.455	-0.068
-287.589	18.192	-0.725	0.575
-286.574	-155.759	-0.388	0.025
-285.559	-119.670	-0.652	0.112
-284.545	-142.828	0.321	-0.031
-283.530	-66.075	0.499	-0.198
-282.516	-113.658	-0.572	-0.111
-281.501	-81.913	1.014	0.329
-280.486	-154.510	0.589	0.039
-279.472	-92.729	-0.587	0.163
-278.457	-19.235	0.735	0.453
-277.443	-200.000	0.197	0.901
-276.428	60.864	0.187	-0.184
-275.413	-28.388	0.372	0.213
-274.399	-58.278	-0.589	-0.255
-273.384	43.445	-0.533	-0.484
-272.370	246.604	0.750	1.255
-271.355	126.068	-0.300	0.376
-270.340	34.610	0.403	0.349
-269.326	39.803	-0.141	-0.126
-268.311	346.720	0.103	0.201
-267.297	-131.287	0.432	0.057
-266.282	-52.746	-0.190	-0.087
-265.267	-38.108	0.684	-0.360
-264.253	-200.000	0.034	0.233
-263.238	-200.000	-0.076	0.709
-262.224	-51.243	-0.465	-0.216
-261.209	501.908	-0.293	-0.671
-260.195	65.556	-0.410	0.412
-259.180	-154.701	0.357	-0.024
-258.165	188.210	0.360	0.534
-257.151	800.000	-0.290	0.826
-256.136	800.000	-0.152	0.456
-255.122	-118.428	-0.802	0.141
-254.107	238.490	-0.366	0.603
-253.092	-200.000	0.091	-0.431
-252.078	281.257	-0.062	0.111
-251.063	-177.634	0.420	-0.010
-250.049	-110.391	0.399	-0.082
-249.034	44.229	0.953	-0.867
-248.019	61.549	-0.531	0.524
-247.005	-109.303	0.632	0.133
-245.990	-16.257	0.489	-0.308
-244.976	8.747	-0.212	-0.158
-243.961	-200.000	0.085	-0.717
-242.946	162.490	-0.099	0.138
-241.932	-200.000	-0.017	0.260
-240.917	117.545	-0.386	0.471
-239.903	408.829	0.074	-0.155
-238.888	-200.000	0.112	-0.754
-237.873	800.000	0.111	-0.345
-236.859	-200.000	0.045	-0.264
-235.844	800.000	0.418	-1.172
-234.830	17.799	0.266	0.210
-233.815	-33.529	0.342	0.187
-232.800	800.000	0.042	0.149
-231.786	-32.401	0.291	-0.161
-230.771	-65.608	0.860	0.342
-229.757	-200.000	-0.107	0.574
-228.742	-200.000	0.133	0.809
-227.727	683.553	-0.154	0.398
-226.713	-17.680	-0.337	-0.210
-225.698	33.934	-0.103	-0.089
-224.684	-103.363	0.606	-0.141
-223.669	-43.020	0.991	-0.498
-222.655	275.945	0.179	0.315
-221.640	88.298	0.303	-0.333
-220.625	371.328	0.169	-0.339
-219.611	-200.000	0.052	-0.891
-218.596	-63.519	-0.074	0.030
-217.582	-98.462	-1.234	0.313
-216.567	315.169	-0.316	-0.591
-215.552	-56.354	0.218	0.096
-214.538	117.637	-0.720	0.877
-213.523	-29.771	-0.517	0.292
-212.509	55.710	0.689	-0.662
-211.494	-200.000	0.101	-0.448
-210.479	22.902	0.241	-0.196
-209.465	-200.000	0.004	0.235
-208.450	-115.146	-0.314	-0.059
-207.436	-147.794	1.056	0.087
-206.421	-200.000	-0.029	0.802
-205.406	-85.119	-0.508	0.157
-204.392	800.000	-0.076	0.226
-203.377	255.075	-0.065	-0.111
-202.363	63.097	0.127	0.126
-201.348	-45.772	-0.527	-0.258
-200.333	-164.642	-0.699	0.031
-199.319	-89.200	-0.766	0.224
-198.304	-67.674	0.464	-0.180
-197.290	800.000	0.319	-1.057
-196.275	-116.084	-0.548	0.101
-195.260	-174.148	0.405	0.012
-194.246	356.107	-0.141	0.277
-193.231	205.175	-0.224	0.344
-192.217	-200.000	0.004	-1.030
-191.202	88.399	0.132	0.145
-190.187	374.856	-0.300	0.605
-189.173	-200.000	0.121	0.661
-188.158	18.107	0.691	0.545
-187.144	100.067	0.225	0.258
-186.129	-89.397	-0.991	0.289
-185.114	67.301	0.225	-0.227
-184.100	58.469	-0.147	0.143
-183.085	-169.343	-0.776	-0.028
-182.071	149.628	-0.221	0.296
-181.056	-104.579	-0.665	-0.152
-180.042	-21.258	0.407	-0.246
-179.027	-92.103	-1.095	-0.306
-178.012	-60.702	0.262	0.110
-176.998	101.714	-0.608	-0.702
-175.983	30.840	-0.101	-0.086
-174.969	-200.000	0.135	-0.698
-173.954	800.000	-0.300	1.124
-172.939	-196.497	-0.794	-0.005
-171.925	274.454	0.178	0.312
-170.910	-200.000	-0.018	0.286
-169.896	-180.784	-0.408	-0.008
-168.881	-52.930	-0.207	0.094
-167.866	-135.942	0.212	0.025
-166.852	531.809	-0.297	-0.694
-165.837	-200.000	-0.041	-0.265
-164.823	228.985	0.323	-0.521
-163.808	-8.244	-0.418	0.278
-162.793	-200.000	-0.015	1.258
-161.779	93.763	0.526	0.589
-160.764	-107.697	-0.441	-0.095
-159.750	182.952	0.250	0.365
-158.735	800.000	-0.253	-0.896
-157.720	200.777	-0.256	0.388
-156.706	49.850	0.371	0.346
-155.691	637.089	-0.160	0.403
-154.677	800.000	0.091	-0.318
-153.662	7.755	-0.475	0.351
-152.647	800.000	-0.065	0.237
-151.633	-2.086	0.729	-0.506
-150.618	-72.628	0.777	-0.283
-149.604	256.415	-0.460	-0.780
-148.589	-46.991	-0.926	0.447
-147.574	-200.000	-0.059	0.696
-146.560	-7.232	0.951	0.637
-145.545	292.248	-0.377	-0.678
-144.531	800.000	0.190	-0.614
-143.516	-200.000	0.030	-0.129
-142.502	800.000	0.086	0.340
-141.487	298.109	0.247	-0.448
-140.472	800.000	0.169	0.558
-139.458	800.000	-0.251	-0.831
-138.443	-200.000	-0.005	0.104
-137.429	800.000	-0.039	0.134
-136.414	800.000	-0.062	-0.199
-135.399	748.450	0.066	0.175
-134.385	-200.000	0.006	-0.263
-133.370	88.805	0.210	-0.230
-132.356	-17.866	-0.588	-0.364
-131.341	-55.766	0.812	0.358
-130.326	-115.327	0.717	-0.134
-129.312	-78.172	0.651	0.221
-128.297	83.957	-0.486	0.524
-127.283	-200.000	0.010	-0.431
-126.268	70.362	0.343	0.350
-125.253	-47.823	0.253	0.121
-124.239	-134.111	0.682	-0.083
-123.224	-3.672	0.595	0.408
-122.210	85.503	-0.031	0.034
-121.195	800.000	0.100	-0.425
-120.180	42.089	-0.424	0.379
