DTS Sentinel unit serial number:	SN413079Multiplexer serial number:	ORYXHardware model number:	OX4-SRSoftware version number:	ORYX F/W v4.00 Oryx Data Collector v3.7.2.0data status	okinstallation	princeton_trtdifferential loss correction	single-endedforward channel	channel 1reverse channel	N/Adate	2019/09/19time	01:18:35forward acquisition time	60.00reverse acquisition time	0.00gamma	496.2192k internal	0.2344k external	0.2344temperature offset calibration	1.0022default loss term (dB/km)	0.3790temperature slope calibration	1.0000multiplexer offset coefficient	1.0000multiplexer slope coefficient	1.0000fibre end	0.00T internal ref (°C)	21.70T ext. ref 1 (°C)	0.71T ext. ref 2 (°C)	15.14length (m)	temperature (°C)	Stokes	anti-Stokes-747.200	-108.363	0.536	-0.116
-746.185	426.741	-0.061	0.131
-745.171	-66.025	0.090	-0.036
-744.156	800.000	0.088	-0.273
-743.142	-197.122	-0.241	0.002
-742.127	-200.000	-0.057	0.290
-741.112	31.200	0.258	0.221
-740.098	-57.750	-0.531	0.232
-739.083	-126.998	0.252	0.037
-738.069	800.000	-0.146	0.412
-737.054	-182.826	0.136	-0.002
-736.039	486.196	0.033	-0.075
-735.025	59.914	0.100	-0.099
-734.010	85.303	-0.201	-0.220
-732.996	-77.169	-0.184	-0.064
-731.981	11.499	0.059	0.045
-730.966	-200.000	0.037	0.365
-729.952	800.000	0.126	-0.377
-728.937	-9.446	-0.453	0.302
-727.923	-127.631	0.199	0.029
-726.908	-2.633	0.163	-0.114
-725.894	56.198	-0.136	-0.132
-724.879	152.132	-0.115	-0.157
-723.864	800.000	0.031	0.087
-722.850	-46.026	-0.286	-0.141
-721.835	10.960	-0.140	0.107
-720.821	-134.377	0.285	0.035
-719.806	-108.225	0.268	0.058
-718.791	38.344	-0.192	-0.171
-717.777	-200.000	0.010	-0.167
-716.762	-200.000	-0.015	0.084
-715.748	-200.000	-0.021	0.211
-714.733	-72.080	0.067	-0.025
-713.718	111.452	0.098	0.119
-712.704	47.831	0.165	0.154
-711.689	-200.000	-0.046	-0.441
-710.675	-200.000	-0.013	-0.214
-709.660	-200.000	0.506	0.000
-708.645	800.000	0.106	-0.351
-707.631	-106.743	0.239	-0.053
-706.616	-70.912	0.232	0.087
-705.602	800.000	0.070	0.225
-704.587	232.626	0.132	-0.217
-703.572	-200.000	-0.020	-0.090
-702.558	-148.059	0.108	-0.009
-701.543	60.593	-0.092	-0.091
-700.529	8.903	-0.297	0.224
-699.514	110.904	0.068	-0.082
-698.499	-129.325	-0.170	-0.024
-697.485	-12.999	0.328	0.213
-696.470	800.000	0.060	-0.222
-695.456	-60.205	-0.103	0.044
-694.441	800.000	0.032	-0.124
-693.426	0.581	-0.109	-0.078
-692.412	800.000	0.105	-0.305
-691.397	-29.671	0.262	-0.149
-690.383	-16.381	-0.105	0.067
-689.368	-190.597	-0.274	0.003
-688.354	7.427	-0.169	0.126
-687.339	-46.393	-0.351	0.172
-686.324	-92.337	0.059	-0.017
-685.310	373.420	-0.183	-0.372
-684.295	503.659	-0.091	0.210
-683.281	-200.000	-0.088	-0.391
-682.266	143.796	-0.136	0.181
-681.251	169.229	-0.334	0.475
-680.237	169.457	-0.071	0.101
-679.222	-33.596	0.082	-0.045
-678.208	52.594	0.099	0.095
-677.193	-38.919	-0.080	-0.042
-676.178	-155.307	-0.170	0.011
-675.164	-148.898	-0.412	0.033
-674.149	138.583	-0.219	-0.288
-673.135	-110.320	-0.134	-0.028
-672.120	103.029	-0.271	0.317
-671.105	800.000	0.017	-0.053
-670.091	800.000	0.074	0.246
-669.076	-200.000	0.058	0.423
-668.062	-200.000	-0.022	0.392
-667.047	82.475	-0.171	-0.185
-666.032	211.794	-0.121	-0.189
-665.018	109.238	0.153	0.183
-664.003	-22.578	0.091	0.055
-662.989	800.000	0.052	-0.150
-661.974	-93.777	-0.166	0.046
-660.959	-200.000	0.010	0.185
-659.945	447.132	-0.114	-0.251
-658.930	215.513	-0.322	-0.509
-657.916	29.377	0.157	-0.133
-656.901	-195.899	-0.652	-0.005
-655.886	522.029	-0.059	0.137
-654.872	12.564	-0.157	0.121
-653.857	-1.289	0.236	-0.166
-652.843	-124.343	-0.233	-0.036
-651.828	800.000	0.026	-0.074
-650.814	27.149	0.109	-0.091
-649.799	800.000	-0.113	0.427
-648.784	-200.000	-0.031	0.248
-647.770	-5.112	0.144	-0.099
-646.755	800.000	0.055	0.162
-645.741	-200.000	0.018	-0.103
-644.726	381.517	0.073	-0.150
-643.711	-135.260	0.095	-0.011
-642.697	-178.980	0.210	0.005
-641.682	-200.000	0.024	-0.126
-640.668	76.525	0.284	0.300
-639.653	460.163	0.197	0.438
-638.638	238.413	0.129	-0.213
-637.624	-4.772	-0.250	-0.172
-636.609	94.987	-0.085	-0.096
-635.595	33.643	-0.254	0.220
-634.580	-62.938	-0.108	-0.045
-633.565	-131.173	-0.121	0.016
-632.551	-200.000	0.041	-0.195
-631.536	506.965	-0.074	-0.171
-630.522	-39.569	-0.099	0.052
-629.507	-115.481	-0.169	-0.032
-628.492	9.994	0.160	0.121
-627.478	-66.081	0.093	0.037
-626.463	-200.000	0.008	-0.045
-625.449	127.168	0.231	-0.291
-624.434	-150.996	-0.258	0.019
-623.419	-200.000	-0.002	0.114
-622.405	40.424	0.077	-0.069
-621.390	139.067	0.031	-0.040
-620.376	800.000	-0.047	0.182
-619.361	800.000	-0.059	0.172
-618.346	10.231	-0.123	0.093
-617.332	-200.000	-0.005	-0.056
-616.317	-200.000	0.036	0.159
-615.303	87.170	-0.075	0.083
-614.288	-30.703	0.166	-0.093
-613.273	-16.174	-0.222	-0.141
-612.259	-200.000	-0.079	-0.414
-611.244	-200.000	-0.056	-0.337
-610.230	-200.000	-0.034	0.220
-609.215	57.285	0.105	-0.102
-608.201	-83.647	0.259	-0.082
-607.186	-200.000	-0.024	-0.114
-606.171	-200.000	-0.022	-0.210
-605.157	-117.074	-0.192	-0.035
-604.142	338.893	0.112	0.217
-603.128	-200.000	-0.081	-0.472
-602.113	225.008	-0.113	0.182
-601.098	-147.453	-0.080	-0.007
-600.084	-200.000	0.021	0.259
-599.069	465.454	0.099	0.220
-598.055	164.344	0.189	-0.265
-597.040	29.078	0.163	0.138
-596.025	302.796	0.061	-0.112
-595.011	-47.523	0.114	-0.055
-593.996	73.702	-0.113	0.117
-592.982	-154.606	-0.160	-0.011
-591.967	-185.602	0.057	0.001
-590.952	-107.294	0.164	-0.036
-589.938	-23.968	-0.075	-0.045
-588.923	18.133	-0.106	0.084
-587.909	-7.130	-0.232	-0.157
-586.894	30.071	0.203	0.172
-585.879	800.000	-0.135	0.399
-584.865	432.279	-0.089	-0.191
-583.850	-67.235	-0.296	-0.116
-582.836	-93.276	0.245	-0.068
-581.821	73.455	-0.317	-0.330
-580.806	800.000	0.063	0.199
-579.792	10.163	-0.312	0.236
-578.777	-73.747	0.330	0.119
-577.763	746.533	-0.106	0.285
-576.748	800.000	-0.120	0.370
-575.733	-89.985	0.324	-0.094
-574.719	-200.000	0.018	-0.180
-573.704	800.000	-0.103	0.314
-572.690	327.149	-0.076	0.145
-571.675	-71.607	0.341	0.127
-570.661	17.189	0.249	-0.196
-569.646	632.291	-0.093	0.233
-568.631	5.408	0.347	0.255
-567.617	-200.000	-0.044	0.193
-566.602	688.174	-0.125	-0.324
-565.588	229.248	0.113	-0.183
-564.573	102.485	-0.168	0.195
-563.558	55.322	0.105	-0.101
-562.544	60.166	0.121	0.118
-561.529	-127.670	0.115	-0.016
-560.515	431.872	0.164	-0.354
-559.500	102.190	0.072	0.084
-558.485	-56.130	0.230	0.102
-557.471	-18.293	0.161	-0.100
-556.456	800.000	0.029	0.123
-555.442	200.058	-0.188	0.286
-554.427	-200.000	-0.012	-0.172
-553.412	132.255	0.103	-0.132
-552.398	-57.529	-0.026	-0.011
-551.383	800.000	0.005	-0.019
-550.369	-200.000	0.009	-0.073
-549.354	719.766	0.098	-0.260
-548.339	243.410	-0.147	-0.245
-547.325	162.467	-0.095	-0.132
-546.310	-43.452	-0.032	-0.016
-545.296	20.175	0.211	-0.169
-544.281	-200.000	0.001	-0.077
-543.266	-200.000	0.046	-0.240
-542.252	32.118	0.353	0.302
-541.237	42.812	0.134	-0.122
-540.223	318.533	0.077	0.144
-539.208	-200.000	-0.051	-0.255
-538.193	-200.000	0.063	-0.375
-537.179	190.346	-0.160	-0.239
-536.164	-200.000	0.032	-0.290
-535.150	-79.879	-0.120	0.040
-534.135	413.145	-0.048	-0.101
-533.121	-200.000	0.019	0.253
-532.106	-33.818	0.119	0.065
-531.091	-28.924	0.160	-0.091
-530.077	-32.760	-0.290	-0.160
-529.062	426.985	-0.086	-0.183
-528.048	139.816	0.083	0.108
-527.033	-147.489	0.060	0.005
-526.018	121.443	-0.200	-0.248
-525.004	-97.307	0.142	-0.037
-523.989	800.000	0.080	-0.237
-522.975	19.779	-0.293	0.234
-521.960	136.026	-0.162	-0.210
-520.945	267.310	-0.062	0.108
-519.931	56.235	0.106	-0.102
-518.916	-200.000	0.002	0.030
-517.902	176.362	0.194	0.280
-516.887	-186.888	0.152	-0.002
-515.872	198.357	-0.141	0.213
-514.858	800.000	-0.059	0.176
-513.843	172.066	-0.119	-0.170
-512.829	-18.480	0.218	0.135
-511.814	800.000	-0.074	-0.207
-510.799	-136.785	0.294	-0.034
-509.785	-16.228	-0.187	-0.118
-508.770	800.000	-0.075	-0.208
-507.756	-121.204	-0.082	0.014
-506.741	657.234	-0.095	0.241
-505.726	82.369	-0.188	0.202
-504.712	800.000	-0.092	0.377
-503.697	800.000	-0.128	0.447
-502.683	-200.000	-0.005	-0.091
-501.668	-21.673	-0.465	0.281
-500.653	97.961	0.172	-0.196
-499.639	-200.000	-0.006	-0.089
-498.624	105.682	0.203	0.238
-497.610	-200.000	0.004	0.132
-496.595	397.886	0.126	-0.261
-495.581	-200.000	0.049	-0.233
-494.566	-200.000	0.015	-0.179
-493.551	95.718	0.137	0.155
-492.537	24.675	0.412	-0.338
-491.522	-85.237	0.305	0.095
-490.508	-116.594	-0.234	-0.043
-489.493	-6.427	0.312	-0.211
-488.478	-105.895	0.059	0.013
-487.464	200.283	-0.217	0.331
-486.449	-26.928	0.129	0.075
-485.435	-200.000	0.000	0.264
-484.420	241.588	0.035	-0.058
-483.405	800.000	-0.129	0.355
-482.391	17.795	-0.093	0.073
-481.376	-122.707	0.353	-0.057
-480.362	442.193	-0.040	-0.086
-479.347	230.375	-0.101	0.164
-478.332	35.947	-0.233	0.203
-477.318	-118.774	0.160	-0.028
-476.303	41.498	-0.060	0.054
-475.289	61.377	-0.094	-0.093
-474.274	800.000	0.054	-0.200
-473.259	-200.000	-0.016	0.178
-472.245	109.626	0.113	-0.134
-471.230	141.959	-0.054	0.070
-470.216	364.522	0.114	-0.228
-469.201	17.763	0.056	-0.044
-468.186	-200.000	0.005	-0.146
-467.172	227.661	0.053	-0.086
-466.157	112.995	-0.182	-0.218
-465.143	-200.000	-0.027	0.183
-464.128	-125.990	0.047	0.007
-463.113	49.371	-0.192	0.179
-462.099	-200.000	-0.009	0.178
-461.084	-96.377	0.113	0.030
-460.070	-88.355	-0.128	0.038
-459.055	-200.000	-0.020	-0.122
-458.040	-200.000	0.034	0.189
-457.026	24.998	0.134	0.110
-456.011	800.000	0.097	-0.405
-454.997	-112.169	-0.063	-0.013
-453.982	-8.396	0.061	0.040
-452.968	53.091	-0.030	-0.029
-451.953	23.777	-0.194	0.158
-450.938	-193.380	-0.199	-0.002
-449.924	-39.885	0.187	-0.097
-448.909	-73.583	0.270	-0.097
-447.895	800.000	0.075	0.271
-446.880	136.332	-0.230	0.296
-445.865	307.829	-0.063	-0.116
-444.851	58.811	-0.223	-0.216
-443.836	696.381	0.007	0.018
-442.822	371.524	0.128	0.257
-441.807	-68.729	0.158	-0.060
-440.792	-99.819	0.189	0.047
-439.778	20.253	-0.106	-0.085
-438.763	47.923	-0.097	-0.090
-437.749	-200.000	0.007	-0.070
-436.734	149.189	0.122	0.163
-435.719	-129.647	0.175	0.024
-434.705	185.883	0.120	0.177
-433.690	141.660	0.158	-0.207
-432.676	-98.669	-0.147	0.037
-431.661	489.891	0.033	0.076
-430.646	800.000	-0.015	-0.041
-429.632	318.902	0.087	0.163
-428.617	-93.091	-0.268	0.074
-427.603	-38.514	-0.115	0.060
-426.588	-78.541	-0.073	-0.025
-425.573	-54.112	-0.185	0.083
-424.559	59.281	-0.016	-0.015
-423.544	139.925	-0.285	-0.371
-422.530	36.450	-0.233	0.203
-421.515	800.000	0.031	-0.099
-420.500	146.316	0.049	-0.066
-419.486	-62.713	-0.182	0.075
-418.471	14.082	0.032	0.025
-417.457	-200.000	0.036	-0.161
-416.442	382.740	-0.134	0.273
-415.428	-120.715	-0.433	0.072
-414.413	-58.041	0.282	0.121
-413.398	-83.974	-0.300	0.094
-412.384	-107.504	0.255	-0.055
-411.369	428.647	-0.117	-0.250
-410.355	65.120	-0.166	0.166
-409.340	-128.270	-0.168	0.024
-408.325	53.631	-0.325	0.308
-407.311	-200.000	-0.024	0.120
-406.296	-200.000	0.007	-0.207
-405.282	-15.245	0.140	0.089
-404.267	74.717	-0.125	-0.130
-403.252	-111.657	0.144	0.029
-402.238	-200.000	-0.017	0.118
-401.223	163.898	-0.189	-0.263
-400.209	-4.993	0.119	0.081
-399.194	-93.059	-0.282	0.078
-398.179	-41.416	0.181	0.092
-397.165	-81.832	0.114	0.037
-396.150	166.021	-0.255	-0.356
-395.136	58.423	-0.077	-0.075
-394.121	800.000	0.045	0.158
-393.106	374.935	-0.132	-0.266
-392.092	172.882	0.041	-0.059
-391.077	-121.407	-0.433	-0.071
-390.063	708.169	0.014	-0.036
-389.048	66.621	-0.254	-0.255
-388.033	233.137	0.082	0.133
-387.019	241.039	0.111	-0.182
-386.004	484.415	-0.137	-0.308
-384.990	-54.590	0.365	-0.163
-383.975	24.541	0.093	0.076
-382.960	78.107	-0.161	0.170
-381.946	210.471	0.160	-0.248
-380.931	109.768	-0.163	0.193
-379.917	-65.686	-0.148	-0.059
-378.902	-165.658	0.119	-0.005
-377.888	-80.379	0.397	-0.131
-376.873	59.550	0.334	-0.325
-375.858	-30.479	-0.196	0.109
-374.844	-156.545	0.177	-0.011
-373.829	800.000	-0.034	-0.141
-372.815	-76.777	0.037	0.013
-371.800	-78.077	-0.039	0.013
-370.785	-14.650	-0.040	-0.025
-369.771	-62.471	-0.332	0.136
-368.756	-65.656	-0.275	0.109
-367.742	-178.037	0.459	-0.011
-366.727	175.916	0.145	0.208
-365.712	-110.801	0.275	0.056
-364.698	-62.263	0.033	0.014
-363.683	-200.000	0.027	-0.283
-362.669	173.386	0.149	0.212
-361.654	-4.099	-0.318	-0.217
-360.639	-200.000	-0.043	0.267
-359.625	-141.710	0.161	0.016
-358.610	-200.000	0.000	0.144
-357.596	1.673	-0.283	-0.201
-356.581	-200.000	0.044	-0.302
-355.566	107.177	-0.094	-0.111
-354.552	161.509	-0.139	0.192
-353.537	-200.000	-0.066	0.418
-352.523	800.000	0.060	0.244
-351.508	59.362	0.123	-0.119
-350.493	-90.347	-0.218	-0.062
-349.479	75.760	0.157	-0.164
-348.464	112.685	-0.184	0.219
-347.450	310.851	-0.059	0.109
-346.435	10.435	-0.424	0.318
-345.420	-16.109	0.325	0.203
-344.406	45.248	-0.256	0.232
-343.391	27.975	-0.112	0.093
-342.377	566.306	-0.018	-0.044
-341.362	-170.432	-0.412	-0.014
-340.348	-200.000	-0.001	-0.054
-339.333	-53.674	0.305	-0.137
-338.318	353.465	0.070	0.137
-337.304	-200.000	-0.039	-0.274
-336.289	97.754	-0.107	0.121
-335.275	43.109	-0.187	0.168
-334.260	-200.000	-0.008	-0.162
-333.245	-184.425	-0.050	0.001
-332.231	31.722	0.337	-0.285
-331.216	52.239	-0.080	0.075
-330.202	-200.000	0.038	-0.364
-329.187	-64.250	0.127	0.051
-328.172	-89.013	0.172	0.050
-327.158	-80.663	0.183	0.060
-326.143	800.000	-0.060	0.238
-325.129	-53.482	0.039	0.017
-324.114	800.000	0.077	0.237
-323.099	-39.537	0.093	-0.048
-322.085	227.563	0.106	0.170
-321.070	-200.000	0.027	-0.224
-320.056	-200.000	0.089	-0.403
-319.041	-130.148	0.229	-0.031
-318.026	-166.142	0.356	-0.015
-317.012	386.087	0.171	-0.347
-315.997	-200.000	-0.004	-0.018
-314.983	-90.361	0.195	-0.056
-313.968	-200.000	-0.003	0.087
-312.953	-4.957	0.102	0.069
-311.939	-7.968	-0.392	-0.260
-310.924	106.138	-0.094	0.110
-309.910	-200.000	-0.019	-0.086
-308.895	541.187	0.076	-0.178
-307.880	-200.000	0.000	-0.118
-306.866	1.005	-0.048	-0.034
-305.851	104.353	0.095	-0.110
-304.837	-93.404	-0.348	0.095
-303.822	800.000	-0.034	-0.094
-302.807	-200.000	-0.025	0.119
-301.793	235.332	-0.171	0.278
-300.778	800.000	0.049	-0.141
-299.764	800.000	-0.016	0.056
-298.749	60.294	0.248	0.242
-297.735	310.990	-0.137	0.252
-296.720	-200.000	-0.022	-0.145
-295.705	800.000	-0.036	0.120
-294.691	-154.870	0.097	-0.006
-293.676	51.056	-0.507	0.472
-292.662	800.000	-0.133	-0.384
-291.647	312.120	0.103	-0.191
-290.632	56.605	-0.208	-0.199
-289.618	187.813	-0.079	0.116
-288.603	-4.219	-0.276	-0.188
-287.589	-200.000	-0.019	-0.360
-286.574	594.704	-0.057	-0.139
-285.559	-200.000	-0.008	-0.038
-284.545	-32.235	0.647	0.355
-283.530	187.491	-0.194	-0.284
-282.516	-106.547	0.417	-0.091
-281.501	294.616	-0.188	-0.337
-280.486	512.264	-0.039	0.089
-279.472	680.569	-0.095	0.244
-278.457	358.330	0.133	-0.261
-277.443	229.376	-0.146	-0.234
-276.428	136.922	-0.394	-0.505
-275.413	-200.000	-0.002	-0.153
-274.399	55.116	-0.238	0.226
-273.384	-186.480	0.167	0.002
-272.370	800.000	0.077	-0.276
-271.355	14.963	0.254	0.196
-270.340	547.164	-0.196	0.461
-269.326	299.482	0.082	0.148
-268.311	-61.865	-0.195	-0.080
-267.297	-200.000	0.007	0.048
-266.282	-24.284	-0.208	0.122
-265.267	-200.000	0.005	0.276
-264.253	698.926	0.091	0.235
-263.238	800.000	0.044	0.127
-262.224	67.092	0.128	0.128
-261.209	800.000	0.035	-0.102
-260.195	-170.210	-0.177	0.006
-259.180	-105.537	0.140	0.031
-258.165	465.066	0.152	-0.333
-257.151	766.181	0.068	0.183
-256.136	800.000	0.019	0.052
-255.122	124.500	0.238	-0.293
-254.107	-200.000	-0.010	0.189
-253.092	-19.367	-0.311	-0.190
-252.078	178.630	-0.091	0.130
-251.063	-61.523	-0.036	0.015
-250.049	186.058	0.108	-0.158
-249.034	89.500	0.139	-0.152
-248.019	-200.000	0.021	-0.271
-247.005	68.173	0.188	0.189
-245.990	168.264	0.193	0.270
-244.976	268.758	0.097	0.167
-243.961	-127.961	0.155	-0.022
-242.946	537.431	0.128	0.299
-241.932	105.335	0.038	-0.044
-240.917	800.000	0.171	-0.490
-239.903	9.613	-0.297	-0.221
-238.888	-126.077	0.220	-0.032
-237.873	-5.331	-0.037	0.025
-236.859	-93.117	0.088	0.024
-235.844	170.950	-0.213	0.299
-234.830	-200.000	-0.014	0.533
-233.815	87.295	0.124	-0.134
-232.800	-122.043	-0.216	0.035
-231.786	-158.231	0.097	0.006
-230.771	141.427	0.109	-0.141
-229.757	-82.029	0.065	-0.021
-228.742	115.519	0.128	0.153
-227.727	-200.000	0.029	-0.355
-226.713	218.219	-0.248	0.387
-225.698	-99.105	-0.112	-0.028
-224.684	-42.606	0.017	-0.008
-223.669	9.441	-0.088	0.065
-222.655	196.844	-0.002	-0.003
-221.640	-157.872	-0.109	-0.006
-220.625	124.603	-0.143	-0.176
-219.611	800.000	0.043	-0.158
-218.596	-17.517	0.138	-0.085
-217.582	-8.555	-0.191	0.126
-216.567	-200.000	0.053	0.255
-215.552	-200.000	0.031	-0.256
-214.538	-146.927	-0.310	0.026
-213.523	665.065	0.076	0.193
-212.509	342.273	0.072	0.139
-211.494	209.136	0.064	0.098
-210.479	27.632	-0.206	0.170
-209.465	261.497	0.055	0.093
-208.450	800.000	0.035	0.136
-207.436	-171.390	0.107	-0.003
-206.421	727.776	-0.080	-0.208
-205.406	23.821	-0.172	0.139
-204.392	40.811	0.041	-0.037
-203.377	-200.000	0.019	0.096
-202.363	-8.781	-0.369	0.242
-201.348	-200.000	0.055	0.363
-200.333	281.848	0.040	-0.070
-199.319	800.000	-0.074	0.281
-198.304	692.437	0.089	-0.228
-197.290	-102.398	0.110	-0.026
-196.275	-108.514	0.306	0.065
-195.260	800.000	-0.041	-0.132
-194.246	253.107	-0.140	-0.234
-193.231	-21.403	0.290	-0.173
-192.217	113.802	-0.108	-0.129
-191.202	-89.704	0.150	0.043
-190.187	633.262	0.084	-0.208
-189.173	-119.626	-0.167	0.028
-188.158	-140.270	0.253	0.026
-187.144	800.000	0.077	0.266
-186.129	21.691	0.174	-0.138
-185.114	-200.000	-0.001	0.061
-184.100	32.440	-0.227	-0.192
-183.085	47.469	0.114	-0.104
-182.071	700.292	-0.115	-0.296
-181.056	141.896	0.048	-0.063
-180.042	83.893	0.133	0.142
-179.027	398.208	-0.190	-0.389
-178.012	-108.180	0.279	0.059
-176.998	2.589	-0.100	0.071
-175.983	61.032	-0.071	0.069
-174.969	633.600	0.083	0.207
-173.954	-102.278	0.341	-0.080
-172.939	-51.781	-0.163	-0.074
-171.925	-200.000	-0.048	-0.484
-170.910	-200.000	-0.016	-0.288
-169.896	145.650	0.122	0.160
-168.881	-200.000	-0.036	0.160
-167.866	390.173	0.098	-0.198
-166.852	72.673	0.191	-0.195
-165.837	449.653	0.116	0.251
-164.823	-59.026	-0.226	0.095
-163.808	110.844	-0.225	0.265
-162.793	-55.436	-0.346	0.152
-161.779	-24.446	0.214	0.125
-160.764	-200.000	-0.021	0.247
-159.750	330.380	0.041	-0.076
-158.735	234.185	0.117	-0.189
-157.720	173.343	-0.154	-0.218
-156.706	419.425	0.131	0.273
-155.691	800.000	-0.126	0.439
-154.677	-164.347	0.144	0.006
-153.662	-42.110	0.321	0.161
-152.647	41.131	-0.383	-0.339
-151.633	58.006	-0.114	0.109
-150.618	140.847	0.186	0.240
-149.604	26.592	0.040	-0.033
-148.589	800.000	0.078	0.230
-147.574	-200.000	-0.054	0.288
-146.560	646.264	-0.126	-0.314
-145.545	54.356	-0.067	-0.063
-144.531	800.000	0.022	-0.070
-143.516	-13.826	0.268	0.169
-142.502	-200.000	0.037	-0.193
-141.487	-200.000	0.064	-0.379
-140.472	-153.539	0.113	-0.008
-139.458	-200.000	0.018	-0.365
-138.443	-145.595	0.399	0.035
-137.429	-200.000	-0.012	0.311
-136.414	800.000	0.065	0.268
-135.399	96.798	-0.169	0.189
-134.385	-108.200	0.165	0.035
-133.370	-200.000	0.056	-0.385
-132.356	-200.000	-0.048	-0.492
-131.341	800.000	-0.076	0.239
-130.326	-200.000	-0.012	0.115
-129.312	-200.000	-0.017	-0.393
-128.297	800.000	-0.028	-0.101
-127.283	107.143	0.155	-0.179
-126.268	-21.301	0.501	0.299
-125.253	733.532	0.070	-0.183
-124.239	424.953	-0.082	-0.173
-123.224	-72.824	0.227	0.082
-122.210	704.288	0.032	-0.083
-121.195	163.229	-0.133	0.182
-120.180	-89.318	0.252	0.073
