DTS Sentinel unit serial number:	SN413079Multiplexer serial number:	ORYXHardware model number:	OX4-SRSoftware version number:	ORYX F/W v4.00 Oryx Data Collector v3.7.2.0data status	okinstallation	princeton_trtdifferential loss correction	single-endedforward channel	channel 1reverse channel	N/Adate	2019/09/12time	13:08:11forward acquisition time	60.00reverse acquisition time	0.00gamma	496.2192k internal	0.2291k external	0.2291temperature offset calibration	1.0041default loss term (dB/km)	0.3790temperature slope calibration	1.0000multiplexer offset coefficient	1.0000multiplexer slope coefficient	1.0000fibre end	0.00T internal ref (°C)	41.02T ext. ref 1 (°C)	2.02T ext. ref 2 (°C)	36.46length (m)	temperature (°C)	Stokes	anti-Stokes-747.200	800.000	-0.143	0.429
-746.185	87.569	0.211	0.240
-745.171	-200.000	-0.022	0.456
-744.156	228.003	-0.116	0.193
-743.142	-200.000	0.005	-0.396
-742.127	13.241	-0.294	0.233
-741.112	-89.666	-0.068	-0.020
-740.098	222.398	-0.234	0.385
-739.083	-37.409	0.184	0.101
-738.069	-200.000	0.013	0.153
-737.054	60.719	-0.232	0.235
-736.039	-25.983	-0.075	-0.045
-735.025	-200.000	-0.145	0.670
-734.010	-200.000	-0.019	-0.424
-732.996	-106.671	-0.445	-0.101
-731.981	-62.872	-0.095	-0.040
-730.966	-60.318	0.143	0.062
-729.952	37.650	-0.193	-0.175
-728.937	-200.000	-0.003	-0.156
-727.923	222.731	0.082	-0.135
-726.908	-30.831	-0.391	0.226
-725.894	-24.915	-0.101	0.061
-724.879	-3.797	0.047	-0.034
-723.864	-99.104	-0.206	0.053
-722.850	-27.132	-0.195	0.117
-721.835	-200.000	0.002	0.055
-720.821	-161.557	-0.435	0.023
-719.806	35.982	0.277	-0.250
-718.791	245.713	-0.090	0.155
-717.777	-35.609	0.277	-0.154
-716.762	-30.426	-0.266	0.155
-715.748	311.753	0.163	-0.312
-714.733	-200.000	0.008	-0.120
-713.718	-46.648	-0.221	0.111
-712.704	212.949	-0.079	0.127
-711.689	800.000	0.042	-0.160
-710.675	-103.296	-0.635	0.153
-709.660	-200.000	-0.029	-0.345
-708.645	-77.877	0.062	0.022
-707.631	11.454	0.124	0.097
-706.616	800.000	-0.119	-0.495
-705.602	200.063	-0.152	0.238
-704.587	-200.000	0.020	0.215
-703.572	-200.000	-0.033	0.202
-702.558	32.581	0.110	0.097
-701.543	126.204	0.202	0.262
-700.529	-53.981	-0.422	-0.196
-699.514	-125.419	0.127	-0.020
-698.499	459.663	0.008	0.018
-697.485	800.000	-0.075	0.279
-696.470	-158.380	-0.187	0.011
-695.456	800.000	-0.069	0.240
-694.441	61.791	0.115	-0.117
-693.426	29.990	0.108	0.094
-692.412	-89.605	0.261	0.078
-691.397	800.000	0.029	-0.111
-690.383	-200.000	0.014	-0.173
-689.368	25.473	0.259	-0.220
-688.354	44.890	0.188	-0.177
-687.339	-39.318	0.152	0.081
-686.324	-200.000	0.005	0.226
-685.310	-200.000	0.024	0.417
-684.295	-200.000	0.009	0.114
-683.281	-200.000	-0.020	0.198
-682.266	9.131	-0.073	-0.056
-681.251	497.580	0.273	-0.641
-680.237	13.491	-0.157	-0.125
-679.222	-200.000	0.013	0.181
-678.208	-1.912	0.212	-0.153
-677.193	354.849	-0.081	0.165
-676.178	60.208	-0.106	-0.107
-675.164	10.126	-0.060	-0.047
-674.149	-36.976	-0.226	0.124
-673.135	800.000	0.092	0.276
-672.120	286.043	-0.080	-0.147
-671.105	-61.349	0.256	0.110
-670.091	340.940	0.035	0.069
-669.076	-12.482	0.214	-0.143
-668.062	98.009	-0.401	0.472
-667.047	800.000	-0.018	0.058
-666.032	-54.864	0.396	-0.183
-665.018	-178.413	0.391	-0.009
-664.003	150.302	-0.132	0.182
-662.989	800.000	0.026	0.092
-661.974	29.463	0.144	-0.125
-660.959	43.543	0.440	-0.410
-659.945	-136.343	0.296	-0.035
-658.930	-20.027	0.282	0.177
-657.916	-33.131	-0.104	0.059
-656.901	-200.000	0.023	0.117
-655.886	-137.722	-0.083	-0.010
-654.872	-154.216	-0.217	-0.015
-653.857	-66.426	-0.171	-0.069
-652.843	24.897	0.031	-0.026
-651.828	-85.711	-0.110	0.035
-650.814	-200.000	0.003	0.194
-649.799	-27.391	0.089	-0.053
-648.784	93.312	0.176	-0.203
-647.770	-200.000	-0.044	-0.237
-646.755	-62.517	0.018	-0.008
-645.741	-119.171	0.131	0.023
-644.726	-200.000	0.073	0.351
-643.711	-30.807	0.122	-0.070
-642.697	-125.023	0.280	0.044
-641.682	-139.199	-0.242	0.027
-640.668	-112.328	-0.117	0.024
-639.653	-200.000	-0.051	0.262
-638.638	-58.492	-0.055	0.024
-637.624	86.788	0.160	0.181
-636.609	25.964	-0.088	0.075
-635.595	-200.000	0.005	-0.328
-634.580	76.244	0.070	-0.076
-633.565	315.629	-0.315	-0.606
-632.551	-61.468	0.116	-0.050
-631.536	-200.000	-0.011	0.189
-630.522	287.166	-0.093	-0.172
-629.507	-79.598	-0.246	-0.085
-628.492	-55.716	0.214	0.097
-627.478	800.000	0.032	-0.120
-626.463	-200.000	0.009	0.299
-625.449	381.696	-0.117	-0.244
-624.434	-57.736	-0.137	-0.061
-623.419	106.886	-0.134	-0.163
-622.405	800.000	0.095	-0.403
-621.390	-81.232	0.574	0.193
-620.376	6.730	-0.061	-0.046
-619.361	-89.914	-0.179	0.053
-618.346	-192.838	-0.167	0.002
-617.332	-33.592	-0.045	0.025
-616.317	-127.557	0.325	-0.048
-615.303	800.000	-0.062	-0.216
-614.288	-21.292	0.157	0.098
-613.273	161.133	0.215	-0.307
-612.259	-98.890	0.247	0.064
-611.244	-44.420	0.275	-0.140
-610.230	-101.075	0.342	-0.085
-609.215	-66.348	-0.064	0.026
-608.201	118.361	-0.174	-0.218
-607.186	-51.077	0.100	-0.048
-606.171	800.000	0.065	-0.196
-605.157	98.162	-0.219	-0.257
-604.142	-46.484	-0.211	0.106
-603.128	-81.194	-0.068	-0.023
-602.113	-80.818	-0.030	0.010
-601.098	-43.895	0.150	0.077
-600.084	610.697	-0.054	0.136
-599.069	-200.000	-0.024	-0.221
-598.055	105.808	0.148	-0.178
-597.040	-15.066	-0.350	-0.228
-596.025	800.000	-0.033	-0.100
-595.011	-86.580	0.089	0.028
-593.996	-27.722	0.278	0.164
-592.982	-12.279	0.169	-0.112
-591.967	-200.000	-0.001	-0.101
-590.952	26.988	-0.186	0.159
-589.938	-178.048	0.273	0.007
-588.923	-200.000	0.076	0.485
-587.909	-67.586	-0.277	-0.111
-586.894	386.860	0.176	-0.370
-585.879	800.000	0.090	-0.384
-584.865	800.000	0.029	0.095
-583.850	189.008	0.039	0.059
-582.836	164.646	-0.341	0.489
-581.821	338.937	0.026	0.051
-580.806	59.270	0.135	-0.135
-579.792	-147.734	0.121	0.010
-578.777	800.000	0.017	0.062
-577.763	-109.170	-0.162	0.035
-576.748	145.827	0.330	-0.450
-575.733	77.117	0.161	-0.174
-574.719	-76.104	-0.417	-0.150
-573.704	800.000	-0.063	0.236
-572.690	11.297	0.169	0.132
-571.675	-71.778	0.159	0.060
-570.661	281.159	-0.045	-0.082
-569.646	-53.268	-0.267	-0.124
-568.631	60.231	-0.103	0.103
-567.617	127.411	-0.124	0.160
-566.602	-137.168	0.094	-0.011
-565.588	2.984	-0.139	0.103
-564.573	127.715	-0.058	-0.075
-563.558	800.000	0.019	-0.071
-562.544	-102.063	-0.203	0.050
-561.529	169.149	-0.168	0.243
-560.515	-200.000	-0.072	-0.345
-559.500	14.100	0.130	-0.103
-558.485	-57.726	0.408	-0.182
-557.471	274.158	0.119	0.214
-556.456	2.425	0.356	-0.262
-555.442	646.675	0.088	-0.227
-554.427	-109.299	0.231	0.050
-553.412	297.876	-0.131	-0.245
-552.398	-17.379	-0.296	0.189
-551.383	-176.442	0.111	-0.003
-550.369	-59.303	-0.113	0.049
-549.354	209.813	-0.145	0.231
-548.339	800.000	0.131	0.379
-547.325	81.348	-0.153	0.168
-546.310	96.997	-0.112	-0.130
-545.296	787.227	-0.050	-0.139
-544.281	-27.485	-0.085	0.050
-543.266	-65.136	0.266	0.109
-542.252	-61.221	0.106	0.045
-541.237	-90.084	-0.085	0.025
-540.223	376.029	-0.154	0.318
-539.208	-132.328	-0.189	0.025
-538.193	168.036	0.154	-0.223
-537.179	-141.815	-0.504	-0.051
-536.164	-29.909	-0.151	-0.087
-535.150	-200.000	-0.015	-0.090
-534.135	566.369	-0.132	-0.324
-533.121	-200.000	-0.013	0.378
-532.106	96.658	0.124	-0.144
-531.091	-188.873	-0.128	-0.002
-530.077	800.000	0.063	0.275
-529.062	7.819	0.046	0.035
-528.048	-200.000	0.005	0.102
-527.033	335.689	0.175	0.344
-526.018	-94.627	-0.075	0.021
-525.004	514.802	0.028	-0.066
-523.989	-200.000	-0.023	0.246
-522.975	726.715	-0.030	-0.080
-521.960	-200.000	-0.071	0.446
-520.945	-113.610	-0.075	-0.015
-519.931	1.028	-0.187	0.136
-518.916	-54.324	-0.344	0.158
-517.902	53.219	0.302	0.293
-516.887	-168.042	-0.080	0.003
-515.872	-71.836	0.235	0.089
-514.858	-200.000	0.042	0.365
-513.843	-60.410	-0.086	0.037
-512.829	26.955	-0.129	-0.110
-511.814	-172.262	-0.210	0.007
-510.799	800.000	0.009	0.030
-509.785	-144.815	-0.054	-0.005
-508.770	-42.279	0.279	-0.144
-507.756	53.678	0.213	0.207
-506.741	-200.000	-0.007	-0.039
-505.726	-74.995	0.110	-0.040
-504.712	22.716	-0.226	0.188
-503.697	-128.187	0.378	0.055
-502.683	25.618	0.160	-0.135
-501.668	-200.000	-0.005	-0.226
-500.653	-143.462	-0.114	-0.011
-499.639	690.693	0.116	-0.309
-498.624	90.663	0.133	-0.151
-497.610	-118.675	0.051	-0.009
-496.595	-63.447	-0.125	-0.052
-495.581	-200.000	0.011	0.114
-494.566	-118.459	0.232	0.042
-493.551	800.000	-0.008	-0.033
-492.537	198.314	-0.237	-0.367
-491.522	-104.651	-0.193	-0.045
-490.508	-19.947	0.098	-0.061
-489.493	-100.911	0.187	0.047
-488.478	-200.000	0.072	-0.493
-487.464	47.612	0.060	-0.057
-486.449	-20.646	-0.118	0.073
-485.435	306.135	0.129	-0.244
-484.420	16.708	-0.147	0.118
-483.405	95.576	-0.114	-0.132
-482.391	-104.840	0.293	0.068
-481.376	-69.335	0.050	-0.019
-480.362	-78.047	-0.182	0.064
-479.347	86.448	0.056	-0.062
-478.332	-198.802	-0.116	0.001
-477.318	-200.000	-0.008	0.305
-476.303	800.000	-0.100	-0.292
-475.289	-42.244	0.284	-0.147
-474.274	-20.406	-0.128	-0.080
-473.259	-200.000	-0.029	-0.196
-472.245	766.808	-0.042	-0.115
-471.230	35.998	-0.200	-0.178
-470.216	223.419	0.084	-0.137
-469.201	-57.483	-0.138	-0.061
-468.186	-200.000	0.082	-0.378
-467.172	401.356	0.085	0.181
-466.157	377.977	-0.158	0.327
-465.143	554.551	0.127	-0.309
-464.128	-85.779	0.097	0.030
-463.113	479.661	-0.172	-0.396
-462.099	-91.314	-0.223	0.064
-461.084	-137.908	-0.311	-0.035
-460.070	30.070	0.093	0.080
-459.055	177.158	0.260	0.384
-458.040	35.448	0.172	-0.153
-457.026	-200.000	0.013	-0.258
-456.011	82.610	0.022	0.024
-454.997	-106.695	-0.290	-0.065
-453.982	254.834	-0.145	-0.252
-452.968	-200.000	-0.006	0.159
-451.953	260.848	0.100	0.175
-450.938	-31.762	-0.304	0.173
-449.924	-92.190	0.162	-0.046
-448.909	-200.000	-0.008	-0.071
-447.895	800.000	0.010	0.029
-446.880	800.000	0.039	-0.162
-445.865	529.225	0.128	-0.306
-444.851	-157.830	-0.356	-0.021
-443.836	135.095	-0.149	0.196
-442.822	60.060	-0.070	0.070
-441.807	-90.033	-0.250	-0.074
-440.792	-48.972	0.351	0.170
-439.778	356.226	-0.106	-0.214
-438.763	22.197	-0.110	0.091
-437.749	158.745	0.037	0.052
-436.734	89.208	-0.190	0.215
-435.719	800.000	-0.065	0.227
-434.705	30.930	-0.221	-0.191
-433.690	53.470	0.210	-0.204
-432.676	90.560	-0.040	0.046
-431.661	-81.091	-0.172	-0.058
-430.646	800.000	0.025	0.092
-429.632	7.883	0.077	-0.059
-428.617	-62.317	0.140	0.059
-427.603	-69.959	-0.160	0.062
-426.588	740.730	0.069	-0.188
-425.573	256.643	-0.098	-0.169
-424.559	245.369	-0.128	-0.218
-423.544	-109.189	0.206	-0.044
-422.530	146.089	-0.182	-0.247
-421.515	-155.048	0.082	-0.005
-420.500	62.694	0.132	-0.134
-419.486	-61.209	-0.397	0.169
-418.471	-101.605	-0.140	-0.034
-417.457	173.922	-0.139	0.204
-416.442	800.000	0.015	0.042
-415.428	-69.270	0.303	0.118
-414.413	-117.246	-0.324	0.060
-413.398	65.216	0.276	-0.282
-412.384	-200.000	0.000	-0.391
-411.369	-74.118	0.165	-0.060
-410.355	52.644	-0.259	0.250
-409.340	-142.969	0.190	-0.019
-408.325	415.979	-0.060	0.130
-407.311	-200.000	0.071	0.347
-406.296	-20.018	0.056	-0.035
-405.282	800.000	0.015	-0.060
-404.267	-106.179	-0.141	-0.032
-403.252	101.903	-0.158	0.186
-402.238	496.310	-0.171	0.398
-401.223	-88.833	-0.083	-0.025
-400.209	16.000	-0.137	-0.109
-399.194	-200.000	0.030	0.159
-398.179	-200.000	0.018	-0.162
-397.165	-200.000	0.014	0.184
-396.150	-105.236	0.034	-0.008
-395.136	382.426	-0.020	-0.041
-394.121	-74.329	-0.113	0.041
-393.106	-200.000	0.080	-0.360
-392.092	123.510	-0.066	-0.084
-391.077	-150.707	0.275	0.021
-390.063	-200.000	-0.001	-0.034
-389.048	-200.000	0.002	0.016
-388.033	-200.000	-0.005	-0.028
-387.019	-200.000	0.001	0.034
-386.004	-200.000	-0.051	-0.323
-384.990	-40.819	0.232	0.121
-383.975	-200.000	0.008	-0.242
-382.960	-159.574	-0.169	-0.009
-381.946	288.009	-0.079	0.144
-380.931	194.886	0.092	-0.141
-379.917	-200.000	-0.032	-0.405
-378.902	-99.506	-0.276	-0.070
-377.888	15.155	-0.262	-0.207
-376.873	-55.080	-0.276	0.126
-375.858	320.266	0.040	-0.076
-374.844	227.693	-0.271	-0.445
-373.829	45.118	-0.149	0.138
-372.815	-84.318	0.120	0.038
-371.800	55.827	-0.213	0.209
-370.785	124.424	0.084	0.107
-369.771	178.648	-0.088	-0.130
-368.756	373.603	-0.112	-0.231
-367.742	-169.195	-0.254	-0.010
-366.727	2.633	-0.038	-0.028
-365.712	-200.000	-0.002	0.345
-364.698	-47.549	-0.068	-0.033
-363.683	-60.723	0.123	0.053
-362.669	-135.348	-0.126	-0.015
-361.654	-55.293	-0.263	0.119
-360.639	216.554	-0.019	0.031
-359.625	-200.000	-0.014	0.243
-358.610	-200.000	-0.007	0.153
-357.596	-123.978	-0.030	-0.005
-356.581	80.571	0.096	-0.104
-355.566	-200.000	-0.038	0.287
-354.552	322.823	-0.114	0.220
-353.537	-44.915	0.203	0.102
-352.523	-200.000	0.019	-0.484
-351.508	-170.496	0.169	-0.006
-350.493	150.291	0.238	-0.326
-349.479	800.000	-0.030	-0.120
-348.464	52.198	0.312	0.300
-347.450	-200.000	0.246	0.000
-346.435	-42.147	0.148	0.076
-345.420	-200.000	-0.005	0.380
-344.406	-46.909	0.118	-0.058
-343.391	161.326	0.063	0.089
-342.377	-200.000	-0.039	0.626
-341.362	-109.583	0.432	0.092
-340.348	-166.474	-0.241	0.010
-339.333	-176.658	-0.195	0.005
-338.318	-94.829	-0.336	-0.092
-337.304	800.000	0.036	0.102
-336.289	-98.674	-0.203	-0.052
-335.275	128.150	0.170	-0.218
-334.260	339.633	-0.114	0.225
-333.245	800.000	-0.083	-0.276
-332.231	-48.548	0.488	-0.236
-331.216	800.000	0.131	0.385
-330.202	288.462	-0.070	0.128
-329.187	138.221	0.061	0.081
-328.172	800.000	-0.017	-0.059
-327.158	-121.656	-0.239	0.040
-326.143	86.041	-0.089	0.098
-325.129	73.023	0.157	-0.166
-324.114	102.169	-0.044	0.052
-323.099	-83.566	0.046	0.015
-322.085	-124.114	-0.290	0.046
-321.070	-200.000	0.034	0.166
-320.056	45.515	0.219	0.204
-319.041	800.000	0.053	0.150
-318.026	-57.159	-0.030	-0.013
-317.012	-160.012	-0.224	0.012
-315.997	-70.722	0.326	-0.124
-314.983	-142.112	0.248	-0.025
-313.968	-200.000	0.044	0.281
-312.953	-200.000	0.010	0.129
-311.939	-124.255	0.133	-0.021
-310.924	-200.000	-0.026	0.131
-309.910	72.232	0.191	0.200
-308.895	-200.000	0.040	0.218
-307.880	-200.000	0.021	-0.135
-306.866	800.000	0.062	-0.231
-305.851	147.162	-0.168	0.228
-304.837	-5.933	0.293	0.202
-303.822	-26.633	-0.248	0.146
-302.807	-77.610	0.424	-0.148
-301.793	216.956	-0.168	0.270
-300.778	-168.731	-0.039	-0.001
-299.764	-84.414	0.148	0.047
-298.749	132.311	-0.116	0.151
-297.735	-48.520	-0.072	0.035
-296.720	207.996	0.090	-0.142
-295.705	-200.000	0.008	-0.150
-294.691	424.471	-0.124	0.268
-293.676	-16.624	-0.242	0.154
-292.662	-96.843	-0.190	0.050
-291.647	-98.046	-0.512	0.133
-290.632	800.000	0.022	-0.088
-289.618	-69.586	-0.174	-0.067
-288.603	621.065	-0.055	0.139
-287.589	-200.000	-0.049	0.227
-286.574	116.619	0.207	-0.255
-285.559	-200.000	-0.005	0.186
-284.545	-103.015	0.214	0.051
-283.530	-86.374	0.431	0.133
-282.516	-6.293	-0.079	-0.054
-281.501	75.643	-0.075	-0.079
-280.486	258.099	-0.071	0.122
-279.472	-75.743	-0.282	-0.101
-278.457	800.000	0.073	-0.312
-277.443	26.071	0.025	-0.021
-276.428	228.530	-0.113	0.186
-275.413	92.784	-0.129	0.146
-274.399	-71.785	-0.236	0.089
-273.384	-115.562	-0.041	0.008
-272.370	2.971	-0.184	0.134
-271.355	-96.410	0.259	-0.069
-270.340	-200.000	-0.025	0.153
-269.326	-53.190	0.138	-0.064
-268.311	77.614	0.137	0.147
-267.297	5.174	-0.075	0.056
-266.282	-30.487	-0.298	-0.170
-265.267	18.829	0.206	-0.165
-264.253	-200.000	0.064	0.379
-263.238	-200.000	-0.009	-0.260
-262.224	-200.000	-0.024	-0.342
-261.209	-157.336	0.114	0.007
-260.195	74.267	0.246	-0.260
-259.180	-56.010	-0.151	-0.068
-258.165	22.239	0.111	0.091
-257.151	-200.000	0.012	0.278
-256.136	126.791	-0.028	0.036
-255.122	-200.000	0.060	-0.389
-254.107	681.213	0.054	-0.141
-253.092	2.242	0.295	-0.214
-252.078	-97.165	0.094	0.025
-251.063	-200.000	0.038	0.260
-250.049	-200.000	-0.017	0.159
-249.034	132.721	0.142	-0.184
-248.019	-147.317	-0.162	0.014
-247.005	128.859	-0.176	0.225
-245.990	800.000	0.028	-0.107
-244.976	116.443	-0.213	0.262
-243.961	-12.694	-0.280	-0.183
-242.946	63.746	-0.122	0.123
-241.932	-132.891	-0.284	0.036
-240.917	289.978	0.034	-0.062
-239.903	295.263	0.115	0.211
-238.888	-78.908	-0.292	-0.100
-237.873	-93.928	0.214	-0.059
-236.859	181.641	-0.253	0.373
-235.844	50.144	-0.111	0.105
-234.830	800.000	0.103	0.322
-233.815	15.895	0.066	0.052
-232.800	800.000	-0.093	0.318
-231.786	528.232	-0.218	0.516
-230.771	-45.226	0.206	0.103
-229.757	13.015	0.318	0.247
-228.742	800.000	0.111	0.342
-227.727	174.020	-0.138	0.200
-226.713	-124.055	0.199	0.031
-225.698	125.687	0.246	-0.311
-224.684	4.895	0.384	-0.283
-223.669	-108.286	0.319	-0.069
-222.655	-80.520	0.439	-0.147
-221.640	3.782	0.226	0.166
-220.625	-22.710	0.192	0.117
-219.611	64.581	-0.132	-0.133
-218.596	-75.640	0.075	-0.027
-217.582	124.868	0.163	-0.206
-216.567	-193.191	0.161	-0.001
-215.552	12.771	0.084	0.065
-214.538	-200.000	-0.019	-0.171
-213.523	89.084	0.103	0.115
-212.509	90.524	-0.238	-0.268
-211.494	515.847	0.116	0.272
-210.479	-67.398	-0.403	-0.159
-209.465	-200.000	-0.005	-0.165
-208.450	-184.994	-0.307	-0.005
-207.436	-118.336	0.169	0.030
-206.421	-94.624	0.446	-0.122
-205.406	117.453	-0.206	0.254
-204.392	-200.000	-0.010	0.151
-203.377	-111.208	0.166	0.034
-202.363	-143.744	0.166	0.016
-201.348	33.198	0.151	-0.132
-200.333	174.553	0.112	0.162
-199.319	-200.000	-0.014	-0.140
-198.304	-109.105	-0.196	0.042
-197.290	-200.000	-0.072	-0.324
-196.275	-200.000	0.061	-0.389
-195.260	-91.059	0.384	0.111
-194.246	594.611	0.094	-0.233
-193.231	14.368	-0.359	0.281
-192.217	-131.125	0.291	-0.039
-191.202	-125.982	-0.265	-0.040
-190.187	-66.442	-0.055	-0.022
-189.173	800.000	0.064	0.263
-188.158	-200.000	0.001	0.018
-187.144	-29.593	-0.208	0.119
-186.129	-200.000	0.020	-0.236
-185.114	72.368	0.262	-0.274
-184.100	81.359	-0.264	-0.286
-183.085	-149.447	0.095	-0.008
-182.071	-124.904	-0.172	0.026
-181.056	-102.850	0.143	0.034
-180.042	-85.487	0.255	0.080
-179.027	-200.000	-0.013	0.097
-178.012	66.538	-0.204	-0.208
-176.998	-47.454	-0.409	0.199
-175.983	1.954	0.164	0.119
-174.969	641.097	0.105	-0.269
-173.954	-200.000	0.040	0.336
-172.939	221.686	0.133	0.214
-171.925	-39.774	-0.117	-0.061
-170.910	-59.410	0.120	-0.052
-169.896	-170.832	0.413	-0.014
-168.881	-200.000	-0.023	-0.157
-167.866	800.000	-0.136	0.499
-166.852	65.690	-0.136	0.138
-165.837	800.000	-0.073	0.277
-164.823	86.156	0.091	-0.101
-163.808	-23.684	-0.295	-0.177
-162.793	300.894	-0.100	-0.185
-161.779	-131.889	-0.145	0.019
-160.764	800.000	-0.034	0.110
-159.750	367.912	0.080	-0.162
-158.735	-3.607	-0.016	-0.011
-157.720	-200.000	-0.002	0.238
-156.706	-52.965	0.126	-0.058
-155.691	346.759	0.025	0.049
-154.677	-200.000	0.133	0.000
-153.662	800.000	0.084	-0.237
-152.647	91.830	0.146	0.164
-151.633	800.000	-0.183	-0.661
-150.618	86.301	0.245	-0.270
-149.604	27.113	-0.349	-0.293
-148.589	72.889	0.317	0.331
-147.574	-42.922	0.132	0.067
-146.560	-46.490	0.214	-0.105
-145.545	482.306	-0.100	-0.228
-144.531	-200.000	0.093	-0.573
-143.516	17.384	0.121	0.096
-142.502	8.425	0.157	-0.118
-141.487	-179.639	-0.488	0.011
-140.472	-110.602	0.181	0.038
-139.458	-200.000	0.018	-0.203
-138.443	-200.000	-0.024	-0.128
-137.429	54.291	-0.067	0.065
-136.414	106.391	-0.317	-0.376
-135.399	122.402	0.141	0.176
-134.385	-7.327	0.173	-0.117
-133.370	37.424	-0.017	0.015
-132.356	20.243	0.092	-0.074
-131.341	-5.992	-0.266	0.182
-130.326	-200.000	0.038	0.227
-129.312	-200.000	-0.019	-0.091
-128.297	-200.000	-0.025	0.366
-127.283	-42.040	0.197	0.101
-126.268	-200.000	0.017	0.344
-125.253	244.242	-0.115	-0.193
-124.239	-200.000	-0.016	0.173
-123.224	160.692	0.238	-0.332
-122.210	222.013	0.063	-0.101
-121.195	149.925	0.141	0.191
-120.180	-122.385	-0.142	-0.023
