DTS Sentinel unit serial number:	SN413079Multiplexer serial number:	ORYXHardware model number:	OX4-SRSoftware version number:	ORYX F/W v4.00 Oryx Data Collector v3.7.2.0data status	okinstallation	princeton_trtdifferential loss correction	single-endedforward channel	channel 1reverse channel	N/Adate	2019/09/16time	15:18:36forward acquisition time	60.00reverse acquisition time	0.00gamma	496.2192k internal	0.2292k external	0.2292temperature offset calibration	0.9948default loss term (dB/km)	0.3790temperature slope calibration	1.0000multiplexer offset coefficient	1.0000multiplexer slope coefficient	1.0000fibre end	0.00T internal ref (°C)	41.05T ext. ref 1 (°C)	14.59T ext. ref 2 (°C)	36.83length (m)	temperature (°C)	Stokes	anti-Stokes-747.200	800.000	0.030	0.104
-746.185	92.124	0.146	0.169
-745.171	-35.528	0.184	0.102
-744.156	41.180	-0.027	-0.025
-743.142	-200.000	-0.026	-0.155
-742.127	250.020	-0.135	0.234
-741.112	-200.000	-0.022	0.263
-740.098	309.745	-0.071	0.136
-739.083	-200.000	-0.023	0.195
-738.069	14.756	-0.101	0.080
-737.054	-135.653	-0.213	-0.026
-736.039	3.635	-0.268	-0.200
-735.025	225.292	0.102	0.168
-734.010	-131.844	-0.234	-0.031
-732.996	49.590	-0.308	-0.296
-731.981	-73.521	-0.119	0.044
-730.966	-200.000	0.025	0.152
-729.952	-200.000	0.099	-0.497
-728.937	159.068	0.137	0.195
-727.923	800.000	-0.039	0.171
-726.908	243.589	0.140	-0.240
-725.894	265.026	-0.174	0.310
-724.879	-200.000	-0.013	-0.064
-723.864	55.254	0.114	-0.112
-722.850	-200.000	0.050	-0.434
-721.835	-200.000	-0.334	0.001
-720.821	124.564	-0.168	0.216
-719.806	-200.000	0.019	0.144
-718.791	-31.798	-0.252	0.144
-717.777	-1.202	0.242	-0.175
-716.762	516.362	0.059	-0.141
-715.748	-154.948	0.038	0.003
-714.733	-17.305	-0.422	-0.271
-713.718	-109.776	-0.252	0.054
-712.704	45.775	0.062	0.059
-711.689	50.683	0.108	-0.104
-710.675	33.101	-0.085	-0.075
-709.660	-200.000	-0.016	-0.190
-708.645	-176.252	0.338	-0.009
-707.631	15.985	0.193	-0.155
-706.616	-200.000	-0.054	0.303
-705.602	95.120	-0.118	0.138
-704.587	800.000	-0.057	0.166
-703.572	-55.442	-0.304	-0.139
-702.558	163.802	-0.098	-0.141
-701.543	278.298	0.039	-0.071
-700.529	-82.773	0.229	-0.076
-699.514	283.347	0.112	-0.205
-698.499	-161.841	0.137	-0.007
-697.485	380.213	-0.069	0.144
-696.470	-100.706	-0.097	0.025
-695.456	55.878	-0.311	-0.308
-694.441	68.938	0.182	-0.191
-693.426	-38.337	-0.399	0.216
-692.412	-64.844	0.171	-0.071
-691.397	370.878	-0.043	-0.090
-690.383	303.112	0.187	-0.354
-689.368	33.501	0.351	-0.311
-688.354	106.917	-0.115	0.140
-687.339	453.659	0.117	-0.265
-686.324	69.586	-0.195	-0.205
-685.310	-132.387	0.231	0.030
-684.295	59.701	-0.120	-0.121
-683.281	-89.918	0.174	0.052
-682.266	141.865	0.170	-0.229
-681.251	55.498	0.287	-0.284
-680.237	74.596	0.206	-0.222
-679.222	67.539	-0.159	-0.165
-678.208	-200.000	0.055	-0.312
-677.193	192.900	-0.109	-0.168
-676.178	-161.622	0.184	-0.010
-675.164	251.173	0.148	-0.258
-674.149	33.298	0.107	-0.095
-673.135	-18.743	-0.316	-0.201
-672.120	-97.605	-0.341	-0.090
-671.105	46.896	-0.230	0.218
-670.091	36.204	0.133	0.119
-669.076	40.082	0.219	-0.201
-668.062	-200.000	-0.004	-0.052
-667.047	-200.000	-0.032	0.212
-666.032	-128.597	0.068	0.010
-665.018	-122.285	-0.087	-0.015
-664.003	-22.412	0.192	0.118
-662.989	53.584	0.101	0.099
-661.974	-193.224	-0.261	-0.002
-660.959	-35.439	-0.480	-0.266
-659.945	-78.471	0.272	-0.095
-658.930	-200.000	-0.002	-0.031
-657.916	-108.667	-0.193	0.042
-656.901	-200.000	-0.013	0.126
-655.886	-191.821	-0.175	-0.002
-654.872	800.000	-0.049	-0.139
-653.857	-200.000	-0.002	0.370
-652.843	-166.161	-0.322	-0.014
-651.828	-64.084	0.273	0.114
-650.814	-84.409	0.354	-0.114
-649.799	174.362	-0.091	-0.134
-648.784	154.673	0.234	0.327
-647.770	-29.938	0.105	0.061
-646.755	-110.285	-0.031	0.007
-645.741	339.933	-0.086	-0.172
-644.726	8.414	0.341	0.262
-643.711	-95.062	-0.286	-0.079
-642.697	-128.786	-0.196	-0.028
-641.682	-65.548	0.238	-0.097
-640.668	800.000	0.133	0.528
-639.653	-200.000	-0.098	0.477
-638.638	800.000	-0.104	-0.381
-637.624	800.000	0.084	0.310
-636.609	-158.313	-0.128	0.008
-635.595	-140.322	0.383	0.041
-634.580	8.311	-0.438	-0.335
-633.565	-200.000	0.017	-0.093
-632.551	-101.744	-0.070	-0.017
-631.536	-84.322	-0.102	-0.033
-630.522	41.112	0.339	0.312
-629.507	-200.000	0.010	0.116
-628.492	421.039	-0.038	0.083
-627.478	61.366	0.325	0.329
-626.463	-59.310	-0.049	-0.022
-625.449	433.782	0.085	-0.188
-624.434	-26.404	-0.070	-0.042
-623.419	-129.313	0.112	0.016
-622.405	105.672	-0.060	0.072
-621.390	109.093	0.244	0.297
-620.376	20.186	0.182	-0.150
-619.361	234.634	-0.225	-0.379
-618.346	-29.043	-0.235	-0.137
-617.332	71.993	0.128	-0.136
-616.317	-78.864	0.119	0.041
-615.303	-180.182	0.103	-0.002
-614.288	60.837	0.175	0.177
-613.273	359.784	-0.071	0.144
-612.259	218.233	-0.092	0.149
-611.244	-200.000	-0.021	-0.376
-610.230	-169.658	-0.173	-0.006
-609.215	-15.723	0.365	0.237
-608.201	800.000	-0.068	0.260
-607.186	-200.000	0.040	0.243
-606.171	-16.235	-0.096	0.062
-605.157	168.214	-0.057	0.082
-604.142	-124.252	-0.290	0.046
-603.128	-200.000	0.001	-0.022
-602.113	-116.519	0.429	0.081
-601.098	226.346	-0.059	0.097
-600.084	-9.931	0.286	0.194
-599.069	282.538	0.107	0.195
-598.055	-33.072	-0.516	0.291
-597.040	-14.349	0.088	0.058
-596.025	1.123	-0.146	0.106
-595.011	123.455	0.108	0.138
-593.996	573.730	0.113	-0.280
-592.982	-160.046	0.215	0.012
-591.967	3.400	0.140	-0.103
-590.952	26.038	-0.184	0.156
-589.938	-90.152	0.091	-0.027
-588.923	235.905	0.139	-0.234
-587.909	89.333	-0.176	-0.199
-586.894	-15.392	-0.146	0.095
-585.879	800.000	0.037	0.151
-584.865	-200.000	-0.073	0.345
-583.850	337.836	0.094	0.186
-582.836	-200.000	-0.044	0.346
-581.821	-91.493	0.132	-0.038
-580.806	-97.712	0.415	0.109
-579.792	-190.353	-0.240	-0.003
-578.777	181.112	-0.130	-0.194
-577.763	240.098	0.013	0.021
-576.748	42.631	0.202	-0.187
-575.733	295.992	0.051	-0.095
-574.719	3.514	0.115	-0.085
-573.704	-200.000	0.026	0.131
-572.690	-18.177	0.080	0.051
-571.675	-200.000	-0.394	0.002
-570.661	-95.628	-0.284	-0.077
-569.646	-21.344	0.322	0.200
-568.631	323.520	-0.083	0.162
-567.617	800.000	0.101	0.309
-566.602	-200.000	-0.524	-0.001
-565.588	-68.442	-0.227	0.090
-564.573	-111.546	-0.113	0.023
-563.558	38.472	-0.124	0.112
-562.544	177.449	0.197	-0.292
-561.529	-200.000	0.021	0.261
-560.515	86.319	-0.172	0.192
-559.500	-200.000	-0.023	0.410
-558.485	-27.122	-0.141	-0.084
-557.471	-2.475	-0.090	0.064
-556.456	-133.553	-0.054	0.007
-555.442	120.099	-0.134	0.168
-554.427	-44.392	0.258	0.131
-553.412	5.042	-0.172	-0.128
-552.398	-35.698	-0.159	0.088
-551.383	-59.852	0.170	-0.074
-550.369	-88.458	-0.490	0.148
-549.354	-22.943	-0.124	-0.076
-548.339	323.164	-0.083	-0.161
-547.325	-14.546	0.025	0.016
-546.310	-114.160	0.177	-0.035
-545.296	37.547	-0.245	0.221
-544.281	-85.430	-0.045	0.014
-543.266	0.143	-0.267	-0.193
-542.252	297.382	-0.194	-0.361
-541.237	800.000	0.054	-0.162
-540.223	-111.796	0.328	-0.067
-539.208	-200.000	0.053	-0.291
-538.193	-82.786	-0.292	-0.096
-537.179	-22.629	0.108	0.066
-536.164	-66.090	-0.086	0.035
-535.150	41.877	-0.089	0.082
-534.135	-154.279	-0.156	-0.011
-533.121	-200.000	0.023	-0.210
-532.106	-21.561	0.128	0.079
-531.091	169.268	-0.092	-0.134
-530.077	-19.614	0.158	0.099
-529.062	-200.000	-0.027	-0.289
-528.048	-200.000	-0.010	-0.050
-527.033	65.041	-0.132	-0.135
-526.018	-200.000	0.035	-0.229
-525.004	59.680	-0.048	-0.048
-523.989	-61.522	0.160	0.068
-522.975	3.596	0.172	0.127
-521.960	-83.959	-0.067	-0.021
-520.945	-29.564	0.230	0.133
-519.931	-151.434	0.262	0.020
-518.916	122.892	0.155	0.197
-517.902	-88.539	-0.167	0.050
-516.887	-200.000	0.054	0.242
-515.872	800.000	-0.078	0.220
-514.858	-200.000	-0.005	0.102
-513.843	58.584	0.157	-0.156
-512.829	83.144	-0.092	0.102
-511.814	-85.243	0.102	-0.032
-510.799	198.764	-0.148	-0.230
-509.785	-146.754	0.275	0.024
-508.770	87.379	0.148	-0.166
-507.756	-169.313	-0.134	-0.005
-506.741	-200.000	-0.024	0.128
-505.726	-97.469	0.067	0.018
-504.712	-200.000	0.022	-0.223
-503.697	494.233	-0.076	0.177
-502.683	-154.352	-0.272	0.019
-501.668	-35.342	-0.117	-0.065
-500.653	-83.256	-0.056	-0.018
-499.639	206.615	0.153	0.241
-498.624	-127.874	0.124	0.018
-497.610	-109.751	0.187	0.040
-496.595	168.248	0.143	-0.206
-495.581	-7.173	-0.288	-0.198
-494.566	528.449	0.015	-0.036
-493.551	-163.499	0.303	0.015
-492.537	304.404	0.020	0.037
-491.522	-200.000	0.009	0.210
-490.508	284.421	0.074	0.135
-489.493	25.592	-0.055	-0.046
-488.478	468.273	-0.066	-0.149
-487.464	-141.086	0.165	0.017
-486.449	-200.000	0.009	0.214
-485.435	800.000	-0.036	-0.102
-484.420	-63.980	0.209	-0.087
-483.405	-56.533	0.287	-0.129
-482.391	-88.233	-0.306	-0.093
-481.376	323.826	0.041	0.079
-480.362	-200.000	-0.039	-0.357
-479.347	46.449	-0.150	-0.141
-478.332	195.979	0.220	-0.338
-477.318	-200.000	-0.058	-0.319
-476.303	-87.621	0.154	0.047
-475.289	800.000	0.135	-0.460
-474.274	607.963	-0.056	-0.141
-473.259	800.000	-0.067	0.200
-472.245	-131.271	0.080	0.011
-471.230	219.341	-0.143	-0.232
-470.216	-108.432	0.070	0.015
-469.201	-18.075	0.342	-0.217
-468.186	800.000	-0.121	0.410
-467.172	-126.934	0.228	0.034
-466.157	800.000	0.049	0.167
-465.143	-28.550	0.146	-0.085
-464.128	56.560	0.307	-0.303
-463.113	-40.160	-0.289	-0.152
-462.099	-76.480	-0.426	-0.152
-461.084	-45.829	-0.067	-0.034
-460.070	-200.000	0.036	-0.451
-459.055	800.000	0.130	0.386
-458.040	-200.000	-0.017	-0.130
-457.026	-200.000	-0.090	-0.502
-456.011	4.565	0.268	-0.199
-454.997	326.226	-0.030	-0.058
-453.982	39.418	0.231	-0.209
-452.968	-23.635	-0.103	0.062
-451.953	-200.000	-0.004	-0.159
-450.938	170.510	0.024	0.034
-449.924	-58.810	0.244	-0.107
-448.909	343.124	0.094	-0.187
-447.895	-102.998	0.326	0.078
-446.880	116.689	-0.077	0.095
-445.865	-148.320	0.360	-0.030
-444.851	200.851	0.138	-0.215
-443.836	-200.000	0.032	-0.189
-442.822	-76.672	-0.211	0.075
-441.807	-200.000	0.064	-0.287
-440.792	184.972	0.196	0.294
-439.778	-90.167	0.166	0.049
-438.763	-48.013	0.105	-0.051
-437.749	-200.000	0.053	-0.240
-436.734	81.508	-0.101	0.110
-435.719	-65.307	-0.235	-0.096
-434.705	-152.270	-0.103	-0.008
-433.690	47.532	0.258	-0.243
-432.676	-128.000	-0.117	0.017
-431.661	-200.000	0.018	0.141
-430.646	800.000	-0.043	-0.158
-429.632	-21.238	0.176	0.109
-428.617	104.499	0.167	0.198
-427.603	-100.606	-0.199	-0.050
-426.588	271.421	-0.066	0.117
-425.573	-139.485	-0.179	0.019
-424.559	-133.048	0.150	-0.019
-423.544	106.496	-0.080	0.095
-422.530	373.806	0.156	0.322
-421.515	-92.642	0.077	0.022
-420.500	88.339	-0.258	0.290
-419.486	-139.418	0.225	-0.024
-418.471	-73.311	-0.159	0.059
-417.457	-48.856	-0.489	-0.237
-416.442	154.740	0.150	-0.208
-415.428	-180.533	-0.143	0.003
-414.413	300.256	0.084	-0.157
-413.398	196.913	0.047	0.073
-412.384	-28.396	0.188	-0.110
-411.369	9.328	0.154	-0.118
-410.355	150.116	0.114	-0.156
-409.340	352.403	0.143	0.285
-408.325	-74.470	0.313	0.114
-407.311	30.678	-0.208	0.180
-406.296	119.628	0.207	0.259
-405.282	800.000	-0.062	-0.207
-404.267	-136.793	-0.175	-0.020
-403.252	162.209	0.087	-0.124
-402.238	59.892	0.023	-0.023
-401.223	9.562	0.101	-0.077
-400.209	-103.245	-0.395	-0.094
-399.194	348.546	-0.108	0.216
-398.179	-200.000	-0.001	-0.148
-397.165	-22.106	-0.040	0.025
-396.150	800.000	-0.035	-0.111
-395.136	-119.491	0.079	0.014
-394.121	513.043	0.029	-0.069
-393.106	-200.000	-0.004	-0.114
-392.092	8.664	-0.112	0.086
-391.077	-157.181	-0.136	0.008
-390.063	-111.559	-0.214	0.044
-389.048	138.122	0.077	0.102
-388.033	174.522	-0.021	-0.031
-387.019	-57.811	-0.252	-0.111
-386.004	-63.089	-0.120	0.050
-384.990	304.401	-0.033	-0.062
-383.975	7.406	0.267	0.201
-382.960	172.105	0.132	-0.191
-381.946	692.158	-0.110	-0.290
-380.931	-91.475	0.392	0.113
-379.917	-47.087	-0.338	-0.167
-378.902	-200.000	0.016	0.271
-377.888	100.317	0.233	0.273
-376.873	75.068	-0.102	0.109
-375.858	-79.820	-0.112	0.038
-374.844	-38.726	0.107	-0.057
-373.829	459.392	0.103	0.232
-372.815	-59.833	0.466	0.201
-371.800	195.320	0.206	-0.316
-370.785	-160.322	-0.115	0.006
-369.771	216.825	0.121	-0.194
-368.756	-130.636	-0.310	-0.042
-367.742	-200.000	-0.002	-0.411
-366.727	-65.698	0.057	-0.023
-365.712	800.000	0.019	0.067
-364.698	75.458	0.084	-0.090
-363.683	120.170	-0.138	-0.172
-362.669	-39.959	-0.101	0.053
-361.654	151.602	-0.228	-0.313
-360.639	161.041	-0.053	-0.074
-359.625	-200.000	0.026	0.116
-358.610	-113.909	-0.127	-0.025
-357.596	48.750	0.297	0.281
-356.581	-29.393	-0.154	0.089
-355.566	-126.896	0.112	-0.017
-354.552	50.500	0.106	-0.102
-353.537	408.076	-0.032	0.069
-352.523	19.869	-0.139	-0.113
-351.508	-154.803	-0.303	0.020
-350.493	800.000	0.090	0.395
-349.479	-170.676	0.244	0.008
-348.464	174.363	0.198	0.289
-347.450	-29.078	-0.326	-0.188
-346.435	65.331	-0.204	0.208
-345.420	-200.000	-0.009	0.254
-344.406	-200.000	0.060	0.270
-343.391	-89.926	-0.088	-0.026
-342.377	-200.000	0.001	-0.179
-341.362	800.000	0.047	0.144
-340.348	419.175	-0.112	0.242
-339.333	30.473	-0.319	0.275
-338.318	-37.955	-0.206	0.110
-337.304	157.722	-0.120	0.168
-336.289	-200.000	0.000	-0.146
-335.275	-200.000	0.014	-0.149
-334.260	800.000	-0.026	0.110
-333.245	263.044	-0.164	-0.286
-332.231	12.306	-0.165	-0.128
-331.216	-45.827	-0.096	0.048
-330.202	-200.000	-0.009	0.044
-329.187	-43.450	-0.142	0.072
-328.172	800.000	0.054	-0.151
-327.158	723.972	-0.056	0.149
-326.143	203.793	0.117	-0.182
-325.129	-130.788	0.278	0.038
-324.114	1.856	0.169	0.122
-323.099	-200.000	-0.002	-0.232
-322.085	-82.604	0.428	0.140
-321.070	-18.205	-0.153	-0.096
-320.056	-74.269	-0.212	0.077
-319.041	800.000	-0.061	0.245
-318.026	615.311	0.058	0.146
-317.012	-84.223	-0.370	0.118
-315.997	-9.046	-0.230	-0.155
-314.983	-123.898	0.174	0.028
-313.968	235.545	-0.139	0.231
-312.953	-53.581	-0.203	-0.093
-311.939	-200.000	-0.018	-0.081
-310.924	-83.340	0.126	0.041
-309.910	-191.098	0.042	-0.000
-308.895	-200.000	0.005	0.119
-307.880	112.253	-0.221	-0.269
-306.866	-75.368	-0.201	0.072
-305.851	-109.272	-0.104	-0.022
-304.837	224.466	0.066	-0.107
-303.822	29.367	-0.242	-0.207
-302.807	-45.668	-0.064	-0.032
-301.793	208.912	-0.172	0.270
-300.778	72.589	0.247	0.259
-299.764	-200.000	-0.046	-0.261
-298.749	800.000	0.090	-0.345
-297.735	-200.000	0.051	-0.284
-296.720	-9.319	0.247	-0.166
-295.705	137.489	-0.069	0.091
-294.691	19.693	-0.205	0.166
-293.676	-160.029	-0.198	0.011
-292.662	108.505	0.121	0.146
-291.647	108.993	-0.388	0.467
-290.632	-200.000	-0.005	0.170
-289.618	800.000	-0.041	-0.117
-288.603	-200.000	0.010	-0.211
-287.589	-79.315	0.197	0.067
-286.574	-200.000	-0.022	-0.163
-285.559	800.000	-0.084	-0.321
-284.545	133.176	0.145	-0.189
-283.530	-200.000	-0.071	-0.361
-282.516	281.013	0.029	-0.053
-281.501	-61.005	-0.228	0.097
-280.486	800.000	0.050	-0.143
-279.472	62.420	-0.139	0.140
-278.457	-200.000	0.015	0.161
-277.443	-64.372	0.395	-0.162
-276.428	409.866	0.106	0.226
-275.413	65.574	-0.072	0.073
-274.399	800.000	0.084	-0.340
-273.384	-81.028	0.414	-0.138
-272.370	13.140	0.165	-0.129
-271.355	-99.720	0.057	0.014
-270.340	35.783	0.157	-0.139
-269.326	-129.458	0.042	0.006
-268.311	-77.022	-0.303	0.106
-267.297	-200.000	0.074	-0.348
-266.282	800.000	0.069	0.194
-265.267	439.788	0.152	-0.334
-264.253	-87.384	-0.172	-0.052
-263.238	-200.000	0.025	0.291
-262.224	-124.457	0.075	0.012
-261.209	-198.135	-0.178	0.001
-260.195	-23.870	-0.205	-0.123
-259.180	108.333	-0.350	0.419
-258.165	-200.000	-0.055	0.242
-257.151	-32.995	-0.196	0.109
-256.136	-108.036	-0.133	0.029
-255.122	563.870	-0.102	-0.249
-254.107	-160.389	0.226	0.012
-253.092	4.351	0.172	-0.126
-252.078	-148.001	-0.155	0.013
-251.063	189.447	0.179	-0.270
-250.049	140.562	-0.131	0.174
-249.034	800.000	-0.014	-0.047
-248.019	800.000	-0.062	0.199
-247.005	628.461	0.042	-0.107
-245.990	9.667	-0.184	0.140
-244.976	-7.518	0.159	-0.108
-243.961	800.000	-0.027	0.085
-242.946	800.000	-0.050	-0.142
-241.932	191.287	-0.022	0.033
-240.917	214.850	-0.077	0.122
-239.903	-86.348	0.178	0.055
-238.888	-70.685	0.024	0.009
-237.873	-78.656	0.189	0.065
-236.859	-200.000	-0.021	0.186
-235.844	775.861	0.060	0.163
-234.830	-48.167	0.221	-0.107
-233.815	769.105	-0.031	-0.083
-232.800	800.000	0.143	0.461
-231.786	-109.729	0.166	0.035
-230.771	99.354	0.039	-0.045
-229.757	-103.287	-0.241	0.057
-228.742	-152.157	-0.106	0.008
-227.727	800.000	-0.032	0.100
-226.713	-200.000	0.002	0.289
-225.698	65.416	-0.265	0.269
-224.684	201.277	0.099	0.153
-223.669	-200.000	-0.025	-0.165
-222.655	-69.707	-0.147	-0.056
-221.640	800.000	-0.089	0.347
-220.625	-15.786	0.352	-0.225
-219.611	-58.976	-0.185	-0.080
-218.596	-132.511	-0.168	0.022
-217.582	257.543	-0.066	-0.113
-216.567	-46.476	0.115	0.057
-215.552	-200.000	0.004	0.034
-214.538	-200.000	-0.025	-0.190
-213.523	-200.000	-0.007	-0.146
-212.509	800.000	0.050	-0.183
-211.494	800.000	0.056	-0.188
-210.479	233.797	-0.107	0.177
-209.465	-102.076	0.497	-0.120
-208.450	-94.603	0.132	0.036
-207.436	-200.000	0.080	-0.376
-206.421	-10.744	0.233	0.154
-205.406	-200.000	-0.027	-0.134
-204.392	96.297	-0.144	-0.165
-203.377	365.926	-0.115	-0.232
-202.363	-121.121	-0.391	-0.066
-201.348	-126.923	0.330	0.049
-200.333	-187.025	0.386	-0.005
-199.319	-111.596	-0.035	0.007
-198.304	65.282	0.108	-0.109
-197.290	-104.385	-0.491	-0.114
-196.275	-87.575	-0.367	-0.111
-195.260	-152.255	-0.182	-0.013
-194.246	-80.823	-0.237	-0.079
-193.231	-81.620	-0.276	0.091
-192.217	-160.236	-0.164	-0.009
-191.202	-105.650	-0.243	-0.055
-190.187	5.634	0.103	-0.076
-189.173	243.658	0.049	0.083
-188.158	-200.000	0.106	0.531
-187.144	800.000	0.043	-0.170
-186.129	-94.338	0.302	0.083
-185.114	-116.297	-0.245	0.045
-184.100	-91.863	0.172	-0.049
-183.085	800.000	0.057	-0.177
-182.071	368.722	0.036	-0.073
-181.056	800.000	-0.035	-0.136
-180.042	-163.358	0.102	-0.005
-179.027	-5.687	-0.222	-0.152
-178.012	321.748	-0.148	-0.283
-176.998	800.000	0.041	0.120
-175.983	414.193	0.178	0.380
-174.969	-200.000	-0.003	-0.257
-173.954	-162.719	-0.345	-0.017
-172.939	-66.943	0.223	-0.088
-171.925	124.908	0.039	0.049
-170.910	611.558	0.088	0.221
-169.896	-99.436	0.071	0.018
-168.881	84.540	-0.130	-0.142
-167.866	-49.366	-0.170	-0.081
-166.852	-9.959	-0.276	-0.184
-165.837	-26.485	0.214	0.126
-164.823	800.000	-0.051	0.146
-163.808	-46.180	0.387	0.190
-162.793	-7.782	0.264	0.178
-161.779	-48.695	0.062	0.030
-160.764	587.706	-0.054	-0.134
-159.750	-200.000	0.036	-0.329
-158.735	-120.805	0.429	0.072
-157.720	800.000	0.065	0.269
-156.706	800.000	-0.033	0.103
-155.691	-32.743	-0.376	-0.209
-154.677	-200.000	-0.042	0.304
-153.662	-170.108	0.125	-0.004
-152.647	-120.881	0.295	0.050
-151.633	-171.735	-0.145	0.005
-150.618	365.412	-0.110	0.222
-149.604	288.643	0.155	0.281
-148.589	-200.000	-0.022	0.097
-147.574	-14.256	-0.160	0.103
-146.560	800.000	0.034	-0.099
-145.545	-200.000	0.004	0.315
-144.531	-200.000	-0.041	0.243
-143.516	32.061	-0.195	-0.168
-142.502	-74.846	0.151	-0.054
-141.487	-112.034	-0.295	-0.059
-140.472	-103.869	-0.503	0.118
-139.458	-157.599	-0.181	-0.011
-138.443	800.000	0.134	-0.423
-137.429	-19.843	0.249	0.154
-136.414	2.535	-0.036	0.026
-135.399	373.882	-0.088	0.178
-134.385	-101.928	0.054	0.013
-133.370	27.572	0.203	-0.171
-132.356	60.055	-0.237	-0.234
-131.341	83.732	0.233	-0.254
-130.326	-200.000	0.003	0.312
-129.312	88.163	0.136	0.151
-128.297	-178.253	0.125	-0.003
-127.283	-200.000	0.052	-0.250
-126.268	-200.000	0.022	0.250
-125.253	800.000	-0.051	-0.190
-124.239	19.986	0.094	-0.076
-123.224	242.242	-0.087	-0.146
-122.210	-54.063	0.226	0.103
-121.195	12.182	-0.203	-0.156
