DTS Sentinel unit serial number:	SN413079Multiplexer serial number:	ORYXHardware model number:	OX4-SRSoftware version number:	ORYX F/W v4.00 Oryx Data Collector v3.7.2.0data status	okinstallation	princeton_trtdifferential loss correction	single-endedforward channel	channel 1reverse channel	N/Adate	2019/09/12time	22:30:35forward acquisition time	60.00reverse acquisition time	0.00gamma	496.2192k internal	0.2327k external	0.2327temperature offset calibration	1.0152default loss term (dB/km)	0.3790temperature slope calibration	1.0000multiplexer offset coefficient	1.0000multiplexer slope coefficient	1.0000fibre end	0.00T internal ref (°C)	29.69T ext. ref 1 (°C)	3.72T ext. ref 2 (°C)	24.24length (m)	temperature (°C)	Stokes	anti-Stokes-747.200	800.000	-0.033	0.095
-746.185	-36.346	-0.232	0.126
-745.171	-200.000	-0.042	-0.238
-744.156	219.513	-0.158	0.255
-743.142	-77.185	0.070	-0.024
-742.127	10.458	-0.095	-0.073
-741.112	655.125	0.177	-0.458
-740.098	717.571	-0.121	0.323
-739.083	-200.000	-0.015	0.246
-738.069	-22.334	0.129	0.079
-737.054	24.179	-0.222	0.185
-736.039	232.928	-0.177	-0.293
-735.025	-153.703	0.108	0.007
-734.010	282.860	-0.161	-0.291
-732.996	-51.499	-0.171	-0.081
-731.981	509.514	0.059	-0.138
-730.966	-75.610	-0.271	-0.097
-729.952	-101.509	-0.353	-0.086
-728.937	33.798	-0.121	-0.106
-727.923	-200.000	0.026	0.320
-726.908	87.986	-0.129	0.145
-725.894	-200.000	-0.008	0.107
-724.879	-21.842	-0.128	-0.078
-723.864	300.759	-0.123	0.228
-722.850	800.000	-0.020	0.085
-721.835	-22.899	-0.374	0.227
-720.821	81.171	-0.162	-0.176
-719.806	113.902	0.156	0.191
-718.791	198.564	-0.160	0.247
-717.777	-49.542	-0.157	-0.075
-716.762	-93.890	0.289	-0.080
-715.748	61.868	-0.123	-0.124
-714.733	-151.688	0.281	0.021
-713.718	800.000	0.021	0.077
-712.704	-17.286	-0.040	0.025
-711.689	-41.099	-0.241	0.125
-710.675	-19.683	-0.156	-0.097
-709.660	-200.000	0.008	-0.078
-708.645	-161.227	-0.148	0.008
-707.631	-145.387	-0.096	0.009
-706.616	1.523	-0.130	0.094
-705.602	-200.000	-0.008	-0.282
-704.587	-200.000	0.013	-0.070
-703.572	800.000	-0.019	-0.061
-702.558	679.532	0.065	0.172
-701.543	3.399	0.077	0.056
-700.529	800.000	0.057	-0.181
-699.514	-95.129	0.117	0.032
-698.499	-13.133	0.078	-0.051
-697.485	162.356	-0.061	-0.086
-696.470	-140.176	-0.090	0.010
-695.456	146.025	-0.096	-0.129
-694.441	-166.541	0.292	-0.012
-693.426	-56.103	-0.229	0.103
-692.412	-19.566	-0.079	0.049
-691.397	-66.229	0.449	-0.180
-690.383	645.037	-0.145	-0.374
-689.368	-200.000	0.014	-0.161
-688.354	100.782	0.132	-0.154
-687.339	-13.956	0.250	0.162
-686.324	-200.000	-0.001	-0.113
-685.310	94.397	0.237	-0.271
-684.295	-168.472	-0.067	0.003
-683.281	800.000	0.090	0.296
-682.266	800.000	0.038	-0.106
-681.251	314.805	-0.065	-0.123
-680.237	-190.319	0.301	0.003
-679.222	118.118	-0.189	-0.234
-678.208	-200.000	0.012	-0.242
-677.193	9.273	0.356	0.271
-676.178	-158.534	0.175	0.010
-675.164	-93.782	-0.121	0.034
-674.149	800.000	-0.145	0.450
-673.135	800.000	-0.048	-0.191
-672.120	35.825	-0.145	-0.128
-671.105	26.397	-0.178	0.149
-670.091	47.005	-0.383	0.358
-669.076	-200.000	-0.024	-0.265
-668.062	-58.977	-0.076	0.033
-667.047	-44.318	0.207	-0.104
-666.032	800.000	-0.031	-0.131
-665.018	63.696	-0.342	-0.345
-664.003	-64.278	0.091	0.037
-662.989	75.706	-0.173	0.184
-661.974	-64.471	0.069	-0.028
-660.959	143.646	-0.017	-0.022
-659.945	352.771	0.089	-0.177
-658.930	800.000	0.096	0.327
-657.916	218.727	-0.135	-0.217
-656.901	-40.656	0.329	0.171
-655.886	2.996	0.328	-0.240
-654.872	17.801	-0.263	-0.211
-653.857	-152.420	0.073	-0.005
-652.843	800.000	0.016	-0.059
-651.828	-56.340	-0.453	0.202
-650.814	-200.000	0.007	-0.205
-649.799	-142.887	-0.241	0.024
-648.784	6.621	-0.280	0.209
-647.770	-200.000	-0.016	-0.137
-646.755	-200.000	0.017	-0.464
-645.741	108.156	-0.151	0.181
-644.726	-44.264	0.260	-0.131
-643.711	-182.992	0.130	-0.002
-642.697	-15.836	0.147	0.094
-641.682	800.000	0.090	-0.375
-640.668	-46.298	-0.120	0.059
-639.653	-200.000	-0.052	-0.261
-638.638	509.471	-0.153	-0.357
-637.624	76.001	-0.151	0.161
-636.609	431.961	-0.122	0.265
-635.595	-94.273	0.117	0.032
-634.580	11.512	0.029	0.022
-633.565	-200.000	-0.006	-0.181
-632.551	800.000	-0.044	0.157
-631.536	9.707	-0.152	0.116
-630.522	360.461	-0.039	0.079
-629.507	-169.943	-0.300	-0.011
-628.492	-200.000	-0.014	0.085
-627.478	-42.753	0.261	-0.133
-626.463	-146.405	-0.192	-0.017
-625.449	-35.024	-0.175	-0.096
-624.434	-95.425	0.101	0.027
-623.419	70.246	-0.188	0.195
-622.405	35.357	-0.027	0.024
-621.390	-200.000	0.071	-0.481
-620.376	-133.921	-0.163	0.020
-619.361	-116.084	-0.097	0.018
-618.346	-111.948	-0.162	-0.033
-617.332	129.240	0.158	0.203
-616.317	800.000	0.020	-0.064
-615.303	-80.987	-0.100	0.033
-614.288	46.659	-0.148	-0.138
-613.273	-5.373	-0.124	-0.086
-612.259	-200.000	-0.011	0.082
-611.244	-200.000	-0.023	-0.105
-610.230	-36.180	0.045	0.024
-609.215	121.172	0.204	-0.255
-608.201	167.053	-0.170	-0.241
-607.186	118.742	-0.222	-0.275
-606.171	800.000	-0.022	0.096
-605.157	15.557	-0.239	0.188
-604.142	281.006	0.138	-0.247
-603.128	-78.879	-0.120	-0.041
-602.113	-65.936	-0.102	0.041
-601.098	109.471	-0.125	-0.150
-600.084	45.680	0.272	0.252
-599.069	69.127	-0.277	0.286
-598.055	13.820	0.171	0.133
-597.040	-200.000	0.055	0.241
-596.025	-165.936	-0.082	0.004
-595.011	13.347	-0.145	-0.112
-593.996	737.851	0.082	-0.222
-592.982	47.682	-0.235	-0.220
-591.967	800.000	0.066	0.209
-590.952	99.290	-0.072	0.084
-589.938	9.464	0.160	0.121
-588.923	446.715	0.020	-0.044
-587.909	-20.129	-0.319	0.197
-586.894	314.246	-0.107	0.202
-585.879	-146.888	0.355	-0.031
-584.865	-200.000	-0.012	-0.068
-583.850	521.034	0.057	-0.135
-582.836	800.000	0.062	0.180
-581.821	-77.556	-0.133	-0.046
-580.806	458.139	0.110	-0.246
-579.792	-33.753	0.115	-0.064
-578.777	800.000	0.074	-0.213
-577.763	-83.466	0.314	0.101
-576.748	371.871	0.021	-0.043
-575.733	271.535	-0.057	-0.100
-574.719	400.303	-0.074	0.156
-573.704	-49.348	0.078	0.037
-572.690	-11.462	-0.398	0.263
-571.675	800.000	-0.084	0.233
-570.661	-100.718	0.387	0.096
-569.646	98.837	-0.183	-0.211
-568.631	86.030	-0.052	-0.057
-567.617	84.147	0.097	0.106
-566.602	-37.143	-0.253	-0.136
-565.588	486.233	0.064	-0.147
-564.573	-20.423	0.305	-0.188
-563.558	-180.629	0.118	-0.002
-562.544	-71.284	0.477	0.179
-561.529	-48.586	0.144	0.069
-560.515	-35.905	0.359	0.195
-559.500	705.554	-0.036	-0.096
-558.485	-65.606	0.211	0.085
-557.471	101.823	-0.258	0.301
-556.456	800.000	-0.020	-0.063
-555.442	147.048	-0.126	0.169
-554.427	-200.000	-0.016	-0.431
-553.412	197.728	0.128	-0.195
-552.398	-52.820	-0.250	-0.115
-551.383	-5.062	-0.098	-0.068
-550.369	-99.863	0.322	-0.081
-549.354	402.631	-0.077	0.161
-548.339	-55.086	-0.201	0.091
-547.325	800.000	-0.075	-0.299
-546.310	-96.930	0.373	0.098
-545.296	-200.000	0.008	-0.073
-544.281	160.984	-0.280	-0.391
-543.266	481.381	-0.138	-0.314
-542.252	-147.553	-0.224	0.019
-541.237	94.324	0.211	0.240
-540.223	-200.000	-0.028	0.255
-539.208	-70.593	0.086	-0.033
-538.193	-39.522	-0.303	0.159
-537.179	-74.087	-0.151	0.055
-536.164	207.387	-0.096	-0.150
-535.150	60.317	-0.341	-0.337
-534.135	-155.888	0.227	0.014
-533.121	-200.000	-0.000	-0.135
-532.106	-104.056	0.153	0.036
-531.091	59.697	-0.186	0.184
-530.077	-200.000	0.024	0.180
-529.062	167.250	-0.100	0.142
-528.048	-59.368	-0.224	0.096
-527.033	26.497	-0.012	0.010
-526.018	106.491	-0.145	-0.172
-525.004	31.603	-0.414	0.356
-523.989	-118.104	-0.134	0.024
-522.975	-88.798	0.177	-0.052
-521.960	-84.087	0.248	0.079
-520.945	-52.137	-0.217	-0.101
-519.931	59.043	0.082	-0.081
-518.916	-144.966	-0.127	-0.012
-517.902	380.814	0.079	-0.162
-516.887	482.521	-0.100	0.227
-515.872	9.905	-0.120	-0.091
-514.858	-24.141	0.010	0.006
-513.843	30.286	-0.182	-0.156
-512.829	-200.000	0.084	-0.424
-511.814	152.686	-0.204	-0.278
-510.799	200.778	-0.059	-0.091
-509.785	56.693	0.147	-0.143
-508.770	657.019	-0.161	-0.415
-507.756	77.973	0.133	0.142
-506.741	-100.625	0.196	0.048
-505.726	-91.815	-0.280	0.079
-504.712	50.747	0.192	-0.182
-503.697	150.851	0.162	-0.220
-502.683	-200.000	0.004	-0.063
-501.668	25.637	0.115	0.096
-500.653	-200.000	-0.062	0.276
-499.639	-57.924	-0.053	0.023
-498.624	60.443	-0.311	0.307
-497.610	85.362	-0.135	0.148
-496.595	-104.661	-0.297	0.068
-495.581	-200.000	0.004	-0.108
-494.566	10.284	-0.081	0.061
-493.551	-86.394	-0.129	0.040
-492.537	-77.897	0.117	-0.040
-491.522	-4.164	0.306	-0.212
-490.508	115.674	0.095	0.116
-489.493	-184.595	0.246	-0.004
-488.478	266.101	-0.028	-0.048
-487.464	44.299	-0.183	-0.168
-486.449	69.436	-0.026	-0.027
-485.435	180.959	0.178	-0.261
-484.420	-152.990	0.503	-0.035
-483.405	800.000	0.066	-0.206
-482.391	32.722	0.043	-0.037
-481.376	-200.000	0.019	-0.130
-480.362	608.482	-0.078	-0.195
-479.347	-57.051	0.256	-0.112
-478.332	800.000	-0.041	-0.153
-477.318	792.689	0.027	-0.075
-476.303	-131.077	0.056	-0.007
-475.289	-63.113	0.064	-0.027
-474.274	-128.397	0.292	0.041
-473.259	71.594	-0.173	0.179
-472.245	29.051	0.182	0.154
-471.230	800.000	-0.097	0.351
-470.216	30.182	0.121	0.103
-469.201	167.434	0.131	-0.186
-468.186	372.456	-0.048	0.098
-467.172	-133.895	0.467	-0.058
-466.157	-5.372	-0.121	-0.083
-465.143	-30.132	0.040	-0.023
-464.128	800.000	-0.053	0.206
-463.113	321.249	0.051	0.097
-462.099	-200.000	0.028	0.149
-461.084	73.407	-0.152	-0.159
-460.070	432.537	-0.093	-0.202
-459.055	-167.734	-0.368	-0.015
-458.040	-200.000	0.000	0.539
-457.026	-85.493	-0.097	0.030
-456.011	58.408	0.176	-0.172
-454.997	800.000	0.054	-0.220
-453.982	-200.000	-0.016	0.191
-452.968	-46.781	-0.083	-0.041
-451.953	-97.555	-0.164	-0.042
-450.938	-100.435	-0.234	0.058
-449.924	-200.000	0.008	0.123
-448.909	-200.000	-0.008	-0.096
-447.895	-129.692	-0.120	0.016
-446.880	301.779	-0.095	0.174
-445.865	800.000	-0.057	-0.184
-444.851	800.000	0.091	-0.279
-443.836	-29.487	-0.259	-0.147
-442.822	190.861	-0.118	0.177
-441.807	550.850	-0.102	-0.244
-440.792	-200.000	0.027	-0.199
-439.778	197.924	-0.033	-0.051
-438.763	-112.369	-0.300	0.060
-437.749	-60.999	0.384	0.162
-436.734	-119.649	-0.388	0.067
-435.719	-142.027	0.232	0.023
-434.705	125.735	-0.086	-0.108
-433.690	800.000	-0.046	-0.135
-432.676	800.000	-0.020	-0.078
-431.661	-50.861	0.103	0.048
-430.646	233.359	-0.081	-0.132
-429.632	-200.000	0.049	0.319
-428.617	-72.178	0.132	-0.049
-427.603	-70.592	-0.100	0.038
-426.588	800.000	0.040	-0.171
-425.573	-158.567	-0.304	0.017
-424.559	-200.000	0.035	0.276
-423.544	418.795	-0.081	0.172
-422.530	-180.627	-0.092	-0.002
-421.515	-108.171	0.201	-0.043
-420.500	-46.974	0.263	-0.128
-419.486	30.520	0.237	-0.201
-418.471	168.876	0.178	-0.252
-417.457	-123.500	0.287	0.045
-416.442	-200.000	0.004	-0.088
-415.428	-78.731	-0.235	-0.080
-414.413	-98.937	0.452	-0.114
-413.398	345.106	0.152	-0.297
-412.384	535.280	0.135	-0.320
-411.369	721.794	0.042	-0.112
-410.355	-63.749	0.124	-0.051
-409.340	-136.801	0.156	0.018
-408.325	-153.404	0.235	-0.016
-407.311	-132.228	0.142	0.018
-406.296	651.601	0.165	0.421
-405.282	-137.684	0.126	0.014
-404.267	277.344	0.178	0.315
-403.252	-81.601	-0.279	0.091
-402.238	8.961	-0.209	0.157
-401.223	-87.884	0.127	0.038
-400.209	-78.067	-0.145	-0.050
-399.194	-2.975	0.098	-0.068
-398.179	-43.025	0.386	-0.195
-397.165	800.000	-0.083	-0.230
-396.150	440.523	0.014	-0.031
-395.136	201.525	-0.079	-0.121
-394.121	399.695	-0.017	-0.035
-393.106	-15.215	-0.175	0.111
-392.092	-1.809	-0.137	-0.096
-391.077	-172.815	0.332	-0.010
-390.063	-200.000	-0.014	0.146
-389.048	128.654	-0.080	0.101
-388.033	15.011	0.260	-0.202
-387.019	800.000	0.033	-0.133
-386.004	107.732	-0.324	-0.384
-384.990	168.502	0.029	0.042
-383.975	-151.506	0.026	-0.002
-382.960	107.955	-0.325	0.385
-381.946	443.958	0.073	0.159
-380.931	-73.714	0.288	-0.104
-379.917	-51.373	-0.153	0.071
-378.902	800.000	0.065	-0.203
-377.888	800.000	-0.048	0.146
-376.873	-113.791	0.118	-0.023
-375.858	-200.000	0.043	0.222
-374.844	358.915	0.123	-0.244
-373.829	-88.777	0.324	0.096
-372.815	155.015	0.036	0.049
-371.800	-58.201	-0.296	0.128
-370.785	-61.264	0.378	-0.158
-369.771	-17.324	-0.122	0.077
-368.756	-200.000	-0.051	-0.443
-367.742	-85.238	-0.194	-0.060
-366.727	307.866	0.017	0.032
-365.712	-200.000	0.030	-0.190
-364.698	177.423	0.096	-0.139
-363.683	-200.000	-0.023	0.246
-362.669	-130.346	-0.157	0.021
-361.654	-60.689	0.078	0.033
-360.639	-200.000	0.017	0.306
-359.625	198.377	-0.124	-0.189
-358.610	185.537	0.140	0.207
-357.596	-200.000	-0.006	0.239
-356.581	186.127	0.103	-0.152
-355.566	-200.000	-0.052	-0.225
-354.552	505.922	0.076	-0.175
-353.537	36.261	0.093	-0.081
-352.523	42.890	-0.075	-0.068
-351.508	80.967	-0.141	-0.151
-350.493	319.540	0.061	0.116
-349.479	322.011	-0.047	0.088
-348.464	-49.592	-0.160	0.076
-347.450	-61.417	0.198	-0.082
-346.435	800.000	0.053	0.160
-345.420	46.161	-0.176	0.162
-344.406	-2.542	-0.125	-0.087
-343.391	-62.294	0.286	0.118
-342.377	44.053	-0.085	0.078
-341.362	-200.000	0.053	-0.258
-340.348	-65.298	-0.326	-0.130
-339.333	-84.857	-0.190	-0.059
-338.318	-186.790	0.367	-0.005
-337.304	239.471	0.078	0.129
-336.289	147.196	0.102	0.137
-335.275	299.913	0.196	0.358
-334.260	266.021	-0.205	-0.355
-333.245	34.322	0.131	0.113
-332.231	800.000	-0.132	-0.396
-331.216	487.806	-0.075	-0.170
-330.202	-82.219	0.188	0.061
-329.187	-98.524	0.275	0.070
-328.172	185.206	0.150	0.220
-327.158	800.000	-0.059	0.205
-326.143	-26.588	-0.287	0.167
-325.129	-89.379	-0.065	0.019
-324.114	407.911	0.113	0.236
-323.099	-140.688	-0.190	0.019
-322.085	-154.515	-0.283	-0.019
-321.070	-159.029	0.055	-0.003
-320.056	-141.884	0.497	0.049
-319.041	66.937	0.154	0.156
-318.026	-103.362	-0.232	0.054
-317.012	800.000	-0.059	0.162
-315.997	-98.752	-0.377	0.095
-314.983	355.628	0.079	-0.156
-313.968	-200.000	-0.036	-0.165
-312.953	24.515	-0.227	-0.186
-311.939	223.994	-0.223	0.358
-310.924	-200.000	-0.006	0.128
-309.910	-104.813	0.094	-0.021
-308.895	-8.368	0.211	0.141
-307.880	-51.439	0.244	0.113
-306.866	449.162	0.090	0.197
-305.851	-200.000	-0.007	0.182
-304.837	-104.659	-0.195	-0.044
-303.822	-15.994	-0.242	-0.153
-302.807	42.481	-0.031	0.028
-301.793	-200.000	-0.023	-0.168
-300.778	23.528	-0.182	-0.148
-299.764	-28.853	0.095	-0.054
-298.749	177.288	-0.053	-0.076
-297.735	-154.521	0.297	0.020
-296.720	5.906	-0.241	0.177
-295.705	-7.125	-0.429	-0.289
-294.691	-101.610	0.111	-0.027
-293.676	-127.364	-0.046	0.007
-292.662	-81.980	0.222	-0.072
-291.647	114.271	0.121	0.146
-290.632	107.862	-0.133	0.157
-289.618	-80.430	0.187	-0.062
-288.603	7.642	0.066	0.049
-287.589	-103.698	0.089	0.021
-286.574	9.767	-0.054	-0.040
-285.559	-127.543	-0.056	0.008
-284.545	-200.000	-0.003	0.172
-283.530	-152.310	0.086	-0.006
-282.516	185.032	-0.109	-0.161
-281.501	-200.000	-0.021	0.183
-280.486	-50.341	-0.331	0.155
-279.472	23.883	-0.162	-0.133
-278.457	-63.041	0.269	-0.110
-277.443	25.295	-0.091	-0.075
-276.428	-200.000	-0.021	-0.116
-275.413	800.000	0.072	0.215
-274.399	-105.008	-0.204	0.046
-273.384	-200.000	-0.028	0.144
-272.370	143.027	0.206	-0.272
-271.355	-48.378	0.369	0.176
-270.340	-155.704	0.244	0.015
-269.326	-200.000	-0.009	0.217
-268.311	-116.434	0.310	0.057
-267.297	-61.874	0.160	-0.066
-266.282	-200.000	-0.091	0.471
-265.267	315.538	0.035	-0.066
-264.253	800.000	-0.022	-0.066
-263.238	-200.000	-0.345	-0.001
-262.224	83.383	0.074	-0.080
-261.209	24.459	-0.153	0.126
-260.195	-42.520	0.078	-0.039
-259.180	-124.735	0.263	-0.040
-258.165	-200.000	-0.011	-0.107
-257.151	55.530	-0.335	-0.321
-256.136	-111.789	-0.309	0.062
-255.122	-51.044	0.124	0.058
-254.107	-200.000	0.011	0.409
-253.092	84.672	0.088	0.095
-252.078	-200.000	-0.014	-0.099
-251.063	-127.525	-0.273	-0.039
-250.049	-200.000	0.061	0.287
-249.034	-200.000	0.007	0.073
-248.019	240.261	0.104	-0.172
-247.005	-83.543	0.229	-0.072
-245.990	4.486	0.139	0.101
-244.976	350.614	-0.059	-0.115
-243.961	34.655	0.204	-0.176
-242.946	466.249	0.048	0.107
-241.932	4.136	-0.330	-0.239
-240.917	-200.000	-0.029	-0.518
-239.903	-200.000	-0.014	0.219
-238.888	24.176	-0.099	0.081
-237.873	-13.297	-0.024	-0.015
-236.859	153.521	-0.078	0.105
-235.844	-82.357	0.112	0.036
-234.830	443.259	0.101	-0.219
-233.815	-200.000	-0.034	0.231
-232.800	-48.674	0.221	0.105
-231.786	445.140	0.220	0.478
-230.771	800.000	0.025	0.087
-229.757	-15.067	-0.280	0.177
-228.742	-60.197	-0.031	0.013
-227.727	-139.127	0.258	-0.028
-226.713	359.228	-0.050	0.100
-225.698	-200.000	-0.080	0.387
-224.684	-64.331	-0.274	-0.110
-223.669	800.000	0.074	0.233
-222.655	-122.774	0.203	0.032
-221.640	-76.766	0.260	0.090
-220.625	776.110	-0.055	-0.147
-219.611	800.000	0.030	0.121
-218.596	800.000	-0.086	-0.328
-217.582	209.380	-0.116	-0.179
-216.567	800.000	-0.076	0.214
-215.552	-200.000	-0.049	0.371
-214.538	-200.000	0.038	0.263
-213.523	36.249	0.099	0.086
-212.509	-119.848	-0.123	0.021
-211.494	-200.000	-0.008	-0.199
-210.479	84.772	-0.198	-0.214
-209.465	-143.504	0.302	0.028
-208.450	-37.760	-0.151	0.079
-207.436	-200.000	-0.025	-0.150
-206.421	-127.547	-0.225	-0.032
-205.406	-42.003	0.167	-0.084
-204.392	-59.175	0.115	0.049
-203.377	93.836	0.155	0.174
-202.363	-41.881	0.225	-0.114
-201.348	800.000	-0.210	-0.592
-200.333	123.070	0.122	0.151
-199.319	107.442	-0.119	0.139
-198.304	-200.000	0.032	0.290
-197.290	172.519	-0.151	-0.215
-196.275	16.069	0.032	-0.025
-195.260	47.335	0.148	0.136
-194.246	28.094	0.127	-0.106
-193.231	23.717	0.253	0.205
-192.217	-44.599	-0.127	-0.063
-191.202	66.346	-0.019	0.019
-190.187	177.277	0.139	0.200
-189.173	-49.435	0.204	0.096
-188.158	53.727	0.129	0.122
-187.144	-33.583	0.082	-0.045
-186.129	160.542	-0.089	-0.123
-185.114	593.663	0.050	0.121
-184.100	-27.915	0.215	-0.123
-183.085	43.957	-0.160	0.145
-182.071	800.000	-0.127	-0.429
-181.056	-36.570	-0.157	0.083
-180.042	182.786	0.105	0.152
-179.027	134.527	-0.096	0.123
-178.012	-72.431	0.138	-0.050
-176.998	185.430	0.202	0.296
-175.983	18.690	-0.110	-0.087
-174.969	-9.430	-0.088	-0.058
-173.954	46.426	-0.010	0.009
-172.939	410.312	0.052	0.108
-171.925	280.692	-0.069	0.121
-170.910	135.788	0.145	0.186
-169.896	-200.000	0.031	-0.153
-168.881	11.131	-0.043	-0.032
-167.866	29.231	-0.016	-0.013
-166.852	120.766	0.168	-0.206
-165.837	1.367	0.070	-0.049
-164.823	86.956	-0.128	-0.140
-163.808	-200.000	-0.003	-0.211
-162.793	800.000	-0.058	-0.184
-161.779	117.238	-0.178	0.215
-160.764	-168.647	-0.534	-0.020
-159.750	-200.000	-0.041	0.459
-158.735	-61.782	-0.269	0.111
-157.720	26.065	0.316	0.259
-156.706	-96.841	0.219	-0.057
-155.691	-77.048	0.107	0.037
-154.677	-83.205	0.205	0.065
-153.662	-150.305	0.065	-0.005
-152.647	-200.000	0.015	0.255
-151.633	57.136	-0.090	0.087
-150.618	-200.000	0.019	-0.161
-149.604	-21.818	-0.397	0.238
-148.589	-200.000	0.015	0.286
-147.574	-64.563	0.118	0.047
-146.560	-200.000	0.006	0.201
-145.545	-118.817	-0.355	0.062
-144.531	-174.291	-0.434	0.012
-143.516	-200.000	-0.033	-0.192
-142.502	-125.090	0.290	-0.044
-141.487	-161.522	-0.058	0.003
-140.472	336.691	0.021	-0.040
-139.458	800.000	0.131	-0.410
-138.443	800.000	-0.160	-0.529
-137.429	-94.341	0.278	-0.075
-136.414	-90.479	0.333	-0.095
-135.399	-121.106	0.081	-0.013
-134.385	217.313	0.028	-0.043
-133.370	-200.000	0.006	-0.173
-132.356	93.016	0.132	-0.146
-131.341	360.747	0.116	0.230
-130.326	-200.000	-0.022	0.254
-129.312	-87.014	-0.128	0.038
-128.297	-150.037	0.317	0.024
-127.283	-27.774	-0.218	-0.125
-126.268	-129.567	-0.284	0.039
-125.253	-106.330	-0.247	0.054
-124.239	-172.052	0.183	0.006
-123.224	213.593	-0.140	0.217
-122.210	-200.000	0.064	-0.286
-121.195	-136.420	0.317	-0.036
