DTS Sentinel unit serial number:	SN413079Multiplexer serial number:	ORYXHardware model number:	OX4-SRSoftware version number:	ORYX F/W v4.00 Oryx Data Collector v3.7.2.0data status	okinstallation	princeton_trtdifferential loss correction	single-endedforward channel	channel 1reverse channel	N/Adate	2019/09/18time	17:50:35forward acquisition time	60.00reverse acquisition time	0.00gamma	496.2192k internal	0.2292k external	0.2292temperature offset calibration	1.0018default loss term (dB/km)	0.3790temperature slope calibration	1.0000multiplexer offset coefficient	1.0000multiplexer slope coefficient	1.0000fibre end	0.00T internal ref (°C)	40.17T ext. ref 1 (°C)	0.92T ext. ref 2 (°C)	31.99length (m)	temperature (°C)	Stokes	anti-Stokes-747.200	-83.030	-0.091	0.030
-746.185	227.117	-0.033	-0.054
-745.171	22.367	0.203	-0.170
-744.156	105.830	0.238	0.289
-743.142	-27.786	-0.384	0.228
-742.127	-181.359	-0.259	0.005
-741.112	-151.517	0.278	-0.021
-740.098	145.553	-0.077	0.106
-739.083	800.000	0.151	-0.521
-738.069	190.972	0.181	0.279
-737.054	-165.670	0.047	0.002
-736.039	-71.873	0.092	0.035
-735.025	20.080	-0.125	0.103
-734.010	395.441	0.174	-0.372
-732.996	280.224	-0.169	-0.309
-731.981	122.154	0.073	0.093
-730.966	-110.248	-0.159	0.034
-729.952	-200.000	-0.006	-0.069
-728.937	-164.813	0.226	-0.010
-727.923	-86.651	-0.340	-0.106
-726.908	82.061	-0.184	0.204
-725.894	43.557	-0.110	0.103
-724.879	306.050	-0.124	-0.235
-723.864	365.647	0.136	-0.280
-722.850	470.687	-0.059	-0.135
-721.835	104.205	0.146	-0.176
-720.821	-29.436	-0.094	-0.055
-719.806	-52.911	-0.063	-0.030
-718.791	-200.000	-0.026	-0.461
-717.777	-58.721	0.276	-0.122
-716.762	398.783	0.118	-0.252
-715.748	-194.139	-0.297	-0.002
-714.733	37.744	-0.102	0.093
-713.718	43.067	0.074	-0.069
-712.704	27.498	-0.076	-0.066
-711.689	-70.291	-0.187	-0.072
-710.675	-200.000	-0.006	-0.112
-709.660	-51.324	-0.105	0.050
-708.645	-41.487	0.299	0.157
-707.631	-65.020	-0.450	0.186
-706.616	86.570	-0.139	-0.156
-705.602	-139.953	-0.326	-0.035
-704.587	-200.000	-0.002	0.110
-703.572	169.049	-0.225	-0.328
-702.558	-185.534	-0.219	0.003
-701.543	45.875	0.185	0.175
-700.529	107.419	-0.189	0.229
-699.514	-108.934	0.078	0.017
-698.499	133.512	-0.105	-0.138
-697.485	-14.440	-0.286	0.188
-696.470	-81.915	0.116	0.039
-695.456	148.910	-0.089	-0.123
-694.441	-65.787	-0.184	0.075
-693.426	-63.541	-0.159	-0.067
-692.412	-78.267	0.128	0.045
-691.397	-101.966	0.155	-0.038
-690.383	458.301	-0.148	0.337
-689.368	17.889	-0.230	-0.187
-688.354	18.574	0.287	-0.234
-687.339	-91.519	0.123	0.036
-686.324	-200.000	0.068	-0.317
-685.310	-200.000	0.049	0.383
-684.295	472.365	0.096	-0.221
-683.281	121.136	-0.180	0.229
-682.266	-200.000	-0.029	0.197
-681.251	48.731	-0.124	-0.119
-680.237	-137.096	-0.337	0.039
-679.222	800.000	-0.055	0.240
-678.208	-200.000	0.005	-0.064
-677.193	-50.772	-0.172	0.083
-676.178	-18.737	-0.105	0.066
-675.164	-64.244	-0.377	0.157
-674.149	-26.700	0.316	0.189
-673.135	800.000	-0.056	0.226
-672.120	757.259	-0.020	-0.055
-671.105	-119.301	0.169	-0.030
-670.091	244.288	0.204	-0.350
-669.076	-200.000	-0.009	-0.039
-668.062	351.674	0.060	0.122
-667.047	-200.000	-0.012	-0.254
-666.032	-155.925	-0.146	0.009
-665.018	402.513	-0.068	0.146
-664.003	-47.122	0.141	-0.070
-662.989	-141.225	-0.112	0.012
-661.974	12.211	-0.100	0.079
-660.959	3.872	0.191	0.143
-659.945	-85.840	0.575	0.182
-658.930	-94.771	0.258	0.071
-657.916	682.325	0.114	0.303
-656.901	165.754	0.248	-0.358
-655.886	119.848	-0.073	-0.093
-654.872	-50.594	0.257	-0.124
-653.857	-37.184	0.254	0.139
-652.843	-200.000	-0.012	-0.156
-651.828	-142.318	0.049	-0.005
-650.814	95.557	-0.066	-0.077
-649.799	225.589	0.102	-0.169
-648.784	800.000	-0.011	-0.040
-647.770	800.000	0.094	-0.394
-646.755	-137.760	0.173	0.020
-645.741	-67.016	0.077	-0.031
-644.726	-200.000	-0.031	0.404
-643.711	27.575	0.062	0.054
-642.697	102.258	0.062	-0.074
-641.682	-169.978	-0.077	0.003
-640.668	50.339	0.200	0.192
-639.653	343.185	0.059	-0.117
-638.638	85.492	0.035	-0.039
-637.624	71.722	-0.215	0.227
-636.609	-104.372	-0.327	-0.077
-635.595	-27.447	0.131	-0.078
-634.580	-37.495	0.134	0.073
-633.565	800.000	-0.082	-0.233
-632.551	34.007	0.192	-0.171
-631.536	-30.466	-0.312	0.180
-630.522	-123.962	-0.156	-0.025
-629.507	270.238	0.307	0.551
-628.492	128.558	-0.074	-0.096
-627.478	-66.914	-0.131	-0.053
-626.463	-48.589	-0.290	0.142
-625.449	1.603	0.226	0.166
-624.434	-200.000	0.036	-0.362
-623.419	426.894	-0.048	-0.105
-622.405	800.000	-0.122	0.381
-621.390	-53.400	0.177	0.083
-620.376	-59.245	0.174	-0.076
-619.361	-102.815	-0.400	-0.097
-618.346	-16.911	-0.075	-0.048
-617.332	235.263	0.125	0.210
-616.317	741.884	-0.109	-0.298
-615.303	50.658	0.089	0.086
-614.288	-200.000	0.065	-0.329
-613.273	246.133	-0.092	0.158
-612.259	-110.673	0.366	-0.077
-611.244	67.873	0.124	-0.129
-610.230	-200.000	0.049	0.261
-609.215	5.330	-0.260	-0.195
-608.201	800.000	-0.006	0.017
-607.186	117.062	0.216	0.270
-606.171	-122.393	-0.179	-0.030
-605.157	-200.000	-0.005	0.040
-604.142	258.184	0.077	-0.134
-603.128	-200.000	-0.024	-0.306
-602.113	-92.198	-0.117	0.034
-601.098	-45.641	0.073	-0.037
-600.084	671.696	0.077	0.203
-599.069	-164.544	0.279	0.013
-598.055	377.970	0.197	-0.411
-597.040	84.861	0.272	-0.303
-596.025	-61.471	0.123	-0.053
-595.011	-200.000	0.047	0.375
-593.996	-200.000	-0.014	-0.208
-592.982	520.670	-0.030	0.072
-591.967	223.439	-0.045	-0.074
-590.952	33.198	-0.050	0.044
-589.938	-124.158	-0.276	-0.044
-588.923	800.000	-0.063	-0.264
-587.909	42.003	0.119	-0.110
-586.894	-200.000	-0.003	-0.149
-585.879	421.199	-0.074	-0.161
-584.865	800.000	-0.050	-0.205
-583.850	-86.508	0.276	-0.086
-582.836	476.317	-0.150	-0.345
-581.821	-200.000	-0.008	-0.315
-580.806	133.127	0.072	-0.095
-579.792	-200.000	0.052	0.259
-578.777	-52.929	-0.063	-0.029
-577.763	-64.772	0.178	-0.073
-576.748	-200.000	-0.002	0.125
-575.733	256.131	-0.037	0.065
-574.719	-18.319	0.228	0.145
-573.704	-200.000	0.024	-0.198
-572.690	-200.000	0.038	-0.259
-571.675	-108.425	-0.249	-0.055
-570.661	372.762	0.069	0.142
-569.646	407.603	0.136	-0.293
-568.631	800.000	0.032	-0.120
-567.617	800.000	-0.012	-0.040
-566.602	241.172	0.009	-0.015
-565.588	-0.461	0.173	-0.125
-564.573	-100.632	-0.133	-0.033
-563.558	215.776	-0.033	0.053
-562.544	16.995	0.335	0.270
-561.529	-177.109	-0.241	0.006
-560.515	471.552	0.031	0.072
-559.500	-65.293	0.167	0.068
-558.485	12.614	-0.094	0.074
-557.471	213.660	-0.049	-0.078
-556.456	151.322	-0.105	0.145
-555.442	276.819	0.132	0.239
-554.427	183.561	-0.088	0.132
-553.412	577.138	0.029	-0.073
-552.398	-32.059	-0.025	0.014
-551.383	-200.000	-0.014	-0.198
-550.369	-72.158	-0.100	-0.038
-549.354	-200.000	0.020	-0.110
-548.339	17.338	0.135	0.109
-547.325	183.850	-0.074	0.112
-546.310	229.243	-0.112	0.185
-545.296	-150.563	0.298	-0.023
-544.281	800.000	0.069	-0.231
-543.266	19.237	-0.023	-0.019
-542.252	-65.765	0.086	-0.035
-541.237	71.240	-0.223	0.235
-540.223	800.000	0.163	0.465
-539.208	-47.367	-0.456	0.225
-538.193	-200.000	-0.056	0.249
-537.179	-44.274	-0.136	-0.069
-536.164	-173.603	-0.249	-0.008
-535.150	57.335	-0.074	-0.074
-534.135	800.000	0.038	-0.116
-533.121	-9.189	0.133	0.090
-532.106	-114.392	-0.174	-0.034
-531.091	-48.379	0.343	-0.168
-530.077	-200.000	-0.030	-0.263
-529.062	389.250	0.008	-0.017
-528.048	-167.146	0.205	0.008
-527.033	800.000	0.014	-0.050
-526.018	-12.023	-0.270	-0.179
-525.004	-115.286	0.125	-0.024
-523.989	-139.671	-0.235	-0.025
-522.975	-12.021	-0.028	0.019
-521.960	-154.943	0.131	0.009
-520.945	323.431	0.070	-0.135
-519.931	800.000	0.068	0.254
-518.916	800.000	0.042	0.162
-517.902	132.705	0.242	0.316
-516.887	566.868	-0.139	0.342
-515.872	-136.121	-0.049	0.006
-514.858	-200.000	0.027	-0.196
-513.843	65.944	0.266	0.273
-512.829	-104.813	-0.530	0.124
-511.814	119.134	-0.161	0.203
-510.799	93.262	-0.091	-0.105
-509.785	-86.267	0.135	-0.042
-508.770	21.233	0.136	-0.112
-507.756	140.108	0.274	-0.366
-506.741	591.708	0.081	-0.202
-505.726	392.391	-0.068	-0.144
-504.712	-200.000	-0.051	0.257
-503.697	133.249	0.123	-0.161
-502.683	800.000	-0.051	0.187
-501.668	-66.844	-0.177	-0.071
-500.653	412.177	-0.056	0.120
-499.639	504.965	-0.018	0.042
-498.624	47.016	0.077	-0.073
-497.610	90.798	-0.280	-0.318
-496.595	-41.795	0.185	0.096
-495.581	338.166	-0.071	-0.141
-494.566	-89.334	-0.072	-0.022
-493.551	800.000	-0.118	0.373
-492.537	800.000	-0.112	0.364
-491.522	-84.761	0.141	-0.045
-490.508	164.683	-0.146	0.208
-489.493	237.576	-0.179	0.301
-488.478	-24.202	-0.273	-0.165
-487.464	-200.000	0.009	-0.044
-486.449	-15.502	0.205	-0.133
-485.435	209.384	-0.029	-0.046
-484.420	-131.697	0.365	0.049
-483.405	-132.231	-0.200	0.026
-482.391	800.000	0.073	0.246
-481.376	800.000	-0.064	0.194
-480.362	-25.115	0.220	-0.132
-479.347	-62.111	0.249	0.105
-478.332	800.000	0.077	-0.248
-477.318	800.000	0.095	0.308
-476.303	419.700	0.160	0.346
-475.289	242.892	0.008	-0.013
-474.274	-200.000	0.003	-0.291
-473.259	430.343	-0.039	0.086
-472.245	364.124	0.113	0.230
-471.230	-159.174	-0.221	0.013
-470.216	800.000	0.035	-0.130
-469.201	-59.577	0.079	0.034
-468.186	-27.733	0.447	-0.262
-467.172	-12.390	0.308	-0.204
-466.157	-110.080	0.196	-0.042
-465.143	-200.000	-0.003	0.118
-464.128	-200.000	-0.036	0.231
-463.113	213.767	-0.228	0.364
-462.099	-1.576	-0.348	-0.248
-461.084	52.138	0.049	-0.047
-460.070	-140.871	-0.091	0.010
-459.055	-73.008	0.139	-0.052
-458.040	-49.239	0.185	0.090
-457.026	-62.338	-0.113	-0.048
-456.011	38.831	0.117	-0.106
-454.997	-200.000	0.020	-0.124
-453.982	-115.459	-0.487	-0.093
-452.968	-44.218	0.120	0.061
-451.953	-26.008	-0.088	-0.053
-450.938	-1.387	0.408	-0.291
-449.924	-79.887	0.146	0.050
-448.909	800.000	0.036	0.122
-447.895	-200.000	0.004	-0.120
-446.880	91.838	0.024	-0.027
-445.865	-41.785	-0.305	0.158
-444.851	80.410	-0.148	-0.161
-443.836	30.442	-0.275	-0.238
-442.822	-91.384	-0.197	0.057
-441.807	-144.489	-0.249	0.023
-440.792	403.859	-0.143	0.304
-439.778	-83.724	0.336	0.109
-438.763	19.226	0.135	-0.110
-437.749	-200.000	0.014	-0.156
-436.734	-141.057	-0.248	-0.026
-435.719	399.036	0.047	0.099
-434.705	-200.000	-0.018	0.265
-433.690	160.711	-0.097	-0.137
-432.676	97.256	0.116	-0.135
-431.661	-100.541	-0.096	-0.024
-430.646	-118.911	-0.225	-0.040
-429.632	-70.379	0.059	-0.023
-428.617	800.000	-0.018	-0.073
-427.603	442.498	-0.077	-0.171
-426.588	-22.447	-0.152	0.093
-425.573	-78.833	0.211	-0.073
-424.559	30.365	0.202	0.174
-423.544	-144.053	0.228	-0.022
-422.530	33.894	-0.063	-0.056
-421.515	90.585	-0.071	0.080
-420.500	-200.000	0.025	-0.177
-419.486	-121.929	0.316	-0.053
-418.471	800.000	-0.068	-0.214
-417.457	-109.934	0.092	0.019
-416.442	-10.110	-0.178	0.120
-415.428	238.398	-0.150	-0.252
-414.413	-42.597	0.218	-0.112
-413.398	553.747	-0.105	0.255
-412.384	800.000	0.067	0.264
-411.369	-32.267	-0.148	0.084
-410.355	-194.475	-0.164	0.001
-409.340	-200.000	0.047	0.343
-408.325	-48.133	-0.137	0.067
-407.311	7.774	-0.186	0.141
-406.296	-116.215	0.215	-0.040
-405.282	39.531	-0.223	-0.202
-404.267	270.663	-0.063	-0.113
-403.252	697.558	-0.055	-0.147
-402.238	-97.781	-0.163	-0.042
-401.223	-143.606	0.173	0.017
-400.209	39.272	0.044	-0.040
-399.194	-80.079	0.178	-0.060
-398.179	365.648	-0.162	-0.330
-397.165	14.060	-0.177	-0.139
-396.150	-200.000	0.000	-0.191
-395.136	-40.974	-0.021	0.011
-394.121	-200.000	-0.039	0.229
-393.106	162.518	-0.120	0.170
-392.092	-63.625	0.484	-0.201
-391.077	155.997	0.055	-0.077
-390.063	224.612	-0.081	-0.133
-389.048	152.807	-0.297	0.410
-388.033	-111.584	0.028	0.006
-387.019	65.344	0.139	0.142
-386.004	172.161	-0.109	0.158
-384.990	60.858	-0.081	-0.081
-383.975	474.315	-0.103	-0.234
-382.960	728.900	-0.049	-0.132
-381.946	-69.458	-0.185	-0.072
-380.931	-149.102	-0.258	-0.021
-379.917	-161.442	-0.294	-0.015
-378.902	-200.000	0.051	-0.469
-377.888	-89.419	0.175	0.052
-376.873	-131.885	0.130	-0.017
-375.858	360.138	-0.136	0.275
-374.844	-67.084	-0.245	-0.097
-373.829	-200.000	-0.063	-0.340
-372.815	-16.884	0.181	-0.115
-371.800	-104.991	0.277	-0.064
-370.785	-200.000	-0.056	-0.261
-369.771	72.215	-0.132	0.138
-368.756	-143.103	0.258	0.025
-367.742	-75.624	-0.203	0.073
-366.727	23.416	0.211	0.175
-365.712	-82.595	0.289	0.095
-364.698	167.553	-0.137	-0.196
-363.683	-65.195	-0.154	0.063
-362.669	-200.000	0.006	0.148
-361.654	800.000	-0.019	0.080
-360.639	294.745	0.071	-0.130
-359.625	-101.329	-0.100	-0.025
-358.610	-58.333	0.063	0.028
-357.596	-86.357	-0.179	0.056
-356.581	423.103	-0.128	-0.278
-355.566	-90.001	0.526	0.155
-354.552	-175.451	-0.179	0.005
-353.537	-200.000	-0.043	0.352
-352.523	-101.237	-0.246	0.061
-351.508	28.791	0.135	0.115
-350.493	-200.000	-0.027	0.127
-349.479	-6.556	0.299	-0.206
-348.464	17.365	0.084	0.067
-347.450	154.653	-0.239	-0.330
-346.435	9.102	0.157	0.120
-345.420	210.426	-0.016	-0.025
-344.406	180.665	0.073	-0.107
-343.391	-200.000	0.012	-0.069
-342.377	800.000	-0.011	-0.033
-341.362	30.154	-0.189	-0.163
-340.348	-71.819	0.081	-0.030
-339.333	230.329	0.167	-0.275
-338.318	-200.000	-0.021	-0.201
-337.304	633.909	0.058	0.148
-336.289	223.249	-0.122	0.198
-335.275	279.770	-0.090	-0.161
-334.260	125.178	-0.228	0.290
-333.245	-25.972	0.280	-0.166
-332.231	148.984	0.047	0.063
-331.216	68.865	-0.099	-0.103
-330.202	-26.356	0.212	-0.126
-329.187	-200.000	-0.022	0.203
-328.172	124.502	0.203	0.258
-327.158	327.897	-0.099	-0.192
-326.143	342.601	-0.120	-0.237
-325.129	-132.038	-0.146	-0.019
-324.114	564.925	0.063	0.154
-323.099	-163.189	0.141	-0.007
-322.085	-200.000	-0.028	-0.136
-321.070	-126.740	0.143	-0.021
-320.056	35.856	0.301	0.266
-319.041	367.679	-0.123	0.250
-318.026	15.402	0.099	0.078
-317.012	98.307	-0.221	0.256
-315.997	393.075	0.107	0.225
-314.983	-178.542	-0.364	-0.008
-313.968	-3.956	0.198	-0.138
-312.953	-132.798	0.170	-0.022
-311.939	-200.000	-0.007	-0.147
-310.924	-200.000	-0.024	-0.167
-309.910	-200.000	-0.007	-0.036
-308.895	22.276	0.245	-0.201
-307.880	-28.294	0.223	-0.129
-306.866	-138.820	-0.248	0.027
-305.851	413.998	0.082	-0.175
-304.837	164.329	-0.222	-0.314
-303.822	-26.701	-0.504	-0.297
-302.807	19.353	0.187	0.151
-301.793	800.000	-0.019	-0.071
-300.778	63.473	0.067	0.068
-299.764	781.599	-0.013	0.034
-298.749	67.948	0.182	-0.188
-297.735	-126.071	0.185	0.028
-296.720	81.899	-0.188	-0.204
-295.705	-145.454	-0.221	-0.020
-294.691	-200.000	-0.008	-0.181
-293.676	-81.229	0.152	0.050
-292.662	-147.004	-0.064	-0.006
-291.647	800.000	0.050	0.214
-290.632	-200.000	-0.013	-0.096
-289.618	218.555	0.107	0.172
-288.603	199.359	0.271	0.418
-287.589	-106.827	-0.137	0.030
-286.574	5.459	-0.181	0.135
-285.559	-5.743	-0.135	0.093
-284.545	187.319	0.100	-0.149
-283.530	60.188	0.182	0.181
-282.516	-122.658	0.067	0.011
-281.501	372.059	0.058	0.118
-280.486	100.225	0.161	-0.188
-279.472	-200.000	0.011	0.212
-278.457	235.901	-0.081	-0.134
-277.443	318.602	-0.122	0.233
-276.428	-200.000	-0.025	0.307
-275.413	728.911	0.096	-0.258
-274.399	33.418	0.076	-0.067
-273.384	-200.000	-0.024	-0.299
-272.370	-112.910	0.207	0.041
-271.355	84.049	0.249	0.274
-270.340	-124.653	0.186	-0.029
-269.326	-200.000	0.003	-0.221
-268.311	-52.623	0.185	0.086
-267.297	-90.437	-0.397	0.116
-266.282	429.681	-0.101	-0.220
-265.267	800.000	0.023	-0.099
-264.253	-21.010	-0.479	0.294
-263.238	-51.571	0.145	0.068
-262.224	-118.264	-0.196	-0.035
-261.209	26.817	-0.123	0.103
-260.195	326.182	0.049	0.094
-259.180	352.796	-0.129	0.257
-258.165	8.366	0.144	-0.109
-257.151	262.652	-0.048	0.084
-256.136	-32.973	0.087	0.048
-255.122	-162.349	0.395	-0.020
-254.107	799.820	-0.128	-0.355
-253.092	-83.133	0.130	-0.042
-252.078	-32.680	0.171	-0.096
-251.063	-200.000	0.045	0.481
-250.049	800.000	-0.075	-0.209
-249.034	-200.000	0.029	0.181
-248.019	86.975	-0.253	0.281
-247.005	-200.000	0.039	-0.177
-245.990	-200.000	-0.022	0.387
-244.976	279.527	0.118	-0.211
-243.961	-156.994	0.148	-0.009
-242.946	73.026	-0.079	0.083
-241.932	800.000	-0.111	0.317
-240.917	400.182	0.159	-0.334
-239.903	-83.629	-0.304	-0.097
-238.888	139.290	-0.140	0.185
-237.873	800.000	-0.114	0.414
-236.859	-178.949	0.280	-0.006
-235.844	-132.587	0.438	0.056
-234.830	-200.000	0.000	-0.027
-233.815	800.000	0.004	0.016
-232.800	-40.065	-0.130	-0.068
-231.786	83.682	0.180	0.197
-230.771	-114.721	-0.314	0.060
-229.757	800.000	0.075	0.322
-228.742	7.845	0.284	-0.213
-227.727	208.617	0.170	-0.267
-226.713	-11.752	-0.310	0.204
-225.698	-98.733	-0.144	-0.037
-224.684	-3.364	-0.269	0.188
-223.669	0.924	-0.031	-0.022
-222.655	-134.219	0.212	-0.026
-221.640	12.757	-0.140	0.109
-220.625	-106.897	0.139	-0.031
-219.611	-21.041	-0.158	0.097
-218.596	718.555	-0.094	0.251
-217.582	-86.695	-0.187	-0.057
-216.567	-200.000	-0.040	-0.253
-215.552	-54.160	0.027	0.012
-214.538	-2.456	-0.130	-0.091
-213.523	-182.197	0.181	0.003
-212.509	-200.000	-0.051	-0.279
-211.494	-141.382	-0.150	0.015
-210.479	-90.717	0.138	-0.040
-209.465	-200.000	0.041	0.191
-208.450	-68.256	0.209	0.082
-207.436	-12.186	0.049	0.032
-206.421	73.956	-0.098	0.103
-205.406	-167.047	0.447	-0.018
-204.392	-8.218	0.224	-0.151
-203.377	-2.547	-0.488	-0.342
-202.363	-200.000	0.036	0.206
-201.348	279.835	0.109	-0.195
-200.333	135.326	-0.079	-0.103
-199.319	-24.235	0.340	-0.203
-198.304	-200.000	-0.008	-0.103
-197.290	57.948	-0.116	-0.114
-196.275	-118.829	-0.231	-0.041
-195.260	-200.000	-0.028	-0.183
-194.246	214.035	-0.072	0.114
-193.231	-200.000	0.021	-0.174
-192.217	-168.472	-0.413	-0.016
-191.202	186.569	-0.049	0.074
-190.187	-101.203	-0.192	0.047
-189.173	-200.000	-0.020	0.208
-188.158	-53.671	0.143	0.066
-187.144	-31.990	-0.069	0.039
-186.129	-76.374	-0.195	-0.069
-185.114	-17.342	0.185	0.116
-184.100	-200.000	-0.015	-0.115
-183.085	-101.776	-0.304	-0.074
-182.071	-200.000	-0.065	-0.348
-181.056	800.000	-0.042	0.165
-180.042	-158.504	-0.294	-0.017
-179.027	-5.845	-0.130	-0.089
-178.012	200.529	0.087	0.135
-176.998	800.000	0.044	0.182
-175.983	159.379	-0.104	0.145
-174.969	427.118	0.089	0.192
-173.954	35.919	-0.214	0.188
-172.939	800.000	-0.031	-0.131
-171.925	51.432	-0.076	0.072
-170.910	299.695	0.045	-0.083
-169.896	-106.458	0.314	0.070
-168.881	-132.726	0.210	-0.027
-167.866	-30.567	-0.145	0.082
-166.852	-132.661	-0.179	0.023
-165.837	-7.617	-0.191	0.129
-164.823	-57.057	0.134	0.059
-163.808	-157.970	0.086	0.005
-162.793	127.480	-0.121	-0.154
-161.779	-124.516	-0.286	-0.044
-160.764	800.000	0.069	-0.291
-159.750	152.381	0.198	0.270
-158.735	-97.813	-0.256	0.066
-157.720	122.246	0.197	0.246
-156.706	128.520	0.078	-0.100
-155.691	30.600	0.121	0.103
-154.677	4.508	0.174	0.128
-153.662	800.000	0.121	0.410
-152.647	161.575	0.074	-0.103
-151.633	276.338	-0.068	0.121
-150.618	-23.603	0.114	0.068
-149.604	-200.000	0.026	-0.119
-148.589	-200.000	-0.054	-0.278
-147.574	325.822	0.028	0.053
-146.560	11.209	-0.133	-0.102
-145.545	-174.067	0.268	-0.008
-144.531	340.035	0.147	-0.286
-143.516	-135.404	-0.135	-0.016
-142.502	-200.000	0.071	0.401
-141.487	-26.852	0.322	-0.188
-140.472	800.000	-0.032	-0.106
-139.458	184.586	0.226	-0.334
-138.443	-16.807	-0.238	-0.151
-137.429	126.125	0.117	-0.147
-136.414	-7.399	-0.043	-0.029
-135.399	58.563	0.069	-0.068
-134.385	294.271	-0.232	-0.424
-133.370	169.170	0.176	0.251
-132.356	-38.247	-0.151	-0.080
-131.341	-66.242	0.143	0.057
-130.326	-182.586	0.186	0.003
-129.312	-109.150	-0.219	-0.047
-128.297	41.955	0.082	0.074
-127.283	71.890	-0.209	0.217
-126.268	97.813	-0.265	0.304
-125.253	578.724	-0.117	0.285
-124.239	-200.000	0.038	0.185
-123.224	-176.015	0.392	-0.010
-122.210	37.608	-0.246	-0.218
