DTS Sentinel unit serial number:	SN413079Multiplexer serial number:	ORYXHardware model number:	OX4-SRSoftware version number:	ORYX F/W v4.00 Oryx Data Collector v3.7.2.0data status	okinstallation	princeton_trtdifferential loss correction	single-endedforward channel	channel 1reverse channel	N/Adate	2019/09/16time	04:54:35forward acquisition time	60.00reverse acquisition time	0.00gamma	496.2192k internal	0.2333k external	0.2333temperature offset calibration	0.9979default loss term (dB/km)	0.3790temperature slope calibration	1.0000multiplexer offset coefficient	1.0000multiplexer slope coefficient	1.0000fibre end	0.00T internal ref (°C)	27.19T ext. ref 1 (°C)	10.96T ext. ref 2 (°C)	21.71length (m)	temperature (°C)	Stokes	anti-Stokes-747.200	43.502	0.080	-0.074
-746.185	11.385	0.218	0.168
-745.171	263.032	0.097	-0.170
-744.156	-149.145	-0.331	0.027
-743.142	800.000	-0.089	0.255
-742.127	-200.000	-0.015	0.092
-741.112	-200.000	0.042	0.448
-740.098	111.375	-0.079	-0.096
-739.083	-30.480	0.234	0.133
-738.069	-200.000	-0.003	0.148
-737.054	-162.683	0.253	-0.012
-736.039	-57.267	-0.281	-0.124
-735.025	-122.295	0.108	0.018
-734.010	162.790	-0.094	0.133
-732.996	800.000	-0.120	-0.463
-731.981	-200.000	0.002	-0.120
-730.966	-20.041	-0.189	-0.117
-729.952	-50.197	0.236	-0.112
-728.937	-14.135	-0.210	0.136
-727.923	113.205	0.165	-0.201
-726.908	-200.000	-0.105	-0.593
-725.894	-7.141	-0.056	0.038
-724.879	800.000	-0.128	0.426
-723.864	-11.871	-0.065	0.043
-722.850	-71.980	-0.273	-0.102
-721.835	52.757	-0.288	-0.277
-720.821	800.000	0.072	-0.284
-719.806	91.597	-0.151	-0.171
-718.791	-200.000	-0.039	-0.239
-717.777	263.271	0.081	0.142
-716.762	-200.000	-0.041	-0.220
-715.748	21.480	0.150	0.122
-714.733	394.375	0.097	-0.203
-713.718	-57.767	-0.055	-0.024
-712.704	800.000	-0.013	-0.055
-711.689	800.000	0.043	-0.143
-710.675	-134.919	-0.261	0.032
-709.660	-200.000	0.001	0.164
-708.645	-117.775	-0.299	-0.054
-707.631	114.274	-0.288	-0.352
-706.616	478.400	-0.095	0.216
-705.602	77.589	-0.092	-0.099
-704.587	121.287	0.183	0.228
-703.572	-49.332	0.024	-0.012
-702.558	-16.339	-0.079	0.050
-701.543	-72.171	0.142	-0.053
-700.529	-13.754	0.123	-0.080
-699.514	-10.368	-0.401	-0.267
-698.499	54.820	0.088	-0.085
-697.485	138.604	-0.137	0.181
-696.470	-33.414	0.137	0.076
-695.456	86.104	0.017	-0.018
-694.441	-88.951	0.281	-0.083
-693.426	264.018	-0.086	-0.149
-692.412	-44.375	0.048	-0.024
-691.397	283.052	0.031	-0.056
-690.383	-46.009	-0.069	-0.034
-689.368	-59.846	-0.118	-0.051
-688.354	-200.000	0.035	0.221
-687.339	38.882	0.208	-0.186
-686.324	-200.000	0.047	-0.326
-685.310	-165.788	-0.073	-0.003
-684.295	-11.362	-0.270	-0.178
-683.281	-68.348	-0.214	-0.083
-682.266	-1.633	-0.374	-0.264
-681.251	-68.309	-0.043	0.017
-680.237	-179.301	0.092	0.002
-679.222	39.162	-0.277	-0.249
-678.208	20.708	0.148	-0.120
-677.193	-54.748	0.182	-0.082
-676.178	-33.482	-0.136	-0.075
-675.164	123.747	0.299	0.376
-674.149	-151.556	0.208	-0.015
-673.135	38.714	0.137	-0.123
-672.120	800.000	-0.034	-0.104
-671.105	-79.787	-0.173	-0.059
-670.091	800.000	0.065	-0.190
-669.076	-192.480	0.216	0.002
-668.062	-200.000	0.002	0.165
-667.047	-200.000	0.041	0.224
-666.032	-57.754	-0.031	0.014
-665.018	-200.000	0.020	0.360
-664.003	-53.790	-0.271	0.124
-662.989	-15.869	-0.101	0.065
-661.974	558.264	0.144	0.348
-660.959	-200.000	0.027	0.308
-659.945	538.477	-0.107	0.256
-658.930	-200.000	0.040	0.185
-657.916	-200.000	0.033	-0.195
-656.901	-27.433	0.150	-0.087
-655.886	-0.752	-0.287	0.204
-654.872	-100.052	-0.152	0.038
-653.857	-152.548	-0.190	0.014
-652.843	466.153	-0.082	0.184
-651.828	602.286	0.066	-0.165
-650.814	800.000	0.058	0.238
-649.799	4.519	0.343	0.252
-648.784	-75.284	0.492	0.176
-647.770	-200.000	0.005	0.157
-646.755	800.000	-0.055	-0.154
-645.741	800.000	0.022	0.081
-644.726	-200.000	-0.017	-0.075
-643.711	36.622	-0.289	-0.256
-642.697	-200.000	-0.065	0.468
-641.682	-200.000	-0.007	0.117
-640.668	-76.403	-0.033	-0.012
-639.653	-131.932	-0.024	0.003
-638.638	-200.000	0.005	-0.220
-637.624	391.031	-0.124	-0.258
-636.609	-70.184	0.214	0.081
-635.595	84.735	0.088	-0.097
-634.580	186.335	0.103	-0.153
-633.565	800.000	-0.061	-0.199
-632.551	-81.047	0.265	-0.088
-631.536	352.863	0.048	0.095
-630.522	62.497	-0.190	0.190
-629.507	-200.000	-0.014	-0.183
-628.492	17.132	0.016	-0.013
-627.478	-146.585	-0.117	0.010
-626.463	-66.793	0.203	-0.080
-625.449	-130.695	0.226	-0.030
-624.434	200.929	0.091	0.140
-623.419	800.000	-0.032	0.115
-622.405	-200.000	0.012	0.312
-621.390	-200.000	0.025	0.244
-620.376	2.874	-0.137	-0.099
-619.361	-135.463	0.164	-0.020
-618.346	-200.000	-0.040	0.224
-617.332	-99.809	-0.181	0.045
-616.317	670.390	-0.105	0.272
-615.303	-67.976	0.150	0.058
-614.288	-200.000	0.006	-0.059
-613.273	800.000	-0.070	-0.278
-612.259	315.349	-0.110	-0.208
-611.244	-200.000	0.063	-0.390
-610.230	-80.850	-0.093	0.031
-609.215	739.245	0.078	0.210
-608.201	-200.000	0.036	0.324
-607.186	-200.000	0.025	0.301
-606.171	-126.201	-0.136	0.020
-605.157	-200.000	-0.062	-0.328
-604.142	-124.636	0.156	0.024
-603.128	351.672	0.096	0.190
-602.113	800.000	-0.052	-0.178
-601.098	343.035	0.062	-0.121
-600.084	-112.148	0.229	-0.046
-599.069	161.310	0.115	0.161
-598.055	800.000	0.073	0.229
-597.040	70.376	-0.163	0.168
-596.025	-200.000	-0.036	-0.178
-595.011	-85.528	0.277	0.086
-593.996	-6.535	-0.017	0.012
-592.982	-200.000	-0.035	-0.309
-591.967	63.405	-0.053	-0.053
-590.952	-8.217	0.132	0.089
-589.938	800.000	0.033	-0.104
-588.923	-200.000	0.013	0.182
-587.909	-11.900	-0.114	0.075
-586.894	-36.077	0.141	0.076
-585.879	426.971	-0.067	0.143
-584.865	-110.695	0.200	0.041
-583.850	-200.000	-0.012	0.200
-582.836	-100.080	0.159	0.040
-581.821	180.156	-0.075	0.109
-580.806	-200.000	-0.044	0.203
-579.792	-44.982	0.228	-0.113
-578.777	800.000	-0.102	-0.316
-577.763	252.440	0.047	-0.080
-576.748	640.720	-0.088	-0.223
-575.733	17.992	0.095	-0.075
-574.719	-172.530	-0.081	-0.003
-573.704	335.326	-0.022	-0.043
-572.690	-168.760	0.406	-0.015
-571.675	236.672	0.097	-0.160
-570.661	800.000	0.063	-0.269
-569.646	-40.439	0.251	0.130
-568.631	363.781	0.090	-0.180
-567.617	21.795	0.383	0.311
-566.602	-36.434	-0.383	-0.206
-565.588	-197.130	-0.101	-0.001
-564.573	-103.924	0.276	-0.064
-563.558	-102.810	-0.254	0.060
-562.544	-179.046	0.217	0.005
-561.529	370.183	-0.101	-0.203
-560.515	-130.094	0.011	-0.002
-559.500	98.256	0.147	0.169
-558.485	-158.732	-0.366	-0.021
-557.471	-200.000	0.022	-0.110
-556.456	45.158	0.185	-0.170
-555.442	33.004	0.150	-0.129
-554.427	-91.791	-0.171	0.048
-553.412	-67.919	-0.071	0.028
-552.398	488.197	0.016	0.037
-551.383	-5.687	0.166	-0.113
-550.369	-164.744	-0.288	-0.013
-549.354	-200.000	0.012	-0.159
-548.339	-2.167	0.232	0.162
-547.325	432.715	-0.057	-0.124
-546.310	45.344	0.332	0.306
-545.296	-151.844	-0.204	-0.015
-544.281	-68.731	-0.196	0.076
-543.266	5.442	0.174	0.128
-542.252	114.523	-0.084	0.102
-541.237	203.985	0.173	-0.267
-540.223	36.099	0.098	-0.086
-539.208	-60.677	-0.464	0.196
-538.193	645.083	0.056	0.143
-537.179	62.129	-0.321	-0.319
-536.164	22.779	0.047	0.038
-535.150	-101.026	-0.062	-0.015
-534.135	-200.000	0.028	-0.341
-533.121	-79.350	0.247	-0.083
-532.106	-103.090	0.263	-0.062
-531.091	-141.604	-0.215	-0.022
-530.077	-16.770	0.346	0.218
-529.062	-200.000	0.001	0.040
-528.048	-168.725	0.162	-0.006
-527.033	170.777	0.039	-0.056
-526.018	-194.998	-0.132	0.001
-525.004	465.811	-0.178	0.398
-523.989	-7.777	0.327	0.220
-522.975	397.016	-0.115	-0.240
-521.960	123.007	0.144	-0.179
-520.945	153.681	0.210	0.287
-519.931	-41.339	0.097	-0.050
-518.916	-126.704	-0.023	0.003
-517.902	80.789	-0.109	-0.117
-516.887	-106.214	-0.193	0.043
-515.872	-200.000	-0.003	0.034
-514.858	-200.000	0.064	-0.350
-513.843	71.054	-0.460	-0.475
-512.829	-4.062	0.349	-0.241
-511.814	-150.899	-0.161	0.012
-510.799	-84.478	0.376	0.118
-509.785	-98.431	0.209	0.053
-508.770	800.000	0.067	0.197
-507.756	-200.000	-0.094	0.000
-506.741	286.011	0.172	0.308
-505.726	-41.629	-0.121	0.062
-504.712	-80.769	0.260	-0.086
-503.697	-115.213	-0.237	-0.045
-502.683	101.458	-0.062	0.072
-501.668	53.567	0.173	-0.165
-500.653	-56.497	0.121	0.054
-499.639	-144.114	0.286	0.027
-498.624	787.138	0.030	-0.081
-497.610	305.012	-0.064	-0.118
-496.595	17.906	0.094	-0.075
-495.581	-200.000	-0.003	0.241
-494.566	-200.000	-0.008	0.235
-493.551	-200.000	0.005	-0.254
-492.537	-153.880	0.319	-0.022
-491.522	11.124	-0.039	-0.029
-490.508	-200.000	0.035	-0.304
-489.493	-200.000	0.052	0.340
-488.478	495.321	-0.057	-0.129
-487.464	-37.931	-0.271	-0.143
-486.449	161.037	-0.148	0.207
-485.435	-15.988	-0.214	-0.135
-484.420	-94.259	-0.175	-0.048
-483.405	800.000	-0.054	-0.236
-482.391	0.401	-0.265	-0.189
-481.376	8.934	-0.057	0.043
-480.362	800.000	-0.095	-0.360
-479.347	-59.049	0.188	0.081
-478.332	800.000	-0.052	-0.215
-477.318	-200.000	0.040	-0.177
-476.303	-4.647	-0.434	-0.298
-475.289	123.315	-0.053	0.066
-474.274	-166.059	-0.450	-0.019
-473.259	441.582	0.054	0.117
-472.245	-95.893	0.083	0.022
-471.230	599.091	0.033	-0.082
-470.216	-53.708	-0.112	-0.051
-469.201	-18.685	0.100	-0.062
-468.186	53.608	-0.298	-0.284
-467.172	219.509	-0.095	0.151
-466.157	36.113	0.116	0.102
-465.143	54.474	-0.125	-0.120
-464.128	256.854	-0.027	0.046
-463.113	391.436	-0.049	-0.102
-462.099	-54.379	-0.291	0.131
-461.084	268.900	-0.145	0.253
-460.070	233.877	0.103	0.169
-459.055	29.644	-0.272	-0.230
-458.040	-70.616	-0.301	-0.113
-457.026	800.000	-0.056	0.232
-456.011	-200.000	-0.003	0.037
-454.997	-9.372	0.056	0.037
-453.982	-181.870	0.302	0.006
-452.968	-83.077	-0.190	-0.061
-451.953	-145.668	0.141	0.013
-450.938	-179.030	-0.304	0.007
-449.924	-19.485	0.207	0.127
-448.909	-27.153	0.243	-0.141
-447.895	-200.000	0.051	-0.244
-446.880	-113.831	0.244	0.047
-445.865	-8.227	-0.300	0.200
-444.851	534.425	-0.072	0.170
-443.836	7.765	-0.197	-0.147
-442.822	-200.000	0.073	0.337
-441.807	-102.200	0.278	-0.067
-440.792	-22.104	-0.066	-0.040
-439.778	-2.294	0.270	0.188
-438.763	-8.587	0.165	0.110
-437.749	-22.442	-0.074	0.044
-436.734	19.731	0.196	0.157
-435.719	-108.059	-0.104	-0.022
-434.705	-200.000	-0.025	-0.301
-433.690	-118.271	0.325	0.057
-432.676	-200.000	-0.048	-0.280
-431.661	42.568	-0.085	-0.077
-430.646	77.775	0.252	0.267
-429.632	800.000	-0.067	0.200
-428.617	-200.000	-0.001	-0.202
-427.603	30.244	0.103	0.088
-426.588	-200.000	0.037	-0.163
-425.573	113.831	-0.131	0.158
-424.559	-200.000	0.043	-0.212
-423.544	37.620	-0.236	-0.208
-422.530	800.000	-0.024	0.075
-421.515	-151.998	-0.052	-0.004
-420.500	-21.411	0.103	0.062
-419.486	-157.846	-0.190	-0.011
-418.471	472.083	-0.133	-0.297
-417.457	-4.359	0.178	0.122
-416.442	293.109	-0.110	0.200
-415.428	-76.078	-0.196	-0.069
-414.413	-79.093	0.047	0.016
-413.398	166.866	0.333	-0.469
-412.384	-124.038	0.189	-0.030
-411.369	-116.521	-0.059	-0.011
-410.355	-188.587	0.239	0.003
-409.340	-200.000	-0.010	-0.119
-408.325	-89.225	0.054	0.016
-407.311	342.722	-0.203	-0.395
-406.296	31.901	-0.053	0.045
-405.282	-83.994	0.118	0.037
-404.267	-25.742	-0.312	-0.183
-403.252	-88.852	0.209	-0.061
-402.238	104.895	0.116	0.136
-401.223	-56.734	-0.082	0.036
-400.209	-81.316	-0.127	-0.041
-399.194	245.385	0.177	0.295
-398.179	-200.000	-0.033	0.277
-397.165	-129.784	-0.148	-0.020
-396.150	-58.792	0.143	-0.061
-395.136	800.000	0.059	-0.253
-394.121	100.057	0.097	-0.112
-393.106	800.000	-0.075	0.235
-392.092	261.518	-0.120	0.206
-391.077	-67.448	-0.059	-0.023
-390.063	373.874	0.158	0.318
-389.048	800.000	-0.070	0.206
-388.033	800.000	0.055	0.197
-387.019	11.006	-0.275	-0.209
-386.004	-14.738	-0.187	0.119
-384.990	800.000	0.114	-0.365
-383.975	-81.149	-0.200	-0.066
-382.960	-100.768	-0.179	-0.044
-381.946	800.000	-0.025	-0.104
-380.931	15.947	-0.160	0.125
-379.917	-51.950	-0.500	0.231
-378.902	62.230	-0.111	-0.109
-377.888	-200.000	0.050	-0.302
-376.873	-120.248	0.355	0.060
-375.858	-155.748	-0.262	0.017
-374.844	213.239	-0.078	-0.123
-373.829	48.137	0.160	0.148
-372.815	52.757	-0.406	-0.384
-371.800	-200.000	-0.118	-0.519
-370.785	800.000	0.049	0.156
-369.771	419.566	0.118	-0.251
-368.756	-178.015	0.004	0.000
-367.742	800.000	-0.088	-0.341
-366.727	74.313	0.097	-0.101
-365.712	-88.962	-0.145	0.043
-364.698	-200.000	-0.017	-0.150
-363.683	-42.192	0.193	-0.098
-362.669	-5.616	0.188	-0.128
-361.654	47.105	0.075	-0.069
-360.639	-44.917	0.192	-0.095
-359.625	548.445	0.065	-0.154
-358.610	143.677	0.222	-0.293
-357.596	359.134	-0.138	0.274
-356.581	287.180	-0.099	-0.176
-355.566	-108.729	-0.272	0.058
-354.552	53.930	0.155	-0.147
-353.537	-200.000	0.062	-0.292
-352.523	-63.991	0.238	0.096
-351.508	-44.087	-0.131	-0.065
-350.493	151.198	-0.120	-0.162
-349.479	-95.126	0.209	-0.056
-348.464	30.558	-0.025	0.021
-347.450	56.016	0.199	-0.191
-346.435	34.443	-0.162	0.140
-345.420	-200.000	-0.052	-0.226
-344.406	-152.068	-0.141	-0.010
-343.391	41.575	0.188	-0.169
-342.377	136.476	-0.053	-0.068
-341.362	-115.738	-0.485	0.090
-340.348	-200.000	-0.043	-0.311
-339.333	11.814	0.184	-0.140
-338.318	241.045	0.224	0.370
-337.304	-17.247	-0.378	0.236
-336.289	-200.000	0.003	0.157
-335.275	399.874	-0.162	0.336
-334.260	433.142	-0.140	0.302
-333.245	134.891	0.224	0.288
-332.231	247.371	-0.149	0.248
-331.216	-200.000	-0.071	0.365
-330.202	-200.000	-0.015	-0.116
-329.187	-70.194	-0.222	0.083
-328.172	-133.089	0.111	0.014
-327.158	-200.000	-0.062	0.346
-326.143	37.215	0.145	0.127
-325.129	465.533	0.070	0.154
-324.114	67.212	0.121	0.122
-323.099	-74.178	0.066	-0.024
-322.085	355.790	0.128	-0.251
-321.070	-103.828	0.097	-0.022
-320.056	-151.093	-0.103	0.008
-319.041	-200.000	-0.030	-0.137
-318.026	280.576	-0.073	-0.129
-317.012	-42.779	-0.195	-0.098
-315.997	-89.852	0.133	0.038
-314.983	121.138	0.231	0.284
-313.968	-82.131	0.163	0.053
-312.953	-200.000	-0.015	0.165
-311.939	326.654	-0.103	-0.195
-310.924	76.072	0.120	-0.126
-309.910	-200.000	0.047	0.293
-308.895	-1.763	0.103	-0.072
-307.880	71.386	-0.217	-0.222
-306.866	-46.795	0.046	0.022
-305.851	-120.275	-0.118	0.020
-304.837	-200.000	0.009	0.305
-303.822	330.367	0.100	0.191
-302.807	442.215	-0.073	-0.158
-301.793	-98.461	-0.299	0.076
-300.778	59.541	0.166	-0.161
-299.764	-154.477	-0.309	0.020
-298.749	-107.131	-0.221	-0.048
-297.735	260.374	-0.135	0.231
-296.720	800.000	-0.037	0.132
-295.705	306.285	-0.143	0.263
-294.691	54.427	-0.062	-0.059
-293.676	-115.540	0.611	0.114
-292.662	-200.000	-0.055	0.272
-291.647	69.272	0.236	-0.239
-290.632	284.033	-0.175	-0.311
-289.618	-200.000	0.058	-0.295
-288.603	-91.468	-0.209	-0.059
-287.589	-52.314	-0.288	-0.132
-286.574	216.822	-0.033	0.052
-285.559	9.732	-0.132	-0.099
-284.545	-105.657	-0.094	-0.021
-283.530	-200.000	0.015	0.132
-282.516	-136.317	0.292	0.034
-281.501	48.940	-0.063	0.058
-280.486	77.426	0.130	-0.137
-279.472	-200.000	0.004	-0.242
-278.457	224.530	-0.170	-0.271
-277.443	205.767	0.055	-0.085
-276.428	381.777	-0.083	-0.169
-275.413	800.000	0.019	0.069
-274.399	800.000	-0.067	-0.215
-273.384	-50.442	0.143	0.066
-272.370	263.253	0.097	-0.166
-271.355	-200.000	-0.037	0.174
-270.340	360.038	0.100	0.198
-269.326	22.553	-0.283	0.228
-268.311	-132.369	-0.071	-0.009
-267.297	-107.375	-0.369	-0.080
-266.282	-182.565	0.034	-0.001
-265.267	1.305	0.094	-0.067
-264.253	-200.000	0.034	-0.293
-263.238	193.042	0.034	-0.051
-262.224	-103.952	-0.179	-0.041
-261.209	-17.772	-0.067	0.041
-260.195	14.055	0.044	-0.034
-259.180	-195.676	0.174	-0.001
-258.165	-147.669	0.301	-0.025
-257.151	-200.000	0.025	0.152
-256.136	-41.918	-0.135	-0.068
-255.122	-108.171	0.183	0.039
-254.107	-80.643	0.248	0.081
-253.092	210.246	-0.142	0.220
-252.078	-200.000	-0.003	0.363
-251.063	800.000	-0.012	-0.034
-250.049	609.307	0.016	0.040
-249.034	-120.756	-0.313	0.052
-248.019	-72.158	-0.099	0.036
-247.005	-71.348	-0.216	0.080
-245.990	-200.000	0.039	0.204
-244.976	-128.932	-0.274	0.038
-243.961	64.939	-0.072	-0.071
-242.946	32.255	0.207	-0.176
-241.932	154.983	0.041	0.055
-240.917	-9.145	0.174	0.115
-239.903	-40.518	0.150	0.077
-238.888	-158.134	0.359	0.021
-237.873	-200.000	0.021	-0.093
-236.859	33.364	0.223	-0.191
-235.844	-109.910	0.247	0.051
-234.830	633.608	-0.181	0.453
-233.815	-200.000	-0.003	0.367
-232.800	-147.242	0.130	0.011
-231.786	-70.665	0.178	0.066
-230.771	135.705	-0.215	-0.276
-229.757	239.855	0.018	-0.029
-228.742	-3.801	-0.130	0.089
-227.727	-73.424	-0.353	-0.127
-226.713	-158.375	-0.252	-0.014
-225.698	-16.906	-0.084	-0.052
-224.684	-44.334	0.120	0.059
-223.669	242.161	0.166	0.274
-222.655	-53.364	0.101	-0.045
-221.640	-183.919	-0.231	0.004
-220.625	105.761	0.240	0.280
-219.611	-67.629	0.166	-0.064
-218.596	-125.606	-0.106	0.016
-217.582	800.000	0.048	-0.201
-216.567	211.091	-0.075	-0.116
-215.552	800.000	0.069	-0.286
-214.538	-200.000	0.004	-0.071
-213.523	0.383	-0.267	0.188
-212.509	-200.000	-0.021	-0.158
-211.494	130.625	0.163	0.206
-210.479	-200.000	-0.027	0.271
-209.465	283.351	-0.139	-0.246
-208.450	800.000	0.034	-0.112
-207.436	-120.203	0.144	0.024
-206.421	102.405	-0.031	-0.036
-205.406	65.956	-0.152	0.151
-204.392	-200.000	0.047	-0.296
-203.377	42.715	0.054	0.049
-202.363	6.906	0.219	0.161
-201.348	-34.701	-0.463	-0.249
-200.333	-200.000	0.103	-0.566
-199.319	49.452	0.114	-0.106
-198.304	28.944	0.076	-0.064
-197.290	-36.748	-0.162	0.085
-196.275	800.000	0.015	0.061
-195.260	-63.736	-0.426	-0.172
-194.246	-13.289	-0.325	0.208
-193.231	142.700	0.260	-0.340
-192.217	452.806	0.116	0.253
-191.202	-97.182	-0.169	0.043
-190.187	-69.747	0.220	-0.083
-189.173	-74.148	-0.100	0.036
-188.158	-93.638	-0.267	-0.072
-187.144	48.307	0.109	0.100
-186.129	-37.374	-0.286	-0.151
-185.114	122.752	-0.154	-0.190
-184.100	-141.282	0.384	0.038
-183.085	800.000	-0.117	0.463
-182.071	800.000	0.079	0.311
-181.056	-9.383	0.221	-0.145
-180.042	291.226	-0.073	0.130
-179.027	413.653	-0.009	-0.019
-178.012	-132.966	-0.168	-0.021
-176.998	518.380	-0.093	-0.213
-175.983	-68.493	0.398	-0.152
-174.969	-200.000	0.004	0.287
-173.954	86.926	0.114	0.124
-172.939	-96.718	0.100	0.026
-171.925	-77.443	-0.139	0.047
-170.910	277.046	0.241	0.421
-169.896	-200.000	-0.025	0.208
-168.881	241.537	-0.272	0.447
-167.866	301.098	0.098	0.179
-166.852	4.951	0.044	-0.032
-165.837	57.975	-0.155	-0.149
-164.823	-200.000	-0.026	-0.138
-163.808	88.093	0.147	-0.161
-162.793	800.000	0.156	0.462
-161.779	91.407	0.073	0.080
-160.764	-124.080	0.324	-0.050
-159.750	-200.000	-0.018	0.182
-158.735	-33.399	0.215	0.117
-157.720	91.149	-0.246	0.271
-156.706	-200.000	-0.009	-0.044
-155.691	676.592	0.034	0.087
-154.677	-124.867	-0.193	0.029
-153.662	69.384	0.146	0.147
-152.647	23.677	-0.296	0.239
-151.633	339.037	-0.108	0.206
-150.618	516.849	-0.086	-0.198
-149.604	-63.850	-0.229	-0.092
-148.589	344.773	0.088	-0.169
-147.574	-145.759	-0.250	-0.022
-146.560	482.334	0.144	-0.321
-145.545	-143.374	0.170	0.016
-144.531	-88.570	0.240	0.070
-143.516	489.116	-0.153	-0.343
-142.502	-200.000	-0.033	0.237
-141.487	175.807	-0.070	0.100
-140.472	-200.000	-0.009	-0.203
-139.458	55.340	-0.208	-0.198
-138.443	349.276	-0.103	0.201
-137.429	99.313	0.236	0.268
-136.414	0.330	-0.290	0.203
-135.399	180.405	0.021	-0.030
-134.385	135.846	0.154	0.197
-133.370	-97.350	-0.316	-0.081
-132.356	800.000	0.022	-0.083
-131.341	351.985	-0.065	0.127
-130.326	-200.000	-0.046	0.207
-129.312	-200.000	0.023	-0.273
-128.297	-5.803	0.189	-0.127
-127.283	57.239	-0.236	-0.226
-126.268	-200.000	-0.037	0.305
-125.253	172.183	0.174	0.246
-124.239	14.816	0.091	0.070
-123.224	-200.000	0.025	-0.182
-122.210	55.869	0.247	-0.235
-121.195	-126.939	0.222	-0.032
