DTS Sentinel unit serial number:	SN413079Multiplexer serial number:	ORYXHardware model number:	OX4-SRSoftware version number:	ORYX F/W v4.00 Oryx Data Collector v3.7.2.0data status	okinstallation	princeton_trtdifferential loss correction	single-endedforward channel	channel 1reverse channel	N/Adate	2019/09/17time	11:18:35forward acquisition time	60.00reverse acquisition time	0.00gamma	496.2192k internal	0.2323k external	0.2323temperature offset calibration	0.9965default loss term (dB/km)	0.3790temperature slope calibration	1.0000multiplexer offset coefficient	1.0000multiplexer slope coefficient	1.0000fibre end	0.00T internal ref (°C)	30.52T ext. ref 1 (°C)	0.29T ext. ref 2 (°C)	26.29length (m)	temperature (°C)	Stokes	anti-Stokes-747.200	186.502	0.202	0.303
-746.185	374.294	0.172	0.353
-745.171	-200.000	-0.014	0.377
-744.156	-200.000	0.017	0.097
-743.142	197.181	0.151	0.233
-742.127	175.624	-0.159	-0.233
-741.112	-85.540	-0.130	-0.041
-740.098	237.551	0.266	0.446
-739.083	-200.000	0.041	0.197
-738.069	184.758	-0.084	0.126
-737.054	-200.000	-0.073	0.328
-736.039	-12.041	-0.174	-0.115
-735.025	119.561	0.021	-0.026
-734.010	800.000	-0.132	-0.377
-732.996	243.677	-0.305	-0.516
-731.981	-56.018	0.470	0.211
-730.966	280.702	-0.052	-0.094
-729.952	195.499	-0.168	-0.257
-728.937	-200.000	0.023	-0.228
-727.923	303.798	-0.142	-0.266
-726.908	-89.294	0.373	0.111
-725.894	-44.916	-0.416	0.209
-724.879	-64.482	0.216	0.089
-723.864	419.189	0.119	-0.258
-722.850	-149.508	0.244	0.020
-721.835	-93.046	-0.325	0.091
-720.821	56.555	0.100	-0.098
-719.806	725.447	-0.071	-0.190
-718.791	11.596	-0.212	-0.164
-717.777	800.000	0.058	-0.204
-716.762	-140.526	-0.324	0.034
-715.748	-200.000	0.008	-0.189
-714.733	-126.555	-0.265	0.040
-713.718	30.621	-0.145	-0.125
-712.704	14.449	-0.111	0.087
-711.689	-142.801	-0.476	-0.047
-710.675	-46.985	-0.160	-0.079
-709.660	17.945	-0.286	0.229
-708.645	800.000	0.058	-0.221
-707.631	-50.176	0.225	-0.107
-706.616	192.299	0.021	-0.032
-705.602	-101.966	-0.176	-0.043
-704.587	800.000	-0.088	-0.250
-703.572	-7.668	0.229	-0.156
-702.558	800.000	-0.193	-0.602
-701.543	-90.262	-0.060	0.018
-700.529	-59.698	-0.122	0.053
-699.514	800.000	0.071	-0.253
-698.499	-63.452	-0.164	-0.068
-697.485	-138.456	-0.161	0.018
-696.470	-200.000	-0.021	-0.172
-695.456	81.142	0.088	-0.096
-694.441	800.000	0.038	-0.126
-693.426	800.000	-0.123	0.353
-692.412	488.093	0.041	-0.094
-691.397	-200.000	-0.059	-0.440
-690.383	146.677	0.186	-0.252
-689.368	56.337	-0.176	0.172
-688.354	-103.372	-0.360	0.086
-687.339	40.663	-0.147	0.133
-686.324	-78.912	0.049	-0.017
-685.310	-17.256	-0.223	0.142
-684.295	-49.411	-0.149	0.072
-683.281	-100.505	-0.203	0.051
-682.266	118.152	-0.179	0.222
-681.251	249.835	-0.059	0.100
-680.237	-5.191	-0.356	-0.246
-679.222	791.207	-0.058	0.162
-678.208	-128.522	-0.368	0.053
-677.193	-143.832	0.278	0.026
-676.178	338.502	-0.013	-0.026
-675.164	337.832	0.086	0.169
-674.149	410.834	0.174	-0.371
-673.135	-54.718	-0.176	0.080
-672.120	-200.000	0.010	-0.264
-671.105	-138.855	-0.008	-0.001
-670.091	-68.314	0.056	-0.022
-669.076	499.793	-0.128	-0.297
-668.062	47.005	0.069	-0.065
-667.047	783.872	0.061	-0.169
-666.032	-30.121	-0.159	-0.091
-665.018	36.300	-0.211	0.187
-664.003	701.185	0.130	-0.345
-662.989	80.197	-0.192	0.208
-661.974	-148.887	-0.264	0.021
-660.959	356.772	-0.093	0.186
-659.945	53.799	0.033	-0.032
-658.930	51.843	0.101	-0.097
-657.916	-91.450	0.196	0.056
-656.901	-200.000	-0.020	0.216
-655.886	-200.000	0.004	0.090
-654.872	-36.442	0.141	0.077
-653.857	-4.060	-0.139	0.097
-652.843	-130.132	-0.313	-0.043
-651.828	27.887	0.136	-0.115
-650.814	17.263	0.122	0.097
-649.799	-74.933	-0.068	-0.025
-648.784	356.328	0.044	0.088
-647.770	162.304	0.175	0.246
-646.755	-161.742	-0.588	-0.030
-645.741	-134.005	0.164	-0.020
-644.726	-200.000	0.038	-0.301
-643.711	-120.259	-0.214	-0.037
-642.697	-129.294	0.300	-0.042
-641.682	21.594	-0.080	-0.065
-640.668	86.229	-0.045	0.050
-639.653	265.909	0.159	-0.279
-638.638	728.507	0.125	0.335
-637.624	746.699	-0.088	0.239
-636.609	73.391	0.295	-0.311
-635.595	-114.252	0.193	0.037
-634.580	-200.000	-0.022	-0.189
-633.565	70.551	-0.095	0.098
-632.551	-104.966	0.070	0.016
-631.536	-124.947	-0.147	0.023
-630.522	-19.069	0.290	0.181
-629.507	800.000	0.073	0.280
-628.492	105.986	0.069	-0.082
-627.478	456.997	-0.077	0.172
-626.463	-137.656	-0.330	0.037
-625.449	258.931	-0.155	0.268
-624.434	-52.580	-0.259	0.120
-623.419	-200.000	0.000	-0.234
-622.405	-200.000	0.011	0.230
-621.390	60.468	0.136	-0.136
-620.376	-76.946	-0.195	-0.068
-619.361	647.287	0.014	0.036
-618.346	-74.300	0.190	0.069
-617.332	-200.000	-0.020	0.118
-616.317	-60.396	-0.228	-0.097
-615.303	783.713	0.060	-0.165
-614.288	800.000	0.053	-0.182
-613.273	259.949	0.050	0.086
-612.259	-200.000	-0.021	0.191
-611.244	-167.964	-0.410	-0.016
-610.230	34.846	0.188	-0.166
-609.215	126.117	0.263	-0.334
-608.201	194.136	0.076	-0.115
-607.186	-85.839	0.259	-0.080
-606.171	-35.666	0.173	-0.094
-605.157	122.618	0.175	-0.220
-604.142	-200.000	-0.077	-0.394
-603.128	245.135	-0.082	-0.139
-602.113	23.105	0.222	-0.183
-601.098	-28.481	0.036	-0.021
-600.084	54.274	-0.133	-0.128
-599.069	-62.160	-0.359	-0.150
-598.055	-200.000	-0.020	-0.165
-597.040	-123.244	-0.073	-0.012
-596.025	-148.233	-0.402	-0.033
-595.011	388.463	-0.056	0.116
-593.996	-55.016	-0.281	0.127
-592.982	-17.523	-0.128	-0.081
-591.967	800.000	0.086	-0.283
-590.952	-125.578	-0.207	0.032
-589.938	800.000	-0.174	0.500
-588.923	566.344	0.119	-0.289
-587.909	17.869	-0.230	0.184
-586.894	-78.995	-0.145	-0.049
-585.879	800.000	-0.022	0.078
-584.865	28.466	0.215	0.182
-583.850	392.246	0.142	0.296
-582.836	-81.160	0.199	0.066
-581.821	-200.000	0.007	0.074
-580.806	-90.118	-0.020	0.006
-579.792	-175.731	-0.072	0.002
-578.777	800.000	-0.060	0.216
-577.763	-200.000	0.006	0.202
-576.748	42.394	-0.267	0.243
-575.733	-200.000	-0.019	-0.209
-574.719	-110.073	-0.033	-0.007
-573.704	-168.867	-0.308	0.012
-572.690	-118.698	-0.371	-0.066
-571.675	800.000	-0.042	0.125
-570.661	153.839	0.160	-0.220
-569.646	800.000	0.038	-0.131
-568.631	-87.773	-0.139	-0.042
-567.617	800.000	0.032	-0.114
-566.602	-200.000	0.008	0.064
-565.588	-200.000	0.033	-0.214
-564.573	437.163	-0.033	-0.071
-563.558	359.321	-0.109	-0.219
-562.544	-200.000	-0.009	-0.213
-561.529	159.152	0.263	0.367
-560.515	800.000	0.044	0.148
-559.500	-129.226	-0.072	-0.010
-558.485	-200.000	0.005	0.110
-557.471	176.179	-0.110	-0.160
-556.456	-113.855	-0.177	-0.035
-555.442	194.519	-0.066	-0.100
-554.427	-60.506	0.139	0.059
-553.412	-124.540	-0.101	-0.016
-552.398	-17.389	-0.158	0.100
-551.383	-200.000	0.024	-0.141
-550.369	41.916	-0.184	0.167
-549.354	181.932	-0.125	0.185
-548.339	92.241	0.183	0.207
-547.325	192.373	-0.111	0.168
-546.310	-175.419	-0.312	0.009
-545.296	273.248	0.082	-0.145
-544.281	-68.754	0.406	0.157
-543.266	-200.000	0.022	0.336
-542.252	-63.762	-0.093	-0.038
-541.237	-15.608	-0.199	0.127
-540.223	-36.087	-0.119	-0.064
-539.208	262.152	0.042	0.073
-538.193	-5.055	-0.258	0.178
-537.179	-101.366	-0.332	0.081
-536.164	-122.459	-0.145	0.024
-535.150	-55.672	0.050	0.023
-534.135	-123.335	0.122	0.020
-533.121	800.000	-0.045	-0.152
-532.106	-90.657	0.438	0.127
-531.091	-200.000	0.098	0.441
-530.077	114.194	-0.256	-0.312
-529.062	-7.091	-0.154	-0.105
-528.048	103.448	0.101	0.118
-527.033	742.206	0.068	-0.183
-526.018	482.358	0.153	-0.349
-525.004	-43.098	0.186	0.095
-523.989	-200.000	-0.030	-0.135
-522.975	59.607	0.051	0.051
-521.960	96.306	0.113	0.129
-520.945	-200.000	-0.031	-0.533
-519.931	800.000	-0.097	-0.299
-518.916	-188.882	0.255	-0.003
-517.902	-75.821	0.492	0.175
-516.887	584.765	-0.084	0.207
-515.872	-85.440	-0.235	0.073
-514.858	233.899	-0.052	0.086
-513.843	564.759	-0.071	0.172
-512.829	800.000	0.058	0.236
-511.814	-143.381	0.277	-0.027
-510.799	-81.481	0.121	-0.040
-509.785	-200.000	-0.023	-0.183
-508.770	-52.341	0.228	0.106
-507.756	-170.676	-0.346	-0.012
-506.741	-173.253	-0.074	0.002
-505.726	432.326	-0.119	0.257
-504.712	40.799	0.147	0.132
-503.697	-200.000	0.036	-0.174
-502.683	-47.272	-0.215	-0.105
-501.668	29.493	-0.144	-0.122
-500.653	-45.770	0.160	0.079
-499.639	321.895	0.033	-0.063
-498.624	-84.447	-0.293	0.092
-497.610	800.000	0.032	0.121
-496.595	119.085	0.123	0.152
-495.581	-190.723	0.076	0.001
-494.566	241.260	-0.092	0.154
-493.551	800.000	-0.052	-0.187
-492.537	-125.762	0.335	0.051
-491.522	800.000	0.038	0.119
-490.508	63.209	0.380	-0.380
-489.493	133.091	-0.077	0.099
-488.478	-110.005	-0.383	0.080
-487.464	-200.000	0.048	-0.386
-486.449	800.000	0.032	-0.099
-485.435	-9.827	0.236	0.157
-484.420	70.838	-0.150	0.155
-483.405	-11.665	-0.206	0.135
-482.391	800.000	0.047	0.204
-481.376	-60.966	0.150	0.063
-480.362	173.930	-0.118	-0.171
-479.347	-200.000	0.039	-0.200
-478.332	-74.915	0.121	0.043
-477.318	-43.650	-0.187	0.094
-476.303	-10.181	0.198	0.132
-475.289	620.415	0.068	0.171
-474.274	561.155	0.076	-0.184
-473.259	58.521	-0.244	0.239
-472.245	-200.000	-0.010	0.197
-471.230	-37.723	-0.151	0.080
-470.216	-131.762	-0.223	-0.029
-469.201	14.969	0.038	0.030
-468.186	800.000	0.118	0.421
-467.172	-200.000	-0.026	-0.124
-466.157	196.991	0.201	-0.306
-465.143	-200.000	-0.035	0.192
-464.128	-148.820	-0.243	0.020
-463.113	-32.821	-0.096	-0.053
-462.099	-189.317	0.112	-0.001
-461.084	-200.000	0.041	-0.184
-460.070	104.949	0.257	-0.302
-459.055	-109.579	0.148	0.031
-458.040	-5.705	0.155	0.106
-457.026	9.414	-0.150	-0.113
-456.011	-200.000	-0.013	0.093
-454.997	-200.000	0.034	0.193
-453.982	-49.851	0.044	0.021
-452.968	27.079	-0.116	-0.097
-451.953	-192.398	0.362	-0.003
-450.938	-200.000	0.056	0.251
-449.924	-200.000	-0.063	0.318
-448.909	354.526	-0.051	-0.101
-447.895	-94.358	-0.141	-0.038
-446.880	-89.526	0.096	0.028
-445.865	-115.460	0.047	-0.009
-444.851	-65.403	-0.173	-0.069
-443.836	-5.474	-0.192	-0.132
-442.822	9.184	-0.107	-0.080
-441.807	-51.620	0.110	0.051
-440.792	800.000	-0.034	0.116
-439.778	61.780	0.056	0.055
-438.763	800.000	-0.065	0.244
-437.749	30.101	-0.194	0.165
-436.734	-170.725	-0.412	0.014
-435.719	-72.013	0.201	-0.074
-434.705	-200.000	0.040	-0.201
-433.690	-129.166	-0.314	0.044
-432.676	-200.000	0.013	-0.141
-431.661	-200.000	-0.021	-0.124
-430.646	260.086	0.084	0.144
-429.632	-12.175	-0.078	0.051
-428.617	720.272	-0.124	0.328
-427.603	-200.000	0.019	-0.319
-426.588	-17.806	-0.103	-0.064
-425.573	-48.287	-0.066	-0.032
-424.559	800.000	-0.084	-0.302
-423.544	-25.554	0.196	-0.116
-422.530	-81.743	-0.138	0.045
-421.515	780.462	0.042	0.114
-420.500	-137.020	0.182	0.021
-419.486	-125.685	-0.108	-0.016
-418.471	-200.000	0.005	0.183
-417.457	0.492	-0.112	0.080
-416.442	-200.000	0.012	-0.229
-415.428	692.881	0.170	-0.445
-414.413	129.114	0.106	0.135
-413.398	154.695	0.215	0.294
-412.384	215.900	0.070	0.111
-411.369	-120.887	0.121	-0.020
-410.355	97.280	-0.357	0.409
-409.340	-4.962	-0.133	-0.091
-408.325	42.749	0.315	0.286
-407.311	232.221	-0.099	-0.162
-406.296	-116.527	-0.111	0.020
-405.282	52.107	-0.100	-0.095
-404.267	-22.999	-0.244	-0.146
-403.252	126.452	-0.071	-0.089
-402.238	-62.365	0.254	-0.105
-401.223	-169.030	-0.267	-0.010
-400.209	-200.000	0.001	0.036
-399.194	800.000	-0.069	0.269
-398.179	-56.029	-0.205	-0.091
-397.165	46.415	-0.122	0.113
-396.150	188.466	0.229	-0.340
-395.136	-200.000	0.029	-0.308
-394.121	-50.807	-0.309	-0.145
-393.106	-200.000	0.065	0.305
-392.092	-17.778	0.111	0.069
-391.077	-28.356	-0.269	-0.155
-390.063	-200.000	0.073	0.599
-389.048	-200.000	-0.043	0.270
-388.033	-200.000	-0.062	0.373
-387.019	-53.556	-0.409	-0.186
-386.004	-34.038	0.082	0.045
-384.990	800.000	0.105	-0.377
-383.975	61.011	0.058	0.057
-382.960	13.404	0.199	-0.154
-381.946	800.000	0.070	-0.197
-380.931	63.007	-0.132	-0.132
-379.917	800.000	0.069	-0.265
-378.902	-137.001	0.377	0.043
-377.888	-33.831	-0.205	-0.113
-376.873	800.000	0.043	0.134
-375.858	800.000	0.112	0.466
-374.844	-32.513	-0.205	-0.114
-373.829	57.682	-0.220	0.214
-372.815	22.148	-0.233	0.190
-371.800	-62.989	-0.131	-0.054
-370.785	-200.000	0.017	0.142
-369.771	211.511	-0.106	0.166
-368.756	230.127	0.064	-0.104
-367.742	-107.664	0.116	0.025
-366.727	-200.000	-0.008	-0.054
-365.712	-107.507	-0.287	-0.062
-364.698	313.263	0.155	-0.290
-363.683	-63.576	0.397	0.162
-362.669	-72.100	0.095	0.035
-361.654	-97.784	-0.218	-0.056
-360.639	-200.000	0.028	0.221
-359.625	-200.000	-0.106	0.489
-358.610	-56.829	0.173	-0.076
-357.596	-119.118	-0.153	0.027
-356.581	-37.485	-0.091	0.048
-355.566	-35.390	-0.254	-0.137
-354.552	11.448	-0.118	0.090
-353.537	-57.029	0.269	0.118
-352.523	800.000	0.115	0.345
-351.508	-200.000	0.014	-0.139
-350.493	800.000	0.076	-0.210
-349.479	283.307	0.182	-0.326
-348.464	12.871	-0.198	-0.152
-347.450	564.049	0.019	-0.047
-346.435	-189.893	0.157	-0.002
-345.420	189.592	-0.073	-0.108
-344.406	535.734	0.030	-0.071
-343.391	-19.135	-0.167	0.103
-342.377	-200.000	-0.061	-0.286
-341.362	-134.813	-0.049	-0.006
-340.348	-200.000	-0.003	0.090
-339.333	-183.384	-0.081	0.001
-338.318	182.343	-0.082	0.121
-337.304	709.536	0.153	-0.401
-336.289	2.918	0.039	0.028
-335.275	409.801	-0.158	0.332
-334.260	20.093	-0.105	0.084
-333.245	-200.000	-0.016	-0.245
-332.231	508.891	-0.096	0.221
-331.216	-4.091	0.096	0.066
-330.202	-134.883	-0.236	-0.028
-329.187	-162.106	0.159	0.008
-328.172	-122.813	-0.185	-0.030
-327.158	-200.000	0.037	-0.167
-326.143	-150.623	-0.171	0.013
-325.129	141.920	0.129	-0.170
-324.114	37.961	-0.152	-0.135
-323.099	2.048	-0.150	0.108
-322.085	-67.014	-0.424	-0.166
-321.070	-96.835	0.130	-0.034
-320.056	-127.999	0.023	-0.003
-319.041	-39.978	0.295	-0.153
-318.026	550.263	-0.062	-0.149
-317.012	-35.115	0.060	-0.032
-315.997	198.042	0.203	-0.308
-314.983	-200.000	0.064	-0.348
-313.968	-200.000	-0.046	-0.306
-312.953	-77.441	-0.177	-0.061
-311.939	59.343	0.043	0.042
-310.924	-133.683	-0.318	0.039
-309.910	14.706	0.320	-0.248
-308.895	-200.000	0.000	0.174
-307.880	120.196	-0.185	0.228
-306.866	-78.528	-0.089	-0.030
-305.851	-200.000	0.065	-0.308
-304.837	1.713	0.207	-0.148
-303.822	131.773	-0.038	0.048
-302.807	552.653	0.160	-0.382
-301.793	-23.840	0.057	-0.034
-300.778	186.332	0.116	-0.171
-299.764	-164.158	0.406	0.019
-298.749	800.000	0.060	0.255
-297.735	6.443	0.179	0.132
-296.720	695.356	0.025	0.064
-295.705	800.000	0.068	-0.237
-294.691	-159.749	0.238	0.013
-293.676	-103.297	0.173	0.041
-292.662	502.615	-0.028	-0.063
-291.647	-116.995	0.293	-0.053
-290.632	678.955	0.046	-0.118
-289.618	-200.000	-0.056	0.252
-288.603	-200.000	-0.018	-0.863
-287.589	147.779	-0.358	0.479
-286.574	-41.774	0.172	0.087
-285.559	-200.000	-0.044	0.278
-284.545	-132.795	0.173	0.022
-283.530	480.483	-0.155	-0.349
-282.516	-159.247	0.137	-0.008
-281.501	800.000	-0.009	-0.031
-280.486	49.321	0.131	-0.123
-279.472	-200.000	0.015	-0.178
-278.457	-200.000	0.052	-0.485
-277.443	-42.098	-0.068	0.034
-276.428	-200.000	-0.037	-0.368
-275.413	-49.379	0.141	0.067
-274.399	800.000	0.096	-0.271
-273.384	31.319	0.205	-0.174
-272.370	-178.068	-0.098	0.002
-271.355	-200.000	0.070	-0.000
-270.340	151.069	0.064	-0.086
-269.326	-84.310	-0.165	-0.052
-268.311	6.965	0.186	0.137
-267.297	-105.795	0.048	-0.011
-266.282	-200.000	-0.031	0.305
-265.267	-51.865	0.302	-0.139
-264.253	-36.393	-0.376	-0.201
-263.238	-64.263	0.212	-0.086
-262.224	-200.000	-0.005	0.171
-261.209	44.887	0.107	0.098
-260.195	-200.000	0.035	0.172
-259.180	-9.501	0.148	0.098
-258.165	800.000	0.078	-0.304
-257.151	-37.873	0.206	-0.108
-256.136	-69.496	0.179	-0.068
-255.122	-56.855	0.218	-0.096
-254.107	292.322	-0.013	0.024
-253.092	237.036	0.099	-0.162
-252.078	-119.649	-0.164	-0.028
-251.063	71.021	0.116	0.119
-250.049	-118.363	0.164	-0.029
-249.034	-134.889	0.089	-0.011
-248.019	25.659	-0.141	0.116
-247.005	-200.000	-0.028	0.315
-245.990	-162.674	-0.252	0.012
-244.976	-200.000	0.040	0.239
-243.961	20.912	-0.084	-0.067
-242.946	-200.000	0.002	-0.033
-241.932	-200.000	0.098	0.492
-240.917	-200.000	0.007	-0.172
-239.903	123.638	-0.384	0.477
-238.888	28.910	-0.200	0.168
-237.873	800.000	-0.031	-0.096
-236.859	228.149	0.256	0.413
-235.844	800.000	0.047	0.131
-234.830	143.356	0.033	0.044
-233.815	-172.168	-0.119	0.004
-232.800	-98.649	-0.236	-0.060
-231.786	118.332	0.186	0.228
-230.771	35.384	-0.229	0.199
-229.757	411.328	-0.159	0.333
-228.742	351.887	0.172	0.338
-227.727	-44.484	0.303	-0.150
-226.713	-38.689	-0.291	0.152
-225.698	-7.115	-0.221	-0.148
-224.684	-90.105	0.393	0.113
-223.669	-200.000	0.030	-0.208
-222.655	-200.000	0.050	-0.298
-221.640	-200.000	-0.094	0.569
-220.625	-176.269	-0.114	-0.003
-219.611	-151.770	0.385	0.028
-218.596	585.484	0.124	-0.303
-217.582	800.000	-0.014	0.055
-216.567	-39.589	-0.015	0.008
-215.552	-105.560	-0.120	-0.027
-214.538	800.000	0.080	-0.320
-213.523	-94.250	-0.271	-0.073
-212.509	86.603	0.108	-0.118
-211.494	-166.504	0.340	0.014
-210.479	-30.243	0.077	-0.043
-209.465	-95.265	-0.126	-0.034
-208.450	-161.709	0.112	0.006
-207.436	17.762	0.238	-0.187
-206.421	-34.506	0.086	-0.047
-205.406	-33.012	0.140	0.077
-204.392	-30.499	-0.112	-0.063
-203.377	486.837	0.070	0.158
-202.363	102.521	0.182	0.211
-201.348	99.907	-0.071	0.081
-200.333	130.528	-0.097	0.122
-199.319	49.445	0.118	-0.110
-198.304	-200.000	-0.010	-0.068
-197.290	-200.000	0.030	0.363
-196.275	132.442	0.239	-0.304
-195.260	125.999	0.073	0.091
-194.246	330.094	-0.082	0.157
-193.231	-7.680	0.244	-0.163
-192.217	69.655	-0.118	0.120
-191.202	-46.344	0.166	-0.080
-190.187	-200.000	-0.051	-0.249
-189.173	41.086	0.113	-0.101
-188.158	-36.088	-0.160	0.085
-187.144	276.483	0.047	0.082
-186.129	74.310	0.322	-0.334
-185.114	209.492	0.087	-0.135
-184.100	-102.386	-0.290	-0.069
-183.085	338.718	-0.146	0.280
-182.071	-103.297	0.156	0.036
-181.056	307.536	0.045	-0.082
-180.042	-61.987	-0.357	0.148
-179.027	-56.463	-0.221	0.097
-178.012	-128.225	0.122	0.017
-176.998	-44.028	0.198	-0.098
-175.983	-200.000	0.007	0.189
-174.969	-32.977	-0.126	-0.069
-173.954	-200.000	0.004	0.145
-172.939	-139.444	0.142	0.015
-171.925	9.678	-0.085	0.063
-170.910	-13.583	0.177	-0.113
-169.896	256.417	-0.207	0.351
-168.881	272.983	0.205	-0.357
-167.866	-100.633	-0.262	0.064
-166.852	413.705	-0.116	-0.243
-165.837	-200.000	-0.029	-0.140
-164.823	65.046	0.203	0.202
-163.808	-200.000	0.033	0.141
-162.793	27.589	0.179	-0.149
-161.779	-64.443	0.218	-0.088
-160.764	800.000	0.055	0.226
-159.750	424.001	0.113	0.240
-158.735	90.822	0.132	-0.146
-157.720	47.983	-0.112	0.103
-156.706	-199.403	-0.358	0.002
-155.691	-3.584	0.146	-0.100
-154.677	-100.049	0.104	0.026
-153.662	138.155	-0.048	0.062
-152.647	-92.095	0.222	-0.062
-151.633	66.616	-0.174	-0.175
-150.618	-74.487	0.192	-0.068
-149.604	-23.280	0.071	0.042
-148.589	-150.731	-0.294	-0.022
-147.574	-200.000	-0.006	0.112
-146.560	800.000	-0.107	0.366
-145.545	-200.000	0.019	0.352
-144.531	267.360	0.021	-0.037
-143.516	442.199	0.093	0.201
-142.502	-102.374	-0.216	-0.051
-141.487	-200.000	0.000	0.009
-140.472	-173.636	0.219	0.006
-139.458	612.921	0.090	0.221
-138.443	-200.000	-0.003	-0.286
-137.429	800.000	0.045	0.181
-136.414	-87.185	0.266	-0.080
-135.399	-110.113	-0.260	0.054
-134.385	566.128	-0.178	0.425
-133.370	-200.000	0.012	-0.178
-132.356	176.383	-0.010	-0.014
-131.341	-75.480	-0.424	-0.149
-130.326	800.000	0.086	0.294
-129.312	-200.000	0.002	0.312
-128.297	-200.000	0.012	-0.202
-127.283	-100.978	0.115	-0.028
-126.268	353.954	-0.118	0.232
-125.253	19.409	0.065	-0.052
-124.239	-168.424	0.186	0.007
-123.224	386.904	-0.146	0.298
-122.210	172.734	0.252	-0.357
