DTS Sentinel unit serial number:	SN413079Multiplexer serial number:	ORYXHardware model number:	OX4-SRSoftware version number:	ORYX F/W v4.00 Oryx Data Collector v3.7.2.0data status	okinstallation	princeton_trtdifferential loss correction	single-endedforward channel	channel 1reverse channel	N/Adate	2019/09/18time	04:14:35forward acquisition time	60.00reverse acquisition time	0.00gamma	496.2192k internal	0.2339k external	0.2339temperature offset calibration	0.9977default loss term (dB/km)	0.3790temperature slope calibration	1.0000multiplexer offset coefficient	1.0000multiplexer slope coefficient	1.0000fibre end	0.00T internal ref (°C)	23.31T ext. ref 1 (°C)	0.18T ext. ref 2 (°C)	17.71length (m)	temperature (°C)	Stokes	anti-Stokes-747.200	-56.361	0.283	-0.126
-746.185	-9.504	0.314	0.210
-745.171	-33.311	-0.248	-0.138
-744.156	-99.152	-0.150	0.038
-743.142	-67.934	0.480	0.188
-742.127	239.017	-0.096	0.160
-741.112	334.378	0.060	-0.117
-740.098	-144.772	-0.302	0.028
-739.083	152.429	0.289	-0.396
-738.069	-78.602	-0.274	0.094
-737.054	115.493	-0.082	0.101
-736.039	-111.201	-0.484	-0.099
-735.025	188.679	0.165	0.248
-734.010	563.866	-0.033	0.081
-732.996	81.060	-0.132	0.143
-731.981	689.757	-0.105	0.277
-730.966	-127.165	-0.275	-0.040
-729.952	-200.000	0.041	-0.236
-728.937	611.197	-0.210	-0.526
-727.923	221.483	0.123	0.198
-726.908	-200.000	-0.002	0.181
-725.894	-119.885	0.238	-0.041
-724.879	30.589	0.061	-0.052
-723.864	-200.000	0.010	0.191
-722.850	95.629	0.129	-0.148
-721.835	-200.000	0.002	-0.271
-720.821	800.000	-0.052	-0.159
-719.806	-108.262	-0.300	-0.065
-718.791	-58.338	0.185	0.080
-717.777	47.819	-0.281	0.263
-716.762	-137.287	-0.154	-0.018
-715.748	-200.000	0.020	-0.458
-714.733	-200.000	-0.068	-0.384
-713.718	-56.427	-0.295	0.131
-712.704	-200.000	-0.046	-0.348
-711.689	800.000	-0.025	0.104
-710.675	800.000	0.057	-0.212
-709.660	684.155	-0.081	-0.213
-708.645	86.085	0.215	-0.237
-707.631	84.489	-0.338	0.370
-706.616	81.234	0.157	0.170
-705.602	38.058	-0.064	0.057
-704.587	2.089	0.037	-0.027
-703.572	18.030	-0.034	0.028
-702.558	194.480	-0.119	-0.180
-701.543	104.331	0.220	-0.260
-700.529	565.886	0.062	0.150
-699.514	-150.684	0.211	0.016
-698.499	-92.683	-0.330	-0.093
-697.485	349.693	0.140	-0.276
-696.470	-23.333	-0.062	-0.037
-695.456	-200.000	-0.052	0.329
-694.441	-9.510	-0.342	-0.228
-693.426	-64.967	0.104	-0.042
-692.412	-141.154	-0.354	0.036
-691.397	-56.228	-0.053	-0.023
-690.383	41.519	-0.209	-0.190
-689.368	168.232	0.149	0.212
-688.354	10.104	-0.055	0.042
-687.339	800.000	0.064	-0.218
-686.324	-124.667	-0.333	-0.052
-685.310	800.000	0.087	-0.310
-684.295	-7.784	0.030	-0.020
-683.281	74.147	0.208	-0.219
-682.266	5.681	-0.076	-0.056
-681.251	-187.314	-0.234	0.003
-680.237	74.191	0.275	-0.289
-679.222	174.390	0.082	-0.119
-678.208	-67.978	-0.236	-0.092
-677.193	-52.273	-0.197	0.091
-676.178	-173.370	0.319	-0.010
-675.164	800.000	-0.080	-0.244
-674.149	-193.920	-0.087	0.001
-673.135	605.236	0.108	-0.269
-672.120	26.496	0.289	0.241
-671.105	800.000	-0.075	-0.225
-670.091	316.729	-0.055	-0.104
-669.076	48.946	0.260	-0.244
-668.062	208.317	0.204	-0.319
-667.047	-200.000	-0.029	-0.215
-666.032	-38.940	-0.415	-0.218
-665.018	-83.031	0.256	-0.083
-664.003	800.000	-0.038	-0.105
-662.989	-162.056	0.040	-0.002
-661.974	-137.309	0.434	-0.049
-660.959	65.054	0.175	-0.177
-659.945	-200.000	0.024	0.310
-658.930	-200.000	0.010	-0.236
-657.916	104.913	-0.122	0.144
-656.901	800.000	-0.090	-0.340
-655.886	53.170	-0.332	-0.318
-654.872	162.699	0.145	-0.204
-653.857	170.144	-0.164	0.234
-652.843	800.000	-0.081	-0.323
-651.828	-97.886	-0.160	-0.041
-650.814	471.922	-0.079	-0.177
-649.799	-5.233	0.107	0.073
-648.784	-62.606	0.134	-0.056
-647.770	-145.612	0.204	-0.018
-646.755	57.816	-0.255	-0.249
-645.741	800.000	0.032	0.110
-644.726	-43.800	-0.005	-0.002
-643.711	90.190	0.089	0.100
-642.697	-12.480	0.203	-0.132
-641.682	65.300	0.183	-0.184
-640.668	120.041	-0.031	-0.038
-639.653	548.583	0.056	0.135
-638.638	-200.000	-0.011	0.135
-637.624	-148.004	0.188	-0.016
-636.609	-15.761	0.106	0.068
-635.595	-106.557	-0.085	-0.019
-634.580	-80.886	0.044	-0.015
-633.565	37.423	-0.245	0.217
-632.551	119.675	0.103	-0.128
-631.536	800.000	-0.151	-0.480
-630.522	-200.000	-0.008	-0.118
-629.507	-137.608	-0.405	-0.046
-628.492	445.433	0.105	-0.229
-627.478	87.686	0.118	0.131
-626.463	-134.734	0.285	0.035
-625.449	26.799	0.167	0.139
-624.434	-200.000	-0.007	0.096
-623.419	-196.256	-0.127	0.001
-622.405	307.690	0.080	0.148
-621.390	-200.000	-0.076	0.443
-620.376	-147.402	-0.533	-0.045
-619.361	800.000	0.119	-0.400
-618.346	-200.000	-0.006	-0.151
-617.332	374.684	0.027	0.055
-616.317	496.513	-0.046	-0.107
-615.303	-113.506	-0.077	-0.015
-614.288	130.076	0.188	-0.241
-613.273	-60.482	-0.046	-0.020
-612.259	-24.901	0.059	-0.035
-611.244	800.000	0.081	-0.237
-610.230	261.823	0.117	0.202
-609.215	-40.701	0.082	-0.042
-608.201	579.516	0.118	-0.288
-607.186	-37.900	-0.224	-0.119
-606.171	-200.000	0.056	0.372
-605.157	-89.920	-0.295	-0.086
-604.142	800.000	-0.055	0.193
-603.128	-26.623	-0.065	-0.038
-602.113	-121.462	-0.422	0.070
-601.098	-200.000	-0.006	0.094
-600.084	-200.000	0.015	0.069
-599.069	242.603	0.255	0.426
-598.055	-109.992	-0.439	-0.092
-597.040	-163.027	-0.425	-0.021
-596.025	800.000	0.073	-0.214
-595.011	-200.000	0.043	-0.199
-593.996	199.015	0.111	0.170
-592.982	146.317	0.191	0.256
-591.967	800.000	-0.090	-0.275
-590.952	384.120	-0.149	0.307
-589.938	-13.616	-0.116	-0.075
-588.923	-73.141	-0.114	0.042
-587.909	124.103	0.223	-0.280
-586.894	-78.697	0.342	-0.116
-585.879	-122.428	0.199	-0.032
-584.865	649.171	-0.070	-0.178
-583.850	-59.342	0.222	0.095
-582.836	31.939	-0.118	0.102
-581.821	-93.544	0.107	-0.029
-580.806	800.000	-0.074	-0.242
-579.792	453.883	0.130	0.288
-578.777	66.580	0.395	-0.400
-577.763	-150.025	-0.324	0.025
-576.748	-56.312	0.316	0.140
-575.733	74.883	0.198	-0.208
-574.719	800.000	0.037	-0.109
-573.704	89.727	0.287	0.319
-572.690	-200.000	-0.016	-0.171
-571.675	800.000	-0.027	0.106
-570.661	246.329	-0.083	-0.140
-569.646	-3.971	-0.270	-0.186
-568.631	86.798	0.115	0.127
-567.617	208.849	-0.105	0.163
-566.602	800.000	-0.063	-0.248
-565.588	-75.273	0.050	-0.018
-564.573	633.362	0.084	0.212
-563.558	127.599	-0.139	0.176
-562.544	-8.739	0.134	0.090
-561.529	437.307	0.194	-0.420
-560.515	181.263	-0.108	0.158
-559.500	61.823	-0.107	0.106
-558.485	83.121	-0.249	0.270
-557.471	-200.000	0.163	-0.000
-556.456	-200.000	-0.009	-0.116
-555.442	146.735	-0.160	-0.214
-554.427	33.604	0.121	0.105
-553.412	-63.377	-0.226	0.093
-552.398	-136.910	0.113	0.013
-551.383	-87.253	0.344	0.104
-550.369	-200.000	-0.052	0.273
-549.354	164.176	-0.158	0.222
-548.339	-119.328	0.305	0.053
-547.325	-200.000	0.004	-0.055
-546.310	21.910	0.222	-0.180
-545.296	-147.389	-0.333	0.028
-544.281	-17.249	0.143	0.090
-543.266	43.629	-0.217	0.197
-542.252	800.000	-0.077	0.228
-541.237	3.251	-0.291	-0.211
-540.223	-170.793	-0.256	0.009
-539.208	67.459	-0.172	0.175
-538.193	66.582	-0.333	-0.337
-537.179	755.076	0.096	-0.258
-536.164	237.660	0.230	-0.379
-535.150	-200.000	0.208	0.001
-534.135	125.574	-0.095	0.119
-533.121	-200.000	-0.012	0.160
-532.106	-173.243	-0.122	0.004
-531.091	43.094	0.167	-0.152
-530.077	56.594	0.085	0.083
-529.062	-76.444	-0.443	0.155
-528.048	112.163	-0.177	-0.212
-527.033	281.577	-0.038	0.068
-526.018	11.810	-0.120	-0.092
-525.004	-117.531	-0.110	-0.020
-523.989	-94.300	0.198	0.054
-522.975	80.721	-0.281	0.301
-521.960	5.146	0.120	0.088
-520.945	-91.602	0.063	0.018
-519.931	-78.535	-0.227	-0.077
-518.916	-3.478	-0.230	0.159
-517.902	800.000	-0.061	-0.186
-516.887	-200.000	0.019	-0.431
-515.872	148.051	-0.241	0.324
-514.858	-12.731	0.094	-0.061
-513.843	137.888	0.111	-0.144
-512.829	-200.000	-0.002	0.220
-511.814	165.090	0.088	-0.123
-510.799	66.252	-0.327	-0.330
-509.785	27.145	0.171	-0.142
-508.770	-184.314	-0.185	0.003
-507.756	558.173	0.069	0.165
-506.741	-63.322	0.088	0.036
-505.726	-165.582	0.062	-0.003
-504.712	606.484	0.028	-0.070
-503.697	-179.345	-0.420	-0.009
-502.683	-200.000	-0.019	-0.084
-501.668	19.834	0.170	-0.136
-500.653	237.726	-0.037	-0.060
-499.639	-56.771	-0.258	0.113
-498.624	113.167	-0.089	-0.107
-497.610	-200.000	-0.028	-0.147
-496.595	38.176	0.131	-0.116
-495.581	-200.000	-0.007	0.209
-494.566	-103.065	0.053	-0.013
-493.551	-108.649	-0.314	0.067
-492.537	-200.000	0.017	-0.210
-491.522	-104.987	0.318	0.072
-490.508	-16.535	0.031	-0.020
-489.493	-107.937	-0.099	-0.021
-488.478	-70.795	0.205	0.077
-487.464	48.129	0.088	0.082
-486.449	800.000	-0.097	0.273
-485.435	-77.160	0.044	0.015
-484.420	-12.255	-0.067	-0.043
-483.405	239.286	0.292	0.482
-482.391	-31.324	-0.050	0.028
-481.376	-63.293	0.174	-0.071
-480.362	-200.000	0.002	-0.052
-479.347	-86.173	0.260	-0.080
-478.332	-102.091	0.234	0.056
-477.318	68.792	-0.112	0.114
-476.303	-200.000	0.009	-0.111
-475.289	-13.959	-0.295	0.189
-474.274	65.841	0.158	0.159
-473.259	41.253	-0.214	-0.192
-472.245	-106.945	0.214	-0.047
-471.230	-200.000	-0.007	0.136
-470.216	-90.319	-0.132	0.038
-469.201	-13.454	-0.163	-0.105
-468.186	143.666	0.128	0.170
-467.172	-145.893	-0.144	-0.013
-466.157	-200.000	0.268	-0.000
-465.143	-132.375	-0.149	-0.019
-464.128	109.069	-0.176	-0.209
-463.113	352.103	-0.091	-0.179
-462.099	-136.462	0.181	0.021
-461.084	470.608	-0.142	-0.316
-460.070	-183.717	-0.108	0.002
-459.055	-16.032	0.243	-0.153
-458.040	800.000	-0.113	-0.404
-457.026	-167.514	0.277	0.011
-456.011	190.088	-0.105	0.156
-454.997	-73.094	-0.156	0.057
-453.982	800.000	-0.096	0.357
-452.968	-13.710	0.171	0.110
-451.953	44.244	0.132	-0.120
-450.938	-32.224	-0.174	-0.097
-449.924	-99.043	-0.205	0.052
-448.909	128.675	-0.168	0.212
-447.895	20.747	-0.101	-0.081
-446.880	-200.000	-0.044	-0.251
-445.865	-200.000	-0.042	-0.206
-444.851	-192.472	-0.082	-0.001
-443.836	-90.795	-0.115	-0.033
-442.822	-200.000	-0.025	0.273
-441.807	800.000	-0.034	0.142
-440.792	800.000	-0.147	0.404
-439.778	156.151	0.090	0.124
-438.763	-47.763	-0.420	0.202
-437.749	800.000	-0.044	0.120
-436.734	-74.709	0.179	-0.064
-435.719	279.152	0.146	0.259
-434.705	74.409	0.170	0.177
-433.690	41.081	0.284	0.254
-432.676	-200.000	0.086	0.612
-431.661	-27.891	0.076	-0.043
-430.646	244.347	-0.160	0.266
-429.632	-200.000	-0.033	-0.264
-428.617	732.415	0.111	-0.294
-427.603	-14.207	-0.236	0.151
-426.588	87.150	-0.130	0.143
-425.573	162.588	0.267	-0.371
-424.559	453.913	-0.134	-0.293
-423.544	172.997	-0.144	-0.205
-422.530	-36.124	-0.297	-0.159
-421.515	-142.243	0.186	-0.018
-420.500	51.897	0.235	-0.221
-419.486	-200.000	-0.001	-0.069
-418.471	672.465	-0.072	0.186
-417.457	-56.106	-0.047	0.021
-416.442	-46.197	0.226	0.110
-415.428	46.500	-0.215	0.198
-414.413	-142.914	-0.147	0.014
-413.398	-122.721	-0.169	-0.027
-412.384	-30.272	0.053	-0.030
-411.369	90.184	0.288	-0.319
-410.355	50.056	0.188	-0.176
-409.340	34.226	0.002	-0.002
-408.325	-200.000	0.187	0.001
-407.311	-200.000	-0.013	0.125
-406.296	306.370	-0.106	0.195
-405.282	-200.000	0.009	0.176
-404.267	33.052	0.125	0.107
-403.252	-154.611	-0.113	0.007
-402.238	-164.845	-0.057	-0.003
-401.223	-200.000	0.046	-0.207
-400.209	-200.000	0.015	-0.433
-399.194	15.099	-0.105	-0.081
-398.179	-87.954	0.378	-0.112
-397.165	26.905	0.243	0.201
-396.150	-139.155	-0.226	0.024
-395.136	-178.527	-0.151	0.003
-394.121	202.614	0.105	-0.160
-393.106	-164.419	-0.251	0.011
-392.092	-116.418	-0.118	0.022
-391.077	279.727	-0.185	0.327
-390.063	800.000	0.061	-0.239
-389.048	-200.000	0.002	0.192
-388.033	-32.469	-0.032	0.018
-387.019	-138.524	-0.380	0.041
-386.004	590.222	-0.066	0.161
-384.990	-200.000	0.030	0.186
-383.975	225.041	-0.107	0.171
-382.960	-200.000	0.016	0.247
-381.946	-176.242	-0.108	0.003
-380.931	-120.493	0.104	-0.017
-379.917	52.496	-0.270	0.255
-378.902	-120.488	-0.117	-0.020
-377.888	272.580	-0.073	0.127
-376.873	156.954	0.040	-0.054
-375.858	700.736	-0.046	-0.119
-374.844	403.232	-0.010	-0.021
-373.829	-48.613	0.397	0.189
-372.815	800.000	0.037	0.143
-371.800	-93.611	0.383	-0.105
-370.785	-47.205	-0.364	0.175
-369.771	781.541	-0.049	-0.133
-368.756	-200.000	0.055	-0.290
-367.742	282.577	-0.193	-0.341
-366.727	323.255	-0.039	-0.074
-365.712	-95.331	0.277	-0.074
-364.698	-200.000	-0.026	0.139
-363.683	-136.776	-0.222	-0.025
-362.669	-200.000	0.043	-0.356
-361.654	-84.340	-0.182	-0.057
-360.639	402.532	0.088	0.182
-359.625	283.338	-0.135	-0.240
-358.610	29.088	0.009	-0.008
-357.596	-143.419	-0.159	-0.015
-356.581	-15.199	0.289	0.183
-355.566	270.782	-0.155	0.270
-354.552	-79.462	0.328	0.110
-353.537	114.125	-0.180	-0.216
-352.523	-104.511	-0.233	-0.053
-351.508	27.004	-0.177	0.147
-350.493	157.675	0.057	-0.078
-349.479	-152.675	0.162	0.011
-348.464	65.129	-0.294	0.293
-347.450	2.156	0.169	0.120
-346.435	-152.819	0.290	-0.020
-345.420	440.006	-0.078	0.168
-344.406	-148.856	0.235	0.019
-343.391	25.121	-0.097	0.079
-342.377	800.000	-0.090	0.333
-341.362	88.124	0.071	0.077
-340.348	170.506	0.156	-0.220
-339.333	124.184	0.079	-0.098
-338.318	-53.743	0.359	-0.162
-337.304	-117.547	0.203	-0.036
-336.289	-63.277	0.211	0.086
-335.275	343.248	0.101	0.194
-334.260	204.015	0.062	0.095
-333.245	-187.105	0.133	-0.002
-332.231	-58.708	0.224	-0.096
-331.216	-17.890	0.176	-0.109
-330.202	-200.000	-0.039	0.195
-329.187	282.973	-0.047	0.083
-328.172	-8.611	-0.281	-0.186
-327.158	-166.105	-0.096	-0.004
-326.143	-173.694	0.143	0.004
-325.129	123.266	0.112	-0.138
-324.114	-200.000	0.045	-0.271
-323.099	-95.399	-0.054	-0.014
-322.085	10.897	-0.247	-0.186
-321.070	87.593	-0.199	-0.217
-320.056	-200.000	-0.074	-0.353
-319.041	-75.560	-0.124	-0.044
-318.026	165.924	-0.094	-0.132
-317.012	-56.753	-0.309	-0.135
-315.997	-93.708	0.167	0.045
-314.983	104.303	0.134	0.156
-313.968	-42.589	-0.170	-0.085
-312.953	28.242	0.098	0.082
-311.939	22.974	-0.232	-0.187
-310.924	148.257	-0.150	-0.200
-309.910	170.095	-0.152	0.214
-308.895	-21.224	0.233	-0.140
-307.880	748.785	0.060	0.160
-306.866	-29.732	-0.191	-0.107
-305.851	146.597	-0.190	-0.252
-304.837	-8.197	-0.081	0.054
-303.822	371.299	-0.013	0.025
-302.807	326.534	-0.057	-0.108
-301.793	229.633	0.233	0.375
-300.778	-79.154	-0.340	-0.114
-299.764	-200.000	0.008	-0.101
-298.749	617.186	-0.062	0.154
-297.735	-106.899	-0.171	0.037
-296.720	-167.934	-0.165	0.006
-295.705	154.481	-0.085	0.116
-294.691	800.000	-0.100	-0.340
-293.676	37.200	0.219	0.191
-292.662	17.034	-0.192	0.150
-291.647	-133.714	-0.231	0.028
-290.632	407.338	0.255	-0.531
-289.618	-62.647	-0.225	0.092
-288.603	-82.084	0.325	-0.104
-287.589	-114.340	0.143	0.027
-286.574	257.892	0.011	0.019
-285.559	-85.164	0.359	-0.111
-284.545	800.000	0.069	-0.211
-283.530	800.000	-0.080	-0.226
-282.516	-200.000	0.001	-0.109
-281.501	0.016	-0.221	-0.155
-280.486	777.906	0.077	-0.208
-279.472	-200.000	-0.001	0.149
-278.457	-79.020	0.187	-0.063
-277.443	59.183	-0.228	0.221
-276.428	142.061	0.060	-0.079
-275.413	-200.000	-0.034	-0.230
-274.399	551.711	0.081	0.192
-273.384	6.888	-0.233	-0.171
-272.370	-200.000	0.048	0.344
-271.355	-200.000	-0.026	-0.116
-270.340	449.640	0.152	0.329
-269.326	-31.483	0.205	0.113
-268.311	-147.288	0.142	-0.012
-267.297	-22.300	0.035	0.021
-266.282	-60.076	-0.310	-0.130
-265.267	201.884	0.122	-0.185
-264.253	-111.350	0.105	0.021
-263.238	800.000	0.058	0.223
-262.224	159.091	0.123	0.168
-261.209	275.039	-0.022	-0.038
-260.195	219.901	-0.217	0.342
-259.180	-129.721	0.108	-0.015
-258.165	256.786	0.210	-0.355
-257.151	800.000	-0.019	0.064
-256.136	-200.000	-0.043	0.249
-255.122	44.099	0.232	0.209
-254.107	-79.446	-0.337	-0.112
-253.092	-200.000	-0.002	0.067
-252.078	-62.934	0.172	0.070
-251.063	-16.105	-0.168	0.105
-250.049	-200.000	-0.001	0.056
-249.034	-29.073	-0.077	0.043
-248.019	-96.212	0.163	0.043
-247.005	-200.000	-0.006	0.142
-245.990	-200.000	0.020	-0.215
-244.976	682.960	-0.120	-0.307
-243.961	-200.000	0.016	-0.259
-242.946	323.963	0.181	-0.341
-241.932	74.846	0.287	0.297
-240.917	249.135	0.033	-0.055
-239.903	414.628	0.074	-0.156
-238.888	-200.000	-0.063	-0.291
-237.873	-200.000	0.038	-0.222
-236.859	62.736	-0.267	0.262
-235.844	-87.791	-0.074	-0.022
-234.830	37.702	-0.155	-0.135
-233.815	-160.017	0.387	0.021
-232.800	71.487	-0.165	0.169
-231.786	0.693	0.107	-0.075
-230.771	42.040	0.090	-0.080
-229.757	-121.645	-0.118	0.019
-228.742	-200.000	0.004	0.261
-227.727	-15.351	0.258	0.162
-226.713	-200.000	0.001	0.061
-225.698	390.012	0.028	0.056
-224.684	-200.000	0.010	0.056
-223.669	175.432	-0.062	0.088
-222.655	-200.000	0.016	0.138
-221.640	-29.285	0.164	0.092
-220.625	-151.399	0.174	-0.013
-219.611	-64.438	0.126	-0.050
-218.596	-23.523	-0.128	0.075
-217.582	84.795	-0.143	0.154
-216.567	-145.572	-0.088	0.008
-215.552	71.231	0.199	0.202
-214.538	18.923	-0.223	0.176
-213.523	800.000	0.077	-0.282
-212.509	-130.245	0.380	0.051
-211.494	72.690	-0.080	-0.082
-210.479	800.000	-0.091	-0.262
-209.465	-100.036	0.349	-0.085
-208.450	-200.000	0.036	-0.202
-207.436	-64.320	-0.281	0.113
-206.421	328.572	0.106	-0.200
-205.406	-80.361	-0.265	-0.087
-204.392	66.096	0.154	0.154
-203.377	248.634	0.098	0.163
-202.363	-200.000	0.056	0.269
-201.348	135.216	0.356	-0.454
-200.333	-168.644	-0.252	0.009
-199.319	800.000	-0.032	-0.110
-198.304	-149.547	0.335	0.026
-197.290	-18.105	-0.282	0.173
-196.275	-44.379	0.338	0.166
-195.260	-200.000	-0.016	0.115
-194.246	-63.061	0.177	0.072
-193.231	68.754	0.245	0.246
-192.217	-155.496	0.107	-0.007
-191.202	46.890	-0.153	-0.140
-190.187	283.949	0.193	-0.340
-189.173	99.532	-0.102	0.116
-188.158	800.000	-0.088	-0.266
-187.144	-7.951	0.363	0.240
-186.129	-200.000	0.009	0.146
-185.114	218.639	-0.152	0.238
-184.100	-200.000	-0.009	0.339
-183.085	566.061	0.164	0.391
-182.071	49.143	-0.156	0.144
-181.056	71.357	0.085	0.087
-180.042	-177.604	-0.195	0.005
-179.027	-42.969	0.092	0.046
-178.012	800.000	-0.010	0.030
-176.998	19.283	-0.144	-0.114
-175.983	-57.897	0.159	0.068
-174.969	387.211	-0.210	0.426
-173.954	-33.318	0.279	0.151
-172.939	-104.636	0.296	-0.067
-171.925	-104.012	0.192	0.044
-170.910	-53.987	-0.277	-0.124
-169.896	100.304	0.134	-0.153
-168.881	-200.000	0.004	-0.223
-167.866	-100.697	-0.208	0.050
-166.852	91.122	-0.161	-0.177
-165.837	-181.608	0.302	-0.006
-164.823	-12.655	-0.112	0.072
-163.808	800.000	-0.071	-0.271
-162.793	19.644	0.092	0.072
-161.779	-74.872	0.095	-0.033
-160.764	-116.254	0.221	0.040
-159.750	800.000	-0.045	-0.193
-158.735	-200.000	-0.020	-0.156
-157.720	-173.033	0.203	0.006
-156.706	48.397	-0.339	-0.311
-155.691	800.000	-0.057	0.200
-154.677	-200.000	0.027	0.188
-153.662	-166.144	0.199	-0.008
-152.647	800.000	-0.061	-0.198
-151.633	79.545	-0.085	-0.089
-150.618	800.000	0.024	0.095
-149.604	800.000	0.116	0.423
-148.589	-28.980	0.102	0.058
-147.574	-69.096	0.089	0.034
-146.560	-122.428	-0.202	-0.032
-145.545	800.000	0.077	0.306
-144.531	-200.000	0.085	0.472
-143.516	-35.861	-0.192	0.102
-142.502	160.132	0.154	-0.211
-141.487	51.243	-0.210	-0.195
-140.472	-167.687	-0.249	-0.010
-139.458	-200.000	0.029	0.130
-138.443	-12.080	-0.059	-0.038
-137.429	-67.247	-0.177	0.068
-136.414	-60.440	0.357	-0.149
-135.399	-46.634	0.194	-0.093
-134.385	-200.000	0.030	-0.370
-133.370	-105.931	0.104	-0.023
-132.356	-41.178	0.264	-0.134
-131.341	-123.420	-0.254	0.040
-130.326	800.000	-0.045	0.152
-129.312	800.000	-0.046	-0.127
-128.297	7.626	0.128	-0.094
-127.283	285.650	-0.127	0.224
-126.268	37.149	-0.184	-0.160
-125.253	-74.105	0.398	-0.141
-124.239	-55.538	0.175	0.077
-123.224	-200.000	0.101	0.435
-122.210	-32.573	-0.078	-0.043
-121.195	385.045	0.063	0.126
