DTS Sentinel unit serial number:	SN413079Multiplexer serial number:	ORYXHardware model number:	OX4-SRSoftware version number:	ORYX F/W v4.00 Oryx Data Collector v3.7.2.0data status	okinstallation	princeton_trtdifferential loss correction	single-endedforward channel	channel 1reverse channel	N/Adate	2019/09/12time	20:50:35forward acquisition time	60.00reverse acquisition time	0.00gamma	496.2192k internal	0.2325k external	0.2325temperature offset calibration	1.0148default loss term (dB/km)	0.3790temperature slope calibration	1.0000multiplexer offset coefficient	1.0000multiplexer slope coefficient	1.0000fibre end	0.00T internal ref (°C)	30.98T ext. ref 1 (°C)	3.61T ext. ref 2 (°C)	25.50length (m)	temperature (°C)	Stokes	anti-Stokes-747.200	-77.610	-0.114	-0.040
-746.185	-170.883	-0.177	-0.006
-745.171	238.378	0.104	0.175
-744.156	800.000	-0.064	-0.184
-743.142	512.093	0.115	0.271
-742.127	-141.016	-0.361	0.037
-741.112	573.631	0.084	0.206
-740.098	-123.927	-0.270	0.043
-739.083	800.000	-0.066	0.265
-738.069	665.797	0.106	0.275
-737.054	-80.953	0.127	0.042
-736.039	800.000	0.070	-0.196
-735.025	48.143	0.330	0.311
-734.010	-63.549	-0.232	-0.096
-732.996	249.440	-0.194	-0.332
-731.981	-200.000	0.092	-0.550
-730.966	-200.000	-0.020	0.125
-729.952	-80.308	-0.258	0.087
-728.937	-88.222	-0.121	-0.037
-727.923	-41.216	-0.173	0.090
-726.908	-200.000	0.004	0.166
-725.894	154.192	0.110	-0.152
-724.879	-120.191	-0.399	-0.069
-723.864	-164.109	0.238	0.011
-722.850	-63.755	0.278	0.115
-721.835	-200.000	0.026	-0.408
-720.821	-107.256	0.309	0.069
-719.806	-200.000	0.021	-0.154
-718.791	-200.000	-0.009	-0.116
-717.777	-44.039	-0.094	0.048
-716.762	77.718	-0.114	-0.122
-715.748	-114.298	0.087	-0.017
-714.733	-3.188	-0.194	-0.136
-713.718	800.000	-0.046	-0.188
-712.704	237.430	0.064	-0.106
-711.689	-200.000	-0.009	-0.200
-710.675	-14.479	0.260	0.169
-709.660	-17.804	-0.122	-0.077
-708.645	-200.000	0.011	0.110
-707.631	613.392	0.097	0.245
-706.616	-87.728	0.181	-0.055
-705.602	95.023	-0.102	0.117
-704.587	-154.623	-0.156	0.010
-703.572	-130.072	0.314	0.043
-702.558	-142.409	0.231	0.023
-701.543	6.913	0.125	0.094
-700.529	335.610	-0.078	-0.153
-699.514	283.979	-0.085	-0.155
-698.499	-175.486	-0.187	0.005
-697.485	-148.969	0.138	-0.011
-696.470	250.246	-0.073	0.125
-695.456	-74.181	-0.161	-0.059
-694.441	-127.844	-0.104	-0.015
-693.426	-87.014	0.236	0.073
-692.412	-114.914	-0.571	-0.109
-691.397	-65.065	0.267	0.109
-690.383	-200.000	-0.037	-0.491
-689.368	38.078	-0.147	-0.132
-688.354	-113.965	-0.179	-0.035
-687.339	-0.102	0.337	0.241
-686.324	74.786	-0.064	0.067
-685.310	-10.499	-0.103	0.069
-684.295	348.535	0.049	0.096
-683.281	-48.580	0.109	-0.053
-682.266	800.000	-0.115	0.419
-681.251	89.183	-0.303	0.339
-680.237	800.000	-0.050	0.153
-679.222	-200.000	0.022	-0.386
-678.208	152.484	-0.167	0.229
-677.193	282.759	0.238	0.430
-676.178	-71.132	0.200	0.076
-675.164	725.645	-0.098	-0.263
-674.149	-200.000	-0.010	-0.050
-673.135	89.694	0.053	0.060
-672.120	-200.000	-0.001	-0.184
-671.105	-157.581	0.438	0.026
-670.091	-112.168	-0.099	-0.020
-669.076	800.000	-0.059	0.202
-668.062	34.212	-0.156	-0.137
-667.047	-113.108	-0.083	-0.017
-666.032	-55.652	0.230	0.103
-665.018	-84.842	-0.413	-0.131
-664.003	185.360	-0.170	0.254
-662.989	-171.562	0.135	-0.004
-661.974	-200.000	0.005	-0.244
-660.959	-22.129	0.271	-0.166
-659.945	-200.000	-0.022	-0.105
-658.930	-69.672	-0.094	-0.036
-657.916	9.415	-0.222	-0.169
-656.901	800.000	0.064	0.187
-655.886	65.572	0.100	-0.101
-654.872	800.000	0.046	-0.134
-653.857	-200.000	0.052	0.274
-652.843	167.029	-0.168	0.239
-651.828	39.714	0.188	-0.169
-650.814	3.647	0.234	-0.172
-649.799	-200.000	0.012	-0.231
-648.784	-200.000	-0.020	0.498
-647.770	106.047	0.232	-0.276
-646.755	-83.330	0.032	-0.010
-645.741	-200.000	-0.056	-0.275
-644.726	263.979	0.112	-0.196
-643.711	100.869	-0.190	-0.222
-642.697	-200.000	-0.025	-0.124
-641.682	-114.841	-0.186	0.036
-640.668	-200.000	0.051	0.245
-639.653	456.010	0.031	0.068
-638.638	-136.095	0.069	0.008
-637.624	-88.133	0.178	-0.054
-636.609	-200.000	0.070	-0.559
-635.595	-70.224	-0.264	0.101
-634.580	800.000	0.074	-0.265
-633.565	50.088	0.134	0.127
-632.551	311.286	0.049	-0.092
-631.536	793.434	0.053	0.148
-630.522	24.467	0.145	0.120
-629.507	22.161	-0.096	-0.079
-628.492	800.000	-0.041	0.153
-627.478	180.376	0.078	-0.115
-626.463	382.336	-0.187	-0.387
-625.449	-200.000	-0.020	-0.208
-624.434	91.233	-0.134	-0.151
-623.419	27.802	0.075	0.063
-622.405	397.080	-0.037	-0.077
-621.390	800.000	0.113	0.368
-620.376	-91.629	-0.331	0.095
-619.361	-200.000	0.013	-0.099
-618.346	-35.936	0.077	0.042
-617.332	800.000	0.038	0.107
-616.317	-80.236	-0.247	-0.083
-615.303	-19.106	-0.178	-0.111
-614.288	-158.082	-0.031	-0.002
-613.273	-36.220	0.030	-0.016
-612.259	75.118	-0.216	-0.229
-611.244	-200.000	0.002	-0.066
-610.230	800.000	0.019	-0.062
-609.215	-110.956	-0.015	-0.003
-608.201	-112.065	0.262	0.053
-607.186	-200.000	0.008	0.081
-606.171	55.253	0.070	0.068
-605.157	800.000	0.045	-0.134
-604.142	-200.000	-0.041	-0.206
-603.128	33.857	-0.259	0.226
-602.113	-111.156	-0.133	-0.027
-601.098	-146.391	-0.073	-0.006
-600.084	-200.000	-0.077	-0.719
-599.069	79.004	0.097	0.104
-598.055	331.963	-0.273	0.529
-597.040	-24.603	-0.090	0.054
-596.025	6.658	0.273	-0.204
-595.011	220.702	0.078	-0.126
-593.996	-200.000	-0.034	0.161
-592.982	-130.910	-0.276	0.037
-591.967	163.593	-0.097	-0.138
-590.952	800.000	-0.054	0.191
-589.938	8.824	0.239	0.181
-588.923	-22.385	-0.138	0.084
-587.909	-43.191	-0.141	-0.072
-586.894	81.311	0.089	0.097
-585.879	-200.000	0.083	0.000
-584.865	-60.854	-0.168	-0.071
-583.850	55.075	0.162	0.157
-582.836	800.000	0.066	-0.195
-581.821	-200.000	-0.017	-0.123
-580.806	-85.006	-0.099	0.031
-579.792	-65.398	-0.132	0.053
-578.777	-77.842	0.351	0.122
-577.763	800.000	-0.023	0.085
-576.748	-68.289	-0.028	-0.011
-575.733	248.881	-0.222	0.377
-574.719	800.000	-0.020	0.070
-573.704	-76.648	0.300	0.106
-572.690	-95.818	-0.373	0.100
-571.675	-161.983	-0.152	0.008
-570.661	800.000	-0.078	-0.295
-569.646	-94.991	-0.244	-0.066
-568.631	-200.000	0.042	-0.211
-567.617	9.111	0.189	-0.143
-566.602	-145.827	0.179	0.016
-565.588	220.693	0.203	-0.326
-564.573	-200.000	-0.051	-0.232
-563.558	70.932	-0.021	0.022
-562.544	-200.000	0.016	-0.217
-561.529	-89.074	-0.072	-0.021
-560.515	248.153	-0.207	-0.352
-559.500	43.071	-0.152	-0.139
-558.485	-56.980	0.150	0.066
-557.471	244.298	-0.136	0.229
-556.456	-200.000	-0.017	-0.113
-555.442	-200.000	0.020	-0.274
-554.427	800.000	-0.170	-0.537
-553.412	184.653	0.138	0.206
-552.398	-104.348	0.171	-0.040
-551.383	56.577	-0.317	0.309
-550.369	93.923	-0.127	0.144
-549.354	32.037	-0.153	-0.132
-548.339	-200.000	0.020	0.300
-547.325	8.771	-0.107	-0.081
-546.310	-39.859	0.415	-0.217
-545.296	73.124	-0.256	-0.268
-544.281	800.000	-0.034	0.119
-543.266	-133.218	-0.263	-0.033
-542.252	157.259	-0.247	0.342
-541.237	461.903	-0.131	-0.292
-540.223	-200.000	-0.029	-0.353
-539.208	-129.117	-0.093	-0.013
-538.193	-200.000	0.010	-0.046
-537.179	-15.944	0.150	-0.096
-536.164	40.050	-0.133	0.120
-535.150	800.000	-0.036	0.125
-534.135	-134.301	-0.408	-0.050
-533.121	-87.459	0.185	0.056
-532.106	-52.560	-0.247	-0.114
-531.091	-200.000	-0.058	-0.331
-530.077	314.335	-0.075	-0.141
-529.062	-104.724	-0.142	0.033
-528.048	505.090	-0.035	-0.081
-527.033	30.140	-0.093	0.079
-526.018	-123.112	-0.426	-0.068
-525.004	336.503	-0.126	-0.244
-523.989	107.733	-0.238	-0.283
-522.975	-31.906	0.196	0.110
-521.960	-38.575	-0.123	0.065
-520.945	-200.000	0.009	-0.148
-519.931	-200.000	0.006	0.083
-518.916	139.854	-0.166	-0.219
-517.902	90.700	0.175	-0.196
-516.887	800.000	-0.074	-0.242
-515.872	-46.735	-0.238	-0.117
-514.858	359.896	0.102	-0.203
-513.843	-200.000	-0.051	-0.277
-512.829	58.642	-0.162	0.160
-511.814	359.734	0.052	-0.104
-510.799	281.469	-0.095	-0.170
-509.785	800.000	-0.063	0.261
-508.770	-40.692	0.296	-0.153
-507.756	-200.000	0.019	0.132
-506.741	138.248	-0.099	-0.129
-505.726	13.372	0.201	-0.156
-504.712	-59.438	0.251	0.108
-503.697	800.000	0.091	-0.350
-502.683	-118.662	0.227	-0.040
-501.668	800.000	-0.112	0.486
-500.653	117.873	-0.068	0.084
-499.639	-109.622	-0.289	0.061
-498.624	-108.032	-0.064	0.014
-497.610	-15.880	-0.165	-0.105
-496.595	23.326	-0.037	0.030
-495.581	-145.857	0.222	0.020
-494.566	-181.372	-0.482	0.009
-493.551	-24.578	-0.193	-0.115
-492.537	-200.000	-0.003	0.102
-491.522	20.500	-0.149	-0.120
-490.508	-185.092	0.211	-0.003
-489.493	-136.438	0.416	-0.048
-488.478	-163.295	-0.217	0.010
-487.464	16.549	0.180	-0.142
-486.449	-103.040	-0.330	0.078
-485.435	-168.255	0.310	0.012
-484.420	324.686	0.027	0.051
-483.405	-200.000	0.022	-0.177
-482.391	-79.054	0.205	0.070
-481.376	-18.487	-0.165	-0.103
-480.362	211.220	-0.076	-0.119
-479.347	5.855	0.116	0.086
-478.332	60.698	0.271	-0.268
-477.318	-72.955	0.269	0.099
-476.303	800.000	-0.096	-0.341
-475.289	358.335	0.150	-0.300
-474.274	-122.833	0.341	-0.055
-473.259	7.804	0.256	0.191
-472.245	-29.160	-0.085	0.049
-471.230	-200.000	0.007	0.055
-470.216	-46.658	0.386	-0.189
-469.201	75.071	-0.241	0.254
-468.186	-14.973	0.285	0.182
-467.172	658.896	-0.107	0.274
-466.157	287.536	0.175	-0.315
-465.143	409.769	-0.022	0.046
-464.128	239.821	-0.204	0.339
-463.113	-192.379	-0.244	-0.002
-462.099	-122.333	-0.013	-0.002
-461.084	218.407	0.140	0.223
-460.070	166.555	-0.098	0.139
-459.055	325.414	0.166	-0.316
-458.040	38.338	-0.064	0.057
-457.026	-30.288	0.191	0.108
-456.011	-9.312	-0.115	-0.077
-454.997	-52.955	-0.185	0.085
-453.982	-200.000	0.035	-0.290
-452.968	-134.621	0.255	0.031
-451.953	-200.000	0.079	-0.504
-450.938	101.913	-0.092	-0.107
-449.924	203.662	0.067	0.103
-448.909	-51.716	0.226	0.105
-447.895	-56.096	-0.223	-0.099
-446.880	-87.027	-0.151	-0.046
-445.865	-171.173	-0.049	-0.002
-444.851	-200.000	-0.042	0.304
-443.836	-200.000	-0.010	0.115
-442.822	-200.000	-0.005	0.182
-441.807	800.000	0.097	0.269
-440.792	-132.654	0.327	0.042
-439.778	-87.505	-0.033	0.010
-438.763	206.339	0.180	0.279
-437.749	800.000	0.016	0.051
-436.734	-105.787	0.196	-0.044
-435.719	61.752	-0.178	0.177
-434.705	10.418	0.209	0.159
-433.690	-26.206	0.137	-0.080
-432.676	-82.360	-0.363	0.118
-431.661	-40.767	0.262	-0.135
-430.646	24.766	-0.186	-0.154
-429.632	800.000	-0.109	0.337
-428.617	-200.000	-0.011	0.081
-427.603	-48.228	0.348	-0.167
-426.588	36.456	-0.168	0.148
-425.573	-122.459	-0.360	0.058
-424.559	64.266	0.193	0.193
-423.544	800.000	0.035	0.125
-422.530	161.665	0.155	0.216
-421.515	252.277	0.044	-0.075
-420.500	-93.990	0.325	-0.089
-419.486	800.000	0.115	0.385
-418.471	2.759	-0.243	0.176
-417.457	112.758	-0.193	-0.233
-416.442	136.042	0.148	0.192
-415.428	676.255	-0.127	-0.328
-414.413	800.000	0.030	0.124
-413.398	593.682	0.210	0.517
-412.384	-65.485	-0.215	0.086
-411.369	-5.519	0.160	-0.109
-410.355	4.878	0.161	-0.118
-409.340	-106.571	0.308	0.068
-408.325	188.234	0.100	0.149
-407.311	-80.748	-0.296	0.098
-406.296	-27.872	-0.206	-0.119
-405.282	-42.727	-0.275	0.140
-404.267	325.138	-0.064	0.121
-403.252	556.766	-0.072	-0.173
-402.238	-200.000	0.013	0.067
-401.223	350.634	-0.178	0.351
-400.209	1.304	-0.118	-0.085
-399.194	763.047	0.050	-0.135
-398.179	-60.506	0.348	0.147
-397.165	-200.000	-0.003	0.033
-396.150	22.349	-0.274	-0.223
-395.136	800.000	-0.044	-0.121
-394.121	-96.017	-0.047	-0.012
-393.106	600.469	0.091	0.225
-392.092	-167.352	0.273	0.011
-391.077	79.480	-0.154	0.165
-390.063	202.085	0.101	-0.154
-389.048	13.684	-0.072	-0.056
-388.033	363.503	0.153	-0.307
-387.019	-86.698	-0.193	0.059
-386.004	-74.148	0.219	-0.079
-384.990	135.764	0.173	0.224
-383.975	-79.940	0.505	0.169
-382.960	0.308	-0.100	-0.071
-381.946	-65.119	-0.068	0.027
-380.931	-162.595	0.149	-0.007
-379.917	-80.721	-0.398	-0.132
-378.902	-62.122	0.096	-0.040
-377.888	56.711	-0.096	0.093
-376.873	114.065	0.117	0.141
-375.858	-46.351	-0.213	-0.104
-374.844	-68.615	0.407	0.157
-373.829	98.276	-0.299	0.343
-372.815	-176.692	-0.408	0.010
-371.800	686.256	0.038	0.100
-370.785	430.276	0.101	-0.218
-369.771	-161.147	0.184	-0.010
-368.756	-200.000	0.008	-0.101
-367.742	-105.523	-0.314	-0.071
-366.727	105.019	0.109	-0.128
-365.712	168.855	0.275	-0.390
-364.698	58.448	-0.198	0.193
-363.683	348.816	-0.243	-0.477
-362.669	-200.000	0.066	-0.309
-361.654	-200.000	0.019	0.150
-360.639	-155.946	0.082	0.005
-359.625	-190.163	0.479	0.005
-358.610	-24.270	-0.329	-0.195
-357.596	20.160	0.218	-0.175
-356.581	800.000	-0.032	-0.101
-355.566	-39.228	-0.137	-0.072
-354.552	-21.441	-0.101	-0.061
-353.537	800.000	-0.048	-0.155
-352.523	28.187	-0.177	0.148
-351.508	-97.567	-0.190	-0.049
-350.493	800.000	0.072	-0.307
-349.479	347.396	0.058	-0.114
-348.464	800.000	0.044	0.180
-347.450	145.788	-0.203	0.270
-346.435	-139.498	0.289	0.031
-345.420	-165.435	-0.254	-0.011
-344.406	-180.665	0.155	-0.003
-343.391	-200.000	-0.015	-0.165
-342.377	615.174	-0.112	0.278
-341.362	232.513	0.138	0.225
-340.348	-200.000	0.025	0.121
-339.333	-74.043	-0.307	0.111
-338.318	-77.767	0.296	-0.102
-337.304	-145.304	0.322	-0.029
-336.289	-51.239	0.086	-0.040
-335.275	151.693	0.076	-0.103
-334.260	800.000	0.044	0.175
-333.245	-200.000	0.024	-0.157
-332.231	229.631	0.062	0.100
-331.216	289.907	-0.072	-0.129
-330.202	-110.706	0.211	0.043
-329.187	-34.073	-0.265	0.145
-328.172	-200.000	-0.044	0.503
-327.158	236.434	-0.041	0.068
-326.143	-123.364	0.210	0.033
-325.129	15.107	0.175	0.136
-324.114	-152.887	-0.420	0.030
-323.099	174.395	-0.022	0.032
-322.085	65.209	-0.163	-0.164
-321.070	268.830	0.229	0.399
-320.056	196.740	0.072	0.110
-319.041	-177.343	0.312	-0.008
-318.026	140.790	-0.074	-0.097
-317.012	-86.989	0.323	0.098
-315.997	800.000	-0.075	-0.311
-314.983	-155.378	0.541	0.035
-313.968	-30.840	-0.038	-0.021
-312.953	430.398	0.049	-0.106
-311.939	-24.872	0.171	0.101
-310.924	187.686	0.061	-0.091
-309.910	-85.636	0.192	-0.059
-308.895	-2.542	-0.201	0.139
-307.880	-23.164	-0.097	0.058
-306.866	-156.521	-0.039	-0.002
-305.851	-132.808	-0.224	0.028
-304.837	-97.662	-0.108	-0.028
-303.822	51.937	0.104	0.098
-302.807	-176.425	-0.170	-0.004
-301.793	-15.659	0.197	-0.125
-300.778	-37.019	-0.212	-0.113
-299.764	800.000	-0.047	0.137
-298.749	-200.000	0.013	-0.109
-297.735	-145.799	0.180	-0.016
-296.720	145.102	0.113	-0.150
-295.705	-200.000	0.045	-0.245
-294.691	49.825	0.122	0.114
-293.676	605.285	0.110	0.271
-292.662	132.117	-0.088	-0.113
-291.647	-200.000	-0.005	0.181
-290.632	-185.424	0.280	0.004
-289.618	-102.281	0.108	-0.026
-288.603	-1.914	0.188	-0.131
-287.589	-200.000	0.000	-0.092
-286.574	20.586	0.097	0.078
-285.559	-200.000	-0.034	0.193
-284.545	-65.863	-0.198	0.079
-283.530	-200.000	0.020	0.111
-282.516	83.803	0.168	-0.182
-281.501	67.373	0.007	-0.007
-280.486	-133.492	0.080	-0.010
-279.472	-71.758	-0.197	-0.073
-278.457	193.342	0.090	-0.135
-277.443	-200.000	0.089	0.525
-276.428	57.424	0.219	0.212
-275.413	264.767	0.046	-0.080
-274.399	-114.269	0.137	0.026
-273.384	-149.950	-0.071	-0.006
-272.370	-93.040	0.108	0.030
-271.355	582.458	0.291	-0.707
-270.340	43.759	0.113	-0.102
-269.326	-190.578	0.192	0.002
-268.311	-49.236	0.253	-0.120
-267.297	592.521	0.022	-0.054
-266.282	-40.536	-0.038	0.020
-265.267	582.061	0.074	0.181
-264.253	292.593	-0.028	-0.050
-263.238	168.656	-0.069	0.098
-262.224	88.784	-0.200	0.220
-261.209	-200.000	-0.003	0.153
-260.195	-200.000	-0.002	-0.029
-259.180	-64.626	-0.532	-0.214
-258.165	145.249	-0.262	0.347
-257.151	-200.000	-0.006	-0.299
-256.136	89.689	0.152	0.168
-255.122	-40.305	-0.368	0.190
-254.107	15.657	0.148	-0.115
-253.092	-17.270	-0.124	-0.077
-252.078	-200.000	0.013	-0.195
-251.063	-200.000	-0.024	0.167
-250.049	-200.000	0.072	0.341
-249.034	701.689	-0.054	0.141
-248.019	136.321	0.087	0.112
-247.005	-200.000	-0.014	-0.069
-245.990	358.887	-0.149	0.294
-244.976	-200.000	0.006	0.189
-243.961	-200.000	-0.085	-0.425
-242.946	271.620	0.168	0.293
-241.932	-109.777	-0.146	-0.030
-240.917	150.387	0.218	-0.293
-239.903	-200.000	-0.007	0.079
-238.888	-31.195	0.116	-0.064
-237.873	-109.216	-0.459	-0.096
-236.859	-167.534	-0.279	-0.011
-235.844	-57.154	-0.246	0.107
-234.830	800.000	-0.021	-0.068
-233.815	-177.631	-0.109	0.003
-232.800	360.805	0.093	0.184
-231.786	136.071	0.168	-0.217
-230.771	172.780	0.072	-0.103
-229.757	-200.000	-0.039	-0.215
-228.742	-154.427	-0.086	-0.006
-227.727	26.508	-0.070	0.058
-226.713	800.000	-0.111	0.460
-225.698	439.632	0.037	0.079
-224.684	-47.924	-0.148	0.071
-223.669	-200.000	0.009	0.059
-222.655	-86.809	0.268	-0.081
-221.640	-9.877	0.317	-0.209
-220.625	447.744	0.138	-0.300
-219.611	-108.435	0.217	-0.046
-218.596	-200.000	0.050	-0.262
-217.582	-105.760	-0.362	0.081
-216.567	20.501	0.236	-0.189
-215.552	614.243	0.095	0.234
-214.538	-94.728	0.011	0.003
-213.523	351.084	-0.156	0.305
-212.509	37.122	0.006	-0.006
-211.494	800.000	-0.049	0.133
-210.479	800.000	0.111	0.327
-209.465	-11.597	0.124	-0.081
-208.450	-59.715	-0.040	0.017
-207.436	-94.358	0.292	-0.079
-206.421	82.960	-0.231	0.249
-205.406	247.816	-0.091	-0.152
-204.392	280.692	0.105	0.186
-203.377	203.227	0.128	0.196
-202.363	-65.738	-0.094	-0.037
-201.348	-121.149	0.331	0.055
-200.333	-200.000	-0.064	0.277
-199.319	-64.298	-0.253	-0.102
-198.304	-37.812	0.125	0.065
-197.290	-65.551	-0.084	0.033
-196.275	-50.605	-0.329	-0.153
-195.260	566.496	0.113	-0.270
-194.246	-200.000	-0.325	-0.000
-193.231	90.872	-0.204	0.226
-192.217	21.883	0.209	0.168
-191.202	0.303	0.110	-0.078
-190.187	56.308	0.044	0.042
-189.173	453.804	0.134	0.293
-188.158	-14.974	0.202	0.128
-187.144	-133.897	-0.095	0.012
-186.129	-200.000	-0.019	0.162
-185.114	239.684	0.164	-0.270
-184.100	-200.000	-0.019	-0.311
-183.085	-133.263	-0.426	0.053
-182.071	-200.000	0.069	0.400
-181.056	-200.000	-0.003	0.074
-180.042	273.892	-0.081	-0.141
-179.027	92.571	0.121	-0.134
-178.012	107.034	-0.092	-0.108
-176.998	-167.452	0.175	0.007
-175.983	-200.000	-0.012	0.099
-174.969	277.079	-0.170	0.298
-173.954	47.452	-0.186	0.171
-172.939	-48.628	0.321	0.152
-171.925	-47.956	-0.082	-0.039
-170.910	21.870	-0.232	0.186
-169.896	800.000	0.051	0.172
-168.881	-200.000	-0.023	-0.202
-167.866	-20.886	-0.138	0.084
-166.852	-77.797	-0.178	-0.061
-165.837	-24.670	0.293	0.172
-164.823	-105.507	-0.229	-0.051
-163.808	-99.593	0.247	-0.061
-162.793	-71.499	-0.311	-0.115
-161.779	-128.155	0.310	-0.044
-160.764	-200.000	0.005	0.402
-159.750	420.010	-0.085	-0.180
-158.735	63.905	-0.075	0.075
-157.720	800.000	-0.050	0.193
-156.706	-135.038	0.108	0.013
-155.691	-30.767	0.242	-0.135
-154.677	-46.739	-0.251	-0.121
-153.662	-200.000	0.434	0.000
-152.647	800.000	0.094	0.308
-151.633	154.770	0.205	0.277
-150.618	461.348	0.081	-0.178
-149.604	-128.666	-0.352	0.049
-148.589	-51.977	0.329	0.151
-147.574	457.255	-0.176	-0.384
-146.560	589.337	-0.083	-0.203
-145.545	-88.428	-0.101	-0.030
-144.531	-13.308	-0.176	-0.113
-143.516	-200.000	0.075	-0.327
-142.502	129.955	0.149	0.187
-141.487	-200.000	0.013	0.347
-140.472	213.760	-0.071	0.111
-139.458	-200.000	0.021	0.215
-138.443	268.807	0.111	-0.192
-137.429	-78.335	0.171	0.058
-136.414	-200.000	-0.000	0.008
-135.399	-106.747	-0.205	0.045
-134.385	800.000	-0.164	-0.468
-133.370	-80.619	0.075	-0.025
-132.356	800.000	-0.113	0.312
-131.341	775.230	-0.124	0.333
-130.326	-142.559	-0.160	-0.016
-129.312	-82.093	0.063	-0.020
-128.297	114.451	-0.176	-0.212
-127.283	-200.000	0.031	-0.148
-126.268	-77.009	0.496	0.171
-125.253	116.315	0.049	0.059
-124.239	325.634	0.070	-0.133
-123.224	-28.796	-0.215	0.122
-122.210	-90.040	0.272	-0.078
