DTS Sentinel unit serial number:	SN413079Multiplexer serial number:	ORYXHardware model number:	OX4-SRSoftware version number:	ORYX F/W v4.00 Oryx Data Collector v3.7.2.0data status	okinstallation	princeton_trtdifferential loss correction	single-endedforward channel	channel 1reverse channel	N/Adate	2019/09/13time	23:18:35forward acquisition time	60.00reverse acquisition time	0.00gamma	496.2192k internal	0.2335k external	0.2335temperature offset calibration	1.0083default loss term (dB/km)	0.3790temperature slope calibration	1.0000multiplexer offset coefficient	1.0000multiplexer slope coefficient	1.0000fibre end	0.00T internal ref (°C)	27.03T ext. ref 1 (°C)	3.18T ext. ref 2 (°C)	20.93length (m)	temperature (°C)	Stokes	anti-Stokes-747.200	341.768	-0.054	-0.106
-746.185	440.306	0.136	0.299
-745.171	-98.440	-0.005	-0.001
-744.156	164.125	-0.125	-0.177
-743.142	-74.553	-0.137	0.050
-742.127	-48.560	-0.182	0.088
-741.112	-79.507	0.156	-0.053
-740.098	119.713	0.088	-0.109
-739.083	-63.407	-0.091	0.037
-738.069	800.000	-0.091	-0.344
-737.054	-198.960	-0.185	-0.001
-736.039	-139.707	-0.374	-0.040
-735.025	84.938	0.194	0.214
-734.010	249.514	-0.113	-0.193
-732.996	131.314	0.113	-0.145
-731.981	627.680	0.088	0.222
-730.966	92.334	-0.214	-0.243
-729.952	-200.000	0.008	0.068
-728.937	800.000	0.065	-0.228
-727.923	786.601	-0.053	-0.146
-726.908	88.470	0.200	-0.223
-725.894	701.632	-0.096	-0.253
-724.879	-197.389	0.137	-0.001
-723.864	-200.000	0.006	0.069
-722.850	-79.679	-0.366	0.124
-721.835	-29.931	0.189	0.108
-720.821	800.000	0.091	0.290
-719.806	-75.151	0.088	0.032
-718.791	-200.000	-0.032	-0.278
-717.777	121.882	-0.239	-0.299
-716.762	-17.041	-0.250	-0.159
-715.748	-41.793	0.169	-0.087
-714.733	9.767	-0.206	-0.157
-713.718	62.319	-0.187	-0.187
-712.704	86.340	0.322	-0.356
-711.689	-200.000	0.004	0.131
-710.675	-70.437	-0.044	-0.017
-709.660	-12.145	0.151	-0.099
-708.645	721.201	-0.158	-0.421
-707.631	-47.874	0.209	-0.102
-706.616	154.792	-0.165	0.228
-705.602	71.058	0.243	-0.252
-704.587	800.000	0.079	-0.226
-703.572	-6.782	0.097	-0.066
-702.558	800.000	0.067	-0.192
-701.543	800.000	0.133	-0.437
-700.529	-101.557	-0.036	-0.009
-699.514	335.092	-0.046	0.090
-698.499	-107.632	-0.246	0.054
-697.485	-176.289	-0.249	-0.007
-696.470	99.131	-0.022	-0.025
-695.456	266.351	-0.075	-0.131
-694.441	-200.000	0.029	0.195
-693.426	-100.014	0.322	0.081
-692.412	-109.562	0.161	-0.034
-691.397	-47.901	-0.232	-0.113
-690.383	-200.000	0.060	-0.308
-689.368	-93.949	0.129	-0.035
-688.354	-200.000	-0.053	-0.471
-687.339	38.133	-0.184	-0.164
-686.324	-200.000	0.027	-0.240
-685.310	514.443	-0.179	-0.418
-684.295	210.091	0.279	-0.439
-683.281	-200.000	-0.043	-0.436
-682.266	23.070	-0.108	-0.089
-681.251	-182.393	-0.335	-0.006
-680.237	800.000	0.025	-0.091
-679.222	800.000	0.051	0.154
-678.208	-200.000	0.011	-0.054
-677.193	-148.659	-0.071	0.006
-676.178	-21.280	-0.134	0.082
-675.164	-200.000	0.016	0.202
-674.149	-70.603	-0.325	0.123
-673.135	473.349	0.039	-0.089
-672.120	161.316	-0.203	-0.284
-671.105	775.629	0.069	0.188
-670.091	45.819	0.146	-0.135
-669.076	76.356	-0.170	-0.181
-668.062	124.453	-0.167	-0.210
-667.047	652.355	0.132	-0.338
-666.032	-116.081	-0.250	-0.047
-665.018	-200.000	-0.025	-0.157
-664.003	100.679	0.030	0.034
-662.989	28.621	-0.033	-0.028
-661.974	-98.939	0.325	-0.083
-660.959	800.000	0.079	-0.257
-659.945	34.308	-0.058	0.050
-658.930	-200.000	-0.063	-0.288
-657.916	-22.873	-0.057	-0.035
-656.901	800.000	-0.089	-0.248
-655.886	-200.000	-0.002	-0.127
-654.872	215.916	-0.098	0.155
-653.857	38.816	0.170	0.152
-652.843	-95.751	-0.348	-0.093
-651.828	-122.306	0.403	0.066
-650.814	100.057	-0.214	-0.248
-649.799	139.724	-0.064	0.084
-648.784	-3.671	0.128	-0.089
-647.770	7.259	0.149	-0.111
-646.755	47.947	-0.289	0.270
-645.741	-21.954	-0.111	0.068
-644.726	277.400	0.170	0.303
-643.711	98.982	-0.145	0.167
-642.697	114.659	0.033	-0.040
-641.682	800.000	0.062	0.250
-640.668	35.243	-0.239	0.209
-639.653	68.159	-0.192	-0.196
-638.638	481.941	-0.084	0.190
-637.624	259.995	0.102	0.176
-636.609	419.828	-0.045	-0.097
-635.595	-140.452	0.195	-0.020
-634.580	-55.225	-0.361	-0.162
-633.565	-23.725	0.137	0.082
-632.551	-24.909	0.175	-0.104
-631.536	2.167	-0.133	-0.096
-630.522	203.336	0.153	0.236
-629.507	-100.962	-0.097	0.024
-628.492	719.675	0.112	-0.297
-627.478	105.453	-0.197	-0.233
-626.463	192.691	0.058	0.088
-625.449	-186.265	-0.258	0.004
-624.434	-104.314	-0.138	-0.032
-623.419	28.829	0.137	-0.116
-622.405	-200.000	-0.065	0.297
-621.390	-200.000	0.047	-0.289
-620.376	-156.629	0.287	-0.018
-619.361	-79.508	-0.383	0.129
-618.346	190.098	0.245	0.367
-617.332	-61.609	0.164	0.069
-616.317	-200.000	-0.013	0.159
-615.303	-17.687	0.072	-0.045
-614.288	-54.485	-0.178	-0.080
-613.273	-200.000	0.028	-0.321
-612.259	-48.373	-0.189	-0.091
-611.244	83.300	-0.028	-0.030
-610.230	50.181	0.364	-0.343
-609.215	-27.751	0.165	-0.096
-608.201	785.413	-0.048	-0.131
-607.186	423.821	-0.077	0.166
-606.171	325.268	-0.081	-0.155
-605.157	-1.838	0.110	0.077
-604.142	-104.064	0.057	0.013
-603.128	177.436	-0.079	-0.115
-602.113	-112.527	0.273	0.054
-601.098	-64.472	0.371	-0.150
-600.084	-200.000	0.021	-0.165
-599.069	97.300	-0.181	0.207
-598.055	97.337	0.201	-0.231
-597.040	51.840	-0.167	-0.159
-596.025	-200.000	0.033	0.226
-595.011	-62.833	-0.214	0.089
-593.996	269.721	0.068	-0.119
-592.982	-7.578	0.161	0.109
-591.967	7.477	-0.067	-0.050
-590.952	129.992	0.071	0.091
-589.938	-71.470	0.207	-0.077
-588.923	-200.000	-0.030	0.251
-587.909	800.000	-0.037	0.127
-586.894	-179.075	-0.081	0.002
-585.879	632.043	0.027	-0.067
-584.865	-86.930	0.287	-0.087
-583.850	-200.000	-0.004	0.064
-582.836	-200.000	-0.105	-0.505
-581.821	0.403	-0.300	-0.214
-580.806	266.263	0.083	-0.144
-579.792	191.097	0.122	0.183
-578.777	-149.644	0.241	-0.019
-577.763	-153.830	-0.208	-0.014
-576.748	-177.604	0.182	-0.004
-575.733	386.059	0.154	0.316
-574.719	-33.015	-0.195	0.108
-573.704	-200.000	-0.016	-0.108
-572.690	-200.000	0.033	-0.190
-571.675	-163.679	-0.070	0.003
-570.661	-62.690	-0.326	-0.135
-569.646	744.848	-0.077	-0.207
-568.631	64.942	-0.048	-0.048
-567.617	800.000	0.026	0.071
-566.602	-200.000	-0.048	0.258
-565.588	-90.767	0.336	0.097
-564.573	-200.000	0.028	0.236
-563.558	-166.804	-0.145	0.006
-562.544	153.733	0.034	-0.047
-561.529	-81.039	-0.160	-0.053
-560.515	-119.623	-0.286	-0.049
-559.500	573.078	-0.093	0.225
-558.485	-163.527	-0.122	-0.006
-557.471	-145.415	0.167	0.015
-556.456	-200.000	0.009	0.430
-555.442	-102.723	-0.220	0.052
-554.427	440.240	-0.020	0.044
-553.412	-200.000	0.030	0.251
-552.398	2.559	-0.169	-0.122
-551.383	-88.431	-0.193	-0.057
-550.369	40.079	-0.149	0.133
-549.354	-86.817	-0.148	-0.045
-548.339	-5.852	-0.128	0.087
-547.325	35.028	-0.037	-0.033
-546.310	373.422	-0.021	-0.043
-545.296	800.000	0.032	0.132
-544.281	800.000	0.109	0.447
-543.266	-162.111	0.077	0.004
-542.252	-24.957	-0.104	-0.062
-541.237	800.000	-0.118	0.432
-540.223	266.798	-0.163	-0.284
-539.208	-200.000	0.004	-0.151
-538.193	45.816	0.075	-0.069
-537.179	-172.951	0.225	-0.007
-536.164	-96.774	-0.181	0.047
-535.150	-63.625	0.044	-0.018
-534.135	800.000	-0.071	-0.296
-533.121	-200.000	-0.003	0.105
-532.106	-200.000	0.017	-0.371
-531.091	-200.000	-0.005	-0.096
-530.077	194.911	0.155	-0.235
-529.062	141.117	-0.025	0.033
-528.048	-33.089	0.408	0.225
-527.033	-174.592	0.140	-0.004
-526.018	800.000	-0.112	0.345
-525.004	-101.067	-0.209	0.051
-523.989	-52.304	0.070	0.032
-522.975	12.744	0.311	0.239
-521.960	-20.348	-0.223	0.137
-520.945	-200.000	-0.024	0.164
-519.931	51.906	-0.045	-0.042
-518.916	197.974	-0.050	0.076
-517.902	-47.222	-0.174	-0.084
-516.887	-45.303	-0.143	-0.070
-515.872	-200.000	0.010	0.222
-514.858	29.874	0.142	-0.120
-513.843	227.059	0.128	-0.207
-512.829	42.174	-0.039	-0.035
-511.814	-131.168	-0.202	-0.027
-510.799	-95.724	-0.177	-0.047
-509.785	-146.871	-0.377	-0.032
-508.770	52.942	0.217	0.207
-507.756	97.529	-0.175	0.200
-506.741	11.487	-0.150	-0.114
-505.726	-130.777	0.284	-0.038
-504.712	99.116	0.137	-0.158
-503.697	-186.567	0.302	-0.004
-502.683	-125.811	0.283	-0.043
-501.668	-47.709	-0.186	-0.090
-500.653	46.828	0.296	-0.273
-499.639	-200.000	0.007	-0.081
-498.624	-96.708	0.255	0.067
-497.610	320.464	0.187	-0.354
-496.595	-172.651	-0.332	-0.010
-495.581	640.367	0.018	-0.046
-494.566	-1.752	0.200	0.140
-493.551	800.000	0.056	-0.208
-492.537	-135.558	0.175	-0.021
-491.522	-200.000	-0.025	-0.180
-490.508	-200.000	0.004	-0.192
-489.493	-44.301	-0.191	0.095
-488.478	141.109	0.145	-0.191
-487.464	-56.573	-0.050	0.022
-486.449	-102.627	0.439	0.104
-485.435	-170.254	-0.059	-0.002
-484.420	-102.258	-0.134	0.032
-483.405	800.000	-0.055	-0.192
-482.391	90.627	0.046	0.051
-481.376	800.000	-0.089	-0.279
-480.362	171.872	-0.112	-0.160
-479.347	800.000	0.052	0.187
-478.332	0.073	0.127	0.090
-477.318	-119.938	0.230	-0.039
-476.303	383.482	0.155	0.318
-475.289	800.000	0.033	-0.097
-474.274	-145.925	-0.051	0.004
-473.259	-108.316	-0.290	0.062
-472.245	160.367	-0.076	-0.105
-471.230	-63.396	-0.280	-0.114
-470.216	57.241	-0.142	-0.138
-469.201	-200.000	-0.050	-0.311
-468.186	-85.338	0.208	0.064
-467.172	-50.427	0.484	0.227
-466.157	-51.722	-0.170	0.079
-465.143	-81.201	-0.202	-0.066
-464.128	800.000	0.071	0.278
-463.113	120.298	-0.088	0.109
-462.099	-90.857	-0.205	-0.059
-461.084	-54.108	0.081	-0.037
-460.070	20.702	0.315	0.254
-459.055	285.726	0.094	-0.168
-458.040	-31.868	0.187	-0.104
-457.026	606.362	0.080	0.199
-456.011	417.823	-0.063	-0.134
-454.997	-39.878	0.311	-0.161
-453.982	-200.000	0.051	-0.262
-452.968	-19.300	-0.060	-0.037
-451.953	-3.320	-0.571	-0.395
-450.938	-95.793	-0.313	-0.083
-449.924	-93.946	0.229	-0.062
-448.909	321.783	0.059	0.111
-447.895	-58.259	-0.234	0.101
-446.880	205.141	0.023	0.035
-445.865	299.147	-0.133	0.244
-444.851	-132.690	-0.229	-0.029
-443.836	111.714	-0.134	-0.160
-442.822	685.651	0.091	-0.235
-441.807	420.219	-0.117	0.248
-440.792	800.000	0.049	0.165
-439.778	-19.252	0.143	0.088
-438.763	-31.313	0.324	-0.181
-437.749	-9.360	-0.331	0.220
-436.734	-112.968	0.208	0.041
-435.719	800.000	0.024	0.083
-434.705	24.789	-0.164	0.135
-433.690	-114.319	0.181	-0.035
-432.676	800.000	-0.023	0.075
-431.661	93.382	-0.331	0.372
-430.646	731.308	0.082	0.218
-429.632	557.424	0.057	-0.136
-428.617	17.607	0.218	-0.172
-427.603	179.667	-0.231	-0.335
-426.588	800.000	-0.035	-0.101
-425.573	37.495	-0.296	0.261
-424.559	42.166	-0.056	0.050
-423.544	148.916	-0.093	-0.124
-422.530	75.543	-0.065	0.068
-421.515	254.021	0.062	-0.104
-420.500	-200.000	0.032	0.385
-419.486	-80.360	-0.210	0.069
-418.471	-19.686	0.175	-0.107
-417.457	800.000	-0.052	0.150
-416.442	-17.937	0.246	-0.153
-415.428	-51.094	-0.291	-0.135
-414.413	-145.485	0.140	0.012
-413.398	50.605	-0.149	-0.140
-412.384	157.419	0.217	0.298
-411.369	-200.000	0.042	0.298
-410.355	-47.260	-0.153	0.074
-409.340	126.775	0.072	0.090
-408.325	-47.976	-0.185	0.089
-407.311	28.368	0.053	-0.045
-406.296	562.692	-0.037	-0.089
-405.282	92.989	0.099	-0.110
-404.267	232.820	-0.065	-0.106
-403.252	187.023	0.125	0.185
-402.238	-10.888	-0.342	0.224
-401.223	800.000	0.058	0.222
-400.209	213.794	-0.102	-0.159
-399.194	-65.085	0.346	-0.138
-398.179	164.931	-0.145	0.202
-397.165	-111.841	0.142	0.028
-396.150	74.196	-0.120	0.125
-395.136	-200.000	0.023	-0.222
-394.121	29.483	-0.143	-0.120
-393.106	518.520	0.121	0.280
-392.092	-82.899	-0.084	-0.027
-391.077	352.532	-0.223	-0.438
-390.063	100.686	-0.170	-0.196
-389.048	112.127	-0.018	0.022
-388.033	466.679	-0.161	-0.358
-387.019	512.184	-0.113	-0.262
-386.004	-126.036	0.095	0.014
-384.990	-158.290	0.234	0.014
-383.975	-69.502	-0.116	-0.044
-382.960	128.153	0.094	0.119
-381.946	800.000	0.033	0.143
-380.931	-33.994	-0.192	0.105
-379.917	-48.966	0.179	-0.085
-378.902	-146.461	-0.215	0.019
-377.888	665.146	0.077	-0.197
-376.873	-200.000	-0.042	-0.280
-375.858	-143.189	-0.290	0.028
-374.844	-65.949	-0.250	0.099
-373.829	74.265	-0.163	0.169
-372.815	-149.162	0.124	0.010
-371.800	-200.000	0.022	-0.281
-370.785	-106.906	0.196	-0.043
-369.771	406.126	-0.099	0.206
-368.756	-113.204	0.524	-0.102
-367.742	453.858	0.061	0.134
-366.727	-200.000	-0.005	-0.100
-365.712	-200.000	-0.014	0.105
-364.698	-120.479	0.311	-0.052
-363.683	90.839	-0.103	0.114
-362.669	71.356	-0.210	0.216
-361.654	-200.000	-0.013	0.123
-360.639	-104.208	-0.314	0.072
-359.625	775.888	-0.093	0.251
-358.610	-11.497	0.158	0.103
-357.596	800.000	0.048	-0.135
-356.581	113.855	0.098	0.118
-355.566	339.718	-0.140	-0.271
-354.552	169.368	-0.160	0.227
-353.537	-200.000	0.069	0.317
-352.523	188.335	0.108	-0.160
-351.508	41.575	-0.132	-0.118
-350.493	-143.777	0.144	-0.013
-349.479	-147.850	0.076	0.006
-348.464	114.386	0.234	0.281
-347.450	-3.450	-0.136	-0.094
-346.435	-122.169	-0.307	0.050
-345.420	244.203	0.125	0.207
-344.406	-200.000	0.058	-0.304
-343.391	-60.650	-0.255	0.107
-342.377	-77.128	-0.173	0.060
-341.362	-166.753	0.264	-0.011
-340.348	-92.394	0.066	-0.018
-339.333	-101.746	0.316	0.076
-338.318	-200.000	-0.334	-0.000
-337.304	140.656	0.113	0.147
-336.289	-190.941	-0.242	-0.003
-335.275	375.378	0.239	-0.482
-334.260	89.726	-0.013	-0.014
-333.245	-41.330	0.070	0.036
-332.231	-200.000	-0.039	-0.321
-331.216	151.616	0.057	0.077
-330.202	-87.612	-0.124	-0.037
-329.187	-115.193	-0.112	-0.021
-328.172	-200.000	-0.023	-0.166
-327.158	-9.430	-0.166	0.109
-326.143	65.835	-0.169	-0.169
-325.129	800.000	0.118	-0.409
-324.114	517.559	0.097	0.223
-323.099	257.994	0.132	-0.225
-322.085	799.857	-0.120	0.326
-321.070	-194.405	-0.171	0.001
-320.056	41.628	-0.080	0.072
-319.041	-12.176	-0.035	0.023
-318.026	-168.100	-0.263	0.010
-317.012	-186.294	0.106	0.002
-315.997	-103.281	-0.214	0.050
-314.983	800.000	-0.037	-0.128
-313.968	-64.853	-0.207	-0.083
-312.953	741.896	0.261	-0.692
-311.939	-8.643	-0.258	-0.171
-310.924	107.500	-0.046	0.054
-309.910	213.934	-0.063	0.098
-308.895	7.674	-0.158	0.117
-307.880	420.799	-0.037	0.079
-306.866	78.604	0.297	-0.313
-305.851	287.298	0.053	-0.094
-304.837	-138.444	-0.075	0.008
-303.822	-200.000	-0.000	-0.160
-302.807	800.000	-0.031	-0.100
-301.793	1.106	0.126	0.089
-300.778	-190.927	-0.069	-0.001
-299.764	228.437	0.150	0.242
-298.749	800.000	-0.086	0.320
-297.735	2.052	-0.062	0.044
-296.720	800.000	-0.055	0.215
-295.705	-70.937	-0.106	-0.040
-294.691	68.373	-0.087	0.088
-293.676	125.628	0.057	-0.071
-292.662	-200.000	-0.020	0.306
-291.647	644.489	-0.073	0.185
-290.632	-63.314	0.083	0.034
-289.618	42.317	0.193	-0.173
-288.603	280.037	0.063	-0.112
-287.589	-200.000	0.007	0.359
-286.574	800.000	-0.042	0.146
-285.559	3.665	0.073	0.052
-284.545	-2.936	0.228	-0.157
-283.530	439.343	0.035	0.076
-282.516	-31.053	-0.123	0.068
-281.501	358.588	0.254	-0.501
-280.486	-40.623	-0.140	0.072
-279.472	-200.000	-0.045	-0.361
-278.457	100.095	-0.145	0.166
-277.443	-115.771	-0.452	0.084
-276.428	-156.722	0.375	-0.023
-275.413	71.854	-0.048	0.049
-274.399	174.087	0.060	-0.086
-273.384	742.207	-0.075	-0.200
-272.370	-34.921	0.275	0.148
-271.355	-200.000	0.025	-0.122
-270.340	-101.555	0.260	-0.062
-269.326	-200.000	-0.024	-0.109
-268.311	422.779	-0.091	0.193
-267.297	-89.382	-0.406	0.118
-266.282	800.000	0.107	0.319
-265.267	-200.000	-0.025	-0.353
-264.253	77.427	-0.192	-0.202
-263.238	45.171	0.090	-0.082
-262.224	578.068	0.102	-0.246
-261.209	-200.000	0.033	0.169
-260.195	18.232	-0.073	0.058
-259.180	-146.800	0.096	0.008
-258.165	172.630	-0.139	0.197
-257.151	-161.284	-0.108	0.006
-256.136	3.875	0.227	-0.164
-255.122	80.907	0.174	0.185
-254.107	-134.383	-0.103	0.012
-253.092	-16.843	0.230	-0.143
-252.078	-200.000	-0.008	0.175
-251.063	-200.000	-0.026	0.193
-250.049	105.039	-0.269	0.313
-249.034	-200.000	0.032	0.202
-248.019	23.296	0.109	0.088
-247.005	800.000	-0.013	0.047
-245.990	800.000	-0.009	-0.029
-244.976	546.995	-0.072	0.169
-243.961	529.316	-0.159	0.369
-242.946	72.504	-0.138	0.142
-241.932	288.287	0.083	-0.148
-240.917	218.077	0.106	-0.167
-239.903	-200.000	0.037	-0.300
-238.888	645.147	-0.109	-0.274
-237.873	-135.435	0.229	0.027
-236.859	312.405	0.127	0.235
-235.844	-80.569	-0.270	-0.089
-234.830	87.122	-0.111	-0.121
-233.815	-200.000	0.089	0.528
-232.800	-200.000	-0.003	0.011
-231.786	66.182	-0.205	-0.205
-230.771	-93.510	0.161	-0.044
-229.757	-185.911	-0.063	0.001
-228.742	171.485	0.067	-0.095
-227.727	502.300	0.059	-0.135
-226.713	74.074	0.250	-0.258
-225.698	63.137	0.047	0.046
-224.684	-63.610	0.154	0.062
-223.669	159.000	0.109	-0.149
-222.655	-33.134	0.186	0.101
-221.640	-43.246	-0.124	0.062
-220.625	-200.000	0.019	-0.207
-219.611	541.508	0.113	0.264
-218.596	-106.971	0.138	0.030
-217.582	176.947	0.090	-0.129
-216.567	46.498	-0.140	-0.128
-215.552	-174.778	0.193	0.005
-214.538	434.752	-0.074	-0.158
-213.523	-200.000	0.050	0.284
-212.509	101.581	0.190	0.218
-211.494	-200.000	0.052	-0.228
-210.479	-97.684	-0.172	-0.044
-209.465	800.000	-0.022	-0.081
-208.450	478.034	0.100	-0.223
-207.436	-60.577	0.306	0.128
-206.421	800.000	-0.043	-0.171
-205.406	-197.605	-0.200	0.001
-204.392	-14.702	0.176	0.111
-203.377	185.413	0.176	-0.257
-202.363	-200.000	0.033	0.257
-201.348	-200.000	0.019	0.444
-200.333	-183.073	0.137	0.002
-199.319	493.394	0.097	0.218
-198.304	-6.976	0.173	0.116
-197.290	179.161	-0.114	-0.164
-196.275	-75.032	0.319	-0.112
-195.260	265.347	-0.117	0.200
-194.246	-21.479	0.110	-0.066
-193.231	82.321	0.284	0.303
-192.217	-61.912	-0.175	0.072
-191.202	-55.570	0.158	-0.069
-190.187	77.061	-0.249	0.260
-189.173	-164.828	0.273	0.012
-188.158	49.151	0.268	0.248
-187.144	-200.000	0.028	0.279
-186.129	-95.020	-0.343	0.091
-185.114	-106.123	0.161	0.035
-184.100	-92.758	-0.270	0.074
-183.085	-52.171	0.175	0.080
-182.071	-100.091	0.232	0.057
-181.056	52.958	-0.345	0.324
-180.042	-174.329	-0.083	-0.002
-179.027	800.000	0.015	-0.062
-178.012	-200.000	0.020	-0.179
-176.998	150.423	-0.246	-0.328
-175.983	563.020	0.078	-0.186
-174.969	-65.368	0.146	-0.058
-173.954	-90.928	-0.330	-0.093
-172.939	-200.000	0.004	-0.158
-171.925	-200.000	-0.003	0.100
-170.910	-59.090	0.201	-0.085
-169.896	-105.562	0.396	0.088
-168.881	-178.347	0.266	0.006
-167.866	-200.000	-0.075	-0.398
-166.852	62.816	-0.192	-0.189
-165.837	-200.000	-0.032	0.283
-164.823	-200.000	0.036	-0.183
-163.808	88.315	-0.085	-0.093
-162.793	800.000	0.067	0.281
-161.779	-200.000	0.007	-0.297
-160.764	519.972	0.071	0.164
-159.750	800.000	0.099	-0.300
-158.735	-111.489	0.200	-0.040
-157.720	286.301	0.178	-0.315
-156.706	-29.896	0.211	-0.118
-155.691	232.237	-0.043	-0.069
-154.677	-138.437	-0.153	-0.017
-153.662	-36.265	0.048	0.026
-152.647	-14.372	-0.276	-0.175
-151.633	132.355	-0.027	-0.035
-150.618	-116.726	0.154	0.028
-149.604	744.906	-0.050	-0.131
-148.589	418.667	-0.059	0.124
-147.574	-159.288	0.095	0.005
-146.560	387.713	0.041	0.083
-145.545	179.732	0.209	0.300
-144.531	142.479	0.384	0.501
-143.516	187.420	0.157	-0.230
-142.502	84.658	0.081	0.087
-141.487	68.630	-0.074	0.074
-140.472	224.152	0.126	-0.200
-139.458	476.663	-0.094	0.208
-138.443	-107.431	0.225	0.048
-137.429	-163.002	-0.010	0.000
-136.414	-51.902	0.057	-0.026
-135.399	-200.000	-0.024	0.274
-134.385	303.463	0.091	0.165
-133.370	-9.182	-0.112	0.073
-132.356	-69.435	-0.149	0.056
-131.341	-162.078	0.105	-0.005
-130.326	-62.760	0.267	0.108
-129.312	-171.765	-0.170	-0.005
-128.297	35.707	0.156	0.134
-127.283	-65.661	-0.189	0.074
-126.268	6.770	0.066	0.048
-125.253	-200.000	0.015	-0.312
-124.239	304.361	-0.136	-0.247
-123.224	-200.000	0.028	0.127
-122.210	-66.855	0.216	0.084
-121.195	-57.349	-0.311	0.134
