DTS Sentinel unit serial number:	SN413079Multiplexer serial number:	ORYXHardware model number:	OX4-SRSoftware version number:	ORYX F/W v4.00 Oryx Data Collector v3.7.2.0data status	okinstallation	princeton_trtdifferential loss correction	single-endedforward channel	channel 1reverse channel	N/Adate	2019/09/15time	21:06:35forward acquisition time	60.00reverse acquisition time	0.00gamma	496.2192k internal	0.2328k external	0.2328temperature offset calibration	0.9963default loss term (dB/km)	0.3790temperature slope calibration	1.0000multiplexer offset coefficient	1.0000multiplexer slope coefficient	1.0000fibre end	0.00T internal ref (°C)	31.55T ext. ref 1 (°C)	8.10T ext. ref 2 (°C)	24.36length (m)	temperature (°C)	Stokes	anti-Stokes-747.200	28.348	-0.203	-0.173
-746.185	-200.000	0.042	-0.305
-745.171	-200.000	0.023	0.244
-744.156	800.000	0.037	0.133
-743.142	-26.467	-0.241	-0.142
-742.127	-200.000	-0.046	0.344
-741.112	-14.921	0.210	-0.136
-740.098	-76.334	0.109	-0.039
-739.083	64.311	-0.136	0.137
-738.069	150.561	0.147	0.201
-737.054	33.470	-0.268	0.235
-736.039	341.984	-0.211	0.417
-735.025	-11.231	0.120	0.080
-734.010	-60.264	-0.278	-0.119
-732.996	-200.000	-0.013	-0.099
-731.981	-26.166	-0.335	0.198
-730.966	-141.381	-0.127	-0.013
-729.952	-66.279	0.102	-0.041
-728.937	67.977	0.222	-0.229
-727.923	800.000	-0.020	-0.076
-726.908	-113.941	0.089	0.017
-725.894	527.826	-0.068	0.162
-724.879	-111.386	-0.342	-0.070
-723.864	-55.746	0.222	-0.100
-722.850	-148.942	-0.296	0.024
-721.835	-136.374	0.168	-0.020
-720.821	-66.028	-0.127	0.051
-719.806	279.978	-0.084	-0.150
-718.791	-122.674	0.190	-0.031
-717.777	-36.227	-0.083	-0.045
-716.762	37.555	-0.297	0.265
-715.748	-200.000	-0.012	0.105
-714.733	95.702	0.068	-0.079
-713.718	-173.503	-0.271	-0.008
-712.704	-77.894	0.232	-0.081
-711.689	-135.785	-0.247	0.029
-710.675	800.000	-0.063	0.237
-709.660	192.697	-0.058	0.087
-708.645	-98.649	0.307	0.079
-707.631	-200.000	0.024	-0.367
-706.616	-200.000	-0.050	0.268
-705.602	83.560	0.150	-0.165
-704.587	-129.778	0.246	-0.034
-703.572	-21.537	0.072	0.044
-702.558	-36.128	-0.320	-0.174
-701.543	-200.000	-0.004	-0.123
-700.529	-95.037	-0.239	0.065
-699.514	39.037	-0.223	-0.201
-698.499	522.339	-0.085	0.200
-697.485	684.475	-0.064	0.167
-696.470	207.051	-0.113	0.178
-695.456	-63.893	0.202	-0.083
-694.441	-2.816	0.181	-0.127
-693.426	79.594	0.142	0.154
-692.412	-63.798	-0.133	-0.055
-691.397	-77.352	0.392	0.137
-690.383	-100.244	0.125	0.031
-689.368	-200.000	-0.022	-0.145
-688.354	-200.000	0.018	-0.259
-687.339	-151.554	-0.071	-0.005
-686.324	-54.237	-0.164	0.075
-685.310	-136.187	-0.231	0.027
-684.295	-69.255	-0.148	-0.057
-683.281	415.479	-0.152	0.326
-682.266	-200.000	0.000	0.078
-681.251	-200.000	0.038	0.174
-680.237	-27.663	-0.060	0.035
-679.222	18.514	-0.264	-0.212
-678.208	800.000	0.061	-0.245
-677.193	67.904	0.028	-0.029
-676.178	-116.547	0.180	-0.033
-675.164	-65.621	0.136	0.055
-674.149	-161.413	-0.232	-0.012
-673.135	-200.000	-0.008	-0.322
-672.120	6.628	0.079	0.059
-671.105	99.833	0.234	0.273
-670.091	300.008	-0.066	0.123
-669.076	-56.832	0.169	-0.075
-668.062	-49.438	0.299	-0.143
-667.047	233.361	0.098	-0.162
-666.032	-66.048	-0.099	0.040
-665.018	-23.617	0.091	0.055
-664.003	59.281	0.090	-0.089
-662.989	800.000	0.109	0.358
-661.974	-200.000	0.020	-0.386
-660.959	-152.751	-0.250	0.018
-659.945	-40.629	-0.376	-0.196
-658.930	-77.920	-0.213	0.074
-657.916	-200.000	-0.018	0.287
-656.901	83.758	0.222	0.243
-655.886	210.249	-0.113	0.178
-654.872	323.518	-0.124	-0.237
-653.857	-200.000	0.002	-0.069
-652.843	-0.929	0.141	-0.100
-651.828	-18.585	-0.185	-0.116
-650.814	496.491	-0.111	0.256
-649.799	-200.000	-0.032	-0.197
-648.784	800.000	0.086	-0.275
-647.770	141.858	-0.080	0.106
-646.755	-200.000	-0.063	0.329
-645.741	683.639	-0.050	-0.131
-644.726	-70.693	-0.169	-0.064
-643.711	800.000	0.053	-0.208
-642.697	-136.213	0.209	0.025
-641.682	365.777	-0.041	-0.084
-640.668	-78.158	0.106	-0.036
-639.653	34.679	0.151	0.132
-638.638	-50.194	-0.245	0.117
-637.624	251.211	0.116	0.197
-636.609	-39.398	-0.099	0.052
-635.595	-33.915	-0.303	-0.168
-634.580	-200.000	-0.051	-0.258
-633.565	52.939	-0.143	0.137
-632.551	-66.452	0.290	0.115
-631.536	-200.000	0.027	-0.327
-630.522	-102.264	0.272	-0.066
-629.507	37.556	-0.110	-0.098
-628.492	-200.000	-0.020	0.088
-627.478	-127.517	-0.216	0.031
-626.463	800.000	-0.112	0.319
-625.449	800.000	0.037	0.149
-624.434	-1.218	-0.056	0.040
-623.419	-200.000	-0.024	-0.316
-622.405	-200.000	0.061	0.323
-621.390	628.653	0.058	0.148
-620.376	800.000	0.011	0.047
-619.361	-55.808	-0.146	-0.065
-618.346	-104.403	-0.170	-0.040
-617.332	-46.584	0.134	0.066
-616.317	-92.083	-0.180	-0.051
-615.303	7.678	-0.227	0.170
-614.288	66.882	0.087	-0.089
-613.273	-193.458	-0.031	0.000
-612.259	800.000	-0.032	0.126
-611.244	-104.388	0.332	-0.077
-610.230	-200.000	-0.041	0.264
-609.215	430.600	-0.061	0.132
-608.201	209.165	0.095	-0.149
-607.186	-5.760	0.087	0.060
-606.171	800.000	-0.043	-0.143
-605.157	-200.000	0.025	-0.274
-604.142	55.933	-0.120	-0.116
-603.128	126.991	-0.208	0.264
-602.113	156.616	0.139	0.193
-601.098	158.347	0.151	-0.210
-600.084	-82.474	-0.244	-0.079
-599.069	-115.549	-0.147	0.028
-598.055	47.042	0.246	-0.230
-597.040	-200.000	-0.034	0.256
-596.025	-118.645	-0.438	0.078
-595.011	-92.814	-0.236	-0.066
-593.996	-110.286	0.261	-0.054
-592.982	499.066	0.122	-0.283
-591.967	-87.786	-0.224	-0.068
-590.952	-200.000	0.045	0.208
-589.938	120.050	0.179	-0.223
-588.923	800.000	0.032	0.089
-587.909	-200.000	-0.002	-0.156
-586.894	-200.000	0.086	-0.493
-585.879	-156.391	-0.091	-0.006
-584.865	518.540	-0.145	0.340
-583.850	631.466	0.059	-0.149
-582.836	106.291	-0.195	-0.231
-581.821	316.522	-0.058	-0.109
-580.806	800.000	-0.035	-0.127
-579.792	45.994	0.273	-0.253
-578.777	-109.422	-0.205	-0.043
-577.763	673.511	0.030	0.078
-576.748	-75.642	-0.135	0.048
-575.733	-200.000	-0.027	-0.162
-574.719	-65.776	-0.266	0.107
-573.704	-36.208	-0.212	-0.115
-572.690	240.524	0.076	0.128
-571.675	214.561	-0.032	0.050
-570.661	-132.415	0.077	-0.010
-569.646	800.000	0.156	-0.476
-568.631	-200.000	-0.003	-0.135
-567.617	8.507	-0.157	-0.118
-566.602	-44.698	0.226	0.113
-565.588	-134.935	-0.301	-0.036
-564.573	-200.000	0.013	0.283
-563.558	-12.935	-0.293	0.191
-562.544	397.106	0.092	0.192
-561.529	489.901	-0.085	0.194
-560.515	212.602	-0.131	-0.208
-559.500	13.630	0.186	-0.145
-558.485	327.847	-0.122	-0.233
-557.471	11.742	0.202	-0.155
-556.456	-54.099	0.368	0.167
-555.442	170.658	0.134	0.193
-554.427	7.732	0.242	0.181
-553.412	97.438	0.107	0.123
-552.398	-26.152	-0.130	-0.076
-551.383	-67.187	-0.260	0.102
-550.369	-49.173	0.079	-0.038
-549.354	-192.490	0.262	0.002
-548.339	-106.587	-0.314	0.070
-547.325	23.366	0.087	-0.072
-546.310	-200.000	-0.002	-0.354
-545.296	-71.726	-0.211	0.079
-544.281	-54.119	0.171	-0.078
-543.266	-111.178	0.027	-0.006
-542.252	170.521	0.063	0.091
-541.237	372.313	0.135	0.274
-540.223	82.144	0.274	0.297
-539.208	-105.637	0.309	-0.070
-538.193	800.000	-0.043	0.130
-537.179	-62.891	0.247	0.102
-536.164	146.551	-0.234	-0.315
-535.150	800.000	-0.025	0.091
-534.135	100.776	0.082	-0.095
-533.121	-79.951	-0.138	0.046
-532.106	314.792	0.044	0.082
-531.091	-22.344	0.022	0.013
-530.077	403.269	-0.091	0.191
-529.062	-48.711	-0.158	-0.076
-528.048	3.433	-0.263	-0.192
-527.033	-40.785	-0.306	-0.158
-526.018	95.866	-0.029	0.033
-525.004	-200.000	0.001	-0.221
-523.989	-21.690	0.217	0.132
-522.975	0.883	0.088	-0.063
-521.960	-75.602	-0.178	-0.063
-520.945	-86.196	0.280	0.086
-519.931	-200.000	0.022	0.257
-518.916	800.000	-0.034	0.130
-517.902	-137.128	-0.550	0.063
-516.887	189.815	0.076	0.114
-515.872	-173.495	-0.070	-0.002
-514.858	259.353	0.207	-0.356
-513.843	13.270	0.110	-0.085
-512.829	-90.289	-0.495	0.144
-511.814	180.743	-0.085	0.125
-510.799	34.136	-0.224	0.195
-509.785	-119.501	0.173	-0.030
-508.770	116.497	-0.170	0.209
-507.756	51.531	0.049	0.046
-506.741	-132.507	-0.281	0.036
-505.726	78.293	0.336	-0.358
-504.712	-104.742	0.310	-0.071
-503.697	-200.000	0.029	0.204
-502.683	-30.650	-0.130	0.073
-501.668	174.978	0.085	0.122
-500.653	-34.426	0.166	0.091
-499.639	-84.515	0.201	-0.063
-498.624	-200.000	-0.021	0.276
-497.610	-200.000	-0.019	0.264
-496.595	-200.000	0.026	-0.234
-495.581	-61.008	0.163	0.069
-494.566	427.567	0.113	0.243
-493.551	690.936	-0.098	0.257
-492.537	588.052	-0.100	0.246
-491.522	-20.755	0.217	-0.133
-490.508	-77.957	0.384	-0.132
-489.493	-65.243	-0.187	-0.075
-488.478	-31.199	-0.302	-0.170
-487.464	-90.007	0.228	0.066
-486.449	-13.595	-0.363	-0.234
-485.435	-143.364	0.042	0.004
-484.420	-45.462	-0.198	0.098
-483.405	638.499	-0.157	0.397
-482.391	-27.278	-0.135	0.078
-481.376	237.229	0.090	-0.149
-480.362	-143.810	-0.119	-0.011
-479.347	-200.000	-0.012	-0.111
-478.332	237.195	0.062	0.102
-477.318	-79.455	-0.283	-0.096
-476.303	-88.372	-0.070	-0.021
-475.289	-200.000	0.007	0.133
-474.274	452.035	-0.140	0.309
-473.259	66.253	0.159	-0.161
-472.245	800.000	0.095	0.394
-471.230	-27.739	-0.103	0.060
-470.216	-181.993	-0.027	-0.001
-469.201	-135.944	0.308	0.036
-468.186	-200.000	0.028	0.156
-467.172	-146.013	0.303	0.027
-466.157	-136.975	0.346	-0.040
-465.143	50.408	0.073	-0.069
-464.128	800.000	0.088	-0.261
-463.113	-157.280	0.189	0.011
-462.099	-32.796	0.189	0.105
-461.084	193.369	0.017	0.026
-460.070	-200.000	-0.030	0.175
-459.055	-75.102	-0.282	0.101
-458.040	224.289	-0.227	0.366
-457.026	549.884	0.106	-0.253
-456.011	800.000	0.091	0.365
-454.997	112.186	0.079	-0.095
-453.982	-39.449	-0.183	-0.096
-452.968	79.300	-0.134	0.143
-451.953	242.034	-0.095	0.159
-450.938	-119.991	0.369	-0.063
-449.924	-200.000	-0.034	0.269
-448.909	136.956	-0.238	-0.310
-447.895	61.618	-0.368	-0.365
-446.880	-110.466	0.517	-0.107
-445.865	634.574	-0.044	-0.111
-444.851	-121.870	-0.203	-0.033
-443.836	427.176	-0.102	0.220
-442.822	23.454	-0.040	-0.032
-441.807	-8.471	-0.325	0.217
-440.792	-200.000	-0.005	-0.327
-439.778	-200.000	-0.006	-0.233
-438.763	389.838	0.087	-0.181
-437.749	800.000	0.037	0.116
-436.734	-200.000	-0.022	-0.323
-435.719	800.000	-0.037	0.120
-434.705	-132.043	0.243	0.031
-433.690	-162.829	-0.298	0.014
-432.676	800.000	-0.035	0.148
-431.661	-200.000	-0.016	-0.163
-430.646	231.013	0.073	-0.118
-429.632	232.546	0.033	0.054
-428.617	130.037	-0.127	-0.161
-427.603	-32.439	-0.133	-0.074
-426.588	-48.592	-0.196	0.094
-425.573	128.855	0.037	0.047
-424.559	800.000	0.059	0.252
-423.544	-36.095	-0.197	0.106
-422.530	58.652	-0.152	-0.149
-421.515	-24.232	-0.267	-0.159
-420.500	-103.101	0.354	0.083
-419.486	-200.000	-0.009	-0.172
-418.471	131.854	-0.221	-0.283
-417.457	-99.400	0.152	0.038
-416.442	-110.329	0.143	0.029
-415.428	194.262	0.061	0.092
-414.413	-200.000	-0.031	-0.139
-413.398	800.000	-0.063	0.191
-412.384	46.018	-0.188	0.174
-411.369	701.184	0.064	-0.166
-410.355	-103.433	-0.081	-0.019
-409.340	80.637	-0.203	-0.218
-408.325	656.097	-0.018	0.047
-407.311	-128.587	-0.322	-0.045
-406.296	318.050	-0.094	-0.177
-405.282	800.000	-0.058	-0.188
-404.267	-200.000	-0.009	-0.114
-403.252	-68.779	-0.217	0.083
-402.238	62.816	0.070	-0.070
-401.223	-116.812	-0.289	0.053
-400.209	-200.000	0.009	-0.066
-399.194	154.935	-0.113	-0.155
-398.179	-54.634	-0.259	0.117
-397.165	742.575	-0.119	-0.319
-396.150	98.188	0.129	-0.147
-395.136	112.605	0.132	-0.159
-394.121	-29.995	0.346	-0.196
-393.106	-56.739	0.117	0.052
-392.092	325.878	-0.094	0.179
-391.077	-116.152	0.162	-0.030
-390.063	-42.061	0.288	-0.147
-389.048	116.403	-0.157	0.192
-388.033	-200.000	0.003	-0.098
-387.019	800.000	0.125	-0.354
-386.004	-93.756	-0.131	0.036
-384.990	-31.135	0.278	0.156
-383.975	800.000	-0.094	-0.328
-382.960	-124.161	0.300	-0.047
-381.946	301.137	0.188	0.345
-380.931	-99.567	0.230	0.057
-379.917	-66.417	-0.257	0.101
-378.902	630.470	0.076	-0.192
-377.888	189.268	0.287	0.427
-376.873	-200.000	0.022	0.104
-375.858	-200.000	-0.012	-0.125
-374.844	9.564	0.250	0.188
-373.829	11.756	0.067	-0.051
-372.815	800.000	0.008	-0.028
-371.800	63.939	-0.272	0.271
-370.785	164.902	0.239	0.336
-369.771	-17.434	0.146	0.091
-368.756	800.000	-0.123	-0.356
-367.742	319.814	-0.082	-0.154
-366.727	605.604	0.141	0.349
-365.712	-121.703	0.057	-0.009
-364.698	-112.760	0.113	0.022
-363.683	155.961	0.082	0.112
-362.669	-48.158	0.235	0.113
-361.654	-89.463	-0.234	0.068
-360.639	-71.217	-0.027	0.010
-359.625	209.454	-0.101	-0.158
-358.610	-147.170	0.180	-0.015
-357.596	-39.976	-0.316	0.164
-356.581	27.493	0.211	0.176
-355.566	60.791	0.201	-0.198
-354.552	614.992	-0.144	-0.357
-353.537	-125.457	0.314	0.047
-352.523	-73.285	0.296	0.107
-351.508	-200.000	0.044	0.294
-350.493	800.000	-0.106	-0.399
-349.479	51.769	-0.299	0.283
-348.464	-125.450	0.132	-0.020
-347.450	131.494	-0.192	0.245
-346.435	55.204	0.130	-0.125
-345.420	-123.080	-0.428	0.068
-344.406	-200.000	0.015	0.138
-343.391	-200.000	0.021	0.432
-342.377	-109.867	-0.148	-0.031
-341.362	-55.255	-0.111	-0.049
-340.348	703.589	-0.061	-0.159
-339.333	14.594	0.215	-0.167
-338.318	-36.390	0.107	-0.057
-337.304	-151.685	0.293	-0.021
-336.289	228.190	-0.171	0.276
-335.275	-200.000	-0.002	0.115
-334.260	-102.383	-0.546	0.130
-333.245	684.451	-0.017	0.045
-332.231	83.924	0.074	0.080
-331.216	239.696	0.046	-0.077
-330.202	-86.697	-0.166	-0.051
-329.187	14.407	0.218	-0.169
-328.172	247.214	-0.139	-0.233
-327.158	363.002	-0.045	-0.089
-326.143	-200.000	-0.025	-0.114
-325.129	581.820	-0.060	-0.146
-324.114	-200.000	0.041	-0.225
-323.099	-71.201	-0.299	-0.111
-322.085	13.605	-0.366	0.282
-321.070	-200.000	-0.015	0.129
-320.056	-117.405	0.186	0.033
-319.041	140.836	0.200	-0.262
-318.026	-200.000	-0.033	0.278
-317.012	98.950	0.205	0.234
-315.997	-118.040	0.211	-0.037
-314.983	-200.000	-0.005	-0.051
-313.968	-200.000	-0.122	0.642
-312.953	-30.173	-0.285	0.160
-311.939	-33.320	0.093	-0.051
-310.924	-29.830	0.263	0.148
-309.910	275.420	-0.069	0.120
-308.895	-200.000	0.009	-0.205
-307.880	-200.000	-0.049	-0.304
-306.866	531.844	-0.158	-0.371
-305.851	-89.749	-0.159	0.046
-304.837	3.909	0.119	0.086
-303.822	-200.000	-0.032	-0.142
-302.807	-200.000	0.034	0.164
-301.793	-11.708	0.100	0.065
-300.778	56.133	-0.194	-0.187
-299.764	45.657	0.204	0.187
-298.749	96.697	-0.134	0.152
-297.735	95.173	0.136	0.153
-296.720	8.089	-0.107	-0.080
-295.705	-154.180	-0.203	-0.014
-294.691	-52.713	0.100	-0.046
-293.676	269.174	-0.073	0.126
-292.662	800.000	0.063	0.202
-291.647	48.917	0.178	0.165
-290.632	-22.979	-0.068	0.040
-289.618	29.220	0.236	0.198
-288.603	17.385	0.149	-0.118
-287.589	-160.541	0.240	0.013
-286.574	-94.862	-0.135	-0.036
-285.559	-200.000	0.025	-0.164
-284.545	-171.921	0.114	0.004
-283.530	-115.905	-0.049	0.009
-282.516	188.388	0.020	-0.030
-281.501	244.789	0.139	0.232
-280.486	-68.659	-0.359	-0.138
-279.472	-99.848	-0.103	-0.025
-278.457	137.418	0.098	0.127
-277.443	800.000	-0.053	-0.205
-276.428	120.345	-0.040	-0.049
-275.413	113.979	0.058	-0.070
-274.399	59.333	0.022	0.022
-273.384	800.000	-0.103	-0.312
-272.370	-200.000	-0.001	-0.061
-271.355	103.294	-0.163	0.189
-270.340	-114.766	0.085	-0.016
-269.326	-86.136	0.453	-0.138
-268.311	-32.987	-0.055	0.030
-267.297	-105.906	-0.326	0.073
-266.282	-10.872	-0.136	0.089
-265.267	367.574	0.187	-0.374
-264.253	800.000	0.077	0.285
-263.238	410.197	0.056	0.117
-262.224	407.394	0.071	-0.148
-261.209	-200.000	-0.042	-0.260
-260.195	320.693	-0.156	0.292
-259.180	436.319	0.198	0.426
-258.165	89.813	-0.146	0.161
-257.151	-200.000	0.012	0.074
-256.136	31.228	-0.149	-0.127
-255.122	129.431	0.080	-0.101
-254.107	-200.000	-0.021	0.137
-253.092	-19.760	0.032	0.020
-252.078	-118.518	0.174	-0.030
-251.063	51.914	0.027	0.025
-250.049	28.072	0.105	-0.088
-249.034	-156.132	0.306	-0.019
-248.019	696.037	0.082	-0.212
-247.005	27.895	-0.302	-0.251
-245.990	-200.000	0.013	-0.181
-244.976	-2.057	0.338	0.234
-243.961	-36.889	0.484	-0.257
-242.946	262.928	0.045	-0.077
-241.932	31.952	0.112	0.095
-240.917	800.000	-0.092	-0.390
-239.903	-130.098	0.519	-0.070
-238.888	187.322	0.273	0.402
-237.873	-31.596	0.382	0.212
-236.859	177.566	0.244	0.351
-235.844	528.520	0.017	-0.040
-234.830	-108.774	0.014	-0.003
-233.815	-90.234	-0.126	0.036
-232.800	-115.613	0.311	-0.058
-231.786	-200.000	0.021	-0.124
-230.771	-104.580	0.322	-0.073
-229.757	28.983	0.181	0.151
-228.742	175.888	-0.125	-0.179
-227.727	271.140	-0.059	0.103
-226.713	800.000	0.153	0.418
-225.698	166.528	0.048	0.067
-224.684	557.485	-0.112	-0.266
-223.669	75.042	0.108	-0.113
-222.655	-45.881	0.154	0.075
-221.640	-136.110	-0.313	-0.036
-220.625	-12.835	-0.214	0.138
-219.611	248.234	0.131	-0.219
-218.596	800.000	-0.020	-0.080
-217.582	273.355	-0.071	-0.123
-216.567	-125.553	0.111	-0.017
-215.552	45.236	-0.252	-0.229
-214.538	387.992	-0.088	-0.179
-213.523	5.247	0.109	0.079
-212.509	-84.079	0.323	0.101
-211.494	800.000	0.050	-0.171
-210.479	391.360	-0.317	-0.650
-209.465	124.688	-0.030	-0.037
-208.450	800.000	-0.026	-0.080
-207.436	-52.277	-0.132	0.060
-206.421	800.000	-0.069	0.217
-205.406	-200.000	0.082	0.510
-204.392	800.000	0.061	-0.168
-203.377	26.242	-0.098	0.080
-202.363	2.684	-0.237	-0.170
-201.348	21.952	-0.154	-0.124
-200.333	397.920	0.068	0.140
-199.319	800.000	0.033	0.103
-198.304	-55.247	0.231	-0.102
-197.290	800.000	0.106	0.322
-196.275	800.000	-0.075	-0.240
-195.260	-154.299	-0.067	-0.004
-194.246	134.824	0.237	-0.303
-193.231	-118.229	0.188	0.033
-192.217	-100.283	-0.341	0.083
-191.202	8.259	-0.072	-0.053
-190.187	168.830	0.123	-0.173
-189.173	90.582	-0.197	0.217
-188.158	-26.033	-0.274	0.159
-187.144	800.000	-0.072	-0.300
-186.129	-85.304	-0.196	0.060
-185.114	-30.870	0.075	-0.042
-184.100	-11.953	0.048	0.031
-183.085	59.912	0.214	0.208
-182.071	8.586	0.223	0.165
-181.056	800.000	-0.044	-0.129
-180.042	-84.556	0.145	0.045
-179.027	-59.771	-0.270	-0.114
-178.012	-72.158	0.284	-0.104
-176.998	-98.434	0.187	0.047
-175.983	-200.000	-0.024	-0.264
-174.969	164.352	-0.049	0.067
-173.954	650.910	0.185	-0.466
-172.939	-101.247	-0.110	0.026
-171.925	-200.000	-0.003	-0.074
-170.910	231.744	-0.129	0.209
-169.896	-200.000	-0.008	-0.073
-168.881	611.688	-0.038	0.094
-167.866	-200.000	-0.026	0.529
-166.852	798.318	0.102	0.276
-165.837	-30.662	-0.171	-0.095
-164.823	-71.898	-0.275	0.101
-163.808	800.000	-0.058	-0.243
-162.793	-149.764	-0.415	-0.032
-161.779	-84.252	0.306	0.096
-160.764	60.545	-0.138	0.134
-159.750	-77.506	0.157	-0.053
-158.735	126.371	-0.189	-0.235
-157.720	800.000	0.029	-0.093
-156.706	1.334	0.212	-0.150
-155.691	-60.868	-0.165	-0.069
-154.677	145.751	0.177	-0.234
-153.662	-108.508	-0.117	-0.025
-152.647	-26.997	0.148	0.085
-151.633	-136.927	-0.317	0.036
-150.618	-171.820	0.354	0.011
-149.604	406.734	-0.147	-0.306
-148.589	-200.000	0.011	0.191
-147.574	52.898	0.170	-0.160
-146.560	800.000	0.091	0.382
-145.545	-26.689	0.238	-0.137
-144.531	-102.590	-0.071	-0.017
-143.516	800.000	0.060	-0.182
-142.502	254.383	-0.108	0.182
-141.487	-101.400	-0.135	0.032
-140.472	318.334	-0.056	0.104
-139.458	-200.000	-0.053	-0.348
-138.443	106.659	0.068	-0.079
-137.429	11.616	0.101	0.076
-136.414	117.995	-0.112	0.136
-135.399	-200.000	0.011	-0.109
-134.385	-39.605	-0.329	-0.169
-133.370	144.839	-0.262	-0.345
-132.356	7.574	-0.219	0.161
-131.341	411.303	0.150	0.314
-130.326	-124.151	-0.325	-0.050
-129.312	-150.993	-0.069	-0.005
-128.297	-200.000	0.016	0.240
-127.283	-86.140	0.175	-0.053
-126.268	208.613	0.230	0.355
-125.253	27.895	-0.257	0.213
-124.239	-47.248	-0.214	-0.103
-123.224	800.000	0.091	0.345
-122.210	-200.000	-0.022	0.099
-121.195	800.000	0.084	0.329
