DTS Sentinel unit serial number:	SN413079Multiplexer serial number:	ORYXHardware model number:	OX4-SRSoftware version number:	ORYX F/W v4.00 Oryx Data Collector v3.7.2.0data status	okinstallation	princeton_trtdifferential loss correction	single-endedforward channel	channel 1reverse channel	N/Adate	2019/09/12time	14:52:11forward acquisition time	60.00reverse acquisition time	0.00gamma	496.2192k internal	0.2292k external	0.2292temperature offset calibration	1.0055default loss term (dB/km)	0.3790temperature slope calibration	1.0000multiplexer offset coefficient	1.0000multiplexer slope coefficient	1.0000fibre end	0.00T internal ref (°C)	40.28T ext. ref 1 (°C)	2.33T ext. ref 2 (°C)	37.12length (m)	temperature (°C)	Stokes	anti-Stokes-747.200	45.819	-0.117	-0.111
-746.185	-200.000	-0.068	0.324
-745.171	74.162	-0.161	-0.173
-744.156	26.420	-0.229	0.196
-743.142	-41.868	0.183	-0.096
-742.127	13.758	-0.404	0.322
-741.112	-28.109	0.205	0.122
-740.098	-51.988	-0.245	0.116
-739.083	409.433	-0.131	0.283
-738.069	379.866	0.234	0.491
-737.054	782.882	-0.008	-0.021
-736.039	32.506	-0.153	0.135
-735.025	-104.670	-0.366	-0.086
-734.010	-200.000	-0.017	-0.161
-732.996	132.865	-0.130	0.171
-731.981	-200.000	-0.021	0.136
-730.966	-200.000	0.097	-0.480
-729.952	-102.392	-0.035	-0.009
-728.937	328.505	0.116	0.228
-727.923	-15.099	0.107	-0.070
-726.908	121.177	0.121	-0.154
-725.894	-27.219	0.270	-0.161
-724.879	-39.289	-0.143	-0.077
-723.864	-84.456	0.144	0.047
-722.850	-200.000	0.019	0.088
-721.835	189.815	-0.226	0.347
-720.821	4.984	0.441	-0.332
-719.806	289.316	-0.089	0.165
-718.791	67.624	-0.106	0.111
-717.777	351.168	-0.169	-0.342
-716.762	-200.000	0.015	0.098
-715.748	24.510	-0.420	-0.355
-714.733	69.799	-0.225	-0.237
-713.718	-102.918	0.204	-0.050
-712.704	-84.897	0.194	0.062
-711.689	-31.476	-0.161	-0.092
-710.675	800.000	0.103	-0.391
-709.660	-200.000	0.033	-0.203
-708.645	289.606	-0.032	-0.059
-707.631	-140.641	0.286	0.030
-706.616	-98.527	-0.094	-0.024
-705.602	125.023	-0.163	-0.210
-704.587	-3.211	0.034	0.024
-703.572	-98.687	-0.148	0.039
-702.558	-200.000	-0.013	-0.218
-701.543	-200.000	0.053	-0.363
-700.529	356.416	0.039	0.079
-699.514	606.783	0.115	0.292
-698.499	176.604	0.057	-0.084
-697.485	-200.000	-0.006	-0.159
-696.470	800.000	-0.067	0.218
-695.456	0.432	0.260	0.190
-694.441	110.641	0.065	-0.079
-693.426	800.000	-0.072	0.261
-692.412	-153.515	-0.377	0.027
-691.397	-61.647	0.175	0.075
-690.383	800.000	-0.026	0.107
-689.368	-99.037	-0.138	0.036
-688.354	-24.681	0.062	0.037
-687.339	241.910	0.177	0.302
-686.324	-21.669	-0.207	0.129
-685.310	112.564	0.082	0.102
-684.295	800.000	0.019	-0.075
-683.281	765.690	-0.063	0.176
-682.266	-126.576	-0.319	-0.048
-681.251	229.181	0.105	0.176
-680.237	-95.853	0.030	0.008
-679.222	56.986	-0.156	0.155
-678.208	-200.000	0.015	-0.481
-677.193	800.000	-0.030	-0.130
-676.178	519.334	-0.118	-0.282
-675.164	-67.148	-0.103	0.041
-674.149	309.916	-0.103	0.198
-673.135	291.389	-0.144	-0.267
-672.120	53.073	-0.118	-0.115
-671.105	-6.410	0.188	-0.131
-670.091	252.944	-0.098	-0.171
-669.076	129.915	-0.269	0.351
-668.062	-200.000	-0.050	0.235
-667.047	278.782	-0.165	0.301
-666.032	150.155	-0.156	0.216
-665.018	-73.486	0.300	-0.112
-664.003	-71.451	-0.290	-0.111
-662.989	315.181	-0.102	-0.195
-661.974	37.729	0.364	-0.330
-660.959	-131.598	-0.124	0.017
-659.945	-149.747	-0.279	0.022
-658.930	-200.000	-0.009	0.205
-657.916	79.062	-0.147	-0.161
-656.901	312.319	-0.154	0.294
-655.886	271.134	0.109	-0.196
-654.872	129.907	0.121	0.158
-653.857	-200.000	0.006	-0.077
-652.843	63.307	-0.069	-0.070
-651.828	216.538	-0.084	-0.136
-650.814	800.000	-0.043	-0.147
-649.799	-11.003	-0.077	-0.052
-648.784	683.772	0.094	0.251
-647.770	-38.882	-0.308	0.165
-646.755	-32.905	0.162	-0.092
-645.741	49.186	0.137	-0.131
-644.726	-200.000	0.024	0.258
-643.711	-25.709	0.221	-0.133
-642.697	-200.000	-0.015	-0.277
-641.682	330.529	-0.045	-0.089
-640.668	772.447	-0.156	-0.433
-639.653	319.529	0.064	0.124
-638.638	-126.819	0.208	0.031
-637.624	203.790	-0.127	0.200
-636.609	312.282	0.119	0.227
-635.595	32.037	-0.203	0.178
-634.580	77.181	-0.135	0.147
-633.565	-200.000	0.097	0.480
-632.551	42.000	-0.206	-0.191
-631.536	33.122	0.221	0.195
-630.522	3.528	-0.375	0.278
-629.507	-200.000	0.069	0.328
-628.492	-52.568	-0.154	0.072
-627.478	427.708	-0.156	-0.343
-626.463	-60.945	-0.301	-0.130
-625.449	-127.114	-0.158	-0.024
-624.434	339.740	0.083	-0.164
-623.419	21.422	-0.085	-0.070
-622.405	-36.438	-0.072	0.040
-621.390	48.902	0.167	0.160
-620.376	610.557	-0.040	0.102
-619.361	410.925	-0.024	-0.052
-618.346	-42.422	-0.408	-0.212
-617.332	-27.403	0.038	0.023
-616.317	66.289	-0.206	-0.213
-615.303	98.862	0.102	-0.120
-614.288	-200.000	-0.012	-0.102
-613.273	-200.000	-0.002	0.052
-612.259	-200.000	0.019	-0.207
-611.244	140.554	0.207	-0.279
-610.230	-84.359	0.394	0.127
-609.215	-143.867	0.222	-0.021
-608.201	-184.779	-0.076	-0.001
-607.186	-60.820	-0.108	0.047
-606.171	-200.000	-0.032	-0.334
-605.157	-6.804	0.193	-0.133
-604.142	-15.698	-0.254	0.165
-603.128	12.886	-0.254	-0.200
-602.113	216.762	0.022	-0.036
-601.098	646.632	-0.085	0.220
-600.084	-113.245	0.218	-0.044
-599.069	123.419	0.059	0.076
-598.055	800.000	0.022	0.083
-597.040	-200.000	0.011	0.303
-596.025	28.161	-0.157	0.135
-595.011	-14.711	0.011	-0.007
-593.996	-62.874	-0.323	-0.136
-592.982	-87.493	-0.306	-0.094
-591.967	22.145	-0.109	0.090
-590.952	-200.000	-0.020	0.161
-589.938	-121.250	0.339	-0.058
-588.923	45.323	0.112	0.105
-587.909	213.433	-0.143	0.229
-586.894	-38.528	0.158	-0.085
-585.879	4.984	0.223	0.167
-584.865	-200.000	0.004	-0.018
-583.850	370.180	0.100	0.206
-582.836	-26.979	-0.135	0.080
-581.821	-98.597	-0.363	0.094
-580.806	-103.807	0.062	0.015
-579.792	-101.457	0.250	0.062
-578.777	103.789	0.107	0.128
-577.763	-65.486	-0.257	-0.105
-576.748	23.200	0.100	0.084
-575.733	-98.942	-0.195	-0.050
-574.719	5.674	-0.168	-0.126
-573.704	86.851	-0.108	-0.122
-572.690	24.202	0.074	0.062
-571.675	-132.385	-0.177	-0.023
-570.661	188.639	-0.066	-0.100
-569.646	-200.000	-0.008	0.037
-568.631	800.000	0.067	0.206
-567.617	158.142	-0.035	-0.049
-566.602	55.716	-0.336	-0.331
-565.588	252.329	-0.093	-0.162
-564.573	-200.000	-0.031	-0.160
-563.558	-106.917	-0.237	-0.053
-562.544	33.434	-0.146	-0.129
-561.529	-200.000	0.033	-0.154
-560.515	-200.000	0.051	-0.352
-559.500	151.983	-0.132	-0.183
-558.485	-16.604	-0.120	-0.077
-557.471	-107.127	0.078	-0.018
-556.456	-118.324	-0.445	-0.080
-555.442	95.893	-0.087	-0.100
-554.427	-139.006	-0.208	0.023
-553.412	-74.944	0.176	0.064
-552.398	122.906	-0.065	0.083
-551.383	17.145	0.217	-0.174
-550.369	54.172	0.232	0.227
-549.354	155.232	-0.267	-0.373
-548.339	78.154	0.111	-0.120
-547.325	166.783	0.114	-0.164
-546.310	67.196	0.144	0.149
-545.296	304.495	0.063	-0.118
-544.281	158.260	0.118	0.166
-543.266	-7.293	-0.210	-0.145
-542.252	53.719	-0.085	-0.083
-541.237	-111.220	-0.083	0.017
-540.223	-200.000	-0.020	0.312
-539.208	800.000	-0.080	0.276
-538.193	-134.897	-0.310	0.038
-537.179	-79.337	-0.476	-0.164
-536.164	-200.000	0.045	-0.317
-535.150	332.100	-0.016	0.031
-534.135	596.612	-0.015	-0.037
-533.121	242.411	0.028	0.047
-532.106	243.084	0.035	-0.059
-531.091	-123.992	-0.078	0.012
-530.077	-200.000	-0.002	-0.175
-529.062	15.880	0.205	0.163
-528.048	0.893	0.499	0.363
-527.033	128.634	0.119	-0.154
-526.018	-82.812	-0.058	0.019
-525.004	73.464	-0.099	-0.105
-523.989	800.000	-0.016	0.047
-522.975	-24.596	-0.412	0.249
-521.960	-53.276	-0.218	0.102
-520.945	1.460	-0.187	-0.137
-519.931	271.081	0.127	-0.227
-518.916	11.297	-0.171	-0.133
-517.902	-44.281	-0.301	-0.153
-516.887	-31.477	0.308	-0.176
-515.872	0.018	-0.139	-0.100
-514.858	-169.037	-0.187	0.007
-513.843	357.001	0.103	-0.208
-512.829	-124.507	0.310	0.049
-511.814	55.658	0.098	0.097
-510.799	219.732	-0.104	-0.170
-509.785	-54.167	0.275	0.127
-508.770	-101.649	-0.212	0.052
-507.756	-83.969	-0.303	-0.098
-506.741	86.492	0.060	0.067
-505.726	374.183	0.052	0.106
-504.712	-200.000	-0.030	-0.202
-503.697	-200.000	-0.044	-0.198
-502.683	-0.372	0.201	-0.145
-501.668	51.942	-0.190	-0.183
-500.653	-121.145	-0.242	-0.041
-499.639	24.399	-0.147	0.123
-498.624	268.983	-0.239	0.425
-497.610	-98.546	0.099	0.026
-496.595	-121.585	-0.343	0.058
-495.581	800.000	-0.073	-0.312
-494.566	72.268	-0.026	0.027
-493.551	90.805	-0.142	-0.161
-492.537	-86.950	0.226	0.070
-491.522	-74.952	0.290	0.105
-490.508	126.237	-0.076	-0.097
-489.493	-16.511	-0.243	-0.156
-488.478	-200.000	-0.008	0.171
-487.464	-65.507	0.040	0.016
-486.449	77.230	-0.367	-0.395
-485.435	-127.148	0.145	-0.021
-484.420	-182.603	0.342	0.006
-483.405	44.848	0.109	-0.102
-482.391	588.868	-0.064	0.160
-481.376	-94.078	0.088	0.024
-480.362	800.000	-0.086	0.315
-479.347	97.636	-0.130	0.151
-478.332	-200.000	0.017	0.097
-477.318	-16.822	0.265	-0.169
-476.303	-200.000	-0.002	0.284
-475.289	196.022	0.050	0.077
-474.274	-3.501	0.220	0.155
-473.259	38.687	0.237	-0.214
-472.245	-200.000	-0.001	0.152
-471.230	409.395	-0.067	-0.143
-470.216	-200.000	0.017	-0.125
-469.201	-148.678	-0.273	0.023
-468.186	695.466	0.034	-0.090
-467.172	-119.643	0.163	-0.028
-466.157	-62.482	0.309	0.130
-465.143	-20.322	-0.120	-0.074
-464.128	80.139	-0.095	0.103
-463.113	-37.738	-0.228	-0.123
-462.099	57.247	0.101	0.099
-461.084	361.812	0.021	0.043
-460.070	237.097	0.043	0.073
-459.055	88.573	-0.116	0.131
-458.040	-15.138	0.196	-0.127
-457.026	-90.077	0.169	-0.050
-456.011	60.580	0.041	0.041
-454.997	78.556	-0.140	0.151
-453.982	-141.801	0.088	-0.009
-452.968	31.219	-0.175	-0.152
-451.953	91.985	0.215	-0.245
-450.938	-76.161	-0.192	0.068
-449.924	58.356	0.178	0.176
-448.909	-200.000	0.001	-0.016
-447.895	-59.064	-0.337	-0.147
-446.880	87.340	0.099	-0.111
-445.865	65.270	-0.217	-0.222
-444.851	76.163	0.123	0.131
-443.836	-200.000	0.063	-0.302
-442.822	70.267	-0.327	-0.342
-441.807	165.784	-0.025	-0.036
-440.792	-83.227	-0.244	-0.079
-439.778	170.566	-0.144	-0.208
-438.763	-200.000	-0.044	0.209
-437.749	-74.876	0.287	0.104
-436.734	800.000	0.032	-0.092
-435.719	689.453	0.069	-0.183
-434.705	89.792	-0.141	0.160
-433.690	-200.000	-0.010	0.081
-432.676	-200.000	-0.008	-0.098
-431.661	-89.212	0.061	-0.018
-430.646	12.954	0.170	0.133
-429.632	-200.000	-0.007	0.042
-428.617	800.000	0.054	-0.170
-427.603	502.187	0.174	0.406
-426.588	-132.976	-0.342	0.044
-425.573	-200.000	-0.077	0.370
-424.559	-89.874	0.240	-0.071
-423.544	79.458	-0.162	0.176
-422.530	-134.880	-0.413	-0.051
-421.515	525.321	0.076	0.180
-420.500	71.055	-0.162	0.170
-419.486	-8.254	0.400	0.272
-418.471	97.180	0.122	0.141
-417.457	-147.330	0.214	-0.018
-416.442	-200.000	-0.031	-0.209
-415.428	-200.000	-0.016	-0.264
-414.413	58.560	-0.185	0.184
-413.398	-89.705	-0.269	-0.080
-412.384	800.000	-0.035	0.118
-411.369	-72.638	0.212	-0.079
-410.355	-200.000	-0.007	0.107
-409.340	-169.575	-0.175	-0.006
-408.325	-124.076	0.231	0.037
-407.311	-18.318	0.156	0.098
-406.296	-200.000	-0.020	-0.210
-405.282	-40.096	0.097	0.051
-404.267	-78.599	-0.243	0.084
-403.252	32.846	-0.277	-0.242
-402.238	-123.903	0.315	0.050
-401.223	-118.676	0.192	-0.034
-400.209	800.000	0.059	-0.201
-399.194	44.701	-0.140	0.130
-398.179	-107.816	-0.285	0.063
-397.165	1.344	-0.159	-0.115
-396.150	-31.555	0.197	0.111
-395.136	-154.921	0.275	-0.018
-394.121	-11.916	-0.084	0.056
-393.106	17.844	-0.344	0.276
-392.092	-94.414	0.051	0.014
-391.077	341.675	0.208	-0.411
-390.063	-23.289	0.064	0.039
-389.048	-87.036	-0.210	0.065
-388.033	55.916	-0.241	-0.236
-387.019	-200.000	-0.003	0.110
-386.004	-133.596	-0.061	0.008
-384.990	-136.731	0.060	0.007
-383.975	-200.000	-0.020	-0.399
-382.960	-43.951	0.260	-0.132
-381.946	-21.629	0.342	-0.210
-380.931	-36.685	-0.163	0.088
-379.917	-93.301	0.216	0.061
-378.902	113.274	-0.049	-0.060
-377.888	-102.660	-0.262	-0.063
-376.873	640.692	0.044	-0.114
-375.858	31.583	-0.088	0.076
-374.844	-0.901	-0.299	0.214
-373.829	86.313	-0.197	0.219
-372.815	-84.287	-0.209	0.067
-371.800	-118.290	-0.193	0.035
-370.785	608.241	-0.057	-0.144
-369.771	-31.815	0.151	0.085
-368.756	22.315	0.204	-0.168
-367.742	-139.595	0.273	0.029
-366.727	-2.730	-0.204	0.144
-365.712	-84.491	-0.173	-0.055
-364.698	-59.186	-0.113	0.049
-363.683	229.070	-0.149	0.244
-362.669	800.000	-0.070	0.303
-361.654	-82.347	-0.085	-0.028
-360.639	-200.000	0.007	-0.054
-359.625	123.194	0.141	0.178
-358.610	103.510	0.076	-0.090
-357.596	-149.314	0.206	0.017
-356.581	-129.918	0.411	0.057
-355.566	288.425	-0.083	0.152
-354.552	30.709	-0.026	0.023
-353.537	-5.988	-0.061	-0.042
-352.523	-72.570	0.084	-0.031
-351.508	-62.522	-0.224	0.094
-350.493	23.777	0.200	0.166
-349.479	-112.169	-0.339	-0.069
-348.464	-84.227	-0.081	0.026
-347.450	-67.436	-0.084	-0.033
-346.435	-41.393	0.198	0.103
-345.420	-200.000	-0.021	-0.313
-344.406	95.504	0.255	-0.292
-343.391	8.596	0.351	-0.266
-342.377	-200.000	-0.007	0.049
-341.362	-200.000	0.028	0.151
-340.348	800.000	0.088	0.296
-339.333	709.003	0.144	-0.383
-338.318	-114.100	0.260	0.051
-337.304	2.309	0.197	0.144
-336.289	-64.451	0.245	0.100
-335.275	8.464	-0.196	0.149
-334.260	-169.769	-0.337	-0.012
-333.245	800.000	0.131	-0.438
-332.231	-78.190	0.069	0.024
-331.216	-53.717	0.432	-0.199
-330.202	-105.034	0.171	0.039
-329.187	-66.673	0.298	0.119
-328.172	219.270	-0.201	-0.323
-327.158	-63.801	0.114	0.047
-326.143	243.190	-0.103	-0.174
-325.129	-7.829	0.039	-0.026
-324.114	-145.911	-0.123	0.011
-323.099	59.367	0.084	0.083
-322.085	800.000	0.092	0.350
-321.070	415.623	0.116	0.250
-320.056	-128.666	0.250	-0.036
-319.041	-58.735	0.331	-0.144
-318.026	9.764	-0.195	0.149
-317.012	-30.868	0.120	0.068
-315.997	-14.595	0.415	-0.269
-314.983	800.000	-0.093	0.273
-313.968	68.832	-0.016	0.017
-312.953	-200.000	-0.026	-0.242
-311.939	89.477	0.087	-0.097
-310.924	-80.400	0.274	0.092
-309.910	113.561	-0.076	-0.093
-308.895	-144.857	0.363	-0.033
-307.880	-35.415	0.206	0.112
-306.866	402.386	0.037	-0.077
-305.851	4.336	0.263	-0.194
-304.837	92.646	0.253	0.287
-303.822	92.056	0.163	0.185
-302.807	-52.940	0.094	0.044
-301.793	55.917	0.112	0.109
-300.778	-123.788	-0.109	-0.017
-299.764	382.702	-0.045	0.094
-298.749	87.141	0.099	0.110
-297.735	-54.555	0.375	-0.171
-296.720	-200.000	-0.002	0.232
-295.705	59.031	0.133	-0.132
-294.691	-56.273	-0.127	0.057
-293.676	119.151	-0.030	0.038
-292.662	-200.000	-0.018	0.118
-291.647	-57.968	0.280	0.123
-290.632	458.145	0.058	-0.129
-289.618	-32.395	-0.179	-0.100
-288.603	546.729	0.048	0.116
-287.589	694.362	0.110	-0.290
-286.574	179.980	0.210	0.309
-285.559	-200.000	-0.008	0.125
-284.545	166.140	-0.236	-0.335
-283.530	800.000	-0.107	0.319
-282.516	-99.223	-0.273	0.069
-281.501	-90.081	-0.377	-0.110
-280.486	-116.833	0.234	-0.043
-279.472	103.457	-0.188	-0.221
-278.457	659.160	-0.066	-0.172
-277.443	800.000	-0.048	-0.145
-276.428	290.305	-0.031	-0.056
-275.413	-200.000	-0.011	0.092
-274.399	13.120	-0.177	-0.137
-273.384	755.986	-0.056	0.152
-272.370	79.768	-0.103	-0.111
-271.355	-17.725	0.261	0.165
-270.340	-200.000	-0.019	-0.125
-269.326	-66.197	0.193	0.077
-268.311	91.928	-0.092	0.104
-267.297	27.848	-0.076	0.064
-266.282	406.139	0.073	-0.156
-265.267	-169.066	0.277	0.010
-264.253	-75.900	0.356	-0.127
-263.238	-200.000	0.070	-0.421
-262.224	421.012	-0.054	-0.117
-261.209	78.497	-0.274	0.294
-260.195	117.101	-0.188	-0.232
-259.180	-56.128	0.241	-0.108
-258.165	-200.000	-0.013	0.160
-257.151	-76.607	-0.180	-0.063
-256.136	-116.020	-0.239	-0.045
-255.122	-72.594	-0.043	-0.016
-254.107	126.264	-0.236	-0.299
-253.092	800.000	-0.122	0.382
-252.078	-200.000	0.004	0.216
-251.063	42.744	0.188	-0.172
-250.049	310.465	0.097	0.182
-249.034	76.114	-0.087	-0.092
-248.019	420.842	0.198	-0.427
-247.005	138.323	0.095	-0.126
-245.990	798.374	0.116	-0.320
-244.976	-181.574	-0.203	0.004
-243.961	800.000	0.113	0.316
-242.946	-54.889	-0.241	0.109
-241.932	-200.000	0.033	0.264
-240.917	-37.394	-0.352	-0.189
-239.903	-200.000	-0.012	-0.102
-238.888	-200.000	0.016	0.094
-237.873	-133.781	0.054	0.007
-236.859	-200.000	-0.023	-0.139
-235.844	271.953	-0.085	0.150
-234.830	312.804	0.161	-0.303
-233.815	-121.701	0.363	-0.060
-232.800	443.726	0.085	0.188
-231.786	-124.553	0.076	0.012
-230.771	61.439	-0.149	-0.149
-229.757	389.078	0.047	0.097
-228.742	-102.313	-0.178	-0.043
-227.727	-192.058	0.115	0.001
-226.713	-91.745	0.147	-0.042
-225.698	-104.812	-0.293	0.068
-224.684	-12.060	-0.110	-0.072
-223.669	-172.203	0.251	0.008
-222.655	800.000	-0.097	-0.394
-221.640	100.074	-0.211	0.245
-220.625	-200.000	0.014	0.344
-219.611	-32.018	0.140	0.078
-218.596	243.439	-0.063	0.105
-217.582	1.126	0.077	-0.055
-216.567	19.680	-0.248	-0.200
-215.552	549.512	0.134	0.321
-214.538	-19.150	0.253	-0.157
-213.523	148.288	0.038	0.051
-212.509	-82.892	0.152	0.049
-211.494	-200.000	0.012	-0.214
-210.479	-134.433	-0.242	-0.030
-209.465	-145.491	-0.192	0.017
-208.450	-147.459	0.196	0.017
-207.436	800.000	0.173	0.519
-206.421	33.617	0.213	0.186
-205.406	-106.746	-0.086	-0.019
-204.392	226.643	0.157	-0.256
-203.377	605.065	-0.049	0.123
-202.363	-40.983	0.123	-0.064
-201.348	800.000	-0.053	0.199
-200.333	31.696	-0.170	0.147
-199.319	-200.000	0.012	-0.122
-198.304	-167.776	0.153	0.006
-197.290	800.000	0.102	0.285
-196.275	-200.000	-0.015	0.112
-195.260	-18.167	-0.127	-0.080
-194.246	-134.673	0.305	0.037
-193.231	-92.694	0.323	-0.091
-192.217	338.338	-0.072	-0.140
-191.202	70.522	0.022	-0.023
-190.187	335.670	0.150	0.291
-189.173	26.942	-0.077	0.065
-188.158	-167.690	0.437	0.017
-187.144	194.562	0.034	-0.052
-186.129	-200.000	-0.020	-0.115
-185.114	-168.048	0.112	-0.004
-184.100	-69.061	0.198	-0.076
-183.085	-41.856	-0.057	0.029
-182.071	-200.000	-0.010	0.117
-181.056	-98.111	-0.270	0.070
-180.042	431.187	-0.159	0.344
-179.027	13.423	0.064	-0.050
-178.012	-158.309	-0.085	-0.005
-176.998	59.336	0.102	-0.101
-175.983	-118.046	-0.496	0.089
-174.969	-200.000	-0.009	0.190
-173.954	282.293	0.223	0.400
-172.939	-200.000	0.038	0.544
-171.925	800.000	-0.044	0.155
-170.910	-183.340	-0.370	0.006
-169.896	-200.000	-0.012	-0.118
-168.881	800.000	0.118	-0.428
-167.866	-138.822	-0.349	-0.038
-166.852	-200.000	-0.009	0.192
-165.837	159.477	0.068	0.095
-164.823	-26.812	0.214	-0.125
-163.808	-164.635	0.477	-0.022
-162.793	-7.195	-0.033	0.022
-161.779	-108.431	0.177	0.038
-160.764	-37.579	0.218	-0.117
-159.750	-125.855	0.265	-0.040
-158.735	-29.711	-0.191	0.109
-157.720	800.000	-0.020	0.081
-156.706	800.000	0.066	0.242
-155.691	-200.000	0.034	0.233
-154.677	-3.102	-0.176	-0.122
-153.662	1.519	-0.136	-0.098
-152.647	350.841	-0.232	-0.459
-151.633	-139.672	0.109	-0.012
-150.618	-170.690	0.144	0.005
-149.604	-59.047	0.260	-0.112
-148.589	115.866	-0.099	0.122
-147.574	-11.206	0.089	0.059
-146.560	-140.839	0.474	0.049
-145.545	-158.772	-0.141	-0.008
-144.531	-200.000	0.002	-0.259
-143.516	215.936	0.123	0.195
-142.502	764.511	-0.041	-0.110
-141.487	-16.827	-0.302	-0.191
-140.472	-200.000	0.017	0.168
-139.458	258.504	0.029	0.049
-138.443	111.695	-0.050	-0.061
-137.429	-200.000	0.012	-0.087
-136.414	800.000	0.045	-0.171
-135.399	-21.732	0.226	-0.137
-134.385	190.009	0.116	0.174
-133.370	-71.905	0.244	0.091
-132.356	-200.000	0.038	-0.266
-131.341	-4.708	-0.168	0.116
-130.326	181.981	0.061	-0.090
-129.312	69.809	-0.022	-0.022
-128.297	-44.935	-0.307	-0.153
-127.283	800.000	0.072	-0.201
-126.268	-41.099	0.385	0.199
-125.253	344.994	-0.037	-0.072
-124.239	800.000	-0.075	-0.224
-123.224	-12.685	-0.279	-0.182
-122.210	-99.847	-0.337	-0.084
-121.195	-76.795	0.228	0.080
-120.180	-200.000	0.044	-0.298
