DTS Sentinel unit serial number:	SN413079Multiplexer serial number:	ORYXHardware model number:	OX4-SRSoftware version number:	ORYX F/W v4.00 Oryx Data Collector v3.7.2.0data status	okinstallation	princeton_trtdifferential loss correction	single-endedforward channel	channel 1reverse channel	N/Adate	2019/09/18time	14:38:35forward acquisition time	60.00reverse acquisition time	0.00gamma	496.2192k internal	0.2309k external	0.2309temperature offset calibration	0.9984default loss term (dB/km)	0.3790temperature slope calibration	1.0000multiplexer offset coefficient	1.0000multiplexer slope coefficient	1.0000fibre end	0.00T internal ref (°C)	34.64T ext. ref 1 (°C)	0.69T ext. ref 2 (°C)	32.42length (m)	temperature (°C)	Stokes	anti-Stokes-747.200	-200.000	0.053	0.247
-746.185	148.308	-0.195	0.268
-745.171	-0.623	0.091	-0.066
-744.156	-100.083	-0.379	-0.096
-743.142	-200.000	0.029	0.239
-742.127	260.407	0.116	0.204
-741.112	800.000	0.090	-0.344
-740.098	-85.036	-0.076	0.024
-739.083	-74.789	0.204	0.075
-738.069	-200.000	-0.022	0.165
-737.054	-147.988	-0.400	-0.034
-736.039	140.489	0.084	0.113
-735.025	34.657	0.199	0.177
-734.010	-57.903	0.048	0.021
-732.996	534.256	-0.131	-0.315
-731.981	-50.280	-0.229	-0.110
-730.966	337.965	0.127	-0.250
-729.952	800.000	0.070	0.255
-728.937	196.414	-0.094	-0.146
-727.923	-200.000	0.022	0.183
-726.908	11.013	0.186	-0.144
-725.894	-200.000	0.022	-0.241
-724.879	263.042	-0.027	-0.047
-723.864	800.000	0.065	-0.218
-722.850	-91.441	-0.217	-0.063
-721.835	35.324	0.057	0.051
-720.821	-155.483	-0.361	-0.024
-719.806	28.578	0.101	0.087
-718.791	-89.346	-0.113	0.034
-717.777	-200.000	0.012	0.130
-716.762	-8.998	-0.281	0.191
-715.748	-86.309	-0.304	0.095
-714.733	-80.480	-0.095	0.032
-713.718	392.119	-0.057	-0.121
-712.704	396.162	0.069	0.145
-711.689	800.000	-0.080	-0.227
-710.675	164.125	-0.175	-0.250
-709.660	-192.431	0.141	0.001
-708.645	800.000	0.050	-0.160
-707.631	-200.000	-0.034	0.238
-706.616	-104.059	-0.061	-0.014
-705.602	-172.542	-0.157	-0.005
-704.587	63.111	-0.181	-0.184
-703.572	411.087	-0.090	-0.193
-702.558	534.044	-0.101	-0.243
-701.543	42.934	0.245	-0.227
-700.529	224.113	-0.057	-0.094
-699.514	285.713	0.195	0.357
-698.499	-68.060	-0.332	-0.131
-697.485	-200.000	-0.002	-0.180
-696.470	44.268	-0.054	-0.050
-695.456	-38.788	-0.316	-0.169
-694.441	-55.269	-0.137	-0.063
-693.426	-60.281	0.148	-0.064
-692.412	99.129	-0.146	0.171
-691.397	-200.000	0.061	-0.368
-690.383	-200.000	0.018	-0.188
-689.368	-56.564	-0.220	-0.099
-688.354	-200.000	0.013	-0.178
-687.339	142.926	-0.177	-0.239
-686.324	603.424	0.030	-0.076
-685.310	175.528	0.054	0.079
-684.295	152.499	0.057	0.078
-683.281	147.473	0.072	0.098
-682.266	257.319	-0.142	-0.247
-681.251	-107.913	-0.265	0.058
-680.237	609.545	-0.167	-0.422
-679.222	800.000	-0.043	-0.177
-678.208	256.939	-0.109	0.189
-677.193	-55.505	0.094	-0.043
-676.178	-158.004	-0.191	0.011
-675.164	-9.534	0.112	-0.076
-674.149	40.326	-0.079	0.072
-673.135	-200.000	-0.014	-0.342
-672.120	-170.328	0.220	0.008
-671.105	-39.232	0.196	-0.104
-670.091	23.126	-0.298	0.248
-669.076	-66.841	0.104	0.042
-668.062	35.866	-0.143	0.127
-667.047	800.000	0.095	-0.346
-666.032	800.000	0.053	-0.219
-665.018	453.271	0.137	0.306
-664.003	-10.808	-0.119	-0.080
-662.989	-103.705	0.070	0.017
-661.974	-200.000	-0.003	-0.194
-660.959	-200.000	-0.046	0.437
-659.945	800.000	-0.060	-0.235
-658.930	65.635	0.093	0.095
-657.916	242.499	0.203	-0.344
-656.901	-200.000	0.019	-0.242
-655.886	-200.000	0.008	0.230
-654.872	-128.035	0.246	0.036
-653.857	-200.000	0.167	-0.001
-652.843	-61.264	-0.053	-0.022
-651.828	280.015	-0.019	0.034
-650.814	-19.879	-0.057	-0.036
-649.799	97.518	-0.246	-0.286
-648.784	-18.452	-0.189	-0.120
-647.770	-107.430	-0.107	-0.024
-646.755	-139.227	-0.095	0.010
-645.741	-85.098	0.301	-0.095
-644.726	17.105	-0.199	0.160
-643.711	583.051	0.196	-0.487
-642.697	-73.381	0.302	-0.112
-641.682	-200.000	0.035	0.193
-640.668	-180.944	-0.051	-0.001
-639.653	168.531	-0.173	0.249
-638.638	165.545	0.069	-0.098
-637.624	-25.384	0.174	0.104
-636.609	34.197	-0.101	-0.089
-635.595	-63.996	-0.127	-0.052
-634.580	-200.000	0.026	-0.226
-633.565	-194.280	-0.185	-0.002
-632.551	461.112	-0.214	0.482
-631.536	-41.748	0.205	-0.106
-630.522	-139.400	0.203	-0.022
-629.507	17.962	0.207	0.167
-628.492	-154.153	-0.024	0.002
-627.478	-200.000	0.017	0.195
-626.463	-200.000	-0.021	-0.437
-625.449	-112.489	-0.068	0.014
-624.434	-200.000	-0.001	-0.033
-623.419	234.616	0.110	-0.184
-622.405	183.910	-0.117	-0.175
-621.390	-89.159	-0.393	-0.117
-620.376	-98.751	0.070	0.018
-619.361	-200.000	-0.023	0.163
-618.346	-200.000	-0.064	-0.316
-617.332	800.000	-0.081	-0.245
-616.317	-108.863	-0.417	-0.090
-615.303	-200.000	-0.039	-0.245
-614.288	-200.000	-0.046	0.292
-613.273	800.000	-0.008	-0.030
-612.259	548.916	0.039	0.095
-611.244	-81.911	-0.189	0.063
-610.230	-200.000	-0.009	-0.068
-609.215	-200.000	-0.027	0.310
-608.201	800.000	-0.022	0.077
-607.186	-200.000	-0.004	0.161
-606.171	-200.000	0.012	-0.101
-605.157	350.236	-0.104	-0.208
-604.142	800.000	-0.073	-0.259
-603.128	141.045	0.097	-0.130
-602.113	766.721	0.045	-0.124
-601.098	357.999	0.086	0.173
-600.084	-144.521	-0.275	0.026
-599.069	156.941	-0.110	-0.154
-598.055	-135.746	0.363	0.043
-597.040	132.816	0.082	0.107
-596.025	800.000	0.073	0.304
-595.011	-200.000	0.018	0.107
-593.996	6.263	-0.261	-0.196
-592.982	-112.850	-0.272	0.054
-591.967	-200.000	0.078	0.000
-590.952	-74.999	0.096	0.035
-589.938	-140.026	0.169	0.018
-588.923	-55.773	-0.246	0.111
-587.909	8.990	0.186	0.141
-586.894	488.550	0.146	-0.337
-585.879	-47.132	-0.336	-0.165
-584.865	-169.513	0.219	-0.008
-583.850	-200.000	-0.005	0.041
-582.836	349.442	-0.089	-0.177
-581.821	318.261	-0.096	-0.183
-580.806	34.731	-0.171	0.151
-579.792	-200.000	-0.007	0.175
-578.777	-99.688	0.264	-0.067
-577.763	-16.152	-0.281	0.180
-576.748	39.674	-0.069	-0.063
-575.733	-14.810	-0.184	0.119
-574.719	-49.276	0.116	-0.056
-573.704	-125.578	0.116	-0.018
-572.690	44.183	-0.051	0.048
-571.675	800.000	-0.064	-0.223
-570.661	29.236	0.050	-0.043
-569.646	773.795	0.082	0.227
-568.631	74.387	-0.110	-0.117
-567.617	-200.000	-0.006	-0.237
-566.602	-65.810	0.290	-0.117
-565.588	800.000	-0.070	0.242
-564.573	403.351	0.182	0.387
-563.558	-71.053	-0.277	0.105
-562.544	-3.698	0.159	0.112
-561.529	800.000	-0.046	-0.145
-560.515	-200.000	-0.021	-0.181
-559.500	-200.000	0.001	0.073
-558.485	-48.671	0.179	-0.087
-557.471	-121.938	-0.229	0.038
-556.456	-11.422	0.290	-0.193
-555.442	215.742	0.075	0.119
-554.427	99.093	-0.162	0.189
-553.412	-13.818	0.252	-0.164
-552.398	497.163	-0.042	0.097
-551.383	-68.794	0.259	0.101
-550.369	-47.604	-0.269	0.132
-549.354	53.794	0.160	0.155
-548.339	-172.988	-0.073	-0.002
-547.325	369.175	0.073	-0.150
-546.310	-151.448	0.437	-0.033
-545.296	382.291	0.111	0.231
-544.281	-45.135	0.178	-0.089
-543.266	70.868	0.084	0.088
-542.252	-200.000	0.211	0.000
-541.237	-84.299	0.251	-0.080
-540.223	227.878	0.142	-0.232
-539.208	8.570	-0.360	-0.273
-538.193	-82.360	-0.125	0.041
-537.179	-86.162	0.344	-0.107
-536.164	-200.000	-0.006	0.146
-535.150	112.573	-0.145	-0.177
-534.135	-159.302	-0.240	-0.014
-533.121	800.000	0.042	-0.161
-532.106	-196.398	-0.178	-0.001
-531.091	371.304	-0.060	-0.124
-530.077	9.538	-0.135	0.103
-529.062	-200.000	-0.019	0.094
-528.048	-138.318	-0.205	-0.023
-527.033	800.000	0.064	-0.255
-526.018	-110.036	0.143	-0.030
-525.004	-200.000	-0.010	-0.241
-523.989	-122.090	-0.251	-0.041
-522.975	-200.000	-0.056	0.310
-521.960	-11.051	0.160	0.106
-520.945	-200.000	-0.008	-0.216
-519.931	221.110	-0.122	0.197
-518.916	486.000	-0.120	0.275
-517.902	68.846	-0.197	0.204
-516.887	37.182	0.222	0.198
-515.872	-200.000	-0.007	-0.119
-514.858	170.118	0.127	0.183
-513.843	-115.209	-0.134	-0.026
-512.829	-14.536	-0.153	-0.099
-511.814	-200.000	0.025	-0.470
-510.799	800.000	0.061	-0.218
-509.785	221.217	-0.146	-0.236
-508.770	92.023	-0.117	0.133
-507.756	-96.970	0.187	0.049
-506.741	209.594	0.157	-0.248
-505.726	39.580	-0.118	-0.106
-504.712	-126.864	-0.151	0.022
-503.697	12.278	0.168	-0.130
-502.683	-47.529	0.425	-0.208
-501.668	800.000	-0.010	-0.042
-500.653	-119.233	0.303	0.053
-499.639	-25.558	0.122	-0.073
-498.624	-111.135	-0.110	-0.023
-497.610	-55.287	-0.276	0.125
-496.595	-168.366	0.153	-0.006
-495.581	-86.701	-0.094	0.029
-494.566	-200.000	0.000	0.160
-493.551	616.025	-0.174	-0.439
-492.537	81.270	0.280	0.304
-491.522	-40.792	-0.298	-0.155
-490.508	-9.915	-0.135	-0.090
-489.493	-200.000	-0.016	-0.126
-488.478	-200.000	0.178	-0.001
-487.464	-67.985	-0.161	-0.063
-486.449	-145.313	0.399	-0.036
-485.435	-200.000	-0.027	0.243
-484.420	435.899	0.061	0.134
-483.405	235.241	-0.157	-0.261
-482.391	-200.000	0.013	-0.182
-481.376	114.477	0.210	0.257
-480.362	-19.020	0.049	-0.031
-479.347	-109.717	0.220	-0.047
-478.332	800.000	-0.112	-0.461
-477.318	800.000	-0.059	0.212
-476.303	-99.092	-0.065	0.017
-475.289	33.973	-0.092	0.080
-474.274	-200.000	-0.049	-0.226
-473.259	-200.000	0.015	-0.256
-472.245	-54.625	0.333	-0.152
-471.230	6.694	0.099	-0.074
-470.216	9.469	-0.047	-0.036
-469.201	710.397	-0.055	-0.146
-468.186	310.358	-0.123	-0.231
-467.172	-200.000	0.046	-0.359
-466.157	-200.000	0.012	-0.093
-465.143	26.617	0.257	-0.216
-464.128	-93.238	0.462	-0.129
-463.113	358.132	0.111	0.222
-462.099	103.555	-0.204	0.240
-461.084	-18.102	0.063	-0.039
-460.070	-200.000	0.051	0.246
-459.055	-10.447	-0.379	-0.253
-458.040	800.000	0.051	-0.167
-457.026	-66.410	-0.117	-0.047
-456.011	800.000	0.031	-0.123
-454.997	-88.997	0.216	-0.064
-453.982	63.206	-0.177	0.178
-452.968	54.321	0.203	0.196
-451.953	-113.258	0.076	-0.015
-450.938	26.631	0.055	-0.047
-449.924	492.145	0.076	-0.175
-448.909	-200.000	-0.004	-0.261
-447.895	-106.190	0.293	-0.066
-446.880	-57.524	-0.194	-0.085
-445.865	-78.046	-0.210	0.073
-444.851	-200.000	0.021	-0.336
-443.836	193.470	0.089	0.135
-442.822	-75.320	-0.307	-0.110
-441.807	180.520	-0.183	-0.270
-440.792	800.000	-0.054	0.227
-439.778	800.000	-0.058	-0.199
-438.763	198.281	-0.231	-0.354
-437.749	-200.000	0.008	-0.078
-436.734	694.552	0.112	0.296
-435.719	-200.000	0.015	-0.076
-434.705	-172.143	-0.143	-0.005
-433.690	-200.000	-0.013	0.092
-432.676	411.302	-0.046	-0.098
-431.661	-200.000	-0.044	0.279
-430.646	59.438	-0.366	0.362
-429.632	681.055	-0.133	0.348
-428.617	-95.692	0.172	-0.046
-427.603	11.432	-0.225	-0.173
-426.588	-32.128	0.264	-0.148
-425.573	137.516	0.114	-0.150
-424.559	155.017	-0.140	0.193
-423.544	800.000	-0.022	0.085
-422.530	-144.201	-0.230	-0.022
-421.515	88.687	0.179	0.199
-420.500	65.347	-0.073	0.074
-419.486	211.664	0.105	0.165
-418.471	57.343	0.074	-0.073
-417.457	-2.279	0.226	-0.159
-416.442	-96.737	-0.229	-0.060
-415.428	-200.000	0.030	-0.265
-414.413	74.511	-0.111	-0.117
-413.398	43.844	-0.410	-0.377
-412.384	198.136	-0.098	-0.150
-411.369	-89.409	-0.288	-0.085
-410.355	432.527	-0.112	0.243
-409.340	-61.605	0.198	0.083
-408.325	156.199	-0.134	0.186
-407.311	342.603	0.231	0.453
-406.296	-149.267	-0.109	0.009
-405.282	-190.754	-0.475	0.005
-404.267	80.386	0.165	0.178
-403.252	800.000	0.011	0.031
-402.238	-70.529	0.201	-0.076
-401.223	152.233	-0.262	0.359
-400.209	69.663	0.227	0.234
-399.194	-53.722	-0.204	0.093
-398.179	-200.000	0.013	-0.084
-397.165	-138.760	-0.095	0.010
-396.150	-144.111	-0.087	0.008
-395.136	10.396	0.229	-0.175
-394.121	169.129	0.061	0.087
-393.106	-84.158	0.315	0.100
-392.092	518.767	-0.160	0.376
-391.077	374.031	0.108	0.221
-390.063	800.000	-0.096	0.322
-389.048	-113.426	0.169	-0.033
-388.033	-71.601	0.022	-0.008
-387.019	-54.854	-0.388	-0.175
-386.004	-82.350	0.243	-0.079
-384.990	-3.826	-0.119	-0.082
-383.975	111.766	0.294	0.355
-382.960	132.677	0.172	0.222
-381.946	-15.294	0.149	-0.096
-380.931	56.894	0.241	0.235
-379.917	-200.000	0.050	0.289
-378.902	96.685	0.029	0.034
-377.888	800.000	0.044	0.147
-376.873	34.426	-0.213	-0.186
-375.858	-200.000	0.005	-0.085
-374.844	800.000	-0.073	-0.207
-373.829	164.898	0.212	-0.300
-372.815	-68.181	-0.242	-0.094
-371.800	-101.316	0.163	-0.040
-370.785	574.572	-0.148	0.362
-369.771	399.802	0.167	0.350
-368.756	300.343	0.105	-0.193
-367.742	2.483	-0.269	-0.195
-366.727	-161.080	-0.142	0.007
-365.712	326.680	-0.096	0.185
-364.698	-200.000	0.001	-0.255
-363.683	-179.865	0.064	-0.001
-362.669	-200.000	-0.002	0.186
-361.654	-46.791	0.211	-0.104
-360.639	113.264	-0.196	0.237
-359.625	-81.426	0.241	0.079
-358.610	207.815	-0.064	0.100
-357.596	-149.092	-0.136	0.011
-356.581	800.000	-0.071	-0.289
-355.566	63.793	0.264	-0.266
-354.552	199.253	-0.097	0.149
-353.537	-23.146	-0.164	0.099
-352.523	62.221	-0.278	0.278
-351.508	-6.908	-0.443	0.301
-350.493	-106.162	0.260	-0.058
-349.479	221.274	0.111	0.179
-348.464	649.183	0.080	0.204
-347.450	800.000	0.064	0.278
-346.435	-200.000	-0.006	0.247
-345.420	393.923	0.095	-0.198
-344.406	786.231	0.119	0.326
-343.391	-178.003	0.342	0.008
-342.377	-183.501	0.232	-0.004
-341.362	-200.000	-0.029	0.163
-340.348	-92.835	-0.316	-0.088
-339.333	573.335	0.093	-0.227
-338.318	-44.547	-0.127	-0.063
-337.304	279.780	0.065	-0.116
-336.289	0.286	-0.092	0.066
-335.275	800.000	-0.022	0.090
-334.260	800.000	0.056	0.172
-333.245	-34.614	-0.257	0.141
-332.231	2.733	-0.079	0.057
-331.216	800.000	-0.025	0.093
-330.202	-97.488	0.166	0.043
-329.187	-101.214	-0.168	0.041
-328.172	-20.270	-0.086	0.053
-327.158	-200.000	-0.006	0.307
-326.143	-117.663	-0.079	-0.014
-325.129	88.611	0.236	-0.263
-324.114	-45.208	-0.063	0.032
-323.099	-2.794	-0.313	0.219
-322.085	-30.897	-0.157	-0.089
-321.070	-76.923	0.099	0.035
-320.056	88.781	-0.257	0.286
-319.041	5.771	-0.175	0.129
-318.026	363.689	-0.086	-0.172
-317.012	677.019	0.174	0.453
-315.997	-82.933	-0.320	0.103
-314.983	-200.000	-0.019	0.125
-313.968	800.000	0.023	0.087
-312.953	133.543	-0.102	0.132
-311.939	108.466	-0.144	0.171
-310.924	314.720	0.173	-0.326
-309.910	-37.919	-0.264	-0.140
-308.895	23.658	-0.081	0.067
-307.880	218.919	0.095	0.152
-306.866	91.213	-0.104	-0.117
-305.851	800.000	0.069	-0.212
-304.837	197.478	-0.154	0.235
-303.822	-23.296	-0.281	0.169
-302.807	461.343	0.275	-0.612
-301.793	11.766	-0.097	-0.075
-300.778	-151.410	0.166	0.012
-299.764	106.356	-0.220	0.261
-298.749	-200.000	-0.006	-0.085
-297.735	50.520	0.139	0.131
-296.720	-17.474	0.172	-0.108
-295.705	55.802	0.157	-0.152
-294.691	-200.000	-0.044	0.267
-293.676	18.187	0.180	-0.144
-292.662	-168.352	0.086	-0.003
-291.647	152.712	0.173	0.235
-290.632	-78.906	-0.212	-0.072
-289.618	71.426	0.053	0.055
-288.603	-200.000	-0.031	0.194
-287.589	-186.853	-0.203	0.003
-286.574	412.654	-0.083	0.177
-285.559	7.715	0.070	-0.052
-284.545	121.192	0.101	-0.125
-283.530	-138.333	0.235	0.026
-282.516	186.640	-0.137	-0.204
-281.501	-126.375	0.133	-0.020
-280.486	413.580	-0.037	0.079
-279.472	-41.928	0.515	0.263
-278.457	318.433	-0.174	-0.330
-277.443	657.186	0.068	-0.174
-276.428	251.155	0.108	-0.183
-275.413	800.000	0.042	0.121
-274.399	468.667	0.212	0.476
-273.384	544.846	0.105	-0.250
-272.370	30.976	-0.089	-0.076
-271.355	-43.127	0.054	-0.027
-270.340	-83.769	-0.032	-0.010
-269.326	-127.453	0.329	0.048
-268.311	-55.098	-0.215	-0.097
-267.297	-200.000	-0.098	-0.534
-266.282	-109.403	0.149	0.031
-265.267	-57.772	0.117	-0.051
-264.253	-200.000	0.031	-0.384
-263.238	-200.000	-0.014	0.144
-262.224	-171.609	0.425	-0.014
-261.209	52.076	-0.051	-0.048
-260.195	-128.069	0.139	-0.020
-259.180	-200.000	-0.031	-0.249
-258.165	40.471	0.121	-0.109
-257.151	-46.456	0.210	-0.103
-256.136	-144.543	0.236	-0.022
-255.122	-161.035	-0.051	0.003
-254.107	378.285	0.159	0.324
-253.092	165.171	0.124	-0.175
-252.078	440.872	0.097	0.212
-251.063	56.365	0.166	-0.161
-250.049	234.909	0.049	0.081
-249.034	6.779	0.213	-0.158
-248.019	-117.239	-0.046	-0.008
-247.005	33.407	-0.055	-0.048
-245.990	25.915	-0.066	0.054
-244.976	-200.000	0.004	0.099
-243.961	-119.415	-0.138	-0.024
-242.946	-104.849	0.313	-0.072
-241.932	283.554	0.222	0.397
-240.917	9.432	-0.094	0.071
-239.903	158.393	0.116	0.160
-238.888	-118.046	0.285	-0.051
-237.873	-43.954	0.182	0.091
-236.859	-85.392	-0.204	0.063
-235.844	32.386	-0.209	-0.179
-234.830	800.000	-0.122	-0.348
-233.815	180.824	-0.064	-0.093
-232.800	32.746	-0.197	0.169
-231.786	67.111	0.190	0.193
-230.771	667.858	-0.113	-0.290
-229.757	-132.059	0.255	-0.033
-228.742	800.000	-0.087	0.245
-227.727	-67.751	0.102	-0.040
-226.713	-200.000	0.013	0.175
-225.698	203.503	-0.147	0.227
-224.684	-103.230	0.051	-0.012
-223.669	-200.000	0.035	0.241
-222.655	82.222	0.157	0.169
-221.640	329.920	0.083	-0.158
-220.625	696.548	-0.142	-0.371
-219.611	-200.000	-0.002	-0.027
-218.596	170.472	0.130	-0.185
-217.582	-41.116	0.273	-0.140
-216.567	-54.673	-0.110	-0.049
-215.552	-115.275	-0.310	-0.058
-214.538	90.850	0.021	-0.023
-213.523	-155.957	-0.271	-0.017
-212.509	399.873	0.038	-0.079
-211.494	-64.266	-0.284	0.115
-210.479	-181.114	0.322	-0.006
-209.465	-200.000	-0.052	0.392
-208.450	-193.434	0.104	0.001
-207.436	-85.900	-0.152	-0.047
-206.421	18.378	0.033	0.026
-205.406	21.132	0.196	0.158
-204.392	800.000	0.120	-0.338
-203.377	30.059	-0.059	0.050
-202.363	-1.333	-0.113	0.079
-201.348	800.000	-0.065	0.268
-200.333	-79.259	-0.299	0.101
-199.319	32.380	-0.247	0.212
-198.304	800.000	-0.034	0.108
-197.290	163.141	-0.014	-0.019
-196.275	-200.000	-0.022	0.135
-195.260	-142.168	-0.291	-0.029
-194.246	-191.689	-0.181	0.002
-193.231	-119.023	0.172	0.030
-192.217	-170.927	-0.302	-0.010
-191.202	-1.595	-0.147	0.103
-190.187	-200.000	0.000	0.141
-189.173	-147.604	-0.177	0.015
-188.158	409.538	0.083	0.174
-187.144	-21.769	0.131	0.079
-186.129	69.844	0.041	0.042
-185.114	342.646	-0.169	-0.329
-184.100	-119.192	-0.142	0.025
-183.085	-65.239	0.210	0.084
-182.071	-200.000	-0.036	0.276
-181.056	-169.817	0.080	-0.003
-180.042	-200.000	0.031	-0.298
-179.027	-2.701	-0.350	-0.243
-178.012	33.650	0.099	0.086
-176.998	-140.302	0.236	0.024
-175.983	-93.016	-0.117	0.032
-174.969	107.071	0.233	-0.275
-173.954	800.000	-0.093	0.348
-172.939	349.450	-0.116	-0.228
-171.925	39.653	0.117	0.104
-170.910	45.197	0.344	0.315
-169.896	-167.830	-0.478	0.019
-168.881	-200.000	0.058	-0.334
-167.866	164.122	-0.179	-0.250
-166.852	77.739	0.096	-0.102
-165.837	68.784	0.083	-0.084
-164.823	42.546	0.224	-0.203
-163.808	-62.397	-0.219	0.090
-162.793	-157.384	-0.243	0.015
-161.779	226.953	0.178	0.286
-160.764	-137.417	0.254	-0.029
-159.750	79.853	0.118	0.126
-158.735	314.941	-0.089	-0.166
-157.720	-31.085	0.384	0.215
-156.706	-156.865	-0.180	0.011
-155.691	99.733	0.064	0.074
-154.677	-200.000	0.013	-0.155
-153.662	155.285	0.113	-0.154
-152.647	-148.498	-0.233	-0.019
-151.633	428.494	0.097	0.207
-150.618	705.532	0.165	-0.433
-149.604	233.335	0.188	0.307
-148.589	582.537	0.146	-0.357
-147.574	-194.963	0.312	0.002
-146.560	-200.000	-0.018	-0.198
-145.545	-82.377	-0.093	-0.030
-144.531	33.492	-0.130	0.112
-143.516	6.124	-0.122	-0.090
-142.502	-124.384	0.429	0.066
-141.487	662.442	0.128	-0.328
-140.472	353.912	-0.100	-0.197
-139.458	180.145	-0.092	-0.134
-138.443	-16.505	-0.138	0.087
-137.429	66.204	0.301	0.304
-136.414	-126.162	0.276	0.041
-135.399	-129.805	0.098	0.013
-134.385	84.596	0.194	0.211
-133.370	-53.071	-0.199	0.091
-132.356	-21.943	0.356	0.214
-131.341	70.763	-0.105	-0.108
-130.326	800.000	-0.044	0.167
-129.312	266.998	0.157	0.272
-128.297	800.000	0.105	0.300
-127.283	-4.237	-0.122	0.084
-126.268	-123.503	0.287	-0.045
-125.253	-7.561	-0.142	-0.095
-124.239	70.065	0.093	-0.095
-123.224	-49.922	-0.083	0.039
-122.210	-200.000	0.005	-0.218
-121.195	-41.768	-0.185	-0.094
