DTS Sentinel unit serial number:	SN413079Multiplexer serial number:	ORYXHardware model number:	OX4-SRSoftware version number:	ORYX F/W v4.00 Oryx Data Collector v3.7.2.0data status	okinstallation	princeton_trtdifferential loss correction	single-endedforward channel	channel 1reverse channel	N/Adate	2019/09/11time	14:12:11forward acquisition time	60.00reverse acquisition time	0.00gamma	496.2192k internal	0.2293k external	0.2293temperature offset calibration	0.9984default loss term (dB/km)	0.3790temperature slope calibration	1.0000multiplexer offset coefficient	1.0000multiplexer slope coefficient	1.0000fibre end	0.00T internal ref (°C)	41.91T ext. ref 1 (°C)	0.87T ext. ref 2 (°C)	37.51length (m)	temperature (°C)	Stokes	anti-Stokes-747.200	215.979	0.043	0.070
-746.185	268.339	-0.056	0.101
-745.171	-132.746	-0.311	0.041
-744.156	3.419	-0.147	0.110
-743.142	37.654	-0.097	-0.088
-742.127	226.205	0.129	0.214
-741.112	-73.417	0.156	0.058
-740.098	-28.188	0.455	0.269
-739.083	43.690	0.267	0.250
-738.069	514.176	0.090	0.214
-737.054	-200.000	-0.003	0.231
-736.039	800.000	-0.065	0.257
-735.025	179.355	0.214	0.320
-734.010	-121.866	-0.126	0.021
-732.996	231.854	0.114	-0.190
-731.981	-87.113	0.490	0.152
-730.966	-125.861	0.230	0.035
-729.952	19.173	0.313	-0.257
-728.937	-152.946	-0.164	-0.012
-727.923	302.366	0.138	0.260
-726.908	87.449	0.098	-0.110
-725.894	-78.615	-0.168	0.059
-724.879	101.376	-0.032	-0.038
-723.864	-200.000	0.019	-0.208
-722.850	-115.416	-0.152	0.029
-721.835	29.399	-0.440	-0.382
-720.821	-143.052	0.069	0.007
-719.806	48.868	0.053	0.051
-718.791	-200.000	-0.050	-0.292
-717.777	186.150	-0.216	0.329
-716.762	-200.000	0.006	0.134
-715.748	165.578	-0.175	0.254
-714.733	-118.951	-0.121	-0.022
-713.718	168.021	-0.242	-0.352
-712.704	-88.304	0.189	-0.058
-711.689	-200.000	0.021	-0.463
-710.675	102.503	-0.238	-0.284
-709.660	494.964	-0.200	-0.468
-708.645	-24.115	-0.364	-0.222
-707.631	-131.846	0.053	-0.007
-706.616	21.487	0.119	-0.099
-705.602	-185.991	-0.213	-0.003
-704.587	99.293	0.201	0.237
-703.572	-95.861	-0.220	0.060
-702.558	-27.947	-0.025	-0.015
-701.543	96.423	-0.086	0.101
-700.529	262.579	0.186	-0.329
-699.514	-98.661	0.271	0.071
-698.499	776.602	0.080	-0.224
-697.485	-137.070	-0.182	0.021
-696.470	800.000	-0.018	-0.080
-695.456	346.187	-0.032	-0.065
-694.441	800.000	0.064	-0.263
-693.426	186.174	-0.185	0.280
-692.412	800.000	0.054	-0.240
-691.397	490.101	0.090	-0.211
-690.383	-150.226	-0.401	0.032
-689.368	-136.840	0.237	-0.028
-688.354	-200.000	-0.068	0.323
-687.339	-61.310	-0.263	0.113
-686.324	-200.000	-0.041	-0.263
-685.310	-200.000	-0.005	-0.109
-684.295	94.788	0.074	-0.086
-683.281	-54.610	-0.253	0.117
-682.266	-155.564	-0.154	0.010
-681.251	149.578	0.050	0.069
-680.237	217.510	0.066	-0.107
-679.222	-87.435	-0.356	-0.110
-678.208	161.844	-0.124	0.178
-677.193	-200.000	-0.046	-0.254
-676.178	623.530	-0.053	-0.136
-675.164	73.379	0.283	0.302
-674.149	-133.739	-0.078	-0.010
-673.135	-65.576	-0.306	-0.125
-672.120	93.147	0.290	-0.335
-671.105	165.608	0.118	-0.171
-670.091	352.124	0.025	0.050
-669.076	800.000	-0.022	-0.088
-668.062	-9.702	0.088	0.060
-667.047	53.628	0.037	-0.037
-666.032	-64.784	-0.172	-0.071
-665.018	158.262	0.134	-0.190
-664.003	487.238	-0.121	-0.283
-662.989	-44.697	0.102	0.052
-661.974	-125.066	0.184	0.029
-660.959	-150.060	-0.512	-0.041
-659.945	161.452	-0.186	0.265
-658.930	-200.000	-0.020	0.416
-657.916	-200.000	0.057	0.287
-656.901	-160.656	-0.198	0.011
-655.886	-200.000	0.003	-0.093
-654.872	-128.766	-0.640	0.092
-653.857	350.762	-0.140	-0.282
-652.843	-24.549	-0.106	0.064
-651.828	-181.340	0.331	-0.007
-650.814	-11.134	-0.291	-0.195
-649.799	2.870	-0.139	-0.103
-648.784	-200.000	-0.022	0.270
-647.770	223.409	0.130	-0.214
-646.755	800.000	-0.022	0.091
-645.741	-108.929	-0.271	-0.059
-644.726	-30.130	0.176	0.102
-643.711	-191.073	0.221	-0.002
-642.697	165.397	0.108	0.156
-641.682	790.405	0.097	0.272
-640.668	800.000	-0.028	0.080
-639.653	129.855	0.058	-0.075
-638.638	-24.327	-0.306	0.186
-637.624	-175.738	0.050	0.001
-636.609	-115.701	0.090	0.017
-635.595	-200.000	-0.003	-0.220
-634.580	-53.480	0.186	-0.087
-633.565	93.202	-0.085	-0.098
-632.551	47.068	-0.064	0.061
-631.536	-121.058	0.271	-0.046
-630.522	-27.349	0.173	0.103
-629.507	-200.000	0.000	0.112
-628.492	333.102	0.064	0.126
-627.478	800.000	0.034	-0.104
-626.463	-102.051	-0.448	0.110
-625.449	103.714	-0.114	-0.137
-624.434	-200.000	0.031	0.150
-623.419	355.624	0.109	0.222
-622.405	78.144	-0.259	-0.281
-621.390	-119.965	0.195	0.034
-620.376	34.232	0.183	-0.162
-619.361	483.108	-0.025	0.058
-618.346	314.067	-0.036	0.070
-617.332	-200.000	-0.014	0.144
-616.317	6.709	0.243	0.184
-615.303	-19.283	-0.154	0.097
-614.288	-49.931	-0.128	0.062
-613.273	95.178	0.278	-0.322
-612.259	-74.764	0.106	0.039
-611.244	-108.601	0.268	0.059
-610.230	-200.000	0.050	0.237
-609.215	-138.220	0.192	0.022
-608.201	-9.332	-0.148	-0.101
-607.186	-200.000	-0.003	-0.100
-606.171	-58.844	0.062	0.027
-605.157	610.978	-0.030	0.076
-604.142	-62.295	0.356	-0.151
-603.128	477.250	-0.169	-0.389
-602.113	-188.021	-0.196	0.003
-601.098	16.027	-0.080	0.064
-600.084	800.000	-0.028	0.094
-599.069	153.087	0.098	0.137
-598.055	307.887	0.102	0.194
-597.040	-40.824	-0.134	-0.070
-596.025	-200.000	0.010	-0.087
-595.011	16.429	0.134	-0.108
-593.996	-78.296	0.319	-0.112
-592.982	-96.538	-0.043	0.012
-591.967	-123.618	0.519	-0.084
-590.952	-144.029	0.197	-0.019
-589.938	47.175	-0.149	0.141
-588.923	-51.365	-0.298	0.142
-587.909	-155.994	0.183	-0.012
-586.894	211.886	0.144	-0.231
-585.879	-200.000	-0.015	0.176
-584.865	-115.779	-0.339	-0.064
-583.850	-9.284	-0.145	-0.098
-582.836	800.000	0.098	-0.351
-581.821	-60.060	-0.146	-0.063
-580.806	8.509	0.213	-0.163
-579.792	35.925	0.234	0.209
-578.777	429.272	-0.071	-0.156
-577.763	-5.559	-0.283	0.198
-576.748	-18.827	0.130	-0.082
-575.733	-148.559	-0.266	-0.022
-574.719	-153.331	0.205	-0.014
-573.704	-200.000	-0.417	0.002
-572.690	-26.516	0.031	0.019
-571.675	-103.486	-0.097	0.023
-570.661	-183.287	-0.086	0.002
-569.646	106.663	0.148	0.179
-568.631	-171.327	-0.156	-0.005
-567.617	97.175	-0.209	0.243
-566.602	-83.389	0.157	-0.051
-565.588	-200.000	0.034	-0.203
-564.573	-127.243	-0.386	0.057
-563.558	-28.369	-0.225	-0.132
-562.544	105.609	-0.074	-0.089
-561.529	-37.638	0.132	-0.071
-560.515	-7.508	-0.260	0.179
-559.500	612.286	-0.030	-0.076
-558.485	3.674	0.109	-0.081
-557.471	104.375	-0.177	-0.212
-556.456	800.000	0.027	0.098
-555.442	-200.000	0.024	-0.263
-554.427	17.491	0.237	-0.191
-553.412	800.000	-0.044	-0.187
-552.398	-155.277	-0.175	-0.012
-551.383	800.000	0.090	-0.306
-550.369	292.802	0.139	0.257
-549.354	800.000	-0.059	-0.176
-548.339	-200.000	0.049	0.567
-547.325	-116.752	-0.244	0.045
-546.310	-98.876	-0.118	-0.030
-545.296	800.000	-0.077	-0.218
-544.281	66.493	-0.149	-0.154
-543.266	800.000	-0.102	0.346
-542.252	-200.000	0.021	-0.141
-541.237	54.917	-0.209	-0.205
-540.223	-19.343	-0.157	-0.099
-539.208	-142.648	-0.059	-0.006
-538.193	-60.537	0.033	0.014
-537.179	800.000	0.058	0.245
-536.164	263.112	-0.139	0.244
-535.150	-69.335	0.155	0.061
-534.135	-200.000	-0.009	-0.081
-533.121	-84.933	0.102	-0.033
-532.106	545.443	0.223	0.541
-531.091	-117.389	0.526	0.097
-530.077	800.000	-0.080	-0.249
-529.062	-11.490	-0.193	-0.129
-528.048	390.136	-0.103	0.217
-527.033	-200.000	-0.019	-0.094
-526.018	-30.169	-0.121	-0.070
-525.004	8.698	0.282	-0.215
-523.989	-200.000	0.007	-0.161
-522.975	-138.740	0.134	-0.015
-521.960	-89.613	-0.082	-0.024
-520.945	269.532	0.151	-0.269
-519.931	800.000	-0.067	0.284
-518.916	42.503	-0.096	-0.089
-517.902	-92.549	0.460	-0.131
-516.887	36.771	-0.274	-0.246
-515.872	-11.889	0.073	-0.048
-514.858	-200.000	-0.013	0.225
-513.843	-0.829	-0.161	0.115
-512.829	-183.458	-0.121	0.002
-511.814	-200.000	-0.058	0.488
-510.799	-200.000	0.034	0.193
-509.785	-111.840	0.310	-0.063
-508.770	50.592	-0.132	-0.126
-507.756	-133.429	-0.175	0.022
-506.741	26.179	-0.223	0.188
-505.726	51.310	-0.233	0.224
-504.712	-200.000	-0.009	-0.188
-503.697	-200.000	0.055	-0.258
-502.683	141.359	0.124	0.166
-501.668	43.300	0.106	0.098
-500.653	-47.956	-0.170	0.083
-499.639	383.534	0.022	0.045
-498.624	800.000	0.040	-0.132
-497.610	-200.000	-0.140	-0.666
-496.595	-105.152	0.411	-0.095
-495.581	339.932	-0.139	-0.275
-494.566	-200.000	-0.037	-0.177
-493.551	86.565	0.092	0.103
-492.537	90.658	-0.098	0.112
-491.522	-200.000	0.017	-0.271
-490.508	-10.425	-0.316	0.212
-489.493	376.274	-0.157	0.325
-488.478	-42.576	-0.167	0.086
-487.464	410.884	0.109	-0.234
-486.449	202.425	-0.032	0.051
-485.435	800.000	0.045	-0.141
-484.420	-24.388	0.238	0.144
-483.405	10.485	0.029	0.023
-482.391	-200.000	0.040	0.448
-481.376	-200.000	-0.020	0.183
-480.362	-115.968	0.507	0.096
-479.347	-52.870	-0.254	0.118
-478.332	800.000	0.080	0.292
-477.318	1.171	-0.083	0.060
-476.303	-29.499	-0.041	0.024
-475.289	-192.525	0.036	0.000
-474.274	60.055	0.105	0.105
-473.259	-25.088	0.257	0.154
-472.245	106.811	0.341	0.410
-471.230	-115.055	-0.271	0.052
-470.216	-200.000	-0.006	0.165
-469.201	-135.521	0.365	-0.044
-468.186	-153.642	0.293	-0.020
-467.172	188.259	0.084	0.127
-466.157	249.825	0.116	0.199
-465.143	-200.000	0.019	0.436
-464.128	-200.000	-0.046	0.216
-463.113	65.987	0.123	0.126
-462.099	-124.573	0.347	-0.055
-461.084	-200.000	0.024	-0.152
-460.070	258.920	-0.081	-0.142
-459.055	198.886	0.187	0.290
-458.040	-36.815	0.233	-0.127
-457.026	800.000	-0.048	0.201
-456.011	-200.000	-0.004	-0.137
-454.997	-60.767	-0.336	-0.144
-453.982	-14.584	0.043	0.028
-452.968	-160.835	0.026	0.001
-451.953	357.461	-0.133	-0.268
-450.938	182.972	-0.185	-0.277
-449.924	-127.862	-0.344	-0.050
-448.909	-200.000	0.001	0.042
-447.895	140.051	0.124	-0.165
-446.880	525.934	-0.055	0.132
-445.865	77.986	-0.173	0.187
-444.851	800.000	0.105	0.325
-443.836	-99.668	0.223	-0.056
-442.822	358.115	-0.141	-0.284
-441.807	-51.353	-0.163	-0.077
-440.792	342.847	-0.119	-0.235
-439.778	152.349	-0.073	-0.101
-438.763	-129.442	0.185	-0.026
-437.749	-153.247	-0.209	0.015
-436.734	-133.375	-0.307	0.039
-435.719	525.360	-0.169	0.402
-434.705	176.666	-0.234	-0.345
-433.690	-33.944	-0.306	-0.170
-432.676	179.979	-0.021	0.031
-431.661	575.870	-0.064	0.157
-430.646	502.071	0.086	0.200
-429.632	-200.000	0.028	-0.156
-428.617	-108.491	0.415	-0.090
-427.603	-67.257	0.094	-0.037
-426.588	-200.000	0.007	0.120
-425.573	-0.228	-0.304	-0.218
-424.559	-123.383	-0.228	0.037
-423.544	106.402	-0.053	0.063
-422.530	20.034	-0.291	-0.237
-421.515	270.336	0.028	0.050
-420.500	732.178	0.065	-0.175
-419.486	-200.000	0.013	-0.447
-418.471	800.000	0.059	0.172
-417.457	-200.000	0.000	0.054
-416.442	-45.144	-0.315	0.158
-415.428	800.000	0.049	-0.156
-414.413	800.000	-0.056	0.170
-413.398	19.126	-0.174	0.141
-412.384	82.080	-0.107	-0.117
-411.369	-138.315	-0.222	-0.025
-410.355	-200.000	0.022	-0.384
-409.340	-91.830	-0.238	0.068
-408.325	-170.356	-0.244	0.009
-407.311	-200.000	0.018	0.175
-406.296	800.000	-0.039	-0.135
-405.282	-167.294	0.432	-0.018
-404.267	102.458	0.036	0.043
-403.252	800.000	0.123	0.511
-402.238	216.860	0.141	-0.227
-401.223	-121.622	0.229	0.038
-400.209	-114.931	-0.307	0.059
-399.194	120.709	-0.088	-0.110
-398.179	593.463	-0.114	0.285
-397.165	800.000	-0.075	0.297
-396.150	-200.000	-0.014	0.066
-395.136	212.976	-0.138	-0.220
-394.121	509.919	0.140	-0.329
-393.106	-200.000	-0.033	0.213
-392.092	-200.000	-0.005	0.243
-391.077	141.585	0.131	0.175
-390.063	800.000	0.089	-0.247
-389.048	9.313	-0.125	-0.095
-388.033	-69.152	-0.468	0.182
-387.019	262.583	-0.053	-0.092
-386.004	800.000	0.058	0.228
-384.990	-106.541	-0.414	0.093
-383.975	800.000	0.043	-0.151
-382.960	93.830	0.038	-0.043
-381.946	753.687	0.086	-0.235
-380.931	49.123	-0.151	-0.143
-379.917	115.874	0.150	-0.185
-378.902	-183.352	-0.314	0.006
-377.888	-136.447	0.191	-0.022
-376.873	-200.000	0.013	0.148
-375.858	-66.698	0.254	-0.101
-374.844	800.000	0.085	-0.340
-373.829	-2.240	-0.180	0.127
-372.815	800.000	0.071	0.267
-371.800	-200.000	0.006	-0.099
-370.785	-131.660	-0.074	-0.010
-369.771	-3.380	-0.214	0.150
-368.756	-65.051	0.283	0.115
-367.742	800.000	-0.061	0.205
-366.727	800.000	0.104	0.332
-365.712	-83.879	-0.496	0.159
-364.698	-200.000	0.008	-0.112
-363.683	-200.000	-0.004	-0.059
-362.669	162.973	-0.108	-0.153
-361.654	327.408	0.182	0.352
-360.639	676.823	-0.133	0.348
-359.625	-53.935	-0.227	0.104
-358.610	87.068	0.294	0.328
-357.596	-200.000	0.016	-0.321
-356.581	49.101	-0.141	0.133
-355.566	27.528	0.168	0.142
-354.552	-200.000	0.023	-0.407
-353.537	42.199	-0.157	-0.144
-352.523	31.329	0.127	0.110
-351.508	305.065	-0.197	0.369
-350.493	-200.000	0.008	-0.328
-349.479	-36.459	0.228	0.123
-348.464	119.824	0.124	0.155
-347.450	472.673	-0.046	0.104
-346.435	4.369	0.124	-0.092
-345.420	484.271	0.077	-0.177
-344.406	-162.555	0.135	0.007
-343.391	93.237	-0.072	0.082
-342.377	-143.126	-0.205	0.020
-341.362	46.212	0.276	-0.257
-340.348	-200.000	0.018	-0.194
-339.333	800.000	0.042	0.161
-338.318	-46.341	-0.351	0.173
-337.304	340.439	-0.076	0.150
-336.289	112.964	-0.068	0.083
-335.275	-200.000	-0.048	-0.485
-334.260	54.132	0.253	0.245
-333.245	363.217	-0.112	0.227
-332.231	373.246	0.067	0.137
-331.216	-70.433	0.152	-0.058
-330.202	800.000	-0.049	-0.179
-329.187	-64.843	0.069	-0.028
-328.172	-200.000	0.007	-0.114
-327.158	50.328	-0.094	-0.089
-326.143	413.303	-0.123	0.263
-325.129	20.036	0.087	-0.071
-324.114	800.000	0.105	0.389
-323.099	220.615	-0.117	0.189
-322.085	-58.224	-0.139	-0.061
-321.070	-111.495	-0.113	-0.023
-320.056	472.532	-0.049	0.110
-319.041	8.771	-0.147	0.111
-318.026	-97.563	0.122	-0.032
-317.012	-200.000	0.005	-0.072
-315.997	-184.541	0.170	-0.003
-314.983	-172.294	0.066	0.002
-313.968	-200.000	-0.036	-0.175
-312.953	-161.389	0.188	-0.010
-311.939	-126.067	0.124	-0.019
-310.924	166.462	0.060	0.086
-309.910	101.912	-0.145	-0.170
-308.895	-164.556	-0.080	-0.004
-307.880	800.000	-0.058	0.253
-306.866	-200.000	0.065	0.290
-305.851	218.400	-0.024	0.039
-304.837	308.374	0.040	0.076
-303.822	-200.000	0.015	0.169
-302.807	800.000	0.041	0.145
-301.793	-73.882	0.141	0.052
-300.778	-200.000	0.040	-0.182
-299.764	-200.000	-0.047	-0.291
-298.749	-113.721	0.296	0.058
-297.735	-43.331	0.065	-0.033
-296.720	-24.436	0.318	-0.190
-295.705	684.993	0.062	0.162
-294.691	200.676	-0.102	0.158
-293.676	-114.564	-0.149	0.029
-292.662	580.658	0.079	-0.194
-291.647	688.520	-0.125	-0.328
-290.632	442.185	-0.037	-0.082
-289.618	-137.047	0.137	0.016
-288.603	-165.263	0.165	0.007
-287.589	-171.458	0.232	0.008
-286.574	-200.000	0.058	-0.342
-285.559	26.764	0.106	-0.089
-284.545	55.802	-0.214	0.208
-283.530	65.034	0.106	-0.107
-282.516	132.037	0.125	-0.162
-281.501	2.566	0.237	0.173
-280.486	-65.777	0.224	0.090
-279.472	504.080	0.024	0.056
-278.457	557.464	-0.040	-0.096
-277.443	-107.113	0.180	0.040
-276.428	-200.000	-0.022	-0.101
-275.413	-200.000	-0.010	0.069
-274.399	314.386	-0.070	-0.133
-273.384	-200.000	-0.003	-0.183
-272.370	-130.771	0.337	-0.045
-271.355	800.000	0.020	-0.076
-270.340	-79.021	-0.125	-0.043
-269.326	-62.773	-0.005	0.002
-268.311	146.284	0.127	0.171
-267.297	-89.435	0.125	0.037
-266.282	52.379	0.096	0.092
-265.267	6.797	-0.148	-0.110
-264.253	227.709	-0.088	-0.143
-263.238	-200.000	-0.076	-0.368
-262.224	57.778	-0.160	0.157
-261.209	-116.947	-0.053	-0.010
-260.195	-44.369	-0.242	0.122
-259.180	112.679	0.160	-0.195
-258.165	4.420	-0.206	-0.152
-257.151	146.178	0.070	-0.094
-256.136	800.000	-0.086	0.247
-255.122	534.057	-0.040	0.095
-254.107	121.654	0.183	0.229
-253.092	116.204	-0.154	0.189
-252.078	-137.263	-0.071	0.008
-251.063	-115.361	0.446	-0.085
-250.049	-200.000	-0.052	0.246
-249.034	-200.000	-0.043	-0.201
-248.019	398.712	0.018	0.039
-247.005	-193.843	0.135	-0.001
-245.990	94.689	0.099	-0.113
-244.976	221.481	-0.165	-0.266
-243.961	60.616	0.198	0.196
-242.946	709.217	0.098	0.259
-241.932	66.848	-0.137	0.140
-240.917	641.455	-0.048	-0.123
-239.903	121.603	-0.193	-0.242
-238.888	-200.000	-0.046	-0.251
-237.873	-139.570	0.284	-0.030
-236.859	315.613	-0.088	-0.167
-235.844	-65.248	-0.174	0.070
-234.830	-200.000	-0.027	-0.257
-233.815	126.503	0.112	-0.143
-232.800	-78.652	-0.235	-0.080
-231.786	30.772	-0.190	0.163
-230.771	-74.823	0.106	-0.038
-229.757	32.194	-0.082	-0.071
-228.742	800.000	0.061	-0.207
-227.727	28.758	-0.015	-0.012
-226.713	-200.000	0.007	0.300
-225.698	759.238	0.075	-0.204
-224.684	-145.993	-0.282	-0.025
-223.669	800.000	0.048	0.199
-222.655	-163.849	0.178	0.008
-221.640	90.772	-0.176	-0.198
-220.625	315.837	0.103	0.195
-219.611	800.000	0.044	-0.183
-218.596	800.000	-0.034	-0.137
-217.582	-200.000	0.056	0.294
-216.567	0.847	-0.310	0.223
-215.552	20.769	-0.113	-0.092
-214.538	-125.827	0.317	-0.048
-213.523	800.000	-0.064	-0.243
-212.509	-200.000	0.040	0.193
-211.494	-10.590	0.232	0.154
-210.479	796.302	0.082	-0.226
-209.465	800.000	0.044	0.192
-208.450	-200.000	0.003	-0.197
-207.436	-126.554	0.299	0.044
-206.421	21.869	-0.100	-0.082
-205.406	395.552	-0.143	-0.299
-204.392	354.435	0.146	-0.291
-203.377	29.569	-0.300	0.256
-202.363	-156.550	-0.281	-0.017
-201.348	-200.000	-0.004	-0.081
-200.333	64.846	-0.270	-0.272
-199.319	118.056	0.044	0.055
-198.304	109.186	0.140	-0.167
-197.290	-82.446	0.345	0.112
-196.275	-72.797	0.080	-0.029
-195.260	22.215	-0.247	-0.202
-194.246	-6.183	-0.121	0.083
-193.231	238.116	-0.154	0.256
-192.217	-108.466	0.249	-0.054
-191.202	60.547	-0.279	-0.277
-190.187	800.000	-0.099	-0.281
-189.173	800.000	-0.094	-0.368
-188.158	344.727	0.060	-0.118
-187.144	-123.395	0.045	-0.007
-186.129	-36.473	0.214	-0.116
-185.114	-167.235	-0.362	-0.015
-184.100	-7.076	0.125	0.085
-183.085	-115.185	0.138	-0.026
-182.071	73.483	-0.231	0.242
-181.056	-160.574	0.406	0.022
-180.042	31.157	0.169	0.145
-179.027	24.453	0.160	-0.132
-178.012	111.171	0.175	-0.211
-176.998	-200.000	-0.020	-0.112
-175.983	-133.535	-0.252	0.032
-174.969	403.983	0.050	-0.105
-173.954	800.000	0.106	-0.359
-172.939	-181.729	-0.256	0.005
-171.925	-174.147	-0.415	-0.012
-170.910	-93.421	0.121	0.034
-169.896	-138.080	0.094	0.010
-168.881	-122.084	0.524	0.086
-167.866	-62.051	-0.041	-0.017
-166.852	84.040	-0.213	0.233
-165.837	477.443	-0.052	0.117
-164.823	81.787	0.042	-0.045
-163.808	517.642	-0.065	-0.151
-162.793	-29.122	0.219	0.126
-161.779	800.000	-0.017	0.068
-160.764	-140.563	0.165	0.017
-159.750	-63.802	-0.096	0.039
-158.735	547.352	0.110	0.262
-157.720	-118.731	-0.239	0.042
-156.706	140.388	0.137	-0.181
-155.691	-102.231	0.155	0.037
-154.677	800.000	-0.051	0.194
-153.662	76.802	0.111	-0.118
-152.647	-121.118	0.122	-0.020
-151.633	265.171	-0.068	-0.119
-150.618	77.482	-0.133	-0.141
-149.604	800.000	-0.030	-0.091
-148.589	-46.967	0.226	-0.110
-147.574	35.804	0.121	-0.107
-146.560	-170.041	0.251	0.009
-145.545	392.831	0.088	-0.183
-144.531	-200.000	0.042	-0.190
-143.516	70.377	-0.142	0.147
-142.502	292.952	-0.090	0.164
-141.487	-186.029	-0.326	0.005
-140.472	770.671	-0.076	0.208
-139.458	-200.000	-0.009	0.389
-138.443	-36.898	0.215	0.115
-137.429	-26.901	0.098	0.057
-136.414	-92.169	-0.191	0.054
-135.399	182.622	0.161	-0.238
-134.385	-40.327	0.157	-0.081
-133.370	67.639	-0.238	-0.243
-132.356	-71.120	0.108	0.040
-131.341	-189.368	0.308	0.004
-130.326	800.000	-0.034	0.146
-129.312	84.075	0.071	0.077
-128.297	-200.000	0.005	-0.047
-127.283	538.947	0.091	-0.217
-126.268	-24.826	-0.263	0.156
-125.253	-200.000	-0.062	-0.331
-124.239	-200.000	0.022	-0.191
-123.224	-200.000	-0.015	0.088
-122.210	-200.000	0.051	0.232
