DTS Sentinel unit serial number:	SN413079Multiplexer serial number:	ORYXHardware model number:	OX4-SRSoftware version number:	ORYX F/W v4.00 Oryx Data Collector v3.7.2.0data status	okinstallation	princeton_trtdifferential loss correction	single-endedforward channel	channel 1reverse channel	N/Adate	2019/09/13time	18:34:35forward acquisition time	60.00reverse acquisition time	0.00gamma	496.2192k internal	0.2317k external	0.2317temperature offset calibration	1.0130default loss term (dB/km)	0.3790temperature slope calibration	1.0000multiplexer offset coefficient	1.0000multiplexer slope coefficient	1.0000fibre end	0.00T internal ref (°C)	33.19T ext. ref 1 (°C)	4.20T ext. ref 2 (°C)	26.17length (m)	temperature (°C)	Stokes	anti-Stokes-747.200	51.428	0.060	0.057
-746.185	142.104	-0.199	0.267
-745.171	8.129	0.105	-0.080
-744.156	498.675	-0.046	0.106
-743.142	52.302	-0.089	0.086
-742.127	800.000	-0.065	0.207
-741.112	182.037	0.088	0.131
-740.098	-200.000	0.010	0.285
-739.083	-200.000	-0.012	0.228
-738.069	-132.674	-0.191	0.025
-737.054	800.000	0.021	-0.062
-736.039	800.000	0.039	-0.117
-735.025	-26.282	-0.143	0.085
-734.010	-154.178	-0.106	-0.007
-732.996	88.122	-0.073	0.082
-731.981	-146.501	0.143	-0.013
-730.966	-200.000	-0.020	-0.132
-729.952	69.152	-0.236	-0.246
-728.937	-173.184	-0.271	-0.008
-727.923	-63.989	-0.126	0.052
-726.908	-95.638	-0.107	0.029
-725.894	26.536	0.093	-0.079
-724.879	-200.000	0.020	-0.153
-723.864	-140.942	0.220	-0.023
-722.850	153.718	0.103	0.143
-721.835	-13.448	-0.194	-0.127
-720.821	294.127	-0.096	0.177
-719.806	227.311	-0.082	-0.135
-718.791	-19.334	-0.220	-0.138
-717.777	-100.128	-0.252	-0.063
-716.762	-142.762	-0.075	-0.007
-715.748	-34.729	0.135	-0.075
-714.733	-13.538	0.113	-0.074
-713.718	-7.754	0.359	0.245
-712.704	111.550	0.223	-0.272
-711.689	532.090	-0.064	-0.154
-710.675	-158.686	0.070	0.004
-709.660	37.621	-0.102	-0.092
-708.645	17.102	-0.205	0.165
-707.631	-200.000	0.007	0.106
-706.616	85.923	0.089	-0.100
-705.602	-200.000	0.002	0.134
-704.587	-200.000	-0.026	-0.221
-703.572	15.484	-0.151	-0.120
-702.558	99.862	0.098	0.115
-701.543	-200.000	0.016	-0.230
-700.529	33.173	0.139	0.121
-699.514	-5.978	0.139	-0.096
-698.499	-166.587	0.143	-0.006
-697.485	56.066	0.228	0.224
-696.470	-200.000	-0.046	-0.237
-695.456	-200.000	0.007	0.193
-694.441	-50.505	-0.612	0.292
-693.426	163.916	-0.246	-0.350
-692.412	-22.977	-0.296	0.180
-691.397	-77.845	0.151	-0.053
-690.383	380.911	0.284	-0.589
-689.368	800.000	0.116	0.344
-688.354	-195.076	0.203	0.002
-687.339	800.000	0.031	0.106
-686.324	338.308	0.167	-0.328
-685.310	-200.000	0.001	-0.086
-684.295	800.000	-0.049	-0.175
-683.281	-108.271	-0.250	0.055
-682.266	550.779	0.131	0.317
-681.251	-178.466	0.215	-0.005
-680.237	78.432	0.046	-0.050
-679.222	-200.000	-0.027	0.252
-678.208	343.873	0.067	-0.133
-677.193	745.278	-0.233	-0.632
-676.178	-118.886	0.234	0.041
-675.164	230.394	-0.179	-0.296
-674.149	-23.712	-0.104	0.063
-673.135	644.325	-0.139	-0.358
-672.120	-200.000	0.002	0.251
-671.105	-25.556	-0.102	-0.061
-670.091	350.235	-0.128	-0.254
-669.076	-15.637	-0.461	-0.297
-668.062	-123.606	0.129	-0.021
-667.047	-69.559	0.310	0.120
-666.032	-146.970	-0.186	-0.016
-665.018	-70.560	-0.237	0.091
-664.003	-78.281	0.317	-0.110
-662.989	-200.000	-0.058	0.277
-661.974	-121.427	0.155	-0.026
-660.959	-200.000	-0.014	-0.204
-659.945	800.000	-0.059	0.177
-658.930	-53.042	-0.266	0.124
-657.916	-84.343	0.089	-0.028
-656.901	-32.738	0.127	0.071
-655.886	-27.722	0.219	0.128
-654.872	-200.000	0.001	-0.033
-653.857	421.437	0.119	-0.257
-652.843	-200.000	-0.023	-0.183
-651.828	148.431	-0.130	-0.177
-650.814	-11.381	-0.304	-0.202
-649.799	33.771	-0.130	0.115
-648.784	126.894	0.203	-0.259
-647.770	159.956	-0.178	0.250
-646.755	800.000	-0.116	0.384
-645.741	800.000	0.136	-0.394
-644.726	800.000	0.082	0.235
-643.711	-34.776	-0.180	0.099
-642.697	79.384	-0.145	-0.156
-641.682	-14.229	0.278	0.180
-640.668	60.559	-0.202	-0.202
-639.653	-92.706	-0.064	0.018
-638.638	-200.000	0.011	-0.087
-637.624	220.732	0.101	0.164
-636.609	70.896	-0.250	0.261
-635.595	13.006	0.074	-0.058
-634.580	364.626	0.135	0.274
-633.565	80.249	-0.137	0.149
-632.551	375.627	-0.090	-0.185
-631.536	-63.436	0.119	0.049
-630.522	207.533	0.063	-0.098
-629.507	-171.020	-0.041	0.001
-628.492	800.000	0.020	-0.071
-627.478	-200.000	0.003	0.053
-626.463	17.406	0.195	0.156
-625.449	-56.513	0.035	-0.016
-624.434	-108.118	0.235	0.051
-623.419	-8.681	-0.352	-0.238
-622.405	17.439	-0.070	0.056
-621.390	-200.000	0.019	0.094
-620.376	-200.000	-0.016	0.226
-619.361	567.593	-0.080	0.197
-618.346	138.626	0.151	-0.200
-617.332	800.000	0.050	0.183
-616.317	158.560	-0.208	0.291
-615.303	-47.352	-0.199	0.098
-614.288	-45.646	0.026	-0.013
-613.273	235.874	0.079	-0.132
-612.259	19.764	-0.073	0.059
-611.244	-167.116	0.147	0.006
-610.230	358.986	-0.089	-0.179
-609.215	-200.000	-0.267	0.000
-608.201	-101.638	-0.019	-0.005
-607.186	397.797	-0.186	-0.392
-606.171	-80.345	0.227	-0.076
-605.157	217.314	0.091	0.146
-604.142	23.489	-0.292	0.242
-603.128	343.423	0.028	-0.056
-602.113	-55.709	0.190	-0.086
-601.098	800.000	-0.099	-0.437
-600.084	-107.006	0.088	0.020
-599.069	-54.833	-0.205	0.093
-598.055	473.378	0.120	-0.273
-597.040	154.164	-0.081	-0.112
-596.025	346.711	-0.079	-0.157
-595.011	776.713	0.052	-0.143
-593.996	-22.529	0.077	0.047
-592.982	58.660	-0.163	0.161
-591.967	652.885	0.084	0.217
-590.952	26.820	0.215	0.182
-589.938	800.000	-0.025	0.076
-588.923	-200.000	-0.005	-0.182
-587.909	-200.000	-0.009	0.171
-586.894	45.712	-0.175	-0.163
-585.879	754.286	-0.038	-0.104
-584.865	-200.000	0.042	0.375
-583.850	-96.774	-0.154	-0.041
-582.836	-142.341	0.117	-0.012
-581.821	-145.995	-0.500	-0.045
-580.806	-158.171	0.112	-0.007
-579.792	-200.000	-0.003	0.022
-578.777	417.133	-0.110	-0.235
-577.763	-41.311	-0.229	0.118
-576.748	-200.000	-0.568	0.000
-575.733	-29.487	0.086	-0.050
-574.719	-200.000	-0.031	0.139
-573.704	-117.394	0.160	-0.029
-572.690	-37.786	0.135	-0.073
-571.675	-138.785	-0.400	-0.044
-570.661	-200.000	-0.005	0.176
-569.646	-200.000	-0.021	0.316
-568.631	-102.648	0.125	-0.030
-567.617	6.980	-0.274	0.205
-566.602	41.593	0.190	0.173
-565.588	191.238	0.205	-0.310
-564.573	518.750	-0.041	0.097
-563.558	18.669	0.290	0.233
-562.544	-154.676	0.170	-0.011
-561.529	-96.019	0.155	0.041
-560.515	-163.090	0.069	-0.003
-559.500	333.336	-0.153	-0.296
-558.485	-13.311	-0.217	0.142
-557.471	659.806	0.053	-0.138
-556.456	-200.000	0.006	-0.268
-555.442	-200.000	-0.009	-0.129
-554.427	-8.511	0.074	0.050
-553.412	294.648	0.088	0.162
-552.398	155.233	-0.267	0.369
-551.383	-114.910	0.247	0.047
-550.369	103.896	0.092	-0.108
-549.354	-170.721	0.338	-0.012
-548.339	-86.720	0.285	-0.088
-547.325	233.482	-0.165	-0.272
-546.310	164.161	-0.064	-0.091
-545.296	37.474	-0.096	0.086
-544.281	-200.000	-0.009	0.056
-543.266	182.472	0.028	0.041
-542.252	-88.685	-0.054	0.016
-541.237	227.845	0.071	-0.117
-540.223	99.692	-0.087	-0.101
-539.208	-149.906	-0.240	0.019
-538.193	-92.576	0.172	0.049
-537.179	192.578	-0.165	-0.250
-536.164	462.820	-0.102	-0.228
-535.150	-200.000	-0.009	0.099
-534.135	800.000	0.039	0.144
-533.121	-200.000	0.047	0.267
-532.106	-66.805	-0.222	0.088
-531.091	-153.140	-0.110	0.008
-530.077	-200.000	-0.038	-0.201
-529.062	-163.901	-0.317	-0.015
-528.048	-128.791	0.402	0.057
-527.033	-9.710	-0.295	-0.197
-526.018	-5.989	-0.304	-0.209
-525.004	-14.454	0.235	-0.152
-523.989	-200.000	0.011	-0.078
-522.975	-1.528	0.140	0.099
-521.960	-200.000	-0.018	-0.219
-520.945	-114.845	0.282	0.054
-519.931	-134.289	0.216	0.027
-518.916	133.556	0.196	-0.255
-517.902	702.364	-0.043	-0.115
-516.887	800.000	0.072	-0.238
-515.872	-85.975	0.203	0.063
-514.858	67.931	-0.047	-0.048
-513.843	-106.327	0.242	-0.054
-512.829	-93.682	0.068	-0.019
-511.814	-3.549	-0.202	-0.141
-510.799	714.869	-0.062	-0.164
-509.785	-200.000	0.035	-0.176
-508.770	-174.853	-0.089	-0.003
-507.756	-28.933	-0.199	0.115
-506.741	-160.563	0.277	0.015
-505.726	9.159	-0.078	0.059
-504.712	-200.000	-0.004	-0.332
-503.697	256.982	0.155	0.268
-502.683	-66.413	0.196	0.078
-501.668	800.000	-0.052	0.151
-500.653	25.696	-0.022	-0.019
-499.639	800.000	-0.080	-0.273
-498.624	4.460	0.171	0.126
-497.610	27.813	0.127	-0.107
-496.595	-200.000	-0.056	-0.292
-495.581	135.866	0.129	-0.169
-494.566	-149.120	0.419	0.034
-493.551	390.321	0.157	-0.326
-492.537	800.000	-0.159	-0.463
-491.522	130.566	-0.034	-0.044
-490.508	-26.796	0.114	0.067
-489.493	-200.000	-0.045	0.421
-488.478	185.097	-0.091	0.135
-487.464	-200.000	0.014	0.175
-486.449	192.803	0.084	0.128
-485.435	800.000	0.025	0.078
-484.420	-200.000	-0.055	-0.306
-483.405	-164.413	-0.264	0.012
-482.391	-25.907	0.057	0.033
-481.376	266.298	0.106	0.186
-480.362	-79.314	0.437	0.148
-479.347	-200.000	-0.007	0.106
-478.332	329.783	0.045	0.086
-477.318	-12.316	-0.106	0.069
-476.303	-111.638	-0.079	0.016
-475.289	-200.000	-0.027	0.203
-474.274	244.869	-0.115	-0.193
-473.259	-36.983	-0.130	0.070
-472.245	-121.741	-0.256	-0.042
-471.230	-200.000	0.031	0.146
-470.216	413.305	-0.205	-0.436
-469.201	18.909	-0.197	-0.158
-468.186	-43.625	0.064	-0.032
-467.172	-143.659	0.222	0.021
-466.157	423.055	0.003	-0.007
-465.143	-58.877	0.095	-0.041
-464.128	109.226	0.209	0.251
-463.113	-200.000	0.003	-0.204
-462.099	800.000	0.098	0.374
-461.084	256.947	-0.022	0.037
-460.070	27.000	-0.124	0.104
-459.055	-200.000	0.222	0.000
-458.040	-131.878	-0.166	0.022
-457.026	-84.811	-0.140	0.044
-456.011	50.897	0.379	0.360
-454.997	-200.000	-0.005	0.242
-453.982	-200.000	-0.022	0.133
-452.968	157.122	0.247	-0.342
-451.953	-200.000	-0.008	0.385
-450.938	526.878	-0.073	0.172
-449.924	-33.756	-0.118	-0.065
-448.909	140.171	-0.217	0.287
-447.895	104.759	0.273	0.322
-446.880	-75.393	0.105	0.038
-445.865	697.680	0.109	-0.286
-444.851	-23.971	-0.179	0.107
-443.836	-66.615	-0.079	0.031
-442.822	-200.000	0.005	0.218
-441.807	-122.056	0.082	0.014
-440.792	195.348	0.153	-0.233
-439.778	-78.173	0.110	0.038
-438.763	-146.624	0.321	-0.028
-437.749	800.000	-0.063	-0.207
-436.734	800.000	-0.166	0.474
-435.719	-12.199	-0.177	-0.116
-434.705	-21.944	-0.078	-0.048
-433.690	71.827	0.069	-0.071
-432.676	-151.563	-0.320	0.024
-431.661	-56.075	0.325	-0.145
-430.646	735.340	-0.064	0.171
-429.632	-106.463	-0.249	0.056
-428.617	-200.000	0.008	0.241
-427.603	-44.305	0.387	0.194
-426.588	97.067	-0.064	0.073
-425.573	-64.226	-0.136	0.055
-424.559	211.564	-0.133	0.209
-423.544	-200.000	0.021	0.155
-422.530	-17.513	0.198	0.124
-421.515	-139.356	0.220	-0.024
-420.500	53.044	-0.240	0.229
-419.486	95.645	0.142	-0.162
-418.471	-44.294	-0.214	-0.107
-417.457	-200.000	0.024	0.131
-416.442	-59.561	0.049	0.021
-415.428	515.002	-0.061	0.142
-414.413	-93.853	-0.091	0.025
-413.398	-5.446	-0.166	0.114
-412.384	800.000	0.025	-0.069
-411.369	-200.000	-0.350	0.001
-410.355	-10.481	-0.192	-0.127
-409.340	200.352	0.073	0.113
-408.325	-71.089	0.451	-0.169
-407.311	466.722	-0.068	-0.153
-406.296	-200.000	0.026	0.337
-405.282	159.843	0.180	-0.250
-404.267	-200.000	-0.022	-0.133
-403.252	-89.664	0.167	-0.049
-402.238	639.565	-0.097	-0.246
-401.223	-200.000	-0.124	-0.599
-400.209	-72.904	-0.152	-0.056
-399.194	354.270	-0.097	0.193
-398.179	800.000	0.078	-0.216
-397.165	-94.557	-0.198	0.054
-396.150	343.974	0.058	-0.113
-395.136	-176.920	-0.041	-0.001
-394.121	-129.493	0.372	0.051
-393.106	72.535	0.095	0.099
-392.092	15.390	0.216	-0.170
-391.077	376.781	-0.159	-0.323
-390.063	-82.317	0.341	-0.111
-389.048	-159.688	-0.253	0.014
-388.033	-200.000	0.018	-0.118
-387.019	45.911	-0.236	0.218
-386.004	-67.216	0.107	-0.042
-384.990	-122.568	0.135	-0.022
-383.975	-129.197	0.262	0.036
-382.960	298.613	-0.171	0.313
-381.946	326.817	-0.029	0.055
-380.931	-47.502	-0.177	-0.086
-379.917	-61.574	-0.345	-0.144
-378.902	800.000	0.125	0.373
-377.888	-104.471	0.063	0.015
-376.873	-65.198	0.424	0.171
-375.858	-3.046	-0.181	0.126
-374.844	800.000	0.064	-0.276
-373.829	-107.872	-0.261	0.057
-372.815	-200.000	-0.007	0.043
-371.800	-50.321	-0.345	0.163
-370.785	361.023	0.161	-0.322
-369.771	49.507	0.259	-0.244
-368.756	145.015	-0.138	0.184
-367.742	-200.000	0.009	-0.135
-366.727	182.157	-0.053	0.078
-365.712	-200.000	0.027	-0.390
-364.698	-67.512	0.328	0.128
-363.683	-148.035	-0.573	0.047
-362.669	175.047	-0.121	0.175
-361.654	800.000	-0.039	0.152
-360.639	-110.278	0.120	0.025
-359.625	800.000	-0.115	0.380
-358.610	800.000	0.072	0.215
-357.596	193.576	0.094	0.142
-356.581	-35.789	0.300	-0.162
-355.566	-17.521	-0.079	0.049
-354.552	-109.966	0.074	0.015
-353.537	-111.185	0.296	-0.060
-352.523	-200.000	-0.069	0.345
-351.508	800.000	0.056	0.220
-350.493	-200.000	-0.002	0.046
-349.479	79.731	0.100	-0.107
-348.464	433.526	-0.087	-0.189
-347.450	800.000	-0.130	0.397
-346.435	143.554	-0.045	0.059
-345.420	459.870	-0.154	-0.341
-344.406	19.274	0.069	0.056
-343.391	177.258	-0.030	0.043
-342.377	-76.535	0.148	0.052
-341.362	-104.059	-0.077	0.018
-340.348	27.952	-0.176	0.148
-339.333	93.734	-0.344	0.388
-338.318	80.458	-0.098	-0.105
-337.304	-24.312	0.205	0.122
-336.289	-76.767	0.254	0.088
-335.275	800.000	0.120	-0.329
-334.260	-167.283	0.099	-0.004
-333.245	156.253	-0.120	0.165
-332.231	136.116	-0.154	-0.200
-331.216	18.076	0.313	-0.249
-330.202	800.000	-0.033	0.107
-329.187	-44.248	0.110	-0.055
-328.172	-107.313	-0.398	-0.087
-327.158	-5.408	-0.055	0.037
-326.143	-200.000	0.006	0.152
-325.129	-42.074	-0.099	0.050
-324.114	800.000	-0.079	0.295
-323.099	-59.218	0.046	0.020
-322.085	-53.219	0.108	-0.049
-321.070	-200.000	0.023	0.117
-320.056	-144.137	-0.287	-0.027
-319.041	-31.279	0.257	0.144
-318.026	-200.000	0.022	-0.140
-317.012	76.135	0.131	-0.139
-315.997	-200.000	-0.056	-0.407
-314.983	-39.231	0.221	0.115
-313.968	800.000	0.106	0.443
-312.953	142.402	-0.186	-0.245
-311.939	-83.570	-0.161	-0.051
-310.924	275.396	-0.100	-0.176
-309.910	70.265	-0.176	0.181
-308.895	-200.000	-0.037	0.169
-307.880	-4.571	0.348	-0.239
-306.866	800.000	0.059	-0.238
-305.851	800.000	0.026	-0.096
-304.837	-200.000	-0.039	-0.177
-303.822	-113.927	-0.188	-0.036
-302.807	800.000	-0.059	0.174
-301.793	-76.744	-0.384	-0.134
-300.778	-0.567	0.209	0.148
-299.764	190.362	-0.163	-0.244
-298.749	-200.000	-0.041	-0.188
-297.735	-165.882	0.167	-0.007
-296.720	528.121	-0.142	-0.333
-295.705	27.057	-0.063	0.053
-294.691	-106.836	-0.070	0.015
-293.676	-91.458	0.402	0.114
-292.662	18.899	0.057	-0.045
-291.647	26.979	0.263	-0.219
-290.632	522.858	-0.112	-0.262
-289.618	168.739	0.103	-0.146
-288.603	-93.363	0.009	0.002
-287.589	533.301	-0.117	-0.275
-286.574	-79.294	0.228	0.077
-285.559	-14.967	0.213	0.136
-284.545	348.398	-0.129	-0.253
-283.530	-24.484	-0.267	0.158
-282.516	-107.523	-0.193	-0.042
-281.501	384.117	0.194	0.396
-280.486	54.293	0.063	-0.061
-279.472	-125.014	-0.214	-0.033
-278.457	452.839	-0.050	0.110
-277.443	-48.290	0.300	0.144
-276.428	144.627	-0.125	0.165
-275.413	-42.386	-0.284	0.144
-274.399	-200.000	-0.062	0.308
-273.384	-18.486	-0.310	0.192
-272.370	21.457	-0.127	-0.102
-271.355	73.270	0.369	-0.383
-270.340	61.601	0.274	0.270
-269.326	-140.909	0.188	0.019
-268.311	174.154	-0.114	0.164
-267.297	-200.000	0.010	0.325
-266.282	194.876	0.114	-0.173
-265.267	60.484	0.244	-0.240
-264.253	-121.883	-0.205	-0.034
-263.238	45.053	-0.220	0.201
-262.224	-78.636	0.093	-0.032
-261.209	133.433	-0.109	0.140
-260.195	-200.000	0.067	-0.300
-259.180	-200.000	-0.027	0.147
-258.165	-200.000	-0.020	0.122
-257.151	118.117	0.016	0.019
-256.136	800.000	0.032	-0.135
-255.122	-49.066	0.199	0.095
-254.107	-17.778	0.168	-0.105
-253.092	-58.607	-0.325	0.140
-252.078	-200.000	-0.002	-0.269
-251.063	800.000	-0.066	0.191
-250.049	305.742	0.024	-0.045
-249.034	-137.134	0.055	0.006
-248.019	-126.597	0.148	-0.022
-247.005	-200.000	-0.012	-0.134
-245.990	800.000	0.019	-0.060
-244.976	-117.782	0.194	-0.035
-243.961	-200.000	-0.042	0.284
-242.946	63.318	-0.211	0.210
-241.932	97.869	0.227	-0.259
-240.917	-38.370	-0.097	-0.051
-239.903	-200.000	0.009	0.077
-238.888	217.094	0.073	-0.116
-237.873	83.709	-0.207	0.224
-236.859	-32.529	-0.255	-0.141
-235.844	92.795	0.237	-0.266
-234.830	-56.704	0.090	-0.039
-233.815	228.023	-0.040	-0.065
-232.800	-54.300	0.195	-0.088
-231.786	-200.000	-0.033	-0.198
-230.771	800.000	-0.033	-0.097
-229.757	-129.324	-0.055	-0.008
-228.742	-200.000	-0.013	-0.180
-227.727	56.734	-0.317	-0.306
-226.713	-95.930	0.192	-0.051
-225.698	-200.000	0.001	-0.091
-224.684	-81.457	-0.236	0.077
-223.669	-22.066	0.325	-0.196
-222.655	-200.000	0.038	0.253
-221.640	800.000	-0.075	0.302
-220.625	800.000	0.039	0.140
-219.611	-62.393	-0.162	0.067
-218.596	189.599	-0.096	0.143
-217.582	418.775	-0.050	0.107
-216.567	-200.000	-0.005	0.554
-215.552	217.054	-0.123	0.195
-214.538	0.264	0.133	-0.094
-213.523	457.645	-0.142	-0.314
-212.509	-200.000	-0.020	0.234
-211.494	800.000	0.050	0.145
-210.479	-28.641	-0.280	-0.160
-209.465	-101.147	0.090	-0.022
-208.450	13.383	0.078	-0.060
-207.436	-67.331	0.157	-0.061
-206.421	0.502	-0.182	0.129
-205.406	5.388	0.075	0.055
-204.392	-71.850	-0.202	0.075
-203.377	800.000	-0.056	-0.192
-202.363	-200.000	0.048	-0.228
-201.348	-91.355	-0.198	0.056
-200.333	82.894	0.062	0.067
-199.319	34.522	0.132	-0.114
-198.304	800.000	0.074	-0.217
-197.290	228.199	0.120	-0.193
-196.275	-6.954	-0.043	-0.029
-195.260	-47.569	0.177	0.085
-194.246	-79.320	0.039	0.013
-193.231	-84.099	-0.157	0.049
-192.217	293.801	0.005	0.010
-191.202	-200.000	0.061	0.367
-190.187	800.000	-0.012	-0.041
-189.173	47.178	0.159	-0.147
-188.158	797.841	-0.114	-0.310
-187.144	800.000	0.035	-0.119
-186.129	10.269	-0.077	0.058
-185.114	-152.561	0.202	0.014
-184.100	-100.916	0.334	-0.081
-183.085	-99.119	0.219	0.055
-182.071	-18.202	-0.142	-0.088
-181.056	150.642	-0.112	-0.150
-180.042	-200.000	-0.031	-0.387
-179.027	-88.939	-0.291	0.085
-178.012	511.998	-0.176	-0.407
-176.998	-200.000	0.027	-0.231
-175.983	-113.925	0.131	0.025
-174.969	-109.307	0.098	0.021
-173.954	28.693	-0.104	-0.087
-172.939	551.690	0.048	0.115
-171.925	-132.993	0.212	0.027
-170.910	-200.000	0.011	-0.143
-169.896	331.823	-0.238	-0.454
-168.881	168.309	-0.119	-0.168
-167.866	-107.737	-0.494	0.107
-166.852	-108.666	0.485	0.103
-165.837	-26.586	-0.057	0.033
-164.823	-200.000	-0.001	0.327
-163.808	148.300	0.103	0.138
-162.793	-76.415	-0.336	0.117
-161.779	-105.537	0.052	-0.012
-160.764	-132.656	0.073	0.009
-159.750	3.362	0.165	0.119
-158.735	-122.362	0.116	0.019
-157.720	7.708	0.036	0.027
-156.706	-160.356	0.467	0.025
-155.691	92.851	-0.114	-0.128
-154.677	36.834	-0.131	-0.115
-153.662	310.515	-0.041	-0.077
-152.647	317.998	0.061	0.114
-151.633	-200.000	-0.004	-0.260
-150.618	-174.682	0.071	0.002
-149.604	-6.279	0.149	0.100
-148.589	-160.324	-0.107	-0.006
-147.574	32.193	-0.209	-0.178
-146.560	35.501	-0.127	0.110
-145.545	-200.000	-0.046	-0.221
-144.531	-116.655	0.246	0.045
-143.516	287.687	0.114	-0.203
-142.502	9.489	-0.072	0.054
-141.487	800.000	-0.043	0.134
-140.472	-98.978	0.222	0.056
-139.458	241.139	0.142	-0.234
-138.443	-38.193	-0.272	-0.143
-137.429	800.000	-0.096	0.283
-136.414	-152.281	-0.074	-0.005
-135.399	800.000	-0.105	0.396
-134.385	1.715	0.078	-0.056
-133.370	-54.545	0.234	-0.105
-132.356	-21.470	-0.273	0.165
-131.341	-186.339	-0.166	-0.002
-130.326	287.129	-0.052	-0.093
-129.312	-200.000	0.031	-0.153
-128.297	-15.195	0.076	0.048
-127.283	472.730	-0.138	0.308
-126.268	-110.874	0.177	0.036
-125.253	800.000	-0.058	-0.235
-124.239	189.231	-0.238	-0.352
-123.224	-72.416	-0.159	-0.058
-122.210	360.616	0.239	-0.473
-121.195	-1.742	-0.265	0.184
