DTS Sentinel unit serial number:	SN413079Multiplexer serial number:	ORYXHardware model number:	OX4-SRSoftware version number:	ORYX F/W v4.00 Oryx Data Collector v3.7.2.0data status	okinstallation	princeton_trtdifferential loss correction	single-endedforward channel	channel 1reverse channel	N/Adate	2019/09/18time	04:18:35forward acquisition time	60.00reverse acquisition time	0.00gamma	496.2192k internal	0.2339k external	0.2339temperature offset calibration	0.9977default loss term (dB/km)	0.3790temperature slope calibration	1.0000multiplexer offset coefficient	1.0000multiplexer slope coefficient	1.0000fibre end	0.00T internal ref (°C)	23.36T ext. ref 1 (°C)	0.19T ext. ref 2 (°C)	17.55length (m)	temperature (°C)	Stokes	anti-Stokes-747.200	-26.838	-0.318	0.187
-746.185	-74.067	-0.287	0.104
-745.171	-200.000	0.009	0.189
-744.156	-70.137	-0.136	0.052
-743.142	-141.568	0.299	0.030
-742.127	-52.813	-0.141	0.065
-741.112	800.000	-0.034	0.117
-740.098	-22.468	-0.168	-0.102
-739.083	-75.693	0.299	-0.107
-738.069	-200.000	-0.037	0.251
-737.054	79.845	-0.165	-0.178
-736.039	251.812	-0.120	-0.205
-735.025	29.325	0.194	0.165
-734.010	800.000	0.148	-0.492
-732.996	-7.482	-0.179	-0.121
-731.981	580.895	-0.015	-0.038
-730.966	796.758	-0.062	-0.171
-729.952	520.080	-0.096	-0.225
-728.937	-10.757	0.110	0.073
-727.923	-165.175	-0.355	0.016
-726.908	-200.000	-0.020	-0.202
-725.894	-44.010	-0.146	-0.074
-724.879	129.773	0.124	-0.159
-723.864	-121.569	0.063	0.011
-722.850	-7.978	-0.284	0.192
-721.835	-82.538	-0.119	-0.039
-720.821	-85.152	0.242	-0.076
-719.806	-200.000	-0.016	-0.254
-718.791	92.409	-0.055	-0.062
-717.777	-110.434	0.270	-0.056
-716.762	800.000	-0.156	-0.438
-715.748	-200.000	-0.067	0.407
-714.733	599.775	-0.071	0.177
-713.718	106.242	-0.091	0.108
-712.704	-81.503	-0.090	-0.030
-711.689	427.392	0.076	-0.164
-710.675	632.867	-0.197	0.500
-709.660	233.990	0.090	0.149
-708.645	800.000	-0.024	-0.084
-707.631	-134.573	0.100	0.012
-706.616	450.252	0.036	-0.080
-705.602	-101.858	0.225	-0.055
-704.587	800.000	-0.049	-0.164
-703.572	219.805	0.129	-0.208
-702.558	800.000	-0.050	0.149
-701.543	-40.393	0.116	0.060
-700.529	-200.000	-0.040	0.330
-699.514	-148.824	0.308	0.025
-698.499	5.121	-0.240	-0.177
-697.485	-114.273	-0.107	-0.021
-696.470	-200.000	-0.051	0.359
-695.456	25.908	-0.066	0.055
-694.441	-7.047	0.147	-0.100
-693.426	308.412	-0.085	-0.160
-692.412	480.703	0.129	0.292
-691.397	-200.000	0.012	-0.143
-690.383	-78.455	-0.172	-0.059
-689.368	3.164	-0.461	-0.335
-688.354	138.065	-0.113	-0.149
-687.339	-35.983	-0.056	-0.030
-686.324	-116.542	0.168	-0.031
-685.310	-140.681	-0.175	0.018
-684.295	183.985	-0.083	0.122
-683.281	-44.577	-0.244	0.122
-682.266	190.862	-0.073	0.110
-681.251	-200.000	-0.037	0.363
-680.237	263.296	-0.060	-0.104
-679.222	159.736	-0.179	-0.249
-678.208	-7.552	0.080	-0.054
-677.193	800.000	-0.127	0.406
-676.178	129.874	-0.015	-0.019
-675.164	10.926	-0.197	-0.150
-674.149	-93.127	-0.086	0.024
-673.135	-62.584	0.173	-0.072
-672.120	-115.448	-0.523	-0.099
-671.105	-27.824	-0.206	-0.119
-670.091	-99.373	0.067	0.017
-669.076	-200.000	0.017	-0.202
-668.062	-77.041	-0.194	-0.068
-667.047	149.003	0.099	-0.133
-666.032	-20.373	0.349	-0.215
-665.018	-200.000	0.010	-0.166
-664.003	152.219	-0.233	-0.318
-662.989	282.845	0.065	-0.117
-661.974	684.019	0.106	-0.276
-660.959	10.772	-0.244	0.186
-659.945	217.639	-0.153	0.243
-658.930	25.604	-0.132	-0.109
-657.916	-36.566	0.200	-0.108
-656.901	-200.000	0.006	-0.113
-655.886	122.073	-0.126	0.157
-654.872	-70.390	-0.261	0.099
-653.857	-200.000	0.046	0.246
-652.843	-61.122	0.252	-0.106
-651.828	428.488	-0.059	-0.128
-650.814	-79.775	-0.210	-0.071
-649.799	-36.850	-0.089	0.048
-648.784	228.773	-0.172	-0.281
-647.770	381.004	-0.003	0.007
-646.755	-93.988	0.247	-0.068
-645.741	137.528	-0.087	-0.114
-644.726	-106.277	0.106	0.024
-643.711	-200.000	-0.038	0.180
-642.697	-29.527	-0.377	-0.215
-641.682	800.000	-0.112	-0.410
-640.668	-73.852	-0.281	-0.102
-639.653	302.885	0.058	0.106
-638.638	74.532	-0.240	0.252
-637.624	64.016	-0.192	-0.193
-636.609	45.302	-0.109	0.100
-635.595	156.150	-0.076	-0.105
-634.580	-14.127	0.186	0.120
-633.565	-0.145	-0.256	0.182
-632.551	-149.226	-0.166	-0.013
-631.536	75.522	-0.106	-0.112
-630.522	64.249	0.135	-0.136
-629.507	-126.219	-0.262	0.039
-628.492	-157.289	0.103	0.006
-627.478	13.408	-0.160	0.124
-626.463	213.610	0.068	0.107
-625.449	194.658	-0.161	-0.244
-624.434	108.665	-0.304	-0.363
-623.419	-48.461	-0.168	-0.081
-622.405	800.000	0.143	-0.505
-621.390	13.566	0.088	0.068
-620.376	-54.455	-0.168	-0.076
-619.361	305.655	-0.102	-0.190
-618.346	390.332	-0.043	0.090
-617.332	-119.391	-0.648	0.112
-616.317	-200.000	0.012	-0.102
-615.303	-154.198	-0.113	-0.008
-614.288	-19.451	0.071	-0.044
-613.273	36.641	-0.129	-0.114
-612.259	-107.669	-0.104	-0.023
-611.244	-25.182	-0.161	0.095
-610.230	45.981	0.332	0.306
-609.215	-200.000	0.031	0.218
-608.201	800.000	-0.041	-0.141
-607.186	-55.009	-0.347	-0.156
-606.171	-90.620	0.200	0.058
-605.157	181.166	0.050	-0.073
-604.142	-187.027	0.367	-0.005
-603.128	7.855	0.126	0.094
-602.113	-200.000	-0.024	-0.251
-601.098	800.000	0.073	0.263
-600.084	-177.743	0.124	0.003
-599.069	-66.667	-0.061	-0.024
-598.055	-200.000	0.019	-0.232
-597.040	64.514	-0.082	-0.082
-596.025	-72.333	-0.237	0.087
-595.011	-200.000	0.011	-0.048
-593.996	356.699	-0.143	0.285
-592.982	-54.849	0.313	0.141
-591.967	-65.900	-0.296	0.118
-590.952	-110.986	0.373	0.076
-589.938	217.387	0.030	0.047
-588.923	-200.000	-0.076	-0.484
-587.909	800.000	-0.108	-0.452
-586.894	90.296	-0.166	-0.185
-585.879	132.335	-0.067	0.086
-584.865	800.000	-0.033	-0.092
-583.850	-200.000	0.001	-0.120
-582.836	69.063	-0.164	-0.168
-581.821	3.403	0.266	0.193
-580.806	18.023	-0.180	0.143
-579.792	800.000	0.125	-0.373
-578.777	-85.584	0.215	-0.067
-577.763	-122.829	0.049	-0.008
-576.748	100.054	0.161	-0.186
-575.733	-200.000	0.004	0.037
-574.719	-200.000	0.065	0.287
-573.704	-200.000	0.024	0.114
-572.690	-29.283	-0.089	0.051
-571.675	35.265	-0.274	0.240
-570.661	107.986	0.148	0.175
-569.646	51.758	0.140	0.132
-568.631	-68.447	0.241	-0.093
-567.617	144.801	0.150	-0.199
-566.602	192.478	-0.224	-0.336
-565.588	-60.158	0.210	0.089
-564.573	-200.000	0.029	0.213
-563.558	-56.851	0.153	0.067
-562.544	649.610	0.013	0.034
-561.529	141.004	0.059	0.077
-560.515	-22.332	-0.103	-0.062
-559.500	-157.414	-0.223	-0.013
-558.485	-80.184	-0.124	0.041
-557.471	-105.277	-0.184	-0.042
-556.456	-50.823	0.066	-0.031
-555.442	800.000	0.031	0.105
-554.427	-92.691	-0.136	-0.038
-553.412	800.000	-0.034	0.146
-552.398	-31.198	0.056	-0.031
-551.383	-59.916	-0.210	-0.090
-550.369	-116.574	-0.084	0.015
-549.354	-200.000	0.006	-0.139
-548.339	-73.591	-0.143	-0.052
-547.325	464.102	0.054	0.120
-546.310	129.358	-0.403	-0.512
-545.296	199.851	-0.110	-0.169
-544.281	0.097	-0.068	0.048
-543.266	-200.000	-0.002	-0.135
-542.252	1.598	-0.085	-0.061
-541.237	-46.864	-0.054	-0.026
-540.223	-60.956	-0.197	0.083
-539.208	-140.767	0.139	0.014
-538.193	-200.000	-0.038	-0.432
-537.179	-127.223	0.062	-0.009
-536.164	-200.000	0.007	-0.059
-535.150	-200.000	-0.006	0.083
-534.135	180.320	0.163	-0.238
-533.121	-86.915	-0.255	0.077
-532.106	-103.879	-0.192	0.045
-531.091	800.000	-0.076	-0.299
-530.077	-63.317	-0.221	0.090
-529.062	57.660	-0.015	-0.015
-528.048	524.106	0.136	-0.319
-527.033	180.730	-0.089	-0.129
-526.018	146.033	0.209	0.279
-525.004	-65.256	0.172	0.069
-523.989	-37.854	-0.178	-0.094
-522.975	-72.961	-0.279	0.102
-521.960	-156.888	-0.327	-0.020
-520.945	-153.605	0.067	-0.005
-519.931	-99.294	0.362	-0.091
-518.916	746.272	0.071	-0.189
-517.902	731.044	-0.115	0.307
-516.887	59.770	-0.148	-0.145
-515.872	-75.174	-0.213	-0.076
-514.858	-200.000	0.041	0.272
-513.843	-132.656	-0.409	0.052
-512.829	-200.000	-0.037	-0.283
-511.814	800.000	-0.047	-0.161
-510.799	-125.183	-0.135	0.021
-509.785	-157.952	0.443	0.026
-508.770	-200.000	-0.018	0.120
-507.756	-71.223	-0.071	-0.027
-506.741	-143.609	0.195	-0.018
-505.726	-200.000	0.001	-0.006
-504.712	-121.644	0.287	0.047
-503.697	-200.000	-0.209	0.000
-502.683	-147.481	0.232	0.019
-501.668	-146.206	0.320	-0.028
-500.653	-40.652	0.177	0.091
-499.639	211.926	-0.089	0.139
-498.624	-122.969	-0.190	-0.030
-497.610	800.000	-0.071	0.243
-496.595	-4.625	-0.188	0.129
-495.581	45.781	-0.128	-0.117
-494.566	611.628	0.119	0.295
-493.551	-200.000	-0.022	0.098
-492.537	-112.212	-0.203	0.041
-491.522	443.041	-0.111	-0.241
-490.508	-143.899	-0.305	0.029
-489.493	615.620	0.083	-0.207
-488.478	-200.000	0.048	0.255
-487.464	-16.228	-0.260	-0.164
-486.449	-31.246	0.238	0.133
-485.435	27.129	-0.141	0.118
-484.420	481.930	0.041	0.092
-483.405	-200.000	0.016	0.157
-482.391	-200.000	-0.016	-0.202
-481.376	90.977	-0.264	0.294
-480.362	-4.599	-0.260	-0.178
-479.347	-20.412	0.265	0.162
-478.332	14.849	0.238	0.185
-477.318	119.671	-0.061	0.075
-476.303	-200.000	-0.001	0.272
-475.289	-200.000	-0.014	0.213
-474.274	800.000	-0.092	0.345
-473.259	-93.141	0.160	0.044
-472.245	253.132	-0.085	0.144
-471.230	37.661	0.291	-0.256
-470.216	-195.432	0.161	-0.001
-469.201	17.065	-0.226	0.178
-468.186	-84.240	-0.357	0.112
-467.172	597.440	0.059	-0.144
-466.157	32.137	0.147	-0.126
-465.143	74.487	-0.172	-0.180
-464.128	146.613	0.178	-0.238
-463.113	118.209	0.175	0.214
-462.099	130.146	-0.120	0.153
-461.084	9.574	0.068	0.051
-460.070	746.074	0.037	-0.098
-459.055	-186.340	-0.144	0.002
-458.040	-164.682	0.239	0.011
-457.026	-200.000	-0.010	0.109
-456.011	-98.779	-0.047	-0.012
-454.997	-23.305	0.164	0.098
-453.982	222.876	-0.139	-0.223
-452.968	289.793	0.132	0.238
-451.953	-102.777	0.364	-0.086
-450.938	800.000	-0.021	0.059
-449.924	52.088	-0.225	0.213
-448.909	-119.313	0.327	-0.056
-447.895	-13.730	0.319	-0.205
-446.880	279.670	0.213	0.377
-445.865	54.148	-0.050	0.048
-444.851	202.838	-0.210	0.321
-443.836	54.971	0.046	-0.044
-442.822	206.561	-0.164	-0.253
-441.807	-23.867	0.150	-0.089
-440.792	543.017	0.222	-0.525
-439.778	-199.696	0.087	-0.000
-438.763	-200.000	-0.043	0.244
-437.749	-56.062	-0.165	0.073
-436.734	-23.733	0.389	-0.231
-435.719	-200.000	-0.067	0.412
-434.705	442.971	-0.048	-0.104
-433.690	47.538	0.108	-0.100
-432.676	-14.841	0.208	-0.132
-431.661	-32.895	-0.333	0.183
-430.646	-68.222	0.327	0.126
-429.632	204.286	0.079	0.121
-428.617	20.188	-0.214	-0.171
-427.603	-99.491	0.159	-0.040
-426.588	800.000	0.075	-0.270
-425.573	-8.552	-0.173	-0.115
-424.559	-200.000	0.017	-0.172
-423.544	800.000	-0.055	0.165
-422.530	178.049	0.065	0.094
-421.515	-200.000	0.031	0.172
-420.500	106.880	0.221	-0.260
-419.486	-31.994	-0.100	0.056
-418.471	-50.087	0.294	-0.138
-417.457	-200.000	-0.004	-0.232
-416.442	-64.375	0.306	0.123
-415.428	279.179	-0.099	-0.175
-414.413	-104.350	0.235	-0.054
-413.398	-50.974	-0.168	0.078
-412.384	-114.285	0.128	0.024
-411.369	-39.326	0.395	-0.205
-410.355	-46.392	-0.189	-0.092
-409.340	495.707	0.040	-0.092
-408.325	511.158	0.065	-0.150
-407.311	231.264	-0.129	-0.209
-406.296	73.240	0.035	0.036
-405.282	-142.736	0.337	-0.033
-404.267	-200.000	-0.026	-0.145
-403.252	-200.000	0.017	0.185
-402.238	134.396	-0.229	0.294
-401.223	12.509	0.040	-0.030
-400.209	-94.995	0.258	0.069
-399.194	213.394	0.044	0.068
-398.179	-35.882	0.232	0.124
-397.165	24.446	0.296	0.242
-396.150	199.137	0.109	-0.165
-395.136	-200.000	-0.056	0.318
-394.121	-157.405	0.089	0.005
-393.106	-135.718	-0.174	-0.020
-392.092	-4.809	-0.186	0.127
-391.077	-135.137	0.234	0.028
-390.063	-86.115	0.270	-0.082
-389.048	-200.000	0.049	-0.316
-388.033	800.000	-0.046	0.168
-387.019	-38.947	-0.175	-0.091
-386.004	463.486	-0.021	-0.046
-384.990	800.000	0.065	0.280
-383.975	800.000	0.067	-0.254
-382.960	-39.353	0.090	-0.046
-381.946	200.203	0.378	-0.575
-380.931	57.533	-0.148	-0.143
-379.917	-47.728	-0.169	0.081
-378.902	46.945	-0.165	0.152
-377.888	82.302	-0.079	0.085
-376.873	800.000	-0.037	0.125
-375.858	-200.000	0.027	-0.167
-374.844	800.000	0.122	-0.380
-373.829	18.097	-0.116	-0.091
-372.815	99.947	-0.077	-0.088
-371.800	-162.799	-0.123	0.006
-370.785	-200.000	-0.065	0.327
-369.771	270.563	-0.033	0.058
-368.756	-123.597	-0.359	-0.056
-367.742	-96.609	0.088	-0.023
-366.727	152.490	0.030	-0.041
-365.712	92.918	-0.219	0.244
-364.698	-200.000	-0.026	0.134
-363.683	-38.571	-0.248	-0.130
-362.669	-179.241	0.318	0.007
-361.654	55.885	-0.207	-0.198
-360.639	56.251	-0.114	-0.109
-359.625	-164.155	-0.126	0.006
-358.610	-200.000	-0.015	-0.232
-357.596	-200.000	-0.037	0.220
-356.581	-200.000	-0.033	0.153
-355.566	-21.090	-0.045	-0.027
-354.552	-110.516	-0.084	0.017
-353.537	142.630	0.075	-0.098
-352.523	175.617	0.048	-0.069
-351.508	800.000	-0.061	0.214
-350.493	-154.595	-0.228	0.015
-349.479	-200.000	-0.020	-0.124
-348.464	64.428	0.067	-0.066
-347.450	-200.000	-0.032	0.227
-346.435	70.054	-0.087	0.089
-345.420	-6.140	-0.374	0.252
-344.406	-200.000	-0.004	0.203
-343.391	-200.000	-0.007	0.056
-342.377	-35.792	0.265	0.142
-341.362	-200.000	-0.003	0.446
-340.348	-27.114	-0.153	0.088
-339.333	210.389	-0.119	0.185
-338.318	-141.936	0.151	0.015
-337.304	-58.471	-0.294	0.126
-336.289	-69.862	-0.062	-0.023
-335.275	548.855	0.131	0.310
-334.260	-76.720	-0.148	0.051
-333.245	-84.737	-0.126	-0.039
-332.231	-138.629	-0.223	0.024
-331.216	-31.684	-0.209	0.116
-330.202	-200.000	-0.008	0.089
-329.187	-14.510	-0.137	-0.087
-328.172	-200.000	0.017	0.081
-327.158	5.305	-0.132	0.096
-326.143	68.718	0.162	-0.164
-325.129	-39.253	0.220	-0.114
-324.114	-200.000	0.004	0.059
-323.099	-200.000	-0.060	0.399
-322.085	800.000	-0.073	-0.209
-321.070	203.749	0.202	-0.309
-320.056	-15.826	-0.035	0.022
-319.041	341.241	0.207	0.399
-318.026	427.609	0.067	-0.144
-317.012	800.000	0.049	0.153
-315.997	-200.000	0.015	-0.226
-314.983	-2.510	0.206	0.142
-313.968	93.127	0.319	0.356
-312.953	-73.143	-0.278	0.101
-311.939	-105.408	0.320	-0.072
-310.924	200.960	0.128	-0.195
-309.910	-129.811	0.332	-0.045
-308.895	-58.518	0.177	-0.076
-307.880	-200.000	-0.011	0.283
-306.866	264.835	0.037	-0.064
-305.851	36.503	0.119	0.104
-304.837	-200.000	-0.065	-0.401
-303.822	499.602	-0.165	0.376
-302.807	7.470	-0.101	-0.075
-301.793	49.158	0.130	-0.120
-300.778	-200.000	0.043	0.649
-299.764	-200.000	0.040	-0.204
-298.749	57.258	0.224	-0.215
-297.735	22.940	-0.022	0.018
-296.720	-200.000	0.248	-0.000
-295.705	800.000	-0.057	-0.171
-294.691	-32.963	0.262	-0.143
-293.676	-200.000	-0.006	-0.241
-292.662	56.752	0.225	-0.216
-291.647	19.428	-0.074	-0.059
-290.632	148.461	-0.055	0.073
-289.618	-65.675	-0.045	-0.018
-288.603	245.772	0.154	0.256
-287.589	-147.773	-0.090	0.007
-286.574	11.200	0.172	0.130
-285.559	-97.236	0.087	-0.022
-284.545	-74.341	0.422	0.150
-283.530	106.402	0.097	0.114
-282.516	22.012	-0.189	0.151
-281.501	178.881	0.087	0.125
-280.486	5.872	-0.246	-0.179
-279.472	-98.733	0.298	0.075
-278.457	800.000	0.125	0.364
-277.443	217.670	0.154	0.242
-276.428	-159.531	0.247	-0.014
-275.413	60.826	0.217	-0.212
-274.399	-101.706	0.178	-0.043
-273.384	-82.717	-0.154	-0.049
-272.370	-47.908	-0.148	0.071
-271.355	-200.000	-0.010	-0.387
-270.340	43.402	0.248	-0.223
-269.326	775.824	0.062	0.166
-268.311	26.208	-0.159	-0.131
-267.297	800.000	0.035	-0.096
-266.282	292.733	0.026	-0.047
-265.267	-29.876	-0.127	0.071
-264.253	800.000	0.075	0.311
-263.238	24.049	-0.204	0.165
-262.224	-189.057	0.128	-0.002
-261.209	-45.165	0.049	0.024
-260.195	90.500	0.057	0.063
-259.180	169.089	0.151	-0.212
-258.165	-91.264	-0.205	-0.058
-257.151	-200.000	-0.003	-0.308
-256.136	-12.209	-0.386	-0.248
-255.122	-200.000	0.051	0.254
-254.107	800.000	-0.133	0.419
-253.092	660.949	-0.104	0.265
-252.078	-200.000	0.235	0.001
-251.063	800.000	-0.058	-0.198
-250.049	529.816	-0.111	-0.258
-249.034	40.312	-0.222	0.197
-248.019	-191.175	0.144	0.001
-247.005	240.274	-0.024	-0.039
-245.990	-27.025	-0.201	-0.115
-244.976	49.926	0.109	-0.101
-243.961	37.928	0.216	0.189
-242.946	-46.473	-0.270	-0.130
-241.932	-46.481	0.145	0.070
-240.917	2.034	0.085	-0.060
-239.903	-88.558	-0.237	-0.069
-238.888	5.592	0.212	0.154
-237.873	251.954	-0.110	0.185
-236.859	18.324	0.171	0.134
-235.844	800.000	-0.155	0.506
-234.830	-2.868	0.214	0.147
-233.815	800.000	0.045	0.168
-232.800	28.863	-0.051	0.043
-231.786	97.116	0.187	-0.211
-230.771	-172.547	-0.301	-0.009
-229.757	274.929	0.101	-0.176
-228.742	-200.000	0.008	-0.285
-227.727	-86.744	-0.082	-0.025
-226.713	-125.075	0.515	-0.078
-225.698	-166.043	-0.223	0.009
-224.684	-200.000	-0.004	-0.069
-223.669	184.704	0.166	-0.241
-222.655	-72.880	-0.214	0.077
-221.640	710.566	-0.059	-0.153
-220.625	-2.498	-0.234	-0.161
-219.611	214.539	0.124	0.192
-218.596	111.057	-0.014	-0.016
-217.582	-200.000	0.080	0.362
-216.567	-113.996	0.381	0.073
-215.552	79.651	0.022	0.024
-214.538	-93.279	-0.341	0.093
-213.523	62.893	-0.110	0.108
-212.509	67.381	-0.137	-0.137
-211.494	140.318	-0.158	-0.205
-210.479	-200.000	-0.015	-0.180
-209.465	-66.136	-0.171	0.067
-208.450	-200.000	-0.050	-0.240
-207.436	-21.826	-0.121	-0.072
-206.421	-105.840	-0.058	-0.013
-205.406	-139.348	-0.122	0.013
-204.392	794.622	-0.011	0.029
-203.377	-118.158	0.547	0.096
-202.363	518.009	-0.116	-0.268
-201.348	44.828	0.192	0.174
-200.333	368.998	-0.180	0.358
-199.319	-165.286	0.025	-0.001
-198.304	-200.000	0.009	0.056
-197.290	800.000	0.010	-0.027
-196.275	-50.839	0.200	-0.092
-195.260	-137.306	-0.146	0.016
-194.246	-163.244	0.401	-0.019
-193.231	-100.916	0.113	-0.027
-192.217	-200.000	0.004	-0.291
-191.202	192.275	0.110	-0.163
-190.187	-200.000	-0.013	-0.163
-189.173	-116.853	0.232	-0.042
-188.158	-200.000	0.021	-0.145
-187.144	23.711	0.035	0.029
-186.129	-200.000	-0.009	0.067
-185.114	136.310	0.013	0.016
-184.100	-124.103	0.157	-0.024
-183.085	-155.891	-0.340	0.021
-182.071	-22.511	0.126	-0.075
-181.056	172.953	0.119	-0.168
-180.042	334.436	0.108	0.206
-179.027	-126.224	0.116	0.017
-178.012	464.343	0.093	0.203
-176.998	279.004	0.137	0.239
-175.983	31.287	-0.218	0.184
-174.969	-143.404	0.163	-0.015
-173.954	-4.615	-0.309	0.209
-172.939	319.175	0.102	0.189
-171.925	-158.288	0.197	-0.011
-170.910	86.473	0.089	-0.096
-169.896	-137.251	-0.669	-0.075
-168.881	-68.302	0.331	0.126
-167.866	109.939	0.240	0.282
-166.852	785.965	-0.126	-0.339
-165.837	269.857	0.058	-0.100
-164.823	-33.645	0.164	-0.089
-163.808	-97.476	-0.240	0.061
-162.793	23.014	0.237	0.191
-161.779	25.564	-0.154	-0.126
-160.764	-4.227	-0.202	-0.137
-159.750	-83.471	-0.234	0.073
-158.735	360.974	0.111	-0.219
-157.720	-33.155	-0.086	0.047
-156.706	-14.466	0.096	0.061
-155.691	47.653	-0.088	0.081
-154.677	345.584	0.128	-0.247
-153.662	-19.037	-0.082	-0.050
-152.647	-149.028	-0.245	0.019
-151.633	-193.033	0.255	0.002
-150.618	48.641	0.014	-0.013
-149.604	-138.983	0.246	-0.026
-148.589	-147.100	-0.244	0.020
-147.574	-45.995	-0.268	-0.129
-146.560	-200.000	-0.037	0.210
-145.545	29.840	-0.144	0.120
-144.531	-49.851	0.127	-0.059
-143.516	16.879	0.038	-0.029
-142.502	-43.305	0.055	-0.027
-141.487	270.040	-0.017	0.030
-140.472	-200.000	-0.054	-0.521
-139.458	-10.919	0.149	-0.096
-138.443	220.390	-0.166	0.260
-137.429	91.181	-0.038	-0.041
-136.414	418.960	-0.066	0.138
-135.399	-200.000	0.193	-0.001
-134.385	-160.293	0.270	-0.014
-133.370	-15.014	0.305	-0.191
-132.356	430.966	-0.149	0.316
-131.341	18.093	-0.212	0.165
-130.326	794.395	-0.082	0.221
-129.312	-188.038	0.366	0.005
-128.297	142.944	0.089	0.116
-127.283	-167.621	0.240	-0.009
-126.268	-58.110	0.194	0.083
-125.253	-127.266	0.269	0.038
-124.239	140.182	0.211	-0.273
-123.224	-62.837	0.271	-0.110
-122.210	-40.397	-0.199	0.101
