DTS Sentinel unit serial number:	SN413079Multiplexer serial number:	ORYXHardware model number:	OX4-SRSoftware version number:	ORYX F/W v4.00 Oryx Data Collector v3.7.2.0data status	okinstallation	princeton_trtdifferential loss correction	single-endedforward channel	channel 1reverse channel	N/Adate	2019/09/12time	18:33:34forward acquisition time	15.00reverse acquisition time	0.00gamma	496.2192k internal	0.2318k external	0.2318temperature offset calibration	1.0113default loss term (dB/km)	0.3790temperature slope calibration	1.0000multiplexer offset coefficient	1.0000multiplexer slope coefficient	1.0000fibre end	0.00T internal ref (°C)	33.19T ext. ref 1 (°C)	2.96T ext. ref 2 (°C)	27.76length (m)	temperature (°C)	Stokes	anti-Stokes-747.200	-200.000	-0.025	-0.260
-746.185	-200.000	0.055	-0.712
-745.171	410.324	0.223	-0.480
-744.156	68.503	-0.372	-0.386
-743.142	-97.559	0.567	-0.149
-742.127	133.821	-0.343	0.450
-741.112	366.148	0.289	0.591
-740.098	800.000	0.172	-0.617
-739.083	-75.659	1.216	0.437
-738.069	15.814	0.303	0.241
-737.054	-15.355	0.455	0.295
-736.039	-175.810	0.444	-0.012
-735.025	-186.803	0.444	-0.006
-734.010	319.126	0.455	-0.872
-732.996	800.000	0.201	-0.695
-731.981	-81.230	0.766	-0.256
-730.966	800.000	0.097	-0.371
-729.952	166.693	0.396	-0.569
-728.937	-200.000	-0.010	0.347
-727.923	445.189	0.117	-0.260
-726.908	-200.000	-0.030	-0.584
-725.894	24.824	0.606	0.508
-724.879	213.596	0.078	0.125
-723.864	800.000	-0.217	0.650
-722.850	-200.000	0.004	0.233
-721.835	-27.166	0.554	-0.326
-720.821	-22.552	-0.459	0.281
-719.806	-52.150	-0.625	-0.293
-718.791	-129.249	0.417	0.059
-717.777	-200.000	0.007	-0.075
-716.762	-200.000	0.016	-0.223
-715.748	197.305	-0.597	-0.921
-714.733	-64.751	0.425	0.174
-713.718	800.000	-0.230	-0.931
-712.704	5.302	0.408	-0.304
-711.689	-55.577	0.111	0.050
-710.675	-151.682	0.439	-0.033
-709.660	585.335	-0.254	0.631
-708.645	800.000	0.090	-0.352
-707.631	730.121	0.123	-0.332
-706.616	20.865	-0.087	-0.071
-705.602	-158.059	-0.350	0.021
-704.587	-200.000	-0.017	-0.094
-703.572	157.140	-0.592	-0.827
-702.558	-200.000	-0.198	-1.017
-701.543	259.065	-0.233	-0.406
-700.529	99.044	-0.185	-0.216
-699.514	-83.954	-0.311	-0.100
-698.499	-200.000	0.031	0.143
-697.485	-80.579	-0.688	0.231
-696.470	800.000	-0.071	-0.292
-695.456	694.364	-0.190	0.504
-694.441	202.984	0.079	0.123
-693.426	-126.756	0.333	0.050
-692.412	141.247	0.231	0.309
-691.397	-65.835	0.040	-0.016
-690.383	482.765	0.167	-0.383
-689.368	-200.000	-0.014	0.458
-688.354	-200.000	0.078	-0.404
-687.339	800.000	0.143	-0.519
-686.324	-9.042	-0.288	-0.195
-685.310	300.127	-0.255	-0.475
-684.295	-70.309	-0.277	0.106
-683.281	-200.000	-0.011	-0.522
-682.266	65.307	0.391	-0.400
-681.251	-97.070	-0.570	0.151
-680.237	-83.331	0.568	0.184
-679.222	-77.057	-0.204	0.072
-678.208	104.066	0.104	0.124
-677.193	60.971	-0.730	-0.732
-676.178	55.640	0.310	0.303
-675.164	141.619	-0.389	0.520
-674.149	800.000	0.030	0.120
-673.135	-200.000	-0.229	1.128
-672.120	-113.714	0.132	-0.026
-671.105	58.784	0.465	0.461
-670.091	83.031	0.474	0.520
-669.076	800.000	-0.093	-0.367
-668.062	93.450	-0.165	0.188
-667.047	800.000	0.283	-0.916
-666.032	418.395	0.385	-0.830
-665.018	-139.727	0.728	-0.078
-664.003	511.992	0.144	0.339
-662.989	-44.632	0.199	-0.100
-661.974	6.450	-0.559	0.419
-660.959	333.156	0.387	-0.755
-659.945	22.805	0.455	-0.376
-658.930	-3.784	0.220	-0.154
-657.916	40.646	0.484	-0.440
-656.901	180.822	0.046	0.069
-655.886	217.921	-0.246	-0.395
-654.872	-131.263	-0.256	0.034
-653.857	-82.227	0.387	0.127
-652.843	256.816	-0.406	-0.704
-651.828	-110.860	0.593	0.123
-650.814	-59.533	0.239	0.104
-649.799	8.379	-0.402	-0.305
-648.784	62.250	-0.366	-0.368
-647.770	-200.000	-0.005	0.352
-646.755	-200.000	-0.109	-0.693
-645.741	-37.893	0.265	0.142
-644.726	800.000	0.169	-0.701
-643.711	140.771	-0.104	-0.139
-642.697	-200.000	0.103	-0.507
-641.682	-200.000	-0.183	0.975
-640.668	-108.840	-0.628	-0.135
-639.653	50.995	0.050	-0.047
-638.638	386.084	-0.135	0.281
-637.624	-200.000	-0.005	0.055
-636.609	800.000	-0.176	-0.606
-635.595	88.922	0.305	-0.342
-634.580	-200.000	-0.026	0.115
-633.565	14.676	0.365	0.288
-632.551	-200.000	-0.037	0.491
-631.536	-200.000	0.070	-1.112
-630.522	-200.000	0.166	-1.031
-629.507	-117.679	0.171	0.031
-628.492	15.069	-0.318	-0.251
-627.478	-200.000	0.024	-0.698
-626.463	-200.000	-0.079	0.765
-625.449	-17.908	0.699	0.442
-624.434	-200.000	-0.066	-0.509
-623.419	-52.432	0.764	-0.356
-622.405	82.767	-0.238	-0.261
-621.390	51.525	-0.599	0.574
-620.376	57.207	-0.482	0.474
-619.361	-132.165	-0.926	0.121
-618.346	687.506	0.177	-0.465
-617.332	800.000	0.076	-0.223
-616.317	251.750	-0.189	-0.325
-615.303	508.029	-0.254	-0.593
-614.288	800.000	-0.355	-1.130
-613.273	69.129	-0.558	-0.577
-612.259	489.855	-0.162	-0.374
-611.244	-127.130	-0.730	-0.108
-610.230	117.993	-0.767	-0.952
-609.215	-106.630	-0.852	-0.191
-608.201	29.510	0.303	0.260
-607.186	119.914	-0.151	-0.189
-606.171	332.418	-0.183	0.356
-605.157	227.485	0.166	-0.272
-604.142	800.000	-0.030	-0.089
-603.128	800.000	0.259	-0.747
-602.113	-200.000	-0.017	-0.435
-601.098	-200.000	0.126	-0.831
-600.084	-200.000	0.046	0.449
-599.069	-200.000	-0.003	0.388
-598.055	-200.000	0.024	0.225
-597.040	800.000	0.193	-0.576
-596.025	-30.026	-0.928	0.532
-595.011	-29.364	0.646	-0.372
-593.996	248.811	0.240	0.408
-592.982	246.563	-0.320	0.543
-591.967	-200.000	-0.001	-0.312
-590.952	-70.197	0.658	0.252
-589.938	56.569	-0.380	0.372
-588.923	800.000	0.178	-0.540
-587.909	27.123	0.271	-0.229
-586.894	-74.613	0.713	-0.258
-585.879	175.561	0.511	0.745
-584.865	23.300	-0.080	0.066
-583.850	-56.409	-0.443	-0.198
-582.836	725.317	-0.062	-0.165
-581.821	800.000	-0.193	-0.576
-580.806	-73.820	-1.026	0.375
-579.792	-126.702	-0.922	0.137
-578.777	18.404	-0.634	-0.510
-577.763	-63.363	0.369	-0.153
-576.748	-65.780	-1.249	0.503
-575.733	800.000	-0.125	0.507
-574.719	273.040	-0.415	-0.736
-573.704	-10.867	0.512	0.340
-572.690	-25.416	-0.235	0.140
-571.675	800.000	-0.238	0.701
-570.661	5.377	-0.677	0.502
-569.646	228.480	0.386	0.633
-568.631	-200.000	0.016	-0.250
-567.617	-200.000	-0.041	-0.335
-566.602	-49.212	0.457	-0.219
-565.588	167.431	0.402	0.575
-564.573	-145.087	-1.004	-0.092
-563.558	18.478	-0.444	0.357
-562.544	-49.116	-0.505	-0.243
-561.529	-200.000	0.009	0.465
-560.515	-194.272	-0.606	-0.005
-559.500	-200.000	0.131	0.689
-558.485	-200.000	-0.006	-0.477
-557.471	107.492	-0.122	-0.146
-556.456	113.082	0.310	-0.378
-555.442	246.759	0.245	-0.415
-554.427	-200.000	-0.122	-0.754
-553.412	-200.000	-0.081	0.420
-552.398	1.011	0.498	-0.359
-551.383	-131.039	0.552	0.074
-550.369	524.711	-0.285	0.674
-549.354	33.841	-0.251	-0.219
-548.339	-138.521	-0.571	0.063
-547.325	-65.369	-0.748	-0.302
-546.310	84.059	-0.090	-0.099
-545.296	-52.865	0.370	0.171
-544.281	-81.391	-0.654	0.216
-543.266	-200.000	-0.064	0.482
-542.252	-166.177	-0.487	-0.021
-541.237	-200.000	0.048	0.422
-540.223	-80.406	0.656	0.220
-539.208	-116.366	0.576	-0.107
-538.193	162.484	0.195	-0.275
-537.179	533.523	0.133	0.317
-536.164	800.000	-0.128	-0.404
-535.150	90.052	-0.275	0.309
-534.135	195.053	0.380	0.580
-533.121	25.888	-0.241	-0.202
-532.106	-23.261	-0.400	-0.242
-531.091	81.645	-0.127	-0.138
-530.077	133.896	0.248	0.323
-529.062	-88.504	-0.760	-0.228
-528.048	96.393	0.655	-0.752
-527.033	-200.000	-0.095	0.517
-526.018	-106.517	-0.103	-0.023
-525.004	404.478	-0.182	-0.386
-523.989	120.597	-0.247	0.308
-522.975	-200.000	-0.081	0.405
-521.960	800.000	-0.101	0.434
-520.945	235.369	-0.458	0.759
-519.931	-200.000	0.139	-0.681
-518.916	-138.173	-0.442	-0.049
-517.902	-104.649	0.760	0.176
-516.887	-30.706	0.459	0.260
-515.872	409.929	0.427	0.907
-514.858	262.700	-0.307	0.535
-513.843	-200.000	-0.032	-0.700
-512.829	265.718	0.385	-0.674
-511.814	-159.350	-0.547	-0.031
-510.799	95.075	0.477	0.545
-509.785	-18.103	0.623	-0.391
-508.770	-200.000	-0.011	-0.184
-507.756	0.690	0.449	-0.322
-506.741	-200.000	0.233	-1.582
-505.726	-128.050	0.685	0.098
-504.712	-35.434	0.509	-0.278
-503.697	800.000	-0.234	0.922
-502.683	-153.841	0.286	-0.020
-501.668	265.887	-0.299	-0.523
-500.653	542.217	-0.277	-0.661
-499.639	637.042	-0.263	0.669
-498.624	800.000	0.284	1.053
-497.610	-61.772	-0.059	0.025
-496.595	-162.409	0.377	0.019
-495.581	-55.754	-0.777	0.348
-494.566	191.639	0.357	0.539
-493.551	-101.144	1.150	0.282
-492.537	419.667	0.315	0.676
-491.522	96.184	0.097	0.111
-490.508	328.994	-0.121	0.232
-489.493	97.436	-0.601	0.692
-488.478	-89.346	0.496	0.146
-487.464	19.679	-0.526	-0.424
-486.449	-141.825	0.535	0.054
-485.435	-66.116	-0.399	-0.159
-484.420	143.744	-0.595	-0.795
-483.405	729.875	0.134	0.359
-482.391	-200.000	-0.060	0.335
-481.376	-200.000	-0.036	-0.174
-480.362	28.687	0.240	-0.204
-479.347	134.660	0.373	-0.485
-478.332	211.299	0.195	0.307
-477.318	-200.000	0.093	-0.936
-476.303	351.706	0.119	0.237
-475.289	-66.258	-0.839	0.335
-474.274	76.913	-0.533	-0.566
-473.259	83.874	-0.417	-0.455
-472.245	-37.275	-0.189	0.101
-471.230	57.884	0.270	0.265
-470.216	-74.241	-0.584	0.211
-469.201	-95.923	0.247	0.066
-468.186	17.019	0.630	0.500
-467.172	227.121	-0.149	-0.242
-466.157	377.399	0.128	-0.261
-465.143	-163.659	-0.105	-0.005
-464.128	214.696	0.224	-0.356
-463.113	-83.210	-0.709	-0.228
-462.099	94.571	-0.683	0.777
-461.084	-200.000	0.024	-0.176
-460.070	-134.399	0.583	0.072
-459.055	680.521	0.236	-0.615
-458.040	-200.000	-0.055	1.067
-457.026	-41.634	-0.205	-0.105
-456.011	53.887	-0.594	-0.571
-454.997	494.089	-0.266	-0.611
-453.982	-147.069	-0.713	-0.061
-452.968	-104.978	0.281	-0.064
-451.953	217.714	0.433	-0.692
-450.938	297.500	-0.383	0.704
-449.924	-97.070	-0.159	-0.042
-448.909	522.578	-0.123	0.290
-447.895	620.220	-0.137	0.344
-446.880	-90.348	-1.000	-0.290
-445.865	8.970	-0.295	-0.223
-444.851	-19.400	-0.332	-0.206
-443.836	-23.230	-0.434	-0.261
-442.822	-83.604	0.620	0.198
-441.807	-200.000	0.054	-1.186
-440.792	-200.000	-0.116	0.592
-439.778	358.032	-0.123	-0.246
-438.763	361.949	0.292	-0.586
-437.749	-40.684	0.302	-0.157
-436.734	-83.100	-0.483	0.156
-435.719	16.595	-0.494	0.390
-434.705	-138.604	-0.419	0.046
-433.690	132.324	0.465	-0.599
-432.676	-73.956	-0.626	0.227
-431.661	-15.027	0.369	0.237
-430.646	-200.000	0.149	-0.688
-429.632	198.449	0.476	0.728
-428.617	161.928	-0.524	0.733
-427.603	18.758	0.451	0.361
-426.588	-66.251	0.750	-0.298
-425.573	15.517	-0.178	-0.139
-424.559	-40.126	-0.154	-0.080
-423.544	115.092	0.322	0.393
-422.530	8.077	0.327	0.245
-421.515	-200.000	-0.019	0.598
-420.500	89.541	-0.684	0.763
-419.486	-45.630	0.455	0.225
-418.471	-159.651	-0.712	0.039
-417.457	-200.000	0.041	0.702
-416.442	-75.952	-0.360	-0.127
-415.428	-64.103	-0.576	0.235
-414.413	199.783	0.494	0.757
-413.398	-30.032	-0.031	0.018
-412.384	800.000	-0.289	1.194
-411.369	-65.509	0.190	-0.076
-410.355	123.150	-0.132	0.165
-409.340	800.000	-0.065	-0.250
-408.325	696.712	-0.239	-0.628
-407.311	800.000	0.168	0.678
-406.296	-143.372	-0.764	-0.073
-405.282	385.957	-0.246	0.508
-404.267	-64.573	0.516	0.209
-403.252	-2.243	0.146	0.102
-402.238	-80.673	-0.370	0.123
-401.223	-39.846	-0.383	-0.200
-400.209	-200.000	-0.014	0.443
-399.194	-120.914	-0.512	-0.086
-398.179	-49.901	0.849	-0.402
-397.165	89.086	0.486	-0.540
-396.150	-25.982	-0.774	-0.455
-395.136	209.149	-0.188	-0.294
-394.121	-87.072	-0.153	-0.047
-393.106	-170.199	0.223	-0.008
-392.092	9.585	-0.118	0.089
-391.077	64.867	-0.346	0.348
-390.063	539.319	0.319	-0.757
-389.048	-200.000	-0.014	0.100
-388.033	199.748	0.223	0.342
-387.019	243.138	-0.042	0.071
-386.004	98.336	-0.307	-0.353
-384.990	759.458	0.246	0.666
-383.975	6.301	0.197	-0.146
-382.960	800.000	-0.136	0.376
-381.946	800.000	-0.260	1.078
-380.931	-59.133	0.680	0.292
-379.917	336.263	0.365	0.707
-378.902	228.309	-0.133	-0.216
-377.888	-43.776	0.831	-0.418
-376.873	-200.000	0.012	0.474
-375.858	-26.258	0.482	0.282
-374.844	37.180	0.451	0.399
-373.829	-137.805	0.680	0.076
-372.815	-47.494	-0.728	0.353
-371.800	-32.255	0.694	0.387
-370.785	375.640	0.267	0.542
-369.771	-15.542	0.753	0.480
-368.756	-36.820	0.293	-0.157
-367.742	800.000	-0.152	-0.659
-366.727	-125.163	0.889	-0.136
-365.712	800.000	-0.180	-0.603
-364.698	316.044	0.022	-0.042
-363.683	235.679	0.487	0.803
-362.669	97.073	0.270	-0.309
-361.654	-200.000	0.088	-0.394
-360.639	-200.000	0.040	-0.912
-359.625	-108.902	-0.839	0.179
-358.610	-29.096	0.476	0.272
-357.596	-58.539	0.636	0.275
-356.581	-200.000	0.009	0.615
-355.566	800.000	0.068	-0.193
-354.552	-200.000	0.005	0.454
-353.537	69.804	0.630	-0.647
-352.523	-115.963	0.372	0.069
-351.508	800.000	0.162	-0.617
-350.493	390.053	-0.254	-0.525
-349.479	-200.000	0.091	-0.644
-348.464	1.778	0.582	-0.418
-347.450	-131.546	-0.163	0.021
-346.435	-122.735	-1.013	-0.163
-345.420	43.599	0.282	-0.257
-344.406	800.000	-0.076	0.217
-343.391	612.022	-0.132	-0.329
-342.377	-98.568	0.811	-0.206
-341.362	-200.000	0.013	-0.380
-340.348	574.842	0.087	-0.212
-339.333	800.000	0.203	0.724
-338.318	51.493	0.634	-0.600
-337.304	-100.192	0.212	-0.053
-336.289	128.038	-0.208	0.264
-335.275	-126.986	-0.442	-0.065
-334.260	75.240	0.313	-0.329
-333.245	-137.215	-0.559	-0.063
-332.231	54.474	0.386	-0.370
-331.216	500.282	-0.252	0.579
-330.202	-30.688	0.886	0.499
-329.187	55.644	0.189	-0.183
-328.172	62.471	0.712	-0.708
-327.158	800.000	0.148	-0.421
-326.143	-200.000	-0.018	0.095
-325.129	800.000	-0.119	0.439
-324.114	310.902	-0.129	0.241
-323.099	-200.000	0.015	0.159
-322.085	75.792	-0.413	0.434
-321.070	642.579	0.063	-0.160
-320.056	78.711	0.410	-0.436
-319.041	13.711	-0.152	-0.117
-318.026	-54.217	-0.303	-0.137
-317.012	100.349	0.522	0.603
-315.997	34.024	-0.242	0.210
-314.983	456.100	0.507	-1.119
-313.968	462.916	0.348	-0.774
-312.953	156.960	-0.431	-0.592
-311.939	800.000	-0.078	-0.252
-310.924	23.219	0.998	-0.816
-309.910	-90.464	-0.671	0.193
-308.895	-39.496	0.409	0.214
-307.880	-40.370	-0.209	0.108
-306.866	-200.000	-0.333	0.000
-305.851	-38.620	0.777	-0.408
-304.837	-200.000	-0.065	-0.640
-303.822	232.351	-0.200	-0.327
-302.807	170.098	-0.442	-0.629
-301.793	-6.385	-0.584	0.397
-300.778	258.746	0.251	-0.430
-299.764	-105.393	0.514	0.116
-298.749	-184.935	0.770	-0.012
-297.735	262.341	0.134	0.232
-296.720	-93.257	0.357	-0.099
-295.705	800.000	-0.207	0.710
-294.691	-200.000	0.068	0.339
-293.676	271.546	0.341	-0.597
-292.662	263.321	-0.312	0.540
-291.647	-25.467	-0.319	-0.187
-290.632	79.331	0.071	0.076
-289.618	109.337	0.179	0.213
-288.603	4.472	0.348	0.254
-287.589	388.681	-0.213	-0.439
-286.574	-84.489	-0.165	0.052
-285.559	76.484	0.406	-0.428
-284.545	-200.000	0.043	-0.225
-283.530	-84.847	-0.061	-0.019
-282.516	-100.465	0.642	0.158
-281.501	210.108	0.166	-0.258
-280.486	288.160	-0.278	0.500
-279.472	800.000	-0.269	-0.827
-278.457	11.012	-0.166	-0.126
-277.443	150.812	-0.436	-0.589
-276.428	-174.575	-0.348	-0.010
-275.413	-29.711	0.202	0.115
-274.399	146.618	-0.696	0.929
-273.384	800.000	0.037	0.139
-272.370	-200.000	0.079	0.972
-271.355	193.782	-0.197	-0.296
-270.340	46.025	0.647	-0.595
-269.326	459.179	0.216	0.478
-268.311	45.464	-0.387	0.355
-267.297	193.264	-0.701	-1.053
-266.282	194.248	0.249	0.375
-265.267	-53.082	0.334	-0.153
-264.253	140.420	0.413	0.542
-263.238	-27.184	0.148	0.086
-262.224	800.000	-0.106	0.443
-261.209	800.000	-0.056	0.160
-260.195	-200.000	-0.038	0.910
-259.180	113.350	-0.190	-0.229
-258.165	-86.552	-0.397	0.121
-257.151	-22.530	-0.379	0.228
-256.136	23.312	0.082	0.067
-255.122	30.387	0.078	-0.066
-254.107	337.628	-0.415	0.802
-253.092	21.225	-0.654	-0.527
-252.078	479.638	0.378	0.851
-251.063	-69.448	0.466	-0.177
-250.049	800.000	-0.244	-0.882
-249.034	124.905	-0.365	0.457
-248.019	-200.000	-0.016	0.163
-247.005	21.727	0.273	0.221
-245.990	-51.504	0.488	0.226
-244.976	-126.176	-0.421	0.063
-243.961	6.985	-0.454	0.336
-242.946	-8.510	0.713	0.475
-241.932	800.000	0.186	0.564
-240.917	-59.942	-0.672	0.285
-239.903	-29.846	0.832	-0.471
-238.888	319.322	0.491	-0.924
-237.873	220.492	0.542	0.862
-236.859	-168.571	0.537	0.020
-235.844	203.710	0.226	-0.347
-234.830	-126.955	-0.048	0.007
-233.815	-81.835	0.890	-0.289
-232.800	95.461	0.304	-0.344
-231.786	-200.000	-0.088	0.700
-230.771	10.469	-0.704	0.532
-229.757	-49.742	-0.586	-0.276
-228.742	800.000	-0.194	0.682
-227.727	800.000	0.088	-0.354
-226.713	212.774	0.413	0.646
-225.698	-200.000	-0.010	-0.887
-224.684	797.950	-0.142	-0.388
-223.669	-100.230	0.331	0.082
-222.655	10.464	0.492	0.372
-221.640	-79.718	0.266	-0.089
-220.625	-26.047	0.563	-0.329
-219.611	0.688	0.601	0.426
-218.596	306.679	0.574	1.060
-217.582	102.283	-0.138	-0.159
-216.567	-152.253	0.574	0.041
-215.552	159.011	0.327	-0.451
-214.538	-20.073	-0.201	0.123
-213.523	379.721	-0.479	-0.974
-212.509	-152.877	-0.806	-0.057
-211.494	-133.582	-0.307	-0.038
-210.479	800.000	0.219	0.836
-209.465	-40.669	0.713	0.367
-208.450	64.480	0.925	-0.924
-207.436	-102.688	0.896	-0.212
-206.421	-90.425	0.899	0.258
-205.406	95.294	0.557	0.629
-204.392	248.817	0.353	0.593
-203.377	-71.340	-0.356	0.132
-202.363	238.708	-0.099	-0.163
-201.348	158.206	-0.604	0.830
-200.333	-200.000	-0.039	0.616
-199.319	-19.032	-0.723	-0.446
-198.304	81.755	-0.799	-0.857
-197.290	104.482	0.399	0.465
-196.275	-0.693	-0.589	-0.414
-195.260	557.429	-0.148	0.354
-194.246	-103.409	0.228	-0.053
-193.231	-80.736	-0.154	0.051
-192.217	171.420	-0.383	-0.545
-191.202	17.941	-0.387	-0.305
-190.187	-200.000	0.033	-0.820
-189.173	-46.004	-0.767	0.374
-188.158	200.521	-0.186	-0.284
-187.144	-78.502	0.329	-0.112
-186.129	77.851	-0.280	-0.296
-185.114	-4.046	-0.163	0.112
-184.100	-88.941	-0.884	0.259
-183.085	1.107	0.214	-0.152
-182.071	-145.130	-0.536	0.048
-181.056	96.640	0.398	-0.451
-180.042	800.000	-0.098	-0.395
-179.027	-21.111	-0.468	0.284
-178.012	-177.223	-0.949	-0.023
-176.998	-200.000	-0.009	-0.043
-175.983	-200.000	0.204	-0.937
-174.969	-96.306	0.463	-0.121
-173.954	-111.114	-0.665	-0.135
-172.939	-137.745	0.987	-0.110
-171.925	153.018	-0.269	0.364
-170.910	-200.000	0.106	0.674
-169.896	176.947	0.042	0.061
-168.881	-95.230	0.687	0.183
-167.866	800.000	-0.092	0.355
-166.852	800.000	0.118	0.405
-165.837	-89.955	1.117	-0.323
-164.823	-6.398	-0.577	-0.390
-163.808	-200.000	0.089	0.460
-162.793	-44.585	-0.426	-0.211
-161.779	-43.858	-0.337	-0.168
-160.764	-135.005	-0.257	0.031
-159.750	84.369	0.259	-0.281
-158.735	243.143	-0.130	0.215
-157.720	310.392	-0.419	0.777
-156.706	88.155	0.936	1.028
-155.691	92.487	0.562	-0.627
-154.677	-105.088	0.271	-0.061
-153.662	-138.260	-0.221	-0.024
-152.647	-200.000	-0.011	0.355
-151.633	-40.365	0.220	0.113
-150.618	-177.636	0.443	-0.011
-149.604	-137.938	0.586	-0.065
-148.589	-89.658	-0.373	-0.108
-147.574	-155.018	0.745	-0.048
-146.560	70.963	0.201	0.206
-145.545	-200.000	-0.109	-0.904
-144.531	122.246	0.129	0.159
-143.516	129.156	0.376	-0.475
-142.502	-98.805	0.597	-0.150
-141.487	-76.506	0.998	-0.347
-140.472	-125.214	-0.686	0.104
-139.458	-200.000	0.024	0.629
-138.443	800.000	0.083	0.252
-137.429	-200.000	0.023	-0.319
-136.414	-68.308	0.110	0.042
-135.399	-200.000	0.056	-0.714
-134.385	-53.952	0.138	0.062
-133.370	-200.000	0.002	-0.120
-132.356	-106.743	-0.022	-0.005
-131.341	-77.271	0.720	-0.247
-130.326	-200.000	-0.017	-0.301
-129.312	-24.488	-0.344	-0.202
-128.297	135.093	-0.271	0.348
-127.283	-75.225	-0.131	-0.046
-126.268	353.798	0.332	0.651
-125.253	-200.000	-0.133	1.063
-124.239	475.221	0.192	0.428
-123.224	-101.213	0.441	-0.107
-122.210	800.000	0.011	-0.046
-121.195	-200.000	0.053	0.255
