DTS Sentinel unit serial number:	SN413079Multiplexer serial number:	ORYXHardware model number:	OX4-SRSoftware version number:	ORYX F/W v4.00 Oryx Data Collector v3.7.2.0data status	okinstallation	princeton_trtdifferential loss correction	single-endedforward channel	channel 1reverse channel	N/Adate	2019/09/12time	11:36:11forward acquisition time	60.00reverse acquisition time	0.00gamma	496.2192k internal	0.2294k external	0.2294temperature offset calibration	1.0043default loss term (dB/km)	0.3790temperature slope calibration	1.0000multiplexer offset coefficient	1.0000multiplexer slope coefficient	1.0000fibre end	0.00T internal ref (°C)	39.52T ext. ref 1 (°C)	1.97T ext. ref 2 (°C)	36.78length (m)	temperature (°C)	Stokes	anti-Stokes-747.200	800.000	-0.022	-0.093
-746.185	-178.193	0.198	0.005
-745.171	-95.044	-0.096	0.026
-744.156	134.710	-0.131	0.174
-743.142	297.308	-0.153	0.288
-742.127	-165.678	-0.522	-0.023
-741.112	800.000	0.077	-0.238
-740.098	135.620	-0.254	-0.337
-739.083	-153.400	0.274	0.019
-738.069	307.336	-0.069	0.132
-737.054	-200.000	-0.015	0.246
-736.039	-118.727	-0.302	0.054
-735.025	-39.523	0.433	0.232
-734.010	-37.483	-0.020	-0.011
-732.996	486.947	-0.061	-0.143
-731.981	-116.891	0.279	0.052
-730.966	-4.880	0.213	-0.150
-729.952	-84.547	-0.091	0.029
-728.937	-200.000	0.013	0.087
-727.923	-90.838	-0.071	0.021
-726.908	1.022	-0.291	0.213
-725.894	160.757	0.033	0.048
-724.879	-200.000	0.038	-0.233
-723.864	-58.028	-0.152	-0.068
-722.850	-200.000	0.002	-0.474
-721.835	-117.347	-0.064	-0.012
-720.821	451.543	-0.013	0.029
-719.806	800.000	-0.066	-0.191
-718.791	-33.909	-0.160	0.090
-717.777	-200.000	-0.047	0.243
-716.762	800.000	-0.041	-0.155
-715.748	-140.060	-0.235	0.025
-714.733	-67.692	-0.286	-0.114
-713.718	104.777	-0.194	-0.234
-712.704	0.971	-0.165	-0.121
-711.689	-200.000	-0.057	0.349
-710.675	12.610	-0.261	-0.206
-709.660	571.921	0.075	-0.186
-708.645	10.294	0.352	0.274
-707.631	800.000	-0.048	0.163
-706.616	800.000	-0.030	0.115
-705.602	215.977	-0.100	-0.162
-704.587	106.966	-0.199	-0.241
-703.572	192.207	0.201	-0.310
-702.558	-117.707	0.268	0.049
-701.543	-200.000	-0.007	0.155
-700.529	314.683	0.047	-0.091
-699.514	-200.000	0.017	-0.117
-698.499	-200.000	0.113	0.560
-697.485	22.322	-0.231	0.193
-696.470	-55.778	-0.043	-0.020
-695.456	659.994	0.017	-0.043
-694.441	601.494	-0.137	0.349
-693.426	-88.133	-0.259	-0.079
-692.412	-99.726	0.271	-0.069
-691.397	-90.333	0.219	0.065
-690.383	-26.100	-0.126	-0.076
-689.368	-200.000	0.043	-0.316
-688.354	-7.550	-0.028	-0.019
-687.339	-31.466	-0.119	-0.068
-686.324	-200.000	-0.030	-0.144
-685.310	-200.000	-0.008	0.223
-684.295	-200.000	-0.003	0.277
-683.281	-27.070	-0.139	-0.083
-682.266	12.173	0.062	0.049
-681.251	-200.000	-0.013	-0.217
-680.237	24.538	0.197	-0.166
-679.222	124.008	0.059	-0.076
-678.208	-133.710	0.199	0.025
-677.193	-100.053	-0.160	0.041
-676.178	-187.585	-0.296	0.004
-675.164	-95.198	0.410	0.113
-674.149	-97.244	0.277	-0.074
-673.135	-157.046	0.380	0.024
-672.120	13.662	-0.072	-0.057
-671.105	-116.946	-0.174	0.032
-670.091	368.601	0.030	-0.062
-669.076	-135.200	-0.136	0.017
-668.062	-93.953	-0.215	-0.060
-667.047	-14.977	-0.189	-0.124
-666.032	-200.000	0.005	0.088
-665.018	-200.000	0.027	-0.162
-664.003	-200.000	-0.060	0.376
-662.989	117.213	-0.149	0.187
-661.974	-200.000	0.017	-0.256
-660.959	-1.402	-0.091	0.065
-659.945	159.345	-0.185	0.263
-658.930	-200.000	0.017	-0.218
-657.916	-78.113	0.260	0.091
-656.901	164.148	-0.243	0.349
-655.886	-43.091	-0.254	0.131
-654.872	800.000	0.044	-0.128
-653.857	-32.908	-0.196	-0.111
-652.843	-4.635	0.068	-0.048
-651.828	-200.000	0.023	0.245
-650.814	577.189	-0.118	-0.293
-649.799	143.499	-0.197	-0.267
-648.784	-97.690	0.066	-0.017
-647.770	-91.510	-0.300	-0.087
-646.755	354.704	-0.056	-0.114
-645.741	-200.000	0.001	0.014
-644.726	633.800	0.102	0.263
-643.711	-16.240	-0.262	0.169
-642.697	70.552	0.170	-0.179
-641.682	-50.379	-0.068	-0.033
-640.668	-200.000	-0.029	-0.208
-639.653	-82.176	-0.388	-0.129
-638.638	132.080	0.021	-0.028
-637.624	376.406	0.050	0.104
-636.609	-200.000	-0.004	-0.157
-635.595	77.000	-0.218	0.236
-634.580	800.000	-0.051	-0.164
-633.565	10.811	-0.222	0.173
-632.551	-72.602	-0.257	-0.097
-631.536	-42.443	-0.308	0.160
-630.522	-157.496	0.133	-0.008
-629.507	-29.050	0.352	0.206
-628.492	-168.186	0.180	-0.007
-627.478	-16.278	-0.181	-0.117
-626.463	-46.023	-0.319	0.160
-625.449	-200.000	0.060	0.339
-624.434	50.516	-0.151	-0.145
-623.419	4.551	0.064	-0.048
-622.405	-15.177	-0.247	0.161
-621.390	-200.000	-0.012	-0.322
-620.376	60.805	0.297	-0.300
-619.361	160.042	-0.063	0.090
-618.346	-101.467	-0.123	-0.030
-617.332	-61.392	-0.089	-0.038
-616.317	-73.091	0.265	-0.099
-615.303	800.000	0.057	-0.174
-614.288	61.222	0.170	-0.172
-613.273	-117.584	-0.424	0.078
-612.259	800.000	-0.100	0.305
-611.244	-107.714	-0.342	0.076
-610.230	-200.000	0.000	-0.006
-609.215	79.586	0.047	-0.052
-608.201	800.000	0.093	-0.268
-607.186	157.062	0.125	0.175
-606.171	218.228	-0.184	-0.299
-605.157	-43.031	0.198	-0.102
-604.142	-28.242	-0.250	0.147
-603.128	134.115	-0.086	0.113
-602.113	800.000	-0.038	0.140
-601.098	-200.000	0.043	0.258
-600.084	-2.587	0.156	0.111
-599.069	169.391	0.176	0.256
-598.055	-169.322	0.063	-0.002
-597.040	-67.113	0.286	0.114
-596.025	800.000	0.051	0.179
-595.011	-39.883	0.479	-0.254
-593.996	31.083	-0.072	-0.062
-592.982	-29.364	-0.028	-0.016
-591.967	80.197	-0.147	0.160
-590.952	414.448	0.037	0.079
-589.938	-172.428	-0.302	-0.010
-588.923	203.188	0.184	-0.290
-587.909	209.270	0.104	0.166
-586.894	800.000	-0.054	0.159
-585.879	217.331	0.157	0.254
-584.865	238.628	0.246	-0.416
-583.850	-104.728	0.269	0.063
-582.836	205.335	0.021	-0.032
-581.821	99.920	-0.120	-0.141
-580.806	-117.160	-0.136	0.025
-579.792	-54.237	0.320	0.148
-578.777	-200.000	0.034	0.196
-577.763	800.000	-0.028	0.106
-576.748	-0.671	-0.163	0.118
-575.733	-133.122	0.199	0.026
-574.719	-200.000	0.024	0.215
-573.704	-200.000	-0.003	0.156
-572.690	-33.215	-0.170	0.096
-571.675	66.045	0.273	-0.281
-570.661	-126.464	-0.092	0.014
-569.646	797.166	0.084	0.236
-568.631	231.273	-0.158	0.262
-567.617	126.039	-0.159	0.204
-566.602	-56.054	-0.334	-0.151
-565.588	800.000	-0.063	-0.270
-564.573	-200.000	0.016	0.095
-563.558	-93.383	-0.392	0.110
-562.544	19.329	0.067	-0.054
-561.529	-124.214	0.415	0.066
-560.515	800.000	-0.174	-0.487
-559.500	221.231	-0.198	0.322
-558.485	-165.824	0.126	0.005
-557.471	412.588	-0.220	-0.475
-556.456	152.927	0.112	-0.156
-555.442	-17.016	0.168	-0.108
-554.427	130.524	-0.149	0.194
-553.412	-185.476	-0.337	0.005
-552.398	118.760	-0.237	-0.297
-551.383	-151.302	0.222	0.017
-550.369	-31.648	0.075	0.043
-549.354	800.000	0.101	-0.382
-548.339	-200.000	0.061	-0.326
-547.325	-12.128	0.068	0.045
-546.310	-200.000	-0.008	-0.100
-545.296	-32.278	-0.083	0.047
-544.281	800.000	-0.047	0.179
-543.266	396.774	-0.109	-0.230
-542.252	159.066	-0.214	0.302
-541.237	-200.000	0.014	0.090
-540.223	168.048	-0.267	-0.386
-539.208	800.000	0.020	0.089
-538.193	104.290	-0.132	-0.158
-537.179	85.437	-0.138	-0.154
-536.164	-34.765	0.169	-0.094
-535.150	180.843	0.188	-0.280
-534.135	-130.206	0.436	-0.060
-533.121	-102.541	-0.357	-0.086
-532.106	-91.026	0.215	0.063
-531.091	-86.094	-0.211	-0.066
-530.077	183.588	-0.092	0.138
-529.062	-53.862	-0.103	0.048
-528.048	-114.682	-0.244	-0.047
-527.033	-116.433	-0.158	0.030
-526.018	-55.911	-0.269	0.122
-525.004	163.960	-0.035	-0.050
-523.989	-68.160	0.264	-0.104
-522.975	-200.000	0.042	-0.229
-521.960	302.267	-0.052	0.097
-520.945	-200.000	0.005	0.278
-519.931	-71.987	-0.385	0.145
-518.916	800.000	-0.037	0.125
-517.902	232.393	0.119	0.198
-516.887	-177.047	0.203	-0.005
-515.872	-70.972	0.334	-0.128
-514.858	-107.068	-0.143	0.032
-513.843	77.666	-0.050	-0.054
-512.829	-92.462	0.093	-0.027
-511.814	-99.444	0.140	0.036
-510.799	-200.000	0.020	-0.306
-509.785	539.679	-0.118	-0.286
-508.770	-128.551	0.065	0.009
-507.756	317.226	0.055	0.106
-506.741	-154.315	0.104	-0.007
-505.726	-84.468	0.226	-0.072
-504.712	-200.000	-0.001	-0.053
-503.697	-200.000	0.016	-0.222
-502.683	21.817	-0.041	-0.034
-501.668	115.139	0.144	-0.178
-500.653	-64.519	0.289	0.119
-499.639	-200.000	0.007	-0.223
-498.624	-200.000	-0.010	-0.107
-497.610	232.293	0.044	0.073
-496.595	-109.058	-0.175	0.038
-495.581	-120.258	0.117	-0.020
-494.566	-106.536	-0.281	0.064
-493.551	-51.047	0.289	0.137
-492.537	-90.252	-0.222	-0.065
-491.522	-200.000	0.001	-0.204
-490.508	343.112	0.085	0.168
-489.493	-200.000	-0.030	-0.239
-488.478	-132.606	0.180	-0.023
-487.464	800.000	-0.069	0.244
-486.449	88.743	0.253	-0.284
-485.435	-200.000	-0.004	0.293
-484.420	366.375	0.117	-0.240
-483.405	101.815	-0.385	-0.455
-482.391	-83.293	-0.313	0.102
-481.376	-42.953	-0.177	-0.091
-480.362	543.745	-0.076	0.185
-479.347	-41.252	-0.243	0.127
-478.332	353.062	-0.068	-0.137
-477.318	155.058	-0.115	0.160
-476.303	148.973	-0.224	-0.306
-475.289	-200.000	-0.029	-0.199
-474.274	-129.253	0.303	0.043
-473.259	571.273	0.158	0.389
-472.245	-144.469	0.190	-0.018
-471.230	-87.228	-0.255	0.079
-470.216	215.655	-0.179	0.288
-469.201	319.511	-0.098	0.188
-468.186	800.000	0.016	-0.064
-467.172	56.510	0.145	-0.143
-466.157	800.000	0.070	0.234
-465.143	6.150	0.076	0.057
-464.128	84.404	-0.048	0.053
-463.113	-200.000	-0.012	0.082
-462.099	800.000	0.123	0.436
-461.084	40.035	-0.111	0.101
-460.070	404.368	-0.071	0.150
-459.055	-151.522	0.059	0.004
-458.040	-200.000	0.028	-0.180
-457.026	-155.290	-0.140	-0.009
-456.011	-26.695	-0.131	-0.078
-454.997	-15.533	-0.259	0.167
-453.982	-164.716	-0.022	-0.001
-452.968	437.280	-0.124	0.272
-451.953	209.229	-0.172	0.272
-450.938	402.259	-0.060	0.127
-449.924	-147.677	0.146	0.012
-448.909	341.101	0.103	0.202
-447.895	-122.839	-0.051	0.008
-446.880	-180.148	0.368	-0.008
-445.865	401.179	0.173	-0.367
-444.851	-200.000	-0.016	-0.325
-443.836	230.432	0.124	-0.205
-442.822	-25.821	0.290	-0.173
-441.807	800.000	-0.037	-0.106
-440.792	27.728	0.166	-0.141
-439.778	42.415	-0.034	0.031
-438.763	162.174	-0.075	0.106
-437.749	-200.000	0.035	-0.156
-436.734	-105.054	0.596	0.138
-435.719	255.141	0.115	-0.198
-434.705	800.000	0.117	0.348
-433.690	358.686	-0.129	0.260
-432.676	-200.000	-0.005	0.196
-431.661	14.247	-0.102	0.080
-430.646	-200.000	0.010	-0.216
-429.632	214.738	-0.055	0.088
-428.617	56.667	-0.046	0.045
-427.603	-38.619	-0.170	0.091
-426.588	-107.056	-0.267	-0.060
-425.573	-88.004	-0.276	-0.084
-424.559	82.041	0.079	-0.086
-423.544	-100.383	-0.263	-0.066
-422.530	38.897	0.198	-0.179
-421.515	-143.826	-0.193	-0.018
-420.500	-56.328	0.188	0.084
-419.486	21.727	-0.128	-0.106
-418.471	-141.584	0.236	-0.024
-417.457	259.373	-0.142	0.248
-416.442	80.817	0.269	0.293
-415.428	0.922	0.423	-0.306
-414.413	-16.940	-0.085	-0.054
-413.398	64.645	-0.128	0.131
-412.384	-54.840	0.153	-0.070
-411.369	-106.187	0.059	0.013
-410.355	66.656	0.145	-0.149
-409.340	316.052	-0.082	-0.156
-408.325	800.000	0.037	0.112
-407.311	-24.170	-0.199	-0.120
-406.296	387.261	-0.103	0.214
-405.282	-28.838	0.419	0.243
-404.267	-129.860	-0.276	0.038
-403.252	-53.489	0.377	0.174
-402.238	664.916	0.050	0.131
-401.223	-200.000	-0.012	0.182
-400.209	-200.000	-0.007	-0.157
-399.194	20.369	0.201	0.164
-398.179	633.336	-0.068	0.175
-397.165	-101.603	0.152	-0.037
-396.150	59.787	0.060	0.060
-395.136	300.649	-0.052	-0.097
-394.121	-164.937	-0.105	-0.005
-393.106	-115.821	0.100	0.019
-392.092	261.707	-0.047	0.082
-391.077	12.036	-0.114	0.088
-390.063	-200.000	0.011	-0.100
-389.048	-97.560	-0.158	0.041
-388.033	122.038	0.168	0.212
-387.019	755.961	-0.010	0.026
-386.004	105.220	0.095	-0.113
-384.990	800.000	-0.029	-0.124
-383.975	160.585	0.142	0.200
-382.960	72.944	0.151	-0.159
-381.946	-107.021	-0.335	0.075
-380.931	8.827	-0.142	0.108
-379.917	-71.398	0.301	0.114
-378.902	-200.000	-0.074	-0.485
-377.888	-111.286	-0.138	-0.028
-376.873	-169.199	0.413	-0.015
-375.858	50.262	0.067	0.064
-374.844	-200.000	0.024	-0.201
-373.829	125.001	-0.153	-0.194
-372.815	376.853	0.102	-0.209
-371.800	38.843	-0.271	0.244
-370.785	231.875	-0.136	0.226
-369.771	10.492	-0.201	0.154
-368.756	800.000	-0.095	0.288
-367.742	-117.419	-0.164	0.030
-366.727	-1.781	0.049	-0.035
-365.712	800.000	0.058	0.228
-364.698	-101.130	0.263	0.065
-363.683	-136.290	0.204	-0.024
-362.669	800.000	0.067	-0.198
-361.654	798.150	-0.091	-0.254
-360.639	-84.981	-0.123	-0.039
-359.625	72.774	0.170	-0.179
-358.610	-200.000	0.035	-0.194
-357.596	377.271	0.088	-0.181
-356.581	31.356	0.229	0.198
-355.566	473.808	-0.107	0.244
-354.552	-64.602	0.096	-0.039
-353.537	-200.000	-0.044	0.225
-352.523	800.000	0.020	-0.081
-351.508	37.465	0.100	0.089
-350.493	491.667	0.093	-0.213
-349.479	-200.000	-0.002	-0.031
-348.464	-200.000	0.023	-0.551
-347.450	-28.263	-0.152	-0.088
-346.435	-35.195	-0.160	0.088
-345.420	-0.479	0.355	0.254
-344.406	243.331	0.179	0.302
-343.391	-83.923	-0.162	-0.052
-342.377	-57.933	-0.075	-0.033
-341.362	-42.193	-0.136	-0.070
-340.348	198.375	0.138	-0.213
-339.333	-163.965	-0.209	0.010
-338.318	-162.702	0.319	0.016
-337.304	-118.308	0.295	0.053
-336.289	-200.000	0.011	-0.151
-335.275	492.814	0.087	-0.201
-334.260	-116.210	-0.261	-0.049
-333.245	-9.323	-0.074	-0.049
-332.231	800.000	-0.013	0.048
-331.216	188.572	0.137	-0.207
-330.202	-200.000	0.066	-0.587
-329.187	-140.065	0.410	-0.043
-328.172	-122.484	0.149	0.024
-327.158	-18.005	0.070	0.044
-326.143	-70.605	-0.131	-0.050
-325.129	-162.863	-0.124	0.006
-324.114	-19.650	0.333	0.207
-323.099	749.114	0.049	0.132
-322.085	-200.000	0.011	-0.131
-321.070	800.000	0.017	0.062
-320.056	-85.889	0.090	0.028
-319.041	-200.000	-0.003	-0.031
-318.026	-119.863	-0.304	0.053
-317.012	591.453	-0.095	-0.235
-315.997	87.055	0.093	-0.103
-314.983	181.114	0.132	0.195
-313.968	418.243	-0.111	0.239
-312.953	-200.000	-0.042	0.190
-311.939	-46.122	0.185	0.092
-310.924	800.000	0.080	-0.237
-309.910	-200.000	-0.015	-0.167
-308.895	-42.974	-0.143	-0.073
-307.880	128.989	0.022	-0.028
-306.866	800.000	0.102	-0.284
-305.851	-7.981	0.078	0.053
-304.837	-171.486	0.160	0.005
-303.822	-112.868	-0.182	-0.036
-302.807	-58.251	0.169	-0.074
-301.793	-200.000	-0.002	-0.227
-300.778	-49.081	0.174	-0.084
-299.764	-113.099	0.374	0.074
-298.749	178.265	-0.087	-0.128
-297.735	207.548	-0.029	-0.046
-296.720	-81.681	0.121	0.040
-295.705	-40.045	-0.217	0.114
-294.691	55.916	-0.113	-0.110
-293.676	-200.000	-0.021	0.161
-292.662	-107.939	-0.387	0.084
-291.647	79.976	0.282	0.304
-290.632	-119.202	-0.319	-0.056
-289.618	-200.000	-0.001	0.162
-288.603	62.627	0.222	0.223
-287.589	-137.063	-0.077	-0.009
-286.574	130.602	0.085	-0.109
-285.559	-60.788	0.278	-0.118
-284.545	238.197	-0.079	0.131
-283.530	198.471	0.130	0.199
-282.516	66.116	0.102	-0.104
-281.501	-200.000	-0.056	-0.255
-280.486	-20.760	-0.249	-0.153
-279.472	-90.986	-0.386	0.111
-278.457	-41.887	0.072	0.037
-277.443	347.232	0.046	-0.091
-276.428	800.000	-0.059	-0.192
-275.413	-200.000	0.061	0.358
-274.399	50.858	-0.272	-0.258
-273.384	-164.226	-0.179	-0.008
-272.370	408.804	-0.262	0.556
-271.355	-25.028	-0.062	0.037
-270.340	-200.000	0.012	-0.373
-269.326	268.345	0.085	-0.150
-268.311	65.080	0.201	-0.204
-267.297	219.806	-0.033	-0.053
-266.282	-76.062	0.184	-0.065
-265.267	-18.907	0.154	0.096
-264.253	-70.173	-0.221	0.084
-263.238	230.730	-0.089	-0.147
-262.224	-52.517	-0.109	0.051
-261.209	52.452	-0.105	-0.101
-260.195	-200.000	-0.014	0.479
-259.180	800.000	0.105	0.320
-258.165	315.557	0.038	-0.072
-257.151	5.701	0.132	0.098
-256.136	-200.000	-0.011	0.177
-255.122	-200.000	0.056	0.250
-254.107	-20.572	0.196	0.121
-253.092	-19.804	0.347	0.215
-252.078	-200.000	-0.003	0.084
-251.063	-200.000	-0.042	0.389
-250.049	-92.672	0.320	0.090
-249.034	33.318	0.147	-0.128
-248.019	-200.000	0.003	-0.061
-247.005	-119.324	-0.096	0.017
-245.990	-82.527	-0.194	0.063
-244.976	-200.000	0.014	-0.119
-243.961	-200.000	-0.012	-0.199
-242.946	-29.638	-0.214	-0.122
-241.932	-98.017	0.168	-0.043
-240.917	-14.716	0.169	0.109
-239.903	-56.819	-0.249	-0.110
-238.888	-200.000	-0.012	0.145
-237.873	-200.000	-0.020	-0.227
-236.859	293.670	0.096	0.176
-235.844	800.000	0.047	0.200
-234.830	-53.876	-0.356	-0.162
-233.815	-200.000	0.001	-0.135
-232.800	541.366	-0.093	-0.221
-231.786	14.622	0.133	-0.104
-230.771	16.432	0.048	-0.038
-229.757	-200.000	0.001	0.157
-228.742	181.583	0.029	0.042
-227.727	-37.522	0.423	-0.226
-226.713	-148.441	0.063	-0.005
-225.698	-200.000	-0.032	-0.233
-224.684	-18.032	-0.111	0.070
-223.669	-149.446	0.325	0.026
-222.655	513.820	-0.069	-0.160
-221.640	-96.009	0.164	0.044
-220.625	-178.378	0.198	0.005
-219.611	-31.157	-0.254	0.143
-218.596	53.719	-0.130	0.125
-217.582	-157.675	0.355	-0.021
-216.567	-98.431	0.245	0.063
-215.552	114.082	-0.182	0.222
-214.538	-200.000	0.008	0.114
-213.523	135.682	-0.052	0.068
-212.509	-32.318	-0.148	-0.083
-211.494	800.000	0.064	0.243
-210.479	-23.184	-0.258	0.156
-209.465	-149.996	0.198	0.015
-208.450	-62.701	-0.173	-0.072
-207.436	-21.443	0.217	0.133
-206.421	800.000	-0.078	0.340
-205.406	-40.285	-0.229	-0.119
-204.392	345.009	-0.052	0.103
-203.377	456.544	0.042	0.094
-202.363	4.813	-0.137	0.101
-201.348	-200.000	0.008	-0.257
-200.333	-73.101	0.114	-0.042
-199.319	151.731	-0.187	0.255
-198.304	172.708	0.117	-0.169
-197.290	401.393	-0.087	-0.182
-196.275	177.844	-0.239	0.349
-195.260	122.220	-0.089	-0.112
-194.246	21.632	-0.354	0.289
-193.231	217.261	0.130	-0.208
-192.217	-97.095	-0.398	0.104
-191.202	-5.332	-0.067	-0.046
-190.187	-64.205	0.027	0.011
-189.173	-111.371	-0.216	0.044
-188.158	800.000	-0.001	-0.004
-187.144	-91.614	0.319	0.091
-186.129	-109.488	-0.136	-0.029
-185.114	800.000	-0.018	-0.071
-184.100	29.965	0.045	-0.038
-183.085	-93.434	-0.348	-0.096
-182.071	7.667	-0.153	-0.115
-181.056	-59.227	0.149	-0.064
-180.042	800.000	0.093	-0.314
-179.027	404.201	0.004	-0.007
-178.012	-116.257	0.358	-0.066
-176.998	-16.462	-0.340	-0.216
-175.983	335.796	-0.132	-0.257
-174.969	-200.000	0.181	0.000
-173.954	213.756	-0.011	0.017
-172.939	-200.000	0.002	-0.058
-171.925	-200.000	-0.007	0.063
-170.910	-41.049	0.225	0.116
-169.896	-200.000	0.002	0.182
-168.881	-140.780	0.153	0.016
-167.866	800.000	0.107	0.331
-166.852	-200.000	0.005	-0.154
-165.837	-35.308	0.149	-0.081
-164.823	94.021	0.097	0.110
-163.808	-10.897	0.113	-0.075
-162.793	144.389	0.114	-0.152
-161.779	-200.000	0.091	0.411
-160.764	-81.322	-0.136	0.045
-159.750	-68.440	-0.084	-0.033
-158.735	214.663	-0.267	-0.423
-157.720	800.000	0.030	-0.122
-156.706	-95.693	0.024	0.007
-155.691	223.847	-0.111	0.179
-154.677	-196.464	-0.088	0.001
-153.662	-107.881	-0.274	-0.060
-152.647	146.089	0.076	-0.101
-151.633	18.583	0.150	0.120
-150.618	-200.000	-0.022	0.252
-149.604	-31.345	-0.164	-0.092
-148.589	84.426	-0.075	0.082
-147.574	-67.708	0.332	-0.130
-146.560	-111.694	0.147	0.030
-145.545	-22.860	0.115	0.069
-144.531	334.489	-0.033	0.064
-143.516	-200.000	-0.092	-0.000
-142.502	86.584	-0.124	-0.136
-141.487	-200.000	0.029	0.180
-140.472	-139.655	0.186	0.020
-139.458	70.876	0.092	-0.095
-138.443	9.072	0.238	0.180
-137.429	176.706	-0.118	-0.172
-136.414	71.950	0.150	-0.156
-135.399	-200.000	-0.010	0.138
-134.385	-66.550	-0.318	-0.126
-133.370	79.098	0.209	0.223
-132.356	2.868	-0.240	0.174
-131.341	-107.566	0.079	-0.017
-130.326	-176.695	0.110	-0.003
-129.312	362.164	0.138	-0.276
-128.297	-124.818	-0.391	0.060
-127.283	-124.535	-0.327	-0.051
-126.268	-35.619	0.160	-0.086
-125.253	45.076	0.084	-0.078
-124.239	5.371	0.158	0.116
-123.224	-200.000	-0.029	0.249
-122.210	-50.864	-0.065	0.031
