DTS Sentinel unit serial number:	SN413079Multiplexer serial number:	ORYXHardware model number:	OX4-SRSoftware version number:	ORYX F/W v4.00 Oryx Data Collector v3.7.2.0data status	okinstallation	princeton_trtdifferential loss correction	single-endedforward channel	channel 1reverse channel	N/Adate	2019/09/12time	12:28:11forward acquisition time	60.00reverse acquisition time	0.00gamma	496.2192k internal	0.2292k external	0.2292temperature offset calibration	1.0046default loss term (dB/km)	0.3790temperature slope calibration	1.0000multiplexer offset coefficient	1.0000multiplexer slope coefficient	1.0000fibre end	0.00T internal ref (°C)	40.50T ext. ref 1 (°C)	1.95T ext. ref 2 (°C)	35.03length (m)	temperature (°C)	Stokes	anti-Stokes-747.200	800.000	0.008	-0.025
-746.185	-84.759	-0.169	0.055
-745.171	78.881	0.217	-0.238
-744.156	332.569	0.158	0.311
-743.142	-6.167	0.215	0.150
-742.127	77.112	-0.242	0.263
-741.112	-57.580	0.032	0.014
-740.098	-200.000	-0.015	0.428
-739.083	-87.457	0.173	0.053
-738.069	-9.331	0.292	0.200
-737.054	-200.000	0.016	-0.286
-736.039	-112.881	-0.307	-0.062
-735.025	-200.000	-0.017	0.126
-734.010	800.000	-0.077	-0.311
-732.996	69.132	-0.284	-0.299
-731.981	-42.396	-0.114	-0.059
-730.966	-22.172	-0.314	0.195
-729.952	77.484	-0.026	0.029
-728.937	505.402	-0.154	-0.366
-727.923	-47.191	-0.272	0.135
-726.908	-200.000	-0.016	-0.118
-725.894	-200.000	-0.014	-0.244
-724.879	800.000	0.004	0.014
-723.864	92.871	-0.062	0.071
-722.850	800.000	-0.066	-0.248
-721.835	-200.000	0.022	-0.305
-720.821	-200.000	-0.037	-0.234
-719.806	800.000	0.020	0.064
-718.791	-46.447	-0.259	-0.130
-717.777	-124.222	-0.186	-0.030
-716.762	-200.000	-0.063	-0.312
-715.748	-10.650	-0.028	-0.019
-714.733	454.431	-0.057	0.128
-713.718	-79.113	-0.432	-0.150
-712.704	-76.049	0.076	-0.028
-711.689	-200.000	0.036	-0.323
-710.675	-200.000	0.019	-0.141
-709.660	-109.211	0.208	-0.045
-708.645	-200.000	-0.005	-0.185
-707.631	765.046	-0.083	-0.230
-706.616	800.000	-0.088	-0.377
-705.602	-200.000	0.004	-0.270
-704.587	45.637	0.217	0.205
-703.572	-200.000	0.024	-0.164
-702.558	300.771	-0.107	0.202
-701.543	21.236	-0.304	0.252
-700.529	265.936	0.117	-0.208
-699.514	-162.108	-0.297	-0.015
-698.499	426.382	0.034	0.075
-697.485	800.000	0.012	-0.048
-696.470	-156.476	-0.271	0.017
-695.456	-200.000	-0.002	0.207
-694.441	30.577	0.101	0.088
-693.426	-104.581	0.090	-0.021
-692.412	202.089	-0.118	-0.185
-691.397	-168.763	0.194	0.007
-690.383	270.444	-0.162	-0.290
-689.368	-45.017	-0.326	0.166
-688.354	-104.352	-0.286	0.068
-687.339	-110.167	0.086	-0.018
-686.324	9.576	-0.198	-0.153
-685.310	-150.943	-0.131	0.010
-684.295	142.932	-0.140	-0.191
-683.281	-112.278	0.335	0.069
-682.266	113.743	0.255	-0.316
-681.251	-58.173	0.233	0.104
-680.237	345.230	0.025	-0.051
-679.222	289.444	-0.107	0.199
-678.208	-86.496	-0.457	0.143
-677.193	-8.400	0.093	0.064
-676.178	75.207	-0.133	-0.143
-675.164	646.647	-0.206	0.536
-674.149	-126.079	-0.054	0.008
-673.135	-200.000	0.021	0.247
-672.120	-144.922	-0.327	-0.031
-671.105	168.908	-0.178	0.259
-670.091	-38.124	-0.168	-0.091
-669.076	51.110	-0.067	0.064
-668.062	-200.000	0.018	-0.082
-667.047	-200.000	0.008	-0.150
-666.032	-114.293	-0.186	0.037
-665.018	275.403	0.105	-0.191
-664.003	-56.792	-0.150	0.068
-662.989	-53.232	0.214	0.100
-661.974	-50.701	0.290	-0.139
-660.959	-200.000	-0.037	-0.177
-659.945	-166.532	-0.259	0.011
-658.930	131.804	-0.306	0.402
-657.916	326.086	0.109	0.212
-656.901	-87.781	-0.080	-0.024
-655.886	-103.479	0.198	0.048
-654.872	46.157	-0.223	-0.211
-653.857	-200.000	-0.016	-0.188
-652.843	-66.291	-0.171	-0.069
-651.828	-200.000	-0.018	-0.229
-650.814	-140.968	0.152	0.016
-649.799	-200.000	0.000	-0.033
-648.784	-91.354	-0.237	-0.069
-647.770	-200.000	-0.046	0.209
-646.755	-83.423	-0.133	-0.044
-645.741	-164.116	-0.219	-0.010
-644.726	800.000	0.054	0.169
-643.711	-161.612	-0.373	0.019
-642.697	196.830	0.051	-0.079
-641.682	594.875	0.028	0.070
-640.668	-43.280	-0.167	-0.086
-639.653	-25.400	0.305	-0.184
-638.638	-182.237	0.236	0.005
-637.624	-51.491	-0.076	0.036
-636.609	800.000	-0.060	-0.202
-635.595	304.462	-0.133	0.251
-634.580	-4.538	-0.051	-0.036
-633.565	661.374	-0.094	-0.247
-632.551	-64.376	-0.305	0.127
-631.536	24.299	-0.162	0.136
-630.522	-151.371	0.257	0.019
-629.507	800.000	0.065	0.202
-628.492	-117.921	-0.108	0.020
-627.478	800.000	0.044	-0.165
-626.463	-103.239	-0.060	-0.014
-625.449	13.293	0.124	-0.098
-624.434	-92.565	-0.170	-0.049
-623.419	238.197	-0.058	0.098
-622.405	95.157	0.167	0.194
-621.390	40.635	-0.244	0.224
-620.376	-64.891	0.262	0.108
-619.361	-39.510	-0.163	-0.087
-618.346	-134.543	-0.167	-0.021
-617.332	104.651	0.113	0.136
-616.317	-55.412	0.188	-0.086
-615.303	-153.011	0.316	-0.023
-614.288	800.000	-0.056	-0.177
-613.273	-107.833	0.270	-0.060
-612.259	800.000	-0.089	0.294
-611.244	178.278	0.138	-0.206
-610.230	-97.949	-0.122	0.032
-609.215	-72.216	-0.406	-0.153
-608.201	-200.000	-0.032	-0.192
-607.186	443.094	-0.076	0.169
-606.171	-130.659	-0.204	0.028
-605.157	-132.466	-0.236	0.031
-604.142	29.477	0.077	-0.067
-603.128	800.000	0.125	-0.448
-602.113	378.074	-0.071	0.147
-601.098	308.707	0.146	-0.277
-600.084	253.230	0.154	-0.268
-599.069	-200.000	-0.006	-0.154
-598.055	-200.000	-0.011	-0.182
-597.040	108.050	-0.176	0.214
-596.025	143.114	-0.073	-0.099
-595.011	64.501	0.176	0.181
-593.996	77.695	-0.308	-0.334
-592.982	287.669	-0.196	-0.361
-591.967	-200.000	-0.021	-0.214
-590.952	-49.626	-0.181	0.088
-589.938	45.851	0.087	-0.082
-588.923	800.000	0.041	0.120
-587.909	220.959	-0.044	0.073
-586.894	70.969	0.170	-0.179
-585.879	105.205	0.048	0.058
-584.865	-33.616	0.101	-0.057
-583.850	-12.927	-0.327	-0.217
-582.836	83.862	0.051	-0.057
-581.821	284.395	-0.113	-0.207
-580.806	-95.916	0.529	0.143
-579.792	-200.000	0.010	0.196
-578.777	254.229	0.144	0.250
-577.763	-111.810	-0.269	-0.055
-576.748	-109.478	0.203	0.044
-575.733	-105.821	-0.166	0.038
-574.719	-200.000	0.008	-0.044
-573.704	324.039	0.192	0.373
-572.690	800.000	-0.098	-0.309
-571.675	81.784	-0.061	0.068
-570.661	82.491	0.236	-0.260
-569.646	-152.360	0.143	0.010
-568.631	-200.000	0.023	-0.352
-567.617	-8.361	0.452	0.309
-566.602	-186.583	-0.171	-0.002
-565.588	305.844	-0.097	0.184
-564.573	539.979	-0.095	0.230
-563.558	157.115	-0.032	0.046
-562.544	101.857	0.256	-0.304
-561.529	-79.310	0.256	0.088
-560.515	-38.286	-0.207	-0.112
-559.500	7.353	0.031	-0.023
-558.485	32.469	-0.103	0.091
-557.471	35.548	-0.096	0.085
-556.456	-200.000	0.015	-0.130
-555.442	498.999	0.088	0.206
-554.427	800.000	0.015	0.053
-553.412	-11.051	-0.235	0.158
-552.398	1.558	0.190	0.139
-551.383	6.341	0.229	-0.173
-550.369	-127.697	-0.160	0.024
-549.354	-143.824	0.120	-0.012
-548.339	-160.973	0.329	0.018
-547.325	66.245	0.047	0.048
-546.310	118.839	-0.049	0.061
-545.296	153.820	0.132	0.183
-544.281	-86.435	0.102	0.032
-543.266	659.829	0.092	0.240
-542.252	428.224	-0.045	-0.098
-541.237	133.244	0.138	-0.181
-540.223	81.604	-0.127	-0.140
-539.208	46.258	0.277	0.261
-538.193	-200.000	0.013	0.635
-537.179	-200.000	-0.015	0.262
-536.164	-124.099	0.196	-0.031
-535.150	-90.928	-0.175	0.051
-534.135	51.625	-0.032	-0.031
-533.121	-84.784	0.128	-0.041
-532.106	309.622	0.069	0.132
-531.091	-44.306	-0.188	0.095
-530.077	-64.401	0.179	-0.074
-529.062	270.761	0.152	0.271
-528.048	81.697	-0.101	0.111
-527.033	-48.230	0.145	-0.071
-526.018	-101.288	-0.167	0.041
-525.004	-200.000	0.054	0.268
-523.989	-170.482	-0.141	-0.005
-522.975	800.000	0.020	-0.076
-521.960	800.000	-0.116	-0.358
-520.945	-95.681	0.207	-0.056
-519.931	9.930	0.236	0.182
-518.916	192.615	-0.124	-0.189
-517.902	694.403	0.043	0.114
-516.887	-115.326	-0.365	0.070
-515.872	-134.149	-0.053	0.007
-514.858	-162.043	0.473	-0.024
-513.843	-200.000	-0.023	-0.263
-512.829	16.283	0.240	-0.192
-511.814	-138.443	-0.110	-0.012
-510.799	-3.252	-0.230	0.162
-509.785	217.781	0.207	0.334
-508.770	9.025	0.069	0.053
-507.756	-88.812	0.023	0.007
-506.741	800.000	0.031	-0.118
-505.726	-84.077	-0.299	0.096
-504.712	-90.599	0.208	0.061
-503.697	356.699	-0.057	0.116
-502.683	115.237	0.103	0.127
-501.668	27.783	0.104	-0.089
-500.653	-200.000	-0.018	-0.244
-499.639	800.000	0.073	0.236
-498.624	252.921	0.088	0.152
-497.610	-78.061	-0.295	-0.103
-496.595	800.000	0.011	0.039
-495.581	1.105	0.148	0.108
-494.566	143.473	-0.253	0.341
-493.551	-106.283	0.121	-0.028
-492.537	-128.040	0.548	-0.080
-491.522	-200.000	0.031	-0.448
-490.508	-200.000	-0.040	0.234
-489.493	286.614	0.027	-0.050
-488.478	4.292	0.125	-0.093
-487.464	-69.322	0.083	0.032
-486.449	507.620	0.090	-0.211
-485.435	396.091	-0.157	0.332
-484.420	-4.820	0.175	0.123
-483.405	-5.348	-0.213	0.148
-482.391	748.738	-0.098	0.267
-481.376	168.388	-0.040	-0.058
-480.362	-90.781	0.094	0.028
-479.347	735.740	-0.083	0.224
-478.332	-47.350	-0.138	0.068
-477.318	-141.300	-0.221	-0.023
-476.303	62.425	-0.059	0.060
-475.289	-200.000	0.051	-0.553
-474.274	-140.742	-0.208	0.022
-473.259	-200.000	-0.044	0.319
-472.245	800.000	-0.054	-0.222
-471.230	194.487	-0.102	0.157
-470.216	572.504	0.082	-0.201
-469.201	201.705	-0.102	0.159
-468.186	-18.822	-0.203	0.128
-467.172	-200.000	-0.058	-0.306
-466.157	236.862	-0.129	0.216
-465.143	470.315	0.047	-0.106
-464.128	-128.691	0.068	-0.010
-463.113	30.788	-0.134	-0.116
-462.099	800.000	-0.046	-0.168
-461.084	8.290	-0.210	0.159
-460.070	-200.000	-0.003	-0.209
-459.055	-68.828	-0.066	-0.026
-458.040	395.800	-0.085	0.179
-457.026	195.463	0.110	-0.169
-456.011	800.000	0.031	0.112
-454.997	-200.000	-0.050	-0.318
-453.982	-200.000	0.030	0.282
-452.968	-128.578	-0.423	-0.061
-451.953	46.245	0.247	-0.232
-450.938	-200.000	0.048	-0.265
-449.924	62.478	0.232	0.234
-448.909	-130.107	-0.267	0.037
-447.895	-177.793	0.276	0.007
-446.880	-200.000	0.008	0.144
-445.865	614.847	-0.070	0.178
-444.851	34.023	0.190	0.167
-443.836	386.736	0.120	0.251
-442.822	-200.000	0.017	0.330
-441.807	-56.470	0.194	-0.087
-440.792	800.000	-0.016	0.045
-439.778	-200.000	0.005	0.245
-438.763	-154.210	0.201	0.014
-437.749	-200.000	0.029	-0.410
-436.734	743.455	0.033	-0.091
-435.719	-147.829	-0.412	0.035
-434.705	98.397	0.172	-0.200
-433.690	480.161	0.099	-0.227
-432.676	-170.278	0.057	-0.002
-431.661	171.499	0.055	-0.079
-430.646	-161.655	-0.564	-0.029
-429.632	79.699	0.215	0.233
-428.617	-37.777	0.247	-0.133
-427.603	150.412	-0.067	-0.092
-426.588	-200.000	0.056	0.291
-425.573	-141.608	0.129	-0.013
-424.559	-200.000	0.008	-0.099
-423.544	-60.587	-0.034	-0.014
-422.530	179.586	-0.169	-0.250
-421.515	38.011	-0.253	-0.227
-420.500	-61.675	0.185	-0.078
-419.486	170.311	0.124	-0.180
-418.471	-200.000	-0.014	0.319
-417.457	-200.000	0.011	0.192
-416.442	800.000	0.083	0.330
-415.428	-200.000	-0.027	0.212
-414.413	-148.102	-0.123	0.010
-413.398	328.509	0.131	0.255
-412.384	112.835	0.064	-0.078
-411.369	-59.828	0.246	-0.106
-410.355	-141.269	0.192	0.020
-409.340	150.353	0.206	0.283
-408.325	800.000	-0.072	-0.230
-407.311	-25.862	0.136	0.081
-406.296	-200.000	0.001	-0.167
-405.282	187.855	0.213	0.321
-404.267	711.752	0.117	0.312
-403.252	-87.350	-0.343	0.105
-402.238	47.621	0.266	0.251
-401.223	346.867	0.037	-0.074
-400.209	-200.000	0.021	0.194
-399.194	800.000	-0.056	-0.183
-398.179	-118.859	-0.105	0.019
-397.165	-39.980	0.089	0.047
-396.150	-200.000	0.037	0.168
-395.136	492.306	-0.060	0.138
-394.121	-83.088	-0.162	-0.053
-393.106	134.057	0.011	0.014
-392.092	-200.000	-0.015	0.180
-391.077	-85.396	0.129	0.041
-390.063	800.000	0.032	0.127
-389.048	140.811	-0.028	0.038
-388.033	200.635	-0.216	-0.335
-387.019	145.685	0.216	-0.293
-386.004	-157.751	-0.290	0.017
-384.990	-90.994	-0.323	-0.094
-383.975	12.308	-0.210	-0.164
-382.960	-200.000	-0.037	-0.212
-381.946	-47.418	0.069	-0.034
-380.931	-200.000	0.009	-0.326
-379.917	-128.182	-0.562	0.081
-378.902	-107.724	-0.233	0.051
-377.888	-102.428	0.072	-0.017
-376.873	-96.586	-0.396	0.105
-375.858	-56.003	0.141	0.063
-374.844	-151.169	0.302	-0.023
-373.829	-200.000	0.022	-0.105
-372.815	148.950	-0.036	0.049
-371.800	-136.842	0.129	-0.015
-370.785	-54.286	-0.380	-0.174
-369.771	41.969	-0.084	0.077
-368.756	20.358	-0.199	-0.162
-367.742	800.000	-0.082	0.326
-366.727	262.786	-0.164	-0.288
-365.712	-73.344	0.076	-0.028
-364.698	177.507	-0.035	-0.052
-363.683	-108.153	0.171	0.037
-362.669	-157.793	-0.267	-0.016
-361.654	190.181	0.093	-0.141
-360.639	-200.000	-0.021	0.153
-359.625	318.678	0.229	0.438
-358.610	-200.000	-0.004	0.237
-357.596	59.026	-0.082	-0.081
-356.581	-200.000	0.000	-0.210
-355.566	800.000	-0.063	-0.233
-354.552	-2.113	-0.083	-0.059
-353.537	-131.397	-0.101	-0.013
-352.523	254.279	-0.036	0.062
-351.508	-6.828	0.273	0.187
-350.493	-193.489	0.097	-0.001
-349.479	-194.868	-0.127	-0.001
-348.464	26.224	-0.125	-0.105
-347.450	-130.174	0.043	-0.006
-346.435	-44.263	-0.293	-0.148
-345.420	-200.000	-0.081	0.377
-344.406	393.931	0.169	0.356
-343.391	-179.419	-0.326	-0.007
-342.377	-72.450	0.119	-0.044
-341.362	220.265	-0.120	0.193
-340.348	-1.283	0.287	-0.204
-339.333	-200.000	-0.000	-0.125
-338.318	49.440	0.133	-0.127
-337.304	250.697	0.079	-0.136
-336.289	379.127	-0.154	-0.318
-335.275	-200.000	0.045	-0.255
-334.260	-200.000	-0.018	-0.145
-333.245	-26.216	-0.224	0.132
-332.231	-200.000	-0.016	-0.184
-331.216	-31.265	-0.066	-0.038
-330.202	23.020	0.031	0.025
-329.187	-39.432	0.149	-0.079
-328.172	-121.246	0.010	-0.002
-327.158	82.921	-0.095	0.105
-326.143	645.479	0.049	0.126
-325.129	294.942	0.229	-0.421
-324.114	123.934	-0.161	0.203
-323.099	-200.000	-0.004	0.099
-322.085	-200.000	-0.052	0.587
-321.070	-125.198	0.331	0.051
-320.056	64.788	-0.353	-0.359
-319.041	33.603	-0.255	0.223
-318.026	800.000	-0.035	-0.127
-317.012	800.000	0.003	0.013
-315.997	-200.000	0.007	-0.047
-314.983	-200.000	0.043	0.286
-313.968	-88.105	-0.143	0.043
-312.953	-200.000	0.039	-0.276
-311.939	230.765	-0.154	-0.254
-310.924	-124.775	-0.235	0.037
-309.910	80.624	0.044	0.048
-308.895	73.001	0.079	0.083
-307.880	195.626	-0.086	0.132
-306.866	147.531	-0.175	0.238
-305.851	289.038	0.071	-0.129
-304.837	760.861	-0.087	-0.238
-303.822	800.000	0.016	-0.066
-302.807	9.560	0.190	-0.145
-301.793	42.563	-0.144	-0.132
-300.778	98.595	0.112	-0.130
-299.764	800.000	-0.046	0.140
-298.749	465.405	-0.061	0.138
-297.735	281.126	-0.139	-0.250
-296.720	-36.541	0.274	-0.149
-295.705	-200.000	0.004	0.119
-294.691	-84.591	0.278	0.088
-293.676	-91.416	0.170	0.049
-292.662	-142.328	-0.199	0.020
-291.647	253.096	-0.042	-0.071
-290.632	-137.828	0.134	0.015
-289.618	164.387	0.117	-0.165
-288.603	194.094	-0.121	0.185
-287.589	-22.662	0.167	-0.101
-286.574	1.205	0.175	-0.126
-285.559	-35.771	0.101	-0.055
-284.545	-200.000	-0.023	0.253
-283.530	-93.515	-0.150	-0.042
-282.516	-87.526	0.084	-0.026
-281.501	61.173	0.162	-0.162
-280.486	-200.000	0.015	-0.068
-279.472	-200.000	-0.011	-0.199
-278.457	-200.000	-0.036	-0.235
-277.443	5.544	0.070	-0.052
-276.428	-24.440	0.222	-0.133
-275.413	-200.000	-0.035	-0.160
-274.399	-35.008	-0.059	-0.032
-273.384	25.638	0.017	-0.014
-272.370	800.000	0.059	0.223
-271.355	-200.000	-0.002	-0.024
-270.340	168.361	0.114	-0.164
-269.326	-123.429	0.167	-0.027
-268.311	-63.261	-0.382	0.158
-267.297	-62.680	-0.123	-0.051
-266.282	-181.370	0.088	-0.002
-265.267	223.332	0.206	-0.333
-264.253	549.739	-0.097	-0.233
-263.238	800.000	0.077	0.330
-262.224	-97.210	-0.237	0.062
-261.209	-200.000	-0.020	0.168
-260.195	-142.761	0.213	-0.021
-259.180	142.647	-0.171	0.228
-258.165	-200.000	-0.017	0.125
-257.151	104.207	-0.081	-0.096
-256.136	-25.804	0.275	-0.163
-255.122	-129.119	-0.156	0.022
-254.107	-70.846	0.097	0.037
-253.092	-122.408	0.238	0.039
-252.078	-46.004	-0.249	0.123
-251.063	800.000	-0.083	-0.287
-250.049	16.293	0.217	0.172
-249.034	51.185	0.165	-0.157
-248.019	17.395	-0.146	-0.116
-247.005	-160.233	0.292	-0.016
-245.990	76.354	-0.053	-0.056
-244.976	185.398	0.160	0.238
-243.961	155.768	0.048	0.067
-242.946	134.338	-0.083	0.108
-241.932	-121.402	0.158	0.026
-240.917	-82.080	-0.196	-0.064
-239.903	637.669	0.065	-0.165
-238.888	-200.000	-0.011	-0.101
-237.873	-21.165	0.199	-0.122
-236.859	-66.342	-0.125	0.050
-235.844	-200.000	0.006	0.152
-234.830	-66.992	-0.129	-0.051
-233.815	471.798	0.041	0.093
-232.800	22.973	-0.242	0.200
-231.786	-130.534	0.214	-0.029
-230.771	155.224	-0.081	0.112
-229.757	-200.000	0.026	0.128
-228.742	-109.101	0.458	0.098
-227.727	108.646	0.173	-0.207
-226.713	-157.584	0.142	0.009
-225.698	636.783	-0.042	0.107
-224.684	-171.037	0.328	0.011
-223.669	-60.994	0.259	0.110
-222.655	-90.607	-0.221	-0.064
-221.640	69.742	-0.139	-0.143
-220.625	192.517	0.103	-0.155
-219.611	43.444	0.117	0.107
-218.596	-135.498	0.214	0.026
-217.582	44.855	-0.250	0.231
-216.567	800.000	0.051	0.212
-215.552	36.033	0.206	-0.182
-214.538	85.044	-0.058	-0.064
-213.523	115.953	0.038	0.046
-212.509	12.373	-0.163	0.126
-211.494	263.392	0.172	-0.300
-210.479	-78.651	-0.211	0.072
-209.465	-200.000	-0.031	-0.291
-208.450	-139.876	-0.311	0.033
-207.436	13.230	-0.250	0.194
-206.421	-4.182	-0.225	0.156
-205.406	77.444	0.106	0.113
-204.392	0.004	-0.290	-0.207
-203.377	-104.744	-0.233	-0.054
-202.363	-154.349	0.147	-0.010
-201.348	0.124	0.186	-0.133
-200.333	-200.000	0.063	0.325
-199.319	800.000	-0.041	-0.169
-198.304	-30.027	0.014	-0.008
-197.290	-164.531	-0.120	-0.005
-196.275	-93.531	-0.298	-0.083
-195.260	-200.000	0.040	0.293
-194.246	-182.049	-0.269	0.005
-193.231	-164.078	0.263	0.012
-192.217	-58.207	-0.147	-0.064
-191.202	-113.177	-0.245	-0.048
-190.187	-200.000	-0.065	-0.463
-189.173	-200.000	-0.014	-0.110
-188.158	6.449	0.331	-0.246
-187.144	800.000	-0.089	-0.252
-186.129	800.000	-0.112	-0.318
-185.114	-200.000	0.021	0.093
-184.100	-167.113	-0.050	-0.002
-183.085	21.567	-0.197	-0.160
-182.071	41.137	0.332	0.300
-181.056	515.271	-0.112	0.262
-180.042	-69.920	0.165	-0.063
-179.027	-200.000	0.027	-0.328
-178.012	800.000	-0.032	-0.109
-176.998	-200.000	-0.012	0.433
-175.983	216.846	-0.061	0.097
-174.969	-87.075	0.118	0.036
-173.954	-18.404	0.190	0.119
-172.939	-200.000	-0.047	-0.222
-171.925	45.343	0.209	-0.193
-170.910	-130.908	0.146	-0.020
-169.896	244.995	-0.068	0.115
-168.881	73.760	-0.049	0.051
-167.866	-7.187	-0.138	0.094
-166.852	202.133	0.100	0.155
-165.837	-200.000	-0.022	-0.406
-164.823	306.028	-0.102	-0.191
-163.808	-118.164	0.128	0.023
-162.793	66.227	0.180	0.183
-161.779	-32.834	-0.274	0.152
-160.764	156.410	0.145	-0.200
-159.750	800.000	0.068	0.201
-158.735	-12.035	-0.230	0.151
-157.720	81.739	-0.094	0.102
-156.706	-144.670	0.202	-0.019
-155.691	-90.405	0.405	0.118
-154.677	-200.000	0.033	-0.256
-153.662	373.527	-0.066	-0.134
-152.647	-115.126	-0.136	0.026
-151.633	-90.899	-0.197	-0.057
-150.618	-62.049	0.300	0.125
-149.604	-115.505	0.151	-0.028
-148.589	143.080	-0.071	-0.095
-147.574	-143.859	0.340	0.032
-146.560	-87.047	0.247	0.075
-145.545	3.205	0.057	0.042
-144.531	306.436	-0.200	0.372
-143.516	-58.671	0.435	0.188
-142.502	-72.040	0.178	-0.066
-141.487	11.032	-0.139	0.106
-140.472	-116.414	0.244	0.045
-139.458	28.470	0.244	0.206
-138.443	-85.102	-0.102	-0.032
-137.429	-97.431	-0.487	-0.127
-136.414	-187.798	0.121	-0.002
-135.399	-86.558	0.200	0.061
-134.385	365.200	0.030	0.060
-133.370	-200.000	0.071	0.392
-132.356	800.000	0.076	-0.235
-131.341	101.130	0.147	0.170
-130.326	-11.547	0.152	-0.100
-129.312	18.847	0.091	0.073
-128.297	505.314	0.083	-0.191
-127.283	94.945	-0.036	-0.041
-126.268	-112.043	-0.276	-0.056
-125.253	-0.705	0.210	0.149
-124.239	-200.000	-0.051	-0.367
-123.224	800.000	-0.017	0.073
-122.210	179.745	-0.161	-0.235
