DTS Sentinel unit serial number:	SN413079Multiplexer serial number:	ORYXHardware model number:	OX4-SRSoftware version number:	ORYX F/W v4.00 Oryx Data Collector v3.7.2.0data status	okinstallation	princeton_trtdifferential loss correction	single-endedforward channel	channel 1reverse channel	N/Adate	2019/09/10time	19:08:11forward acquisition time	60.00reverse acquisition time	0.00gamma	496.2192k internal	0.2316k external	0.2316temperature offset calibration	0.9926default loss term (dB/km)	0.3790temperature slope calibration	1.0000multiplexer offset coefficient	1.0000multiplexer slope coefficient	1.0000fibre end	0.00T internal ref (°C)	34.25T ext. ref 1 (°C)	-0.36T ext. ref 2 (°C)	26.50length (m)	temperature (°C)	Stokes	anti-Stokes-747.200	223.949	0.117	-0.191
-746.185	-200.000	0.046	0.228
-745.171	524.274	-0.154	0.368
-744.156	800.000	-0.089	0.353
-743.142	63.571	0.099	-0.101
-742.127	-16.492	-0.210	-0.135
-741.112	-5.888	-0.022	0.015
-740.098	-61.299	-0.034	-0.015
-739.083	617.692	0.054	0.136
-738.069	672.583	0.120	0.315
-737.054	-200.000	0.011	-0.532
-736.039	-136.734	0.199	0.023
-735.025	1.891	-0.083	-0.061
-734.010	-154.497	-0.157	0.011
-732.996	-200.000	-0.009	-0.320
-731.981	83.351	-0.150	-0.166
-730.966	-133.734	0.164	-0.021
-729.952	163.456	0.065	-0.093
-728.937	-125.834	-0.171	-0.026
-727.923	211.253	0.202	-0.322
-726.908	800.000	0.049	0.161
-725.894	208.350	-0.080	0.126
-724.879	800.000	-0.080	-0.316
-723.864	291.379	-0.080	-0.147
-722.850	-67.460	-0.264	0.105
-721.835	412.991	-0.186	-0.400
-720.821	-101.388	0.372	0.092
-719.806	28.283	0.126	-0.108
-718.791	-164.106	-0.171	0.008
-717.777	84.061	0.096	0.106
-716.762	-200.000	-0.006	0.208
-715.748	-200.000	0.026	-0.182
-714.733	-36.707	-0.367	-0.200
-713.718	19.521	-0.131	0.107
-712.704	484.284	-0.096	-0.221
-711.689	34.456	-0.273	0.241
-710.675	-26.370	0.249	-0.148
-709.660	-200.000	-0.008	0.108
-708.645	19.015	-0.153	0.124
-707.631	-148.206	-0.108	0.009
-706.616	9.941	-0.229	0.176
-705.602	25.251	0.254	-0.213
-704.587	474.928	0.070	-0.161
-703.572	-200.000	-0.009	0.050
-702.558	-134.202	-0.087	-0.011
-701.543	-67.228	0.215	0.085
-700.529	50.761	-0.094	0.090
-699.514	-0.832	0.123	-0.088
-698.499	-200.000	-0.020	-0.224
-697.485	-200.000	-0.028	-0.467
-696.470	-69.575	-0.005	-0.002
-695.456	559.423	-0.044	0.109
-694.441	800.000	0.125	-0.428
-693.426	746.741	0.091	-0.248
-692.412	316.019	0.082	-0.157
-691.397	-17.223	0.334	-0.213
-690.383	-27.816	-0.060	0.035
-689.368	139.265	0.135	-0.179
-688.354	-33.034	-0.050	0.028
-687.339	-200.000	0.003	-0.067
-686.324	-4.341	-0.175	-0.123
-685.310	-71.419	0.392	-0.148
-684.295	269.473	-0.131	-0.233
-683.281	-200.000	-0.020	-0.357
-682.266	322.861	-0.089	0.172
-681.251	-42.230	-0.440	0.227
-680.237	565.108	-0.071	0.173
-679.222	-200.000	-0.021	-0.228
-678.208	-200.000	-0.006	-0.102
-677.193	153.100	-0.152	-0.211
-676.178	15.730	-0.219	-0.174
-675.164	-200.000	-0.020	-0.299
-674.149	164.114	0.119	0.169
-673.135	-79.395	-0.075	0.026
-672.120	399.025	-0.134	0.284
-671.105	-57.949	0.146	-0.064
-670.091	75.408	-0.132	-0.140
-669.076	-57.860	0.157	0.069
-668.062	-117.961	-0.160	0.029
-667.047	800.000	0.056	-0.159
-666.032	-83.910	0.412	0.132
-665.018	64.189	-0.127	-0.129
-664.003	-109.473	-0.514	0.110
-662.989	205.597	-0.197	0.309
-661.974	-97.039	0.183	0.048
-660.959	800.000	-0.048	0.156
-659.945	13.637	0.157	-0.123
-658.930	-200.000	-0.011	0.069
-657.916	-124.417	0.460	0.072
-656.901	-89.417	-0.403	0.120
-655.886	-84.080	-0.245	-0.079
-654.872	-45.883	-0.241	-0.120
-653.857	-46.801	0.082	-0.040
-652.843	88.378	-0.256	-0.286
-651.828	-121.334	0.116	-0.019
-650.814	-120.557	0.205	0.035
-649.799	430.298	0.287	-0.626
-648.784	-200.000	-0.089	-0.419
-647.770	800.000	0.064	-0.193
-646.755	403.035	0.018	-0.039
-645.741	800.000	-0.046	-0.202
-644.726	222.142	-0.024	-0.039
-643.711	171.672	0.225	0.326
-642.697	-200.000	0.017	0.348
-641.682	628.274	0.118	-0.301
-640.668	-85.676	0.256	-0.080
-639.653	-161.519	-0.352	-0.018
-638.638	-44.928	0.119	0.060
-637.624	800.000	-0.123	0.367
-636.609	-193.023	0.473	0.004
-635.595	-77.739	-0.102	0.036
-634.580	574.284	0.146	-0.360
-633.565	137.006	-0.093	-0.123
-632.551	-51.748	-0.086	-0.040
-631.536	-40.662	-0.181	-0.094
-630.522	-200.000	-0.019	-0.130
-629.507	30.722	-0.068	0.059
-628.492	-165.756	0.090	-0.004
-627.478	-200.000	-0.024	-0.237
-626.463	104.125	-0.156	0.185
-625.449	658.948	0.023	-0.059
-624.434	746.679	-0.112	-0.303
-623.419	800.000	-0.068	-0.229
-622.405	372.285	0.256	0.524
-621.390	-167.406	0.202	-0.008
-620.376	161.762	-0.219	-0.309
-619.361	34.699	-0.215	0.189
-618.346	-162.052	0.302	-0.015
-617.332	800.000	-0.028	-0.110
-616.317	-200.000	0.038	0.272
-615.303	-92.934	-0.156	0.044
-614.288	-95.717	0.353	0.095
-613.273	-101.384	-0.309	0.076
-612.259	-137.335	0.170	0.019
-611.244	-55.516	-0.106	0.048
-610.230	800.000	-0.076	0.233
-609.215	800.000	0.090	0.281
-608.201	30.601	0.197	-0.170
-607.186	800.000	0.033	-0.101
-606.171	152.439	0.203	0.280
-605.157	251.920	-0.258	-0.443
-604.142	83.720	-0.060	-0.066
-603.128	49.180	-0.167	0.158
-602.113	-71.160	0.114	0.043
-601.098	347.543	-0.163	-0.323
-600.084	800.000	0.051	-0.149
-599.069	800.000	0.044	0.142
-598.055	42.887	-0.224	0.205
-597.040	62.863	0.093	0.094
-596.025	13.063	-0.165	0.128
-595.011	13.515	-0.285	-0.223
-593.996	-200.000	0.035	0.202
-592.982	-200.000	0.055	-0.400
-591.967	269.904	-0.049	0.087
-590.952	0.452	-0.138	-0.099
-589.938	800.000	0.071	0.262
-588.923	238.606	0.067	0.113
-587.909	1.675	0.044	0.032
-586.894	-4.002	0.278	-0.194
-585.879	167.977	0.141	0.202
-584.865	-154.713	-0.224	0.015
-583.850	38.660	-0.286	-0.256
-582.836	-200.000	0.030	-0.176
-581.821	-21.077	-0.213	0.131
-580.806	219.645	0.111	0.178
-579.792	-14.036	-0.026	-0.017
-578.777	200.223	-0.144	-0.223
-577.763	-160.907	0.110	-0.006
-576.748	-176.541	-0.377	0.010
-575.733	-139.230	-0.300	-0.033
-574.719	-53.813	0.175	-0.080
-573.704	800.000	0.081	-0.300
-572.690	-200.000	-0.036	0.245
-571.675	717.528	-0.072	-0.192
-570.661	238.237	-0.112	0.187
-569.646	28.357	0.207	-0.176
-568.631	-77.364	-0.158	0.055
-567.617	-3.168	-0.128	-0.090
-566.602	-142.900	-0.032	0.003
-565.588	296.876	0.032	-0.058
-564.573	465.736	0.130	0.292
-563.558	190.291	-0.059	-0.090
-562.544	192.242	-0.081	-0.123
-561.529	253.990	-0.048	0.082
-560.515	-200.000	-0.006	0.070
-559.500	-38.447	-0.403	-0.214
-558.485	-198.404	0.158	-0.001
-557.471	-200.000	0.009	-0.196
-556.456	-200.000	-0.032	0.299
-555.442	-200.000	-0.022	0.106
-554.427	800.000	0.101	0.280
-553.412	-5.115	-0.236	-0.163
-552.398	-110.146	-0.272	-0.057
-551.383	-200.000	-0.005	-0.198
-550.369	-42.019	0.110	0.057
-549.354	-154.655	0.290	0.019
-548.339	800.000	0.050	-0.189
-547.325	673.022	-0.113	0.294
-546.310	271.382	-0.116	-0.206
-545.296	-200.000	0.010	0.305
-544.281	-52.189	-0.033	0.015
-543.266	786.440	-0.152	0.418
-542.252	-16.883	0.203	-0.129
-541.237	444.501	-0.099	-0.218
-540.223	-105.478	-0.214	0.049
-539.208	7.542	0.057	0.043
-538.193	165.915	-0.069	-0.098
-537.179	409.730	0.133	-0.283
-536.164	-94.513	-0.123	-0.034
-535.150	598.475	-0.070	-0.174
-534.135	-78.537	0.350	0.120
-533.121	-69.367	-0.206	-0.079
-532.106	-28.295	0.384	0.223
-531.091	-200.000	0.025	0.395
-530.077	-179.015	0.255	0.006
-529.062	-141.464	0.255	0.026
-528.048	-61.630	-0.246	-0.104
-527.033	-95.363	0.317	-0.086
-526.018	-6.860	-0.301	0.206
-525.004	233.648	0.148	0.244
-523.989	-40.636	-0.431	0.224
-522.975	4.014	-0.281	0.207
-521.960	203.706	0.047	0.074
-520.945	68.983	-0.294	0.303
-519.931	-92.951	0.122	0.034
-518.916	-200.000	0.013	-0.080
-517.902	339.599	-0.086	0.169
-516.887	800.000	0.024	0.080
-515.872	265.754	0.102	-0.179
-514.858	-106.384	0.192	-0.043
-513.843	-148.796	-0.113	0.009
-512.829	-78.246	-0.136	-0.047
-511.814	-136.600	0.140	0.016
-510.799	800.000	-0.031	-0.126
-509.785	328.411	0.111	0.214
-508.770	800.000	-0.073	0.315
-507.756	-76.083	0.209	-0.074
-506.741	-200.000	-0.084	0.442
-505.726	143.682	0.129	0.173
-504.712	800.000	-0.048	-0.182
-503.697	-8.743	-0.145	-0.098
-502.683	421.933	-0.111	0.238
-501.668	1.702	0.045	0.032
-500.653	-200.000	-0.016	0.209
-499.639	176.065	-0.163	0.237
-498.624	-38.478	-0.146	-0.078
-497.610	-200.000	-0.005	0.091
-496.595	-26.086	0.136	0.080
-495.581	-192.075	0.109	-0.001
-494.566	303.946	-0.139	0.258
-493.551	472.965	0.113	0.255
-492.537	-200.000	0.012	-0.112
-491.522	-200.000	-0.011	0.141
-490.508	-200.000	0.056	-0.454
-489.493	-45.869	-0.070	-0.034
-488.478	71.377	-0.299	-0.311
-487.464	118.618	-0.231	-0.286
-486.449	361.563	0.111	0.222
-485.435	122.582	0.091	-0.114
-484.420	41.109	-0.462	-0.418
-483.405	73.531	-0.365	-0.383
-482.391	-136.209	0.173	0.020
-481.376	-56.331	0.341	-0.152
-480.362	-61.237	0.324	0.137
-479.347	96.368	-0.126	-0.144
-478.332	244.850	-0.076	0.128
-477.318	-200.000	0.008	-0.150
-476.303	100.859	-0.042	0.049
-475.289	214.213	-0.179	-0.285
-474.274	-200.000	-0.011	0.110
-473.259	-96.790	0.270	-0.071
-472.245	419.465	0.079	-0.170
-471.230	-126.342	-0.189	-0.028
-470.216	51.115	0.251	0.238
-469.201	184.872	-0.070	-0.105
-468.186	79.185	0.217	-0.233
-467.172	-120.078	-0.234	-0.040
-466.157	24.067	0.210	-0.174
-465.143	158.602	0.053	0.073
-464.128	46.086	0.223	0.207
-463.113	800.000	-0.037	-0.159
-462.099	-129.321	-0.154	-0.021
-461.084	34.693	0.174	0.153
-460.070	-98.907	0.147	0.037
-459.055	747.315	-0.111	0.300
-458.040	-200.000	-0.015	-0.100
-457.026	24.597	0.129	0.107
-456.011	800.000	0.056	0.225
-454.997	-200.000	0.012	0.101
-453.982	-91.016	0.252	0.073
-452.968	-73.804	0.270	-0.098
-451.953	-81.984	-0.213	0.070
-450.938	32.492	0.125	-0.109
-449.924	95.230	-0.096	0.110
-448.909	35.157	-0.128	-0.112
-447.895	-50.009	-0.088	0.042
-446.880	-65.500	0.049	-0.020
-445.865	-132.107	-0.226	0.029
-444.851	-2.245	0.271	0.190
-443.836	-92.733	-0.331	-0.093
-442.822	800.000	-0.026	-0.073
-441.807	800.000	0.147	-0.575
-440.792	124.171	0.086	-0.108
-439.778	470.141	-0.145	0.325
-438.763	543.098	-0.115	0.274
-437.749	-52.507	-0.381	0.176
-436.734	255.665	-0.053	-0.090
-435.719	-19.983	-0.095	-0.059
-434.705	-87.066	0.313	-0.095
-433.690	6.949	-0.295	-0.220
-432.676	287.597	-0.093	0.168
-431.661	226.455	0.020	-0.032
-430.646	-15.925	-0.043	0.028
-429.632	-200.000	0.026	0.292
-428.617	-200.000	0.020	-0.090
-427.603	-113.945	0.101	0.020
-426.588	-124.874	-0.274	-0.042
-425.573	92.290	0.204	0.230
-424.559	-168.209	-0.291	0.011
-423.544	48.706	0.175	-0.164
-422.530	71.246	0.135	-0.140
-421.515	15.342	0.104	-0.082
-420.500	-52.715	0.064	0.030
-419.486	-104.393	-0.200	0.046
-418.471	-149.791	0.174	-0.014
-417.457	57.118	0.325	-0.317
-416.442	-53.378	-0.281	-0.129
-415.428	-27.799	-0.116	-0.067
-414.413	800.000	0.054	0.183
-413.398	75.378	0.138	0.146
-412.384	-200.000	0.076	-0.354
-411.369	101.806	-0.206	0.240
-410.355	-111.335	0.187	0.038
-409.340	185.192	-0.075	-0.112
-408.325	-88.031	0.185	0.056
-407.311	800.000	-0.093	-0.321
-406.296	551.594	-0.068	0.164
-405.282	-200.000	0.031	-0.230
-404.267	-66.815	0.124	-0.049
-403.252	-200.000	-0.015	0.081
-402.238	67.650	-0.064	0.065
-401.223	55.032	-0.274	-0.265
-400.209	19.758	0.130	0.105
-399.194	-70.686	-0.186	0.070
-398.179	215.718	-0.138	-0.219
-397.165	18.281	0.308	-0.246
-396.150	-9.740	0.114	-0.076
-395.136	41.800	0.255	-0.231
-394.121	188.348	-0.075	-0.112
-393.106	240.864	-0.114	-0.189
-392.092	-200.000	0.001	-0.031
-391.077	142.332	-0.123	-0.164
-390.063	331.552	-0.145	-0.279
-389.048	-200.000	0.089	-0.423
-388.033	59.141	0.157	-0.154
-387.019	162.283	0.074	-0.104
-386.004	16.223	-0.080	0.063
-384.990	-61.795	-0.324	0.136
-383.975	800.000	-0.130	0.359
-382.960	-200.000	0.034	-0.165
-381.946	-67.876	0.149	-0.058
-380.931	-119.891	-0.137	0.024
-379.917	23.681	0.252	0.207
-378.902	-200.000	-0.013	-0.081
-377.888	-101.730	0.155	-0.038
-376.873	-200.000	0.022	-0.205
-375.858	569.931	-0.050	0.122
-374.844	65.565	0.044	0.044
-373.829	325.458	0.084	0.160
-372.815	249.569	0.035	0.059
-371.800	520.181	0.030	0.070
-370.785	-138.358	0.385	-0.042
-369.771	800.000	-0.050	0.172
-368.756	41.203	-0.166	0.150
-367.742	800.000	0.027	-0.095
-366.727	800.000	0.066	0.187
-365.712	-20.461	-0.168	-0.103
-364.698	181.959	-0.163	0.239
-363.683	-90.614	-0.112	0.032
-362.669	190.593	-0.125	0.187
-361.654	-66.738	0.165	0.065
-360.639	-133.132	0.174	-0.022
-359.625	-112.255	-0.270	-0.054
-358.610	210.596	-0.091	0.143
-357.596	149.189	0.138	0.186
-356.581	-78.774	0.303	0.103
-355.566	-13.211	-0.143	0.092
-354.552	1.821	0.238	-0.171
-353.537	800.000	0.104	-0.310
-352.523	94.716	-0.146	0.166
-351.508	-200.000	0.074	0.441
-350.493	250.338	-0.029	-0.049
-349.479	-98.776	0.187	-0.048
-348.464	-200.000	0.038	-0.311
-347.450	-80.721	0.074	-0.025
-346.435	-100.457	-0.397	0.098
-345.420	445.429	0.026	0.058
-344.406	-22.752	0.138	0.083
-343.391	-73.301	0.028	0.010
-342.377	-129.626	0.146	-0.020
-341.362	-200.000	-0.060	-0.359
-340.348	-95.224	-0.235	0.063
-339.333	-85.692	0.260	0.081
-338.318	-90.588	0.304	-0.088
-337.304	208.143	-0.184	0.287
-336.289	-200.000	-0.017	0.350
-335.275	-69.450	0.326	-0.124
-334.260	800.000	0.057	-0.157
-333.245	-200.000	-0.005	-0.189
-332.231	800.000	0.090	0.375
-331.216	329.604	0.065	0.124
-330.202	800.000	0.039	0.163
-329.187	566.462	-0.048	-0.116
-328.172	-47.654	0.171	-0.083
-327.158	-82.006	-0.137	-0.045
-326.143	-200.000	0.056	-0.315
-325.129	-200.000	0.004	-0.381
-324.114	-26.413	0.261	-0.152
-323.099	800.000	0.031	0.108
-322.085	46.079	0.041	-0.038
-321.070	16.314	-0.045	0.035
-320.056	65.862	-0.337	0.340
-319.041	-61.480	0.141	0.059
-318.026	48.415	-0.197	-0.183
-317.012	-96.038	-0.390	-0.103
-315.997	-96.682	-0.284	-0.075
-314.983	-106.388	0.077	-0.017
-313.968	333.996	0.105	0.202
-312.953	13.983	0.051	-0.039
-311.939	18.291	0.074	0.059
-310.924	-127.538	0.001	0.000
-309.910	757.186	0.073	-0.196
-308.895	-200.000	-0.037	-0.319
-307.880	-108.630	-0.253	-0.054
-306.866	92.202	0.144	0.161
-305.851	-122.896	-0.120	-0.019
-304.837	-200.000	-0.034	0.255
-303.822	-82.758	-0.222	0.072
-302.807	-200.000	0.022	-0.175
-301.793	-118.217	-0.140	-0.025
-300.778	-193.557	-0.297	-0.003
-299.764	292.780	-0.068	-0.123
-298.749	-108.275	-0.181	0.039
-297.735	-200.000	0.020	-0.099
-296.720	-64.572	0.363	-0.147
-295.705	-93.811	0.252	-0.069
-294.691	-152.062	-0.244	0.018
-293.676	-36.513	0.177	0.095
-292.662	165.599	0.105	-0.148
-291.647	252.375	-0.088	-0.149
-290.632	-200.000	-0.008	-0.302
-289.618	800.000	-0.115	-0.344
-288.603	-200.000	-0.103	0.572
-287.589	15.219	-0.261	-0.204
-286.574	-53.063	0.272	0.124
-285.559	47.128	0.180	0.166
-284.545	-200.000	0.000	0.030
-283.530	800.000	0.070	-0.279
-282.516	-127.258	0.310	0.045
-281.501	-190.443	-0.223	-0.002
-280.486	800.000	-0.066	-0.222
-279.472	-200.000	-0.001	-0.405
-278.457	-137.057	0.371	-0.042
-277.443	800.000	-0.056	0.183
-276.428	-3.286	0.293	-0.203
-275.413	-7.338	0.248	0.167
-274.399	-34.471	0.264	-0.144
-273.384	-104.322	-0.067	0.016
-272.370	111.813	-0.233	0.279
-271.355	123.028	0.073	0.091
-270.340	800.000	0.069	-0.235
-269.326	371.055	0.033	0.066
-268.311	263.239	-0.062	0.108
-267.297	-50.966	0.172	-0.080
-266.282	451.172	-0.180	-0.394
-265.267	-200.000	0.051	0.565
-264.253	-200.000	0.010	0.139
-263.238	800.000	0.094	-0.261
-262.224	59.630	0.364	0.357
-261.209	88.634	-0.031	-0.034
-260.195	-117.436	-0.173	0.031
-259.180	43.952	0.368	0.335
-258.165	-86.683	0.088	-0.027
-257.151	31.769	0.231	0.197
-256.136	0.471	-0.228	0.162
-255.122	-78.093	-0.039	0.013
-254.107	109.647	-0.129	0.154
-253.092	-4.514	0.257	-0.177
-252.078	92.382	-0.052	0.058
-251.063	263.467	0.038	-0.066
-250.049	-70.556	-0.377	0.142
-249.034	-112.410	-0.218	-0.043
-248.019	83.868	0.139	0.151
-247.005	800.000	-0.044	-0.187
-245.990	-12.421	-0.134	0.087
-244.976	215.386	-0.087	0.137
-243.961	-94.558	0.258	-0.070
-242.946	160.115	-0.158	-0.219
-241.932	-147.016	0.161	-0.014
-240.917	4.429	0.163	0.118
-239.903	397.824	-0.161	0.334
-238.888	-182.890	0.094	-0.002
-237.873	42.072	-0.143	0.129
-236.859	196.475	0.228	-0.345
-235.844	800.000	-0.029	0.122
-234.830	152.436	0.205	0.277
-233.815	-200.000	0.020	-0.237
-232.800	22.391	-0.220	0.179
-231.786	-73.327	-0.111	0.040
-230.771	13.942	-0.103	0.079
-229.757	-200.000	0.003	-0.030
-228.742	-169.902	0.281	-0.010
-227.727	614.736	0.061	0.151
-226.713	-200.000	0.019	0.151
-225.698	-79.222	0.126	-0.042
-224.684	250.675	-0.111	-0.186
-223.669	204.093	0.108	-0.165
-222.655	128.220	-0.083	0.105
-221.640	319.663	-0.076	0.143
-220.625	-119.429	0.127	-0.022
-219.611	-200.000	-0.028	-0.389
-218.596	-179.504	-0.138	-0.003
-217.582	800.000	-0.128	0.363
-216.567	486.108	-0.110	0.248
-215.552	34.126	-0.292	0.252
-214.538	-200.000	0.005	-0.051
-213.523	-159.246	-0.136	0.008
-212.509	381.644	-0.070	-0.142
-211.494	-200.000	-0.031	0.139
-210.479	-49.684	-0.394	-0.186
-209.465	57.879	0.283	-0.275
-208.450	231.512	-0.106	0.172
-207.436	582.279	0.219	0.534
-206.421	-200.000	-0.039	-0.308
-205.406	-200.000	0.012	0.207
-204.392	-17.519	-0.112	0.070
-203.377	41.060	-0.076	-0.068
-202.363	490.232	0.080	0.182
-201.348	800.000	-0.028	0.105
-200.333	-131.185	-0.094	0.012
-199.319	800.000	0.114	-0.343
-198.304	-72.496	0.038	-0.014
-197.290	-149.923	0.052	0.004
-196.275	-134.117	-0.074	-0.009
-195.260	-65.387	-0.223	0.089
-194.246	107.849	-0.087	-0.103
-193.231	198.091	-0.122	0.186
-192.217	-183.741	-0.240	-0.004
-191.202	800.000	-0.022	-0.078
-190.187	-121.163	0.226	0.038
-189.173	-2.590	0.291	-0.202
-188.158	-31.379	-0.061	0.034
-187.144	-30.059	0.118	0.067
-186.129	-200.000	0.020	0.182
-185.114	436.166	0.070	-0.151
-184.100	-79.705	-0.254	0.085
-183.085	-200.000	-0.031	-0.320
-182.071	-126.811	-0.233	0.034
-181.056	800.000	0.054	0.232
-180.042	-97.829	-0.126	-0.032
-179.027	-154.658	-0.390	0.026
-178.012	93.664	0.059	0.066
-176.998	739.948	0.179	0.477
-175.983	35.711	0.139	-0.121
-174.969	-200.000	0.010	-0.066
-173.954	800.000	-0.014	-0.051
-172.939	-45.012	-0.170	0.084
-171.925	570.893	0.194	-0.468
-170.910	193.979	0.068	-0.102
-169.896	227.516	-0.085	-0.137
-168.881	52.785	-0.136	-0.128
-167.866	-200.000	-0.010	-0.150
-166.852	377.749	-0.174	-0.352
-165.837	-150.678	0.163	0.012
-164.823	122.100	0.217	0.268
-163.808	-82.686	0.256	0.082
-162.793	-110.142	0.417	0.086
-161.779	-200.000	0.036	0.287
-160.764	377.146	-0.107	0.217
-159.750	-200.000	-0.042	0.223
-158.735	-200.000	0.006	-0.254
-157.720	30.391	0.163	0.138
-156.706	800.000	-0.044	-0.185
-155.691	4.479	-0.108	-0.079
-154.677	19.155	0.266	0.211
-153.662	22.933	0.216	0.176
-152.647	-89.739	0.133	-0.038
-151.633	188.756	0.055	0.082
-150.618	800.000	0.059	0.211
-149.604	-99.980	-0.174	-0.043
-148.589	-200.000	0.242	0.000
-147.574	800.000	0.115	-0.411
-146.560	800.000	-0.053	0.169
-145.545	-109.601	0.127	-0.026
-144.531	-200.000	-0.014	-0.210
-143.516	-136.714	0.064	-0.007
-142.502	-200.000	-0.054	0.485
-141.487	66.878	0.076	-0.076
-140.472	475.951	0.052	0.116
-139.458	-100.550	0.065	-0.016
-138.443	-200.000	0.035	-0.188
-137.429	800.000	-0.064	0.267
-136.414	72.109	0.337	-0.347
-135.399	800.000	0.052	-0.220
-134.385	164.759	0.071	0.099
-133.370	-135.951	0.254	-0.030
-132.356	193.916	-0.042	-0.063
-131.341	-96.049	-0.194	0.051
-130.326	-150.167	0.141	0.011
-129.312	-156.999	-0.088	0.005
-128.297	-182.770	0.217	-0.004
-127.283	215.478	-0.135	0.211
-126.268	800.000	0.051	0.151
-125.253	18.303	0.156	0.123
-124.239	20.338	0.270	-0.215
-123.224	-200.000	0.019	0.170
-122.210	45.829	-0.190	0.174
-121.195	68.389	-0.279	0.283
