DTS Sentinel unit serial number:	SN413079Multiplexer serial number:	ORYXHardware model number:	OX4-SRSoftware version number:	ORYX F/W v4.00 Oryx Data Collector v3.7.2.0data status	okinstallation	princeton_trtdifferential loss correction	single-endedforward channel	channel 1reverse channel	N/Adate	2019/09/14time	10:54:35forward acquisition time	60.00reverse acquisition time	0.00gamma	496.2192k internal	0.2301k external	0.2301temperature offset calibration	1.0077default loss term (dB/km)	0.3790temperature slope calibration	1.0000multiplexer offset coefficient	1.0000multiplexer slope coefficient	1.0000fibre end	0.00T internal ref (°C)	35.78T ext. ref 1 (°C)	4.34T ext. ref 2 (°C)	33.26length (m)	temperature (°C)	Stokes	anti-Stokes-747.200	276.049	-0.131	0.236
-746.185	800.000	0.064	0.197
-745.171	-200.000	-0.002	0.274
-744.156	26.841	-0.297	0.254
-743.142	-103.137	0.220	0.053
-742.127	23.116	0.196	-0.164
-741.112	612.249	-0.124	0.317
-740.098	63.520	0.287	0.294
-739.083	800.000	-0.014	-0.061
-738.069	8.162	0.089	0.068
-737.054	-96.501	-0.233	0.063
-736.039	-165.354	-0.274	-0.012
-735.025	-200.000	0.035	0.162
-734.010	-30.602	-0.233	0.135
-732.996	-75.295	-0.329	0.120
-731.981	-142.518	-0.345	0.034
-730.966	800.000	0.079	-0.318
-729.952	-104.031	0.192	-0.046
-728.937	-3.013	-0.211	-0.150
-727.923	274.912	0.094	-0.170
-726.908	130.945	-0.082	-0.107
-725.894	-200.000	-0.048	-0.347
-724.879	441.901	-0.116	-0.260
-723.864	117.290	-0.262	-0.328
-722.850	-31.464	-0.153	-0.088
-721.835	-97.705	-0.419	0.111
-720.821	14.892	0.182	0.145
-719.806	-177.334	0.250	0.006
-718.791	200.903	0.180	0.282
-717.777	-34.502	0.149	-0.083
-716.762	-89.672	-0.196	0.059
-715.748	-200.000	0.041	0.506
-714.733	24.417	0.102	0.086
-713.718	800.000	-0.068	-0.235
-712.704	-200.000	-0.023	0.326
-711.689	-48.392	0.354	0.174
-710.675	-200.000	-0.014	-0.144
-709.660	-171.611	0.218	0.007
-708.645	234.385	-0.059	-0.099
-707.631	95.844	-0.170	-0.197
-706.616	543.193	0.051	0.123
-705.602	159.421	0.227	-0.322
-704.587	-140.634	-0.345	0.036
-703.572	-92.526	0.125	-0.036
-702.558	324.684	-0.173	-0.337
-701.543	469.241	0.124	-0.284
-700.529	296.538	-0.143	0.268
-699.514	64.550	0.097	-0.100
-698.499	307.098	0.138	-0.262
-697.485	459.867	0.084	0.191
-696.470	-163.443	-0.516	0.025
-695.456	-121.268	-0.169	0.029
-694.441	6.092	0.079	0.060
-693.426	-20.113	0.132	0.083
-692.412	800.000	0.071	-0.204
-691.397	257.601	-0.213	-0.373
-690.383	78.512	-0.129	0.140
-689.368	77.896	-0.112	0.121
-688.354	-134.631	0.293	0.036
-687.339	425.540	-0.062	-0.135
-686.324	54.553	-0.305	-0.299
-685.310	-135.319	0.136	0.017
-684.295	-200.000	0.018	-0.117
-683.281	-200.000	-0.000	-0.052
-682.266	-178.758	0.273	-0.006
-681.251	800.000	-0.036	0.104
-680.237	113.851	0.228	0.281
-679.222	-128.357	-0.212	0.031
-678.208	-182.153	-0.278	-0.005
-677.193	800.000	-0.121	0.390
-676.178	188.904	0.091	0.139
-675.164	800.000	0.044	-0.133
-674.149	-53.522	0.235	-0.109
-673.135	-27.346	-0.132	-0.078
-672.120	-119.257	-0.503	0.089
-671.105	37.475	0.158	-0.143
-670.091	800.000	0.083	0.235
-669.076	8.624	-0.146	0.112
-668.062	519.807	0.075	-0.178
-667.047	491.494	0.068	-0.158
-666.032	174.009	0.181	-0.266
-665.018	432.771	-0.071	-0.157
-664.003	744.979	-0.132	0.362
-662.989	-76.773	-0.299	0.106
-661.974	-65.332	-0.053	-0.022
-660.959	-152.472	-0.117	0.009
-659.945	-66.751	-0.192	-0.077
-658.930	5.139	0.163	-0.122
-657.916	95.039	-0.222	-0.257
-656.901	218.437	0.226	-0.367
-655.886	24.369	-0.105	-0.089
-654.872	-14.471	-0.117	-0.077
-653.857	-200.000	-0.015	-0.464
-652.843	-92.485	-0.435	-0.124
-651.828	-54.989	-0.041	0.019
-650.814	17.473	0.122	0.099
-649.799	800.000	-0.023	0.074
-648.784	-13.748	0.210	-0.138
-647.770	314.881	0.052	-0.100
-646.755	10.626	-0.201	-0.155
-645.741	-170.060	-0.122	-0.004
-644.726	-200.000	-0.016	0.084
-643.711	-91.451	-0.202	-0.059
-642.697	-200.000	-0.006	-0.033
-641.682	-182.174	0.178	-0.003
-640.668	-118.859	0.073	0.013
-639.653	7.228	0.190	-0.144
-638.638	-200.000	-0.035	-0.242
-637.624	57.647	0.344	-0.341
-636.609	-64.541	0.070	-0.029
-635.595	-200.000	-0.015	-0.484
-634.580	162.520	0.106	0.150
-633.565	-79.162	0.201	-0.069
-632.551	-130.887	0.353	0.048
-631.536	551.161	-0.044	0.108
-630.522	-200.000	0.010	-0.063
-629.507	-145.064	-0.392	-0.036
-628.492	800.000	-0.030	0.116
-627.478	391.153	-0.070	0.146
-626.463	800.000	0.019	0.060
-625.449	800.000	0.091	0.267
-624.434	-1.257	-0.101	-0.073
-623.419	-200.000	-0.005	-0.137
-622.405	-80.599	0.350	0.118
-621.390	134.504	0.171	0.226
-620.376	190.208	-0.106	0.162
-619.361	401.897	0.143	-0.304
-618.346	352.973	0.113	-0.227
-617.332	-113.222	0.288	0.057
-616.317	-4.293	0.276	-0.194
-615.303	56.520	-0.267	-0.263
-614.288	-116.308	0.162	-0.031
-613.273	800.000	0.062	-0.206
-612.259	-144.019	0.070	-0.007
-611.244	-177.807	-0.041	-0.001
-610.230	183.079	0.239	0.358
-609.215	-124.982	-0.109	-0.017
-608.201	322.367	-0.112	-0.216
-607.186	-47.821	-0.171	-0.084
-606.171	102.290	0.173	-0.205
-605.157	800.000	0.029	-0.099
-604.142	8.677	0.393	0.300
-603.128	-95.201	0.271	-0.074
-602.113	-100.713	0.257	-0.064
-601.098	348.152	-0.119	0.238
-600.084	-102.676	0.291	0.070
-599.069	-200.000	0.028	-0.168
-598.055	-182.595	-0.205	-0.004
-597.040	-200.000	-0.054	0.268
-596.025	-135.564	-0.087	0.010
-595.011	221.091	0.240	0.390
-593.996	-16.874	0.349	-0.224
-592.982	800.000	-0.033	-0.110
-591.967	33.742	-0.382	0.336
-590.952	90.272	0.096	-0.108
-589.938	159.730	-0.247	-0.348
-588.923	-200.000	0.011	0.275
-587.909	-132.789	0.361	-0.047
-586.894	-39.512	-0.070	-0.037
-585.879	-64.953	-0.070	0.029
-584.865	-106.218	-0.372	0.085
-583.850	-165.912	-0.155	0.007
-582.836	-200.000	0.042	-0.411
-581.821	-66.668	-0.181	-0.073
-580.806	270.854	0.042	0.076
-579.792	-94.812	-0.444	0.122
-578.777	303.916	0.061	0.115
-577.763	188.938	0.258	0.391
-576.748	39.726	-0.136	0.123
-575.733	345.358	-0.066	-0.131
-574.719	15.740	0.144	-0.115
-573.704	-126.913	0.108	-0.016
-572.690	-27.830	0.290	-0.170
-571.675	800.000	-0.044	-0.139
-570.661	-78.626	-0.350	-0.121
-569.646	-193.660	-0.109	0.001
-568.631	800.000	0.018	0.070
-567.617	135.257	0.100	-0.132
-566.602	-81.567	0.220	-0.073
-565.588	800.000	-0.006	0.026
-564.573	314.986	-0.152	0.290
-563.558	222.368	0.129	0.211
-562.544	-200.000	0.010	0.204
-561.529	32.038	-0.114	0.100
-560.515	129.751	-0.183	-0.237
-559.500	42.374	0.037	0.034
-558.485	-88.593	0.469	0.141
-557.471	-200.000	0.037	0.311
-556.456	-200.000	0.083	0.402
-555.442	-200.000	0.008	0.157
-554.427	-62.825	0.226	0.095
-553.412	800.000	-0.043	0.128
-552.398	63.824	-0.073	-0.074
-551.383	-98.033	0.124	0.032
-550.369	-79.809	0.062	0.021
-549.354	-90.826	0.239	0.070
-548.339	-45.430	0.081	0.041
-547.325	-83.263	-0.192	0.063
-546.310	-131.251	0.206	0.028
-545.296	-11.877	-0.231	-0.153
-544.281	5.241	-0.067	0.050
-543.266	-87.124	-0.189	0.058
-542.252	314.551	0.074	-0.142
-541.237	566.260	0.036	-0.088
-540.223	550.979	0.062	0.150
-539.208	-170.108	-0.275	-0.010
-538.193	-200.000	-0.068	-0.427
-537.179	-200.000	-0.015	-0.108
-536.164	-71.666	-0.381	-0.144
-535.150	-54.586	0.230	-0.105
-534.135	-27.809	-0.201	-0.118
-533.121	197.252	0.034	-0.053
-532.106	423.634	-0.114	0.247
-531.091	800.000	0.003	0.008
-530.077	-15.542	0.252	-0.163
-529.062	-20.426	0.189	-0.118
-528.048	-24.548	-0.218	0.131
-527.033	800.000	0.104	-0.293
-526.018	6.267	-0.325	0.244
-525.004	-3.262	-0.070	-0.050
-523.989	800.000	-0.045	-0.161
-522.975	22.225	-0.162	0.134
-521.960	-22.352	0.148	-0.091
-520.945	84.671	-0.217	-0.240
-519.931	800.000	0.063	0.203
-518.916	5.718	-0.238	-0.178
-517.902	561.161	0.043	-0.106
-516.887	-200.000	-0.010	-0.092
-515.872	-98.315	0.394	-0.102
-514.858	-200.000	-0.004	0.127
-513.843	181.764	0.079	0.118
-512.829	-200.000	-0.015	-0.204
-511.814	278.441	-0.265	-0.478
-510.799	204.762	-0.097	-0.152
-509.785	390.195	0.132	-0.276
-508.770	205.362	-0.049	0.077
-507.756	-56.104	0.234	-0.105
-506.741	-43.453	0.102	0.052
-505.726	111.414	0.029	0.035
-504.712	60.658	0.025	-0.025
-503.697	490.335	-0.043	0.100
-502.683	3.592	-0.115	0.085
-501.668	800.000	-0.078	0.289
-500.653	-200.000	-0.009	-0.264
-499.639	322.324	-0.037	-0.071
-498.624	128.330	-0.122	0.157
-497.610	800.000	0.036	-0.123
-496.595	-43.123	0.094	-0.048
-495.581	183.496	-0.028	-0.042
-494.566	-18.307	0.316	-0.200
-493.551	6.608	0.379	-0.284
-492.537	800.000	0.063	0.189
-491.522	-98.196	-0.209	0.054
-490.508	800.000	-0.014	0.047
-489.493	-200.000	-0.004	-0.188
-488.478	722.909	0.177	-0.475
-487.464	32.746	0.201	0.176
-486.449	-147.514	0.167	-0.014
-485.435	-105.356	0.145	0.033
-484.420	-93.030	-0.158	0.045
-483.405	651.542	0.096	-0.249
-482.391	-32.364	0.182	-0.102
-481.376	263.803	-0.108	-0.189
-480.362	-6.861	-0.084	0.058
-479.347	-118.772	0.178	-0.032
-478.332	-163.821	-0.335	-0.016
-477.318	800.000	0.068	-0.219
-476.303	46.316	0.096	-0.090
-475.289	636.462	0.095	0.243
-474.274	-200.000	0.004	0.021
-473.259	-41.138	-0.253	0.132
-472.245	-35.946	-0.267	-0.146
-471.230	49.858	-0.112	-0.106
-470.216	-125.219	-0.486	-0.075
-469.201	-72.715	-0.063	-0.023
-468.186	800.000	0.044	0.158
-467.172	93.416	0.360	0.411
-466.157	-200.000	-0.004	0.024
-465.143	525.106	-0.073	-0.172
-464.128	306.708	0.054	0.102
-463.113	-200.000	-0.049	0.347
-462.099	598.598	0.136	-0.341
-461.084	86.229	0.156	-0.173
-460.070	306.781	-0.110	-0.207
-459.055	-200.000	0.008	-0.099
-458.040	114.060	-0.070	-0.086
-457.026	-128.378	-0.369	-0.053
-456.011	120.814	-0.156	-0.195
-454.997	112.343	-0.204	-0.249
-453.982	-114.517	-0.262	-0.051
-452.968	-22.221	-0.142	0.087
-451.953	-106.061	0.150	0.034
-450.938	54.345	-0.245	0.238
-449.924	800.000	-0.046	-0.159
-448.909	-111.966	0.086	0.017
-447.895	800.000	-0.073	0.221
-446.880	681.814	0.055	0.146
-445.865	69.514	0.078	0.081
-444.851	400.101	0.060	-0.127
-443.836	-25.717	0.233	-0.139
-442.822	-94.988	-0.306	-0.083
-441.807	-109.193	-0.403	0.086
-440.792	71.800	0.114	0.119
-439.778	-45.437	0.279	0.139
-438.763	-59.465	-0.161	-0.070
-437.749	61.901	-0.180	0.181
-436.734	-94.139	0.336	0.093
-435.719	800.000	0.090	-0.272
-434.705	-11.192	-0.043	0.029
-433.690	127.859	-0.158	0.202
-432.676	-61.723	-0.260	0.110
-431.661	-136.652	-0.193	-0.023
-430.646	13.665	0.176	-0.138
-429.632	-29.997	-0.288	0.165
-428.617	368.414	-0.185	0.376
-427.603	-123.413	0.103	-0.017
-426.588	-132.567	0.473	0.061
-425.573	648.794	-0.093	-0.240
-424.559	18.868	0.132	-0.106
-423.544	65.294	-0.160	0.163
-422.530	800.000	0.043	-0.124
-421.515	800.000	-0.032	0.105
-420.500	-80.722	-0.146	0.049
-419.486	-101.040	-0.071	-0.018
-418.471	-200.000	-0.022	-0.108
-417.457	-47.001	-0.335	0.165
-416.442	800.000	-0.089	-0.296
-415.428	-90.421	0.292	-0.085
-414.413	36.810	-0.082	0.073
-413.398	-115.942	-0.196	0.037
-412.384	-103.077	-0.052	-0.012
-411.369	-45.857	-0.081	-0.040
-410.355	-38.070	-0.303	0.162
-409.340	44.473	-0.043	-0.040
-408.325	6.770	0.117	0.088
-407.311	-51.816	-0.321	-0.151
-406.296	653.335	-0.003	0.007
-405.282	-161.699	0.307	0.016
-404.267	386.076	0.127	-0.263
-403.252	-151.812	-0.143	0.011
-402.238	147.050	-0.142	0.192
-401.223	82.731	-0.059	0.064
-400.209	58.638	-0.206	-0.204
-399.194	800.000	-0.085	-0.290
-398.179	-96.312	-0.075	0.020
-397.165	-69.082	0.235	-0.091
-396.150	770.672	0.049	0.135
-395.136	-200.000	0.049	-0.387
-394.121	-200.000	-0.049	-0.420
-393.106	-6.465	0.251	0.172
-392.092	-200.000	-0.002	0.351
-391.077	-200.000	-0.025	-0.189
-390.063	148.476	-0.097	0.132
-389.048	800.000	-0.079	-0.300
-388.033	107.905	-0.128	-0.153
-387.019	-200.000	-0.039	0.207
-386.004	-179.867	-0.435	0.009
-384.990	-20.683	0.217	-0.134
-383.975	-101.181	-0.140	-0.034
-382.960	-117.545	0.105	-0.019
-381.946	-200.000	0.015	-0.311
-380.931	-200.000	0.026	0.166
-379.917	212.374	0.061	-0.097
-378.902	-99.597	0.241	0.061
-377.888	30.445	-0.125	0.107
-376.873	-59.364	-0.307	0.133
-375.858	-138.208	-0.218	-0.024
-374.844	44.076	-0.024	-0.023
-373.829	-23.714	0.067	-0.040
-372.815	46.612	-0.058	0.054
-371.800	-77.662	0.232	0.081
-370.785	-10.747	-0.166	-0.110
-369.771	41.648	-0.242	0.220
-368.756	19.901	0.164	0.133
-367.742	150.181	0.185	-0.253
-366.727	-200.000	0.008	-0.148
-365.712	10.521	-0.233	-0.178
-364.698	401.969	0.083	-0.174
-363.683	-84.948	0.069	-0.022
-362.669	560.885	0.133	0.322
-361.654	-200.000	-0.024	-0.135
-360.639	72.072	0.175	0.183
-359.625	-123.908	0.252	-0.040
-358.610	-200.000	-0.002	-0.031
-357.596	-68.118	0.126	-0.049
-356.581	-200.000	0.031	-0.307
-355.566	-58.337	-0.252	-0.110
-354.552	19.744	0.373	0.302
-353.537	429.503	-0.104	-0.225
-352.523	-99.954	-0.151	0.038
-351.508	-63.790	-0.282	-0.116
-350.493	-200.000	0.251	0.000
-349.479	2.136	0.099	-0.072
-348.464	37.388	-0.328	0.292
-347.450	547.760	0.101	-0.243
-346.435	-51.721	-0.145	0.068
-345.420	272.067	0.108	-0.190
-344.406	800.000	0.015	0.050
-343.391	24.527	0.200	0.166
-342.377	-200.000	0.023	-0.164
-341.362	27.411	-0.278	-0.235
-340.348	-40.532	-0.130	-0.068
-339.333	670.132	0.084	0.218
-338.318	56.734	0.195	0.191
-337.304	22.907	-0.191	-0.158
-336.289	218.137	-0.091	-0.146
-335.275	637.487	0.111	0.283
-334.260	162.861	0.169	-0.238
-333.245	-73.773	0.396	0.144
-332.231	-200.000	0.015	0.200
-331.216	647.298	0.070	-0.180
-330.202	1.247	-0.353	-0.254
-329.187	287.477	-0.134	0.243
-328.172	-25.335	0.028	-0.017
-327.158	-200.000	-0.008	-0.376
-326.143	191.656	-0.137	0.207
-325.129	0.974	-0.135	-0.097
-324.114	-168.998	-0.409	0.015
-323.099	-200.000	-0.007	-0.214
-322.085	93.025	-0.122	-0.139
-321.070	-35.281	0.242	-0.132
-320.056	485.883	0.158	0.360
-319.041	18.226	-0.254	0.203
-318.026	-40.107	0.055	-0.029
-317.012	271.990	-0.117	0.207
-315.997	122.613	0.130	-0.163
-314.983	207.690	0.113	0.177
-313.968	72.691	0.129	-0.135
-312.953	-4.487	0.131	0.091
-311.939	-200.000	-0.052	0.292
-310.924	448.861	-0.185	-0.408
-309.910	-200.000	-0.045	0.350
-308.895	-149.379	0.175	-0.014
-307.880	-200.000	0.001	0.005
-306.866	-171.141	-0.297	-0.010
-305.851	642.959	-0.082	0.209
-304.837	-200.000	0.003	-0.214
-303.822	51.186	-0.222	0.211
-302.807	131.979	-0.220	-0.284
-301.793	279.811	-0.113	-0.203
-300.778	30.517	-0.184	0.157
-299.764	189.306	0.104	0.157
-298.749	-44.159	-0.055	-0.028
-297.735	-40.112	-0.066	-0.035
-296.720	390.769	-0.033	-0.070
-295.705	-200.000	0.042	0.406
-294.691	-142.593	-0.099	-0.010
-293.676	181.388	-0.105	-0.154
-292.662	-200.000	-0.057	0.349
-291.647	29.353	-0.031	0.026
-290.632	-113.791	0.224	-0.044
-289.618	800.000	0.113	-0.372
-288.603	-25.410	-0.109	0.064
-287.589	526.839	0.116	-0.275
-286.574	-85.652	-0.339	0.105
-285.559	800.000	-0.046	0.188
-284.545	45.761	0.052	-0.048
-283.530	-108.615	0.120	-0.026
-282.516	179.289	0.217	0.318
-281.501	-165.247	0.133	-0.006
-280.486	150.969	0.143	0.195
-279.472	142.571	0.217	0.289
-278.457	62.127	0.088	-0.088
-277.443	800.000	0.074	0.229
-276.428	-200.000	-0.002	0.480
-275.413	522.846	0.053	0.124
-274.399	-200.000	-0.021	0.326
-273.384	-37.708	-0.249	0.133
-272.370	139.765	0.152	0.201
-271.355	80.811	0.192	-0.208
-270.340	-64.938	0.096	0.039
-269.326	-23.541	0.152	-0.091
-268.311	-134.388	0.133	-0.016
-267.297	43.668	-0.049	-0.045
-266.282	800.000	-0.057	0.210
-265.267	800.000	0.057	0.229
-264.253	800.000	0.060	0.180
-263.238	132.380	0.140	-0.180
-262.224	-95.850	-0.104	-0.028
-261.209	226.237	0.104	-0.169
-260.195	-89.824	0.068	0.020
-259.180	60.068	0.175	0.173
-258.165	479.247	0.076	0.173
-257.151	-109.553	-0.114	-0.024
-256.136	114.288	-0.258	-0.314
-255.122	539.999	-0.131	0.311
-254.107	624.394	0.067	0.169
-253.092	71.497	0.005	-0.005
-252.078	800.000	-0.044	-0.188
-251.063	-84.545	0.144	-0.045
-250.049	-127.653	0.249	-0.036
-249.034	-176.461	-0.411	-0.011
-248.019	347.799	0.045	0.089
-247.005	110.638	0.187	0.225
-245.990	82.755	-0.152	0.165
-244.976	46.380	0.031	0.029
-243.961	148.151	0.094	-0.126
-242.946	233.166	0.091	-0.150
-241.932	3.485	0.160	-0.116
-240.917	6.150	0.098	0.072
-239.903	155.403	0.143	0.197
-238.888	13.980	-0.229	0.178
-237.873	-200.000	0.007	-0.280
-236.859	-8.504	-0.225	0.151
-235.844	192.645	0.178	0.268
-234.830	83.219	-0.267	0.290
-233.815	-14.055	-0.199	-0.129
-232.800	8.170	0.076	-0.057
-231.786	-200.000	0.031	0.237
-230.771	-152.099	-0.085	0.006
-229.757	-13.471	-0.154	-0.100
-228.742	-31.771	0.181	0.101
-227.727	-200.000	-0.038	-0.247
-226.713	-200.000	-0.053	-0.243
-225.698	-86.969	-0.155	0.047
-224.684	-130.267	-0.061	-0.008
-223.669	68.188	-0.223	0.228
-222.655	92.309	-0.152	-0.171
-221.640	-135.614	0.267	-0.032
-220.625	10.159	0.253	-0.192
-219.611	-158.983	0.267	0.015
-218.596	84.597	-0.119	0.130
-217.582	101.010	0.056	0.066
-216.567	-190.045	0.071	0.001
-215.552	144.242	0.123	-0.164
-214.538	143.273	0.084	-0.112
-213.523	-75.222	-0.099	-0.035
-212.509	460.774	0.137	-0.304
-211.494	87.756	0.023	-0.025
-210.479	800.000	0.027	0.094
-209.465	524.596	-0.167	-0.392
-208.450	-53.989	0.175	0.079
-207.436	-70.795	0.483	0.182
-206.421	45.536	0.166	0.153
-205.406	299.326	-0.037	0.069
-204.392	-49.388	0.063	-0.030
-203.377	204.336	-0.031	0.049
-202.363	-92.411	0.169	0.048
-201.348	-92.184	-0.206	0.058
-200.333	-95.861	0.185	-0.049
-199.319	-62.779	0.059	-0.024
-198.304	-200.000	-0.043	0.241
-197.290	274.393	0.063	0.111
-196.275	-136.776	0.243	0.028
-195.260	242.046	0.017	0.028
-194.246	-15.329	-0.321	0.205
-193.231	427.712	0.043	0.094
-192.217	25.480	-0.072	0.060
-191.202	107.102	0.207	0.245
-190.187	-86.444	0.241	-0.074
-189.173	-200.000	-0.049	0.384
-188.158	800.000	-0.040	0.165
-187.144	-117.596	-0.186	-0.034
-186.129	466.761	-0.078	0.175
-185.114	25.355	0.172	0.143
-184.100	165.131	0.076	-0.107
-183.085	-38.072	-0.501	0.265
-182.071	223.122	-0.188	-0.303
-181.056	-77.344	0.196	-0.068
-180.042	800.000	-0.129	0.450
-179.027	87.813	-0.036	0.040
-178.012	10.808	-0.042	-0.032
-176.998	-64.545	0.197	-0.080
-175.983	-122.895	-0.251	-0.040
-174.969	83.633	0.273	-0.297
-173.954	152.571	0.136	-0.185
-172.939	-200.000	0.015	-0.208
-171.925	-27.228	-0.254	-0.147
-170.910	83.946	0.119	-0.130
-169.896	-92.908	0.127	-0.035
-168.881	384.335	0.149	0.306
-167.866	14.032	-0.169	-0.131
-166.852	-200.000	0.034	0.228
-165.837	142.131	0.198	0.262
-164.823	-138.063	-0.301	0.033
-163.808	-95.505	-0.032	-0.009
-162.793	23.325	-0.115	0.094
-161.779	-117.199	0.174	0.032
-160.764	-200.000	-0.033	0.301
-159.750	-91.993	0.082	-0.023
-158.735	800.000	-0.081	0.302
-157.720	-148.893	-0.174	-0.014
-156.706	-25.440	-0.107	-0.063
-155.691	-151.399	-0.217	0.016
-154.677	-79.795	-0.118	-0.040
-153.662	-63.829	0.272	-0.111
-152.647	230.941	0.056	0.092
-151.633	164.079	-0.082	-0.116
-150.618	157.045	0.039	-0.054
-149.604	-200.000	-0.006	-0.212
-148.589	0.866	0.402	0.287
-147.574	-200.000	-0.007	0.327
-146.560	13.157	-0.201	-0.155
-145.545	-100.831	0.098	0.024
-144.531	-200.000	-0.017	-0.536
-143.516	142.951	0.121	-0.160
-142.502	-55.693	-0.121	0.054
-141.487	800.000	0.040	0.132
-140.472	30.947	0.040	0.034
-139.458	227.221	0.199	-0.323
-138.443	-58.142	0.062	-0.027
-137.429	64.637	0.253	-0.254
-136.414	-200.000	-0.050	-0.430
-135.399	-46.604	0.057	-0.028
-134.385	-125.355	-0.257	0.039
-133.370	-77.359	-0.150	-0.052
-132.356	-200.000	0.031	0.238
-131.341	-200.000	0.061	-0.338
-130.326	-200.000	0.014	0.168
-129.312	-125.276	0.226	0.034
-128.297	416.300	-0.057	0.121
-127.283	-101.623	0.267	-0.065
-126.268	66.480	-0.143	-0.144
-125.253	184.557	0.033	-0.048
-124.239	-23.584	-0.222	-0.132
-123.224	109.831	0.079	0.094
-122.210	-72.494	-0.164	-0.060
-121.195	-116.835	0.105	-0.019
-120.180	-74.614	0.405	0.145
