DTS Sentinel unit serial number:	SN413079Multiplexer serial number:	ORYXHardware model number:	OX4-SRSoftware version number:	ORYX F/W v4.00 Oryx Data Collector v3.7.2.0data status	okinstallation	princeton_trtdifferential loss correction	single-endedforward channel	channel 1reverse channel	N/Adate	2019/09/11time	00:28:11forward acquisition time	60.00reverse acquisition time	0.00gamma	496.2192k internal	0.2331k external	0.2331temperature offset calibration	0.9935default loss term (dB/km)	0.3790temperature slope calibration	1.0000multiplexer offset coefficient	1.0000multiplexer slope coefficient	1.0000fibre end	0.00T internal ref (°C)	29.25T ext. ref 1 (°C)	-0.30T ext. ref 2 (°C)	22.84length (m)	temperature (°C)	Stokes	anti-Stokes-747.200	390.515	-0.125	0.260
-746.185	-200.000	-0.019	0.173
-745.171	-21.288	-0.096	-0.059
-744.156	-137.246	-0.204	-0.023
-743.142	-127.400	0.307	-0.045
-742.127	-140.315	-0.294	-0.031
-741.112	-150.373	0.068	0.005
-740.098	-113.327	-0.366	0.072
-739.083	-200.000	-0.064	0.289
-738.069	-158.095	-0.198	0.012
-737.054	-11.176	0.159	0.105
-736.039	47.786	0.317	-0.298
-735.025	212.523	0.142	-0.226
-734.010	163.475	0.257	-0.364
-732.996	-49.928	-0.331	-0.158
-731.981	201.336	0.162	-0.251
-730.966	30.368	0.036	-0.031
-729.952	-49.182	-0.354	-0.170
-728.937	-200.000	-0.039	-0.229
-727.923	-111.875	-0.274	-0.056
-726.908	327.669	0.100	0.192
-725.894	41.996	0.049	0.044
-724.879	46.951	-0.061	0.057
-723.864	-67.101	-0.202	0.080
-722.850	-200.000	0.029	0.159
-721.835	-200.000	0.062	0.329
-720.821	225.482	-0.199	0.325
-719.806	-200.000	-0.087	-0.421
-718.791	-164.382	-0.263	-0.012
-717.777	-18.718	0.195	0.122
-716.762	-200.000	0.019	-0.392
-715.748	51.167	0.087	-0.083
-714.733	41.868	0.119	-0.109
-713.718	-200.000	-0.013	-0.253
-712.704	800.000	-0.067	-0.238
-711.689	-68.117	0.269	-0.105
-710.675	-200.000	-0.051	-0.264
-709.660	-200.000	0.001	-0.353
-708.645	133.206	0.139	-0.180
-707.631	263.404	0.093	-0.163
-706.616	759.091	0.097	0.265
-705.602	28.209	0.156	0.133
-704.587	-200.000	0.001	0.295
-703.572	-134.117	-0.219	0.027
-702.558	150.977	-0.110	0.150
-701.543	213.904	-0.066	0.104
-700.529	-200.000	0.004	0.171
-699.514	156.397	-0.079	-0.110
-698.499	-141.566	-0.261	-0.026
-697.485	-54.232	-0.047	-0.022
-696.470	-97.937	0.267	0.069
-695.456	126.113	-0.091	-0.115
-694.441	-172.067	0.134	-0.004
-693.426	552.272	0.099	0.238
-692.412	-54.531	-0.237	-0.108
-691.397	625.037	-0.029	0.073
-690.383	127.273	-0.087	-0.110
-689.368	24.876	-0.265	0.221
-688.354	88.620	0.193	-0.215
-687.339	-75.548	0.126	-0.045
-686.324	-99.205	-0.098	0.025
-685.310	12.589	0.183	-0.142
-684.295	11.543	0.193	-0.149
-683.281	38.804	-0.085	-0.076
-682.266	62.378	0.183	-0.184
-681.251	17.332	0.115	-0.091
-680.237	-81.944	-0.408	-0.134
-679.222	108.176	0.079	-0.095
-678.208	171.095	-0.163	-0.234
-677.193	-94.298	-0.303	-0.083
-676.178	-87.395	0.175	-0.053
-675.164	239.173	0.129	-0.216
-674.149	-118.971	0.264	-0.046
-673.135	800.000	-0.055	0.158
-672.120	228.463	0.015	-0.024
-671.105	-116.923	-0.283	-0.052
-670.091	-63.286	-0.106	-0.044
-669.076	-200.000	-0.075	-0.508
-668.062	-200.000	-0.057	-0.373
-667.047	608.330	0.116	-0.290
-666.032	-98.577	0.241	-0.062
-665.018	140.292	0.146	0.193
-664.003	-18.559	-0.230	-0.144
-662.989	-17.597	-0.077	0.048
-661.974	800.000	0.027	-0.082
-660.959	-137.084	0.487	-0.056
-659.945	-82.203	-0.328	-0.107
-658.930	-200.000	-0.090	-0.405
-657.916	-200.000	0.008	0.325
-656.901	-200.000	0.024	0.354
-655.886	73.164	-0.049	-0.051
-654.872	157.168	-0.151	-0.210
-653.857	250.872	0.198	-0.337
-652.843	-122.005	-0.139	0.023
-651.828	265.075	0.114	-0.200
-650.814	45.231	-0.153	0.141
-649.799	-101.583	0.132	-0.032
-648.784	208.883	0.167	-0.262
-647.770	26.460	-0.135	-0.113
-646.755	-90.058	0.183	0.054
-645.741	264.482	-0.117	-0.205
-644.726	510.714	-0.068	0.159
-643.711	-186.085	0.167	0.002
-642.697	-200.000	0.015	0.079
-641.682	-92.531	-0.285	-0.080
-640.668	800.000	0.043	-0.171
-639.653	271.303	0.224	0.395
-638.638	72.931	-0.037	-0.039
-637.624	800.000	-0.078	0.297
-636.609	141.849	-0.049	0.065
-635.595	22.018	0.116	-0.095
-634.580	-200.000	-0.026	-0.215
-633.565	88.307	0.168	0.187
-632.551	273.525	-0.056	0.099
-631.536	171.297	0.099	0.142
-630.522	244.301	-0.095	-0.159
-629.507	-53.766	0.060	-0.028
-628.492	92.598	-0.026	0.030
-627.478	568.241	-0.103	0.250
-626.463	-2.390	-0.121	-0.085
-625.449	99.814	0.126	0.146
-624.434	-200.000	-0.008	0.035
-623.419	-107.518	0.113	-0.025
-622.405	298.088	-0.053	0.097
-621.390	-200.000	0.010	0.087
-620.376	716.830	0.117	-0.310
-619.361	110.801	0.090	-0.108
-618.346	45.750	-0.342	-0.316
-617.332	-93.187	-0.067	-0.019
-616.317	261.604	-0.080	-0.139
-615.303	-102.675	-0.321	0.077
-614.288	-173.189	-0.365	-0.011
-613.273	228.372	-0.099	0.161
-612.259	298.569	-0.109	-0.201
-611.244	181.793	0.199	-0.294
-610.230	13.962	0.272	0.212
-609.215	-135.310	-0.116	-0.014
-608.201	800.000	-0.074	0.288
-607.186	-151.832	-0.088	-0.006
-606.171	-200.000	-0.012	-0.391
-605.157	157.540	-0.162	-0.224
-604.142	81.774	0.085	-0.092
-603.128	18.842	-0.348	-0.279
-602.113	106.790	0.116	-0.138
-601.098	45.693	0.046	-0.042
-600.084	-106.562	-0.066	0.015
-599.069	-161.700	-0.272	0.014
-598.055	-140.131	-0.258	0.027
-597.040	111.154	-0.132	0.160
-596.025	-200.000	0.020	0.141
-595.011	-97.032	-0.037	0.010
-593.996	-31.610	0.206	-0.116
-592.982	-200.000	0.038	-0.213
-591.967	228.911	-0.117	0.191
-590.952	-15.569	-0.096	0.062
-589.938	-146.998	0.284	-0.024
-588.923	-200.000	0.126	0.612
-587.909	320.243	0.077	0.146
-586.894	256.048	0.098	0.168
-585.879	-121.569	0.147	0.024
-584.865	-200.000	-0.028	-0.520
-583.850	218.322	-0.155	0.247
-582.836	162.948	-0.063	0.088
-581.821	-119.255	0.206	-0.036
-580.806	66.707	-0.128	-0.131
-579.792	-200.000	0.000	-0.161
-578.777	37.419	0.192	0.170
-577.763	-122.682	-0.179	0.029
-576.748	-37.670	-0.076	-0.041
-575.733	-200.000	-0.010	-0.202
-574.719	24.743	0.085	0.070
-573.704	-169.273	-0.211	-0.008
-572.690	-200.000	-0.014	0.260
-571.675	13.640	0.241	-0.187
-570.661	-22.840	0.135	-0.081
-569.646	-200.000	0.030	0.331
-568.631	205.345	0.018	0.028
-567.617	-27.246	0.134	0.078
-566.602	-200.000	-0.006	0.047
-565.588	-30.873	-0.179	-0.101
-564.573	800.000	-0.040	-0.144
-563.558	-108.085	-0.027	0.006
-562.544	-82.675	0.581	0.188
-561.529	19.481	0.166	0.134
-560.515	389.164	-0.038	0.078
-559.500	592.378	0.146	-0.361
-558.485	450.469	-0.032	-0.071
-557.471	358.277	-0.068	0.135
-556.456	9.987	0.159	-0.121
-555.442	-200.000	-0.066	0.311
-554.427	-109.379	-0.172	0.036
-553.412	6.493	-0.100	-0.074
-552.398	-49.060	-0.369	-0.176
-551.383	-200.000	0.001	-0.100
-550.369	800.000	0.036	-0.104
-549.354	171.665	-0.177	0.254
-548.339	432.248	-0.037	0.079
-547.325	8.326	0.068	-0.051
-546.310	266.786	0.203	-0.354
-545.296	328.829	-0.163	0.313
-544.281	-4.613	0.108	0.075
-543.266	194.121	-0.045	0.068
-542.252	-200.000	-0.009	0.351
-541.237	-37.735	-0.340	-0.181
-540.223	355.503	-0.103	-0.205
-539.208	-51.258	-0.164	0.077
-538.193	33.266	0.052	0.045
-537.179	-131.424	0.049	-0.006
-536.164	-61.842	0.160	0.067
-535.150	-8.744	-0.210	0.141
-534.135	-4.237	-0.121	-0.084
-533.121	-200.000	0.061	-0.313
-532.106	189.014	-0.085	-0.127
-531.091	-122.344	-0.343	0.056
-530.077	-76.052	0.202	-0.071
-529.062	795.189	0.104	-0.284
-528.048	800.000	-0.041	-0.152
-527.033	781.978	-0.012	-0.032
-526.018	-200.000	0.024	-0.247
-525.004	33.992	0.202	0.176
-523.989	-4.300	-0.046	0.032
-522.975	-76.068	-0.462	-0.163
-521.960	202.695	-0.044	0.067
-520.945	800.000	-0.027	-0.115
-519.931	-49.719	0.178	-0.084
-518.916	-200.000	0.024	-0.191
-517.902	66.711	0.209	-0.212
-516.887	2.504	0.053	-0.039
-515.872	-148.611	-0.262	0.021
-514.858	-26.225	0.301	-0.176
-513.843	-45.641	0.262	0.129
-512.829	800.000	-0.054	-0.160
-511.814	-39.743	0.323	0.168
-510.799	-135.395	-0.092	0.011
-509.785	-50.042	-0.039	0.018
-508.770	-171.824	0.153	0.005
-507.756	176.934	0.061	-0.089
-506.741	-200.000	0.012	-0.190
-505.726	178.799	0.226	-0.329
-504.712	-8.383	-0.238	0.160
-503.697	-101.883	-0.151	-0.036
-502.683	-12.043	-0.217	0.142
-501.668	-5.154	-0.056	-0.038
-500.653	-82.665	0.385	-0.124
-499.639	-192.086	-0.269	-0.003
-498.624	152.605	-0.054	-0.074
-497.610	-200.000	-0.022	0.190
-496.595	800.000	-0.017	0.067
-495.581	118.327	-0.179	-0.220
-494.566	8.162	0.125	-0.094
-493.551	-101.682	0.232	-0.056
-492.537	800.000	-0.107	0.316
-491.522	-42.207	0.166	0.085
-490.508	152.243	0.064	-0.087
-489.493	-200.000	0.069	-0.306
-488.478	-0.762	-0.281	-0.199
-487.464	421.828	0.063	0.135
-486.449	-19.043	-0.153	-0.094
-485.435	800.000	-0.053	-0.160
-484.420	-133.951	0.326	0.040
-483.405	800.000	0.057	-0.202
-482.391	-143.360	-0.443	0.042
-481.376	-84.838	-0.195	-0.061
-480.362	595.352	0.121	0.298
-479.347	-99.293	-0.115	-0.029
-478.332	172.481	0.128	0.184
-477.318	-151.494	-0.021	0.002
-476.303	-200.000	-0.033	0.392
-475.289	-32.876	0.079	0.044
-474.274	180.194	-0.091	-0.133
-473.259	-200.000	0.006	0.078
-472.245	-137.659	-0.063	-0.007
-471.230	-40.938	-0.234	0.121
-470.216	-175.603	0.073	-0.002
-469.201	85.684	0.171	-0.188
-468.186	-94.296	-0.262	0.071
-467.172	-117.564	0.238	0.043
-466.157	273.766	-0.054	0.094
-465.143	-200.000	-0.023	0.423
-464.128	54.947	0.054	-0.052
-463.113	121.048	0.171	0.212
-462.099	-92.929	0.202	0.056
-461.084	-114.544	-0.184	0.035
-460.070	73.696	0.215	-0.224
-459.055	800.000	0.035	-0.097
-458.040	686.980	-0.138	-0.359
-457.026	-20.963	0.124	0.075
-456.011	-200.000	-0.012	-0.434
-454.997	-157.563	0.370	-0.022
-453.982	343.596	0.022	-0.044
-452.968	5.130	-0.066	-0.048
-451.953	-200.000	0.050	-0.237
-450.938	-11.967	0.387	-0.253
-449.924	-96.976	0.095	0.025
-448.909	632.569	0.080	0.201
-447.895	800.000	0.026	0.074
-446.880	8.255	-0.306	-0.229
-445.865	-75.259	-0.072	-0.025
-444.851	12.309	0.133	0.102
-443.836	474.899	0.039	-0.088
-442.822	115.879	0.235	-0.285
-441.807	-28.969	-0.049	-0.028
-440.792	800.000	0.101	0.352
-439.778	123.295	-0.198	-0.246
-438.763	800.000	0.043	0.159
-437.749	-121.826	-0.194	0.032
-436.734	106.652	0.127	0.149
-435.719	260.646	-0.175	0.300
-434.705	-30.056	0.104	0.059
-433.690	793.850	0.068	0.187
-432.676	159.658	0.100	-0.138
-431.661	159.229	-0.194	-0.268
-430.646	-200.000	-0.051	-0.257
-429.632	34.018	-0.427	-0.370
-428.617	-200.000	-0.015	-0.093
-427.603	-59.815	0.084	0.036
-426.588	-130.967	0.116	-0.015
-425.573	-200.000	-0.077	0.357
-424.559	-200.000	-0.006	0.127
-423.544	-116.875	0.212	0.039
-422.530	-200.000	0.017	0.179
-421.515	-104.558	-0.165	0.038
-420.500	800.000	-0.040	-0.135
-419.486	-7.319	-0.204	0.138
-418.471	-200.000	-0.037	0.169
-417.457	-200.000	-0.029	0.167
-416.442	151.404	-0.098	0.132
-415.428	81.070	-0.045	-0.048
-414.413	-140.181	0.303	0.032
-413.398	800.000	-0.049	-0.168
-412.384	-109.232	-0.095	-0.020
-411.369	10.708	0.077	-0.059
-410.355	-46.480	-0.143	0.070
-409.340	333.801	-0.114	0.219
-408.325	-192.204	-0.260	0.002
-407.311	800.000	0.237	-0.679
-406.296	575.426	-0.157	-0.380
-405.282	290.036	0.117	-0.211
-404.267	52.886	-0.254	-0.241
-403.252	-38.529	0.197	0.103
-402.238	-118.866	0.152	-0.026
-401.223	-99.051	-0.251	-0.063
-400.209	-30.760	0.075	0.042
-399.194	-161.478	-0.191	0.010
-398.179	800.000	-0.043	0.147
-397.165	41.246	0.072	-0.065
-396.150	-23.760	0.267	0.159
-395.136	-126.428	-0.117	0.017
-394.121	15.151	0.207	-0.161
-393.106	126.489	0.256	-0.322
-392.092	159.940	-0.154	-0.212
-391.077	-200.000	-0.057	0.322
-390.063	159.054	-0.071	0.098
-389.048	-83.174	-0.318	-0.102
-388.033	-145.802	-0.218	0.019
-387.019	154.861	-0.270	0.369
-386.004	151.268	0.059	0.080
-384.990	-82.322	-0.265	-0.086
-383.975	706.645	0.054	0.140
-382.960	-140.287	0.459	0.048
-381.946	235.964	-0.105	0.173
-380.931	800.000	0.077	0.243
-379.917	-200.000	-0.496	-0.001
-378.902	167.802	0.015	0.021
-377.888	286.450	0.035	0.063
-376.873	-106.237	0.174	-0.039
-375.858	591.515	0.080	0.195
-374.844	-200.000	-0.036	0.231
-373.829	240.779	-0.093	0.153
-372.815	540.710	-0.143	0.338
-371.800	190.726	-0.106	0.159
-370.785	-37.199	0.105	-0.056
-369.771	107.198	-0.119	0.140
-368.756	213.636	0.090	0.141
-367.742	-47.973	0.307	0.147
-366.727	-59.828	0.078	0.033
-365.712	181.748	0.052	0.076
-364.698	-200.000	-0.027	0.357
-363.683	-83.942	-0.281	0.089
-362.669	800.000	0.061	-0.189
-361.654	-33.685	0.172	0.094
-360.639	45.352	-0.233	-0.213
-359.625	255.387	-0.044	0.075
-358.610	-200.000	-0.068	-0.381
-357.596	-200.000	-0.049	-0.285
-356.581	-119.242	0.123	-0.021
-355.566	290.993	-0.079	0.142
-354.552	227.377	0.166	0.268
-353.537	333.054	-0.177	0.339
-352.523	265.322	-0.256	0.443
-351.508	-153.903	-0.143	-0.010
-350.493	-126.666	-0.386	0.057
-349.479	59.872	0.221	-0.216
-348.464	-200.000	0.002	0.251
-347.450	13.265	0.232	0.178
-346.435	29.016	-0.231	-0.194
-345.420	-22.186	0.349	-0.210
-344.406	97.406	-0.245	-0.278
-343.391	250.354	-0.136	0.229
-342.377	-62.633	-0.104	-0.043
-341.362	74.783	-0.084	0.088
-340.348	430.895	-0.015	0.032
-339.333	-103.555	0.204	0.047
-338.318	-126.820	0.285	-0.042
-337.304	-144.303	0.224	-0.021
-336.289	20.478	-0.222	0.178
-335.275	-121.153	0.028	0.005
-334.260	-44.849	0.363	0.179
-333.245	-200.000	0.011	-0.202
-332.231	4.262	-0.094	-0.068
-331.216	145.788	0.151	-0.201
-330.202	215.082	0.180	0.283
-329.187	800.000	0.076	0.245
-328.172	496.038	-0.063	0.144
-327.158	-28.189	0.078	-0.045
-326.143	253.325	0.110	0.185
-325.129	-102.145	0.306	0.073
-324.114	-200.000	0.071	0.416
-323.099	119.386	-0.171	-0.209
-322.085	-32.231	-0.049	-0.027
-321.070	73.039	-0.086	-0.089
-320.056	800.000	0.076	0.313
-319.041	-200.000	0.000	0.302
-318.026	2.090	-0.100	0.071
-317.012	-142.683	-0.131	0.013
-315.997	-100.413	0.339	-0.083
-314.983	-46.706	-0.166	-0.081
-313.968	-129.622	-0.188	-0.026
-312.953	-43.318	0.108	0.054
-311.939	-178.227	-0.104	-0.002
-310.924	-200.000	0.023	0.293
-309.910	-57.650	0.163	0.071
-308.895	51.294	0.192	0.181
-307.880	427.988	-0.003	-0.007
-306.866	-200.000	0.004	0.250
-305.851	766.007	0.119	-0.320
-304.837	-112.218	-0.128	0.025
-303.822	-41.739	0.193	0.098
-302.807	-200.000	-0.006	-0.513
-301.793	-114.237	-0.263	0.050
-300.778	70.802	0.055	-0.056
-299.764	-130.603	0.387	0.052
-298.749	-85.184	-0.064	-0.020
-297.735	-142.157	0.218	-0.021
-296.720	-114.157	0.069	0.013
-295.705	-120.386	0.470	-0.079
-294.691	-54.639	-0.054	-0.024
-293.676	-19.700	0.171	-0.105
-292.662	-99.703	-0.203	-0.050
-291.647	800.000	-0.065	-0.223
-290.632	94.796	0.123	-0.138
-289.618	-200.000	0.004	0.041
-288.603	38.473	0.131	-0.116
-287.589	24.049	0.116	0.094
-286.574	-200.000	-0.042	0.490
-285.559	-107.778	-0.249	0.054
-284.545	363.789	0.031	-0.061
-283.530	800.000	-0.098	0.329
-282.516	-100.122	-0.085	0.021
-281.501	800.000	0.035	-0.138
-280.486	87.116	-0.147	0.160
-279.472	122.004	0.086	-0.107
-278.457	127.437	-0.221	-0.277
-277.443	-126.924	0.470	-0.068
-276.428	79.947	-0.140	0.148
-275.413	-200.000	-0.016	0.125
-274.399	133.860	0.154	0.197
-273.384	800.000	0.026	-0.093
-272.370	-32.774	0.266	0.146
-271.355	459.736	-0.027	0.058
-270.340	155.884	0.048	-0.065
-269.326	284.777	0.128	0.228
-268.311	-89.722	-0.259	-0.075
-267.297	169.848	-0.075	-0.106
-266.282	-200.000	0.010	0.406
-265.267	-134.543	0.334	0.040
-264.253	623.964	-0.061	-0.152
-263.238	-200.000	0.028	0.133
-262.224	-20.108	0.186	-0.113
-261.209	800.000	-0.045	0.188
-260.195	12.607	0.259	0.197
-259.180	-200.000	-0.036	-0.366
-258.165	800.000	-0.074	-0.204
-257.151	52.493	-0.176	-0.166
-256.136	652.274	0.089	0.226
-255.122	-116.787	0.304	-0.055
-254.107	185.981	-0.228	-0.335
-253.092	-120.744	-0.194	-0.032
-252.078	-97.104	-0.374	0.097
-251.063	800.000	-0.026	-0.111
-250.049	393.075	-0.108	0.221
-249.034	201.211	0.191	-0.290
-248.019	742.110	-0.055	0.145
-247.005	-137.941	-0.129	0.014
-245.990	-123.614	-0.345	-0.054
-244.976	52.401	-0.316	-0.297
-243.961	549.060	0.097	-0.230
-242.946	-124.629	0.327	0.050
-241.932	59.302	-0.216	-0.210
-240.917	27.058	0.270	-0.223
-239.903	-138.894	-0.389	0.042
-238.888	-68.355	0.372	0.143
-237.873	-161.727	0.202	0.010
-236.859	166.962	0.085	0.119
-235.844	-200.000	-0.036	-0.288
-234.830	1.381	-0.120	-0.085
-233.815	-93.433	0.209	-0.057
-232.800	-144.290	0.291	-0.027
-231.786	-200.000	-0.017	-0.139
-230.771	-200.000	-0.025	-0.177
-229.757	-23.851	-0.075	0.044
-228.742	-50.089	-0.192	0.090
-227.727	-196.831	0.490	-0.003
-226.713	-200.000	-0.056	0.285
-225.698	227.507	0.122	-0.196
-224.684	-200.000	-0.045	0.298
-223.669	-123.085	-0.268	0.042
-222.655	-102.232	0.042	0.010
-221.640	800.000	-0.069	0.261
-220.625	800.000	-0.094	0.392
-219.611	-129.854	0.477	-0.065
-218.596	-124.635	-0.121	0.019
-217.582	294.670	0.147	-0.265
-216.567	-105.881	-0.120	-0.027
-215.552	-108.767	-0.467	0.098
-214.538	118.039	0.132	-0.160
-213.523	-82.820	0.124	-0.040
-212.509	-200.000	0.030	0.204
-211.494	8.989	0.265	0.197
-210.479	272.397	0.161	-0.280
-209.465	-59.978	-0.201	-0.085
-208.450	32.266	0.078	0.066
-207.436	194.894	0.178	-0.266
-206.421	76.301	-0.178	0.185
-205.406	-83.503	-0.365	0.115
-204.392	5.001	-0.332	0.241
-203.377	134.394	0.044	-0.057
-202.363	800.000	-0.040	-0.134
-201.348	695.554	-0.136	-0.351
-200.333	-200.000	0.038	-0.165
-199.319	800.000	-0.113	0.456
-198.304	800.000	-0.068	0.213
-197.290	632.613	-0.131	-0.327
-196.275	87.226	0.322	-0.350
-195.260	90.660	-0.145	-0.160
-194.246	-200.000	0.014	0.287
-193.231	150.754	0.161	0.215
-192.217	-200.000	0.016	-0.088
-191.202	217.480	0.013	-0.020
-190.187	3.789	-0.087	-0.062
-189.173	-45.940	-0.264	-0.128
-188.158	15.067	0.095	0.073
-187.144	75.715	-0.162	-0.169
-186.129	364.002	0.092	-0.183
-185.114	267.861	0.083	0.143
-184.100	-92.474	0.078	0.022
-183.085	-200.000	-0.003	-0.127
-182.071	-200.000	-0.033	-0.154
-181.056	431.934	0.095	0.203
-180.042	63.610	0.214	-0.211
-179.027	-200.000	-0.004	-0.028
-178.012	293.415	-0.057	-0.103
-176.998	800.000	-0.071	-0.195
-175.983	-55.340	-0.122	-0.054
-174.969	76.397	-0.192	0.200
-173.954	202.824	-0.128	0.194
-172.939	268.639	0.097	-0.167
-171.925	461.808	-0.066	-0.144
-170.910	-86.485	-0.041	-0.013
-169.896	-27.040	0.184	-0.105
-168.881	-33.664	0.255	-0.138
-167.866	89.247	-0.102	0.112
-166.852	42.474	-0.323	-0.289
-165.837	-82.797	0.153	-0.049
-164.823	-77.880	-0.222	-0.075
-163.808	-111.858	0.267	0.053
-162.793	193.755	-0.068	0.102
-161.779	-23.418	0.116	-0.069
-160.764	25.700	-0.024	-0.020
-159.750	-125.238	0.228	-0.034
-158.735	-124.973	0.270	-0.041
-157.720	800.000	0.114	0.406
-156.706	-196.541	0.013	0.000
-155.691	-200.000	-0.019	0.192
-154.677	-200.000	0.029	-0.135
-153.662	66.084	-0.059	0.059
-152.647	-92.042	-0.225	0.063
-151.633	-33.213	0.148	0.081
-150.618	-200.000	-0.005	0.182
-149.604	-200.000	-0.004	-0.158
-148.589	-200.000	0.010	-0.251
-147.574	-43.584	0.418	-0.208
-146.560	4.635	-0.161	-0.116
-145.545	358.148	-0.097	0.189
-144.531	389.210	-0.105	-0.214
-143.516	-132.439	-0.113	-0.014
-142.502	283.973	0.083	-0.147
-141.487	-168.957	-0.223	-0.008
-140.472	56.808	0.198	-0.189
-139.458	247.343	-0.204	-0.338
-138.443	21.523	0.134	-0.107
-137.429	-61.141	0.237	-0.098
-136.414	22.627	-0.231	0.186
-135.399	-97.007	0.183	0.047
-134.385	-200.000	0.022	0.117
-133.370	800.000	0.038	0.122
-132.356	119.840	0.165	-0.201
-131.341	446.063	-0.112	0.243
-130.326	91.034	-0.185	0.204
-129.312	-29.609	0.197	-0.111
-128.297	274.763	0.143	0.249
-127.283	243.233	-0.121	0.199
-126.268	-17.955	0.456	0.281
-125.253	22.787	-0.175	-0.141
-124.239	-134.745	0.254	0.030
-123.224	40.413	0.243	-0.215
-122.210	39.851	0.147	0.129
