DTS Sentinel unit serial number:	SN413079Multiplexer serial number:	ORYXHardware model number:	OX4-SRSoftware version number:	ORYX F/W v4.00 Oryx Data Collector v3.7.2.0data status	okinstallation	princeton_trtdifferential loss correction	single-endedforward channel	channel 1reverse channel	N/Adate	2019/09/17time	21:18:35forward acquisition time	60.00reverse acquisition time	0.00gamma	496.2192k internal	0.2338k external	0.2338temperature offset calibration	0.9974default loss term (dB/km)	0.3790temperature slope calibration	1.0000multiplexer offset coefficient	1.0000multiplexer slope coefficient	1.0000fibre end	0.00T internal ref (°C)	27.70T ext. ref 1 (°C)	0.19T ext. ref 2 (°C)	19.58length (m)	temperature (°C)	Stokes	anti-Stokes-747.200	124.778	-0.224	0.283
-746.185	1.758	-0.242	0.175
-745.171	-2.476	0.231	-0.163
-744.156	-163.463	-0.092	-0.004
-743.142	-40.537	0.148	-0.077
-742.127	136.776	0.159	0.209
-741.112	-34.038	-0.091	0.050
-740.098	126.125	-0.203	0.258
-739.083	-133.008	0.193	0.025
-738.069	-159.519	-0.437	0.024
-737.054	800.000	0.022	0.069
-736.039	86.940	-0.122	-0.135
-735.025	587.543	0.105	0.260
-734.010	231.147	-0.106	0.175
-732.996	5.340	-0.296	-0.219
-731.981	-200.000	-0.024	0.273
-730.966	-200.000	-0.004	0.117
-729.952	174.892	-0.209	-0.303
-728.937	-200.000	-0.030	0.134
-727.923	-110.685	0.075	0.016
-726.908	81.054	0.102	-0.110
-725.894	-85.732	-0.335	0.104
-724.879	117.905	0.159	-0.196
-723.864	17.629	-0.292	-0.233
-722.850	-200.000	-0.016	0.171
-721.835	-54.602	-0.086	-0.039
-720.821	-200.000	0.033	-0.198
-719.806	245.536	-0.023	-0.039
-718.791	-99.851	-0.170	0.043
-717.777	-48.231	0.139	0.067
-716.762	-135.410	0.072	0.009
-715.748	-79.660	-0.374	-0.126
-714.733	-67.078	-0.133	-0.053
-713.718	39.489	-0.291	0.261
-712.704	-21.981	0.022	0.014
-711.689	-34.462	-0.289	0.159
-710.675	318.793	-0.009	0.017
-709.660	-12.688	-0.272	-0.177
-708.645	169.276	0.122	0.174
-707.631	-103.531	-0.092	0.022
-706.616	-200.000	-0.033	-0.226
-705.602	-96.837	-0.080	0.021
-704.587	-43.704	0.203	-0.103
-703.572	-200.000	0.029	0.271
-702.558	9.109	0.043	-0.033
-701.543	-98.764	-0.183	-0.047
-700.529	-170.395	-0.237	0.008
-699.514	-17.113	-0.302	-0.191
-698.499	800.000	-0.048	0.187
-697.485	800.000	0.042	-0.132
-696.470	-23.701	0.201	0.121
-695.456	163.238	0.010	0.014
-694.441	286.430	0.038	-0.070
-693.426	189.096	0.102	-0.153
-692.412	69.312	-0.207	-0.213
-691.397	800.000	0.097	0.276
-690.383	-80.743	0.237	0.079
-689.368	132.091	0.071	-0.091
-688.354	-65.647	0.163	0.065
-687.339	104.404	-0.104	-0.123
-686.324	-72.566	-0.261	0.096
-685.310	63.653	0.099	-0.100
-684.295	-200.000	0.019	-0.088
-683.281	-79.623	0.112	-0.038
-682.266	-1.933	-0.115	0.081
-681.251	607.662	0.026	0.064
-680.237	-27.625	-0.012	-0.007
-679.222	-200.000	0.048	0.214
-678.208	-21.406	-0.260	0.159
-677.193	719.152	0.057	-0.152
-676.178	-134.327	-0.202	-0.025
-675.164	35.746	-0.104	-0.091
-674.149	231.572	0.059	0.097
-673.135	139.150	-0.168	0.221
-672.120	-84.305	-0.295	0.093
-671.105	54.635	-0.159	0.153
-670.091	19.875	0.111	-0.090
-669.076	-168.657	-0.300	-0.011
-668.062	213.152	0.121	0.191
-667.047	-3.783	0.158	0.110
-666.032	800.000	-0.077	0.241
-665.018	800.000	-0.062	-0.220
-664.003	408.345	0.135	0.287
-662.989	64.334	0.142	0.143
-661.974	80.498	-0.133	0.143
-660.959	212.767	-0.066	-0.104
-659.945	-181.568	0.153	0.003
-658.930	121.355	-0.193	-0.241
-657.916	-200.000	-0.045	-0.242
-656.901	800.000	-0.084	0.242
-655.886	-200.000	-0.009	-0.061
-654.872	151.246	-0.167	0.227
-653.857	473.771	0.019	-0.042
-652.843	-5.455	-0.201	-0.138
-651.828	-108.194	-0.251	0.054
-650.814	252.667	-0.140	0.238
-649.799	22.823	0.039	0.032
-648.784	-200.000	-0.023	0.241
-647.770	-67.146	-0.280	-0.110
-646.755	32.301	-0.407	0.351
-645.741	-200.000	-0.013	0.159
-644.726	792.283	0.022	-0.061
-643.711	-197.625	-0.121	0.001
-642.697	695.908	-0.102	-0.269
-641.682	111.735	-0.130	-0.157
-640.668	-74.144	-0.380	-0.138
-639.653	117.242	0.048	0.060
-638.638	2.764	-0.102	-0.074
-637.624	-81.601	0.103	0.034
-636.609	-63.073	0.194	-0.080
-635.595	-178.831	-0.144	0.003
-634.580	-32.575	-0.321	-0.178
-633.565	416.654	0.023	0.048
-632.551	715.482	-0.070	-0.184
-631.536	-62.599	0.146	0.060
-630.522	-200.000	-0.014	0.078
-629.507	206.463	-0.139	0.216
-628.492	-105.819	-0.180	0.041
-627.478	-88.265	-0.345	-0.103
-626.463	-74.041	-0.253	-0.092
-625.449	-200.000	0.021	-0.341
-624.434	800.000	0.034	0.095
-623.419	690.952	-0.079	-0.208
-622.405	64.552	-0.213	-0.215
-621.390	-42.233	0.126	0.065
-620.376	106.057	0.262	0.310
-619.361	18.568	-0.174	-0.139
-618.346	721.572	-0.056	-0.149
-617.332	-4.319	-0.028	0.019
-616.317	-200.000	-0.003	0.054
-615.303	54.417	0.371	-0.357
-614.288	-83.564	-0.216	0.069
-613.273	-153.687	-0.369	0.025
-612.259	-188.595	0.104	-0.001
-611.244	-51.353	0.324	0.152
-610.230	-93.012	-0.152	-0.042
-609.215	166.496	-0.062	-0.087
-608.201	109.641	0.209	-0.250
-607.186	-174.656	0.230	-0.007
-606.171	20.913	0.171	-0.138
-605.157	-77.466	-0.119	0.041
-604.142	179.989	-0.174	0.255
-603.128	-118.968	-0.232	0.041
-602.113	106.380	-0.166	-0.197
-601.098	734.531	0.078	-0.207
-600.084	800.000	-0.035	-0.121
-599.069	-200.000	0.001	0.035
-598.055	-200.000	-0.030	-0.141
-597.040	-200.000	0.048	0.364
-596.025	31.448	0.340	-0.291
-595.011	76.745	0.275	-0.291
-593.996	-60.820	-0.129	-0.054
-592.982	-200.000	0.047	-0.232
-591.967	85.870	-0.198	-0.217
-590.952	800.000	0.128	-0.417
-589.938	114.937	-0.162	0.197
-588.923	-132.927	0.194	0.025
-587.909	24.914	0.099	-0.082
-586.894	198.242	-0.027	0.041
-585.879	-200.000	0.030	0.208
-584.865	-200.000	-0.014	0.520
-583.850	488.208	0.057	-0.130
-582.836	-42.025	0.174	-0.089
-581.821	-149.337	-0.174	0.014
-580.806	-13.379	-0.250	0.162
-579.792	800.000	-0.041	0.139
-578.777	227.780	-0.221	0.359
-577.763	-81.205	0.286	0.094
-576.748	62.948	-0.270	0.270
-575.733	766.617	0.119	0.324
-574.719	329.630	-0.027	-0.053
-573.704	800.000	-0.083	0.295
-572.690	192.234	0.132	-0.199
-571.675	-200.000	-0.038	-0.218
-570.661	-200.000	-0.023	0.305
-569.646	-28.894	-0.193	0.110
-568.631	-200.000	0.046	-0.273
-567.617	-200.000	-0.027	0.170
-566.602	-144.329	-0.290	0.027
-565.588	800.000	-0.037	-0.127
-564.573	-30.352	0.116	0.066
-563.558	-200.000	0.019	0.250
-562.544	-200.000	-0.056	0.432
-561.529	19.599	-0.380	0.305
-560.515	-121.057	0.134	-0.022
-559.500	-22.598	-0.108	-0.065
-558.485	-67.092	-0.133	-0.052
-557.471	-200.000	0.022	0.244
-556.456	-137.597	-0.149	0.017
-555.442	-135.102	0.149	0.018
-554.427	-59.314	-0.216	-0.093
-553.412	-12.149	0.169	-0.110
-552.398	-65.893	0.198	0.079
-551.383	-200.000	-0.033	0.182
-550.369	-178.317	0.153	-0.004
-549.354	-138.806	0.109	-0.012
-548.339	-62.084	-0.122	0.051
-547.325	-200.000	-0.014	0.109
-546.310	42.546	0.273	0.247
-545.296	-200.000	-0.108	0.557
-544.281	-44.239	-0.164	-0.082
-543.266	42.940	0.154	0.140
-542.252	191.403	0.105	-0.158
-541.237	-59.884	-0.097	0.041
-540.223	199.026	0.121	-0.184
-539.208	-200.000	-0.010	0.056
-538.193	22.184	0.252	-0.205
-537.179	-10.208	-0.142	0.094
-536.164	228.355	-0.080	0.130
-535.150	13.122	-0.078	-0.060
-534.135	-145.453	0.025	0.002
-533.121	-61.829	-0.144	0.060
-532.106	-180.864	0.214	-0.004
-531.091	122.297	0.097	0.121
-530.077	-67.004	0.254	-0.100
-529.062	-103.691	0.235	-0.055
-528.048	125.434	-0.140	0.176
-527.033	-200.000	-0.068	0.313
-526.018	79.196	0.165	0.176
-525.004	800.000	-0.055	-0.153
-523.989	-63.302	0.272	0.112
-522.975	158.816	-0.086	0.118
-521.960	599.266	-0.086	0.213
-520.945	-155.086	-0.228	0.015
-519.931	-87.024	0.068	-0.020
-518.916	-200.000	-0.007	-0.071
-517.902	-200.000	0.076	-0.502
-516.887	47.425	-0.124	-0.115
-515.872	-143.218	0.059	-0.006
-514.858	-200.000	0.062	-0.338
-513.843	-19.833	0.145	-0.089
-512.829	-200.000	-0.010	-0.053
-511.814	-89.594	0.190	0.056
-510.799	800.000	0.061	-0.222
-509.785	-101.658	0.266	-0.064
-508.770	-134.277	-0.302	-0.037
-507.756	361.324	-0.110	-0.219
-506.741	-200.000	0.031	-0.192
-505.726	56.242	0.128	0.123
-504.712	152.290	-0.165	-0.223
-503.697	210.373	0.023	-0.036
-502.683	-131.192	0.095	-0.013
-501.668	-107.432	-0.165	0.036
-500.653	-37.537	-0.314	0.167
-499.639	362.578	0.156	0.311
-498.624	209.209	0.050	-0.077
-497.610	-66.947	-0.164	0.064
-496.595	-200.000	0.029	0.128
-495.581	133.842	0.059	-0.076
-494.566	3.161	0.138	-0.100
-493.551	-66.092	0.188	0.074
-492.537	269.827	-0.066	-0.115
-491.522	800.000	-0.044	0.130
-490.508	445.273	0.035	-0.075
-489.493	713.005	-0.008	0.022
-488.478	345.136	0.038	-0.074
-487.464	-200.000	0.032	0.238
-486.449	-164.579	-0.233	-0.010
-485.435	88.757	0.103	-0.114
-484.420	86.463	-0.126	-0.138
-483.405	800.000	-0.069	-0.258
-482.391	101.220	-0.300	0.347
-481.376	-103.241	-0.472	0.111
-480.362	-200.000	0.007	0.129
-479.347	-200.000	-0.001	0.080
-478.332	-200.000	-0.039	-0.186
-477.318	67.492	0.135	-0.136
-476.303	480.935	0.034	0.077
-475.289	-79.364	-0.305	0.103
-474.274	-114.801	-0.230	0.044
-473.259	20.427	0.038	0.030
-472.245	-93.094	0.281	-0.078
-471.230	76.195	-0.056	-0.059
-470.216	290.801	0.067	-0.121
-469.201	-200.000	0.003	-0.070
-468.186	402.556	-0.146	-0.305
-467.172	-36.471	-0.063	-0.034
-466.157	124.618	-0.068	0.084
-465.143	192.523	-0.090	0.135
-464.128	192.865	0.144	0.217
-463.113	18.529	-0.071	0.056
-462.099	-113.121	0.250	0.049
-461.084	800.000	-0.072	0.271
-460.070	320.527	-0.002	0.004
-459.055	744.975	-0.083	-0.223
-458.040	310.057	0.269	0.499
-457.026	-56.657	-0.227	0.100
-456.011	-200.000	-0.003	0.040
-454.997	6.152	-0.333	-0.245
-453.982	800.000	0.046	0.125
-452.968	592.721	0.124	-0.304
-451.953	-75.056	-0.264	-0.094
-450.938	-58.413	-0.184	-0.079
-449.924	-41.673	0.011	0.006
-448.909	800.000	-0.058	-0.230
-447.895	-200.000	0.045	-0.239
-446.880	-120.386	0.156	0.026
-445.865	-200.000	0.012	-0.063
-444.851	-200.000	-0.015	0.225
-443.836	-136.833	-0.170	-0.019
-442.822	-200.000	-0.025	-0.227
-441.807	-6.403	-0.315	-0.213
-440.792	51.926	0.065	-0.061
-439.778	112.401	0.096	-0.116
-438.763	52.987	0.091	0.087
-437.749	193.539	0.015	-0.022
-436.734	6.215	0.202	-0.148
-435.719	-97.504	0.389	0.100
-434.705	-31.881	0.057	0.032
-433.690	-91.315	-0.361	0.102
-432.676	-200.000	-0.045	0.262
-431.661	122.639	-0.184	0.228
-430.646	456.590	0.082	0.179
-429.632	140.353	0.115	0.151
-428.617	-50.824	0.229	-0.107
-427.603	-159.496	-0.181	0.010
-426.588	-77.484	-0.119	0.041
-425.573	5.442	0.042	0.031
-424.559	800.000	0.133	0.429
-423.544	800.000	-0.038	-0.152
-422.530	309.612	-0.090	0.167
-421.515	-143.459	0.155	-0.015
-420.500	-59.545	-0.232	0.099
-419.486	457.699	-0.075	0.164
-418.471	-73.351	0.193	-0.070
-417.457	-89.006	0.178	0.052
-416.442	-93.017	-0.257	-0.071
-415.428	-85.054	0.114	-0.035
-414.413	40.717	0.220	-0.197
-413.398	696.645	-0.094	-0.246
-412.384	-5.847	0.221	0.150
-411.369	-200.000	0.001	-0.004
-410.355	168.894	0.020	-0.028
-409.340	-128.145	0.253	0.036
-408.325	-200.000	0.012	-0.072
-407.311	17.027	-0.231	-0.181
-406.296	-154.505	-0.040	0.003
-405.282	0.879	0.106	-0.075
-404.267	-143.902	-0.135	0.013
-403.252	800.000	-0.026	0.100
-402.238	-200.000	-0.004	0.131
-401.223	29.963	-0.252	0.213
-400.209	-200.000	-0.016	0.174
-399.194	-130.732	-0.245	-0.033
-398.179	-66.057	0.318	-0.126
-397.165	16.819	0.041	-0.032
-396.150	-23.164	0.140	0.084
-395.136	90.833	0.083	0.092
-394.121	223.424	-0.192	-0.306
-393.106	800.000	0.059	-0.204
-392.092	800.000	-0.090	0.320
-391.077	-57.975	-0.109	0.047
-390.063	-200.000	-0.008	-0.467
-389.048	3.998	0.309	0.224
-388.033	800.000	0.043	-0.138
-387.019	-132.479	-0.159	0.020
-386.004	-38.941	-0.117	-0.061
-384.990	-130.402	0.346	-0.046
-383.975	-200.000	0.004	0.219
-382.960	-200.000	0.006	0.037
-381.946	800.000	0.104	-0.362
-380.931	215.415	-0.073	-0.114
-379.917	-200.000	0.013	-0.190
-378.902	800.000	-0.134	0.384
-377.888	-29.510	0.446	0.252
-376.873	800.000	0.050	-0.177
-375.858	88.909	-0.105	-0.116
-374.844	-94.207	-0.311	0.084
-373.829	798.193	0.110	-0.300
-372.815	-132.555	0.094	-0.012
-371.800	-173.321	0.173	-0.005
-370.785	412.477	0.110	-0.232
-369.771	-17.266	-0.040	-0.025
-368.756	-200.000	-0.002	-0.083
-367.742	-130.148	-0.278	-0.038
-366.727	-43.041	0.117	-0.059
-365.712	293.088	0.093	-0.167
-364.698	-73.253	0.074	0.027
-363.683	-135.357	-0.188	0.022
-362.669	-200.000	0.004	-0.067
-361.654	-80.336	0.239	-0.079
-360.639	690.470	-0.084	0.218
-359.625	139.464	0.081	0.106
-358.610	68.213	0.219	0.222
-357.596	800.000	0.104	0.449
-356.581	-100.670	0.284	0.069
-355.566	775.513	0.097	0.262
-354.552	-167.257	0.252	-0.010
-353.537	3.303	-0.221	0.159
-352.523	-200.000	0.006	-0.058
-351.508	54.903	-0.173	0.165
-350.493	-68.055	0.279	0.107
-349.479	-67.928	-0.047	0.018
-348.464	-116.156	0.319	0.059
-347.450	31.440	0.259	-0.220
-346.435	665.311	-0.019	0.048
-345.420	272.505	-0.048	-0.083
-344.406	-181.325	-0.303	-0.006
-343.391	356.133	0.081	0.160
-342.377	-200.000	-0.027	-0.481
-341.362	-57.029	-0.334	-0.146
-340.348	-121.288	-0.128	0.021
-339.333	-60.887	0.040	0.017
-338.318	429.310	-0.101	0.216
-337.304	69.088	0.084	0.085
-336.289	59.927	-0.210	0.205
-335.275	21.356	0.340	0.273
-334.260	-200.000	-0.050	-0.475
-333.245	59.265	-0.165	0.161
-332.231	800.000	0.073	-0.295
-331.216	529.467	-0.152	0.355
-330.202	321.902	0.165	0.309
-329.187	500.565	-0.191	0.436
-328.172	-137.171	0.282	-0.032
-327.158	-200.000	0.025	0.181
-326.143	-131.023	0.243	-0.032
-325.129	-16.078	-0.329	0.207
-324.114	-138.743	0.292	0.032
-323.099	240.609	0.029	-0.048
-322.085	484.420	-0.142	0.320
-321.070	37.344	0.171	-0.150
-320.056	800.000	0.052	-0.201
-319.041	-70.209	-0.151	0.057
-318.026	-149.193	0.375	0.030
-317.012	-200.000	0.005	0.222
-315.997	-81.099	-0.041	-0.013
-314.983	266.088	0.090	0.155
-313.968	45.518	0.137	0.125
-312.953	-200.000	0.063	-0.396
-311.939	153.920	0.080	0.108
-310.924	-92.917	0.271	0.075
-309.910	-200.000	0.029	-0.127
-308.895	-200.000	-0.011	0.120
-307.880	-60.138	0.213	0.090
-306.866	-75.816	0.081	-0.028
-305.851	-62.954	0.104	-0.042
-304.837	1.630	0.164	-0.116
-303.822	61.756	-0.155	0.153
-302.807	-63.974	-0.247	-0.100
-301.793	-115.689	0.263	0.049
-300.778	-124.693	-0.446	0.068
-299.764	345.254	0.163	0.315
-298.749	40.387	-0.097	0.086
-297.735	-52.911	-0.110	0.050
-296.720	126.426	0.192	-0.239
-295.705	-200.000	0.021	0.091
-294.691	800.000	0.034	-0.104
-293.676	-66.920	-0.415	-0.162
-292.662	-23.470	-0.086	0.051
-291.647	146.400	0.071	0.094
-290.632	-115.807	-0.392	0.072
-289.618	-200.000	0.006	-0.095
-288.603	209.206	0.064	-0.098
-287.589	209.873	-0.032	-0.049
-286.574	-189.327	-0.281	0.003
-285.559	-5.568	-0.374	-0.253
-284.545	-9.070	-0.178	0.117
-283.530	-200.000	-0.029	0.185
-282.516	-105.718	0.205	0.046
-281.501	-40.607	0.103	0.052
-280.486	-32.346	0.186	-0.103
-279.472	314.902	0.059	0.110
-278.457	-200.000	0.001	0.058
-277.443	800.000	-0.111	-0.345
-276.428	647.514	-0.140	-0.352
-275.413	-13.019	0.420	-0.269
-274.399	211.528	-0.151	-0.234
-273.384	-65.495	0.205	-0.081
-272.370	-147.068	0.157	0.013
-271.355	106.577	-0.241	0.281
-270.340	227.333	-0.081	0.129
-269.326	-97.317	0.439	-0.113
-268.311	-26.528	-0.275	-0.158
-267.297	-51.671	0.269	0.123
-266.282	2.380	0.229	0.163
-265.267	-200.000	-0.028	0.126
-264.253	30.105	0.068	0.057
-263.238	-177.920	0.298	0.007
-262.224	14.773	0.270	0.208
-261.209	-200.000	0.007	0.059
-260.195	-75.377	0.416	-0.146
-259.180	-52.322	0.160	-0.073
-258.165	-157.294	-0.117	-0.007
-257.151	339.744	0.060	-0.116
-256.136	800.000	0.068	-0.188
-255.122	-174.771	-0.178	0.005
-254.107	-32.381	0.147	0.081
-253.092	-200.000	0.002	0.081
-252.078	85.528	-0.057	0.062
-251.063	128.927	-0.185	-0.232
-250.049	-200.000	0.057	-0.330
-249.034	498.533	0.064	-0.145
-248.019	800.000	0.071	-0.209
-247.005	309.146	-0.115	-0.212
-245.990	178.657	-0.186	0.268
-244.976	-57.438	0.122	0.053
-243.961	-106.262	0.139	-0.031
-242.946	210.969	-0.035	0.053
-241.932	-73.389	-0.283	0.102
-240.917	-75.523	-0.062	0.022
-239.903	-122.962	-0.279	-0.044
-238.888	-43.179	0.154	0.077
-237.873	800.000	0.097	-0.298
-236.859	77.336	0.111	-0.116
-235.844	74.501	0.137	-0.141
-234.830	87.467	-0.098	-0.107
-233.815	-159.047	-0.306	0.017
-232.800	-41.803	-0.092	0.046
-231.786	-63.437	-0.139	0.056
-230.771	-151.830	0.196	0.014
-229.757	-36.598	-0.198	0.105
-228.742	-16.166	0.300	0.188
-227.727	-200.000	-0.034	-0.169
-226.713	-131.537	0.243	0.032
-225.698	289.783	-0.155	0.277
-224.684	0.316	0.215	0.151
-223.669	-200.000	-0.039	-0.201
-222.655	84.132	-0.135	0.145
-221.640	229.203	0.114	-0.183
-220.625	217.685	-0.097	-0.153
-219.611	212.846	-0.112	0.174
-218.596	44.582	-0.074	-0.067
-217.582	-84.621	0.304	0.094
-216.567	800.000	-0.043	-0.118
-215.552	-200.000	-0.002	0.027
-214.538	-3.901	0.102	0.070
-213.523	-142.445	0.200	0.019
-212.509	497.555	-0.043	0.098
-211.494	-200.000	-0.062	-0.295
-210.479	-103.532	-0.462	-0.107
-209.465	152.826	0.240	-0.322
-208.450	-200.000	-0.003	-0.295
-207.436	-104.650	-0.199	0.045
-206.421	-200.000	-0.039	0.188
-205.406	67.042	-0.046	0.046
-204.392	-161.488	-0.105	-0.005
-203.377	350.878	-0.064	0.124
-202.363	-200.000	0.010	-0.055
-201.348	12.231	0.102	-0.077
-200.333	-61.369	0.185	-0.076
-199.319	800.000	-0.003	0.011
-198.304	-200.000	-0.087	-0.480
-197.290	-200.000	-0.006	-0.159
-196.275	800.000	-0.056	-0.193
-195.260	-126.819	-0.056	-0.008
-194.246	-200.000	-0.035	0.200
-193.231	-69.908	-0.268	0.100
-192.217	800.000	0.135	-0.383
-191.202	-44.615	0.099	0.049
-190.187	-200.000	0.004	-0.101
-189.173	20.766	-0.198	0.158
-188.158	-174.357	-0.218	-0.006
-187.144	557.478	0.093	-0.221
-186.129	-200.000	0.067	-0.369
-185.114	-2.229	0.060	-0.042
-184.100	269.931	-0.092	-0.158
-183.085	64.687	-0.177	0.175
-182.071	800.000	0.036	0.115
-181.056	-200.000	-0.004	0.110
-180.042	-200.000	-0.013	-0.106
-179.027	-122.216	-0.116	-0.019
-178.012	403.247	0.181	-0.374
-176.998	-151.163	0.119	0.009
-175.983	305.991	0.202	-0.369
-174.969	-154.048	0.151	0.010
-173.954	122.814	0.240	0.294
-172.939	25.615	-0.485	-0.396
-171.925	-48.459	0.091	-0.043
-170.910	800.000	-0.049	-0.147
-169.896	149.553	-0.077	-0.102
-168.881	-96.837	0.090	-0.023
-167.866	800.000	-0.118	0.373
-166.852	-56.875	-0.088	0.038
-165.837	-200.000	0.014	0.251
-164.823	-89.986	-0.190	-0.054
-163.808	199.951	0.089	-0.134
-162.793	-162.038	0.120	0.006
-161.779	295.776	0.161	0.289
-160.764	-54.863	0.131	0.058
-159.750	-71.643	0.131	-0.048
-158.735	-38.022	0.255	-0.133
-157.720	800.000	-0.085	0.279
-156.706	-21.511	0.034	-0.020
-155.691	-134.472	-0.134	-0.016
-154.677	-120.709	0.338	0.056
-153.662	238.065	-0.100	0.163
-152.647	-49.862	0.234	0.109
-151.633	341.994	-0.075	0.143
-150.618	-86.087	0.167	0.051
-149.604	-27.155	0.142	-0.081
-148.589	-145.876	-0.254	-0.022
-147.574	-13.202	-0.273	0.174
-146.560	-200.000	0.008	0.043
-145.545	526.393	0.131	-0.302
-144.531	-200.000	0.096	-0.603
-143.516	-94.440	-0.229	0.061
-142.502	-25.866	0.091	-0.052
-141.487	-169.955	-0.325	-0.011
-140.472	-200.000	0.275	-0.001
-139.458	-36.080	-0.195	0.103
-138.443	-70.204	-0.113	0.042
-137.429	-200.000	-0.010	0.310
-136.414	-200.000	0.024	-0.108
-135.399	-139.329	0.252	-0.027
-134.385	-200.000	-0.081	-0.428
-133.370	-69.828	-0.192	0.072
-132.356	381.394	0.131	0.263
-131.341	-200.000	0.000	-0.115
-130.326	-88.258	0.171	-0.050
-129.312	800.000	-0.099	-0.330
-128.297	-15.816	0.126	0.079
-127.283	-200.000	-0.049	0.328
-126.268	352.446	0.127	0.246
-125.253	800.000	0.089	-0.307
-124.239	47.031	-0.186	0.170
-123.224	252.360	-0.064	0.107
-122.210	-159.311	0.070	0.004
-121.195	800.000	-0.036	0.127
