DTS Sentinel unit serial number:	SN413079Multiplexer serial number:	ORYXHardware model number:	OX4-SRSoftware version number:	ORYX F/W v4.00 Oryx Data Collector v3.7.2.0data status	okinstallation	princeton_trtdifferential loss correction	single-endedforward channel	channel 1reverse channel	N/Adate	2019/09/13time	13:22:35forward acquisition time	60.00reverse acquisition time	0.00gamma	496.2192k internal	0.2304k external	0.2304temperature offset calibration	1.0166default loss term (dB/km)	0.3790temperature slope calibration	1.0000multiplexer offset coefficient	1.0000multiplexer slope coefficient	1.0000fibre end	0.00T internal ref (°C)	35.00T ext. ref 1 (°C)	4.56T ext. ref 2 (°C)	31.18length (m)	temperature (°C)	Stokes	anti-Stokes-747.200	7.655	-0.051	0.039
-746.185	800.000	-0.037	0.125
-745.171	35.693	0.211	0.189
-744.156	800.000	0.115	0.371
-743.142	-200.000	-0.003	0.220
-742.127	-31.249	-0.273	0.157
-741.112	-200.000	0.031	0.161
-740.098	800.000	0.099	0.351
-739.083	550.183	-0.068	0.165
-738.069	156.438	0.294	0.413
-737.054	-80.747	-0.274	-0.093
-736.039	348.764	-0.019	0.039
-735.025	-53.546	0.362	-0.169
-734.010	-163.002	-0.164	-0.008
-732.996	-200.000	-0.117	-0.528
-731.981	-146.897	-0.143	0.013
-730.966	-153.283	-0.367	-0.026
-729.952	315.566	-0.024	-0.047
-728.937	800.000	-0.048	-0.203
-727.923	-100.713	0.120	-0.030
-726.908	-27.758	-0.057	-0.033
-725.894	23.633	-0.205	0.172
-724.879	-35.009	-0.268	0.149
-723.864	-200.000	-0.030	-0.187
-722.850	-130.126	-0.128	0.018
-721.835	63.617	-0.091	-0.093
-720.821	-200.000	0.003	-0.274
-719.806	30.800	-0.141	0.123
-718.791	323.238	0.035	0.068
-717.777	-109.734	-0.247	0.053
-716.762	-124.876	-0.114	0.018
-715.748	800.000	-0.063	-0.182
-714.733	23.361	-0.186	0.155
-713.718	-40.350	0.212	-0.112
-712.704	-200.000	-0.053	-0.350
-711.689	-36.775	0.137	-0.075
-710.675	323.820	-0.054	0.105
-709.660	66.027	0.173	0.179
-708.645	-108.581	0.339	-0.074
-707.631	-106.914	-0.174	0.039
-706.616	-32.338	0.262	0.149
-705.602	-200.000	0.008	-0.230
-704.587	16.474	0.077	-0.062
-703.572	-117.127	-0.170	0.032
-702.558	4.715	0.124	0.093
-701.543	704.515	-0.067	0.180
-700.529	-40.716	0.125	-0.066
-699.514	112.987	-0.043	0.053
-698.499	209.175	0.116	-0.184
-697.485	-76.054	-0.338	0.122
-696.470	800.000	-0.045	-0.136
-695.456	-200.000	-0.001	0.029
-694.441	-163.820	-0.114	0.005
-693.426	-66.857	0.194	-0.078
-692.412	-113.770	-0.306	-0.060
-691.397	800.000	0.070	0.242
-690.383	-124.430	0.130	0.021
-689.368	480.420	-0.039	-0.090
-688.354	-53.424	0.233	-0.108
-687.339	-117.203	0.169	-0.031
-686.324	800.000	-0.017	-0.071
-685.310	-95.309	0.057	0.016
-684.295	9.504	0.157	-0.121
-683.281	169.247	-0.344	0.499
-682.266	-48.639	-0.445	-0.217
-681.251	23.182	-0.050	0.042
-680.237	-51.189	0.144	-0.069
-679.222	-68.680	0.108	0.042
-678.208	-52.887	-0.425	0.199
-677.193	254.195	0.092	-0.161
-676.178	800.000	0.029	-0.108
-675.164	123.690	0.187	-0.238
-674.149	-200.000	-0.018	0.186
-673.135	-157.621	0.280	-0.017
-672.120	800.000	-0.052	0.159
-671.105	800.000	0.018	-0.060
-670.091	29.857	-0.149	-0.129
-669.076	796.338	-0.057	0.160
-668.062	-103.047	-0.060	-0.014
-667.047	369.166	-0.153	-0.314
-666.032	-97.928	-0.152	-0.040
-665.018	501.226	0.097	0.228
-664.003	-64.504	0.124	-0.051
-662.989	800.000	-0.115	-0.390
-661.974	-165.440	-0.152	0.007
-660.959	-33.872	0.214	0.120
-659.945	9.572	-0.205	0.158
-658.930	-200.000	0.006	-0.101
-657.916	41.446	0.104	-0.096
-656.901	-200.000	0.046	0.317
-655.886	800.000	-0.050	-0.179
-654.872	-51.719	0.312	-0.147
-653.857	-200.000	-0.047	-0.311
-652.843	-9.425	0.185	-0.125
-651.828	49.354	-0.106	-0.101
-650.814	588.265	-0.007	0.016
-649.799	800.000	0.028	-0.086
-648.784	-200.000	0.007	0.063
-647.770	-128.148	-0.109	0.016
-646.755	36.935	0.192	-0.173
-645.741	12.374	0.169	-0.132
-644.726	603.827	-0.033	-0.082
-643.711	325.202	-0.087	-0.169
-642.697	800.000	-0.022	0.067
-641.682	512.985	-0.127	-0.299
-640.668	20.040	0.145	-0.118
-639.653	98.334	0.254	-0.297
-638.638	-3.060	-0.119	-0.084
-637.624	4.840	-0.101	0.075
-636.609	-68.174	-0.234	-0.092
-635.595	55.746	0.175	0.172
-634.580	573.575	-0.114	-0.282
-633.565	-67.805	-0.137	0.054
-632.551	-78.791	-0.226	-0.078
-631.536	-200.000	0.018	-0.317
-630.522	76.224	-0.043	0.046
-629.507	-76.830	0.373	0.132
-628.492	-1.559	0.317	0.226
-627.478	-87.195	-0.212	0.065
-626.463	-112.410	0.126	0.026
-625.449	800.000	0.046	0.137
-624.434	372.513	-0.073	0.150
-623.419	273.094	0.205	0.368
-622.405	-200.000	-0.013	0.084
-621.390	167.210	-0.225	0.323
-620.376	800.000	-0.087	0.364
-619.361	-200.000	0.005	-0.213
-618.346	234.834	-0.152	-0.254
-617.332	-200.000	0.013	0.071
-616.317	-56.189	0.167	0.075
-615.303	800.000	-0.120	0.349
-614.288	-32.087	0.338	0.192
-613.273	-159.786	-0.294	0.016
-612.259	270.680	-0.190	-0.338
-611.244	-114.979	0.183	0.035
-610.230	-54.913	-0.254	0.116
-609.215	-31.808	-0.076	-0.043
-608.201	38.615	0.117	0.106
-607.186	-61.114	0.232	-0.099
-606.171	800.000	0.139	-0.477
-605.157	-45.384	-0.258	0.130
-604.142	-33.113	0.126	-0.071
-603.128	18.298	0.309	0.250
-602.113	-30.768	-0.238	-0.136
-601.098	-151.376	-0.147	-0.011
-600.084	91.877	-0.075	-0.085
-599.069	-5.247	0.153	-0.106
-598.055	180.390	0.322	-0.478
-597.040	21.861	-0.306	-0.252
-596.025	91.723	0.137	-0.156
-595.011	-200.000	0.011	-0.125
-593.996	-106.778	0.213	-0.048
-592.982	38.213	-0.124	-0.112
-591.967	56.786	0.128	-0.126
-590.952	-15.065	0.169	-0.110
-589.938	-121.118	-0.154	-0.026
-588.923	46.402	-0.062	0.058
-587.909	64.376	0.114	0.116
-586.894	-2.756	0.169	0.119
-585.879	-42.103	-0.176	0.091
-584.865	800.000	0.040	-0.162
-583.850	-89.673	-0.039	-0.012
-582.836	-200.000	0.037	-0.253
-581.821	800.000	-0.073	-0.214
-580.806	-125.236	0.189	-0.029
-579.792	222.661	-0.111	0.181
-578.777	800.000	0.098	-0.316
-577.763	-122.132	0.100	-0.017
-576.748	-8.250	0.044	-0.030
-575.733	55.097	0.126	0.123
-574.719	800.000	0.030	0.090
-573.704	482.060	0.059	0.137
-572.690	-98.320	-0.372	0.097
-571.675	-75.109	-0.388	0.140
-570.661	800.000	-0.034	-0.103
-569.646	-111.032	-0.249	-0.052
-568.631	-68.969	0.445	-0.174
-567.617	399.853	-0.099	0.211
-566.602	-40.595	0.179	-0.094
-565.588	-73.820	0.048	0.018
-564.573	49.251	-0.350	-0.333
-563.558	107.533	0.158	-0.190
-562.544	4.022	0.314	0.232
-561.529	-200.000	-0.008	-0.090
-560.515	800.000	-0.048	-0.181
-559.500	-51.012	-0.190	-0.090
-558.485	-139.123	0.278	-0.030
-557.471	-46.513	0.192	0.095
-556.456	800.000	0.080	-0.315
-555.442	-9.940	-0.282	-0.189
-554.427	-105.929	-0.167	-0.038
-553.412	-89.578	-0.062	-0.018
-552.398	-35.141	-0.144	-0.079
-551.383	69.763	-0.075	-0.078
-550.369	-147.937	0.061	-0.005
-549.354	-16.634	-0.108	-0.069
-548.339	-200.000	-0.043	0.207
-547.325	295.752	0.156	-0.289
-546.310	-29.209	-0.062	-0.036
-545.296	116.323	0.113	0.140
-544.281	-21.602	0.119	0.073
-543.266	-85.075	0.378	-0.120
-542.252	201.856	-0.090	-0.141
-541.237	-22.679	0.204	-0.125
-540.223	80.874	-0.080	-0.087
-539.208	445.388	0.041	-0.092
-538.193	-89.480	0.236	-0.070
-537.179	-126.654	0.251	0.037
-536.164	-152.074	-0.209	0.015
-535.150	-159.731	-0.273	0.015
-534.135	-85.565	-0.166	0.052
-533.121	-99.065	0.234	-0.060
-532.106	164.142	-0.092	0.131
-531.091	355.287	0.104	0.209
-530.077	-7.479	-0.300	0.205
-529.062	-200.000	-0.038	0.206
-528.048	-105.906	0.103	0.023
-527.033	-0.199	-0.167	0.120
-526.018	143.999	-0.244	0.329
-525.004	-141.331	-0.173	-0.018
-523.989	-73.538	0.161	-0.059
-522.975	-169.116	0.101	0.004
-521.960	-200.000	0.014	0.384
-520.945	-200.000	0.033	-0.218
-519.931	-11.564	-0.134	0.089
-518.916	-25.174	-0.371	-0.222
-517.902	7.783	-0.283	0.214
-516.887	201.018	-0.074	-0.116
-515.872	2.782	0.161	-0.118
-514.858	-200.000	-0.030	-0.228
-513.843	-200.000	0.015	-0.285
-512.829	-46.523	0.238	-0.118
-511.814	-165.578	-0.137	-0.006
-510.799	181.449	-0.131	-0.194
-509.785	-62.041	-0.070	0.029
-508.770	96.423	-0.082	-0.094
-507.756	-52.751	-0.124	0.058
-506.741	-73.167	-0.247	0.091
-505.726	478.113	0.045	0.104
-504.712	68.082	-0.185	0.191
-503.697	-19.806	0.200	0.125
-502.683	-200.000	-0.001	-0.230
-501.668	-200.000	0.233	0.001
-500.653	-135.307	0.126	0.015
-499.639	193.259	0.197	-0.300
-498.624	-138.026	0.188	-0.021
-497.610	-33.587	-0.434	0.241
-496.595	800.000	0.036	-0.120
-495.581	-57.688	-0.233	0.103
-494.566	112.963	-0.154	0.188
-493.551	168.705	-0.049	-0.070
-492.537	-200.000	0.000	-0.001
-491.522	94.025	-0.117	0.134
-490.508	-77.330	-0.303	-0.106
-489.493	55.782	0.191	0.187
-488.478	65.464	0.131	0.134
-487.464	-137.532	-0.281	0.032
-486.449	-58.034	-0.295	-0.130
-485.435	-121.086	0.096	-0.016
-484.420	-15.731	0.259	-0.166
-483.405	800.000	-0.029	0.087
-482.391	110.685	0.208	0.253
-481.376	283.552	0.080	0.144
-480.362	-108.973	-0.170	0.037
-479.347	-68.170	-0.153	0.060
-478.332	-44.320	0.137	-0.069
-477.318	-200.000	-0.012	0.217
-476.303	-95.756	0.264	-0.071
-475.289	75.561	-0.082	-0.087
-474.274	94.167	-0.208	0.238
-473.259	77.405	-0.212	-0.227
-472.245	508.595	-0.083	0.195
-471.230	800.000	0.038	-0.156
-470.216	-42.427	-0.137	-0.071
-469.201	88.833	0.179	-0.201
-468.186	309.651	-0.026	-0.048
-467.172	217.863	-0.123	0.198
-466.157	795.700	-0.114	0.318
-465.143	-200.000	0.035	0.374
-464.128	36.364	-0.256	-0.227
-463.113	800.000	-0.063	-0.208
-462.099	191.002	0.197	-0.299
-461.084	800.000	0.088	-0.301
-460.070	-85.595	0.419	0.131
-459.055	22.374	-0.279	-0.230
-458.040	-200.000	-0.071	0.379
-457.026	235.313	0.096	-0.160
-456.011	-200.000	0.035	0.182
-454.997	-17.419	0.155	-0.098
-453.982	434.217	-0.037	-0.081
-452.968	-200.000	-0.007	-0.067
-451.953	183.907	-0.063	-0.094
-450.938	116.641	0.222	-0.274
-449.924	-200.000	-0.011	0.185
-448.909	109.360	0.251	-0.302
-447.895	196.947	-0.034	-0.052
-446.880	642.959	0.029	0.074
-445.865	-4.145	-0.097	-0.068
-444.851	707.701	0.049	0.130
-443.836	316.924	0.151	-0.288
-442.822	-200.000	0.005	-0.060
-441.807	-63.444	0.326	0.135
-440.792	-6.242	0.241	0.166
-439.778	-138.588	-0.104	-0.011
-438.763	97.279	-0.143	0.165
-437.749	-121.373	0.125	0.021
-436.734	-100.772	0.366	-0.091
-435.719	96.965	-0.267	-0.308
-434.705	-167.192	-0.166	0.007
-433.690	-103.215	0.118	-0.028
-432.676	-0.014	0.167	0.119
-431.661	13.137	-0.193	-0.150
-430.646	-200.000	-0.035	0.207
-429.632	-69.785	0.124	0.048
-428.617	29.305	-0.199	0.170
-427.603	800.000	0.127	0.386
-426.588	-65.086	-0.166	0.067
-425.573	-200.000	0.015	0.249
-424.559	-84.478	0.274	0.087
-423.544	150.500	0.125	0.171
-422.530	-54.502	-0.048	-0.022
-421.515	-18.875	0.076	-0.047
-420.500	-105.599	-0.123	0.028
-419.486	-89.718	-0.181	-0.053
-418.471	-200.000	0.010	-0.235
-417.457	23.944	0.074	0.061
-416.442	220.173	-0.087	0.140
-415.428	800.000	0.111	0.358
-414.413	562.231	0.061	-0.149
-413.398	266.116	0.165	-0.290
-412.384	142.597	-0.242	0.323
-411.369	-83.212	-0.116	-0.037
-410.355	800.000	-0.108	-0.455
-409.340	9.731	-0.101	0.077
-408.325	-200.000	-0.013	0.265
-407.311	16.610	-0.047	0.038
-406.296	714.749	0.060	0.159
-405.282	-91.251	0.330	-0.095
-404.267	-78.057	-0.248	-0.086
-403.252	105.371	0.211	-0.251
-402.238	605.570	-0.069	-0.173
-401.223	368.744	-0.014	0.029
-400.209	800.000	0.010	-0.040
-399.194	800.000	-0.074	-0.220
-398.179	-122.839	-0.371	0.060
-397.165	-200.000	-0.014	0.202
-396.150	-70.930	-0.121	0.046
-395.136	-200.000	-0.033	-0.146
-394.121	56.426	0.078	-0.076
-393.106	105.128	0.335	0.397
-392.092	-33.282	0.037	0.021
-391.077	-200.000	0.014	0.108
-390.063	-200.000	0.005	-0.351
-389.048	-114.077	-0.155	0.030
-388.033	800.000	0.054	0.194
-387.019	473.794	-0.026	0.060
-386.004	242.129	-0.105	-0.176
-384.990	-191.760	-0.159	0.002
-383.975	90.640	0.010	-0.012
-382.960	-128.093	-0.287	-0.041
-381.946	-0.545	0.179	-0.127
-380.931	311.552	0.142	-0.266
-379.917	215.977	-0.063	0.101
-378.902	99.321	-0.132	0.153
-377.888	-102.460	-0.199	0.048
-376.873	-27.250	-0.373	0.218
-375.858	-83.849	-0.097	-0.031
-374.844	-90.233	0.067	-0.020
-373.829	554.170	-0.156	0.377
-372.815	111.339	-0.097	0.117
-371.800	-103.600	0.095	0.022
-370.785	315.788	0.079	-0.150
-369.771	-146.221	-0.302	0.027
-368.756	-91.446	0.249	0.071
-367.742	69.809	-0.191	-0.198
-366.727	-132.612	0.256	0.033
-365.712	259.606	-0.049	-0.084
-364.698	185.969	0.030	-0.045
-363.683	-61.721	0.409	0.172
-362.669	188.535	-0.074	0.111
-361.654	-43.221	-0.341	0.173
-360.639	485.581	0.042	-0.096
-359.625	-78.600	-0.074	0.025
-358.610	28.006	0.101	-0.086
-357.596	55.726	0.066	0.064
-356.581	-183.468	-0.142	0.002
-355.566	-14.594	0.044	-0.028
-354.552	-8.344	-0.077	0.052
-353.537	800.000	0.097	-0.410
-352.523	17.551	-0.182	0.145
-351.508	-50.737	0.153	0.072
-350.493	-77.115	-0.171	-0.060
-349.479	142.261	0.157	-0.208
-348.464	-97.609	-0.270	0.070
-347.450	-200.000	0.027	-0.285
-346.435	-41.798	-0.247	-0.127
-345.420	-23.171	0.338	0.204
-344.406	-62.999	0.235	-0.097
-343.391	-74.686	-0.300	0.108
-342.377	-14.524	-0.137	0.088
-341.362	-111.222	-0.163	-0.033
-340.348	166.454	-0.114	0.162
-339.333	381.264	0.020	-0.041
-338.318	-91.450	0.098	0.028
-337.304	237.162	-0.130	-0.215
-336.289	800.000	0.085	-0.245
-335.275	-120.512	-0.151	-0.026
-334.260	126.097	-0.200	0.254
-333.245	-200.000	0.016	0.072
-332.231	-200.000	-0.012	-0.349
-331.216	46.828	-0.238	0.222
-330.202	-84.444	0.097	0.031
-329.187	42.958	0.150	-0.137
-328.172	-132.620	-0.179	-0.023
-327.158	800.000	0.064	0.190
-326.143	-200.000	0.009	-0.085
-325.129	9.421	0.347	-0.263
-324.114	17.156	-0.408	0.324
-323.099	-129.839	-0.220	-0.030
-322.085	191.372	-0.178	-0.268
-321.070	6.899	-0.218	-0.162
-320.056	234.118	-0.244	-0.403
-319.041	-163.789	0.207	-0.010
-318.026	343.268	0.074	-0.145
-317.012	-9.899	0.134	-0.090
-315.997	88.706	0.146	-0.163
-314.983	281.758	-0.219	0.393
-313.968	-104.202	0.130	-0.030
-312.953	800.000	-0.024	-0.094
-311.939	45.196	-0.294	0.271
-310.924	-200.000	-0.027	-0.484
-309.910	34.099	0.149	0.130
-308.895	19.079	0.072	0.058
-307.880	18.064	0.152	0.121
-306.866	477.133	0.108	-0.244
-305.851	-35.345	-0.150	-0.082
-304.837	373.268	0.167	-0.340
-303.822	159.667	0.063	0.088
-302.807	-84.954	-0.119	0.037
-301.793	52.019	0.388	0.370
-300.778	176.669	-0.106	0.154
-299.764	-85.448	-0.203	0.063
-298.749	11.185	0.251	-0.192
-297.735	-52.671	-0.018	-0.009
-296.720	-111.783	-0.161	0.033
-295.705	69.474	0.133	0.137
-294.691	-22.348	-0.161	0.097
-293.676	635.397	0.069	-0.175
-292.662	-145.001	0.111	0.010
-291.647	-200.000	0.025	0.165
-290.632	-55.835	-0.191	-0.085
-289.618	364.281	0.087	0.175
-288.603	144.147	0.169	-0.225
-287.589	-110.517	-0.040	0.008
-286.574	-200.000	0.012	-0.301
-285.559	-164.922	-0.025	0.001
-284.545	181.991	0.040	0.059
-283.530	-137.262	-0.429	-0.049
-282.516	6.890	0.107	-0.079
-281.501	-31.959	0.269	-0.151
-280.486	234.594	0.061	0.101
-279.472	649.445	0.092	0.235
-278.457	163.948	0.138	-0.195
-277.443	-23.700	-0.193	0.116
-276.428	-100.950	-0.206	0.051
-275.413	129.674	-0.239	0.305
-274.399	-200.000	0.012	0.182
-273.384	-200.000	-0.009	-0.058
-272.370	176.298	0.054	0.078
-271.355	-119.233	0.131	-0.023
-270.340	155.445	0.075	-0.104
-269.326	-200.000	0.016	0.111
-268.311	-56.541	0.195	0.087
-267.297	-48.914	0.210	0.101
-266.282	-140.902	-0.080	-0.008
-265.267	53.445	0.356	0.341
-264.253	-200.000	0.011	-0.236
-263.238	-200.000	0.051	-0.356
-262.224	-14.562	0.042	-0.027
-261.209	-57.124	-0.331	-0.146
-260.195	62.345	0.201	0.200
-259.180	26.590	-0.116	-0.097
-258.165	-162.368	0.190	-0.009
-257.151	-200.000	-0.116	0.000
-256.136	-121.579	0.284	0.047
-255.122	-102.258	0.208	0.050
-254.107	-85.963	-0.030	0.009
-253.092	408.814	-0.030	-0.063
-252.078	-152.601	-0.161	-0.012
-251.063	427.337	0.084	0.182
-250.049	150.492	-0.106	0.143
-249.034	-160.037	0.350	-0.019
-248.019	62.586	0.184	0.184
-247.005	-200.000	-0.007	-0.163
-245.990	-156.862	0.217	0.013
-244.976	706.179	-0.085	-0.225
-243.961	-91.971	-0.159	-0.045
-242.946	800.000	-0.102	-0.308
-241.932	14.627	0.098	-0.077
-240.917	-29.466	-0.055	-0.031
-239.903	-33.276	0.290	0.160
-238.888	513.367	0.130	0.302
-237.873	345.136	0.016	0.032
-236.859	-134.230	-0.384	0.047
-235.844	99.644	0.069	0.080
-234.830	-123.668	-0.125	-0.020
-233.815	-123.063	0.038	0.006
-232.800	-63.805	0.064	0.026
-231.786	238.778	0.102	-0.168
-230.771	-122.106	-0.096	0.016
-229.757	-172.083	-0.214	-0.007
-228.742	-13.128	0.397	0.257
-227.727	-98.871	-0.144	0.036
-226.713	-200.000	-0.022	0.139
-225.698	-88.181	-0.324	-0.097
-224.684	-200.000	0.063	-0.289
-223.669	59.408	0.144	-0.142
-222.655	453.914	0.016	0.036
-221.640	-112.107	0.073	-0.015
-220.625	74.118	0.119	-0.124
-219.611	76.719	-0.291	0.308
-218.596	-45.687	-0.194	-0.096
-217.582	800.000	-0.103	0.407
-216.567	603.022	0.032	0.080
-215.552	-200.000	0.011	-0.271
-214.538	6.518	-0.097	-0.072
-213.523	800.000	0.019	0.080
-212.509	-9.523	-0.082	-0.055
-211.494	661.340	-0.069	0.178
-210.479	-140.924	0.271	-0.028
-209.465	-66.748	0.154	-0.061
-208.450	50.479	-0.288	0.271
-207.436	-72.636	-0.245	0.090
-206.421	3.697	0.318	-0.231
-205.406	293.094	0.008	0.015
-204.392	-200.000	0.078	0.369
-203.377	30.033	-0.030	-0.026
-202.363	-120.449	0.059	-0.010
-201.348	800.000	0.136	0.397
-200.333	464.380	-0.227	0.507
-199.319	-200.000	0.056	-0.318
-198.304	49.646	0.326	-0.306
-197.290	800.000	0.014	-0.040
-196.275	-200.000	0.017	-0.142
-195.260	-180.961	-0.181	0.004
-194.246	-26.709	0.135	0.078
-193.231	-171.884	0.167	0.005
-192.217	800.000	-0.020	-0.081
-191.202	800.000	-0.018	-0.068
-190.187	-72.608	0.266	-0.098
-189.173	45.480	0.264	-0.242
-188.158	-184.289	0.356	-0.006
-187.144	-200.000	-0.034	0.221
-186.129	-200.000	0.033	0.293
-185.114	338.227	-0.132	0.256
-184.100	-22.396	0.197	0.119
-183.085	-200.000	-0.017	0.081
-182.071	-200.000	-0.045	0.252
-181.056	-70.601	0.374	0.141
-180.042	232.233	-0.101	-0.166
-179.027	-110.249	-0.352	0.073
-178.012	70.323	0.039	-0.040
-176.998	104.180	-0.023	-0.027
-175.983	98.074	-0.032	0.036
-174.969	775.523	0.059	0.159
-173.954	-110.865	-0.133	-0.027
-172.939	-170.169	0.272	-0.010
-171.925	88.813	0.130	0.143
-170.910	296.520	0.211	0.386
-169.896	63.708	0.218	0.218
-168.881	-19.833	0.168	0.104
-167.866	605.257	0.059	0.147
-166.852	-97.520	-0.108	0.028
-165.837	-94.024	0.170	0.047
-164.823	-72.111	-0.055	0.020
-163.808	-56.843	-0.449	-0.197
-162.793	57.113	0.038	-0.036
-161.779	-200.000	-0.057	-0.277
-160.764	173.707	0.071	0.102
-159.750	15.035	0.398	0.310
-158.735	101.715	-0.222	0.258
-157.720	-200.000	-0.014	-0.332
-156.706	74.774	0.039	0.041
-155.691	177.619	-0.141	0.204
-154.677	63.567	0.278	-0.278
-153.662	-141.057	-0.215	0.022
-152.647	-200.000	0.005	0.367
-151.633	-123.593	-0.225	0.036
-150.618	94.914	-0.189	0.214
-149.604	77.713	-0.232	0.246
-148.589	800.000	0.076	0.270
-147.574	258.245	-0.054	0.092
-146.560	718.685	-0.118	-0.311
-145.545	87.588	0.058	0.064
-144.531	-200.000	0.020	0.257
-143.516	800.000	-0.021	0.083
-142.502	-83.364	0.057	-0.018
-141.487	-188.969	-0.539	0.006
-140.472	-141.901	0.186	0.018
-139.458	-200.000	-0.039	-0.172
-138.443	-129.706	-0.159	-0.022
-137.429	-200.000	-0.017	0.281
-136.414	2.498	-0.100	0.072
-135.399	11.638	0.096	0.074
-134.385	66.452	0.037	0.037
-133.370	113.985	-0.193	0.233
-132.356	-44.750	0.356	0.177
-131.341	30.653	0.145	0.123
-130.326	-200.000	-0.030	0.306
-129.312	442.804	0.067	0.146
-128.297	-81.716	-0.099	-0.032
-127.283	276.806	-0.104	0.184
-126.268	-200.000	-0.020	0.436
-125.253	-200.000	-0.011	-0.361
-124.239	630.773	-0.152	-0.382
-123.224	646.741	-0.077	-0.196
-122.210	-200.000	-0.004	-0.331
-121.195	800.000	0.053	-0.156
-120.180	238.826	-0.146	0.241
