DTS Sentinel unit serial number:	SN413079Multiplexer serial number:	ORYXHardware model number:	OX4-SRSoftware version number:	ORYX F/W v4.00 Oryx Data Collector v3.7.2.0data status	okinstallation	princeton_trtdifferential loss correction	single-endedforward channel	channel 1reverse channel	N/Adate	2019/09/13time	03:34:35forward acquisition time	60.00reverse acquisition time	0.00gamma	496.2192k internal	0.2332k external	0.2332temperature offset calibration	1.0161default loss term (dB/km)	0.3790temperature slope calibration	1.0000multiplexer offset coefficient	1.0000multiplexer slope coefficient	1.0000fibre end	0.00T internal ref (°C)	27.28T ext. ref 1 (°C)	4.05T ext. ref 2 (°C)	21.66length (m)	temperature (°C)	Stokes	anti-Stokes-747.200	88.339	0.123	0.137
-746.185	22.898	-0.152	-0.125
-745.171	-200.000	-0.004	-0.124
-744.156	605.084	0.072	0.181
-743.142	-160.598	0.256	-0.014
-742.127	-200.000	-0.033	0.202
-741.112	272.171	0.115	0.203
-740.098	-156.709	-0.219	0.014
-739.083	11.497	-0.178	-0.137
-738.069	98.099	-0.040	0.046
-737.054	-200.000	-0.014	-0.144
-736.039	410.254	0.054	-0.114
-735.025	39.432	0.126	0.113
-734.010	-200.000	0.001	-0.028
-732.996	800.000	0.037	0.120
-731.981	19.380	-0.150	-0.121
-730.966	-77.597	-0.306	-0.107
-729.952	800.000	-0.053	0.152
-728.937	70.625	0.258	0.268
-727.923	-43.428	-0.170	0.086
-726.908	-200.000	0.007	-0.062
-725.894	-125.439	-0.251	-0.038
-724.879	-85.665	-0.023	-0.007
-723.864	-74.064	-0.366	0.133
-722.850	-70.931	-0.194	0.073
-721.835	216.827	-0.017	-0.028
-720.821	-46.842	-0.291	0.143
-719.806	800.000	-0.061	-0.187
-718.791	92.607	-0.146	-0.165
-717.777	-200.000	0.009	-0.208
-716.762	800.000	0.071	-0.215
-715.748	-91.444	-0.233	0.067
-714.733	295.448	0.111	-0.205
-713.718	-163.378	-0.164	-0.008
-712.704	-104.489	-0.241	0.056
-711.689	220.498	0.021	0.034
-710.675	-32.624	-0.187	0.105
-709.660	-57.786	-0.154	0.068
-708.645	-123.467	0.327	0.052
-707.631	534.004	-0.176	-0.419
-706.616	-200.000	-0.014	0.103
-705.602	-81.035	-0.305	0.101
-704.587	-12.485	-0.118	-0.077
-703.572	-200.000	0.011	0.224
-702.558	-200.000	-0.020	0.190
-701.543	-60.526	0.202	0.086
-700.529	-108.375	-0.161	0.035
-699.514	139.310	0.170	0.225
-698.499	-200.000	0.026	0.135
-697.485	-59.990	-0.175	-0.075
-696.470	296.024	0.200	-0.369
-695.456	-114.235	0.144	-0.028
-694.441	580.323	-0.091	-0.225
-693.426	-200.000	-0.061	0.289
-692.412	-82.955	-0.050	0.016
-691.397	-142.820	-0.400	-0.039
-690.383	133.084	-0.014	0.019
-689.368	-200.000	0.003	0.304
-688.354	-42.021	0.512	0.263
-687.339	-148.987	0.194	0.016
-686.324	-51.660	-0.049	0.023
-685.310	122.975	-0.032	0.040
-684.295	-24.670	-0.089	-0.053
-683.281	-36.009	-0.077	0.042
-682.266	103.615	-0.071	0.084
-681.251	-46.353	0.092	-0.045
-680.237	190.721	0.053	-0.080
-679.222	216.620	-0.096	0.153
-678.208	800.000	-0.009	0.039
-677.193	-8.523	0.434	-0.293
-676.178	-137.761	-0.180	-0.020
-675.164	-165.672	0.226	-0.010
-674.149	97.995	-0.066	-0.076
-673.135	187.262	-0.084	0.126
-672.120	800.000	0.090	0.281
-671.105	-103.753	0.057	-0.013
-670.091	-68.524	0.179	0.069
-669.076	-79.793	0.229	0.077
-668.062	-127.410	0.213	0.031
-667.047	-92.257	0.228	0.064
-666.032	-71.229	-0.179	-0.067
-665.018	760.951	0.103	-0.281
-664.003	800.000	0.051	-0.153
-662.989	-141.365	0.395	0.040
-661.974	212.203	-0.262	-0.414
-660.959	124.241	0.109	-0.137
-659.945	800.000	0.054	0.176
-658.930	-74.696	0.116	0.042
-657.916	-61.873	-0.196	0.082
-656.901	-19.424	-0.279	0.174
-655.886	-200.000	-0.036	0.309
-654.872	-200.000	0.011	-0.204
-653.857	192.909	-0.229	0.347
-652.843	-149.174	0.442	0.035
-651.828	-154.408	0.188	0.013
-650.814	237.474	0.160	0.265
-649.799	276.118	0.109	0.194
-648.784	-115.904	-0.127	0.024
-647.770	141.352	-0.239	0.317
-646.755	-200.000	-0.017	-0.227
-645.741	-39.716	-0.320	0.168
-644.726	-24.090	-0.245	-0.147
-643.711	-200.000	0.019	0.245
-642.697	173.228	0.151	-0.219
-641.682	142.654	-0.133	0.177
-640.668	26.954	-0.286	0.241
-639.653	253.237	-0.116	-0.198
-638.638	55.512	-0.145	-0.140
-637.624	221.649	0.096	-0.154
-636.609	163.954	-0.106	-0.150
-635.595	-40.034	-0.126	0.066
-634.580	-200.000	0.003	-0.144
-633.565	-112.592	0.105	0.021
-632.551	105.598	0.024	0.028
-631.536	800.000	0.039	-0.121
-630.522	800.000	-0.119	0.438
-629.507	502.144	0.075	0.172
-628.492	-200.000	-0.009	0.103
-627.478	-200.000	0.014	0.183
-626.463	8.306	0.118	0.089
-625.449	-200.000	0.011	-0.330
-624.434	-179.800	-0.123	0.003
-623.419	800.000	0.096	-0.383
-622.405	800.000	-0.055	0.190
-621.390	448.022	-0.106	0.235
-620.376	-131.398	-0.089	0.012
-619.361	800.000	0.032	0.121
-618.346	567.347	0.065	0.158
-617.332	-66.817	0.189	-0.075
-616.317	-186.787	-0.065	-0.001
-615.303	146.826	0.111	0.150
-614.288	-8.720	-0.047	-0.032
-613.273	-200.000	0.060	0.354
-612.259	-200.000	-0.039	-0.231
-611.244	-200.000	-0.053	-0.285
-610.230	-62.282	0.223	-0.093
-609.215	-91.978	-0.123	-0.035
-608.201	-48.813	-0.204	0.098
-607.186	447.470	-0.125	0.276
-606.171	95.080	0.122	-0.139
-605.157	415.847	0.050	-0.106
-604.142	-200.000	-0.056	-0.280
-603.128	82.852	0.134	-0.146
-602.113	-200.000	-0.027	-0.198
-601.098	119.767	0.074	-0.091
-600.084	194.523	-0.098	0.149
-599.069	197.618	-0.112	0.170
-598.055	343.649	0.028	0.055
-597.040	-55.687	0.362	0.162
-596.025	800.000	0.053	-0.146
-595.011	-63.916	0.060	-0.025
-593.996	-94.501	-0.241	0.066
-592.982	800.000	-0.029	-0.084
-591.967	272.843	0.124	-0.220
-590.952	-108.995	-0.148	0.032
-589.938	-11.798	-0.373	-0.245
-588.923	587.542	0.136	0.334
-587.909	-101.717	0.079	0.019
-586.894	-200.000	-0.021	-0.194
-585.879	303.102	-0.116	-0.214
-584.865	-42.619	-0.329	0.167
-583.850	58.412	-0.048	-0.047
-582.836	37.922	0.201	0.179
-581.821	-38.471	-0.026	-0.014
-580.806	-23.005	-0.058	-0.035
-579.792	195.598	-0.029	0.044
-578.777	74.598	0.186	-0.195
-577.763	69.489	-0.059	0.060
-576.748	800.000	0.023	-0.070
-575.733	11.528	0.099	-0.076
-574.719	38.690	0.216	-0.193
-573.704	-200.000	-0.021	0.145
-572.690	-200.000	0.027	0.308
-571.675	84.631	0.062	-0.068
-570.661	-200.000	0.019	-0.314
-569.646	-200.000	-0.007	0.079
-568.631	-151.246	-0.102	-0.008
-567.617	-160.784	-0.073	0.004
-566.602	540.959	0.091	0.217
-565.588	-62.112	0.520	-0.217
-564.573	-8.231	0.110	-0.074
-563.558	-174.500	-0.156	-0.004
-562.544	-44.085	0.311	-0.156
-561.529	33.396	0.223	0.194
-560.515	-200.000	-0.043	0.226
-559.500	-155.739	0.276	0.018
-558.485	-97.452	0.126	-0.033
-557.471	46.747	-0.215	0.199
-556.456	178.477	0.184	-0.268
-555.442	-200.000	-0.009	0.079
-554.427	163.126	-0.125	-0.176
-553.412	-200.000	-0.003	-0.170
-552.398	394.277	0.101	0.210
-551.383	-148.380	-0.183	0.015
-550.369	317.984	0.019	0.036
-549.354	-34.963	-0.181	0.099
-548.339	24.409	-0.132	-0.109
-547.325	-200.000	-0.014	-0.322
-546.310	-200.000	-0.033	-0.167
-545.296	37.831	-0.295	0.261
-544.281	800.000	-0.050	-0.146
-543.266	-200.000	-0.041	-0.202
-542.252	319.598	-0.069	-0.131
-541.237	-89.676	0.151	0.044
-540.223	-75.455	0.221	-0.078
-539.208	185.678	-0.157	0.233
-538.193	-65.389	-0.281	-0.113
-537.179	-16.254	-0.356	-0.226
-536.164	-86.289	-0.117	-0.036
-535.150	-25.391	-0.097	-0.057
-534.135	227.441	0.087	-0.142
-533.121	-200.000	0.061	0.341
-532.106	800.000	-0.040	0.127
-531.091	-172.595	-0.264	0.008
-530.077	-163.392	0.267	-0.013
-529.062	-80.474	0.179	0.059
-528.048	800.000	-0.021	-0.066
-527.033	44.173	0.267	-0.244
-526.018	-88.784	0.207	0.061
-525.004	-200.000	0.015	-0.103
-523.989	-2.388	-0.149	-0.105
-522.975	422.019	0.131	-0.280
-521.960	752.983	-0.059	-0.159
-520.945	15.560	-0.208	-0.163
-519.931	-123.397	-0.227	0.036
-518.916	96.184	0.190	0.216
-517.902	-200.000	-0.017	0.138
-516.887	277.414	-0.085	0.150
-515.872	-123.226	0.136	0.022
-514.858	10.015	0.277	-0.210
-513.843	155.835	0.235	-0.323
-512.829	-3.153	-0.078	0.054
-511.814	-51.555	-0.230	-0.107
-510.799	-200.000	0.006	-0.118
-509.785	-200.000	-0.011	-0.205
-508.770	800.000	-0.052	-0.201
-507.756	-200.000	0.003	0.122
-506.741	-103.748	0.284	0.066
-505.726	-183.002	-0.130	-0.002
-504.712	-200.000	-0.053	-0.303
-503.697	-146.077	-0.210	-0.018
-502.683	106.859	0.150	0.177
-501.668	-75.375	-0.161	-0.057
-500.653	8.723	-0.060	0.045
-499.639	5.648	-0.166	-0.122
-498.624	-200.000	0.032	-0.171
-497.610	-200.000	0.041	-0.420
-496.595	265.707	-0.143	0.249
-495.581	-40.121	0.258	0.134
-494.566	146.920	0.205	-0.275
-493.551	-35.802	-0.306	-0.165
-492.537	-26.578	-0.231	0.135
-491.522	-25.145	0.213	-0.126
-490.508	800.000	0.112	-0.338
-489.493	253.999	0.102	-0.173
-488.478	115.095	-0.117	-0.143
-487.464	149.336	0.035	-0.047
-486.449	-183.581	0.451	-0.008
-485.435	-107.937	-0.268	0.058
-484.420	-200.000	0.048	0.350
-483.405	408.306	0.032	-0.067
-482.391	-200.000	0.024	0.215
-481.376	-157.112	0.175	-0.011
-480.362	-19.595	0.202	-0.124
-479.347	-104.980	0.137	0.031
-478.332	205.943	0.225	0.349
-477.318	-79.231	0.263	0.089
-476.303	-200.000	-0.002	0.284
-475.289	24.789	0.180	0.148
-474.274	-38.964	-0.115	0.060
-473.259	17.267	-0.074	0.058
-472.245	23.930	-0.291	-0.239
-471.230	-200.000	0.018	0.160
-470.216	800.000	0.052	-0.149
-469.201	-57.248	0.224	-0.098
-468.186	-79.853	-0.222	0.074
-467.172	-200.000	0.009	0.223
-466.157	800.000	0.034	-0.096
-465.143	116.455	-0.206	-0.252
-464.128	18.201	0.080	-0.064
-463.113	-200.000	0.065	0.651
-462.099	218.313	-0.086	-0.136
-461.084	-200.000	0.039	0.442
-460.070	91.745	0.135	0.151
-459.055	97.818	-0.012	-0.014
-458.040	-200.000	-0.020	-0.220
-457.026	-62.255	0.311	0.129
-456.011	-96.166	0.063	0.017
-454.997	71.895	0.117	-0.121
-453.982	113.540	0.117	0.141
-452.968	-90.943	-0.094	-0.027
-451.953	-31.035	0.087	0.049
-450.938	263.415	-0.057	0.099
-449.924	28.754	0.160	0.135
-448.909	-72.445	-0.107	0.039
-447.895	-200.000	-0.018	-0.097
-446.880	-32.454	0.405	0.224
-445.865	-200.000	0.008	0.131
-444.851	800.000	-0.026	-0.073
-443.836	-62.428	0.352	0.145
-442.822	202.743	0.077	-0.119
-441.807	-22.237	0.269	-0.162
-440.792	-200.000	0.008	0.062
-439.778	-123.995	-0.244	0.038
-438.763	467.155	-0.111	-0.248
-437.749	-33.633	0.359	-0.197
-436.734	800.000	0.069	0.230
-435.719	134.450	0.083	-0.107
-434.705	-63.656	0.340	0.139
-433.690	111.719	-0.039	-0.047
-432.676	-130.603	-0.321	0.043
-431.661	800.000	0.063	-0.190
-430.646	-200.000	-0.013	-0.222
-429.632	-113.059	0.127	-0.025
-428.617	-50.650	0.075	-0.035
-427.603	359.843	0.081	0.161
-426.588	711.669	-0.136	0.359
-425.573	364.071	0.133	0.267
-424.559	236.104	-0.163	0.267
-423.544	-200.000	0.043	0.233
-422.530	-106.509	-0.131	-0.029
-421.515	-200.000	-0.005	0.265
-420.500	-200.000	-0.038	0.183
-419.486	800.000	-0.063	-0.216
-418.471	-200.000	-0.042	-0.224
-417.457	153.791	-0.116	-0.159
-416.442	-60.707	-0.232	-0.098
-415.428	-200.000	-0.013	-0.115
-414.413	-126.201	0.058	-0.009
-413.398	354.439	0.104	0.205
-412.384	-152.272	-0.229	-0.016
-411.369	-143.080	-0.138	-0.013
-410.355	87.015	0.095	-0.104
-409.340	25.224	0.265	-0.218
-408.325	-99.754	-0.238	0.059
-407.311	47.872	-0.254	-0.235
-406.296	82.514	0.122	0.131
-405.282	-66.429	-0.323	-0.128
-404.267	-200.000	0.004	-0.308
-403.252	800.000	-0.010	0.040
-402.238	64.760	0.116	-0.117
-401.223	-155.653	0.388	0.025
-400.209	-200.000	0.015	0.325
-399.194	227.265	-0.052	0.084
-398.179	-22.894	-0.268	-0.161
-397.165	332.234	0.060	-0.116
-396.150	800.000	0.058	-0.196
-395.136	-128.898	-0.270	-0.038
-394.121	-133.817	-0.069	0.009
-393.106	162.942	-0.111	-0.154
-392.092	706.391	-0.091	-0.238
-391.077	-105.972	0.315	-0.070
-390.063	20.546	-0.220	-0.177
-389.048	218.921	-0.132	0.209
-388.033	-200.000	0.025	0.196
-387.019	693.292	0.072	0.187
-386.004	-40.114	0.090	0.046
-384.990	-187.087	-0.304	0.004
-383.975	112.159	0.133	0.160
-382.960	31.511	-0.080	0.068
-381.946	10.179	0.215	0.162
-380.931	800.000	0.027	-0.082
-379.917	-84.176	-0.170	0.053
-378.902	-131.152	-0.082	0.011
-377.888	-51.063	-0.223	-0.104
-376.873	-85.163	0.298	-0.092
-375.858	-149.168	-0.080	-0.006
-374.844	-8.160	-0.102	-0.068
-373.829	-200.000	-0.063	-0.353
-372.815	137.186	0.124	0.160
-371.800	-79.206	-0.319	0.107
-370.785	496.266	-0.083	0.190
-369.771	65.454	0.188	-0.188
-368.756	155.744	0.241	0.329
-367.742	-101.125	0.075	0.018
-366.727	-143.906	0.583	-0.054
-365.712	26.379	-0.221	-0.183
-364.698	-48.993	-0.115	-0.054
-363.683	68.961	-0.137	-0.139
-362.669	178.330	0.181	0.262
-361.654	800.000	-0.021	-0.087
-360.639	-88.150	-0.322	0.096
-359.625	-176.767	-0.080	-0.002
-358.610	-73.067	-0.070	-0.026
-357.596	-33.573	-0.232	0.127
-356.581	360.464	-0.082	0.163
-355.566	-9.448	-0.276	-0.183
-354.552	-99.459	-0.310	-0.077
-353.537	15.468	-0.136	-0.106
-352.523	800.000	0.097	0.374
-351.508	190.454	-0.096	-0.143
-350.493	649.392	-0.039	-0.099
-349.479	93.838	-0.227	-0.255
-348.464	-19.975	0.138	0.085
-347.450	-200.000	-0.015	-0.115
-346.435	180.775	0.097	0.141
-345.420	-200.000	0.015	0.216
-344.406	-19.143	0.300	-0.185
-343.391	-1.521	0.132	0.092
-342.377	33.484	0.140	-0.120
-341.362	263.127	-0.126	0.217
-340.348	-200.000	-0.025	0.332
-339.333	-46.196	-0.284	-0.139
-338.318	158.093	0.223	-0.306
-337.304	-200.000	-0.014	0.147
-336.289	-139.999	-0.065	0.007
-335.275	106.882	-0.197	0.232
-334.260	800.000	0.044	-0.122
-333.245	5.419	0.301	0.220
-332.231	185.776	-0.179	0.263
-331.216	800.000	-0.064	0.208
-330.202	630.235	-0.094	-0.236
-329.187	-64.902	-0.168	-0.067
-328.172	440.988	-0.067	-0.145
-327.158	157.162	-0.070	-0.095
-326.143	-148.716	0.127	0.010
-325.129	-11.977	0.353	0.229
-324.114	-57.222	0.216	-0.094
-323.099	517.638	-0.101	0.233
-322.085	800.000	-0.060	-0.170
-321.070	-10.002	-0.142	0.093
-320.056	-95.301	0.063	0.017
-319.041	-91.216	-0.302	0.086
-318.026	688.720	0.093	-0.241
-317.012	-70.216	0.085	0.032
-315.997	-200.000	-0.022	0.355
-314.983	800.000	-0.048	-0.137
-313.968	13.387	0.137	-0.105
-312.953	110.825	0.239	0.285
-311.939	-184.927	0.143	-0.002
-310.924	101.275	-0.084	0.096
-309.910	-59.315	0.485	0.206
-308.895	394.398	-0.044	0.090
-307.880	6.045	-0.236	0.173
-306.866	664.523	0.090	0.230
-305.851	338.234	0.129	0.248
-304.837	-25.493	0.242	-0.141
-303.822	108.314	-0.207	0.244
-302.807	800.000	0.044	0.181
-301.793	219.442	-0.112	0.178
-300.778	-200.000	-0.076	0.430
-299.764	800.000	0.114	0.319
-298.749	-117.269	-0.109	0.019
-297.735	199.969	-0.108	0.163
-296.720	-31.541	0.164	-0.091
-295.705	-146.261	0.245	-0.021
-294.691	0.446	0.285	0.202
-293.676	-175.323	0.234	0.006
-292.662	127.330	0.088	-0.111
-291.647	30.006	-0.055	-0.046
-290.632	53.166	-0.097	-0.092
-289.618	-200.000	-0.008	0.198
-288.603	317.977	0.092	-0.172
-287.589	-0.725	-0.046	-0.032
-286.574	800.000	-0.051	-0.154
-285.559	131.704	0.183	0.232
-284.545	-200.000	0.006	0.208
-283.530	132.970	-0.156	-0.199
-282.516	-32.119	-0.195	0.108
-281.501	-4.816	0.170	-0.116
-280.486	-163.454	0.232	0.011
-279.472	466.376	-0.039	-0.085
-278.457	-66.487	-0.113	-0.044
-277.443	-200.000	-0.027	0.250
-276.428	-117.673	0.237	0.042
-275.413	546.976	-0.116	-0.275
-274.399	4.660	0.200	-0.145
-273.384	50.717	-0.083	-0.077
-272.370	-51.213	-0.204	0.095
-271.355	-62.144	-0.315	0.130
-270.340	-77.014	-0.057	-0.020
-269.326	1.691	-0.241	-0.171
-268.311	-200.000	0.081	-0.370
-267.297	101.505	-0.192	0.221
-266.282	-200.000	0.013	0.259
-265.267	-161.559	0.147	-0.007
-264.253	-107.897	0.116	-0.025
-263.238	113.213	-0.096	0.116
-262.224	800.000	0.032	-0.127
-261.209	-200.000	0.009	-0.070
-260.195	102.275	0.137	0.158
-259.180	-104.146	-0.279	0.064
-258.165	219.577	0.136	-0.214
-257.151	24.700	0.197	0.161
-256.136	27.322	-0.133	0.111
-255.122	65.917	0.035	0.035
-254.107	-200.000	0.036	0.272
-253.092	800.000	-0.024	0.100
-252.078	800.000	0.085	0.245
-251.063	-200.000	0.039	0.182
-250.049	112.757	0.123	-0.147
-249.034	109.903	-0.089	-0.105
-248.019	800.000	-0.001	-0.003
-247.005	517.530	0.052	-0.120
-245.990	206.092	0.155	-0.238
-244.976	25.820	-0.380	-0.312
-243.961	-8.699	-0.130	0.086
-242.946	131.831	-0.146	0.186
-241.932	-187.404	0.295	0.004
-240.917	54.184	-0.106	-0.100
-239.903	77.383	-0.060	-0.063
-238.888	170.750	-0.088	-0.124
-237.873	-79.386	0.198	0.066
-236.859	56.432	0.140	0.134
-235.844	35.540	-0.092	0.080
-234.830	617.302	0.038	0.093
-233.815	-160.676	0.140	-0.007
-232.800	-144.512	0.153	0.014
-231.786	800.000	0.048	-0.169
-230.771	800.000	0.044	0.186
-229.757	-131.485	-0.059	-0.008
-228.742	-29.556	0.181	0.102
-227.727	-200.000	-0.041	-0.331
-226.713	-200.000	-0.059	0.255
-225.698	157.308	-0.155	0.212
-224.684	-84.583	-0.079	-0.025
-223.669	105.557	0.064	0.074
-222.655	40.278	-0.200	0.177
-221.640	296.679	0.125	0.227
-220.625	-200.000	0.012	0.353
-219.611	166.011	-0.030	-0.041
-218.596	-41.816	0.114	-0.058
-217.582	-200.000	-0.044	-0.258
-216.567	800.000	-0.093	-0.301
-215.552	84.392	0.105	0.113
-214.538	-48.457	0.174	0.082
-213.523	346.588	0.117	0.227
-212.509	-162.361	0.190	0.009
-211.494	-84.773	0.277	-0.086
-210.479	75.029	0.177	-0.183
-209.465	274.132	0.130	-0.227
-208.450	-149.037	0.352	-0.028
-207.436	-94.968	-0.271	-0.072
-206.421	-92.984	-0.231	-0.063
-205.406	49.289	0.140	-0.130
-204.392	8.621	0.174	-0.129
-203.377	800.000	-0.049	-0.172
-202.363	-38.511	-0.314	-0.164
-201.348	354.288	-0.103	0.203
-200.333	-198.388	-0.521	0.003
-199.319	800.000	0.014	0.057
-198.304	-200.000	-0.012	-0.246
-197.290	140.262	0.083	-0.108
-196.275	-200.000	0.059	0.423
-195.260	-4.949	-0.256	-0.174
-194.246	-56.888	0.229	-0.099
-193.231	-186.928	-0.159	-0.002
-192.217	-200.000	0.041	0.337
-191.202	241.319	-0.166	-0.272
-190.187	-200.000	0.002	-0.085
-189.173	192.018	-0.035	0.052
-188.158	204.894	-0.241	0.367
-187.144	-169.164	0.144	0.005
-186.129	800.000	0.072	-0.266
-185.114	-54.520	0.144	-0.064
-184.100	691.311	-0.029	0.074
-183.085	-86.248	-0.265	-0.080
-182.071	565.208	-0.201	-0.479
-181.056	-86.763	0.342	0.103
-180.042	29.341	0.154	-0.129
-179.027	-14.186	-0.161	-0.102
-178.012	-87.555	-0.240	0.071
-176.998	-98.591	-0.176	0.044
-175.983	-26.814	-0.084	0.048
-174.969	-81.690	0.081	0.026
-173.954	164.384	-0.111	0.154
-172.939	-200.000	0.054	-0.506
-171.925	-200.000	0.060	-0.337
-170.910	-59.303	-0.069	-0.029
-169.896	-200.000	-0.052	-0.368
-168.881	-105.795	-0.266	0.059
-167.866	216.422	0.077	0.121
-166.852	-200.000	0.004	-0.204
-165.837	176.459	0.165	-0.235
-164.823	-126.536	0.250	-0.037
-163.808	-63.784	-0.168	-0.068
-162.793	-158.086	0.240	0.014
-161.779	32.777	0.059	0.050
-160.764	-56.896	0.192	-0.083
-159.750	-200.000	0.023	-0.300
-158.735	800.000	0.064	0.274
-157.720	-200.000	-0.056	-0.328
-156.706	-38.258	-0.115	-0.060
-155.691	-35.443	-0.077	0.041
-154.677	365.539	-0.076	-0.150
-153.662	621.582	-0.060	0.147
-152.647	10.471	-0.277	0.207
-151.633	24.522	-0.183	0.149
-150.618	41.249	0.085	0.076
-149.604	800.000	0.103	-0.287
-148.589	282.300	0.083	0.146
-147.574	800.000	0.047	-0.186
-146.560	800.000	0.047	-0.135
-145.545	800.000	0.054	-0.189
-144.531	107.038	0.092	0.108
-143.516	-162.725	-0.166	0.008
-142.502	-125.348	-0.169	-0.025
-141.487	-200.000	-0.025	0.295
-140.472	-79.530	0.188	-0.062
-139.458	-7.386	0.273	0.182
-138.443	-161.602	-0.313	0.016
-137.429	800.000	0.005	0.018
-136.414	-62.675	-0.190	-0.078
-135.399	-200.000	0.401	0.002
-134.385	187.575	-0.072	-0.105
-133.370	441.174	0.169	0.363
-132.356	800.000	0.097	-0.302
-131.341	287.650	0.121	-0.215
-130.326	78.735	0.074	-0.078
-129.312	-12.659	-0.189	0.121
-128.297	14.188	-0.072	0.055
-127.283	229.045	-0.011	0.017
-126.268	111.382	-0.085	-0.101
-125.253	55.968	0.121	-0.115
-124.239	38.377	0.098	-0.086
-123.224	248.479	-0.134	0.223
-122.210	-200.000	-0.004	-0.138
