DTS Sentinel unit serial number:	SN413079Multiplexer serial number:	ORYXHardware model number:	OX4-SRSoftware version number:	ORYX F/W v4.00 Oryx Data Collector v3.7.2.0data status	okinstallation	princeton_trtdifferential loss correction	single-endedforward channel	channel 1reverse channel	N/Adate	2019/09/14time	15:02:35forward acquisition time	60.00reverse acquisition time	0.00gamma	496.2192k internal	0.2294k external	0.2294temperature offset calibration	1.0075default loss term (dB/km)	0.3790temperature slope calibration	1.0000multiplexer offset coefficient	1.0000multiplexer slope coefficient	1.0000fibre end	0.00T internal ref (°C)	39.06T ext. ref 1 (°C)	5.09T ext. ref 2 (°C)	34.92length (m)	temperature (°C)	Stokes	anti-Stokes-747.200	225.273	0.107	0.177
-746.185	-90.775	-0.206	0.061
-745.171	107.785	0.122	-0.149
-744.156	-200.000	0.010	-0.349
-743.142	410.326	-0.130	-0.281
-742.127	-106.708	-0.208	-0.047
-741.112	800.000	0.058	-0.212
-740.098	177.608	-0.148	0.221
-739.083	800.000	-0.070	-0.207
-738.069	-52.804	-0.211	0.099
-737.054	-200.000	-0.014	0.176
-736.039	-148.357	-0.157	-0.013
-735.025	93.959	0.287	0.333
-734.010	-150.089	-0.303	-0.024
-732.996	-12.991	0.334	0.222
-731.981	13.520	0.169	0.134
-730.966	800.000	-0.057	-0.245
-729.952	-8.766	0.063	-0.043
-728.937	467.291	-0.052	-0.120
-727.923	-171.616	-0.255	-0.009
-726.908	800.000	0.060	-0.170
-725.894	32.220	-0.271	-0.239
-724.879	-200.000	-0.012	0.105
-723.864	429.426	-0.130	-0.288
-722.850	282.429	0.095	-0.175
-721.835	-200.000	-0.198	-0.000
-720.821	293.255	0.231	0.431
-719.806	61.249	-0.093	-0.094
-718.791	-200.000	0.004	0.064
-717.777	115.839	0.159	0.198
-716.762	400.690	-0.056	-0.120
-715.748	62.327	0.161	-0.164
-714.733	147.095	-0.065	-0.089
-713.718	-200.000	-0.059	-0.385
-712.704	-200.000	-0.051	0.253
-711.689	58.788	-0.178	-0.179
-710.675	252.362	-0.081	-0.141
-709.660	220.504	0.212	-0.347
-708.645	440.107	0.087	-0.194
-707.631	-36.898	0.173	0.095
-706.616	202.241	-0.088	-0.139
-705.602	69.157	0.105	-0.111
-704.587	602.068	0.066	-0.169
-703.572	-90.099	-0.296	0.088
-702.558	-51.152	0.085	-0.041
-701.543	-39.017	0.216	-0.116
-700.529	-70.389	0.089	-0.034
-699.514	-10.737	0.279	0.189
-698.499	-132.368	-0.192	0.025
-697.485	-151.929	0.097	0.007
-696.470	-43.116	-0.146	-0.076
-695.456	-48.156	-0.339	-0.167
-694.441	-200.000	0.049	0.227
-693.426	69.404	-0.195	-0.205
-692.412	-49.550	0.243	-0.118
-691.397	51.646	-0.209	0.203
-690.383	800.000	-0.047	-0.182
-689.368	800.000	0.074	0.261
-688.354	-146.518	-0.078	0.007
-687.339	749.571	0.099	-0.271
-686.324	800.000	-0.096	-0.304
-685.310	800.000	0.019	0.074
-684.295	-62.120	0.241	0.103
-683.281	800.000	-0.072	0.292
-682.266	-157.618	-0.204	0.012
-681.251	161.369	-0.222	-0.316
-680.237	262.550	-0.053	-0.094
-679.222	48.619	-0.097	0.092
-678.208	800.000	0.095	-0.322
-677.193	-123.525	-0.185	0.030
-676.178	36.900	0.089	-0.080
-675.164	204.245	0.136	-0.215
-674.149	-23.592	-0.093	0.057
-673.135	-161.618	-0.142	-0.007
-672.120	168.406	0.072	0.104
-671.105	-17.150	0.373	0.240
-670.091	800.000	-0.037	0.136
-669.076	115.208	0.118	-0.147
-668.062	-56.365	-0.332	-0.151
-667.047	-200.000	-0.035	0.338
-666.032	568.889	-0.106	0.263
-665.018	-178.686	0.152	-0.004
-664.003	-29.654	0.229	-0.133
-662.989	36.265	0.146	-0.131
-661.974	647.980	0.194	-0.507
-660.959	-6.899	-0.188	-0.130
-659.945	-200.000	-0.003	0.356
-658.930	46.987	-0.144	-0.137
-657.916	-30.941	-0.261	0.150
-656.901	113.040	0.224	0.277
-655.886	-190.341	0.221	0.002
-654.872	222.395	-0.151	0.248
-653.857	300.577	0.127	-0.239
-652.843	276.758	0.182	0.329
-651.828	-0.097	-0.301	-0.219
-650.814	-200.000	0.008	-0.140
-649.799	20.776	0.103	-0.085
-648.784	196.793	0.048	0.075
-647.770	-200.000	0.017	0.263
-646.755	-47.742	0.215	0.106
-645.741	800.000	0.123	0.382
-644.726	450.190	-0.030	0.067
-643.711	800.000	-0.036	0.144
-642.697	-52.281	-0.288	0.136
-641.682	-97.088	0.269	-0.072
-640.668	-200.000	0.028	0.185
-639.653	-200.000	0.015	0.073
-638.638	11.316	-0.269	-0.210
-637.624	7.085	-0.161	-0.122
-636.609	-200.000	-0.010	0.150
-635.595	-3.339	-0.101	-0.071
-634.580	-108.313	-0.281	0.062
-633.565	-108.627	0.424	0.093
-632.551	-24.543	-0.074	-0.045
-631.536	-68.216	-0.135	0.053
-630.522	-200.000	-0.009	-0.125
-629.507	-28.085	-0.363	-0.214
-628.492	174.567	-0.091	-0.134
-627.478	800.000	-0.087	-0.312
-626.463	-200.000	0.018	-0.168
-625.449	-200.000	0.072	0.349
-624.434	800.000	0.027	-0.103
-623.419	74.110	0.154	-0.164
-622.405	800.000	-0.059	0.251
-621.390	18.936	0.084	-0.069
-620.376	-200.000	0.005	-0.311
-619.361	-200.000	-0.000	0.189
-618.346	800.000	0.121	0.361
-617.332	-77.665	0.182	0.064
-616.317	800.000	0.041	0.126
-615.303	-200.000	0.034	0.157
-614.288	26.628	0.374	-0.318
-613.273	-184.245	0.304	-0.005
-612.259	-200.000	0.014	0.324
-611.244	-200.000	-0.027	-0.243
-610.230	171.740	-0.239	-0.349
-609.215	800.000	0.029	0.130
-608.201	64.215	-0.089	0.092
-607.186	-144.513	-0.280	0.026
-606.171	-70.200	0.108	0.042
-605.157	-25.671	0.239	0.143
-604.142	215.945	0.066	-0.106
-603.128	88.895	-0.033	0.037
-602.113	-69.037	-0.223	-0.088
-601.098	-200.000	-0.037	0.194
-600.084	-125.364	-0.231	-0.036
-599.069	178.810	-0.094	-0.139
-598.055	800.000	0.039	0.133
-597.040	-200.000	-0.009	-0.248
-596.025	-44.632	0.163	0.083
-595.011	-72.873	-0.182	0.068
-593.996	22.018	-0.147	0.122
-592.982	-168.746	0.261	0.010
-591.967	-59.899	-0.152	0.066
-590.952	-26.571	0.052	-0.031
-589.938	140.193	0.136	0.182
-588.923	-81.481	0.063	0.021
-587.909	18.213	0.202	-0.164
-586.894	-127.041	-0.421	-0.063
-585.879	122.749	0.078	0.099
-584.865	333.570	0.022	0.043
-583.850	-102.069	0.347	0.085
-582.836	-22.586	-0.120	0.074
-581.821	500.119	-0.062	0.146
-580.806	244.800	-0.121	-0.207
-579.792	116.227	0.210	0.261
-578.777	-82.198	-0.177	0.059
-577.763	-200.000	0.016	-0.104
-576.748	-200.000	-0.059	-0.270
-575.733	14.564	0.235	-0.187
-574.719	800.000	-0.025	-0.093
-573.704	14.646	-0.082	0.065
-572.690	-188.697	-0.242	-0.003
-571.675	707.448	0.111	0.299
-570.661	476.067	-0.093	0.214
-569.646	65.898	-0.161	0.166
-568.631	146.586	0.039	0.053
-567.617	-164.636	-0.249	-0.011
-566.602	15.982	0.138	-0.110
-565.588	475.713	0.046	0.105
-564.573	99.231	-0.153	-0.179
-563.558	37.341	-0.217	-0.196
-562.544	-200.000	0.008	-0.052
-561.529	4.179	0.211	-0.157
-560.515	-200.000	0.005	-0.294
-559.500	219.593	0.141	-0.230
-558.485	800.000	-0.082	-0.315
-557.471	-55.659	-0.327	-0.149
-556.456	14.437	0.220	-0.174
-555.442	-104.808	0.318	0.074
-554.427	-45.593	-0.076	0.038
-553.412	-152.634	-0.217	-0.016
-552.398	-74.608	-0.217	-0.079
-551.383	400.763	-0.029	-0.061
-550.369	-39.444	0.108	0.058
-549.354	37.236	-0.148	-0.133
-548.339	-128.100	0.226	-0.033
-547.325	219.313	0.057	0.092
-546.310	-189.496	-0.156	-0.002
-545.296	-15.791	-0.274	-0.177
-544.281	-127.245	-0.270	0.040
-543.266	-122.568	-0.371	0.061
-542.252	800.000	0.034	-0.131
-541.237	-200.000	-0.021	-0.199
-540.223	-126.212	-0.097	-0.015
-539.208	14.583	0.316	-0.251
-538.193	395.936	-0.023	0.049
-537.179	-38.077	-0.323	0.174
-536.164	-77.929	-0.421	0.147
-535.150	-186.093	-0.060	-0.001
-534.135	800.000	0.061	-0.215
-533.121	-200.000	-0.027	-0.128
-532.106	-125.805	0.271	0.041
-531.091	208.841	0.079	-0.126
-530.077	-152.352	0.155	-0.011
-529.062	-95.625	0.311	0.084
-528.048	-114.213	0.490	0.096
-527.033	-59.034	-0.278	-0.122
-526.018	-124.436	-0.279	0.044
-525.004	65.271	0.138	-0.141
-523.989	280.733	0.254	-0.460
-522.975	116.599	0.050	0.062
-521.960	800.000	0.042	0.179
-520.945	-131.643	-0.158	0.021
-519.931	-200.000	0.039	-0.194
-518.916	-200.000	0.058	0.278
-517.902	7.040	-0.168	0.127
-516.887	92.353	-0.136	-0.155
-515.872	-139.628	0.101	-0.011
-514.858	-106.921	-0.233	-0.052
-513.843	7.905	-0.047	0.036
-512.829	-105.568	0.189	0.043
-511.814	1.005	0.143	-0.104
-510.799	22.741	0.094	-0.078
-509.785	-4.450	0.054	0.038
-508.770	-33.812	0.281	0.157
-507.756	306.045	0.120	0.226
-506.741	-56.681	0.281	-0.126
-505.726	403.352	-0.081	-0.173
-504.712	-181.383	-0.052	-0.001
-503.697	104.883	-0.162	-0.194
-502.683	544.820	0.130	0.314
-501.668	-137.961	-0.240	0.027
-500.653	800.000	0.060	0.210
-499.639	92.064	-0.079	0.090
-498.624	222.798	-0.055	-0.089
-497.610	-158.373	0.095	0.006
-496.595	-161.727	-0.086	0.004
-495.581	-117.699	0.384	-0.070
-494.566	-71.460	0.052	0.020
-493.551	-27.881	0.067	0.040
-492.537	-89.648	0.036	-0.011
-491.522	119.641	0.023	0.029
-490.508	-149.642	0.171	-0.014
-489.493	-133.921	-0.283	0.036
-488.478	-108.544	0.316	-0.069
-487.464	37.829	0.161	-0.145
-486.449	-27.340	0.070	-0.041
-485.435	-71.842	0.330	0.125
-484.420	353.617	-0.136	-0.273
-483.405	-19.220	0.151	-0.095
-482.391	247.129	0.064	-0.109
-481.376	-106.058	-0.257	-0.059
-480.362	122.126	-0.297	0.375
-479.347	32.046	0.206	-0.180
-478.332	75.411	0.186	-0.199
-477.318	-200.000	-0.035	-0.225
-476.303	290.281	0.242	-0.445
-475.289	-24.262	-0.092	0.055
-474.274	3.664	-0.181	0.134
-473.259	800.000	-0.090	0.388
-472.245	79.897	0.257	-0.280
-471.230	-145.840	-0.415	-0.037
-470.216	-26.116	-0.307	0.183
-469.201	108.389	-0.031	-0.038
-468.186	800.000	-0.038	0.111
-467.172	218.431	-0.099	-0.160
-466.157	-200.000	0.061	-0.327
-465.143	-200.000	-0.004	-0.198
-464.128	-68.166	-0.096	-0.038
-463.113	-200.000	0.223	-0.001
-462.099	24.171	0.220	-0.184
-461.084	-13.154	0.225	0.148
-460.070	694.652	-0.165	0.438
-459.055	195.130	0.021	0.032
-458.040	800.000	0.050	0.206
-457.026	-200.000	0.051	-0.302
-456.011	-54.599	-0.106	-0.048
-454.997	-107.267	0.333	0.074
-453.982	-200.000	-0.003	-0.199
-452.968	137.731	0.148	-0.196
-451.953	77.393	-0.419	-0.451
-450.938	-86.595	-0.074	0.023
-449.924	800.000	-0.063	0.185
-448.909	34.797	0.093	0.082
-447.895	545.811	0.153	-0.369
-446.880	208.939	-0.088	0.140
-445.865	-18.938	0.304	0.191
-444.851	39.247	0.093	0.084
-443.836	-200.000	-0.250	0.001
-442.822	79.930	-0.050	0.054
-441.807	-91.296	-0.278	0.080
-440.792	72.982	0.388	0.410
-439.778	309.297	-0.027	0.051
-438.763	-200.000	-0.002	0.073
-437.749	-160.393	0.369	-0.020
-436.734	-6.549	0.210	-0.145
-435.719	20.888	0.221	0.181
-434.705	-72.820	-0.302	-0.112
-433.690	203.125	0.070	0.110
-432.676	280.857	-0.069	-0.125
-431.661	-200.000	0.011	-0.283
-430.646	-101.805	-0.069	-0.017
-429.632	-84.121	0.138	0.044
-428.617	86.605	-0.163	-0.182
-427.603	-200.000	-0.013	0.224
-426.588	76.315	-0.161	0.173
-425.573	-164.719	-0.218	0.010
-424.559	262.908	-0.079	-0.138
-423.544	-133.154	0.096	-0.012
-422.530	-125.174	-0.278	0.043
-421.515	-72.007	-0.540	0.203
-420.500	800.000	-0.071	0.243
-419.486	-122.604	0.215	0.035
-418.471	-46.530	-0.023	0.011
-417.457	-44.970	-0.223	0.112
-416.442	-42.306	-0.065	0.033
-415.428	133.997	0.145	0.190
-414.413	-12.088	0.286	0.189
-413.398	3.227	-0.081	0.059
-412.384	43.498	0.113	0.104
-411.369	-200.000	-0.178	0.001
-410.355	-129.045	-0.326	0.046
-409.340	324.327	0.029	0.055
-408.325	71.559	-0.031	0.032
-407.311	-29.950	-0.106	-0.061
-406.296	800.000	0.088	-0.329
-405.282	-89.996	-0.267	0.079
-404.267	266.198	0.070	0.123
-403.252	81.372	0.344	0.375
-402.238	163.619	-0.189	0.269
-401.223	72.466	0.090	-0.095
-400.209	-89.663	0.221	0.065
-399.194	-136.166	0.152	-0.018
-398.179	-77.046	-0.218	-0.077
-397.165	103.164	0.162	0.192
-396.150	186.838	-0.066	-0.100
-395.136	-79.098	-0.277	0.095
-394.121	176.178	-0.041	-0.060
-393.106	265.031	0.115	-0.202
-392.092	-200.000	0.049	-0.316
-391.077	-95.495	-0.177	0.048
-390.063	-3.966	-0.141	0.098
-389.048	101.585	0.012	0.014
-388.033	42.758	0.034	0.031
-387.019	-109.893	0.324	-0.069
-386.004	531.024	-0.041	0.098
-384.990	800.000	-0.016	-0.052
-383.975	184.217	0.154	-0.230
-382.960	-144.748	0.213	-0.020
-381.946	-200.000	-0.017	0.284
-380.931	-200.000	-0.017	0.192
-379.917	-200.000	0.002	-0.054
-378.902	323.375	0.086	-0.166
-377.888	-14.440	-0.241	0.156
-376.873	-87.007	-0.253	-0.078
-375.858	132.577	0.048	-0.062
-374.844	167.226	0.061	-0.087
-373.829	131.120	0.048	-0.063
-372.815	-200.000	0.064	-0.293
-371.800	-78.725	-0.217	0.075
-370.785	-200.000	0.006	0.273
-369.771	151.883	0.098	0.134
-368.756	-88.003	-0.376	0.114
-367.742	-200.000	0.007	0.120
-366.727	-200.000	-0.004	-0.088
-365.712	-56.146	-0.382	0.171
-364.698	-200.000	0.022	-0.482
-363.683	800.000	0.036	0.131
-362.669	81.823	0.141	0.154
-361.654	-76.068	0.110	0.039
-360.639	800.000	0.050	-0.146
-359.625	-44.545	-0.182	-0.092
-358.610	-11.462	0.239	0.159
-357.596	-200.000	0.052	0.311
-356.581	512.658	-0.041	-0.095
-355.566	590.184	0.030	0.075
-354.552	249.136	0.045	0.077
-353.537	-144.688	-0.291	0.027
-352.523	381.988	0.060	0.124
-351.508	-105.135	0.314	0.072
-350.493	-73.938	0.307	-0.112
-349.479	-200.000	0.044	-0.329
-348.464	280.072	-0.080	-0.144
-347.450	-200.000	0.014	-0.116
-346.435	530.817	-0.009	-0.021
-345.420	-1.973	0.043	-0.030
-344.406	-107.834	0.095	-0.021
-343.391	53.424	0.140	0.135
-342.377	-200.000	-0.002	0.109
-341.362	-199.916	-0.224	0.001
-340.348	-200.000	0.069	0.343
-339.333	93.387	0.179	0.204
-338.318	-88.643	-0.338	0.101
-337.304	86.290	-0.127	0.140
-336.289	37.865	0.079	0.071
-335.275	-192.574	-0.089	0.001
-334.260	-200.000	-0.040	-0.230
-333.245	252.107	0.155	-0.265
-332.231	800.000	-0.044	-0.173
-331.216	185.615	0.056	0.084
-330.202	644.963	-0.179	0.459
-329.187	-200.000	0.016	-0.337
-328.172	-200.000	-0.101	-0.517
-327.158	-200.000	0.067	-0.377
-326.143	7.242	-0.144	0.108
-325.129	-47.061	0.294	-0.144
-324.114	81.770	-0.166	-0.180
-323.099	61.726	0.115	0.115
-322.085	15.110	0.229	0.180
-321.070	-108.292	-0.222	0.048
-320.056	14.066	0.081	-0.064
-319.041	-105.198	0.233	0.054
-318.026	-150.437	0.242	0.019
-317.012	-70.491	0.114	-0.044
-315.997	-200.000	-0.029	-0.177
-314.983	-82.155	-0.050	-0.017
-313.968	-144.534	-0.188	0.018
-312.953	-67.297	-0.201	0.080
-311.939	195.444	-0.173	-0.264
-310.924	-20.663	0.137	-0.085
-309.910	-123.241	-0.258	0.042
-308.895	-23.768	-0.138	-0.083
-307.880	355.270	0.032	-0.064
-306.866	81.142	-0.151	0.163
-305.851	179.317	-0.086	0.127
-304.837	199.746	0.108	-0.166
-303.822	-200.000	0.042	-0.189
-302.807	348.911	-0.081	-0.161
-301.793	409.783	0.143	-0.305
-300.778	80.748	-0.264	0.286
-299.764	-60.208	0.038	-0.016
-298.749	-44.375	-0.035	0.018
-297.735	-43.646	-0.312	0.158
-296.720	78.207	0.170	-0.182
-295.705	-79.990	0.056	-0.019
-294.691	201.325	0.110	0.170
-293.676	124.406	-0.136	-0.172
-292.662	154.837	-0.146	0.202
-291.647	304.199	0.021	-0.039
-290.632	-95.703	0.352	-0.095
-289.618	800.000	-0.041	-0.178
-288.603	-110.987	-0.243	0.050
-287.589	-200.000	-0.006	0.313
-286.574	754.889	-0.065	0.177
-285.559	511.867	-0.086	0.201
-284.545	-88.783	0.153	-0.046
-283.530	63.051	-0.087	0.087
-282.516	171.610	-0.110	0.159
-281.501	-17.716	0.025	-0.016
-280.486	-35.607	0.159	-0.087
-279.472	-21.305	-0.170	0.104
-278.457	40.061	0.114	0.103
-277.443	-37.938	-0.036	-0.019
-276.428	181.423	0.094	-0.139
-275.413	75.751	-0.157	0.166
-274.399	47.318	-0.173	-0.162
-273.384	-19.616	0.289	-0.179
-272.370	-172.069	0.271	-0.009
-271.355	217.146	0.057	0.091
-270.340	570.371	-0.097	-0.236
-269.326	-37.309	-0.074	0.040
-268.311	-59.507	0.143	0.062
-267.297	-134.955	-0.269	0.033
-266.282	-200.000	0.048	0.390
-265.267	-200.000	-0.054	0.260
-264.253	-155.815	-0.140	-0.009
-263.238	486.174	-0.128	0.293
-262.224	-200.000	-0.041	-0.506
-261.209	-200.000	0.013	0.187
-260.195	-34.000	-0.226	-0.125
-259.180	374.438	-0.044	-0.091
-258.165	-161.734	-0.161	-0.008
-257.151	-77.553	0.313	-0.109
-256.136	74.088	-0.098	0.103
-255.122	-7.692	-0.191	0.129
-254.107	-158.922	-0.180	-0.010
-253.092	800.000	0.062	-0.226
-252.078	124.402	0.053	-0.067
-251.063	-44.047	-0.273	-0.138
-250.049	-36.579	0.281	0.152
-249.034	125.726	0.061	-0.077
-248.019	391.212	0.093	-0.194
-247.005	496.648	0.032	-0.075
-245.990	800.000	-0.099	-0.411
-244.976	97.438	-0.181	-0.209
-243.961	-134.998	0.105	-0.013
-242.946	167.218	0.153	-0.218
-241.932	-33.257	-0.456	0.253
-240.917	44.692	0.220	-0.203
-239.903	58.297	-0.159	0.157
-238.888	-98.738	0.286	-0.073
-237.873	-200.000	-0.099	0.436
-236.859	332.109	-0.170	-0.328
-235.844	82.117	0.033	-0.035
-234.830	-16.376	0.262	0.166
-233.815	-200.000	0.039	-0.304
-232.800	19.688	-0.221	-0.178
-231.786	-167.227	0.214	-0.009
-230.771	17.606	0.060	-0.047
-229.757	800.000	-0.088	-0.302
-228.742	-200.000	0.014	-0.079
-227.727	-200.000	-0.036	-0.283
-226.713	740.317	-0.092	-0.248
-225.698	800.000	-0.008	0.025
-224.684	800.000	0.075	0.268
-223.669	343.780	-0.141	0.277
-222.655	21.078	0.069	-0.056
-221.640	21.250	0.204	0.166
-220.625	-200.000	-0.010	-0.204
-219.611	52.172	0.052	0.050
-218.596	-76.001	-0.133	0.047
-217.582	39.282	0.135	-0.121
-216.567	-31.549	0.040	-0.022
-215.552	617.434	-0.184	0.464
-214.538	-100.176	0.208	0.052
-213.523	-89.243	-0.327	0.097
-212.509	-200.000	0.018	0.178
-211.494	36.366	-0.158	0.139
-210.479	62.298	0.321	0.321
-209.465	540.922	0.076	-0.182
-208.450	-200.000	-0.005	-0.065
-207.436	436.239	0.066	-0.143
-206.421	302.767	-0.088	0.164
-205.406	800.000	-0.039	-0.162
-204.392	-123.822	-0.342	0.054
-203.377	-200.000	0.014	-0.185
-202.363	-115.320	0.370	0.070
-201.348	-96.639	0.192	-0.051
-200.333	-165.204	-0.067	-0.003
-199.319	800.000	-0.055	-0.236
-198.304	-200.000	-0.013	0.206
-197.290	-200.000	-0.095	-0.000
-196.275	539.517	-0.110	-0.261
-195.260	-65.394	-0.162	0.065
-194.246	-23.303	0.072	-0.044
-193.231	47.486	-0.063	-0.059
-192.217	-148.371	0.283	0.023
-191.202	-15.337	0.164	-0.105
-190.187	-13.789	0.219	0.142
-189.173	34.803	0.193	0.169
-188.158	-200.000	0.036	0.249
-187.144	-200.000	-0.022	-0.279
-186.129	35.914	0.033	0.029
-185.114	800.000	0.116	0.395
-184.100	142.637	-0.143	-0.190
-183.085	180.194	-0.129	0.189
-182.071	-0.826	0.163	0.116
-181.056	-92.426	0.463	0.130
-180.042	-200.000	0.042	-0.325
-179.027	-200.000	0.034	-0.186
-178.012	-200.000	-0.001	-0.099
-176.998	218.682	0.103	0.165
-175.983	-200.000	-0.036	-0.204
-174.969	328.463	0.122	0.235
-173.954	104.530	0.087	-0.103
-172.939	800.000	-0.048	0.201
-171.925	-129.559	-0.128	-0.018
-170.910	533.087	0.093	-0.219
-169.896	-109.849	-0.173	0.036
-168.881	425.469	0.060	0.129
-167.866	-133.922	0.274	-0.034
-166.852	125.125	-0.315	0.397
-165.837	438.440	0.120	0.262
-164.823	170.869	0.167	0.239
-163.808	-200.000	-0.016	0.416
-162.793	-80.831	-0.163	0.054
-161.779	238.546	0.065	0.108
-160.764	-74.706	0.254	0.091
-159.750	-200.000	0.015	0.179
-158.735	92.102	-0.177	-0.199
-157.720	-101.495	0.106	-0.026
-156.706	-109.352	-0.059	0.013
-155.691	152.916	-0.252	0.344
-154.677	-77.067	0.160	0.056
-153.662	3.567	0.212	-0.154
-152.647	-87.432	0.144	-0.044
-151.633	-82.208	-0.144	0.047
-150.618	20.959	0.098	0.080
-149.604	242.066	-0.181	-0.302
-148.589	719.809	0.064	-0.169
-147.574	-200.000	0.057	0.401
-146.560	800.000	0.054	0.228
-145.545	193.599	-0.084	0.127
-144.531	240.650	-0.094	0.156
-143.516	139.595	0.229	-0.302
-142.502	773.556	0.002	0.005
-141.487	-101.364	-0.252	-0.061
-140.472	-80.947	0.527	-0.175
-139.458	-86.377	-0.114	-0.035
-138.443	-126.378	-0.074	-0.011
-137.429	234.872	0.200	0.330
-136.414	-120.942	-0.298	-0.050
-135.399	-18.154	0.106	0.066
-134.385	800.000	-0.045	-0.170
-133.370	-18.683	-0.072	0.045
-132.356	115.492	0.020	-0.025
-131.341	2.416	0.087	-0.063
-130.326	800.000	-0.017	0.067
-129.312	-88.745	-0.172	-0.051
-128.297	118.437	-0.230	-0.284
-127.283	105.136	-0.150	0.177
-126.268	5.055	0.051	0.037
-125.253	-70.755	-0.312	0.118
-124.239	66.329	0.201	-0.204
-123.224	800.000	-0.053	-0.164
-122.210	-200.000	-0.109	0.000
-121.195	-79.404	0.267	0.090
