DTS Sentinel unit serial number:	SN413079Multiplexer serial number:	ORYXHardware model number:	OX4-SRSoftware version number:	ORYX F/W v4.00 Oryx Data Collector v3.7.2.0data status	okinstallation	princeton_trtdifferential loss correction	single-endedforward channel	channel 1reverse channel	N/Adate	2019/09/11time	00:44:11forward acquisition time	60.00reverse acquisition time	0.00gamma	496.2192k internal	0.2331k external	0.2331temperature offset calibration	0.9929default loss term (dB/km)	0.3790temperature slope calibration	1.0000multiplexer offset coefficient	1.0000multiplexer slope coefficient	1.0000fibre end	0.00T internal ref (°C)	29.19T ext. ref 1 (°C)	-0.32T ext. ref 2 (°C)	22.80length (m)	temperature (°C)	Stokes	anti-Stokes-747.200	-55.641	-0.258	0.116
-746.185	-30.322	-0.172	-0.098
-745.171	62.327	0.173	-0.174
-744.156	168.488	-0.190	0.273
-743.142	126.506	-0.106	0.135
-742.127	12.826	-0.021	-0.016
-741.112	-81.314	0.474	0.157
-740.098	-200.000	-0.015	0.299
-739.083	-7.584	0.214	0.146
-738.069	54.543	-0.214	0.207
-737.054	-132.489	0.062	-0.008
-736.039	-142.437	-0.021	0.002
-735.025	694.625	0.100	0.263
-734.010	299.824	-0.120	-0.222
-732.996	800.000	0.058	-0.210
-731.981	158.835	-0.093	-0.130
-730.966	-4.720	-0.189	0.131
-729.952	119.790	-0.294	-0.366
-728.937	313.771	-0.084	-0.159
-727.923	-114.096	-0.263	0.051
-726.908	36.362	-0.208	0.184
-725.894	-55.768	0.279	-0.125
-724.879	142.031	0.098	0.131
-723.864	-30.119	-0.241	0.138
-722.850	-125.583	-0.384	0.059
-721.835	-20.477	-0.286	-0.177
-720.821	23.465	-0.207	0.171
-719.806	128.222	-0.155	0.199
-718.791	-16.624	0.142	-0.091
-717.777	487.369	0.031	-0.071
-716.762	-30.413	0.025	-0.014
-715.748	537.120	-0.148	0.353
-714.733	286.916	-0.126	-0.229
-713.718	-34.971	-0.044	0.024
-712.704	-26.456	0.147	-0.087
-711.689	67.484	-0.250	-0.256
-710.675	-200.000	0.042	0.347
-709.660	25.818	0.213	0.178
-708.645	-76.125	0.062	0.022
-707.631	-155.697	0.078	-0.005
-706.616	-108.791	0.085	-0.018
-705.602	800.000	-0.082	0.306
-704.587	-200.000	-0.021	0.254
-703.572	72.562	0.082	-0.086
-702.558	50.361	-0.116	0.110
-701.543	-95.598	-0.399	-0.107
-700.529	368.074	0.065	-0.132
-699.514	378.817	0.119	0.244
-698.499	-7.343	-0.136	-0.093
-697.485	-82.654	0.246	-0.080
-696.470	82.167	-0.045	-0.049
-695.456	117.780	0.131	-0.163
-694.441	-63.222	-0.196	-0.081
-693.426	-124.743	-0.172	-0.027
-692.412	-198.351	-0.549	0.003
-691.397	-200.000	-0.000	-0.068
-690.383	-93.436	-0.177	0.049
-689.368	-80.500	0.170	-0.057
-688.354	778.727	0.065	-0.179
-687.339	-200.000	0.015	0.226
-686.324	800.000	0.022	0.086
-685.310	157.833	0.036	0.050
-684.295	-200.000	-0.013	-0.087
-683.281	363.837	-0.028	0.057
-682.266	-200.000	-0.008	0.041
-681.251	-200.000	-0.010	0.233
-680.237	-117.368	0.383	-0.070
-679.222	800.000	0.053	0.192
-678.208	323.859	0.121	0.232
-677.193	134.632	0.027	0.035
-676.178	-79.213	0.382	-0.130
-675.164	230.473	0.087	0.144
-674.149	50.176	0.237	-0.225
-673.135	-95.149	0.174	-0.047
-672.120	-129.109	-0.343	-0.048
-671.105	69.325	-0.148	0.153
-670.091	-102.002	-0.095	0.023
-669.076	-114.376	0.159	0.031
-668.062	384.324	-0.111	-0.229
-667.047	-40.665	0.256	0.133
-666.032	-200.000	-0.016	-0.299
-665.018	56.030	-0.155	0.151
-664.003	-157.492	0.151	0.009
-662.989	-200.000	-0.039	-0.222
-661.974	800.000	0.045	0.143
-660.959	172.666	-0.174	0.251
-659.945	80.250	-0.134	0.145
-658.930	-200.000	0.009	-0.042
-657.916	18.861	0.117	-0.094
-656.901	-92.053	0.161	-0.046
-655.886	-116.728	0.212	0.039
-654.872	-105.727	0.308	0.070
-653.857	-200.000	-0.016	0.205
-652.843	-101.168	-0.167	0.041
-651.828	-54.001	-0.197	-0.090
-650.814	334.436	0.189	-0.367
-649.799	-34.532	-0.203	-0.112
-648.784	-61.768	0.308	-0.129
-647.770	-5.619	0.371	0.255
-646.755	168.916	-0.033	-0.047
-645.741	-61.738	-0.296	-0.124
-644.726	750.787	-0.091	-0.247
-643.711	347.089	0.032	-0.063
-642.697	21.203	0.196	-0.159
-641.682	-137.992	-0.439	0.049
-640.668	40.632	-0.255	-0.230
-639.653	-5.131	-0.187	0.129
-638.638	375.603	-0.088	-0.181
-637.624	427.278	0.110	-0.238
-636.609	340.374	0.049	-0.095
-635.595	41.050	-0.144	-0.130
-634.580	-24.483	-0.198	-0.118
-633.565	45.576	-0.156	0.145
-632.551	78.175	-0.200	0.214
-631.536	-200.000	-0.015	0.145
-630.522	109.297	-0.070	-0.084
-629.507	516.772	-0.035	0.083
-628.492	800.000	-0.034	0.112
-627.478	115.898	0.186	0.228
-626.463	-122.466	-0.137	-0.022
-625.449	80.105	-0.045	0.049
-624.434	-10.515	0.170	-0.113
-623.419	-8.438	0.035	0.024
-622.405	-102.420	0.144	0.035
-621.390	-107.021	-0.057	-0.013
-620.376	-152.322	0.149	0.011
-619.361	44.980	0.186	-0.172
-618.346	369.696	-0.013	0.027
-617.332	5.920	-0.154	0.114
-616.317	-10.499	-0.184	-0.122
-615.303	-78.251	0.349	-0.120
-614.288	681.221	-0.099	0.258
-613.273	-200.000	0.038	-0.180
-612.259	43.284	0.132	0.120
-611.244	59.227	-0.130	0.128
-610.230	-38.098	0.018	-0.009
-609.215	800.000	-0.045	-0.130
-608.201	453.448	0.139	-0.309
-607.186	-200.000	-0.025	-0.377
-606.171	-200.000	-0.009	-0.195
-605.157	379.916	-0.032	-0.065
-604.142	257.399	-0.148	-0.255
-603.128	-188.687	-0.294	0.004
-602.113	-115.405	-0.360	0.068
-601.098	800.000	-0.052	-0.200
-600.084	-200.000	-0.011	-0.382
-599.069	800.000	-0.113	-0.323
-598.055	-172.162	-0.119	-0.004
-597.040	-200.000	-0.004	0.036
-596.025	-83.969	-0.046	0.015
-595.011	83.075	-0.144	-0.156
-593.996	28.764	-0.124	0.105
-592.982	768.459	0.098	-0.268
-591.967	-96.995	0.261	0.068
-590.952	30.805	-0.053	0.046
-589.938	26.813	0.433	0.363
-588.923	-58.131	-0.055	0.024
-587.909	-200.000	0.030	-0.245
-586.894	800.000	0.032	0.133
-585.879	800.000	0.041	0.149
-584.865	-142.682	0.042	0.004
-583.850	34.544	0.305	-0.266
-582.836	295.276	-0.175	-0.320
-581.821	800.000	0.053	-0.216
-580.806	-200.000	0.002	-0.345
-579.792	-180.717	0.118	0.002
-578.777	51.869	-0.088	0.083
-577.763	-60.930	-0.339	0.143
-576.748	79.585	-0.135	0.145
-575.733	21.734	-0.142	0.116
-574.719	-25.700	-0.082	-0.048
-573.704	-78.744	-0.255	-0.087
-572.690	50.883	-0.062	-0.059
-571.675	-200.000	0.002	-0.093
-570.661	336.788	0.114	0.221
-569.646	226.406	0.139	0.226
-568.631	-90.958	-0.354	0.102
-567.617	36.741	0.129	0.114
-566.602	66.604	0.122	-0.123
-565.588	800.000	-0.045	0.196
-564.573	-81.332	0.120	-0.040
-563.558	-116.475	0.162	0.030
-562.544	265.960	-0.083	0.145
-561.529	-142.192	-0.424	-0.042
-560.515	-134.580	-0.192	0.023
-559.500	347.758	-0.128	-0.252
-558.485	-61.639	-0.242	0.102
-557.471	-111.934	0.180	-0.036
-556.456	-60.120	0.079	0.034
-555.442	153.400	-0.217	0.297
-554.427	-34.758	-0.210	0.115
-553.412	211.380	-0.126	-0.198
-552.398	800.000	0.046	0.152
-551.383	-116.269	0.242	-0.045
-550.369	121.208	0.178	0.222
-549.354	-114.224	-0.237	0.046
-548.339	188.312	0.099	-0.147
-547.325	586.632	-0.101	-0.249
-546.310	34.165	0.242	0.210
-545.296	11.111	0.080	0.061
-544.281	441.822	0.087	-0.189
-543.266	-128.566	0.167	0.024
-542.252	-92.934	0.136	-0.038
-541.237	78.598	0.135	0.144
-540.223	-127.892	-0.147	-0.021
-539.208	16.662	-0.046	0.036
-538.193	-57.613	-0.184	-0.080
-537.179	800.000	0.099	0.274
-536.164	46.806	0.041	0.038
-535.150	-111.522	0.179	0.036
-534.135	21.078	0.225	-0.182
-533.121	-200.000	-0.098	0.637
-532.106	-200.000	0.004	0.143
-531.091	-200.000	-0.036	0.206
-530.077	330.087	-0.034	-0.065
-529.062	-200.000	-0.005	0.167
-528.048	-118.225	-0.107	-0.019
-527.033	48.836	0.243	-0.228
-526.018	217.734	-0.032	0.051
-525.004	425.467	-0.081	0.175
-523.989	-200.000	-0.011	0.130
-522.975	-92.183	-0.256	-0.072
-521.960	28.633	-0.087	-0.073
-520.945	-200.000	0.003	-0.212
-519.931	-200.000	-0.037	0.246
-518.916	800.000	-0.028	0.086
-517.902	-132.117	0.247	-0.032
-516.887	-45.846	0.275	0.136
-515.872	237.901	-0.043	0.071
-514.858	-199.565	-0.253	-0.001
-513.843	-200.000	0.026	-0.132
-512.829	394.751	0.131	-0.272
-511.814	-123.133	-0.356	-0.057
-510.799	-5.785	-0.304	0.207
-509.785	381.119	0.106	-0.217
-508.770	-199.222	0.007	0.000
-507.756	-18.810	-0.189	0.117
-506.741	72.103	0.134	0.139
-505.726	172.814	-0.112	0.161
-504.712	-171.187	-0.065	-0.002
-503.697	800.000	-0.035	-0.141
-502.683	-121.715	-0.200	-0.033
-501.668	82.948	-0.240	-0.260
-500.653	800.000	0.045	-0.156
-499.639	363.119	0.128	0.256
-498.624	-68.824	0.197	0.076
-497.610	108.173	-0.149	-0.177
-496.595	-7.199	0.091	-0.062
-495.581	-200.000	-0.005	-0.152
-494.566	191.945	-0.090	-0.135
-493.551	800.000	-0.082	0.253
-492.537	-200.000	0.053	0.262
-491.522	-120.278	-0.456	-0.077
-490.508	-88.747	0.281	0.083
-489.493	-200.000	0.040	-0.198
-488.478	59.206	-0.168	0.165
-487.464	20.412	0.155	-0.125
-486.449	601.652	0.058	-0.144
-485.435	-10.324	0.128	0.084
-484.420	-148.393	-0.166	0.014
-483.405	-37.563	0.527	-0.280
-482.391	170.285	0.012	0.017
-481.376	97.278	-0.188	-0.215
-480.362	12.295	0.076	0.059
-479.347	-106.233	0.176	0.039
-478.332	-200.000	0.012	-0.185
-477.318	-142.629	0.243	-0.024
-476.303	-200.000	-0.072	-0.637
-475.289	341.058	-0.130	-0.253
-474.274	147.873	-0.213	-0.286
-473.259	-113.069	0.212	0.042
-472.245	-200.000	-0.005	0.141
-471.230	-23.003	0.080	0.048
-470.216	583.539	0.023	0.056
-469.201	39.445	0.204	-0.182
-468.186	169.488	-0.056	0.080
-467.172	504.545	-0.078	0.181
-466.157	23.619	-0.286	0.234
-465.143	-182.398	-0.247	-0.005
-464.128	-63.050	0.123	0.051
-463.113	-200.000	0.009	0.044
-462.099	-200.000	-0.010	-0.256
-461.084	-200.000	0.001	0.050
-460.070	-107.733	-0.103	0.022
-459.055	800.000	-0.022	-0.077
-458.040	-200.000	0.046	-0.222
-457.026	-70.787	-0.140	0.053
-456.011	800.000	-0.069	-0.248
-454.997	-200.000	0.026	-0.257
-453.982	209.983	-0.027	-0.042
-452.968	77.126	0.213	0.225
-451.953	548.926	0.038	-0.092
-450.938	168.919	0.183	0.259
-449.924	607.190	-0.084	0.210
-448.909	800.000	-0.036	0.106
-447.895	188.695	-0.058	-0.087
-446.880	-40.456	-0.100	-0.052
-445.865	3.789	0.161	-0.117
-444.851	123.761	-0.107	0.133
-443.836	170.402	-0.048	0.068
-442.822	-200.000	0.013	0.133
-441.807	325.688	-0.104	-0.197
-440.792	-149.530	-0.097	0.008
-439.778	467.976	0.041	-0.091
-438.763	-93.607	-0.166	0.046
-437.749	236.875	-0.114	0.187
-436.734	-78.271	-0.307	0.105
-435.719	800.000	-0.070	0.197
-434.705	-200.000	-0.011	0.103
-433.690	-64.963	-0.143	0.058
-432.676	-200.000	0.042	-0.245
-431.661	51.091	0.078	0.073
-430.646	-76.826	-0.073	0.025
-429.632	-200.000	-0.031	-0.226
-428.617	-58.139	0.345	0.150
-427.603	-174.362	0.341	-0.010
-426.588	-20.340	0.277	0.169
-425.573	-109.457	-0.267	-0.056
-424.559	545.910	-0.116	-0.276
-423.544	-109.446	0.248	-0.052
-422.530	-65.255	-0.272	0.109
-421.515	-28.109	-0.193	-0.111
-420.500	-29.935	-0.364	-0.206
-419.486	-178.553	0.173	-0.004
-418.471	-200.000	-0.088	-0.395
-417.457	-81.724	-0.353	0.115
-416.442	252.123	-0.242	-0.410
-415.428	-85.772	0.202	-0.062
-414.413	-137.724	-0.058	0.006
-413.398	148.622	-0.295	-0.395
-412.384	-200.000	0.046	-0.306
-411.369	800.000	0.079	0.243
-410.355	17.246	0.064	-0.051
-409.340	-93.401	0.089	-0.025
-408.325	-15.242	0.078	0.050
-407.311	-200.000	0.017	0.224
-406.296	91.516	-0.067	0.075
-405.282	-179.967	0.289	0.006
-404.267	-200.000	0.027	0.145
-403.252	-57.908	0.195	-0.085
-402.238	-140.631	-0.213	-0.022
-401.223	-87.307	0.257	0.077
-400.209	-64.472	0.123	0.050
-399.194	49.977	0.232	0.217
-398.179	-73.436	0.355	-0.129
-397.165	246.700	-0.205	0.344
-396.150	-52.843	0.110	-0.050
-395.136	153.377	0.062	0.084
-394.121	-140.256	0.198	0.021
-393.106	800.000	0.131	0.421
-392.092	160.058	-0.128	-0.177
-391.077	-143.153	0.101	-0.010
-390.063	13.728	-0.114	0.088
-389.048	71.621	-0.081	-0.083
-388.033	171.481	0.096	-0.136
-387.019	89.982	-0.082	0.091
-386.004	63.871	0.089	-0.088
-384.990	121.049	-0.128	-0.158
-383.975	800.000	0.071	-0.306
-382.960	-200.000	-0.028	0.145
-381.946	415.655	-0.157	0.332
-380.931	28.637	-0.140	0.118
-379.917	-80.932	-0.153	0.050
-378.902	104.008	0.026	-0.031
-377.888	-75.453	0.392	0.139
-376.873	-106.141	-0.299	-0.067
-375.858	-200.000	0.013	0.259
-374.844	-25.763	0.181	-0.106
-373.829	-150.690	0.202	-0.015
-372.815	-42.797	0.150	0.076
-371.800	-200.000	-0.039	0.280
-370.785	-21.958	0.270	0.163
-369.771	18.807	-0.350	-0.278
-368.756	-53.608	0.100	0.045
-367.742	-200.000	-0.007	0.170
-366.727	-108.206	0.139	0.030
-365.712	29.455	0.228	0.192
-364.698	-155.623	-0.038	0.002
-363.683	531.861	0.081	0.191
-362.669	672.662	-0.128	-0.330
-361.654	-35.377	-0.127	-0.068
-360.639	-35.784	-0.298	-0.160
-359.625	-39.240	-0.043	0.022
-358.610	-200.000	0.005	-0.129
-357.596	-105.518	-0.082	-0.019
-356.581	-109.613	-0.419	0.088
-355.566	432.373	-0.100	0.215
-354.552	-130.645	0.288	-0.038
-353.537	-109.632	0.110	0.023
-352.523	85.620	-0.286	0.311
-351.508	-200.000	0.007	-0.100
-350.493	-20.170	0.213	0.130
-349.479	-26.605	0.162	0.094
-348.464	-56.937	0.044	0.019
-347.450	-107.179	0.299	-0.065
-346.435	-200.000	0.007	-0.064
-345.420	10.298	-0.190	-0.143
-344.406	-17.958	0.374	0.232
-343.391	-22.852	0.474	-0.284
-342.377	-170.162	-0.310	0.011
-341.362	289.754	-0.095	0.171
-340.348	184.817	-0.193	-0.283
-339.333	800.000	-0.121	0.405
-338.318	-143.153	0.165	-0.016
-337.304	-96.925	-0.272	-0.071
-336.289	-200.000	0.114	-0.502
-335.275	-200.000	0.015	0.154
-334.260	46.882	0.196	0.180
-333.245	-127.301	0.042	-0.006
-332.231	-60.163	0.127	0.053
-331.216	-122.466	0.134	0.022
-330.202	800.000	-0.082	0.319
-329.187	-200.000	-0.012	0.128
-328.172	-145.275	-0.022	0.002
-327.158	-129.212	-0.325	-0.045
-326.143	51.178	0.130	0.122
-325.129	-84.014	0.210	-0.066
-324.114	59.619	0.075	0.073
-323.099	-9.082	0.237	0.157
-322.085	-200.000	0.050	-0.376
-321.070	67.099	-0.282	-0.284
-320.056	229.294	0.133	-0.214
-319.041	173.661	0.149	0.213
-318.026	103.109	0.248	0.288
-317.012	-131.087	-0.022	-0.003
-315.997	-200.000	-0.001	0.146
-314.983	-200.000	-0.007	0.250
-313.968	-57.042	-0.169	0.074
-312.953	-104.448	0.191	-0.044
-311.939	-200.000	-0.008	-0.088
-310.924	2.865	-0.078	0.056
-309.910	181.415	-0.280	-0.408
-308.895	137.294	-0.041	-0.053
-307.880	-94.202	0.135	-0.037
-306.866	73.464	0.177	-0.183
-305.851	24.946	-0.097	-0.079
-304.837	-76.200	-0.274	0.096
-303.822	34.682	-0.150	-0.130
-302.807	-113.833	0.262	-0.050
-301.793	53.024	-0.206	-0.195
-300.778	-200.000	-0.039	-0.172
-299.764	-104.246	-0.142	-0.032
-298.749	-154.783	-0.389	0.025
-297.735	800.000	0.101	0.391
-296.720	-78.628	-0.181	-0.061
-295.705	383.812	0.155	-0.316
-294.691	-11.404	0.247	0.160
-293.676	601.188	0.048	0.118
-292.662	-85.205	0.296	0.092
-291.647	-200.000	0.014	0.185
-290.632	77.617	0.038	-0.040
-289.618	800.000	-0.151	0.455
-288.603	11.043	-0.091	0.069
-287.589	286.854	-0.045	0.080
-286.574	-200.000	-0.054	0.242
-285.559	-73.353	0.306	0.111
-284.545	33.566	0.042	0.036
-283.530	-153.136	-0.088	0.006
-282.516	43.574	-0.157	0.142
-281.501	-4.655	0.303	-0.207
-280.486	15.580	0.175	0.136
-279.472	310.539	0.107	-0.198
-278.457	77.273	-0.043	0.045
-277.443	-200.000	0.031	0.220
-276.428	53.716	0.185	0.175
-275.413	-39.486	-0.174	0.090
-274.399	43.188	-0.100	-0.090
-273.384	-200.000	0.046	-0.283
-272.370	-27.832	0.234	-0.134
-271.355	-62.303	0.336	0.138
-270.340	69.528	0.105	0.106
-269.326	-39.215	-0.250	-0.130
-268.311	-200.000	-0.024	0.279
-267.297	-200.000	0.067	0.298
-266.282	-76.411	0.339	-0.118
-265.267	211.623	0.081	-0.126
-264.253	240.686	-0.062	0.102
-263.238	-200.000	-0.008	0.063
-262.224	-98.482	0.220	-0.056
-261.209	51.386	-0.171	0.161
-260.195	496.536	-0.129	0.292
-259.180	-58.996	-0.167	0.071
-258.165	435.400	0.117	0.250
-257.151	-3.206	-0.073	0.050
-256.136	-200.000	0.009	0.066
-255.122	201.286	-0.133	0.202
-254.107	106.886	0.186	-0.218
-253.092	283.226	-0.007	-0.012
-252.078	415.728	-0.099	0.208
-251.063	29.578	-0.411	-0.346
-250.049	65.828	0.116	-0.117
-249.034	43.374	-0.054	0.049
-248.019	-200.000	-0.027	-0.170
-247.005	360.589	-0.098	0.193
-245.990	-105.660	0.173	-0.039
-244.976	388.733	-0.124	-0.253
-243.961	22.321	-0.217	0.175
-242.946	-63.470	0.125	-0.051
-241.932	-200.000	0.070	-0.328
-240.917	-99.756	0.316	0.078
-239.903	66.583	-0.251	-0.252
-238.888	-41.116	-0.337	0.172
-237.873	395.450	-0.053	0.109
-236.859	629.522	-0.082	-0.204
-235.844	135.676	-0.069	-0.088
-234.830	-46.816	-0.215	-0.104
-233.815	-39.864	0.316	0.163
-232.800	737.428	-0.087	-0.229
-231.786	388.347	0.140	0.287
-230.771	18.549	0.257	0.203
-229.757	145.057	0.130	-0.171
-228.742	127.200	-0.082	-0.103
-227.727	-42.800	0.093	0.046
-226.713	-21.309	0.116	-0.070
-225.698	1.717	-0.153	0.109
-224.684	203.020	0.201	0.307
-223.669	20.678	0.240	-0.191
-222.655	-98.785	0.227	0.057
-221.640	-46.381	0.187	0.091
-220.625	169.462	0.048	-0.067
-219.611	-140.311	-0.171	-0.018
-218.596	67.092	0.205	-0.206
-217.582	33.283	0.128	0.110
-216.567	-56.277	-0.241	0.106
-215.552	60.983	-0.131	-0.128
-214.538	-90.718	0.046	0.013
-213.523	46.559	-0.140	0.128
-212.509	-18.374	0.040	-0.025
-211.494	-49.668	0.106	0.050
-210.479	206.881	0.155	0.238
-209.465	673.628	-0.038	-0.098
-208.450	-31.924	-0.088	0.049
-207.436	190.737	0.252	0.374
-206.421	623.319	-0.109	0.269
-205.406	-13.176	0.131	0.084
-204.392	800.000	-0.055	-0.227
-203.377	0.755	0.217	0.153
-202.363	-200.000	-0.021	0.107
-201.348	-151.175	-0.238	0.018
-200.333	62.879	-0.154	0.152
-199.319	-72.937	-0.044	0.016
-198.304	800.000	0.071	-0.235
-197.290	-200.000	0.022	0.231
-196.275	65.230	-0.076	-0.075
-195.260	800.000	-0.012	-0.050
-194.246	800.000	0.088	0.266
-193.231	-200.000	0.016	-0.155
-192.217	501.423	0.086	0.196
-191.202	800.000	0.077	-0.261
-190.187	-91.190	0.095	0.027
-189.173	31.868	-0.132	-0.112
-188.158	422.193	-0.191	-0.404
-187.144	75.702	-0.054	0.056
-186.129	797.067	0.092	0.251
-185.114	-200.000	-0.002	-0.064
-184.100	-80.101	0.223	-0.073
-183.085	370.706	-0.184	-0.367
-182.071	-138.117	0.126	-0.014
-181.056	-82.995	0.329	-0.104
-180.042	190.860	0.079	0.117
-179.027	-12.563	-0.026	0.016
-178.012	-0.096	-0.157	0.110
-176.998	-200.000	0.011	-0.224
-175.983	292.076	-0.031	-0.056
-174.969	-121.006	-0.264	0.044
-173.954	800.000	-0.043	0.128
-172.939	102.603	-0.089	0.102
-171.925	-78.572	-0.294	-0.099
-170.910	-200.000	-0.011	0.259
-169.896	-200.000	-0.002	-0.194
-168.881	327.787	-0.067	0.126
-167.866	-200.000	0.017	-0.073
-166.852	-62.109	0.377	0.155
-165.837	-34.746	0.083	0.045
-164.823	-77.182	-0.118	0.041
-163.808	-57.197	0.434	-0.188
-162.793	-200.000	0.006	-0.108
-161.779	-200.000	0.052	-0.316
-160.764	-131.642	0.185	0.024
-159.750	-68.772	0.323	0.123
-158.735	25.470	-0.047	-0.039
-157.720	-200.000	-0.040	-0.198
-156.706	-200.000	-0.012	-0.203
-155.691	247.154	0.126	0.208
-154.677	623.106	0.060	-0.149
-153.662	-123.437	-0.231	0.036
-152.647	-13.162	0.095	0.061
-151.633	356.967	-0.088	0.172
-150.618	-161.226	-0.088	0.005
-149.604	376.003	0.049	0.099
-148.589	800.000	0.095	0.398
-147.574	-73.090	0.036	0.013
-146.560	-45.058	-0.099	-0.049
-145.545	800.000	-0.098	0.331
-144.531	189.886	0.084	-0.124
-143.516	13.602	0.322	-0.246
-142.502	-29.799	0.214	0.120
-141.487	-200.000	0.013	0.166
-140.472	87.120	0.183	-0.199
-139.458	-200.000	-0.016	0.134
-138.443	-105.366	-0.130	0.029
-137.429	6.450	0.181	0.132
-136.414	800.000	0.031	-0.105
-135.399	-0.149	0.221	0.154
-134.385	-200.000	-0.018	-0.171
-133.370	-83.296	-0.275	-0.087
-132.356	800.000	0.083	0.315
-131.341	478.423	-0.143	0.317
-130.326	166.972	0.144	0.201
-129.312	74.665	-0.187	0.194
-128.297	193.113	0.190	-0.282
-127.283	180.857	0.139	-0.201
-126.268	-70.155	0.067	-0.025
-125.253	800.000	0.084	0.239
-124.239	-17.095	0.194	0.120
-123.224	-114.400	0.030	-0.006
-122.210	-200.000	0.048	-0.295
-121.195	87.594	-0.128	0.139
-120.180	-32.364	-0.254	-0.139
