DTS Sentinel unit serial number:	SN413079Multiplexer serial number:	ORYXHardware model number:	OX4-SRSoftware version number:	ORYX F/W v4.00 Oryx Data Collector v3.7.2.0data status	okinstallation	princeton_trtdifferential loss correction	single-endedforward channel	channel 1reverse channel	N/Adate	2019/09/14time	00:18:35forward acquisition time	60.00reverse acquisition time	0.00gamma	496.2192k internal	0.2337k external	0.2337temperature offset calibration	1.0082default loss term (dB/km)	0.3790temperature slope calibration	1.0000multiplexer offset coefficient	1.0000multiplexer slope coefficient	1.0000fibre end	0.00T internal ref (°C)	26.50T ext. ref 1 (°C)	3.16T ext. ref 2 (°C)	21.42length (m)	temperature (°C)	Stokes	anti-Stokes-747.200	-200.000	-0.024	-0.125
-746.185	38.682	-0.084	0.075
-745.171	-64.588	-0.134	0.054
-744.156	288.359	-0.047	-0.085
-743.142	75.593	0.309	-0.327
-742.127	-65.772	-0.119	0.048
-741.112	-200.000	-0.021	0.365
-740.098	444.502	-0.077	0.170
-739.083	224.648	-0.081	0.132
-738.069	-37.428	-0.054	0.029
-737.054	-118.332	0.124	-0.022
-736.039	97.154	-0.180	-0.207
-735.025	-14.530	-0.071	0.046
-734.010	4.965	-0.165	0.122
-732.996	65.603	0.220	-0.223
-731.981	361.492	-0.267	-0.538
-730.966	-200.000	-0.026	-0.187
-729.952	-154.881	-0.193	-0.013
-728.937	137.772	-0.047	-0.062
-727.923	486.928	-0.040	0.091
-726.908	221.024	0.160	0.257
-725.894	56.161	0.193	0.188
-724.879	39.412	0.094	0.085
-723.864	-93.322	-0.193	0.054
-722.850	800.000	-0.033	-0.121
-721.835	109.040	-0.173	-0.208
-720.821	136.811	0.272	0.356
-719.806	-13.016	-0.202	-0.132
-718.791	622.090	-0.153	0.386
-717.777	-200.000	-0.021	0.131
-716.762	-93.894	-0.110	0.030
-715.748	-200.000	-0.043	-0.218
-714.733	34.658	-0.050	0.044
-713.718	-40.234	0.268	-0.140
-712.704	180.635	-0.121	0.178
-711.689	26.991	-0.159	0.133
-710.675	-142.758	0.136	-0.013
-709.660	93.188	-0.287	0.325
-708.645	-96.441	0.252	0.067
-707.631	-200.000	-0.002	0.122
-706.616	634.689	-0.014	0.036
-705.602	11.432	0.214	0.164
-704.587	-105.081	0.267	-0.061
-703.572	-200.000	0.027	0.300
-702.558	-178.333	-0.160	0.004
-701.543	114.178	-0.237	-0.290
-700.529	-84.651	0.247	0.078
-699.514	-200.000	-0.009	-0.047
-698.499	800.000	-0.116	0.337
-697.485	800.000	-0.070	0.223
-696.470	-36.131	0.113	-0.061
-695.456	800.000	0.009	-0.026
-694.441	118.460	0.083	-0.103
-693.426	800.000	-0.122	-0.473
-692.412	286.035	-0.153	0.276
-691.397	-161.166	0.165	-0.009
-690.383	25.672	-0.053	-0.044
-689.368	-200.000	0.061	-0.295
-688.354	-200.000	-0.028	-0.412
-687.339	79.263	-0.133	0.143
-686.324	-69.160	0.177	0.068
-685.310	-130.853	-0.342	0.046
-684.295	-200.000	-0.051	-0.251
-683.281	-167.447	-0.230	0.009
-682.266	34.705	0.180	0.157
-681.251	188.413	-0.098	-0.147
-680.237	-15.887	0.430	-0.274
-679.222	-200.000	-0.059	-0.337
-678.208	-200.000	0.017	-0.221
-677.193	-28.751	-0.032	-0.018
-676.178	-124.208	0.158	0.025
-675.164	203.100	-0.056	-0.086
-674.149	-200.000	-0.020	0.234
-673.135	800.000	0.040	0.140
-672.120	-173.754	0.163	-0.005
-671.105	-78.327	0.072	-0.025
-670.091	-200.000	0.009	0.164
-669.076	-200.000	0.016	-0.244
-668.062	77.842	-0.160	-0.170
-667.047	49.009	-0.163	0.153
-666.032	-29.166	0.189	-0.108
-665.018	800.000	0.019	-0.064
-664.003	-141.611	-0.177	0.018
-662.989	-73.379	-0.157	-0.057
-661.974	8.180	-0.128	0.096
-660.959	7.314	-0.272	-0.203
-659.945	-20.618	-0.356	-0.219
-658.930	483.692	0.067	-0.152
-657.916	-193.750	-0.163	0.001
-656.901	800.000	-0.039	0.109
-655.886	294.242	-0.170	0.311
-654.872	87.036	0.091	0.100
-653.857	-119.758	-0.062	0.011
-652.843	-200.000	0.008	0.235
-651.828	602.142	0.134	-0.333
-650.814	-200.000	-0.082	-0.582
-649.799	356.729	-0.086	0.172
-648.784	261.443	-0.116	0.201
-647.770	-79.333	0.067	-0.023
-646.755	252.678	0.133	0.227
-645.741	-71.169	0.234	-0.088
-644.726	61.407	-0.158	-0.157
-643.711	7.790	0.055	0.042
-642.697	-122.767	-0.189	0.030
-641.682	-101.957	-0.174	-0.042
-640.668	-163.990	0.179	-0.008
-639.653	-71.516	-0.244	-0.091
-638.638	-93.674	-0.124	0.034
-637.624	363.782	0.045	-0.090
-636.609	5.994	0.132	-0.098
-635.595	800.000	0.063	-0.203
-634.580	205.827	0.108	0.167
-633.565	-41.343	-0.041	-0.021
-632.551	-200.000	0.017	0.188
-631.536	-200.000	0.014	0.194
-630.522	307.479	0.105	0.195
-629.507	800.000	0.064	-0.182
-628.492	-90.532	0.055	0.016
-627.478	8.199	0.540	-0.405
-626.463	800.000	-0.072	0.199
-625.449	-200.000	0.009	0.053
-624.434	-66.387	0.247	-0.098
-623.419	-200.000	-0.005	-0.202
-622.405	-200.000	0.025	-0.285
-621.390	-5.136	-0.132	-0.091
-620.376	337.301	-0.062	-0.120
-619.361	390.544	-0.190	-0.393
-618.346	-71.592	-0.295	0.110
-617.332	-160.113	-0.185	-0.010
-616.317	-95.938	-0.146	0.039
-615.303	-92.959	-0.297	0.083
-614.288	-105.454	-0.298	0.068
-613.273	-105.173	0.157	0.036
-612.259	-123.800	0.355	0.056
-611.244	-200.000	0.018	-0.105
-610.230	-200.000	0.053	0.268
-609.215	177.048	0.024	-0.035
-608.201	800.000	-0.034	-0.140
-607.186	-126.434	0.339	0.050
-606.171	-156.580	-0.393	-0.024
-605.157	12.613	0.290	-0.223
-604.142	-114.114	-0.132	0.025
-603.128	-114.008	0.309	-0.060
-602.113	-28.647	-0.271	0.156
-601.098	659.507	0.068	-0.174
-600.084	105.266	0.057	0.067
-599.069	-200.000	-0.012	-0.072
-598.055	-48.900	-0.170	-0.081
-597.040	-11.986	0.077	-0.051
-596.025	160.991	0.036	0.051
-595.011	-200.000	-0.001	-0.076
-593.996	120.214	-0.029	0.036
-592.982	-138.086	0.067	-0.007
-591.967	44.456	0.139	-0.127
-590.952	800.000	-0.063	-0.239
-589.938	-57.634	-0.131	0.057
-588.923	27.160	0.389	0.325
-587.909	800.000	0.075	0.255
-586.894	800.000	0.028	0.097
-585.879	800.000	0.066	0.245
-584.865	-2.655	-0.257	0.179
-583.850	-75.120	0.147	0.052
-582.836	-148.374	0.057	-0.005
-581.821	-200.000	0.003	0.027
-580.806	-200.000	0.001	-0.306
-579.792	-59.568	-0.087	-0.037
-578.777	-132.171	0.224	-0.029
-577.763	-112.370	0.177	-0.035
-576.748	-200.000	0.005	-0.089
-575.733	-165.196	-0.327	-0.014
-574.719	-200.000	-0.021	0.145
-573.704	800.000	-0.007	0.028
-572.690	179.245	0.145	-0.212
-571.675	-29.485	-0.290	0.165
-570.661	213.394	0.141	-0.223
-569.646	82.144	0.094	-0.101
-568.631	58.353	-0.072	0.071
-567.617	476.293	-0.036	-0.080
-566.602	-25.396	0.096	0.057
-565.588	-16.983	0.175	-0.110
-564.573	-73.246	-0.240	0.087
-563.558	-200.000	0.016	0.203
-562.544	-1.931	-0.088	-0.062
-561.529	-83.212	-0.414	0.133
-560.515	69.851	-0.287	-0.295
-559.500	-200.000	-0.010	-0.295
-558.485	800.000	-0.031	0.091
-557.471	14.898	-0.284	-0.221
-556.456	258.184	-0.195	0.335
-555.442	-41.267	0.202	0.104
-554.427	-23.553	0.117	0.070
-553.412	-15.806	0.234	0.148
-552.398	800.000	0.017	0.075
-551.383	608.915	0.092	-0.228
-550.369	-24.512	-0.190	-0.113
-549.354	-200.000	0.002	-0.116
-548.339	57.653	0.111	0.109
-547.325	-185.441	0.126	-0.002
-546.310	-30.272	0.415	-0.235
-545.296	-121.656	-0.208	0.034
-544.281	-147.981	-0.265	-0.022
-543.266	-145.817	-0.126	-0.011
-542.252	-5.101	-0.023	0.016
-541.237	2.546	-0.276	0.199
-540.223	-39.127	-0.052	0.027
-539.208	-200.000	-0.034	-0.177
-538.193	800.000	0.031	0.100
-537.179	-200.000	0.011	0.236
-536.164	-26.331	-0.191	0.111
-535.150	-200.000	-0.017	0.087
-534.135	51.529	-0.186	-0.176
-533.121	-66.906	-0.231	0.091
-532.106	-200.000	0.029	0.171
-531.091	-81.268	0.209	-0.069
-530.077	83.113	0.096	-0.104
-529.062	182.590	0.130	0.190
-528.048	-200.000	0.061	-0.481
-527.033	380.273	-0.134	-0.273
-526.018	358.309	-0.102	-0.202
-525.004	45.019	-0.116	0.106
-523.989	800.000	0.035	0.098
-522.975	23.329	0.250	-0.204
-521.960	800.000	0.049	0.180
-520.945	647.686	-0.099	-0.252
-519.931	-150.909	-0.138	-0.010
-518.916	-200.000	-0.004	0.023
-517.902	-0.243	-0.065	0.046
-516.887	76.538	-0.065	0.069
-515.872	-49.816	0.255	0.121
-514.858	297.010	0.094	-0.171
-513.843	-99.319	0.147	-0.037
-512.829	254.284	0.123	0.209
-511.814	635.460	0.159	0.400
-510.799	-174.079	-0.224	-0.007
-509.785	716.189	0.033	-0.086
-508.770	-64.975	-0.071	0.029
-507.756	-13.673	-0.349	-0.225
-506.741	-49.715	0.173	-0.082
-505.726	-52.993	-0.109	0.050
-504.712	219.207	0.040	0.063
-503.697	-60.799	0.053	-0.022
-502.683	-34.515	0.066	-0.036
-501.668	-132.059	-0.502	-0.065
-500.653	140.452	0.115	-0.150
-499.639	-122.155	0.189	-0.031
-498.624	800.000	-0.046	-0.190
-497.610	339.794	-0.086	-0.167
-496.595	-20.926	-0.217	0.132
-495.581	396.662	-0.032	-0.066
-494.566	-84.528	-0.418	-0.131
-493.551	152.188	-0.268	0.363
-492.537	-98.522	0.307	0.078
-491.522	60.053	-0.200	0.196
-490.508	-114.560	0.481	0.092
-489.493	-15.590	0.221	0.140
-488.478	-98.944	-0.365	0.092
-487.464	330.274	-0.193	-0.369
-486.449	800.000	-0.091	-0.289
-485.435	-200.000	-0.011	-0.391
-484.420	182.397	-0.077	-0.113
-483.405	-27.214	-0.172	-0.099
-482.391	-107.234	-0.206	-0.045
-481.376	-200.000	-0.005	0.112
-480.362	123.470	0.179	-0.224
-479.347	-57.051	0.146	-0.064
-478.332	-200.000	0.091	0.452
-477.318	-200.000	-0.008	-0.070
-476.303	-200.000	0.004	-0.208
-475.289	-17.494	0.123	0.077
-474.274	800.000	-0.080	0.258
-473.259	-115.008	-0.375	-0.071
-472.245	89.929	0.175	0.195
-471.230	-200.000	0.079	0.465
-470.216	78.341	-0.314	-0.333
-469.201	-200.000	-0.058	-0.471
-468.186	800.000	0.103	0.341
-467.172	-104.226	-0.083	-0.019
-466.157	-70.544	0.300	-0.113
-465.143	434.887	-0.160	0.346
-464.128	800.000	-0.059	-0.163
-463.113	353.699	-0.046	0.091
-462.099	-101.186	-0.215	0.052
-461.084	189.677	-0.078	0.117
-460.070	49.837	0.100	-0.093
-459.055	-58.112	0.207	-0.090
-458.040	-70.740	0.131	0.049
-457.026	51.625	-0.067	-0.063
-456.011	-151.365	0.323	-0.024
-454.997	50.933	0.314	0.296
-453.982	-200.000	0.015	0.581
-452.968	18.957	-0.194	0.154
-451.953	-154.910	0.096	0.006
-450.938	276.140	0.058	-0.102
-449.924	-96.257	-0.195	0.051
-448.909	-34.160	0.187	-0.102
-447.895	-20.574	-0.209	0.127
-446.880	-200.000	-0.015	0.247
-445.865	221.450	-0.041	-0.066
-444.851	-200.000	0.079	-0.409
-443.836	719.329	-0.050	0.132
-442.822	-200.000	-0.184	-0.000
-441.807	306.915	0.061	0.113
-440.792	259.080	-0.181	-0.309
-439.778	68.041	0.344	-0.350
-438.763	-129.781	0.171	0.023
-437.749	-129.692	-0.503	0.069
-436.734	-165.198	0.371	0.016
-435.719	-200.000	-0.023	0.123
-434.705	177.897	-0.128	0.185
-433.690	-200.000	-0.012	-0.172
-432.676	-149.155	-0.114	-0.009
-431.661	-44.455	-0.163	-0.081
-430.646	800.000	0.036	-0.153
-429.632	-47.699	0.226	-0.109
-428.617	-200.000	0.026	-0.211
-427.603	-200.000	0.000	0.083
-426.588	79.804	0.073	-0.078
-425.573	5.034	0.157	-0.114
-424.559	-43.973	0.156	-0.078
-423.544	57.337	0.152	-0.147
-422.530	219.070	-0.159	0.251
-421.515	176.883	0.085	0.123
-420.500	387.470	0.147	0.300
-419.486	-200.000	-0.008	-0.035
-418.471	-200.000	-0.004	0.051
-417.457	800.000	0.134	-0.562
-416.442	133.915	0.157	-0.201
-415.428	23.838	-0.077	0.063
-414.413	-106.745	-0.210	-0.046
-413.398	-110.273	0.110	-0.023
-412.384	-43.137	-0.265	-0.133
-411.369	-58.905	0.135	-0.058
-410.355	-75.662	-0.218	0.077
-409.340	425.870	0.067	0.142
-408.325	480.188	-0.118	0.265
-407.311	-200.000	0.023	-0.128
-406.296	200.546	-0.142	0.216
-405.282	-200.000	0.015	-0.121
-404.267	-200.000	0.072	0.324
-403.252	137.470	0.058	0.075
-402.238	146.425	-0.173	0.230
-401.223	-200.000	0.035	0.225
-400.209	81.483	-0.099	0.106
-399.194	108.721	-0.160	-0.190
-398.179	-200.000	-0.008	0.056
-397.165	500.599	0.047	-0.107
-396.150	-94.038	0.225	-0.061
-395.136	-174.587	0.264	0.007
-394.121	-73.908	0.193	-0.069
-393.106	6.639	-0.141	0.104
-392.092	65.415	-0.047	-0.047
-391.077	-51.318	0.208	0.096
-390.063	800.000	-0.047	-0.148
-389.048	-41.319	-0.302	0.154
-388.033	37.159	0.211	0.185
-387.019	480.344	0.081	-0.181
-386.004	800.000	0.046	0.151
-384.990	88.484	0.337	0.371
-383.975	-65.071	-0.096	0.039
-382.960	518.765	-0.050	-0.116
-381.946	203.114	-0.080	0.123
-380.931	-159.015	0.051	0.003
-379.917	-143.959	0.267	0.025
-378.902	-122.106	-0.112	-0.018
-377.888	105.722	0.112	-0.131
-376.873	-61.245	0.273	0.114
-375.858	193.702	0.105	-0.158
-374.844	-58.921	0.245	0.105
-373.829	-200.000	0.008	-0.042
-372.815	-126.559	-0.181	-0.027
-371.800	-24.304	0.124	-0.073
-370.785	800.000	-0.070	0.223
-369.771	-159.005	0.375	-0.021
-368.756	5.174	-0.061	-0.044
-367.742	12.195	-0.223	0.170
-366.727	-48.013	-0.338	0.162
-365.712	13.216	0.397	0.304
-364.698	-101.112	0.136	-0.033
-363.683	155.065	0.025	-0.034
-362.669	-133.677	-0.125	-0.015
-361.654	16.062	0.163	-0.127
-360.639	-200.000	0.010	0.176
-359.625	-84.780	-0.142	-0.044
-358.610	-1.208	0.047	0.033
-357.596	764.181	-0.131	0.351
-356.581	-122.385	0.366	0.059
-355.566	21.509	0.281	0.226
-354.552	171.344	-0.080	0.114
-353.537	-57.403	0.472	-0.205
-352.523	-108.539	0.331	0.070
-351.508	102.226	0.067	-0.077
-350.493	30.764	-0.077	0.065
-349.479	-160.851	0.065	-0.003
-348.464	-61.737	-0.196	0.081
-347.450	657.593	-0.067	-0.169
-346.435	-40.238	-0.053	0.027
-345.420	203.775	-0.170	0.260
-344.406	-200.000	-0.028	-0.256
-343.391	-72.134	-0.327	-0.120
-342.377	114.362	0.075	0.090
-341.362	800.000	0.033	0.135
-340.348	-134.514	-0.268	0.032
-339.333	-200.000	-0.011	0.103
-338.318	95.660	0.083	0.094
-337.304	29.917	-0.132	0.111
-336.289	205.871	0.203	-0.311
-335.275	-188.855	-0.103	0.001
-334.260	-200.000	0.004	-0.114
-333.245	-64.877	-0.255	0.102
-332.231	-200.000	0.058	-0.304
-331.216	-132.614	0.201	0.025
-330.202	-111.330	0.378	-0.076
-329.187	3.305	-0.295	-0.212
-328.172	-65.558	0.248	0.098
-327.158	-200.000	-0.028	0.233
-326.143	185.976	0.125	0.184
-325.129	-75.846	0.204	0.071
-324.114	27.572	0.114	-0.095
-323.099	26.447	0.114	-0.094
-322.085	86.942	-0.061	0.066
-321.070	800.000	-0.042	0.140
-320.056	-35.483	0.284	0.152
-319.041	124.876	0.081	0.100
-318.026	306.888	-0.087	0.159
-317.012	800.000	0.079	-0.260
-315.997	-88.573	-0.104	-0.031
-314.983	-200.000	-0.048	0.393
-313.968	-66.617	0.138	0.054
-312.953	292.703	-0.025	0.045
-311.939	-51.574	-0.186	0.086
-310.924	15.827	-0.159	-0.123
-309.910	-136.551	0.276	0.032
-308.895	-40.618	-0.198	0.101
-307.880	248.469	-0.131	0.218
-306.866	-47.390	-0.136	0.065
-305.851	-200.000	0.004	0.473
-304.837	85.316	0.132	-0.143
-303.822	258.625	0.037	-0.062
-302.807	-54.127	0.074	-0.033
-301.793	-153.054	0.113	-0.008
-300.778	-200.000	0.026	-0.154
-299.764	-5.433	0.326	-0.220
-298.749	-12.359	-0.429	-0.277
-297.735	-107.683	0.311	-0.067
-296.720	-74.312	0.413	0.147
-295.705	-140.610	-0.093	0.010
-294.691	194.068	-0.140	-0.210
-293.676	-137.900	0.186	-0.020
-292.662	800.000	0.067	0.195
-291.647	-200.000	-0.072	0.378
-290.632	-63.637	-0.106	-0.043
-289.618	-112.369	-0.164	-0.032
-288.603	0.521	-0.089	-0.063
-287.589	-160.603	-0.313	-0.016
-286.574	-178.846	-0.058	-0.001
-285.559	196.282	-0.097	-0.145
-284.545	114.492	0.212	0.254
-283.530	-58.289	-0.090	-0.039
-282.516	-160.892	0.107	0.006
-281.501	-8.733	-0.258	0.170
-280.486	-71.006	0.363	0.135
-279.472	14.767	0.186	0.143
-278.457	70.462	0.030	-0.030
-277.443	-32.509	-0.232	-0.127
-276.428	-148.176	0.312	0.025
-275.413	48.908	0.036	-0.033
-274.399	-151.378	-0.455	-0.033
-273.384	147.646	0.092	-0.122
-272.370	-200.000	-0.019	-0.433
-271.355	-85.342	-0.144	-0.044
-270.340	139.546	-0.160	-0.208
-269.326	18.931	-0.216	0.171
-268.311	-61.156	0.137	-0.057
-267.297	-200.000	0.040	-0.301
-266.282	-148.434	-0.190	0.015
-265.267	-67.834	0.536	0.206
-264.253	223.859	-0.048	-0.077
-263.238	-106.549	-0.362	0.080
-262.224	159.208	0.166	0.228
-261.209	-200.000	0.056	0.315
-260.195	-72.231	0.206	-0.075
-259.180	363.397	-0.195	-0.387
-258.165	43.691	-0.114	0.103
-257.151	17.686	0.126	0.099
-256.136	-43.385	-0.119	0.059
-255.122	800.000	-0.078	0.236
-254.107	292.725	0.123	-0.220
-253.092	-121.855	0.177	-0.029
-252.078	800.000	0.044	-0.173
-251.063	-200.000	0.051	-0.434
-250.049	-200.000	0.013	0.100
-249.034	-200.000	0.007	-0.169
-248.019	-200.000	-0.011	-0.055
-247.005	-27.416	0.097	-0.056
-245.990	-200.000	-0.058	0.344
-244.976	-8.048	-0.330	-0.219
-243.961	185.450	0.014	-0.021
-242.946	-200.000	-0.013	-0.139
-241.932	-144.882	0.151	-0.014
-240.917	52.394	-0.125	0.117
-239.903	-67.290	-0.101	0.039
-238.888	-200.000	0.004	0.070
-237.873	800.000	0.026	0.086
-236.859	21.401	-0.204	0.163
-235.844	583.547	0.018	0.044
-234.830	226.968	0.021	-0.034
-233.815	16.728	-0.136	0.106
-232.800	284.648	0.119	-0.212
-231.786	152.230	0.161	0.216
-230.771	-98.490	0.129	-0.033
-229.757	797.655	-0.039	0.106
-228.742	356.178	0.094	0.184
-227.727	715.789	-0.100	0.261
-226.713	-199.528	-0.208	0.001
-225.698	506.194	0.088	0.200
-224.684	212.239	0.175	-0.271
-223.669	635.129	-0.089	-0.222
-222.655	-200.000	-0.034	-0.166
-221.640	-200.000	0.014	0.351
-220.625	142.833	0.188	-0.245
-219.611	800.000	0.081	-0.230
-218.596	94.172	-0.256	-0.286
-217.582	-200.000	-0.011	0.065
-216.567	-200.000	0.003	0.049
-215.552	-6.571	-0.175	-0.117
-214.538	-200.000	0.036	-0.255
-213.523	-190.345	0.142	0.002
-212.509	-200.000	-0.021	0.332
-211.494	257.657	0.081	-0.138
-210.479	-7.310	-0.146	-0.097
-209.465	-100.567	0.225	0.055
-208.450	-122.731	-0.064	-0.010
-207.436	800.000	0.089	-0.267
-206.421	514.157	-0.065	-0.150
-205.406	-200.000	-0.014	0.183
-204.392	0.237	0.084	0.059
-203.377	-159.392	-0.175	-0.010
-202.363	-87.091	0.167	-0.050
-201.348	-3.044	-0.090	-0.062
-200.333	-200.000	-0.016	-0.111
-199.319	98.842	0.134	-0.152
-198.304	476.243	-0.023	0.051
-197.290	-127.797	-0.092	0.013
-196.275	-45.477	-0.231	0.113
-195.260	213.301	-0.108	0.168
-194.246	-48.025	-0.124	0.059
-193.231	-114.714	-0.133	0.025
-192.217	-123.170	0.323	-0.051
-191.202	-51.054	-0.182	-0.084
-190.187	800.000	-0.112	-0.324
-189.173	388.366	-0.009	0.019
-188.158	-1.040	-0.117	-0.081
-187.144	276.984	0.167	0.291
-186.129	180.857	-0.061	0.088
-185.114	-200.000	-0.027	0.128
-184.100	242.376	0.113	-0.186
-183.085	-174.525	0.157	-0.004
-182.071	512.848	0.174	-0.397
-181.056	87.824	0.092	0.100
-180.042	-44.644	-0.127	-0.062
-179.027	-21.269	-0.451	-0.270
-178.012	140.194	-0.269	0.349
-176.998	61.824	-0.032	0.032
-175.983	143.393	-0.065	-0.085
-174.969	11.069	0.075	-0.056
-173.954	-200.000	-0.038	-0.223
-172.939	-32.728	-0.244	0.133
-171.925	-1.256	0.144	0.100
-170.910	-87.530	0.225	0.067
-169.896	800.000	-0.012	0.047
-168.881	-48.687	0.254	-0.120
-167.866	800.000	0.058	-0.190
-166.852	-84.405	-0.316	0.098
-165.837	-156.049	-0.402	-0.025
-164.823	-132.739	0.287	-0.036
-163.808	-147.304	0.224	-0.019
-162.793	-57.096	-0.342	0.148
-161.779	-198.565	0.111	0.001
-160.764	-200.000	0.036	-0.355
-159.750	79.554	0.169	-0.178
-158.735	-200.000	0.014	0.285
-157.720	-200.000	0.025	0.280
-156.706	3.837	0.025	0.018
-155.691	474.401	-0.040	-0.088
-154.677	-200.000	0.007	-0.114
-153.662	2.899	0.105	-0.075
-152.647	-49.751	-0.312	-0.145
-151.633	0.982	-0.114	0.080
-150.618	-200.000	-0.012	-0.359
-149.604	-181.428	-0.478	-0.009
-148.589	108.415	0.141	-0.165
-147.574	294.261	0.082	-0.147
-146.560	65.852	-0.137	-0.136
-145.545	-6.107	0.212	0.142
-144.531	-91.547	0.425	-0.119
-143.516	-200.000	-0.003	-0.117
-142.502	297.908	0.077	-0.139
-141.487	285.739	0.091	0.162
-140.472	-200.000	-0.007	-0.105
-139.458	-118.035	-0.104	-0.018
-138.443	-200.000	0.014	0.076
-137.429	488.917	-0.163	-0.366
-136.414	-78.253	0.136	-0.046
-135.399	130.203	-0.096	0.121
-134.385	-200.000	-0.062	-0.301
-133.370	27.926	-0.240	-0.198
-132.356	45.700	-0.108	-0.098
-131.341	55.275	-0.237	-0.224
-130.326	-29.612	-0.254	0.142
-129.312	107.917	-0.042	-0.049
-128.297	179.656	-0.055	0.079
-127.283	-97.109	0.349	0.089
-126.268	-107.031	-0.234	-0.051
-125.253	800.000	0.123	-0.459
-124.239	800.000	-0.095	0.260
-123.224	800.000	-0.018	-0.057
-122.210	-200.000	0.001	0.018
