DTS Sentinel unit serial number:	SN413079Multiplexer serial number:	ORYXHardware model number:	OX4-SRSoftware version number:	ORYX F/W v4.00 Oryx Data Collector v3.7.2.0data status	okinstallation	princeton_trtdifferential loss correction	single-endedforward channel	channel 1reverse channel	N/Adate	2019/09/19time	04:14:35forward acquisition time	60.00reverse acquisition time	0.00gamma	496.2192k internal	0.2342k external	0.2342temperature offset calibration	1.0023default loss term (dB/km)	0.3790temperature slope calibration	1.0000multiplexer offset coefficient	1.0000multiplexer slope coefficient	1.0000fibre end	0.00T internal ref (°C)	20.31T ext. ref 1 (°C)	0.64T ext. ref 2 (°C)	13.70length (m)	temperature (°C)	Stokes	anti-Stokes-747.200	428.852	0.109	0.235
-746.185	-200.000	0.041	0.184
-745.171	715.727	-0.111	0.295
-744.156	-85.797	-0.390	-0.121
-743.142	15.372	0.165	-0.130
-742.127	-33.500	-0.089	-0.049
-741.112	317.771	0.097	0.184
-740.098	59.809	-0.154	0.152
-739.083	-119.861	0.109	0.019
-738.069	-40.332	0.169	0.088
-737.054	284.734	0.133	0.239
-736.039	-200.000	-0.066	-0.316
-735.025	51.597	0.287	-0.273
-734.010	-32.902	0.029	0.016
-732.996	38.793	-0.272	-0.243
-731.981	113.220	-0.167	-0.203
-730.966	-21.815	0.110	-0.067
-729.952	-200.000	0.010	0.236
-728.937	-200.000	0.008	-0.055
-727.923	-200.000	0.016	-0.213
-726.908	-200.000	-0.382	0.002
-725.894	800.000	-0.054	-0.176
-724.879	-8.733	0.032	-0.021
-723.864	206.046	0.147	-0.229
-722.850	123.243	-0.255	-0.320
-721.835	38.585	0.117	0.105
-720.821	125.865	0.104	-0.131
-719.806	215.363	0.226	-0.359
-718.791	93.393	-0.260	0.294
-717.777	-200.000	0.012	0.251
-716.762	-168.729	0.316	-0.012
-715.748	109.105	-0.061	0.073
-714.733	-57.091	0.103	-0.045
-713.718	-150.485	0.075	-0.006
-712.704	-200.000	0.012	-0.089
-711.689	144.523	-0.179	0.240
-710.675	328.784	0.060	-0.114
-709.660	343.299	0.062	0.122
-708.645	736.300	-0.116	-0.312
-707.631	-200.000	-0.018	-0.143
-706.616	-200.000	-0.014	0.245
-705.602	-200.000	0.044	-0.380
-704.587	346.553	0.179	-0.351
-703.572	-47.452	0.338	-0.164
-702.558	489.771	0.033	0.075
-701.543	605.477	0.057	0.142
-700.529	163.829	0.152	-0.214
-699.514	-200.000	0.003	0.059
-698.499	800.000	-0.019	0.071
-697.485	-200.000	-0.005	-0.036
-696.470	-200.000	0.009	0.381
-695.456	62.600	-0.156	-0.155
-694.441	-157.540	0.299	-0.018
-693.426	-200.000	0.014	0.096
-692.412	-185.522	-0.423	0.006
-691.397	32.471	-0.152	0.131
-690.383	505.549	0.108	-0.250
-689.368	275.756	0.134	-0.237
-688.354	114.418	0.081	0.098
-687.339	-19.533	0.171	-0.106
-686.324	-119.529	-0.293	0.051
-685.310	-200.000	0.016	-0.179
-684.295	128.083	0.137	-0.174
-683.281	84.777	-0.057	-0.062
-682.266	278.113	0.059	0.105
-681.251	192.002	-0.025	-0.038
-680.237	-20.532	-0.257	0.158
-679.222	-81.972	-0.261	0.085
-678.208	37.665	-0.278	-0.247
-677.193	285.529	0.117	-0.211
-676.178	373.831	-0.017	-0.035
-675.164	56.826	0.328	0.319
-674.149	-97.158	-0.392	-0.102
-673.135	-200.000	0.023	-0.236
-672.120	-93.951	0.066	-0.018
-671.105	-55.990	-0.309	0.138
-670.091	-5.219	-0.171	0.118
-669.076	-95.395	-0.324	-0.087
-668.062	800.000	-0.130	0.380
-667.047	-200.000	0.004	0.103
-666.032	800.000	0.044	-0.179
-665.018	-0.723	-0.103	0.073
-664.003	-81.989	-0.119	0.039
-662.989	-200.000	0.005	-0.491
-661.974	-26.120	-0.071	0.041
-660.959	-200.000	-0.002	0.058
-659.945	800.000	0.053	-0.171
-658.930	-200.000	-0.005	0.047
-657.916	56.171	-0.064	-0.062
-656.901	83.193	-0.179	0.194
-655.886	-49.961	-0.316	0.150
-654.872	-44.125	0.145	-0.073
-653.857	4.536	0.280	0.205
-652.843	-200.000	0.003	-0.067
-651.828	26.359	-0.137	0.115
-650.814	192.715	-0.151	0.227
-649.799	-157.129	0.289	0.018
-648.784	106.722	-0.092	0.109
-647.770	-200.000	0.010	0.109
-646.755	194.481	-0.123	0.186
-645.741	30.430	0.140	0.119
-644.726	-200.000	-0.008	-0.108
-643.711	199.837	0.205	-0.313
-642.697	254.501	-0.143	-0.243
-641.682	39.942	0.109	-0.097
-640.668	-91.426	-0.150	-0.043
-639.653	-6.835	-0.178	-0.120
-638.638	-18.968	0.215	-0.133
-637.624	-191.040	0.105	0.001
-636.609	-47.726	-0.185	0.089
-635.595	12.111	-0.166	0.127
-634.580	-124.302	-0.182	0.028
-633.565	54.479	0.054	-0.052
-632.551	65.364	-0.154	-0.155
-631.536	-93.219	0.244	0.068
-630.522	-89.000	0.345	0.102
-629.507	-200.000	-0.001	-0.073
-628.492	-139.185	0.195	0.021
-627.478	31.681	-0.125	0.107
-626.463	93.070	-0.250	0.281
-625.449	-200.000	0.000	-0.170
-624.434	13.582	0.073	0.056
-623.419	-200.000	0.004	-0.249
-622.405	-7.307	0.124	0.084
-621.390	800.000	0.062	0.199
-620.376	-200.000	-0.016	-0.358
-619.361	64.247	0.297	-0.298
-618.346	-200.000	-0.023	0.270
-617.332	97.759	0.150	0.172
-616.317	50.128	-0.243	0.229
-615.303	-15.445	-0.169	-0.108
-614.288	741.185	0.109	0.293
-613.273	-149.207	-0.312	0.025
-612.259	59.739	0.116	-0.114
-611.244	-200.000	0.080	-0.493
-610.230	800.000	0.102	-0.326
-609.215	51.332	0.323	0.306
-608.201	-127.521	0.376	-0.054
-607.186	299.375	0.048	0.089
-606.171	245.079	-0.099	-0.165
-605.157	103.705	0.203	-0.237
-604.142	-200.000	0.007	0.262
-603.128	28.074	0.176	-0.148
-602.113	-183.824	0.079	-0.001
-601.098	-40.304	-0.271	0.140
-600.084	485.533	0.118	0.267
-599.069	179.812	-0.142	0.207
-598.055	-129.342	0.115	0.016
-597.040	-200.000	-0.038	0.244
-596.025	-35.552	0.119	0.064
-595.011	800.000	0.019	0.051
-593.996	-47.500	0.331	0.160
-592.982	42.232	0.084	-0.076
-591.967	680.323	-0.147	0.380
-590.952	-200.000	0.347	-0.001
-589.938	-102.182	0.123	-0.030
-588.923	-200.000	-0.016	-0.152
-587.909	478.168	0.039	-0.087
-586.894	566.130	0.075	-0.182
-585.879	-35.439	-0.129	-0.070
-584.865	800.000	0.064	0.228
-583.850	-131.899	-0.175	-0.023
-582.836	591.208	-0.050	-0.122
-581.821	37.443	0.149	0.132
-580.806	-200.000	-0.013	0.064
-579.792	34.934	0.066	0.057
-578.777	84.543	0.182	0.199
-577.763	800.000	0.035	-0.123
-576.748	-66.436	-0.368	0.146
-575.733	62.557	0.464	0.461
-574.719	-96.092	-0.221	-0.058
-573.704	-108.179	-0.236	-0.051
-572.690	575.912	0.156	0.379
-571.675	-96.711	0.403	-0.105
-570.661	-200.000	-0.062	-0.523
-569.646	800.000	0.026	0.102
-568.631	11.420	-0.339	0.258
-567.617	85.905	-0.148	0.162
-566.602	766.126	-0.163	-0.441
-565.588	-66.707	0.083	0.033
-564.573	-200.000	-0.025	-0.171
-563.558	-113.994	-0.086	0.017
-562.544	800.000	-0.047	-0.201
-561.529	8.800	-0.294	-0.220
-560.515	144.038	0.028	-0.037
-559.500	-76.428	-0.191	0.067
-558.485	13.572	0.130	-0.101
-557.471	-200.000	0.088	0.486
-556.456	-137.324	-0.088	-0.010
-555.442	100.644	0.142	0.164
-554.427	21.473	0.250	-0.202
-553.412	29.538	-0.072	-0.061
-552.398	-143.283	-0.433	0.041
-551.383	365.163	0.078	0.155
-550.369	800.000	-0.043	0.125
-549.354	-200.000	-0.140	0.001
-548.339	16.396	0.119	0.093
-547.325	-15.506	-0.186	0.118
-546.310	-200.000	-0.003	0.068
-545.296	-11.488	-0.261	-0.171
-544.281	-168.966	-0.278	-0.010
-543.266	59.588	0.259	0.254
-542.252	362.271	-0.089	0.177
-541.237	617.941	0.059	0.147
-540.223	-76.954	0.249	-0.086
-539.208	-33.263	-0.150	0.082
-538.193	-26.732	-0.020	-0.011
-537.179	-44.058	0.220	0.110
-536.164	-146.008	0.214	-0.019
-535.150	718.429	-0.045	0.119
-534.135	800.000	0.069	0.214
-533.121	-14.559	-0.359	-0.230
-532.106	-3.451	0.143	-0.099
-531.091	-49.619	0.190	0.090
-530.077	-200.000	-0.024	0.194
-529.062	-18.818	0.236	-0.146
-528.048	-97.124	0.172	-0.045
-527.033	249.853	-0.115	-0.194
-526.018	-55.958	0.190	0.084
-525.004	380.079	0.045	-0.092
-523.989	339.252	0.179	-0.346
-522.975	532.961	-0.081	0.191
-521.960	68.738	-0.104	0.106
-520.945	173.952	0.172	0.246
-519.931	-175.164	-0.117	-0.003
-518.916	-54.676	-0.159	-0.072
-517.902	-200.000	-0.034	0.162
-516.887	800.000	0.062	-0.206
-515.872	4.983	0.219	-0.160
-514.858	16.047	0.103	-0.080
-513.843	-200.000	-0.044	0.513
-512.829	-200.000	0.043	0.433
-511.814	84.974	-0.143	-0.156
-510.799	-59.147	-0.230	0.099
-509.785	800.000	0.056	0.170
-508.770	-173.264	-0.147	-0.004
-507.756	-200.000	-0.004	-0.278
-506.741	800.000	-0.030	0.101
-505.726	268.900	0.076	-0.132
-504.712	-4.445	0.090	0.062
-503.697	-200.000	0.274	-0.000
-502.683	-62.019	-0.323	-0.134
-501.668	252.018	-0.107	0.182
-500.653	453.435	-0.023	-0.050
-499.639	-200.000	0.015	0.105
-498.624	-42.332	-0.350	-0.177
-497.610	-200.000	-0.005	-0.158
-496.595	800.000	0.080	-0.265
-495.581	-101.847	0.080	0.019
-494.566	-200.000	-0.054	-0.391
-493.551	53.854	0.215	-0.205
-492.537	58.549	-0.123	-0.119
-491.522	-200.000	0.004	-0.339
-490.508	-128.778	-0.405	0.057
-489.493	177.140	0.048	-0.069
-488.478	-121.287	-0.283	-0.047
-487.464	7.710	0.272	0.202
-486.449	288.044	-0.071	-0.127
-485.435	63.288	0.179	-0.178
-484.420	1.668	-0.116	0.083
-483.405	-200.000	0.039	0.248
-482.391	152.452	0.082	-0.111
-481.376	800.000	-0.072	-0.239
-480.362	27.811	-0.196	-0.164
-479.347	-144.021	-0.258	-0.024
-478.332	323.064	0.105	0.198
-477.318	155.205	-0.105	-0.143
-476.303	-143.420	-0.251	0.024
-475.289	-135.623	-0.313	0.037
-474.274	-62.639	0.231	-0.095
-473.259	-123.277	-0.185	-0.029
-472.245	800.000	0.041	-0.150
-471.230	-8.427	0.289	-0.192
-470.216	-127.410	-0.078	-0.011
-469.201	274.443	0.125	0.220
-468.186	-69.500	0.088	0.033
-467.172	-200.000	0.022	-0.118
-466.157	493.665	-0.080	-0.181
-465.143	237.798	0.143	-0.236
-464.128	77.750	-0.151	0.159
-463.113	-107.148	-0.413	0.090
-462.099	14.205	0.129	0.099
-461.084	378.896	0.084	-0.171
-460.070	339.143	0.136	-0.262
-459.055	-16.598	0.201	-0.126
-458.040	800.000	0.040	0.155
-457.026	436.290	0.050	0.107
-456.011	476.481	-0.065	-0.145
-454.997	220.794	0.079	0.125
-453.982	-71.314	0.115	-0.043
-452.968	-10.162	-0.043	0.028
-451.953	102.068	-0.246	-0.285
-450.938	-69.124	-0.129	0.049
-449.924	127.677	0.135	-0.169
-448.909	35.849	-0.129	0.113
-447.895	800.000	0.029	0.091
-446.880	79.649	0.202	0.215
-445.865	800.000	-0.097	-0.283
-444.851	-68.025	0.415	-0.160
-443.836	265.594	-0.145	-0.250
-442.822	102.096	0.404	0.467
-441.807	800.000	0.125	0.354
-440.792	-8.012	0.153	-0.102
-439.778	-162.507	-0.085	0.004
-438.763	-200.000	0.055	0.318
-437.749	-135.668	0.207	-0.024
-436.734	328.224	0.137	-0.260
-435.719	-120.467	-0.020	0.003
-434.705	-56.910	0.104	0.045
-433.690	745.301	-0.066	-0.176
-432.676	-200.000	-0.061	-0.296
-431.661	40.166	0.188	-0.167
-430.646	-30.187	0.109	0.061
-429.632	402.845	0.160	-0.334
-428.617	279.725	-0.145	-0.256
-427.603	-200.000	-0.026	-0.387
-426.588	-44.617	-0.289	-0.143
-425.573	165.844	-0.084	0.118
-424.559	252.456	-0.116	-0.195
-423.544	-200.000	-0.029	0.275
-422.530	76.807	-0.166	0.174
-421.515	82.590	-0.072	-0.078
-420.500	542.634	0.047	-0.111
-419.486	331.448	-0.129	-0.246
-418.471	800.000	0.007	-0.027
-417.457	-157.079	0.165	0.010
-416.442	-200.000	0.001	-0.024
-415.428	-133.511	0.238	0.030
-414.413	-200.000	-0.013	-0.271
-413.398	113.448	0.156	0.188
-412.384	-50.948	-0.113	0.052
-411.369	146.064	-0.169	-0.224
-410.355	-119.627	0.225	-0.039
-409.340	-200.000	-0.007	-0.177
-408.325	-87.995	-0.170	-0.050
-407.311	22.276	0.059	-0.047
-406.296	-62.810	-0.130	0.053
-405.282	-24.773	0.195	0.114
-404.267	800.000	-0.045	0.152
-403.252	-200.000	-0.052	-0.303
-402.238	64.943	-0.115	0.114
-401.223	-114.873	-0.112	-0.021
-400.209	85.579	0.206	-0.223
-399.194	499.421	-0.095	-0.216
-398.179	419.376	-0.217	-0.459
-397.165	-147.084	0.374	-0.032
-396.150	-51.796	-0.335	-0.154
-395.136	-25.667	-0.168	0.098
-394.121	435.649	0.032	0.069
-393.106	76.969	-0.224	-0.235
-392.092	-200.000	0.056	-0.248
-391.077	-104.216	0.054	-0.012
-390.063	164.348	-0.084	0.117
-389.048	389.369	-0.026	0.053
-388.033	-95.592	-0.151	0.040
-387.019	514.125	0.235	0.542
-386.004	-3.513	-0.032	-0.022
-384.990	52.040	0.093	-0.087
-383.975	105.681	-0.184	0.214
-382.960	165.629	0.110	0.153
-381.946	-12.397	0.412	0.266
-380.931	71.681	-0.172	0.176
-379.917	-7.301	0.227	-0.152
-378.902	749.863	-0.081	0.215
-377.888	800.000	-0.059	0.168
-376.873	58.016	-0.129	0.125
-375.858	296.275	0.084	-0.153
-374.844	-113.908	0.018	0.003
-373.829	-200.000	-0.025	0.298
-372.815	209.494	-0.090	-0.140
-371.800	-85.522	-0.371	0.114
-370.785	734.551	0.039	-0.102
-369.771	-48.568	0.039	0.019
-368.756	-122.753	0.113	-0.018
-367.742	800.000	0.026	-0.095
-366.727	-200.000	-0.003	0.129
-365.712	85.720	0.232	0.251
-364.698	113.315	0.061	-0.073
-363.683	-200.000	0.014	0.230
-362.669	-71.316	0.335	-0.124
-361.654	313.818	-0.277	0.515
-360.639	-88.791	-0.099	-0.029
-359.625	-84.341	-0.313	-0.098
-358.610	-23.438	0.196	-0.116
-357.596	91.311	-0.162	-0.180
-356.581	34.582	-0.202	-0.174
-355.566	-74.205	-0.040	-0.014
-354.552	800.000	-0.062	-0.262
-353.537	-200.000	0.058	0.357
-352.523	144.321	-0.190	-0.251
-351.508	-26.121	0.404	0.234
-350.493	-123.411	-0.133	-0.021
-349.479	186.018	-0.138	-0.202
-348.464	-78.052	-0.237	-0.080
-347.450	173.550	0.058	0.083
-346.435	-200.000	-0.010	0.205
-345.420	-200.000	0.001	-0.259
-344.406	-200.000	-0.033	0.168
-343.391	-67.636	-0.210	-0.081
-342.377	199.358	-0.112	0.170
-341.362	-96.460	-0.125	0.033
-340.348	25.964	0.237	0.195
-339.333	25.740	0.321	-0.264
-338.318	-115.461	0.317	-0.059
-337.304	-12.804	0.109	-0.070
-336.289	800.000	0.068	-0.187
-335.275	119.943	-0.287	0.351
-334.260	-30.000	0.025	-0.014
-333.245	336.567	-0.090	-0.172
-332.231	-200.000	-0.027	-0.141
-331.216	-200.000	0.020	0.159
-330.202	-200.000	0.035	-0.178
-329.187	-64.504	-0.266	-0.107
-328.172	-100.719	0.304	-0.074
-327.158	-200.000	-0.005	-0.192
-326.143	-32.448	-0.105	0.058
-325.129	572.359	0.147	-0.354
-324.114	800.000	-0.021	-0.087
-323.099	19.664	-0.293	0.233
-322.085	-44.778	-0.216	-0.106
-321.070	-68.316	0.371	0.142
-320.056	221.510	-0.101	0.159
-319.041	6.790	-0.133	-0.098
-318.026	327.781	0.046	-0.087
-317.012	192.748	-0.049	0.074
-315.997	-155.094	-0.166	-0.011
-314.983	-177.617	-0.209	-0.005
-313.968	178.241	-0.116	0.166
-312.953	402.847	-0.098	-0.203
-311.939	-140.262	0.272	-0.028
-310.924	800.000	-0.022	-0.075
-309.910	15.405	-0.244	-0.189
-308.895	-200.000	0.029	-0.158
-307.880	689.271	-0.101	-0.260
-306.866	191.410	-0.158	-0.235
-305.851	-200.000	0.034	-0.154
-304.837	-200.000	-0.016	0.105
-303.822	167.541	0.146	0.205
-302.807	-200.000	0.009	0.419
-301.793	134.479	-0.107	-0.137
-300.778	83.606	-0.088	0.094
-299.764	800.000	-0.073	0.232
-298.749	195.507	0.048	-0.072
-297.735	272.351	0.164	0.286
-296.720	-200.000	0.003	-0.109
-295.705	-84.237	0.205	0.064
-294.691	-65.001	-0.159	-0.063
-293.676	26.945	0.275	-0.227
-292.662	218.947	-0.098	0.153
-291.647	-22.511	-0.083	-0.049
-290.632	-200.000	0.046	0.208
-289.618	-175.526	-0.105	-0.003
-288.603	262.441	0.143	-0.244
-287.589	96.094	0.149	0.168
-286.574	325.996	0.071	0.133
-285.559	505.131	0.031	0.070
-284.545	-200.000	-0.050	-0.282
-283.530	-142.262	0.475	-0.046
-282.516	28.921	-0.259	0.216
-281.501	-126.254	-0.244	-0.036
-280.486	-45.396	0.396	0.193
-279.472	-176.765	0.083	0.002
-278.457	-132.207	0.359	0.046
-277.443	-108.797	-0.273	-0.057
-276.428	145.806	0.212	0.279
-275.413	-39.221	0.144	0.074
-274.399	-101.728	-0.182	-0.043
-273.384	-0.205	0.244	-0.171
-272.370	-7.977	0.111	-0.073
-271.355	-147.953	0.209	-0.017
-270.340	-64.660	-0.008	0.003
-269.326	507.596	-0.053	0.121
-268.311	800.000	-0.023	-0.072
-267.297	-23.472	0.238	0.141
-266.282	-49.085	-0.043	0.020
-265.267	110.150	0.165	-0.194
-264.253	191.060	0.184	-0.272
-263.238	-18.393	0.120	0.074
-262.224	-140.570	-0.369	-0.038
-261.209	-138.992	0.191	-0.020
-260.195	261.933	-0.286	-0.487
-259.180	70.311	0.058	0.059
-258.165	-200.000	0.009	0.286
-257.151	-200.000	-0.016	-0.389
-256.136	-200.000	-0.025	0.328
-255.122	20.359	-0.143	0.114
-254.107	800.000	0.024	0.089
-253.092	-200.000	-0.043	-0.213
-252.078	-4.309	-0.107	-0.073
-251.063	-130.074	-0.174	-0.023
-250.049	515.103	0.095	0.217
-249.034	156.766	0.143	0.195
-248.019	-200.000	-0.013	0.084
-247.005	-91.505	-0.267	0.075
-245.990	-175.941	0.218	0.006
-244.976	162.515	0.243	-0.335
-243.961	-200.000	0.044	0.255
-242.946	-114.734	0.241	-0.045
-241.932	148.653	0.231	-0.307
-240.917	-181.493	0.441	-0.008
-239.903	-22.343	0.150	0.089
-238.888	-200.000	0.010	-0.169
-237.873	15.174	0.193	-0.148
-236.859	-11.047	-0.254	0.165
-235.844	29.770	-0.293	0.245
-234.830	87.206	0.174	0.189
-233.815	168.438	0.235	0.329
-232.800	-92.520	0.194	-0.054
-231.786	239.691	0.069	-0.113
-230.771	-200.000	-0.008	-0.155
-229.757	129.040	-0.213	0.267
-228.742	-200.000	-0.054	-0.397
-227.727	52.201	-0.302	0.282
-226.713	-200.000	0.026	-0.214
-225.698	-122.910	-0.217	-0.034
-224.684	-127.086	-0.290	0.042
-223.669	800.000	-0.099	0.307
-222.655	-200.000	-0.003	0.179
-221.640	-104.526	-0.198	-0.045
-220.625	-171.211	-0.445	0.015
-219.611	-154.915	0.398	0.026
-218.596	77.378	-0.038	0.039
-217.582	-64.126	0.179	0.072
-216.567	-144.136	0.115	-0.011
-215.552	-200.000	-0.009	0.063
-214.538	-128.095	0.115	0.016
-213.523	74.963	0.211	0.218
-212.509	-200.000	0.002	-0.265
-211.494	163.186	-0.095	-0.131
-210.479	800.000	0.032	0.088
-209.465	-60.945	0.090	-0.037
-208.450	-200.000	0.038	0.364
-207.436	23.437	-0.059	0.047
-206.421	14.914	-0.209	0.161
-205.406	800.000	-0.145	-0.499
-204.392	-40.556	-0.311	-0.158
-203.377	97.543	0.197	0.222
-202.363	351.527	0.076	0.148
-201.348	45.785	0.139	0.126
-200.333	50.150	-0.094	-0.087
-199.319	4.184	-0.321	0.230
-198.304	-120.431	0.088	0.015
-197.290	-113.815	-0.117	-0.022
-196.275	-120.942	0.318	-0.052
-195.260	126.890	-0.139	0.173
-194.246	142.643	-0.177	0.230
-193.231	800.000	-0.018	-0.066
-192.217	-162.993	-0.072	-0.003
-191.202	800.000	-0.046	0.184
-190.187	-200.000	-0.037	-0.201
-189.173	626.213	0.109	0.269
-188.158	-85.813	-0.364	0.111
-187.144	-146.040	-0.173	-0.015
-186.129	-200.000	-0.028	0.171
-185.114	-125.610	0.351	-0.052
-184.100	800.000	0.072	0.238
-183.085	-58.079	0.222	-0.095
-182.071	33.996	-0.186	-0.159
-181.056	-103.651	-0.170	0.039
-180.042	8.325	0.066	-0.049
-179.027	-143.578	-0.155	0.014
-178.012	-23.052	-0.154	-0.091
-176.998	800.000	0.098	-0.419
-175.983	800.000	0.109	0.309
-174.969	-22.087	-0.124	-0.074
-173.954	-200.000	-0.071	0.329
-172.939	59.628	-0.058	-0.056
-171.925	-147.281	-0.194	-0.016
-170.910	-116.070	0.283	-0.052
-169.896	-11.454	0.176	0.114
-168.881	752.649	-0.111	-0.294
-167.866	-15.585	-0.077	0.048
-166.852	169.396	-0.123	0.172
-165.837	126.633	0.204	0.253
-164.823	-97.582	-0.275	0.070
-163.808	800.000	-0.124	0.446
-162.793	600.458	0.118	0.288
-161.779	47.641	0.060	0.055
-160.764	339.093	-0.103	-0.196
-159.750	-26.405	0.213	-0.122
-158.735	800.000	-0.104	-0.286
-157.720	217.731	-0.154	-0.241
-156.706	-4.055	-0.233	0.158
-155.691	750.973	-0.068	0.179
-154.677	35.689	-0.368	-0.317
-153.662	177.024	-0.039	0.055
-152.647	-200.000	-0.008	0.131
-151.633	-99.538	-0.174	0.043
-150.618	13.704	-0.299	0.228
-149.604	407.904	-0.151	0.312
-148.589	-101.179	0.081	-0.019
-147.574	162.548	0.143	-0.197
-146.560	-0.278	-0.115	-0.080
-145.545	-200.000	-0.020	-0.354
-144.531	-139.611	-0.366	0.038
-143.516	-200.000	0.023	0.128
-142.502	12.718	-0.207	0.156
-141.487	-161.918	-0.288	-0.014
-140.472	800.000	0.089	-0.321
-139.458	256.121	0.213	-0.358
-138.443	303.047	-0.099	-0.180
-137.429	199.215	0.079	-0.118
-136.414	800.000	0.058	-0.217
-135.399	-27.431	0.207	-0.118
-134.385	-200.000	0.011	0.402
-133.370	235.039	0.122	0.197
-132.356	-200.000	-0.009	-0.164
-131.341	120.821	-0.322	0.391
-130.326	-65.637	-0.233	-0.092
-129.312	-200.000	0.034	-0.328
-128.297	116.445	-0.090	0.108
-127.283	-200.000	0.015	-0.069
-126.268	-200.000	-0.013	0.092
-125.253	-31.345	0.226	0.124
-124.239	-113.002	-0.063	0.012
-123.224	-172.273	-0.161	-0.005
-122.210	157.614	0.066	0.089
