DTS Sentinel unit serial number:	SN413079Multiplexer serial number:	ORYXHardware model number:	OX4-SRSoftware version number:	ORYX F/W v4.00 Oryx Data Collector v3.7.2.0data status	okinstallation	princeton_trtdifferential loss correction	single-endedforward channel	channel 1reverse channel	N/Adate	2019/09/18time	10:38:36forward acquisition time	60.00reverse acquisition time	0.00gamma	496.2192k internal	0.2328k external	0.2328temperature offset calibration	0.9974default loss term (dB/km)	0.3790temperature slope calibration	1.0000multiplexer offset coefficient	1.0000multiplexer slope coefficient	1.0000fibre end	0.00T internal ref (°C)	28.62T ext. ref 1 (°C)	0.36T ext. ref 2 (°C)	25.31length (m)	temperature (°C)	Stokes	anti-Stokes-747.200	-18.859	-0.146	0.092
-746.185	-200.000	-0.043	0.212
-745.171	-13.416	-0.208	0.136
-744.156	-200.000	-0.003	-0.049
-743.142	-28.229	-0.088	0.051
-742.127	800.000	-0.081	0.298
-741.112	120.936	-0.225	-0.282
-740.098	-35.744	-0.050	0.027
-739.083	800.000	0.056	0.176
-738.069	51.860	-0.153	-0.146
-737.054	-49.902	0.076	0.036
-736.039	-45.705	0.158	-0.079
-735.025	217.672	0.100	0.161
-734.010	-32.752	-0.370	-0.207
-732.996	-200.000	-0.077	-0.436
-731.981	-106.893	0.316	-0.070
-730.966	-41.907	-0.056	0.029
-729.952	465.385	0.046	-0.104
-728.937	-75.514	-0.261	0.094
-727.923	-200.000	0.003	-0.067
-726.908	33.343	-0.107	0.094
-725.894	27.626	-0.216	0.183
-724.879	-200.000	-0.010	-0.172
-723.864	-167.296	-0.162	0.007
-722.850	45.836	0.314	-0.292
-721.835	-40.481	-0.116	0.060
-720.821	598.725	0.078	0.196
-719.806	-81.944	0.086	-0.028
-718.791	-57.952	-0.327	-0.144
-717.777	-200.000	-0.050	-0.264
-716.762	11.085	0.294	-0.226
-715.748	22.048	-0.012	-0.010
-714.733	178.386	0.089	0.131
-713.718	-23.092	0.154	-0.093
-712.704	-117.239	-0.150	0.027
-711.689	-144.232	-0.150	0.014
-710.675	347.151	-0.058	0.115
-709.660	4.057	-0.207	0.152
-708.645	-64.135	-0.192	-0.079
-707.631	-89.137	0.245	-0.073
-706.616	149.458	-0.230	0.314
-705.602	800.000	0.039	0.144
-704.587	-88.737	-0.196	0.059
-703.572	-113.687	0.189	-0.037
-702.558	58.996	0.277	-0.275
-701.543	125.435	0.137	-0.174
-700.529	800.000	0.034	0.143
-699.514	-115.117	0.298	0.057
-698.499	714.189	0.016	0.042
-697.485	285.004	-0.247	0.448
-696.470	-94.444	0.166	0.046
-695.456	67.620	0.215	0.220
-694.441	80.891	-0.070	0.076
-693.426	-200.000	-0.001	0.023
-692.412	-47.334	-0.098	0.048
-691.397	-101.705	-0.192	-0.047
-690.383	800.000	0.042	-0.164
-689.368	-200.000	0.043	-0.347
-688.354	47.458	0.095	-0.089
-687.339	255.498	0.113	-0.194
-686.324	132.904	-0.109	0.141
-685.310	-200.000	0.017	-0.173
-684.295	-65.035	-0.391	-0.159
-683.281	242.014	0.248	-0.418
-682.266	-3.805	-0.293	0.205
-681.251	-22.049	0.409	0.250
-680.237	492.502	0.086	-0.198
-679.222	65.214	0.140	-0.142
-678.208	661.214	0.087	-0.225
-677.193	-200.000	-0.014	0.225
-676.178	261.789	0.083	0.145
-675.164	24.830	-0.301	0.251
-674.149	-115.428	0.140	0.026
-673.135	-200.000	-0.038	-0.192
-672.120	800.000	0.076	0.270
-671.105	800.000	-0.071	0.199
-670.091	-57.418	-0.252	-0.111
-669.076	-200.000	0.035	0.314
-668.062	-165.714	-0.226	0.010
-667.047	97.621	0.110	0.127
-666.032	800.000	-0.017	0.052
-665.018	-106.135	-0.182	0.041
-664.003	-62.755	0.252	0.105
-662.989	39.729	-0.077	-0.069
-661.974	800.000	0.018	-0.061
-660.959	800.000	0.047	0.142
-659.945	-127.020	0.031	0.005
-658.930	19.643	-0.115	0.093
-657.916	-105.950	0.412	-0.093
-656.901	-104.672	0.403	-0.093
-655.886	242.509	-0.109	-0.184
-654.872	100.681	0.098	0.114
-653.857	-27.491	-0.192	-0.112
-652.843	800.000	0.065	0.247
-651.828	168.013	0.143	0.204
-650.814	-96.679	0.223	0.059
-649.799	51.143	-0.285	0.272
-648.784	-88.004	-0.211	0.064
-647.770	-120.850	-0.324	0.055
-646.755	800.000	-0.088	-0.308
-645.741	451.700	0.115	-0.256
-644.726	250.792	0.014	-0.023
-643.711	-48.239	0.106	0.051
-642.697	-200.000	-0.013	-0.076
-641.682	115.604	-0.210	-0.258
-640.668	800.000	-0.039	0.164
-639.653	323.663	0.100	-0.191
-638.638	-190.271	0.131	-0.001
-637.624	-160.973	0.141	0.007
-636.609	408.061	-0.057	-0.122
-635.595	-20.193	0.096	0.060
-634.580	-181.966	-0.123	-0.002
-633.565	-6.528	0.235	0.160
-632.551	5.184	-0.025	0.019
-631.536	-124.736	0.311	-0.048
-630.522	-100.114	0.343	-0.086
-629.507	403.831	0.048	-0.101
-628.492	87.923	0.029	0.032
-627.478	417.119	0.068	0.147
-626.463	75.256	-0.144	0.153
-625.449	-149.642	-0.275	-0.022
-624.434	4.187	-0.328	-0.241
-623.419	-200.000	-0.042	-0.308
-622.405	184.090	0.174	0.258
-621.390	-200.000	0.011	-0.277
-620.376	800.000	-0.059	-0.165
-619.361	-32.599	-0.164	-0.092
-618.346	13.829	0.064	-0.050
-617.332	733.520	-0.072	-0.194
-616.317	-19.767	0.284	0.176
-615.303	125.431	0.118	0.150
-614.288	-27.580	-0.226	0.131
-613.273	37.543	-0.148	0.132
-612.259	631.295	0.087	-0.221
-611.244	-137.441	0.133	-0.015
-610.230	-46.118	0.189	-0.093
-609.215	-78.127	-0.367	-0.126
-608.201	-200.000	0.002	-0.319
-607.186	659.079	0.075	-0.193
-606.171	67.601	0.127	-0.130
-605.157	-200.000	0.025	-0.245
-604.142	62.042	-0.132	0.132
-603.128	-200.000	0.083	0.378
-602.113	-200.000	-0.035	0.163
-601.098	-200.000	0.016	0.393
-600.084	-49.986	-0.364	0.173
-599.069	124.619	-0.118	-0.149
-598.055	-200.000	0.016	-0.152
-597.040	-116.088	0.081	-0.015
-596.025	800.000	0.078	-0.214
-595.011	134.908	-0.150	-0.195
-593.996	-24.183	-0.023	-0.014
-592.982	487.417	0.133	0.304
-591.967	-69.291	-0.174	0.067
-590.952	380.309	0.058	-0.118
-589.938	631.358	0.123	-0.312
-588.923	236.306	0.101	-0.167
-587.909	-86.573	0.265	-0.081
-586.894	-200.000	-0.069	0.451
-585.879	-74.163	0.119	0.043
-584.865	-131.660	-0.329	0.043
-583.850	-43.233	-0.145	0.074
-582.836	-200.000	-0.033	-0.290
-581.821	260.172	-0.027	0.047
-580.806	-114.056	0.195	0.038
-579.792	-200.000	0.016	0.119
-578.777	-53.750	0.388	0.177
-577.763	-21.025	-0.243	-0.149
-576.748	-8.371	-0.370	-0.249
-575.733	-100.123	-0.409	0.102
-574.719	-87.201	0.223	0.068
-573.704	323.139	-0.127	0.243
-572.690	-91.598	0.323	0.092
-571.675	-9.797	-0.056	-0.037
-570.661	141.385	-0.123	-0.163
-569.646	479.933	0.152	0.346
-568.631	-200.000	0.036	-0.171
-567.617	-49.363	0.218	0.104
-566.602	-4.117	-0.047	0.033
-565.588	-200.000	-0.006	0.140
-564.573	-120.485	-0.129	0.022
-563.558	-104.480	-0.145	-0.034
-562.544	105.302	0.114	0.135
-561.529	511.205	-0.118	-0.274
-560.515	-200.000	0.003	-0.094
-559.500	-138.948	-0.092	0.010
-558.485	596.564	0.104	0.258
-557.471	49.814	-0.124	0.117
-556.456	498.276	-0.069	0.158
-555.442	-200.000	-0.049	0.321
-554.427	-200.000	-0.013	0.327
-553.412	290.624	-0.039	0.071
-552.398	800.000	-0.059	0.181
-551.383	377.272	-0.053	0.109
-550.369	800.000	-0.096	0.285
-549.354	63.431	-0.109	0.109
-548.339	75.369	-0.242	0.255
-547.325	38.309	-0.203	-0.180
-546.310	276.741	-0.058	-0.103
-545.296	579.997	0.031	-0.075
-544.281	6.425	0.115	0.086
-543.266	-112.697	0.238	0.047
-542.252	152.952	-0.039	-0.053
-541.237	-12.731	0.029	0.019
-540.223	291.031	-0.089	-0.161
-539.208	343.915	-0.029	-0.056
-538.193	308.312	-0.039	0.073
-537.179	-165.233	-0.300	0.013
-536.164	-111.433	0.464	0.095
-535.150	-90.107	-0.294	-0.086
-534.135	800.000	0.018	-0.079
-533.121	192.733	-0.170	-0.256
-532.106	-115.746	-0.217	-0.041
-531.091	-200.000	-0.022	-0.261
-530.077	-166.283	-0.099	0.004
-529.062	-157.393	0.073	-0.004
-528.048	-153.967	-0.220	-0.015
-527.033	-186.555	0.232	0.003
-526.018	-121.318	-0.146	0.024
-525.004	-42.825	-0.084	-0.043
-523.989	-200.000	-0.076	-0.342
-522.975	-104.858	0.124	0.028
-521.960	-200.000	0.006	0.124
-520.945	-200.000	-0.038	0.234
-519.931	-0.988	-0.070	0.050
-518.916	800.000	-0.053	0.170
-517.902	-46.019	0.211	0.104
-516.887	34.683	0.182	0.159
-515.872	391.502	0.153	-0.318
-514.858	71.233	0.376	-0.390
-513.843	-112.490	-0.203	0.041
-512.829	800.000	0.029	0.098
-511.814	-87.072	0.204	-0.062
-510.799	800.000	0.158	-0.495
-509.785	-190.634	-0.080	-0.001
-508.770	-3.785	-0.431	0.299
-507.756	-118.859	0.217	-0.038
-506.741	40.887	-0.179	0.162
-505.726	800.000	0.036	0.127
-504.712	-75.948	0.161	-0.057
-503.697	228.837	0.115	0.187
-502.683	5.762	0.160	0.118
-501.668	-136.147	-0.099	0.012
-500.653	-200.000	0.052	0.226
-499.639	-82.470	-0.207	0.067
-498.624	559.682	-0.067	-0.162
-497.610	62.593	0.233	0.233
-496.595	403.561	-0.140	-0.295
-495.581	-200.000	-0.005	-0.139
-494.566	60.666	0.069	0.068
-493.551	-86.299	0.273	0.084
-492.537	-56.473	0.263	-0.116
-491.522	471.469	0.162	-0.364
-490.508	-120.623	0.216	-0.036
-489.493	629.358	-0.107	-0.271
-488.478	800.000	-0.061	-0.170
-487.464	-200.000	-0.009	0.051
-486.449	800.000	-0.147	0.501
-485.435	-168.650	-0.213	0.008
-484.420	-106.144	0.429	-0.096
-483.405	800.000	0.118	-0.355
-482.391	-152.247	0.299	0.022
-481.376	-32.581	0.404	0.224
-480.362	92.138	-0.101	-0.113
-479.347	-33.257	0.386	-0.213
-478.332	-42.001	-0.370	-0.189
-477.318	-200.000	-0.012	-0.332
-476.303	-33.912	0.205	0.113
-475.289	-17.548	0.153	-0.096
-474.274	-15.095	0.272	-0.174
-473.259	350.176	-0.055	-0.108
-472.245	154.321	0.056	-0.077
-471.230	16.667	0.194	-0.153
-470.216	-61.145	0.127	-0.053
-469.201	212.844	-0.125	-0.196
-468.186	-184.599	0.413	-0.007
-467.172	74.622	0.114	0.119
-466.157	-133.011	0.089	-0.011
-465.143	-91.699	0.246	0.070
-464.128	800.000	-0.065	0.265
-463.113	-89.916	-0.222	0.065
-462.099	800.000	-0.045	-0.158
-461.084	237.972	0.173	-0.286
-460.070	-200.000	0.041	-0.321
-459.055	230.701	-0.068	-0.111
-458.040	-24.998	0.148	0.088
-457.026	48.310	0.047	-0.043
-456.011	274.518	0.106	0.186
-454.997	101.060	-0.189	-0.219
-453.982	13.960	-0.245	0.190
-452.968	65.033	0.255	0.256
-451.953	-58.065	-0.489	0.212
-450.938	186.198	-0.180	0.267
-449.924	113.011	-0.222	-0.268
-448.909	-117.750	0.183	0.033
-447.895	-200.000	-0.006	0.037
-446.880	89.855	-0.082	0.091
-445.865	-26.918	0.280	0.163
-444.851	603.529	-0.166	0.411
-443.836	-20.264	-0.052	-0.032
-442.822	-7.149	0.101	-0.068
-441.807	-137.071	0.301	-0.034
-440.792	-157.987	-0.405	0.024
-439.778	-40.471	-0.248	0.128
-438.763	-167.270	0.206	-0.008
-437.749	9.712	-0.306	-0.231
-436.734	-56.053	0.142	-0.063
-435.719	-76.583	-0.170	-0.059
-434.705	-91.503	-0.091	-0.026
-433.690	-22.953	0.138	-0.083
-432.676	17.100	0.191	0.151
-431.661	285.176	0.138	-0.248
-430.646	6.037	-0.038	-0.028
-429.632	-97.752	0.202	-0.052
-428.617	-26.911	-0.279	0.162
-427.603	172.551	-0.154	0.221
-426.588	-107.556	0.021	0.004
-425.573	94.725	0.317	-0.358
-424.559	485.663	-0.030	0.068
-423.544	-132.906	0.399	-0.051
-422.530	-89.346	-0.314	0.092
-421.515	150.894	0.070	-0.095
-420.500	-37.146	0.240	0.128
-419.486	565.644	0.038	-0.093
-418.471	800.000	-0.064	-0.235
-417.457	428.494	0.038	0.082
-416.442	127.146	-0.240	0.303
-415.428	330.304	-0.073	0.139
-414.413	-150.889	-0.204	0.015
-413.398	-123.009	0.029	-0.005
-412.384	254.526	-0.134	-0.228
-411.369	-200.000	0.003	-0.165
-410.355	-171.213	0.256	-0.009
-409.340	-22.375	-0.412	0.248
-408.325	-64.632	0.174	0.070
-407.311	-129.030	0.076	0.011
-406.296	-91.307	-0.171	-0.049
-405.282	357.510	-0.153	0.303
-404.267	145.561	-0.268	-0.357
-403.252	177.446	0.235	0.341
-402.238	686.540	0.140	0.363
-401.223	1.023	-0.244	-0.174
-400.209	-128.359	0.281	-0.040
-399.194	-180.247	-0.333	-0.007
-398.179	-50.812	0.150	0.070
-397.165	335.348	-0.018	-0.034
-396.150	38.233	-0.219	0.193
-395.136	-200.000	-0.007	0.031
-394.121	46.911	-0.174	0.161
-393.106	-200.000	0.024	-0.118
-392.092	-146.203	0.281	0.025
-391.077	590.876	0.091	0.223
-390.063	310.453	-0.194	-0.361
-389.048	-39.286	0.198	-0.103
-388.033	-150.505	0.452	-0.034
-387.019	-147.590	-0.473	-0.040
-386.004	-200.000	0.060	-0.333
-384.990	-200.000	-0.002	-0.451
-383.975	94.198	-0.096	0.109
-382.960	-200.000	0.005	0.222
-381.946	555.764	0.028	0.067
-380.931	-96.811	-0.095	-0.025
-379.917	-26.377	0.052	-0.030
-378.902	135.812	-0.126	-0.163
-377.888	-97.104	-0.290	0.075
-376.873	392.919	-0.202	0.417
-375.858	-60.945	0.036	0.015
-374.844	-134.354	-0.046	-0.006
-373.829	-94.972	0.123	0.033
-372.815	-200.000	0.045	0.385
-371.800	220.225	-0.216	0.344
-370.785	800.000	-0.081	0.259
-369.771	103.710	0.151	0.176
-368.756	-6.608	-0.124	0.084
-367.742	229.187	-0.161	-0.260
-366.727	-13.897	0.225	0.144
-365.712	-147.889	0.266	0.022
-364.698	724.079	-0.125	-0.332
-363.683	800.000	-0.041	-0.144
-362.669	46.730	0.279	0.257
-361.654	1.474	-0.300	-0.215
-360.639	-200.000	-0.024	0.190
-359.625	-78.893	0.147	-0.050
-358.610	-96.142	0.143	0.038
-357.596	-25.504	0.179	0.105
-356.581	-22.598	-0.103	0.062
-355.566	800.000	0.069	0.291
-354.552	66.140	-0.079	-0.080
-353.537	-200.000	0.070	-0.502
-352.523	800.000	0.042	0.168
-351.508	-200.000	-0.033	0.154
-350.493	322.657	-0.038	-0.071
-349.479	-115.101	0.041	-0.008
-348.464	800.000	0.049	-0.156
-347.450	-42.447	0.143	-0.072
-346.435	-120.453	0.191	-0.032
-345.420	-90.724	-0.370	-0.106
-344.406	420.571	-0.164	0.349
-343.391	88.091	-0.187	0.206
-342.377	110.168	0.065	-0.077
-341.362	212.652	0.152	0.238
-340.348	-165.898	-0.182	0.008
-339.333	-118.542	-0.258	0.045
-338.318	117.122	-0.060	-0.074
-337.304	117.863	-0.112	0.137
-336.289	-108.259	0.203	-0.044
-335.275	800.000	-0.069	-0.204
-334.260	-12.812	0.404	0.261
-333.245	568.880	0.046	-0.112
-332.231	-200.000	0.055	-0.308
-331.216	538.906	-0.107	-0.253
-330.202	-144.348	-0.140	-0.013
-329.187	-32.792	0.182	-0.100
-328.172	-200.000	0.049	-0.248
-327.158	-91.938	-0.299	-0.084
-326.143	118.172	0.148	-0.181
-325.129	63.946	-0.116	-0.116
-324.114	112.423	0.121	-0.145
-323.099	-180.208	-0.105	-0.002
-322.085	-88.055	0.228	-0.068
-321.070	800.000	-0.022	0.072
-320.056	-24.037	-0.181	0.107
-319.041	-200.000	0.035	-0.236
-318.026	800.000	0.020	0.058
-317.012	-166.070	-0.339	0.014
-315.997	-61.027	0.055	-0.023
-314.983	-105.262	0.139	-0.031
-313.968	279.692	0.043	0.076
-312.953	800.000	0.088	-0.352
-311.939	-87.503	-0.240	-0.072
-310.924	-67.988	-0.152	-0.059
-309.910	-33.387	-0.234	-0.128
-308.895	-70.213	0.006	-0.002
-307.880	297.902	-0.092	0.168
-306.866	-200.000	-0.002	-0.040
-305.851	800.000	-0.079	-0.225
-304.837	245.585	-0.078	0.130
-303.822	-200.000	0.009	-0.071
-302.807	87.324	0.169	-0.185
-301.793	108.112	-0.124	-0.146
-300.778	-200.000	-0.045	-0.293
-299.764	-115.192	-0.552	-0.104
-298.749	49.972	0.209	-0.195
-297.735	44.786	0.139	0.127
-296.720	-9.085	0.138	0.092
-295.705	-200.000	0.023	0.226
-294.691	-64.340	0.132	0.053
-293.676	-127.024	-0.303	-0.044
-292.662	-103.038	-0.168	-0.039
-291.647	723.457	0.050	-0.133
-290.632	-120.888	0.275	0.046
-289.618	3.425	0.135	-0.097
-288.603	55.026	-0.146	0.140
-287.589	504.239	-0.022	-0.051
-286.574	50.781	-0.236	-0.222
-285.559	187.346	-0.079	0.116
-284.545	-67.522	-0.088	-0.034
-283.530	-7.555	0.228	-0.153
-282.516	-97.477	-0.166	0.043
-281.501	30.266	-0.325	0.275
-280.486	233.489	-0.050	0.081
-279.472	-29.806	-0.068	-0.038
-278.457	-25.225	-0.095	-0.056
-277.443	-200.000	-0.002	0.084
-276.428	-200.000	0.024	0.121
-275.413	-200.000	-0.019	-0.082
-274.399	-193.580	0.153	-0.001
-273.384	687.944	-0.059	-0.154
-272.370	29.725	0.192	0.162
-271.355	-172.479	0.307	-0.010
-270.340	81.055	0.098	-0.105
-269.326	337.258	-0.175	-0.336
-268.311	113.692	-0.093	0.112
-267.297	274.310	0.095	0.166
-266.282	5.416	0.032	-0.024
-265.267	800.000	0.021	-0.065
-264.253	100.820	-0.188	0.216
-263.238	351.432	0.147	0.288
-262.224	346.020	-0.197	-0.383
-261.209	8.156	0.100	0.075
-260.195	-99.792	0.228	-0.057
-259.180	429.488	-0.149	0.318
-258.165	-68.346	0.289	-0.111
-257.151	154.947	0.167	0.227
-256.136	-147.199	0.133	0.011
-255.122	-94.893	-0.067	0.018
-254.107	-9.767	-0.281	0.185
-253.092	39.503	0.147	-0.130
-252.078	681.933	0.031	0.081
-251.063	26.614	0.276	-0.228
-250.049	800.000	-0.100	0.330
-249.034	-200.000	-0.004	-0.168
-248.019	-200.000	-0.059	0.397
-247.005	-93.445	-0.208	-0.057
-245.990	800.000	0.140	0.529
-244.976	492.649	-0.125	-0.284
-243.961	351.447	0.087	0.171
-242.946	-192.759	0.193	-0.002
-241.932	70.363	0.072	0.074
-240.917	-19.388	0.175	-0.107
-239.903	-195.718	-0.057	-0.000
-238.888	529.711	-0.073	0.170
-237.873	-200.000	-0.002	-0.323
-236.859	49.059	-0.249	0.231
-235.844	-41.095	0.245	-0.125
-234.830	12.886	0.266	0.203
-233.815	-200.000	-0.006	0.336
-232.800	-0.093	0.185	0.130
-231.786	268.231	-0.065	-0.112
-230.771	249.719	-0.103	-0.172
-229.757	71.262	-0.223	0.228
-228.742	343.097	0.135	0.261
-227.727	-200.000	0.030	0.178
-226.713	309.527	-0.234	-0.433
-225.698	-78.468	-0.245	0.083
-224.684	-17.148	-0.247	0.154
-223.669	58.753	0.103	0.100
-222.655	-138.373	-0.411	-0.045
-221.640	-200.000	0.052	0.267
-220.625	241.576	0.211	0.347
-219.611	118.852	-0.028	0.035
-218.596	113.407	0.157	-0.189
-217.582	-53.706	-0.296	0.133
-216.567	-112.262	0.582	-0.115
-215.552	-18.595	-0.217	-0.134
-214.538	-200.000	-0.006	0.060
-213.523	405.791	0.083	-0.172
-212.509	-200.000	0.047	-0.359
-211.494	647.217	-0.035	-0.088
-210.479	260.796	0.168	0.287
-209.465	345.243	-0.179	0.347
-208.450	-140.614	0.263	0.027
-207.436	240.248	0.073	-0.120
-206.421	-83.092	0.206	-0.065
-205.406	-200.000	0.026	-0.209
-204.392	474.579	-0.196	0.437
-203.377	64.331	0.122	-0.122
-202.363	800.000	0.040	-0.128
-201.348	800.000	0.025	-0.084
-200.333	19.816	0.181	0.144
-199.319	-200.000	0.030	-0.143
-198.304	238.327	-0.115	-0.188
-197.290	-131.259	-0.072	0.009
-196.275	-200.000	-0.020	0.094
-195.260	171.010	0.100	0.142
-194.246	-200.000	0.065	-0.417
-193.231	-200.000	0.025	-0.202
-192.217	789.343	-0.167	0.452
-191.202	4.112	0.216	0.156
-190.187	-30.947	0.074	0.041
-189.173	-36.432	0.173	-0.092
-188.158	-12.780	0.170	0.109
-187.144	369.280	-0.132	-0.264
-186.129	-111.276	-0.141	-0.028
-185.114	-134.055	0.390	-0.048
-184.100	-200.000	-0.006	-0.050
-183.085	36.701	0.334	0.291
-182.071	-18.854	-0.064	0.040
-181.056	-200.000	0.020	-0.280
-180.042	416.440	-0.088	-0.185
-179.027	-12.064	0.222	0.143
-178.012	800.000	-0.036	0.124
-176.998	196.954	-0.162	-0.244
-175.983	800.000	0.108	0.388
-174.969	17.059	-0.193	0.151
-173.954	113.761	0.039	-0.047
-172.939	800.000	0.011	0.043
-171.925	-63.056	-0.181	0.074
-170.910	27.780	-0.186	0.155
-169.896	12.836	0.249	-0.190
-168.881	-48.450	0.141	0.067
-167.866	238.189	-0.099	-0.163
-166.852	-66.510	-0.081	0.032
-165.837	-27.926	0.168	0.096
-164.823	800.000	0.056	-0.157
-163.808	549.141	0.017	-0.039
-162.793	-53.090	0.034	0.015
-161.779	170.263	0.209	0.295
-160.764	267.863	-0.233	-0.402
-159.750	-12.277	0.062	-0.040
-158.735	642.868	0.043	0.107
-157.720	186.072	0.079	0.116
-156.706	-200.000	0.008	0.179
-155.691	59.350	0.108	-0.105
-154.677	-140.004	-0.293	-0.030
-153.662	365.035	-0.182	-0.361
-152.647	800.000	0.070	0.269
-151.633	-76.429	-0.451	-0.156
-150.618	-122.032	0.356	-0.058
-149.604	-72.644	0.433	0.157
-148.589	-200.000	0.009	0.318
-147.574	-94.568	-0.165	0.044
-146.560	136.404	0.309	-0.397
-145.545	-200.000	-0.043	-0.299
-144.531	-123.294	0.292	-0.046
-143.516	-200.000	-0.044	0.411
-142.502	34.959	0.250	0.215
-141.487	-200.000	0.036	-0.560
-140.472	379.348	-0.059	-0.118
-139.458	-78.716	-0.101	-0.034
-138.443	-127.515	-0.038	-0.005
-137.429	-44.046	0.304	-0.150
-136.414	-200.000	0.013	0.073
-135.399	-110.596	-0.397	0.081
-134.385	800.000	0.095	0.339
-133.370	-200.000	-0.069	0.441
-132.356	307.548	0.117	-0.214
-131.341	222.842	0.283	0.448
-130.326	181.821	-0.107	-0.155
-129.312	535.297	-0.080	0.188
-128.297	327.637	0.085	0.161
-127.283	8.636	0.271	0.201
-126.268	800.000	-0.036	0.123
-125.253	-200.000	0.046	0.225
-124.239	74.873	-0.317	-0.328
-123.224	-15.913	0.436	0.273
-122.210	-200.000	0.026	-0.145
-121.195	615.190	0.176	0.434
