DTS Sentinel unit serial number:	SN413079Multiplexer serial number:	ORYXHardware model number:	OX4-SRSoftware version number:	ORYX F/W v4.00 Oryx Data Collector v3.7.2.0data status	okinstallation	princeton_trtdifferential loss correction	single-endedforward channel	channel 1reverse channel	N/Adate	2019/09/14time	20:42:35forward acquisition time	60.00reverse acquisition time	0.00gamma	496.2192k internal	0.2316k external	0.2316temperature offset calibration	1.0018default loss term (dB/km)	0.3790temperature slope calibration	1.0000multiplexer offset coefficient	1.0000multiplexer slope coefficient	1.0000fibre end	0.00T internal ref (°C)	33.37T ext. ref 1 (°C)	4.78T ext. ref 2 (°C)	28.01length (m)	temperature (°C)	Stokes	anti-Stokes-747.200	-135.291	-0.448	0.054
-746.185	800.000	0.039	0.128
-745.171	43.083	-0.077	-0.071
-744.156	-200.000	-0.024	0.144
-743.142	-90.171	-0.167	-0.049
-742.127	-122.827	-0.289	-0.047
-741.112	-200.000	0.005	0.096
-740.098	-200.000	-0.008	0.068
-739.083	-107.465	0.164	0.036
-738.069	800.000	0.120	0.342
-737.054	-28.217	0.414	0.242
-736.039	157.099	-0.086	0.121
-735.025	-57.860	-0.094	-0.042
-734.010	593.511	-0.091	0.227
-732.996	-192.339	-0.181	0.002
-731.981	800.000	-0.023	-0.069
-730.966	28.462	0.057	-0.049
-729.952	800.000	-0.062	-0.210
-728.937	305.670	-0.118	-0.222
-727.923	167.393	-0.194	-0.278
-726.908	-200.000	0.109	-0.586
-725.894	-44.037	0.280	-0.142
-724.879	-93.890	-0.417	0.116
-723.864	-47.021	-0.239	-0.118
-722.850	-200.000	-0.044	-0.210
-721.835	-200.000	0.006	-0.123
-720.821	5.204	-0.074	-0.055
-719.806	-190.945	-0.231	0.002
-718.791	174.050	-0.175	0.256
-717.777	800.000	-0.110	0.423
-716.762	264.527	-0.138	0.243
-715.748	-200.000	0.048	0.282
-714.733	751.606	0.157	-0.429
-713.718	800.000	0.065	0.186
-712.704	-71.302	-0.116	-0.044
-711.689	-105.623	-0.223	-0.051
-710.675	465.934	0.067	0.152
-709.660	-200.000	-0.007	0.078
-708.645	207.958	-0.083	-0.132
-707.631	-146.539	0.266	-0.023
-706.616	276.479	-0.063	0.113
-705.602	19.376	0.318	0.258
-704.587	800.000	0.065	0.192
-703.572	-80.830	-0.114	0.038
-702.558	158.407	0.123	0.173
-701.543	122.944	0.107	0.135
-700.529	-158.438	0.189	0.011
-699.514	-200.000	0.003	-0.014
-698.499	-200.000	0.029	-0.189
-697.485	-146.608	0.197	0.017
-696.470	52.479	0.080	0.077
-695.456	64.443	0.076	-0.077
-694.441	-55.450	-0.469	-0.213
-693.426	-110.441	0.147	-0.031
-692.412	-51.107	-0.205	-0.097
-691.397	369.385	-0.063	0.129
-690.383	232.421	0.178	-0.295
-689.368	-81.212	0.256	0.085
-688.354	404.164	0.051	-0.109
-687.339	800.000	-0.111	-0.322
-686.324	-200.000	0.009	-0.130
-685.310	-200.000	0.036	-0.190
-684.295	146.597	-0.128	-0.173
-683.281	800.000	-0.112	-0.312
-682.266	-70.428	-0.531	0.203
-681.251	-88.806	-0.130	0.039
-680.237	150.226	0.025	0.035
-679.222	-184.602	0.186	0.003
-678.208	800.000	-0.110	-0.388
-677.193	-15.938	-0.239	-0.154
-676.178	-44.413	-0.404	-0.204
-675.164	-141.593	0.251	-0.026
-674.149	-30.676	0.175	0.100
-673.135	-200.000	-0.068	0.000
-672.120	183.052	0.143	-0.213
-671.105	374.148	0.046	-0.095
-670.091	18.144	0.027	-0.022
-669.076	-200.000	-0.022	-0.303
-668.062	40.145	-0.156	0.142
-667.047	-75.720	0.388	-0.139
-666.032	22.231	0.472	-0.390
-665.018	-200.000	0.039	0.204
-664.003	-53.006	-0.147	0.068
-662.989	-200.000	0.049	-0.247
-661.974	150.309	0.261	-0.358
-660.959	181.456	-0.298	0.442
-659.945	-179.918	-0.176	0.004
-658.930	68.335	-0.114	0.118
-657.916	166.038	-0.031	0.044
-656.901	56.619	-0.155	0.152
-655.886	800.000	0.028	0.088
-654.872	-159.257	-0.242	-0.014
-653.857	-40.237	0.098	-0.051
-652.843	85.781	0.182	-0.202
-651.828	52.621	-0.141	-0.136
-650.814	727.321	-0.037	0.099
-649.799	-26.244	-0.105	-0.062
-648.784	-88.736	0.202	0.061
-647.770	88.603	-0.058	-0.065
-646.755	-200.000	-0.053	0.265
-645.741	-200.000	0.001	-0.058
-644.726	-111.673	-0.158	-0.032
-643.711	800.000	0.061	-0.240
-642.697	-57.166	0.100	0.044
-641.682	800.000	0.060	0.178
-640.668	-10.848	-0.234	-0.156
-639.653	-200.000	0.029	-0.199
-638.638	-200.000	-0.006	-0.144
-637.624	-121.243	-0.203	-0.034
-636.609	420.247	0.058	-0.125
-635.595	-165.733	-0.050	0.002
-634.580	17.019	-0.093	0.075
-633.565	-132.055	-0.196	0.026
-632.551	536.528	0.170	-0.406
-631.536	255.139	0.047	-0.080
-630.522	-144.678	0.327	0.030
-629.507	-109.566	-0.113	0.024
-628.492	473.729	0.083	0.189
-627.478	-107.619	-0.048	-0.011
-626.463	-200.000	0.033	-0.275
-625.449	-200.000	0.023	-0.230
-624.434	-50.240	0.093	-0.044
-623.419	-200.000	-0.015	0.087
-622.405	-200.000	0.050	0.333
-621.390	-200.000	-0.041	0.275
-620.376	800.000	-0.048	-0.173
-619.361	800.000	-0.086	-0.269
-618.346	90.332	0.147	-0.166
-617.332	-133.909	0.194	-0.024
-616.317	-200.000	-0.069	-0.311
-615.303	-68.587	0.325	-0.127
-614.288	657.627	-0.122	-0.317
-613.273	32.476	-0.201	0.175
-612.259	85.620	-0.053	-0.059
-611.244	-118.473	-0.147	0.026
-610.230	-43.356	0.360	0.184
-609.215	426.867	-0.072	0.156
-608.201	-68.456	-0.128	-0.050
-607.186	-15.201	-0.161	-0.104
-606.171	417.820	0.168	-0.361
-605.157	800.000	-0.014	-0.040
-604.142	-200.000	-0.062	-0.279
-603.128	7.893	0.219	-0.166
-602.113	-73.765	0.192	0.070
-601.098	687.770	0.091	0.239
-600.084	-44.260	0.091	-0.046
-599.069	87.508	0.071	-0.079
-598.055	4.274	0.048	-0.036
-597.040	435.738	-0.068	-0.148
-596.025	196.697	0.154	0.236
-595.011	-200.000	0.016	-0.110
-593.996	800.000	-0.033	-0.119
-592.982	800.000	0.080	-0.321
-591.967	-86.603	-0.181	0.056
-590.952	-34.830	-0.156	-0.086
-589.938	800.000	-0.035	-0.108
-588.923	-75.174	-0.098	0.035
-587.909	-175.117	-0.082	0.002
-586.894	142.705	0.134	-0.179
-585.879	-98.794	-0.138	0.035
-584.865	-31.690	-0.273	0.154
-583.850	290.483	-0.125	-0.229
-582.836	-70.628	0.115	0.044
-581.821	-14.894	-0.156	0.101
-580.806	-200.000	-0.046	0.322
-579.792	551.415	0.085	-0.206
-578.777	800.000	0.051	-0.196
-577.763	800.000	-0.046	-0.189
-576.748	103.654	0.205	0.243
-575.733	48.582	0.095	0.090
-574.719	194.973	-0.120	0.184
-573.704	-149.961	0.167	0.013
-572.690	402.371	0.050	0.106
-571.675	-178.308	0.016	-0.000
-570.661	800.000	-0.077	-0.274
-569.646	-200.000	-0.009	0.135
-568.631	-200.000	0.274	0.001
-567.617	-114.406	-0.334	-0.065
-566.602	89.433	0.137	0.154
-565.588	11.210	-0.100	-0.077
-564.573	91.355	-0.149	0.168
-563.558	-200.000	-0.025	0.300
-562.544	-157.083	-0.261	0.016
-561.529	-48.425	-0.047	-0.023
-560.515	-101.952	-0.223	-0.054
-559.500	-46.998	-0.166	0.082
-558.485	-80.270	-0.106	-0.036
-557.471	-92.575	-0.360	-0.102
-556.456	314.067	0.261	0.494
-555.442	-200.000	-0.018	0.136
-554.427	-59.139	-0.313	0.136
-553.412	162.222	0.060	-0.084
-552.398	-200.000	0.041	-0.261
-551.383	-200.000	0.067	-0.595
-550.369	390.081	-0.083	0.174
-549.354	-200.000	-0.016	0.226
-548.339	163.798	0.025	0.036
-547.325	-75.321	0.229	0.082
-546.310	800.000	-0.056	-0.159
-545.296	44.892	0.150	-0.139
-544.281	800.000	-0.035	0.125
-543.266	176.607	0.190	0.278
-542.252	-103.630	0.138	0.032
-541.237	424.330	0.147	-0.318
-540.223	76.339	0.090	-0.095
-539.208	800.000	-0.067	-0.269
-538.193	2.751	-0.067	0.049
-537.179	93.750	0.168	0.191
-536.164	-131.895	-0.208	0.027
-535.150	438.108	0.105	-0.231
-534.135	-97.279	-0.117	-0.031
-533.121	-125.072	0.319	-0.049
-532.106	-200.000	0.065	-0.305
-531.091	-132.919	0.237	0.030
-530.077	706.026	-0.025	0.067
-529.062	312.659	-0.024	0.046
-528.048	91.213	-0.108	0.122
-527.033	-200.000	0.023	0.216
-526.018	63.830	0.225	-0.227
-525.004	-143.148	-0.206	-0.020
-523.989	74.901	-0.163	0.172
-522.975	104.237	-0.148	0.174
-521.960	-200.000	-0.018	-0.141
-520.945	6.644	-0.081	0.060
-519.931	-26.284	-0.006	-0.003
-518.916	272.993	0.224	0.398
-517.902	36.369	-0.082	-0.072
-516.887	-71.503	0.225	-0.084
-515.872	800.000	-0.064	0.205
-514.858	311.577	-0.097	-0.182
-513.843	-200.000	-0.017	-0.140
-512.829	80.303	-0.186	0.201
-511.814	-44.616	0.162	-0.081
-510.799	305.683	-0.106	0.197
-509.785	800.000	-0.020	0.060
-508.770	-0.232	-0.268	-0.191
-507.756	342.809	-0.071	-0.140
-506.741	800.000	0.086	-0.342
-505.726	-61.957	0.074	0.031
-504.712	108.226	0.187	-0.224
-503.697	310.487	0.065	0.122
-502.683	-200.000	0.074	0.382
-501.668	-200.000	0.008	0.095
-500.653	-200.000	0.026	0.496
-499.639	800.000	-0.014	0.052
-498.624	-142.924	-0.126	-0.012
-497.610	558.653	0.044	-0.107
-496.595	-150.101	0.279	0.022
-495.581	800.000	0.029	-0.080
-494.566	250.762	0.038	-0.066
-493.551	225.977	0.242	0.394
-492.537	-51.088	-0.263	-0.124
-491.522	-32.420	0.104	0.058
-490.508	44.475	0.026	0.024
-489.493	4.983	-0.205	-0.151
-488.478	112.876	0.098	-0.119
-487.464	-121.460	0.136	-0.023
-486.449	409.682	0.112	-0.237
-485.435	443.511	0.123	-0.271
-484.420	-200.000	-0.023	-0.215
-483.405	800.000	-0.038	-0.116
-482.391	-200.000	-0.043	0.194
-481.376	-200.000	0.030	0.191
-480.362	-142.730	-0.376	-0.037
-479.347	-154.979	-0.287	0.019
-478.332	454.822	-0.165	-0.367
-477.318	242.794	0.123	0.206
-476.303	-200.000	-0.026	0.172
-475.289	-200.000	0.049	0.238
-474.274	181.733	-0.069	0.102
-473.259	-200.000	0.010	0.060
-472.245	83.565	-0.073	-0.080
-471.230	28.444	-0.300	-0.255
-470.216	372.583	0.068	-0.138
-469.201	-128.047	0.296	0.043
-468.186	-120.772	-0.209	0.035
-467.172	-200.000	-0.040	0.304
-466.157	-200.000	0.030	-0.234
-465.143	-58.385	0.110	-0.048
-464.128	-70.041	0.116	-0.044
-463.113	297.445	0.263	0.484
-462.099	-77.467	-0.189	-0.066
-461.084	-87.992	0.100	0.030
-460.070	521.439	0.102	0.239
-459.055	-123.353	0.165	-0.026
-458.040	-117.449	-0.377	-0.068
-457.026	-119.229	-0.289	0.050
-456.011	-141.625	0.155	-0.016
-454.997	152.350	0.025	-0.035
-453.982	-200.000	-0.001	-0.029
-452.968	292.814	0.121	-0.222
-451.953	-125.560	-0.137	-0.021
-450.938	-200.000	-0.007	0.273
-449.924	-184.144	0.058	-0.001
-448.909	-146.504	0.062	0.005
-447.895	800.000	0.049	0.136
-446.880	-86.310	-0.294	0.090
-445.865	-200.000	0.070	0.322
-444.851	-117.033	-0.079	0.014
-443.836	131.071	-0.048	-0.061
-442.822	-200.000	0.028	0.192
-441.807	800.000	0.097	0.271
-440.792	-26.103	-0.163	0.096
-439.778	92.774	0.190	0.215
-438.763	-104.888	-0.160	-0.037
-437.749	-42.019	0.222	-0.114
-436.734	614.904	0.116	0.290
-435.719	363.030	0.051	0.102
-434.705	800.000	0.047	0.140
-433.690	40.901	-0.215	-0.194
-432.676	-200.000	-0.013	0.156
-431.661	-200.000	0.035	0.278
-430.646	-200.000	0.027	0.411
-429.632	319.610	-0.078	-0.148
-428.617	-111.973	-0.431	-0.087
-427.603	800.000	0.073	0.223
-426.588	-68.045	0.268	-0.105
-425.573	241.997	0.188	-0.315
-424.559	71.692	-0.198	-0.206
-423.544	-76.279	0.035	0.012
-422.530	-88.486	0.320	0.096
-421.515	91.308	0.130	0.145
-420.500	-200.000	-0.086	0.505
-419.486	-187.041	-0.361	-0.005
-418.471	105.588	-0.136	-0.161
-417.457	209.259	0.166	0.260
-416.442	228.516	-0.138	0.225
-415.428	-82.334	0.223	-0.073
-414.413	-117.604	-0.174	0.031
-413.398	-14.007	0.093	-0.060
-412.384	-118.285	-0.231	-0.041
-411.369	311.570	0.023	-0.043
-410.355	-65.515	0.051	0.021
-409.340	96.445	0.101	-0.116
-408.325	-200.000	0.039	0.294
-407.311	72.315	-0.045	0.047
-406.296	-7.401	-0.221	0.150
-405.282	-114.440	0.338	0.065
-404.267	-200.000	-0.007	-0.496
-403.252	-114.964	0.085	-0.016
-402.238	71.954	-0.189	-0.197
-401.223	-33.406	-0.507	-0.280
-400.209	-200.000	-0.048	-0.284
-399.194	599.615	-0.062	-0.154
-398.179	800.000	-0.059	-0.252
-397.165	-92.691	-0.145	-0.041
-396.150	-175.244	-0.427	-0.012
-395.136	-22.985	-0.096	0.058
-394.121	144.634	0.177	0.237
-393.106	-14.836	0.323	-0.207
-392.092	-200.000	0.016	0.182
-391.077	54.178	0.182	0.175
-390.063	77.792	0.173	0.185
-389.048	104.383	-0.052	-0.061
-388.033	800.000	0.050	-0.202
-387.019	-16.194	-0.144	0.091
-386.004	-200.000	-0.015	0.202
-384.990	247.234	-0.201	0.340
-383.975	515.698	-0.127	0.297
-382.960	-45.598	-0.118	0.058
-381.946	305.496	-0.073	-0.136
-380.931	-160.180	0.319	0.017
-379.917	223.848	0.196	0.316
-378.902	280.880	-0.151	0.270
-377.888	800.000	0.021	0.089
-376.873	-8.335	0.252	-0.169
-375.858	-200.000	0.006	0.221
-374.844	-34.958	-0.058	-0.032
-373.829	-4.153	-0.403	-0.278
-372.815	-91.226	-0.145	-0.041
-371.800	-53.414	0.220	-0.101
-370.785	-93.769	0.192	-0.053
-369.771	800.000	-0.043	-0.137
-368.756	-200.000	-0.039	0.186
-367.742	-55.677	-0.053	-0.023
-366.727	7.031	-0.112	-0.083
-365.712	100.979	0.163	-0.190
-364.698	194.402	-0.103	-0.156
-363.683	215.467	0.100	-0.158
-362.669	-34.531	-0.187	0.102
-361.654	-200.000	-0.006	-0.107
-360.639	-200.000	-0.018	-0.105
-359.625	-200.000	-0.024	-0.521
-358.610	-47.842	0.146	0.071
-357.596	306.952	-0.062	-0.115
-356.581	-87.838	0.082	-0.025
-355.566	-120.403	-0.198	-0.034
-354.552	703.578	0.149	0.392
-353.537	-67.263	-0.303	-0.119
-352.523	-6.786	0.212	0.144
-351.508	17.837	0.242	0.192
-350.493	-88.405	0.172	-0.051
-349.479	-72.243	-0.402	-0.149
-348.464	-200.000	0.014	0.081
-347.450	156.649	-0.111	-0.153
-346.435	386.634	0.043	0.089
-345.420	2.203	-0.087	-0.063
-344.406	-21.710	0.134	0.081
-343.391	58.094	-0.210	0.206
-342.377	478.887	0.048	-0.108
-341.362	-114.609	-0.338	0.064
-340.348	250.596	0.215	0.365
-339.333	-70.495	-0.140	-0.053
-338.318	-151.292	-0.166	-0.012
-337.304	-200.000	0.008	-0.088
-336.289	-155.611	-0.369	-0.024
-335.275	-85.243	0.179	0.056
-334.260	800.000	-0.045	-0.125
-333.245	-200.000	-0.055	-0.505
-332.231	-88.090	-0.107	0.032
-331.216	26.984	0.106	-0.088
-330.202	-23.753	-0.282	-0.168
-329.187	-200.000	0.004	0.077
-328.172	-118.527	-0.365	0.064
-327.158	-141.596	0.260	-0.026
-326.143	-200.000	0.018	0.116
-325.129	-25.721	0.055	0.032
-324.114	-99.261	-0.094	-0.024
-323.099	-200.000	0.086	-0.412
-322.085	212.173	0.161	-0.254
-321.070	-157.392	0.115	0.007
-320.056	493.471	-0.070	0.160
-319.041	-54.934	0.145	0.065
-318.026	-200.000	-0.023	-0.129
-317.012	-200.000	0.054	-0.341
-315.997	222.134	-0.099	0.159
-314.983	-62.064	-0.206	0.086
-313.968	523.555	-0.030	-0.071
-312.953	-132.553	0.265	-0.034
-311.939	437.000	-0.091	0.198
-310.924	-200.000	-0.003	-0.242
-309.910	-200.000	0.040	-0.185
-308.895	-96.565	0.199	-0.052
-307.880	388.565	0.054	0.112
-306.866	-129.981	0.220	-0.030
-305.851	-200.000	-0.025	0.265
-304.837	95.258	-0.209	-0.238
-303.822	-19.105	-0.081	-0.050
-302.807	-38.838	-0.240	-0.126
-301.793	237.219	-0.107	0.176
-300.778	-200.000	0.022	-0.096
-299.764	-89.218	-0.197	-0.058
-298.749	-143.852	0.432	-0.041
-297.735	-109.908	0.248	0.052
-296.720	-200.000	-0.004	-0.228
-295.705	314.800	0.090	-0.168
-294.691	34.959	0.338	-0.294
-293.676	-64.794	0.157	-0.063
-292.662	-48.871	-0.423	0.202
-291.647	35.582	-0.105	0.092
-290.632	-70.636	0.229	0.086
-289.618	800.000	-0.025	0.091
-288.603	-127.251	-0.146	0.021
-287.589	800.000	-0.103	0.287
-286.574	-200.000	0.060	-0.264
-285.559	800.000	-0.016	0.047
-284.545	0.982	-0.111	0.079
-283.530	-200.000	-0.023	-0.534
-282.516	38.140	-0.157	-0.139
-281.501	798.556	0.056	0.153
-280.486	-9.303	0.279	-0.185
-279.472	-48.275	-0.377	0.181
-278.457	-77.220	0.397	-0.137
-277.443	187.591	-0.057	0.084
-276.428	-200.000	0.008	-0.206
-275.413	-200.000	0.019	-0.126
-274.399	40.941	0.239	-0.215
-273.384	-19.574	0.111	-0.068
-272.370	800.000	-0.045	-0.187
-271.355	800.000	0.096	0.267
-270.340	672.298	-0.048	0.124
-269.326	-49.809	-0.190	0.090
-268.311	-78.552	0.004	0.001
-267.297	-200.000	-0.012	-0.137
-266.282	-116.390	0.340	-0.063
-265.267	46.613	-0.195	0.180
-264.253	22.752	-0.171	0.139
-263.238	67.147	0.027	0.028
-262.224	-97.480	0.143	0.037
-261.209	-90.614	-0.504	0.145
-260.195	18.192	0.286	0.227
-259.180	-62.150	0.322	0.134
-258.165	137.448	-0.058	-0.075
-257.151	-106.962	-0.065	-0.014
-256.136	-0.638	-0.181	-0.128
-255.122	-142.394	0.322	-0.032
-254.107	476.116	-0.044	0.098
-253.092	-61.830	-0.064	-0.027
-252.078	-200.000	-0.013	-0.116
-251.063	121.604	0.062	0.077
-250.049	-136.113	0.211	0.025
-249.034	200.663	0.081	-0.124
-248.019	36.229	0.071	0.062
-247.005	188.025	-0.088	-0.131
-245.990	66.516	0.064	0.064
-244.976	-26.870	0.156	-0.091
-243.961	-27.537	-0.112	0.065
-242.946	406.721	0.057	0.120
-241.932	800.000	-0.039	0.121
-240.917	211.952	0.079	-0.124
-239.903	-200.000	-0.018	0.250
-238.888	208.178	0.064	0.099
-237.873	-135.376	0.297	0.035
-236.859	800.000	0.019	0.060
-235.844	22.422	-0.245	-0.199
-234.830	145.728	0.252	0.335
-233.815	-200.000	0.023	-0.377
-232.800	571.258	-0.102	-0.246
-231.786	800.000	-0.061	0.172
-230.771	800.000	-0.017	0.056
-229.757	341.874	-0.102	0.198
-228.742	214.369	0.179	0.281
-227.727	28.415	-0.116	-0.098
-226.713	-153.278	-0.357	0.025
-225.698	64.806	0.202	0.202
-224.684	80.295	0.095	-0.101
-223.669	-10.344	0.028	0.018
-222.655	-200.000	-0.061	-0.497
-221.640	-200.000	-0.012	-0.197
-220.625	83.983	-0.175	0.189
-219.611	364.082	0.040	0.079
-218.596	71.323	-0.273	0.281
-217.582	102.854	0.150	0.174
-216.567	-33.837	0.259	0.142
-215.552	214.554	0.021	0.033
-214.538	800.000	0.119	-0.491
-213.523	190.848	0.154	0.230
-212.509	-200.000	0.001	-0.022
-211.494	-200.000	-0.008	0.074
-210.479	71.216	0.193	0.199
-209.465	-48.108	0.239	0.114
-208.450	225.801	-0.103	0.166
-207.436	77.033	0.247	0.260
-206.421	33.395	-0.197	-0.170
-205.406	-136.667	-0.202	-0.023
-204.392	-17.098	-0.152	0.095
-203.377	-16.436	0.158	-0.099
-202.363	27.335	0.162	0.135
-201.348	737.401	-0.167	0.443
-200.333	-200.000	0.008	-0.052
-199.319	-110.274	0.335	0.069
-198.304	800.000	0.046	-0.129
-197.290	-7.810	0.269	-0.180
-196.275	-185.641	0.352	0.005
-195.260	16.397	0.360	-0.282
-194.246	139.058	0.222	0.289
-193.231	-136.556	0.069	-0.008
-192.217	-103.121	-0.284	-0.067
-191.202	161.440	-0.082	-0.114
-190.187	-200.000	-0.002	-0.046
-189.173	-134.790	-0.098	-0.012
-188.158	-200.000	-0.049	0.270
-187.144	-80.140	-0.328	0.109
-186.129	-51.241	-0.056	0.026
-185.114	-200.000	-0.012	-0.058
-184.100	800.000	-0.063	-0.272
-183.085	605.198	0.085	0.209
-182.071	-200.000	0.007	-0.068
-181.056	-200.000	0.014	0.196
-180.042	-84.909	-0.482	0.150
-179.027	800.000	-0.052	0.150
-178.012	-78.889	0.185	0.062
-176.998	800.000	-0.082	0.245
-175.983	328.385	0.092	0.175
-174.969	-200.000	0.038	0.169
-173.954	55.928	0.100	-0.096
-172.939	148.144	0.163	-0.218
-171.925	43.268	0.136	-0.123
-170.910	21.156	-0.063	-0.051
-169.896	-121.008	-0.300	0.050
-168.881	-200.000	-0.002	0.036
-167.866	745.034	0.058	-0.155
-166.852	146.132	-0.120	-0.159
-165.837	800.000	-0.050	-0.191
-164.823	349.323	0.130	-0.255
-163.808	-128.261	-0.096	-0.014
-162.793	207.545	-0.196	0.303
-161.779	-119.411	0.402	0.069
-160.764	388.487	-0.040	-0.081
-159.750	-143.028	-0.281	-0.027
-158.735	800.000	-0.039	0.161
-157.720	-200.000	0.018	0.132
-156.706	280.969	0.104	0.184
-155.691	-79.868	0.242	-0.080
-154.677	-99.783	0.289	-0.072
-153.662	800.000	-0.057	-0.182
-152.647	-122.103	-0.186	-0.030
-151.633	715.641	-0.084	-0.221
-150.618	249.807	-0.218	0.367
-149.604	658.133	-0.008	0.021
-148.589	-113.389	0.039	-0.008
-147.574	192.755	0.015	0.022
-146.560	365.668	-0.134	0.266
-145.545	800.000	-0.087	0.257
-144.531	-153.808	0.363	0.025
-143.516	-200.000	0.025	-0.216
-142.502	188.176	0.124	0.183
-141.487	229.097	-0.281	0.453
-140.472	-56.790	-0.418	-0.183
-139.458	-142.881	0.260	-0.025
-138.443	-193.342	0.280	-0.002
-137.429	47.685	-0.116	-0.108
-136.414	79.321	0.146	0.154
-135.399	-143.504	0.201	-0.019
-134.385	-14.640	-0.242	-0.154
-133.370	463.720	0.043	-0.096
-132.356	-200.000	0.023	-0.100
-131.341	-85.197	0.241	0.074
-130.326	-200.000	-0.008	0.254
-129.312	-93.550	-0.132	-0.036
-128.297	-91.343	0.131	-0.037
-127.283	247.210	-0.169	0.283
-126.268	29.794	-0.330	0.278
-125.253	-98.229	-0.257	-0.065
-124.239	-200.000	-0.034	0.229
-123.224	-54.830	-0.143	0.064
