DTS Sentinel unit serial number:	SN413079Multiplexer serial number:	ORYXHardware model number:	OX4-SRSoftware version number:	ORYX F/W v4.00 Oryx Data Collector v3.7.2.0data status	okinstallation	princeton_trtdifferential loss correction	single-endedforward channel	channel 1reverse channel	N/Adate	2019/09/11time	19:56:11forward acquisition time	60.00reverse acquisition time	0.00gamma	496.2192k internal	0.2300k external	0.2300temperature offset calibration	1.0031default loss term (dB/km)	0.3790temperature slope calibration	1.0000multiplexer offset coefficient	1.0000multiplexer slope coefficient	1.0000fibre end	0.00T internal ref (°C)	39.00T ext. ref 1 (°C)	1.36T ext. ref 2 (°C)	32.00length (m)	temperature (°C)	Stokes	anti-Stokes-747.200	-160.125	-0.040	0.002
-746.185	800.000	0.016	0.071
-745.171	-2.401	0.149	-0.107
-744.156	-175.567	0.130	0.004
-743.142	-200.000	-0.025	0.134
-742.127	-66.590	0.222	-0.090
-741.112	54.659	0.333	-0.327
-740.098	-200.000	0.002	0.153
-739.083	277.891	-0.152	0.276
-738.069	-28.995	0.188	0.110
-737.054	-63.974	-0.156	-0.065
-736.039	-94.277	0.231	0.064
-735.025	-33.420	-0.051	-0.028
-734.010	191.048	-0.172	-0.264
-732.996	-200.000	0.037	-0.283
-731.981	194.461	0.169	-0.261
-730.966	435.430	-0.159	0.352
-729.952	-115.992	-0.424	0.081
-728.937	-42.095	-0.157	-0.082
-727.923	-42.447	0.199	0.103
-726.908	-200.000	0.005	-0.333
-725.894	474.936	0.075	0.173
-724.879	800.000	-0.041	0.169
-723.864	-178.941	-0.128	-0.003
-722.850	17.527	-0.071	0.057
-721.835	142.464	-0.131	0.177
-720.821	111.756	-0.203	0.250
-719.806	-141.216	-0.133	0.014
-718.791	310.473	-0.087	-0.166
-717.777	65.684	0.228	-0.235
-716.762	115.586	-0.213	0.265
-715.748	800.000	0.060	-0.204
-714.733	260.393	-0.141	-0.248
-713.718	-31.858	-0.151	-0.086
-712.704	-200.000	0.058	-0.297
-711.689	-200.000	0.063	0.295
-710.675	101.674	-0.064	0.075
-709.660	-129.889	0.239	0.033
-708.645	-114.116	0.429	-0.085
-707.631	-32.914	0.112	0.063
-706.616	-60.425	-0.174	-0.076
-705.602	-58.990	-0.281	-0.123
-704.587	613.538	-0.103	0.263
-703.572	416.883	-0.093	-0.202
-702.558	-102.975	0.275	-0.066
-701.543	59.091	-0.138	0.138
-700.529	-109.760	0.215	0.046
-699.514	-63.994	-0.097	-0.040
-698.499	-3.974	0.259	-0.183
-697.485	-136.562	0.152	-0.018
-696.470	7.164	-0.218	-0.166
-695.456	309.376	0.180	-0.343
-694.441	13.468	-0.136	-0.107
-693.426	-35.678	-0.269	0.148
-692.412	-51.906	0.065	-0.031
-691.397	-1.585	-0.189	0.136
-690.383	-103.747	0.258	-0.061
-689.368	12.163	-0.214	0.168
-688.354	17.014	-0.176	-0.142
-687.339	-36.982	-0.138	-0.075
-686.324	591.634	0.050	0.127
-685.310	249.379	0.182	-0.314
-684.295	45.960	0.044	0.042
-683.281	-118.200	-0.392	-0.071
-682.266	240.172	0.113	-0.192
-681.251	-24.429	-0.141	-0.086
-680.237	-67.465	0.081	0.032
-679.222	372.706	-0.101	-0.209
-678.208	-28.735	-0.090	-0.053
-677.193	-14.973	0.158	0.103
-676.178	-200.000	-0.010	-0.255
-675.164	-130.699	-0.492	0.067
-674.149	219.187	0.193	0.314
-673.135	601.678	-0.053	-0.134
-672.120	165.969	-0.156	0.225
-671.105	148.205	0.171	-0.235
-670.091	800.000	-0.064	-0.236
-669.076	621.973	-0.060	0.154
-668.062	-200.000	-0.035	-0.521
-667.047	602.098	-0.102	-0.257
-666.032	800.000	-0.113	-0.382
-665.018	-6.076	-0.139	-0.097
-664.003	160.349	0.132	0.187
-662.989	800.000	0.070	0.232
-661.974	45.093	-0.304	0.284
-660.959	-104.877	0.073	0.017
-659.945	-200.000	-0.047	-0.312
-658.930	-200.000	0.001	-0.146
-657.916	-200.000	-0.011	0.073
-656.901	134.571	0.066	0.087
-655.886	-47.924	-0.242	-0.119
-654.872	263.240	0.031	0.055
-653.857	434.755	0.081	-0.179
-652.843	-109.136	0.115	-0.025
-651.828	-200.000	0.031	-0.188
-650.814	129.734	0.114	0.148
-649.799	-200.000	0.027	0.159
-648.784	143.442	-0.042	0.057
-647.770	231.917	-0.063	-0.105
-646.755	-88.609	0.281	0.085
-645.741	-200.000	-0.051	0.345
-644.726	681.268	-0.104	-0.275
-643.711	137.736	0.159	-0.212
-642.697	-19.881	0.183	0.115
-641.682	-109.991	-0.177	0.038
-640.668	94.059	-0.262	-0.302
-639.653	-157.086	-0.254	0.016
-638.638	145.797	-0.310	0.422
-637.624	303.919	0.189	-0.356
-636.609	-153.755	-0.334	0.023
-635.595	-200.000	0.081	-0.422
-634.580	178.797	0.051	-0.076
-633.565	-200.000	0.018	0.117
-632.551	42.594	-0.193	-0.178
-631.536	-41.668	-0.301	-0.157
-630.522	62.988	-0.138	-0.140
-629.507	197.271	0.214	-0.331
-628.492	71.712	0.122	-0.129
-627.478	131.526	0.131	-0.170
-626.463	800.000	-0.069	0.255
-625.449	-71.488	0.171	-0.065
-624.434	800.000	0.027	0.106
-623.419	687.991	0.118	0.312
-622.405	-68.685	0.225	-0.088
-621.390	-118.654	0.241	0.043
-620.376	-2.188	0.208	0.148
-619.361	365.372	0.135	-0.275
-618.346	-96.682	-0.179	-0.048
-617.332	96.727	-0.119	0.138
-616.317	-200.000	0.002	-0.062
-615.303	-3.699	0.087	0.061
-614.288	91.862	0.195	-0.223
-613.273	450.617	-0.124	0.278
-612.259	135.448	0.167	-0.220
-611.244	-135.002	-0.063	0.008
-610.230	216.064	-0.072	-0.117
-609.215	209.542	0.069	0.110
-608.201	-200.000	0.027	-0.122
-607.186	-200.000	-0.020	-0.186
-606.171	800.000	0.051	0.159
-605.157	221.449	0.148	-0.241
-604.142	254.963	-0.093	0.162
-603.128	-172.516	-0.231	-0.007
-602.113	-45.957	-0.330	-0.165
-601.098	201.635	-0.100	0.156
-600.084	549.039	0.038	-0.093
-599.069	-121.901	-0.281	-0.047
-598.055	1.072	0.274	-0.199
-597.040	-72.199	0.299	-0.113
-596.025	800.000	0.102	-0.306
-595.011	452.216	-0.107	0.239
-593.996	-200.000	-0.023	-0.356
-592.982	129.524	-0.184	-0.239
-591.967	-20.893	0.185	0.115
-590.952	32.892	-0.197	-0.173
-589.938	33.145	-0.104	0.092
-588.923	-4.277	0.182	0.128
-587.909	0.022	-0.280	-0.202
-586.894	266.121	-0.130	-0.230
-585.879	-25.891	0.053	-0.032
-584.865	125.302	-0.021	-0.027
-583.850	-200.000	0.075	0.354
-582.836	-91.520	-0.306	0.089
-581.821	-13.469	0.344	-0.226
-580.806	178.193	-0.062	-0.092
-579.792	-69.127	0.289	-0.113
-578.777	368.755	-0.023	-0.048
-577.763	-90.523	0.371	-0.109
-576.748	-58.770	0.202	0.089
-575.733	-184.134	0.063	0.001
-574.719	128.439	0.073	0.094
-573.704	-200.000	-0.026	0.291
-572.690	43.314	0.116	-0.107
-571.675	43.479	0.180	-0.167
-570.661	-80.211	0.144	-0.049
-569.646	-94.519	0.226	-0.062
-568.631	-79.268	-0.171	0.059
-567.617	-79.882	0.187	0.064
-566.602	247.737	0.234	0.400
-565.588	81.987	-0.126	0.138
-564.573	800.000	0.076	-0.266
-563.558	-200.000	-0.020	-0.230
-562.544	1.658	-0.191	0.139
-561.529	148.368	0.039	0.053
-560.515	-38.122	0.087	0.047
-559.500	800.000	0.055	0.200
-558.485	433.883	-0.074	-0.162
-557.471	34.100	0.270	0.238
-556.456	456.739	0.133	0.298
-555.442	-105.180	0.192	-0.044
-554.427	-12.992	0.133	0.087
-553.412	-107.415	-0.115	-0.025
-552.398	-200.000	0.000	-0.110
-551.383	245.562	0.131	-0.224
-550.369	-200.000	0.004	0.101
-549.354	-200.000	-0.013	0.059
-548.339	-200.000	-0.048	0.477
-547.325	800.000	0.084	-0.244
-546.310	276.389	-0.223	-0.402
-545.296	-200.000	0.013	-0.531
-544.281	224.841	-0.179	-0.294
-543.266	466.279	-0.070	0.158
-542.252	396.032	0.068	-0.143
-541.237	-64.618	0.226	0.093
-540.223	800.000	0.030	-0.097
-539.208	229.112	-0.094	0.155
-538.193	274.663	0.002	0.004
-537.179	118.904	0.234	0.293
-536.164	-54.589	0.115	-0.053
-535.150	93.928	0.146	0.167
-534.135	800.000	0.061	0.188
-533.121	-23.433	0.143	0.087
-532.106	800.000	0.055	0.162
-531.091	13.942	0.328	-0.258
-530.077	17.409	-0.253	0.203
-529.062	-93.892	0.353	0.098
-528.048	133.216	-0.153	0.200
-527.033	-76.896	-0.174	-0.062
-526.018	169.508	-0.050	-0.073
-525.004	-200.000	0.001	0.014
-523.989	-95.338	0.172	0.047
-522.975	800.000	0.093	0.307
-521.960	77.787	0.099	-0.107
-520.945	-99.720	-0.108	-0.027
-519.931	-200.000	0.016	0.150
-518.916	195.948	0.136	0.210
-517.902	-134.102	-0.077	-0.010
-516.887	-200.000	-0.014	-0.088
-515.872	-200.000	-0.015	-0.097
-514.858	460.628	-0.074	-0.167
-513.843	171.503	-0.152	-0.220
-512.829	800.000	-0.085	-0.324
-511.814	-200.000	0.070	-0.444
-510.799	-38.743	0.251	-0.134
-509.785	-2.924	0.062	-0.044
-508.770	93.208	0.263	0.300
-507.756	-67.447	-0.320	0.127
-506.741	-92.806	-0.103	-0.029
-505.726	-71.962	0.114	-0.043
-504.712	-200.000	-0.034	-0.306
-503.697	-91.225	-0.320	0.093
-502.683	-94.380	0.178	-0.049
-501.668	147.577	0.171	-0.233
-500.653	101.090	0.182	0.214
-499.639	-76.535	-0.245	0.087
-498.624	168.222	0.219	-0.314
-497.610	800.000	0.122	-0.357
-496.595	221.914	-0.113	0.183
-495.581	800.000	-0.045	0.193
-494.566	-200.000	-0.040	-0.332
-493.551	-82.554	0.250	0.082
-492.537	-28.693	-0.060	-0.035
-491.522	194.502	0.047	-0.072
-490.508	156.845	0.182	-0.254
-489.493	-200.000	-0.040	-0.296
-488.478	-200.000	-0.046	-0.343
-487.464	-188.770	-0.384	0.005
-486.449	122.026	-0.286	-0.361
-485.435	800.000	-0.074	0.226
-484.420	-165.694	0.074	-0.003
-483.405	800.000	0.021	0.059
-482.391	-78.222	-0.417	0.145
-481.376	66.863	0.105	0.108
-480.362	800.000	0.161	0.546
-479.347	-82.100	0.515	0.170
-478.332	-141.872	-0.692	-0.070
-477.318	-169.210	-0.258	-0.010
-476.303	-103.823	0.146	-0.035
-475.289	115.393	0.128	0.158
-474.274	66.725	0.202	0.208
-473.259	229.738	0.129	0.213
-472.245	23.499	0.050	-0.042
-471.230	-116.471	0.309	-0.058
-470.216	-200.000	0.002	0.116
-469.201	-31.287	-0.120	0.068
-468.186	-154.322	-0.330	0.022
-467.172	373.694	-0.070	-0.144
-466.157	193.642	0.105	0.160
-465.143	-30.989	0.116	-0.066
-464.128	89.521	0.113	0.128
-463.113	800.000	0.036	-0.127
-462.099	800.000	-0.034	0.128
-461.084	325.713	-0.051	-0.099
-460.070	512.532	-0.105	-0.247
-459.055	-46.809	-0.243	0.120
-458.040	-156.429	-0.092	0.006
-457.026	-200.000	-0.085	-0.524
-456.011	67.484	-0.304	-0.313
-454.997	4.177	-0.084	-0.062
-453.982	-64.094	-0.075	0.031
-452.968	-39.132	0.169	-0.090
-451.953	-200.000	-0.011	-0.182
-450.938	-200.000	0.018	-0.176
-449.924	179.952	-0.184	-0.272
-448.909	-200.000	0.030	0.460
-447.895	663.131	-0.045	0.116
-446.880	-73.223	0.131	0.048
-445.865	63.191	-0.113	0.115
-444.851	-114.966	0.192	0.037
-443.836	23.433	0.042	-0.035
-442.822	45.307	0.123	0.115
-441.807	-49.260	-0.203	0.098
-440.792	-171.750	-0.058	0.002
-439.778	101.387	0.197	-0.232
-438.763	-111.928	0.429	-0.087
-437.749	21.420	0.168	0.138
-436.734	-14.686	0.422	-0.273
-435.719	-200.000	-0.015	-0.334
-434.705	287.821	-0.157	-0.286
-433.690	800.000	-0.079	-0.247
-432.676	7.918	0.186	0.141
-431.661	-85.470	-0.528	0.166
-430.646	800.000	-0.023	0.081
-429.632	-36.803	-0.304	0.164
-428.617	8.684	-0.181	-0.138
-427.603	238.241	0.065	-0.109
-426.588	38.469	0.245	-0.220
-425.573	220.002	-0.113	-0.183
-424.559	220.036	0.105	0.170
-423.544	-45.844	-0.169	0.084
-422.530	800.000	0.069	0.247
-421.515	71.589	-0.136	-0.143
-420.500	-48.339	0.093	0.045
-419.486	-147.202	-0.203	0.017
-418.471	30.177	0.161	0.138
-417.457	21.274	-0.118	0.097
-416.442	56.063	-0.330	0.322
-415.428	-200.000	0.007	-0.064
-414.413	800.000	0.048	-0.157
-413.398	-200.000	-0.015	-0.162
-412.384	25.507	0.145	-0.122
-411.369	-200.000	0.017	0.133
-410.355	27.773	0.168	-0.143
-409.340	684.823	0.176	-0.462
-408.325	312.339	-0.058	-0.110
-407.311	165.568	0.151	0.214
-406.296	-200.000	-0.056	0.309
-405.282	103.580	-0.108	0.127
-404.267	31.036	0.114	0.098
-403.252	800.000	0.048	0.192
-402.238	-35.127	-0.153	-0.084
-401.223	-37.615	0.105	-0.056
-400.209	-116.405	-0.376	0.070
-399.194	-14.028	-0.042	0.027
-398.179	-54.146	-0.105	-0.048
-397.165	212.802	0.095	-0.152
-396.150	42.534	0.108	0.098
-395.136	-200.000	-0.024	0.137
-394.121	800.000	0.129	-0.416
-393.106	4.336	0.096	-0.071
-392.092	319.891	0.104	-0.198
-391.077	157.624	-0.113	0.157
-390.063	-89.364	0.114	0.034
-389.048	24.491	0.239	0.199
-388.033	790.633	-0.033	0.090
-387.019	-200.000	-0.001	0.185
-386.004	46.131	-0.146	-0.136
-384.990	89.442	-0.048	-0.054
-383.975	29.521	-0.187	0.160
-382.960	-200.000	0.026	0.219
-381.946	-59.654	0.081	0.035
-380.931	-135.594	-0.185	-0.022
-379.917	258.792	-0.142	0.246
-378.902	-176.254	-0.258	-0.007
-377.888	16.438	0.182	-0.145
-376.873	-14.135	-0.140	0.091
-375.858	-200.000	0.002	0.399
-374.844	800.000	0.082	0.239
-373.829	-200.000	0.009	0.170
-372.815	-78.474	-0.304	-0.105
-371.800	-200.000	0.010	0.152
-370.785	21.422	0.172	0.141
-369.771	-28.723	0.163	-0.094
-368.756	-148.165	0.087	-0.007
-367.742	271.261	-0.059	0.105
-366.727	-200.000	-0.053	0.397
-365.712	-200.000	-0.066	0.323
-364.698	-23.008	-0.120	-0.073
-363.683	-100.547	-0.199	0.050
-362.669	-200.000	0.056	0.308
-361.654	-178.438	0.083	0.002
-360.639	-34.573	0.219	0.121
-359.625	800.000	-0.038	-0.144
-358.610	-200.000	-0.012	-0.162
-357.596	58.506	0.161	0.159
-356.581	-120.390	0.171	0.029
-355.566	-47.394	-0.147	-0.072
-354.552	764.546	0.060	0.163
-353.537	-200.000	0.007	0.097
-352.523	27.179	0.221	0.186
-351.508	-150.192	0.370	0.029
-350.493	187.702	-0.158	-0.238
-349.479	-126.634	-0.493	0.073
-348.464	-200.000	-0.005	0.228
-347.450	-135.669	-0.313	-0.037
-346.435	-91.096	-0.278	0.080
-345.420	-78.292	-0.124	0.043
-344.406	-175.386	-0.206	0.006
-343.391	-112.012	0.150	0.030
-342.377	47.067	-0.253	-0.236
-341.362	113.265	-0.206	0.251
-340.348	-200.000	-0.067	0.352
-339.333	453.478	0.073	0.162
-338.318	-170.513	-0.110	-0.004
-337.304	229.761	-0.091	0.150
-336.289	34.434	0.074	0.064
-335.275	-183.754	0.078	0.001
-334.260	-79.334	-0.220	0.075
-333.245	214.783	-0.161	0.256
-332.231	117.818	-0.249	-0.307
-331.216	-77.431	0.373	-0.130
-330.202	-47.994	-0.130	-0.063
-329.187	16.505	0.161	-0.127
-328.172	-200.000	0.034	-0.179
-327.158	800.000	-0.059	-0.206
-326.143	577.765	-0.105	-0.257
-325.129	-200.000	0.022	-0.155
-324.114	-98.264	-0.184	0.047
-323.099	-200.000	0.069	0.307
-322.085	-137.998	-0.069	-0.008
-321.070	-173.889	-0.070	-0.002
-320.056	-200.000	0.055	0.362
-319.041	3.854	0.037	-0.027
-318.026	232.243	0.178	-0.293
-317.012	-96.517	-0.343	0.091
-315.997	-39.354	0.312	-0.164
-314.983	-200.000	0.008	-0.046
-313.968	-73.436	0.463	0.169
-312.953	-136.777	-0.444	0.051
-311.939	-151.755	0.356	-0.026
-310.924	-117.573	-0.177	-0.032
-309.910	141.487	0.253	-0.336
-308.895	40.584	-0.174	-0.158
-307.880	800.000	-0.010	-0.036
-306.866	-68.502	0.187	0.073
-305.851	21.075	0.333	0.271
-304.837	-33.502	0.180	-0.100
-303.822	800.000	-0.119	0.419
-302.807	49.750	0.156	-0.148
-301.793	-200.000	0.032	0.341
-300.778	727.682	0.048	-0.127
-299.764	100.583	0.064	0.074
-298.749	221.524	-0.069	-0.111
-297.735	800.000	0.122	0.351
-296.720	800.000	0.049	-0.184
-295.705	-42.780	-0.117	0.060
-294.691	-32.853	-0.051	0.029
-293.676	64.827	-0.259	0.262
-292.662	185.996	0.154	0.230
-291.647	38.176	0.110	0.098
-290.632	-4.405	-0.178	-0.123
-289.618	-200.000	-0.047	0.349
-288.603	-8.463	0.172	0.116
-287.589	499.912	-0.095	0.220
-286.574	87.431	0.099	-0.110
-285.559	-32.441	-0.191	-0.107
-284.545	472.216	0.058	-0.131
-283.530	-198.266	-0.174	-0.001
-282.516	120.790	-0.087	-0.108
-281.501	-141.073	-0.032	0.003
-280.486	-85.449	-0.240	-0.075
-279.472	-200.000	0.007	0.129
-278.457	-200.000	0.011	0.161
-277.443	47.775	-0.086	-0.080
-276.428	-62.324	-0.391	-0.163
-275.413	-200.000	-0.029	0.149
-274.399	45.289	-0.306	-0.282
-273.384	-129.186	0.210	0.029
-272.370	-90.032	-0.129	0.038
-271.355	53.232	0.255	0.244
-270.340	568.523	-0.083	-0.201
-269.326	372.239	0.048	-0.098
-268.311	459.067	0.139	0.310
-267.297	-76.987	-0.196	-0.068
-266.282	281.334	-0.127	-0.228
-265.267	-200.000	-0.034	-0.149
-264.253	-159.848	0.362	0.020
-263.238	800.000	0.049	0.165
-262.224	-108.325	-0.404	-0.087
-261.209	-96.452	-0.123	-0.032
-260.195	271.377	0.132	-0.233
-259.180	-131.402	0.312	0.041
-258.165	-3.929	0.206	-0.143
-257.151	-87.621	0.057	-0.017
-256.136	-137.340	-0.243	-0.028
-255.122	202.527	-0.028	0.044
-254.107	198.827	-0.196	-0.300
-253.092	534.105	-0.077	-0.183
-252.078	800.000	-0.057	-0.182
-251.063	-46.957	-0.119	0.058
-250.049	-24.723	0.157	-0.093
-249.034	287.431	0.126	-0.229
-248.019	-88.747	-0.191	0.057
-247.005	339.868	-0.068	0.133
-245.990	-154.325	-0.205	0.014
-244.976	440.710	-0.197	0.431
-243.961	800.000	0.085	-0.289
-242.946	-82.105	-0.253	-0.083
-241.932	-136.783	0.125	-0.014
-240.917	-40.664	0.101	-0.052
-239.903	5.870	0.153	-0.113
-238.888	-200.000	0.000	-0.203
-237.873	-129.532	0.068	-0.009
-236.859	359.380	0.044	-0.088
-235.844	-43.922	0.201	0.101
-234.830	30.654	-0.072	-0.062
-233.815	-200.000	-0.040	0.232
-232.800	-54.540	0.127	0.057
-231.786	153.456	-0.096	0.131
-230.771	-200.000	-0.014	-0.339
-229.757	-46.784	-0.167	-0.082
-228.742	576.738	-0.076	-0.185
-227.727	207.980	0.238	0.372
-226.713	79.680	-0.199	0.213
-225.698	800.000	0.093	0.382
-224.684	682.408	-0.107	-0.278
-223.669	664.418	-0.113	0.293
-222.655	28.147	0.165	0.139
-221.640	18.960	0.163	-0.130
-220.625	173.221	-0.059	-0.086
-219.611	-51.000	-0.233	-0.109
-218.596	-163.763	0.208	-0.010
-217.582	-107.862	-0.223	0.049
-216.567	-124.313	-0.390	0.061
-215.552	-1.063	-0.219	0.155
-214.538	-200.000	0.020	0.300
-213.523	800.000	-0.069	-0.201
-212.509	93.294	-0.131	-0.148
-211.494	-136.974	0.394	0.045
-210.479	-1.491	0.071	0.050
-209.465	-55.111	-0.205	0.092
-208.450	-200.000	-0.026	-0.241
-207.436	158.142	-0.164	0.227
-206.421	800.000	0.065	-0.214
-205.406	81.684	0.518	0.560
-204.392	-200.000	-0.034	-0.172
-203.377	145.445	-0.060	0.081
-202.363	64.102	0.219	0.220
-201.348	-90.795	-0.007	0.002
-200.333	-144.824	-0.120	0.011
-199.319	-191.756	-0.407	0.004
-198.304	391.724	0.090	-0.187
-197.290	-96.936	-0.178	-0.047
-196.275	-38.327	0.306	0.162
-195.260	-135.373	0.415	0.050
-194.246	22.368	-0.220	0.180
-193.231	800.000	0.084	0.251
-192.217	17.386	-0.191	-0.151
-191.202	-60.926	0.058	-0.025
-190.187	395.643	-0.128	-0.266
-189.173	-200.000	-0.022	-0.141
-188.158	-127.833	0.118	-0.017
-187.144	-85.817	0.266	0.082
-186.129	-147.294	0.078	-0.007
-185.114	-168.373	0.066	-0.003
-184.100	368.462	0.224	0.452
-183.085	800.000	0.015	-0.042
-182.071	123.509	-0.109	0.136
-181.056	-134.602	-0.330	-0.040
-180.042	-200.000	-0.042	0.271
-179.027	-144.261	0.317	0.030
-178.012	-200.000	-0.091	-0.416
-176.998	633.925	-0.082	-0.207
-175.983	800.000	0.078	-0.224
-174.969	-200.000	-0.032	0.273
-173.954	-99.381	0.333	0.084
-172.939	22.900	0.141	-0.115
-171.925	-68.251	-0.342	-0.133
-170.910	270.187	0.040	0.069
-169.896	646.228	-0.078	0.198
-168.881	-4.448	0.079	-0.055
-167.866	53.268	0.082	-0.078
-166.852	-85.302	-0.069	0.021
-165.837	55.253	0.010	0.009
-164.823	113.637	0.128	-0.155
-163.808	184.870	0.049	0.072
-162.793	-145.214	-0.062	0.006
-161.779	50.975	-0.243	0.230
-160.764	256.565	0.126	-0.216
-159.750	-200.000	-0.018	0.182
-158.735	-200.000	-0.047	0.496
-157.720	-61.070	0.217	-0.091
-156.706	57.123	0.172	-0.167
-155.691	13.444	-0.083	-0.064
-154.677	164.483	0.071	-0.100
-153.662	135.366	-0.265	-0.344
-152.647	800.000	-0.053	0.155
-151.633	-83.472	0.104	0.033
-150.618	-200.000	-0.009	0.357
-149.604	-193.291	0.218	-0.002
-148.589	800.000	0.035	0.116
-147.574	203.638	-0.211	0.325
-146.560	85.177	0.070	-0.076
-145.545	124.984	-0.039	0.049
-144.531	267.736	0.017	-0.029
-143.516	-3.297	0.071	0.050
-142.502	-200.000	0.014	-0.219
-141.487	-103.065	0.735	0.173
-140.472	430.950	-0.122	0.263
-139.458	-81.180	0.245	-0.081
-138.443	104.192	-0.121	-0.141
-137.429	18.454	0.136	-0.108
-136.414	113.159	0.178	0.215
-135.399	73.908	0.092	0.096
-134.385	-57.996	0.111	-0.048
-133.370	-135.577	-0.235	-0.028
-132.356	3.779	-0.128	0.093
-131.341	-190.859	0.200	0.002
-130.326	-144.086	-0.254	-0.024
-129.312	-19.539	-0.281	0.173
-128.297	800.000	-0.025	0.083
-127.283	-175.857	0.194	-0.005
-126.268	9.067	-0.308	-0.232
-125.253	-200.000	-0.013	-0.305
-124.239	-136.215	-0.311	0.036
-123.224	800.000	-0.131	0.539
-122.210	-166.751	0.386	0.016
-121.195	162.208	0.177	0.247
