DTS Sentinel unit serial number:	SN413079Multiplexer serial number:	ORYXHardware model number:	OX4-SRSoftware version number:	ORYX F/W v4.00 Oryx Data Collector v3.7.2.0data status	okinstallation	princeton_trtdifferential loss correction	single-endedforward channel	channel 1reverse channel	N/Adate	2019/09/18time	08:26:35forward acquisition time	60.00reverse acquisition time	0.00gamma	496.2192k internal	0.2337k external	0.2337temperature offset calibration	0.9978default loss term (dB/km)	0.3790temperature slope calibration	1.0000multiplexer offset coefficient	1.0000multiplexer slope coefficient	1.0000fibre end	0.00T internal ref (°C)	24.19T ext. ref 1 (°C)	0.22T ext. ref 2 (°C)	19.95length (m)	temperature (°C)	Stokes	anti-Stokes-747.200	581.419	0.162	0.398
-746.185	267.790	-0.217	0.381
-745.171	67.939	0.128	0.131
-744.156	23.046	0.023	-0.019
-743.142	-49.940	0.063	-0.030
-742.127	474.022	-0.167	0.379
-741.112	-2.385	-0.080	0.056
-740.098	-67.075	-0.340	0.135
-739.083	-104.512	-0.137	0.032
-738.069	-175.486	-0.215	0.006
-737.054	255.797	0.106	-0.183
-736.039	-95.785	-0.215	-0.058
-735.025	98.214	0.343	0.397
-734.010	264.797	-0.094	-0.164
-732.996	-41.643	-0.379	-0.196
-731.981	-200.000	-0.032	-0.181
-730.966	71.112	-0.048	0.050
-729.952	-144.527	0.078	0.007
-728.937	-22.542	-0.115	0.070
-727.923	-179.334	-0.350	-0.008
-726.908	-138.476	0.358	-0.039
-725.894	-184.903	-0.259	0.004
-724.879	-76.445	-0.170	-0.060
-723.864	77.546	0.248	-0.264
-722.850	35.854	0.114	0.101
-721.835	-200.000	0.021	0.108
-720.821	-149.533	0.325	-0.026
-719.806	46.256	0.143	-0.133
-718.791	91.512	0.325	-0.366
-717.777	-136.026	-0.238	0.028
-716.762	-30.620	0.187	-0.106
-715.748	-34.487	-0.230	0.127
-714.733	-200.000	0.035	-0.201
-713.718	442.553	0.057	0.125
-712.704	312.531	-0.153	-0.288
-711.689	-34.398	-0.492	-0.270
-710.675	-200.000	0.012	0.141
-709.660	-200.000	-0.007	0.071
-708.645	35.830	-0.164	0.145
-707.631	-101.048	0.157	-0.039
-706.616	10.375	0.166	-0.126
-705.602	800.000	-0.063	0.243
-704.587	72.326	0.141	0.147
-703.572	180.350	-0.273	0.401
-702.558	91.672	-0.113	0.128
-701.543	58.896	0.263	-0.259
-700.529	105.936	-0.338	-0.401
-699.514	-74.162	0.212	-0.077
-698.499	-108.437	-0.147	0.032
-697.485	-200.000	0.019	0.226
-696.470	20.165	0.418	0.338
-695.456	275.686	0.085	0.151
-694.441	34.425	-0.258	-0.225
-693.426	4.233	-0.060	-0.044
-692.412	20.830	-0.088	0.072
-691.397	-131.890	-0.135	-0.018
-690.383	-170.199	-0.251	-0.009
-689.368	-100.118	-0.098	-0.024
-688.354	163.182	0.059	0.083
-687.339	-200.000	0.023	-0.294
-686.324	-112.135	0.187	-0.038
-685.310	4.068	-0.160	0.117
-684.295	-61.503	0.313	0.132
-683.281	-64.565	-0.189	-0.077
-682.266	800.000	0.043	0.151
-681.251	-174.502	0.142	-0.004
-680.237	-200.000	-0.038	0.241
-679.222	-70.395	0.374	0.142
-678.208	-148.810	0.201	-0.016
-677.193	84.457	-0.312	-0.342
-676.178	-108.454	-0.221	-0.048
-675.164	213.156	0.211	-0.333
-674.149	11.976	-0.025	0.019
-673.135	-123.532	0.425	-0.068
-672.120	66.878	0.109	0.111
-671.105	-200.000	-0.007	-0.088
-670.091	-153.380	-0.269	0.019
-669.076	203.791	-0.106	-0.165
-668.062	-200.000	-0.013	-0.371
-667.047	45.836	0.094	-0.087
-666.032	-123.267	-0.181	0.029
-665.018	-200.000	-0.000	-0.047
-664.003	224.381	0.089	0.144
-662.989	-39.409	-0.073	0.038
-661.974	-200.000	-0.009	0.182
-660.959	-102.369	-0.367	-0.088
-659.945	34.102	0.217	0.189
-658.930	-146.001	-0.150	0.013
-657.916	59.989	0.140	0.139
-656.901	132.683	-0.066	-0.085
-655.886	176.076	-0.247	-0.359
-654.872	-117.283	-0.230	-0.042
-653.857	319.553	0.045	-0.085
-652.843	-200.000	0.001	0.112
-651.828	-143.246	-0.104	0.010
-650.814	-109.282	0.337	0.072
-649.799	800.000	-0.015	0.053
-648.784	-14.049	0.227	-0.147
-647.770	22.699	-0.329	0.270
-646.755	50.235	-0.229	0.216
-645.741	-67.952	-0.101	-0.039
-644.726	-200.000	-0.010	-0.055
-643.711	-22.298	-0.165	0.100
-642.697	94.172	-0.182	-0.207
-641.682	-200.000	-0.046	-0.310
-640.668	215.485	-0.229	-0.363
-639.653	-200.000	-0.014	-0.202
-638.638	-200.000	-0.019	0.127
-637.624	-121.715	-0.169	-0.028
-636.609	150.634	-0.238	-0.324
-635.595	657.779	0.051	0.132
-634.580	-147.603	0.246	-0.021
-633.565	30.684	-0.058	-0.049
-632.551	-200.000	-0.043	0.261
-631.536	703.206	0.097	-0.255
-630.522	-74.025	-0.278	-0.101
-629.507	410.008	-0.038	-0.082
-628.492	400.439	0.082	0.172
-627.478	129.014	-0.075	-0.096
-626.463	-200.000	-0.068	-0.335
-625.449	590.323	-0.107	-0.264
-624.434	-135.314	-0.208	-0.025
-623.419	-41.841	-0.272	-0.140
-622.405	-200.000	0.042	-0.351
-621.390	-67.520	0.101	-0.040
-620.376	234.888	-0.066	0.109
-619.361	-53.735	-0.156	-0.071
-618.346	18.676	-0.081	-0.065
-617.332	800.000	0.085	0.255
-616.317	-200.000	0.012	-0.198
-615.303	198.101	0.238	-0.364
-614.288	340.472	-0.089	0.173
-613.273	115.715	-0.075	0.092
-612.259	-54.256	0.175	-0.079
-611.244	727.219	0.185	-0.492
-610.230	-39.663	-0.210	-0.110
-609.215	-165.706	-0.234	0.010
-608.201	-200.000	-0.029	0.152
-607.186	178.047	0.098	-0.143
-606.171	157.349	-0.248	-0.343
-605.157	-200.000	0.062	0.303
-604.142	-84.150	-0.280	-0.089
-603.128	-81.361	-0.461	-0.152
-602.113	-200.000	0.004	-0.115
-601.098	-102.922	0.203	0.048
-600.084	-0.436	-0.239	0.170
-599.069	800.000	-0.160	0.472
-598.055	-52.840	0.183	-0.084
-597.040	310.025	-0.168	-0.313
-596.025	800.000	0.032	0.116
-595.011	-45.061	0.167	0.083
-593.996	582.396	0.118	0.289
-592.982	397.861	0.089	0.185
-591.967	26.481	-0.083	0.069
-590.952	-55.087	0.098	0.044
-589.938	105.962	0.089	-0.105
-588.923	711.411	-0.113	-0.298
-587.909	-108.573	-0.179	-0.038
-586.894	-30.279	0.200	-0.113
-585.879	-43.867	0.268	-0.134
-584.865	-200.000	-0.014	-0.060
-583.850	-155.353	0.084	0.005
-582.836	-100.989	-0.278	0.068
-581.821	20.046	-0.115	0.092
-580.806	146.264	0.209	0.279
-579.792	362.752	0.148	-0.297
-578.777	275.159	-0.081	-0.143
-577.763	125.418	-0.242	0.305
-576.748	0.521	-0.377	-0.269
-575.733	-24.151	0.057	0.034
-574.719	-128.423	-0.288	0.041
-573.704	-85.149	-0.032	-0.010
-572.690	29.910	-0.140	0.119
-571.675	-200.000	0.007	0.115
-570.661	-12.409	-0.042	0.027
-569.646	-119.046	-0.291	0.051
-568.631	442.099	-0.056	-0.123
-567.617	585.390	0.073	-0.179
-566.602	-195.877	0.332	-0.002
-565.588	76.745	0.053	0.056
-564.573	278.505	-0.118	-0.210
-563.558	574.273	-0.148	0.359
-562.544	-200.000	0.037	0.217
-561.529	-97.459	0.437	0.113
-560.515	153.121	-0.262	-0.357
-559.500	-133.808	-0.140	-0.017
-558.485	-98.901	0.415	-0.105
-557.471	-47.437	-0.136	-0.066
-556.456	242.737	0.042	0.070
-555.442	-47.278	-0.256	0.124
-554.427	-200.000	0.020	-0.094
-553.412	445.557	0.076	0.166
-552.398	-115.228	-0.202	0.038
-551.383	-97.304	-0.204	-0.053
-550.369	288.127	0.172	-0.311
-549.354	-73.806	-0.098	0.035
-548.339	-111.993	-0.012	-0.002
-547.325	800.000	-0.081	-0.233
-546.310	49.158	-0.275	-0.258
-545.296	104.355	-0.060	-0.070
-544.281	800.000	0.062	-0.205
-543.266	-167.342	0.083	-0.003
-542.252	-200.000	-0.030	-0.320
-541.237	22.893	0.120	-0.098
-540.223	-85.886	-0.116	-0.036
-539.208	-4.218	0.053	0.037
-538.193	403.805	-0.079	-0.166
-537.179	-200.000	-0.007	0.134
-536.164	733.165	-0.048	0.129
-535.150	-46.608	-0.145	-0.071
-534.135	800.000	-0.083	0.249
-533.121	800.000	0.097	-0.313
-532.106	125.464	-0.138	-0.174
-531.091	342.139	0.198	-0.386
-530.077	143.907	0.074	-0.098
-529.062	800.000	-0.061	0.198
-528.048	-176.535	0.266	-0.007
-527.033	30.446	0.358	-0.305
-526.018	-111.655	-0.326	-0.066
-525.004	0.483	0.061	-0.043
-523.989	-200.000	0.071	0.487
-522.975	-200.000	0.040	-0.224
-521.960	800.000	-0.110	0.417
-520.945	-87.974	-0.082	-0.025
-519.931	-90.919	0.340	0.097
-518.916	-12.809	-0.104	-0.067
-517.902	-92.532	0.425	-0.119
-516.887	-200.000	-0.028	-0.198
-515.872	800.000	0.049	-0.157
-514.858	-77.630	-0.142	0.049
-513.843	-88.678	0.083	0.025
-512.829	-63.854	0.080	-0.033
-511.814	-200.000	-0.027	-0.290
-510.799	151.437	0.154	-0.208
-509.785	14.398	-0.139	0.108
-508.770	8.798	0.078	-0.058
-507.756	-129.634	0.104	0.014
-506.741	-46.049	0.105	0.052
-505.726	262.585	-0.196	0.339
-504.712	765.178	-0.024	0.065
-503.697	-87.999	0.213	0.064
-502.683	-85.447	0.401	-0.124
-501.668	197.956	-0.104	0.158
-500.653	-44.932	0.158	0.079
-499.639	-79.446	0.132	-0.044
-498.624	-0.445	-0.173	0.122
-497.610	709.630	0.082	-0.216
-496.595	100.548	-0.024	-0.028
-495.581	-200.000	-0.051	0.328
-494.566	-200.000	0.013	-0.210
-493.551	-25.617	0.036	0.021
-492.537	-200.000	-0.036	-0.265
-491.522	149.596	-0.073	0.098
-490.508	482.460	0.052	0.117
-489.493	-200.000	0.007	-0.188
-488.478	64.184	-0.178	-0.178
-487.464	-159.360	0.184	-0.010
-486.449	726.511	0.172	0.457
-485.435	60.820	-0.361	0.356
-484.420	11.341	0.268	0.204
-483.405	-121.516	0.176	0.029
-482.391	-200.000	0.063	-0.279
-481.376	-200.000	-0.011	-0.403
-480.362	71.888	-0.141	0.146
-479.347	-159.686	0.148	-0.008
-478.332	-83.771	0.253	0.080
-477.318	-100.936	-0.166	0.041
-476.303	55.800	-0.085	0.082
-475.289	-37.718	0.083	0.044
-474.274	4.279	-0.137	-0.100
-473.259	-68.877	0.071	-0.027
-472.245	-91.282	-0.214	0.061
-471.230	677.704	0.043	0.111
-470.216	800.000	0.064	-0.221
-469.201	800.000	-0.081	-0.256
-468.186	-114.145	0.175	0.034
-467.172	-95.964	0.163	0.043
-466.157	-126.103	0.328	0.049
-465.143	60.212	-0.226	-0.222
-464.128	800.000	-0.047	-0.174
-463.113	-200.000	-0.011	0.237
-462.099	177.036	-0.138	0.200
-461.084	153.464	-0.030	-0.041
-460.070	-200.000	-0.029	-0.237
-459.055	-92.696	0.058	-0.016
-458.040	-56.784	0.300	-0.132
-457.026	-41.623	0.124	-0.063
-456.011	-76.802	0.290	0.101
-454.997	-156.205	0.036	0.002
-453.982	800.000	0.059	-0.164
-452.968	-18.784	0.162	0.100
-451.953	302.126	0.086	0.157
-450.938	-103.774	0.284	-0.066
-449.924	800.000	-0.087	-0.254
-448.909	511.020	-0.046	-0.107
-447.895	800.000	0.057	0.159
-446.880	154.835	0.145	0.198
-445.865	-200.000	-0.057	0.449
-444.851	-5.977	-0.111	0.076
-443.836	85.424	0.115	-0.125
-442.822	136.536	0.076	0.099
-441.807	-80.783	0.477	0.157
-440.792	-182.036	0.072	0.001
-439.778	310.161	-0.131	-0.243
-438.763	381.012	0.179	-0.364
-437.749	-83.944	0.067	-0.021
-436.734	-105.006	0.192	0.044
-435.719	-26.853	-0.277	-0.160
-434.705	308.674	0.250	0.463
-433.690	-111.801	0.231	0.046
-432.676	680.012	0.102	-0.262
-431.661	800.000	-0.092	-0.268
-430.646	-32.909	-0.284	-0.157
-429.632	-33.437	-0.319	0.175
-428.617	-47.288	-0.217	0.105
-427.603	-145.247	0.340	0.031
-426.588	-127.793	0.181	-0.026
-425.573	214.285	0.197	0.309
-424.559	-200.000	0.009	0.052
-423.544	309.261	0.024	0.044
-422.530	-108.478	-0.120	-0.026
-421.515	-130.047	-0.313	-0.042
-420.500	356.731	-0.068	0.135
-419.486	-75.390	0.149	-0.052
-418.471	4.862	0.249	0.181
-417.457	-75.147	-0.087	0.031
-416.442	61.826	-0.024	0.023
-415.428	800.000	-0.032	0.112
-414.413	-200.000	-0.059	-0.261
-413.398	-193.085	0.090	-0.001
-412.384	-25.449	0.125	-0.073
-411.369	236.473	-0.095	-0.156
-410.355	487.449	-0.040	0.091
-409.340	-188.052	0.225	-0.003
-408.325	72.360	0.291	-0.301
-407.311	800.000	0.024	-0.089
-406.296	800.000	-0.039	-0.117
-405.282	100.093	0.112	0.129
-404.267	100.965	-0.011	0.012
-403.252	-110.659	-0.312	0.064
-402.238	5.827	-0.311	0.228
-401.223	-200.000	0.031	0.221
-400.209	1.244	-0.108	-0.077
-399.194	337.948	-0.139	-0.267
-398.179	112.120	-0.115	0.138
-397.165	255.633	0.141	-0.240
-396.150	-197.898	0.028	0.000
-395.136	-47.851	-0.392	0.188
-394.121	-22.947	0.076	-0.045
-393.106	110.329	-0.011	0.013
-392.092	77.222	0.034	-0.036
-391.077	25.695	0.201	0.166
-390.063	93.230	-0.105	0.118
-389.048	310.274	0.150	-0.278
-388.033	-200.000	-0.028	-0.130
-387.019	-103.240	0.174	0.041
-386.004	-80.324	0.226	-0.075
-384.990	-128.285	-0.114	0.016
-383.975	298.286	0.170	0.309
-382.960	-189.612	-0.282	0.003
-381.946	-111.501	-0.220	-0.044
-380.931	-31.109	0.239	0.133
-379.917	145.216	0.153	0.203
-378.902	225.547	0.247	0.396
-377.888	435.386	-0.075	0.161
-376.873	-24.140	0.257	-0.152
-375.858	354.781	-0.069	0.136
-374.844	77.422	0.043	-0.045
-373.829	-97.185	0.157	-0.041
-372.815	-147.087	-0.342	0.029
-371.800	-200.000	-0.016	0.161
-370.785	-88.991	0.144	-0.042
-369.771	-126.851	0.052	-0.008
-368.756	-91.638	0.108	0.031
-367.742	195.793	-0.023	-0.034
-366.727	60.652	0.215	0.211
-365.712	-4.925	-0.306	0.209
-364.698	-11.336	-0.196	0.128
-363.683	-155.189	0.181	-0.012
-362.669	-200.000	0.019	0.225
-361.654	-70.868	0.166	-0.062
-360.639	10.037	0.132	-0.099
-359.625	-200.000	-0.033	-0.370
-358.610	800.000	0.012	0.043
-357.596	-99.893	-0.268	-0.066
-356.581	152.865	-0.130	-0.176
-355.566	268.818	-0.195	-0.339
-354.552	360.638	0.128	-0.253
-353.537	-39.129	-0.203	0.105
-352.523	150.931	0.033	-0.044
-351.508	800.000	0.078	-0.300
-350.493	800.000	0.075	0.231
-349.479	-138.958	-0.158	-0.017
-348.464	102.307	0.215	0.248
-347.450	-43.943	0.244	0.121
-346.435	-65.991	0.278	0.110
-345.420	-150.751	-0.075	0.006
-344.406	-200.000	-0.021	0.251
-343.391	104.028	-0.218	0.253
-342.377	-92.751	-0.169	-0.047
-341.362	31.996	-0.233	-0.198
-340.348	-7.678	-0.092	-0.062
-339.333	613.625	-0.031	-0.078
-338.318	-200.000	-0.050	0.292
-337.304	800.000	0.068	0.202
-336.289	-186.822	-0.168	0.002
-335.275	491.287	0.167	0.379
-334.260	800.000	0.096	0.265
-333.245	237.770	-0.138	-0.226
-332.231	-44.419	-0.192	-0.095
-331.216	215.696	0.149	0.234
-330.202	-200.000	0.019	0.388
-329.187	49.723	0.261	0.243
-328.172	-53.411	-0.434	-0.197
-327.158	-5.096	-0.081	-0.055
-326.143	-200.000	-0.030	-0.231
-325.129	-72.834	0.047	-0.017
-324.114	85.587	-0.240	0.261
-323.099	-200.000	-0.009	0.060
-322.085	-200.000	0.020	-0.172
-321.070	-94.658	-0.170	0.046
-320.056	244.197	-0.099	0.165
-319.041	-129.122	0.173	-0.024
-318.026	-200.000	-0.015	-0.069
-317.012	-47.211	0.075	-0.036
-315.997	12.305	-0.239	0.182
-314.983	-35.523	-0.338	0.181
-313.968	371.260	0.175	0.351
-312.953	-115.731	-0.133	0.025
-311.939	-200.000	-0.009	0.224
-310.924	17.144	-0.261	-0.204
-309.910	-200.000	0.034	0.182
-308.895	800.000	-0.030	0.129
-307.880	64.899	-0.189	-0.188
-306.866	-200.000	-0.077	-0.355
-305.851	-65.669	-0.111	0.044
-304.837	-32.517	0.084	0.046
-303.822	230.109	-0.077	-0.124
-302.807	-29.633	-0.243	0.137
-301.793	-165.135	0.155	0.007
-300.778	1.914	0.305	0.217
-299.764	236.720	-0.135	-0.221
-298.749	-56.649	-0.236	-0.103
-297.735	800.000	-0.061	-0.261
-296.720	-167.320	0.089	-0.004
-295.705	548.707	0.081	-0.190
-294.691	-132.806	-0.157	-0.020
-293.676	277.080	0.176	0.309
-292.662	800.000	0.030	0.113
-291.647	638.122	-0.077	-0.193
-290.632	-2.973	0.067	-0.046
-289.618	-200.000	-0.022	0.106
-288.603	-200.000	0.023	-0.255
-287.589	-62.835	0.025	0.010
-286.574	138.648	0.075	0.097
-285.559	-115.669	0.420	-0.078
-284.545	-151.514	0.177	-0.013
-283.530	21.136	-0.195	0.156
-282.516	-200.000	0.002	0.053
-281.501	14.170	-0.258	0.198
-280.486	50.154	0.023	0.022
-279.472	-54.616	0.246	0.110
-278.457	-29.425	0.209	0.118
-277.443	8.042	0.143	0.106
-276.428	-44.070	-0.353	-0.175
-275.413	-1.714	0.233	-0.162
-274.399	24.720	0.134	0.109
-273.384	-115.325	0.362	-0.067
-272.370	-200.000	0.048	0.385
-271.355	-63.532	-0.161	-0.065
-270.340	-200.000	-0.031	-0.161
-269.326	5.250	0.188	0.136
-268.311	56.993	0.199	0.191
-267.297	69.007	0.077	0.078
-266.282	174.727	0.150	0.213
-265.267	-200.000	0.003	-0.102
-264.253	47.132	0.187	0.172
-263.238	-128.217	-0.122	-0.017
-262.224	800.000	0.028	-0.095
-261.209	-200.000	-0.039	0.180
-260.195	-80.571	-0.113	0.037
-259.180	-26.765	0.279	0.161
-258.165	-128.474	-0.292	-0.041
-257.151	129.722	0.179	-0.226
-256.136	159.402	0.047	-0.064
-255.122	263.226	0.138	-0.237
-254.107	-187.637	-0.158	-0.002
-253.092	-200.000	0.012	0.208
-252.078	800.000	-0.054	-0.164
-251.063	302.534	0.120	-0.218
-250.049	249.260	0.042	0.069
-249.034	-87.518	-0.105	0.031
-248.019	-76.231	-0.156	-0.054
-247.005	-158.434	0.173	0.010
-245.990	-23.596	-0.235	0.139
-244.976	109.632	0.098	0.115
-243.961	9.987	0.099	-0.074
-242.946	-200.000	-0.002	0.322
-241.932	-168.286	-0.114	0.004
-240.917	800.000	0.076	-0.227
-239.903	800.000	-0.123	-0.408
-238.888	31.857	0.140	-0.119
-237.873	-200.000	-0.008	0.055
-236.859	88.875	0.347	0.380
-235.844	-40.423	0.237	0.121
-234.830	-35.224	-0.253	-0.136
-233.815	35.919	-0.062	-0.054
-232.800	-135.331	0.292	0.034
-231.786	800.000	0.119	-0.359
-230.771	-25.752	0.264	0.153
-229.757	138.606	-0.112	-0.145
-228.742	-126.891	-0.263	0.038
-227.727	-200.000	0.044	-0.205
-226.713	800.000	0.062	-0.209
-225.698	800.000	0.030	0.095
-224.684	295.013	-0.069	0.124
-223.669	-133.125	0.227	0.028
-222.655	250.101	0.066	0.111
-221.640	-83.810	-0.072	0.023
-220.625	-104.089	-0.158	-0.036
-219.611	-200.000	-0.050	-0.258
-218.596	-200.000	-0.071	0.449
-217.582	522.373	-0.041	0.094
-216.567	800.000	-0.080	-0.230
-215.552	-23.395	0.072	0.043
-214.538	42.094	-0.258	-0.231
-213.523	-112.205	-0.202	-0.040
-212.509	-65.106	0.132	-0.052
-211.494	491.178	0.176	0.396
-210.479	-10.515	-0.265	-0.173
-209.465	-64.189	-0.219	-0.088
-208.450	-168.189	0.412	0.016
-207.436	-81.225	0.282	0.091
-206.421	-68.905	-0.203	-0.077
-205.406	305.380	-0.272	0.497
-204.392	169.616	0.140	-0.197
-203.377	-25.839	0.203	-0.117
-202.363	-200.000	0.047	0.292
-201.348	-182.664	0.399	0.007
-200.333	375.523	0.074	-0.149
-199.319	-200.000	-0.098	0.551
-198.304	-200.000	-0.029	0.175
-197.290	-56.380	-0.075	-0.033
-196.275	-200.000	0.001	0.046
-195.260	-200.000	-0.027	0.222
-194.246	-120.673	-0.315	-0.052
-193.231	10.972	0.327	-0.245
-192.217	98.512	-0.064	0.072
-191.202	-125.217	-0.171	0.026
-190.187	-200.000	0.009	-0.046
-189.173	99.159	0.261	0.297
-188.158	753.420	0.067	-0.177
-187.144	800.000	0.039	-0.115
-186.129	114.277	-0.114	-0.137
-185.114	48.061	-0.151	-0.139
-184.100	-200.000	0.017	0.218
-183.085	-149.730	-0.094	-0.007
-182.071	800.000	0.049	-0.192
-181.056	800.000	0.023	-0.084
-180.042	-29.731	-0.268	-0.150
-179.027	800.000	0.099	0.400
-178.012	182.872	-0.051	-0.074
-176.998	-99.601	0.331	-0.082
-175.983	67.405	-0.177	-0.178
-174.969	-146.557	0.247	-0.021
-173.954	-100.266	-0.021	-0.005
-172.939	-28.317	0.257	0.146
-171.925	-200.000	-0.060	0.325
-170.910	-200.000	-0.050	-0.243
-169.896	800.000	0.045	0.129
-168.881	-200.000	0.040	0.255
-167.866	800.000	-0.076	0.234
-166.852	-88.242	0.256	0.075
-165.837	-200.000	0.005	-0.101
-164.823	148.113	-0.086	-0.114
-163.808	87.392	-0.030	-0.033
-162.793	92.536	-0.156	-0.173
-161.779	-66.734	-0.015	-0.006
-160.764	145.726	-0.147	0.194
-159.750	-37.351	-0.238	0.125
-158.735	-200.000	-0.044	0.194
-157.720	-109.091	-0.223	0.047
-156.706	-200.000	-0.010	-0.126
-155.691	435.074	-0.109	-0.232
-154.677	-120.673	0.228	-0.038
-153.662	-137.083	-0.257	0.029
-152.647	-95.563	0.102	0.027
-151.633	-28.600	-0.168	0.095
-150.618	388.041	-0.130	-0.263
-149.604	-200.000	-0.057	-0.333
-148.589	570.148	0.017	0.041
-147.574	78.153	0.275	0.288
-146.560	8.343	0.240	0.177
-145.545	13.463	0.100	0.076
-144.531	800.000	-0.030	0.129
-143.516	-56.888	0.208	0.090
-142.502	-200.000	0.052	-0.381
-141.487	-184.004	0.057	-0.001
-140.472	-53.856	-0.153	0.068
-139.458	128.238	0.040	0.050
-138.443	800.000	0.069	0.263
-137.429	-108.830	-0.277	0.058
-136.414	-46.903	-0.028	0.014
-135.399	-50.989	0.181	0.083
-134.385	800.000	-0.081	-0.285
-133.370	345.390	-0.165	-0.317
-132.356	-59.693	-0.160	0.067
-131.341	-200.000	-0.033	-0.163
-130.326	73.925	-0.032	0.033
-129.312	-174.044	0.226	0.006
-128.297	800.000	0.080	0.338
-127.283	-51.294	0.242	0.111
-126.268	-102.921	-0.122	-0.028
-125.253	-17.600	0.082	-0.051
-124.239	-122.890	0.203	0.032
-123.224	-200.000	0.043	-0.264
-122.210	-167.046	-0.356	-0.014
