DTS Sentinel unit serial number:	SN413079Multiplexer serial number:	ORYXHardware model number:	OX4-SRSoftware version number:	ORYX F/W v4.00 Oryx Data Collector v3.7.2.0data status	okinstallation	princeton_trtdifferential loss correction	single-endedforward channel	channel 1reverse channel	N/Adate	2019/09/13time	03:14:35forward acquisition time	60.00reverse acquisition time	0.00gamma	496.2192k internal	0.2332k external	0.2332temperature offset calibration	1.0162default loss term (dB/km)	0.3790temperature slope calibration	1.0000multiplexer offset coefficient	1.0000multiplexer slope coefficient	1.0000fibre end	0.00T internal ref (°C)	27.41T ext. ref 1 (°C)	4.09T ext. ref 2 (°C)	22.14length (m)	temperature (°C)	Stokes	anti-Stokes-747.200	357.468	0.013	-0.026
-746.185	-200.000	-0.030	0.242
-745.171	-35.354	0.213	-0.116
-744.156	800.000	-0.093	-0.293
-743.142	-65.056	-0.218	0.088
-742.127	-148.469	-0.024	0.002
-741.112	735.413	-0.121	-0.326
-740.098	-200.000	-0.048	0.214
-739.083	-53.785	0.163	0.075
-738.069	-13.652	0.027	-0.017
-737.054	190.119	-0.119	-0.180
-736.039	134.386	0.036	-0.046
-735.025	92.856	-0.107	-0.122
-734.010	-118.940	-0.216	0.038
-732.996	33.957	-0.236	-0.207
-731.981	800.000	-0.073	-0.278
-730.966	-102.422	0.623	0.150
-729.952	83.376	-0.253	0.277
-728.937	-117.582	-0.230	-0.042
-727.923	-113.288	-0.229	0.045
-726.908	-140.354	-0.384	-0.040
-725.894	800.000	0.025	0.076
-724.879	-42.560	-0.152	0.078
-723.864	-144.744	-0.340	-0.031
-722.850	-200.000	0.036	0.421
-721.835	-17.492	-0.455	0.288
-720.821	-13.905	0.240	-0.156
-719.806	9.782	-0.218	0.166
-718.791	-23.261	-0.152	0.092
-717.777	-86.333	-0.202	0.063
-716.762	120.965	0.079	0.098
-715.748	153.603	0.241	0.332
-714.733	-88.060	0.470	0.142
-713.718	766.018	0.045	0.122
-712.704	338.263	-0.215	-0.421
-711.689	212.427	0.106	-0.168
-710.675	-100.441	-0.086	0.021
-709.660	800.000	0.059	0.233
-708.645	-200.000	0.029	-0.255
-707.631	-36.601	0.303	-0.164
-706.616	55.487	-0.274	-0.267
-705.602	129.635	0.124	-0.159
-704.587	226.685	-0.060	-0.097
-703.572	-168.218	-0.398	0.015
-702.558	35.098	0.061	0.054
-701.543	155.439	-0.124	0.171
-700.529	685.180	0.035	-0.092
-699.514	-178.188	-0.284	0.007
-698.499	-3.205	-0.146	0.102
-697.485	-119.298	-0.133	0.023
-696.470	211.585	0.184	-0.291
-695.456	9.708	0.129	-0.098
-694.441	-109.751	-0.417	-0.088
-693.426	494.993	0.059	-0.135
-692.412	317.554	0.158	0.300
-691.397	31.100	-0.241	-0.208
-690.383	75.984	-0.099	-0.105
-689.368	-15.278	-0.430	-0.276
-688.354	-101.721	-0.110	0.027
-687.339	800.000	-0.068	-0.211
-686.324	-83.012	0.259	-0.084
-685.310	-200.000	-0.087	-0.557
-684.295	-55.688	-0.118	0.053
-683.281	-121.717	-0.138	0.023
-682.266	-200.000	-0.020	-0.219
-681.251	-200.000	0.038	0.284
-680.237	-200.000	-0.007	-0.073
-679.222	69.477	-0.358	-0.370
-678.208	142.469	0.047	0.063
-677.193	800.000	0.095	0.391
-676.178	-62.631	0.065	0.027
-675.164	30.352	0.122	0.105
-674.149	288.930	-0.077	-0.140
-673.135	-200.000	0.002	-0.126
-672.120	-33.657	-0.109	0.060
-671.105	-200.000	-0.009	-0.061
-670.091	-200.000	-0.011	-0.264
-669.076	163.495	0.128	0.181
-668.062	-200.000	0.060	0.355
-667.047	-200.000	-0.002	0.305
-666.032	-98.574	-0.203	-0.052
-665.018	-108.103	0.387	0.084
-664.003	-58.431	0.154	0.067
-662.989	-200.000	0.059	-0.401
-661.974	605.659	-0.142	-0.354
-660.959	34.423	-0.148	-0.130
-659.945	800.000	0.083	-0.303
-658.930	29.661	0.154	-0.131
-657.916	-178.307	-0.125	-0.003
-656.901	169.777	0.186	0.267
-655.886	800.000	0.026	0.089
-654.872	79.182	-0.112	0.120
-653.857	-75.869	-0.173	0.061
-652.843	-82.752	0.038	0.012
-651.828	87.087	-0.174	-0.193
-650.814	-61.084	0.339	-0.144
-649.799	93.510	0.062	0.071
-648.784	205.123	-0.079	0.123
-647.770	21.371	-0.183	0.149
-646.755	-97.048	-0.099	0.026
-645.741	117.316	0.074	0.091
-644.726	21.609	-0.196	-0.160
-643.711	-9.998	0.256	-0.171
-642.697	-63.256	0.149	-0.062
-641.682	608.665	-0.024	-0.060
-640.668	-63.397	0.141	0.058
-639.653	800.000	0.040	-0.169
-638.638	119.495	0.079	0.098
-637.624	-125.903	-0.393	0.059
-636.609	-100.727	0.105	0.026
-635.595	-76.464	-0.215	-0.076
-634.580	438.864	-0.142	-0.310
-633.565	199.001	-0.112	0.171
-632.551	-94.088	-0.182	-0.050
-631.536	233.881	0.059	-0.098
-630.522	-148.475	0.282	-0.023
-629.507	-200.000	-0.019	0.178
-628.492	-167.274	-0.326	-0.013
-627.478	-128.032	0.134	-0.019
-626.463	115.691	-0.078	-0.095
-625.449	-23.920	-0.094	-0.056
-624.434	275.291	0.089	-0.158
-623.419	643.877	0.154	0.393
-622.405	50.291	-0.236	-0.223
-621.390	19.046	-0.122	0.098
-620.376	-200.000	-0.016	0.251
-619.361	-200.000	-0.021	0.152
-618.346	52.397	-0.202	-0.193
-617.332	-43.663	-0.124	0.063
-616.317	-200.000	0.035	0.380
-615.303	147.853	0.266	0.359
-614.288	447.162	-0.032	-0.070
-613.273	-52.380	0.424	0.197
-612.259	-4.822	-0.093	0.064
-611.244	-152.469	-0.193	0.014
-610.230	-53.527	-0.171	0.078
-609.215	800.000	0.056	0.208
-608.201	-55.216	0.160	0.072
-607.186	-121.134	0.313	-0.053
-606.171	-12.567	-0.180	-0.118
-605.157	-170.205	0.230	-0.008
-604.142	-67.332	-0.553	0.218
-603.128	-4.108	0.153	0.106
-602.113	72.976	0.173	-0.181
-601.098	-173.726	-0.081	0.002
-600.084	-23.334	-0.415	-0.249
-599.069	-200.000	-0.028	0.337
-598.055	800.000	0.084	0.320
-597.040	100.714	-0.035	0.040
-596.025	67.881	-0.155	0.158
-595.011	350.372	0.162	-0.321
-593.996	800.000	-0.017	-0.056
-592.982	60.200	-0.146	-0.144
-591.967	-200.000	-0.006	0.029
-590.952	-200.000	0.042	-0.554
-589.938	-43.147	-0.180	-0.091
-588.923	-129.179	0.356	-0.050
-587.909	151.945	-0.228	-0.311
-586.894	-126.512	-0.351	-0.052
-585.879	-80.440	-0.218	0.073
-584.865	18.981	0.110	-0.088
-583.850	190.552	-0.219	0.329
-582.836	-127.435	-0.231	0.034
-581.821	-200.000	-0.019	0.108
-580.806	384.287	-0.021	0.043
-579.792	225.586	0.179	-0.289
-578.777	166.716	-0.228	0.323
-577.763	-16.733	-0.166	0.105
-576.748	577.043	-0.190	-0.464
-575.733	3.828	-0.295	-0.216
-574.719	-25.536	-0.177	0.104
-573.704	800.000	0.067	-0.245
-572.690	694.208	0.098	0.256
-571.675	-130.086	0.062	0.009
-570.661	-46.672	-0.399	0.196
-569.646	35.835	-0.332	0.292
-568.631	-15.402	-0.197	-0.126
-567.617	55.162	0.370	-0.357
-566.602	200.370	0.058	0.089
-565.588	202.224	-0.135	0.209
-564.573	308.713	-0.027	-0.050
-563.558	-56.545	0.212	0.094
-562.544	114.485	-0.177	0.215
-561.529	-87.697	0.329	0.099
-560.515	-200.000	0.038	-0.173
-559.500	-200.000	-0.023	0.332
-558.485	-81.501	0.159	-0.052
-557.471	381.574	-0.088	-0.180
-556.456	-200.000	0.012	0.156
-555.442	187.846	0.182	0.272
-554.427	-97.056	0.271	0.071
-553.412	-88.781	-0.061	0.018
-552.398	-143.878	-0.254	0.024
-551.383	-74.786	-0.320	0.115
-550.369	158.629	0.126	-0.174
-549.354	-200.000	0.007	-0.271
-548.339	-200.000	0.006	-0.200
-547.325	178.489	-0.055	0.081
-546.310	40.256	0.234	0.210
-545.296	18.090	0.220	0.175
-544.281	86.657	0.085	-0.094
-543.266	21.729	-0.243	-0.198
-542.252	22.744	0.250	-0.204
-541.237	-44.723	0.263	0.131
-540.223	800.000	-0.051	0.215
-539.208	-121.760	-0.287	-0.047
-538.193	-58.465	-0.040	-0.017
-537.179	-91.312	0.301	0.086
-536.164	142.600	-0.195	0.258
-535.150	86.065	0.226	-0.248
-534.135	-22.380	-0.117	-0.071
-533.121	-200.000	-0.008	-0.105
-532.106	457.622	-0.095	-0.210
-531.091	753.000	-0.122	0.328
-530.077	-200.000	-0.038	0.169
-529.062	58.517	0.395	-0.386
-528.048	800.000	0.031	-0.115
-527.033	-48.962	0.313	0.150
-526.018	-81.590	0.315	-0.103
-525.004	-9.668	-0.116	-0.077
-523.989	75.625	-0.102	0.107
-522.975	137.412	0.250	0.326
-521.960	-33.667	-0.135	0.075
-520.945	-200.000	0.003	0.146
-519.931	76.881	0.163	0.173
-518.916	70.383	0.017	0.018
-517.902	-200.000	0.015	0.452
-516.887	-41.184	-0.230	-0.119
-515.872	-31.995	0.249	-0.139
-514.858	-90.549	0.250	0.072
-513.843	-53.066	0.264	-0.121
-512.829	-98.905	0.103	-0.026
-511.814	110.326	0.006	0.008
-510.799	619.530	0.074	0.186
-509.785	182.632	-0.066	0.096
-508.770	528.244	-0.100	-0.234
-507.756	800.000	0.181	-0.505
-506.741	366.098	0.027	0.054
-505.726	-200.000	-0.045	0.238
-504.712	118.380	-0.149	0.184
-503.697	94.400	0.024	0.027
-502.683	-200.000	-0.039	-0.281
-501.668	800.000	-0.108	0.334
-500.653	25.383	-0.313	0.259
-499.639	-72.715	-0.199	0.073
-498.624	-185.998	0.265	0.004
-497.610	800.000	0.028	-0.111
-496.595	-13.946	0.099	0.063
-495.581	-87.784	-0.205	-0.062
-494.566	800.000	0.096	-0.283
-493.551	-97.458	0.390	-0.101
-492.537	-145.449	0.306	-0.027
-491.522	800.000	0.066	0.213
-490.508	-88.573	-0.179	-0.053
-489.493	-133.521	-0.169	0.021
-488.478	-64.059	-0.044	-0.018
-487.464	-50.988	-0.169	-0.079
-486.449	-200.000	-0.002	0.068
-485.435	428.054	0.189	0.407
-484.420	17.359	0.160	-0.127
-483.405	-69.591	-0.104	-0.040
-482.391	-162.583	-0.302	-0.015
-481.376	-134.569	0.093	-0.011
-480.362	-108.394	-0.241	-0.052
-479.347	131.702	0.202	-0.259
-478.332	-151.522	0.168	0.012
-477.318	-200.000	-0.032	0.225
-476.303	-84.048	0.101	-0.032
-475.289	231.555	-0.176	0.287
-474.274	-152.215	-0.244	0.018
-473.259	-89.496	0.351	0.103
-472.245	186.562	0.208	0.308
-471.230	39.604	-0.195	0.174
-470.216	800.000	-0.024	0.069
-469.201	36.549	0.172	0.151
-468.186	410.796	0.107	-0.226
-467.172	800.000	0.039	-0.125
-466.157	705.886	0.108	0.283
-465.143	122.834	0.014	-0.017
-464.128	800.000	-0.057	-0.222
-463.113	245.119	-0.220	-0.368
-462.099	1.754	-0.309	-0.222
-461.084	-111.175	0.211	0.043
-460.070	800.000	-0.060	-0.175
-459.055	-200.000	0.030	-0.341
-458.040	93.625	0.120	0.135
-457.026	-200.000	0.002	0.218
-456.011	61.475	0.043	-0.042
-454.997	-84.204	-0.093	0.029
-453.982	800.000	0.010	0.036
-452.968	181.302	-0.145	0.212
-451.953	-94.847	-0.293	-0.079
-450.938	800.000	0.081	-0.274
-449.924	-76.743	0.073	0.025
-448.909	-83.918	0.283	0.090
-447.895	800.000	-0.086	0.260
-446.880	10.176	-0.077	-0.058
-445.865	800.000	0.027	0.099
-444.851	-200.000	0.036	-0.164
-443.836	-54.670	-0.116	-0.052
-442.822	29.643	-0.158	0.133
-441.807	-144.648	-0.052	0.005
-440.792	-116.746	0.071	-0.013
-439.778	6.211	-0.281	-0.207
-438.763	238.185	0.048	-0.080
-437.749	-0.173	0.076	-0.054
-436.734	-121.911	0.142	-0.023
-435.719	307.249	0.046	0.084
-434.705	-200.000	-0.033	0.170
-433.690	-97.934	0.052	-0.013
-432.676	-30.239	-0.210	-0.119
-431.661	800.000	-0.072	0.203
-430.646	341.031	0.116	0.226
-429.632	295.454	0.143	0.261
-428.617	12.703	-0.239	0.183
-427.603	-175.023	-0.275	0.008
-426.588	357.881	0.200	-0.398
-425.573	-200.000	-0.007	0.078
-424.559	-127.316	0.358	-0.052
-423.544	122.897	0.023	-0.029
-422.530	-1.311	-0.240	-0.168
-421.515	-122.026	0.242	-0.039
-420.500	-66.270	-0.177	0.070
-419.486	-200.000	-0.009	0.153
-418.471	-134.932	-0.183	-0.022
-417.457	-149.859	-0.073	0.006
-416.442	-88.011	0.360	-0.107
-415.428	-154.795	0.227	-0.015
-414.413	186.028	0.092	0.135
-413.398	363.408	-0.104	-0.207
-412.384	-123.820	-0.161	-0.025
-411.369	452.717	0.081	0.177
-410.355	52.208	0.121	0.115
-409.340	397.164	-0.167	-0.347
-408.325	-158.910	-0.128	-0.007
-407.311	-12.140	0.139	0.090
-406.296	-165.787	0.114	-0.005
-405.282	1.068	-0.068	-0.048
-404.267	253.812	0.088	-0.150
-403.252	800.000	0.163	-0.532
-402.238	-8.974	-0.572	-0.380
-401.223	368.669	-0.166	0.334
-400.209	-200.000	0.006	-0.056
-399.194	-140.229	0.343	0.036
-398.179	332.630	0.150	-0.287
-397.165	-45.790	0.110	0.054
-396.150	161.393	0.053	0.074
-395.136	800.000	-0.078	0.293
-394.121	63.608	-0.067	-0.067
-393.106	-200.000	-0.003	-0.124
-392.092	800.000	0.096	-0.367
-391.077	258.603	0.115	-0.197
-390.063	153.007	0.086	0.117
-389.048	-4.546	-0.297	-0.203
-388.033	-200.000	0.022	-0.352
-387.019	-46.805	-0.106	0.051
-386.004	-200.000	0.030	0.216
-384.990	375.817	0.118	0.238
-383.975	800.000	-0.132	0.460
-382.960	52.907	0.304	0.288
-381.946	98.847	-0.030	-0.034
-380.931	-90.118	0.277	-0.080
-379.917	-200.000	-0.028	0.195
-378.902	-200.000	-0.008	0.046
-377.888	800.000	0.071	-0.205
-376.873	395.622	-0.086	-0.178
-375.858	-200.000	-0.008	-0.214
-374.844	-124.856	0.383	0.059
-373.829	-200.000	0.004	0.048
-372.815	-28.767	-0.062	-0.036
-371.800	-71.953	0.097	0.036
-370.785	-167.379	0.204	-0.008
-369.771	-62.342	-0.208	0.086
-368.756	-200.000	0.013	0.059
-367.742	-109.347	0.185	0.039
-366.727	433.704	0.172	0.369
-365.712	19.975	-0.317	-0.253
-364.698	128.863	0.215	-0.271
-363.683	-44.984	-0.241	-0.119
-362.669	150.296	-0.056	0.075
-361.654	-164.787	0.347	0.015
-360.639	19.446	0.075	-0.060
-359.625	800.000	0.031	-0.130
-358.610	102.746	0.257	-0.298
-357.596	277.037	0.134	-0.236
-356.581	305.302	0.111	-0.205
-355.566	-200.000	0.020	0.238
-354.552	-145.106	0.276	-0.025
-353.537	-8.668	-0.107	-0.071
-352.523	509.574	0.098	0.225
-351.508	800.000	0.122	-0.425
-350.493	-75.328	-0.209	-0.074
-349.479	-200.000	-0.033	-0.233
-348.464	8.731	-0.184	-0.137
-347.450	138.350	0.124	0.161
-346.435	-200.000	0.022	-0.132
-345.420	-131.719	0.341	0.044
-344.406	-95.365	0.330	-0.088
-343.391	-140.884	-0.215	-0.022
-342.377	-139.051	0.121	0.013
-341.362	736.051	-0.036	-0.095
-340.348	-93.280	0.122	-0.034
-339.333	59.734	-0.211	0.207
-338.318	-110.469	0.554	-0.114
-337.304	192.060	-0.189	0.283
-336.289	-196.209	-0.179	0.001
-335.275	6.421	-0.139	0.102
-334.260	-131.550	0.148	0.019
-333.245	-200.000	0.047	0.246
-332.231	-39.278	-0.405	-0.210
-331.216	24.053	-0.188	-0.153
-330.202	-85.050	-0.103	-0.032
-329.187	-200.000	0.014	-0.121
-328.172	713.043	0.063	-0.165
-327.158	-124.903	0.346	-0.053
-326.143	-13.260	-0.154	0.099
-325.129	27.172	-0.090	-0.075
-324.114	800.000	-0.018	-0.074
-323.099	-34.356	-0.192	-0.104
-322.085	800.000	-0.060	-0.224
-321.070	800.000	-0.107	0.317
-320.056	5.555	0.103	0.076
-319.041	-200.000	0.012	-0.272
-318.026	6.561	0.222	-0.164
-317.012	583.554	-0.094	0.230
-315.997	-145.942	-0.203	-0.018
-314.983	-23.344	-0.126	-0.075
-313.968	339.575	0.169	0.327
-312.953	313.790	0.085	0.157
-311.939	-200.000	0.022	0.149
-310.924	-137.561	-0.348	-0.039
-309.910	-161.056	-0.264	0.014
-308.895	-45.452	-0.154	0.075
-307.880	800.000	0.121	-0.388
-306.866	-29.348	-0.178	-0.101
-305.851	-18.697	-0.459	0.283
-304.837	372.736	-0.103	-0.207
-303.822	-6.669	0.050	-0.034
-302.807	443.552	0.081	0.176
-301.793	-21.399	-0.282	0.170
-300.778	-131.729	0.240	-0.031
-299.764	255.385	-0.090	0.152
-298.749	-200.000	-0.042	0.268
-297.735	1.605	-0.351	0.250
-296.720	-54.638	0.069	0.031
-295.705	708.766	0.083	-0.216
-294.691	-118.107	-0.142	-0.025
-293.676	-128.474	-0.569	-0.080
-292.662	5.961	-0.067	0.049
-291.647	800.000	-0.071	-0.214
-290.632	-200.000	-0.014	-0.272
-289.618	-175.441	-0.064	-0.002
-288.603	-46.061	0.156	0.076
-287.589	589.823	0.112	0.273
-286.574	133.361	-0.173	0.220
-285.559	-136.225	-0.079	-0.009
-284.545	-13.127	-0.370	0.238
-283.530	-177.018	0.285	-0.007
-282.516	-200.000	-0.061	-0.291
-281.501	-56.831	-0.040	0.017
-280.486	-200.000	-0.005	0.089
-279.472	18.870	-0.134	-0.106
-278.457	31.848	-0.198	0.169
-277.443	-87.833	-0.373	-0.111
-276.428	-140.393	-0.105	-0.011
-275.413	-200.000	-0.005	-0.114
-274.399	78.643	0.302	-0.319
-273.384	425.359	0.042	-0.090
-272.370	-65.878	0.090	0.036
-271.355	8.051	0.236	0.175
-270.340	147.032	-0.158	0.209
-269.326	786.384	-0.072	-0.195
-268.311	-200.000	0.010	-0.270
-267.297	-117.254	-0.413	-0.074
-266.282	-200.000	0.004	0.406
-265.267	127.060	-0.062	0.078
-264.253	-200.000	-0.014	-0.308
-263.238	207.427	-0.129	0.199
-262.224	-63.449	0.329	0.134
-261.209	-200.000	0.086	0.433
-260.195	-200.000	-0.052	0.258
-259.180	-4.882	-0.408	0.278
-258.165	-18.669	-0.021	0.013
-257.151	35.068	-0.165	0.142
-256.136	-29.817	0.301	-0.169
-255.122	-82.940	-0.217	0.069
-254.107	-200.000	0.011	-0.070
-253.092	65.496	0.077	0.077
-252.078	-200.000	-0.015	0.398
-251.063	113.251	0.179	-0.214
-250.049	613.610	0.045	0.111
-249.034	-96.129	0.231	0.060
-248.019	-200.000	-0.003	0.225
-247.005	2.082	-0.043	-0.030
-245.990	-78.533	-0.034	-0.011
-244.976	29.619	-0.247	0.207
-243.961	800.000	0.009	0.031
-242.946	-102.918	0.201	-0.047
-241.932	37.841	-0.184	-0.161
-240.917	-35.368	-0.188	-0.101
-239.903	590.882	-0.051	-0.125
-238.888	800.000	-0.104	0.303
-237.873	800.000	-0.035	-0.149
-236.859	2.649	-0.078	0.056
-235.844	-168.252	0.351	0.013
-234.830	65.998	-0.123	-0.123
-233.815	-200.000	-0.039	-0.172
-232.800	-73.963	-0.247	0.089
-231.786	-54.652	-0.273	-0.122
-230.771	-91.456	0.124	0.035
-229.757	5.362	0.244	0.177
-228.742	-200.000	0.026	-0.130
-227.727	101.034	-0.158	0.181
-226.713	800.000	0.048	0.163
-225.698	-200.000	-0.069	-0.363
-224.684	-20.551	0.200	-0.121
-223.669	-200.000	-0.004	-0.202
-222.655	-19.720	0.206	-0.126
-221.640	47.074	0.166	-0.153
-220.625	800.000	-0.036	-0.124
-219.611	432.619	0.141	0.301
-218.596	-200.000	-0.004	0.153
-217.582	800.000	-0.036	-0.145
-216.567	-119.362	0.151	0.026
-215.552	800.000	0.065	0.270
-214.538	58.766	-0.272	0.264
-213.523	-200.000	-0.040	0.175
-212.509	-49.673	0.164	0.077
-211.494	-45.716	-0.157	0.076
-210.479	-64.804	0.224	0.089
-209.465	647.734	-0.096	-0.241
-208.450	112.751	0.071	-0.085
-207.436	102.869	0.086	-0.099
-206.421	-112.799	-0.311	0.061
-205.406	76.674	0.126	-0.132
-204.392	800.000	0.141	-0.438
-203.377	24.653	0.100	0.082
-202.363	451.896	-0.035	-0.077
-201.348	-192.428	0.222	-0.002
-200.333	94.589	0.045	-0.050
-199.319	75.713	-0.173	-0.180
-198.304	-153.290	0.574	-0.039
-197.290	113.420	0.142	-0.170
-196.275	64.754	-0.201	-0.199
-195.260	-17.950	0.436	-0.269
-194.246	175.156	0.364	-0.520
-193.231	-200.000	-0.026	-0.231
-192.217	-67.438	0.261	0.101
-191.202	528.455	0.062	-0.144
-190.187	133.314	-0.121	0.154
-189.173	800.000	-0.096	-0.320
-188.158	-200.000	0.031	-0.184
-187.144	34.306	0.331	-0.284
-186.129	800.000	0.051	0.176
-185.114	-200.000	0.009	0.140
-184.100	385.541	0.076	0.155
-183.085	-4.972	0.125	0.084
-182.071	-200.000	-0.078	0.392
-181.056	-4.757	-0.165	0.112
-180.042	-58.735	0.339	-0.145
-179.027	-65.148	-0.426	-0.169
-178.012	226.878	-0.032	0.052
-176.998	-12.895	0.121	-0.078
-175.983	-161.842	0.222	-0.011
-174.969	-55.999	0.079	-0.035
-173.954	309.700	-0.063	0.117
-172.939	587.773	-0.013	-0.031
-171.925	-68.376	-0.048	0.018
-170.910	43.116	0.232	0.208
-169.896	95.358	-0.047	0.052
-168.881	800.000	-0.093	0.293
-167.866	-83.644	0.329	-0.103
-166.852	800.000	-0.061	-0.224
-165.837	800.000	-0.015	0.055
-164.823	-71.858	-0.113	0.041
-163.808	419.688	0.092	0.194
-162.793	110.047	0.352	-0.416
-161.779	100.482	0.163	-0.186
-160.764	705.581	-0.063	0.164
-159.750	-200.000	-0.024	-0.267
-158.735	9.723	0.141	-0.105
-157.720	43.419	0.347	-0.312
-156.706	-93.712	-0.380	0.103
-155.691	-51.386	0.183	-0.084
-154.677	800.000	-0.076	0.251
-153.662	-138.827	-0.347	-0.037
-152.647	14.401	-0.219	0.168
-151.633	194.401	0.162	0.241
-150.618	200.134	-0.269	-0.406
-149.604	-168.610	0.092	0.003
-148.589	-200.000	0.090	0.000
-147.574	-77.152	-0.084	0.029
-146.560	343.162	-0.107	0.205
-145.545	-132.593	-0.176	0.022
-144.531	-0.293	0.276	-0.193
-143.516	624.296	0.109	0.269
-142.502	-17.686	0.069	-0.043
-141.487	150.752	-0.193	-0.257
-140.472	-14.381	0.273	-0.173
-139.458	40.126	-0.097	-0.086
-138.443	219.307	0.139	0.219
-137.429	-200.000	-0.031	-0.148
-136.414	141.156	0.171	-0.222
-135.399	73.832	0.256	-0.264
-134.385	-1.695	-0.264	0.182
-133.370	-187.097	-0.239	-0.003
-132.356	-16.277	0.263	-0.164
-131.341	-200.000	0.023	-0.144
-130.326	689.223	0.034	0.088
-129.312	-200.000	0.043	0.222
-128.297	585.622	0.040	0.096
-127.283	363.110	0.139	0.274
-126.268	34.728	-0.254	-0.218
-125.253	-164.806	0.216	0.010
-124.239	63.633	0.083	-0.082
-123.224	55.018	-0.107	0.101
-122.210	800.000	0.154	0.597
-121.195	307.117	0.109	0.200
