DTS Sentinel unit serial number:	SN413079Multiplexer serial number:	ORYXHardware model number:	OX4-SRSoftware version number:	ORYX F/W v4.00 Oryx Data Collector v3.7.2.0data status	okinstallation	princeton_trtdifferential loss correction	single-endedforward channel	channel 1reverse channel	N/Adate	2019/09/18time	23:42:35forward acquisition time	60.00reverse acquisition time	0.00gamma	496.2192k internal	0.2341k external	0.2341temperature offset calibration	1.0023default loss term (dB/km)	0.3790temperature slope calibration	1.0000multiplexer offset coefficient	1.0000multiplexer slope coefficient	1.0000fibre end	0.00T internal ref (°C)	23.44T ext. ref 1 (°C)	0.76T ext. ref 2 (°C)	16.27length (m)	temperature (°C)	Stokes	anti-Stokes-747.200	114.464	0.206	0.251
-746.185	148.979	0.146	-0.197
-745.171	672.373	-0.125	0.325
-744.156	520.929	0.088	0.206
-743.142	20.466	-0.097	0.078
-742.127	-62.796	-0.232	0.096
-741.112	85.899	-0.082	-0.090
-740.098	-80.912	-0.196	-0.065
-739.083	14.280	-0.228	-0.178
-738.069	-200.000	-0.039	0.171
-737.054	713.547	0.062	0.165
-736.039	167.728	-0.104	-0.148
-735.025	-200.000	0.021	0.177
-734.010	114.721	-0.389	0.475
-732.996	309.751	0.167	-0.312
-731.981	800.000	0.085	-0.290
-730.966	80.754	0.216	0.233
-729.952	6.669	-0.222	0.166
-728.937	76.987	-0.325	-0.346
-727.923	-52.136	-0.120	0.056
-726.908	-200.000	-0.023	-0.237
-725.894	100.577	-0.104	-0.120
-724.879	207.637	-0.080	-0.126
-723.864	-17.821	-0.154	-0.097
-722.850	8.189	-0.164	0.123
-721.835	-83.384	0.215	-0.069
-720.821	-200.000	0.005	-0.113
-719.806	-87.746	0.086	-0.026
-718.791	-57.057	-0.199	-0.088
-717.777	800.000	0.033	-0.106
-716.762	556.251	-0.014	0.033
-715.748	290.426	0.261	-0.475
-714.733	29.970	-0.141	-0.121
-713.718	15.850	-0.129	0.101
-712.704	-10.068	-0.211	-0.140
-711.689	-23.573	-0.241	0.145
-710.675	-107.690	0.198	0.043
-709.660	-200.000	-0.017	0.409
-708.645	-200.000	0.004	0.170
-707.631	33.908	-0.190	-0.166
-706.616	43.887	0.138	-0.126
-705.602	222.434	0.220	0.355
-704.587	-8.218	-0.149	-0.100
-703.572	5.212	-0.097	-0.071
-702.558	-62.104	0.359	0.150
-701.543	21.666	-0.091	0.074
-700.529	341.110	0.119	0.233
-699.514	-36.388	-0.198	0.107
-698.499	-101.976	0.130	0.031
-697.485	-200.000	0.057	0.327
-696.470	284.356	-0.041	-0.075
-695.456	-200.000	-0.008	0.104
-694.441	-200.000	-0.007	0.110
-693.426	-164.363	-0.130	0.006
-692.412	39.804	-0.075	0.067
-691.397	-40.162	-0.210	0.110
-690.383	85.564	0.112	-0.123
-689.368	-77.762	0.115	0.040
-688.354	31.289	0.296	-0.254
-687.339	6.487	-0.173	0.129
-686.324	-35.837	-0.441	0.239
-685.310	-133.281	-0.238	-0.030
-684.295	-200.000	-0.022	0.102
-683.281	800.000	0.021	0.072
-682.266	257.735	0.106	0.182
-681.251	-131.221	-0.264	-0.035
-680.237	-200.000	0.019	-0.107
-679.222	-200.000	0.001	0.018
-678.208	-19.793	0.125	-0.077
-677.193	81.158	-0.065	0.070
-676.178	-200.000	-0.022	0.148
-675.164	800.000	-0.019	0.065
-674.149	-200.000	0.021	-0.165
-673.135	-117.223	0.177	0.032
-672.120	285.139	0.019	0.035
-671.105	800.000	-0.059	-0.213
-670.091	268.100	-0.052	-0.091
-669.076	-60.127	0.013	0.005
-668.062	-42.767	0.118	0.060
-667.047	-9.388	0.291	0.194
-666.032	-31.873	-0.353	0.198
-665.018	-172.802	-0.358	0.011
-664.003	-4.615	-0.303	0.209
-662.989	766.653	0.024	-0.065
-661.974	-200.000	0.005	-0.069
-660.959	-56.501	-0.187	-0.083
-659.945	-94.521	0.070	-0.019
-658.930	-200.000	0.015	0.232
-657.916	-24.731	0.082	-0.049
-656.901	83.031	0.183	-0.199
-655.886	17.072	0.167	0.132
-654.872	800.000	0.027	0.087
-653.857	490.788	-0.102	-0.233
-652.843	532.765	-0.043	-0.103
-651.828	-170.819	-0.101	-0.003
-650.814	-18.656	0.078	-0.048
-649.799	256.612	0.177	0.303
-648.784	194.732	0.058	0.087
-647.770	-90.169	0.079	-0.023
-646.755	-45.221	0.204	0.101
-645.741	-149.519	-0.215	0.017
-644.726	600.438	-0.063	0.156
-643.711	800.000	0.032	0.128
-642.697	100.487	0.184	0.213
-641.682	3.015	0.054	-0.039
-640.668	39.577	-0.217	-0.194
-639.653	-12.964	-0.280	-0.182
-638.638	80.301	0.049	-0.052
-637.624	-200.000	-0.048	0.276
-636.609	171.572	-0.182	-0.261
-635.595	434.671	-0.128	-0.277
-634.580	-103.544	0.094	0.022
-633.565	119.366	0.074	0.091
-632.551	230.896	0.157	-0.257
-631.536	-148.888	0.320	0.026
-630.522	800.000	-0.053	0.175
-629.507	-75.252	-0.121	-0.043
-628.492	272.066	0.074	0.130
-627.478	8.525	-0.066	0.050
-626.463	-40.504	-0.099	0.051
-625.449	640.155	0.066	-0.166
-624.434	285.506	0.026	-0.047
-623.419	-200.000	0.017	-0.106
-622.405	262.485	0.210	-0.364
-621.390	-66.862	0.053	0.021
-620.376	-61.251	-0.232	-0.097
-619.361	-129.431	0.263	-0.036
-618.346	114.263	-0.108	0.130
-617.332	80.474	0.151	0.162
-616.317	12.232	-0.162	0.125
-615.303	-200.000	-0.041	-0.250
-614.288	800.000	0.054	-0.155
-613.273	-60.430	-0.143	-0.060
-612.259	-117.893	-0.399	-0.071
-611.244	-164.011	-0.258	-0.012
-610.230	98.566	-0.130	0.149
-609.215	-200.000	-0.004	-0.297
-608.201	-11.230	-0.047	0.031
-607.186	-200.000	0.033	-0.254
-606.171	800.000	0.100	0.348
-605.157	-156.158	0.049	0.003
-604.142	-160.985	-0.236	0.012
-603.128	107.191	-0.213	-0.252
-602.113	148.639	0.067	0.091
-601.098	705.338	-0.120	0.317
-600.084	-50.088	-0.212	0.100
-599.069	-200.000	-0.024	-0.345
-598.055	-65.321	-0.342	0.137
-597.040	243.464	-0.119	0.199
-596.025	127.059	-0.014	-0.018
-595.011	263.732	-0.127	-0.221
-593.996	42.344	0.120	0.109
-592.982	-167.829	-0.277	-0.011
-591.967	15.130	-0.038	0.030
-590.952	25.520	-0.119	0.099
-589.938	14.324	0.069	0.053
-588.923	282.736	-0.143	-0.256
-587.909	-117.333	-0.213	0.038
-586.894	282.176	0.240	0.428
-585.879	202.575	-0.170	-0.262
-584.865	-200.000	-0.053	-0.257
-583.850	-24.592	-0.135	0.080
-582.836	-58.377	0.283	-0.123
-581.821	-106.053	-0.076	-0.017
-580.806	-200.000	-0.063	-0.301
-579.792	29.437	-0.286	-0.242
-578.777	85.718	0.075	-0.082
-577.763	526.731	0.052	0.122
-576.748	101.524	-0.253	0.293
-575.733	-200.000	-0.060	0.365
-574.719	115.832	-0.064	0.078
-573.704	-156.097	0.080	-0.005
-572.690	800.000	0.088	0.295
-571.675	14.964	-0.054	0.042
-570.661	-161.400	0.431	-0.022
-569.646	800.000	-0.169	-0.625
-568.631	-122.899	-0.281	0.045
-567.617	293.927	0.086	0.157
-566.602	800.000	-0.036	0.119
-565.588	385.010	0.083	-0.170
-564.573	99.897	0.206	-0.237
-563.558	365.558	0.093	0.186
-562.544	37.265	0.132	-0.116
-561.529	-200.000	0.014	-0.240
-560.515	-98.443	-0.230	0.059
-559.500	-200.000	-0.004	-0.030
-558.485	20.696	-0.181	-0.146
-557.471	-108.948	-0.105	-0.022
-556.456	-21.874	0.284	-0.172
-555.442	-130.805	0.239	0.032
-554.427	800.000	-0.107	-0.325
-553.412	-128.171	0.308	-0.044
-552.398	102.315	-0.214	0.248
-551.383	-200.000	0.023	0.289
-550.369	800.000	0.031	-0.099
-549.354	18.493	-0.208	-0.165
-548.339	-16.012	0.253	0.160
-547.325	-122.035	-0.168	-0.027
-546.310	-24.727	-0.051	0.030
-545.296	-134.775	0.191	-0.023
-544.281	-200.000	-0.008	0.128
-543.266	70.358	-0.075	0.077
-542.252	-51.355	0.233	-0.108
-541.237	-200.000	0.008	0.241
-540.223	800.000	0.039	0.143
-539.208	-16.155	-0.281	-0.177
-538.193	-125.497	-0.093	0.014
-537.179	149.775	-0.095	-0.128
-536.164	-173.074	0.152	-0.005
-535.150	-200.000	0.028	0.442
-534.135	427.853	-0.023	-0.050
-533.121	-152.243	0.254	0.018
-532.106	-200.000	-0.035	0.222
-531.091	78.078	-0.022	0.023
-530.077	15.223	-0.136	-0.106
-529.062	-104.653	-0.335	-0.077
-528.048	-65.143	0.189	-0.076
-527.033	-101.765	0.168	0.040
-526.018	60.087	0.133	0.130
-525.004	-200.000	-0.012	-0.256
-523.989	-145.869	0.266	-0.024
-522.975	800.000	0.041	-0.150
-521.960	-165.819	0.078	-0.003
-520.945	-200.000	-0.038	0.252
-519.931	-106.526	-0.136	-0.030
-518.916	57.263	-0.108	-0.105
-517.902	-76.916	0.177	-0.062
-516.887	-88.002	0.255	0.076
-515.872	35.835	-0.195	-0.171
-514.858	39.378	0.103	-0.091
-513.843	67.276	0.273	-0.277
-512.829	-39.373	0.116	0.060
-511.814	-5.881	-0.195	0.132
-510.799	98.768	0.123	-0.140
-509.785	78.084	-0.064	0.068
-508.770	29.287	-0.122	0.103
-507.756	205.838	0.071	0.110
-506.741	-189.234	-0.062	-0.001
-505.726	-36.048	-0.072	0.038
-504.712	368.765	-0.101	-0.204
-503.697	-6.674	0.258	0.174
-502.683	44.984	-0.103	-0.094
-501.668	-200.000	-0.003	0.317
-500.653	-116.300	-0.139	-0.026
-499.639	-200.000	0.014	-0.223
-498.624	-96.895	0.032	-0.008
-497.610	-200.000	0.032	-0.236
-496.595	120.515	-0.044	0.054
-495.581	800.000	0.067	-0.277
-494.566	-200.000	-0.010	0.137
-493.551	-200.000	-0.001	-0.067
-492.537	-200.000	-0.001	-0.026
-491.522	800.000	0.099	0.301
-490.508	57.967	0.112	-0.109
-489.493	-200.000	0.071	-0.438
-488.478	-153.130	0.292	-0.020
-487.464	-119.465	-0.017	0.003
-486.449	-200.000	-0.048	-0.252
-485.435	626.494	-0.052	0.130
-484.420	-200.000	0.025	-0.233
-483.405	573.232	-0.123	0.298
-482.391	-200.000	-0.022	-0.353
-481.376	154.604	0.079	0.107
-480.362	240.089	0.191	-0.316
-479.347	-71.086	-0.111	0.042
-478.332	-200.000	-0.029	-0.149
-477.318	89.465	0.135	0.149
-476.303	121.466	0.053	0.066
-475.289	-89.139	0.111	-0.033
-474.274	141.214	-0.295	-0.387
-473.259	-159.483	0.349	0.019
-472.245	32.265	0.163	-0.140
-471.230	-200.000	-0.007	0.155
-470.216	178.109	0.154	0.223
-469.201	-200.000	-0.000	0.203
-468.186	-200.000	-0.031	0.274
-467.172	-89.446	-0.081	-0.024
-466.157	2.516	0.123	-0.089
-465.143	-91.246	-0.088	-0.025
-464.128	-13.315	-0.267	-0.172
-463.113	-1.806	-0.188	-0.131
-462.099	-91.849	-0.344	-0.097
-461.084	66.282	0.105	-0.106
-460.070	-4.332	0.216	0.148
-459.055	-200.000	0.015	0.075
-458.040	800.000	-0.080	0.236
-457.026	422.985	-0.124	-0.264
-456.011	140.063	0.179	-0.234
-454.997	-34.973	0.085	0.046
-453.982	220.559	-0.098	-0.155
-452.968	-200.000	0.022	-0.183
-451.953	83.664	0.123	-0.132
-450.938	-151.194	-0.213	-0.016
-449.924	-200.000	0.010	0.147
-448.909	-200.000	-0.063	0.572
-447.895	-120.050	0.318	0.054
-446.880	-200.000	-0.011	-0.339
-445.865	758.746	-0.077	-0.207
-444.851	-200.000	-0.008	-0.266
-443.836	-49.010	-0.090	0.042
-442.822	-106.700	-0.129	0.028
-441.807	423.900	-0.110	0.234
-440.792	-200.000	0.000	-0.002
-439.778	-91.924	0.175	-0.049
-438.763	-45.574	0.117	0.057
-437.749	-87.517	0.128	-0.038
-436.734	-60.177	-0.205	-0.087
-435.719	6.101	-0.201	-0.147
-434.705	-200.000	-0.031	-0.473
-433.690	-200.000	-0.042	0.214
-432.676	-42.844	0.282	-0.142
-431.661	-200.000	0.029	0.173
-430.646	448.431	0.118	0.257
-429.632	91.206	0.136	-0.151
-428.617	80.212	0.247	0.263
-427.603	65.004	-0.136	-0.136
-426.588	-108.993	-0.212	-0.045
-425.573	326.627	0.084	-0.160
-424.559	-10.522	0.191	0.125
-423.544	-121.917	0.419	-0.068
-422.530	-120.272	0.050	-0.008
-421.515	-31.190	0.422	0.235
-420.500	-200.000	0.012	0.108
-419.486	-200.000	-0.003	0.369
-418.471	-34.184	0.020	-0.011
-417.457	442.760	0.095	0.205
-416.442	30.366	0.169	-0.143
-415.428	9.430	-0.075	0.056
-414.413	-42.687	0.249	-0.125
-413.398	108.893	-0.127	-0.151
-412.384	800.000	0.101	-0.293
-411.369	-200.000	0.061	0.349
-410.355	50.053	-0.237	0.221
-409.340	-200.000	-0.026	-0.320
-408.325	-114.108	-0.097	-0.019
-407.311	780.894	0.137	0.370
-406.296	-109.525	-0.068	0.014
-405.282	800.000	0.067	0.228
-404.267	-105.151	-0.021	-0.005
-403.252	-158.129	-0.072	0.004
-402.238	-200.000	0.027	0.198
-401.223	-2.815	-0.150	0.103
-400.209	-35.763	-0.082	0.044
-399.194	800.000	-0.026	0.084
-398.179	405.428	-0.077	-0.161
-397.165	-39.249	0.278	0.144
-396.150	70.615	-0.201	0.206
-395.136	190.625	-0.076	0.113
-394.121	164.966	-0.115	-0.160
-393.106	800.000	0.059	-0.174
-392.092	-43.396	-0.122	0.061
-391.077	142.070	0.127	0.166
-390.063	-200.000	-0.070	0.309
-389.048	-33.364	-0.224	0.122
-388.033	738.907	-0.073	0.194
-387.019	-177.785	-0.118	-0.003
-386.004	99.865	0.011	-0.012
-384.990	3.071	0.230	0.165
-383.975	-100.658	-0.367	0.089
-382.960	-108.893	-0.436	0.092
-381.946	108.217	0.131	-0.155
-380.931	404.237	-0.098	-0.204
-379.917	-2.271	-0.244	0.169
-378.902	-60.769	-0.211	0.088
-377.888	495.547	0.150	-0.340
-376.873	800.000	-0.055	-0.165
-375.858	46.368	-0.115	0.106
-374.844	-83.083	0.407	0.129
-373.829	-51.357	-0.279	-0.129
-372.815	-200.000	0.056	-0.310
-371.800	36.668	0.229	-0.200
-370.785	137.341	0.082	-0.105
-369.771	126.378	-0.150	0.188
-368.756	71.614	0.170	0.174
-367.742	396.322	-0.058	-0.119
-366.727	-200.000	-0.037	0.229
-365.712	-200.000	0.001	0.173
-364.698	328.377	-0.091	-0.172
-363.683	-200.000	-0.068	0.300
-362.669	-183.376	-0.138	-0.002
-361.654	-200.000	-0.006	-0.083
-360.639	584.595	0.050	-0.121
-359.625	775.594	-0.080	0.214
-358.610	800.000	0.060	0.188
-357.596	-85.949	0.298	-0.091
-356.581	96.334	-0.103	0.117
-355.566	-99.712	0.185	0.046
-354.552	-174.186	-0.197	0.006
-353.537	-52.435	-0.271	0.124
-352.523	72.631	-0.134	-0.138
-351.508	-200.000	0.020	-0.349
-350.493	-200.000	-0.024	0.205
-349.479	181.070	-0.189	-0.274
-348.464	213.015	0.146	0.227
-347.450	-73.138	-0.040	-0.014
-346.435	542.907	-0.059	0.140
-345.420	129.242	-0.118	0.149
-344.406	-78.120	-0.478	-0.162
-343.391	-43.591	0.159	-0.079
-342.377	-82.101	0.247	0.080
-341.362	86.162	0.286	0.311
-340.348	-62.003	-0.191	0.079
-339.333	16.897	0.059	0.046
-338.318	-41.698	-0.122	-0.062
-337.304	-35.722	-0.201	0.107
-336.289	210.661	-0.080	-0.123
-335.275	800.000	-0.109	-0.318
-334.260	-200.000	0.017	-0.124
-333.245	-182.593	0.294	0.005
-332.231	44.606	0.368	0.334
-331.216	649.248	0.116	0.294
-330.202	-29.374	0.301	-0.170
-329.187	-90.734	-0.321	-0.091
-328.172	-138.851	0.311	-0.033
-327.158	150.835	-0.225	0.301
-326.143	532.751	0.173	0.403
-325.129	-54.537	0.072	-0.032
-324.114	-161.409	-0.233	-0.012
-323.099	4.446	0.249	0.180
-322.085	-200.000	-0.040	-0.218
-321.070	-149.776	-0.529	0.041
-320.056	176.306	0.015	-0.022
-319.041	-200.000	0.034	0.219
-318.026	267.275	-0.140	0.241
-317.012	75.839	-0.187	0.195
-315.997	-148.749	-0.280	0.022
-314.983	-200.000	-0.001	-0.150
-313.968	-63.003	0.144	-0.059
-312.953	108.522	-0.025	0.029
-311.939	-200.000	0.012	0.109
-310.924	411.141	0.126	-0.264
-309.910	-125.714	-0.365	-0.054
-308.895	-200.000	-0.012	-0.276
-307.880	-68.978	0.199	-0.076
-306.866	240.697	0.122	-0.200
-305.851	-200.000	0.039	-0.197
-304.837	-137.868	-0.570	-0.063
-303.822	50.181	0.343	0.319
-302.807	654.730	0.066	-0.167
-301.793	800.000	0.058	-0.233
-300.778	-21.873	-0.259	0.155
-299.764	226.803	-0.104	-0.166
-298.749	-80.487	-0.271	0.089
-297.735	-67.141	-0.069	-0.027
-296.720	225.828	-0.128	0.205
-295.705	46.556	0.180	-0.164
-294.691	257.596	0.228	-0.387
-293.676	13.776	0.222	0.170
-292.662	110.369	-0.204	0.242
-291.647	800.000	0.062	-0.227
-290.632	86.881	0.064	-0.070
-289.618	202.078	-0.083	0.126
-288.603	-200.000	-0.044	0.221
-287.589	800.000	-0.053	-0.163
-286.574	800.000	-0.026	-0.081
-285.559	360.236	-0.052	0.103
-284.545	83.164	0.112	0.120
-283.530	-36.877	0.233	0.123
-282.516	-117.278	-0.022	0.004
-281.501	-200.000	0.010	0.122
-280.486	-200.000	0.002	-0.233
-279.472	-200.000	-0.010	0.108
-278.457	-39.997	-0.189	-0.097
-277.443	-200.000	0.019	-0.282
-276.428	800.000	0.068	-0.256
-275.413	-134.430	-0.234	0.028
-274.399	-75.278	0.333	0.117
-273.384	1.093	0.106	0.075
-272.370	-150.682	0.268	-0.020
-271.355	-143.510	-0.267	-0.025
-270.340	-141.570	0.119	0.012
-269.326	-15.783	-0.247	-0.155
-268.311	662.251	0.087	0.221
-267.297	364.704	0.089	-0.175
-266.282	569.869	-0.012	-0.030
-265.267	-4.964	-0.119	0.080
-264.253	174.936	0.045	-0.065
-263.238	402.172	0.098	-0.202
-262.224	199.361	-0.246	-0.370
-261.209	218.383	-0.170	-0.267
-260.195	103.662	0.216	-0.249
-259.180	182.595	-0.018	0.026
-258.165	295.717	-0.200	-0.360
-257.151	-200.000	0.016	-0.138
-256.136	-89.839	-0.064	0.018
-255.122	-170.073	0.136	-0.005
-254.107	78.061	0.072	-0.076
-253.092	644.962	0.114	0.285
-252.078	-200.000	0.006	0.196
-251.063	800.000	0.070	-0.254
-250.049	29.358	0.253	-0.211
-249.034	-99.846	0.439	-0.108
-248.019	-120.140	-0.303	0.051
-247.005	800.000	-0.006	-0.024
-245.990	-200.000	0.028	-0.174
-244.976	-132.728	-0.059	0.007
-243.961	800.000	0.079	0.279
-242.946	800.000	0.093	0.373
-241.932	-200.000	-0.001	0.340
-240.917	-200.000	0.029	0.154
-239.903	152.603	0.177	0.237
-238.888	-51.099	-0.080	0.037
-237.873	-158.782	0.537	-0.030
-236.859	6.805	-0.028	-0.021
-235.844	-200.000	0.041	0.387
-234.830	257.183	-0.146	-0.247
-233.815	89.542	-0.230	-0.252
-232.800	-7.151	0.269	-0.179
-231.786	117.355	-0.256	0.310
-230.771	-200.000	0.016	-0.096
-229.757	463.709	-0.070	0.153
-228.742	-191.477	0.286	0.003
-227.727	800.000	-0.027	0.097
-226.713	564.092	0.062	0.148
-225.698	537.106	0.186	0.433
-224.684	66.660	0.185	0.185
-223.669	118.974	0.119	0.145
-222.655	162.549	-0.167	0.230
-221.640	278.041	-0.019	-0.034
-220.625	-42.065	0.206	0.103
-219.611	270.844	0.096	-0.166
-218.596	359.336	0.124	-0.244
-217.582	153.717	0.046	-0.062
-216.567	-15.450	-0.204	-0.128
-215.552	-200.000	0.017	-0.201
-214.538	-200.000	-0.019	0.092
-213.523	70.668	0.104	0.106
-212.509	-136.395	-0.113	-0.013
-211.494	-161.087	-0.261	-0.013
-210.479	800.000	0.033	0.123
-209.465	-128.497	0.134	0.019
-208.450	373.945	0.103	0.205
-207.436	-200.000	0.001	-0.114
-206.421	-164.361	-0.436	-0.020
-205.406	-200.000	0.320	0.001
-204.392	-200.000	-0.004	-0.076
-203.377	-56.306	-0.071	-0.031
-202.363	672.366	0.078	0.197
-201.348	-133.024	-0.240	0.030
-200.333	800.000	0.077	0.253
-199.319	228.025	-0.015	-0.025
-198.304	41.438	0.181	0.161
-197.290	15.474	-0.290	-0.224
-196.275	139.426	0.054	-0.070
-195.260	110.837	0.152	0.179
-194.246	49.974	0.019	-0.018
-193.231	660.830	-0.004	0.010
-192.217	800.000	-0.088	-0.285
-191.202	-23.420	-0.139	0.082
-190.187	143.892	0.134	-0.175
-189.173	-200.000	0.027	-0.198
-188.158	-11.720	-0.096	0.062
-187.144	800.000	0.075	0.210
-186.129	-200.000	-0.025	-0.154
-185.114	-21.405	0.144	0.086
-184.100	677.156	-0.062	-0.158
-183.085	-200.000	-0.005	-0.027
-182.071	-14.962	0.214	-0.134
-181.056	-109.891	-0.226	0.046
-180.042	-200.000	-0.009	0.261
-179.027	-180.953	0.145	-0.003
-178.012	-200.000	0.015	0.257
-176.998	64.610	-0.168	0.166
-175.983	240.682	0.025	-0.041
-174.969	266.216	0.093	-0.158
-173.954	90.891	-0.201	0.221
-172.939	-130.707	-0.160	-0.021
-171.925	101.467	0.278	-0.318
-170.910	-200.000	0.040	-0.360
-169.896	-57.279	0.329	-0.142
-168.881	493.692	0.080	0.179
-167.866	-118.689	-0.345	-0.060
-166.852	-4.954	0.217	-0.147
-165.837	-200.000	-0.006	-0.128
-164.823	87.771	-0.108	-0.117
-163.808	-81.430	-0.170	0.055
-162.793	800.000	-0.041	0.120
-161.779	-33.036	-0.349	-0.189
-160.764	-77.825	0.082	0.028
-159.750	-200.000	-0.021	0.248
-158.735	-10.811	0.396	0.256
-157.720	56.590	0.134	0.127
-156.706	-158.513	0.182	-0.010
-155.691	-75.090	0.139	0.049
-154.677	399.713	0.163	0.334
-153.662	65.042	-0.114	-0.113
-152.647	241.186	0.046	-0.076
-151.633	392.125	-0.061	-0.124
-150.618	-200.000	0.021	-0.249
-149.604	518.484	-0.150	-0.344
-148.589	-69.879	0.141	0.053
-147.574	800.000	-0.033	-0.124
-146.560	-200.000	-0.002	-0.033
-145.545	325.488	0.050	0.094
-144.531	-41.227	-0.133	-0.067
-143.516	-200.000	-0.008	0.162
-142.502	82.741	0.165	-0.175
-141.487	-55.625	-0.249	0.109
-140.472	-92.165	-0.394	-0.109
-139.458	-94.538	0.079	-0.021
-138.443	-88.082	-0.478	0.140
-137.429	-200.000	0.016	0.102
-136.414	800.000	0.094	0.304
-135.399	230.319	-0.127	0.203
-134.385	-200.000	-0.001	-0.273
-133.370	-34.245	0.195	0.105
-132.356	6.146	-0.057	-0.041
-131.341	-57.175	0.277	0.119
-130.326	242.034	-0.224	0.367
-129.312	-200.000	0.009	0.080
-128.297	-52.694	0.216	0.097
-127.283	-146.864	-0.271	-0.023
-126.268	-70.035	-0.252	-0.094
-125.253	18.743	-0.295	-0.231
-124.239	115.551	-0.170	-0.204
-123.224	30.149	0.073	0.061
-122.210	-87.759	0.246	0.073
-121.195	77.414	0.175	0.182
