DTS Sentinel unit serial number:	SN413079Multiplexer serial number:	ORYXHardware model number:	OX4-SRSoftware version number:	ORYX F/W v4.00 Oryx Data Collector v3.7.2.0data status	okinstallation	princeton_trtdifferential loss correction	single-endedforward channel	channel 1reverse channel	N/Adate	2019/09/12time	13:12:11forward acquisition time	60.00reverse acquisition time	0.00gamma	496.2192k internal	0.2291k external	0.2291temperature offset calibration	1.0047default loss term (dB/km)	0.3790temperature slope calibration	1.0000multiplexer offset coefficient	1.0000multiplexer slope coefficient	1.0000fibre end	0.00T internal ref (°C)	41.05T ext. ref 1 (°C)	2.05T ext. ref 2 (°C)	35.28length (m)	temperature (°C)	Stokes	anti-Stokes-747.200	-160.522	-0.241	0.013
-746.185	800.000	-0.118	0.447
-745.171	-152.178	-0.126	0.009
-744.156	72.013	0.323	0.345
-743.142	169.609	-0.146	0.214
-742.127	800.000	0.129	0.447
-741.112	176.267	0.230	-0.342
-740.098	-61.473	0.115	0.049
-739.083	-200.000	-0.007	-0.116
-738.069	-166.214	-0.134	0.006
-737.054	78.151	-0.086	-0.094
-736.039	-66.940	-0.057	0.023
-735.025	58.680	0.140	-0.141
-734.010	87.672	0.127	-0.144
-732.996	97.876	0.182	-0.214
-731.981	-133.277	0.142	0.018
-730.966	-29.386	0.050	0.029
-729.952	-200.000	-0.021	-0.307
-728.937	-64.414	0.141	-0.059
-727.923	-133.661	0.251	0.032
-726.908	-155.333	0.202	-0.013
-725.894	351.758	-0.103	-0.209
-724.879	-4.865	-0.299	-0.211
-723.864	800.000	-0.056	0.179
-722.850	451.889	-0.009	0.021
-721.835	-25.177	-0.149	0.090
-720.821	684.266	-0.157	-0.418
-719.806	15.290	-0.293	0.235
-718.791	-133.236	0.181	-0.023
-717.777	-100.014	-0.158	-0.040
-716.762	-132.377	0.103	-0.014
-715.748	-114.980	-0.164	0.032
-714.733	-200.000	0.014	-0.096
-713.718	25.023	0.103	-0.088
-712.704	-120.839	-0.147	0.025
-711.689	-200.000	0.043	-0.193
-710.675	22.000	-0.080	0.066
-709.660	-7.220	0.102	-0.071
-708.645	-200.000	0.006	0.272
-707.631	-200.000	0.012	0.083
-706.616	-80.243	-0.401	0.137
-705.602	81.368	-0.093	-0.103
-704.587	-13.153	-0.248	0.165
-703.572	-131.055	-0.209	0.029
-702.558	-70.439	0.092	-0.036
-701.543	78.753	0.176	0.192
-700.529	140.858	0.099	0.134
-699.514	-200.000	-0.407	-0.001
-698.499	-200.000	0.037	-0.227
-697.485	800.000	0.024	0.072
-696.470	6.938	-0.236	-0.180
-695.456	138.317	0.160	0.215
-694.441	-43.645	0.240	0.123
-693.426	61.752	-0.107	-0.109
-692.412	490.643	-0.025	0.059
-691.397	-110.792	0.491	-0.103
-690.383	62.925	0.269	-0.275
-689.368	103.791	-0.199	-0.239
-688.354	-200.000	0.066	-0.312
-687.339	-130.111	0.195	0.027
-686.324	-200.000	0.014	0.130
-685.310	-200.000	-0.060	-0.329
-684.295	526.493	-0.056	-0.134
-683.281	-200.000	-0.024	-0.456
-682.266	-53.400	0.189	0.089
-681.251	-200.000	-0.012	0.110
-680.237	-89.158	0.167	0.050
-679.222	-160.217	0.054	0.003
-678.208	-200.000	0.018	-0.170
-677.193	230.649	-0.069	0.115
-676.178	-119.680	0.484	-0.085
-675.164	-55.864	0.431	-0.196
-674.149	-46.948	-0.208	-0.104
-673.135	63.714	0.026	-0.026
-672.120	33.585	-0.077	-0.068
-671.105	-60.148	0.128	-0.056
-670.091	58.104	-0.088	0.088
-669.076	38.064	-0.159	-0.144
-668.062	308.894	0.163	-0.311
-667.047	-200.000	-0.027	-0.384
-666.032	198.420	0.083	-0.129
-665.018	-200.000	-0.033	-0.349
-664.003	40.831	-0.273	-0.251
-662.989	183.302	0.087	-0.131
-661.974	-127.114	0.225	0.034
-660.959	-123.597	0.251	-0.041
-659.945	-94.200	0.364	-0.102
-658.930	800.000	0.052	-0.200
-657.916	-200.000	-0.022	0.200
-656.901	-76.071	-0.143	-0.052
-655.886	74.118	-0.028	-0.030
-654.872	208.237	0.184	-0.294
-653.857	379.538	-0.012	0.025
-652.843	-40.367	-0.136	0.072
-651.828	420.822	0.098	-0.214
-650.814	-172.874	-0.155	0.005
-649.799	-88.631	0.257	0.078
-648.784	639.035	-0.046	-0.119
-647.770	-43.468	-0.180	0.093
-646.755	266.589	-0.215	-0.384
-645.741	-40.807	-0.225	-0.119
-644.726	45.243	0.126	-0.119
-643.711	10.467	0.161	0.125
-642.697	-200.000	0.001	0.177
-641.682	9.358	0.120	-0.092
-640.668	13.542	0.258	-0.204
-639.653	-21.142	-0.256	-0.160
-638.638	-200.000	0.028	0.236
-637.624	78.697	0.095	-0.104
-636.609	800.000	0.059	-0.178
-635.595	54.442	-0.162	-0.159
-634.580	-200.000	-0.024	-0.359
-633.565	-27.064	-0.405	-0.241
-632.551	-150.391	0.047	0.004
-631.536	96.954	0.182	0.213
-630.522	-162.262	0.231	0.012
-629.507	-91.920	0.150	0.043
-628.492	715.472	-0.062	0.167
-627.478	-80.035	0.144	0.049
-626.463	-200.000	-0.026	0.216
-625.449	22.209	0.087	-0.072
-624.434	182.270	0.162	0.244
-623.419	-119.260	-0.194	-0.035
-622.405	379.340	-0.024	0.051
-621.390	538.154	0.041	0.099
-620.376	385.994	-0.126	0.265
-619.361	-62.365	0.114	0.048
-618.346	297.251	-0.191	0.357
-617.332	800.000	0.030	-0.104
-616.317	371.391	-0.060	-0.125
-615.303	-66.748	0.279	-0.113
-614.288	-157.044	-0.284	-0.018
-613.273	-200.000	-0.002	-0.258
-612.259	-9.060	-0.136	0.092
-611.244	-138.726	-0.329	-0.037
-610.230	800.000	0.006	-0.019
-609.215	-92.390	0.173	0.050
-608.201	463.537	-0.077	-0.176
-607.186	-120.852	-0.350	0.060
-606.171	-126.756	-0.057	0.009
-605.157	276.830	0.124	-0.224
-604.142	555.852	-0.053	0.129
-603.128	-83.822	0.261	-0.085
-602.113	-89.288	-0.272	-0.082
-601.098	99.461	0.176	-0.208
-600.084	800.000	0.054	0.160
-599.069	-30.810	-0.313	-0.180
-598.055	706.020	-0.108	-0.291
-597.040	-200.000	0.029	-0.333
-596.025	315.023	-0.083	-0.160
-595.011	57.919	-0.261	-0.260
-593.996	42.659	0.408	-0.379
-592.982	-200.000	0.011	0.177
-591.967	800.000	-0.085	-0.304
-590.952	-200.000	-0.042	-0.291
-589.938	225.200	0.013	0.022
-588.923	-29.744	-0.306	-0.178
-587.909	-70.912	0.222	0.085
-586.894	23.183	0.440	0.368
-585.879	243.259	0.028	0.048
-584.865	-200.000	0.001	0.030
-583.850	-52.498	-0.207	0.097
-582.836	-46.075	-0.104	-0.052
-581.821	27.753	-0.033	0.028
-580.806	213.937	0.117	-0.188
-579.792	-112.156	-0.288	-0.059
-578.777	-45.959	-0.286	-0.143
-577.763	-200.000	0.001	-0.019
-576.748	-122.248	-0.085	-0.014
-575.733	217.448	-0.050	0.081
-574.719	-69.777	-0.537	0.209
-573.704	800.000	-0.070	-0.205
-572.690	288.731	0.146	-0.268
-571.675	-165.370	0.163	-0.007
-570.661	73.960	-0.148	-0.158
-569.646	1.264	0.125	-0.091
-568.631	-71.773	0.255	0.097
-567.617	207.394	-0.177	-0.281
-566.602	-50.636	0.350	0.168
-565.588	-200.000	-0.026	-0.315
-564.573	-200.000	0.039	-0.211
-563.558	580.909	0.054	0.134
-562.544	73.978	-0.283	-0.301
-561.529	-115.222	0.280	-0.054
-560.515	175.787	-0.184	-0.272
-559.500	-173.664	-0.073	0.002
-558.485	800.000	0.042	-0.149
-557.471	-120.904	-0.228	-0.039
-556.456	619.150	0.086	-0.219
-555.442	-10.489	-0.182	-0.122
-554.427	159.878	-0.118	-0.167
-553.412	800.000	-0.091	-0.263
-552.398	-116.014	-0.355	0.067
-551.383	250.032	-0.118	0.204
-550.369	170.467	-0.073	0.106
-549.354	-57.006	-0.249	0.112
-548.339	-4.277	0.192	-0.135
-547.325	800.000	-0.047	0.185
-546.310	682.900	-0.101	-0.268
-545.296	-200.000	0.022	-0.123
-544.281	-200.000	-0.083	0.408
-543.266	64.777	-0.111	-0.113
-542.252	0.707	0.032	-0.023
-541.237	-105.683	-0.500	0.115
-540.223	-151.749	-0.172	-0.013
-539.208	117.504	-0.217	-0.271
-538.193	237.637	-0.037	-0.062
-537.179	-200.000	-0.000	0.194
-536.164	-200.000	-0.174	-0.000
-535.150	358.576	0.160	0.325
-534.135	34.046	-0.240	-0.212
-533.121	-147.254	-0.169	-0.015
-532.106	24.114	-0.104	0.087
-531.091	84.755	0.031	0.034
-530.077	152.847	0.164	-0.227
-529.062	800.000	0.083	-0.280
-528.048	-75.330	0.146	0.053
-527.033	-126.805	0.202	-0.030
-526.018	13.615	-0.267	-0.210
-525.004	350.609	-0.124	-0.248
-523.989	-156.472	0.107	0.007
-522.975	-3.972	-0.028	-0.020
-521.960	70.235	-0.246	0.258
-520.945	-107.430	-0.270	-0.060
-519.931	-200.000	-0.007	-0.100
-518.916	800.000	-0.026	-0.097
-517.902	-109.644	-0.384	-0.082
-516.887	173.013	0.084	-0.123
-515.872	-109.387	-0.175	0.038
-514.858	-43.940	0.264	-0.135
-513.843	-55.548	0.132	-0.060
-512.829	-200.000	-0.005	-0.168
-511.814	85.796	0.069	-0.077
-510.799	98.610	0.135	0.158
-509.785	800.000	-0.029	0.087
-508.770	-200.000	-0.033	-0.286
-507.756	800.000	-0.017	0.049
-506.741	79.425	0.242	-0.264
-505.726	113.190	0.088	-0.108
-504.712	336.634	-0.214	-0.422
-503.697	63.083	-0.080	-0.081
-502.683	-117.926	-0.136	0.025
-501.668	75.630	-0.141	-0.151
-500.653	-80.986	0.254	-0.085
-499.639	375.876	0.124	0.256
-498.624	87.731	0.273	-0.306
-497.610	95.470	-0.115	0.133
-496.595	361.634	0.111	0.226
-495.581	-39.036	0.249	-0.133
-494.566	720.856	0.074	0.201
-493.551	-200.000	-0.032	-0.149
-492.537	-200.000	-0.043	-0.255
-491.522	-110.685	0.212	0.044
-490.508	389.508	-0.118	-0.249
-489.493	-103.529	0.165	-0.039
-488.478	193.142	-0.220	-0.337
-487.464	323.609	-0.116	0.224
-486.449	800.000	-0.060	0.180
-485.435	13.308	-0.187	0.147
-484.420	57.001	0.044	-0.044
-483.405	-92.998	-0.254	0.072
-482.391	194.333	-0.182	0.280
-481.376	202.306	0.115	0.180
-480.362	-110.779	-0.081	0.017
-479.347	108.250	0.107	-0.129
-478.332	-200.000	-0.045	0.280
-477.318	-40.593	0.236	-0.124
-476.303	-53.866	-0.276	-0.127
-475.289	-21.727	0.067	0.041
-474.274	94.246	-0.168	0.193
-473.259	-109.325	0.093	-0.020
-472.245	-200.000	0.015	0.183
-471.230	-71.391	0.316	-0.120
-470.216	800.000	0.067	-0.293
-469.201	800.000	0.073	0.243
-468.186	256.102	-0.142	0.247
-467.172	32.354	-0.364	-0.318
-466.157	-141.838	0.220	-0.022
-465.143	-72.043	0.202	0.076
-464.128	-53.249	0.182	0.085
-463.113	50.961	-0.247	0.238
-462.099	-200.000	0.034	-0.223
-461.084	185.234	-0.088	0.133
-460.070	-162.120	-0.170	-0.009
-459.055	-200.000	0.064	-0.356
-458.040	444.595	-0.066	-0.146
-457.026	-107.361	0.058	-0.013
-456.011	376.809	0.147	0.305
-454.997	-22.580	0.513	0.314
-453.982	193.385	-0.095	0.145
-452.968	800.000	-0.060	0.177
-451.953	-123.665	0.224	-0.036
-450.938	-92.747	-0.350	0.099
-449.924	-111.464	0.124	0.026
-448.909	800.000	-0.069	-0.212
-447.895	-151.608	0.169	0.013
-446.880	-127.025	-0.202	0.030
-445.865	800.000	0.007	0.029
-444.851	-133.064	0.154	0.020
-443.836	-9.589	0.332	0.224
-442.822	-55.219	-0.247	0.112
-441.807	-59.874	0.051	-0.022
-440.792	-67.650	0.200	0.079
-439.778	-81.700	-0.083	-0.028
-438.763	154.208	0.152	-0.210
-437.749	70.779	0.124	0.130
-436.734	-200.000	-0.169	0.001
-435.719	243.944	-0.140	-0.238
-434.705	-200.000	-0.054	0.267
-433.690	100.208	0.386	0.453
-432.676	361.221	0.072	0.146
-431.661	-18.455	-0.135	0.085
-430.646	-61.269	0.060	-0.026
-429.632	-200.000	-0.022	-0.164
-428.617	686.596	-0.021	0.055
-427.603	-90.484	-0.216	0.063
-426.588	205.331	0.220	0.346
-425.573	127.624	0.113	-0.145
-424.559	226.867	-0.082	0.134
-423.544	800.000	-0.065	0.267
-422.530	-123.442	0.438	0.071
-421.515	800.000	0.090	0.273
-420.500	-200.000	-0.049	-0.294
-419.486	-200.000	0.005	0.086
-418.471	276.645	-0.127	-0.228
-417.457	324.531	-0.150	0.290
-416.442	-52.506	0.224	0.105
-415.428	-114.745	-0.041	0.008
-414.413	81.165	0.187	0.205
-413.398	123.694	-0.124	-0.158
-412.384	96.445	0.143	0.165
-411.369	59.750	0.205	0.205
-410.355	4.055	0.224	0.165
-409.340	-33.998	0.274	-0.152
-408.325	-88.391	0.119	0.036
-407.311	-200.000	0.037	0.243
-406.296	252.315	-0.110	-0.189
-405.282	121.801	0.210	-0.264
-404.267	63.209	0.094	-0.096
-403.252	-108.070	-0.094	0.021
-402.238	124.442	0.263	0.334
-401.223	-14.244	0.266	0.173
-400.209	-105.591	0.057	-0.013
-399.194	289.851	-0.178	0.326
-398.179	316.154	-0.014	0.026
-397.165	620.145	0.098	-0.249
-396.150	125.765	-0.231	-0.295
-395.136	-43.345	-0.060	0.030
-394.121	-200.000	-0.040	0.186
-393.106	22.422	-0.045	-0.037
-392.092	-193.140	-0.079	0.001
-391.077	313.844	-0.049	-0.092
-390.063	-80.182	0.352	0.119
-389.048	-82.818	0.270	-0.088
-388.033	-200.000	0.002	0.041
-387.019	29.977	-0.270	0.233
-386.004	-15.186	0.451	0.292
-384.990	800.000	-0.049	0.154
-383.975	-110.787	-0.194	-0.040
-382.960	-200.000	0.021	-0.370
-381.946	-200.000	0.000	-0.292
-380.931	157.081	-0.081	-0.112
-379.917	-110.663	0.130	-0.027
-378.902	-153.938	0.129	-0.009
-377.888	-200.000	0.013	0.223
-376.873	112.138	0.233	0.284
-375.858	444.380	-0.164	0.364
-374.844	-124.452	0.038	-0.006
-373.829	2.925	-0.307	-0.225
-372.815	73.353	0.176	0.186
-371.800	-18.720	0.493	0.310
-370.785	-124.751	0.359	-0.056
-369.771	537.003	-0.081	0.194
-368.756	-200.000	0.028	0.215
-367.742	-48.826	-0.154	-0.074
-366.727	-58.866	0.061	-0.027
-365.712	-98.150	-0.167	0.043
-364.698	332.799	-0.072	0.140
-363.683	-35.089	-0.243	0.134
-362.669	800.000	-0.071	0.233
-361.654	-24.714	-0.218	0.131
-360.639	-153.104	-0.231	-0.016
-359.625	800.000	0.061	0.226
-358.610	-57.662	-0.067	0.030
-357.596	-103.273	0.390	-0.093
-356.581	-130.619	0.378	-0.051
-355.566	-200.000	0.034	0.157
-354.552	-167.238	0.058	-0.002
-353.537	800.000	0.135	0.433
-352.523	2.210	0.199	0.145
-351.508	-88.244	-0.219	0.066
-350.493	498.722	-0.105	-0.244
-349.479	-16.629	-0.037	0.024
-348.464	-130.632	0.335	0.045
-347.450	48.685	0.193	-0.182
-346.435	-136.973	0.175	-0.020
-345.420	-200.000	-0.085	0.403
-344.406	106.711	-0.169	0.202
-343.391	800.000	-0.046	-0.137
-342.377	302.291	-0.140	0.261
-341.362	-46.006	-0.292	-0.145
-340.348	358.335	-0.050	0.101
-339.333	-126.221	-0.186	-0.028
-338.318	-200.000	0.313	-0.001
-337.304	-17.906	0.311	0.197
-336.289	800.000	-0.108	-0.339
-335.275	-36.779	0.131	-0.071
-334.260	-116.547	-0.312	-0.058
-333.245	-78.894	-0.305	0.105
-332.231	-200.000	0.036	-0.170
-331.216	-51.789	0.238	-0.112
-330.202	116.923	0.240	-0.297
-329.187	570.743	0.187	0.459
-328.172	767.538	0.047	0.128
-327.158	74.736	-0.112	0.118
-326.143	119.585	-0.044	0.055
-325.129	-70.192	-0.162	-0.062
-324.114	-200.000	-0.030	-0.185
-323.099	48.115	0.138	-0.130
-322.085	800.000	0.045	-0.190
-321.070	-28.970	-0.090	-0.052
-320.056	103.626	0.110	-0.130
-319.041	-127.209	-0.212	0.031
-318.026	20.276	0.258	0.210
-317.012	-24.849	0.099	-0.059
-315.997	-200.000	0.008	0.066
-314.983	465.552	0.101	0.227
-313.968	-47.016	0.269	-0.132
-312.953	327.891	-0.040	-0.077
-311.939	115.166	-0.196	0.241
-310.924	800.000	0.039	0.129
-309.910	-200.000	-0.002	0.076
-308.895	800.000	-0.070	0.235
-307.880	-46.854	0.187	-0.092
-306.866	-200.000	0.019	0.269
-305.851	67.330	-0.264	0.271
-304.837	-200.000	-0.076	-0.343
-303.822	36.024	-0.157	-0.139
-302.807	35.916	-0.393	-0.348
-301.793	-16.699	-0.122	0.078
-300.778	-67.010	-0.084	-0.033
-299.764	-31.212	0.189	0.107
-298.749	541.139	0.071	-0.169
-297.735	-85.080	-0.033	-0.011
-296.720	-41.889	-0.108	-0.056
-295.705	255.443	-0.073	-0.125
-294.691	-105.794	-0.094	-0.021
-293.676	-200.000	-0.022	-0.098
-292.662	110.195	0.167	-0.202
-291.647	213.470	0.098	-0.156
-290.632	-46.810	-0.114	-0.056
-289.618	-43.920	-0.199	-0.100
-288.603	800.000	0.044	0.157
-287.589	213.546	-0.067	0.106
-286.574	800.000	0.016	-0.070
-285.559	-155.340	-0.259	-0.017
-284.545	-200.000	-0.012	-0.052
-283.530	-85.574	-0.210	0.066
-282.516	-117.286	0.409	-0.075
-281.501	674.850	-0.023	0.060
-280.486	16.328	0.086	-0.069
-279.472	25.784	0.120	-0.101
-278.457	585.557	0.066	0.162
-277.443	-144.658	0.184	-0.017
-276.428	-35.213	0.183	0.100
-275.413	85.902	0.262	0.289
-274.399	-200.000	-0.039	-0.247
-273.384	-152.639	0.305	0.022
-272.370	-33.795	-0.161	-0.089
-271.355	181.319	0.046	-0.069
-270.340	-25.894	-0.120	-0.071
-269.326	-39.865	-0.250	-0.131
-268.311	-87.374	-0.136	-0.041
-267.297	-11.216	0.182	0.121
-266.282	800.000	0.122	0.421
-265.267	51.481	-0.159	0.152
-264.253	181.691	0.180	-0.267
-263.238	800.000	-0.065	-0.211
-262.224	-73.792	0.259	-0.095
-261.209	-200.000	-0.016	0.134
-260.195	-198.756	0.352	-0.002
-259.180	-90.287	-0.216	-0.063
-258.165	222.205	-0.102	-0.165
-257.151	8.463	0.093	-0.070
-256.136	-155.694	0.269	0.017
-255.122	39.444	-0.106	-0.095
-254.107	275.776	-0.045	-0.080
-253.092	97.884	-0.248	0.287
-252.078	-60.167	0.400	0.171
-251.063	563.113	0.092	-0.223
-250.049	248.033	-0.044	-0.075
-249.034	233.320	0.083	-0.138
-248.019	413.073	-0.086	-0.183
-247.005	254.362	-0.149	-0.256
-245.990	-58.241	-0.187	-0.082
-244.976	125.665	-0.055	-0.069
-243.961	-200.000	-0.071	0.401
-242.946	-31.172	0.140	-0.079
-241.932	235.699	-0.289	0.479
-240.917	475.310	-0.193	-0.437
-239.903	54.267	-0.258	-0.249
-238.888	-200.000	-0.001	-0.052
-237.873	800.000	-0.042	0.176
-236.859	800.000	0.060	-0.214
-235.844	-23.149	0.174	0.105
-234.830	-200.000	0.031	-0.264
-233.815	-92.144	-0.332	0.094
-232.800	-134.114	-0.321	0.040
-231.786	-172.363	-0.317	-0.010
-230.771	-17.644	0.239	-0.150
-229.757	-61.676	-0.058	-0.025
-228.742	-38.347	-0.158	0.084
-227.727	-30.722	-0.334	-0.190
-226.713	-119.468	-0.075	0.013
-225.698	800.000	0.007	-0.024
-224.684	-51.400	0.412	0.193
-223.669	17.561	0.289	0.230
-222.655	140.535	0.330	0.437
-221.640	-63.345	0.194	0.080
-220.625	-127.944	-0.207	-0.030
-219.611	194.753	0.039	0.060
-218.596	-44.736	0.180	0.090
-217.582	-20.140	-0.133	0.082
-216.567	800.000	0.067	-0.203
-215.552	-99.047	0.087	-0.022
-214.538	231.649	0.099	0.164
-213.523	411.661	-0.171	0.364
-212.509	162.466	0.137	-0.193
-211.494	-73.898	-0.302	-0.110
-210.479	-82.889	-0.351	-0.114
-209.465	3.565	0.324	-0.237
-208.450	-200.000	0.031	0.371
-207.436	-10.665	-0.054	-0.036
-206.421	-81.346	0.202	-0.067
-205.406	340.304	0.191	-0.374
-204.392	210.887	-0.038	0.060
-203.377	-200.000	0.009	0.229
-202.363	800.000	0.022	-0.082
-201.348	172.404	-0.144	0.208
-200.333	-127.731	-0.508	-0.074
-199.319	-38.902	0.128	0.068
-198.304	702.608	-0.039	0.102
-197.290	83.394	0.145	0.158
-196.275	166.922	0.216	0.307
-195.260	-134.170	0.044	-0.005
-194.246	6.094	0.150	-0.112
-193.231	148.454	0.121	-0.164
-192.217	32.641	0.101	0.087
-191.202	211.680	0.113	-0.178
-190.187	363.747	-0.034	0.068
-189.173	-33.806	-0.228	-0.126
-188.158	70.902	0.195	0.202
-187.144	-200.000	0.011	-0.109
-186.129	-107.466	-0.093	-0.021
-185.114	-98.199	0.376	0.097
-184.100	-105.803	0.077	-0.018
-183.085	-149.163	-0.101	0.008
-182.071	-138.131	0.183	0.020
-181.056	0.814	0.229	-0.164
-180.042	122.505	-0.075	0.093
-179.027	-3.143	-0.145	0.101
-178.012	-200.000	-0.043	0.327
-176.998	47.722	-0.087	-0.082
-175.983	464.624	0.040	0.090
-174.969	-89.272	-0.164	0.049
-173.954	378.180	-0.075	0.154
-172.939	-200.000	0.046	0.224
-171.925	-55.050	0.261	0.118
-170.910	-178.486	0.194	-0.004
-169.896	-13.583	-0.331	-0.214
-168.881	800.000	0.062	-0.224
-167.866	-129.611	0.142	0.020
-166.852	-200.000	-0.006	-0.182
-165.837	168.613	-0.129	-0.184
-164.823	-185.739	0.121	-0.002
-163.808	-101.576	0.178	0.043
-162.793	-67.262	0.100	0.039
-161.779	-18.548	-0.299	0.187
-160.764	5.255	-0.212	0.156
-159.750	-200.000	0.013	0.139
-158.735	38.465	0.176	-0.157
-157.720	-200.000	-0.055	0.320
-156.706	656.281	0.142	0.366
-155.691	46.483	-0.092	0.085
-154.677	-200.000	0.035	-0.303
-153.662	-62.102	-0.239	-0.100
-152.647	127.468	-0.144	0.183
-151.633	-200.000	-0.046	0.236
-150.618	114.328	-0.052	-0.063
-149.604	101.703	-0.084	0.097
-148.589	800.000	0.029	0.080
-147.574	-57.291	0.221	0.097
-146.560	-200.000	0.010	-0.113
-145.545	2.115	0.148	0.107
-144.531	-84.778	0.320	-0.101
-143.516	-183.342	0.383	0.007
-142.502	-17.811	0.171	-0.107
-141.487	-61.238	-0.387	-0.163
-140.472	2.631	-0.228	-0.165
-139.458	-200.000	0.034	-0.225
-138.443	233.259	-0.089	-0.146
-137.429	-200.000	-0.005	0.022
-136.414	86.491	-0.188	-0.207
-135.399	-27.558	0.105	0.061
-134.385	-124.582	-0.347	-0.054
-133.370	-118.130	0.166	0.030
-132.356	-89.309	0.331	0.098
-131.341	2.385	0.176	-0.128
-130.326	-120.498	0.124	0.021
-129.312	800.000	0.047	0.202
-128.297	-29.974	-0.334	0.190
-127.283	151.013	-0.058	-0.079
-126.268	461.739	0.113	0.252
-125.253	-200.000	0.011	0.169
-124.239	800.000	-0.113	-0.427
-123.224	285.978	0.053	-0.095
-122.210	800.000	-0.036	0.104
