DTS Sentinel unit serial number:	SN413079Multiplexer serial number:	ORYXHardware model number:	OX4-SRSoftware version number:	ORYX F/W v4.00 Oryx Data Collector v3.7.2.0data status	okinstallation	princeton_trtdifferential loss correction	single-endedforward channel	channel 1reverse channel	N/Adate	2019/09/11time	19:44:11forward acquisition time	60.00reverse acquisition time	0.00gamma	496.2192k internal	0.2300k external	0.2300temperature offset calibration	1.0028default loss term (dB/km)	0.3790temperature slope calibration	1.0000multiplexer offset coefficient	1.0000multiplexer slope coefficient	1.0000fibre end	0.00T internal ref (°C)	39.62T ext. ref 1 (°C)	1.35T ext. ref 2 (°C)	32.49length (m)	temperature (°C)	Stokes	anti-Stokes-747.200	-104.779	0.046	0.011
-746.185	-200.000	0.005	0.294
-745.171	259.412	0.122	-0.215
-744.156	362.583	0.025	-0.052
-743.142	61.761	0.060	0.061
-742.127	-200.000	-0.052	0.391
-741.112	-25.469	0.312	0.188
-740.098	-53.054	-0.246	0.115
-739.083	-83.209	-0.289	-0.095
-738.069	-60.752	0.156	-0.067
-737.054	-161.215	0.217	-0.012
-736.039	447.048	-0.161	-0.361
-735.025	23.050	0.033	0.028
-734.010	-30.666	-0.215	0.124
-732.996	-23.581	-0.173	-0.106
-731.981	-200.000	0.004	-0.203
-730.966	10.569	0.109	0.085
-729.952	-200.000	0.068	0.334
-728.937	-73.559	-0.293	-0.109
-727.923	797.217	-0.040	0.112
-726.908	-200.000	0.038	0.187
-725.894	12.457	-0.035	-0.028
-724.879	-46.545	-0.315	0.157
-723.864	-42.426	-0.186	0.097
-722.850	-200.000	-0.087	-0.576
-721.835	800.000	0.066	-0.263
-720.821	-48.282	0.132	0.065
-719.806	67.570	-0.225	-0.234
-718.791	697.416	-0.151	-0.404
-717.777	-142.220	-0.476	-0.048
-716.762	-200.000	0.013	-0.093
-715.748	-103.955	-0.136	-0.032
-714.733	-200.000	0.012	-0.171
-713.718	135.133	-0.092	-0.122
-712.704	782.351	-0.092	0.257
-711.689	61.084	-0.317	0.320
-710.675	-49.001	-0.349	0.170
-709.660	-71.919	-0.382	-0.145
-708.645	-18.535	-0.041	0.026
-707.631	-60.816	0.259	-0.112
-706.616	537.510	0.109	-0.263
-705.602	20.905	-0.153	0.126
-704.587	315.616	0.140	-0.270
-703.572	-95.786	-0.534	-0.145
-702.558	-118.733	-0.229	0.041
-701.543	-129.003	0.286	-0.041
-700.529	358.063	-0.106	0.215
-699.514	116.864	0.068	-0.085
-698.499	732.159	-0.049	0.134
-697.485	64.255	-0.111	-0.114
-696.470	-200.000	-0.015	-0.490
-695.456	-9.899	-0.223	-0.151
-694.441	48.714	0.011	-0.011
-693.426	800.000	0.029	-0.085
-692.412	-196.667	-0.316	0.002
-691.397	-60.141	0.135	-0.059
-690.383	168.198	-0.083	-0.120
-689.368	-200.000	0.050	-0.243
-688.354	61.517	0.160	-0.162
-687.339	-200.000	-0.015	-0.085
-686.324	57.749	0.217	0.216
-685.310	-58.444	-0.202	-0.089
-684.295	417.066	0.137	-0.297
-683.281	155.660	-0.066	-0.092
-682.266	-200.000	-0.029	0.353
-681.251	74.175	-0.336	-0.359
-680.237	487.724	0.064	0.149
-679.222	-121.424	-0.176	0.030
-678.208	-121.364	-0.426	-0.072
-677.193	-163.167	-0.246	0.012
-676.178	730.872	-0.130	-0.353
-675.164	-200.000	-0.012	-0.156
-674.149	-200.000	-0.037	0.201
-673.135	-25.076	0.451	0.272
-672.120	-172.253	-0.198	0.006
-671.105	800.000	-0.077	-0.305
-670.091	155.359	-0.047	-0.065
-669.076	12.195	-0.209	-0.164
-668.062	397.470	0.052	0.111
-667.047	-92.455	0.223	0.064
-666.032	6.559	-0.136	0.103
-665.018	87.474	-0.269	0.303
-664.003	-124.330	-0.065	-0.010
-662.989	60.083	0.206	0.207
-661.974	-44.706	0.261	0.133
-660.959	-29.654	-0.094	-0.055
-659.945	258.291	-0.214	-0.374
-658.930	-200.000	0.016	0.154
-657.916	-152.311	-0.051	0.004
-656.901	-200.000	-0.028	0.219
-655.886	800.000	0.049	-0.195
-654.872	-125.649	-0.288	0.044
-653.857	-74.857	-0.336	0.123
-652.843	67.345	0.177	-0.184
-651.828	-200.000	0.013	0.062
-650.814	-75.481	-0.179	0.065
-649.799	-103.870	0.168	-0.040
-648.784	-80.192	0.148	0.050
-647.770	-64.163	-0.097	0.040
-646.755	-5.624	-0.119	0.083
-645.741	-45.328	-0.171	0.086
-644.726	223.276	0.103	-0.169
-643.711	-142.000	0.349	-0.035
-642.697	208.472	-0.100	0.159
-641.682	-128.203	0.308	0.045
-640.668	-92.039	-0.109	-0.031
-639.653	800.000	-0.059	0.230
-638.638	-52.675	0.244	0.115
-637.624	-151.019	0.158	0.012
-636.609	93.836	0.043	-0.050
-635.595	-53.222	0.217	0.101
-634.580	-200.000	0.022	0.259
-633.565	-200.000	0.029	0.141
-632.551	-200.000	0.025	-0.246
-631.536	800.000	0.076	-0.234
-630.522	-74.869	-0.179	-0.065
-629.507	-95.831	-0.102	0.028
-628.492	800.000	0.012	0.045
-627.478	-200.000	-0.023	0.162
-626.463	-9.616	-0.190	-0.129
-625.449	-135.561	0.196	-0.024
-624.434	-21.985	-0.069	0.043
-623.419	-117.353	-0.167	0.031
-622.405	-200.000	-0.015	-0.131
-621.390	-100.211	-0.199	0.050
-620.376	61.464	-0.210	0.212
-619.361	3.219	-0.205	0.151
-618.346	-76.173	0.276	-0.099
-617.332	7.933	-0.151	-0.115
-616.317	35.624	-0.114	0.102
-615.303	-82.662	0.323	-0.106
-614.288	199.290	-0.223	0.346
-613.273	-16.686	-0.266	0.171
-612.259	-200.000	0.015	-0.325
-611.244	-63.590	-0.377	0.157
-610.230	-29.509	0.290	-0.168
-609.215	383.319	0.132	-0.276
-608.201	-108.559	-0.342	-0.075
-607.186	83.169	0.063	-0.070
-606.171	81.127	-0.128	0.140
-605.157	-200.000	-0.065	0.473
-604.142	113.896	-0.095	0.117
-603.128	-124.483	-0.153	0.024
-602.113	-40.697	-0.129	0.068
-601.098	-13.171	-0.399	-0.263
-600.084	505.585	0.103	-0.242
-599.069	800.000	0.138	-0.475
-598.055	-139.252	0.352	0.038
-597.040	230.002	0.244	-0.404
-596.025	-195.673	-0.175	-0.001
-595.011	112.956	0.117	-0.144
-593.996	800.000	0.077	-0.277
-592.982	23.621	-0.233	-0.194
-591.967	-59.184	-0.194	-0.085
-590.952	-94.464	-0.282	-0.078
-589.938	-144.312	0.208	-0.020
-588.923	-200.000	-0.070	-0.466
-587.909	-147.092	-0.191	-0.017
-586.894	-167.348	0.071	-0.003
-585.879	341.591	0.210	-0.416
-584.865	138.348	0.099	-0.132
-583.850	-125.435	-0.064	-0.010
-582.836	-23.737	0.088	0.054
-581.821	192.642	-0.185	0.283
-580.806	-200.000	-0.054	-0.451
-579.792	-200.000	-0.028	0.327
-578.777	195.412	-0.153	0.236
-577.763	-148.404	-0.270	-0.022
-576.748	64.010	0.234	0.239
-575.733	-34.786	0.234	0.129
-574.719	441.839	-0.184	-0.408
-573.704	399.954	0.111	0.235
-572.690	-169.438	0.294	-0.011
-571.675	232.342	0.020	0.033
-570.661	156.333	-0.183	-0.255
-569.646	-57.572	-0.105	0.047
-568.631	800.000	0.003	-0.009
-567.617	24.397	0.313	-0.262
-566.602	163.248	-0.142	-0.202
-565.588	800.000	-0.047	0.161
-564.573	194.997	0.198	0.304
-563.558	176.648	0.188	0.276
-562.544	800.000	-0.089	-0.304
-561.529	-200.000	-0.033	-0.218
-560.515	-126.655	-0.136	-0.020
-559.500	51.316	0.119	0.115
-558.485	392.756	0.125	0.263
-557.471	-200.000	0.005	-0.083
-556.456	-63.459	-0.522	0.217
-555.442	-99.088	0.162	0.041
-554.427	-200.000	-0.011	0.054
-553.412	-200.000	-0.008	-0.288
-552.398	-40.363	-0.149	-0.079
-551.383	117.741	-0.343	-0.428
-550.369	-66.532	-0.063	-0.025
-549.354	-200.000	0.058	0.427
-548.339	-200.000	0.001	0.275
-547.325	1.113	-0.420	0.305
-546.310	-200.000	0.031	-0.321
-545.296	46.931	0.087	-0.082
-544.281	-114.217	-0.383	-0.075
-543.266	-100.919	0.388	0.097
-542.252	-200.000	0.035	-0.375
-541.237	148.000	-0.111	0.151
-540.223	-200.000	0.021	0.133
-539.208	176.989	0.065	0.096
-538.193	192.590	-0.078	-0.119
-537.179	-74.106	0.152	-0.056
-536.164	-166.580	0.269	-0.011
-535.150	-48.781	0.179	-0.087
-534.135	800.000	-0.035	-0.148
-533.121	-173.948	0.046	0.001
-532.106	-77.185	-0.315	0.111
-531.091	-61.213	-0.273	-0.116
-530.077	-126.774	0.152	0.023
-529.062	774.339	-0.065	-0.178
-528.048	759.670	0.015	0.042
-527.033	-54.300	-0.172	0.079
-526.018	-72.467	-0.456	-0.170
-525.004	177.689	0.165	-0.244
-523.989	378.741	-0.132	0.274
-522.975	-59.121	0.085	0.037
-521.960	-112.377	-0.332	0.067
-520.945	-200.000	0.004	0.135
-519.931	203.376	0.129	0.202
-518.916	-166.427	-0.226	-0.010
-517.902	49.801	-0.039	-0.037
-516.887	43.660	-0.141	0.131
-515.872	-95.886	-0.081	0.022
-514.858	-119.052	-0.156	-0.028
-513.843	2.433	0.155	-0.113
-512.829	-142.743	0.219	0.022
-511.814	-27.610	0.467	0.274
-510.799	800.000	0.021	0.083
-509.785	-11.979	-0.086	-0.057
-508.770	263.161	0.049	0.085
-507.756	52.913	0.231	0.223
-506.741	800.000	0.048	-0.150
-505.726	77.718	0.146	0.157
-504.712	-97.909	0.195	-0.051
-503.697	-180.356	-0.271	-0.006
-502.683	364.330	-0.100	-0.203
-501.668	33.469	-0.255	0.224
-500.653	-95.022	0.106	0.029
-499.639	800.000	0.125	-0.372
-498.624	498.300	0.075	0.174
-497.610	-62.110	0.252	-0.106
-496.595	52.968	0.097	0.094
-495.581	800.000	-0.174	-0.519
-494.566	99.651	0.196	-0.230
-493.551	1.279	0.241	0.175
-492.537	3.495	0.160	0.118
-491.522	-114.957	0.176	-0.034
-490.508	-84.994	-0.311	0.099
-489.493	399.950	0.030	-0.063
-488.478	64.952	0.249	-0.254
-487.464	-114.945	0.326	0.063
-486.449	-96.145	-0.355	-0.095
-485.435	-200.000	0.022	0.116
-484.420	215.516	0.081	0.131
-483.405	-45.519	-0.050	-0.025
-482.391	-88.858	-0.121	-0.036
-481.376	-200.000	0.057	0.445
-480.362	76.781	-0.241	-0.258
-479.347	183.967	-0.124	0.185
-478.332	97.519	-0.066	-0.076
-477.318	800.000	-0.092	-0.373
-476.303	-120.062	-0.173	-0.030
-475.289	-156.357	-0.196	0.012
-474.274	-84.884	-0.020	-0.006
-473.259	-200.000	0.011	0.184
-472.245	100.503	-0.069	0.080
-471.230	64.208	-0.135	0.137
-470.216	5.024	0.168	-0.125
-469.201	-29.906	-0.126	0.073
-468.186	98.455	-0.081	0.095
-467.172	-149.590	0.529	0.042
-466.157	129.561	-0.182	-0.234
-465.143	-92.580	-0.133	0.038
-464.128	-82.097	-0.131	-0.043
-463.113	800.000	0.071	-0.235
-462.099	31.673	-0.017	0.015
-461.084	-200.000	-0.002	-0.446
-460.070	56.752	-0.305	0.299
-459.055	74.581	0.276	0.293
-458.040	-51.886	-0.148	-0.070
-457.026	260.809	0.235	-0.410
-456.011	-14.528	-0.159	-0.103
-454.997	-23.693	0.184	-0.111
-453.982	-17.061	0.200	0.127
-452.968	450.767	-0.084	0.187
-451.953	376.629	-0.120	0.247
-450.938	-99.195	-0.141	0.036
-449.924	668.926	-0.107	0.279
-448.909	585.714	0.177	-0.440
-447.895	-125.236	0.182	0.028
-446.880	-200.000	-0.017	0.147
-445.865	6.413	0.260	0.194
-444.851	800.000	0.134	-0.491
-443.836	-107.317	0.073	-0.016
-442.822	-200.000	-0.038	-0.255
-441.807	-200.000	-0.008	0.203
-440.792	-200.000	0.020	0.500
-439.778	-36.829	-0.319	-0.173
-438.763	-119.408	-0.145	0.025
-437.749	800.000	0.068	0.271
-436.734	-200.000	-0.048	0.243
-435.719	-80.043	-0.188	-0.064
-434.705	-200.000	0.039	0.196
-433.690	800.000	0.028	0.096
-432.676	-200.000	0.032	0.147
-431.661	425.963	-0.107	-0.231
-430.646	43.133	-0.075	0.069
-429.632	509.648	-0.147	0.344
-428.617	-159.574	-0.306	0.017
-427.603	-175.437	0.153	0.004
-426.588	-31.237	0.134	0.076
-425.573	134.804	0.160	0.210
-424.559	-91.205	0.079	0.023
-423.544	-200.000	-0.009	-0.217
-422.530	-42.209	-0.195	0.100
-421.515	-9.323	0.067	-0.045
-420.500	-200.000	0.020	-0.123
-419.486	-86.411	0.100	0.031
-418.471	645.940	-0.056	0.143
-417.457	-54.077	0.420	-0.192
-416.442	-132.312	-0.162	-0.021
-415.428	-200.000	0.008	0.127
-414.413	239.495	-0.160	-0.269
-413.398	205.522	0.077	-0.121
-412.384	-61.574	-0.123	0.052
-411.369	61.504	-0.087	-0.087
-410.355	-99.557	-0.344	-0.087
-409.340	6.834	0.189	0.142
-408.325	104.898	-0.061	-0.072
-407.311	-200.000	0.028	0.416
-406.296	800.000	0.105	0.437
-405.282	210.043	0.203	-0.320
-404.267	16.551	-0.139	-0.110
-403.252	147.773	-0.063	-0.086
-402.238	800.000	0.042	-0.123
-401.223	800.000	-0.122	-0.352
-400.209	86.095	0.127	-0.141
-399.194	61.477	0.216	-0.217
-398.179	-200.000	-0.019	0.204
-397.165	606.787	0.175	-0.438
-396.150	21.638	-0.213	-0.174
-395.136	83.783	0.126	-0.139
-394.121	-97.459	-0.293	-0.077
-393.106	-30.862	0.190	0.108
-392.092	-72.336	0.326	0.121
-391.077	261.001	0.115	0.201
-390.063	437.244	0.084	-0.185
-389.048	-200.000	-0.035	-0.202
-388.033	251.554	0.044	-0.075
-387.019	83.749	0.079	0.087
-386.004	-127.479	-0.162	0.024
-384.990	147.587	-0.175	-0.236
-383.975	-47.362	-0.493	0.241
-382.960	-99.114	0.330	0.084
-381.946	-127.392	0.137	0.020
-380.931	-200.000	-0.045	-0.232
-379.917	-123.248	0.284	-0.046
-378.902	-55.036	-0.004	-0.002
-377.888	-112.085	0.314	-0.064
-376.873	530.862	-0.001	-0.002
-375.858	38.699	-0.212	0.190
-374.844	50.121	0.075	-0.071
-373.829	427.679	-0.040	-0.086
-372.815	649.488	0.032	-0.081
-371.800	-200.000	0.006	0.041
-370.785	-87.117	-0.160	0.049
-369.771	-128.391	-0.386	-0.055
-368.756	-59.386	0.262	-0.113
-367.742	800.000	-0.109	-0.323
-366.727	-123.726	-0.185	-0.029
-365.712	162.552	0.134	-0.188
-364.698	52.860	-0.058	-0.055
-363.683	800.000	-0.046	0.160
-362.669	-120.653	0.223	-0.038
-361.654	227.352	0.225	-0.368
-360.639	81.963	-0.088	0.096
-359.625	54.702	-0.205	0.199
-358.610	8.843	-0.273	0.207
-357.596	171.092	0.181	0.260
-356.581	-5.648	0.106	-0.073
-355.566	93.361	-0.137	-0.156
-354.552	-149.985	-0.096	-0.008
-353.537	95.197	-0.094	-0.108
-352.523	800.000	0.044	0.152
-351.508	-48.017	0.089	0.043
-350.493	-140.761	0.090	-0.009
-349.479	800.000	-0.120	0.334
-348.464	116.125	-0.221	0.272
-347.450	-170.643	-0.109	0.004
-346.435	-168.134	0.275	0.011
-345.420	3.792	0.137	0.101
-344.406	57.333	-0.319	-0.313
-343.391	53.811	-0.262	-0.253
-342.377	-200.000	-0.038	-0.399
-341.362	291.906	0.105	-0.192
-340.348	294.300	-0.068	0.124
-339.333	201.703	-0.133	0.206
-338.318	-129.292	-0.253	-0.035
-337.304	-124.591	0.283	-0.044
-336.289	-4.985	-0.145	0.100
-335.275	800.000	0.151	0.538
-334.260	553.444	-0.128	0.310
-333.245	-75.757	0.336	-0.120
-332.231	-109.976	-0.125	0.026
-331.216	-78.473	-0.096	0.033
-330.202	42.088	0.036	-0.033
-329.187	64.265	0.161	0.162
-328.172	-200.000	-0.023	-0.172
-327.158	109.656	-0.346	0.416
-326.143	-121.203	0.310	-0.052
-325.129	-4.848	0.239	0.165
-324.114	196.434	0.159	0.243
-323.099	40.242	-0.068	0.061
-322.085	11.952	-0.261	0.201
-321.070	10.922	0.137	0.105
-320.056	800.000	-0.032	-0.102
-319.041	113.158	-0.050	0.061
-318.026	-108.242	0.212	0.046
-317.012	38.206	0.334	0.298
-315.997	-130.217	0.097	0.013
-314.983	565.635	-0.087	0.211
-313.968	-125.661	-0.247	0.038
-312.953	-200.000	0.007	0.329
-311.939	114.446	-0.094	-0.115
-310.924	199.388	0.145	-0.224
-309.910	12.913	-0.173	0.134
-308.895	87.943	-0.027	0.030
-307.880	-200.000	0.019	-0.366
-306.866	107.248	-0.163	-0.195
-305.851	-120.369	-0.203	0.035
-304.837	-122.969	-0.111	-0.018
-303.822	-200.000	0.069	-0.312
-302.807	31.647	-0.307	0.265
-301.793	33.853	0.181	-0.158
-300.778	-200.000	-0.003	0.149
-299.764	255.643	0.213	-0.367
-298.749	-170.721	0.328	0.011
-297.735	234.496	-0.041	0.069
-296.720	10.341	-0.284	-0.216
-295.705	-200.000	-0.042	-0.291
-294.691	-6.240	-0.080	0.054
-293.676	133.942	0.187	-0.243
-292.662	-51.717	-0.392	-0.183
-291.647	-87.494	-0.347	-0.105
-290.632	66.771	0.292	0.298
-289.618	199.606	0.104	0.159
-288.603	800.000	-0.025	-0.093
-287.589	800.000	0.081	-0.269
-286.574	-17.733	-0.246	-0.155
-285.559	46.845	-0.242	0.226
-284.545	57.589	-0.068	0.067
-283.530	126.034	0.277	0.350
-282.516	-65.847	-0.110	-0.044
-281.501	-61.123	-0.173	0.073
-280.486	-200.000	-0.034	0.279
-279.472	149.543	0.057	0.077
-278.457	36.088	0.090	-0.079
-277.443	341.883	-0.078	-0.154
-276.428	-35.081	0.199	-0.108
-275.413	95.478	0.158	-0.180
-274.399	103.638	-0.146	-0.172
-273.384	36.369	-0.141	-0.125
-272.370	-114.829	0.379	0.072
-271.355	800.000	0.108	-0.339
-270.340	-38.567	-0.066	0.035
-269.326	577.762	0.147	0.361
-268.311	174.529	-0.046	-0.066
-267.297	230.005	0.102	0.166
-266.282	214.807	0.088	0.139
-265.267	41.680	0.120	0.108
-264.253	800.000	0.081	0.225
-263.238	-81.618	0.244	-0.080
-262.224	800.000	0.061	-0.174
-261.209	-56.154	-0.156	0.069
-260.195	-85.613	-0.263	-0.082
-259.180	-122.051	0.153	-0.025
-258.165	800.000	-0.037	-0.144
-257.151	193.380	0.083	-0.126
-256.136	477.141	-0.149	0.337
-255.122	800.000	-0.073	0.289
-254.107	-16.781	-0.200	-0.126
-253.092	-105.723	-0.193	0.044
-252.078	-55.647	0.053	-0.024
-251.063	-115.647	0.186	0.035
-250.049	237.511	-0.109	0.180
-249.034	-37.195	-0.166	0.089
-248.019	592.477	0.057	-0.140
-247.005	-119.023	-0.148	-0.026
-245.990	-200.000	0.019	-0.095
-244.976	74.402	0.137	-0.144
-243.961	194.434	-0.134	-0.203
-242.946	-49.173	0.347	-0.166
-241.932	-106.375	-0.161	-0.036
-240.917	27.379	-0.305	0.256
-239.903	-200.000	-0.004	0.191
-238.888	24.814	0.034	-0.028
-237.873	298.084	0.149	0.274
-236.859	-10.106	-0.139	-0.092
-235.844	106.300	0.202	0.239
-234.830	123.798	-0.138	0.173
-233.815	37.696	0.195	-0.173
-232.800	-200.000	0.013	0.232
-231.786	800.000	0.039	-0.132
-230.771	455.743	-0.084	0.187
-229.757	-100.374	-0.108	0.027
-228.742	158.388	-0.083	-0.116
-227.727	224.828	0.147	0.237
-226.713	58.780	0.181	-0.178
-225.698	-32.956	-0.221	0.123
-224.684	414.896	-0.067	0.144
-223.669	59.575	0.349	0.344
-222.655	-119.085	0.214	0.037
-221.640	119.589	0.135	-0.167
-220.625	57.026	0.073	-0.071
-219.611	-134.152	0.245	0.030
-218.596	313.576	-0.054	0.102
-217.582	-134.085	0.549	0.068
-216.567	106.585	-0.065	-0.077
-215.552	-182.746	0.177	-0.003
-214.538	376.172	0.125	0.255
-213.523	-198.503	0.145	-0.001
-212.509	6.367	-0.288	0.214
-211.494	75.497	-0.213	0.224
-210.479	-134.420	0.076	0.009
-209.465	-73.040	0.186	-0.068
-208.450	-200.000	0.017	0.159
-207.436	-65.319	0.179	0.072
-206.421	-200.000	-0.028	-0.272
-205.406	499.201	0.214	-0.493
-204.392	-31.821	-0.250	0.140
-203.377	203.310	0.158	0.244
-202.363	-164.800	-0.144	-0.006
-201.348	800.000	-0.036	0.106
-200.333	-71.874	-0.117	-0.044
-199.319	99.540	0.256	-0.296
-198.304	300.092	0.080	-0.148
-197.290	800.000	0.090	-0.277
-196.275	-200.000	-0.035	0.203
-195.260	-47.101	0.143	-0.070
-194.246	-40.296	-0.057	0.030
-193.231	130.019	-0.194	-0.247
-192.217	-62.597	-0.068	0.028
-191.202	-200.000	0.009	-0.070
-190.187	-200.000	-0.037	0.257
-189.173	-200.000	0.004	0.111
-188.158	-118.641	0.196	-0.035
-187.144	12.982	-0.046	-0.035
-186.129	117.338	0.037	-0.045
-185.114	-126.129	0.254	0.038
-184.100	21.698	-0.081	-0.066
-183.085	-42.963	0.173	-0.088
-182.071	-131.434	0.156	0.021
-181.056	-112.857	-0.119	0.023
-180.042	-145.629	0.187	0.017
-179.027	-139.471	-0.226	-0.024
-178.012	-200.000	-0.031	-0.170
-176.998	123.861	-0.102	-0.128
-175.983	34.462	0.100	0.087
-174.969	-121.576	0.166	-0.028
-173.954	-160.613	0.180	-0.010
-172.939	-200.000	0.005	-0.402
-171.925	-200.000	0.012	-0.138
-170.910	-200.000	-0.008	-0.131
-169.896	213.462	-0.098	0.155
-168.881	-42.056	-0.276	0.141
-167.866	800.000	-0.091	0.309
-166.852	78.154	-0.301	0.321
-165.837	334.268	0.128	0.248
-164.823	-96.732	0.163	-0.043
-163.808	-200.000	0.006	-0.125
-162.793	-154.535	-0.139	-0.009
-161.779	-167.282	-0.231	-0.009
-160.764	800.000	0.083	-0.242
-159.750	-200.000	0.006	0.184
-158.735	-200.000	0.026	0.167
-157.720	-148.630	0.200	-0.016
-156.706	378.559	0.127	0.260
-155.691	-200.000	-0.004	-0.053
-154.677	-127.984	0.374	-0.053
-153.662	-200.000	-0.009	-0.169
-152.647	-102.893	-0.047	-0.011
-151.633	-174.481	0.209	0.006
-150.618	339.822	-0.046	-0.089
-149.604	-200.000	-0.020	0.192
-148.589	-41.050	0.139	0.072
-147.574	-40.730	-0.172	0.089
-146.560	-200.000	-0.036	-0.273
-145.545	174.737	-0.079	-0.114
-144.531	564.352	0.028	-0.067
-143.516	-78.248	-0.184	0.063
-142.502	-108.213	-0.369	-0.079
-141.487	69.088	0.095	-0.097
-140.472	-26.170	0.096	-0.056
-139.458	183.072	0.201	0.295
-138.443	573.959	-0.081	-0.197
-137.429	-82.997	0.147	-0.047
-136.414	-174.547	0.326	-0.009
-135.399	514.565	-0.179	0.416
-134.385	-87.588	-0.113	0.034
-133.370	800.000	0.012	0.035
-132.356	-100.796	0.269	-0.066
-131.341	800.000	-0.058	0.231
-130.326	-184.614	-0.281	0.005
-129.312	240.904	-0.039	-0.065
-128.297	91.846	0.151	-0.169
-127.283	131.109	-0.081	0.104
-126.268	-200.000	-0.020	0.108
-125.253	-13.297	0.135	-0.087
-124.239	-200.000	0.070	-0.357
-123.224	227.482	-0.066	0.107
-122.210	245.878	0.097	0.163
