DTS Sentinel unit serial number:	SN413079Multiplexer serial number:	ORYXHardware model number:	OX4-SRSoftware version number:	ORYX F/W v4.00 Oryx Data Collector v3.7.2.0data status	okinstallation	princeton_trtdifferential loss correction	single-endedforward channel	channel 1reverse channel	N/Adate	2019/09/12time	09:40:11forward acquisition time	60.00reverse acquisition time	0.00gamma	496.2192k internal	0.2300k external	0.2300temperature offset calibration	1.0041default loss term (dB/km)	0.3790temperature slope calibration	1.0000multiplexer offset coefficient	1.0000multiplexer slope coefficient	1.0000fibre end	0.00T internal ref (°C)	35.75T ext. ref 1 (°C)	1.81T ext. ref 2 (°C)	32.44length (m)	temperature (°C)	Stokes	anti-Stokes-747.200	-49.716	-0.046	-0.023
-746.185	-200.000	-0.031	0.246
-745.171	-200.000	0.019	0.337
-744.156	-18.841	-0.387	0.246
-743.142	-12.738	-0.145	0.097
-742.127	-16.639	0.413	0.267
-741.112	800.000	-0.056	-0.203
-740.098	-200.000	-0.014	0.142
-739.083	228.598	-0.082	0.136
-738.069	-200.000	0.013	0.681
-737.054	463.589	-0.036	-0.083
-736.039	21.968	0.113	0.094
-735.025	-113.191	0.156	-0.031
-734.010	193.868	0.166	0.256
-732.996	-11.560	-0.270	-0.181
-731.981	471.400	0.135	0.309
-730.966	118.502	0.199	0.250
-729.952	-33.771	-0.547	-0.307
-728.937	66.275	0.119	-0.124
-727.923	272.495	-0.120	-0.217
-726.908	-200.000	0.036	0.305
-725.894	-47.977	-0.039	0.019
-724.879	324.576	-0.041	0.080
-723.864	-144.076	-0.199	0.019
-722.850	286.126	0.087	-0.159
-721.835	68.340	0.225	0.234
-720.821	-200.000	0.008	0.173
-719.806	-17.925	-0.069	0.044
-718.791	220.154	0.088	-0.143
-717.777	-136.984	-0.126	0.015
-716.762	140.161	0.111	0.149
-715.748	-200.000	0.015	0.307
-714.733	-88.087	0.210	-0.064
-713.718	290.602	-0.218	-0.404
-712.704	-111.240	0.367	0.076
-711.689	-49.496	0.167	0.081
-710.675	-200.000	-0.002	0.015
-709.660	-129.989	-0.154	-0.021
-708.645	-200.000	0.033	-0.150
-707.631	-72.247	-0.377	-0.142
-706.616	800.000	-0.041	-0.179
-705.602	39.779	0.193	-0.176
-704.587	188.315	-0.049	0.075
-703.572	-42.607	-0.109	0.057
-702.558	300.754	0.037	0.070
-701.543	632.000	-0.062	-0.160
-700.529	-148.388	0.108	-0.009
-699.514	356.220	-0.029	0.059
-698.499	-200.000	-0.010	-0.389
-697.485	-200.000	-0.067	0.308
-696.470	-200.000	-0.010	0.367
-695.456	-21.763	0.113	-0.070
-694.441	100.988	-0.244	-0.289
-693.426	800.000	-0.117	-0.478
-692.412	121.452	-0.051	0.065
-691.397	-57.953	0.029	0.013
-690.383	279.730	-0.040	-0.072
-689.368	-200.000	0.002	-0.136
-688.354	-5.187	0.038	0.027
-687.339	-200.000	-0.013	0.058
-686.324	-5.700	-0.104	0.072
-685.310	-41.329	-0.303	0.159
-684.295	138.158	-0.187	0.249
-683.281	-142.761	-0.182	-0.018
-682.266	-200.000	-0.031	0.166
-681.251	-32.658	-0.183	-0.104
-680.237	-17.354	0.364	-0.233
-679.222	-134.640	0.415	0.051
-678.208	336.019	0.041	0.081
-677.193	661.062	-0.010	0.027
-676.178	-102.694	-0.275	-0.067
-675.164	-69.287	0.043	0.017
-674.149	40.450	-0.186	-0.170
-673.135	-75.062	0.223	-0.081
-672.120	4.088	-0.210	0.156
-671.105	-57.078	-0.237	-0.106
-670.091	59.370	-0.196	-0.197
-669.076	-82.993	0.185	-0.061
-668.062	-3.412	-0.169	-0.120
-667.047	375.840	-0.067	0.139
-666.032	-106.972	0.290	-0.065
-665.018	-200.000	0.015	0.212
-664.003	-111.514	0.207	0.043
-662.989	130.544	0.033	-0.043
-661.974	14.746	0.066	0.052
-660.959	448.823	0.067	0.150
-659.945	150.300	-0.124	-0.171
-658.930	253.777	-0.121	-0.210
-657.916	-18.650	0.157	-0.100
-656.901	8.945	0.271	-0.207
-655.886	46.155	0.136	0.128
-654.872	-88.767	0.036	-0.011
-653.857	65.628	-0.119	-0.123
-652.843	800.000	-0.026	0.100
-651.828	-200.000	0.008	0.128
-650.814	-200.000	0.029	-0.276
-649.799	-18.780	-0.082	0.052
-648.784	715.068	-0.059	-0.158
-647.770	293.323	-0.146	0.271
-646.755	-39.679	-0.222	0.118
-645.741	-151.028	-0.163	-0.012
-644.726	-0.877	-0.124	0.089
-643.711	114.180	-0.162	0.200
-642.697	54.341	0.083	0.081
-641.682	-200.000	0.014	0.293
-640.668	-179.448	0.210	-0.005
-639.653	-149.040	0.300	0.024
-638.638	-200.000	0.004	0.179
-637.624	-16.912	0.254	0.163
-636.609	458.978	-0.044	-0.100
-635.595	-200.000	-0.018	-0.108
-634.580	589.041	0.055	0.138
-633.565	-9.264	0.102	0.069
-632.551	-74.094	-0.528	-0.194
-631.536	694.195	-0.034	0.092
-630.522	-99.731	-0.209	-0.053
-629.507	-77.666	0.345	0.121
-628.492	1.431	0.248	-0.181
-627.478	800.000	0.025	0.084
-626.463	-200.000	0.001	0.261
-625.449	-20.906	0.160	-0.100
-624.434	129.603	0.040	-0.052
-623.419	-200.000	0.062	0.366
-622.405	-110.603	0.086	0.018
-621.390	106.805	-0.071	-0.086
-620.376	-112.472	0.433	-0.088
-619.361	-154.378	0.298	0.020
-618.346	44.982	-0.111	-0.104
-617.332	-200.000	-0.003	-0.225
-616.317	-200.000	-0.002	-0.279
-615.303	84.240	-0.122	-0.135
-614.288	111.846	0.217	-0.265
-613.273	800.000	0.083	-0.247
-612.259	91.911	-0.023	0.026
-611.244	77.351	0.175	-0.189
-610.230	-29.723	-0.131	-0.076
-609.215	190.961	0.017	-0.026
-608.201	39.857	0.263	0.239
-607.186	501.899	0.053	0.123
-606.171	-200.000	0.024	-0.114
-605.157	-200.000	-0.021	-0.336
-604.142	161.838	0.257	-0.364
-603.128	-117.123	-0.170	-0.031
-602.113	44.248	0.180	-0.167
-601.098	-145.085	-0.135	-0.012
-600.084	40.568	-0.167	-0.152
-599.069	201.728	0.246	-0.385
-598.055	-200.000	0.001	0.243
-597.040	25.492	0.233	0.196
-596.025	-200.000	0.022	-0.207
-595.011	800.000	0.046	0.184
-593.996	-70.121	-0.050	0.019
-592.982	-69.226	0.097	0.038
-591.967	-80.652	0.225	-0.076
-590.952	6.347	-0.342	0.257
-589.938	-143.935	-0.177	-0.017
-588.923	62.015	-0.064	-0.065
-587.909	-200.000	-0.082	0.378
-586.894	-83.355	-0.250	-0.081
-585.879	328.712	0.090	0.174
-584.865	-200.000	0.009	-0.236
-583.850	-20.469	-0.156	0.097
-582.836	-200.000	-0.002	-0.252
-581.821	-145.902	-0.114	0.010
-580.806	800.000	0.131	0.449
-579.792	-40.058	-0.192	0.102
-578.777	-65.079	-0.077	-0.031
-577.763	321.028	0.079	-0.153
-576.748	-45.172	-0.034	0.017
-575.733	94.598	0.231	0.266
-574.719	-200.000	-0.068	0.358
-573.704	-109.567	0.188	0.040
-572.690	183.190	-0.147	0.219
-571.675	-65.528	-0.220	0.090
-570.661	-73.997	-0.355	-0.130
-569.646	-200.000	-0.031	0.263
-568.631	-200.000	-0.016	0.074
-567.617	6.572	-0.114	0.085
-566.602	-10.659	0.108	-0.073
-565.588	95.491	-0.256	0.296
-564.573	-200.000	-0.037	0.268
-563.558	16.836	0.083	0.067
-562.544	800.000	-0.029	0.093
-561.529	397.729	0.052	-0.111
-560.515	-200.000	0.018	-0.135
-559.500	213.795	0.015	-0.024
-558.485	94.324	0.116	-0.134
-557.471	134.476	-0.116	-0.152
-556.456	-113.123	0.159	-0.032
-555.442	237.788	-0.124	-0.209
-554.427	-128.410	-0.415	-0.060
-553.412	-200.000	-0.019	-0.143
-552.398	8.848	-0.218	-0.167
-551.383	-45.711	0.176	0.088
-550.369	-200.000	-0.042	0.301
-549.354	-180.434	-0.386	-0.008
-548.339	42.986	-0.084	-0.077
-547.325	-100.597	-0.306	0.077
-546.310	486.616	0.078	-0.181
-545.296	800.000	-0.085	0.258
-544.281	-153.325	-0.135	-0.009
-543.266	-71.752	-0.376	-0.142
-542.252	666.936	0.128	-0.336
-541.237	316.864	-0.151	0.289
-540.223	-200.000	0.008	0.328
-539.208	-200.000	0.018	-0.322
-538.193	-88.273	0.245	-0.074
-537.179	139.883	0.279	0.371
-536.164	-194.633	-0.111	-0.001
-535.150	800.000	-0.067	0.198
-534.135	-109.487	0.033	0.007
-533.121	52.127	0.206	-0.199
-532.106	354.288	-0.095	-0.191
-531.091	-168.999	0.207	-0.008
-530.077	285.576	-0.030	-0.055
-529.062	800.000	0.056	0.191
-528.048	112.729	0.077	-0.094
-527.033	-7.527	0.349	0.239
-526.018	16.673	-0.243	0.194
-525.004	-87.922	0.064	-0.019
-523.989	34.170	0.138	0.122
-522.975	-81.630	0.290	0.096
-521.960	-17.582	-0.135	0.086
-520.945	19.125	-0.065	-0.053
-519.931	-200.000	-0.020	0.331
-518.916	800.000	-0.042	-0.143
-517.902	-113.629	0.389	-0.077
-516.887	52.655	0.182	-0.176
-515.872	-144.973	-0.294	-0.027
-514.858	800.000	-0.045	0.150
-513.843	-200.000	0.002	-0.136
-512.829	-85.020	0.217	0.069
-511.814	127.494	-0.067	0.086
-510.799	85.475	-0.371	-0.412
-509.785	-92.601	0.218	-0.062
-508.770	-140.213	0.431	-0.046
-507.756	800.000	0.026	0.116
-506.741	-200.000	0.000	0.075
-505.726	99.971	0.318	0.372
-504.712	64.757	0.341	0.348
-503.697	246.257	-0.155	-0.264
-502.683	6.555	-0.269	-0.202
-501.668	-200.000	-0.008	-0.352
-500.653	-3.417	0.118	0.083
-499.639	329.487	-0.176	0.342
-498.624	-200.000	-0.010	0.095
-497.610	50.163	0.355	0.339
-496.595	-49.559	-0.179	0.086
-495.581	147.703	0.129	0.175
-494.566	-49.464	0.159	0.077
-493.551	-55.810	0.127	-0.057
-492.537	-86.934	-0.394	0.121
-491.522	-84.083	0.222	-0.071
-490.508	-120.313	0.130	0.022
-489.493	385.214	0.048	-0.100
-488.478	118.720	-0.062	0.078
-487.464	-34.950	0.198	-0.109
-486.449	243.944	-0.099	0.168
-485.435	-102.351	-0.072	0.018
-484.420	-200.000	-0.070	0.358
-483.405	-200.000	0.021	-0.384
-482.391	107.600	0.182	-0.218
-481.376	-120.951	-0.206	0.035
-480.362	800.000	-0.039	-0.130
-479.347	-54.700	-0.560	0.255
-478.332	-200.000	0.058	-0.351
-477.318	-120.963	0.168	0.028
-476.303	-113.078	-0.243	-0.048
-475.289	-200.000	-0.059	-0.296
-474.274	-120.197	0.074	-0.013
-473.259	-200.000	-0.033	-0.216
-472.245	-72.792	-0.093	0.034
-471.230	142.605	-0.186	0.250
-470.216	-200.000	0.090	-0.637
-469.201	-133.667	-0.348	-0.044
-468.186	-40.692	-0.087	-0.045
-467.172	468.489	-0.166	0.375
-466.157	-200.000	-0.077	0.536
-465.143	-67.437	0.063	0.025
-464.128	665.840	-0.032	-0.084
-463.113	-200.000	0.007	0.072
-462.099	800.000	0.054	0.187
-461.084	-200.000	-0.022	-0.147
-460.070	-168.457	0.229	-0.009
-459.055	-111.013	-0.057	-0.012
-458.040	800.000	-0.097	0.281
-457.026	198.856	0.100	-0.155
-456.011	47.010	-0.268	0.251
-454.997	-28.667	-0.095	0.055
-453.982	676.827	-0.089	-0.233
-452.968	-200.000	-0.017	0.218
-451.953	-200.000	-0.029	0.135
-450.938	238.136	-0.117	-0.196
-449.924	-69.809	-0.177	-0.068
-448.909	-95.137	0.151	-0.041
-447.895	-122.012	-0.132	0.022
-446.880	-200.000	0.001	-0.347
-445.865	155.186	-0.135	-0.187
-444.851	-57.639	0.192	-0.085
-443.836	-130.846	-0.109	0.015
-442.822	-25.410	-0.066	0.039
-441.807	12.337	0.088	-0.068
-440.792	-133.554	-0.140	-0.018
-439.778	128.484	-0.165	-0.212
-438.763	-92.397	-0.078	0.022
-437.749	309.708	0.137	0.259
-436.734	-200.000	-0.027	0.321
-435.719	-69.159	0.266	-0.103
-434.705	-200.000	0.028	0.379
-433.690	-200.000	0.003	0.165
-432.676	-69.058	0.096	-0.037
-431.661	552.827	-0.061	0.149
-430.646	-200.000	0.001	-0.306
-429.632	-49.749	-0.081	-0.039
-428.617	-165.253	0.080	0.004
-427.603	81.015	-0.143	0.155
-426.588	300.128	0.084	0.157
-425.573	-49.933	-0.026	0.012
-424.559	219.257	0.070	0.112
-423.544	569.964	-0.076	0.187
-422.530	-90.115	-0.238	0.070
-421.515	43.289	0.045	0.041
-420.500	152.099	0.078	0.107
-419.486	800.000	-0.092	-0.369
-418.471	214.150	-0.138	0.220
-417.457	-57.537	-0.070	0.031
-416.442	-41.516	0.117	0.061
-415.428	333.639	0.044	-0.085
-414.413	-147.219	-0.119	-0.010
-413.398	256.710	0.044	0.076
-412.384	-200.000	-0.038	0.171
-411.369	-200.000	-0.037	-0.191
-410.355	88.519	-0.135	-0.151
-409.340	123.658	-0.057	0.073
-408.325	-200.000	-0.004	0.102
-407.311	-96.990	-0.333	0.088
-406.296	330.113	-0.139	0.270
-405.282	-120.756	0.073	0.012
-404.267	-45.085	-0.198	0.099
-403.252	-77.226	-0.123	-0.043
-402.238	-157.059	0.070	0.004
-401.223	255.772	0.037	-0.064
-400.209	350.110	0.017	0.033
-399.194	-104.916	-0.327	-0.076
-398.179	640.523	0.024	-0.061
-397.165	-200.000	0.079	0.393
-396.150	-180.616	0.172	0.004
-395.136	-69.027	-0.032	0.012
-394.121	800.000	-0.151	0.486
-393.106	-200.000	-0.005	0.417
-392.092	-48.171	-0.074	0.036
-391.077	-98.500	-0.134	-0.035
-390.063	-13.515	-0.220	0.143
-389.048	87.764	-0.315	-0.351
-388.033	24.453	0.098	0.082
-387.019	231.804	0.013	0.022
-386.004	-200.000	0.021	-0.207
-384.990	-104.041	0.043	0.010
-383.975	57.583	-0.090	0.088
-382.960	-200.000	-0.011	0.194
-381.946	-118.229	-0.125	0.022
-380.931	-117.292	0.246	0.045
-379.917	-131.508	0.208	-0.028
-378.902	800.000	0.055	-0.171
-377.888	55.779	0.278	0.271
-376.873	48.037	-0.118	-0.111
-375.858	-143.750	-0.056	0.005
-374.844	710.464	0.082	-0.219
-373.829	70.762	0.071	-0.074
-372.815	800.000	-0.110	0.395
-371.800	31.681	-0.025	0.021
-370.785	-111.114	-0.152	-0.031
-369.771	312.983	-0.150	0.284
-368.756	158.478	-0.118	0.165
-367.742	800.000	0.079	0.287
-366.727	-200.000	0.016	-0.360
-365.712	88.234	-0.286	-0.319
-364.698	-37.516	-0.234	-0.126
-363.683	104.964	-0.089	0.105
-362.669	79.602	-0.249	0.269
-361.654	800.000	-0.064	0.183
-360.639	376.976	0.109	0.223
-359.625	-141.516	0.221	0.022
-358.610	-145.766	-0.264	0.024
-357.596	-200.000	0.033	-0.179
-356.581	786.759	-0.028	-0.077
-355.566	159.127	-0.119	-0.166
-354.552	-200.000	-0.069	-0.346
-353.537	542.163	-0.014	-0.034
-352.523	-28.977	0.165	-0.095
-351.508	718.149	0.182	-0.486
-350.493	175.563	-0.138	0.202
-349.479	583.512	0.128	-0.316
-348.464	-187.164	-0.191	-0.003
-347.450	-79.149	0.258	0.088
-346.435	77.421	-0.163	-0.174
-345.420	-133.540	-0.012	-0.001
-344.406	35.095	0.283	-0.249
-343.391	317.854	-0.072	0.137
-342.377	-200.000	0.040	0.279
-341.362	216.287	-0.188	0.301
-340.348	639.481	-0.102	0.262
-339.333	-96.229	0.060	-0.016
-338.318	-57.224	0.088	0.039
-337.304	-82.872	-0.265	-0.086
-336.289	-45.903	0.214	-0.106
-335.275	800.000	0.089	0.266
-334.260	57.597	0.306	0.300
-333.245	116.750	0.179	-0.220
-332.231	-103.591	-0.013	0.003
-331.216	-108.042	0.218	0.047
-330.202	-39.989	-0.186	-0.097
-329.187	652.532	0.092	-0.236
-328.172	8.728	-0.152	0.115
-327.158	206.164	-0.256	-0.400
-326.143	328.699	0.145	-0.279
-325.129	-21.531	-0.108	0.066
-324.114	709.738	0.043	-0.115
-323.099	51.757	0.064	-0.061
-322.085	-200.000	0.025	0.229
-321.070	166.361	-0.023	-0.032
-320.056	484.163	0.079	-0.180
-319.041	159.071	0.150	0.209
-318.026	-200.000	0.041	0.201
-317.012	800.000	0.068	-0.220
-315.997	33.760	-0.023	0.020
-314.983	-200.000	0.071	-0.327
-313.968	97.108	0.154	-0.177
-312.953	88.215	-0.280	-0.312
-311.939	-108.935	0.161	0.034
-310.924	201.364	-0.169	-0.262
-309.910	-155.615	-0.381	0.025
-308.895	128.695	0.029	0.037
-307.880	-200.000	-0.025	-0.120
-306.866	-158.219	-0.041	0.002
-305.851	-72.505	-0.151	-0.056
-304.837	-147.644	-0.218	-0.018
-303.822	-37.872	-0.179	-0.095
-302.807	96.276	0.087	-0.100
-301.793	413.673	0.166	-0.354
-300.778	65.467	0.219	0.222
-299.764	674.760	0.117	-0.304
-298.749	-149.248	0.198	-0.016
-297.735	30.225	0.187	0.160
-296.720	800.000	-0.105	-0.431
-295.705	165.670	0.311	-0.441
-294.691	284.298	-0.138	-0.248
-293.676	29.462	0.154	-0.131
-292.662	-200.000	-0.020	-0.100
-291.647	-117.602	-0.238	-0.043
-290.632	66.987	0.167	0.171
-289.618	-200.000	-0.043	0.220
-288.603	-114.255	-0.280	-0.054
-287.589	-82.246	0.250	-0.082
-286.574	-200.000	-0.012	-0.156
-285.559	-93.856	-0.043	-0.012
-284.545	517.859	0.044	-0.104
-283.530	-98.161	0.246	-0.063
-282.516	-200.000	0.056	-0.299
-281.501	-84.927	-0.085	-0.027
-280.486	-115.500	0.268	0.050
-279.472	800.000	-0.088	0.343
-278.457	-96.192	-0.315	0.084
-277.443	-200.000	0.023	-0.245
-276.428	-101.495	0.233	-0.057
-275.413	-200.000	0.024	0.122
-274.399	-60.157	-0.135	0.058
-273.384	193.449	0.164	-0.248
-272.370	-72.533	0.075	-0.028
-271.355	-107.743	0.123	-0.027
-270.340	-97.509	-0.394	0.103
-269.326	-126.982	-0.370	-0.054
-268.311	-71.553	0.240	-0.090
-267.297	-142.646	0.157	-0.015
-266.282	127.102	0.107	-0.136
-265.267	-173.415	-0.219	-0.007
-264.253	244.902	-0.025	-0.042
-263.238	-200.000	0.020	0.193
-262.224	33.110	-0.257	-0.223
-261.209	-58.080	-0.177	0.077
-260.195	-21.561	0.332	-0.202
-259.180	-200.000	-0.005	0.087
-258.165	664.480	0.042	0.108
-257.151	568.031	0.050	0.122
-256.136	-148.562	0.149	-0.012
-255.122	-160.881	0.201	0.011
-254.107	-156.547	-0.105	-0.007
-253.092	-18.524	0.131	0.082
-252.078	-200.000	0.005	-0.125
-251.063	-112.506	0.248	0.049
-250.049	-200.000	-0.019	0.105
-249.034	20.805	0.182	0.148
-248.019	2.306	-0.095	0.069
-247.005	-47.152	0.129	-0.063
-245.990	20.912	-0.106	-0.086
-244.976	-136.612	-0.141	-0.016
-243.961	-24.952	-0.110	0.065
-242.946	-131.103	0.130	0.017
-241.932	65.650	0.153	-0.155
-240.917	21.227	-0.183	-0.149
-239.903	578.465	0.081	0.198
-238.888	-25.728	0.155	0.091
-237.873	40.264	-0.095	0.085
-236.859	123.363	0.324	0.406
-235.844	142.101	-0.162	-0.215
-234.830	-200.000	-0.021	-0.179
-233.815	-200.000	0.026	-0.247
-232.800	-30.041	-0.027	0.015
-231.786	159.236	0.205	-0.286
-230.771	800.000	-0.033	-0.126
-229.757	254.141	0.056	-0.095
-228.742	-200.000	-0.000	0.161
-227.727	22.124	0.237	-0.194
-226.713	-58.365	0.345	-0.150
-225.698	-17.350	0.096	-0.060
-224.684	275.201	0.054	-0.096
-223.669	349.655	0.070	0.138
-222.655	-2.543	-0.103	0.072
-221.640	800.000	0.133	-0.402
-220.625	800.000	0.086	-0.296
-219.611	76.088	-0.017	-0.018
-218.596	-16.989	0.082	-0.052
-217.582	-200.000	0.005	-0.059
-216.567	513.545	0.096	-0.224
-215.552	-200.000	-0.032	0.143
-214.538	70.622	0.067	-0.069
-213.523	-200.000	-0.006	0.116
-212.509	31.428	0.228	-0.196
-211.494	-200.000	-0.000	0.421
-210.479	-94.355	0.062	-0.017
-209.465	516.756	-0.070	0.163
-208.450	800.000	-0.081	0.282
-207.436	-200.000	0.002	0.298
-206.421	-200.000	0.002	0.051
-205.406	50.020	0.215	-0.203
-204.392	-115.219	0.229	0.043
-203.377	207.187	-0.122	-0.189
-202.363	-200.000	-0.015	-0.077
-201.348	-156.420	-0.250	0.016
-200.333	-67.207	0.200	0.079
-199.319	-200.000	-0.006	0.348
-198.304	48.838	0.260	-0.244
-197.290	-200.000	-0.035	0.162
-196.275	-76.294	-0.287	-0.101
-195.260	-200.000	-0.024	0.125
-194.246	43.846	0.068	0.062
-193.231	-124.744	0.215	0.033
-192.217	-92.511	-0.394	0.110
-191.202	162.025	-0.064	-0.089
-190.187	-200.000	-0.090	0.490
-189.173	-84.552	-0.092	0.029
-188.158	196.964	0.193	-0.293
-187.144	-140.376	-0.209	-0.022
-186.129	-20.122	-0.114	0.070
-185.114	120.203	0.204	-0.253
-184.100	-80.284	0.199	-0.066
-183.085	-71.901	0.319	-0.118
-182.071	180.946	0.031	-0.046
-181.056	-97.726	0.006	0.002
-180.042	747.455	-0.033	0.090
-179.027	418.421	0.098	-0.209
-178.012	-82.542	0.250	0.081
-176.998	3.751	0.283	0.206
-175.983	-105.134	0.322	-0.073
-174.969	800.000	0.043	0.160
-173.954	-195.729	-0.131	0.001
-172.939	-48.979	0.135	0.065
-171.925	-200.000	0.043	-0.279
-170.910	53.197	0.131	-0.125
-169.896	800.000	0.069	0.265
-168.881	-14.778	0.055	0.035
-167.866	-200.000	-0.041	-0.434
-166.852	800.000	0.044	0.137
-165.837	-200.000	0.031	0.241
-164.823	-27.643	-0.156	0.090
-163.808	-150.605	-0.221	0.017
-162.793	-200.000	-0.001	0.102
-161.779	-200.000	-0.022	-0.304
-160.764	-63.129	-0.056	-0.023
-159.750	-71.163	-0.234	0.088
-158.735	315.565	-0.073	-0.137
-157.720	33.704	0.072	-0.063
-156.706	-51.100	-0.069	-0.032
-155.691	-200.000	0.018	-0.161
-154.677	800.000	0.060	-0.167
-153.662	70.119	-0.128	0.132
-152.647	71.375	-0.236	0.244
-151.633	-26.486	-0.058	-0.034
-150.618	-104.897	-0.295	-0.067
-149.604	319.076	-0.026	-0.049
-148.589	171.241	-0.139	-0.198
-147.574	-99.619	0.239	0.060
-146.560	41.892	0.224	-0.203
-145.545	593.753	0.097	-0.239
-144.531	-162.674	-0.173	-0.008
-143.516	173.948	-0.135	0.195
-142.502	349.398	0.064	0.126
-141.487	75.069	-0.179	-0.188
-140.472	507.654	-0.084	0.194
-139.458	571.121	-0.051	0.123
-138.443	-106.108	-0.207	0.046
-137.429	800.000	0.086	0.272
-136.414	1.629	0.089	0.064
-135.399	76.212	0.158	0.166
-134.385	-82.846	0.168	-0.054
-133.370	136.863	0.079	0.103
-132.356	-141.783	0.169	-0.017
-131.341	-67.417	0.081	0.032
-130.326	-200.000	-0.038	0.176
-129.312	-21.660	0.143	-0.087
-128.297	148.266	0.161	-0.217
-127.283	-103.169	-0.408	0.096
-126.268	-28.435	-0.179	-0.103
-125.253	57.535	0.168	-0.164
-124.239	46.647	-0.181	0.167
-123.224	-165.465	0.493	-0.021
-122.210	-59.489	-0.131	-0.056
