DTS Sentinel unit serial number:	SN413079Multiplexer serial number:	ORYXHardware model number:	OX4-SRSoftware version number:	ORYX F/W v4.00 Oryx Data Collector v3.7.2.0data status	okinstallation	princeton_trtdifferential loss correction	single-endedforward channel	channel 1reverse channel	N/Adate	2019/09/11time	21:16:11forward acquisition time	60.00reverse acquisition time	0.00gamma	496.2192k internal	0.2308k external	0.2308temperature offset calibration	1.0052default loss term (dB/km)	0.3790temperature slope calibration	1.0000multiplexer offset coefficient	1.0000multiplexer slope coefficient	1.0000fibre end	0.00T internal ref (°C)	36.31T ext. ref 1 (°C)	1.64T ext. ref 2 (°C)	30.32length (m)	temperature (°C)	Stokes	anti-Stokes-747.200	230.657	-0.130	0.217
-746.185	782.920	-0.240	0.669
-745.171	351.062	0.040	0.080
-744.156	88.064	0.301	0.339
-743.142	15.906	-0.077	-0.062
-742.127	-200.000	0.044	0.271
-741.112	38.655	-0.214	-0.194
-740.098	-163.788	-0.433	0.021
-739.083	-200.000	0.009	0.333
-738.069	-200.000	0.044	0.579
-737.054	-20.949	0.161	0.100
-736.039	-55.258	-0.124	0.057
-735.025	-120.194	0.378	0.066
-734.010	96.914	-0.170	-0.198
-732.996	-200.000	0.006	0.242
-731.981	-91.437	-0.205	-0.059
-730.966	-125.363	0.212	-0.033
-729.952	800.000	0.077	0.296
-728.937	-200.000	0.046	0.239
-727.923	-83.570	-0.256	-0.083
-726.908	-91.678	-0.086	-0.025
-725.894	226.838	-0.145	-0.239
-724.879	38.122	-0.194	-0.175
-723.864	-183.197	0.217	-0.004
-722.850	-200.000	0.046	-0.234
-721.835	69.343	-0.085	-0.089
-720.821	-96.015	-0.166	-0.045
-719.806	595.317	-0.075	-0.187
-718.791	-34.551	0.217	-0.121
-717.777	448.128	0.135	0.302
-716.762	36.398	-0.284	0.254
-715.748	-7.883	0.263	0.180
-714.733	200.379	-0.095	-0.148
-713.718	-18.506	0.288	-0.182
-712.704	-66.322	0.398	0.161
-711.689	-200.000	0.026	-0.188
-710.675	-67.128	0.470	-0.188
-709.660	100.343	-0.187	-0.220
-708.645	-200.000	-0.003	-0.048
-707.631	-120.750	-0.116	0.020
-706.616	-111.646	-0.317	0.065
-705.602	-200.000	0.004	-0.036
-704.587	-200.000	-0.008	0.046
-703.572	214.186	-0.039	-0.062
-702.558	-102.104	0.269	-0.066
-701.543	258.212	-0.123	-0.215
-700.529	800.000	-0.034	0.125
-699.514	-78.755	-0.085	-0.029
-698.499	-200.000	0.010	0.068
-697.485	60.174	0.211	-0.212
-696.470	468.064	0.075	-0.171
-695.456	-105.650	-0.091	0.021
-694.441	-200.000	-0.018	-0.162
-693.426	-13.042	0.113	-0.074
-692.412	-200.000	0.009	-0.361
-691.397	-141.224	-0.030	0.003
-690.383	-130.118	-0.262	-0.036
-689.368	800.000	0.149	-0.528
-688.354	204.287	-0.145	0.227
-687.339	800.000	0.045	0.179
-686.324	721.501	-0.046	0.124
-685.310	-56.025	0.293	-0.132
-684.295	-86.901	0.113	0.035
-683.281	-86.885	-0.158	-0.049
-682.266	554.771	-0.080	-0.196
-681.251	-58.203	-0.158	-0.070
-680.237	502.465	0.101	0.237
-679.222	-10.230	-0.142	-0.095
-678.208	30.929	0.166	0.145
-677.193	800.000	-0.051	0.150
-676.178	-200.000	-0.066	0.649
-675.164	-200.000	0.051	-0.261
-674.149	490.288	-0.038	0.089
-673.135	-80.798	0.244	0.082
-672.120	800.000	0.017	0.066
-671.105	481.468	-0.132	-0.303
-670.091	-176.476	-0.126	0.003
-669.076	-15.401	0.306	-0.198
-668.062	321.649	0.133	-0.256
-667.047	-200.000	0.020	-0.254
-666.032	228.822	-0.088	0.145
-665.018	69.587	-0.186	-0.194
-664.003	800.000	0.065	0.186
-662.989	259.437	0.154	-0.269
-661.974	383.099	0.147	-0.307
-660.959	40.861	-0.251	0.229
-659.945	-200.000	-0.023	0.292
-658.930	-200.000	0.024	0.235
-657.916	-39.794	0.056	0.029
-656.901	264.558	0.135	-0.238
-655.886	-37.640	-0.236	-0.127
-654.872	800.000	0.088	-0.254
-653.857	215.666	-0.209	-0.335
-652.843	-108.844	-0.167	-0.036
-651.828	264.038	0.074	-0.130
-650.814	800.000	-0.121	0.340
-649.799	354.616	0.047	0.094
-648.784	12.267	-0.061	-0.048
-647.770	159.335	0.056	0.079
-646.755	800.000	-0.074	-0.254
-645.741	-54.181	0.145	-0.067
-644.726	-146.102	0.163	0.015
-643.711	-200.000	-0.009	0.201
-642.697	120.646	0.175	-0.220
-641.682	-130.702	0.214	0.029
-640.668	510.417	-0.047	-0.111
-639.653	-22.335	0.291	-0.179
-638.638	-200.000	-0.013	-0.247
-637.624	425.263	0.035	-0.077
-636.609	-44.545	0.088	0.045
-635.595	-84.145	-0.360	-0.116
-634.580	284.472	-0.178	-0.324
-633.565	503.730	0.082	-0.191
-632.551	76.266	-0.373	-0.400
-631.536	4.157	-0.214	0.159
-630.522	-89.495	-0.142	-0.042
-629.507	-200.000	-0.008	-0.198
-628.492	800.000	0.023	0.071
-627.478	-119.308	-0.245	-0.043
-626.463	42.972	0.180	0.166
-625.449	772.693	0.087	-0.239
-624.434	179.217	-0.121	-0.179
-623.419	123.562	-0.115	0.146
-622.405	-200.000	-0.007	-0.077
-621.390	-200.000	0.014	-0.257
-620.376	-54.754	-0.095	-0.043
-619.361	-112.954	-0.287	0.057
-618.346	390.514	-0.096	-0.202
-617.332	65.768	0.102	-0.104
-616.317	800.000	-0.020	-0.079
-615.303	87.646	-0.137	-0.153
-614.288	-63.578	-0.525	-0.218
-613.273	39.625	-0.123	0.111
-612.259	-200.000	-0.011	-0.087
-611.244	187.619	0.086	-0.129
-610.230	-36.980	-0.188	-0.102
-609.215	-200.000	0.048	-0.241
-608.201	55.485	0.268	-0.262
-607.186	290.012	-0.086	-0.157
-606.171	800.000	-0.017	0.072
-605.157	-172.169	0.157	0.005
-604.142	-118.141	0.459	-0.083
-603.128	800.000	0.021	0.077
-602.113	-132.045	0.316	-0.042
-601.098	-200.000	-0.003	-0.179
-600.084	737.249	-0.149	0.405
-599.069	-79.197	-0.503	0.172
-598.055	-110.492	0.301	0.063
-597.040	800.000	-0.014	-0.039
-596.025	512.230	-0.074	0.174
-595.011	-74.563	0.101	0.037
-593.996	-53.943	-0.194	-0.090
-592.982	-200.000	0.012	0.068
-591.967	-106.608	-0.080	-0.018
-590.952	-77.776	0.236	-0.082
-589.938	800.000	0.108	0.355
-588.923	-200.000	0.035	0.179
-587.909	137.327	-0.060	0.079
-586.894	551.753	-0.119	0.289
-585.879	49.238	0.181	-0.172
-584.865	119.444	-0.146	0.182
-583.850	7.620	0.126	0.095
-582.836	800.000	-0.068	0.247
-581.821	800.000	-0.011	0.046
-580.806	-108.660	-0.214	-0.046
-579.792	106.487	0.197	-0.235
-578.777	-200.000	-0.010	0.084
-577.763	533.553	0.077	0.184
-576.748	-105.563	-0.264	0.060
-575.733	44.929	-0.216	0.201
-574.719	800.000	0.103	-0.289
-573.704	-103.422	-0.199	-0.047
-572.690	694.973	-0.077	0.205
-571.675	-200.000	-0.006	-0.160
-570.661	29.569	-0.261	-0.224
-569.646	29.392	-0.248	-0.212
-568.631	179.621	-0.124	0.183
-567.617	371.575	-0.050	0.102
-566.602	326.488	0.060	0.116
-565.588	267.473	0.094	0.166
-564.573	399.876	-0.122	-0.258
-563.558	-163.308	-0.193	0.009
-562.544	-200.000	-0.025	0.272
-561.529	663.794	0.013	-0.035
-560.515	-200.000	0.029	0.330
-559.500	125.674	0.056	0.071
-558.485	14.055	0.134	-0.105
-557.471	402.299	-0.119	-0.252
-556.456	-200.000	-0.003	0.053
-555.442	-185.900	-0.059	0.001
-554.427	-118.172	-0.249	0.045
-553.412	448.122	-0.146	-0.325
-552.398	43.292	-0.367	-0.338
-551.383	800.000	-0.028	0.125
-550.369	307.580	0.056	0.105
-549.354	-64.293	0.100	-0.041
-548.339	-119.719	0.092	-0.016
-547.325	-10.842	-0.279	-0.186
-546.310	753.015	0.090	0.246
-545.296	-112.429	-0.269	0.054
-544.281	119.024	-0.118	0.148
-543.266	87.185	-0.017	-0.018
-542.252	26.610	0.238	-0.201
-541.237	800.000	0.025	-0.090
-540.223	-102.624	0.294	-0.071
-539.208	800.000	-0.009	-0.036
-538.193	-73.516	0.419	0.154
-537.179	93.875	0.163	0.187
-536.164	114.397	-0.277	-0.340
-535.150	114.268	-0.105	0.129
-534.135	771.110	-0.089	-0.243
-533.121	-21.407	0.301	-0.185
-532.106	800.000	-0.082	0.250
-531.091	-175.082	0.116	0.003
-530.077	157.636	-0.081	0.114
-529.062	403.779	-0.036	-0.076
-528.048	-109.696	-0.128	-0.027
-527.033	45.983	0.094	0.088
-526.018	-2.402	0.227	0.160
-525.004	800.000	-0.079	0.227
-523.989	800.000	-0.120	0.337
-522.975	-106.238	0.264	0.060
-521.960	-200.000	-0.013	-0.239
-520.945	93.283	-0.098	-0.111
-519.931	23.181	0.206	-0.170
-518.916	800.000	0.050	0.150
-517.902	480.055	0.083	-0.189
-516.887	800.000	-0.042	0.146
-515.872	120.766	-0.104	0.130
-514.858	233.489	0.144	-0.239
-513.843	-35.002	-0.155	-0.085
-512.829	369.223	-0.164	0.334
-511.814	65.066	0.209	0.213
-510.799	-49.857	-0.096	-0.046
-509.785	180.449	-0.175	0.258
-508.770	-200.000	0.052	0.362
-507.756	-26.764	0.113	0.066
-506.741	738.871	0.070	0.190
-505.726	-20.500	-0.110	-0.068
-504.712	-68.600	-0.155	-0.060
-503.697	386.725	0.118	-0.246
-502.683	76.959	-0.186	-0.199
-501.668	11.804	0.135	0.104
-500.653	-14.156	0.160	-0.104
-499.639	-30.797	-0.334	-0.190
-498.624	-200.000	0.011	-0.224
-497.610	-10.140	-0.194	0.130
-496.595	-87.406	0.150	0.046
-495.581	-200.000	-0.006	-0.339
-494.566	9.724	-0.386	-0.295
-493.551	-68.166	-0.160	0.063
-492.537	-200.000	-0.041	-0.256
-491.522	116.554	0.076	-0.094
-490.508	-66.035	0.253	-0.102
-489.493	800.000	0.084	-0.290
-488.478	-200.000	-0.015	-0.083
-487.464	595.755	0.177	0.441
-486.449	606.366	0.052	0.132
-485.435	-200.000	0.014	0.079
-484.420	787.351	0.072	0.199
-483.405	130.694	0.123	-0.158
-482.391	58.252	-0.152	-0.150
-481.376	-180.981	0.222	0.004
-480.362	687.294	-0.041	-0.108
-479.347	-114.405	-0.208	-0.040
-478.332	-63.560	-0.304	-0.125
-477.318	-200.000	-0.032	0.188
-476.303	185.574	-0.046	-0.069
-475.289	-104.171	0.146	-0.034
-474.274	-83.175	0.310	-0.100
-473.259	788.281	-0.046	0.126
-472.245	-176.272	0.214	0.006
-471.230	149.917	0.111	0.151
-470.216	281.342	-0.135	0.243
-469.201	800.000	0.045	-0.138
-468.186	-47.981	0.284	-0.138
-467.172	-68.703	-0.212	-0.083
-466.157	-12.040	0.135	-0.089
-465.143	-71.875	-0.232	0.087
-464.128	155.168	0.163	0.225
-463.113	-200.000	-0.019	0.216
-462.099	217.363	-0.118	0.188
-461.084	-200.000	-0.002	-0.137
-460.070	70.071	0.152	0.157
-459.055	-104.751	0.447	-0.103
-458.040	27.811	-0.131	-0.111
-457.026	-200.000	-0.045	-0.238
-456.011	-39.144	0.154	-0.081
-454.997	78.950	0.238	0.257
-453.982	800.000	0.060	-0.205
-452.968	128.490	0.242	-0.310
-451.953	-5.764	0.242	0.166
-450.938	103.851	0.118	-0.139
-449.924	-89.551	0.360	-0.106
-448.909	800.000	-0.076	0.251
-447.895	-121.988	0.154	0.026
-446.880	401.881	-0.141	0.297
-445.865	335.633	-0.202	0.394
-444.851	490.996	0.066	-0.151
-443.836	800.000	0.042	-0.178
-442.822	18.888	-0.332	-0.267
-441.807	-6.966	-0.174	-0.119
-440.792	-54.448	0.281	0.128
-439.778	-33.361	-0.079	-0.044
-438.763	-127.279	-0.253	-0.037
-437.749	-30.904	0.106	0.060
-436.734	-0.716	-0.121	0.086
-435.719	-96.994	0.354	-0.093
-434.705	764.659	0.098	-0.266
-433.690	-200.000	-0.073	-0.368
-432.676	-200.000	0.026	-0.201
-431.661	108.088	0.074	0.089
-430.646	-84.264	-0.110	-0.035
-429.632	234.246	-0.043	0.072
-428.617	-200.000	-0.040	-0.187
-427.603	-84.582	-0.091	-0.029
-426.588	-128.342	-0.299	0.043
-425.573	-200.000	0.013	0.121
-424.559	29.238	-0.099	0.085
-423.544	1.545	0.373	-0.269
-422.530	-73.952	0.313	-0.114
-421.515	225.089	-0.133	-0.217
-420.500	-200.000	0.037	-0.231
-419.486	-200.000	0.038	-0.464
-418.471	466.383	0.104	0.234
-417.457	713.622	-0.118	-0.315
-416.442	-135.801	0.365	-0.043
-415.428	-200.000	0.021	0.136
-414.413	-167.593	0.124	0.005
-413.398	-200.000	0.007	0.236
-412.384	-200.000	-0.011	0.380
-411.369	599.740	-0.060	-0.149
-410.355	21.574	-0.185	-0.151
-409.340	-200.000	-0.011	0.090
-408.325	185.469	-0.110	0.164
-407.311	130.466	0.042	0.054
-406.296	-93.533	0.060	-0.017
-405.282	19.698	-0.414	0.334
-404.267	-13.146	-0.138	0.090
-403.252	-85.620	0.133	-0.042
-402.238	-158.702	0.091	0.005
-401.223	-47.040	-0.230	0.112
-400.209	-200.000	0.090	0.412
-399.194	186.078	0.078	0.116
-398.179	-18.744	0.201	0.126
-397.165	-104.420	0.178	0.041
-396.150	227.630	0.149	-0.244
-395.136	-16.721	-0.297	0.188
-394.121	210.611	0.128	-0.202
-393.106	-200.000	-0.016	0.295
-392.092	-1.753	-0.472	0.333
-391.077	142.303	0.121	-0.161
-390.063	-82.177	0.380	0.124
-389.048	131.085	0.119	0.153
-388.033	-102.502	-0.272	0.065
-387.019	58.259	0.159	0.156
-386.004	-200.000	0.058	0.299
-384.990	-105.392	-0.435	0.099
-383.975	43.851	-0.157	0.144
-382.960	92.898	0.081	0.092
-381.946	0.784	-0.280	-0.201
-380.931	-16.619	0.171	-0.108
-379.917	-200.000	0.012	0.124
-378.902	-200.000	0.001	0.194
-377.888	-88.824	0.045	-0.013
-376.873	-7.763	-0.388	-0.263
-375.858	540.846	0.127	0.304
-374.844	-122.359	-0.361	-0.059
-373.829	332.516	0.146	-0.283
-372.815	-27.632	0.279	0.163
-371.800	-46.818	-0.281	-0.138
-370.785	-200.000	0.053	-0.435
-369.771	-20.380	0.038	0.023
-368.756	-104.323	-0.108	-0.025
-367.742	-46.057	-0.249	0.123
-366.727	-131.503	0.268	-0.035
-365.712	121.093	-0.039	-0.049
-364.698	-74.845	0.215	0.077
-363.683	-200.000	-0.025	-0.178
-362.669	-100.618	-0.211	0.052
-361.654	-70.376	-0.066	-0.025
-360.639	122.324	0.173	0.217
-359.625	800.000	-0.024	-0.073
-358.610	166.661	-0.092	-0.130
-357.596	-200.000	0.004	0.038
-356.581	-107.119	0.303	0.067
-355.566	68.978	-0.115	0.118
-354.552	-187.416	0.154	0.002
-353.537	-82.732	-0.126	-0.041
-352.523	49.032	0.158	0.148
-351.508	-52.890	-0.159	0.073
-350.493	-200.000	-0.019	-0.240
-349.479	23.761	0.261	0.216
-348.464	800.000	-0.040	-0.132
-347.450	-60.815	0.082	-0.035
-346.435	50.883	-0.135	-0.128
-345.420	-140.689	0.387	-0.040
-344.406	800.000	-0.029	-0.085
-343.391	-151.334	-0.327	0.024
-342.377	4.635	0.230	0.169
-341.362	681.324	0.126	0.328
-340.348	-76.012	-0.146	-0.052
-339.333	177.251	0.098	-0.143
-338.318	800.000	0.088	0.358
-337.304	-200.000	0.044	0.261
-336.289	327.864	-0.121	-0.232
-335.275	-163.592	0.228	-0.011
-334.260	-200.000	0.011	0.054
-333.245	-197.486	0.184	-0.001
-332.231	34.123	0.162	0.141
-331.216	120.093	-0.253	-0.313
-330.202	-200.000	0.011	0.150
-329.187	-16.810	0.329	0.208
-328.172	496.716	-0.117	0.269
-327.158	14.936	-0.048	-0.037
-326.143	490.677	0.067	-0.153
-325.129	178.685	0.206	-0.300
-324.114	-106.329	-0.102	-0.023
-323.099	178.642	0.071	-0.103
-322.085	606.042	0.137	0.342
-321.070	6.242	0.157	0.116
-320.056	58.454	0.175	-0.171
-319.041	800.000	-0.104	-0.367
-318.026	-72.506	0.118	-0.044
-317.012	135.707	0.219	-0.285
-315.997	30.455	0.245	0.209
-314.983	-112.843	0.198	-0.039
-313.968	-179.448	-0.318	-0.007
-312.953	-93.777	0.163	-0.045
-311.939	-61.237	0.304	-0.128
-310.924	67.844	-0.085	-0.086
-309.910	98.362	0.147	-0.170
-308.895	178.008	0.121	-0.177
-307.880	-200.000	-0.005	-0.271
-306.866	800.000	0.101	-0.292
-305.851	800.000	-0.025	-0.085
-304.837	-147.488	0.224	0.019
-303.822	-162.087	-0.266	-0.013
-302.807	90.068	-0.071	0.080
-301.793	800.000	0.053	-0.222
-300.778	800.000	0.127	-0.354
-299.764	-118.679	0.270	-0.048
-298.749	-74.187	0.405	-0.146
-297.735	-127.857	0.415	-0.060
-296.720	-38.876	0.302	-0.159
-295.705	-95.953	0.176	0.047
-294.691	800.000	-0.067	-0.258
-293.676	-49.422	-0.103	-0.049
-292.662	-197.185	-0.450	0.003
-291.647	460.843	0.067	-0.149
-290.632	42.686	0.070	-0.064
-289.618	-200.000	0.009	-0.168
-288.603	-10.575	-0.303	0.200
-287.589	-94.870	0.328	0.089
-286.574	-0.076	0.331	-0.235
-285.559	-74.831	-0.169	0.061
-284.545	-54.194	0.195	-0.089
-283.530	-183.762	-0.097	-0.002
-282.516	-134.645	-0.271	0.033
-281.501	-200.000	0.023	0.196
-280.486	-3.066	0.317	0.221
-279.472	-200.000	0.009	0.067
-278.457	-162.150	-0.369	0.018
-277.443	391.201	-0.067	0.138
-276.428	-200.000	-0.053	0.248
-275.413	800.000	-0.016	0.056
-274.399	800.000	0.118	0.347
-273.384	-52.118	0.078	0.036
-272.370	-106.534	-0.073	0.016
-271.355	97.089	-0.181	0.207
-270.340	127.236	0.091	0.116
-269.326	215.750	-0.071	0.113
-268.311	6.737	-0.140	0.104
-267.297	-29.219	-0.363	0.208
-266.282	-26.226	0.083	-0.048
-265.267	800.000	0.044	0.138
-264.253	6.644	-0.239	0.177
-263.238	58.035	-0.181	0.177
-262.224	-150.372	-0.113	0.009
-261.209	-62.677	-0.271	0.112
-260.195	-64.548	-0.108	-0.044
-259.180	290.534	-0.049	-0.089
-258.165	381.921	0.007	-0.015
-257.151	-30.928	0.143	0.081
-256.136	800.000	0.053	-0.180
-255.122	38.787	-0.115	-0.103
-254.107	11.041	0.218	0.166
-253.092	30.730	0.049	0.042
-252.078	-84.864	0.080	0.025
-251.063	-200.000	0.031	-0.294
-250.049	-72.863	0.273	0.100
-249.034	-41.228	-0.440	0.226
-248.019	347.273	0.052	0.102
-247.005	-165.091	0.110	0.005
-245.990	27.090	-0.051	-0.043
-244.976	-200.000	0.020	0.120
-243.961	-137.929	-0.088	-0.010
-242.946	54.454	-0.127	-0.122
-241.932	800.000	-0.075	-0.288
-240.917	82.061	0.081	-0.087
-239.903	-135.392	0.328	-0.039
-238.888	84.525	-0.067	-0.073
-237.873	341.604	0.039	-0.075
-236.859	2.383	-0.285	0.206
-235.844	24.239	-0.106	-0.087
-234.830	-70.572	-0.176	-0.066
-233.815	-121.180	0.141	0.023
-232.800	-200.000	0.024	-0.135
-231.786	90.595	-0.255	0.285
-230.771	210.887	0.204	-0.320
-229.757	-61.032	-0.054	-0.023
-228.742	-93.498	0.176	-0.049
-227.727	-187.984	-0.539	-0.007
-226.713	-180.122	-0.466	-0.010
-225.698	92.680	-0.203	0.229
-224.684	800.000	0.076	0.324
-223.669	-100.686	0.071	0.018
-222.655	-20.002	0.267	-0.164
-221.640	490.001	0.058	0.132
-220.625	107.133	-0.282	0.334
-219.611	22.085	0.442	-0.359
-218.596	0.167	-0.074	-0.052
-217.582	106.412	0.269	-0.317
-216.567	-200.000	0.051	-0.273
-215.552	-63.024	0.170	0.070
-214.538	800.000	-0.075	0.223
-213.523	778.745	-0.052	-0.141
-212.509	27.591	-0.160	0.134
-211.494	208.274	-0.242	0.377
-210.479	391.020	0.037	0.077
-209.465	-41.353	0.022	-0.011
-208.450	133.169	0.234	0.301
-207.436	286.086	0.009	0.016
-206.421	-200.000	-0.043	-0.204
-205.406	-143.023	0.042	0.004
-204.392	113.996	0.118	0.143
-203.377	-146.789	-0.078	0.007
-202.363	-103.052	0.069	-0.016
-201.348	-108.126	-0.321	0.069
-200.333	729.273	0.030	0.081
-199.319	-183.447	-0.175	0.003
-198.304	-106.739	-0.399	-0.088
-197.290	-200.000	0.014	0.112
-196.275	800.000	-0.042	0.179
-195.260	-4.210	-0.497	0.342
-194.246	247.005	0.005	0.009
-193.231	-200.000	-0.007	-0.248
-192.217	-23.359	-0.247	0.148
-191.202	79.247	-0.070	0.074
-190.187	-11.375	0.221	0.145
-189.173	33.614	0.123	0.106
-188.158	-152.104	0.437	0.032
-187.144	228.411	0.071	0.116
-186.129	-126.847	0.169	-0.025
-185.114	-33.547	-0.131	-0.072
-184.100	162.252	-0.213	0.297
-183.085	-200.000	0.007	-0.195
-182.071	800.000	-0.025	-0.084
-181.056	32.054	-0.195	0.167
-180.042	-55.921	0.092	0.041
-179.027	-200.000	0.000	0.014
-178.012	-52.678	-0.123	0.057
-176.998	-69.549	-0.354	0.135
-175.983	800.000	-0.052	0.180
-174.969	-112.772	0.350	-0.069
-173.954	-70.356	-0.235	-0.088
-172.939	163.775	0.116	0.162
-171.925	24.350	0.305	0.250
-170.910	-34.095	-0.161	0.088
-169.896	109.370	-0.104	0.124
-168.881	58.032	-0.120	-0.116
-167.866	193.519	-0.092	-0.138
-166.852	-155.972	0.253	0.016
-165.837	-86.632	0.179	0.055
-164.823	92.649	0.105	0.118
-163.808	-200.000	-0.066	0.458
-162.793	105.132	0.178	-0.209
-161.779	756.941	-0.027	0.073
-160.764	55.248	0.064	-0.061
-159.750	213.274	0.087	-0.136
-158.735	493.727	-0.081	0.185
-157.720	-200.000	0.025	-0.220
-156.706	-138.546	0.035	-0.004
-155.691	-200.000	0.000	0.055
-154.677	585.532	0.070	-0.170
-153.662	-156.218	-0.216	-0.014
-152.647	580.406	-0.052	-0.128
-151.633	640.666	0.029	-0.072
-150.618	-59.651	0.105	0.045
-149.604	22.494	0.241	-0.196
-148.589	-200.000	-0.020	0.101
-147.574	91.500	0.188	-0.210
-146.560	219.924	0.075	0.119
-145.545	-200.000	0.040	-0.590
-144.531	23.024	-0.175	0.143
-143.516	108.205	-0.036	0.043
-142.502	-200.000	0.021	-0.398
-141.487	-37.930	-0.075	-0.040
-140.472	280.847	0.026	-0.047
-139.458	335.783	-0.105	0.202
-138.443	800.000	-0.048	0.172
-137.429	-200.000	0.006	0.367
-136.414	-64.584	0.248	-0.100
-135.399	-144.603	-0.232	-0.021
-134.385	-200.000	0.030	-0.335
-133.370	7.098	0.047	0.035
-132.356	-85.748	0.042	-0.013
-131.341	568.329	0.142	0.342
-130.326	364.738	0.101	0.202
-129.312	-119.323	0.024	-0.004
-128.297	-200.000	0.002	-0.119
-127.283	-200.000	0.051	-0.235
-126.268	55.461	0.119	-0.114
-125.253	-118.073	-0.019	-0.003
-124.239	-200.000	0.184	0.001
-123.224	63.615	-0.079	-0.079
-122.210	-130.562	-0.268	-0.036
-121.195	-148.553	0.354	0.029
