DTS Sentinel unit serial number:	SN413079Multiplexer serial number:	ORYXHardware model number:	OX4-SRSoftware version number:	ORYX F/W v4.00 Oryx Data Collector v3.7.2.0data status	okinstallation	princeton_trtdifferential loss correction	single-endedforward channel	channel 1reverse channel	N/Adate	2019/09/15time	15:14:35forward acquisition time	60.00reverse acquisition time	0.00gamma	496.2192k internal	0.2292k external	0.2292temperature offset calibration	0.9952default loss term (dB/km)	0.3790temperature slope calibration	1.0000multiplexer offset coefficient	1.0000multiplexer slope coefficient	1.0000fibre end	0.00T internal ref (°C)	40.62T ext. ref 1 (°C)	5.00T ext. ref 2 (°C)	37.87length (m)	temperature (°C)	Stokes	anti-Stokes-747.200	800.000	-0.117	0.471
-746.185	800.000	-0.104	0.416
-745.171	-200.000	0.037	-0.196
-744.156	26.307	0.064	0.055
-743.142	-148.940	-0.449	-0.037
-742.127	800.000	0.103	0.311
-741.112	-200.000	-0.002	0.065
-740.098	-200.000	-0.042	0.260
-739.083	-200.000	0.012	0.155
-738.069	-200.000	-0.057	0.408
-737.054	-142.219	0.183	0.019
-736.039	45.359	-0.118	-0.111
-735.025	-110.983	0.460	-0.097
-734.010	-103.117	0.392	0.095
-732.996	-187.128	-0.329	-0.005
-731.981	-97.820	-0.208	-0.055
-730.966	-200.000	0.018	-0.362
-729.952	-200.000	-0.001	0.052
-728.937	-200.000	0.036	-0.196
-727.923	703.852	-0.088	0.237
-726.908	-73.866	0.077	-0.029
-725.894	769.605	0.021	0.059
-724.879	248.587	-0.122	-0.212
-723.864	704.066	0.119	-0.321
-722.850	267.463	-0.133	-0.238
-721.835	-52.988	-0.267	0.126
-720.821	-125.405	-0.093	-0.015
-719.806	-58.264	-0.123	0.055
-718.791	-18.478	0.175	0.112
-717.777	-54.968	0.236	0.109
-716.762	-194.694	0.187	-0.001
-715.748	514.968	0.083	-0.198
-714.733	-200.000	0.054	0.263
-713.718	8.985	-0.118	0.091
-712.704	4.944	0.302	0.227
-711.689	-106.018	-0.187	-0.043
-710.675	440.832	0.054	0.121
-709.660	-200.000	0.069	0.000
-708.645	-132.964	-0.152	0.020
-707.631	222.492	0.091	-0.150
-706.616	46.023	0.115	0.109
-705.602	-63.566	-0.286	0.120
-704.587	8.601	0.143	-0.110
-703.572	338.451	0.076	-0.151
-702.558	-200.000	0.037	-0.295
-701.543	-40.108	-0.328	-0.174
-700.529	47.832	-0.157	0.150
-699.514	-6.258	0.150	0.105
-698.499	7.060	-0.143	-0.109
-697.485	800.000	-0.093	0.287
-696.470	-138.401	-0.385	-0.043
-695.456	-107.970	0.321	-0.071
-694.441	-200.000	0.009	0.141
-693.426	1.335	0.243	0.178
-692.412	225.198	0.090	0.148
-691.397	197.006	0.067	-0.104
-690.383	95.629	0.160	-0.186
-689.368	-52.236	0.377	0.178
-688.354	800.000	0.089	-0.306
-687.339	41.287	0.024	0.023
-686.324	240.421	-0.126	-0.215
-685.310	-42.853	0.065	0.034
-684.295	-73.114	0.317	0.119
-683.281	256.819	-0.084	0.147
-682.266	518.043	0.093	-0.222
-681.251	-15.673	0.330	0.215
-680.237	300.387	-0.123	-0.232
-679.222	-169.037	0.273	0.010
-678.208	-200.000	0.002	-0.066
-677.193	-96.477	0.260	-0.070
-676.178	-200.000	-0.043	-0.237
-675.164	-146.031	-0.414	-0.037
-674.149	-200.000	-0.013	0.114
-673.135	-8.194	0.136	0.093
-672.120	36.660	-0.026	-0.023
-671.105	-24.514	-0.209	0.127
-670.091	355.215	-0.109	-0.222
-669.076	-200.000	-0.010	0.271
-668.062	-67.923	-0.084	0.033
-667.047	-135.251	-0.501	0.061
-666.032	-71.152	-0.164	0.063
-665.018	-200.000	-0.003	-0.053
-664.003	-140.160	-0.184	0.020
-662.989	188.171	-0.112	-0.171
-661.974	-40.420	-0.260	-0.138
-660.959	232.968	-0.151	-0.253
-659.945	-196.255	-0.230	0.002
-658.930	-200.000	0.035	-0.187
-657.916	60.337	0.132	-0.134
-656.901	-58.518	0.328	0.145
-655.886	-46.938	-0.008	-0.004
-654.872	682.166	0.078	-0.208
-653.857	-66.583	-0.083	0.034
-652.843	302.708	-0.027	-0.052
-651.828	-41.790	-0.359	-0.188
-650.814	-108.558	0.191	-0.042
-649.799	-10.420	0.213	-0.144
-648.784	-44.179	-0.139	0.071
-647.770	-150.601	-0.425	-0.033
-646.755	171.944	-0.176	-0.258
-645.741	201.291	-0.151	-0.236
-644.726	2.000	0.234	-0.172
-643.711	340.632	0.128	-0.254
-642.697	-117.375	-0.231	-0.043
-641.682	87.434	0.209	-0.236
-640.668	-200.000	-0.022	-0.153
-639.653	312.860	0.011	-0.021
-638.638	350.173	-0.143	0.288
-637.624	-200.000	0.037	0.169
-636.609	-200.000	-0.005	-0.088
-635.595	681.040	0.100	0.266
-634.580	-89.703	0.048	0.014
-633.565	-200.000	-0.026	-0.137
-632.551	-200.000	-0.037	-0.165
-631.536	58.741	-0.202	-0.202
-630.522	-50.794	-0.120	-0.058
-629.507	800.000	0.083	0.261
-628.492	-200.000	-0.020	0.300
-627.478	138.040	0.067	0.090
-626.463	549.760	0.095	0.232
-625.449	-128.268	-0.111	0.016
-624.434	-76.577	-0.394	-0.141
-623.419	132.204	-0.117	-0.153
-622.405	-200.000	-0.014	0.206
-621.390	-138.141	-0.395	0.045
-620.376	13.353	0.039	0.030
-619.361	135.165	-0.144	-0.190
-618.346	11.259	-0.112	-0.087
-617.332	-200.000	-0.029	-0.222
-616.317	-200.000	-0.036	-0.177
-615.303	-145.167	-0.067	0.006
-614.288	160.159	0.124	0.176
-613.273	136.383	-0.261	0.347
-612.259	-200.000	0.013	-0.131
-611.244	-98.753	-0.235	-0.061
-610.230	-25.358	-0.275	0.165
-609.215	-200.000	0.042	-0.193
-608.201	525.260	-0.023	0.056
-607.186	63.663	0.134	0.137
-606.171	-139.772	0.099	-0.011
-605.157	-152.257	-0.363	-0.027
-604.142	76.087	-0.061	0.066
-603.128	47.581	0.134	0.127
-602.113	800.000	0.048	0.206
-601.098	-119.444	-0.177	0.031
-600.084	423.256	0.180	0.395
-599.069	-131.204	0.328	-0.044
-598.055	171.233	-0.109	0.159
-597.040	32.305	0.046	0.040
-596.025	-200.000	-0.035	-0.253
-595.011	-200.000	0.010	-0.124
-593.996	358.434	0.040	0.081
-592.982	336.384	-0.229	0.452
-591.967	104.229	-0.039	0.047
-590.952	-72.950	0.417	-0.156
-589.938	-200.000	0.001	-0.150
-588.923	388.383	0.126	0.265
-587.909	-200.000	-0.010	0.165
-586.894	-38.608	0.250	0.135
-585.879	-90.198	0.266	0.079
-584.865	-200.000	-0.015	0.118
-583.850	138.432	0.079	0.105
-582.836	-39.524	-0.220	0.117
-581.821	-90.715	-0.163	0.048
-580.806	-200.000	-0.022	-0.131
-579.792	2.163	-0.303	-0.223
-578.777	105.218	-0.194	0.233
-577.763	-1.687	-0.081	0.058
-576.748	30.371	-0.182	-0.158
-575.733	800.000	-0.074	-0.319
-574.719	-200.000	-0.021	0.165
-573.704	108.656	0.111	-0.135
-572.690	800.000	0.118	0.342
-571.675	-200.000	-0.014	0.101
-570.661	-84.136	0.131	-0.042
-569.646	-4.358	0.129	-0.091
-568.631	-30.472	0.148	-0.085
-567.617	144.955	0.290	-0.395
-566.602	136.569	0.076	-0.101
-565.588	317.765	0.062	0.120
-564.573	446.786	0.029	-0.065
-563.558	195.022	0.034	-0.053
-562.544	149.112	0.191	0.262
-561.529	-26.119	0.318	-0.190
-560.515	-129.834	-0.322	0.045
-559.500	378.180	0.109	-0.226
-558.485	-200.000	-0.044	-0.456
-557.471	8.320	-0.341	-0.260
-556.456	-149.058	-0.283	0.023
-555.442	-67.533	-0.350	-0.139
-554.427	-40.952	-0.251	-0.132
-553.412	-16.874	-0.165	-0.106
-552.398	81.624	0.150	-0.165
-551.383	-116.528	-0.145	0.027
-550.369	-200.000	-0.050	0.255
-549.354	74.671	0.100	0.107
-548.339	-200.000	0.027	-0.167
-547.325	7.891	-0.169	0.129
-546.310	11.654	0.129	-0.101
-545.296	40.032	-0.028	0.025
-544.281	200.776	0.119	-0.186
-543.266	448.186	0.090	-0.201
-542.252	-182.351	-0.306	0.006
-541.237	0.988	0.201	-0.146
-540.223	-111.585	0.089	0.018
-539.208	-26.824	0.166	-0.098
-538.193	183.286	0.143	-0.215
-537.179	-26.331	0.217	-0.129
-536.164	109.957	0.190	0.231
-535.150	-31.870	-0.101	-0.057
-534.135	-67.696	-0.214	-0.085
-533.121	366.033	-0.077	0.159
-532.106	73.844	-0.109	0.116
-531.091	33.544	-0.187	-0.165
-530.077	-13.012	0.058	0.039
-529.062	10.203	0.209	-0.162
-528.048	800.000	0.039	0.127
-527.033	270.053	0.078	0.140
-526.018	-50.950	0.192	-0.092
-525.004	150.949	-0.184	0.254
-523.989	-62.205	-0.127	0.054
-522.975	-50.222	-0.213	0.102
-521.960	-73.392	0.018	-0.007
-520.945	-99.523	0.188	-0.048
-519.931	-68.999	0.107	-0.042
-518.916	-200.000	-0.036	-0.203
-517.902	186.934	-0.081	-0.123
-516.887	-34.961	-0.174	0.096
-515.872	-16.662	0.256	0.164
-514.858	-200.000	-0.039	0.238
-513.843	9.610	0.069	0.053
-512.829	132.654	0.167	-0.219
-511.814	68.954	-0.105	-0.109
-510.799	-58.900	-0.099	0.043
-509.785	800.000	-0.066	-0.243
-508.770	-200.000	0.132	0.001
-507.756	68.100	-0.103	0.107
-506.741	232.749	-0.088	0.146
-505.726	-91.917	-0.434	0.125
-504.712	-200.000	0.031	0.274
-503.697	-155.780	-0.068	0.004
-502.683	164.497	0.034	0.048
-501.668	235.559	-0.069	0.116
-500.653	11.224	0.316	-0.245
-499.639	79.031	-0.126	-0.137
-498.624	-16.844	-0.115	-0.074
-497.610	312.591	-0.083	0.159
-496.595	-140.620	-0.079	-0.008
-495.581	-200.000	0.030	0.303
-494.566	-132.493	-0.392	0.051
-493.551	800.000	0.032	-0.097
-492.537	572.209	0.062	-0.152
-491.522	173.015	-0.122	-0.178
-490.508	637.889	0.046	0.118
-489.493	-39.109	-0.179	0.095
-488.478	800.000	-0.060	-0.242
-487.464	-6.680	0.152	-0.105
-486.449	-200.000	0.023	-0.352
-485.435	345.555	0.055	0.110
-484.420	-11.545	0.052	-0.035
-483.405	-200.000	0.025	-0.184
-482.391	-20.925	-0.137	-0.085
-481.376	-158.723	0.260	0.015
-480.362	800.000	-0.021	-0.076
-479.347	-200.000	-0.005	0.027
-478.332	32.893	-0.118	-0.103
-477.318	-121.174	0.216	-0.037
-476.303	449.632	-0.140	-0.312
-475.289	-200.000	-0.029	0.425
-474.274	-167.308	-0.134	-0.005
-473.259	-65.175	0.215	-0.088
-472.245	296.573	-0.080	0.148
-471.230	-200.000	0.060	0.389
-470.216	-142.466	0.077	-0.008
-469.201	254.114	-0.052	-0.090
-468.186	120.533	0.215	-0.270
-467.172	63.828	-0.167	-0.170
-466.157	5.301	-0.325	-0.243
-465.143	53.429	-0.064	0.062
-464.128	-119.980	-0.468	0.081
-463.113	-19.419	-0.071	-0.045
-462.099	61.616	-0.209	-0.211
-461.084	-65.950	-0.170	0.069
-460.070	66.396	0.250	0.258
-459.055	-200.000	0.029	0.219
-458.040	-108.048	0.598	-0.131
-457.026	800.000	0.074	0.231
-456.011	-166.735	0.227	0.010
-454.997	-111.697	0.264	-0.054
-453.982	-6.928	0.242	-0.166
-452.968	-116.733	-0.234	-0.043
-451.953	196.774	0.171	0.264
-450.938	189.772	-0.062	-0.094
-449.924	800.000	0.037	0.138
-448.909	-192.545	0.207	-0.002
-447.895	164.197	-0.121	-0.172
-446.880	787.425	-0.025	-0.070
-445.865	151.085	0.153	0.211
-444.851	800.000	0.117	-0.379
-443.836	-170.651	0.034	-0.001
-442.822	44.028	0.164	-0.152
-441.807	-0.747	0.275	-0.197
-440.792	101.075	-0.083	0.098
-439.778	-200.000	0.009	0.293
-438.763	-143.617	-0.286	-0.027
-437.749	-24.083	-0.089	0.054
-436.734	102.129	-0.063	0.074
-435.719	-41.383	0.090	-0.047
-434.705	-78.035	0.065	-0.023
-433.690	-119.176	0.092	-0.016
-432.676	-127.553	-0.230	-0.034
-431.661	-158.987	0.095	-0.005
-430.646	192.958	-0.195	0.299
-429.632	-49.969	-0.208	-0.100
-428.617	253.744	-0.043	0.074
-427.603	112.236	-0.245	0.300
-426.588	-45.061	-0.169	-0.085
-425.573	-44.047	-0.355	-0.180
-424.559	800.000	-0.048	0.197
-423.544	55.316	0.112	-0.109
-422.530	800.000	-0.083	-0.258
-421.515	114.954	-0.126	-0.155
-420.500	-136.341	-0.335	-0.039
-419.486	210.264	0.084	0.133
-418.471	44.972	0.217	-0.202
-417.457	-200.000	-0.006	-0.210
-416.442	800.000	0.068	0.206
-415.428	94.914	-0.121	-0.139
-414.413	557.717	-0.076	-0.185
-413.398	800.000	0.058	0.197
-412.384	-80.991	0.097	-0.033
-411.369	204.960	0.263	-0.413
-410.355	443.513	-0.081	0.179
-409.340	-3.127	0.240	0.169
-408.325	-55.893	0.110	0.050
-407.311	800.000	-0.087	0.260
-406.296	-6.228	-0.102	-0.070
-405.282	267.761	-0.154	0.272
-404.267	-111.191	-0.159	-0.033
-403.252	-68.099	0.170	0.067
-402.238	41.545	0.034	0.031
-401.223	149.715	0.062	-0.084
-400.209	800.000	0.027	0.086
-399.194	88.462	-0.064	0.072
-398.179	-7.770	0.251	0.171
-397.165	508.264	-0.077	0.180
-396.150	272.902	-0.078	-0.139
-395.136	-200.000	-0.045	0.271
-394.121	-40.105	0.052	0.027
-393.106	94.036	0.107	-0.123
-392.092	-200.000	-0.051	-0.272
-391.077	18.094	0.117	-0.094
-390.063	-83.605	0.337	-0.109
-389.048	-76.149	-0.353	0.126
-388.033	-5.509	0.145	-0.100
-387.019	-4.041	0.303	-0.212
-386.004	560.287	-0.071	-0.173
-384.990	307.932	-0.190	-0.357
-383.975	-40.891	0.153	-0.080
-382.960	-177.481	-0.132	-0.003
-381.946	-78.883	-0.143	0.049
-380.931	800.000	0.026	-0.073
-379.917	800.000	-0.069	0.292
-378.902	-200.000	-0.017	-0.087
-377.888	261.460	0.060	0.104
-376.873	66.030	0.202	-0.207
-375.858	-200.000	-0.024	-0.160
-374.844	-200.000	-0.004	-0.023
-373.829	-88.339	0.142	0.043
-372.815	-80.292	-0.296	0.100
-371.800	-200.000	-0.008	0.302
-370.785	-34.631	0.364	-0.201
-369.771	-2.686	-0.273	0.193
-368.756	75.647	0.132	0.141
-367.742	199.844	-0.129	0.200
-366.727	8.494	0.138	0.105
-365.712	-95.028	-0.177	-0.048
-364.698	72.518	0.024	0.025
-363.683	213.484	0.223	-0.355
-362.669	112.282	-0.122	0.149
-361.654	15.960	0.141	-0.112
-360.639	-143.107	0.276	-0.027
-359.625	98.576	-0.092	0.106
-358.610	40.089	0.082	-0.074
-357.596	800.000	-0.019	0.062
-356.581	-70.900	-0.161	-0.061
-355.566	67.139	0.377	-0.387
-354.552	-151.543	0.215	0.016
-353.537	190.175	0.187	-0.283
-352.523	583.681	-0.048	-0.118
-351.508	-104.883	-0.253	-0.059
-350.493	679.371	-0.063	0.166
-349.479	-22.615	-0.285	-0.174
-348.464	502.863	0.086	-0.200
-347.450	76.279	0.249	0.266
-346.435	-66.239	-0.149	0.060
-345.420	478.316	-0.083	-0.190
-344.406	-60.282	-0.126	0.054
-343.391	-49.187	-0.342	0.165
-342.377	-200.000	0.025	-0.393
-341.362	137.008	0.171	-0.225
-340.348	16.148	0.132	0.105
-339.333	17.015	0.164	-0.131
-338.318	156.055	0.081	0.112
-337.304	35.767	0.167	0.148
-336.289	216.508	-0.136	0.219
-335.275	91.755	0.159	-0.180
-334.260	525.644	-0.033	-0.078
-333.245	28.834	0.246	-0.210
-332.231	-86.704	-0.148	0.046
-331.216	800.000	-0.096	0.283
-330.202	196.232	0.025	0.038
-329.187	101.400	-0.140	-0.165
-328.172	83.603	-0.205	0.225
-327.158	-200.000	-0.009	0.064
-326.143	-131.535	0.180	-0.024
-325.129	160.291	-0.204	0.287
-324.114	204.726	0.044	0.069
-323.099	-159.295	-0.229	-0.013
-322.085	-200.000	0.066	-0.307
-321.070	-57.809	0.271	-0.119
-320.056	139.592	0.217	0.288
-319.041	-200.000	0.048	0.229
-318.026	-43.942	-0.317	-0.160
-317.012	-200.000	0.003	-0.077
-315.997	800.000	0.072	-0.239
-314.983	-81.949	-0.296	-0.097
-313.968	-158.099	-0.163	-0.010
-312.953	800.000	-0.022	0.069
-311.939	-130.954	0.054	0.007
-310.924	189.848	-0.172	-0.259
-309.910	-59.371	-0.156	-0.068
-308.895	17.007	-0.193	-0.154
-307.880	800.000	-0.088	0.256
-306.866	52.631	0.210	0.202
-305.851	-0.817	0.191	0.136
-304.837	800.000	0.042	0.138
-303.822	27.723	0.218	-0.185
-302.807	-200.000	0.037	0.212
-301.793	-66.972	0.213	0.085
-300.778	-155.511	-0.354	-0.023
-299.764	-100.306	-0.074	-0.019
-298.749	-37.661	0.218	-0.117
-297.735	800.000	-0.084	-0.283
-296.720	-200.000	0.008	0.051
-295.705	-62.884	0.217	-0.090
-294.691	-89.784	0.202	-0.059
-293.676	-166.782	-0.068	0.003
-292.662	206.818	0.175	-0.274
-291.647	-91.822	-0.220	-0.063
-290.632	153.910	0.210	0.289
-289.618	-112.279	0.507	-0.102
-288.603	345.477	-0.131	-0.259
-287.589	144.134	0.295	0.396
-286.574	-169.744	0.302	0.011
-285.559	800.000	0.084	-0.255
-284.545	-162.263	0.142	-0.007
-283.530	-75.354	-0.204	0.073
-282.516	287.760	-0.180	-0.328
-281.501	101.940	0.181	-0.212
-280.486	275.477	-0.065	-0.116
-279.472	55.397	0.177	0.172
-278.457	-10.223	-0.153	-0.102
-277.443	-94.426	0.154	0.042
-276.428	-200.000	0.004	0.105
-275.413	-200.000	-0.038	-0.212
-274.399	-52.727	0.185	0.086
-273.384	-200.000	-0.037	-0.171
-272.370	133.590	0.043	-0.056
-271.355	-13.510	-0.025	-0.016
-270.340	-68.395	-0.314	-0.123
-269.326	228.314	0.121	0.197
-268.311	760.334	0.050	0.136
-267.297	14.071	-0.412	0.323
-266.282	-200.000	-0.044	-0.333
-265.267	-4.036	0.157	-0.109
-264.253	800.000	0.052	0.191
-263.238	-200.000	-0.525	-0.001
-262.224	41.386	0.053	0.048
-261.209	212.207	0.138	-0.218
-260.195	87.395	-0.086	-0.096
-259.180	-200.000	0.043	0.317
-258.165	800.000	-0.060	-0.173
-257.151	-115.655	-0.166	-0.031
-256.136	-124.101	0.312	0.049
-255.122	38.638	-0.163	0.146
-254.107	-69.659	-0.110	0.042
-253.092	501.590	0.097	0.225
-252.078	34.225	0.135	-0.119
-251.063	462.179	0.168	-0.375
-250.049	97.535	0.236	-0.273
-249.034	-200.000	-0.003	0.283
-248.019	-104.673	-0.176	0.041
-247.005	800.000	0.014	-0.040
-245.990	-200.000	0.008	-0.332
-244.976	92.191	-0.114	0.129
-243.961	-200.000	0.002	0.116
-242.946	206.044	0.153	0.239
-241.932	-16.042	0.031	0.020
-240.917	349.866	0.090	0.178
-239.903	713.158	0.060	0.160
-238.888	70.602	0.094	-0.098
-237.873	800.000	0.047	-0.192
-236.859	-200.000	0.042	0.273
-235.844	-107.964	0.075	0.016
-234.830	-141.636	0.210	-0.021
-233.815	95.017	0.242	0.277
-232.800	-8.220	0.378	0.255
-231.786	-8.419	-0.150	0.101
-230.771	77.474	0.216	0.230
-229.757	-200.000	0.013	-0.126
-228.742	414.401	0.019	-0.041
-227.727	-168.520	0.162	0.006
-226.713	-200.000	-0.000	0.061
-225.698	158.418	0.228	0.317
-224.684	320.880	-0.215	0.409
-223.669	-94.073	0.441	-0.121
-222.655	162.552	-0.199	-0.280
-221.640	-124.195	-0.386	-0.061
-220.625	63.791	0.086	0.086
-219.611	120.501	-0.117	-0.146
-218.596	37.534	0.115	-0.102
-217.582	800.000	-0.014	0.062
-216.567	800.000	-0.021	-0.071
-215.552	-200.000	0.020	0.218
-214.538	420.625	0.102	0.218
-213.523	136.553	0.147	0.192
-212.509	33.844	-0.148	-0.129
-211.494	-91.567	-0.110	-0.031
-210.479	800.000	-0.038	-0.118
-209.465	800.000	-0.006	0.020
-208.450	-123.179	-0.154	0.025
-207.436	-125.086	0.155	0.024
-206.421	-14.841	-0.113	0.073
-205.406	-79.658	-0.213	-0.072
-204.392	32.619	-0.209	-0.182
-203.377	33.134	-0.151	0.131
-202.363	-200.000	0.013	0.097
-201.348	-178.142	0.231	0.005
-200.333	4.628	-0.111	0.082
-199.319	9.842	0.031	-0.023
-198.304	-200.000	-0.015	0.171
-197.290	-149.024	-0.057	0.005
-196.275	-89.876	0.361	-0.106
-195.260	-129.289	0.333	0.046
-194.246	56.288	0.226	0.220
-193.231	800.000	0.062	0.232
-192.217	-38.216	0.044	-0.023
-191.202	-10.988	-0.319	0.211
-190.187	-78.193	-0.272	-0.094
-189.173	-200.000	-0.064	-0.403
-188.158	-108.442	-0.153	-0.033
-187.144	-50.931	-0.096	-0.045
-186.129	-58.772	0.300	-0.130
-185.114	-67.212	-0.178	-0.070
-184.100	-81.481	-0.203	-0.067
-183.085	89.597	0.131	0.146
-182.071	-26.164	-0.109	-0.064
-181.056	-200.000	0.011	0.276
-180.042	800.000	0.118	0.429
-179.027	-200.000	0.031	0.212
-178.012	79.291	-0.155	0.167
-176.998	211.633	-0.103	0.162
-175.983	-24.071	0.256	0.153
-174.969	324.283	0.074	0.142
-173.954	-75.101	-0.164	0.059
-172.939	800.000	-0.030	-0.090
-171.925	-97.881	-0.180	-0.047
-170.910	-44.056	0.257	-0.129
-169.896	-200.000	-0.040	-0.200
-168.881	-106.695	0.108	0.024
-167.866	800.000	0.039	-0.159
-166.852	800.000	-0.021	0.068
-165.837	-118.161	-0.189	-0.034
-164.823	-168.306	-0.327	-0.013
-163.808	-200.000	0.033	0.180
-162.793	800.000	0.060	0.241
-161.779	513.576	-0.160	0.373
-160.764	20.567	0.228	-0.184
-159.750	179.077	-0.143	0.209
-158.735	-200.000	0.004	0.226
-157.720	-86.846	-0.129	-0.039
-156.706	-65.176	0.275	-0.111
-155.691	-79.987	0.260	-0.087
-154.677	-136.458	0.328	-0.038
-153.662	145.290	0.131	0.175
-152.647	726.109	-0.053	0.142
-151.633	130.501	-0.047	-0.060
-150.618	-39.048	-0.044	0.023
-149.604	654.125	-0.051	0.131
-148.589	-86.219	0.089	-0.027
-147.574	-200.000	-0.023	0.282
-146.560	-97.450	-0.141	0.037
-145.545	-123.809	0.287	-0.045
-144.531	-200.000	0.010	-0.077
-143.516	237.854	0.216	-0.359
-142.502	800.000	-0.014	-0.046
-141.487	-24.335	-0.195	0.116
-140.472	257.080	-0.246	-0.422
-139.458	-90.155	0.251	-0.073
-138.443	-31.080	0.250	0.141
-137.429	9.110	-0.123	-0.093
-136.414	-200.000	0.026	0.320
-135.399	800.000	0.054	-0.198
-134.385	211.896	-0.145	-0.228
-133.370	96.044	-0.112	-0.128
-132.356	-143.672	0.249	-0.024
-131.341	688.514	0.098	0.257
-130.326	11.693	-0.213	0.163
-129.312	-200.000	0.002	0.286
-128.297	125.954	0.169	0.213
-127.283	-48.034	0.537	-0.260
-126.268	-200.000	0.013	-0.216
-125.253	-148.714	0.071	-0.006
-124.239	-119.395	-0.189	-0.033
-123.224	800.000	0.102	0.319
-122.210	-50.761	-0.194	-0.091
-121.195	11.856	-0.230	0.176
