DTS Sentinel unit serial number:	SN413079Multiplexer serial number:	ORYXHardware model number:	OX4-SRSoftware version number:	ORYX F/W v4.00 Oryx Data Collector v3.7.2.0data status	okinstallation	princeton_trtdifferential loss correction	single-endedforward channel	channel 1reverse channel	N/Adate	2019/09/13time	11:50:35forward acquisition time	60.00reverse acquisition time	0.00gamma	496.2192k internal	0.2312k external	0.2312temperature offset calibration	1.0163default loss term (dB/km)	0.3790temperature slope calibration	1.0000multiplexer offset coefficient	1.0000multiplexer slope coefficient	1.0000fibre end	0.00T internal ref (°C)	33.31T ext. ref 1 (°C)	4.56T ext. ref 2 (°C)	30.52length (m)	temperature (°C)	Stokes	anti-Stokes-747.200	-112.283	0.380	0.077
-746.185	168.248	-0.081	-0.117
-745.171	-51.034	-0.278	-0.132
-744.156	394.219	-0.150	0.316
-743.142	28.152	-0.083	0.071
-742.127	92.734	-0.098	0.112
-741.112	554.744	0.089	0.216
-740.098	800.000	0.050	0.189
-739.083	-109.459	0.009	-0.002
-738.069	-176.150	-0.136	-0.004
-737.054	201.840	0.127	-0.198
-736.039	-77.848	-0.380	0.133
-735.025	142.869	-0.108	0.146
-734.010	800.000	0.027	0.116
-732.996	134.248	-0.130	0.171
-731.981	-200.000	-0.003	0.168
-730.966	166.709	0.080	0.116
-729.952	58.857	0.310	-0.309
-728.937	13.082	-0.287	-0.225
-727.923	-73.911	-0.391	0.144
-726.908	-92.538	-0.178	0.051
-725.894	53.886	0.061	-0.060
-724.879	-65.343	-0.582	-0.238
-723.864	-125.103	-0.483	0.075
-722.850	235.693	-0.092	-0.155
-721.835	28.908	-0.174	0.150
-720.821	-111.866	-0.225	-0.046
-719.806	800.000	-0.082	-0.316
-718.791	2.631	-0.141	-0.104
-717.777	398.242	0.039	0.083
-716.762	-57.155	0.196	-0.087
-715.748	-83.809	-0.029	-0.009
-714.733	1.363	0.205	-0.149
-713.718	326.314	0.037	-0.071
-712.704	74.787	-0.084	-0.090
-711.689	-50.083	-0.155	0.075
-710.675	0.410	-0.305	-0.221
-709.660	-177.257	0.103	-0.003
-708.645	275.475	0.051	-0.092
-707.631	307.019	0.140	0.265
-706.616	383.119	-0.186	0.387
-705.602	800.000	-0.055	0.203
-704.587	73.876	0.235	-0.250
-703.572	7.071	0.086	0.065
-702.558	29.748	-0.403	0.347
-701.543	-6.677	-0.050	-0.035
-700.529	273.398	-0.036	0.064
-699.514	97.739	0.081	0.094
-698.499	-39.298	-0.161	-0.086
-697.485	273.240	0.120	-0.214
-696.470	-75.509	-0.104	-0.037
-695.456	14.573	0.066	-0.052
-694.441	200.549	0.130	0.202
-693.426	800.000	-0.078	-0.261
-692.412	-98.960	0.173	-0.044
-691.397	-53.457	-0.175	0.081
-690.383	-85.116	0.096	0.030
-689.368	20.962	-0.291	0.239
-688.354	800.000	-0.042	0.166
-687.339	-155.123	-0.078	0.005
-686.324	76.545	0.152	-0.163
-685.310	-200.000	-0.037	0.228
-684.295	53.568	0.031	0.030
-683.281	-85.867	0.297	-0.093
-682.266	615.317	-0.046	-0.117
-681.251	11.025	0.048	0.037
-680.237	-13.275	0.076	0.050
-679.222	255.839	-0.115	0.200
-678.208	-200.000	0.003	0.080
-677.193	34.635	-0.067	0.059
-676.178	800.000	0.009	-0.027
-675.164	150.930	0.214	0.294
-674.149	800.000	-0.046	0.184
-673.135	-1.381	0.198	0.141
-672.120	800.000	-0.095	-0.294
-671.105	-12.028	0.309	-0.205
-670.091	-101.527	-0.108	0.026
-669.076	-75.591	0.155	-0.056
-668.062	-200.000	0.579	0.001
-667.047	-158.718	-0.286	0.017
-666.032	581.188	-0.042	0.103
-665.018	242.671	0.257	-0.436
-664.003	639.886	0.082	-0.211
-662.989	-39.972	0.356	-0.188
-661.974	-79.300	0.040	-0.014
-660.959	475.295	-0.134	0.307
-659.945	-49.168	-0.176	-0.085
-658.930	-200.000	0.002	-0.113
-657.916	264.036	-0.121	0.212
-656.901	-200.000	0.020	0.227
-655.886	-71.010	0.456	-0.174
-654.872	173.401	0.106	0.155
-653.857	-200.000	0.029	0.136
-652.843	-135.138	-0.115	-0.014
-651.828	-200.000	0.011	-0.107
-650.814	-61.995	0.154	0.065
-649.799	171.362	0.146	0.211
-648.784	-147.508	0.225	-0.019
-647.770	73.847	0.235	-0.249
-646.755	-200.000	-0.319	-0.001
-645.741	94.359	-0.150	0.172
-644.726	146.149	-0.141	0.191
-643.711	-200.000	-0.042	0.271
-642.697	-200.000	-0.015	-0.073
-641.682	161.041	0.054	0.076
-640.668	-86.667	-0.050	-0.015
-639.653	319.750	0.159	-0.304
-638.638	-200.000	0.027	-0.130
-637.624	123.661	0.134	0.169
-636.609	56.044	-0.072	0.070
-635.595	-200.000	-0.014	-0.224
-634.580	341.565	0.068	-0.135
-633.565	-95.852	-0.110	-0.030
-632.551	-44.648	-0.214	0.108
-631.536	-27.516	-0.184	0.108
-630.522	34.349	-0.233	-0.205
-629.507	-200.000	-0.077	-0.361
-628.492	-200.000	-0.049	-0.329
-627.478	800.000	-0.063	-0.184
-626.463	-109.775	-0.179	-0.038
-625.449	-104.664	0.251	-0.058
-624.434	-200.000	0.051	-0.291
-623.419	-200.000	-0.024	-0.295
-622.405	26.883	0.240	-0.203
-621.390	58.068	0.220	-0.218
-620.376	-174.341	-0.406	0.012
-619.361	-82.846	-0.417	0.136
-618.346	-200.000	0.000	-0.093
-617.332	37.081	0.054	0.049
-616.317	-59.121	0.241	0.105
-615.303	800.000	-0.102	-0.297
-614.288	-99.752	0.278	0.070
-613.273	-200.000	0.028	0.377
-612.259	109.438	-0.079	0.096
-611.244	184.548	-0.105	-0.157
-610.230	212.049	0.112	-0.179
-609.215	70.148	-0.008	0.008
-608.201	-32.897	-0.264	0.148
-607.186	-200.000	0.010	0.149
-606.171	19.455	0.056	-0.045
-605.157	-200.000	0.018	-0.148
-604.142	140.188	0.084	-0.112
-603.128	193.039	0.052	-0.079
-602.113	-73.118	-0.253	-0.093
-601.098	-87.330	0.137	-0.042
-600.084	160.173	0.166	-0.233
-599.069	-200.000	-0.023	0.118
-598.055	138.211	0.130	-0.172
-597.040	800.000	0.034	-0.115
-596.025	8.049	0.185	0.140
-595.011	-150.828	0.041	0.003
-593.996	-120.112	-0.148	0.025
-592.982	193.695	-0.148	0.226
-591.967	-144.719	-0.248	0.023
-590.952	-200.000	0.006	-0.314
-589.938	-62.597	0.440	-0.184
-588.923	288.151	0.035	0.064
-587.909	-91.028	-0.171	-0.050
-586.894	343.253	0.042	0.084
-585.879	-200.000	0.051	0.345
-584.865	-200.000	0.029	-0.154
-583.850	800.000	0.026	-0.104
-582.836	-84.292	-0.222	-0.071
-581.821	-200.000	0.019	-0.404
-580.806	-200.000	0.078	0.409
-579.792	94.972	-0.157	-0.181
-578.777	-72.906	-0.207	-0.077
-577.763	-200.000	0.005	0.196
-576.748	-93.770	-0.230	0.064
-575.733	800.000	-0.070	-0.221
-574.719	-6.325	0.294	0.202
-573.704	800.000	-0.123	-0.348
-572.690	23.303	-0.087	-0.072
-571.675	7.698	-0.134	-0.101
-570.661	-108.919	0.251	-0.054
-569.646	-184.600	0.405	-0.007
-568.631	800.000	-0.069	-0.244
-567.617	36.273	-0.008	0.008
-566.602	800.000	-0.091	0.382
-565.588	-118.519	-0.279	0.050
-564.573	182.360	-0.184	0.273
-563.558	-68.950	0.252	0.098
-562.544	172.099	-0.055	0.080
-561.529	-182.560	0.260	-0.005
-560.515	-155.455	-0.082	-0.005
-559.500	-149.608	0.169	0.013
-558.485	-23.163	-0.092	0.056
-557.471	72.826	-0.191	-0.200
-556.456	-140.291	0.199	-0.021
-555.442	-144.326	0.091	0.009
-554.427	-62.142	0.298	-0.125
-553.412	-200.000	0.062	0.355
-552.398	95.602	0.170	0.195
-551.383	-46.551	-0.106	0.053
-550.369	-129.781	0.270	0.037
-549.354	29.400	0.113	-0.097
-548.339	-41.287	-0.157	0.082
-547.325	301.226	-0.019	0.036
-546.310	41.325	-0.137	0.125
-545.296	603.292	-0.072	0.180
-544.281	-18.743	0.078	0.049
-543.266	-200.000	-0.026	-0.244
-542.252	-200.000	-0.002	-0.491
-541.237	-113.733	0.064	-0.013
-540.223	159.266	-0.090	-0.126
-539.208	800.000	-0.049	0.149
-538.193	-103.697	0.235	-0.056
-537.179	275.459	-0.100	0.179
-536.164	196.573	-0.087	-0.133
-535.150	56.756	-0.381	-0.374
-534.135	290.813	-0.197	-0.361
-533.121	299.366	-0.143	-0.266
-532.106	37.910	0.237	-0.212
-531.091	1.600	-0.249	-0.180
-530.077	-92.476	-0.322	-0.091
-529.062	32.151	-0.096	-0.084
-528.048	168.717	-0.118	0.169
-527.033	258.572	-0.031	0.054
-526.018	224.650	-0.163	0.265
-525.004	-200.000	0.014	-0.084
-523.989	-26.741	-0.054	-0.032
-522.975	9.856	0.163	-0.124
-521.960	-190.375	0.188	-0.002
-520.945	-161.504	-0.317	0.016
-519.931	514.857	0.071	0.167
-518.916	-60.538	0.078	0.033
-517.902	8.673	0.187	0.142
-516.887	-26.555	-0.186	-0.109
-515.872	89.289	-0.079	-0.088
-514.858	747.100	-0.107	0.290
-513.843	800.000	-0.079	-0.296
-512.829	-31.269	-0.156	-0.089
-511.814	-92.763	0.049	-0.014
-510.799	177.993	0.132	-0.193
-509.785	-147.480	0.149	0.013
-508.770	-139.303	-0.230	-0.025
-507.756	-162.716	0.325	-0.016
-506.741	-200.000	0.021	0.240
-505.726	-195.256	-0.254	-0.002
-504.712	225.939	0.174	0.283
-503.697	-124.336	0.504	0.079
-502.683	-88.498	0.082	-0.025
-501.668	-200.000	-0.020	-0.315
-500.653	512.247	0.096	-0.226
-499.639	800.000	0.043	0.166
-498.624	223.111	0.037	-0.060
-497.610	48.773	0.145	0.136
-496.595	117.114	-0.183	-0.226
-495.581	-200.000	-0.040	-0.354
-494.566	-200.000	-0.005	-0.152
-493.551	-40.248	0.130	0.068
-492.537	-99.990	-0.191	0.048
-491.522	251.808	-0.132	-0.226
-490.508	-24.008	-0.347	0.208
-489.493	-149.792	-0.196	0.015
-488.478	-164.795	-0.389	-0.018
-487.464	-56.705	-0.183	0.081
-486.449	-200.000	0.027	-0.171
-485.435	73.036	-0.243	0.255
-484.420	-200.000	0.028	-0.322
-483.405	-77.789	-0.167	0.058
-482.391	-72.886	0.095	-0.035
-481.376	-22.243	-0.066	0.040
-480.362	323.082	0.037	0.071
-479.347	71.585	0.100	0.104
-478.332	-200.000	0.005	0.174
-477.318	-150.611	-0.267	0.021
-476.303	216.477	0.091	0.145
-475.289	116.505	-0.073	0.090
-474.274	-78.634	-0.096	-0.033
-473.259	-200.000	-0.109	0.661
-472.245	18.579	0.361	0.290
-471.230	90.188	-0.182	-0.204
-470.216	325.776	-0.171	0.329
-469.201	80.210	0.148	-0.160
-468.186	140.797	-0.129	0.171
-467.172	134.332	0.067	-0.088
-466.157	-104.189	-0.185	-0.043
-465.143	55.075	-0.156	0.151
-464.128	-76.897	-0.232	-0.081
-463.113	-58.158	0.079	0.035
-462.099	22.420	0.169	0.139
-461.084	-116.640	-0.165	-0.030
-460.070	-165.191	0.153	0.007
-459.055	-200.000	0.017	-0.251
-458.040	-200.000	0.031	0.343
-457.026	8.759	-0.395	-0.298
-456.011	753.543	-0.170	0.461
-454.997	28.641	-0.176	0.149
-453.982	-62.489	-0.172	-0.072
-452.968	-200.000	0.044	-0.616
-451.953	-46.814	-0.059	-0.029
-450.938	800.000	-0.027	0.105
-449.924	93.398	0.129	-0.146
-448.909	80.538	0.116	0.126
-447.895	-31.420	0.133	-0.075
-446.880	-161.809	0.094	0.005
-445.865	-70.575	-0.132	0.050
-444.851	407.224	0.102	0.217
-443.836	-200.000	-0.010	0.429
-442.822	387.127	0.070	0.145
-441.807	-100.861	-0.268	-0.066
-440.792	608.071	0.079	0.198
-439.778	-200.000	-0.041	0.192
-438.763	-200.000	0.011	0.079
-437.749	-187.655	0.071	-0.001
-436.734	-5.323	0.302	0.208
-435.719	301.673	0.164	-0.304
-434.705	387.672	0.024	-0.050
-433.690	172.416	-0.141	0.203
-432.676	133.355	0.195	0.252
-431.661	109.999	-0.161	0.193
-430.646	-200.000	0.058	0.319
-429.632	346.422	-0.076	-0.150
-428.617	146.264	-0.180	-0.242
-427.603	-11.183	0.113	-0.075
-426.588	-200.000	-0.088	0.404
-425.573	169.018	0.117	0.168
-424.559	-200.000	-0.024	-0.273
-423.544	800.000	-0.102	0.350
-422.530	800.000	-0.054	0.152
-421.515	-200.000	-0.064	0.384
-420.500	-27.349	0.180	0.105
-419.486	-155.734	-0.147	-0.009
-418.471	436.569	-0.003	0.006
-417.457	-52.387	-0.275	-0.127
-416.442	30.587	-0.146	-0.125
-415.428	-200.000	0.004	-0.031
-414.413	-200.000	-0.022	0.303
-413.398	-200.000	-0.087	-0.427
-412.384	-135.030	0.238	-0.029
-411.369	-10.403	0.302	-0.200
-410.355	-200.000	-0.009	0.097
-409.340	-200.000	-0.016	0.075
-408.325	-93.030	-0.126	0.035
-407.311	166.558	0.140	-0.199
-406.296	800.000	0.057	-0.174
-405.282	106.008	-0.222	0.263
-404.267	-200.000	0.011	0.101
-403.252	-200.000	-0.032	0.522
-402.238	800.000	-0.165	-0.465
-401.223	473.581	0.083	-0.187
-400.209	384.820	0.173	0.358
-399.194	716.331	-0.174	-0.464
-398.179	26.155	0.207	-0.173
-397.165	-115.989	0.131	-0.024
-396.150	-88.628	0.068	-0.020
-395.136	-104.530	-0.285	-0.066
-394.121	-200.000	0.032	0.154
-393.106	27.526	-0.150	0.126
-392.092	-200.000	0.031	0.136
-391.077	-108.817	-0.152	0.033
-390.063	-130.908	0.226	0.030
-389.048	-49.092	-0.396	-0.189
-388.033	41.245	0.145	0.131
-387.019	800.000	-0.047	0.197
-386.004	-156.030	0.356	-0.023
-384.990	702.713	0.119	0.315
-383.975	136.519	-0.102	0.133
-382.960	-118.218	0.241	-0.043
-381.946	457.688	-0.103	0.228
-380.931	-47.962	-0.385	-0.186
-379.917	37.158	0.425	0.376
-378.902	-110.861	-0.292	-0.060
-377.888	800.000	-0.125	0.378
-376.873	106.222	0.167	-0.197
-375.858	-200.000	-0.010	-0.354
-374.844	-79.910	0.053	0.018
-373.829	-113.670	-0.204	0.040
-372.815	-200.000	0.008	-0.252
-371.800	247.755	0.068	0.114
-370.785	60.596	-0.164	0.162
-369.771	584.768	0.114	0.280
-368.756	4.539	-0.151	0.111
-367.742	173.166	-0.070	0.101
-366.727	316.667	0.175	0.331
-365.712	-177.253	0.342	0.008
-364.698	-69.457	0.048	0.018
-363.683	-63.425	-0.122	-0.050
-362.669	-21.161	0.115	-0.070
-361.654	693.466	-0.136	-0.357
-360.639	-10.302	0.095	-0.063
-359.625	296.864	0.082	-0.150
-358.610	277.682	0.105	-0.186
-357.596	800.000	-0.060	0.195
-356.581	73.078	0.208	-0.217
-355.566	-28.901	-0.368	-0.211
-354.552	-200.000	-0.037	-0.255
-353.537	-63.937	-0.284	0.116
-352.523	-85.882	0.132	-0.041
-351.508	98.603	0.126	0.145
-350.493	-200.000	0.012	0.265
-349.479	211.282	-0.059	-0.093
-348.464	-90.234	-0.150	-0.044
-347.450	-134.524	-0.507	-0.062
-346.435	87.600	0.098	-0.109
-345.420	389.449	0.217	0.449
-344.406	137.100	-0.129	0.169
-343.391	-53.994	0.054	0.025
-342.377	83.708	0.248	0.271
-341.362	-104.246	0.267	-0.062
-340.348	202.499	-0.169	0.261
-339.333	-74.304	-0.228	0.082
-338.318	800.000	-0.027	0.084
-337.304	302.320	0.082	-0.151
-336.289	-60.794	0.562	-0.238
-335.275	126.012	-0.079	0.100
-334.260	800.000	-0.092	0.385
-333.245	-170.665	-0.184	-0.006
-332.231	291.103	-0.066	-0.119
-331.216	-52.621	0.284	-0.131
-330.202	323.937	0.024	-0.047
-329.187	105.077	-0.268	0.316
-328.172	-200.000	-0.045	-0.240
-327.158	-126.527	0.106	-0.016
-326.143	-200.000	-0.003	0.213
-325.129	-44.250	-0.388	0.194
-324.114	-84.900	0.347	-0.109
-323.099	13.362	-0.223	-0.172
-322.085	398.608	0.114	-0.238
-321.070	309.893	0.097	-0.182
-320.056	800.000	-0.019	-0.077
-319.041	-41.521	0.208	0.107
-318.026	800.000	-0.161	0.490
-317.012	-106.739	0.123	-0.027
-315.997	-200.000	-0.027	-0.188
-314.983	-200.000	0.006	-0.199
-313.968	-131.763	0.353	0.046
-312.953	-99.453	-0.244	0.061
-311.939	-93.729	-0.181	-0.050
-310.924	-114.307	-0.063	0.012
-309.910	-200.000	-0.008	0.084
-308.895	-76.003	0.423	-0.149
-307.880	106.770	-0.097	0.115
-306.866	164.718	0.074	-0.104
-305.851	-27.803	0.293	-0.169
-304.837	32.057	-0.101	-0.087
-303.822	800.000	-0.044	-0.143
-302.807	-141.179	-0.144	-0.015
-301.793	184.632	0.198	0.293
-300.778	-200.000	0.026	0.211
-299.764	-113.840	0.112	0.022
-298.749	46.269	0.122	-0.112
-297.735	800.000	0.039	-0.161
-296.720	14.404	0.251	-0.195
-295.705	0.774	-0.028	-0.020
-294.691	56.660	0.324	0.315
-293.676	66.798	-0.127	0.129
-292.662	16.433	-0.263	-0.207
-291.647	32.816	0.081	-0.070
-290.632	161.136	-0.224	-0.312
-289.618	220.812	-0.066	-0.106
-288.603	-77.803	0.079	-0.027
-287.589	168.490	-0.021	0.030
-286.574	-16.687	0.070	-0.044
-285.559	617.463	0.020	0.050
-284.545	-125.161	-0.117	-0.018
-283.530	-200.000	-0.016	0.260
-282.516	-55.226	-0.228	-0.102
-281.501	166.839	0.244	-0.345
-280.486	800.000	-0.109	-0.327
-279.472	800.000	-0.044	-0.165
-278.457	263.396	0.104	-0.179
-277.443	-13.326	-0.327	0.212
-276.428	-58.691	0.101	0.044
-275.413	-15.565	-0.162	-0.103
-274.399	-103.463	0.334	-0.078
-273.384	-35.380	0.116	-0.063
-272.370	124.449	-0.201	0.252
-271.355	23.242	0.260	-0.213
-270.340	-200.000	0.022	0.162
-269.326	-200.000	-0.117	-0.578
-268.311	-54.675	-0.458	0.206
-267.297	257.132	-0.083	-0.143
-266.282	-107.102	0.278	-0.061
-265.267	-134.636	-0.102	-0.012
-264.253	164.277	-0.182	-0.255
-263.238	-16.395	0.169	0.107
-262.224	-16.680	0.380	-0.239
-261.209	-5.731	-0.301	-0.205
-260.195	35.531	0.229	0.200
-259.180	-78.854	-0.417	-0.141
-258.165	-200.000	0.046	0.272
-257.151	29.519	0.043	0.036
-256.136	61.109	-0.078	-0.077
-255.122	-163.605	0.210	-0.010
-254.107	-61.911	0.390	-0.162
-253.092	47.213	0.126	0.117
-252.078	102.799	-0.146	-0.170
-251.063	527.179	-0.019	-0.046
-250.049	-21.711	-0.128	0.077
-249.034	800.000	-0.065	0.223
-248.019	188.246	0.192	-0.286
-247.005	57.605	0.193	-0.188
-245.990	119.954	0.133	0.165
-244.976	520.057	0.140	0.327
-243.961	-102.256	0.140	0.034
-242.946	-27.249	0.265	0.153
-241.932	-200.000	0.028	0.278
-240.917	-3.641	-0.205	0.142
-239.903	-81.266	-0.111	-0.037
-238.888	-13.781	-0.208	-0.134
-237.873	-200.000	-0.040	-0.286
-236.859	-129.783	-0.026	-0.004
-235.844	-31.031	-0.245	-0.138
-234.830	-175.194	0.203	0.006
-233.815	45.596	0.058	0.054
-232.800	800.000	-0.029	0.080
-231.786	-36.486	0.118	0.063
-230.771	-200.000	0.036	-0.464
-229.757	68.916	-0.175	0.178
-228.742	-168.870	0.125	-0.005
-227.727	565.610	0.086	-0.207
-226.713	-30.121	0.201	0.114
-225.698	543.723	-0.068	0.162
-224.684	-45.050	-0.319	0.158
-223.669	676.453	0.093	-0.241
-222.655	33.251	0.114	0.098
-221.640	96.286	0.066	-0.075
-220.625	240.331	0.181	-0.300
-219.611	-124.632	0.221	-0.034
-218.596	-118.054	-0.278	-0.049
-217.582	14.834	0.076	0.059
-216.567	655.573	0.087	0.222
-215.552	-70.609	0.109	0.041
-214.538	-181.657	0.345	0.007
-213.523	-85.577	-0.327	-0.101
-212.509	-200.000	-0.010	0.619
-211.494	39.434	0.276	-0.246
-210.479	-200.000	-0.035	-0.184
-209.465	-147.181	0.128	-0.011
-208.450	189.026	0.078	0.115
-207.436	191.389	-0.084	0.125
-206.421	-26.246	-0.020	-0.012
-205.406	44.499	-0.139	0.127
-204.392	-68.990	0.201	-0.077
-203.377	-200.000	-0.003	-0.118
-202.363	725.675	-0.071	-0.188
-201.348	-200.000	0.021	0.168
-200.333	195.727	0.316	0.478
-199.319	57.695	-0.113	0.109
-198.304	-200.000	-0.014	-0.288
-197.290	75.287	-0.172	-0.180
-196.275	667.552	0.076	0.195
-195.260	-43.463	0.191	0.096
-194.246	-122.885	0.101	-0.016
-193.231	-89.003	0.319	-0.094
-192.217	-8.078	0.251	0.168
-191.202	-200.000	-0.020	-0.168
-190.187	317.745	0.080	0.150
-189.173	257.908	0.170	0.290
-188.158	-43.817	0.267	0.133
-187.144	-200.000	-0.036	0.268
-186.129	108.762	0.076	-0.090
-185.114	55.837	-0.071	0.068
-184.100	-67.544	0.191	0.074
-183.085	800.000	0.045	0.193
-182.071	307.677	-0.053	0.098
-181.056	250.852	0.075	0.127
-180.042	5.766	0.280	0.205
-179.027	-92.438	-0.347	-0.097
-178.012	94.611	0.036	-0.041
-176.998	-200.000	0.012	-0.179
-175.983	118.769	-0.044	0.054
-174.969	331.715	0.066	-0.127
-173.954	800.000	0.068	0.260
-172.939	-192.347	-0.414	0.004
-171.925	796.823	0.052	-0.143
-170.910	-200.000	-0.015	-0.207
-169.896	18.204	-0.211	-0.167
-168.881	-124.449	-0.361	0.056
-167.866	-35.101	0.058	-0.031
-166.852	-52.346	-0.089	0.041
-165.837	151.597	0.207	0.279
-164.823	242.209	0.061	0.101
-163.808	-86.040	0.458	0.140
-162.793	115.319	-0.108	-0.131
-161.779	-56.515	0.159	-0.070
-160.764	410.267	-0.090	-0.189
-159.750	-200.000	0.000	0.060
-158.735	-200.000	-0.010	-0.228
-157.720	516.526	-0.003	-0.008
-156.706	3.796	-0.081	-0.058
-155.691	208.228	-0.096	0.148
-154.677	800.000	-0.029	-0.120
-153.662	295.489	0.081	0.146
-152.647	134.401	-0.064	-0.083
-151.633	232.579	0.077	-0.126
-150.618	-11.510	-0.495	0.323
-149.604	29.296	-0.183	-0.154
-148.589	-108.912	0.169	0.036
-147.574	99.663	0.107	0.123
-146.560	-106.707	0.242	0.053
-145.545	81.659	0.102	0.109
-144.531	-149.424	0.138	0.011
-143.516	24.258	0.128	-0.105
-142.502	362.247	-0.102	0.202
-141.487	-142.592	-0.149	-0.014
-140.472	269.453	-0.169	0.295
-139.458	-88.936	0.234	-0.069
-138.443	208.611	0.238	0.368
-137.429	124.842	-0.199	0.249
-136.414	-200.000	-0.047	0.298
-135.399	22.156	-0.203	0.164
-134.385	128.735	0.318	-0.402
-133.370	735.270	0.138	0.367
-132.356	-200.000	-0.008	0.250
-131.341	3.507	0.331	0.239
-130.326	-114.523	0.379	0.072
-129.312	48.251	-0.068	0.063
-128.297	-130.975	-0.131	0.017
-127.283	-97.844	-0.052	-0.013
-126.268	545.383	0.117	-0.277
-125.253	60.539	-0.181	0.178
-124.239	187.797	-0.201	0.297
-123.224	-12.309	0.250	-0.162
-122.210	-200.000	-0.037	-0.258
-121.195	-96.372	-0.305	-0.080
