DTS Sentinel unit serial number:	SN413079Multiplexer serial number:	ORYXHardware model number:	OX4-SRSoftware version number:	ORYX F/W v4.00 Oryx Data Collector v3.7.2.0data status	okinstallation	princeton_trtdifferential loss correction	single-endedforward channel	channel 1reverse channel	N/Adate	2019/09/14time	16:26:35forward acquisition time	60.00reverse acquisition time	0.00gamma	496.2192k internal	0.2296k external	0.2296temperature offset calibration	1.0067default loss term (dB/km)	0.3790temperature slope calibration	1.0000multiplexer offset coefficient	1.0000multiplexer slope coefficient	1.0000fibre end	0.00T internal ref (°C)	38.05T ext. ref 1 (°C)	5.08T ext. ref 2 (°C)	33.20length (m)	temperature (°C)	Stokes	anti-Stokes-747.200	800.000	-0.034	-0.112
-746.185	78.409	-0.041	0.045
-745.171	8.131	0.280	-0.215
-744.156	-62.148	-0.191	0.081
-743.142	-101.380	0.286	0.071
-742.127	-52.716	-0.192	-0.091
-741.112	221.296	0.090	-0.147
-740.098	-42.942	-0.221	0.115
-739.083	408.676	0.075	-0.161
-738.069	335.143	-0.107	0.212
-737.054	-128.195	0.195	-0.028
-736.039	800.000	0.066	-0.221
-735.025	-145.578	0.352	-0.032
-734.010	29.224	0.358	-0.310
-732.996	32.013	-0.075	0.066
-731.981	-176.373	-0.135	0.004
-730.966	-140.424	0.069	0.007
-729.952	26.924	0.151	0.129
-728.937	-116.821	-0.178	-0.033
-727.923	221.728	-0.110	-0.180
-726.908	-46.516	-0.226	0.113
-725.894	-17.890	-0.478	-0.306
-724.879	-59.282	-0.261	0.115
-723.864	44.132	-0.285	-0.267
-722.850	800.000	-0.044	-0.133
-721.835	-68.826	-0.214	-0.084
-720.821	1.199	0.209	-0.153
-719.806	-75.932	-0.344	-0.124
-718.791	-200.000	0.073	-0.334
-717.777	-141.307	-0.199	0.021
-716.762	-200.000	0.008	-0.077
-715.748	57.500	0.117	0.116
-714.733	75.456	0.177	-0.190
-713.718	181.796	-0.070	-0.106
-712.704	-200.000	-0.022	-0.346
-711.689	-200.000	0.011	-0.207
-710.675	30.149	-0.277	-0.241
-709.660	29.792	-0.310	-0.269
-708.645	89.058	0.026	-0.030
-707.631	-138.211	-0.202	-0.023
-706.616	-55.895	0.197	-0.090
-705.602	-129.625	-0.439	-0.062
-704.587	-200.000	-0.035	-0.215
-703.572	143.531	0.302	-0.410
-702.558	28.008	0.229	0.197
-701.543	-200.000	0.027	0.278
-700.529	34.335	0.314	0.280
-699.514	-23.586	0.115	-0.070
-698.499	-200.000	0.002	-0.103
-697.485	-200.000	0.298	0.000
-696.470	432.292	0.006	-0.013
-695.456	-200.000	0.011	-0.175
-694.441	31.595	-0.164	-0.144
-693.426	800.000	0.054	-0.210
-692.412	-200.000	-0.010	0.119
-691.397	422.404	-0.098	-0.215
-690.383	181.315	-0.078	0.117
-689.368	-174.982	-0.204	0.006
-688.354	-122.979	-0.256	0.042
-687.339	800.000	-0.021	0.086
-686.324	204.175	0.201	0.318
-685.310	-200.000	-0.004	-0.184
-684.295	-109.897	-0.329	0.070
-683.281	-95.711	-0.154	-0.042
-682.266	-41.160	0.355	-0.187
-681.251	-164.065	-0.214	0.010
-680.237	505.886	0.072	0.169
-679.222	800.000	-0.093	0.270
-678.208	122.695	-0.079	-0.101
-677.193	145.005	0.127	-0.173
-676.178	615.056	-0.128	0.328
-675.164	369.124	-0.094	0.195
-674.149	-92.118	0.163	-0.047
-673.135	-22.309	0.308	0.190
-672.120	21.894	-0.140	0.117
-671.105	264.322	0.196	-0.348
-670.091	-64.992	-0.437	-0.180
-669.076	800.000	0.104	-0.383
-668.062	-200.000	-0.002	-0.225
-667.047	438.007	0.107	-0.237
-666.032	295.706	-0.096	-0.180
-665.018	18.725	-0.253	-0.207
-664.003	-186.220	0.193	0.003
-662.989	-63.251	0.158	0.066
-661.974	-21.342	-0.055	-0.034
-660.959	-200.000	0.033	0.271
-659.945	314.649	0.034	-0.065
-658.930	77.881	-0.168	-0.183
-657.916	-200.000	0.013	-0.275
-656.901	-166.787	-0.144	-0.006
-655.886	-125.477	-0.277	-0.043
-654.872	453.426	-0.054	0.122
-653.857	-28.968	0.116	0.068
-652.843	800.000	-0.012	0.049
-651.828	-29.191	0.143	0.083
-650.814	-56.349	0.150	-0.068
-649.799	-200.000	-0.003	-0.100
-648.784	-40.902	0.180	-0.095
-647.770	-167.969	0.126	-0.005
-646.755	-106.508	0.181	-0.041
-645.741	11.669	0.136	-0.106
-644.726	192.199	-0.145	-0.223
-643.711	-67.024	0.196	0.079
-642.697	-121.135	-0.279	0.048
-641.682	-132.461	-0.292	-0.038
-640.668	-7.094	0.070	0.048
-639.653	-47.438	0.148	-0.073
-638.638	516.348	-0.094	-0.222
-637.624	77.215	0.056	-0.061
-636.609	-200.000	0.045	0.208
-635.595	29.124	-0.107	-0.093
-634.580	171.660	0.114	0.167
-633.565	-67.294	-0.137	-0.055
-632.551	522.694	0.064	-0.152
-631.536	-200.000	-0.303	0.000
-630.522	23.520	-0.230	0.193
-629.507	800.000	-0.028	-0.107
-628.492	367.318	-0.087	0.178
-627.478	43.666	0.193	-0.180
-626.463	389.493	0.105	0.222
-625.449	-200.000	0.016	-0.195
-624.434	800.000	0.077	-0.292
-623.419	-150.414	-0.174	-0.014
-622.405	-55.186	-0.241	0.110
-621.390	6.157	-0.137	0.103
-620.376	800.000	0.071	-0.278
-619.361	800.000	-0.033	-0.127
-618.346	391.789	-0.028	-0.060
-617.332	-36.203	-0.139	-0.076
-616.317	-124.138	-0.120	0.019
-615.303	-144.758	-0.229	0.021
-614.288	800.000	0.019	0.060
-613.273	305.231	0.145	-0.275
-612.259	-13.677	0.099	0.065
-611.244	414.066	-0.084	-0.183
-610.230	75.063	-0.309	0.331
-609.215	-21.655	0.118	0.073
-608.201	44.682	0.030	0.028
-607.186	127.983	0.169	0.219
-606.171	-130.509	-0.254	-0.035
-605.157	171.809	0.129	0.189
-604.142	-77.278	-0.291	-0.103
-603.128	429.401	0.177	0.390
-602.113	-121.707	0.229	0.038
-601.098	-178.866	0.153	-0.004
-600.084	-200.000	-0.013	0.666
-599.069	51.835	-0.242	-0.234
-598.055	-158.483	-0.283	0.017
-597.040	-200.000	0.018	0.128
-596.025	175.937	-0.253	-0.373
-595.011	-168.321	-0.358	0.014
-593.996	-28.469	0.114	-0.067
-592.982	800.000	0.106	0.455
-591.967	-200.000	0.045	0.257
-590.952	-71.873	-0.206	-0.078
-589.938	-23.895	-0.121	0.074
-588.923	-39.852	0.085	-0.045
-587.909	132.676	0.117	-0.153
-586.894	-200.000	-0.056	0.337
-585.879	-73.541	-0.246	0.091
-584.865	-16.570	0.204	-0.131
-583.850	-58.467	-0.127	0.056
-582.836	-96.085	-0.203	0.055
-581.821	107.588	-0.118	0.142
-580.806	-155.468	-0.228	-0.015
-579.792	-200.000	0.009	0.044
-578.777	15.050	0.174	-0.138
-577.763	800.000	-0.051	0.167
-576.748	-200.000	0.061	0.406
-575.733	800.000	-0.031	0.133
-574.719	22.832	0.086	-0.071
-573.704	258.350	-0.075	-0.132
-572.690	-200.000	0.034	0.325
-571.675	800.000	-0.047	-0.161
-570.661	346.936	-0.100	0.200
-569.646	-150.185	0.178	0.014
-568.631	-71.465	-0.282	-0.107
-567.617	-9.312	0.144	-0.098
-566.602	149.899	-0.146	-0.201
-565.588	35.278	0.172	-0.153
-564.573	37.489	-0.170	0.153
-563.558	-140.201	-0.094	0.010
-562.544	-164.678	0.207	-0.009
-561.529	-8.859	0.155	0.105
-560.515	-54.584	0.364	-0.167
-559.500	-200.000	-0.184	0.001
-558.485	443.891	-0.149	0.333
-557.471	800.000	0.067	-0.240
-556.456	62.669	0.136	-0.138
-555.442	-200.000	0.028	0.155
-554.427	-34.739	0.065	0.036
-553.412	-107.269	0.353	0.079
-552.398	1.614	0.275	-0.201
-551.383	-7.582	-0.177	0.121
-550.369	-32.566	-0.185	0.105
-549.354	-0.078	0.048	0.035
-548.339	-126.019	0.216	0.033
-547.325	233.615	0.091	-0.153
-546.310	-200.000	0.002	0.346
-545.296	28.904	-0.123	0.106
-544.281	189.066	-0.086	0.131
-543.266	643.741	-0.093	0.240
-542.252	-139.186	-0.159	-0.017
-541.237	17.345	0.178	0.143
-540.223	-65.417	-0.244	-0.099
-539.208	40.236	0.029	0.026
-538.193	206.859	0.227	-0.359
-537.179	-200.000	-0.086	0.492
-536.164	800.000	0.123	-0.370
-535.150	-100.943	-0.113	-0.028
-534.135	424.610	-0.125	0.273
-533.121	-51.925	0.233	0.110
-532.106	-200.000	0.050	-0.305
-531.091	-124.368	-0.222	-0.035
-530.077	-159.743	-0.139	0.008
-529.062	-160.456	0.153	-0.008
-528.048	383.327	-0.027	0.057
-527.033	-6.360	-0.115	0.079
-526.018	-200.000	-0.007	-0.042
-525.004	74.763	0.190	0.202
-523.989	179.525	-0.127	-0.189
-522.975	-110.368	-0.205	0.043
-521.960	-107.987	-0.075	-0.016
-520.945	352.878	-0.103	-0.206
-519.931	-200.000	-0.064	0.307
-518.916	-87.528	-0.239	-0.073
-517.902	800.000	0.062	0.193
-516.887	-87.571	0.308	0.094
-515.872	-88.945	0.077	0.023
-514.858	397.935	0.058	0.124
-513.843	-35.503	0.214	-0.118
-512.829	-51.501	0.055	0.026
-511.814	-4.657	0.179	-0.125
-510.799	-200.000	-0.021	-0.105
-509.785	-108.991	-0.224	0.048
-508.770	214.342	0.068	-0.108
-507.756	-200.000	-0.031	-0.174
-506.741	-5.717	0.336	0.233
-505.726	443.427	-0.037	-0.081
-504.712	775.504	-0.063	-0.174
-503.697	743.748	-0.133	-0.362
-502.683	-130.722	0.105	0.014
-501.668	642.633	-0.034	0.088
-500.653	-200.000	0.014	0.332
-499.639	-40.876	0.175	0.092
-498.624	267.550	-0.089	-0.157
-497.610	285.388	-0.251	0.458
-496.595	-38.636	0.166	0.089
-495.581	-4.982	0.335	0.234
-494.566	-166.291	-0.206	0.009
-493.551	53.333	-0.230	-0.223
-492.537	196.643	-0.169	-0.261
-491.522	-66.217	0.248	-0.100
-490.508	-85.023	-0.193	0.061
-489.493	-110.719	-0.234	-0.049
-488.478	-169.917	0.225	-0.008
-487.464	800.000	0.015	-0.063
-486.449	275.924	-0.083	-0.148
-485.435	-16.745	-0.384	0.246
-484.420	12.046	0.300	-0.233
-483.405	277.281	0.080	0.144
-482.391	-154.076	0.206	0.014
-481.376	-138.682	0.157	0.017
-480.362	76.670	0.168	-0.181
-479.347	784.749	-0.093	-0.259
-478.332	-55.402	0.140	0.063
-477.318	476.728	-0.098	-0.224
-476.303	-200.000	0.089	0.416
-475.289	-106.263	-0.189	0.043
-474.274	109.835	-0.193	-0.234
-473.259	-147.187	0.057	0.005
-472.245	-109.228	0.252	0.054
-471.230	122.965	0.072	0.091
-470.216	-162.887	-0.289	-0.014
-469.201	800.000	0.075	-0.292
-468.186	216.112	-0.214	-0.343
-467.172	-132.393	-0.225	-0.029
-466.157	-200.000	0.021	0.206
-465.143	-150.004	0.308	0.024
-464.128	450.734	0.036	0.080
-463.113	338.293	-0.074	0.146
-462.099	-85.990	0.120	-0.038
-461.084	-57.480	0.110	0.049
-460.070	113.668	0.143	-0.176
-459.055	800.000	0.074	-0.287
-458.040	-84.498	0.218	0.070
-457.026	-118.054	-0.175	0.032
-456.011	-79.751	0.486	-0.165
-454.997	-58.028	0.293	0.129
-453.982	26.531	-0.257	-0.217
-452.968	-15.928	0.095	-0.061
-451.953	-6.611	-0.075	-0.051
-450.938	103.731	0.120	-0.142
-449.924	-76.145	0.198	0.071
-448.909	127.396	-0.132	-0.170
-447.895	-64.922	-0.375	-0.153
-446.880	791.452	0.104	0.288
-445.865	-92.840	-0.257	0.072
-444.851	-48.225	0.189	-0.092
-443.836	-105.730	-0.076	0.017
-442.822	-41.380	0.239	0.124
-441.807	-200.000	-0.022	0.215
-440.792	-111.520	0.064	0.013
-439.778	-12.560	-0.168	-0.110
-438.763	-158.534	-0.133	0.008
-437.749	68.127	0.096	0.100
-436.734	222.881	0.218	-0.355
-435.719	-89.196	-0.008	0.002
-434.705	-148.684	0.319	0.026
-433.690	238.834	0.082	-0.138
-432.676	-200.000	-0.089	0.457
-431.661	-48.431	0.185	-0.090
-430.646	-124.528	0.112	-0.018
-429.632	-116.757	-0.059	0.011
-428.617	-200.000	0.015	-0.086
-427.603	-74.448	-0.200	-0.073
-426.588	-54.023	0.211	-0.097
-425.573	231.551	0.060	0.100
-424.559	227.796	-0.054	-0.088
-423.544	-41.144	-0.548	-0.285
-422.530	800.000	0.081	0.235
-421.515	-184.126	-0.663	-0.011
-420.500	-114.128	-0.086	0.017
-419.486	113.138	-0.157	-0.192
-418.471	-140.608	-0.223	-0.023
-417.457	-200.000	0.006	-0.265
-416.442	39.712	-0.119	0.108
-415.428	-49.492	-0.131	-0.063
-414.413	-4.269	0.182	-0.127
-413.398	-5.839	0.054	-0.037
-412.384	185.509	0.062	-0.093
-411.369	191.748	0.037	-0.056
-410.355	800.000	0.057	0.162
-409.340	6.937	-0.103	0.077
-408.325	100.499	-0.112	-0.132
-407.311	727.980	0.048	0.128
-406.296	-143.235	0.234	-0.023
-405.282	-136.009	-0.275	-0.033
-404.267	-111.963	0.032	0.006
-403.252	212.285	-0.230	0.366
-402.238	-27.674	0.015	-0.009
-401.223	-200.000	0.026	0.156
-400.209	34.256	0.090	0.079
-399.194	318.133	0.160	0.305
-398.179	42.507	-0.331	-0.304
-397.165	52.392	-0.092	0.089
-396.150	-200.000	0.014	0.116
-395.136	184.250	0.118	0.175
-394.121	-58.953	0.289	0.126
-393.106	264.342	-0.076	0.134
-392.092	800.000	-0.102	-0.297
-391.077	800.000	0.071	-0.275
-390.063	-200.000	-0.009	-0.156
-389.048	64.971	0.082	0.084
-388.033	-200.000	0.024	-0.204
-387.019	24.986	0.120	0.101
-386.004	-16.233	-0.274	0.176
-384.990	-200.000	-0.018	-0.197
-383.975	-104.579	-0.069	-0.016
-382.960	57.765	0.197	0.194
-381.946	-80.863	-0.196	-0.066
-380.931	-48.682	0.206	-0.100
-379.917	23.526	0.253	-0.210
-378.902	157.970	0.211	0.295
-377.888	-139.615	-0.356	0.038
-376.873	47.970	0.325	-0.306
-375.858	37.496	-0.033	-0.029
-374.844	264.130	-0.174	-0.306
-373.829	46.323	-0.234	-0.219
-372.815	-175.247	-0.117	-0.003
-371.800	-122.390	0.190	-0.031
-370.785	230.489	-0.205	0.338
-369.771	615.701	0.188	0.475
-368.756	-200.000	0.007	0.090
-367.742	-65.826	-0.353	0.142
-366.727	186.549	0.092	-0.137
-365.712	5.348	-0.041	-0.030
-364.698	516.976	0.119	0.281
-363.683	-74.703	0.155	-0.056
-362.669	-200.000	0.072	-0.370
-361.654	-31.737	-0.216	0.122
-360.639	800.000	0.041	0.130
-359.625	70.545	0.136	0.141
-358.610	-124.926	-0.111	0.017
-357.596	143.165	0.102	0.136
-356.581	-114.219	0.203	-0.039
-355.566	-39.545	0.404	-0.213
-354.552	209.494	0.094	-0.148
-353.537	28.683	0.203	0.173
-352.523	-33.339	-0.117	0.065
-351.508	-50.700	-0.280	0.133
-350.493	749.841	-0.040	0.108
-349.479	-94.134	-0.356	0.098
-348.464	-82.777	-0.151	0.049
-347.450	-138.235	0.136	0.015
-346.435	-63.329	0.029	-0.012
-345.420	27.706	-0.250	0.212
-344.406	23.350	-0.096	0.079
-343.391	385.932	0.139	-0.289
-342.377	-92.302	-0.110	-0.031
-341.362	32.998	-0.190	-0.166
-340.348	-140.278	-0.166	-0.018
-339.333	-27.466	-0.180	-0.106
-338.318	-36.263	-0.579	0.314
-337.304	81.277	0.093	-0.101
-336.289	117.218	-0.052	-0.064
-335.275	-127.378	-0.217	-0.032
-334.260	-200.000	-0.013	-0.103
-333.245	407.970	0.066	0.139
-332.231	-200.000	0.003	0.017
-331.216	-99.762	-0.174	-0.044
-330.202	80.674	-0.226	0.245
-329.187	-137.611	-0.247	0.028
-328.172	-200.000	-0.064	-0.306
-327.158	-200.000	-0.057	-0.311
-326.143	47.073	0.198	0.185
-325.129	141.413	-0.137	-0.182
-324.114	187.492	0.124	-0.186
-323.099	-138.935	-0.265	-0.029
-322.085	13.623	-0.389	-0.304
-321.070	800.000	0.016	0.053
-320.056	506.034	-0.140	-0.327
-319.041	72.095	0.105	0.109
-318.026	-171.932	0.123	0.004
-317.012	212.113	0.133	-0.211
-315.997	338.880	0.134	0.262
-314.983	451.240	-0.081	-0.179
-313.968	-15.208	-0.135	0.087
-312.953	62.259	-0.049	0.049
-311.939	-87.803	0.317	0.096
-310.924	-13.141	-0.093	0.061
-309.910	60.609	-0.157	-0.156
-308.895	800.000	-0.067	0.220
-307.880	16.651	0.134	0.106
-306.866	243.563	-0.140	-0.237
-305.851	800.000	-0.057	0.204
-304.837	-107.311	0.195	0.043
-303.822	800.000	0.086	0.245
-302.807	129.571	0.018	-0.024
-301.793	-200.000	-0.004	0.028
-300.778	401.831	0.046	0.097
-299.764	197.648	-0.229	0.351
-298.749	-23.695	-0.160	-0.096
-297.735	-30.842	0.287	-0.163
-296.720	1.604	0.329	0.238
-295.705	-116.016	0.266	-0.050
-294.691	324.031	-0.143	0.275
-293.676	-141.802	-0.143	-0.014
-292.662	342.121	-0.096	0.189
-291.647	37.116	0.166	-0.148
-290.632	800.000	-0.076	-0.224
-289.618	597.073	-0.029	-0.072
-288.603	800.000	0.034	0.140
-287.589	-200.000	-0.012	-0.063
-286.574	237.778	0.224	-0.373
-285.559	-6.927	-0.252	0.172
-284.545	197.357	-0.094	0.145
-283.530	173.398	0.136	-0.197
-282.516	1.383	0.262	-0.189
-281.501	114.900	-0.117	0.143
-280.486	267.278	0.115	0.203
-279.472	800.000	-0.061	-0.252
-278.457	-130.251	-0.095	0.013
-277.443	337.330	-0.025	0.049
-276.428	47.989	-0.111	-0.104
-275.413	-144.646	-0.254	0.023
-274.399	35.741	0.079	-0.070
-273.384	664.494	0.033	0.086
-272.370	-48.119	0.203	0.099
-271.355	-200.000	0.036	-0.177
-270.340	-81.038	-0.240	-0.080
-269.326	172.891	-0.040	-0.057
-268.311	-10.509	0.179	-0.119
-267.297	287.074	0.278	0.505
-266.282	380.766	0.110	0.227
-265.267	-200.000	-0.005	0.120
-264.253	22.430	-0.088	0.072
-263.238	-83.366	-0.099	0.032
-262.224	-32.522	-0.185	0.103
-261.209	-146.943	-0.214	-0.018
-260.195	64.757	0.197	0.199
-259.180	-200.000	0.029	-0.359
-258.165	105.603	0.287	-0.340
-257.151	258.768	0.095	-0.164
-256.136	800.000	0.038	0.150
-255.122	-49.737	0.473	0.225
-254.107	11.753	0.136	0.104
-253.092	-200.000	-0.005	-0.274
-252.078	221.491	0.105	0.169
-251.063	-88.033	0.115	0.034
-250.049	405.521	0.019	0.041
-249.034	339.074	-0.077	0.150
-248.019	140.091	0.200	0.264
-247.005	-195.060	0.100	0.001
-245.990	-200.000	-0.014	0.330
-244.976	-200.000	-0.009	0.053
-243.961	-200.000	-0.026	0.439
-242.946	-136.463	0.253	0.029
-241.932	520.626	-0.061	0.144
-240.917	186.944	-0.136	-0.204
-239.903	-200.000	-0.015	0.073
-238.888	152.358	0.133	0.182
-237.873	-200.000	-0.070	0.370
-236.859	83.236	-0.306	-0.334
-235.844	230.508	0.205	-0.336
-234.830	-200.000	0.017	-0.100
-233.815	390.557	-0.056	0.117
-232.800	15.210	0.344	0.270
-231.786	-36.207	0.186	-0.101
-230.771	563.182	0.057	0.139
-229.757	203.395	0.043	-0.067
-228.742	-109.264	0.516	-0.110
-227.727	93.520	0.399	0.452
-226.713	-200.000	0.014	-0.071
-225.698	161.947	-0.100	0.141
-224.684	-75.858	-0.268	-0.095
-223.669	-4.621	-0.205	0.142
-222.655	183.441	0.203	-0.300
-221.640	382.014	0.074	-0.152
-220.625	800.000	-0.111	-0.348
-219.611	-172.966	-0.229	-0.007
-218.596	800.000	-0.073	0.247
-217.582	-44.851	0.093	0.046
-216.567	-191.646	-0.237	-0.002
-215.552	46.955	-0.269	-0.251
-214.538	106.903	0.089	-0.105
-213.523	-98.000	-0.133	-0.034
-212.509	35.277	0.200	0.176
-211.494	-43.337	0.276	0.140
-210.479	-200.000	0.003	0.036
-209.465	-104.356	-0.273	0.063
-208.450	26.646	-0.254	-0.213
-207.436	244.510	0.078	-0.131
-206.421	-89.154	0.302	-0.089
-205.406	166.336	0.101	-0.144
-204.392	173.290	-0.109	0.157
-203.377	128.524	-0.220	-0.280
-202.363	25.359	-0.165	-0.137
-201.348	800.000	0.033	-0.120
-200.333	-19.410	0.224	0.139
-199.319	69.773	-0.085	0.088
-198.304	800.000	0.151	0.490
-197.290	-132.146	0.074	-0.010
-196.275	-138.074	0.219	0.024
-195.260	-96.044	0.260	0.069
-194.246	432.476	0.101	0.218
-193.231	-8.442	0.152	0.103
-192.217	205.567	0.058	-0.089
-191.202	-95.934	0.154	-0.041
-190.187	800.000	0.085	-0.246
-189.173	-200.000	0.081	-0.371
-188.158	-200.000	0.011	-0.234
-187.144	-179.645	0.368	-0.008
-186.129	-147.580	0.201	-0.017
-185.114	-128.481	-0.198	-0.028
-184.100	282.956	-0.094	-0.168
-183.085	-35.483	0.053	-0.029
-182.071	16.882	-0.107	-0.085
-181.056	-47.469	0.291	0.142
-180.042	144.311	-0.124	0.166
-179.027	-123.968	0.070	-0.011
-178.012	-200.000	-0.039	-0.305
-176.998	144.048	-0.135	0.180
-175.983	-114.564	0.180	0.034
-174.969	232.498	0.152	0.249
-173.954	71.041	-0.138	-0.143
-172.939	-200.000	0.067	-0.328
-171.925	-69.969	0.158	-0.060
-170.910	-200.000	-0.012	0.129
-169.896	108.888	-0.110	-0.131
-168.881	800.000	-0.034	-0.126
-167.866	800.000	-0.067	-0.214
-166.852	-138.258	-0.215	0.024
-165.837	-55.405	0.398	-0.178
-164.823	157.105	-0.202	0.279
-163.808	-5.785	0.153	-0.105
-162.793	-139.019	-0.358	-0.039
-161.779	39.481	0.161	0.145
-160.764	-200.000	0.062	-0.356
-159.750	-31.274	0.150	-0.084
-158.735	800.000	0.104	-0.328
-157.720	274.916	0.124	-0.220
-156.706	-42.410	-0.253	-0.129
-155.691	-105.889	-0.069	0.016
-154.677	-60.096	-0.093	-0.040
-153.662	148.224	-0.109	-0.147
-152.647	-200.000	-0.014	-0.290
-151.633	-200.000	0.019	0.174
-150.618	349.062	-0.116	-0.229
-149.604	-161.180	0.260	0.014
-148.589	56.843	0.070	-0.068
-147.574	-200.000	-0.044	0.422
-146.560	-63.738	-0.293	0.120
-145.545	576.380	0.209	-0.509
-144.531	-55.367	-0.233	0.104
-143.516	39.028	0.403	0.360
-142.502	800.000	-0.082	0.339
-141.487	-200.000	0.004	-0.055
-140.472	-110.752	0.379	-0.078
-139.458	800.000	-0.043	-0.121
-138.443	-55.560	-0.158	0.071
-137.429	179.330	-0.026	0.038
-136.414	-64.834	0.377	0.152
-135.399	-64.690	0.245	0.099
-134.385	324.380	0.052	0.099
-133.370	607.763	-0.085	0.212
-132.356	-200.000	0.005	-0.169
-131.341	-10.928	-0.242	0.160
-130.326	0.246	-0.086	0.061
-129.312	-97.479	0.196	0.051
-128.297	800.000	-0.098	0.296
-127.283	-98.019	-0.167	-0.043
-126.268	137.057	0.297	-0.388
-125.253	188.022	-0.144	0.215
-124.239	-144.147	-0.444	0.041
-123.224	-54.165	-0.210	-0.095
-122.210	331.317	-0.164	-0.315
-121.195	-17.071	0.020	0.013
