DTS Sentinel unit serial number:	SN413079Multiplexer serial number:	ORYXHardware model number:	OX4-SRSoftware version number:	ORYX F/W v4.00 Oryx Data Collector v3.7.2.0data status	okinstallation	princeton_trtdifferential loss correction	single-endedforward channel	channel 1reverse channel	N/Adate	2019/09/17time	03:02:35forward acquisition time	60.00reverse acquisition time	0.00gamma	496.2192k internal	0.2323k external	0.2323temperature offset calibration	0.9958default loss term (dB/km)	0.3790temperature slope calibration	1.0000multiplexer offset coefficient	1.0000multiplexer slope coefficient	1.0000fibre end	0.00T internal ref (°C)	29.94T ext. ref 1 (°C)	0.13T ext. ref 2 (°C)	24.83length (m)	temperature (°C)	Stokes	anti-Stokes-747.200	80.977	-0.057	0.062
-746.185	48.980	-0.328	0.311
-745.171	-57.165	0.216	0.096
-744.156	-200.000	0.019	0.234
-743.142	-200.000	0.025	0.279
-742.127	-152.039	-0.281	0.021
-741.112	-62.035	0.315	0.133
-740.098	10.387	-0.263	0.202
-739.083	105.760	0.178	-0.212
-738.069	78.079	-0.041	-0.044
-737.054	800.000	-0.089	0.304
-736.039	647.603	0.106	0.274
-735.025	172.433	0.081	0.118
-734.010	-73.774	-0.263	0.096
-732.996	124.239	-0.163	0.207
-731.981	800.000	-0.106	0.395
-730.966	-200.000	-0.007	0.060
-729.952	383.703	0.098	-0.204
-728.937	-107.651	0.286	-0.063
-727.923	755.464	-0.105	0.288
-726.908	175.922	-0.160	0.234
-725.894	-167.430	-0.300	-0.012
-724.879	64.666	0.177	-0.180
-723.864	-52.585	-0.355	0.165
-722.850	332.570	0.030	-0.059
-721.835	-67.085	-0.045	0.018
-720.821	382.172	-0.039	0.081
-719.806	-115.499	-0.315	-0.060
-718.791	47.306	-0.282	-0.265
-717.777	-35.156	0.221	-0.122
-716.762	591.657	-0.101	-0.250
-715.748	-37.468	-0.406	-0.219
-714.733	333.726	-0.045	0.087
-713.718	268.323	-0.068	0.120
-712.704	155.656	-0.313	0.435
-711.689	-111.408	-0.251	0.052
-710.675	-122.687	-0.112	0.018
-709.660	-96.372	0.358	0.096
-708.645	104.845	-0.061	-0.072
-707.631	-100.795	0.314	0.078
-706.616	800.000	-0.093	-0.277
-705.602	-81.130	-0.331	0.110
-704.587	120.967	0.079	-0.099
-703.572	800.000	0.092	0.326
-702.558	-19.397	-0.098	0.061
-701.543	361.720	-0.142	-0.286
-700.529	454.421	0.039	-0.086
-699.514	800.000	0.197	-0.633
-698.499	-84.464	-0.120	0.038
-697.485	520.049	-0.044	-0.104
-696.470	177.262	-0.141	-0.207
-695.456	509.000	-0.043	-0.100
-694.441	-144.326	0.223	0.021
-693.426	-105.061	-0.475	0.109
-692.412	-81.379	0.184	0.061
-691.397	-200.000	-0.013	-0.182
-690.383	800.000	0.115	-0.325
-689.368	800.000	0.069	-0.298
-688.354	-134.226	-0.327	0.041
-687.339	-200.000	-0.037	0.600
-686.324	98.664	0.199	0.231
-685.310	-116.138	-0.363	-0.068
-684.295	-51.431	-0.213	-0.100
-683.281	-1.412	0.115	0.082
-682.266	-93.932	0.104	0.029
-681.251	305.502	0.038	-0.071
-680.237	-14.508	0.376	0.244
-679.222	50.717	0.036	0.035
-678.208	509.253	0.152	-0.356
-677.193	1.053	-0.139	0.101
-676.178	149.511	-0.202	-0.276
-675.164	15.650	-0.207	0.164
-674.149	-93.314	-0.474	0.132
-673.135	442.852	0.038	-0.083
-672.120	-57.931	-0.154	0.068
-671.105	-16.706	-0.274	-0.175
-670.091	-104.051	0.198	0.046
-669.076	-5.184	-0.232	0.161
-668.062	-200.000	-0.008	-0.130
-667.047	60.553	0.129	0.128
-666.032	19.728	-0.047	0.038
-665.018	-22.656	0.072	-0.044
-664.003	-94.856	0.360	-0.098
-662.989	7.151	-0.181	-0.136
-661.974	-86.527	0.074	-0.023
-660.959	495.155	0.083	-0.192
-659.945	-179.834	0.336	-0.007
-658.930	38.742	-0.076	-0.068
-657.916	-200.000	-0.022	-0.186
-656.901	29.603	-0.055	0.047
-655.886	688.349	-0.032	-0.083
-654.872	78.667	0.133	-0.143
-653.857	51.437	-0.120	-0.114
-652.843	204.664	-0.139	-0.217
-651.828	-200.000	-0.040	-0.187
-650.814	169.946	0.256	-0.369
-649.799	4.515	0.402	-0.297
-648.784	800.000	0.069	-0.265
-647.770	-145.665	-0.312	0.028
-646.755	7.802	0.255	-0.192
-645.741	249.343	-0.104	-0.177
-644.726	-200.000	-0.003	-0.157
-643.711	-124.631	0.285	0.044
-642.697	-200.000	0.042	-0.255
-641.682	135.821	0.122	-0.160
-640.668	-51.616	0.054	-0.025
-639.653	800.000	0.041	-0.163
-638.638	-200.000	-0.000	-0.318
-637.624	-38.259	0.145	-0.077
-636.609	-200.000	-0.017	-0.204
-635.595	-200.000	0.014	-0.106
-634.580	800.000	0.125	0.498
-633.565	800.000	0.032	0.127
-632.551	-67.269	0.257	0.102
-631.536	33.929	-0.043	-0.038
-630.522	-47.707	-0.216	-0.105
-629.507	-147.939	0.149	-0.012
-628.492	220.684	0.045	0.073
-627.478	-200.000	-0.010	-0.173
-626.463	87.744	0.104	-0.116
-625.449	-200.000	0.047	-0.253
-624.434	-88.479	-0.366	0.110
-623.419	-200.000	0.019	0.138
-622.405	-200.000	-0.008	0.193
-621.390	-93.286	0.229	0.064
-620.376	284.729	0.031	0.056
-619.361	-200.000	-0.039	-0.174
-618.346	-140.719	-0.240	-0.025
-617.332	-200.000	-0.025	0.228
-616.317	423.500	-0.043	-0.092
-615.303	-111.563	-0.116	-0.024
-614.288	800.000	0.081	0.235
-613.273	-124.989	-0.305	0.047
-612.259	-200.000	-0.010	0.135
-611.244	-200.000	0.009	0.162
-610.230	641.955	-0.113	-0.289
-609.215	18.170	-0.246	-0.197
-608.201	-200.000	0.035	-0.178
-607.186	92.156	0.140	-0.159
-606.171	273.334	0.169	0.300
-605.157	3.802	0.027	0.019
-604.142	156.062	-0.108	-0.149
-603.128	19.854	0.188	-0.152
-602.113	601.167	-0.108	-0.270
-601.098	-200.000	0.013	0.160
-600.084	-200.000	0.006	-0.112
-599.069	12.128	-0.264	0.204
-598.055	800.000	-0.061	0.236
-597.040	343.671	-0.176	0.346
-596.025	174.586	0.119	-0.174
-595.011	-87.462	-0.046	-0.014
-593.996	26.230	-0.058	-0.048
-592.982	105.073	0.201	0.238
-591.967	-53.771	-0.241	0.110
-590.952	-200.000	-0.021	0.200
-589.938	716.787	0.070	-0.185
-588.923	-30.557	0.437	-0.249
-587.909	498.780	-0.181	-0.418
-586.894	-179.076	0.461	-0.010
-585.879	-200.000	-0.054	-0.312
-584.865	416.945	-0.075	-0.161
-583.850	7.893	-0.153	-0.115
-582.836	800.000	-0.125	-0.434
-581.821	22.965	0.103	-0.085
-580.806	-200.000	-0.006	0.059
-579.792	584.364	-0.061	-0.149
-578.777	213.337	0.299	-0.474
-577.763	-18.436	0.224	-0.141
-576.748	-147.943	0.281	-0.023
-575.733	-200.000	0.005	0.024
-574.719	-31.311	0.117	0.066
-573.704	-91.272	-0.280	0.081
-572.690	-78.294	0.190	0.065
-571.675	-145.087	-0.162	0.015
-570.661	-17.407	0.101	0.064
-569.646	-200.000	0.010	-0.170
-568.631	249.115	0.140	-0.237
-567.617	346.917	-0.098	-0.194
-566.602	-30.496	0.203	-0.115
-565.588	-163.373	-0.036	-0.002
-564.573	-86.764	-0.108	0.033
-563.558	547.339	0.017	0.042
-562.544	15.410	-0.129	0.102
-561.529	800.000	-0.130	-0.416
-560.515	-99.878	-0.217	0.054
-559.500	-130.548	0.136	-0.018
-558.485	-63.953	-0.277	-0.114
-557.471	-200.000	-0.028	0.258
-556.456	165.486	-0.197	-0.279
-555.442	502.269	-0.145	-0.336
-554.427	-143.894	-0.364	-0.034
-553.412	-75.837	0.340	-0.121
-552.398	-41.235	0.641	-0.331
-551.383	800.000	0.067	-0.237
-550.369	-200.000	-0.000	0.179
-549.354	-200.000	-0.028	0.221
-548.339	-35.888	-0.091	0.049
-547.325	-99.378	-0.212	0.053
-546.310	-200.000	-0.001	0.076
-545.296	-102.322	-0.197	-0.047
-544.281	-200.000	0.018	0.477
-543.266	-167.688	0.128	0.005
-542.252	-120.326	0.061	-0.010
-541.237	-166.017	0.246	-0.010
-540.223	-27.866	0.140	0.082
-539.208	137.861	-0.204	-0.268
-538.193	110.384	0.027	0.032
-537.179	659.698	0.100	-0.258
-536.164	187.581	-0.229	-0.342
-535.150	-200.000	-0.008	0.413
-534.135	-22.638	-0.160	-0.097
-533.121	289.806	-0.075	0.137
-532.106	40.492	-0.219	0.197
-531.091	-106.121	-0.063	-0.014
-530.077	-66.814	-0.093	-0.037
-529.062	95.609	-0.061	0.070
-528.048	-12.217	0.308	-0.202
-527.033	170.810	-0.093	-0.134
-526.018	23.760	0.420	0.347
-525.004	12.861	-0.176	-0.136
-523.989	-28.736	0.251	-0.145
-522.975	-42.169	-0.064	0.033
-521.960	-93.439	0.315	-0.087
-520.945	-200.000	0.029	-0.208
-519.931	-47.637	-0.176	-0.085
-518.916	800.000	-0.097	-0.366
-517.902	-106.402	-0.064	0.014
-516.887	-81.179	0.087	-0.029
-515.872	717.081	0.063	0.168
-514.858	281.737	0.045	0.081
-513.843	-200.000	-0.040	0.208
-512.829	-200.000	-0.025	0.170
-511.814	-49.429	0.142	0.068
-510.799	269.275	0.195	0.343
-509.785	263.827	0.091	-0.159
-508.770	-200.000	-0.003	-0.390
-507.756	7.025	-0.356	-0.266
-506.741	-67.860	-0.185	-0.072
-505.726	-94.655	0.118	-0.032
-504.712	-200.000	0.051	0.238
-503.697	-200.000	-0.001	-0.118
-502.683	-200.000	0.003	0.087
-501.668	-114.500	-0.459	-0.088
-500.653	-10.472	0.246	-0.163
-499.639	120.767	-0.203	0.252
-498.624	-119.414	0.523	0.091
-497.610	-84.882	0.167	-0.052
-496.595	1.794	-0.348	-0.251
-495.581	284.110	-0.206	0.371
-494.566	41.141	-0.096	0.086
-493.551	-48.901	0.290	0.139
-492.537	359.097	-0.157	-0.313
-491.522	619.665	-0.083	-0.209
-490.508	-82.749	0.243	-0.078
-489.493	619.787	-0.150	-0.376
-488.478	800.000	0.015	-0.065
-487.464	-200.000	0.093	-0.412
-486.449	800.000	-0.041	0.156
-485.435	-89.001	-0.058	-0.017
-484.420	389.672	0.107	0.222
-483.405	-57.486	-0.113	-0.050
-482.391	-49.544	-0.367	-0.175
-481.376	-98.300	-0.109	0.028
-480.362	-59.275	0.322	0.139
-479.347	-80.426	0.272	0.091
-478.332	800.000	0.054	-0.222
-477.318	181.391	0.079	-0.116
-476.303	-5.371	-0.211	-0.145
-475.289	-104.038	0.129	-0.030
-474.274	-111.300	0.130	0.026
-473.259	-22.291	-0.196	-0.118
-472.245	-99.655	0.032	0.008
-471.230	-39.649	-0.271	-0.142
-470.216	-87.092	-0.224	0.068
-469.201	26.886	0.353	0.296
-468.186	-200.000	0.030	0.245
-467.172	-85.920	0.174	-0.054
-466.157	398.098	0.114	-0.239
-465.143	-42.462	-0.250	-0.128
-464.128	52.849	-0.140	0.133
-463.113	-66.064	0.209	0.083
-462.099	33.506	0.112	-0.097
-461.084	-44.044	-0.149	-0.075
-460.070	-141.359	0.241	-0.024
-459.055	-200.000	0.000	-0.145
-458.040	-17.256	-0.193	-0.122
-457.026	-34.769	-0.251	-0.137
-456.011	-200.000	0.015	0.181
-454.997	69.948	-0.274	0.282
-453.982	-200.000	-0.011	0.084
-452.968	-94.982	0.204	-0.055
-451.953	-52.611	-0.085	0.039
-450.938	-135.357	-0.281	0.034
-449.924	-161.354	-0.061	0.003
-448.909	188.003	0.059	0.088
-447.895	-147.869	-0.064	-0.005
-446.880	-17.071	0.097	0.061
-445.865	800.000	0.038	0.117
-444.851	-200.000	-0.017	-0.188
-443.836	-113.339	-0.374	0.073
-442.822	-161.594	0.148	-0.008
-441.807	-126.626	-0.186	-0.028
-440.792	260.857	-0.185	-0.319
-439.778	-77.287	-0.239	0.083
-438.763	-8.473	-0.238	0.160
-437.749	-30.607	0.063	0.035
-436.734	11.887	-0.015	-0.011
-435.719	-11.445	-0.111	0.073
-434.705	125.688	-0.108	-0.136
-433.690	-200.000	0.013	0.561
-432.676	130.361	-0.019	0.024
-431.661	220.576	0.135	-0.217
-430.646	177.396	-0.124	-0.180
-429.632	800.000	0.014	-0.058
-428.617	587.348	0.115	0.283
-427.603	128.101	-0.044	0.055
-426.588	94.454	-0.130	-0.147
-425.573	117.734	0.054	0.066
-424.559	130.112	0.153	0.195
-423.544	165.489	0.213	-0.300
-422.530	800.000	-0.029	-0.093
-421.515	-93.779	-0.153	-0.042
-420.500	65.360	-0.062	0.063
-419.486	-31.555	0.453	-0.254
-418.471	-200.000	-0.052	0.235
-417.457	705.056	0.004	0.011
-416.442	-82.281	0.087	0.028
-415.428	505.090	-0.087	-0.201
-414.413	800.000	-0.064	0.187
-413.398	145.079	-0.222	0.297
-412.384	-62.354	-0.386	-0.160
-411.369	20.005	0.170	-0.137
-410.355	119.341	-0.077	-0.095
-409.340	-188.141	0.225	0.003
-408.325	85.932	0.137	-0.150
-407.311	65.903	-0.116	-0.117
-406.296	-51.540	0.160	0.074
-405.282	84.610	-0.207	0.226
-404.267	-139.848	0.045	-0.005
-403.252	-200.000	-0.012	-0.369
-402.238	276.635	-0.108	-0.191
-401.223	-37.092	0.159	0.085
-400.209	7.506	0.082	0.061
-399.194	20.741	0.351	0.283
-398.179	-8.770	0.059	0.039
-397.165	42.958	0.061	0.055
-396.150	-66.299	-0.154	0.061
-395.136	167.159	-0.158	-0.224
-394.121	553.408	-0.049	-0.116
-393.106	-107.341	0.289	-0.063
-392.092	-200.000	0.013	-0.242
-391.077	38.810	-0.220	0.196
-390.063	342.082	0.081	0.158
-389.048	-200.000	0.011	-0.058
-388.033	-200.000	-0.004	-0.167
-387.019	-134.513	-0.392	0.048
-386.004	800.000	0.089	0.303
-384.990	-109.500	-0.416	0.087
-383.975	800.000	-0.031	-0.105
-382.960	69.092	-0.107	0.109
-381.946	364.549	-0.053	0.106
-380.931	-200.000	-0.073	-0.356
-379.917	-73.981	-0.402	-0.145
-378.902	-44.680	0.520	0.259
-377.888	800.000	0.069	-0.256
-376.873	-147.038	0.360	-0.031
-375.858	-35.401	-0.115	0.062
-374.844	284.873	0.128	0.230
-373.829	-200.000	-0.029	0.439
-372.815	-105.831	-0.119	0.027
-371.800	651.844	-0.025	-0.064
-370.785	119.650	-0.247	-0.304
-369.771	-53.771	0.140	0.064
-368.756	800.000	0.059	0.237
-367.742	-200.000	0.023	0.279
-366.727	800.000	0.080	0.246
-365.712	-140.873	-0.248	0.025
-364.698	-121.989	-0.188	-0.031
-363.683	-141.634	-0.240	0.024
-362.669	800.000	0.080	0.240
-361.654	20.058	-0.140	0.112
-360.639	346.156	-0.075	-0.147
-359.625	-25.575	0.197	0.116
-358.610	-200.000	0.006	0.373
-357.596	-90.873	-0.272	0.078
-356.581	-75.432	-0.263	-0.093
-355.566	-54.434	-0.078	-0.035
-354.552	-56.843	0.182	0.080
-353.537	-152.132	-0.115	0.008
-352.523	94.620	-0.245	0.278
-351.508	172.394	0.255	0.365
-350.493	-120.938	0.172	0.029
-349.479	356.891	0.103	0.204
-348.464	-75.458	0.137	-0.049
-347.450	32.008	-0.271	-0.233
-346.435	248.493	0.298	0.502
-345.420	-200.000	0.002	0.262
-344.406	68.933	-0.076	0.078
-343.391	-13.574	-0.054	-0.035
-342.377	74.528	-0.163	0.171
-341.362	-68.936	0.158	-0.061
-340.348	-200.000	0.016	0.101
-339.333	-200.000	0.021	0.135
-338.318	41.391	0.329	0.296
-337.304	41.331	-0.202	-0.182
-336.289	-165.573	0.090	0.004
-335.275	414.862	0.090	0.190
-334.260	104.857	-0.266	-0.311
-333.245	-128.809	-0.595	0.083
-332.231	-200.000	0.007	0.199
-331.216	145.026	-0.126	-0.167
-330.202	141.794	0.067	-0.089
-329.187	-57.954	-0.148	-0.064
-328.172	-86.589	-0.294	0.089
-327.158	-200.000	-0.021	0.225
-326.143	-167.325	0.121	-0.005
-325.129	-151.598	0.040	-0.003
-324.114	186.448	0.120	0.177
-323.099	-94.046	-0.193	-0.053
-322.085	211.542	0.137	-0.214
-321.070	166.195	0.131	-0.185
-320.056	-200.000	-0.015	0.384
-319.041	120.786	0.013	-0.017
-318.026	-56.185	-0.131	-0.058
-317.012	466.418	-0.156	0.347
-315.997	479.898	0.130	0.294
-314.983	-200.000	-0.185	-0.001
-313.968	-113.539	0.271	0.053
-312.953	193.778	-0.066	0.100
-311.939	48.540	0.092	0.086
-310.924	-93.772	-0.111	0.030
-309.910	-200.000	-0.057	-0.311
-308.895	70.317	0.162	-0.166
-307.880	-121.837	0.041	0.007
-306.866	-91.926	0.024	0.007
-305.851	15.774	0.165	0.129
-304.837	14.551	0.232	0.180
-303.822	-139.145	-0.036	0.004
-302.807	0.891	-0.151	0.108
-301.793	-200.000	0.006	-0.301
-300.778	-200.000	0.001	-0.207
-299.764	-14.250	-0.119	0.076
-298.749	222.077	-0.160	-0.256
-297.735	-117.053	-0.141	-0.025
-296.720	-63.283	0.281	0.115
-295.705	-13.093	-0.114	-0.074
-294.691	800.000	0.044	-0.141
-293.676	518.740	-0.064	0.149
-292.662	-200.000	-0.031	0.137
-291.647	-156.448	-0.205	0.013
-290.632	-156.236	-0.105	0.007
-289.618	8.790	0.038	-0.028
-288.603	346.648	-0.015	-0.029
-287.589	22.630	-0.081	0.066
-286.574	-27.309	0.077	-0.044
-285.559	-200.000	-0.027	0.146
-284.545	-16.171	0.177	0.112
-283.530	-102.913	-0.158	0.037
-282.516	800.000	0.042	-0.132
-281.501	-172.261	0.216	0.007
-280.486	13.335	-0.228	-0.175
-279.472	116.813	0.111	-0.135
-278.457	-200.000	0.040	0.193
-277.443	135.184	0.294	-0.379
-276.428	12.201	0.268	-0.204
-275.413	63.731	-0.152	0.151
-274.399	-25.068	-0.203	0.119
-273.384	390.774	0.018	0.037
-272.370	57.015	0.193	0.187
-271.355	-200.000	0.051	0.231
-270.340	81.492	-0.057	0.061
-269.326	-160.500	-0.099	0.005
-268.311	-74.163	0.357	0.128
-267.297	210.908	0.199	-0.311
-266.282	-48.719	0.255	0.121
-265.267	-152.580	0.318	-0.023
-264.253	-114.731	-0.211	0.040
-263.238	23.183	-0.142	-0.115
-262.224	136.786	0.065	0.084
-261.209	44.284	-0.192	-0.174
-260.195	-27.587	0.187	0.108
-259.180	21.418	-0.240	-0.193
-258.165	79.175	0.258	0.274
-257.151	17.610	0.165	0.130
-256.136	120.354	-0.205	-0.252
-255.122	-9.885	0.181	-0.119
-254.107	45.920	-0.113	0.103
-253.092	-139.381	0.328	-0.035
-252.078	-63.170	-0.130	0.053
-251.063	35.249	0.046	0.040
-250.049	-66.869	0.307	0.120
-249.034	-112.063	0.204	-0.041
-248.019	115.902	-0.100	0.121
-247.005	103.796	-0.194	-0.225
-245.990	-40.755	-0.322	-0.165
-244.976	-28.951	0.151	-0.086
-243.961	-200.000	0.027	0.197
-242.946	-70.824	0.215	0.080
-241.932	175.033	-0.057	0.082
-240.917	-43.784	-0.337	-0.168
-239.903	557.538	0.195	-0.465
-238.888	4.526	-0.210	0.153
-237.873	-21.084	-0.178	0.108
-236.859	54.283	0.158	-0.151
-235.844	179.304	-0.068	0.099
-234.830	-200.000	-0.043	0.323
-233.815	59.999	0.065	0.064
-232.800	572.803	0.089	0.214
-231.786	800.000	0.046	-0.192
-230.771	800.000	0.050	-0.151
-229.757	-200.000	-0.014	0.180
-228.742	800.000	0.133	-0.436
-227.727	800.000	-0.049	-0.134
-226.713	617.097	-0.082	0.205
-225.698	30.351	0.160	0.135
-224.684	-86.814	0.262	0.079
-223.669	-161.645	-0.349	-0.018
-222.655	800.000	-0.003	-0.011
-221.640	107.017	-0.093	0.109
-220.625	-200.000	-0.048	0.238
-219.611	800.000	-0.034	0.133
-218.596	-200.000	-0.001	-0.041
-217.582	800.000	0.046	-0.131
-216.567	800.000	-0.071	-0.244
-215.552	-145.282	-0.212	-0.019
-214.538	-68.122	0.251	-0.097
-213.523	-6.756	-0.178	0.120
-212.509	-200.000	0.029	0.221
-211.494	18.841	0.156	-0.123
-210.479	-200.000	0.019	0.372
-209.465	193.893	-0.227	0.339
-208.450	394.632	-0.103	0.213
-207.436	-76.654	0.208	0.072
-206.421	125.122	0.256	0.319
-205.406	-154.405	0.145	-0.010
-204.392	-200.000	0.017	0.219
-203.377	48.294	0.069	0.064
-202.363	-200.000	0.026	-0.620
-201.348	-10.785	0.411	-0.269
-200.333	800.000	-0.033	0.131
-199.319	-105.094	-0.135	-0.030
-198.304	-118.544	0.161	-0.028
-197.290	-200.000	0.006	0.091
-196.275	-200.000	-0.037	0.191
-195.260	190.901	-0.011	0.016
-194.246	-9.014	-0.281	0.186
-193.231	800.000	-0.107	-0.342
-192.217	-200.000	-0.052	0.293
-191.202	-109.376	-0.279	0.058
-190.187	-146.446	0.199	-0.017
-189.173	231.291	0.112	0.181
-188.158	-48.960	0.190	0.090
-187.144	12.173	-0.065	-0.050
-186.129	143.059	-0.250	-0.329
-185.114	-124.386	0.091	-0.014
-184.100	-30.247	-0.123	0.069
-183.085	-165.058	-0.230	0.010
-182.071	788.006	-0.032	-0.086
-181.056	-50.905	0.286	-0.133
-180.042	48.756	-0.200	-0.185
-179.027	81.916	0.185	-0.198
-178.012	23.857	-0.197	0.160
-176.998	208.278	0.150	0.232
-175.983	-46.937	-0.304	-0.146
-174.969	-156.178	0.222	0.014
-173.954	-9.506	0.271	0.179
-172.939	-61.261	-0.196	-0.082
-171.925	49.791	-0.075	0.070
-170.910	800.000	0.048	-0.149
-169.896	-132.673	-0.361	-0.046
-168.881	-167.389	-0.176	-0.007
-167.866	176.369	0.030	-0.043
-166.852	15.847	0.130	-0.101
-165.837	800.000	0.057	0.223
-164.823	23.242	0.221	0.179
-163.808	-200.000	-0.004	0.093
-162.793	-81.137	0.210	0.068
-161.779	443.148	0.142	0.306
-160.764	-200.000	0.029	0.212
-159.750	800.000	0.032	0.130
-158.735	213.163	-0.088	0.137
-157.720	175.268	0.145	0.207
-156.706	-139.628	0.326	-0.034
-155.691	-20.073	0.190	-0.115
-154.677	-150.103	0.333	0.026
-153.662	-44.922	-0.080	-0.039
-152.647	-184.841	-0.114	0.002
-151.633	-200.000	0.011	0.103
-150.618	-74.920	0.193	0.068
-149.604	207.538	-0.216	0.333
-148.589	-143.197	0.083	-0.008
-147.574	800.000	-0.070	0.214
-146.560	127.447	0.168	0.211
-145.545	-200.000	-0.061	0.309
-144.531	15.830	0.077	0.060
-143.516	83.590	-0.255	0.275
-142.502	-48.329	0.065	0.031
-141.487	706.567	0.068	0.177
-140.472	-200.000	0.028	0.551
-139.458	80.386	-0.072	0.076
-138.443	103.713	-0.109	0.127
-137.429	42.539	-0.173	-0.155
-136.414	108.217	-0.241	-0.284
-135.399	800.000	-0.040	0.127
-134.385	800.000	-0.087	0.248
-133.370	160.109	0.055	-0.075
-132.356	-28.891	0.198	0.112
-131.341	-200.000	-0.077	0.354
-130.326	-124.346	-0.182	0.028
-129.312	125.894	-0.142	-0.176
-128.297	283.996	0.134	-0.237
-127.283	-200.000	0.034	0.274
-126.268	-29.986	-0.146	-0.082
-125.253	-10.978	-0.067	-0.044
-124.239	-59.335	-0.274	-0.116
-123.224	-37.437	-0.355	0.187
-122.210	-200.000	0.043	0.241
-121.195	-76.490	0.066	0.023
