DTS Sentinel unit serial number:	SN413079Multiplexer serial number:	ORYXHardware model number:	OX4-SRSoftware version number:	ORYX F/W v4.00 Oryx Data Collector v3.7.2.0data status	okinstallation	princeton_trtdifferential loss correction	single-endedforward channel	channel 1reverse channel	N/Adate	2019/09/14time	14:46:35forward acquisition time	60.00reverse acquisition time	0.00gamma	496.2192k internal	0.2293k external	0.2293temperature offset calibration	1.0069default loss term (dB/km)	0.3790temperature slope calibration	1.0000multiplexer offset coefficient	1.0000multiplexer slope coefficient	1.0000fibre end	0.00T internal ref (°C)	39.19T ext. ref 1 (°C)	4.93T ext. ref 2 (°C)	33.91length (m)	temperature (°C)	Stokes	anti-Stokes-747.200	-19.880	0.177	0.112
-746.185	-200.000	-0.013	0.080
-745.171	334.782	-0.101	-0.201
-744.156	-200.000	0.025	0.426
-743.142	50.067	-0.196	-0.189
-742.127	800.000	-0.169	0.488
-741.112	-200.000	0.002	-0.246
-740.098	-14.415	-0.180	0.118
-739.083	-29.489	-0.204	0.119
-738.069	-44.929	0.394	0.201
-737.054	394.457	0.058	-0.124
-736.039	-6.067	0.295	-0.207
-735.025	303.936	-0.041	0.077
-734.010	14.680	-0.084	0.067
-732.996	-200.000	-0.015	-0.178
-731.981	66.793	-0.260	0.271
-730.966	-107.503	-0.223	0.050
-729.952	800.000	-0.105	0.337
-728.937	404.238	-0.174	0.374
-727.923	800.000	0.090	0.311
-726.908	340.017	-0.114	-0.228
-725.894	-90.013	-0.315	-0.094
-724.879	-17.524	-0.072	-0.046
-723.864	800.000	-0.074	0.230
-722.850	-60.838	0.224	0.097
-721.835	-143.300	0.035	-0.003
-720.821	712.189	-0.130	-0.351
-719.806	-70.029	0.095	0.037
-718.791	-200.000	-0.015	0.084
-717.777	235.083	-0.177	0.298
-716.762	-35.534	-0.134	0.074
-715.748	-200.000	0.005	0.214
-714.733	-200.000	0.052	0.280
-713.718	-200.000	-0.028	0.478
-712.704	800.000	0.035	0.100
-711.689	-155.547	0.111	0.007
-710.675	-4.635	0.206	0.146
-709.660	-127.425	-0.111	0.016
-708.645	800.000	-0.024	-0.104
-707.631	-200.000	-0.018	0.204
-706.616	-200.000	-0.013	-0.272
-705.602	-26.066	-0.162	0.097
-704.587	800.000	0.033	0.126
-703.572	-64.525	0.293	-0.121
-702.558	800.000	-0.050	-0.209
-701.543	195.002	-0.094	0.145
-700.529	319.339	-0.088	0.170
-699.514	-46.040	-0.083	0.042
-698.499	-200.000	0.014	-0.253
-697.485	-62.806	-0.246	-0.104
-696.470	-200.000	-0.002	0.072
-695.456	146.388	-0.030	-0.041
-694.441	-150.168	0.115	-0.009
-693.426	-31.820	0.195	-0.112
-692.412	344.402	-0.078	-0.157
-691.397	-200.000	-0.014	-0.196
-690.383	-166.780	0.090	-0.004
-689.368	157.786	0.051	0.072
-688.354	-53.498	-0.287	-0.134
-687.339	-101.826	-0.274	0.068
-686.324	-99.920	0.230	0.059
-685.310	1.266	0.250	-0.184
-684.295	115.089	-0.263	0.328
-683.281	-200.000	-0.010	0.160
-682.266	-33.647	0.127	0.071
-681.251	800.000	0.025	-0.074
-680.237	595.119	0.097	-0.244
-679.222	-83.554	0.383	0.125
-678.208	236.275	-0.094	0.159
-677.193	543.828	-0.081	0.197
-676.178	448.706	-0.095	-0.215
-675.164	-107.436	0.110	0.025
-674.149	800.000	0.023	-0.082
-673.135	-157.092	0.110	-0.007
-672.120	543.496	-0.062	0.151
-671.105	80.106	0.288	0.316
-670.091	-200.000	-0.010	-0.221
-669.076	-109.502	0.316	0.068
-668.062	-24.497	-0.164	-0.100
-667.047	14.401	-0.206	0.164
-666.032	-10.200	0.229	-0.155
-665.018	-122.122	-0.095	0.016
-664.003	-27.223	0.050	-0.029
-662.989	800.000	0.063	0.257
-661.974	-36.416	-0.191	-0.105
-660.959	-23.149	-0.096	0.059
-659.945	31.166	0.115	0.100
-658.930	238.643	-0.137	0.233
-657.916	393.122	-0.051	0.108
-656.901	664.969	-0.052	0.137
-655.886	579.969	-0.015	0.039
-654.872	409.842	0.031	-0.068
-653.857	-68.158	-0.228	-0.090
-652.843	-109.162	0.215	-0.047
-651.828	111.948	-0.377	0.464
-650.814	-33.319	0.197	0.111
-649.799	-20.078	0.381	-0.239
-648.784	67.802	-0.058	-0.061
-647.770	152.415	0.217	-0.302
-646.755	-45.979	-0.050	0.025
-645.741	-17.754	0.190	0.121
-644.726	-200.000	0.019	-0.164
-643.711	-5.144	0.134	0.094
-642.697	56.436	-0.458	-0.454
-641.682	-200.000	0.001	-0.434
-640.668	190.444	-0.162	-0.249
-639.653	-200.000	-0.166	0.000
-638.638	274.883	-0.026	0.048
-637.624	-148.455	-0.099	-0.008
-636.609	-200.000	0.006	0.025
-635.595	-172.176	0.052	0.002
-634.580	-122.141	0.429	0.072
-633.565	-33.810	-0.119	0.067
-632.551	389.029	-0.151	0.318
-631.536	673.436	-0.075	-0.198
-630.522	-78.084	0.128	0.045
-629.507	-131.950	0.324	-0.043
-628.492	-34.801	0.090	0.050
-627.478	-43.924	0.274	-0.140
-626.463	314.291	-0.092	-0.176
-625.449	-200.000	0.009	-0.119
-624.434	-169.608	-0.281	-0.010
-623.419	9.373	0.114	0.088
-622.405	553.232	-0.088	-0.215
-621.390	-150.921	0.333	0.026
-620.376	520.156	-0.053	-0.126
-619.361	94.825	-0.080	-0.093
-618.346	-200.000	-0.003	0.356
-617.332	235.041	-0.191	-0.321
-616.317	-99.512	-0.142	0.036
-615.303	-200.000	0.005	0.164
-614.288	163.512	-0.150	0.215
-613.273	-166.925	-0.080	-0.003
-612.259	800.000	0.085	-0.282
-611.244	-16.749	-0.331	-0.213
-610.230	-200.000	-0.001	-0.180
-609.215	397.974	-0.107	0.227
-608.201	-31.766	-0.225	0.129
-607.186	504.967	0.186	0.437
-606.171	200.731	-0.061	-0.096
-605.157	8.496	0.132	-0.101
-604.142	34.215	-0.025	0.023
-603.128	71.559	-0.030	-0.032
-602.113	-12.048	-0.138	0.092
-601.098	-181.828	0.202	-0.004
-600.084	309.672	-0.091	-0.174
-599.069	800.000	-0.093	-0.288
-598.055	-64.219	0.184	-0.076
-597.040	-38.850	0.275	0.148
-596.025	431.016	-0.141	0.310
-595.011	-72.159	0.214	-0.081
-593.996	-74.796	-0.286	-0.105
-592.982	19.305	0.312	-0.255
-591.967	-40.247	-0.313	-0.166
-590.952	-200.000	0.017	0.088
-589.938	201.801	0.107	-0.168
-588.923	29.050	-0.304	-0.262
-587.909	212.691	-0.060	0.097
-586.894	-200.000	0.017	-0.371
-585.879	34.958	0.115	0.103
-584.865	41.088	-0.363	0.333
-583.850	14.914	0.210	0.167
-582.836	-128.491	-0.163	0.024
-581.821	-37.769	-0.195	0.105
-580.806	-170.472	0.178	0.006
-579.792	-89.924	0.156	-0.046
-578.777	800.000	-0.058	0.179
-577.763	-123.452	-0.133	0.022
-576.748	-200.000	0.224	0.001
-575.733	119.112	-0.173	0.218
-574.719	800.000	0.054	-0.162
-573.704	-119.348	0.205	-0.036
-572.690	-176.498	-0.292	0.008
-571.675	287.072	-0.056	-0.103
-570.661	-92.163	-0.159	-0.046
-569.646	-200.000	-0.430	0.002
-568.631	9.647	-0.045	-0.035
-567.617	110.001	0.057	-0.070
-566.602	-140.956	0.276	0.029
-565.588	280.485	0.031	0.056
-564.573	800.000	-0.106	0.368
-563.558	-67.340	0.172	-0.069
-562.544	-200.000	0.056	-0.335
-561.529	-200.000	0.012	-0.090
-560.515	-200.000	0.000	0.113
-559.500	-200.000	0.062	-0.531
-558.485	-200.000	-0.009	-0.202
-557.471	63.544	-0.280	-0.285
-556.456	800.000	0.094	-0.281
-555.442	35.209	0.158	0.140
-554.427	800.000	-0.160	-0.494
-553.412	510.816	-0.048	0.112
-552.398	-36.733	0.073	-0.040
-551.383	-43.377	-0.337	-0.173
-550.369	800.000	0.030	0.095
-549.354	165.534	-0.065	-0.093
-548.339	464.867	0.020	0.045
-547.325	100.957	0.222	0.262
-546.310	-30.397	0.153	0.088
-545.296	102.100	0.337	-0.399
-544.281	-10.848	0.125	-0.084
-543.266	-153.844	0.173	-0.012
-542.252	-188.301	-0.145	-0.002
-541.237	-83.468	-0.387	-0.126
-540.223	100.846	0.259	-0.306
-539.208	-119.012	-0.178	-0.032
-538.193	70.249	-0.134	-0.140
-537.179	-35.950	-0.154	-0.084
-536.164	-196.431	0.183	0.001
-535.150	236.326	-0.127	0.213
-534.135	-83.296	-0.225	0.073
-533.121	-20.354	0.169	0.105
-532.106	-158.387	-0.296	0.017
-531.091	800.000	-0.085	0.244
-530.077	-121.817	0.157	0.026
-529.062	-107.754	-0.035	0.008
-528.048	-200.000	0.022	-0.175
-527.033	-53.754	0.029	0.013
-526.018	800.000	0.009	-0.032
-525.004	800.000	0.144	0.438
-523.989	800.000	-0.121	0.434
-522.975	-61.898	-0.183	-0.078
-521.960	-149.159	-0.206	-0.017
-520.945	-200.000	0.041	-0.301
-519.931	51.944	0.327	0.316
-518.916	353.382	0.035	0.070
-517.902	-133.401	0.182	-0.023
-516.887	28.719	0.206	0.177
-515.872	140.841	-0.183	0.245
-514.858	-200.000	0.001	0.081
-513.843	-42.743	-0.148	0.076
-512.829	2.882	-0.212	-0.156
-511.814	581.944	0.074	-0.183
-510.799	38.012	-0.105	-0.095
-509.785	800.000	-0.041	-0.172
-508.770	-89.538	0.071	0.021
-507.756	-13.046	0.276	-0.182
-506.741	-200.000	-0.247	-0.001
-505.726	-97.289	0.145	-0.038
-504.712	-106.470	0.233	0.053
-503.697	-36.912	0.056	0.031
-502.683	-147.932	-0.338	-0.029
-501.668	69.710	-0.156	-0.163
-500.653	-200.000	0.270	0.000
-499.639	-147.177	-0.375	-0.032
-498.624	-200.000	-0.013	-0.085
-497.610	-171.991	0.309	0.010
-496.595	309.361	-0.080	-0.151
-495.581	-20.204	0.231	-0.144
-494.566	32.963	-0.009	-0.008
-493.551	-136.733	0.296	-0.035
-492.537	-89.415	0.289	0.086
-491.522	-200.000	-0.084	0.393
-490.508	800.000	0.062	0.225
-489.493	800.000	0.073	0.273
-488.478	610.040	-0.124	0.315
-487.464	-200.000	-0.008	0.106
-486.449	703.824	-0.133	-0.356
-485.435	-16.222	0.168	0.108
-484.420	-90.462	-0.236	0.069
-483.405	-168.476	0.232	-0.009
-482.391	-200.000	0.039	-0.343
-481.376	-200.000	0.032	-0.209
-480.362	480.324	-0.074	-0.170
-479.347	800.000	0.049	-0.218
-478.332	-200.000	0.008	-0.156
-477.318	-65.913	-0.340	-0.137
-476.303	-15.982	0.033	0.021
-475.289	-59.797	-0.591	0.256
-474.274	-200.000	-0.099	0.455
-473.259	-62.145	-0.343	-0.145
-472.245	-85.552	0.103	0.032
-471.230	97.916	-0.121	-0.140
-470.216	43.354	-0.123	-0.114
-469.201	-23.098	-0.241	-0.147
-468.186	-8.953	0.069	-0.046
-467.172	-84.942	-0.036	0.011
-466.157	-79.719	-0.103	0.035
-465.143	-200.000	-0.031	0.173
-464.128	599.756	-0.072	0.181
-463.113	-200.000	0.009	0.066
-462.099	47.431	-0.270	-0.255
-461.084	16.079	0.210	0.167
-460.070	-149.776	0.391	0.031
-459.055	-200.000	0.025	0.398
-458.040	756.937	-0.022	-0.061
-457.026	-200.000	-0.005	0.315
-456.011	32.208	-0.133	-0.116
-454.997	278.624	0.078	0.141
-453.982	242.451	-0.064	0.109
-452.968	-101.574	0.231	-0.057
-451.953	-10.272	0.168	0.113
-450.938	-200.000	-0.015	0.167
-449.924	248.275	-0.211	0.361
-448.909	-93.267	0.121	-0.034
-447.895	2.446	0.158	0.116
-446.880	65.497	0.172	-0.177
-445.865	82.348	-0.008	-0.009
-444.851	-200.000	0.001	0.235
-443.836	774.196	-0.111	0.306
-442.822	-16.721	-0.269	0.172
-441.807	800.000	0.055	0.230
-440.792	620.963	-0.102	-0.260
-439.778	-200.000	0.007	0.273
-438.763	-174.962	-0.181	0.005
-437.749	-200.000	0.057	0.302
-436.734	-102.116	-0.213	0.052
-435.719	-52.800	0.071	-0.033
-434.705	-138.305	0.064	-0.007
-433.690	800.000	-0.081	-0.306
-432.676	800.000	0.025	-0.088
-431.661	800.000	0.023	0.094
-430.646	-137.064	0.478	0.055
-429.632	-100.484	-0.080	-0.020
-428.617	176.509	-0.177	0.260
-427.603	-76.580	-0.149	-0.053
-426.588	800.000	0.033	-0.095
-425.573	-26.218	0.124	0.074
-424.559	-48.707	0.212	-0.103
-423.544	34.650	0.241	0.212
-422.530	371.980	-0.039	-0.081
-421.515	-165.222	-0.170	-0.008
-420.500	-123.523	0.282	-0.045
-419.486	-200.000	0.005	-0.063
-418.471	32.953	-0.288	0.252
-417.457	-18.327	0.408	-0.257
-416.442	-21.127	-0.181	-0.112
-415.428	-47.580	-0.370	-0.181
-414.413	-65.091	-0.192	0.078
-413.398	-65.329	0.280	-0.114
-412.384	-200.000	0.023	0.419
-411.369	130.583	-0.181	-0.235
-410.355	261.646	0.122	-0.213
-409.340	-200.000	0.046	-0.282
-408.325	288.819	-0.203	-0.371
-407.311	-200.000	-0.084	-0.475
-406.296	-200.000	0.000	0.073
-405.282	-200.000	-0.029	0.147
-404.267	-96.596	0.397	0.106
-403.252	-19.110	-0.083	-0.052
-402.238	-177.302	0.027	-0.001
-401.223	482.732	0.148	-0.340
-400.209	-15.107	0.191	-0.123
-399.194	77.776	0.403	0.433
-398.179	186.675	-0.122	-0.184
-397.165	216.784	0.129	0.207
-396.150	-147.327	0.226	-0.019
-395.136	-28.390	-0.203	0.118
-394.121	800.000	-0.101	0.294
-393.106	-155.814	0.189	0.012
-392.092	214.801	-0.035	-0.057
-391.077	265.386	0.163	-0.286
-390.063	100.573	-0.286	-0.335
-389.048	-121.620	0.168	-0.028
-388.033	-43.711	-0.415	0.211
-387.019	34.131	-0.223	-0.196
-386.004	65.782	-0.196	0.200
-384.990	-14.078	0.326	0.212
-383.975	148.778	0.117	0.159
-382.960	-200.000	0.089	-0.434
-381.946	-125.182	-0.130	-0.020
-380.931	-200.000	-0.001	-0.076
-379.917	174.144	-0.252	-0.368
-378.902	-200.000	0.055	-0.279
-377.888	629.126	0.144	0.368
-376.873	70.128	-0.088	-0.092
-375.858	-186.501	-0.562	-0.008
-374.844	96.112	-0.055	0.064
-373.829	-33.683	0.066	-0.037
-372.815	-97.136	0.219	-0.058
-371.800	-200.000	0.019	0.139
-370.785	785.278	-0.075	-0.206
-369.771	17.123	0.145	-0.116
-368.756	-113.546	0.193	0.038
-367.742	-28.201	-0.174	-0.102
-366.727	184.890	-0.081	-0.122
-365.712	-28.566	0.173	0.100
-364.698	-3.291	-0.187	0.131
-363.683	33.530	0.132	0.116
-362.669	-140.549	-0.142	-0.015
-361.654	-200.000	0.012	-0.188
-360.639	466.020	-0.114	-0.257
-359.625	153.320	0.147	0.203
-358.610	-54.759	0.123	0.056
-357.596	56.099	-0.167	0.163
-356.581	-87.013	0.228	0.070
-355.566	280.860	-0.179	-0.322
-354.552	-75.691	-0.490	-0.175
-353.537	56.875	0.045	-0.044
-352.523	5.895	-0.245	0.183
-351.508	800.000	-0.061	0.232
-350.493	462.734	-0.233	0.523
-349.479	800.000	0.062	0.267
-348.464	457.104	0.125	0.280
-347.450	45.606	0.232	0.216
-346.435	-53.394	-0.211	0.097
-345.420	204.231	0.083	-0.129
-344.406	667.698	0.068	-0.176
-343.391	-143.477	-0.325	0.031
-342.377	159.915	0.127	0.178
-341.362	-93.688	-0.248	-0.069
-340.348	111.855	-0.291	0.353
-339.333	-200.000	-0.045	0.283
-338.318	-91.194	-0.257	0.074
-337.304	-148.969	0.164	0.013
-336.289	-72.692	-0.358	-0.133
-335.275	800.000	0.036	0.115
-334.260	-139.432	0.229	0.025
-333.245	-95.830	-0.221	-0.059
-332.231	-14.498	-0.273	0.177
-331.216	-200.000	-0.020	-0.114
-330.202	84.498	-0.147	0.162
-329.187	-59.159	-0.113	-0.049
-328.172	554.258	-0.073	0.178
-327.158	52.863	-0.327	-0.315
-326.143	800.000	0.038	-0.149
-325.129	46.368	0.168	0.157
-324.114	-69.301	0.220	-0.085
-323.099	-114.109	-0.170	0.033
-322.085	91.050	-0.080	0.091
-321.070	-99.126	-0.222	-0.057
-320.056	315.489	-0.139	-0.264
-319.041	-200.000	0.010	0.273
-318.026	77.398	0.176	-0.188
-317.012	-200.000	0.002	0.048
-315.997	-200.000	0.003	0.140
-314.983	759.520	0.099	-0.269
-313.968	-99.784	0.219	-0.055
-312.953	-200.000	0.015	-0.121
-311.939	-19.546	0.163	0.101
-310.924	32.620	0.098	0.085
-309.910	131.951	0.090	0.116
-308.895	60.531	0.061	0.060
-307.880	-200.000	-0.044	0.227
-306.866	37.146	-0.108	0.096
-305.851	-15.378	-0.222	-0.143
-304.837	-71.908	0.218	-0.082
-303.822	-148.799	0.364	-0.030
-302.807	-130.331	0.252	0.034
-301.793	800.000	0.171	0.474
-300.778	651.219	0.020	-0.052
-299.764	-106.450	0.496	0.111
-298.749	-200.000	-0.009	-0.050
-297.735	40.905	0.129	0.117
-296.720	800.000	0.089	0.383
-295.705	183.375	-0.129	0.191
-294.691	148.591	-0.074	0.100
-293.676	-149.101	0.512	-0.041
-292.662	-98.692	-0.210	-0.054
-291.647	-86.343	-0.292	0.090
-290.632	800.000	0.046	-0.201
-289.618	-55.779	0.246	0.111
-288.603	-157.293	0.409	-0.025
-287.589	42.884	0.229	-0.210
-286.574	-200.000	-0.017	0.220
-285.559	-72.171	0.317	-0.118
-284.545	25.146	0.152	-0.127
-283.530	800.000	-0.078	0.254
-282.516	-125.822	0.179	-0.027
-281.501	-57.286	0.279	0.123
-280.486	-111.923	-0.124	0.025
-279.472	541.193	0.097	-0.232
-278.457	508.152	-0.222	0.519
-277.443	-200.000	0.015	0.206
-276.428	-123.527	-0.273	0.044
-275.413	4.377	0.074	-0.054
-274.399	-200.000	0.024	0.252
-273.384	800.000	0.050	0.139
-272.370	-200.000	-0.073	-0.334
-271.355	118.615	-0.095	-0.118
-270.340	29.183	0.156	-0.133
-269.326	-60.478	0.094	0.040
-268.311	-61.302	0.382	-0.162
-267.297	-0.303	-0.138	-0.099
-266.282	-200.000	-0.021	0.144
-265.267	-117.679	-0.257	0.046
-264.253	565.180	0.093	0.226
-263.238	-74.489	0.119	0.043
-262.224	78.897	-0.097	0.104
-261.209	746.208	0.106	-0.287
-260.195	-35.454	0.165	-0.090
-259.180	5.818	0.093	0.069
-258.165	800.000	0.021	-0.064
-257.151	800.000	0.068	-0.213
-256.136	-120.555	0.174	0.030
-255.122	175.037	0.029	-0.042
-254.107	129.417	0.111	0.142
-253.092	-200.000	-0.037	-0.241
-252.078	-42.897	0.154	-0.078
-251.063	280.851	-0.127	0.228
-250.049	-15.213	0.220	-0.141
-249.034	-39.438	-0.398	0.209
-248.019	-151.636	-0.374	-0.028
-247.005	-115.007	-0.070	-0.013
-245.990	11.640	-0.066	-0.051
-244.976	800.000	-0.063	-0.198
-243.961	486.568	0.078	-0.179
-242.946	-128.769	0.375	0.053
-241.932	568.427	-0.042	-0.103
-240.917	-185.394	-0.182	-0.003
-239.903	-136.196	0.104	-0.012
-238.888	-96.884	0.210	-0.055
-237.873	36.734	0.086	0.076
-236.859	-131.783	0.175	0.023
-235.844	67.271	-0.178	0.182
-234.830	289.336	-0.158	0.287
-233.815	36.764	-0.078	0.069
-232.800	-125.018	0.304	0.047
-231.786	-39.802	-0.096	-0.050
-230.771	-200.000	-0.121	-0.000
-229.757	-170.180	-0.107	0.004
-228.742	264.516	-0.180	0.314
-227.727	-3.578	0.398	-0.278
-226.713	11.725	-0.285	-0.219
-225.698	-19.893	-0.085	-0.052
-224.684	800.000	0.005	-0.021
-223.669	184.741	0.050	-0.074
-222.655	178.972	-0.189	-0.277
-221.640	249.959	0.039	0.066
-220.625	-59.314	-0.273	-0.118
-219.611	39.149	-0.204	-0.183
-218.596	-200.000	-0.005	-0.245
-217.582	94.766	0.251	0.286
-216.567	523.655	-0.058	0.137
-215.552	-200.000	0.044	0.296
-214.538	-115.502	-0.044	-0.008
-213.523	-74.260	-0.205	0.074
-212.509	-200.000	0.027	0.137
-211.494	98.561	0.263	-0.304
-210.479	-200.000	0.060	0.413
-209.465	-166.306	-0.104	0.004
-208.450	-200.000	-0.055	0.256
-207.436	55.065	0.280	0.271
-206.421	-105.652	0.120	-0.027
-205.406	-22.835	-0.224	-0.136
-204.392	-38.501	0.057	0.030
-203.377	-34.296	0.169	-0.093
-202.363	-82.913	-0.216	0.070
-201.348	-200.000	0.024	-0.110
-200.333	-44.239	-0.081	-0.041
-199.319	348.299	-0.108	0.213
-198.304	-37.250	0.240	0.128
-197.290	134.307	-0.187	0.242
-196.275	127.034	0.097	0.123
-195.260	800.000	0.037	0.142
-194.246	-200.000	0.024	-0.133
-193.231	390.058	-0.159	-0.331
-192.217	198.103	0.315	-0.483
-191.202	-200.000	-0.037	0.264
-190.187	3.841	0.356	-0.261
-189.173	-19.846	-0.391	-0.242
-188.158	-86.787	0.275	-0.084
-187.144	172.629	0.088	-0.127
-186.129	16.372	0.090	0.071
-185.114	364.472	0.088	0.177
-184.100	-84.235	-0.027	-0.008
-183.085	-200.000	-0.022	-0.126
-182.071	-200.000	0.001	-0.114
-181.056	-200.000	0.010	0.228
-180.042	245.525	0.081	0.137
-179.027	-96.179	0.376	-0.100
-178.012	-200.000	0.014	-0.162
-176.998	-200.000	0.049	0.398
-175.983	-171.766	0.204	0.007
-174.969	800.000	-0.039	0.149
-173.954	-19.544	-0.307	0.190
-172.939	84.219	0.180	-0.197
-171.925	-104.561	0.238	-0.055
-170.910	-156.482	-0.209	-0.013
-169.896	-51.238	-0.224	0.105
-168.881	-118.228	-0.352	-0.063
-167.866	-200.000	0.001	-0.224
-166.852	800.000	-0.123	0.350
-165.837	82.928	-0.072	-0.078
-164.823	-200.000	0.022	-0.302
-163.808	-178.033	0.043	-0.001
-162.793	160.028	-0.227	0.316
-161.779	404.880	0.073	-0.153
-160.764	378.631	-0.146	-0.299
-159.750	115.325	0.205	0.250
-158.735	223.381	-0.088	-0.143
-157.720	-160.071	0.264	-0.014
-156.706	62.552	0.099	-0.099
-155.691	-160.764	-0.042	-0.002
-154.677	800.000	-0.045	-0.142
-153.662	-61.685	0.256	0.107
-152.647	129.251	-0.097	-0.123
-151.633	38.610	0.088	0.079
-150.618	-200.000	-0.013	0.062
-149.604	276.772	-0.126	-0.223
-148.589	233.134	0.261	0.428
-147.574	-200.000	0.013	-0.293
-146.560	-32.979	0.225	-0.125
-145.545	36.952	0.260	0.230
-144.531	122.513	0.087	-0.108
-143.516	107.727	0.228	-0.271
-142.502	-60.327	-0.238	-0.101
-141.487	-57.560	0.371	0.162
-140.472	-199.092	0.317	-0.002
-139.458	-200.000	0.030	0.213
-138.443	800.000	-0.059	0.193
-137.429	-200.000	-0.257	0.000
-136.414	236.652	-0.093	0.154
-135.399	226.174	0.140	0.226
-134.385	410.029	-0.077	0.163
-133.370	800.000	-0.025	-0.106
-132.356	438.285	0.058	-0.127
-131.341	-200.000	0.024	0.352
-130.326	-200.000	0.054	0.390
-129.312	800.000	-0.041	0.143
-128.297	800.000	-0.108	0.321
-127.283	169.737	0.221	-0.316
-126.268	67.252	0.196	-0.200
-125.253	-128.377	0.131	0.019
-124.239	17.338	0.131	-0.104
-123.224	56.197	0.204	0.198
-122.210	-169.833	0.023	-0.001
