DTS Sentinel unit serial number:	SN413079Multiplexer serial number:	ORYXHardware model number:	OX4-SRSoftware version number:	ORYX F/W v4.00 Oryx Data Collector v3.7.2.0data status	okinstallation	princeton_trtdifferential loss correction	single-endedforward channel	channel 1reverse channel	N/Adate	2019/09/17time	10:06:35forward acquisition time	60.00reverse acquisition time	0.00gamma	496.2192k internal	0.2323k external	0.2323temperature offset calibration	0.9960default loss term (dB/km)	0.3790temperature slope calibration	1.0000multiplexer offset coefficient	1.0000multiplexer slope coefficient	1.0000fibre end	0.00T internal ref (°C)	29.69T ext. ref 1 (°C)	0.16T ext. ref 2 (°C)	25.35length (m)	temperature (°C)	Stokes	anti-Stokes-747.200	-200.000	0.023	0.155
-746.185	800.000	0.025	0.084
-745.171	-124.851	0.090	-0.014
-744.156	199.372	-0.203	0.315
-743.142	-78.937	0.484	0.166
-742.127	105.317	0.060	0.071
-741.112	-119.816	0.169	-0.029
-740.098	-8.288	-0.229	-0.155
-739.083	53.140	0.126	0.121
-738.069	-200.000	0.043	-0.312
-737.054	-41.052	-0.176	-0.092
-736.039	12.604	-0.289	0.225
-735.025	182.356	0.214	0.319
-734.010	-159.639	-0.314	0.018
-732.996	122.981	-0.353	-0.446
-731.981	-72.291	0.353	-0.132
-730.966	219.150	-0.098	0.158
-729.952	180.168	0.033	-0.049
-728.937	-108.060	-0.248	-0.054
-727.923	-22.862	-0.157	-0.096
-726.908	-200.000	0.086	0.386
-725.894	251.700	-0.235	-0.403
-724.879	-54.120	0.042	0.019
-723.864	-87.833	-0.352	-0.107
-722.850	-62.475	-0.139	0.058
-721.835	-200.000	-0.072	-0.000
-720.821	-42.434	-0.260	-0.134
-719.806	658.552	0.094	-0.244
-718.791	-200.000	0.007	0.160
-717.777	-1.222	-0.205	0.146
-716.762	93.544	-0.160	-0.183
-715.748	116.497	0.130	0.161
-714.733	397.029	0.073	-0.153
-713.718	-200.000	0.008	0.142
-712.704	-170.622	-0.188	-0.007
-711.689	20.883	0.241	-0.197
-710.675	-128.433	-0.169	-0.024
-709.660	800.000	-0.025	0.073
-708.645	-65.914	-0.195	-0.079
-707.631	82.424	-0.311	-0.340
-706.616	-200.000	-0.031	-0.216
-705.602	-54.414	0.313	-0.143
-704.587	126.554	-0.126	-0.161
-703.572	-91.425	-0.072	0.021
-702.558	-136.960	-0.152	0.018
-701.543	264.739	0.092	0.161
-700.529	-21.692	-0.232	0.142
-699.514	-200.000	-0.007	-0.055
-698.499	-200.000	-0.004	-0.141
-697.485	6.056	0.187	-0.140
-696.470	12.116	0.350	-0.272
-695.456	-153.322	-0.270	-0.019
-694.441	17.059	-0.075	0.060
-693.426	800.000	-0.047	-0.171
-692.412	-200.000	-0.028	-0.169
-691.397	-13.649	-0.346	0.226
-690.383	-126.917	0.331	-0.049
-689.368	-33.478	-0.355	0.198
-688.354	287.464	-0.203	-0.370
-687.339	437.902	0.029	-0.064
-686.324	-200.000	-0.105	-0.598
-685.310	-200.000	-0.032	0.180
-684.295	-33.831	0.188	0.104
-683.281	-127.692	-0.194	-0.028
-682.266	39.549	0.235	-0.212
-681.251	-122.223	-0.105	0.017
-680.237	32.097	0.038	0.033
-679.222	83.129	-0.189	0.207
-678.208	305.174	-0.053	0.099
-677.193	-200.000	0.014	-0.307
-676.178	131.316	0.214	-0.276
-675.164	296.599	-0.096	0.177
-674.149	-88.648	-0.587	-0.176
-673.135	367.359	0.022	0.045
-672.120	-200.000	-0.008	-0.097
-671.105	-107.868	-0.344	-0.076
-670.091	167.090	-0.046	0.065
-669.076	-127.212	-0.253	0.037
-668.062	-200.000	0.035	0.297
-667.047	84.499	0.140	-0.155
-666.032	800.000	-0.109	-0.377
-665.018	-60.735	0.143	0.061
-664.003	32.232	-0.144	-0.125
-662.989	-200.000	0.010	-0.211
-661.974	321.624	-0.092	-0.176
-660.959	-200.000	-0.078	-0.353
-659.945	282.035	0.078	-0.141
-658.930	-200.000	-0.031	-0.220
-657.916	-22.074	0.104	-0.064
-656.901	182.282	-0.273	-0.405
-655.886	800.000	-0.073	-0.205
-654.872	179.116	0.068	0.100
-653.857	-3.663	0.354	-0.247
-652.843	-77.560	0.106	-0.037
-651.828	-200.000	0.011	0.175
-650.814	800.000	-0.044	-0.147
-649.799	85.171	0.237	0.262
-648.784	0.000	-0.249	0.178
-647.770	-108.787	-0.409	-0.088
-646.755	-200.000	-0.005	0.232
-645.741	-200.000	-0.005	-0.109
-644.726	-67.160	0.152	-0.060
-643.711	484.020	-0.047	0.107
-642.697	-195.088	0.405	-0.003
-641.682	800.000	-0.091	-0.343
-640.668	-200.000	-0.013	0.150
-639.653	-70.350	-0.335	-0.128
-638.638	241.046	0.174	0.292
-637.624	-34.892	0.379	-0.208
-636.609	91.939	0.190	-0.215
-635.595	-36.632	-0.173	-0.094
-634.580	-184.803	-0.064	-0.001
-633.565	-200.000	0.027	-0.159
-632.551	-47.130	0.216	-0.106
-631.536	-53.394	-0.300	-0.138
-630.522	800.000	0.040	-0.118
-629.507	-137.922	-0.351	0.039
-628.492	-176.255	-0.328	0.009
-627.478	54.096	0.205	-0.198
-626.463	38.312	0.134	-0.120
-625.449	-98.392	0.110	0.028
-624.434	-200.000	-0.006	-0.198
-623.419	-163.439	-0.078	-0.004
-622.405	22.340	-0.041	0.034
-621.390	-77.455	0.164	0.057
-620.376	209.535	0.078	0.123
-619.361	-65.370	0.071	0.029
-618.346	91.622	-0.295	-0.334
-617.332	-22.604	-0.199	-0.121
-616.317	-70.802	-0.274	-0.104
-615.303	-109.306	-0.139	-0.030
-614.288	112.024	-0.289	-0.351
-613.273	-99.349	-0.236	0.060
-612.259	634.295	-0.135	0.344
-611.244	-32.390	-0.069	-0.039
-610.230	127.462	-0.152	0.193
-609.215	-87.512	0.187	-0.057
-608.201	-15.304	-0.140	0.090
-607.186	-196.799	0.163	-0.001
-606.171	23.315	0.183	0.151
-605.157	800.000	0.116	-0.437
-604.142	395.344	-0.116	0.242
-603.128	-106.267	-0.146	-0.033
-602.113	77.918	0.127	0.136
-601.098	800.000	-0.036	-0.141
-600.084	563.195	-0.057	-0.138
-599.069	411.282	-0.023	0.048
-598.055	162.868	-0.131	-0.184
-597.040	-200.000	-0.009	0.084
-596.025	800.000	0.071	0.224
-595.011	54.898	0.077	0.075
-593.996	-104.069	0.023	-0.005
-592.982	173.744	0.190	0.275
-591.967	264.620	0.170	-0.297
-590.952	-5.283	-0.109	0.075
-589.938	672.556	-0.055	0.142
-588.923	-200.000	0.024	-0.154
-587.909	3.127	0.100	0.073
-586.894	-200.000	0.008	0.338
-585.879	-199.934	-0.210	0.001
-584.865	-128.602	-0.190	-0.027
-583.850	678.438	-0.084	0.218
-582.836	-162.154	0.181	-0.009
-581.821	-47.920	-0.201	-0.098
-580.806	-94.041	-0.116	0.032
-579.792	320.895	0.178	-0.339
-578.777	-200.000	0.011	-0.249
-577.763	-21.094	0.057	0.035
-576.748	280.136	-0.264	-0.473
-575.733	-200.000	0.016	0.150
-574.719	-49.067	-0.153	0.073
-573.704	-110.469	0.371	0.077
-572.690	333.804	-0.076	-0.148
-571.675	4.379	-0.269	0.198
-570.661	-106.724	-0.241	0.054
-569.646	161.118	-0.121	-0.169
-568.631	82.596	0.087	-0.095
-567.617	-35.430	-0.253	-0.138
-566.602	800.000	-0.077	-0.276
-565.588	800.000	0.040	-0.162
-564.573	324.217	0.155	0.296
-563.558	456.171	-0.126	0.281
-562.544	800.000	-0.041	-0.140
-561.529	81.008	-0.262	0.284
-560.515	469.540	0.083	-0.186
-559.500	264.499	-0.166	-0.290
-558.485	-200.000	-0.011	0.055
-557.471	-130.884	-0.079	-0.011
-556.456	187.512	0.127	0.189
-555.442	-200.000	-0.036	0.162
-554.427	176.371	-0.079	-0.115
-553.412	548.668	0.037	0.090
-552.398	72.762	-0.327	0.343
-551.383	379.370	-0.165	0.339
-550.369	654.416	0.118	0.303
-549.354	17.023	-0.215	0.171
-548.339	-200.000	-0.019	-0.141
-547.325	132.319	-0.191	-0.247
-546.310	0.878	0.080	-0.058
-545.296	105.710	-0.048	-0.057
-544.281	142.015	-0.072	-0.095
-543.266	393.091	0.094	-0.196
-542.252	-91.087	0.535	0.154
-541.237	5.474	-0.184	0.136
-540.223	16.989	-0.120	-0.095
-539.208	-178.879	-0.718	-0.016
-538.193	48.037	-0.115	-0.107
-537.179	-200.000	0.030	-0.343
-536.164	-60.023	-0.138	0.059
-535.150	64.716	-0.048	-0.049
-534.135	8.854	0.129	-0.097
-533.121	-7.549	0.276	0.187
-532.106	131.548	0.086	-0.111
-531.091	3.378	0.167	-0.121
-530.077	-71.690	-0.335	0.125
-529.062	-180.870	0.242	0.005
-528.048	-24.529	0.299	-0.178
-527.033	-40.943	0.173	0.090
-526.018	105.315	0.151	0.179
-525.004	800.000	0.062	-0.211
-523.989	320.891	-0.053	-0.100
-522.975	800.000	-0.082	-0.290
-521.960	-200.000	-0.024	-0.212
-520.945	170.554	-0.145	-0.208
-519.931	-19.434	-0.268	0.167
-518.916	-200.000	0.025	0.391
-517.902	-200.000	-0.015	0.150
-516.887	51.826	0.306	-0.292
-515.872	-145.907	0.274	-0.024
-514.858	-68.784	-0.394	0.153
-513.843	-33.671	-0.061	-0.034
-512.829	-101.867	0.344	-0.083
-511.814	-200.000	0.011	-0.387
-510.799	-13.695	0.151	0.098
-509.785	-28.293	0.073	0.042
-508.770	-52.226	-0.205	-0.095
-507.756	-35.110	0.163	0.089
-506.741	-134.033	0.314	0.039
-505.726	-119.360	-0.213	-0.037
-504.712	800.000	0.064	0.276
-503.697	338.389	0.099	-0.194
-502.683	-153.885	0.167	0.011
-501.668	800.000	0.055	-0.157
-500.653	800.000	-0.112	0.312
-499.639	-200.000	0.000	-0.245
-498.624	800.000	0.027	0.096
-497.610	549.373	-0.128	-0.307
-496.595	72.021	-0.144	0.150
-495.581	23.694	0.156	0.129
-494.566	116.397	-0.065	-0.079
-493.551	-200.000	-0.038	0.344
-492.537	-200.000	0.025	-0.163
-491.522	800.000	0.051	0.187
-490.508	790.998	0.043	-0.118
-489.493	-200.000	-0.019	-0.172
-488.478	-82.243	-0.166	-0.054
-487.464	800.000	0.123	-0.399
-486.449	-60.467	0.064	0.027
-485.435	-6.622	0.141	-0.096
-484.420	800.000	-0.044	-0.133
-483.405	-42.493	0.254	-0.129
-482.391	-200.000	-0.114	0.569
-481.376	-125.783	0.208	0.031
-480.362	-82.949	0.399	-0.129
-479.347	-91.737	-0.182	0.052
-478.332	35.826	0.250	-0.219
-477.318	63.563	-0.156	0.157
-476.303	250.502	0.194	-0.329
-475.289	800.000	0.014	-0.057
-474.274	-110.127	-0.151	0.031
-473.259	703.156	-0.076	0.201
-472.245	-147.704	-0.253	-0.021
-471.230	-52.996	0.249	0.114
-470.216	-20.444	0.151	-0.093
-469.201	516.729	0.036	-0.084
-468.186	-200.000	0.058	0.383
-467.172	596.715	-0.021	0.051
-466.157	800.000	-0.031	-0.110
-465.143	107.430	0.218	-0.259
-464.128	-34.358	-0.245	-0.134
-463.113	-93.054	0.048	-0.013
-462.099	55.272	0.164	0.158
-461.084	178.510	0.149	0.217
-460.070	-200.000	0.014	0.191
-459.055	246.684	-0.112	-0.189
-458.040	-45.353	0.427	-0.212
-457.026	-80.574	0.144	-0.048
-456.011	448.173	0.077	-0.170
-454.997	-146.396	0.195	0.017
-453.982	800.000	-0.038	-0.116
-452.968	-59.870	0.139	-0.059
-451.953	53.768	0.089	-0.085
-450.938	190.953	0.171	0.257
-449.924	-0.502	0.062	0.044
-448.909	63.290	-0.225	0.225
-447.895	-200.000	0.002	0.179
-446.880	6.816	-0.160	0.119
-445.865	477.238	-0.011	-0.026
-444.851	-181.388	0.191	-0.004
-443.836	-24.310	0.182	0.109
-442.822	23.948	-0.183	0.150
-441.807	23.970	-0.224	0.185
-440.792	800.000	-0.054	0.157
-439.778	-200.000	0.026	-0.249
-438.763	-64.551	0.273	-0.111
-437.749	-29.110	-0.274	-0.157
-436.734	-160.703	0.200	-0.011
-435.719	-102.162	-0.378	0.091
-434.705	-200.000	0.008	0.417
-433.690	-200.000	0.020	-0.304
-432.676	66.430	0.164	-0.167
-431.661	77.134	0.109	-0.116
-430.646	800.000	0.082	-0.304
-429.632	-71.488	0.456	-0.170
-428.617	800.000	0.119	0.344
-427.603	-67.103	-0.266	0.105
-426.588	58.448	-0.214	0.209
-425.573	-200.000	-0.002	0.435
-424.559	-76.601	-0.189	0.066
-423.544	-63.191	0.128	-0.053
-422.530	-12.400	-0.309	-0.202
-421.515	39.908	0.120	-0.108
-420.500	-136.953	0.044	-0.005
-419.486	1.492	-0.313	0.225
-418.471	-138.592	0.293	0.032
-417.457	-88.227	-0.138	0.041
-416.442	-35.933	-0.170	-0.092
-415.428	618.627	0.155	0.389
-414.413	-200.000	0.017	-0.210
-413.398	121.266	0.111	0.138
-412.384	-200.000	0.002	0.101
-411.369	62.255	0.165	-0.164
-410.355	-38.566	0.102	-0.054
-409.340	12.039	-0.058	-0.045
-408.325	-39.127	0.289	0.151
-407.311	-128.401	-0.200	0.028
-406.296	89.401	0.073	0.082
-405.282	-26.170	-0.225	-0.132
-404.267	-62.845	-0.173	0.071
-403.252	-176.830	-0.100	0.003
-402.238	-75.835	-0.423	-0.149
-401.223	162.624	-0.208	-0.291
-400.209	-2.193	-0.360	-0.252
-399.194	-15.360	0.198	0.126
-398.179	179.360	0.151	0.220
-397.165	-86.365	0.438	0.134
-396.150	-97.166	-0.226	-0.059
-395.136	29.180	0.139	-0.118
-394.121	-34.282	0.269	0.147
-393.106	487.400	-0.084	-0.190
-392.092	155.751	-0.072	0.099
-391.077	-89.702	0.131	-0.038
-390.063	-200.000	0.012	0.222
-389.048	-117.420	-0.137	-0.025
-388.033	37.915	-0.069	0.061
-387.019	-81.358	0.126	-0.041
-386.004	-95.618	0.145	-0.039
-384.990	-200.000	0.024	-0.287
-383.975	-170.942	0.056	0.002
-382.960	-200.000	0.002	0.215
-381.946	-98.174	-0.197	-0.050
-380.931	46.852	0.100	0.093
-379.917	38.728	-0.115	0.103
-378.902	-174.114	0.081	-0.002
-377.888	-48.798	0.104	-0.050
-376.873	114.277	0.152	-0.184
-375.858	-200.000	-0.023	-0.132
-374.844	-200.000	0.002	-0.129
-373.829	326.699	0.027	-0.052
-372.815	41.757	-0.133	0.120
-371.800	196.494	-0.030	-0.046
-370.785	-80.461	-0.263	-0.087
-369.771	5.228	-0.312	0.229
-368.756	50.368	-0.224	0.210
-367.742	-32.348	-0.117	0.065
-366.727	38.379	0.179	0.158
-365.712	-128.118	-0.124	-0.018
-364.698	-78.970	-0.298	0.101
-363.683	-77.492	-0.225	0.078
-362.669	-57.164	-0.502	-0.220
-361.654	-9.996	0.107	0.071
-360.639	239.367	0.074	0.122
-359.625	75.431	-0.078	0.082
-358.610	-28.578	-0.171	0.098
-357.596	800.000	0.136	0.390
-356.581	800.000	-0.011	-0.039
-355.566	199.775	-0.066	0.101
-354.552	786.643	0.130	-0.354
-353.537	-200.000	0.006	-0.229
-352.523	96.946	-0.153	-0.174
-351.508	-102.210	0.118	0.028
-350.493	-200.000	-0.061	-0.466
-349.479	388.053	0.103	-0.212
-348.464	-200.000	0.012	-0.293
-347.450	-200.000	0.028	-0.130
-346.435	202.315	-0.129	0.197
-345.420	800.000	-0.033	-0.114
-344.406	-37.616	-0.282	0.149
-343.391	-94.225	-0.209	0.057
-342.377	167.954	-0.278	-0.393
-341.362	513.182	0.114	-0.265
-340.348	-98.547	0.222	-0.057
-339.333	142.042	-0.109	0.144
-338.318	15.280	-0.357	-0.278
-337.304	-200.000	0.054	-0.330
-336.289	-30.356	-0.110	-0.062
-335.275	-8.077	-0.314	0.210
-334.260	77.246	-0.017	-0.018
-333.245	220.873	0.287	-0.458
-332.231	118.804	0.099	0.122
-331.216	-64.924	0.198	-0.080
-330.202	249.198	0.163	0.275
-329.187	-200.000	-0.004	-0.133
-328.172	800.000	0.054	-0.213
-327.158	-10.607	-0.251	0.165
-326.143	800.000	0.048	-0.153
-325.129	-79.151	-0.274	0.093
-324.114	-200.000	0.021	-0.129
-323.099	-122.915	0.188	-0.030
-322.085	-141.097	0.312	-0.032
-321.070	-19.118	-0.025	-0.015
-320.056	-26.236	0.251	0.146
-319.041	196.543	-0.092	0.140
-318.026	-200.000	0.015	-0.142
-317.012	-9.590	0.126	0.083
-315.997	-200.000	0.011	-0.060
-314.983	2.337	-0.272	0.195
-313.968	-83.804	0.181	0.057
-312.953	-136.278	0.267	-0.031
-311.939	800.000	0.013	-0.035
-310.924	-200.000	0.004	-0.209
-309.910	-200.000	-0.021	0.334
-308.895	-161.907	-0.339	0.017
-307.880	63.510	-0.023	-0.023
-306.866	49.105	0.227	0.212
-305.851	-21.955	-0.246	-0.148
-304.837	-0.348	0.133	-0.094
-303.822	-200.000	-0.011	-0.124
-302.807	392.864	-0.047	-0.098
-301.793	0.273	0.115	0.082
-300.778	243.374	-0.108	0.180
-299.764	90.596	0.213	-0.237
-298.749	-200.000	0.008	-0.207
-297.735	245.025	-0.208	-0.347
-296.720	65.274	-0.161	-0.162
-295.705	-200.000	0.022	0.172
-294.691	-113.487	0.273	0.053
-293.676	-78.407	-0.107	0.037
-292.662	181.137	0.101	0.148
-291.647	-200.000	-0.111	0.490
-290.632	-43.904	0.187	0.093
-289.618	-21.424	-0.183	-0.111
-288.603	260.668	-0.152	0.261
-287.589	514.585	-0.077	0.179
-286.574	-99.828	0.305	0.076
-285.559	-200.000	-0.027	-0.301
-284.545	6.351	0.309	-0.227
-283.530	-105.544	0.212	0.048
-282.516	147.505	0.209	0.280
-281.501	-126.883	0.128	-0.019
-280.486	-19.932	0.282	0.173
-279.472	-48.796	0.184	-0.088
-278.457	-200.000	-0.017	-0.171
-277.443	-200.000	0.013	-0.136
-276.428	800.000	-0.095	-0.364
-275.413	40.710	-0.106	0.094
-274.399	-200.000	-0.010	0.181
-273.384	-20.397	-0.104	-0.063
-272.370	-113.224	-0.313	-0.061
-271.355	800.000	-0.073	0.202
-270.340	-200.000	0.041	0.253
-269.326	-200.000	-0.008	-0.089
-268.311	-200.000	-0.066	0.437
-267.297	39.529	-0.103	-0.092
-266.282	-80.699	-0.431	0.142
-265.267	44.794	-0.165	-0.150
-264.253	100.393	-0.004	-0.004
-263.238	-64.018	0.228	-0.092
-262.224	-150.219	-0.133	0.010
-261.209	-97.969	-0.279	-0.071
-260.195	800.000	0.102	-0.287
-259.180	-143.891	0.137	0.013
-258.165	4.111	0.190	0.138
-257.151	-42.134	0.188	-0.095
-256.136	-50.184	-0.129	0.060
-255.122	319.468	-0.085	0.159
-254.107	-40.962	0.326	-0.167
-253.092	800.000	-0.081	-0.322
-252.078	-98.154	-0.170	-0.043
-251.063	-200.000	0.025	-0.292
-250.049	21.322	-0.245	0.197
-249.034	74.636	0.157	0.164
-248.019	0.480	-0.144	0.102
-247.005	800.000	0.061	-0.228
-245.990	286.561	0.073	0.131
-244.976	-81.586	-0.181	-0.059
-243.961	302.368	0.080	-0.146
-242.946	6.914	-0.043	0.031
-241.932	39.764	-0.057	0.050
-240.917	35.320	0.255	-0.221
-239.903	-16.014	0.284	-0.179
-238.888	-55.577	-0.498	-0.221
-237.873	-200.000	0.016	0.203
-236.859	-144.372	0.271	-0.025
-235.844	610.627	0.166	0.410
-234.830	-200.000	-0.016	0.100
-233.815	139.059	0.186	-0.242
-232.800	-200.000	-0.015	0.251
-231.786	-200.000	-0.025	0.221
-230.771	-200.000	-0.002	-0.188
-229.757	118.311	0.300	-0.366
-228.742	-89.241	0.224	0.065
-227.727	-97.652	0.323	0.083
-226.713	-128.602	0.195	0.027
-225.698	80.202	-0.165	-0.175
-224.684	-200.000	0.029	0.309
-223.669	447.747	-0.061	-0.133
-222.655	-43.343	0.286	0.143
-221.640	229.450	-0.190	0.307
-220.625	-200.000	0.029	0.236
-219.611	-57.184	-0.126	0.055
-218.596	800.000	-0.116	0.429
-217.582	30.397	-0.227	-0.192
-216.567	143.996	0.160	0.211
-215.552	-113.106	0.148	0.029
-214.538	221.788	0.062	-0.099
-213.523	40.305	-0.204	-0.181
-212.509	-10.106	0.023	-0.015
-211.494	213.688	0.079	0.124
-210.479	-112.497	-0.174	0.034
-209.465	-200.000	-0.005	0.110
-208.450	465.626	0.067	0.149
-207.436	105.798	-0.078	0.091
-206.421	-200.000	0.030	0.264
-205.406	-200.000	0.012	0.342
-204.392	2.063	-0.062	0.044
-203.377	291.883	-0.131	0.235
-202.363	-102.182	-0.249	-0.059
-201.348	247.939	-0.119	-0.198
-200.333	-100.150	0.349	0.086
-199.319	312.789	-0.150	0.278
-198.304	-200.000	0.049	0.249
-197.290	764.752	-0.114	0.307
-196.275	-57.236	0.165	-0.072
-195.260	800.000	0.066	0.208
-194.246	-88.360	-0.279	-0.082
-193.231	-137.775	0.186	0.021
-192.217	-129.116	0.087	-0.012
-191.202	-34.029	-0.196	-0.106
-190.187	-200.000	-0.005	0.251
-189.173	15.569	0.132	-0.102
-188.158	-2.496	0.084	-0.058
-187.144	-163.086	0.335	0.016
-186.129	612.385	0.066	0.163
-185.114	7.205	0.149	-0.110
-184.100	-31.416	-0.091	0.051
-183.085	-194.991	0.406	0.003
-182.071	-98.842	0.182	-0.046
-181.056	-200.000	-0.000	-0.104
-180.042	-112.017	0.095	-0.019
-179.027	-52.320	-0.126	-0.057
-178.012	-45.084	-0.152	-0.075
-176.998	-200.000	-0.003	0.103
-175.983	64.069	-0.126	0.125
-174.969	-200.000	-0.029	-0.230
-173.954	800.000	-0.033	0.092
-172.939	-33.621	0.111	0.061
-171.925	427.094	0.116	0.247
-170.910	-183.012	-0.183	0.003
-169.896	-50.009	0.172	-0.081
-168.881	800.000	-0.068	-0.193
-167.866	72.396	0.200	-0.206
-166.852	800.000	-0.064	-0.186
-165.837	-200.000	-0.014	0.163
-164.823	800.000	-0.070	-0.204
-163.808	800.000	0.095	0.345
-162.793	-116.321	0.271	-0.050
-161.779	-7.865	0.133	0.088
-160.764	-14.064	0.132	-0.084
-159.750	-98.234	0.200	0.051
-158.735	-156.876	-0.249	0.015
-157.720	-200.000	-0.005	0.083
-156.706	-200.000	0.015	0.292
-155.691	462.182	0.080	-0.177
-154.677	143.538	-0.176	0.232
-153.662	-93.865	0.364	-0.099
-152.647	-24.841	0.082	0.048
-151.633	-200.000	-0.026	0.212
-150.618	80.253	-0.130	0.139
-149.604	-60.168	0.189	0.080
-148.589	124.957	0.100	-0.124
-147.574	-3.426	0.188	-0.129
-146.560	-2.434	-0.255	0.176
-145.545	-62.745	0.263	0.108
-144.531	-101.886	-0.329	-0.079
-143.516	-122.639	0.147	0.023
-142.502	223.064	0.079	-0.126
-141.487	354.987	-0.088	0.174
-140.472	800.000	-0.022	-0.060
-139.458	386.056	0.074	0.151
-138.443	-44.403	-0.298	0.147
-137.429	800.000	0.059	-0.168
-136.414	443.297	-0.097	0.210
-135.399	355.850	0.082	-0.161
-134.385	-106.308	-0.331	-0.073
-133.370	59.817	-0.093	-0.090
-132.356	-113.183	0.031	0.006
-131.341	39.813	-0.242	-0.214
-130.326	71.068	0.091	-0.093
-129.312	-84.410	0.185	-0.058
-128.297	800.000	-0.053	-0.222
-127.283	240.976	-0.039	-0.064
-126.268	264.473	-0.181	-0.311
-125.253	-17.345	0.070	-0.043
-124.239	-200.000	-0.002	0.059
-123.224	-48.654	-0.022	-0.010
-122.210	450.029	0.066	-0.144
-121.195	210.620	-0.111	-0.171
