DTS Sentinel unit serial number:	SN413079Multiplexer serial number:	ORYXHardware model number:	OX4-SRSoftware version number:	ORYX F/W v4.00 Oryx Data Collector v3.7.2.0data status	okinstallation	princeton_trtdifferential loss correction	single-endedforward channel	channel 1reverse channel	N/Adate	2019/09/16time	02:46:35forward acquisition time	60.00reverse acquisition time	0.00gamma	496.2192k internal	0.2331k external	0.2331temperature offset calibration	0.9980default loss term (dB/km)	0.3790temperature slope calibration	1.0000multiplexer offset coefficient	1.0000multiplexer slope coefficient	1.0000fibre end	0.00T internal ref (°C)	27.75T ext. ref 1 (°C)	10.34T ext. ref 2 (°C)	22.31length (m)	temperature (°C)	Stokes	anti-Stokes-747.200	93.473	-0.440	0.501
-746.185	20.746	0.358	0.292
-745.171	120.012	0.101	0.126
-744.156	800.000	0.103	0.320
-743.142	-82.236	-0.145	-0.047
-742.127	122.947	0.055	0.070
-741.112	-200.000	0.013	-0.216
-740.098	800.000	-0.058	0.180
-739.083	-94.789	0.185	0.051
-738.069	-112.287	-0.139	0.028
-737.054	250.315	-0.078	-0.133
-736.039	-138.560	0.126	0.014
-735.025	300.027	0.075	0.139
-734.010	-141.415	-0.383	-0.039
-732.996	-134.733	-0.414	-0.051
-731.981	29.046	0.307	0.262
-730.966	52.249	0.128	0.122
-729.952	27.381	-0.028	-0.023
-728.937	303.095	0.113	-0.211
-727.923	58.649	-0.197	0.195
-726.908	-41.709	-0.120	0.062
-725.894	800.000	0.088	-0.247
-724.879	132.553	-0.283	-0.367
-723.864	-66.082	-0.513	0.206
-722.850	430.730	0.108	0.234
-721.835	-200.000	-0.037	0.167
-720.821	-200.000	0.022	-0.282
-719.806	-200.000	0.001	-0.063
-718.791	-19.132	0.069	0.043
-717.777	-25.123	-0.270	-0.161
-716.762	-146.470	-0.151	-0.013
-715.748	800.000	-0.101	0.339
-714.733	87.072	-0.096	-0.107
-713.718	416.774	-0.126	-0.269
-712.704	112.938	-0.014	-0.017
-711.689	153.813	-0.065	0.090
-710.675	-46.782	-0.077	0.038
-709.660	800.000	0.096	-0.328
-708.645	-200.000	-0.016	-0.568
-707.631	81.201	-0.084	-0.091
-706.616	-200.000	-0.037	-0.180
-705.602	-178.166	-0.152	-0.004
-704.587	-200.000	0.043	-0.330
-703.572	479.887	0.003	-0.007
-702.558	-51.004	0.033	0.015
-701.543	-4.671	-0.128	0.089
-700.529	-178.043	0.233	-0.006
-699.514	800.000	0.122	0.441
-698.499	-64.294	-0.113	0.046
-697.485	23.805	0.193	0.159
-696.470	-200.000	-0.037	0.171
-695.456	624.649	0.134	0.340
-694.441	560.381	0.068	0.164
-693.426	147.307	-0.209	-0.283
-692.412	-19.308	-0.293	-0.183
-691.397	153.516	0.054	0.074
-690.383	87.249	-0.229	0.255
-689.368	164.022	-0.099	0.140
-688.354	376.805	-0.194	0.398
-687.339	301.062	-0.167	0.310
-686.324	-81.745	-0.172	-0.057
-685.310	-40.403	-0.369	0.192
-684.295	162.030	0.169	-0.237
-683.281	262.007	-0.079	0.137
-682.266	576.702	0.152	-0.373
-681.251	124.099	0.105	-0.133
-680.237	242.273	-0.102	0.172
-679.222	-200.000	-0.028	-0.153
-678.208	230.304	-0.062	-0.101
-677.193	-200.000	0.004	-0.455
-676.178	-82.939	-0.213	0.069
-675.164	-200.000	-0.003	0.037
-674.149	-40.339	-0.093	-0.048
-673.135	-200.000	-0.021	-0.169
-672.120	62.149	0.129	0.129
-671.105	-169.586	0.225	-0.008
-670.091	108.233	-0.120	-0.144
-669.076	-84.268	0.298	-0.095
-668.062	-124.974	0.114	0.018
-667.047	183.757	0.153	0.227
-666.032	16.230	0.190	-0.150
-665.018	-109.057	-0.156	-0.033
-664.003	-92.568	0.194	0.055
-662.989	45.478	-0.225	-0.208
-661.974	-46.470	0.399	-0.197
-660.959	-200.000	0.012	0.091
-659.945	800.000	-0.080	0.295
-658.930	0.745	-0.224	0.161
-657.916	-200.000	-0.003	-0.025
-656.901	-172.011	0.140	0.005
-655.886	-45.004	-0.044	0.022
-654.872	-24.922	-0.158	-0.094
-653.857	-98.431	-0.140	-0.036
-652.843	800.000	0.109	-0.400
-651.828	-6.008	-0.022	-0.015
-650.814	235.027	-0.064	-0.106
-649.799	337.523	0.087	-0.170
-648.784	-43.726	-0.446	0.225
-647.770	98.589	0.244	0.282
-646.755	35.187	-0.135	0.119
-645.741	-114.967	-0.189	-0.036
-644.726	-29.905	0.279	-0.159
-643.711	68.230	-0.211	0.216
-642.697	141.882	0.084	-0.111
-641.682	-112.727	-0.201	-0.040
-640.668	51.786	-0.313	0.298
-639.653	-200.000	0.026	0.256
-638.638	-71.265	-0.201	-0.076
-637.624	52.326	-0.166	0.158
-636.609	91.591	-0.093	-0.105
-635.595	-200.000	-0.014	-0.234
-634.580	62.491	0.087	0.087
-633.565	43.895	-0.074	-0.068
-632.551	438.933	0.175	-0.383
-631.536	-96.687	-0.229	-0.060
-630.522	-73.479	-0.212	-0.077
-629.507	-200.000	0.029	-0.188
-628.492	800.000	0.186	-0.513
-627.478	-200.000	0.013	-0.079
-626.463	-200.000	-0.016	-0.122
-625.449	-166.695	0.545	-0.023
-624.434	-111.389	0.208	0.042
-623.419	-16.383	0.242	0.154
-622.405	134.442	0.114	-0.148
-621.390	102.979	0.193	-0.227
-620.376	800.000	-0.037	-0.118
-619.361	-61.164	-0.359	-0.152
-618.346	-200.000	-0.015	-0.159
-617.332	351.466	-0.038	0.076
-616.317	-16.071	-0.115	0.073
-615.303	227.980	-0.111	0.181
-614.288	550.280	-0.077	-0.186
-613.273	62.788	0.083	-0.083
-612.259	330.948	-0.049	0.094
-611.244	-200.000	0.036	0.201
-610.230	81.293	0.139	0.150
-609.215	-143.803	0.244	0.023
-608.201	800.000	0.145	0.502
-607.186	92.793	-0.227	0.256
-606.171	-200.000	-0.020	-0.125
-605.157	-132.336	0.210	0.027
-604.142	-109.500	0.054	0.011
-603.128	-200.000	0.005	0.172
-602.113	672.067	0.094	-0.245
-601.098	200.469	0.236	-0.363
-600.084	40.157	-0.130	-0.117
-599.069	-192.281	-0.259	0.002
-598.055	46.541	-0.196	0.182
-597.040	332.487	-0.054	-0.104
-596.025	108.102	0.286	-0.341
-595.011	24.321	-0.032	0.026
-593.996	-83.634	-0.343	-0.110
-592.982	117.585	0.108	0.133
-591.967	640.089	-0.083	0.212
-590.952	-49.014	-0.359	0.172
-589.938	-200.000	-0.018	0.087
-588.923	384.266	-0.077	-0.159
-587.909	128.374	0.165	0.210
-586.894	14.294	0.154	0.120
-585.879	38.957	-0.080	0.072
-584.865	333.857	-0.104	-0.202
-583.850	-54.008	0.107	-0.049
-582.836	115.636	0.163	-0.199
-581.821	-130.215	-0.242	0.033
-580.806	65.317	-0.052	0.053
-579.792	-58.842	0.313	-0.136
-578.777	-57.741	0.123	0.054
-577.763	97.159	-0.204	0.234
-576.748	69.305	0.232	0.239
-575.733	-145.039	0.189	0.017
-574.719	-70.431	-0.182	-0.069
-573.704	-200.000	-0.002	-0.134
-572.690	-200.000	0.010	-0.184
-571.675	92.668	-0.155	0.175
-570.661	-89.728	-0.143	0.042
-569.646	22.233	0.077	0.063
-568.631	-200.000	0.010	-0.143
-567.617	257.339	-0.109	-0.188
-566.602	800.000	0.034	0.101
-565.588	-200.000	-0.008	-0.105
-564.573	-56.254	0.211	-0.094
-563.558	19.322	0.186	-0.150
-562.544	-107.467	0.052	-0.011
-561.529	-41.450	0.163	-0.084
-560.515	204.558	-0.276	-0.428
-559.500	102.016	0.184	-0.214
-558.485	254.363	-0.184	-0.314
-557.471	-22.615	-0.415	-0.250
-556.456	77.756	-0.207	-0.220
-555.442	70.028	0.106	-0.109
-554.427	92.211	-0.242	-0.273
-553.412	93.862	0.074	0.083
-552.398	-84.393	-0.405	-0.128
-551.383	-171.557	0.243	-0.008
-550.369	-185.645	-0.162	-0.002
-549.354	-128.180	-0.288	-0.041
-548.339	-1.637	-0.285	0.201
-547.325	-64.010	0.136	0.055
-546.310	-72.081	-0.159	-0.059
-545.296	53.159	-0.312	-0.299
-544.281	800.000	0.029	0.119
-543.266	-40.243	-0.179	-0.093
-542.252	-153.016	-0.301	-0.021
-541.237	-112.485	-0.196	0.039
-540.223	-137.347	0.204	-0.023
-539.208	36.589	-0.073	0.064
-538.193	508.621	0.072	0.168
-537.179	-59.665	-0.248	-0.106
-536.164	142.476	0.120	-0.159
-535.150	9.108	-0.238	-0.180
-534.135	64.545	-0.143	0.143
-533.121	282.797	0.139	-0.249
-532.106	-23.568	0.109	0.065
-531.091	800.000	-0.084	0.232
-530.077	16.395	-0.111	-0.087
-529.062	-200.000	-0.020	0.095
-528.048	-145.224	0.119	-0.011
-527.033	-81.283	-0.260	-0.086
-526.018	-142.982	0.349	0.034
-525.004	109.864	0.161	0.193
-523.989	-200.000	-0.050	0.259
-522.975	800.000	0.036	-0.108
-521.960	800.000	0.040	-0.116
-520.945	10.499	-0.110	0.084
-519.931	-200.000	0.033	-0.212
-518.916	-37.022	0.323	-0.173
-517.902	-200.000	0.008	0.087
-516.887	-154.457	0.402	0.027
-515.872	-37.813	-0.226	-0.120
-514.858	-65.504	0.282	0.113
-513.843	-147.139	-0.234	0.020
-512.829	297.873	0.060	-0.110
-511.814	-79.294	-0.192	-0.065
-510.799	-200.000	-0.020	-0.115
-509.785	278.007	0.131	-0.233
-508.770	152.042	-0.043	0.059
-507.756	111.378	0.055	-0.066
-506.741	-120.434	0.185	0.031
-505.726	-116.409	-0.109	0.020
-504.712	-40.727	0.114	0.059
-503.697	-101.418	-0.402	-0.098
-502.683	-27.881	-0.056	0.032
-501.668	-63.664	0.259	0.106
-500.653	-93.454	-0.272	-0.075
-499.639	-200.000	-0.005	0.111
-498.624	222.451	-0.130	-0.208
-497.610	770.400	0.079	-0.215
-496.595	-101.140	0.148	0.036
-495.581	-68.117	-0.107	0.042
-494.566	-200.000	-0.026	-0.222
-493.551	-200.000	-0.007	-0.052
-492.537	-33.360	0.516	-0.285
-491.522	-200.000	0.059	0.373
-490.508	279.740	-0.127	0.227
-489.493	-162.330	-0.403	0.020
-488.478	800.000	0.042	-0.132
-487.464	34.585	-0.164	0.143
-486.449	7.550	0.215	0.160
-485.435	-86.546	-0.325	-0.099
-484.420	4.282	0.144	0.105
-483.405	-200.000	-0.017	0.190
-482.391	151.883	0.046	0.062
-481.376	800.000	0.116	0.379
-480.362	-54.387	0.065	-0.030
-479.347	-200.000	-0.066	0.325
-478.332	99.612	0.138	0.160
-477.318	295.270	-0.053	0.097
-476.303	96.126	0.073	0.083
-475.289	-153.121	-0.222	-0.016
-474.274	-142.934	0.246	-0.024
-473.259	-1.689	-0.217	0.152
-472.245	1.850	0.162	0.116
-471.230	-94.563	-0.184	-0.050
-470.216	463.136	-0.077	0.172
-469.201	800.000	0.063	0.230
-468.186	-144.723	-0.113	0.010
-467.172	281.537	-0.125	-0.223
-466.157	702.899	-0.064	0.168
-465.143	177.692	0.109	0.158
-464.128	-1.684	0.319	-0.224
-463.113	-25.304	0.183	-0.108
-462.099	-8.824	0.042	-0.028
-461.084	44.808	0.279	-0.256
-460.070	389.533	-0.092	0.190
-459.055	-63.374	0.297	0.122
-458.040	800.000	0.036	0.125
-457.026	-22.538	0.124	-0.075
-456.011	800.000	-0.038	0.154
-454.997	-57.556	0.272	0.119
-453.982	139.537	-0.059	0.077
-452.968	-58.715	0.139	0.060
-451.953	257.311	-0.115	0.196
-450.938	-136.873	0.264	0.030
-449.924	-156.106	-0.283	0.018
-448.909	-200.000	-0.039	-0.452
-447.895	-63.929	-0.149	-0.061
-446.880	180.935	0.100	-0.146
-445.865	-66.450	0.137	0.054
-444.851	800.000	0.058	-0.230
-443.836	-145.679	-0.201	-0.018
-442.822	800.000	-0.089	0.309
-441.807	-200.000	0.241	0.000
-440.792	-115.481	-0.215	-0.040
-439.778	-36.597	-0.024	-0.013
-438.763	41.060	0.295	0.265
-437.749	49.770	-0.030	-0.028
-436.734	-200.000	0.101	-0.457
-435.719	109.889	0.073	0.087
-434.705	-200.000	0.021	0.504
-433.690	25.812	-0.091	-0.075
-432.676	112.924	-0.092	-0.111
-431.661	-200.000	0.027	-0.219
-430.646	-92.144	0.173	0.048
-429.632	151.132	0.068	-0.092
-428.617	800.000	-0.021	-0.062
-427.603	-100.291	-0.511	0.126
-426.588	-87.970	0.153	-0.046
-425.573	370.247	-0.072	0.145
-424.559	-200.000	0.032	-0.215
-423.544	268.717	-0.237	0.414
-422.530	800.000	0.011	0.044
-421.515	83.406	0.220	0.238
-420.500	-109.171	0.059	0.012
-419.486	-112.651	-0.375	-0.074
-418.471	458.716	-0.043	-0.094
-417.457	800.000	0.082	0.238
-416.442	-133.996	0.406	-0.050
-415.428	126.688	0.077	0.097
-414.413	10.974	-0.158	-0.120
-413.398	-10.359	0.062	0.041
-412.384	-200.000	-0.009	0.079
-411.369	-126.741	0.044	0.006
-410.355	-200.000	-0.032	0.155
-409.340	800.000	-0.092	-0.297
-408.325	66.851	-0.404	-0.408
-407.311	-117.160	0.487	0.088
-406.296	-174.461	-0.112	0.003
-405.282	177.534	0.133	0.192
-404.267	-200.000	0.005	0.124
-403.252	534.051	0.060	-0.141
-402.238	800.000	0.090	0.316
-401.223	800.000	-0.029	-0.088
-400.209	-26.870	-0.343	0.199
-399.194	210.878	-0.120	-0.188
-398.179	-10.118	0.184	0.122
-397.165	-170.778	0.386	0.013
-396.150	-25.965	-0.175	0.102
-395.136	527.766	-0.087	-0.204
-394.121	-3.369	0.187	-0.129
-393.106	57.900	-0.163	0.159
-392.092	800.000	0.109	-0.353
-391.077	557.841	-0.086	-0.205
-390.063	-200.000	-0.046	-0.350
-389.048	688.750	0.072	-0.186
-388.033	-102.439	0.248	0.059
-387.019	425.901	0.113	-0.241
-386.004	-70.695	-0.515	-0.193
-384.990	-200.000	-0.057	0.290
-383.975	252.005	-0.209	-0.353
-382.960	800.000	0.116	-0.344
-381.946	-175.099	0.337	0.009
-380.931	-87.758	0.679	-0.203
-379.917	34.942	0.156	0.135
-378.902	-200.000	-0.023	-0.175
-377.888	-53.235	-0.174	-0.079
-376.873	-22.304	0.285	0.172
-375.858	-200.000	0.021	-0.191
-374.844	-14.413	-0.116	0.074
-373.829	-46.385	0.355	-0.173
-372.815	46.022	-0.161	-0.148
-371.800	-132.693	0.109	0.014
-370.785	-198.546	-0.126	0.001
-369.771	-200.000	-0.004	-0.364
-368.756	-100.882	0.259	0.063
-367.742	-200.000	0.026	0.314
-366.727	-89.887	0.049	-0.014
-365.712	63.528	-0.064	-0.063
-364.698	800.000	0.051	-0.147
-363.683	-101.411	-0.424	-0.102
-362.669	-59.404	-0.166	0.071
-361.654	307.508	-0.171	0.316
-360.639	-11.611	0.127	0.083
-359.625	-200.000	-0.031	0.178
-358.610	-14.193	-0.234	-0.149
-357.596	-101.533	-0.284	0.069
-356.581	-78.503	0.274	-0.093
-355.566	-200.000	-0.069	0.314
-354.552	-76.915	-0.333	0.115
-353.537	800.000	0.035	-0.101
-352.523	800.000	-0.057	0.237
-351.508	392.265	0.036	-0.073
-350.493	73.033	-0.290	0.300
-349.479	26.801	-0.187	0.155
-348.464	504.054	-0.031	0.072
-347.450	-1.193	0.223	0.156
-346.435	350.052	-0.072	0.141
-345.420	-126.616	0.182	-0.027
-344.406	-128.384	0.394	0.055
-343.391	0.073	0.161	0.114
-342.377	-137.379	-0.236	0.027
-341.362	-5.016	-0.257	0.176
-340.348	-60.800	-0.239	-0.100
-339.333	205.515	-0.097	0.150
-338.318	27.512	-0.083	0.069
-337.304	800.000	-0.080	0.281
-336.289	-3.674	-0.129	0.089
-335.275	-129.466	0.068	0.009
-334.260	-5.651	0.169	0.115
-333.245	-105.975	0.205	-0.046
-332.231	616.314	-0.137	0.340
-331.216	54.585	-0.344	-0.329
-330.202	29.965	-0.222	-0.187
-329.187	-200.000	-0.038	-0.171
-328.172	-200.000	-0.024	0.277
-327.158	13.138	0.104	0.079
-326.143	800.000	-0.053	0.174
-325.129	305.090	-0.033	0.060
-324.114	114.399	0.124	-0.149
-323.099	-37.256	0.325	0.172
-322.085	-84.838	0.329	0.102
-321.070	14.602	0.253	0.195
-320.056	800.000	-0.076	0.290
-319.041	-81.039	0.247	-0.081
-318.026	-200.000	-0.016	0.252
-317.012	231.480	-0.232	0.376
-315.997	333.908	0.132	0.252
-314.983	-119.556	0.251	-0.043
-313.968	264.571	-0.012	-0.021
-312.953	-136.155	-0.153	0.018
-311.939	27.925	0.034	0.029
-310.924	-60.397	0.132	0.055
-309.910	155.387	0.079	0.108
-308.895	108.731	0.116	-0.137
-307.880	-200.000	-0.001	-0.011
-306.866	201.406	-0.098	-0.150
-305.851	209.980	-0.164	-0.255
-304.837	488.764	0.099	-0.224
-303.822	503.096	-0.187	-0.427
-302.807	289.776	-0.158	-0.283
-301.793	-200.000	-0.051	-0.402
-300.778	-49.012	0.052	0.025
-299.764	-119.145	0.091	0.016
-298.749	-33.042	0.210	0.115
-297.735	477.563	0.101	0.226
-296.720	168.199	0.215	0.302
-295.705	96.395	-0.154	0.175
-294.691	-200.000	0.014	-0.102
-293.676	-22.896	0.072	0.043
-292.662	-110.383	-0.372	-0.077
-291.647	-22.233	0.084	-0.051
-290.632	-85.288	-0.324	-0.100
-289.618	-42.935	0.328	0.165
-288.603	800.000	0.041	0.141
-287.589	129.504	0.019	-0.024
-286.574	303.558	-0.114	-0.208
-285.559	8.607	0.219	0.163
-284.545	-200.000	-0.047	0.292
-283.530	72.293	0.125	-0.129
-282.516	166.951	-0.089	-0.125
-281.501	141.293	0.006	0.007
-280.486	-1.100	0.154	0.108
-279.472	-125.204	-0.027	-0.004
-278.457	123.074	0.087	-0.108
-277.443	-145.362	0.349	0.031
-276.428	678.430	-0.043	-0.109
-275.413	329.593	-0.139	-0.264
-274.399	58.247	0.327	-0.317
-273.384	229.038	-0.068	0.110
-272.370	-155.028	-0.134	0.009
-271.355	-200.000	-0.040	-0.359
-270.340	-200.000	-0.025	-0.218
-269.326	167.536	-0.218	-0.307
-268.311	-19.809	0.300	-0.183
-267.297	800.000	0.046	-0.147
-266.282	800.000	0.041	0.171
-265.267	94.439	0.107	0.120
-264.253	464.386	0.049	0.108
-263.238	-121.395	-0.317	-0.052
-262.224	723.518	-0.088	-0.233
-261.209	-163.973	0.243	-0.011
-260.195	679.855	0.022	0.058
-259.180	-200.000	-0.041	-0.222
-258.165	-47.079	-0.125	-0.060
-257.151	-145.501	0.028	0.002
-256.136	3.041	0.335	-0.241
-255.122	160.657	0.018	-0.025
-254.107	-200.000	0.001	-0.302
-253.092	-123.140	0.253	0.040
-252.078	41.397	0.178	-0.159
-251.063	800.000	-0.099	-0.287
-250.049	-200.000	0.030	0.160
-249.034	12.220	-0.224	-0.171
-248.019	-200.000	0.011	0.098
-247.005	399.591	0.139	-0.287
-245.990	277.565	-0.049	0.086
-244.976	12.310	0.050	0.038
-243.961	40.490	0.107	-0.095
-242.946	800.000	0.047	0.185
-241.932	174.291	0.214	0.305
-240.917	140.753	0.255	0.333
-239.903	-18.082	0.256	0.158
-238.888	-58.846	-0.411	0.176
-237.873	-134.393	-0.403	0.049
-236.859	-48.147	-0.087	0.041
-235.844	-25.829	-0.139	-0.081
-234.830	205.349	0.035	0.054
-233.815	-200.000	-0.009	0.045
-232.800	191.377	-0.175	-0.260
-231.786	108.867	0.144	0.170
-230.771	60.097	-0.156	0.152
-229.757	800.000	-0.114	0.366
-228.742	800.000	-0.048	-0.156
-227.727	-200.000	-0.055	0.271
-226.713	-200.000	0.016	0.167
-225.698	-148.600	0.259	0.021
-224.684	-114.254	0.045	-0.009
-223.669	117.553	0.267	-0.324
-222.655	-157.183	-0.108	0.006
-221.640	-94.745	-0.164	-0.044
-220.625	-135.279	0.407	0.048
-219.611	-75.847	0.064	-0.022
-218.596	-111.787	-0.174	-0.035
-217.582	-83.587	-0.169	0.053
-216.567	-25.994	-0.242	-0.140
-215.552	-200.000	-0.001	0.119
-214.538	800.000	-0.088	-0.295
-213.523	17.076	0.204	-0.160
-212.509	-109.388	0.264	-0.055
-211.494	-117.045	-0.232	0.042
-210.479	86.922	0.025	0.027
-209.465	-200.000	0.003	-0.365
-208.450	163.702	-0.160	-0.221
-207.436	800.000	-0.061	0.247
-206.421	-171.673	-0.134	-0.004
-205.406	-200.000	0.040	0.226
-204.392	21.621	-0.263	0.211
-203.377	56.352	0.119	0.114
-202.363	-2.140	0.224	0.155
-201.348	-200.000	-0.017	-0.301
-200.333	12.339	0.169	0.128
-199.319	-39.486	-0.188	-0.097
-198.304	21.581	0.136	0.109
-197.290	95.150	-0.222	-0.250
-196.275	511.282	0.043	-0.098
-195.260	-200.000	0.004	-0.156
-194.246	70.176	0.079	-0.080
-193.231	-200.000	0.030	-0.334
-192.217	-200.000	0.005	0.177
-191.202	-141.661	-0.115	-0.011
-190.187	-9.016	0.101	0.066
-189.173	7.150	-0.209	0.153
-188.158	381.866	-0.044	0.089
-187.144	-90.498	0.251	0.071
-186.129	88.028	-0.198	0.216
-185.114	-108.743	-0.158	0.033
-184.100	-52.144	-0.261	-0.119
-183.085	-102.623	0.177	0.042
-182.071	-97.602	-0.069	0.018
-181.056	52.036	0.289	0.271
-180.042	179.077	-0.183	0.264
-179.027	-86.413	0.464	0.140
-178.012	-127.605	-0.202	-0.029
-176.998	-18.199	0.019	0.012
-175.983	-50.175	0.130	-0.060
-174.969	49.909	-0.132	0.123
-173.954	185.122	-0.081	0.119
-172.939	-200.000	0.034	0.197
-171.925	200.164	-0.146	0.220
-170.910	-171.827	0.177	-0.006
-169.896	-200.000	0.016	0.177
-168.881	-13.972	-0.221	-0.140
-167.866	800.000	0.110	-0.324
-166.852	-92.807	0.149	-0.041
-165.837	-129.696	-0.350	-0.048
-164.823	289.090	-0.171	-0.305
-163.808	109.956	0.127	-0.150
-162.793	-88.662	0.184	0.054
-161.779	-200.000	0.015	0.074
-160.764	26.231	0.405	0.332
-159.750	-95.174	-0.044	0.012
-158.735	319.644	-0.062	0.115
-157.720	201.402	-0.018	0.028
-156.706	-136.234	-0.214	-0.025
-155.691	-108.640	0.209	-0.044
-154.677	-94.865	0.323	0.086
-153.662	800.000	-0.099	0.407
-152.647	576.764	-0.193	0.463
-151.633	346.586	0.065	0.125
-150.618	135.951	-0.072	0.093
-149.604	-31.332	0.251	0.139
-148.589	-189.968	0.115	0.001
-147.574	-136.606	0.284	0.032
-146.560	173.825	-0.106	0.151
-145.545	31.280	0.192	0.162
-144.531	-58.939	0.127	-0.054
-143.516	-106.580	0.442	-0.097
-142.502	401.688	-0.067	-0.139
-141.487	-50.151	0.124	-0.057
-140.472	800.000	0.062	-0.251
-139.458	-12.339	-0.043	-0.028
-138.443	-151.322	-0.112	0.008
-137.429	-149.077	0.188	0.015
-136.414	800.000	0.012	-0.035
-135.399	16.482	0.131	0.102
-134.385	-200.000	0.026	-0.354
-133.370	800.000	0.073	0.222
-132.356	52.648	-0.165	-0.155
-131.341	194.018	-0.125	0.185
-130.326	8.717	-0.148	0.110
-129.312	-19.916	0.082	0.050
-128.297	70.346	-0.058	-0.059
-127.283	-132.281	0.080	0.010
-126.268	3.509	-0.391	0.280
-125.253	800.000	0.115	0.452
-124.239	-143.338	-0.269	0.025
-123.224	342.354	0.170	0.327
-122.210	800.000	0.041	-0.117
-121.195	-200.000	0.109	0.524
-120.180	800.000	-0.068	0.237
