DTS Sentinel unit serial number:	SN413079Multiplexer serial number:	ORYXHardware model number:	OX4-SRSoftware version number:	ORYX F/W v4.00 Oryx Data Collector v3.7.2.0data status	okinstallation	princeton_trtdifferential loss correction	single-endedforward channel	channel 1reverse channel	N/Adate	2019/09/11time	11:24:11forward acquisition time	60.00reverse acquisition time	0.00gamma	496.2192k internal	0.2296k external	0.2296temperature offset calibration	0.9951default loss term (dB/km)	0.3790temperature slope calibration	1.0000multiplexer offset coefficient	1.0000multiplexer slope coefficient	1.0000fibre end	0.00T internal ref (°C)	37.86T ext. ref 1 (°C)	0.17T ext. ref 2 (°C)	35.53length (m)	temperature (°C)	Stokes	anti-Stokes-747.200	-52.903	-0.254	0.119
-746.185	-58.646	-0.123	-0.055
-745.171	90.350	0.247	0.283
-744.156	487.088	-0.111	0.259
-743.142	225.837	-0.132	0.219
-742.127	18.670	-0.133	0.108
-741.112	-200.000	0.004	-0.118
-740.098	800.000	-0.105	0.381
-739.083	-34.029	0.270	-0.152
-738.069	-149.865	-0.259	-0.021
-737.054	-53.828	-0.032	0.015
-736.039	0.155	-0.235	-0.171
-735.025	-119.917	0.302	-0.053
-734.010	-10.308	-0.346	-0.235
-732.996	3.334	-0.177	-0.132
-731.981	-129.171	0.126	0.018
-730.966	268.546	0.149	-0.266
-729.952	-200.000	-0.021	-0.203
-728.937	-82.106	-0.198	0.066
-727.923	764.376	-0.088	0.245
-726.908	-200.000	0.004	0.128
-725.894	800.000	-0.086	-0.285
-724.879	-73.449	-0.110	-0.041
-723.864	800.000	0.061	-0.194
-722.850	-42.771	-0.252	-0.131
-721.835	81.754	-0.113	0.125
-720.821	5.543	0.071	-0.053
-719.806	34.186	-0.149	-0.132
-718.791	800.000	0.037	-0.147
-717.777	3.415	-0.246	0.183
-716.762	404.793	-0.091	0.196
-715.748	40.173	0.069	-0.064
-714.733	800.000	-0.154	-0.478
-713.718	-151.309	-0.059	-0.005
-712.704	-200.000	-0.027	0.180
-711.689	478.007	-0.149	-0.344
-710.675	-160.372	-0.143	-0.008
-709.660	55.987	-0.074	-0.074
-708.645	-43.748	-0.519	0.267
-707.631	-103.686	0.189	-0.045
-706.616	63.706	-0.020	0.021
-705.602	54.968	0.155	-0.153
-704.587	-200.000	0.037	-0.213
-703.572	800.000	-0.107	-0.443
-702.558	-75.060	0.504	-0.184
-701.543	-200.000	0.076	-0.433
-700.529	-81.210	-0.174	0.059
-699.514	89.745	-0.172	-0.196
-698.499	-44.872	0.335	0.170
-697.485	-127.805	-0.215	0.032
-696.470	-67.701	-0.250	0.100
-695.456	-34.805	0.187	-0.104
-694.441	-191.333	0.260	0.003
-693.426	291.170	0.015	0.028
-692.412	-35.496	0.230	0.128
-691.397	-113.024	0.298	0.060
-690.383	109.507	-0.201	0.246
-689.368	380.606	0.090	0.187
-688.354	-200.000	-0.032	0.229
-687.339	-128.259	-0.251	0.036
-686.324	800.000	0.028	-0.095
-685.310	800.000	-0.056	-0.248
-684.295	49.360	-0.203	-0.194
-683.281	-71.382	-0.131	0.050
-682.266	-86.894	0.359	0.112
-681.251	177.126	-0.077	0.115
-680.237	471.534	-0.123	-0.282
-679.222	800.000	0.054	0.176
-678.208	-200.000	-0.002	0.292
-677.193	-140.984	-0.153	-0.016
-676.178	189.569	-0.207	-0.316
-675.164	-39.023	0.135	-0.073
-674.149	-59.593	0.142	0.062
-673.135	102.366	-0.051	0.060
-672.120	52.294	0.172	-0.167
-671.105	-19.415	-0.244	-0.154
-670.091	-11.642	0.283	0.190
-669.076	-57.662	0.243	0.109
-668.062	166.919	0.145	-0.209
-667.047	-55.461	-0.476	0.217
-666.032	-43.623	-0.180	0.092
-665.018	-171.872	-0.186	0.006
-664.003	96.202	-0.084	0.098
-662.989	107.702	-0.043	0.053
-661.974	49.816	0.140	-0.134
-660.959	753.944	-0.153	-0.420
-659.945	306.423	-0.178	-0.337
-658.930	59.593	-0.074	0.074
-657.916	800.000	-0.025	0.075
-656.901	-131.942	-0.243	-0.032
-655.886	-80.685	0.057	0.019
-654.872	800.000	0.050	-0.190
-653.857	102.894	-0.242	-0.288
-652.843	-200.000	-0.053	0.269
-651.828	143.425	-0.048	-0.065
-650.814	-102.018	0.372	0.091
-649.799	-200.000	-0.002	0.180
-648.784	80.459	-0.151	0.166
-647.770	-29.789	0.111	-0.064
-646.755	-91.170	0.413	-0.120
-645.741	-91.637	-0.147	0.043
-644.726	-43.431	-0.049	-0.025
-643.711	800.000	-0.078	-0.296
-642.697	71.987	0.186	0.197
-641.682	15.853	-0.184	-0.147
-640.668	36.078	0.058	-0.052
-639.653	-120.029	-0.356	0.062
-638.638	800.000	-0.054	-0.235
-637.624	-69.713	-0.099	0.039
-636.609	-60.506	0.125	-0.054
-635.595	45.797	-0.301	-0.284
-634.580	-200.000	-0.005	0.026
-633.565	74.970	0.189	-0.203
-632.551	124.930	-0.124	-0.159
-631.536	-200.000	-0.033	0.349
-630.522	134.417	0.064	0.084
-629.507	104.719	-0.092	-0.110
-628.492	-90.913	0.152	-0.044
-627.478	800.000	-0.065	-0.221
-626.463	4.063	-0.093	0.069
-625.449	80.245	-0.057	0.063
-624.434	-120.481	-0.062	0.011
-623.419	37.155	-0.300	0.270
-622.405	15.222	-0.154	0.123
-621.390	-22.583	0.228	-0.140
-620.376	800.000	0.040	-0.162
-619.361	-115.287	-0.227	-0.044
-618.346	-12.504	-0.080	-0.053
-617.332	800.000	-0.037	0.152
-616.317	796.781	0.052	0.146
-615.303	-37.727	-0.148	0.080
-614.288	-80.364	-0.200	0.068
-613.273	-82.371	-0.217	-0.072
-612.259	458.495	-0.083	0.188
-611.244	-127.262	0.181	-0.027
-610.230	-135.718	-0.487	-0.059
-609.215	-40.112	-0.293	-0.155
-608.201	224.774	0.015	0.024
-607.186	-39.177	0.170	0.091
-606.171	-19.754	0.240	0.151
-605.157	-142.698	-0.225	0.022
-604.142	800.000	-0.026	-0.081
-603.128	-26.598	-0.285	-0.170
-602.113	-144.714	-0.336	0.031
-601.098	-37.222	0.227	0.123
-600.084	-152.150	-0.331	-0.024
-599.069	149.570	-0.057	0.078
-598.055	-37.975	-0.192	0.104
-597.040	-22.936	0.070	0.043
-596.025	191.926	0.236	-0.362
-595.011	-39.963	0.205	0.109
-593.996	6.101	-0.215	0.162
-592.982	-200.000	-0.009	-0.066
-591.967	-200.000	-0.010	-0.048
-590.952	-200.000	-0.042	0.199
-589.938	-52.669	0.085	-0.040
-588.923	65.355	-0.098	-0.100
-587.909	-73.913	-0.193	-0.071
-586.894	-96.626	0.131	-0.035
-585.879	171.278	-0.152	0.221
-584.865	-200.000	0.011	0.152
-583.850	280.749	0.113	-0.204
-582.836	800.000	-0.103	0.312
-581.821	346.882	-0.137	-0.274
-580.806	34.243	-0.170	-0.150
-579.792	-32.998	0.122	0.069
-578.777	-136.444	-0.047	0.006
-577.763	-200.000	0.091	-0.559
-576.748	800.000	-0.012	-0.033
-575.733	-114.868	0.095	0.018
-574.719	91.125	0.138	0.157
-573.704	657.554	-0.134	0.350
-572.690	-14.428	-0.168	-0.110
-571.675	132.459	-0.274	0.359
-570.661	-200.000	-0.096	0.475
-569.646	-156.258	0.052	-0.003
-568.631	-163.999	-0.221	0.010
-567.617	166.328	0.226	-0.325
-566.602	-200.000	-0.019	0.116
-565.588	-200.000	-0.029	-0.298
-564.573	15.638	-0.107	-0.085
-563.558	737.133	0.034	0.093
-562.544	197.598	-0.126	0.195
-561.529	-200.000	-0.025	-0.199
-560.515	-136.578	-0.101	-0.012
-559.500	458.643	-0.106	-0.240
-558.485	47.260	0.119	0.112
-557.471	-105.815	-0.133	0.031
-556.456	40.205	0.236	0.215
-555.442	-200.000	-0.039	0.384
-554.427	-85.174	-0.161	-0.051
-553.412	-57.257	-0.401	0.179
-552.398	-200.000	-0.032	0.239
-551.383	21.519	-0.395	-0.326
-550.369	-135.389	0.190	0.023
-549.354	5.398	-0.161	-0.121
-548.339	800.000	-0.083	-0.340
-547.325	33.325	-0.366	-0.322
-546.310	537.185	0.034	0.082
-545.296	219.924	-0.214	-0.347
-544.281	137.582	-0.186	-0.246
-543.266	-116.366	0.236	0.044
-542.252	465.803	-0.078	-0.177
-541.237	246.079	0.132	-0.225
-540.223	-200.000	-0.032	-0.252
-539.208	65.638	-0.067	-0.069
-538.193	153.017	-0.094	-0.130
-537.179	-9.855	0.190	0.128
-536.164	-168.885	0.231	0.009
-535.150	-185.573	0.091	-0.001
-534.135	-200.000	-0.023	0.267
-533.121	800.000	-0.033	-0.122
-532.106	-200.000	-0.009	-0.122
-531.091	-115.134	0.119	-0.023
-530.077	133.150	0.190	0.249
-529.062	-200.000	0.017	0.168
-528.048	20.246	0.107	0.088
-527.033	-160.347	0.135	-0.007
-526.018	-39.592	0.296	-0.157
-525.004	21.695	-0.063	0.052
-523.989	-63.223	-0.146	0.061
-522.975	134.199	-0.088	-0.115
-521.960	-68.993	0.141	0.055
-520.945	800.000	0.103	-0.376
-519.931	15.216	0.078	0.062
-518.916	800.000	0.096	0.317
-517.902	-170.750	-0.256	0.009
-516.887	-93.157	-0.074	-0.021
-515.872	447.901	-0.019	0.043
-514.858	6.872	0.168	-0.127
-513.843	-46.175	0.277	-0.138
-512.829	-200.000	0.025	-0.140
-511.814	-1.307	-0.269	0.192
-510.799	-25.943	0.091	-0.054
-509.785	14.471	0.235	0.185
-508.770	-68.140	-0.355	-0.140
-507.756	-2.870	-0.133	0.094
-506.741	-175.606	0.301	0.008
-505.726	77.263	0.200	0.215
-504.712	177.487	-0.192	0.283
-503.697	504.750	-0.169	-0.397
-502.683	-200.000	0.012	0.118
-501.668	59.258	-0.184	-0.183
-500.653	-200.000	-0.009	-0.461
-499.639	-25.898	0.360	-0.215
-498.624	210.074	-0.062	-0.099
-497.610	-200.000	0.005	-0.295
-496.595	27.654	-0.090	0.077
-495.581	-3.156	-0.243	-0.172
-494.566	800.000	0.083	0.243
-493.551	800.000	-0.037	-0.145
-492.537	6.499	-0.104	0.078
-491.522	-109.110	0.288	-0.062
-490.508	800.000	-0.024	0.095
-489.493	12.587	-0.065	0.051
-488.478	-200.000	-0.188	-0.001
-487.464	-81.176	-0.043	-0.014
-486.449	40.956	0.099	0.091
-485.435	-95.088	-0.170	-0.046
-484.420	-29.871	-0.141	0.081
-483.405	26.934	0.133	-0.113
-482.391	528.977	0.062	-0.147
-481.376	-87.877	-0.146	0.044
-480.362	-200.000	0.008	-0.056
-479.347	-149.330	0.396	-0.032
-478.332	71.300	-0.088	0.092
-477.318	87.492	-0.259	0.290
-476.303	-139.663	-0.235	0.025
-475.289	-48.137	-0.224	-0.109
-474.274	-200.000	0.012	-0.172
-473.259	138.747	-0.130	-0.172
-472.245	-200.000	0.041	-0.192
-471.230	-161.809	-0.240	0.012
-470.216	120.896	-0.092	0.116
-469.201	6.662	-0.134	-0.100
-468.186	-200.000	-0.021	-0.156
-467.172	800.000	0.039	-0.125
-466.157	800.000	0.015	0.045
-465.143	-185.726	0.226	0.003
-464.128	17.328	-0.276	0.221
-463.113	-158.398	0.030	-0.002
-462.099	98.164	0.193	-0.225
-461.084	-172.426	0.184	-0.006
-460.070	300.027	-0.115	0.215
-459.055	-89.022	0.496	-0.148
-458.040	243.155	0.097	-0.165
-457.026	2.877	0.220	0.161
-456.011	503.428	-0.073	0.170
-454.997	-200.000	0.007	-0.220
-453.982	-101.884	0.058	-0.014
-452.968	243.228	-0.221	-0.375
-451.953	120.850	-0.075	-0.095
-450.938	-29.759	-0.387	0.223
-449.924	800.000	0.106	0.382
-448.909	-200.000	0.013	0.072
-447.895	-200.000	0.030	0.361
-446.880	-159.650	-0.194	0.011
-445.865	119.328	0.035	0.044
-444.851	-56.591	0.079	-0.035
-443.836	-200.000	0.113	0.000
-442.822	-52.850	-0.302	-0.140
-441.807	438.067	0.007	0.015
-440.792	-120.543	0.074	-0.013
-439.778	-200.000	0.002	-0.163
-438.763	-69.558	-0.052	-0.020
-437.749	59.679	0.201	0.200
-436.734	530.815	-0.063	0.151
-435.719	484.282	0.069	0.160
-434.705	224.010	0.190	-0.310
-433.690	-71.266	0.403	0.153
-432.676	-24.287	0.266	-0.160
-431.661	101.313	0.236	-0.277
-430.646	-161.353	0.259	0.014
-429.632	539.577	0.061	0.146
-428.617	198.924	-0.044	0.067
-427.603	-14.894	-0.278	0.180
-426.588	-122.591	-0.250	0.041
-425.573	174.348	0.116	0.169
-424.559	-200.000	0.002	0.082
-423.544	-140.673	0.108	0.011
-422.530	-70.761	-0.100	-0.038
-421.515	108.532	-0.103	-0.124
-420.500	210.070	0.178	-0.282
-419.486	-122.381	-0.284	0.047
-418.471	-161.263	-0.442	-0.023
-417.457	-200.000	-0.052	0.236
-416.442	1.299	0.138	0.100
-415.428	800.000	-0.025	-0.075
-414.413	-194.888	-0.302	-0.002
-413.398	-200.000	0.049	0.254
-412.384	-122.580	-0.064	-0.011
-411.369	-97.618	-0.346	-0.091
-410.355	800.000	-0.020	0.062
-409.340	-200.000	-0.041	0.265
-408.325	4.317	0.167	-0.123
-407.311	-166.439	0.163	-0.007
-406.296	676.037	-0.087	-0.229
-405.282	-100.270	-0.266	-0.067
-404.267	300.135	0.037	-0.068
-403.252	281.254	0.117	0.210
-402.238	-113.734	-0.192	-0.038
-401.223	-180.033	-0.129	0.003
-400.209	-65.727	-0.228	-0.092
-399.194	108.920	-0.163	-0.197
-398.179	-40.665	-0.439	-0.230
-397.165	-53.730	0.309	0.142
-396.150	154.211	0.089	-0.123
-395.136	800.000	0.057	-0.219
-394.121	-200.000	0.029	-0.231
-393.106	-82.399	-0.087	-0.028
-392.092	146.213	0.173	0.234
-391.077	-129.777	0.317	0.044
-390.063	181.123	-0.149	-0.221
-389.048	-80.224	-0.375	-0.126
-388.033	85.071	0.217	-0.240
-387.019	-189.683	0.072	0.001
-386.004	-200.000	0.011	0.296
-384.990	15.406	0.279	-0.221
-383.975	-200.000	-0.012	-0.071
-382.960	88.884	0.206	-0.231
-381.946	-200.000	-0.034	-0.296
-380.931	262.408	-0.097	-0.169
-379.917	-200.000	0.036	-0.177
-378.902	-200.000	0.022	-0.180
-377.888	-43.316	-0.054	-0.028
-376.873	-22.227	-0.324	0.198
-375.858	121.626	-0.101	-0.126
-374.844	-200.000	-0.012	0.072
-373.829	-98.231	-0.033	0.009
-372.815	-200.000	-0.035	0.217
-371.800	517.354	0.088	0.207
-370.785	-25.737	-0.054	0.032
-369.771	-24.944	0.165	0.099
-368.756	-65.815	-0.322	0.130
-367.742	14.790	-0.143	0.113
-366.727	472.721	0.175	-0.397
-365.712	-200.000	0.012	-0.393
-364.698	-62.819	0.492	0.205
-363.683	-101.055	0.159	0.039
-362.669	-131.184	0.176	-0.024
-361.654	9.271	-0.193	-0.147
-360.639	800.000	-0.022	0.065
-359.625	26.927	-0.333	0.281
-358.610	-49.616	0.123	0.059
-357.596	285.802	0.071	0.129
-356.581	-200.000	0.027	0.189
-355.566	42.516	0.235	0.215
-354.552	-156.575	-0.025	0.002
-353.537	800.000	0.028	-0.096
-352.523	-97.205	0.166	-0.044
-351.508	-200.000	-0.008	-0.230
-350.493	-32.593	-0.307	0.172
-349.479	-150.854	0.343	0.026
-348.464	800.000	0.020	-0.069
-347.450	-64.625	-0.228	-0.093
-346.435	82.834	-0.159	-0.173
-345.420	129.815	-0.086	0.110
-344.406	-200.000	0.021	0.134
-343.391	765.759	0.127	0.346
-342.377	-200.000	-0.081	0.448
-341.362	-200.000	-0.024	0.360
-340.348	489.176	0.104	-0.239
-339.333	81.966	0.121	0.132
-338.318	-116.714	0.324	-0.060
-337.304	800.000	-0.055	-0.236
-336.289	-47.083	0.175	-0.086
-335.275	81.757	0.087	0.095
-334.260	800.000	-0.077	0.248
-333.245	800.000	0.057	0.174
-332.231	-200.000	0.003	-0.149
-331.216	5.739	0.059	-0.044
-330.202	800.000	0.127	0.358
-329.187	-126.767	0.235	-0.035
-328.172	1.433	-0.385	0.278
-327.158	95.512	0.283	0.324
-326.143	186.277	0.122	0.183
-325.129	493.756	-0.086	-0.198
-324.114	-95.011	0.391	-0.106
-323.099	116.073	0.182	-0.225
-322.085	-64.117	-0.212	0.087
-321.070	-200.000	-0.064	0.376
-320.056	-200.000	-0.002	-0.248
-319.041	11.683	0.111	0.086
-318.026	70.974	-0.163	0.169
-317.012	-142.540	0.271	0.027
-315.997	800.000	-0.046	0.162
-314.983	121.024	-0.158	-0.197
-313.968	-200.000	0.087	-0.430
-312.953	29.802	-0.153	-0.131
-311.939	-68.207	0.186	0.073
-310.924	-120.683	-0.308	-0.052
-309.910	482.878	-0.046	-0.105
-308.895	370.956	-0.073	-0.148
-307.880	-64.903	-0.159	-0.065
-306.866	198.660	0.262	-0.403
-305.851	42.403	-0.228	0.208
-304.837	-45.376	-0.192	0.096
-303.822	125.185	0.104	0.132
-302.807	-72.765	0.160	-0.059
-301.793	4.527	-0.218	0.161
-300.778	-200.000	-0.045	0.226
-299.764	44.019	-0.084	-0.077
-298.749	22.004	-0.181	0.148
-297.735	-110.640	-0.211	0.044
-296.720	-54.302	0.126	0.057
-295.705	-114.787	0.163	-0.031
-294.691	-200.000	-0.001	0.182
-293.676	800.000	-0.048	-0.138
-292.662	-200.000	-0.005	-0.290
-291.647	432.144	0.063	-0.137
-290.632	9.280	-0.123	-0.093
-289.618	-200.000	-0.020	0.170
-288.603	185.340	-0.023	0.034
-287.589	86.179	0.160	0.177
-286.574	194.929	0.121	0.185
-285.559	-200.000	0.031	0.163
-284.545	-200.000	-0.050	0.270
-283.530	0.791	0.076	0.054
-282.516	-71.931	0.162	0.060
-281.501	149.287	0.083	0.113
-280.486	142.316	0.264	0.352
-279.472	800.000	-0.058	-0.173
-278.457	303.612	0.029	0.054
-277.443	-200.000	-0.001	0.051
-276.428	-68.929	-0.159	0.062
-275.413	-62.954	0.208	0.086
-274.399	-140.199	0.205	0.022
-273.384	9.648	0.146	-0.111
-272.370	-200.000	0.001	0.307
-271.355	-200.000	0.058	-0.255
-270.340	154.420	0.028	-0.038
-269.326	-200.000	-0.042	0.317
-268.311	514.970	-0.065	0.153
-267.297	-25.277	0.226	0.134
-266.282	27.178	0.292	0.246
-265.267	-200.000	0.029	-0.178
-264.253	800.000	0.012	-0.040
-263.238	-111.766	-0.242	0.049
-262.224	173.870	0.221	0.320
-261.209	-26.841	0.208	-0.122
-260.195	532.617	0.128	0.304
-259.180	-48.533	0.221	0.107
-258.165	-23.781	-0.354	0.213
-257.151	-41.780	0.227	-0.117
-256.136	-200.000	0.009	-0.257
-255.122	22.120	0.250	-0.204
-254.107	56.365	0.083	-0.081
-253.092	43.509	0.259	-0.237
-252.078	-97.752	0.201	-0.052
-251.063	-200.000	-0.042	-0.290
-250.049	59.588	0.261	0.258
-249.034	-63.305	0.228	-0.094
-248.019	361.571	0.177	-0.355
-247.005	800.000	0.051	-0.160
-245.990	-126.531	0.243	-0.036
-244.976	87.870	-0.091	-0.101
-243.961	571.091	0.060	0.147
-242.946	413.756	-0.008	0.017
-241.932	-200.000	-0.021	0.202
-240.917	31.576	0.167	-0.144
-239.903	-95.798	-0.321	-0.086
-238.888	-69.630	0.223	-0.086
-237.873	800.000	-0.133	0.400
-236.859	-152.930	-0.358	0.025
-235.844	-106.518	0.272	0.061
-234.830	-200.000	-0.108	-0.686
-233.815	637.737	-0.076	0.192
-232.800	-200.000	-0.018	0.329
-231.786	206.814	-0.071	0.111
-230.771	105.970	0.051	-0.061
-229.757	37.788	0.212	0.188
-228.742	-200.000	0.010	-0.055
-227.727	330.697	-0.079	0.152
-226.713	44.766	-0.113	-0.104
-225.698	423.283	0.100	-0.216
-224.684	-104.146	-0.216	-0.050
-223.669	-69.684	0.359	-0.138
-222.655	58.665	0.271	-0.266
-221.640	-63.036	0.186	-0.077
-220.625	33.845	-0.145	0.127
-219.611	83.223	-0.175	-0.191
-218.596	215.246	-0.079	0.126
-217.582	582.622	0.082	-0.203
-216.567	-38.838	-0.201	0.106
-215.552	-200.000	0.051	-0.255
-214.538	-61.943	0.232	0.097
-213.523	194.646	0.144	0.219
-212.509	-90.092	0.223	0.065
-211.494	286.964	0.256	-0.463
-210.479	-151.915	0.370	-0.027
-209.465	-51.701	0.077	0.036
-208.450	800.000	0.121	-0.433
-207.436	95.594	-0.135	-0.155
-206.421	190.263	0.248	0.372
-205.406	349.869	0.080	0.158
-204.392	85.461	0.152	0.167
-203.377	171.957	0.091	-0.131
-202.363	-200.000	-0.017	0.101
-201.348	-119.594	-0.212	-0.037
-200.333	202.940	-0.102	-0.157
-199.319	106.033	-0.166	0.197
-198.304	-179.350	0.178	-0.004
-197.290	12.575	-0.206	0.159
-196.275	-200.000	-0.037	0.269
-195.260	329.965	-0.054	0.104
-194.246	143.002	0.119	0.159
-193.231	460.439	0.052	0.116
-192.217	28.395	0.174	-0.147
-191.202	-200.000	-0.048	0.228
-190.187	800.000	-0.102	-0.319
-189.173	-80.017	0.052	-0.017
-188.158	712.538	-0.093	-0.247
-187.144	509.329	-0.082	0.190
-186.129	397.649	-0.036	0.075
-185.114	1.057	0.275	-0.198
-184.100	-200.000	0.265	0.001
-183.085	627.951	0.025	-0.062
-182.071	72.267	0.214	-0.223
-181.056	-85.273	-0.177	0.055
-180.042	800.000	0.047	-0.192
-179.027	495.543	0.045	-0.103
-178.012	-123.876	-0.352	-0.055
-176.998	-154.476	0.116	0.008
-175.983	-200.000	-0.005	0.036
-174.969	-127.737	-0.334	-0.048
-173.954	800.000	-0.119	0.379
-172.939	-70.378	0.252	0.096
-171.925	781.977	-0.177	0.484
-170.910	-134.094	0.365	0.045
-169.896	41.604	0.114	-0.104
-168.881	-126.272	-0.116	-0.017
-167.866	-42.966	0.128	-0.065
-166.852	-124.587	0.232	-0.036
-165.837	421.575	-0.221	0.474
-164.823	-77.648	-0.146	-0.050
-163.808	-200.000	0.020	0.127
-162.793	234.604	-0.151	0.249
-161.779	-200.000	0.013	0.108
-160.764	-115.977	0.083	0.015
-159.750	-200.000	0.021	0.148
-158.735	-82.977	0.104	-0.033
-157.720	415.412	-0.108	-0.230
-156.706	-200.000	-0.023	-0.309
-155.691	-42.081	-0.024	-0.012
-154.677	-200.000	-0.051	-0.359
-153.662	18.751	-0.209	0.167
-152.647	-100.902	0.216	0.053
-151.633	800.000	-0.046	0.130
-150.618	-200.000	0.035	0.280
-149.604	129.517	-0.009	-0.011
-148.589	-24.342	-0.186	-0.111
-147.574	800.000	0.079	-0.323
-146.560	482.034	0.099	0.224
-145.545	-200.000	0.021	-0.228
-144.531	350.020	-0.056	0.111
-143.516	-48.254	-0.143	-0.069
-142.502	181.344	-0.217	0.319
-141.487	-60.638	0.331	0.140
-140.472	-200.000	-0.015	0.177
-139.458	1.769	0.079	-0.057
-138.443	-1.782	-0.237	-0.166
-137.429	64.917	0.151	-0.153
-136.414	-38.006	0.085	-0.045
-135.399	-31.771	-0.285	0.160
-134.385	800.000	0.120	0.347
-133.370	-125.375	0.520	-0.079
-132.356	300.783	-0.084	-0.155
-131.341	800.000	0.057	-0.245
-130.326	-1.164	-0.067	-0.047
-129.312	-98.538	0.181	-0.046
-128.297	-200.000	-0.038	-0.192
-127.283	34.295	0.190	0.165
-126.268	-170.757	-0.178	0.006
-125.253	800.000	-0.036	0.138
-124.239	96.316	-0.076	0.087
-123.224	-95.752	0.266	-0.071
-122.210	464.078	-0.110	-0.246
-121.195	27.123	0.132	0.111
