DTS Sentinel unit serial number:	SN413079Multiplexer serial number:	ORYXHardware model number:	OX4-SRSoftware version number:	ORYX F/W v4.00 Oryx Data Collector v3.7.2.0data status	okinstallation	princeton_trtdifferential loss correction	single-endedforward channel	channel 1reverse channel	N/Adate	2019/09/14time	21:38:35forward acquisition time	60.00reverse acquisition time	0.00gamma	496.2192k internal	0.2318k external	0.2318temperature offset calibration	1.0012default loss term (dB/km)	0.3790temperature slope calibration	1.0000multiplexer offset coefficient	1.0000multiplexer slope coefficient	1.0000fibre end	0.00T internal ref (°C)	32.81T ext. ref 1 (°C)	4.76T ext. ref 2 (°C)	27.75length (m)	temperature (°C)	Stokes	anti-Stokes-747.200	-17.826	-0.364	-0.231
-746.185	-194.655	0.306	-0.002
-745.171	-200.000	-0.070	-0.613
-744.156	76.286	-0.132	-0.142
-743.142	203.831	-0.201	0.314
-742.127	92.136	0.215	0.245
-741.112	-197.511	-0.226	0.001
-740.098	-158.303	0.150	0.009
-739.083	29.792	0.208	0.179
-738.069	-200.000	0.008	0.243
-737.054	-3.043	0.146	-0.103
-736.039	-200.000	-0.025	0.127
-735.025	800.000	0.098	0.296
-734.010	261.421	0.162	0.284
-732.996	-166.942	-0.317	0.013
-731.981	-86.737	-0.386	0.119
-730.966	-78.147	-0.069	0.024
-729.952	-200.000	0.034	0.159
-728.937	800.000	0.059	-0.217
-727.923	-156.709	0.467	0.029
-726.908	-4.054	-0.464	-0.325
-725.894	-152.955	0.157	-0.011
-724.879	-200.000	0.000	0.211
-723.864	-104.546	-0.203	0.047
-722.850	-200.000	0.028	0.268
-721.835	335.044	-0.067	0.131
-720.821	-200.000	0.007	-0.135
-719.806	66.744	0.030	-0.031
-718.791	-10.645	0.046	-0.031
-717.777	11.645	0.144	-0.111
-716.762	800.000	0.025	-0.093
-715.748	27.097	0.251	0.213
-714.733	-122.781	0.151	0.025
-713.718	174.047	-0.249	-0.363
-712.704	-165.435	-0.099	0.004
-711.689	-63.918	-0.067	0.028
-710.675	800.000	-0.066	0.230
-709.660	154.152	0.027	-0.038
-708.645	-166.666	-0.058	-0.002
-707.631	576.741	0.089	-0.221
-706.616	-63.317	-0.239	0.099
-705.602	279.159	0.238	-0.430
-704.587	-200.000	-0.062	-0.323
-703.572	88.093	0.012	0.014
-702.558	-50.228	-0.068	0.033
-701.543	-97.710	-0.307	-0.080
-700.529	-65.046	-0.472	-0.192
-699.514	800.000	-0.047	0.135
-698.499	-200.000	0.006	-0.080
-697.485	142.022	0.144	0.193
-696.470	-33.210	-0.117	-0.065
-695.456	-81.822	-0.183	-0.061
-694.441	33.088	0.098	-0.086
-693.426	-175.292	-0.233	0.006
-692.412	104.627	0.221	-0.263
-691.397	39.289	-0.284	0.257
-690.383	-141.259	-0.070	0.007
-689.368	377.063	0.186	-0.383
-688.354	111.517	-0.233	0.284
-687.339	75.854	-0.053	0.057
-686.324	-130.099	0.159	0.022
-685.310	101.942	0.047	-0.055
-684.295	-47.098	-0.192	0.094
-683.281	800.000	-0.034	-0.124
-682.266	83.695	0.025	-0.027
-681.251	800.000	0.074	-0.250
-680.237	-200.000	0.066	-0.455
-679.222	9.068	0.079	0.060
-678.208	-200.000	-0.015	-0.215
-677.193	19.713	-0.157	0.128
-676.178	-85.342	-0.190	0.060
-675.164	-73.767	-0.382	-0.140
-674.149	174.334	-0.213	0.311
-673.135	184.195	0.280	0.419
-672.120	-200.000	-0.010	0.154
-671.105	67.211	-0.148	-0.153
-670.091	-200.000	-0.019	-0.392
-669.076	74.534	0.278	-0.295
-668.062	-59.177	0.162	0.071
-667.047	-200.000	0.019	-0.105
-666.032	21.515	0.196	-0.161
-665.018	-175.271	0.035	0.001
-664.003	-92.792	-0.446	0.126
-662.989	228.692	-0.032	-0.052
-661.974	-200.000	0.040	-0.253
-660.959	-152.500	-0.159	-0.011
-659.945	-200.000	0.005	-0.052
-658.930	584.412	-0.095	-0.236
-657.916	314.568	-0.094	-0.178
-656.901	-101.799	0.196	-0.048
-655.886	-200.000	0.014	-0.084
-654.872	-134.802	-0.420	-0.051
-653.857	2.902	0.164	-0.120
-652.843	800.000	-0.090	-0.300
-651.828	-131.651	0.354	0.047
-650.814	23.973	0.128	-0.106
-649.799	44.627	0.098	-0.091
-648.784	800.000	0.136	-0.438
-647.770	773.637	-0.061	-0.168
-646.755	743.397	-0.174	-0.472
-645.741	-10.654	-0.412	0.275
-644.726	-200.000	-0.027	0.132
-643.711	-165.232	-0.232	-0.010
-642.697	308.638	-0.185	-0.348
-641.682	362.384	0.067	-0.135
-640.668	505.423	-0.098	-0.228
-639.653	207.932	-0.258	0.406
-638.638	35.112	0.076	0.067
-637.624	57.436	0.057	0.056
-636.609	-128.779	-0.357	-0.051
-635.595	800.000	0.072	-0.248
-634.580	800.000	-0.005	0.017
-633.565	-200.000	-0.004	0.162
-632.551	281.943	-0.147	0.266
-631.536	242.174	0.113	0.191
-630.522	-200.000	-0.011	-0.224
-629.507	-200.000	-0.045	-0.221
-628.492	-111.911	0.119	-0.024
-627.478	-121.543	-0.213	0.036
-626.463	-74.057	-0.081	-0.029
-625.449	85.500	0.278	0.307
-624.434	800.000	0.116	-0.322
-623.419	-50.212	0.594	-0.283
-622.405	800.000	0.088	-0.253
-621.390	186.954	-0.160	-0.240
-620.376	-65.845	-0.126	0.051
-619.361	-164.981	0.118	0.005
-618.346	48.415	0.075	0.071
-617.332	-146.894	0.135	0.012
-616.317	-2.599	0.155	0.110
-615.303	88.677	-0.103	-0.116
-614.288	800.000	0.016	-0.046
-613.273	-200.000	0.023	0.238
-612.259	1.962	-0.073	0.053
-611.244	800.000	-0.019	-0.052
-610.230	142.370	-0.176	-0.235
-609.215	455.272	0.066	0.146
-608.201	-72.600	0.353	-0.131
-607.186	-158.710	-0.055	0.003
-606.171	-157.191	-0.118	0.007
-605.157	-35.545	0.289	-0.158
-604.142	-200.000	0.042	0.306
-603.128	-200.000	0.054	-0.329
-602.113	2.491	-0.244	0.178
-601.098	-17.736	0.330	-0.208
-600.084	320.414	0.033	-0.063
-599.069	800.000	0.097	0.329
-598.055	-141.647	0.250	-0.025
-597.040	-63.483	0.083	0.034
-596.025	-69.605	0.272	0.105
-595.011	-129.876	0.132	0.018
-593.996	-105.732	0.294	0.067
-592.982	40.267	0.042	0.038
-591.967	143.044	-0.058	-0.077
-590.952	-162.054	-0.339	-0.017
-589.938	9.729	0.305	-0.232
-588.923	-9.846	-0.142	0.095
-587.909	146.891	-0.086	0.116
-586.894	7.608	0.195	0.147
-585.879	-37.648	0.115	0.062
-584.865	207.577	0.138	0.216
-583.850	728.808	0.087	0.234
-582.836	-95.726	0.102	0.027
-581.821	-200.000	0.037	0.183
-580.806	65.374	0.361	-0.367
-579.792	-93.763	-0.052	-0.014
-578.777	39.573	-0.022	-0.020
-577.763	101.640	-0.173	-0.203
-576.748	90.165	-0.077	-0.086
-575.733	-96.237	-0.083	-0.022
-574.719	-119.705	0.218	0.038
-573.704	52.950	0.101	-0.097
-572.690	-38.360	0.058	-0.031
-571.675	800.000	0.072	0.207
-570.661	-62.127	0.258	-0.108
-569.646	-200.000	0.016	-0.081
-568.631	548.423	0.125	-0.300
-567.617	800.000	-0.010	0.032
-566.602	11.286	-0.140	0.108
-565.588	-21.936	0.238	0.145
-564.573	800.000	-0.043	-0.137
-563.558	-200.000	-0.003	0.180
-562.544	42.469	0.112	0.103
-561.529	-40.898	-0.313	-0.163
-560.515	279.675	0.179	0.322
-559.500	505.014	0.156	-0.362
-558.485	-28.047	-0.305	-0.177
-557.471	213.663	-0.119	0.189
-556.456	191.843	-0.211	0.319
-555.442	-200.000	0.014	0.132
-554.427	-31.688	-0.142	-0.080
-553.412	800.000	0.055	0.228
-552.398	530.316	0.010	0.025
-551.383	209.805	-0.081	0.127
-550.369	-104.853	-0.235	0.054
-549.354	-42.971	0.180	-0.092
-548.339	-96.364	-0.205	0.054
-547.325	-46.858	0.246	-0.121
-546.310	-131.916	0.253	-0.033
-545.296	512.368	-0.142	-0.332
-544.281	26.387	-0.090	-0.075
-543.266	600.214	-0.046	-0.114
-542.252	-118.529	0.085	0.015
-541.237	-70.277	-0.020	-0.008
-540.223	259.063	0.171	-0.296
-539.208	90.622	-0.072	0.081
-538.193	268.411	-0.218	-0.384
-537.179	89.858	0.241	0.270
-536.164	-200.000	0.009	0.115
-535.150	-22.970	-0.096	0.058
-534.135	-42.377	-0.107	-0.055
-533.121	-39.716	-0.050	0.026
-532.106	-76.133	-0.347	-0.123
-531.091	800.000	0.101	-0.304
-530.077	328.570	0.125	-0.240
-529.062	-39.775	-0.145	0.076
-528.048	-139.702	-0.268	0.029
-527.033	390.455	0.037	-0.077
-526.018	-50.119	-0.112	-0.053
-525.004	800.000	0.007	-0.020
-523.989	-16.081	0.060	-0.038
-522.975	133.298	0.117	-0.152
-521.960	-200.000	-0.007	0.164
-520.945	-114.478	-0.221	0.043
-519.931	80.728	-0.341	0.369
-518.916	-4.577	0.327	-0.227
-517.902	28.353	0.276	-0.234
-516.887	21.462	-0.224	-0.183
-515.872	163.253	-0.147	-0.208
-514.858	-200.000	0.034	-0.259
-513.843	-22.489	0.111	0.068
-512.829	-118.862	0.321	-0.056
-511.814	271.703	0.203	-0.358
-510.799	-73.974	0.128	-0.047
-509.785	-200.000	-0.012	0.136
-508.770	-200.000	0.013	0.150
-507.756	63.948	0.147	0.148
-506.741	-140.067	0.122	0.013
-505.726	-200.000	-0.016	0.190
-504.712	196.483	0.018	0.028
-503.697	-27.394	0.066	-0.039
-502.683	226.016	0.175	-0.285
-501.668	21.020	-0.230	-0.187
-500.653	-136.769	-0.389	0.045
-499.639	-86.563	0.181	0.056
-498.624	-200.000	0.029	0.276
-497.610	-200.000	-0.019	-0.164
-496.595	-114.614	0.239	-0.046
-495.581	-131.781	0.462	-0.061
-494.566	-70.703	0.231	0.087
-493.551	-168.633	0.267	0.010
-492.537	800.000	-0.100	0.283
-491.522	-200.000	-0.016	0.126
-490.508	-124.981	-0.214	-0.033
-489.493	-200.000	0.002	-0.064
-488.478	113.216	-0.261	0.317
-487.464	-37.546	-0.199	0.106
-486.449	-200.000	0.031	0.371
-485.435	-121.744	0.205	-0.034
-484.420	-143.108	-0.259	0.025
-483.405	800.000	0.091	0.293
-482.391	800.000	0.080	0.251
-481.376	43.959	0.233	-0.214
-480.362	-23.521	-0.165	-0.099
-479.347	-122.008	-0.357	-0.059
-478.332	-200.000	-0.012	0.198
-477.318	-129.887	0.091	-0.013
-476.303	-80.280	0.331	0.111
-475.289	-200.000	-0.018	-0.180
-474.274	-93.667	0.214	-0.059
-473.259	2.539	0.093	-0.067
-472.245	-54.571	-0.287	0.130
-471.230	-33.626	0.270	-0.149
-470.216	-109.172	-0.306	-0.065
-469.201	2.120	-0.131	0.095
-468.186	24.904	-0.155	-0.128
-467.172	-102.091	-0.181	0.044
-466.157	-200.000	0.019	-0.360
-465.143	-200.000	0.065	0.329
-464.128	-200.000	-0.061	0.390
-463.113	-200.000	0.056	0.330
-462.099	-65.865	-0.347	-0.139
-461.084	-58.927	0.356	0.154
-460.070	-82.429	-0.172	0.056
-459.055	-200.000	0.074	0.518
-458.040	74.866	-0.114	0.120
-457.026	-88.745	-0.356	-0.106
-456.011	92.854	0.086	0.097
-454.997	30.399	0.110	-0.094
-453.982	-160.019	0.069	-0.004
-452.968	-141.197	0.095	0.010
-451.953	53.335	0.170	-0.163
-450.938	12.787	0.248	-0.192
-449.924	-200.000	0.004	-0.068
-448.909	800.000	-0.094	-0.292
-447.895	1.570	0.121	-0.087
-446.880	-200.000	0.004	-0.100
-445.865	23.889	0.191	0.158
-444.851	197.360	-0.263	-0.402
-443.836	800.000	-0.007	-0.031
-442.822	-157.341	-0.198	0.012
-441.807	-94.382	-0.152	-0.041
-440.792	-200.000	-0.031	-0.236
-439.778	-69.034	0.069	0.027
-438.763	-28.059	0.344	-0.199
-437.749	-22.012	-0.147	-0.089
-436.734	-200.000	-0.007	-0.110
-435.719	103.665	-0.051	-0.060
-434.705	88.833	0.149	0.166
-433.690	-22.778	0.110	0.066
-432.676	-114.553	-0.006	0.001
-431.661	214.188	-0.170	0.270
-430.646	514.019	-0.046	-0.106
-429.632	-30.925	-0.158	0.089
-428.617	800.000	0.033	0.116
-427.603	-137.073	0.112	-0.013
-426.588	-200.000	-0.032	-0.212
-425.573	-17.011	-0.120	-0.076
-424.559	-200.000	-0.041	0.357
-423.544	-95.432	-0.281	-0.076
-422.530	-49.606	0.203	-0.097
-421.515	-200.000	0.009	0.421
-420.500	-200.000	0.017	-0.398
-419.486	-200.000	0.026	-0.330
-418.471	107.712	-0.114	0.135
-417.457	-155.120	0.271	-0.018
-416.442	437.222	-0.068	0.148
-415.428	-200.000	0.027	-0.123
-414.413	30.494	-0.177	-0.151
-413.398	97.306	0.040	0.045
-412.384	-200.000	-0.007	-0.097
-411.369	800.000	-0.024	0.082
-410.355	-200.000	-0.021	-0.166
-409.340	-49.099	-0.065	0.031
-408.325	60.594	-0.139	-0.138
-407.311	-55.617	-0.078	0.035
-406.296	220.617	0.108	-0.173
-405.282	-200.000	0.023	0.169
-404.267	-152.321	-0.141	-0.010
-403.252	-57.858	0.133	0.058
-402.238	-85.499	-0.118	0.037
-401.223	260.158	0.125	0.216
-400.209	561.988	0.139	0.335
-399.194	-108.135	-0.275	0.059
-398.179	-137.803	0.297	-0.033
-397.165	-200.000	-0.030	-0.135
-396.150	800.000	-0.089	-0.315
-395.136	-104.353	-0.172	-0.040
-394.121	375.189	0.217	-0.441
-393.106	203.874	0.094	0.146
-392.092	-32.487	-0.254	-0.141
-391.077	174.151	0.120	-0.173
-390.063	-71.740	0.322	0.120
-389.048	-98.793	-0.452	-0.115
-388.033	565.450	0.103	0.250
-387.019	-137.717	0.191	-0.021
-386.004	118.526	-0.089	0.109
-384.990	-200.000	-0.009	-0.140
-383.975	47.280	0.088	-0.082
-382.960	387.557	0.086	-0.177
-381.946	-62.382	-0.201	0.083
-380.931	-129.542	-0.287	0.040
-379.917	-200.000	0.016	0.602
-378.902	4.424	-0.034	-0.025
-377.888	-104.492	0.207	0.048
-376.873	-82.440	-0.012	-0.004
-375.858	36.508	0.112	-0.098
-374.844	32.932	-0.058	0.050
-373.829	-200.000	0.019	-0.204
-372.815	-200.000	-0.039	0.212
-371.800	-30.082	-0.278	-0.158
-370.785	-200.000	-0.058	0.268
-369.771	-193.859	-0.187	0.002
-368.756	539.799	0.103	-0.244
-367.742	800.000	-0.108	-0.324
-366.727	-119.398	-0.184	0.032
-365.712	-105.507	-0.167	0.038
-364.698	151.268	-0.047	-0.063
-363.683	-200.000	-0.009	0.143
-362.669	-47.452	-0.462	0.224
-361.654	231.846	-0.138	0.226
-360.639	289.195	0.095	-0.171
-359.625	-200.000	0.011	0.101
-358.610	290.693	-0.141	-0.256
-357.596	175.556	0.149	-0.215
-356.581	380.233	-0.070	-0.142
-355.566	329.216	-0.105	-0.201
-354.552	107.995	0.283	0.336
-353.537	-134.096	0.228	-0.028
-352.523	-72.826	-0.037	0.014
-351.508	49.395	-0.169	-0.158
-350.493	-41.364	0.312	0.160
-349.479	-200.000	-0.002	0.021
-348.464	480.262	-0.086	-0.194
-347.450	800.000	-0.036	-0.149
-346.435	800.000	0.143	0.501
-345.420	-16.041	-0.191	-0.121
-344.406	61.336	0.258	-0.256
-343.391	-200.000	0.013	-0.197
-342.377	800.000	0.057	0.220
-341.362	-33.266	0.152	0.084
-340.348	-77.126	-0.169	0.059
-339.333	-200.000	-0.014	0.345
-338.318	-20.193	-0.257	0.158
-337.304	-72.225	0.126	-0.047
-336.289	160.371	0.092	0.128
-335.275	95.332	-0.176	0.200
-334.260	-200.000	-0.023	0.143
-333.245	-200.000	0.014	0.144
-332.231	164.202	0.085	0.119
-331.216	-62.123	-0.131	-0.055
-330.202	-120.219	0.059	0.010
-329.187	119.654	-0.137	-0.169
-328.172	-200.000	-0.000	0.004
-327.158	800.000	0.033	0.120
-326.143	-200.000	0.029	-0.324
-325.129	122.148	-0.063	0.078
-324.114	13.961	0.097	-0.075
-323.099	48.513	-0.169	-0.158
-322.085	196.175	0.070	-0.107
-321.070	-48.884	0.216	0.103
-320.056	-35.650	-0.349	0.188
-319.041	8.968	-0.160	-0.120
-318.026	428.527	-0.083	-0.178
-317.012	-135.247	-0.488	-0.058
-315.997	45.576	-0.176	0.162
-314.983	-200.000	0.085	-0.445
-313.968	-200.000	-0.001	-0.029
-312.953	390.893	0.088	0.181
-311.939	-111.988	0.184	0.037
-310.924	195.207	0.181	-0.273
-309.910	-65.294	0.177	-0.071
-308.895	267.453	-0.109	-0.190
-307.880	199.262	-0.097	-0.148
-306.866	-96.822	0.211	-0.055
-305.851	126.787	0.093	-0.118
-304.837	-200.000	-0.075	-0.415
-303.822	-150.958	0.240	-0.018
-302.807	-200.000	-0.059	0.497
-301.793	-45.925	0.331	0.163
-300.778	-96.596	-0.142	0.037
-299.764	125.380	-0.114	0.143
-298.749	-200.000	0.006	0.051
-297.735	90.726	-0.042	-0.046
-296.720	-64.348	0.409	-0.165
-295.705	411.334	0.110	-0.231
-294.691	-78.166	0.154	-0.053
-293.676	52.956	-0.064	0.061
-292.662	-200.000	-0.008	0.109
-291.647	155.401	-0.152	0.208
-290.632	-28.470	-0.090	-0.051
-289.618	-34.085	0.157	0.086
-288.603	256.016	0.116	0.198
-287.589	-114.401	0.052	-0.010
-286.574	-200.000	0.003	0.145
-285.559	-74.737	-0.228	-0.081
-284.545	58.420	-0.148	0.144
-283.530	419.187	0.163	0.346
-282.516	-22.267	-0.269	0.162
-281.501	89.949	-0.098	-0.109
-280.486	-31.826	-0.110	0.061
-279.472	-91.141	0.055	0.016
-278.457	-60.036	0.033	-0.014
-277.443	-107.754	-0.088	-0.019
-276.428	-174.947	0.030	0.001
-275.413	124.127	0.170	0.212
-274.399	-12.987	-0.351	0.227
-273.384	77.882	0.055	-0.058
-272.370	358.858	-0.192	0.381
-271.355	77.491	-0.174	0.184
-270.340	-200.000	-0.006	0.035
-269.326	306.611	0.102	-0.189
-268.311	-7.037	-0.193	0.130
-267.297	-58.653	-0.157	-0.067
-266.282	-17.580	0.158	-0.099
-265.267	-200.000	-0.038	0.196
-264.253	-200.000	0.037	-0.222
-263.238	-30.636	-0.309	0.174
-262.224	110.998	-0.195	0.233
-261.209	-200.000	0.034	-0.154
-260.195	-84.413	-0.129	0.040
-259.180	-86.402	-0.165	0.050
-258.165	-68.807	0.286	0.110
-257.151	-200.000	-0.017	-0.235
-256.136	-200.000	-0.012	-0.156
-255.122	-97.200	0.101	-0.026
-254.107	-56.682	-0.240	-0.105
-253.092	-47.323	-0.348	-0.168
-252.078	800.000	-0.068	0.245
-251.063	49.469	-0.228	0.213
-250.049	42.064	-0.091	0.082
-249.034	-200.000	0.000	-0.215
-248.019	45.207	0.105	0.096
-247.005	-77.473	0.096	0.033
-245.990	-159.749	-0.186	0.010
-244.976	800.000	-0.014	-0.056
-243.961	-85.507	-0.244	0.076
-242.946	800.000	0.050	-0.180
-241.932	84.683	-0.138	0.150
-240.917	-112.411	-0.342	0.068
-239.903	-200.000	0.007	0.196
-238.888	800.000	0.033	0.097
-237.873	-110.434	-0.294	-0.061
-236.859	-200.000	0.014	0.078
-235.844	124.269	-0.111	0.138
-234.830	-57.841	-0.133	-0.058
-233.815	579.855	0.018	0.043
-232.800	316.923	-0.128	0.240
-231.786	-63.755	0.129	0.052
-230.771	-200.000	0.003	0.228
-229.757	82.144	-0.125	-0.134
-228.742	158.805	-0.063	-0.087
-227.727	259.168	-0.035	0.059
-226.713	-200.000	-0.004	0.226
-225.698	-53.338	0.305	-0.139
-224.684	209.976	0.218	-0.339
-223.669	18.570	-0.068	-0.054
-222.655	-49.995	0.283	-0.133
-221.640	800.000	-0.038	0.151
-220.625	141.946	-0.100	0.131
-219.611	800.000	0.037	-0.131
-218.596	-114.662	-0.209	-0.040
-217.582	-64.066	0.478	0.193
-216.567	103.343	-0.126	0.147
-215.552	-11.419	0.277	0.181
-214.538	330.602	0.129	-0.245
-213.523	-200.000	-0.005	0.251
-212.509	-43.188	-0.363	-0.182
-211.494	136.382	0.355	-0.459
-210.479	-200.000	-0.029	0.443
-209.465	-163.016	-0.203	-0.010
-208.450	32.611	-0.162	0.138
-207.436	-61.076	0.217	0.091
-206.421	658.211	-0.110	-0.279
-205.406	451.680	-0.166	0.364
-204.392	-121.810	0.072	-0.012
-203.377	-200.000	-0.040	0.190
-202.363	331.943	-0.235	-0.449
-201.348	270.882	0.106	-0.186
-200.333	-119.490	0.370	0.064
-199.319	74.750	-0.028	-0.029
-198.304	193.511	0.131	0.197
-197.290	-100.065	0.045	-0.011
-196.275	77.942	0.207	0.219
-195.260	-200.000	-0.044	0.267
-194.246	101.315	0.226	0.260
-193.231	-111.786	-0.062	-0.012
-192.217	-200.000	0.068	-0.305
-191.202	-101.607	-0.057	-0.014
-190.187	800.000	-0.028	-0.093
-189.173	157.380	-0.112	-0.154
-188.158	104.722	0.232	0.271
-187.144	800.000	-0.066	0.261
-186.129	-133.536	-0.238	0.029
-185.114	123.529	0.019	-0.024
-184.100	-13.571	0.183	-0.117
-183.085	-200.000	-0.022	-0.321
-182.071	342.874	-0.107	0.207
-181.056	201.724	-0.064	0.098
-180.042	-75.239	0.217	0.077
-179.027	-65.029	0.270	-0.108
-178.012	115.232	0.241	-0.292
-176.998	152.483	0.065	-0.088
-175.983	800.000	0.041	-0.169
-174.969	117.846	0.057	0.069
-173.954	37.985	0.119	-0.105
-172.939	800.000	0.024	-0.087
-171.925	32.840	-0.379	0.325
-170.910	-138.331	-0.238	-0.026
-169.896	800.000	0.137	-0.382
-168.881	800.000	0.084	0.289
-167.866	55.535	-0.180	-0.173
-166.852	-43.732	-0.168	-0.084
-165.837	384.253	0.144	0.293
-164.823	-200.000	0.002	0.163
-163.808	-108.520	0.215	-0.046
-162.793	-135.863	-0.061	0.007
-161.779	83.695	0.147	-0.158
-160.764	-11.983	0.326	0.211
-159.750	700.698	0.045	-0.118
-158.735	-56.787	-0.138	-0.060
-157.720	73.660	0.222	0.230
-156.706	352.507	0.130	0.255
-155.691	-169.427	0.243	-0.009
-154.677	28.044	-0.125	0.104
-153.662	-115.477	0.285	-0.053
-152.647	-5.596	-0.198	-0.134
-151.633	-200.000	0.069	-0.310
-150.618	-137.407	0.143	-0.016
-149.604	-23.279	0.113	0.067
-148.589	800.000	0.114	0.396
-147.574	-200.000	0.001	0.059
-146.560	800.000	0.089	0.284
-145.545	-66.480	0.354	-0.139
-144.531	140.208	-0.176	0.230
-143.516	-200.000	0.000	0.053
-142.502	131.645	-0.038	-0.049
-141.487	197.718	-0.072	-0.109
-140.472	323.547	0.209	0.394
-139.458	246.688	-0.096	-0.160
-138.443	-200.000	-0.021	-0.104
-137.429	45.832	-0.424	-0.388
-136.414	-200.000	-0.008	-0.251
-135.399	-200.000	0.098	-0.542
-134.385	62.333	-0.130	-0.129
-133.370	174.012	-0.106	-0.151
-132.356	800.000	-0.043	-0.134
-131.341	75.792	0.137	-0.144
-130.326	7.276	-0.197	-0.145
-129.312	-200.000	0.036	0.163
-128.297	-164.077	0.252	0.012
-127.283	580.188	0.104	0.251
-126.268	59.688	-0.215	0.210
-125.253	-115.385	-0.262	-0.049
-124.239	276.044	0.108	-0.190
-123.224	-113.355	0.271	0.053
-122.210	-71.788	0.273	0.101
