DTS Sentinel unit serial number:	SN413079Multiplexer serial number:	ORYXHardware model number:	OX4-SRSoftware version number:	ORYX F/W v4.00 Oryx Data Collector v3.7.2.0data status	okinstallation	princeton_trtdifferential loss correction	single-endedforward channel	channel 1reverse channel	N/Adate	2019/09/16time	00:30:35forward acquisition time	60.00reverse acquisition time	0.00gamma	496.2192k internal	0.2334k external	0.2334temperature offset calibration	0.9975default loss term (dB/km)	0.3790temperature slope calibration	1.0000multiplexer offset coefficient	1.0000multiplexer slope coefficient	1.0000fibre end	0.00T internal ref (°C)	27.56T ext. ref 1 (°C)	9.56T ext. ref 2 (°C)	21.55length (m)	temperature (°C)	Stokes	anti-Stokes-747.200	-104.392	-0.344	-0.080
-746.185	-172.942	-0.248	-0.008
-745.171	95.144	-0.171	-0.196
-744.156	800.000	0.147	0.531
-743.142	80.638	0.064	-0.069
-742.127	-123.613	0.070	-0.011
-741.112	-200.000	-0.003	0.100
-740.098	615.658	-0.081	0.203
-739.083	-92.650	0.274	-0.077
-738.069	352.028	0.058	-0.116
-737.054	496.076	0.158	0.365
-736.039	648.890	0.151	-0.389
-735.025	155.710	0.141	0.195
-734.010	-48.712	-0.062	0.030
-732.996	-91.071	-0.321	-0.092
-731.981	-74.075	-0.587	0.214
-730.966	-200.000	0.024	-0.269
-729.952	129.112	0.308	0.395
-728.937	470.314	-0.142	-0.321
-727.923	265.897	0.072	-0.127
-726.908	-113.875	0.332	0.065
-725.894	-200.000	-0.018	-0.110
-724.879	185.090	0.105	0.156
-723.864	-200.000	-0.301	-0.001
-722.850	-72.919	-0.045	-0.016
-721.835	198.952	-0.118	-0.182
-720.821	-4.486	0.298	-0.207
-719.806	84.553	-0.191	-0.210
-718.791	-200.000	-0.008	0.060
-717.777	-36.393	-0.095	0.051
-716.762	-200.000	-0.002	-0.157
-715.748	97.593	0.017	-0.020
-714.733	-143.747	0.167	0.016
-713.718	183.155	-0.246	-0.365
-712.704	-34.008	0.065	-0.036
-711.689	307.563	-0.087	0.163
-710.675	-107.182	-0.130	0.029
-709.660	-125.014	-0.194	0.030
-708.645	-85.561	0.383	0.120
-707.631	-127.026	-0.128	0.019
-706.616	212.094	0.194	-0.307
-705.602	-136.840	-0.259	0.030
-704.587	-101.135	0.442	0.109
-703.572	151.580	-0.208	-0.285
-702.558	800.000	0.087	0.306
-701.543	315.941	0.150	-0.285
-700.529	104.756	-0.178	0.211
-699.514	172.312	0.035	-0.051
-698.499	190.643	-0.198	-0.299
-697.485	183.093	-0.085	0.127
-696.470	800.000	-0.052	-0.149
-695.456	-200.000	-0.004	0.114
-694.441	33.809	-0.204	-0.178
-693.426	800.000	0.054	-0.207
-692.412	-144.572	-0.336	0.031
-691.397	-200.000	-0.003	0.185
-690.383	-92.974	0.188	-0.053
-689.368	-56.997	-0.258	-0.114
-688.354	-124.492	-0.275	0.043
-687.339	116.092	0.089	0.109
-686.324	-155.056	0.185	0.012
-685.310	-23.951	-0.381	-0.229
-684.295	499.222	-0.066	0.153
-683.281	324.372	0.078	-0.149
-682.266	-87.351	0.080	-0.024
-681.251	-77.844	-0.461	-0.160
-680.237	-200.000	0.027	-0.245
-679.222	12.000	-0.099	-0.076
-678.208	408.545	-0.090	0.190
-677.193	7.157	-0.154	-0.115
-676.178	247.511	-0.092	-0.156
-675.164	-162.838	-0.328	0.016
-674.149	8.229	-0.196	-0.147
-673.135	-91.739	0.123	-0.035
-672.120	25.237	0.429	0.357
-671.105	-108.900	-0.064	-0.014
-670.091	43.532	0.052	0.048
-669.076	-58.943	-0.203	-0.088
-668.062	-93.800	-0.159	-0.044
-667.047	-35.473	-0.181	0.099
-666.032	-135.635	0.444	0.053
-665.018	-46.913	0.320	-0.157
-664.003	25.027	0.257	-0.214
-662.989	87.066	0.138	0.153
-661.974	-61.610	-0.087	-0.036
-660.959	-4.202	-0.078	0.054
-659.945	71.707	-0.055	0.057
-658.930	-92.458	-0.276	0.078
-657.916	76.528	0.110	-0.117
-656.901	800.000	-0.092	-0.377
-655.886	-121.625	0.430	0.071
-654.872	112.527	-0.235	-0.284
-653.857	50.692	-0.148	-0.140
-652.843	-200.000	-0.017	0.243
-651.828	-110.156	0.289	0.060
-650.814	12.403	0.068	-0.052
-649.799	-133.570	0.296	0.037
-648.784	245.342	-0.162	-0.274
-647.770	166.544	-0.087	-0.123
-646.755	-73.283	-0.219	-0.080
-645.741	193.029	-0.177	-0.268
-644.726	527.738	-0.103	-0.244
-643.711	-200.000	-0.033	0.194
-642.697	684.372	-0.058	0.150
-641.682	88.208	-0.350	0.389
-640.668	-200.000	-0.010	0.106
-639.653	-138.358	0.067	0.007
-638.638	-108.310	-0.275	0.059
-637.624	-81.552	0.083	-0.027
-636.609	323.690	-0.124	0.237
-635.595	-200.000	-0.033	-0.169
-634.580	-110.250	-0.298	0.062
-633.565	128.075	0.072	-0.092
-632.551	800.000	-0.029	0.095
-631.536	-200.000	0.024	0.155
-630.522	-200.000	-0.014	0.170
-629.507	-100.098	0.197	-0.049
-628.492	-200.000	-0.010	-0.229
-627.478	-200.000	0.053	0.300
-626.463	306.738	-0.051	-0.096
-625.449	-11.291	0.132	0.087
-624.434	285.770	0.119	0.215
-623.419	-43.800	-0.183	0.092
-622.405	13.266	0.068	0.053
-621.390	41.094	-0.357	0.323
-620.376	-46.168	-0.311	0.153
-619.361	535.791	0.125	0.298
-618.346	-200.000	-0.025	-0.285
-617.332	-200.000	0.001	0.324
-616.317	-166.056	-0.373	-0.016
-615.303	-58.849	-0.333	-0.144
-614.288	800.000	-0.081	0.260
-613.273	-37.324	-0.180	0.096
-612.259	-61.587	0.146	-0.061
-611.244	-111.422	0.147	0.030
-610.230	77.573	0.418	-0.445
-609.215	-86.611	-0.209	0.064
-608.201	38.584	-0.138	-0.123
-607.186	66.152	-0.062	0.063
-606.171	-111.774	0.514	-0.104
-605.157	-38.909	-0.154	-0.081
-604.142	73.007	-0.051	-0.053
-603.128	-84.221	-0.051	0.016
-602.113	-56.300	-0.295	0.131
-601.098	-66.762	0.180	0.071
-600.084	218.420	-0.080	0.127
-599.069	302.554	0.183	0.339
-598.055	-123.170	0.206	-0.033
-597.040	-118.239	0.090	-0.016
-596.025	-14.899	0.136	-0.087
-595.011	-114.248	-0.172	-0.033
-593.996	279.420	0.108	0.193
-592.982	417.922	-0.014	0.029
-591.967	172.014	0.299	0.430
-590.952	724.770	-0.041	0.108
-589.938	-26.394	-0.162	-0.095
-588.923	67.945	0.120	-0.123
-587.909	-174.478	0.415	0.012
-586.894	476.846	-0.021	0.047
-585.879	3.832	-0.342	-0.250
-584.865	233.597	0.079	-0.129
-583.850	287.733	0.080	0.145
-582.836	-149.206	0.206	0.016
-581.821	281.474	-0.076	-0.135
-580.806	-12.391	-0.178	0.116
-579.792	-73.261	0.175	-0.064
-578.777	31.341	0.269	0.231
-577.763	-88.240	-0.100	0.030
-576.748	-67.215	-0.413	-0.162
-575.733	-200.000	-0.018	0.179
-574.719	66.199	0.257	-0.260
-573.704	273.292	0.152	-0.269
-572.690	45.070	0.234	0.215
-571.675	45.373	0.144	-0.132
-570.661	-94.028	0.092	0.025
-569.646	-96.095	0.290	0.077
-568.631	-151.620	0.070	0.005
-567.617	-91.693	-0.209	0.059
-566.602	-200.000	0.017	-0.166
-565.588	-25.437	0.056	0.033
-564.573	-200.000	0.002	-0.137
-563.558	-200.000	-0.011	-0.321
-562.544	-174.289	-0.257	0.007
-561.529	232.391	0.131	0.215
-560.515	-200.000	0.008	0.203
-559.500	403.466	-0.194	0.407
-558.485	-200.000	0.036	-0.202
-557.471	800.000	0.089	-0.352
-556.456	800.000	-0.044	-0.157
-555.442	-102.031	0.123	-0.030
-554.427	-106.854	-0.156	0.034
-553.412	-84.810	-0.235	-0.074
-552.398	92.169	0.124	-0.140
-551.383	-200.000	0.019	0.220
-550.369	56.585	0.132	0.128
-549.354	-83.118	-0.160	-0.051
-548.339	428.715	0.042	0.090
-547.325	-133.974	-0.090	0.011
-546.310	32.743	0.036	-0.031
-545.296	-16.615	-0.195	-0.123
-544.281	-121.896	-0.316	0.052
-543.266	450.411	-0.119	0.263
-542.252	-49.124	0.194	0.093
-541.237	285.818	-0.102	0.183
-540.223	23.608	0.134	-0.110
-539.208	431.154	-0.134	0.290
-538.193	31.008	0.259	-0.221
-537.179	-48.963	-0.281	0.134
-536.164	-102.522	-0.413	0.098
-535.150	-94.142	0.126	-0.034
-534.135	27.083	0.275	-0.230
-533.121	35.271	-0.182	0.159
-532.106	341.733	-0.211	-0.411
-531.091	-71.434	-0.153	-0.057
-530.077	-200.000	0.019	0.105
-529.062	203.328	0.120	-0.185
-528.048	61.211	0.049	0.048
-527.033	-27.263	0.217	-0.126
-526.018	216.788	-0.342	-0.542
-525.004	125.635	0.089	-0.112
-523.989	149.104	-0.132	0.178
-522.975	38.060	-0.146	-0.129
-521.960	-200.000	-0.015	0.315
-520.945	-125.978	0.325	-0.049
-519.931	-200.000	-0.027	-0.162
-518.916	139.034	0.158	-0.207
-517.902	-78.532	-0.053	0.018
-516.887	44.606	0.129	-0.118
-515.872	-132.133	0.154	-0.020
-514.858	-95.066	-0.170	-0.046
-513.843	86.216	0.131	0.144
-512.829	170.156	-0.084	0.120
-511.814	111.668	0.382	-0.459
-510.799	-169.821	0.207	-0.007
-509.785	785.233	-0.068	-0.186
-508.770	800.000	-0.068	0.190
-507.756	165.929	-0.143	0.201
-506.741	-200.000	0.005	0.474
-505.726	165.404	0.231	-0.325
-504.712	145.760	0.111	0.148
-503.697	-200.000	0.022	0.097
-502.683	343.361	0.095	-0.186
-501.668	148.753	0.176	0.236
-500.653	-44.030	-0.098	0.049
-499.639	353.339	-0.083	0.164
-498.624	-63.353	-0.197	0.081
-497.610	-114.097	0.436	-0.084
-496.595	800.000	-0.091	-0.298
-495.581	174.105	-0.245	0.353
-494.566	800.000	-0.083	0.299
-493.551	800.000	0.046	0.136
-492.537	800.000	-0.119	-0.488
-491.522	800.000	-0.075	-0.272
-490.508	239.253	0.074	-0.122
-489.493	326.041	0.024	-0.046
-488.478	-35.833	-0.096	0.052
-487.464	59.000	0.170	0.166
-486.449	-24.391	-0.292	-0.173
-485.435	800.000	-0.029	0.102
-484.420	63.823	0.239	0.239
-483.405	-108.434	0.161	0.034
-482.391	230.221	-0.128	0.209
-481.376	-43.715	0.159	-0.080
-480.362	68.054	0.137	-0.140
-479.347	-137.281	-0.366	0.041
-478.332	-102.094	-0.445	0.107
-477.318	-76.056	0.152	0.053
-476.303	592.933	0.076	-0.186
-475.289	155.171	0.100	-0.136
-474.274	-24.417	0.323	-0.192
-473.259	-91.427	0.312	0.088
-472.245	800.000	-0.042	-0.146
-471.230	-200.000	0.249	0.001
-470.216	462.270	0.120	-0.265
-469.201	127.790	0.091	-0.115
-468.186	150.410	0.208	0.281
-467.172	-126.081	-0.220	0.033
-466.157	-41.066	0.070	-0.036
-465.143	800.000	0.014	-0.044
-464.128	13.256	0.055	-0.042
-463.113	711.821	-0.114	0.299
-462.099	565.778	-0.182	0.438
-461.084	472.458	0.077	0.173
-460.070	132.690	0.152	-0.195
-459.055	103.434	0.070	-0.081
-458.040	-200.000	-0.002	0.140
-457.026	-90.768	0.341	0.098
-456.011	-28.186	-0.142	-0.082
-454.997	-109.233	0.151	-0.032
-453.982	113.352	-0.082	-0.098
-452.968	91.467	0.183	0.204
-451.953	174.295	-0.173	0.248
-450.938	-84.020	-0.200	0.063
-449.924	-108.453	-0.145	0.031
-448.909	-51.580	0.160	0.074
-447.895	-200.000	-0.051	-0.349
-446.880	2.083	0.086	-0.062
-445.865	170.212	-0.064	-0.090
-444.851	16.005	-0.494	-0.387
-443.836	-131.238	-0.330	0.044
-442.822	-74.904	-0.431	0.154
-441.807	417.900	-0.250	0.531
-440.792	223.688	-0.130	0.208
-439.778	16.326	-0.062	0.049
-438.763	-103.330	0.170	0.040
-437.749	335.619	-0.153	-0.296
-436.734	144.305	-0.225	0.299
-435.719	28.294	0.091	0.077
-434.705	150.562	0.140	-0.189
-433.690	159.238	-0.155	-0.214
-432.676	-0.826	0.068	-0.048
-431.661	155.089	-0.186	0.254
-430.646	-200.000	0.243	-0.001
-429.632	-200.000	0.094	0.000
-428.617	800.000	0.104	-0.437
-427.603	509.952	0.016	0.036
-426.588	-144.477	0.106	0.010
-425.573	-109.416	-0.140	-0.029
-424.559	62.004	0.102	-0.101
-423.544	-200.000	-0.024	-0.280
-422.530	-200.000	-0.004	-0.410
-421.515	95.619	0.315	-0.356
-420.500	150.101	0.132	-0.178
-419.486	-169.489	0.086	0.003
-418.471	401.673	-0.161	0.335
-417.457	-100.365	0.419	-0.103
-416.442	-44.042	-0.184	-0.092
-415.428	-200.000	-0.007	0.318
-414.413	-200.000	0.023	-0.147
-413.398	337.862	0.097	0.186
-412.384	156.393	0.092	0.126
-411.369	677.047	-0.089	-0.229
-410.355	8.959	-0.285	-0.213
-409.340	-86.447	-0.219	0.067
-408.325	800.000	0.019	0.068
-407.311	-182.575	0.327	0.006
-406.296	-22.006	-0.074	0.045
-405.282	20.035	0.074	-0.059
-404.267	-92.242	-0.315	0.088
-403.252	-200.000	-0.031	-0.253
-402.238	-200.000	-0.075	-0.344
-401.223	-200.000	0.044	0.395
-400.209	181.910	0.235	0.344
-399.194	147.218	0.114	0.152
-398.179	522.094	-0.033	0.077
-397.165	-58.959	-0.025	-0.011
-396.150	-200.000	0.034	-0.178
-395.136	-111.355	0.165	0.033
-394.121	-94.279	-0.122	0.033
-393.106	41.787	-0.193	-0.174
-392.092	46.435	-0.156	0.144
-391.077	74.684	-0.160	0.166
-390.063	800.000	0.059	0.199
-389.048	-200.000	-0.033	-0.220
-388.033	136.894	0.205	-0.265
-387.019	800.000	-0.056	0.236
-386.004	6.902	-0.142	0.105
-384.990	-5.453	0.172	-0.117
-383.975	435.733	-0.112	0.242
-382.960	-91.968	0.122	-0.034
-381.946	435.451	-0.098	0.211
-380.931	-200.000	-0.037	0.205
-379.917	-200.000	-0.031	-0.169
-378.902	192.510	0.155	0.232
-377.888	456.148	-0.158	-0.348
-376.873	15.924	0.347	-0.271
-375.858	33.374	-0.241	-0.207
-374.844	20.060	-0.131	0.104
-373.829	-27.459	0.059	0.034
-372.815	325.381	-0.127	0.241
-371.800	193.268	-0.045	-0.068
-370.785	435.711	-0.075	0.162
-369.771	9.020	-0.186	-0.139
-368.756	-91.223	0.351	-0.099
-367.742	-200.000	-0.085	0.404
-366.727	-200.000	0.028	-0.239
-365.712	-200.000	0.015	0.350
-364.698	-56.161	0.319	0.141
-363.683	-71.635	0.180	-0.067
-362.669	-200.000	-0.066	-0.301
-361.654	-200.000	0.029	0.297
-360.639	-200.000	-0.031	-0.291
-359.625	83.452	-0.194	0.209
-358.610	-59.511	-0.164	-0.070
-357.596	185.471	0.129	0.190
-356.581	-200.000	0.013	0.094
-355.566	-124.788	0.081	0.012
-354.552	-69.495	0.336	-0.128
-353.537	800.000	-0.065	0.250
-352.523	-110.014	-0.018	0.004
-351.508	463.346	0.109	0.240
-350.493	59.247	0.154	-0.150
-349.479	775.710	-0.062	0.169
-348.464	-200.000	-0.038	0.278
-347.450	39.110	0.228	-0.201
-346.435	-63.840	-0.503	0.204
-345.420	88.520	0.144	0.159
-344.406	800.000	0.128	0.501
-343.391	-200.000	-0.020	-0.145
-342.377	-146.783	0.210	0.018
-341.362	25.079	-0.190	-0.156
-340.348	512.088	-0.175	-0.403
-339.333	53.319	0.055	-0.052
-338.318	800.000	-0.080	0.243
-337.304	-19.294	-0.070	0.043
-336.289	800.000	0.041	0.151
-335.275	-108.241	-0.337	-0.072
-334.260	-0.306	0.085	-0.060
-333.245	65.285	-0.142	-0.142
-332.231	43.910	0.152	-0.138
-331.216	169.836	-0.193	0.273
-330.202	800.000	0.055	0.170
-329.187	219.100	0.222	-0.351
-328.172	-114.005	-0.246	0.047
-327.158	-122.006	0.374	0.061
-326.143	800.000	-0.061	-0.196
-325.129	23.114	-0.079	0.064
-324.114	564.292	-0.064	-0.154
-323.099	-24.094	-0.120	-0.071
-322.085	-95.026	-0.167	-0.045
-321.070	622.250	-0.139	-0.345
-320.056	117.202	-0.238	0.290
-319.041	-200.000	0.019	0.148
-318.026	-31.975	0.236	0.130
-317.012	276.019	0.108	-0.189
-315.997	-70.377	-0.021	-0.008
-314.983	-110.565	-0.108	0.022
-313.968	-200.000	0.042	0.361
-312.953	0.197	0.271	0.191
-311.939	-92.920	0.190	-0.052
-310.924	-51.235	0.128	0.059
-309.910	-150.887	0.173	0.013
-308.895	69.829	0.132	-0.134
-307.880	-1.861	-0.334	-0.232
-306.866	-140.551	0.292	0.030
-305.851	-200.000	-0.076	-0.349
-304.837	11.330	-0.076	0.058
-303.822	-69.609	-0.106	-0.040
-302.807	-192.075	0.047	-0.000
-301.793	-167.679	0.292	0.011
-300.778	-200.000	-0.003	0.044
-299.764	-17.615	0.224	-0.139
-298.749	29.317	-0.322	0.270
-297.735	13.175	0.127	-0.097
-296.720	-116.750	-0.306	-0.055
-295.705	286.486	-0.045	0.080
-294.691	26.824	-0.171	-0.142
-293.676	-69.109	0.068	0.026
-292.662	-24.620	0.174	-0.102
-291.647	-200.000	-0.016	0.126
-290.632	238.762	0.086	-0.141
-289.618	-87.177	0.108	-0.032
-288.603	-7.388	0.229	0.153
-287.589	-128.983	0.295	-0.041
-286.574	-200.000	-0.024	0.228
-285.559	-151.308	0.107	-0.008
-284.545	24.825	-0.188	-0.154
-283.530	194.468	-0.195	-0.292
-282.516	103.415	0.165	-0.191
-281.501	391.629	-0.061	-0.124
-280.486	15.171	0.257	-0.198
-279.472	-200.000	0.306	-0.001
-278.457	-200.000	-0.027	-0.147
-277.443	163.531	-0.100	0.139
-276.428	-92.473	0.131	-0.036
-275.413	-84.609	-0.182	0.057
-274.399	-200.000	-0.000	-0.047
-273.384	475.593	-0.078	-0.173
-272.370	113.157	0.123	0.147
-271.355	29.664	0.068	0.057
-270.340	-87.197	-0.258	0.077
-269.326	95.593	-0.147	0.165
-268.311	358.261	-0.196	0.387
-267.297	33.130	0.078	0.067
-266.282	-85.197	-0.393	0.121
-265.267	-147.417	0.256	-0.021
-264.253	-93.058	0.209	-0.057
-263.238	31.089	0.256	-0.216
-262.224	163.824	-0.154	-0.213
-261.209	45.935	0.070	-0.064
-260.195	146.345	0.160	-0.212
-259.180	162.994	-0.151	-0.209
-258.165	49.039	-0.076	-0.070
-257.151	800.000	0.089	-0.327
-256.136	188.893	-0.095	-0.140
-255.122	800.000	0.074	-0.203
-254.107	4.655	0.120	0.087
-253.092	-200.000	0.006	0.213
-252.078	85.147	-0.168	0.182
-251.063	-200.000	-0.029	0.258
-250.049	-200.000	0.009	0.224
-249.034	-40.742	0.199	-0.102
-248.019	-154.790	-0.136	0.009
-247.005	800.000	0.016	-0.068
-245.990	-90.380	-0.062	-0.018
-244.976	59.102	-0.177	-0.171
-243.961	55.690	-0.253	-0.242
-242.946	78.942	0.191	0.201
-241.932	-20.903	-0.207	0.125
-240.917	-173.612	0.096	-0.003
-239.903	172.471	-0.075	0.106
-238.888	256.152	0.154	-0.260
-237.873	-108.644	-0.237	-0.050
-236.859	-57.291	-0.320	-0.139
-235.844	-200.000	0.001	-0.291
-234.830	440.521	0.095	0.204
-233.815	-87.505	0.203	0.060
-232.800	800.000	0.083	0.248
-231.786	743.239	0.102	-0.270
-230.771	800.000	-0.032	0.102
-229.757	445.067	0.084	0.182
-228.742	285.355	-0.088	-0.156
-227.727	800.000	0.013	0.036
-226.713	800.000	0.113	0.404
-225.698	-165.090	0.068	-0.003
-224.684	-200.000	-0.012	0.094
-223.669	-82.549	-0.209	-0.067
-222.655	-10.613	-0.159	0.103
-221.640	-111.362	-0.279	-0.056
-220.625	147.828	-0.162	0.216
-219.611	-75.376	0.484	-0.170
-218.596	68.586	-0.301	-0.304
-217.582	249.535	0.033	-0.055
-216.567	800.000	0.058	-0.200
-215.552	-200.000	0.086	-0.396
-214.538	800.000	0.014	0.053
-213.523	-200.000	0.045	0.203
-212.509	42.387	0.104	0.093
-211.494	-75.671	-0.342	-0.120
-210.479	-89.733	0.134	-0.039
-209.465	-84.088	0.239	0.075
-208.450	-8.505	0.211	-0.140
-207.436	-200.000	-0.001	-0.301
-206.421	309.163	-0.179	-0.329
-205.406	800.000	0.109	0.332
-204.392	-44.565	-0.126	0.062
-203.377	800.000	0.151	-0.590
-202.363	-107.524	0.504	-0.109
-201.348	133.106	-0.203	-0.258
-200.333	166.316	0.142	0.198
-199.319	-7.530	0.327	-0.218
-198.304	83.204	-0.251	0.269
-197.290	134.690	0.177	0.226
-196.275	175.979	-0.201	-0.287
-195.260	800.000	0.060	0.180
-194.246	-67.440	-0.549	-0.212
-193.231	623.126	0.097	-0.241
-192.217	9.264	-0.149	0.111
-191.202	622.844	-0.165	-0.409
-190.187	-39.274	-0.069	-0.036
-189.173	73.467	-0.291	0.300
-188.158	-9.894	0.143	0.093
-187.144	-135.619	0.207	0.024
-186.129	-106.168	-0.448	0.099
-185.114	800.000	0.046	-0.145
-184.100	-28.429	-0.180	-0.102
-183.085	660.242	-0.056	0.142
-182.071	122.167	0.275	0.337
-181.056	-92.439	0.250	-0.069
-180.042	-200.000	0.043	-0.329
-179.027	140.995	-0.090	-0.117
-178.012	351.503	0.026	0.052
-176.998	77.372	-0.050	-0.052
-175.983	32.917	0.251	0.214
-174.969	800.000	0.062	-0.208
-173.954	-5.155	-0.295	0.200
-172.939	532.942	-0.050	-0.117
-171.925	-127.381	0.212	0.030
-170.910	-26.911	-0.403	0.231
-169.896	-2.513	0.202	-0.139
-168.881	-5.940	-0.040	-0.027
-167.866	800.000	0.047	-0.133
-166.852	532.697	0.149	0.347
-165.837	162.734	0.158	0.219
-164.823	77.300	0.283	0.296
-163.808	-200.000	-0.044	0.193
-162.793	-74.475	-0.161	0.057
-161.779	129.684	0.207	-0.260
-160.764	33.788	0.054	-0.046
-159.750	-200.000	-0.015	-0.083
-158.735	-200.000	0.008	-0.260
-157.720	18.944	0.028	0.022
-156.706	121.637	-0.056	0.068
-155.691	-200.000	0.041	0.334
-154.677	800.000	0.060	0.195
-153.662	14.367	-0.126	-0.097
-152.647	800.000	0.082	-0.244
-151.633	-85.289	0.078	-0.024
-150.618	73.432	0.142	-0.146
-149.604	-200.000	-0.041	-0.473
-148.589	123.023	0.135	-0.166
-147.574	90.089	-0.210	0.231
-146.560	137.376	0.338	-0.434
-145.545	-200.000	-0.032	-0.149
-144.531	7.849	0.048	-0.036
-143.516	78.809	-0.136	-0.143
-142.502	-135.677	0.377	0.044
-141.487	38.447	0.168	0.147
-140.472	30.956	0.172	0.145
-139.458	274.057	-0.017	0.030
-138.443	6.248	0.238	-0.173
-137.429	800.000	-0.111	-0.419
-136.414	800.000	-0.065	-0.266
-135.399	679.518	-0.094	-0.241
-134.385	-191.571	-0.363	0.004
-133.370	-20.470	-0.181	-0.109
-132.356	-66.692	-0.057	0.022
-131.341	-200.000	-0.057	0.471
-130.326	-67.122	0.183	0.071
-129.312	337.573	0.098	0.186
-128.297	43.045	-0.188	-0.168
-127.283	800.000	0.060	-0.204
-126.268	166.498	-0.158	-0.220
-125.253	165.975	-0.107	0.149
-124.239	330.577	-0.181	-0.342
-123.224	379.529	0.053	0.106
-122.210	123.963	0.089	0.110
-121.195	800.000	0.015	0.052
-120.180	106.508	0.133	0.154
