DTS Sentinel unit serial number:	SN413079Multiplexer serial number:	ORYXHardware model number:	OX4-SRSoftware version number:	ORYX F/W v4.00 Oryx Data Collector v3.7.2.0data status	okinstallation	princeton_trtdifferential loss correction	single-endedforward channel	channel 1reverse channel	N/Adate	2019/09/15time	06:10:35forward acquisition time	60.00reverse acquisition time	0.00gamma	496.2192k internal	0.2325k external	0.2325temperature offset calibration	0.9992default loss term (dB/km)	0.3790temperature slope calibration	1.0000multiplexer offset coefficient	1.0000multiplexer slope coefficient	1.0000fibre end	0.00T internal ref (°C)	30.56T ext. ref 1 (°C)	4.82T ext. ref 2 (°C)	25.04length (m)	temperature (°C)	Stokes	anti-Stokes-747.200	800.000	0.076	0.266
-746.185	143.085	0.150	0.202
-745.171	800.000	0.067	-0.276
-744.156	107.277	-0.042	-0.050
-743.142	-200.000	-0.035	0.246
-742.127	39.918	0.136	0.124
-741.112	-200.000	0.023	-0.216
-740.098	-57.724	0.143	0.063
-739.083	-73.652	0.402	-0.148
-738.069	-122.368	-0.138	-0.023
-737.054	-152.503	-0.425	0.031
-736.039	-15.604	-0.102	-0.066
-735.025	60.919	-0.180	0.181
-734.010	-38.442	-0.167	0.089
-732.996	800.000	-0.055	-0.224
-731.981	189.113	-0.119	-0.180
-730.966	305.128	-0.203	0.381
-729.952	-95.689	-0.232	-0.063
-728.937	800.000	-0.078	0.287
-727.923	800.000	0.011	0.046
-726.908	-78.755	0.277	0.095
-725.894	-107.737	-0.295	-0.065
-724.879	-4.201	-0.066	-0.046
-723.864	-140.008	0.357	0.038
-722.850	800.000	-0.090	0.256
-721.835	-200.000	0.065	-0.303
-720.821	-164.782	0.194	-0.009
-719.806	-200.000	-0.131	-0.592
-718.791	459.356	-0.169	-0.379
-717.777	209.037	0.124	-0.195
-716.762	800.000	-0.080	-0.285
-715.748	492.205	-0.100	0.230
-714.733	-50.231	0.070	-0.033
-713.718	61.504	-0.161	0.161
-712.704	-105.020	0.397	0.092
-711.689	-156.003	0.193	-0.012
-710.675	-200.000	-0.012	-0.197
-709.660	-54.844	-0.188	-0.086
-708.645	0.339	0.137	-0.099
-707.631	-76.740	-0.142	0.050
-706.616	92.331	0.266	-0.302
-705.602	43.233	0.417	-0.384
-704.587	707.689	0.074	0.196
-703.572	0.261	0.152	-0.109
-702.558	-100.029	-0.058	-0.015
-701.543	685.739	0.089	0.235
-700.529	335.944	0.144	-0.282
-699.514	-92.486	0.068	0.019
-698.499	-200.000	0.034	-0.270
-697.485	-85.279	-0.196	-0.062
-696.470	227.887	-0.150	0.246
-695.456	-114.702	-0.089	-0.017
-694.441	73.439	0.089	0.094
-693.426	-200.000	0.005	-0.173
-692.412	5.344	0.209	0.155
-691.397	-40.073	0.097	-0.051
-690.383	-159.989	0.081	0.004
-689.368	-31.051	-0.221	0.125
-688.354	177.136	0.210	-0.308
-687.339	800.000	0.111	-0.381
-686.324	-87.997	-0.429	-0.130
-685.310	18.176	-0.082	0.066
-684.295	-54.139	-0.114	0.052
-683.281	66.169	-0.174	0.178
-682.266	23.316	-0.081	-0.067
-681.251	800.000	0.142	-0.522
-680.237	-169.677	-0.359	-0.013
-679.222	-155.844	0.206	0.013
-678.208	-20.347	-0.160	0.099
-677.193	-139.332	-0.258	-0.028
-676.178	551.120	-0.043	0.103
-675.164	287.633	0.075	0.137
-674.149	465.265	0.175	-0.394
-673.135	-20.668	-0.210	0.130
-672.120	596.940	-0.008	-0.020
-671.105	101.216	-0.094	-0.110
-670.091	-148.752	0.088	-0.007
-669.076	-200.000	0.001	-0.090
-668.062	-97.093	-0.182	0.048
-667.047	-112.470	-0.190	0.038
-666.032	60.486	0.077	-0.077
-665.018	-200.000	0.031	0.287
-664.003	54.045	-0.123	0.119
-662.989	-200.000	0.009	0.077
-661.974	-130.277	-0.240	-0.033
-660.959	-200.000	0.009	0.249
-659.945	800.000	-0.082	-0.277
-658.930	800.000	0.021	-0.064
-657.916	-13.808	-0.128	0.083
-656.901	70.068	0.118	-0.122
-655.886	-48.260	-0.271	-0.132
-654.872	-20.318	0.278	0.172
-653.857	-86.572	-0.201	0.062
-652.843	800.000	-0.061	0.196
-651.828	59.983	0.143	0.142
-650.814	54.075	-0.143	-0.139
-649.799	-77.711	-0.256	-0.089
-648.784	800.000	-0.056	-0.240
-647.770	-200.000	-0.007	-0.223
-646.755	-60.555	0.069	-0.029
-645.741	162.812	-0.114	-0.161
-644.726	183.621	0.057	-0.085
-643.711	285.246	-0.042	0.075
-642.697	-144.828	-0.295	0.027
-641.682	338.418	0.055	-0.108
-640.668	-200.000	-0.035	0.282
-639.653	47.211	0.105	0.098
-638.638	317.828	-0.124	-0.235
-637.624	41.552	-0.176	0.160
-636.609	-31.272	-0.311	-0.176
-635.595	8.678	0.459	-0.347
-634.580	800.000	-0.119	-0.406
-633.565	200.454	0.101	-0.156
-632.551	-200.000	0.029	-0.149
-631.536	29.185	0.093	-0.079
-630.522	-200.000	-0.008	-0.180
-629.507	60.432	-0.180	-0.179
-628.492	800.000	-0.065	0.182
-627.478	-141.465	-0.102	0.010
-626.463	362.734	-0.024	0.049
-625.449	-104.833	-0.433	-0.100
-624.434	-200.000	-0.137	-0.000
-623.419	-126.872	0.145	-0.021
-622.405	610.518	0.117	-0.293
-621.390	-100.610	-0.293	0.073
-620.376	-89.561	-0.238	0.070
-619.361	-200.000	-0.049	0.246
-618.346	-124.248	0.258	-0.041
-617.332	-173.269	0.059	-0.002
-616.317	50.862	-0.082	-0.078
-615.303	95.267	-0.254	-0.290
-614.288	-141.690	0.187	-0.019
-613.273	-46.313	-0.281	-0.139
-612.259	43.262	-0.054	0.049
-611.244	5.125	-0.177	0.131
-610.230	-18.274	-0.184	-0.115
-609.215	335.001	-0.108	0.210
-608.201	40.781	0.385	0.348
-607.186	-200.000	-0.076	-0.365
-606.171	-200.000	0.035	-0.223
-605.157	111.069	0.122	-0.147
-604.142	172.339	-0.250	-0.361
-603.128	258.955	0.149	0.258
-602.113	800.000	0.061	0.239
-601.098	254.922	0.230	-0.396
-600.084	110.126	-0.239	-0.288
-599.069	26.373	-0.023	-0.019
-598.055	800.000	0.080	0.257
-597.040	458.813	0.167	0.372
-596.025	-200.000	0.003	-0.197
-595.011	658.914	-0.132	0.340
-593.996	-39.030	0.161	0.085
-592.982	-103.493	-0.367	-0.087
-591.967	-24.873	-0.192	0.114
-590.952	-200.000	0.033	0.537
-589.938	441.147	0.069	0.152
-588.923	-104.249	0.106	0.025
-587.909	-43.838	-0.159	-0.080
-586.894	-200.000	-0.000	0.242
-585.879	-200.000	-0.014	-0.181
-584.865	-171.631	-0.144	-0.005
-583.850	-17.834	0.113	0.071
-582.836	-88.351	-0.081	-0.024
-581.821	-37.494	0.453	-0.242
-580.806	92.746	-0.120	-0.135
-579.792	35.453	-0.120	0.106
-578.777	393.050	0.076	-0.158
-577.763	154.131	-0.181	-0.249
-576.748	150.789	0.129	0.176
-575.733	-200.000	0.012	0.422
-574.719	-183.826	0.191	0.003
-573.704	-66.582	0.158	0.063
-572.690	-174.341	0.138	0.004
-571.675	-172.071	-0.312	-0.010
-570.661	-148.689	-0.226	-0.018
-569.646	-21.938	-0.242	0.147
-568.631	800.000	0.032	-0.138
-567.617	-72.689	-0.216	-0.080
-566.602	-200.000	0.043	-0.283
-565.588	-101.684	-0.307	-0.075
-564.573	-200.000	0.002	-0.244
-563.558	-200.000	0.024	-0.201
-562.544	-120.083	0.199	-0.034
-561.529	18.593	0.268	-0.215
-560.515	153.594	-0.047	0.065
-559.500	-98.259	0.364	0.094
-558.485	88.897	-0.138	0.154
-557.471	-58.058	0.424	0.185
-556.456	293.462	0.054	-0.098
-555.442	-200.000	0.015	-0.146
-554.427	-16.770	-0.092	0.058
-553.412	-123.569	-0.167	0.027
-552.398	-77.651	0.208	-0.072
-551.383	560.052	0.107	-0.259
-550.369	100.701	0.096	0.111
-549.354	-35.705	-0.286	-0.156
-548.339	390.536	0.085	0.177
-547.325	82.558	0.345	0.375
-546.310	13.600	0.308	-0.240
-545.296	-10.137	0.133	-0.089
-544.281	800.000	-0.112	-0.337
-543.266	-127.010	-0.210	0.031
-542.252	677.934	0.114	0.296
-541.237	528.178	0.110	-0.259
-540.223	199.910	0.050	-0.077
-539.208	639.213	-0.036	-0.091
-538.193	218.844	0.073	-0.116
-537.179	-120.687	0.132	0.022
-536.164	-200.000	-0.013	0.092
-535.150	108.265	0.059	0.070
-534.135	796.195	0.080	-0.220
-533.121	252.097	-0.086	0.146
-532.106	-100.662	-0.305	-0.075
-531.091	-200.000	0.100	-0.441
-530.077	-200.000	0.013	-0.085
-529.062	65.919	-0.159	0.161
-528.048	800.000	0.054	0.179
-527.033	-33.712	-0.180	0.099
-526.018	-37.074	0.125	-0.067
-525.004	-200.000	0.054	0.396
-523.989	-80.906	-0.204	0.068
-522.975	205.507	-0.067	0.105
-521.960	58.578	0.091	-0.090
-520.945	58.192	-0.161	0.158
-519.931	800.000	-0.098	-0.313
-518.916	-29.806	-0.098	-0.056
-517.902	800.000	0.052	-0.151
-516.887	178.856	-0.019	-0.028
-515.872	800.000	0.046	-0.139
-514.858	-200.000	0.061	-0.336
-513.843	118.843	-0.230	-0.284
-512.829	-50.410	0.225	0.106
-511.814	-200.000	-0.027	-0.132
-510.799	-118.136	-0.230	0.041
-509.785	599.771	-0.019	-0.048
-508.770	169.600	0.195	-0.278
-507.756	517.587	0.166	0.389
-506.741	-36.239	0.176	-0.095
-505.726	74.082	0.101	0.106
-504.712	-107.533	-0.328	-0.072
-503.697	800.000	0.099	0.336
-502.683	-200.000	0.028	0.339
-501.668	-200.000	0.003	0.135
-500.653	-200.000	0.046	0.352
-499.639	-200.000	-0.036	-0.209
-498.624	-200.000	-0.038	0.186
-497.610	103.216	0.235	0.275
-496.595	-200.000	-0.034	0.184
-495.581	-45.900	-0.115	-0.057
-494.566	-24.223	-0.070	-0.041
-493.551	-200.000	-0.057	-0.337
-492.537	-200.000	-0.014	0.272
-491.522	-169.321	-0.064	0.002
-490.508	-115.285	0.163	-0.031
-489.493	-200.000	0.000	-0.092
-488.478	310.373	0.073	-0.137
-487.464	-75.682	-0.388	-0.138
-486.449	108.264	0.159	-0.189
-485.435	18.558	-0.177	0.141
-484.420	-200.000	0.008	0.208
-483.405	-146.239	0.347	-0.030
-482.391	-12.111	-0.154	-0.101
-481.376	-200.000	-0.056	0.272
-480.362	57.417	-0.065	-0.064
-479.347	240.413	0.116	0.193
-478.332	253.309	-0.111	0.190
-477.318	50.708	0.132	0.124
-476.303	3.983	-0.088	0.064
-475.289	470.081	0.063	-0.142
-474.274	-97.411	0.363	0.094
-473.259	800.000	-0.056	0.199
-472.245	-200.000	0.018	0.228
-471.230	-47.265	-0.131	0.064
-470.216	15.657	-0.215	0.169
-469.201	-200.000	0.055	0.246
-468.186	800.000	0.068	-0.238
-467.172	-137.255	0.367	-0.042
-466.157	785.935	-0.053	-0.146
-465.143	-102.890	0.291	-0.069
-464.128	440.275	0.120	0.262
-463.113	-28.025	-0.117	0.068
-462.099	-133.360	0.242	-0.030
-461.084	-68.928	-0.361	-0.139
-460.070	-154.466	0.409	-0.027
-459.055	162.105	0.060	-0.084
-458.040	-38.575	0.303	-0.160
-457.026	-200.000	0.005	-0.191
-456.011	-18.282	0.077	-0.048
-454.997	-200.000	-0.050	-0.230
-453.982	-160.314	-0.224	-0.012
-452.968	-45.786	-0.107	0.053
-451.953	144.645	0.187	0.249
-450.938	-110.055	0.145	0.030
-449.924	270.812	0.086	-0.151
-448.909	-155.580	0.412	-0.026
-447.895	113.723	0.104	-0.126
-446.880	426.755	0.153	-0.330
-445.865	115.337	-0.103	-0.125
-444.851	-82.775	-0.120	-0.039
-443.836	800.000	-0.105	-0.346
-442.822	-200.000	0.009	-0.175
-441.807	-200.000	0.050	0.220
-440.792	23.232	0.343	-0.281
-439.778	-60.509	-0.087	0.037
-438.763	86.664	0.168	0.185
-437.749	92.659	0.170	0.192
-436.734	-102.144	-0.056	-0.013
-435.719	-200.000	-0.029	0.226
-434.705	-42.824	-0.110	0.056
-433.690	-99.017	0.225	-0.057
-432.676	483.290	0.089	-0.202
-431.661	98.598	-0.054	0.062
-430.646	252.028	-0.138	-0.235
-429.632	-200.000	0.011	-0.146
-428.617	328.309	-0.063	-0.120
-427.603	-29.430	-0.254	0.145
-426.588	7.919	-0.125	0.093
-425.573	-200.000	-0.010	-0.100
-424.559	-85.830	0.111	0.034
-423.544	-200.000	0.035	-0.261
-422.530	-53.965	-0.200	0.091
-421.515	-200.000	0.083	0.370
-420.500	-102.285	0.624	0.149
-419.486	129.297	-0.044	-0.056
-418.471	216.271	0.084	-0.133
-417.457	-68.012	-0.112	-0.044
-416.442	-23.533	0.126	-0.075
-415.428	800.000	0.031	0.094
-414.413	-115.278	0.194	-0.037
-413.398	144.064	-0.093	0.124
-412.384	379.952	0.123	0.251
-411.369	-17.237	0.208	0.131
-410.355	48.565	-0.120	0.112
-409.340	800.000	0.105	0.291
-408.325	-75.741	-0.162	0.057
-407.311	205.977	0.105	-0.163
-406.296	140.816	0.101	0.133
-405.282	-77.361	-0.266	0.092
-404.267	-37.144	0.184	0.098
-403.252	-200.000	-0.015	-0.427
-402.238	93.046	-0.212	0.239
-401.223	-129.418	-0.198	-0.027
-400.209	616.482	0.037	0.092
-399.194	-14.427	0.264	-0.169
-398.179	153.870	-0.106	0.144
-397.165	-200.000	0.012	0.112
-396.150	-145.002	0.129	0.012
-395.136	-70.753	0.213	0.080
-394.121	-200.000	0.050	-0.315
-393.106	-39.433	-0.135	0.070
-392.092	9.885	0.250	0.189
-391.077	-62.947	-0.209	0.086
-390.063	81.582	0.257	0.277
-389.048	13.584	-0.115	0.089
-388.033	-32.629	-0.093	-0.051
-387.019	246.269	-0.085	-0.143
-386.004	-118.836	0.092	0.016
-384.990	204.378	0.131	0.202
-383.975	-200.000	0.003	0.218
-382.960	57.294	-0.053	0.051
-381.946	-114.950	0.226	-0.043
-380.931	-0.153	0.106	-0.075
-379.917	-104.085	-0.392	0.091
-378.902	101.898	0.229	-0.266
-377.888	-200.000	-0.014	-0.099
-376.873	800.000	-0.015	0.056
-375.858	800.000	-0.063	0.190
-374.844	-143.980	-0.247	0.023
-373.829	-168.123	0.127	-0.005
-372.815	461.750	-0.066	0.146
-371.800	298.596	0.090	-0.164
-370.785	69.499	-0.098	0.100
-369.771	59.572	-0.289	-0.284
-368.756	79.160	-0.062	-0.066
-367.742	360.143	0.170	-0.338
-366.727	-132.738	0.073	0.009
-365.712	-116.947	0.104	0.019
-364.698	253.021	-0.123	0.209
-363.683	122.800	0.155	0.193
-362.669	27.698	0.080	-0.067
-361.654	125.572	-0.141	-0.177
-360.639	211.934	0.069	-0.108
-359.625	81.189	-0.124	-0.133
-358.610	-80.311	-0.117	-0.039
-357.596	-135.071	-0.164	-0.020
-356.581	800.000	0.023	-0.093
-355.566	800.000	-0.018	0.055
-354.552	-199.116	-0.189	0.001
-353.537	49.525	0.081	-0.075
-352.523	800.000	-0.140	0.426
-351.508	-101.226	0.361	0.088
-350.493	-181.099	-0.293	-0.006
-349.479	-200.000	0.012	0.150
-348.464	292.540	-0.097	-0.175
-347.450	214.879	-0.189	0.298
-346.435	-32.505	-0.343	0.190
-345.420	-57.731	0.174	0.076
-344.406	-176.789	-0.019	-0.000
-343.391	-124.868	-0.159	0.024
-342.377	-200.000	0.004	-0.188
-341.362	-200.000	-0.009	0.128
-340.348	248.258	-0.131	-0.220
-339.333	-200.000	0.019	0.093
-338.318	-123.771	0.373	-0.059
-337.304	-168.166	-0.308	0.012
-336.289	-126.179	0.175	-0.026
-335.275	56.486	0.132	0.127
-334.260	-192.770	0.052	-0.000
-333.245	585.431	0.078	-0.190
-332.231	800.000	-0.011	-0.031
-331.216	50.624	-0.122	-0.115
-330.202	-200.000	0.002	-0.179
-329.187	-79.032	-0.276	0.093
-328.172	800.000	-0.079	0.222
-327.158	-134.426	-0.299	0.036
-326.143	-94.009	-0.482	0.131
-325.129	-26.674	-0.163	-0.095
-324.114	-200.000	0.006	-0.148
-323.099	800.000	0.040	0.157
-322.085	120.535	-0.264	0.326
-321.070	-123.699	-0.266	-0.042
-320.056	-98.251	0.188	0.048
-319.041	-200.000	-0.039	-0.183
-318.026	607.359	-0.128	-0.316
-317.012	-200.000	-0.009	0.182
-315.997	-54.438	-0.091	0.041
-314.983	478.957	0.083	-0.186
-313.968	-186.041	0.029	0.000
-312.953	800.000	0.114	-0.330
-311.939	-151.316	0.475	0.035
-310.924	-200.000	-0.015	0.103
-309.910	-54.685	-0.277	0.124
-308.895	174.191	-0.068	0.098
-307.880	716.506	0.112	0.294
-306.866	31.740	-0.211	-0.180
-305.851	-200.000	-0.018	-0.179
-304.837	60.009	0.134	-0.132
-303.822	-1.718	-0.147	0.103
-302.807	-200.000	0.069	-0.309
-301.793	116.950	0.164	-0.199
-300.778	396.358	-0.249	0.516
-299.764	-138.786	0.296	0.032
-298.749	-200.000	-0.056	0.270
-297.735	-200.000	0.003	-0.122
-296.720	610.802	-0.120	-0.298
-295.705	-25.867	0.196	0.114
-294.691	-200.000	-0.000	0.292
-293.676	-200.000	-0.005	-0.093
-292.662	-82.399	0.038	-0.012
-291.647	159.173	0.062	0.085
-290.632	144.370	0.057	0.075
-289.618	800.000	0.028	-0.082
-288.603	32.787	0.183	0.157
-287.589	95.118	0.185	0.209
-286.574	-200.000	-0.062	-0.354
-285.559	42.443	0.134	-0.121
-284.545	19.972	0.177	0.141
-283.530	-42.816	-0.270	-0.136
-282.516	-154.099	-0.334	-0.022
-281.501	-143.932	-0.185	-0.017
-280.486	-200.000	-0.007	0.180
-279.472	145.326	0.178	0.236
-278.457	69.121	-0.182	0.186
-277.443	-97.810	-0.348	0.089
-276.428	305.321	-0.057	-0.104
-275.413	-59.210	-0.093	0.040
-274.399	-200.000	-0.036	0.195
-273.384	41.723	-0.238	-0.214
-272.370	216.394	0.085	-0.133
-271.355	-200.000	-0.007	-0.080
-270.340	-187.481	0.047	-0.001
-269.326	800.000	-0.050	-0.159
-268.311	-97.806	-0.118	0.030
-267.297	-200.000	0.050	-0.281
-266.282	294.922	0.079	0.144
-265.267	-200.000	-0.002	-0.244
-264.253	92.489	-0.060	-0.067
-263.238	-65.507	-0.349	0.139
-262.224	-159.615	0.113	0.006
-261.209	137.056	0.079	0.102
-260.195	569.735	0.123	-0.295
-259.180	35.631	0.069	-0.060
-258.165	-126.115	-0.262	-0.039
-257.151	-200.000	-0.017	-0.073
-256.136	-146.327	-0.060	-0.005
-255.122	118.539	0.322	0.394
-254.107	-74.654	0.035	0.013
-253.092	-72.021	0.214	0.079
-252.078	-187.509	0.272	-0.004
-251.063	-200.000	0.026	0.344
-250.049	379.050	0.066	-0.134
-249.034	430.471	-0.126	0.270
-248.019	-110.213	0.323	-0.067
-247.005	45.913	0.199	0.182
-245.990	56.751	-0.102	0.098
-244.976	-1.969	0.320	0.222
-243.961	172.292	-0.171	0.244
-242.946	320.159	-0.071	0.134
-241.932	100.572	-0.201	-0.231
-240.917	-176.111	0.227	0.006
-239.903	-57.682	-0.132	-0.057
-238.888	-185.292	-0.261	0.004
-237.873	-200.000	-0.017	0.135
-236.859	-31.931	0.282	-0.156
-235.844	-200.000	0.009	0.172
-234.830	800.000	0.087	-0.265
-233.815	279.119	-0.155	-0.274
-232.800	800.000	-0.050	0.190
-231.786	-76.435	-0.081	0.028
-230.771	800.000	-0.016	-0.062
-229.757	-144.676	-0.166	0.015
-228.742	-135.442	0.171	0.020
-227.727	-200.000	0.015	0.134
-226.713	57.534	-0.277	-0.267
-225.698	-200.000	-0.020	-0.186
-224.684	211.463	0.167	0.260
-223.669	800.000	-0.014	-0.055
-222.655	-1.581	0.335	0.233
-221.640	-87.724	0.359	-0.107
-220.625	-85.862	0.074	-0.023
-219.611	242.163	0.105	0.174
-218.596	800.000	-0.147	-0.481
-217.582	-122.217	-0.085	0.014
-216.567	-144.699	0.229	-0.021
-215.552	-200.000	-0.006	0.181
-214.538	-11.402	0.213	-0.138
-213.523	54.126	0.155	0.147
-212.509	-56.135	-0.292	-0.128
-211.494	302.766	-0.092	-0.168
-210.479	-200.000	-0.005	-0.062
-209.465	111.032	0.200	0.238
-208.450	-100.641	-0.038	-0.009
-207.436	28.818	-0.173	0.145
-206.421	30.075	0.169	0.143
-205.406	-200.000	-0.032	0.402
-204.392	-56.183	0.144	0.064
-203.377	166.508	0.145	-0.203
-202.363	-200.000	0.008	0.153
-201.348	99.151	-0.281	-0.321
-200.333	235.430	0.143	0.234
-199.319	250.526	0.024	0.041
-198.304	-116.325	0.116	0.021
-197.290	314.776	-0.142	0.264
-196.275	28.872	-0.520	0.436
-195.260	65.899	0.200	-0.200
-194.246	800.000	-0.070	0.215
-193.231	-7.130	0.105	-0.070
-192.217	82.972	0.178	0.191
-191.202	55.444	-0.265	0.254
-190.187	-79.553	0.272	-0.091
-189.173	-200.000	-0.051	-0.256
-188.158	214.218	-0.186	0.290
-187.144	-98.676	0.353	-0.089
-186.129	15.278	-0.176	-0.136
-185.114	94.367	0.035	0.039
-184.100	52.887	-0.035	0.033
-183.085	39.054	0.309	-0.273
-182.071	-105.859	-0.071	0.016
-181.056	9.841	0.048	0.036
-180.042	-19.273	-0.125	-0.077
-179.027	-20.903	-0.199	-0.120
-178.012	188.007	-0.168	-0.248
-176.998	-54.246	-0.028	-0.013
-175.983	-200.000	-0.015	-0.113
-174.969	-135.297	-0.181	-0.021
-173.954	8.898	0.285	0.212
-172.939	18.258	-0.237	0.187
-171.925	800.000	-0.113	-0.406
-170.910	-144.735	0.076	-0.007
-169.896	111.475	-0.110	-0.131
-168.881	294.200	-0.108	0.195
-167.866	399.328	0.083	-0.171
-166.852	-200.000	-0.026	-0.157
-165.837	19.147	0.243	-0.192
-164.823	-32.569	-0.013	0.007
-163.808	-69.669	-0.414	-0.156
-162.793	-4.601	-0.102	-0.070
-161.779	-200.000	-0.015	0.150
-160.764	-200.000	0.075	0.348
-159.750	-108.717	-0.324	0.068
-158.735	-123.231	0.228	0.036
-157.720	-129.927	0.138	-0.019
-156.706	-200.000	-0.037	0.166
-155.691	310.827	0.227	-0.420
-154.677	155.159	0.132	0.179
-153.662	-72.723	0.232	-0.084
-152.647	800.000	0.063	0.258
-151.633	278.691	-0.028	0.050
-150.618	-62.310	0.291	-0.120
-149.604	-200.000	0.007	-0.072
-148.589	800.000	-0.044	0.130
-147.574	517.513	0.112	-0.258
-146.560	74.289	0.313	-0.324
-145.545	-41.943	-0.137	-0.069
-144.531	-200.000	-0.013	-0.090
-143.516	58.905	0.119	-0.116
-142.502	-200.000	0.079	0.491
-141.487	-159.593	0.134	-0.007
-140.472	-48.147	-0.233	-0.111
-139.458	-112.244	0.259	-0.051
-138.443	306.666	-0.165	0.304
-137.429	-200.000	0.076	-0.568
-136.414	413.840	0.054	0.114
-135.399	-79.684	-0.103	-0.034
-134.385	47.183	-0.112	-0.103
-133.370	-171.594	0.104	0.003
-132.356	-99.252	-0.180	0.045
-131.341	77.154	-0.158	-0.166
-130.326	-200.000	-0.035	0.480
-129.312	-146.755	-0.122	0.010
-128.297	800.000	0.033	0.119
-127.283	800.000	-0.016	0.063
-126.268	263.322	-0.082	-0.141
-125.253	90.946	0.131	-0.145
-124.239	-183.592	0.177	-0.003
-123.224	85.633	-0.034	0.037
-122.210	11.700	0.206	0.156
