DTS Sentinel unit serial number:	SN413079Multiplexer serial number:	ORYXHardware model number:	OX4-SRSoftware version number:	ORYX F/W v4.00 Oryx Data Collector v3.7.2.0data status	okinstallation	princeton_trtdifferential loss correction	single-endedforward channel	channel 1reverse channel	N/Adate	2019/09/14time	07:22:35forward acquisition time	60.00reverse acquisition time	0.00gamma	496.2192k internal	0.2336k external	0.2336temperature offset calibration	1.0078default loss term (dB/km)	0.3790temperature slope calibration	1.0000multiplexer offset coefficient	1.0000multiplexer slope coefficient	1.0000fibre end	0.00T internal ref (°C)	26.19T ext. ref 1 (°C)	3.46T ext. ref 2 (°C)	20.97length (m)	temperature (°C)	Stokes	anti-Stokes-747.200	119.256	0.049	0.061
-746.185	-108.097	0.352	-0.077
-745.171	37.131	-0.074	0.066
-744.156	192.169	-0.065	-0.099
-743.142	728.513	-0.071	0.191
-742.127	721.680	-0.041	0.109
-741.112	158.593	-0.066	0.092
-740.098	207.512	0.139	0.218
-739.083	-124.102	-0.177	0.028
-738.069	140.462	-0.022	0.030
-737.054	800.000	-0.063	0.201
-736.039	115.004	-0.336	-0.412
-735.025	14.830	0.109	0.085
-734.010	-133.886	0.078	0.010
-732.996	-56.549	-0.182	0.081
-731.981	12.632	0.125	-0.096
-730.966	20.044	-0.030	0.024
-729.952	732.400	-0.050	-0.133
-728.937	357.020	0.097	0.194
-727.923	-79.898	-0.419	-0.141
-726.908	441.903	0.057	0.125
-725.894	-114.526	-0.173	0.033
-724.879	-148.297	-0.186	0.015
-723.864	-200.000	-0.026	-0.188
-722.850	-97.256	-0.192	-0.050
-721.835	-200.000	-0.008	-0.495
-720.821	114.770	-0.158	0.193
-719.806	-141.063	0.256	-0.026
-718.791	-102.450	-0.026	0.006
-717.777	-200.000	0.049	-0.293
-716.762	26.134	-0.271	-0.227
-715.748	-164.204	0.350	-0.016
-714.733	266.341	0.062	-0.108
-713.718	28.391	0.160	-0.135
-712.704	-200.000	-0.033	0.168
-711.689	-200.000	0.071	-0.484
-710.675	359.222	0.198	-0.398
-709.660	193.383	0.175	-0.266
-708.645	-21.104	-0.416	-0.255
-707.631	-200.000	-0.014	-0.071
-706.616	283.100	0.168	-0.302
-705.602	646.201	0.111	0.284
-704.587	127.807	-0.079	0.101
-703.572	34.085	-0.277	0.242
-702.558	182.346	-0.257	-0.380
-701.543	145.027	0.071	0.096
-700.529	374.059	-0.149	-0.303
-699.514	-200.000	-0.025	-0.220
-698.499	-59.152	-0.109	-0.047
-697.485	-137.619	0.080	0.009
-696.470	242.230	0.115	-0.192
-695.456	800.000	-0.039	-0.134
-694.441	800.000	0.005	0.020
-693.426	-54.518	0.398	0.180
-692.412	26.059	-0.292	-0.244
-691.397	103.937	-0.129	0.151
-690.383	-200.000	0.013	-0.428
-689.368	-79.133	-0.306	-0.104
-688.354	-41.582	-0.108	0.056
-687.339	172.596	-0.080	-0.115
-686.324	-51.816	-0.504	-0.235
-685.310	-67.590	0.303	-0.119
-684.295	-200.000	-0.008	0.131
-683.281	-120.303	0.328	-0.056
-682.266	-200.000	-0.042	-0.315
-681.251	220.117	0.102	-0.163
-680.237	-44.823	-0.144	-0.072
-679.222	-200.000	-0.016	0.251
-678.208	800.000	-0.061	-0.184
-677.193	-200.000	-0.041	-0.240
-676.178	-157.250	0.187	-0.011
-675.164	-131.920	0.240	-0.031
-674.149	256.322	-0.202	-0.348
-673.135	-200.000	0.023	-0.119
-672.120	-62.703	-0.226	-0.094
-671.105	-200.000	-0.053	-0.383
-670.091	168.832	-0.135	0.193
-669.076	-82.293	0.143	0.047
-668.062	800.000	-0.102	-0.349
-667.047	-101.415	-0.124	-0.030
-666.032	-171.430	-0.038	0.001
-665.018	-36.762	0.225	-0.121
-664.003	-94.938	-0.240	0.065
-662.989	-63.749	-0.426	-0.175
-661.974	-168.256	-0.171	-0.007
-660.959	800.000	0.065	-0.187
-659.945	342.159	0.030	0.058
-658.930	-174.643	0.359	0.010
-657.916	-200.000	-0.017	-0.311
-656.901	711.318	0.072	-0.192
-655.886	800.000	-0.059	-0.164
-654.872	163.272	0.089	-0.125
-653.857	-40.070	0.175	-0.091
-652.843	147.208	0.112	0.150
-651.828	-89.690	-0.140	0.041
-650.814	417.618	0.061	-0.131
-649.799	-200.000	-0.032	-0.238
-648.784	220.433	-0.073	0.117
-647.770	60.741	0.009	-0.009
-646.755	-114.734	0.331	-0.063
-645.741	-88.440	-0.230	-0.069
-644.726	-73.402	-0.090	-0.033
-643.711	800.000	-0.037	0.124
-642.697	-200.000	0.037	0.215
-641.682	-35.055	-0.215	-0.117
-640.668	251.858	0.152	0.259
-639.653	69.805	0.088	0.091
-638.638	-125.131	-0.347	-0.053
-637.624	398.194	0.094	0.197
-636.609	800.000	0.053	-0.180
-635.595	-15.368	0.188	0.120
-634.580	194.624	-0.037	0.056
-633.565	2.928	-0.139	-0.101
-632.551	-200.000	0.021	-0.254
-631.536	-8.565	0.057	0.038
-630.522	-101.305	0.457	-0.112
-629.507	211.470	-0.027	-0.043
-628.492	-200.000	0.011	0.135
-627.478	-200.000	0.019	0.101
-626.463	135.761	-0.085	0.110
-625.449	-200.000	-0.028	0.203
-624.434	-200.000	-0.026	-0.172
-623.419	-96.377	-0.288	-0.076
-622.405	297.928	-0.061	-0.112
-621.390	-75.834	-0.396	-0.140
-620.376	400.876	0.099	-0.208
-619.361	227.748	0.047	0.076
-618.346	-20.565	-0.515	-0.316
-617.332	631.806	-0.037	-0.093
-616.317	-200.000	0.024	-0.291
-615.303	497.982	0.158	0.363
-614.288	-81.928	-0.190	0.062
-613.273	-82.783	-0.169	0.055
-612.259	-30.866	0.281	0.159
-611.244	331.814	0.128	-0.246
-610.230	72.761	-0.116	-0.121
-609.215	214.402	-0.131	0.207
-608.201	332.189	0.133	-0.256
-607.186	-200.000	0.017	0.392
-606.171	47.348	-0.065	-0.061
-605.157	800.000	-0.024	0.084
-604.142	-180.470	-0.365	0.008
-603.128	35.234	-0.080	-0.070
-602.113	-10.992	-0.138	0.091
-601.098	47.315	0.105	0.098
-600.084	800.000	0.056	0.227
-599.069	93.300	0.177	-0.200
-598.055	138.381	-0.097	-0.127
-597.040	-12.139	0.104	-0.068
-596.025	100.178	0.139	0.161
-595.011	-79.296	0.066	0.022
-593.996	-2.721	0.066	-0.046
-592.982	-51.168	-0.267	-0.125
-591.967	44.578	-0.163	0.150
-590.952	436.528	0.065	-0.140
-589.938	-40.553	-0.262	-0.136
-588.923	155.353	-0.126	-0.173
-587.909	160.169	-0.218	0.304
-586.894	555.505	-0.081	-0.194
-585.879	-119.036	0.082	-0.014
-584.865	261.775	-0.090	-0.155
-583.850	-0.978	-0.201	0.142
-582.836	-131.849	0.396	0.052
-581.821	343.713	0.207	0.404
-580.806	26.509	-0.172	0.143
-579.792	-124.251	-0.273	-0.043
-578.777	-105.582	0.047	-0.011
-577.763	297.988	0.091	-0.167
-576.748	720.060	0.033	-0.087
-575.733	108.966	-0.219	0.262
-574.719	-179.013	-0.228	0.005
-573.704	11.733	0.127	-0.098
-572.690	-112.799	0.137	0.027
-571.675	-99.749	0.163	-0.041
-570.661	-200.000	-0.019	-0.235
-569.646	225.055	-0.082	0.133
-568.631	-152.917	0.024	-0.002
-567.617	-48.228	-0.483	-0.232
-566.602	28.905	-0.100	0.085
-565.588	46.555	-0.042	0.039
-564.573	10.247	0.196	-0.149
-563.558	-185.382	-0.292	-0.004
-562.544	8.921	-0.250	-0.188
-561.529	-200.000	-0.025	-0.179
-560.515	-200.000	-0.009	0.183
-559.500	-46.870	-0.178	0.087
-558.485	7.941	0.104	-0.078
-557.471	27.621	-0.079	0.066
-556.456	275.684	-0.410	0.726
-555.442	132.981	0.176	0.226
-554.427	6.808	-0.117	-0.087
-553.412	-200.000	0.176	0.001
-552.398	118.688	-0.058	-0.072
-551.383	8.098	0.134	0.101
-550.369	-72.104	0.060	-0.022
-549.354	234.409	-0.024	-0.039
-548.339	-122.907	-0.281	-0.045
-547.325	92.437	-0.015	-0.017
-546.310	-200.000	0.095	-0.515
-545.296	800.000	0.035	-0.131
-544.281	-117.829	0.006	0.001
-543.266	-128.601	-0.144	-0.020
-542.252	-200.000	-0.068	-0.371
-541.237	-200.000	-0.004	-0.154
-540.223	249.936	0.128	-0.217
-539.208	-103.274	-0.298	-0.070
-538.193	-200.000	0.017	0.081
-537.179	-176.620	-0.349	-0.009
-536.164	-74.108	0.115	-0.041
-535.150	-107.623	-0.427	0.093
-534.135	-96.107	0.079	0.021
-533.121	248.811	0.144	-0.242
-532.106	-200.000	0.019	0.407
-531.091	800.000	0.037	-0.147
-530.077	-78.437	-0.129	0.044
-529.062	-200.000	0.008	-0.174
-528.048	-80.353	-0.255	-0.085
-527.033	-26.951	-0.169	0.098
-526.018	81.835	-0.075	0.081
-525.004	-200.000	0.026	0.140
-523.989	-101.219	-0.392	-0.095
-522.975	-7.664	-0.024	0.016
-521.960	-200.000	0.028	-0.344
-520.945	-32.983	0.223	0.123
-519.931	-38.590	-0.175	0.092
-518.916	-133.238	-0.089	-0.011
-517.902	-200.000	0.017	-0.392
-516.887	89.045	0.215	0.238
-515.872	800.000	0.097	-0.369
-514.858	-200.000	-0.044	-0.259
-513.843	241.651	-0.145	-0.241
-512.829	-200.000	0.017	0.458
-511.814	146.719	0.056	-0.075
-510.799	515.010	0.090	0.209
-509.785	-65.399	0.204	-0.082
-508.770	-114.529	0.331	-0.063
-507.756	-121.899	-0.349	0.057
-506.741	-200.000	-0.066	0.373
-505.726	-15.775	0.308	-0.195
-504.712	-200.000	-0.025	-0.129
-503.697	18.710	0.248	-0.197
-502.683	-46.422	-0.071	0.035
-501.668	-145.667	0.143	0.013
-500.653	671.625	-0.131	0.337
-499.639	342.501	0.043	0.083
-498.624	800.000	-0.078	0.310
-497.610	-121.818	0.214	0.035
-496.595	-31.028	0.098	0.055
-495.581	-200.000	-0.009	-0.080
-494.566	-200.000	0.060	-0.277
-493.551	49.372	0.040	-0.038
-492.537	513.857	-0.088	-0.204
-491.522	-200.000	-0.008	-0.126
-490.508	97.116	-0.203	-0.232
-489.493	-87.475	-0.130	0.039
-488.478	188.670	0.165	0.246
-487.464	800.000	0.085	-0.292
-486.449	-200.000	-0.015	0.452
-485.435	-84.946	0.241	-0.075
-484.420	-70.415	0.217	0.082
-483.405	-109.333	0.158	0.033
-482.391	800.000	0.035	0.116
-481.376	79.997	-0.164	0.175
-480.362	-200.000	-0.020	0.203
-479.347	-200.000	-0.086	-0.423
-478.332	-27.496	0.175	-0.101
-477.318	158.508	0.247	0.341
-476.303	48.518	0.305	-0.284
-475.289	7.728	0.206	0.153
-474.274	32.217	0.263	-0.226
-473.259	44.102	-0.079	0.072
-472.245	59.170	0.108	-0.106
-471.230	-79.799	0.214	-0.071
-470.216	233.477	-0.198	-0.324
-469.201	-200.000	0.014	-0.205
-468.186	-22.170	-0.301	-0.181
-467.172	-110.662	-0.287	-0.059
-466.157	82.842	0.154	-0.167
-465.143	711.635	0.055	0.145
-464.128	188.765	0.087	0.129
-463.113	410.709	0.070	0.148
-462.099	-156.046	-0.361	0.023
-461.084	55.675	0.131	0.126
-460.070	30.649	0.199	0.169
-459.055	-200.000	-0.007	-0.160
-458.040	150.392	-0.283	-0.382
-457.026	4.050	0.191	-0.139
-456.011	-139.672	-0.161	0.017
-454.997	-154.669	-0.201	0.013
-453.982	95.593	0.127	0.144
-452.968	32.907	-0.218	0.188
-451.953	626.950	0.096	-0.241
-450.938	65.854	-0.221	-0.222
-449.924	58.230	0.176	-0.171
-448.909	800.000	0.058	-0.216
-447.895	-53.252	0.343	0.156
-446.880	-85.347	-0.172	0.053
-445.865	800.000	0.042	0.143
-444.851	800.000	-0.059	0.169
-443.836	-200.000	-0.014	-0.218
-442.822	-132.722	-0.359	0.046
-441.807	143.628	0.045	-0.060
-440.792	118.588	-0.195	0.239
-439.778	-72.946	0.038	-0.014
-438.763	301.524	-0.040	0.073
-437.749	-112.584	0.360	-0.071
-436.734	-48.508	-0.289	0.138
-435.719	800.000	-0.128	0.404
-434.705	-85.703	0.410	0.126
-433.690	21.915	-0.330	0.267
-432.676	667.717	-0.098	0.252
-431.661	-89.477	0.239	0.070
-430.646	-65.524	-0.095	-0.038
-429.632	-88.664	-0.308	-0.091
-428.617	386.432	0.045	0.092
-427.603	-124.483	0.312	-0.048
-426.588	49.696	0.173	-0.162
-425.573	800.000	0.001	-0.005
-424.559	389.016	-0.092	0.190
-423.544	-200.000	-0.054	-0.284
-422.530	-23.412	0.184	-0.110
-421.515	-200.000	-0.133	0.582
-420.500	800.000	-0.061	0.255
-419.486	162.253	-0.073	-0.101
-418.471	353.611	0.091	-0.179
-417.457	-5.451	-0.278	0.189
-416.442	135.507	0.106	-0.137
-415.428	-7.348	-0.140	-0.094
-414.413	395.416	0.124	-0.256
-413.398	-50.498	-0.053	0.025
-412.384	-10.344	-0.130	0.085
-411.369	599.149	-0.087	0.214
-410.355	-73.424	0.240	0.087
-409.340	-200.000	-0.042	0.229
-408.325	-200.000	0.040	0.172
-407.311	-94.674	-0.086	-0.023
-406.296	249.479	0.189	0.318
-405.282	-28.014	0.174	-0.100
-404.267	-109.974	0.291	-0.060
-403.252	-200.000	0.035	0.186
-402.238	233.572	0.073	-0.120
-401.223	-200.000	0.021	0.118
-400.209	121.060	0.080	0.099
-399.194	800.000	0.018	-0.050
-398.179	713.309	0.076	0.200
-397.165	-200.000	-0.012	0.157
-396.150	-153.863	-0.043	0.003
-395.136	36.494	0.068	0.059
-394.121	22.654	-0.056	0.045
-393.106	46.494	0.233	0.214
-392.092	-200.000	-0.016	0.093
-391.077	-44.492	-0.147	0.073
-390.063	149.774	-0.190	0.255
-389.048	195.352	0.213	0.320
-388.033	-200.000	-0.005	0.078
-387.019	-52.644	0.158	0.072
-386.004	326.239	0.112	-0.212
-384.990	-107.655	-0.147	-0.032
-383.975	-82.572	-0.030	-0.010
-382.960	800.000	0.054	-0.234
-381.946	128.172	-0.148	-0.186
-380.931	-100.710	-0.246	-0.060
-379.917	-200.000	0.069	0.524
-378.902	800.000	-0.092	-0.256
-377.888	378.745	0.214	-0.434
-376.873	57.531	0.280	-0.271
-375.858	-95.412	-0.224	-0.060
-374.844	160.180	-0.133	0.184
-373.829	65.741	-0.183	0.184
-372.815	-147.883	-0.671	-0.055
-371.800	-200.000	-0.003	-0.063
-370.785	555.264	-0.050	-0.118
-369.771	-200.000	-0.019	0.084
-368.756	88.161	0.205	0.226
-367.742	-60.531	-0.318	0.134
-366.727	69.826	-0.149	-0.152
-365.712	-136.327	0.069	0.008
-364.698	-200.000	0.025	0.120
-363.683	-89.935	-0.283	-0.082
-362.669	800.000	0.034	0.121
-361.654	349.002	-0.051	0.100
-360.639	-200.000	-0.098	-0.491
-359.625	-200.000	-0.066	0.458
-358.610	-94.723	0.346	0.093
-357.596	-127.688	-0.085	0.012
-356.581	243.931	0.084	-0.140
-355.566	-129.967	0.187	0.025
-354.552	20.803	-0.040	-0.032
-353.537	-200.000	0.006	-0.055
-352.523	88.170	-0.075	-0.083
-351.508	-130.760	-0.130	-0.017
-350.493	99.270	0.121	0.138
-349.479	-200.000	-0.091	-0.418
-348.464	-21.472	0.226	-0.136
-347.450	-156.924	0.312	0.019
-346.435	-166.134	0.357	0.015
-345.420	-200.000	0.080	-0.417
-344.406	1.477	-0.193	0.137
-343.391	-92.291	0.215	-0.060
-342.377	-163.819	-0.073	0.003
-341.362	-200.000	0.038	-0.269
-340.348	185.847	0.134	0.197
-339.333	800.000	-0.107	-0.334
-338.318	193.642	0.174	0.260
-337.304	43.298	-0.202	-0.182
-336.289	391.301	0.087	0.178
-335.275	800.000	-0.051	-0.181
-334.260	-50.919	-0.048	0.022
-333.245	-153.973	-0.266	0.018
-332.231	80.688	0.239	-0.255
-331.216	-200.000	-0.012	0.160
-330.202	392.869	-0.114	0.234
-329.187	800.000	-0.073	0.254
-328.172	-100.865	0.162	0.039
-327.158	-190.366	0.213	-0.002
-326.143	692.464	-0.106	-0.274
-325.129	96.031	0.231	0.261
-324.114	42.578	-0.054	-0.048
-323.099	-42.543	0.276	0.139
-322.085	465.184	-0.029	-0.065
-321.070	-75.076	-0.053	0.019
-320.056	-91.113	0.195	-0.055
-319.041	178.184	-0.125	0.180
-318.026	-5.957	-0.234	0.158
-317.012	-13.056	0.283	0.182
-315.997	225.486	-0.095	-0.151
-314.983	-74.724	-0.286	-0.101
-313.968	-200.000	0.034	-0.193
-312.953	-128.266	0.244	0.034
-311.939	-151.306	0.407	-0.030
-310.924	-82.264	0.302	-0.097
-309.910	-36.221	0.167	0.089
-308.895	250.907	0.050	0.084
-307.880	-29.016	0.105	-0.059
-306.866	87.649	-0.068	0.074
-305.851	-200.000	0.023	-0.248
-304.837	-165.263	-0.268	0.012
-303.822	-200.000	-0.009	-0.141
-302.807	174.434	-0.078	0.112
-301.793	-200.000	0.032	-0.508
-300.778	-30.694	0.328	0.183
-299.764	92.822	0.067	-0.075
-298.749	49.616	0.190	0.177
-297.735	48.062	0.112	0.103
-296.720	-24.671	-0.231	0.136
-295.705	61.089	0.374	0.366
-294.691	271.362	-0.068	-0.118
-293.676	614.841	-0.149	-0.369
-292.662	-73.717	0.170	-0.061
-291.647	-2.349	-0.349	-0.241
-290.632	175.315	-0.031	-0.044
-289.618	-200.000	-0.006	-0.027
-288.603	-200.000	0.055	-0.274
-287.589	-66.702	-0.319	0.125
-286.574	364.408	-0.167	0.332
-285.559	-200.000	0.008	0.054
-284.545	116.877	-0.102	-0.124
-283.530	152.131	0.060	-0.080
-282.516	800.000	0.038	-0.104
-281.501	-156.839	0.328	-0.020
-280.486	-159.173	0.239	0.013
-279.472	288.461	0.105	0.187
-278.457	-137.131	-0.468	-0.053
-277.443	149.398	0.106	-0.141
-276.428	167.896	-0.218	0.306
-275.413	-165.433	-0.151	0.007
-274.399	125.424	0.222	0.277
-273.384	800.000	0.140	-0.397
-272.370	-141.931	0.290	0.029
-271.355	-122.441	-0.160	-0.026
-270.340	-0.200	0.147	-0.103
-269.326	800.000	0.084	-0.274
-268.311	31.797	-0.443	-0.376
-267.297	-200.000	-0.036	0.182
-266.282	190.257	0.056	-0.083
-265.267	-200.000	-0.031	-0.234
-264.253	8.072	0.106	0.079
-263.238	-200.000	-0.014	0.241
-262.224	12.502	-0.141	-0.107
-261.209	366.939	0.150	0.299
-260.195	800.000	0.091	0.313
-259.180	218.589	-0.235	-0.370
-258.165	-74.679	0.096	0.034
-257.151	-131.646	0.178	-0.023
-256.136	-200.000	-0.031	-0.381
-255.122	106.248	-0.126	-0.146
-254.107	-51.809	-0.133	-0.061
-253.092	27.652	-0.228	-0.189
-252.078	620.604	-0.136	0.338
-251.063	-119.435	-0.138	0.024
-250.049	-60.724	0.259	0.108
-249.034	-200.000	-0.024	0.163
-248.019	-59.863	0.083	0.035
-247.005	-24.371	0.187	-0.110
-245.990	343.445	-0.018	-0.035
-244.976	-200.000	0.031	0.223
-243.961	-151.588	0.068	-0.005
-242.946	-59.551	-0.113	-0.048
-241.932	188.271	-0.039	0.058
-240.917	-200.000	0.059	0.258
-239.903	-200.000	-0.009	0.052
-238.888	800.000	-0.086	0.255
-237.873	-117.116	-0.216	-0.039
-236.859	401.206	-0.068	-0.141
-235.844	164.047	0.175	0.243
-234.830	-115.374	-0.269	-0.050
-233.815	-74.718	-0.045	-0.016
-232.800	-200.000	-0.017	-0.083
-231.786	-45.017	0.161	0.079
-230.771	225.058	-0.140	0.223
-229.757	64.560	-0.254	0.252
-228.742	-121.993	0.137	0.022
-227.727	-190.048	-0.371	0.004
-226.713	-200.000	-0.009	-0.267
-225.698	-40.786	0.334	-0.170
-224.684	800.000	-0.064	-0.265
-223.669	231.839	0.072	0.117
-222.655	6.438	0.131	-0.096
-221.640	-101.560	0.304	-0.073
-220.625	-27.323	0.126	-0.072
-219.611	-15.051	-0.293	-0.185
-218.596	-200.000	0.004	0.044
-217.582	-200.000	0.032	0.204
-216.567	70.739	0.136	0.139
-215.552	-100.701	0.114	0.028
-214.538	-167.043	-0.410	0.016
-213.523	50.624	-0.085	0.079
-212.509	47.998	-0.234	-0.215
-211.494	-200.000	-0.013	-0.146
-210.479	-82.807	0.318	-0.101
-209.465	-127.530	-0.221	-0.032
-208.450	-93.826	0.103	-0.028
-207.436	-48.399	-0.062	0.029
-206.421	267.210	-0.135	0.233
-205.406	-200.000	-0.055	-0.277
-204.392	-200.000	0.027	-0.189
-203.377	228.257	0.061	-0.097
-202.363	448.746	-0.034	-0.075
-201.348	267.842	-0.095	-0.163
-200.333	-104.072	0.172	0.039
-199.319	276.216	-0.016	0.028
-198.304	-184.450	-0.381	-0.006
-197.290	511.768	-0.139	0.318
-196.275	549.919	-0.034	0.080
-195.260	-200.000	0.062	-0.288
-194.246	-31.583	0.232	0.128
-193.231	123.412	0.145	0.178
-192.217	-141.962	0.149	-0.015
-191.202	-43.967	0.260	-0.128
-190.187	800.000	-0.026	-0.090
-189.173	68.949	0.388	0.391
-188.158	-73.868	0.246	0.088
-187.144	-49.328	0.153	-0.072
-186.129	-12.156	-0.097	-0.062
-185.114	-132.820	-0.150	0.019
-184.100	-200.000	-0.027	0.148
-183.085	-50.215	0.320	-0.149
-182.071	-200.000	0.017	0.164
-181.056	452.504	0.073	0.158
-180.042	800.000	0.062	-0.233
-179.027	800.000	-0.045	0.141
-178.012	-140.619	0.150	-0.015
-176.998	-102.409	-0.331	-0.078
-175.983	2.883	0.301	-0.215
-174.969	-200.000	-0.076	-0.350
-173.954	-77.890	0.324	0.110
-172.939	-80.372	-0.226	-0.074
-171.925	184.719	0.209	-0.305
-170.910	-200.000	-0.009	0.114
-169.896	81.823	-0.108	0.115
-168.881	-120.294	-0.463	0.078
-167.866	-82.472	0.067	0.021
-166.852	-18.036	0.112	-0.069
-165.837	-115.351	-0.173	0.032
-164.823	-80.282	0.483	0.158
-163.808	460.380	-0.117	0.256
-162.793	-105.909	0.224	-0.049
-161.779	-157.480	0.161	-0.010
-160.764	-123.815	0.215	-0.033
-159.750	24.305	-0.206	0.167
-158.735	-105.404	0.413	0.092
-157.720	-120.106	0.091	0.015
-156.706	-77.592	-0.249	-0.085
-155.691	-65.416	0.237	0.094
-154.677	-88.758	0.147	-0.043
-153.662	-19.006	-0.046	0.028
-152.647	93.198	0.251	0.279
-151.633	-200.000	0.030	0.306
-150.618	-154.816	0.113	0.007
-149.604	800.000	-0.079	-0.261
-148.589	543.580	0.091	0.212
-147.574	130.772	0.204	0.257
-146.560	359.255	0.155	0.303
-145.545	800.000	0.126	0.405
-144.531	-200.000	-0.046	0.324
-143.516	34.249	0.197	-0.169
-142.502	-53.092	-0.044	0.020
-141.487	435.554	-0.041	0.088
-140.472	-200.000	0.031	0.259
-139.458	-98.066	0.359	-0.091
-138.443	-12.909	-0.182	0.116
-137.429	800.000	0.145	0.531
-136.414	800.000	-0.071	0.208
-135.399	-18.092	0.121	-0.074
-134.385	-32.902	-0.150	-0.082
-133.370	-107.042	0.481	0.104
-132.356	-132.615	-0.094	-0.012
-131.341	218.411	-0.034	0.054
-130.326	-103.382	0.172	-0.040
-129.312	-200.000	0.006	-0.165
-128.297	593.585	0.098	0.238
-127.283	137.417	-0.180	-0.231
-126.268	800.000	0.067	0.233
-125.253	-200.000	-0.015	-0.097
-124.239	472.411	0.035	-0.077
-123.224	-170.320	0.431	-0.015
