DTS Sentinel unit serial number:	SN413079Multiplexer serial number:	ORYXHardware model number:	OX4-SRSoftware version number:	ORYX F/W v4.00 Oryx Data Collector v3.7.2.0data status	okinstallation	princeton_trtdifferential loss correction	single-endedforward channel	channel 1reverse channel	N/Adate	2019/09/12time	10:16:11forward acquisition time	60.00reverse acquisition time	0.00gamma	496.2192k internal	0.2298k external	0.2298temperature offset calibration	1.0045default loss term (dB/km)	0.3790temperature slope calibration	1.0000multiplexer offset coefficient	1.0000multiplexer slope coefficient	1.0000fibre end	0.00T internal ref (°C)	36.56T ext. ref 1 (°C)	1.86T ext. ref 2 (°C)	34.11length (m)	temperature (°C)	Stokes	anti-Stokes-747.200	776.197	0.086	0.239
-746.185	308.121	-0.187	0.356
-745.171	800.000	-0.112	-0.427
-744.156	-63.621	0.329	0.138
-743.142	65.018	-0.157	0.162
-742.127	335.350	0.038	0.076
-741.112	800.000	0.082	0.298
-740.098	800.000	-0.047	0.142
-739.083	24.186	0.190	0.160
-738.069	642.064	-0.197	0.511
-737.054	-180.407	0.148	0.003
-736.039	-139.852	-0.339	0.037
-735.025	-26.040	-0.223	0.134
-734.010	-200.000	0.063	-0.282
-732.996	800.000	0.036	0.104
-731.981	-156.171	-0.301	-0.019
-730.966	-147.792	-0.273	0.023
-729.952	170.667	-0.155	0.226
-728.937	181.257	-0.127	0.190
-727.923	-6.282	0.225	-0.156
-726.908	-17.514	0.305	0.196
-725.894	-51.227	-0.177	0.085
-724.879	96.843	-0.088	-0.103
-723.864	425.101	-0.157	0.344
-722.850	-110.870	-0.167	0.035
-721.835	-200.000	0.006	-0.062
-720.821	9.554	-0.191	0.148
-719.806	-1.547	-0.292	-0.210
-718.791	56.932	0.124	-0.123
-717.777	-66.336	-0.056	0.023
-716.762	-10.810	-0.447	-0.301
-715.748	59.317	-0.061	-0.061
-714.733	154.581	0.224	-0.313
-713.718	-95.394	0.301	-0.082
-712.704	-45.540	-0.240	0.121
-711.689	-200.000	0.029	0.173
-710.675	-18.943	0.213	-0.135
-709.660	-200.000	-0.003	-0.139
-708.645	-200.000	-0.004	-0.019
-707.631	-19.177	0.226	0.143
-706.616	126.156	-0.097	-0.124
-705.602	-152.877	0.541	0.039
-704.587	-178.958	-0.226	0.005
-703.572	62.680	0.141	0.143
-702.558	800.000	-0.038	0.161
-701.543	36.320	0.239	0.214
-700.529	-45.694	0.274	-0.138
-699.514	-200.000	0.000	0.116
-698.499	70.989	0.255	0.269
-697.485	-14.560	-0.319	-0.209
-696.470	-29.507	0.327	-0.191
-695.456	800.000	0.050	-0.188
-694.441	123.250	-0.106	-0.136
-693.426	-79.111	-0.158	0.055
-692.412	56.389	0.125	-0.124
-691.397	60.313	-0.274	-0.276
-690.383	465.036	-0.053	0.120
-689.368	156.381	0.121	-0.170
-688.354	14.989	-0.240	0.191
-687.339	-200.000	0.003	-0.153
-686.324	85.979	-0.112	-0.125
-685.310	-10.880	0.252	-0.170
-684.295	372.686	0.072	0.150
-683.281	-86.773	-0.410	-0.128
-682.266	247.250	0.089	-0.153
-681.251	458.258	0.120	-0.271
-680.237	800.000	-0.046	0.160
-679.222	-65.149	-0.094	-0.039
-678.208	-6.134	0.036	0.025
-677.193	-143.656	-0.064	0.006
-676.178	114.377	-0.366	0.454
-675.164	800.000	0.054	-0.160
-674.149	98.522	-0.187	0.220
-673.135	54.279	-0.150	-0.147
-672.120	-142.955	-0.019	-0.002
-671.105	-200.000	-0.036	0.322
-670.091	-108.359	-0.206	-0.045
-669.076	46.003	-0.071	0.067
-668.062	551.754	0.084	-0.205
-667.047	45.900	0.197	-0.185
-666.032	554.756	0.041	-0.101
-665.018	-135.750	-0.482	0.058
-664.003	564.503	0.151	0.373
-662.989	16.697	0.322	-0.259
-661.974	800.000	-0.048	-0.140
-660.959	-53.596	0.128	-0.060
-659.945	-200.000	-0.001	0.199
-658.930	-39.315	-0.264	0.141
-657.916	-200.000	0.012	-0.130
-656.901	378.622	0.113	0.236
-655.886	800.000	0.085	0.277
-654.872	-121.534	0.089	-0.015
-653.857	382.826	0.060	0.125
-652.843	-28.896	0.163	0.095
-651.828	-119.228	-0.174	-0.031
-650.814	62.937	-0.312	0.318
-649.799	-39.577	0.281	0.149
-648.784	246.446	0.121	0.208
-647.770	264.076	0.124	-0.220
-646.755	104.353	0.243	-0.290
-645.741	-81.580	-0.238	0.079
-644.726	-10.431	-0.202	-0.136
-643.711	-200.000	0.017	-0.115
-642.697	-21.637	-0.242	-0.150
-641.682	655.239	0.074	0.194
-640.668	142.704	0.086	0.117
-639.653	551.069	0.137	-0.333
-638.638	-72.582	0.166	-0.062
-637.624	161.650	-0.099	0.141
-636.609	-7.629	-0.270	-0.186
-635.595	-5.937	-0.040	0.028
-634.580	48.607	0.064	-0.061
-633.565	800.000	0.032	-0.139
-632.551	-166.368	0.239	0.010
-631.536	40.118	0.076	-0.069
-630.522	-200.000	-0.021	0.153
-629.507	-60.275	-0.251	0.109
-628.492	158.116	0.053	-0.075
-627.478	-10.474	0.075	0.051
-626.463	75.795	0.084	0.091
-625.449	-73.814	-0.045	-0.017
-624.434	-118.818	0.162	-0.029
-623.419	-200.000	0.021	-0.108
-622.405	-15.421	-0.141	0.092
-621.390	-106.167	0.038	-0.009
-620.376	800.000	0.045	0.168
-619.361	154.156	-0.239	-0.333
-618.346	800.000	0.073	0.269
-617.332	-32.926	-0.153	-0.086
-616.317	-141.387	-0.284	0.029
-615.303	-113.722	-0.261	-0.052
-614.288	-169.896	-0.260	0.009
-613.273	-95.413	-0.248	-0.068
-612.259	-26.736	-0.475	0.282
-611.244	800.000	0.022	-0.079
-610.230	-73.534	-0.134	0.050
-609.215	-200.000	0.068	0.323
-608.201	72.636	-0.158	0.167
-607.186	-200.000	0.005	-0.127
-606.171	381.379	-0.095	-0.199
-605.157	800.000	-0.058	-0.175
-604.142	-200.000	0.042	-0.203
-603.128	183.741	0.049	0.073
-602.113	-110.170	-0.156	0.033
-601.098	800.000	-0.091	0.302
-600.084	16.404	-0.111	0.089
-599.069	39.123	0.202	-0.183
-598.055	-64.767	-0.250	-0.103
-597.040	15.801	-0.111	-0.089
-596.025	-150.278	0.193	0.015
-595.011	-61.763	-0.213	-0.090
-593.996	800.000	-0.090	-0.310
-592.982	157.921	-0.167	0.234
-591.967	-66.132	0.105	0.043
-590.952	-200.000	-0.001	-0.106
-589.938	-89.794	0.281	-0.084
-588.923	-200.000	-0.002	0.029
-587.909	220.171	-0.166	-0.270
-586.894	-87.861	0.076	0.023
-585.879	-102.049	-0.306	0.075
-584.865	-55.291	-0.556	-0.253
-583.850	198.904	-0.082	0.127
-582.836	144.787	0.117	-0.159
-581.821	114.784	-0.175	0.217
-580.806	24.698	-0.167	-0.141
-579.792	103.651	0.198	-0.236
-578.777	208.363	0.147	0.233
-577.763	619.210	-0.090	0.230
-576.748	-52.085	0.056	0.026
-575.733	21.628	0.032	-0.026
-574.719	-8.275	0.320	-0.218
-573.704	-64.940	0.100	-0.041
-572.690	-6.856	-0.233	-0.161
-571.675	-7.724	0.109	-0.075
-570.661	800.000	0.082	0.347
-569.646	14.664	0.057	0.045
-568.631	-87.716	0.340	0.104
-567.617	800.000	-0.066	-0.290
-566.602	156.624	-0.085	0.120
-565.588	-200.000	0.004	0.098
-564.573	178.245	-0.215	0.318
-563.558	375.382	-0.037	0.078
-562.544	-148.696	-0.161	0.013
-561.529	275.197	0.054	0.097
-560.515	-74.731	-0.194	0.071
-559.500	-200.000	-0.020	0.245
-558.485	568.810	0.070	-0.171
-557.471	72.684	0.044	0.047
-556.456	-50.920	-0.137	-0.065
-555.442	-52.566	0.136	-0.063
-554.427	156.814	0.027	0.037
-553.412	-3.316	0.096	-0.067
-552.398	-200.000	-0.001	-0.179
-551.383	-4.791	-0.462	0.323
-550.369	-143.098	-0.273	-0.027
-549.354	-7.260	0.130	0.090
-548.339	-200.000	-0.023	0.247
-547.325	-13.168	0.211	0.139
-546.310	66.256	0.190	-0.196
-545.296	-64.186	-0.378	-0.156
-544.281	-200.000	-0.035	0.155
-543.266	-49.717	0.065	0.031
-542.252	800.000	-0.083	-0.309
-541.237	-121.374	-0.139	0.023
-540.223	82.552	0.161	-0.177
-539.208	31.148	-0.135	0.117
-538.193	-41.052	0.205	-0.107
-537.179	552.742	0.151	0.367
-536.164	-200.000	0.048	0.311
-535.150	-121.974	-0.155	-0.026
-534.135	800.000	-0.085	0.273
-533.121	-27.859	0.234	0.138
-532.106	-200.000	-0.006	0.120
-531.091	151.296	0.026	0.036
-530.077	510.622	-0.064	0.151
-529.062	-22.741	0.390	-0.239
-528.048	-200.000	-0.004	-0.123
-527.033	800.000	0.030	0.090
-526.018	-118.493	0.245	0.044
-525.004	12.201	-0.051	-0.039
-523.989	117.034	0.133	0.165
-522.975	-129.339	-0.192	-0.027
-521.960	-200.000	0.022	0.181
-520.945	800.000	-0.038	-0.166
-519.931	10.330	0.376	-0.289
-518.916	27.237	-0.072	-0.062
-517.902	-97.623	0.226	-0.059
-516.887	-200.000	0.039	0.176
-515.872	-112.269	0.275	-0.056
-514.858	8.847	-0.319	-0.244
-513.843	215.635	0.095	0.153
-512.829	-200.000	0.004	-0.210
-511.814	-200.000	-0.010	0.136
-510.799	-62.618	-0.119	-0.050
-509.785	800.000	-0.062	-0.183
-508.770	87.203	0.151	0.169
-507.756	800.000	-0.119	0.388
-506.741	-200.000	0.023	-0.171
-505.726	-137.808	0.282	0.032
-504.712	-200.000	-0.047	0.295
-503.697	-179.671	0.238	0.005
-502.683	71.795	-0.060	-0.063
-501.668	-133.528	0.174	0.022
-500.653	-37.405	0.063	0.034
-499.639	-200.000	0.011	0.233
-498.624	-200.000	-0.049	0.256
-497.610	-132.952	0.054	0.007
-496.595	-44.393	-0.332	0.168
-495.581	-110.989	0.352	0.073
-494.566	396.879	0.048	0.102
-493.551	800.000	-0.086	0.324
-492.537	517.953	-0.046	-0.108
-491.522	-88.231	0.522	-0.158
-490.508	-131.745	-0.399	-0.053
-489.493	87.590	-0.078	-0.088
-488.478	800.000	0.093	-0.280
-487.464	-200.000	0.048	0.376
-486.449	800.000	-0.027	0.105
-485.435	-200.000	-0.028	0.124
-484.420	47.315	-0.198	-0.186
-483.405	-45.741	-0.333	-0.166
-482.391	133.069	0.025	0.032
-481.376	60.736	-0.083	-0.084
-480.362	-34.529	0.352	-0.195
-479.347	18.704	0.133	-0.107
-478.332	660.181	0.141	0.367
-477.318	-200.000	0.001	-0.160
-476.303	245.808	-0.027	0.046
-475.289	-200.000	0.031	0.208
-474.274	-53.976	-0.197	-0.091
-473.259	-94.074	-0.264	-0.073
-472.245	-200.000	-0.002	0.314
-471.230	799.762	-0.072	0.200
-470.216	-10.756	0.291	0.194
-469.201	-200.000	-0.041	0.302
-468.186	-200.000	0.029	-0.197
-467.172	-74.267	0.315	-0.115
-466.157	-102.422	0.364	-0.088
-465.143	800.000	-0.122	-0.350
-464.128	52.238	-0.195	0.188
-463.113	695.434	-0.075	-0.198
-462.099	-88.794	0.252	-0.076
-461.084	287.944	-0.072	0.132
-460.070	-11.648	-0.143	0.095
-459.055	-146.594	-0.042	0.004
-458.040	591.136	-0.100	-0.248
-457.026	-27.079	-0.150	-0.088
-456.011	800.000	0.075	0.295
-454.997	800.000	0.080	-0.283
-453.982	800.000	-0.013	0.049
-452.968	92.623	-0.210	0.239
-451.953	-166.726	-0.392	-0.016
-450.938	800.000	-0.033	0.125
-449.924	198.978	0.150	0.232
-448.909	-170.777	-0.149	-0.005
-447.895	98.354	-0.060	-0.070
-446.880	-8.545	0.178	0.120
-445.865	75.311	0.186	-0.198
-444.851	-21.846	-0.155	-0.095
-443.836	-40.367	-0.203	-0.107
-442.822	-128.000	-0.104	0.015
-441.807	695.530	-0.018	-0.048
-440.792	-108.476	0.191	0.041
-439.778	102.094	0.208	-0.245
-438.763	18.957	-0.093	-0.075
-437.749	-105.050	0.042	0.010
-436.734	1.567	-0.344	-0.250
-435.719	542.862	-0.075	-0.180
-434.705	-99.071	0.133	-0.034
-433.690	-196.935	-0.165	-0.001
-432.676	-68.905	0.308	0.120
-431.661	153.760	-0.128	0.177
-430.646	800.000	0.068	0.247
-429.632	604.236	-0.187	0.470
-428.617	-170.707	0.123	-0.004
-427.603	-112.239	-0.078	-0.016
-426.588	-64.988	0.018	0.007
-425.573	-64.557	-0.361	0.148
-424.559	225.108	0.065	0.107
-423.544	-144.484	-0.342	-0.032
-422.530	-200.000	-0.012	0.226
-421.515	-84.328	0.272	0.087
-420.500	62.990	-0.161	0.163
-419.486	581.037	0.062	0.153
-418.471	6.682	0.108	-0.081
-417.457	-200.000	-0.007	-0.212
-416.442	-98.985	0.243	0.062
-415.428	513.282	0.024	-0.056
-414.413	120.084	-0.058	0.073
-413.398	606.336	0.123	0.310
-412.384	-30.878	0.324	0.185
-411.369	282.634	0.071	0.128
-410.355	175.376	0.232	-0.338
-409.340	-102.011	0.072	-0.017
-408.325	-200.000	0.041	-0.298
-407.311	443.725	0.088	-0.194
-406.296	-200.000	-0.032	-0.261
-405.282	-83.209	-0.220	0.071
-404.267	117.624	-0.072	0.089
-403.252	207.073	-0.106	-0.167
-402.238	259.478	-0.102	-0.178
-401.223	-54.633	-0.241	-0.110
-400.209	-200.000	-0.008	0.209
-399.194	-27.153	0.100	-0.059
-398.179	-59.592	-0.110	-0.047
-397.165	800.000	0.122	-0.410
-396.150	-200.000	0.047	-0.356
-395.136	-200.000	0.030	-0.426
-394.121	207.612	0.053	0.083
-393.106	800.000	0.034	-0.131
-392.092	359.756	-0.061	-0.124
-391.077	90.019	-0.117	-0.132
-390.063	-69.081	0.101	-0.039
-389.048	-6.442	0.065	-0.044
-388.033	-47.651	0.157	-0.077
-387.019	757.846	-0.093	-0.253
-386.004	-200.000	-0.021	0.215
-384.990	198.669	-0.145	0.224
-383.975	124.806	0.035	-0.044
-382.960	-107.492	-0.287	-0.063
-381.946	202.803	-0.208	-0.324
-380.931	-85.486	-0.175	0.055
-379.917	199.211	0.070	-0.107
-378.902	177.561	-0.157	-0.230
-377.888	-58.379	-0.186	0.082
-376.873	-107.655	-0.067	0.015
-375.858	532.473	-0.114	-0.271
-374.844	-200.000	-0.080	0.415
-373.829	-57.203	-0.200	-0.088
-372.815	-132.442	0.044	0.006
-371.800	-7.009	-0.010	0.007
-370.785	41.306	-0.079	0.072
-369.771	682.715	0.052	-0.136
-368.756	144.883	-0.145	0.195
-367.742	3.618	0.368	-0.270
-366.727	-149.441	-0.092	-0.007
-365.712	-200.000	-0.004	0.029
-364.698	-29.500	0.262	-0.151
-363.683	800.000	-0.088	0.248
-362.669	800.000	0.009	-0.036
-361.654	800.000	-0.024	0.089
-360.639	-36.979	0.121	0.065
-359.625	-200.000	0.009	0.054
-358.610	-185.546	0.143	0.002
-357.596	485.755	-0.063	-0.144
-356.581	625.997	-0.057	-0.143
-355.566	800.000	-0.083	-0.234
-354.552	58.615	0.132	-0.130
-353.537	-200.000	0.002	0.097
-352.523	37.745	0.250	0.223
-351.508	-102.009	-0.225	-0.055
-350.493	-166.709	-0.329	-0.014
-349.479	-161.724	-0.331	0.017
-348.464	-200.000	0.024	0.197
-347.450	106.966	0.144	0.172
-346.435	-140.345	-0.216	0.023
-345.420	-200.000	-0.033	-0.190
-344.406	68.189	-0.182	-0.188
-343.391	241.769	-0.120	0.202
-342.377	478.774	0.065	0.148
-341.362	-112.264	-0.263	0.053
-340.348	308.089	0.081	0.153
-339.333	-109.518	0.184	-0.039
-338.318	800.000	-0.056	-0.187
-337.304	-116.130	0.387	-0.072
-336.289	37.823	-0.377	-0.336
-335.275	800.000	-0.045	0.178
-334.260	-200.000	-0.048	0.386
-333.245	765.643	-0.036	-0.098
-332.231	-200.000	-0.042	-0.470
-331.216	-96.723	-0.239	0.063
-330.202	-145.395	-0.181	-0.016
-329.187	-33.781	0.204	-0.113
-328.172	-23.286	0.071	-0.043
-327.158	-21.691	0.075	-0.046
-326.143	800.000	0.060	0.247
-325.129	800.000	-0.022	-0.070
-324.114	-200.000	0.008	-0.057
-323.099	-200.000	-0.002	0.186
-322.085	162.611	0.222	0.313
-321.070	-141.151	-0.081	0.008
-320.056	-109.861	0.291	-0.061
-319.041	509.068	0.057	-0.134
-318.026	-200.000	-0.026	0.197
-317.012	538.021	-0.197	0.470
-315.997	-113.851	0.088	-0.017
-314.983	292.001	-0.083	-0.152
-313.968	-65.011	0.324	0.131
-312.953	21.144	0.176	0.143
-311.939	-71.146	0.297	-0.112
-310.924	-164.401	-0.149	-0.007
-309.910	0.632	0.144	0.103
-308.895	-9.939	0.095	-0.064
-307.880	-200.000	-0.047	0.302
-306.866	77.818	0.227	0.242
-305.851	-150.076	0.254	-0.020
-304.837	-116.411	-0.126	0.023
-303.822	61.794	-0.037	-0.037
-302.807	43.995	0.115	0.105
-301.793	337.429	0.122	0.237
-300.778	800.000	0.025	0.093
-299.764	-58.492	-0.251	0.109
-298.749	84.204	-0.162	0.177
-297.735	100.580	-0.110	-0.129
-296.720	-7.784	-0.243	0.164
-295.705	-117.549	-0.054	-0.010
-294.691	800.000	-0.065	-0.204
-293.676	-157.274	-0.226	-0.014
-292.662	-200.000	0.341	-0.001
-291.647	641.876	0.034	0.088
-290.632	18.432	-0.203	0.162
-289.618	-200.000	0.029	-0.136
-288.603	-105.093	-0.198	0.045
-287.589	-200.000	0.026	0.430
-286.574	800.000	0.030	0.087
-285.559	39.559	0.015	-0.014
-284.545	31.540	-0.124	0.107
-283.530	538.027	-0.109	0.259
-282.516	-200.000	0.053	-0.366
-281.501	-126.798	0.377	0.056
-280.486	800.000	-0.029	-0.082
-279.472	-25.354	-0.029	0.017
-278.457	689.386	-0.074	-0.194
-277.443	-200.000	0.006	-0.138
-276.428	-134.172	-0.272	0.034
-275.413	-138.197	0.201	-0.022
-274.399	-45.214	-0.103	0.051
-273.384	-129.811	0.428	-0.059
-272.370	115.591	-0.241	-0.296
-271.355	315.074	-0.026	-0.050
-270.340	-65.740	0.179	0.072
-269.326	-200.000	-0.011	-0.125
-268.311	23.967	0.078	-0.064
-267.297	-200.000	0.033	-0.287
-266.282	-186.379	0.154	-0.002
-265.267	-51.649	0.141	0.066
-264.253	-200.000	0.086	0.382
-263.238	224.787	0.156	-0.252
-262.224	-51.348	0.080	0.038
-261.209	54.988	0.224	0.217
-260.195	-117.888	-0.249	0.045
-259.180	736.725	-0.043	-0.117
-258.165	204.044	0.187	-0.290
-257.151	7.501	0.358	-0.268
-256.136	800.000	0.111	0.471
-255.122	67.611	0.082	-0.084
-254.107	395.867	0.008	-0.017
-253.092	147.541	0.090	-0.122
-252.078	-200.000	0.022	0.226
-251.063	-53.626	0.309	0.142
-250.049	-121.624	0.088	-0.015
-249.034	-38.001	0.098	0.052
-248.019	185.789	-0.111	0.165
-247.005	-167.568	-0.248	0.010
-245.990	-84.434	-0.284	-0.090
-244.976	-125.516	0.355	0.054
-243.961	-80.622	0.196	-0.065
-242.946	-200.000	0.058	-0.452
-241.932	-200.000	0.012	-0.127
-240.917	-42.065	0.047	0.024
-239.903	314.878	0.141	-0.266
-238.888	-25.914	0.216	0.127
-237.873	-200.000	0.016	0.116
-236.859	28.017	0.120	-0.102
-235.844	155.968	-0.245	-0.338
-234.830	88.301	-0.016	0.018
-233.815	-61.332	0.441	-0.186
-232.800	-143.783	-0.204	0.019
-231.786	35.113	0.124	-0.109
-230.771	800.000	0.020	-0.057
-229.757	-169.168	0.424	-0.016
-228.742	-141.351	0.137	0.014
-227.727	-157.723	-0.222	0.013
-226.713	371.314	0.113	0.228
-225.698	77.603	0.055	0.058
-224.684	212.117	-0.194	0.306
-223.669	-200.000	0.013	0.230
-222.655	104.579	0.119	-0.140
-221.640	800.000	0.017	0.065
-220.625	-200.000	0.023	-0.237
-219.611	465.657	0.029	-0.064
-218.596	404.197	0.125	0.263
-217.582	-115.928	-0.259	-0.048
-216.567	226.426	-0.137	-0.223
-215.552	363.244	0.063	-0.126
-214.538	-21.233	0.050	0.031
-213.523	-184.145	-0.144	0.002
-212.509	-28.086	0.249	-0.144
-211.494	87.258	-0.105	-0.116
-210.479	-74.523	-0.068	0.024
-209.465	27.940	0.323	0.272
-208.450	265.450	-0.073	-0.128
-207.436	50.545	0.126	-0.119
-206.421	122.107	0.237	-0.296
-205.406	-200.000	-0.012	-0.243
-204.392	110.782	-0.075	-0.091
-203.377	-161.328	-0.181	0.009
-202.363	-185.462	0.188	-0.003
-201.348	-200.000	-0.274	0.001
-200.333	-200.000	0.016	0.313
-199.319	-26.791	-0.198	0.115
-198.304	-72.847	-0.215	-0.079
-197.290	800.000	-0.062	0.214
-196.275	-200.000	0.017	-0.115
-195.260	710.541	-0.030	-0.081
-194.246	194.778	0.252	0.381
-193.231	-200.000	0.004	0.144
-192.217	-93.742	0.178	0.049
-191.202	800.000	0.054	0.231
-190.187	-45.268	-0.262	-0.130
-189.173	198.098	-0.011	-0.016
-188.158	182.755	0.120	-0.177
-187.144	-165.510	-0.177	-0.008
-186.129	70.266	0.246	-0.254
-185.114	-125.439	-0.237	0.036
-184.100	202.215	0.098	0.150
-183.085	-68.725	0.205	-0.079
-182.071	63.725	0.222	-0.223
-181.056	-99.027	0.160	-0.041
-180.042	800.000	0.064	0.188
-179.027	118.029	-0.205	-0.253
-178.012	-141.258	-0.348	-0.035
-176.998	-13.015	0.311	0.202
-175.983	-200.000	0.024	-0.239
-174.969	140.146	0.124	-0.164
-173.954	180.205	-0.052	0.076
-172.939	207.057	0.057	0.088
-171.925	215.099	0.108	0.171
-170.910	-56.947	-0.133	0.058
-169.896	-124.485	-0.171	0.027
-168.881	-200.000	0.036	0.182
-167.866	-200.000	-0.020	-0.222
-166.852	-140.551	-0.070	-0.007
-165.837	800.000	0.045	-0.161
-164.823	800.000	0.093	-0.273
-163.808	20.104	0.207	0.167
-162.793	-200.000	-0.051	-0.349
-161.779	393.901	-0.184	0.383
-160.764	-26.617	0.135	0.079
-159.750	52.895	-0.040	-0.038
-158.735	475.346	0.146	0.329
-157.720	-200.000	0.040	-0.339
-156.706	-159.250	-0.355	0.020
-155.691	-81.091	-0.204	-0.067
-154.677	-31.484	0.219	0.123
-153.662	8.951	-0.012	-0.009
-152.647	-200.000	-0.058	-0.298
-151.633	-35.397	-0.208	-0.113
-150.618	-55.050	-0.258	-0.116
-149.604	800.000	0.043	0.179
-148.589	472.729	0.019	-0.042
-147.574	21.651	-0.087	-0.071
-146.560	-21.878	-0.072	-0.044
-145.545	-200.000	0.027	0.154
-144.531	185.238	-0.261	0.387
-143.516	-116.713	-0.124	-0.023
-142.502	112.915	-0.311	-0.376
-141.487	495.209	0.026	0.060
-140.472	-200.000	0.076	-0.403
-139.458	-119.961	0.308	0.053
-138.443	399.530	0.077	0.160
-137.429	-41.216	-0.230	-0.118
-136.414	-200.000	-0.021	-0.202
-135.399	541.197	0.080	0.190
-134.385	-131.801	0.183	-0.024
-133.370	424.380	-0.186	-0.398
-132.356	-94.680	0.246	0.067
-131.341	-8.028	-0.392	0.263
-130.326	32.752	-0.027	0.023
-129.312	232.081	-0.092	0.151
-128.297	-117.474	-0.258	0.047
-127.283	-200.000	0.014	-0.122
-126.268	-200.000	0.252	-0.000
-125.253	173.844	-0.258	0.372
-124.239	800.000	0.079	0.237
-123.224	-200.000	0.009	-0.245
-122.210	145.449	-0.122	0.163
-121.195	-156.601	-0.254	0.016
