DTS Sentinel unit serial number:	SN413079Multiplexer serial number:	ORYXHardware model number:	OX4-SRSoftware version number:	ORYX F/W v4.00 Oryx Data Collector v3.7.2.0data status	okinstallation	princeton_trtdifferential loss correction	single-endedforward channel	channel 1reverse channel	N/Adate	2019/09/12time	13:24:11forward acquisition time	60.00reverse acquisition time	0.00gamma	496.2192k internal	0.2292k external	0.2292temperature offset calibration	1.0045default loss term (dB/km)	0.3790temperature slope calibration	1.0000multiplexer offset coefficient	1.0000multiplexer slope coefficient	1.0000fibre end	0.00T internal ref (°C)	41.06T ext. ref 1 (°C)	2.09T ext. ref 2 (°C)	37.92length (m)	temperature (°C)	Stokes	anti-Stokes-747.200	195.720	-0.150	0.233
-746.185	-28.042	-0.168	0.100
-745.171	663.125	-0.118	-0.312
-744.156	173.168	-0.087	-0.128
-743.142	800.000	-0.059	0.227
-742.127	-200.000	0.028	0.137
-741.112	-133.543	-0.366	0.047
-740.098	-65.488	0.140	-0.057
-739.083	687.017	-0.035	0.093
-738.069	-160.072	-0.115	-0.006
-737.054	-200.000	-0.061	-0.322
-736.039	800.000	-0.058	0.165
-735.025	127.431	0.187	0.244
-734.010	-200.000	-0.047	0.438
-732.996	800.000	-0.089	0.268
-731.981	38.373	0.103	-0.094
-730.966	23.217	0.173	-0.145
-729.952	-49.209	-0.263	0.129
-728.937	-24.369	-0.131	-0.080
-727.923	468.659	0.062	-0.143
-726.908	-93.902	-0.282	-0.079
-725.894	-56.974	-0.416	0.188
-724.879	-125.582	-0.136	0.021
-723.864	800.000	-0.070	-0.223
-722.850	82.101	-0.229	-0.253
-721.835	-73.192	-0.334	0.125
-720.821	87.880	-0.134	0.152
-719.806	124.129	-0.090	-0.115
-718.791	-200.000	-0.018	-0.113
-717.777	-99.060	0.167	-0.043
-716.762	-119.882	-0.284	0.050
-715.748	-40.305	-0.353	-0.187
-714.733	-118.383	0.262	0.047
-713.718	-162.921	0.102	-0.005
-712.704	-46.508	-0.187	-0.094
-711.689	-200.000	0.016	-0.131
-710.675	-86.686	0.350	0.110
-709.660	-48.944	-0.222	-0.109
-708.645	-200.000	-0.040	-0.305
-707.631	73.255	0.090	0.096
-706.616	-63.951	-0.176	-0.073
-705.602	0.679	-0.139	-0.102
-704.587	64.903	-0.105	-0.109
-703.572	-107.775	-0.218	-0.049
-702.558	-200.000	0.036	-0.208
-701.543	98.108	0.095	-0.112
-700.529	-70.756	-0.202	0.078
-699.514	-200.000	-0.007	0.397
-698.499	480.877	0.091	-0.211
-697.485	74.456	0.257	-0.276
-696.470	-152.376	0.205	0.015
-695.456	559.201	-0.013	0.031
-694.441	30.305	-0.253	-0.220
-693.426	44.973	-0.067	-0.063
-692.412	-116.970	0.068	0.013
-691.397	-99.482	-0.090	0.023
-690.383	-200.000	0.001	-0.175
-689.368	0.925	-0.180	-0.132
-688.354	176.627	0.124	0.184
-687.339	800.000	0.046	-0.135
-686.324	-128.317	-0.061	-0.009
-685.310	-62.531	0.230	0.098
-684.295	-121.725	0.301	0.051
-683.281	-200.000	0.008	-0.110
-682.266	-200.000	0.043	0.454
-681.251	-92.351	-0.244	-0.070
-680.237	-140.611	0.171	-0.018
-679.222	23.576	-0.134	0.112
-678.208	-121.988	-0.265	-0.045
-677.193	367.204	-0.070	0.143
-676.178	-200.000	-0.008	0.178
-675.164	393.101	0.104	0.221
-674.149	-200.000	0.000	-0.085
-673.135	-59.073	0.057	-0.025
-672.120	113.276	-0.110	0.136
-671.105	-68.140	0.083	0.033
-670.091	289.919	0.084	0.156
-669.076	-200.000	-0.270	-0.001
-668.062	79.876	-0.067	0.073
-667.047	-168.810	-0.068	0.003
-666.032	-200.000	0.039	-0.222
-665.018	-31.474	0.208	-0.120
-664.003	-200.000	0.018	-0.221
-662.989	145.954	-0.174	0.238
-661.974	546.193	-0.150	-0.365
-660.959	-200.000	-0.022	0.136
-659.945	92.662	-0.110	0.127
-658.930	-200.000	-0.078	0.412
-657.916	-200.000	-0.041	-0.187
-656.901	393.604	0.138	-0.294
-655.886	350.826	0.068	-0.138
-654.872	-49.496	-0.264	-0.128
-653.857	-105.941	0.057	0.013
-652.843	-21.655	0.215	0.134
-651.828	237.671	0.175	0.297
-650.814	-65.072	-0.214	-0.088
-649.799	1.424	-0.112	0.082
-648.784	200.839	-0.163	0.255
-647.770	-200.000	-0.045	-0.213
-646.755	-77.390	0.148	0.052
-645.741	553.206	-0.055	0.134
-644.726	800.000	-0.092	-0.310
-643.711	19.427	0.139	0.114
-642.697	32.436	-0.287	-0.253
-641.682	-200.000	0.119	-0.000
-640.668	17.082	-0.148	0.119
-639.653	-66.834	-0.215	0.087
-638.638	411.229	0.098	-0.213
-637.624	11.791	-0.100	0.078
-636.609	388.457	0.116	0.245
-635.595	98.577	0.291	-0.342
-634.580	-25.349	-0.194	-0.117
-633.565	232.291	-0.062	-0.103
-632.551	426.606	-0.051	-0.112
-631.536	-6.136	0.269	-0.187
-630.522	-200.000	-0.010	0.132
-629.507	-200.000	-0.031	-0.194
-628.492	-48.927	-0.212	0.104
-627.478	-61.149	-0.255	-0.110
-626.463	-156.179	-0.086	-0.006
-625.449	51.154	-0.192	-0.186
-624.434	-31.712	-0.182	0.104
-623.419	163.058	-0.079	-0.113
-622.405	247.327	-0.105	0.180
-621.390	-200.000	-0.021	0.113
-620.376	800.000	-0.047	0.169
-619.361	-176.752	-0.151	-0.004
-618.346	800.000	-0.060	0.203
-617.332	-43.131	-0.203	-0.105
-616.317	236.480	0.089	-0.150
-615.303	-75.801	-0.363	-0.131
-614.288	-126.996	-0.179	-0.027
-613.273	-96.336	0.189	0.051
-612.259	-80.383	-0.129	-0.044
-611.244	-85.979	0.106	-0.033
-610.230	-60.656	0.133	0.057
-609.215	-200.000	0.016	-0.137
-608.201	-140.963	0.344	0.036
-607.186	162.681	0.016	-0.023
-606.171	1.064	-0.083	-0.061
-605.157	55.457	-0.247	0.243
-604.142	170.848	0.060	-0.088
-603.128	61.390	-0.254	-0.257
-602.113	800.000	0.012	-0.035
-601.098	688.019	0.043	0.114
-600.084	-200.000	0.019	-0.142
-599.069	572.831	0.037	0.091
-598.055	-104.114	-0.208	0.049
-597.040	56.004	-0.147	-0.145
-596.025	-85.297	0.039	-0.012
-595.011	-92.414	0.281	-0.081
-593.996	-200.000	-0.016	0.181
-592.982	95.362	0.126	0.147
-591.967	569.994	0.132	-0.326
-590.952	164.756	-0.137	-0.196
-589.938	-74.329	-0.173	0.063
-588.923	715.711	0.127	-0.344
-587.909	292.968	0.048	0.090
-586.894	40.631	-0.202	-0.185
-585.879	78.872	0.161	-0.175
-584.865	229.971	-0.115	-0.191
-583.850	587.792	0.092	-0.231
-582.836	63.259	0.124	0.126
-581.821	72.052	0.032	0.034
-580.806	-101.529	-0.417	-0.103
-579.792	800.000	0.161	-0.470
-578.777	-200.000	-0.015	0.149
-577.763	599.864	-0.066	0.165
-576.748	19.135	0.237	-0.193
-575.733	-200.000	0.021	0.155
-574.719	-41.820	-0.172	0.090
-573.704	375.369	0.032	0.067
-572.690	800.000	0.055	-0.236
-571.675	10.434	0.226	0.175
-570.661	-200.000	-0.008	0.094
-569.646	-161.320	0.051	-0.003
-568.631	-121.851	0.297	0.050
-567.617	-194.739	0.033	0.000
-566.602	106.565	-0.080	0.097
-565.588	-70.283	-0.397	0.153
-564.573	-126.881	0.228	-0.034
-563.558	800.000	0.051	-0.177
-562.544	25.830	-0.102	-0.086
-561.529	-148.875	0.085	-0.007
-560.515	108.011	-0.097	-0.118
-559.500	14.932	0.203	-0.161
-558.485	-14.629	0.102	-0.066
-557.471	-200.000	0.041	-0.212
-556.456	-68.935	-0.383	-0.150
-555.442	312.168	0.037	0.070
-554.427	-20.403	0.178	-0.111
-553.412	-200.000	-0.007	-0.238
-552.398	-112.061	0.258	-0.053
-551.383	97.642	0.151	-0.176
-550.369	-63.580	-0.120	-0.050
-549.354	103.928	0.139	0.166
-548.339	99.716	0.290	-0.342
-547.325	-200.000	-0.040	0.447
-546.310	191.206	-0.086	0.132
-545.296	800.000	0.059	0.219
-544.281	46.304	0.029	0.028
-543.266	-200.000	0.010	0.336
-542.252	30.515	-0.103	-0.089
-541.237	-87.502	-0.345	-0.106
-540.223	-47.497	0.321	-0.158
-539.208	-51.210	0.126	-0.060
-538.193	-70.988	0.159	0.061
-537.179	-200.000	-0.059	0.269
-536.164	800.000	0.062	-0.175
-535.150	-200.000	-0.025	-0.343
-534.135	-200.000	-0.023	-0.402
-533.121	-46.330	0.172	0.086
-532.106	276.207	-0.124	0.224
-531.091	-73.134	0.045	-0.017
-530.077	-139.481	0.519	0.056
-529.062	87.908	-0.096	-0.108
-528.048	-12.318	0.187	-0.124
-527.033	-129.061	0.383	0.054
-526.018	-97.167	-0.084	0.022
-525.004	-4.414	-0.189	0.133
-523.989	-200.000	-0.008	0.081
-522.975	-200.000	-0.018	-0.089
-521.960	-5.551	-0.141	0.098
-520.945	292.452	0.071	0.131
-519.931	-11.937	-0.244	-0.163
-518.916	-128.936	-0.272	-0.039
-517.902	800.000	-0.048	-0.139
-516.887	-182.812	-0.245	-0.004
-515.872	80.379	-0.062	0.068
-514.858	549.105	0.046	0.113
-513.843	-200.000	0.007	0.041
-512.829	-51.695	0.149	-0.070
-511.814	89.463	0.069	0.078
-510.799	216.515	-0.178	-0.287
-509.785	531.428	-0.100	0.241
-508.770	-133.721	-0.339	-0.043
-507.756	-52.247	0.392	-0.184
-506.741	84.804	0.039	-0.043
-505.726	-111.041	-0.374	0.078
-504.712	5.703	0.463	-0.347
-503.697	86.081	-0.123	0.137
-502.683	-28.154	0.242	-0.142
-501.668	167.070	-0.165	0.238
-500.653	800.000	-0.085	0.326
-499.639	23.507	0.084	-0.070
-498.624	6.966	-0.060	0.045
-497.610	-200.000	-0.032	-0.258
-496.595	210.574	0.085	0.135
-495.581	48.905	0.090	0.086
-494.566	-200.000	0.058	-0.271
-493.551	800.000	0.094	0.319
-492.537	29.023	0.059	-0.051
-491.522	169.140	-0.074	-0.107
-490.508	70.771	-0.135	0.141
-489.493	800.000	0.052	-0.180
-488.478	229.440	0.044	-0.074
-487.464	269.722	0.126	0.224
-486.449	800.000	-0.082	0.279
-485.435	110.049	-0.147	0.179
-484.420	-38.917	-0.232	0.124
-483.405	-85.712	0.248	-0.078
-482.391	-88.510	-0.239	-0.072
-481.376	495.268	0.077	0.178
-480.362	373.034	-0.218	0.449
-479.347	-104.979	0.181	0.042
-478.332	267.557	-0.023	-0.042
-477.318	340.583	0.058	-0.114
-476.303	69.110	0.116	-0.121
-475.289	92.375	-0.058	-0.066
-474.274	-200.000	-0.054	-0.292
-473.259	-200.000	0.033	0.193
-472.245	17.063	-0.128	-0.103
-471.230	109.860	-0.103	0.125
-470.216	27.017	0.162	0.137
-469.201	54.456	-0.148	0.145
-468.186	-164.386	0.260	-0.012
-467.172	-24.871	-0.138	0.083
-466.157	247.140	-0.131	-0.224
-465.143	-200.000	-0.022	0.164
-464.128	235.836	0.087	-0.146
-463.113	-53.182	-0.362	0.168
-462.099	-43.797	-0.239	0.122
-461.084	-200.000	-0.037	-0.167
-460.070	-25.188	-0.418	-0.250
-459.055	-98.821	-0.204	0.053
-458.040	800.000	0.029	-0.117
-457.026	-115.661	-0.113	-0.021
-456.011	-29.317	0.041	-0.024
-454.997	135.436	0.035	-0.046
-453.982	-21.791	0.178	0.109
-452.968	-83.502	-0.071	-0.023
-451.953	800.000	-0.034	0.112
-450.938	174.081	0.184	0.268
-449.924	26.002	0.206	0.174
-448.909	165.434	0.149	0.213
-447.895	-200.000	-0.021	0.374
-446.880	-5.383	-0.318	-0.221
-445.865	-164.424	-0.108	0.005
-444.851	-61.946	0.124	0.053
-443.836	-137.700	-0.187	-0.021
-442.822	92.928	-0.205	-0.234
-441.807	-121.044	0.133	0.023
-440.792	-200.000	-0.036	-0.355
-439.778	743.334	-0.110	-0.300
-438.763	-90.987	-0.237	-0.069
-437.749	-58.905	-0.182	-0.080
-436.734	-6.692	0.126	0.087
-435.719	-29.443	-0.288	0.166
-434.705	-200.000	-0.028	-0.238
-433.690	285.418	-0.044	-0.081
-432.676	800.000	-0.057	0.210
-431.661	380.217	-0.218	0.452
-430.646	-148.334	-0.405	-0.034
-429.632	140.668	-0.122	-0.163
-428.617	-98.669	-0.295	-0.076
-427.603	800.000	-0.084	0.244
-426.588	1.714	0.168	-0.123
-425.573	141.668	-0.211	0.283
-424.559	48.619	-0.139	0.132
-423.544	-200.000	0.010	0.066
-422.530	-118.350	0.307	-0.055
-421.515	0.288	0.101	0.073
-420.500	-11.147	-0.057	-0.038
-419.486	800.000	-0.037	0.139
-418.471	-200.000	0.019	-0.426
-417.457	169.806	-0.146	0.211
-416.442	-200.000	-0.027	0.172
-415.428	164.420	-0.229	0.326
-414.413	65.179	-0.067	0.068
-413.398	-200.000	0.001	-0.074
-412.384	-73.781	0.226	0.083
-411.369	-200.000	-0.038	-0.249
-410.355	190.215	0.172	0.261
-409.340	-200.000	0.016	-0.464
-408.325	800.000	-0.029	-0.092
-407.311	-186.838	-0.103	0.001
-406.296	-10.738	0.267	0.178
-405.282	132.883	-0.040	-0.052
-404.267	369.779	-0.100	-0.205
-403.252	115.009	0.298	0.367
-402.238	-200.000	0.066	-0.411
-401.223	189.411	0.063	-0.095
-400.209	800.000	-0.073	-0.227
-399.194	-117.228	0.252	-0.046
-398.179	-200.000	-0.003	0.030
-397.165	604.352	0.059	-0.147
-396.150	-56.307	-0.140	-0.063
-395.136	-124.494	0.099	0.016
-394.121	-200.000	-0.018	-0.154
-393.106	-44.965	-0.170	-0.086
-392.092	800.000	0.073	-0.207
-391.077	800.000	0.093	0.279
-390.063	800.000	-0.072	0.243
-389.048	800.000	-0.043	-0.128
-388.033	-200.000	-0.012	-0.059
-387.019	-200.000	0.045	-0.211
-386.004	7.019	0.158	-0.119
-384.990	-144.991	0.470	-0.043
-383.975	42.769	0.049	0.045
-382.960	63.969	0.168	0.171
-381.946	98.682	0.111	-0.130
-380.931	13.739	-0.253	-0.199
-379.917	15.226	-0.142	-0.112
-378.902	-87.106	-0.076	-0.023
-377.888	-200.000	-0.052	0.235
-376.873	-3.004	0.118	-0.083
-375.858	-200.000	0.021	-0.167
-374.844	68.966	-0.135	-0.139
-373.829	191.988	0.058	0.089
-372.815	337.031	0.153	0.299
-371.800	462.441	-0.052	0.116
-370.785	585.934	0.074	0.183
-369.771	105.649	-0.291	0.347
-368.756	172.799	0.212	-0.307
-367.742	60.965	0.063	-0.063
-366.727	-126.125	-0.191	0.029
-365.712	-168.818	0.158	0.006
-364.698	-200.000	0.024	0.257
-363.683	-63.746	0.153	-0.063
-362.669	-200.000	-0.037	-0.169
-361.654	800.000	-0.058	-0.203
-360.639	187.141	-0.292	-0.440
-359.625	-12.471	-0.140	-0.092
-358.610	-52.025	-0.220	-0.103
-357.596	-64.114	0.027	0.011
-356.581	-200.000	0.016	0.369
-355.566	639.905	0.030	0.077
-354.552	435.354	0.123	-0.270
-353.537	-88.052	-0.059	-0.018
-352.523	624.413	-0.053	0.134
-351.508	-134.871	0.191	-0.023
-350.493	25.949	-0.079	-0.066
-349.479	-200.000	0.017	-0.092
-348.464	-60.420	0.287	-0.123
-347.450	-6.668	-0.086	-0.059
-346.435	22.136	-0.064	0.052
-345.420	800.000	0.018	-0.070
-344.406	-142.516	-0.176	-0.017
-343.391	390.384	0.148	0.310
-342.377	208.786	0.145	0.229
-341.362	-39.206	0.063	0.033
-340.348	-22.111	-0.233	-0.142
-339.333	323.861	-0.091	-0.174
-338.318	19.314	0.068	0.055
-337.304	31.335	0.169	0.146
-336.289	603.617	0.068	0.169
-335.275	104.690	-0.212	0.252
-334.260	800.000	0.061	0.174
-333.245	-131.709	0.064	0.009
-332.231	-200.000	0.008	0.121
-331.216	-200.000	0.031	-0.304
-330.202	58.584	-0.236	-0.233
-329.187	112.580	0.099	-0.121
-328.172	800.000	-0.071	0.229
-327.158	-97.223	-0.029	-0.008
-326.143	-112.184	0.212	0.043
-325.129	-108.682	-0.161	-0.035
-324.114	710.340	0.104	-0.277
-323.099	-200.000	0.012	0.147
-322.085	-17.523	0.138	-0.087
-321.070	120.374	0.096	-0.120
-320.056	-142.157	-0.083	-0.008
-319.041	409.789	-0.077	0.163
-318.026	-200.000	0.007	-0.067
-317.012	-40.748	-0.087	0.045
-315.997	-200.000	0.001	-0.214
-314.983	-200.000	0.023	0.216
-313.968	353.445	-0.152	0.304
-312.953	-96.125	-0.201	-0.054
-311.939	254.462	0.226	0.390
-310.924	-200.000	-0.003	-0.083
-309.910	-200.000	0.049	-0.365
-308.895	-140.040	0.248	-0.026
-307.880	0.316	0.104	0.075
-306.866	173.438	-0.143	0.207
-305.851	-85.977	-0.204	0.064
-304.837	-3.606	0.112	0.078
-303.822	193.994	0.089	-0.135
-302.807	-110.553	-0.313	0.065
-301.793	12.998	0.248	-0.193
-300.778	800.000	-0.065	0.213
-299.764	132.160	-0.207	-0.268
-298.749	82.944	0.346	0.378
-297.735	116.071	-0.173	0.212
-296.720	82.702	0.194	0.212
-295.705	153.285	0.246	-0.338
-294.691	372.508	0.079	-0.162
-293.676	229.985	0.208	-0.341
-292.662	-200.000	0.098	0.000
-291.647	144.189	0.154	0.206
-290.632	-7.052	-0.086	-0.058
-289.618	341.354	-0.152	-0.298
-288.603	-119.044	-0.250	-0.044
-287.589	-6.374	-0.166	0.114
-286.574	7.747	0.169	0.127
-285.559	-200.000	0.023	-0.116
-284.545	-200.000	0.013	-0.418
-283.530	17.914	0.298	-0.239
-282.516	-106.990	-0.162	0.036
-281.501	6.013	-0.187	0.139
-280.486	-200.000	-0.040	-0.336
-279.472	221.176	0.110	0.178
-278.457	271.043	0.146	-0.259
-277.443	78.741	-0.047	0.050
-276.428	800.000	0.056	0.198
-275.413	-137.749	0.377	0.042
-274.399	-108.850	0.272	-0.058
-273.384	340.253	0.230	-0.450
-272.370	-200.000	0.080	0.366
-271.355	3.558	-0.204	-0.149
-270.340	120.793	0.091	-0.114
-269.326	-83.120	0.623	-0.202
-268.311	123.198	0.103	0.129
-267.297	-3.550	0.311	-0.217
-266.282	-16.631	0.139	-0.088
-265.267	488.291	-0.084	0.194
-264.253	175.458	-0.130	-0.189
-263.238	107.446	-0.258	0.308
-262.224	-177.409	-0.201	0.005
-261.209	16.465	0.124	0.099
-260.195	-200.000	0.003	0.104
-259.180	-71.808	0.144	0.054
-258.165	-105.633	-0.278	0.063
-257.151	15.549	-0.226	0.178
-256.136	136.476	-0.058	-0.076
-255.122	-139.347	0.258	0.028
-254.107	305.221	-0.060	0.112
-253.092	-167.738	0.290	0.012
-252.078	779.179	0.077	0.211
-251.063	-124.534	0.062	-0.010
-250.049	-92.840	0.187	0.053
-249.034	-43.838	0.315	0.159
-248.019	609.069	-0.041	-0.102
-247.005	222.462	0.043	-0.070
-245.990	-200.000	0.007	-0.125
-244.976	800.000	0.060	0.183
-243.961	63.447	0.092	-0.093
-242.946	-92.302	0.596	0.169
-241.932	4.469	0.451	0.332
-240.917	245.926	-0.008	0.014
-239.903	-23.599	-0.216	0.130
-238.888	-83.442	0.191	0.061
-237.873	-132.562	0.260	0.034
-236.859	398.558	0.087	0.182
-235.844	-200.000	-0.007	-0.280
-234.830	32.566	0.116	-0.101
-233.815	-37.117	0.197	0.106
-232.800	-98.068	0.009	-0.002
-231.786	85.306	-0.229	0.253
-230.771	72.725	-0.215	-0.225
-229.757	-109.380	-0.114	0.024
-228.742	-110.285	-0.262	-0.055
-227.727	45.907	-0.314	-0.291
-226.713	76.363	-0.316	0.336
-225.698	-93.317	-0.220	-0.061
-224.684	800.000	0.114	0.420
-223.669	-200.000	-0.031	0.210
-222.655	-162.511	-0.108	-0.005
-221.640	-149.518	-0.113	-0.009
-220.625	-200.000	-0.025	-0.123
-219.611	306.089	0.088	0.164
-218.596	-200.000	0.036	-0.354
-217.582	-200.000	0.000	-0.229
-216.567	133.909	0.219	0.285
-215.552	757.851	0.100	0.271
-214.538	-117.305	-0.039	-0.007
-213.523	-200.000	0.026	0.214
-212.509	-200.000	0.009	-0.211
-211.494	349.561	0.168	-0.332
-210.479	-6.420	-0.095	-0.065
-209.465	-3.851	0.021	-0.014
-208.450	27.966	-0.422	0.356
-207.436	652.751	-0.108	0.277
-206.421	65.053	-0.014	-0.014
-205.406	683.309	0.110	0.288
-204.392	312.794	0.068	-0.128
-203.377	137.145	-0.083	-0.109
-202.363	-200.000	0.043	-0.344
-201.348	-200.000	0.031	-0.206
-200.333	39.225	-0.227	0.204
-199.319	-200.000	-0.010	0.402
-198.304	211.275	0.136	0.214
-197.290	395.805	0.082	0.171
-196.275	297.320	0.273	-0.502
-195.260	-43.217	-0.329	-0.167
-194.246	-200.000	-0.011	0.286
-193.231	-200.000	-0.066	0.315
-192.217	-171.962	0.208	0.007
-191.202	-68.004	0.287	0.112
-190.187	-24.595	-0.444	0.265
-189.173	800.000	-0.059	-0.173
-188.158	-200.000	-0.026	-0.242
-187.144	-200.000	0.014	0.232
-186.129	800.000	0.067	0.249
-185.114	800.000	-0.105	0.382
-184.100	-110.529	0.138	0.029
-183.085	-200.000	-0.015	0.446
-182.071	800.000	-0.027	-0.109
-181.056	63.206	0.059	-0.059
-180.042	-143.910	0.238	-0.022
-179.027	702.171	0.020	-0.052
-178.012	-200.000	0.005	-0.167
-176.998	50.241	0.154	0.146
-175.983	78.859	-0.194	-0.207
-174.969	-144.310	0.142	-0.013
-173.954	254.847	-0.079	0.135
-172.939	-49.051	-0.226	0.108
-171.925	-79.405	-0.179	0.061
-170.910	679.599	-0.081	0.210
-169.896	800.000	0.053	-0.226
-168.881	-200.000	0.016	0.153
-167.866	-200.000	-0.054	-0.241
-166.852	29.812	0.086	-0.073
-165.837	64.872	-0.054	0.055
-164.823	-64.411	0.365	-0.148
-163.808	199.088	-0.028	0.042
-162.793	-44.164	0.211	0.106
-161.779	387.543	-0.077	0.159
-160.764	81.068	0.178	-0.193
-159.750	800.000	-0.076	0.258
-158.735	22.809	0.206	0.169
-157.720	788.015	-0.073	0.199
-156.706	-0.077	-0.171	0.122
-155.691	453.962	0.101	0.224
-154.677	523.097	-0.054	-0.126
-153.662	158.820	-0.150	-0.208
-152.647	-52.986	0.238	-0.110
-151.633	232.084	-0.185	-0.304
-150.618	10.303	-0.472	0.359
-149.604	-200.000	-0.050	0.269
-148.589	-200.000	-0.001	0.110
-147.574	-200.000	-0.047	-0.266
-146.560	-28.482	-0.133	-0.077
-145.545	343.879	-0.151	0.296
-144.531	18.538	-0.293	0.234
-143.516	-200.000	-0.073	-0.000
-142.502	-152.105	0.350	0.025
-141.487	142.261	0.222	-0.295
-140.472	58.268	-0.092	0.090
-139.458	-200.000	0.009	0.180
-138.443	-50.442	0.229	0.108
-137.429	305.784	0.163	-0.304
-136.414	-146.817	0.157	-0.014
-135.399	263.435	-0.150	-0.260
-134.385	35.232	-0.091	-0.080
-133.370	800.000	0.063	-0.193
-132.356	-200.000	-0.003	0.111
-131.341	800.000	-0.057	-0.178
-130.326	-75.937	0.151	-0.054
-129.312	77.545	0.424	-0.451
-128.297	-200.000	0.002	-0.348
-127.283	301.453	-0.040	-0.074
-126.268	17.597	0.245	0.195
-125.253	800.000	-0.023	-0.093
-124.239	95.816	-0.006	-0.007
-123.224	-200.000	0.017	0.358
-122.210	800.000	0.026	0.098
-121.195	388.112	0.042	0.087
