DTS Sentinel unit serial number:	SN413079Multiplexer serial number:	ORYXHardware model number:	OX4-SRSoftware version number:	ORYX F/W v4.00 Oryx Data Collector v3.7.2.0data status	okinstallation	princeton_trtdifferential loss correction	single-endedforward channel	channel 1reverse channel	N/Adate	2019/09/17time	05:50:35forward acquisition time	60.00reverse acquisition time	0.00gamma	496.2192k internal	0.2326k external	0.2326temperature offset calibration	0.9964default loss term (dB/km)	0.3790temperature slope calibration	1.0000multiplexer offset coefficient	1.0000multiplexer slope coefficient	1.0000fibre end	0.00T internal ref (°C)	28.94T ext. ref 1 (°C)	0.12T ext. ref 2 (°C)	22.75length (m)	temperature (°C)	Stokes	anti-Stokes-747.200	2.063	-0.270	0.197
-746.185	-200.000	-0.067	0.527
-745.171	38.117	-0.255	0.229
-744.156	150.544	-0.100	0.137
-743.142	-81.785	0.326	-0.108
-742.127	-87.833	0.180	-0.055
-741.112	-200.000	-0.026	-0.167
-740.098	800.000	-0.034	-0.124
-739.083	-200.000	-0.005	-0.079
-738.069	-87.632	0.108	-0.033
-737.054	3.303	0.140	0.103
-736.039	52.274	-0.061	0.058
-735.025	95.462	0.286	-0.328
-734.010	186.433	0.102	0.153
-732.996	-200.000	0.014	-0.134
-731.981	20.495	0.058	0.048
-730.966	71.565	0.153	0.160
-729.952	114.689	-0.366	-0.449
-728.937	-200.000	-0.008	-0.212
-727.923	4.259	0.057	-0.042
-726.908	-43.273	-0.190	-0.097
-725.894	-200.000	-0.042	-0.290
-724.879	-4.342	0.239	-0.167
-723.864	700.714	0.113	-0.299
-722.850	-124.213	0.288	0.045
-721.835	-135.686	-0.162	-0.019
-720.821	-153.611	-0.192	0.013
-719.806	-24.629	0.101	0.060
-718.791	-173.153	-0.167	0.005
-717.777	-200.000	-0.016	-0.288
-716.762	-102.322	-0.188	-0.045
-715.748	-200.000	0.070	-0.326
-714.733	-200.000	-0.069	-0.332
-713.718	800.000	-0.152	-0.541
-712.704	-35.551	-0.144	0.079
-711.689	800.000	0.074	0.271
-710.675	-6.344	-0.104	-0.072
-709.660	401.026	-0.092	0.195
-708.645	-166.036	-0.164	-0.007
-707.631	-200.000	-0.012	-0.077
-706.616	-159.839	-0.146	-0.008
-705.602	36.312	-0.040	-0.036
-704.587	-69.546	-0.317	-0.122
-703.572	246.730	-0.034	0.057
-702.558	56.274	-0.045	-0.044
-701.543	179.227	0.137	-0.202
-700.529	-53.629	-0.163	0.075
-699.514	-200.000	0.017	-0.219
-698.499	435.141	-0.024	0.052
-697.485	253.763	-0.032	-0.056
-696.470	-88.586	-0.302	-0.090
-695.456	291.187	0.083	-0.153
-694.441	-126.841	-0.197	0.029
-693.426	97.091	0.099	-0.114
-692.412	116.983	-0.180	0.223
-691.397	221.987	0.123	0.199
-690.383	7.892	-0.105	-0.079
-689.368	227.706	-0.119	-0.195
-688.354	-26.931	-0.123	-0.073
-687.339	82.100	-0.014	0.015
-686.324	266.688	-0.085	0.149
-685.310	-8.845	-0.078	-0.053
-684.295	359.146	-0.242	0.487
-683.281	229.055	-0.116	-0.191
-682.266	99.743	-0.278	0.324
-681.251	582.170	0.098	0.242
-680.237	500.315	-0.120	0.278
-679.222	564.327	0.127	-0.309
-678.208	366.430	0.010	-0.019
-677.193	800.000	-0.020	-0.067
-676.178	-158.070	0.317	-0.019
-675.164	-60.886	-0.115	-0.049
-674.149	117.576	-0.121	-0.150
-673.135	-86.057	-0.260	0.081
-672.120	800.000	0.045	-0.177
-671.105	800.000	0.077	0.223
-670.091	-188.990	-0.131	0.002
-669.076	70.382	0.112	-0.116
-668.062	-101.018	0.420	0.104
-667.047	200.869	0.058	-0.090
-666.032	-99.199	0.093	0.024
-665.018	-25.407	0.084	0.050
-664.003	-14.930	-0.117	-0.076
-662.989	93.923	-0.206	-0.235
-661.974	-90.940	0.268	-0.077
-660.959	800.000	0.011	-0.039
-659.945	800.000	-0.104	-0.297
-658.930	34.295	0.237	-0.208
-657.916	80.432	-0.048	0.052
-656.901	-145.490	-0.312	0.028
-655.886	800.000	-0.052	-0.174
-654.872	7.244	-0.185	-0.139
-653.857	-200.000	-0.001	0.051
-652.843	266.402	0.096	0.169
-651.828	17.012	-0.071	-0.057
-650.814	2.991	0.122	0.089
-649.799	46.735	-0.250	0.234
-648.784	-63.898	-0.080	-0.033
-647.770	0.776	0.178	-0.128
-646.755	-161.945	0.260	0.013
-645.741	281.365	-0.151	-0.272
-644.726	-152.906	-0.381	-0.027
-643.711	-51.324	0.166	0.078
-642.697	-200.000	0.001	0.180
-641.682	-122.697	-0.165	0.027
-640.668	291.161	-0.169	0.309
-639.653	102.136	-0.110	-0.129
-638.638	-44.592	-0.433	-0.217
-637.624	-9.884	0.130	-0.087
-636.609	213.649	0.153	-0.243
-635.595	-5.912	0.169	-0.116
-634.580	108.226	-0.059	0.071
-633.565	-105.248	-0.255	-0.058
-632.551	-22.784	0.090	-0.055
-631.536	22.212	-0.339	-0.278
-630.522	63.044	0.148	-0.149
-629.507	0.276	0.136	-0.098
-628.492	800.000	0.037	-0.140
-627.478	-39.758	-0.103	0.054
-626.463	-102.599	-0.156	-0.037
-625.449	295.422	-0.230	-0.422
-624.434	487.423	-0.061	-0.139
-623.419	800.000	0.121	-0.410
-622.405	-148.411	-0.460	-0.038
-621.390	800.000	-0.045	-0.171
-620.376	-60.334	-0.228	-0.097
-619.361	353.821	-0.161	-0.320
-618.346	800.000	-0.125	0.370
-617.332	18.071	-0.419	0.336
-616.317	-40.312	0.226	0.118
-615.303	354.356	0.108	-0.215
-614.288	-27.116	-0.131	-0.077
-613.273	-110.210	-0.286	0.060
-612.259	800.000	0.064	-0.181
-611.244	56.368	-0.075	-0.073
-610.230	244.087	0.296	-0.498
-609.215	232.425	-0.049	-0.081
-608.201	-200.000	0.051	0.271
-607.186	356.056	-0.091	-0.182
-606.171	268.460	0.076	0.134
-605.157	-200.000	0.038	0.176
-604.142	-1.969	-0.208	0.147
-603.128	-96.418	0.188	-0.050
-602.113	1.656	0.231	-0.167
-601.098	-117.519	0.235	-0.043
-600.084	237.037	-0.221	0.368
-599.069	-78.479	0.248	0.085
-598.055	-200.000	0.001	-0.189
-597.040	-162.423	-0.029	0.001
-596.025	56.575	0.077	0.076
-595.011	-200.000	0.031	-0.172
-593.996	320.204	0.110	0.210
-592.982	271.365	-0.106	-0.188
-591.967	-200.000	0.013	-0.064
-590.952	-200.000	-0.015	-0.358
-589.938	144.939	0.211	-0.283
-588.923	-200.000	0.009	-0.225
-587.909	56.094	0.081	0.079
-586.894	-165.517	-0.069	-0.003
-585.879	169.066	0.225	-0.321
-584.865	-89.266	-0.155	0.046
-583.850	-19.518	-0.136	-0.084
-582.836	164.836	-0.061	0.086
-581.821	800.000	0.041	0.148
-580.806	-147.830	0.252	-0.021
-579.792	800.000	-0.076	-0.293
-578.777	-86.754	-0.241	-0.074
-577.763	293.161	-0.062	0.113
-576.748	-66.619	-0.177	0.070
-575.733	6.832	-0.308	-0.230
-574.719	5.648	-0.211	0.156
-573.704	-112.061	-0.202	0.041
-572.690	-109.367	-0.321	0.068
-571.675	800.000	-0.097	0.337
-570.661	196.345	-0.159	0.243
-569.646	-156.367	-0.019	-0.001
-568.631	-110.859	0.580	-0.120
-567.617	138.795	-0.179	0.236
-566.602	-57.335	0.182	0.080
-565.588	420.274	-0.187	0.402
-564.573	-53.136	0.234	0.108
-563.558	-109.235	0.255	-0.054
-562.544	-100.163	0.091	-0.023
-561.529	425.226	-0.115	0.247
-560.515	-105.404	-0.264	0.060
-559.500	71.221	-0.228	0.237
-558.485	96.929	-0.205	0.235
-557.471	-121.413	-0.270	-0.045
-556.456	-18.297	-0.254	0.159
-555.442	-171.401	-0.285	-0.010
-554.427	702.339	0.010	-0.026
-553.412	-139.185	-0.389	-0.042
-552.398	15.781	0.235	-0.185
-551.383	-169.362	-0.328	-0.012
-550.369	282.723	0.140	-0.252
-549.354	-132.659	0.227	0.029
-548.339	-94.582	0.404	-0.110
-547.325	-200.000	-0.037	-0.354
-546.310	-145.348	0.108	0.010
-545.296	52.272	0.184	-0.176
-544.281	-98.732	-0.416	-0.106
-543.266	-200.000	-0.083	0.488
-542.252	-171.609	0.012	0.000
-541.237	-99.814	0.154	0.039
-540.223	2.611	0.080	-0.058
-539.208	-55.317	-0.336	-0.151
-538.193	800.000	-0.059	0.169
-537.179	-88.522	0.164	-0.049
-536.164	-99.027	0.016	0.004
-535.150	-76.289	0.493	-0.174
-534.135	77.855	-0.187	-0.199
-533.121	-144.895	0.054	-0.005
-532.106	431.075	0.141	-0.305
-531.091	-7.084	0.095	0.064
-530.077	518.014	0.114	-0.266
-529.062	-75.122	-0.370	-0.132
-528.048	-197.691	-0.445	-0.003
-527.033	190.982	-0.182	0.274
-526.018	-3.194	0.232	-0.162
-525.004	245.234	0.125	0.210
-523.989	-114.023	-0.285	0.055
-522.975	-200.000	-0.002	0.290
-521.960	-200.000	-0.006	-0.176
-520.945	476.284	-0.106	0.239
-519.931	189.990	-0.109	0.164
-518.916	200.031	0.192	-0.295
-517.902	-9.786	-0.243	-0.162
-516.887	66.896	0.300	-0.306
-515.872	-77.261	-0.451	-0.157
-514.858	153.973	-0.171	0.235
-513.843	731.652	-0.082	0.219
-512.829	-51.516	0.155	-0.072
-511.814	-33.259	0.243	-0.135
-510.799	-18.919	0.043	0.027
-509.785	45.302	0.138	0.127
-508.770	6.719	0.090	0.067
-507.756	-75.582	-0.142	-0.051
-506.741	-200.000	0.002	0.129
-505.726	6.063	-0.294	-0.218
-504.712	18.852	0.273	-0.218
-503.697	-9.118	-0.119	0.080
-502.683	113.543	0.037	-0.045
-501.668	-200.000	0.005	-0.077
-500.653	-17.473	0.184	0.116
-499.639	486.846	-0.060	0.137
-498.624	-16.360	0.183	-0.116
-497.610	-108.963	0.215	-0.046
-496.595	55.616	0.295	-0.286
-495.581	167.602	-0.046	0.066
-494.566	342.653	0.100	0.196
-493.551	-200.000	-0.011	0.203
-492.537	117.776	-0.122	0.150
-491.522	-57.505	-0.146	-0.064
-490.508	-127.252	-0.366	0.053
-489.493	800.000	-0.079	-0.259
-488.478	380.764	0.058	-0.119
-487.464	-32.640	0.226	0.126
-486.449	800.000	-0.062	-0.185
-485.435	-200.000	-0.011	0.089
-484.420	800.000	0.048	0.186
-483.405	99.173	0.315	0.363
-482.391	131.245	-0.094	-0.120
-481.376	137.475	0.046	-0.060
-480.362	102.411	0.078	0.092
-479.347	800.000	-0.059	0.250
-478.332	83.607	-0.140	-0.153
-477.318	-108.819	0.146	-0.031
-476.303	-200.000	-0.065	-0.290
-475.289	452.717	0.054	0.119
-474.274	-98.344	0.242	-0.062
-473.259	157.037	0.121	-0.167
-472.245	-62.520	0.057	-0.023
-471.230	-106.490	0.227	-0.051
-470.216	-80.123	-0.362	-0.121
-469.201	800.000	-0.101	-0.285
-468.186	11.449	0.257	0.196
-467.172	151.943	-0.065	-0.088
-466.157	245.915	-0.081	-0.136
-465.143	-200.000	-0.001	0.300
-464.128	77.642	0.244	-0.259
-463.113	-188.614	-0.172	-0.002
-462.099	369.387	0.075	0.152
-461.084	80.784	-0.177	-0.191
-460.070	-95.295	-0.059	-0.016
-459.055	-110.024	0.261	-0.055
-458.040	800.000	0.073	0.258
-457.026	-200.000	0.015	-0.364
-456.011	138.656	-0.190	-0.249
-454.997	800.000	-0.066	-0.253
-453.982	-36.159	-0.164	-0.088
-452.968	372.687	-0.118	0.238
-451.953	-73.343	-0.265	0.097
-450.938	42.649	-0.179	0.163
-449.924	-172.652	0.119	-0.004
-448.909	-149.768	-0.284	0.022
-447.895	299.980	-0.091	0.167
-446.880	223.833	-0.191	0.307
-445.865	-98.678	-0.370	0.094
-444.851	-4.746	-0.137	0.095
-443.836	213.916	-0.183	-0.288
-442.822	28.483	0.074	0.063
-441.807	127.331	-0.197	0.250
-440.792	-34.336	-0.301	0.164
-439.778	-116.608	0.244	-0.045
-438.763	-200.000	0.002	-0.098
-437.749	217.264	-0.075	0.118
-436.734	7.280	0.112	-0.083
-435.719	-176.150	-0.284	-0.007
-434.705	-58.533	0.162	0.070
-433.690	567.212	0.080	0.193
-432.676	252.706	-0.091	0.154
-431.661	87.083	0.164	-0.180
-430.646	-70.006	-0.177	0.067
-429.632	11.308	-0.080	0.061
-428.617	-75.187	0.430	-0.153
-427.603	-142.641	0.298	0.029
-426.588	5.887	-0.326	0.240
-425.573	-136.833	0.361	0.041
-424.559	131.465	-0.189	-0.242
-423.544	800.000	-0.023	-0.076
-422.530	76.686	-0.096	-0.101
-421.515	-200.000	0.013	0.071
-420.500	-134.506	-0.358	-0.044
-419.486	121.082	-0.121	0.150
-418.471	-95.237	-0.212	-0.057
-417.457	387.781	0.064	0.132
-416.442	800.000	0.056	-0.192
-415.428	800.000	-0.046	0.155
-414.413	800.000	0.038	0.162
-413.398	-114.955	0.562	0.106
-412.384	-33.861	-0.133	0.073
-411.369	-200.000	0.029	-0.236
-410.355	-200.000	-0.003	-0.167
-409.340	-118.594	0.223	-0.039
-408.325	800.000	0.050	-0.141
-407.311	-125.709	-0.121	-0.018
-406.296	-200.000	0.005	0.040
-405.282	-200.000	0.028	-0.235
-404.267	-200.000	0.078	-0.377
-403.252	332.699	-0.085	0.163
-402.238	-56.491	0.236	-0.104
-401.223	281.690	0.057	-0.102
-400.209	189.950	0.196	-0.292
-399.194	87.449	0.291	-0.321
-398.179	-22.351	0.416	-0.251
-397.165	34.092	0.142	-0.123
-396.150	40.145	-0.262	0.235
-395.136	-5.468	-0.190	-0.130
-394.121	-200.000	0.011	0.285
-393.106	-200.000	0.016	0.183
-392.092	168.249	-0.227	0.322
-391.077	75.407	-0.114	0.120
-390.063	72.577	0.091	-0.094
-389.048	10.477	0.215	-0.163
-388.033	-200.000	0.008	0.036
-387.019	137.243	-0.164	-0.213
-386.004	800.000	-0.018	-0.071
-384.990	-200.000	0.024	-0.140
-383.975	210.465	-0.048	-0.075
-382.960	-9.650	0.423	0.280
-381.946	-200.000	-0.013	0.337
-380.931	800.000	-0.070	0.276
-379.917	26.043	0.178	0.148
-378.902	-127.917	-0.396	-0.057
-377.888	-200.000	-0.005	0.086
-376.873	-1.089	-0.227	-0.160
-375.858	-77.927	0.369	0.126
-374.844	-200.000	0.007	0.034
-373.829	-95.516	-0.151	-0.040
-372.815	-4.291	-0.227	0.156
-371.800	110.685	-0.091	-0.109
-370.785	457.961	-0.123	0.272
-369.771	-184.508	0.049	-0.001
-368.756	8.928	0.297	0.223
-367.742	318.812	0.125	-0.236
-366.727	-200.000	0.025	0.319
-365.712	-17.806	0.156	0.097
-364.698	-200.000	-0.043	0.283
-363.683	94.441	0.073	-0.082
-362.669	-200.000	0.038	-0.206
-361.654	3.865	-0.250	-0.181
-360.639	-200.000	-0.061	-0.440
-359.625	77.885	0.222	0.235
-358.610	-89.988	0.084	0.024
-357.596	-129.045	-0.117	-0.016
-356.581	33.255	0.148	0.128
-355.566	800.000	0.143	-0.475
-354.552	-200.000	-0.005	0.161
-353.537	800.000	0.050	0.148
-352.523	139.152	-0.115	-0.150
-351.508	800.000	-0.079	0.247
-350.493	800.000	-0.082	0.247
-349.479	310.495	-0.100	0.187
-348.464	120.307	0.156	0.192
-347.450	5.035	-0.134	-0.098
-346.435	-154.700	-0.390	-0.026
-345.420	326.141	-0.143	0.271
-344.406	-200.000	-0.024	-0.126
-343.391	139.603	0.125	-0.164
-342.377	-64.538	-0.268	0.108
-341.362	-200.000	0.023	0.271
-340.348	-93.079	0.143	-0.040
-339.333	-147.194	0.228	0.019
-338.318	440.888	-0.031	-0.066
-337.304	-126.341	0.303	-0.045
-336.289	-160.425	0.189	0.010
-335.275	21.967	0.258	-0.209
-334.260	-138.630	-0.230	-0.025
-333.245	-6.675	0.218	-0.148
-332.231	800.000	0.061	-0.218
-331.216	476.405	-0.024	0.054
-330.202	-200.000	0.045	-0.250
-329.187	50.170	0.153	0.143
-328.172	-4.386	0.042	0.028
-327.158	-76.135	0.445	-0.156
-326.143	51.780	-0.121	-0.114
-325.129	300.931	0.160	0.292
-324.114	17.694	-0.137	0.108
-323.099	-71.510	0.406	0.151
-322.085	-6.767	0.135	0.091
-321.070	-78.972	-0.201	0.068
-320.056	229.663	-0.092	-0.149
-319.041	800.000	0.096	0.311
-318.026	-200.000	-0.003	-0.132
-317.012	-168.555	0.093	0.004
-315.997	-93.430	-0.270	-0.074
-314.983	533.857	-0.049	-0.114
-313.968	-14.676	0.094	0.060
-312.953	383.484	0.028	-0.058
-311.939	606.515	-0.147	-0.364
-310.924	-70.524	-0.053	0.020
-309.910	-160.415	0.271	-0.014
-308.895	-86.312	-0.096	-0.029
-307.880	52.253	0.080	-0.076
-306.866	711.940	0.035	-0.091
-305.851	724.687	-0.062	0.164
-304.837	-123.955	-0.197	-0.031
-303.822	800.000	0.076	0.271
-302.807	-200.000	0.010	-0.120
-301.793	-200.000	-0.060	-0.398
-300.778	-71.047	0.194	-0.072
-299.764	-178.604	-0.112	-0.003
-298.749	92.068	-0.161	0.179
-297.735	389.815	0.206	-0.424
-296.720	-69.470	-0.150	-0.057
-295.705	76.579	-0.016	0.016
-294.691	800.000	-0.070	0.218
-293.676	-43.503	0.322	-0.161
-292.662	-87.375	0.200	-0.060
-291.647	106.962	-0.135	0.159
-290.632	-79.601	0.173	-0.058
-289.618	9.727	-0.103	0.077
-288.603	-200.000	-0.013	0.307
-287.589	-200.000	0.001	0.213
-286.574	-50.176	-0.298	0.140
-285.559	-147.737	0.316	0.026
-284.545	-49.610	-0.270	0.127
-283.530	-149.987	0.261	0.020
-282.516	172.388	0.240	0.343
-281.501	92.514	0.117	0.131
-280.486	-15.553	-0.270	-0.171
-279.472	86.730	0.065	-0.071
-278.457	680.979	-0.073	0.188
-277.443	154.511	0.230	0.313
-276.428	-64.869	0.179	0.072
-275.413	88.680	-0.107	-0.117
-274.399	71.956	0.139	0.144
-273.384	-200.000	-0.008	0.272
-272.370	91.815	-0.174	0.194
-271.355	-49.027	-0.292	-0.139
-270.340	-50.536	0.249	0.116
-269.326	-69.945	-0.030	-0.011
-268.311	114.016	0.043	0.052
-267.297	47.603	-0.180	0.166
-266.282	800.000	0.074	0.279
-265.267	108.581	0.236	0.280
-264.253	-200.000	0.039	-0.186
-263.238	368.658	-0.062	0.124
-262.224	249.792	0.106	0.178
-261.209	-9.846	0.148	0.097
-260.195	294.291	0.126	0.227
-259.180	-96.671	0.477	0.124
-258.165	-36.825	0.215	0.114
-257.151	-200.000	0.026	0.157
-256.136	-70.392	0.279	0.105
-255.122	-109.082	-0.307	-0.065
-254.107	-200.000	0.002	0.059
-253.092	146.712	-0.162	0.216
-252.078	13.703	0.329	0.253
-251.063	66.441	0.203	-0.204
-250.049	-162.727	0.195	0.009
-249.034	800.000	-0.028	-0.101
-248.019	800.000	-0.069	0.222
-247.005	-200.000	-0.006	0.138
-245.990	65.159	-0.106	0.106
-244.976	-165.852	0.249	-0.011
-243.961	-200.000	-0.034	0.258
-242.946	5.658	0.272	-0.199
-241.932	-136.803	0.173	-0.020
-240.917	-127.080	0.390	0.057
-239.903	-77.970	0.160	-0.055
-238.888	800.000	-0.096	-0.274
-237.873	213.636	-0.068	-0.107
-236.859	-89.810	-0.309	-0.089
-235.844	-14.921	-0.324	-0.206
-234.830	800.000	0.060	-0.237
-233.815	-200.000	-0.007	-0.207
-232.800	-100.538	-0.169	0.041
-231.786	47.882	-0.165	0.152
-230.771	-153.166	-0.163	0.011
-229.757	0.009	0.172	0.121
-228.742	-47.770	0.339	-0.162
-227.727	5.755	0.216	-0.158
-226.713	-200.000	0.015	-0.326
-225.698	-46.525	-0.071	0.034
-224.684	45.928	-0.007	-0.007
-223.669	-67.706	0.320	0.124
-222.655	431.477	-0.169	-0.362
-221.640	123.402	0.140	0.174
-220.625	60.726	0.104	-0.102
-219.611	-3.253	-0.244	-0.168
-218.596	-125.672	-0.120	-0.018
-217.582	-45.025	-0.230	0.113
-216.567	-24.836	-0.126	0.074
-215.552	-193.685	0.235	-0.002
-214.538	-200.000	-0.064	-0.330
-213.523	99.654	-0.189	-0.216
-212.509	204.562	0.084	0.128
-211.494	54.429	-0.121	-0.115
-210.479	-16.897	-0.150	-0.094
-209.465	192.229	-0.038	0.056
-208.450	177.191	-0.047	0.067
-207.436	16.384	0.134	-0.105
-206.421	362.526	0.076	-0.150
-205.406	18.691	0.297	-0.235
-204.392	639.269	0.050	0.124
-203.377	291.883	0.117	-0.210
-202.363	70.859	0.146	0.149
-201.348	800.000	0.062	-0.248
-200.333	145.768	0.114	-0.150
-199.319	353.881	0.008	-0.016
-198.304	455.980	-0.058	0.128
-197.290	380.579	0.119	0.242
-196.275	433.957	0.180	0.385
-195.260	97.642	0.127	0.144
-194.246	-71.103	0.142	0.053
-193.231	-20.260	0.517	0.314
-192.217	-172.335	0.185	-0.006
-191.202	503.439	-0.157	0.358
-190.187	-30.754	-0.227	0.126
-189.173	703.529	0.078	0.203
-188.158	667.059	0.028	0.071
-187.144	800.000	-0.045	0.138
-186.129	-62.274	-0.061	-0.025
-185.114	349.373	-0.153	0.298
-184.100	800.000	-0.093	-0.300
-183.085	244.148	-0.035	0.057
-182.071	12.863	-0.078	0.060
-181.056	7.075	0.144	0.106
-180.042	88.004	0.226	-0.248
-179.027	104.575	-0.302	-0.351
-178.012	9.618	-0.157	0.118
-176.998	61.326	-0.164	-0.161
-175.983	-37.764	0.116	0.061
-174.969	800.000	-0.090	0.268
-173.954	-43.101	-0.332	-0.166
-172.939	-200.000	-0.023	-0.141
-171.925	800.000	0.091	0.255
-170.910	800.000	0.019	-0.068
-169.896	326.656	-0.096	0.181
-168.881	112.045	-0.208	-0.248
-167.866	387.124	0.071	-0.144
-166.852	-200.000	-0.018	0.247
-165.837	3.315	0.223	0.160
-164.823	-63.905	0.206	0.083
-163.808	800.000	-0.121	-0.339
-162.793	-178.251	-0.182	-0.004
-161.779	800.000	0.091	0.322
-160.764	17.326	-0.120	0.094
-159.750	625.029	-0.071	-0.176
-158.735	-200.000	0.103	-0.524
-157.720	201.995	0.047	-0.072
-156.706	123.098	-0.138	-0.170
-155.691	-55.116	-0.092	0.041
-154.677	-62.614	0.014	-0.006
-153.662	42.843	0.321	0.288
-152.647	-200.000	0.008	0.151
-151.633	-61.457	-0.067	0.028
-150.618	-156.865	0.129	0.008
-149.604	-200.000	-0.017	-0.160
-148.589	-26.144	-0.108	0.063
-147.574	-20.694	0.156	-0.094
-146.560	-36.568	-0.029	-0.015
-145.545	182.478	-0.068	0.098
-144.531	-148.383	-0.043	0.004
-143.516	-96.307	0.143	-0.037
-142.502	91.088	0.120	-0.133
-141.487	472.973	-0.040	0.088
-140.472	-83.099	0.370	0.117
-139.458	27.975	0.196	-0.163
-138.443	-200.000	-0.011	0.146
-137.429	-200.000	0.000	-0.149
-136.414	96.902	0.094	0.106
-135.399	-129.758	-0.472	-0.064
-134.385	470.121	-0.032	-0.072
-133.370	15.376	0.021	0.016
-132.356	800.000	-0.040	0.166
-131.341	-200.000	0.085	0.635
-130.326	800.000	-0.019	0.053
-129.312	-87.039	0.159	-0.048
-128.297	800.000	0.018	-0.074
-127.283	800.000	0.103	0.414
-126.268	-200.000	0.033	-0.218
-125.253	416.800	0.067	-0.142
-124.239	-200.000	0.001	-0.018
-123.224	-55.789	-0.225	-0.099
-122.210	211.109	0.063	-0.098
-121.195	800.000	-0.105	-0.292
-120.180	717.658	0.135	0.353
