DTS Sentinel unit serial number:	SN413079Multiplexer serial number:	ORYXHardware model number:	OX4-SRSoftware version number:	ORYX F/W v4.00 Oryx Data Collector v3.7.2.0data status	okinstallation	princeton_trtdifferential loss correction	single-endedforward channel	channel 1reverse channel	N/Adate	2019/09/19time	00:14:35forward acquisition time	60.00reverse acquisition time	0.00gamma	496.2192k internal	0.2342k external	0.2342temperature offset calibration	1.0018default loss term (dB/km)	0.3790temperature slope calibration	1.0000multiplexer offset coefficient	1.0000multiplexer slope coefficient	1.0000fibre end	0.00T internal ref (°C)	22.80T ext. ref 1 (°C)	0.75T ext. ref 2 (°C)	15.85length (m)	temperature (°C)	Stokes	anti-Stokes-747.200	-200.000	0.019	0.183
-746.185	34.227	0.124	0.108
-745.171	132.755	0.220	0.285
-744.156	800.000	0.021	0.084
-743.142	-200.000	-0.040	0.244
-742.127	-200.000	-0.099	0.446
-741.112	-200.000	0.017	-0.436
-740.098	-70.554	-0.258	-0.098
-739.083	-200.000	-0.032	0.257
-738.069	212.270	-0.168	0.266
-737.054	-139.052	-0.262	0.028
-736.039	-85.552	-0.174	0.054
-735.025	326.433	-0.080	0.154
-734.010	84.083	-0.017	0.019
-732.996	76.244	-0.161	-0.171
-731.981	-93.377	-0.181	0.050
-730.966	-184.554	-0.535	0.009
-729.952	-143.155	0.167	0.016
-728.937	-111.998	0.118	0.024
-727.923	-143.331	0.036	0.003
-726.908	-101.711	-0.173	0.042
-725.894	-70.021	-0.306	0.117
-724.879	-121.923	-0.269	-0.044
-723.864	-56.939	0.303	0.134
-722.850	255.611	-0.021	-0.037
-721.835	-22.312	-0.101	-0.061
-720.821	-77.173	-0.268	0.094
-719.806	34.606	-0.143	-0.125
-718.791	-200.000	0.009	-0.147
-717.777	123.550	-0.277	-0.348
-716.762	-105.099	-0.546	0.125
-715.748	-62.972	-0.082	0.034
-714.733	183.708	0.173	-0.255
-713.718	211.070	-0.126	0.199
-712.704	672.121	0.038	-0.098
-711.689	-49.039	-0.169	0.081
-710.675	-88.360	-0.238	-0.071
-709.660	187.885	0.173	-0.259
-708.645	-200.000	-0.047	0.224
-707.631	-46.971	0.318	-0.155
-706.616	166.255	-0.037	-0.053
-705.602	-68.804	0.060	-0.023
-704.587	385.440	0.048	-0.100
-703.572	324.272	0.054	0.104
-702.558	-93.801	-0.335	-0.092
-701.543	39.227	0.090	-0.081
-700.529	417.253	0.077	-0.165
-699.514	-200.000	0.009	0.117
-698.499	-200.000	-0.000	-0.173
-697.485	-86.856	-0.111	0.034
-696.470	-45.296	0.280	0.139
-695.456	-176.634	-0.370	-0.009
-694.441	240.845	-0.076	-0.126
-693.426	-200.000	-0.025	-0.202
-692.412	-200.000	-0.021	-0.136
-691.397	220.731	-0.034	-0.055
-690.383	567.738	-0.177	-0.429
-689.368	35.766	0.227	0.199
-688.354	-200.000	-0.030	0.204
-687.339	-116.460	-0.202	0.037
-686.324	-50.939	0.112	-0.053
-685.310	-61.824	0.261	0.109
-684.295	-112.217	-0.280	0.056
-683.281	523.222	-0.081	0.190
-682.266	800.000	-0.100	-0.308
-681.251	-75.648	-0.705	-0.250
-680.237	800.000	0.113	-0.353
-679.222	-89.337	-0.181	0.053
-678.208	247.142	0.042	0.070
-677.193	-200.000	-0.015	0.111
-676.178	72.358	-0.074	-0.077
-675.164	0.873	-0.287	-0.205
-674.149	608.555	-0.070	-0.174
-673.135	-10.986	-0.353	0.233
-672.120	122.114	-0.302	0.376
-671.105	30.720	-0.275	-0.235
-670.091	-7.467	-0.176	0.119
-669.076	48.041	-0.291	0.271
-668.062	800.000	0.051	0.205
-667.047	511.074	-0.069	0.160
-666.032	-47.452	0.232	-0.112
-665.018	-200.000	-0.008	-0.072
-664.003	-200.000	-0.033	0.662
-662.989	26.816	-0.219	-0.183
-661.974	-200.000	-0.012	-0.054
-660.959	397.818	-0.012	-0.025
-659.945	-200.000	-0.131	0.644
-658.930	99.814	0.185	0.214
-657.916	-125.801	0.436	0.066
-656.901	228.492	-0.107	-0.173
-655.886	-200.000	-0.002	-0.072
-654.872	7.763	-0.183	-0.137
-653.857	800.000	0.091	-0.272
-652.843	10.876	0.090	-0.068
-651.828	151.394	0.112	0.152
-650.814	-68.982	-0.242	-0.093
-649.799	-75.868	0.251	0.089
-648.784	800.000	-0.044	0.142
-647.770	-41.148	0.040	0.020
-646.755	106.511	0.095	-0.112
-645.741	-56.858	-0.172	-0.076
-644.726	186.489	-0.034	0.050
-643.711	-91.556	0.118	-0.034
-642.697	486.055	-0.045	-0.102
-641.682	2.452	0.169	0.122
-640.668	794.836	0.051	-0.140
-639.653	-149.475	0.246	-0.019
-638.638	800.000	-0.084	0.317
-637.624	-87.316	0.297	-0.090
-636.609	-67.181	0.308	-0.121
-635.595	42.183	-0.115	-0.104
-634.580	-50.825	0.108	0.051
-633.565	-18.562	0.256	-0.159
-632.551	800.000	0.137	-0.475
-631.536	188.122	0.040	0.059
-630.522	79.383	-0.091	-0.097
-629.507	-200.000	0.004	-0.115
-628.492	180.509	0.086	0.126
-627.478	-140.301	0.113	0.012
-626.463	59.380	-0.288	0.283
-625.449	-59.612	0.135	0.058
-624.434	-200.000	-0.022	0.105
-623.419	-200.000	0.027	0.213
-622.405	-200.000	-0.044	-0.338
-621.390	-200.000	0.010	0.340
-620.376	-200.000	0.053	0.286
-619.361	-200.000	0.011	0.167
-618.346	-154.154	0.130	-0.009
-617.332	-188.019	0.374	0.005
-616.317	800.000	-0.023	0.100
-615.303	-99.147	-0.475	-0.120
-614.288	-85.718	-0.179	0.055
-613.273	-21.330	0.099	0.060
-612.259	800.000	-0.041	-0.117
-611.244	-33.081	0.100	-0.055
-610.230	-156.647	0.147	0.009
-609.215	-122.563	0.079	-0.013
-608.201	12.876	-0.167	0.129
-607.186	-94.531	-0.365	-0.099
-606.171	-142.584	0.269	-0.026
-605.157	-135.650	-0.030	-0.004
-604.142	221.972	-0.195	-0.312
-603.128	688.473	-0.049	-0.128
-602.113	-200.000	-0.038	-0.238
-601.098	-45.309	0.106	0.052
-600.084	-63.351	-0.226	-0.093
-599.069	-200.000	0.004	-0.136
-598.055	-200.000	-0.011	0.200
-597.040	57.685	0.277	-0.270
-596.025	-57.359	0.136	0.060
-595.011	-54.723	0.091	0.041
-593.996	-129.573	-0.015	-0.002
-592.982	-17.335	-0.234	0.147
-591.967	-64.093	-0.058	-0.023
-590.952	-200.000	-0.011	-0.154
-589.938	-15.362	-0.354	-0.225
-588.923	123.959	-0.105	-0.131
-587.909	-169.987	0.197	0.007
-586.894	-26.271	-0.206	-0.120
-585.879	45.603	0.038	-0.035
-584.865	800.000	0.091	-0.349
-583.850	0.120	0.157	0.112
-582.836	-43.756	0.165	0.083
-581.821	-102.775	-0.263	-0.062
-580.806	630.415	-0.122	-0.306
-579.792	-200.000	0.061	0.284
-578.777	61.637	0.098	0.097
-577.763	-82.097	0.139	0.045
-576.748	-200.000	-0.011	0.057
-575.733	-200.000	0.042	0.260
-574.719	66.255	0.180	0.182
-573.704	-31.463	0.149	-0.083
-572.690	800.000	-0.041	-0.146
-571.675	-40.118	0.222	0.115
-570.661	17.153	-0.158	0.125
-569.646	-142.273	0.088	0.009
-568.631	-77.179	0.235	0.081
-567.617	39.356	0.313	0.279
-566.602	44.227	-0.340	0.311
-565.588	-79.830	-0.080	-0.027
-564.573	-200.000	0.017	-0.201
-563.558	-90.114	0.110	-0.032
-562.544	-4.400	0.122	-0.084
-561.529	58.992	0.139	0.136
-560.515	51.426	0.212	-0.200
-559.500	-200.000	0.011	-0.339
-558.485	-24.013	-0.047	0.028
-557.471	-200.000	0.062	-0.301
-556.456	-109.986	-0.077	0.016
-555.442	-200.000	0.078	0.000
-554.427	-200.000	0.051	-0.354
-553.412	702.008	-0.097	-0.253
-552.398	-149.159	-0.444	-0.035
-551.383	800.000	-0.036	0.121
-550.369	18.686	0.098	-0.078
-549.354	-32.202	-0.150	0.083
-548.339	-200.000	-0.028	0.219
-547.325	-200.000	0.022	0.468
-546.310	-89.595	-0.277	-0.081
-545.296	-6.424	0.046	-0.031
-544.281	-62.294	0.311	0.129
-543.266	110.312	0.099	-0.118
-542.252	714.421	0.097	-0.255
-541.237	13.824	-0.348	0.269
-540.223	48.098	0.095	0.088
-539.208	-88.538	0.394	0.117
-538.193	-62.431	-0.160	0.066
-537.179	95.456	-0.156	0.177
-536.164	800.000	-0.050	0.198
-535.150	73.306	0.263	0.273
-534.135	-62.041	-0.127	0.053
-533.121	800.000	0.038	0.110
-532.106	-200.000	0.003	0.232
-531.091	-200.000	-0.029	0.150
-530.077	-200.000	0.006	0.038
-529.062	-123.991	0.190	-0.030
-528.048	254.014	0.057	-0.097
-527.033	-100.179	-0.326	-0.081
-526.018	-30.353	-0.208	-0.117
-525.004	-165.922	-0.050	0.002
-523.989	-7.056	-0.149	-0.100
-522.975	637.353	0.027	0.067
-521.960	-23.711	-0.125	0.074
-520.945	-44.283	0.285	-0.142
-519.931	800.000	-0.069	-0.209
-518.916	480.189	-0.025	-0.057
-517.902	55.541	0.414	-0.398
-516.887	-24.650	-0.126	0.075
-515.872	16.710	-0.161	0.126
-514.858	-22.498	0.260	-0.156
-513.843	-123.114	-0.121	-0.019
-512.829	800.000	-0.086	0.365
-511.814	497.674	0.043	-0.098
-510.799	-146.999	-0.141	-0.012
-509.785	-58.156	0.169	0.073
-508.770	800.000	0.049	-0.162
-507.756	76.630	-0.205	-0.216
-506.741	-115.577	0.303	0.056
-505.726	109.647	0.280	0.333
-504.712	-178.266	-0.101	-0.002
-503.697	-200.000	0.026	0.215
-502.683	227.727	-0.169	-0.272
-501.668	173.202	-0.083	0.118
-500.653	-78.988	0.272	0.092
-499.639	94.670	-0.140	-0.158
-498.624	-70.874	-0.299	-0.112
-497.610	-200.000	-0.006	-0.254
-496.595	622.343	-0.098	0.244
-495.581	83.795	0.226	-0.244
-494.566	-94.846	0.162	0.044
-493.551	-136.370	-0.232	0.027
-492.537	70.056	-0.087	0.089
-491.522	487.260	-0.186	0.420
-490.508	233.448	-0.085	-0.139
-489.493	-132.362	0.202	-0.026
-488.478	-200.000	-0.020	-0.300
-487.464	572.550	0.157	0.379
-486.449	-200.000	0.005	-0.063
-485.435	27.003	-0.417	-0.347
-484.420	-112.600	0.295	-0.058
-483.405	44.203	0.370	-0.336
-482.391	56.691	-0.300	-0.289
-481.376	-170.635	-0.248	0.009
-480.362	800.000	0.046	-0.161
-479.347	149.983	0.127	0.171
-478.332	-200.000	0.008	0.079
-477.318	-108.506	-0.059	0.013
-476.303	639.221	0.071	0.180
-475.289	120.486	-0.168	0.207
-474.274	-122.184	0.528	-0.086
-473.259	-141.251	-0.324	-0.033
-472.245	72.052	0.067	-0.069
-471.230	-71.932	0.226	-0.083
-470.216	315.530	-0.133	-0.248
-469.201	800.000	-0.013	-0.052
-468.186	9.861	0.112	0.084
-467.172	10.857	0.039	-0.030
-466.157	-141.260	0.162	0.016
-465.143	134.276	0.168	0.216
-464.128	-37.067	0.175	-0.093
-463.113	-76.678	0.026	-0.009
-462.099	-77.650	0.195	0.067
-461.084	514.767	0.113	0.262
-460.070	800.000	-0.143	0.397
-459.055	452.507	-0.103	0.227
-458.040	800.000	0.126	-0.483
-457.026	-127.113	-0.162	-0.024
-456.011	-200.000	0.033	-0.183
-454.997	341.510	0.120	0.232
-453.982	770.926	-0.087	0.235
-452.968	96.049	-0.088	0.100
-451.953	232.718	-0.065	-0.106
-450.938	-67.557	0.327	-0.127
-449.924	-65.348	-0.178	0.071
-448.909	-200.000	-0.033	-0.268
-447.895	153.138	-0.228	0.308
-446.880	401.411	0.043	0.090
-445.865	-200.000	-0.008	-0.052
-444.851	-200.000	0.039	-0.282
-443.836	800.000	-0.016	0.046
-442.822	177.054	0.044	0.063
-441.807	35.183	0.109	-0.094
-440.792	39.328	-0.068	0.060
-439.778	-200.000	0.024	0.147
-438.763	81.222	-0.205	-0.219
-437.749	85.446	0.105	-0.114
-436.734	54.426	-0.219	-0.208
-435.719	77.862	0.174	-0.184
-434.705	9.513	-0.379	0.284
-433.690	478.777	-0.032	0.071
-432.676	114.448	0.206	0.248
-431.661	-126.359	-0.332	-0.049
-430.646	9.062	0.149	0.112
-429.632	-88.560	-0.523	0.154
-428.617	-58.125	-0.281	-0.121
-427.603	800.000	0.052	-0.161
-426.588	-137.076	-0.290	-0.033
-425.573	74.936	-0.223	0.232
-424.559	-51.212	0.440	-0.204
-423.544	297.186	-0.077	-0.140
-422.530	800.000	0.043	0.169
-421.515	-13.745	0.118	-0.075
-420.500	197.967	0.186	0.281
-419.486	-32.510	0.133	0.073
-418.471	93.235	-0.138	-0.155
-417.457	800.000	-0.059	0.226
-416.442	59.847	0.285	0.278
-415.428	-92.417	-0.172	-0.048
-414.413	231.828	-0.166	-0.269
-413.398	326.782	0.087	0.166
-412.384	-59.090	0.094	-0.040
-411.369	287.703	-0.120	0.215
-410.355	-86.189	0.065	-0.020
-409.340	99.312	-0.041	0.047
-408.325	-200.000	-0.039	-0.268
-407.311	43.992	0.147	-0.133
-406.296	-200.000	0.012	-0.257
-405.282	800.000	-0.051	0.174
-404.267	-140.304	-0.184	-0.019
-403.252	-65.098	0.440	-0.175
-402.238	-187.280	-0.307	-0.004
-401.223	582.520	0.115	-0.279
-400.209	82.046	-0.255	0.273
-399.194	59.986	-0.189	0.185
-398.179	178.303	0.185	0.267
-397.165	-156.049	0.420	-0.026
-396.150	210.472	-0.026	-0.041
-395.136	-23.532	-0.103	0.061
-394.121	-41.878	-0.347	0.176
-393.106	17.718	-0.238	-0.187
-392.092	35.443	0.037	-0.032
-391.077	-200.000	0.017	0.146
-390.063	-88.966	0.487	0.143
-389.048	-200.000	0.039	-0.285
-388.033	40.629	0.036	0.032
-387.019	121.725	0.101	-0.125
-386.004	-200.000	0.029	-0.130
-384.990	-51.017	0.114	-0.053
-383.975	800.000	0.063	-0.249
-382.960	-40.833	0.226	-0.116
-381.946	-64.574	-0.243	0.098
-380.931	-200.000	0.043	-0.402
-379.917	800.000	0.074	0.221
-378.902	-17.275	0.109	-0.068
-377.888	7.164	-0.094	-0.069
-376.873	163.339	0.110	0.152
-375.858	800.000	0.082	-0.280
-374.844	-3.086	0.354	-0.244
-373.829	10.104	0.178	0.133
-372.815	602.532	0.058	0.143
-371.800	-200.000	0.047	0.207
-370.785	-200.000	-0.001	-0.009
-369.771	-36.886	0.314	-0.167
-368.756	237.938	0.099	0.163
-367.742	-4.511	0.239	0.163
-366.727	204.864	-0.138	0.211
-365.712	68.736	-0.161	0.163
-364.698	-183.268	-0.230	-0.004
-363.683	47.384	0.323	-0.297
-362.669	172.352	0.076	-0.108
-361.654	68.587	0.119	0.120
-360.639	547.358	0.118	0.280
-359.625	-28.316	-0.446	-0.254
-358.610	-200.000	-0.025	-0.136
-357.596	-70.049	0.052	-0.020
-356.581	-200.000	-0.310	-0.001
-355.566	800.000	0.043	0.172
-354.552	-19.508	0.210	0.128
-353.537	-200.000	0.032	-0.262
-352.523	-34.688	-0.136	0.073
-351.508	-200.000	-0.036	0.308
-350.493	-18.081	0.301	0.186
-349.479	84.356	-0.134	0.145
-348.464	46.089	-0.117	0.107
-347.450	384.858	0.059	0.120
-346.435	-119.949	0.338	-0.057
-345.420	-100.855	-0.299	0.073
-344.406	-200.000	0.047	-0.291
-343.391	39.849	-0.122	-0.108
-342.377	-93.839	-0.429	0.116
-341.362	-130.002	0.221	-0.030
-340.348	38.912	0.105	0.093
-339.333	38.670	-0.090	0.079
-338.318	-200.000	-0.013	-0.638
-337.304	92.634	0.126	-0.140
-336.289	-200.000	0.018	0.127
-335.275	22.510	-0.188	-0.152
-334.260	800.000	0.115	0.441
-333.245	-200.000	0.041	-0.183
-332.231	800.000	-0.102	-0.343
-331.216	-13.485	0.121	-0.078
-330.202	-18.558	-0.215	-0.132
-329.187	-200.000	0.015	-0.076
-328.172	64.307	-0.004	0.004
-327.158	1.325	-0.134	-0.095
-326.143	800.000	-0.010	-0.031
-325.129	23.737	0.144	0.117
-324.114	-115.254	-0.099	0.018
-323.099	800.000	-0.014	-0.041
-322.085	-200.000	0.002	-0.210
-321.070	553.988	0.056	0.133
-320.056	-19.375	-0.263	-0.161
-319.041	189.507	0.168	-0.248
-318.026	800.000	-0.172	-0.525
-317.012	626.360	-0.097	0.241
-315.997	-103.099	-0.179	0.042
-314.983	-63.538	-0.163	-0.066
-313.968	-200.000	0.000	0.178
-312.953	-200.000	0.012	-0.309
-311.939	256.247	-0.156	0.263
-310.924	209.171	0.121	0.186
-309.910	136.640	0.130	0.168
-308.895	-136.474	0.124	0.014
-307.880	363.840	0.040	-0.079
-306.866	-65.010	-0.270	0.107
-305.851	-25.727	0.339	0.197
-304.837	800.000	-0.115	0.363
-303.822	87.510	-0.261	0.285
-302.807	120.761	-0.115	0.140
-301.793	-4.705	-0.141	0.096
-300.778	800.000	0.078	-0.237
-299.764	-139.572	-0.207	0.022
-298.749	28.063	0.215	-0.178
-297.735	-200.000	0.001	0.140
-296.720	244.745	-0.168	-0.277
-295.705	-134.939	-0.080	-0.009
-294.691	81.114	0.234	0.249
-293.676	-133.605	-0.385	-0.047
-292.662	-12.418	-0.126	-0.081
-291.647	-200.000	0.016	-0.195
-290.632	24.602	-0.274	-0.223
-289.618	781.361	0.093	0.250
-288.603	-51.563	-0.166	-0.076
-287.589	49.131	0.131	-0.122
-286.574	-196.445	-0.429	0.003
-285.559	716.276	0.061	-0.160
-284.545	609.475	0.137	0.336
-283.530	-200.000	0.070	-0.388
-282.516	477.225	0.027	0.060
-281.501	-200.000	0.020	0.136
-280.486	-113.860	0.491	0.094
-279.472	-25.368	0.078	0.045
-278.457	74.750	0.102	-0.105
-277.443	-200.000	0.018	-0.161
-276.428	800.000	0.038	-0.112
-275.413	-76.240	-0.101	0.035
-274.399	-24.176	0.198	-0.116
-273.384	502.440	0.067	0.151
-272.370	69.266	-0.168	0.169
-271.355	14.831	-0.178	0.137
-270.340	-133.069	0.438	0.055
-269.326	-200.000	0.007	0.270
-268.311	-84.859	0.046	0.014
-267.297	106.152	0.141	0.164
-266.282	-38.355	0.213	-0.111
-265.267	17.199	-0.130	-0.101
-264.253	-92.273	-0.111	0.031
-263.238	246.875	0.153	-0.253
-262.224	-89.558	0.146	0.042
-261.209	800.000	-0.056	0.237
-260.195	777.784	0.107	-0.287
-259.180	-8.622	-0.161	-0.106
-258.165	-200.000	-0.011	0.396
-257.151	584.579	-0.053	0.127
-256.136	-38.910	-0.186	0.096
-255.122	151.162	-0.188	-0.251
-254.107	80.512	-0.203	0.215
-253.092	735.539	0.160	0.420
-252.078	800.000	-0.051	0.197
-251.063	-84.984	-0.180	-0.056
-250.049	-200.000	0.008	-0.091
-249.034	43.155	-0.176	-0.158
-248.019	110.697	-0.084	-0.099
-247.005	371.913	-0.120	0.240
-245.990	-200.000	0.024	0.151
-244.976	22.663	-0.133	-0.107
-243.961	-200.000	0.024	0.114
-242.946	-96.670	-0.120	-0.031
-241.932	-200.000	-0.020	-0.131
-240.917	800.000	-0.149	-0.524
-239.903	800.000	0.132	0.422
-238.888	40.039	0.179	-0.158
-237.873	63.746	0.222	0.219
-236.859	-30.054	0.068	-0.038
-235.844	-137.411	-0.094	0.010
-234.830	130.566	-0.142	0.179
-233.815	800.000	0.055	-0.158
-232.800	800.000	0.013	0.049
-231.786	-200.000	0.014	0.303
-230.771	-37.827	0.472	-0.246
-229.757	67.189	0.113	0.113
-228.742	800.000	0.059	0.212
-227.727	283.640	0.083	-0.146
-226.713	132.644	0.259	0.328
-225.698	-105.202	0.107	-0.024
-224.684	-25.441	0.070	0.041
-223.669	-96.552	0.098	0.025
-222.655	-83.737	0.218	0.068
-221.640	-42.614	0.209	0.104
-220.625	-161.432	0.102	-0.005
-219.611	58.696	-0.066	0.064
-218.596	2.679	-0.213	-0.152
-217.582	800.000	-0.166	-0.498
-216.567	-192.953	-0.266	-0.002
-215.552	-200.000	-0.003	-0.305
-214.538	-25.305	0.122	-0.071
-213.523	-195.403	-0.088	0.001
-212.509	82.781	0.111	0.119
-211.494	-200.000	-0.000	0.156
-210.479	124.069	-0.142	-0.175
-209.465	-46.908	-0.342	0.164
-208.450	-120.590	-0.293	-0.049
-207.436	-119.049	-0.397	0.068
-206.421	125.436	-0.139	0.173
-205.406	-110.790	0.318	0.064
-204.392	-126.463	-0.350	0.051
-203.377	-200.000	0.013	-0.235
-202.363	34.152	0.112	0.096
-201.348	109.735	-0.070	-0.083
-200.333	-18.571	0.068	0.042
-199.319	23.951	0.121	-0.098
-198.304	-200.000	-0.001	0.008
-197.290	-128.265	-0.060	-0.008
-196.275	800.000	-0.059	-0.183
-195.260	103.188	0.105	0.121
-194.246	25.378	0.146	0.119
-193.231	800.000	-0.062	-0.211
-192.217	-8.781	-0.108	-0.071
-191.202	64.487	-0.305	0.301
-190.187	692.174	0.019	-0.049
-189.173	254.505	0.083	-0.138
-188.158	-200.000	0.088	-0.428
-187.144	-32.001	-0.237	-0.130
-186.129	-200.000	0.012	-0.202
-185.114	-146.641	0.304	-0.026
-184.100	335.618	-0.093	0.177
-183.085	-200.000	0.037	0.393
-182.071	181.369	-0.120	-0.173
-181.056	14.309	-0.206	-0.158
-180.042	1.830	-0.257	0.181
-179.027	-108.965	-0.300	-0.063
-178.012	-76.907	0.168	0.058
-176.998	-200.000	0.041	-0.188
-175.983	201.653	0.099	0.149
-174.969	-200.000	-0.034	0.161
-173.954	-20.077	-0.217	0.131
-172.939	377.535	-0.045	0.090
-171.925	-124.228	0.116	-0.018
-170.910	-77.996	0.122	0.041
-169.896	104.785	-0.197	0.228
-168.881	-200.000	0.043	0.286
-167.866	-200.000	-0.030	0.145
-166.852	-66.178	-0.368	0.144
-165.837	-123.799	0.144	0.022
-164.823	153.437	0.050	0.068
-163.808	2.214	-0.228	0.161
-162.793	-200.000	-0.009	-0.189
-161.779	159.854	-0.138	0.189
-160.764	-200.000	0.020	-0.243
-159.750	378.419	0.080	-0.160
-158.735	-200.000	-0.033	-0.183
-157.720	-200.000	-0.069	-0.355
-156.706	376.154	-0.136	0.273
-155.691	-200.000	0.046	-0.243
-154.677	196.425	-0.046	-0.068
-153.662	622.436	0.032	-0.079
-152.647	-200.000	-0.053	-0.320
-151.633	217.369	0.110	0.171
-150.618	-200.000	-0.014	-0.077
-149.604	-28.582	0.169	0.095
-148.589	-83.852	-0.299	0.093
-147.574	43.550	-0.236	0.211
-146.560	154.630	-0.150	0.202
-145.545	-200.000	0.013	-0.235
-144.531	-104.219	0.257	-0.058
-143.516	800.000	0.117	0.484
-142.502	11.528	-0.354	-0.265
-141.487	800.000	-0.102	0.292
-140.472	800.000	-0.077	-0.291
-139.458	-73.404	0.255	0.091
-138.443	28.462	0.106	-0.088
-137.429	-200.000	0.047	-0.220
-136.414	11.655	-0.403	0.303
-135.399	-116.058	0.362	0.066
-134.385	117.538	0.242	0.291
-133.370	-23.698	0.198	0.116
-132.356	-91.459	-0.306	0.085
-131.341	304.656	-0.054	-0.098
-130.326	18.068	0.140	-0.109
-129.312	-104.940	0.223	0.050
-128.297	-120.174	0.063	0.011
-127.283	-48.984	0.098	-0.046
-126.268	188.868	-0.209	0.305
-125.253	-55.662	-0.331	-0.145
-124.239	-98.076	0.102	0.026
-123.224	800.000	0.085	0.257
-122.210	157.336	0.310	0.419
-121.195	-70.739	0.207	0.076
-120.180	71.025	-0.183	0.185
