DTS Sentinel unit serial number:	SN413079Multiplexer serial number:	ORYXHardware model number:	OX4-SRSoftware version number:	ORYX F/W v4.00 Oryx Data Collector v3.7.2.0data status	okinstallation	princeton_trtdifferential loss correction	single-endedforward channel	channel 1reverse channel	N/Adate	2019/09/17time	21:50:35forward acquisition time	60.00reverse acquisition time	0.00gamma	496.2192k internal	0.2340k external	0.2340temperature offset calibration	0.9976default loss term (dB/km)	0.3790temperature slope calibration	1.0000multiplexer offset coefficient	1.0000multiplexer slope coefficient	1.0000fibre end	0.00T internal ref (°C)	26.37T ext. ref 1 (°C)	0.18T ext. ref 2 (°C)	19.05length (m)	temperature (°C)	Stokes	anti-Stokes-747.200	-7.062	-0.128	-0.087
-746.185	-126.015	-0.102	0.015
-745.171	-3.517	0.107	0.075
-744.156	23.575	0.263	0.217
-743.142	-78.949	-0.251	0.086
-742.127	69.788	-0.356	0.368
-741.112	76.205	-0.052	0.055
-740.098	-7.386	0.205	0.139
-739.083	-200.000	0.002	-0.229
-738.069	-200.000	-0.014	0.371
-737.054	800.000	-0.083	0.330
-736.039	-174.735	-0.265	0.008
-735.025	-83.618	-0.163	0.052
-734.010	-48.221	-0.161	-0.078
-732.996	4.503	-0.165	-0.121
-731.981	800.000	0.089	-0.311
-730.966	800.000	-0.049	-0.214
-729.952	-154.094	-0.167	-0.011
-728.937	92.444	0.222	0.251
-727.923	-24.598	-0.406	-0.242
-726.908	800.000	-0.079	0.235
-725.894	692.166	-0.072	-0.189
-724.879	112.055	0.170	0.206
-723.864	-138.508	-0.365	0.040
-722.850	57.241	0.084	0.082
-721.835	7.676	0.064	0.048
-720.821	-41.940	0.260	-0.134
-719.806	40.440	-0.170	0.153
-718.791	-57.000	-0.108	-0.048
-717.777	-70.838	0.228	-0.086
-716.762	-175.461	0.109	-0.003
-715.748	800.000	0.082	-0.233
-714.733	8.360	0.088	0.066
-713.718	-154.608	-0.228	0.015
-712.704	284.986	0.022	0.040
-711.689	-44.150	0.071	0.036
-710.675	-46.415	-0.250	0.123
-709.660	570.950	0.071	-0.174
-708.645	68.279	-0.164	0.168
-707.631	800.000	-0.014	-0.061
-706.616	800.000	0.075	-0.262
-705.602	-176.086	-0.153	-0.004
-704.587	23.445	0.250	-0.206
-703.572	55.860	-0.299	-0.290
-702.558	83.492	-0.091	-0.099
-701.543	-36.919	-0.057	0.031
-700.529	-137.375	0.140	-0.016
-699.514	-117.954	-0.373	-0.067
-698.499	-153.250	0.416	-0.029
-697.485	-200.000	-0.280	-0.001
-696.470	121.618	0.089	-0.111
-695.456	-100.674	-0.166	-0.041
-694.441	-200.000	0.006	0.051
-693.426	239.002	0.230	-0.383
-692.412	138.175	-0.100	-0.131
-691.397	162.285	-0.106	0.149
-690.383	-109.292	-0.402	-0.085
-689.368	87.206	-0.127	0.140
-688.354	260.695	0.069	0.119
-687.339	113.893	0.081	-0.099
-686.324	-134.309	0.117	0.014
-685.310	22.942	-0.227	0.186
-684.295	-200.000	-0.001	0.044
-683.281	31.166	-0.031	0.026
-682.266	800.000	0.100	0.361
-681.251	746.881	-0.031	-0.084
-680.237	203.743	-0.032	0.049
-679.222	-89.044	0.040	-0.012
-678.208	-157.797	-0.270	-0.016
-677.193	-21.299	-0.194	0.118
-676.178	306.631	-0.121	0.226
-675.164	144.627	-0.109	0.145
-674.149	-200.000	0.011	-0.185
-673.135	669.810	-0.168	-0.436
-672.120	-200.000	-0.034	0.348
-671.105	-159.510	-0.302	-0.017
-670.091	593.684	-0.019	-0.046
-669.076	682.313	0.121	-0.315
-668.062	50.342	-0.219	0.207
-667.047	-107.299	-0.379	-0.083
-666.032	800.000	-0.080	-0.268
-665.018	-81.153	-0.100	0.033
-664.003	-9.153	-0.050	0.033
-662.989	219.319	-0.234	-0.375
-661.974	34.678	0.130	0.114
-660.959	-152.327	0.250	-0.018
-659.945	-50.090	-0.041	0.019
-658.930	3.685	0.172	0.126
-657.916	531.084	0.048	-0.113
-656.901	38.369	0.156	0.139
-655.886	193.699	-0.033	0.049
-654.872	-166.475	-0.243	-0.010
-653.857	-200.000	0.031	-0.253
-652.843	-200.000	-0.010	0.353
-651.828	-121.329	0.203	-0.034
-650.814	800.000	0.095	0.306
-649.799	-6.765	0.091	0.062
-648.784	134.540	-0.143	0.186
-647.770	-152.581	-0.249	0.018
-646.755	-148.401	-0.278	-0.023
-645.741	110.598	-0.162	0.195
-644.726	-200.000	0.031	0.142
-643.711	76.463	-0.197	-0.208
-642.697	-128.788	-0.039	-0.006
-641.682	-115.650	-0.464	0.087
-640.668	668.783	-0.020	0.053
-639.653	63.930	-0.242	0.243
-638.638	84.275	0.101	-0.110
-637.624	369.692	0.142	-0.286
-636.609	800.000	0.007	0.020
-635.595	337.127	-0.131	-0.255
-634.580	-4.498	-0.408	-0.282
-633.565	-38.562	0.254	0.134
-632.551	-169.887	0.049	0.002
-631.536	800.000	-0.062	0.181
-630.522	-20.699	0.210	0.129
-629.507	-126.343	0.210	0.031
-628.492	-56.844	0.120	-0.053
-627.478	240.583	-0.186	-0.310
-626.463	-78.711	-0.417	-0.142
-625.449	-200.000	-0.027	0.141
-624.434	-57.463	0.266	-0.116
-623.419	-41.872	-0.234	-0.120
-622.405	-153.234	-0.509	-0.036
-621.390	7.837	0.040	-0.030
-620.376	65.044	-0.067	0.068
-619.361	179.104	-0.124	0.180
-618.346	59.742	0.143	-0.140
-617.332	10.550	0.319	-0.243
-616.317	-200.000	0.064	-0.298
-615.303	7.955	0.119	0.089
-614.288	-200.000	0.023	0.181
-613.273	263.040	0.241	-0.418
-612.259	123.069	-0.288	-0.359
-611.244	66.618	0.217	0.221
-610.230	7.420	-0.099	-0.074
-609.215	86.526	-0.105	-0.115
-608.201	-200.000	-0.029	-0.257
-607.186	200.342	-0.217	0.332
-606.171	-66.091	0.197	-0.078
-605.157	-138.083	-0.224	-0.025
-604.142	-149.776	-0.202	0.016
-603.128	800.000	0.013	0.053
-602.113	174.172	-0.044	0.063
-601.098	14.452	-0.135	0.105
-600.084	-200.000	-0.014	0.075
-599.069	-200.000	0.023	0.259
-598.055	-200.000	-0.073	0.417
-597.040	-54.711	-0.193	0.087
-596.025	-200.000	-0.029	0.290
-595.011	412.173	-0.036	-0.075
-593.996	293.571	0.114	-0.208
-592.982	140.736	0.251	-0.330
-591.967	-200.000	0.000	0.043
-590.952	800.000	-0.072	0.218
-589.938	-108.263	-0.209	0.045
-588.923	799.595	-0.132	-0.363
-587.909	276.831	0.163	-0.290
-586.894	-102.667	-0.371	0.088
-585.879	170.754	-0.039	-0.055
-584.865	717.280	-0.121	-0.321
-583.850	-170.201	0.087	0.003
-582.836	-200.000	-0.034	0.215
-581.821	263.770	0.108	0.188
-580.806	-200.000	0.001	0.253
-579.792	-85.449	-0.386	0.120
-578.777	195.718	-0.188	-0.285
-577.763	-53.975	0.201	0.091
-576.748	-89.292	0.265	0.078
-575.733	-200.000	-0.034	-0.167
-574.719	-200.000	0.074	-0.398
-573.704	-33.702	0.208	-0.114
-572.690	-98.976	0.037	-0.009
-571.675	5.421	0.173	0.127
-570.661	-148.139	0.132	-0.011
-569.646	-200.000	-0.063	-0.537
-568.631	-115.463	0.282	0.053
-567.617	-113.025	-0.419	0.082
-566.602	-132.699	0.277	0.035
-565.588	303.905	-0.221	-0.408
-564.573	134.618	0.075	-0.098
-563.558	-169.460	-0.125	0.005
-562.544	-193.206	-0.305	-0.003
-561.529	67.483	-0.087	0.089
-560.515	-59.181	0.167	0.072
-559.500	-165.533	-0.193	-0.008
-558.485	-14.836	0.274	0.175
-557.471	800.000	-0.040	-0.112
-556.456	82.020	-0.164	-0.176
-555.442	-12.746	0.206	0.134
-554.427	205.093	0.050	0.077
-553.412	-14.604	0.184	0.118
-552.398	357.615	0.105	0.209
-551.383	411.007	0.165	0.349
-550.369	-200.000	-0.044	0.241
-549.354	-200.000	-0.008	-0.051
-548.339	371.447	0.108	-0.218
-547.325	800.000	0.019	-0.055
-546.310	81.546	0.215	-0.232
-545.296	-113.574	-0.231	-0.045
-544.281	279.469	0.041	0.073
-543.266	41.728	0.191	-0.172
-542.252	-125.702	-0.178	0.027
-541.237	800.000	-0.017	0.068
-540.223	-200.000	0.469	-0.001
-539.208	141.018	0.181	-0.237
-538.193	-120.787	-0.445	0.075
-537.179	-87.069	0.190	-0.057
-536.164	33.562	0.054	0.047
-535.150	-57.022	-0.205	-0.090
-534.135	-110.447	0.110	-0.023
-533.121	800.000	-0.014	0.047
-532.106	76.948	0.105	-0.111
-531.091	800.000	0.031	0.088
-530.077	800.000	0.040	-0.136
-529.062	-200.000	0.005	0.239
-528.048	28.091	-0.167	0.140
-527.033	-97.435	0.296	0.077
-526.018	800.000	-0.024	0.099
-525.004	17.072	0.108	-0.085
-523.989	-63.248	-0.078	-0.032
-522.975	-26.610	0.068	0.040
-521.960	-200.000	-0.010	-0.172
-520.945	113.052	-0.089	0.107
-519.931	-70.852	0.224	-0.084
-518.916	-34.893	0.180	0.098
-517.902	395.814	-0.090	0.187
-516.887	538.803	-0.039	0.092
-515.872	132.411	0.189	0.242
-514.858	410.751	-0.090	-0.189
-513.843	-130.621	-0.199	0.027
-512.829	215.223	-0.191	0.301
-511.814	800.000	0.073	0.251
-510.799	117.244	0.168	-0.205
-509.785	50.487	-0.035	-0.033
-508.770	800.000	-0.042	-0.160
-507.756	168.385	-0.120	-0.169
-506.741	133.321	-0.300	0.385
-505.726	28.361	-0.050	0.042
-504.712	29.612	0.525	-0.444
-503.697	-200.000	-0.039	-0.270
-502.683	60.632	-0.176	-0.173
-501.668	524.882	0.072	-0.169
-500.653	231.878	-0.062	0.101
-499.639	-155.762	-0.447	-0.028
-498.624	139.473	0.125	-0.164
-497.610	-126.797	-0.221	-0.032
-496.595	8.611	0.195	-0.146
-495.581	-138.811	-0.333	-0.036
-494.566	-200.000	-0.011	-0.158
-493.551	-200.000	0.002	-0.151
-492.537	33.660	-0.373	-0.322
-491.522	94.135	0.268	-0.302
-490.508	800.000	0.040	0.169
-489.493	120.941	0.011	-0.014
-488.478	-200.000	0.002	-0.273
-487.464	-77.074	0.179	-0.062
-486.449	-115.544	0.193	-0.036
-485.435	-23.937	-0.131	-0.078
-484.420	-58.651	-0.314	0.135
-483.405	38.813	0.173	0.153
-482.391	800.000	-0.057	0.229
-481.376	-200.000	0.033	0.244
-480.362	145.510	-0.205	0.273
-479.347	-144.836	-0.384	-0.035
-478.332	-67.934	-0.294	0.114
-477.318	-59.880	-0.297	-0.126
-476.303	-200.000	0.025	0.355
-475.289	83.934	0.234	0.254
-474.274	800.000	-0.030	-0.091
-473.259	800.000	0.007	0.026
-472.245	-92.326	-0.206	0.058
-471.230	-94.238	-0.104	0.028
-470.216	-160.251	0.146	0.008
-469.201	648.273	0.162	0.411
-468.186	-84.461	-0.082	-0.026
-467.172	267.046	-0.158	-0.274
-466.157	-135.858	-0.225	0.026
-465.143	-92.418	-0.211	0.059
-464.128	-62.981	0.167	0.068
-463.113	-200.000	-0.048	0.388
-462.099	127.148	0.117	0.147
-461.084	529.069	0.068	-0.159
-460.070	-110.629	-0.160	0.033
-459.055	-58.316	-0.061	-0.026
-458.040	-4.792	-0.216	-0.148
-457.026	-24.505	-0.282	-0.166
-456.011	175.408	0.029	-0.041
-454.997	229.592	-0.060	-0.098
-453.982	6.087	0.233	-0.171
-452.968	-136.983	0.148	0.017
-451.953	-200.000	-0.037	-0.495
-450.938	334.684	-0.135	-0.259
-449.924	167.229	0.074	0.104
-448.909	-174.990	-0.349	-0.010
-447.895	480.654	0.061	-0.138
-446.880	-200.000	-0.010	0.244
-445.865	-89.226	0.145	-0.042
-444.851	144.867	0.171	-0.227
-443.836	95.283	-0.162	0.182
-442.822	49.229	0.253	-0.235
-441.807	300.955	0.280	0.511
-440.792	7.624	0.164	-0.122
-439.778	104.837	0.107	0.125
-438.763	800.000	-0.092	0.265
-437.749	-66.978	-0.314	0.123
-436.734	160.628	-0.154	0.213
-435.719	58.832	0.168	-0.163
-434.705	313.822	-0.281	-0.524
-433.690	-85.212	0.228	-0.071
-432.676	31.788	-0.218	-0.186
-431.661	-34.890	0.163	-0.088
-430.646	800.000	-0.004	0.012
-429.632	-200.000	-0.027	-0.381
-428.617	-25.878	-0.289	-0.169
-427.603	-43.014	-0.074	0.037
-426.588	268.813	-0.050	0.086
-425.573	166.840	0.197	0.277
-424.559	455.736	-0.014	-0.032
-423.544	186.402	-0.172	0.253
-422.530	-153.102	0.015	-0.001
-421.515	64.402	0.276	-0.275
-420.500	185.499	0.125	0.184
-419.486	334.848	-0.075	0.144
-418.471	129.520	0.075	-0.095
-417.457	-84.295	-0.226	0.071
-416.442	472.830	0.015	0.034
-415.428	328.904	-0.159	0.302
-414.413	8.157	-0.086	0.064
-413.398	38.132	0.196	-0.173
-412.384	-133.767	-0.132	-0.016
-411.369	140.979	-0.152	0.199
-410.355	94.989	-0.286	-0.322
-409.340	96.337	0.070	-0.079
-408.325	-80.994	0.254	-0.083
-407.311	-200.000	0.018	-0.085
-406.296	241.777	0.105	-0.173
-405.282	-107.410	0.207	-0.045
-404.267	800.000	0.066	0.205
-403.252	-125.932	-0.514	-0.077
-402.238	46.648	0.112	-0.103
-401.223	26.611	-0.146	0.121
-400.209	164.113	-0.036	-0.051
-399.194	388.109	-0.091	0.186
-398.179	-200.000	0.004	0.028
-397.165	-110.578	-0.275	0.056
-396.150	-114.377	-0.170	-0.032
-395.136	-117.861	0.123	-0.022
-394.121	-60.944	-0.067	0.028
-393.106	1.901	-0.301	-0.215
-392.092	158.627	0.067	0.091
-391.077	299.855	0.074	-0.135
-390.063	-200.000	-0.017	0.118
-389.048	-200.000	0.028	0.185
-388.033	-200.000	-0.018	0.184
-387.019	281.426	-0.057	-0.101
-386.004	-102.240	0.179	0.042
-384.990	-200.000	0.065	0.334
-383.975	82.237	-0.285	-0.305
-382.960	104.403	0.170	0.198
-381.946	-113.642	0.157	0.030
-380.931	-200.000	-0.057	0.302
-379.917	-80.559	0.183	0.060
-378.902	-10.647	0.110	0.072
-377.888	264.423	-0.174	0.300
-376.873	800.000	0.031	-0.113
-375.858	-35.253	0.179	-0.096
-374.844	322.541	-0.092	0.172
-373.829	33.345	0.101	0.087
-372.815	-46.600	-0.170	-0.082
-371.800	134.513	-0.277	0.355
-370.785	-32.694	-0.020	0.011
-369.771	176.800	-0.130	-0.187
-368.756	-146.139	0.189	0.016
-367.742	-4.294	0.137	-0.094
-366.727	94.512	-0.159	0.179
-365.712	507.560	-0.082	0.188
-364.698	-200.000	-0.048	-0.215
-363.683	546.088	-0.149	0.352
-362.669	172.869	0.251	-0.358
-361.654	-200.000	0.010	-0.286
-360.639	598.421	0.106	0.260
-359.625	-48.053	-0.219	0.104
-358.610	-14.017	0.303	-0.193
-357.596	-200.000	-0.002	0.064
-356.581	65.336	0.098	-0.098
-355.566	87.712	0.182	-0.200
-354.552	637.307	0.138	-0.347
-353.537	0.981	0.137	-0.097
-352.523	-12.670	-0.274	0.176
-351.508	47.820	0.201	-0.185
-350.493	-56.667	-0.086	0.038
-349.479	-59.987	0.079	-0.033
-348.464	299.057	0.005	0.009
-347.450	570.602	0.177	0.424
-346.435	-138.891	-0.171	0.018
-345.420	4.911	-0.095	-0.069
-344.406	-178.399	-0.153	0.004
-343.391	-200.000	0.023	-0.268
-342.377	-200.000	-0.029	-0.318
-341.362	800.000	-0.007	0.019
-340.348	-127.393	0.281	-0.040
-339.333	-200.000	-0.012	0.167
-338.318	27.513	0.144	0.120
-337.304	400.321	0.074	0.153
-336.289	-200.000	0.011	-0.057
-335.275	84.146	-0.132	-0.142
-334.260	-29.805	-0.364	-0.205
-333.245	655.949	-0.073	-0.185
-332.231	-53.849	-0.389	0.175
-331.216	3.091	-0.123	-0.088
-330.202	-40.375	-0.314	0.161
-329.187	-11.135	0.225	0.146
-328.172	241.687	-0.164	0.270
-327.158	563.298	-0.174	-0.415
-326.143	-134.990	0.260	-0.031
-325.129	-2.152	-0.206	0.143
-324.114	357.831	-0.042	-0.082
-323.099	-76.304	-0.388	-0.135
-322.085	-53.747	-0.224	-0.101
-321.070	240.992	0.205	0.338
-320.056	304.556	-0.074	0.135
-319.041	53.888	-0.106	0.101
-318.026	-200.000	-0.021	-0.095
-317.012	508.239	-0.066	0.151
-315.997	5.751	0.168	0.122
-314.983	-78.347	0.233	0.079
-313.968	-200.000	-0.005	0.094
-312.953	73.878	0.229	0.237
-311.939	-105.711	-0.084	0.019
-310.924	-25.004	0.377	0.220
-309.910	2.991	-0.019	0.014
-308.895	-147.233	-0.272	-0.023
-307.880	-107.746	0.258	-0.055
-306.866	-83.676	0.078	-0.025
-305.851	227.282	0.168	0.269
-304.837	-89.145	-0.254	-0.074
-303.822	-200.000	-0.013	0.228
-302.807	-29.272	0.051	-0.029
-301.793	-19.543	0.172	0.105
-300.778	-48.471	0.011	0.005
-299.764	-200.000	0.001	-0.122
-298.749	448.419	-0.134	0.291
-297.735	-200.000	0.027	-0.125
-296.720	-63.315	-0.166	0.067
-295.705	-44.205	0.263	0.130
-294.691	450.218	-0.079	-0.171
-293.676	-65.391	-0.137	-0.054
-292.662	-200.000	0.010	-0.082
-291.647	195.473	0.142	0.213
-290.632	-47.350	0.193	-0.092
-289.618	-200.000	-0.017	-0.165
-288.603	26.899	0.229	0.189
-287.589	47.994	0.098	0.090
-286.574	-42.889	0.132	0.066
-285.559	-176.116	-0.042	-0.001
-284.545	304.544	-0.151	-0.276
-283.530	-200.000	0.014	0.111
-282.516	-3.324	0.356	0.244
-281.501	-117.372	-0.152	-0.027
-280.486	-200.000	-0.018	0.506
-279.472	287.798	0.209	0.372
-278.457	800.000	0.021	0.082
-277.443	800.000	-0.105	-0.320
-276.428	-152.706	0.106	0.007
-275.413	800.000	0.155	-0.424
-274.399	62.621	0.275	-0.270
-273.384	-200.000	0.010	0.104
-272.370	-127.352	0.390	-0.056
-271.355	19.832	0.098	0.077
-270.340	-145.396	-0.043	0.004
-269.326	-126.641	-0.114	0.017
-268.311	-200.000	0.042	-0.249
-267.297	-52.575	0.146	-0.067
-266.282	-200.000	0.052	0.250
-265.267	172.222	0.105	-0.149
-264.253	-164.085	0.062	0.003
-263.238	80.084	-0.053	0.056
-262.224	800.000	-0.073	0.274
-261.209	-200.000	-0.007	0.084
-260.195	315.715	0.133	-0.247
-259.180	145.594	0.061	0.080
-258.165	-200.000	-0.015	-0.103
-257.151	51.566	-0.157	-0.147
-256.136	-135.000	-0.296	0.035
-255.122	398.882	-0.036	0.075
-254.107	-200.000	-0.006	-0.297
-253.092	-200.000	0.007	-0.333
-252.078	-200.000	-0.049	0.235
-251.063	12.867	0.159	0.121
-250.049	176.845	-0.082	-0.117
-249.034	-70.734	0.275	-0.102
-248.019	-151.404	0.040	0.003
-247.005	0.567	0.081	-0.057
-245.990	-200.000	-0.042	0.219
-244.976	-48.041	0.089	0.042
-243.961	-3.348	-0.311	0.213
-242.946	-57.569	0.212	0.091
-241.932	-21.156	0.070	0.042
-240.917	-28.238	0.178	-0.101
-239.903	238.905	-0.085	-0.139
-238.888	427.828	0.099	0.211
-237.873	-200.000	0.025	-0.180
-236.859	224.181	0.048	0.076
-235.844	217.244	0.201	0.315
-234.830	92.795	-0.108	0.119
-233.815	-51.898	-0.030	0.014
-232.800	-200.000	-0.047	0.306
-231.786	-28.853	0.464	0.262
-230.771	-200.000	-0.015	-0.150
-229.757	119.371	-0.119	-0.145
-228.742	386.523	-0.046	-0.094
-227.727	92.096	0.219	-0.243
-226.713	137.683	0.052	0.066
-225.698	44.926	0.046	0.042
-224.684	-200.000	0.019	-0.100
-223.669	800.000	0.050	-0.215
-222.655	-200.000	0.092	-0.424
-221.640	-9.670	0.084	0.055
-220.625	-65.868	-0.344	0.135
-219.611	-200.000	-0.009	-0.108
-218.596	-200.000	-0.046	0.336
-217.582	-200.000	-0.009	-0.136
-216.567	-200.000	0.013	0.066
-215.552	287.818	0.045	0.081
-214.538	159.151	-0.104	0.142
-213.523	152.480	-0.097	-0.130
-212.509	150.671	0.134	-0.178
-211.494	280.725	-0.076	0.133
-210.479	800.000	-0.070	0.213
-209.465	52.578	-0.113	-0.106
-208.450	-200.000	0.010	-0.160
-207.436	77.502	0.124	-0.129
-206.421	54.146	0.194	0.183
-205.406	800.000	-0.058	0.189
-204.392	-110.932	-0.054	0.011
-203.377	-120.915	0.156	-0.026
-202.363	-200.000	-0.000	-0.325
-201.348	180.324	0.211	0.304
-200.333	800.000	-0.028	0.120
-199.319	232.185	-0.013	-0.020
-198.304	-200.000	0.003	0.073
-197.290	800.000	-0.067	0.198
-196.275	368.282	0.182	-0.361
-195.260	-93.422	-0.277	-0.075
-194.246	-22.485	0.384	-0.228
-193.231	337.948	-0.046	0.087
-192.217	-106.991	-0.191	-0.041
-191.202	-200.000	0.008	0.133
-190.187	5.229	0.169	0.122
-189.173	-30.493	0.272	-0.152
-188.158	-200.000	0.063	-0.280
-187.144	-53.751	0.304	0.136
-186.129	139.226	0.096	-0.124
-185.114	-61.776	-0.013	0.005
-184.100	122.763	0.265	-0.326
-183.085	497.136	-0.076	-0.171
-182.071	0.550	-0.182	0.127
-181.056	687.470	0.029	0.075
-180.042	97.059	-0.177	0.199
-179.027	-153.840	0.281	-0.019
-178.012	54.945	0.228	0.216
-176.998	215.402	-0.242	0.377
-175.983	475.115	0.077	0.170
-174.969	20.680	0.436	-0.346
-173.954	-47.581	0.372	0.177
-172.939	172.630	0.104	-0.147
-171.925	271.403	-0.076	0.131
-170.910	206.960	0.155	0.237
-169.896	-200.000	-0.003	0.136
-168.881	-32.358	0.258	-0.141
-167.866	-89.309	0.060	-0.017
-166.852	202.592	0.007	0.010
-165.837	-133.064	-0.322	0.040
-164.823	800.000	-0.048	-0.166
-163.808	-200.000	-0.039	0.218
-162.793	20.217	-0.237	0.187
-161.779	800.000	-0.084	-0.331
-160.764	-163.253	0.158	-0.007
-159.750	184.094	0.285	-0.413
-158.735	800.000	0.032	-0.114
-157.720	800.000	0.078	-0.257
-156.706	634.295	-0.051	-0.126
-155.691	-200.000	-0.057	0.288
-154.677	636.693	0.043	-0.107
-153.662	86.088	-0.152	0.164
-152.647	-144.639	0.230	-0.021
-151.633	-145.242	0.190	0.017
-150.618	800.000	0.067	-0.187
-149.604	-93.441	0.232	-0.063
-148.589	-66.651	0.322	-0.125
-147.574	220.432	-0.118	-0.186
-146.560	24.727	0.152	-0.124
-145.545	-176.637	-0.167	-0.004
-144.531	47.824	-0.121	-0.110
-143.516	800.000	-0.093	-0.267
-142.502	138.597	0.058	-0.075
-141.487	120.260	-0.080	0.098
-140.472	11.329	-0.337	0.253
-139.458	169.310	-0.098	0.137
-138.443	-148.510	0.259	0.021
-137.429	-53.408	0.181	-0.081
-136.414	-200.000	-0.004	-0.091
-135.399	45.627	0.229	0.207
-134.385	85.220	-0.087	0.093
-133.370	-200.000	0.015	0.160
-132.356	-200.000	-0.006	0.441
-131.341	285.840	0.096	0.169
-130.326	-200.000	-0.019	0.146
-129.312	-139.586	0.214	0.022
-128.297	-104.806	0.363	-0.082
-127.283	-98.862	0.190	0.047
-126.268	-114.922	0.239	0.045
-125.253	-71.122	-0.133	-0.049
-124.239	-124.649	-0.280	0.042
-123.224	-104.727	0.225	-0.051
-122.210	38.770	0.302	0.263
-121.195	47.887	0.225	0.206
-120.180	159.736	0.067	0.091
