DTS Sentinel unit serial number:	SN413079Multiplexer serial number:	ORYXHardware model number:	OX4-SRSoftware version number:	ORYX F/W v4.00 Oryx Data Collector v3.7.2.0data status	okinstallation	princeton_trtdifferential loss correction	single-endedforward channel	channel 1reverse channel	N/Adate	2019/09/12time	06:44:11forward acquisition time	60.00reverse acquisition time	0.00gamma	496.2192k internal	0.2321k external	0.2321temperature offset calibration	1.0044default loss term (dB/km)	0.3790temperature slope calibration	1.0000multiplexer offset coefficient	1.0000multiplexer slope coefficient	1.0000fibre end	0.00T internal ref (°C)	32.17T ext. ref 1 (°C)	1.60T ext. ref 2 (°C)	27.26length (m)	temperature (°C)	Stokes	anti-Stokes-747.200	-44.586	-0.050	-0.025
-746.185	-99.173	-0.291	0.074
-745.171	-31.477	-0.287	0.163
-744.156	-200.000	0.001	0.270
-743.142	236.302	0.073	0.122
-742.127	-200.000	-0.002	-0.296
-741.112	800.000	0.057	0.194
-740.098	-56.615	-0.220	-0.098
-739.083	58.211	-0.185	0.183
-738.069	800.000	-0.101	0.289
-737.054	-131.401	0.165	-0.022
-736.039	-31.838	-0.563	-0.319
-735.025	60.866	0.329	0.330
-734.010	-4.675	-0.183	0.127
-732.996	-200.000	-0.031	-0.318
-731.981	571.583	-0.062	0.152
-730.966	-200.000	-0.020	-0.187
-729.952	481.890	0.083	0.189
-728.937	-103.519	0.045	-0.011
-727.923	-162.357	0.238	-0.012
-726.908	800.000	-0.041	-0.118
-725.894	-49.606	-0.522	0.251
-724.879	-149.115	-0.208	0.017
-723.864	542.400	0.121	-0.290
-722.850	-86.154	-0.232	0.072
-721.835	-154.807	-0.172	-0.012
-720.821	-15.188	-0.177	0.114
-719.806	-65.051	-0.217	-0.088
-718.791	800.000	0.130	-0.396
-717.777	44.437	-0.127	0.118
-716.762	501.004	-0.107	-0.249
-715.748	-61.821	0.238	-0.101
-714.733	94.079	0.146	-0.167
-713.718	80.285	0.105	0.114
-712.704	-200.000	0.031	0.252
-711.689	19.644	-0.125	0.102
-710.675	90.928	-0.023	0.026
-709.660	46.359	0.169	-0.159
-708.645	-151.695	-0.301	-0.022
-707.631	9.783	0.077	0.059
-706.616	-41.714	-0.092	0.048
-705.602	-200.000	0.016	-0.083
-704.587	283.438	0.137	-0.249
-703.572	120.556	-0.160	-0.200
-702.558	-106.566	-0.308	-0.069
-701.543	-53.659	-0.123	0.057
-700.529	-80.444	-0.273	0.092
-699.514	-79.341	-0.124	-0.042
-698.499	192.565	-0.388	-0.591
-697.485	36.041	-0.383	-0.340
-696.470	800.000	0.055	0.160
-695.456	589.683	0.067	0.166
-694.441	-114.341	0.404	-0.079
-693.426	167.834	0.047	-0.068
-692.412	-170.486	0.280	0.010
-691.397	800.000	0.062	-0.204
-690.383	-200.000	0.055	-0.259
-689.368	496.767	-0.186	-0.432
-688.354	-131.902	-0.155	0.020
-687.339	16.681	-0.138	0.110
-686.324	-200.000	-0.075	0.545
-685.310	31.332	-0.310	0.268
-684.295	-200.000	0.028	-0.394
-683.281	-107.945	-0.332	-0.073
-682.266	14.223	-0.062	0.049
-681.251	-175.904	-0.219	0.006
-680.237	-1.974	0.212	-0.151
-679.222	-23.315	0.133	-0.081
-678.208	-64.944	-0.110	-0.045
-677.193	401.951	-0.091	0.192
-676.178	-96.339	0.197	-0.053
-675.164	-33.274	-0.229	-0.128
-674.149	800.000	0.147	-0.422
-673.135	-200.000	0.010	-0.097
-672.120	737.978	0.144	0.388
-671.105	-200.000	0.019	-0.180
-670.091	-120.599	-0.413	-0.071
-669.076	28.420	0.273	-0.233
-668.062	-76.813	0.252	0.089
-667.047	800.000	-0.068	-0.194
-666.032	-93.118	0.174	0.049
-665.018	-66.477	-0.051	-0.020
-664.003	-102.394	-0.162	-0.039
-662.989	137.430	0.125	0.165
-661.974	289.421	-0.094	0.173
-660.959	13.579	-0.209	0.163
-659.945	454.893	-0.027	-0.061
-658.930	146.109	0.161	0.217
-657.916	245.887	0.130	-0.221
-656.901	-120.834	-0.129	0.022
-655.886	-170.534	0.058	-0.002
-654.872	-200.000	0.030	-0.165
-653.857	229.400	0.178	-0.293
-652.843	-9.543	-0.270	0.182
-651.828	-142.975	0.369	0.036
-650.814	288.112	-0.078	-0.142
-649.799	-10.291	0.100	-0.067
-648.784	-25.343	0.394	-0.235
-647.770	-9.243	0.176	-0.118
-646.755	36.306	-0.147	0.131
-645.741	-117.228	-0.389	-0.071
-644.726	-200.000	0.002	0.212
-643.711	-158.510	0.174	0.010
-642.697	85.994	0.160	0.177
-641.682	109.523	0.152	-0.183
-640.668	-39.827	0.119	-0.062
-639.653	-59.290	0.257	0.111
-638.638	-59.646	-0.330	0.143
-637.624	84.485	-0.299	0.330
-636.609	-16.826	-0.086	0.055
-635.595	182.108	0.121	0.180
-634.580	-198.956	-0.067	-0.000
-633.565	179.133	-0.183	0.270
-632.551	123.467	-0.151	0.190
-631.536	-78.359	0.136	0.047
-630.522	-171.627	0.257	-0.009
-629.507	104.331	0.113	0.134
-628.492	-82.028	-0.193	0.064
-627.478	404.825	-0.031	-0.065
-626.463	-200.000	0.026	-0.117
-625.449	39.511	0.262	-0.236
-624.434	-90.180	-0.342	0.100
-623.419	-200.000	-0.076	-0.526
-622.405	73.742	0.194	-0.204
-621.390	800.000	0.060	-0.216
-620.376	800.000	-0.026	-0.107
-619.361	438.140	0.048	0.106
-618.346	137.757	-0.222	-0.292
-617.332	-200.000	-0.033	0.165
-616.317	800.000	0.039	-0.119
-615.303	110.714	0.143	0.173
-614.288	-45.803	-0.369	0.183
-613.273	72.120	-0.077	0.080
-612.259	-147.073	-0.270	0.023
-611.244	36.322	-0.169	0.150
-610.230	-200.000	0.002	0.413
-609.215	-136.394	0.503	-0.059
-608.201	171.922	0.121	-0.174
-607.186	-200.000	0.020	-0.172
-606.171	105.896	0.067	0.080
-605.157	37.792	-0.221	-0.198
-604.142	39.647	0.293	-0.264
-603.128	230.387	-0.147	-0.242
-602.113	-200.000	0.023	-0.111
-601.098	800.000	-0.050	0.153
-600.084	501.246	-0.013	0.031
-599.069	153.489	-0.134	-0.184
-598.055	185.916	0.291	-0.435
-597.040	-119.894	0.154	-0.027
-596.025	400.233	0.175	0.368
-595.011	-67.639	-0.266	-0.105
-593.996	-132.053	0.140	-0.018
-592.982	-200.000	0.014	-0.210
-591.967	27.475	-0.030	-0.025
-590.952	-200.000	0.023	-0.126
-589.938	71.641	-0.064	0.067
-588.923	-20.350	-0.089	-0.055
-587.909	53.413	0.259	-0.250
-586.894	-200.000	0.001	-0.066
-585.879	-130.961	0.121	0.016
-584.865	297.804	0.049	-0.090
-583.850	563.868	-0.074	-0.181
-582.836	-54.660	-0.280	-0.127
-581.821	-200.000	0.077	-0.442
-580.806	-96.448	0.134	0.036
-579.792	-111.062	0.260	0.054
-578.777	-200.000	0.019	0.379
-577.763	-173.310	0.440	0.013
-576.748	-128.590	-0.094	0.013
-575.733	173.184	-0.124	-0.180
-574.719	134.185	0.264	-0.344
-573.704	-200.000	0.038	0.339
-572.690	55.117	-0.056	-0.054
-571.675	-113.137	0.279	0.055
-570.661	-2.223	0.061	0.043
-569.646	-164.221	0.127	0.006
-568.631	-25.924	-0.320	0.189
-567.617	88.534	-0.139	0.155
-566.602	-200.000	0.018	0.195
-565.588	83.608	0.132	0.145
-564.573	-200.000	-0.030	-0.342
-563.558	299.539	-0.079	0.147
-562.544	357.762	-0.116	0.232
-561.529	800.000	-0.028	0.080
-560.515	-200.000	0.050	0.300
-559.500	171.046	0.181	-0.260
-558.485	12.053	-0.099	-0.076
-557.471	64.885	0.159	-0.161
-556.456	-200.000	0.043	-0.317
-555.442	-127.365	-0.249	0.036
-554.427	-200.000	-0.058	0.425
-553.412	-111.327	0.333	-0.068
-552.398	-57.171	0.145	-0.064
-551.383	-125.660	-0.375	0.057
-550.369	-129.699	-0.428	0.059
-549.354	-8.022	-0.225	0.153
-548.339	-200.000	0.034	0.258
-547.325	-97.186	0.194	0.051
-546.310	800.000	-0.062	0.240
-545.296	108.859	-0.060	-0.072
-544.281	-68.367	-0.223	-0.087
-543.266	170.673	-0.085	-0.123
-542.252	443.302	0.125	-0.274
-541.237	-2.595	0.236	0.166
-540.223	-200.000	-0.013	0.219
-539.208	62.082	0.155	0.155
-538.193	135.278	0.162	0.211
-537.179	232.710	-0.042	0.069
-536.164	128.454	-0.258	-0.330
-535.150	251.752	-0.109	0.186
-534.135	27.848	-0.136	-0.115
-533.121	276.655	-0.064	0.113
-532.106	-200.000	-0.023	-0.332
-531.091	211.599	-0.101	-0.159
-530.077	-88.922	0.081	0.024
-529.062	99.668	0.296	-0.344
-528.048	-82.074	0.217	-0.071
-527.033	101.243	-0.170	-0.198
-526.018	800.000	-0.015	-0.058
-525.004	93.770	-0.229	-0.260
-523.989	-86.638	-0.160	0.049
-522.975	82.268	0.190	0.206
-521.960	253.086	0.122	0.209
-520.945	-141.514	0.125	0.013
-519.931	-53.208	0.161	0.074
-518.916	-141.679	-0.356	0.036
-517.902	-36.792	-0.138	0.074
-516.887	264.654	-0.028	0.049
-515.872	-51.570	0.245	-0.114
-514.858	800.000	0.184	0.549
-513.843	-65.924	-0.106	0.043
-512.829	11.524	-0.151	-0.116
-511.814	-38.406	-0.016	-0.009
-510.799	15.807	0.226	0.178
-509.785	58.953	-0.056	0.056
-508.770	800.000	-0.052	-0.217
-507.756	800.000	0.032	-0.110
-506.741	-87.188	-0.082	0.025
-505.726	68.196	0.123	0.126
-504.712	-129.210	0.286	0.040
-503.697	529.571	0.069	-0.162
-502.683	-77.677	-0.337	-0.117
-501.668	-58.528	-0.271	-0.118
-500.653	-13.896	0.092	-0.060
-499.639	-69.334	-0.148	-0.057
-498.624	562.706	-0.188	0.456
-497.610	252.636	0.103	0.176
-496.595	-200.000	-0.007	-0.046
-495.581	-141.644	0.142	0.014
-494.566	93.320	0.184	-0.208
-493.551	-85.280	0.304	0.095
-492.537	137.094	-0.129	0.169
-491.522	800.000	0.030	0.104
-490.508	-132.287	0.265	0.034
-489.493	90.655	-0.084	0.094
-488.478	800.000	0.044	-0.165
-487.464	28.710	0.111	-0.094
-486.449	-144.482	-0.248	-0.023
-485.435	235.052	0.149	-0.245
-484.420	360.137	-0.072	-0.144
-483.405	-200.000	-0.026	0.393
-482.391	-31.892	-0.241	-0.135
-481.376	-200.000	0.033	0.158
-480.362	203.347	-0.084	0.129
-479.347	-102.352	0.307	0.074
-478.332	28.714	-0.080	0.068
-477.318	800.000	0.072	-0.237
-476.303	-102.411	0.153	-0.037
-475.289	800.000	-0.039	-0.119
-474.274	-103.890	-0.174	-0.041
-473.259	425.012	-0.163	-0.351
-472.245	-55.296	0.228	0.102
-471.230	51.050	0.119	-0.113
-470.216	365.104	0.091	0.184
-469.201	-181.765	0.095	0.002
-468.186	-35.337	-0.184	-0.100
-467.172	-61.378	0.226	0.095
-466.157	742.857	0.133	0.358
-465.143	-88.462	0.107	-0.032
-464.128	243.507	0.211	-0.353
-463.113	800.000	-0.019	-0.067
-462.099	-108.043	-0.142	0.031
-461.084	-129.602	0.163	0.022
-460.070	18.600	0.170	-0.136
-459.055	-159.498	-0.073	0.004
-458.040	-134.579	-0.262	-0.032
-457.026	148.403	0.177	-0.239
-456.011	120.276	0.392	-0.487
-454.997	-200.000	0.064	-0.486
-453.982	-177.565	0.107	0.003
-452.968	-21.631	0.233	-0.142
-451.953	-1.581	-0.134	-0.095
-450.938	296.452	0.124	-0.227
-449.924	158.678	0.067	-0.093
-448.909	292.454	0.156	0.284
-447.895	18.721	0.044	-0.036
-446.880	22.495	0.265	-0.217
-445.865	-200.000	-0.027	0.134
-444.851	107.565	0.183	0.218
-443.836	-67.632	0.223	0.087
-442.822	20.532	-0.355	-0.287
-441.807	-67.843	-0.288	-0.112
-440.792	18.810	-0.396	0.317
-439.778	-25.554	-0.092	-0.054
-438.763	-168.242	-0.318	-0.012
-437.749	-200.000	-0.051	-0.278
-436.734	-200.000	0.002	-0.162
-435.719	-124.396	0.166	-0.026
-434.705	800.000	-0.058	0.176
-433.690	-109.328	0.181	0.038
-432.676	768.746	0.088	-0.238
-431.661	135.614	-0.101	0.131
-430.646	121.809	-0.210	-0.262
-429.632	3.439	-0.297	0.216
-428.617	-66.959	0.333	0.131
-427.603	-200.000	-0.023	0.158
-426.588	-57.504	-0.426	0.187
-425.573	-9.368	0.339	-0.226
-424.559	-87.236	-0.077	-0.023
-423.544	-126.064	0.136	0.020
-422.530	800.000	-0.077	0.290
-421.515	386.487	0.185	0.382
-420.500	-200.000	0.025	0.474
-419.486	-46.265	-0.201	-0.099
-418.471	800.000	-0.099	-0.417
-417.457	-87.700	0.206	-0.062
-416.442	83.277	-0.060	-0.065
-415.428	77.297	0.150	-0.160
-414.413	-101.822	-0.140	-0.034
-413.398	-69.926	0.176	-0.067
-412.384	-26.123	-0.204	-0.120
-411.369	-96.819	-0.310	0.081
-410.355	-200.000	-0.001	-0.232
-409.340	227.185	-0.144	-0.234
-408.325	-200.000	-0.006	-0.069
-407.311	-26.228	0.061	0.036
-406.296	252.620	0.216	0.368
-405.282	-129.084	-0.193	-0.027
-404.267	24.025	0.196	0.162
-403.252	56.196	0.200	0.193
-402.238	520.648	0.133	-0.311
-401.223	335.742	0.055	-0.107
-400.209	146.100	-0.187	0.251
-399.194	-161.229	0.019	0.001
-398.179	-200.000	-0.038	0.218
-397.165	-37.159	-0.213	0.114
-396.150	-182.216	0.257	0.005
-395.136	800.000	-0.155	0.590
-394.121	-142.874	-0.158	0.015
-393.106	-97.859	0.334	0.086
-392.092	-170.073	-0.225	-0.008
-391.077	119.681	0.023	-0.029
-390.063	-53.727	-0.407	-0.185
-389.048	0.232	0.054	0.038
-388.033	800.000	-0.041	0.118
-387.019	221.455	-0.176	-0.281
-386.004	-11.589	-0.209	-0.137
-384.990	-158.215	0.152	-0.009
-383.975	106.748	0.050	-0.059
-382.960	-124.812	-0.124	-0.019
-381.946	-200.000	0.059	0.278
-380.931	-142.177	-0.279	0.028
-379.917	800.000	-0.053	0.157
-378.902	151.932	0.021	-0.028
-377.888	-38.816	0.405	-0.213
-376.873	214.875	-0.234	0.369
-375.858	800.000	0.080	0.329
-374.844	-158.339	-0.309	0.018
-373.829	800.000	0.125	0.399
-372.815	142.963	0.129	-0.172
-371.800	-200.000	0.009	-0.198
-370.785	-110.123	0.289	-0.060
-369.771	800.000	0.038	-0.115
-368.756	-143.451	0.124	-0.012
-367.742	100.504	-0.042	0.049
-366.727	-200.000	-0.006	0.063
-365.712	548.422	0.096	-0.229
-364.698	-200.000	-0.033	0.261
-363.683	56.611	0.139	0.134
-362.669	-63.150	-0.042	-0.017
-361.654	-40.841	-0.142	0.073
-360.639	-187.052	-0.157	-0.002
-359.625	-156.194	-0.144	-0.009
-358.610	-200.000	-0.033	-0.290
-357.596	327.216	0.096	0.184
-356.581	-200.000	0.069	-0.377
-355.566	-68.286	-0.215	0.083
-354.552	800.000	-0.036	0.119
-353.537	800.000	-0.062	0.211
-352.523	800.000	-0.020	-0.075
-351.508	-129.901	-0.245	-0.033
-350.493	800.000	-0.076	0.284
-349.479	273.020	-0.106	0.187
-348.464	142.792	-0.188	0.249
-347.450	-21.133	-0.140	0.085
-346.435	800.000	-0.079	-0.265
-345.420	800.000	-0.134	-0.374
-344.406	-200.000	0.016	0.070
-343.391	340.097	-0.022	0.042
-342.377	-143.113	0.217	-0.021
-341.362	312.531	-0.048	-0.089
-340.348	530.197	0.102	-0.240
-339.333	-184.856	0.073	-0.001
-338.318	-200.000	-0.025	0.112
-337.304	-179.180	-0.323	0.007
-336.289	191.636	0.024	-0.035
-335.275	-200.000	-0.033	-0.219
-334.260	-200.000	0.039	0.379
-333.245	-3.831	0.110	-0.076
-332.231	191.668	-0.040	-0.060
-331.216	-121.235	0.331	-0.055
-330.202	183.138	-0.119	-0.175
-329.187	-116.487	-0.315	0.058
-328.172	800.000	0.091	-0.310
-327.158	-200.000	-0.007	0.179
-326.143	517.636	0.042	-0.098
-325.129	96.592	-0.087	-0.099
-324.114	800.000	-0.085	0.300
-323.099	-129.436	0.359	0.050
-322.085	-200.000	0.016	0.070
-321.070	87.051	0.176	-0.193
-320.056	-34.922	0.132	0.071
-319.041	-45.650	0.289	0.142
-318.026	800.000	0.096	0.283
-317.012	86.968	-0.234	-0.257
-315.997	-148.213	-0.320	-0.026
-314.983	-157.538	0.276	-0.016
-313.968	-200.000	0.046	-0.254
-312.953	-34.937	0.190	-0.103
-311.939	230.169	-0.107	0.174
-310.924	-18.865	-0.144	-0.089
-309.910	34.179	0.177	0.153
-308.895	-193.277	-0.234	-0.002
-307.880	290.054	-0.184	0.332
-306.866	-172.489	-0.301	-0.009
-305.851	237.670	-0.028	-0.046
-304.837	81.678	-0.110	-0.118
-303.822	490.337	0.087	-0.197
-302.807	147.428	-0.255	0.341
-301.793	800.000	-0.072	0.252
-300.778	-93.669	0.135	-0.037
-299.764	459.441	0.062	0.138
-298.749	-30.706	0.157	-0.088
-297.735	15.660	0.077	0.060
-296.720	-36.710	0.060	0.032
-295.705	138.932	-0.078	-0.102
-294.691	-64.698	0.343	0.138
-293.676	140.572	0.174	0.228
-292.662	-100.346	-0.081	-0.020
-291.647	-75.337	-0.283	0.100
-290.632	195.591	0.109	0.165
-289.618	800.000	-0.042	0.136
-288.603	65.688	0.177	0.178
-287.589	22.708	0.121	-0.098
-286.574	-94.584	-0.143	-0.039
-285.559	-200.000	-0.060	-0.286
-284.545	-154.296	-0.055	-0.004
-283.530	800.000	-0.034	0.124
-282.516	-33.468	-0.181	0.099
-281.501	-70.480	0.108	0.041
-280.486	-120.754	-0.194	0.033
-279.472	69.591	-0.223	-0.228
-278.457	2.217	0.278	0.200
-277.443	261.926	0.125	-0.215
-276.428	93.843	-0.107	-0.120
-275.413	502.460	0.070	-0.160
-274.399	-52.614	0.042	-0.019
-273.384	29.490	0.197	0.166
-272.370	-200.000	-0.008	-0.052
-271.355	-83.516	-0.400	0.127
-270.340	-86.114	0.184	0.056
-269.326	-128.460	0.236	0.033
-268.311	174.107	-0.243	-0.349
-267.297	-29.429	0.212	-0.120
-266.282	-43.733	-0.293	0.146
-265.267	107.321	0.028	0.033
-264.253	-138.168	0.101	-0.011
-263.238	-200.000	0.034	0.206
-262.224	800.000	0.057	-0.195
-261.209	-3.060	-0.394	-0.273
-260.195	315.520	0.199	0.372
-259.180	800.000	0.090	0.295
-258.165	83.152	-0.142	0.154
-257.151	-74.379	-0.148	-0.053
-256.136	-47.725	-0.235	-0.113
-255.122	-200.000	-0.000	0.420
-254.107	176.258	-0.285	0.410
-253.092	-200.000	-0.030	-0.194
-252.078	480.973	-0.098	-0.220
-251.063	51.637	-0.239	-0.226
-250.049	800.000	0.044	0.170
-249.034	-200.000	0.001	-0.065
-248.019	-200.000	0.024	-0.451
-247.005	800.000	0.113	0.439
-245.990	800.000	-0.030	0.092
-244.976	-200.000	0.029	0.275
-243.961	-105.390	-0.143	-0.032
-242.946	800.000	-0.073	0.264
-241.932	-21.473	0.284	0.172
-240.917	-25.607	-0.226	0.132
-239.903	18.742	0.139	0.111
-238.888	-200.000	0.019	-0.211
-237.873	-118.354	0.173	0.030
-236.859	-0.220	-0.157	-0.111
-235.844	54.500	-0.139	-0.133
-234.830	800.000	0.066	-0.188
-233.815	-82.737	0.168	0.054
-232.800	569.950	0.050	0.120
-231.786	62.186	-0.340	-0.336
-230.771	-66.741	-0.087	0.034
-229.757	0.704	0.184	-0.130
-228.742	81.518	0.139	0.149
-227.727	-6.720	0.141	-0.095
-226.713	-200.000	-0.020	0.111
-225.698	-200.000	0.007	-0.110
-224.684	134.208	-0.062	-0.079
-223.669	201.930	0.077	0.118
-222.655	-23.712	-0.085	-0.051
-221.640	52.372	-0.178	0.168
-220.625	-116.618	0.344	-0.063
-219.611	-139.831	0.383	0.040
-218.596	-45.752	0.053	-0.026
-217.582	-37.330	-0.121	0.064
-216.567	-200.000	0.007	0.157
-215.552	220.146	-0.252	0.399
-214.538	-140.873	0.215	-0.022
-213.523	188.975	0.088	0.131
-212.509	-117.521	-0.183	-0.033
-211.494	85.567	-0.006	0.006
-210.479	-127.624	-0.080	-0.012
-209.465	178.982	-0.172	0.249
-208.450	-111.622	0.065	0.013
-207.436	430.427	0.105	0.226
-206.421	80.569	0.181	-0.193
-205.406	-200.000	-0.017	-0.254
-204.392	-200.000	-0.062	0.323
-203.377	-156.754	0.307	0.019
-202.363	405.383	-0.144	-0.300
-201.348	146.694	-0.058	0.077
-200.333	121.177	0.155	0.191
-199.319	-85.324	0.283	-0.087
-198.304	-69.734	0.093	0.035
-197.290	800.000	0.031	-0.087
-196.275	174.119	-0.158	-0.226
-195.260	49.117	-0.152	-0.142
-194.246	45.487	-0.173	-0.158
-193.231	-95.631	-0.180	0.048
-192.217	9.797	-0.187	0.140
-191.202	-66.143	-0.056	0.022
-190.187	800.000	0.056	-0.188
-189.173	-35.874	-0.184	0.098
-188.158	-22.444	0.098	0.059
-187.144	19.994	-0.180	-0.143
-186.129	-200.000	0.050	-0.225
-185.114	-56.829	-0.223	0.097
-184.100	175.754	0.069	-0.099
-183.085	345.391	-0.156	-0.303
-182.071	-33.489	-0.307	-0.168
-181.056	-144.523	-0.076	-0.007
-180.042	-200.000	0.014	0.158
-179.027	-148.723	0.311	0.025
-178.012	18.230	-0.171	-0.135
-176.998	600.174	0.142	-0.348
-175.983	-32.974	-0.145	-0.080
-174.969	-200.000	0.032	-0.219
-173.954	-110.530	0.068	0.014
-172.939	-71.339	0.129	0.048
-171.925	-120.986	-0.288	-0.048
-170.910	-101.644	0.240	0.058
-169.896	240.823	0.199	-0.329
-168.881	-91.774	-0.204	0.057
-167.866	-198.761	0.176	0.001
-166.852	-200.000	0.031	0.348
-165.837	301.300	0.104	-0.190
-164.823	15.637	-0.050	0.039
-163.808	-200.000	0.015	-0.239
-162.793	149.939	0.088	-0.118
-161.779	-114.667	-0.003	0.001
-160.764	147.034	0.095	-0.126
-159.750	384.139	-0.048	-0.098
-158.735	-119.136	0.221	0.038
-157.720	-134.232	0.251	0.031
-156.706	71.545	0.275	0.282
-155.691	-83.271	-0.247	-0.078
-154.677	104.296	0.029	0.034
-153.662	237.471	-0.086	0.142
-152.647	800.000	-0.055	0.158
-151.633	-120.766	-0.119	-0.020
-150.618	48.362	-0.119	-0.110
-149.604	-26.274	-0.081	0.047
-148.589	51.035	-0.217	0.203
-147.574	376.708	0.095	0.192
-146.560	-36.689	-0.215	0.114
-145.545	393.542	-0.191	-0.392
-144.531	-130.777	0.257	0.034
-143.516	282.621	0.075	0.133
-142.502	-200.000	-0.025	0.144
-141.487	-16.010	0.261	-0.164
-140.472	7.202	-0.314	-0.231
-139.458	-109.431	0.202	0.042
-138.443	161.071	-0.087	-0.120
-137.429	-47.175	-0.161	0.077
-136.414	197.920	0.072	-0.109
-135.399	-67.723	-0.158	-0.061
-134.385	-2.909	0.278	-0.191
-133.370	320.490	-0.119	0.224
-132.356	-200.000	0.118	0.590
-131.341	133.245	0.156	0.199
-130.326	192.398	0.202	-0.301
-129.312	393.052	-0.110	-0.226
-128.297	-138.680	0.322	-0.035
-127.283	-61.648	0.270	0.112
-126.268	-200.000	-0.016	0.181
-125.253	506.678	0.200	0.458
-124.239	286.841	-0.049	0.087
-123.224	-92.428	0.183	0.051
-122.210	-20.715	0.120	0.073
-121.195	293.948	0.037	0.067
