DTS Sentinel unit serial number:	SN413079Multiplexer serial number:	ORYXHardware model number:	OX4-SRSoftware version number:	ORYX F/W v4.00 Oryx Data Collector v3.7.2.0data status	okinstallation	princeton_trtdifferential loss correction	single-endedforward channel	channel 1reverse channel	N/Adate	2019/09/19time	12:14:35forward acquisition time	60.00reverse acquisition time	0.00gamma	496.2192k internal	0.2336k external	0.2336temperature offset calibration	1.0013default loss term (dB/km)	0.3790temperature slope calibration	1.0000multiplexer offset coefficient	1.0000multiplexer slope coefficient	1.0000fibre end	0.00T internal ref (°C)	26.44T ext. ref 1 (°C)	0.85T ext. ref 2 (°C)	23.25length (m)	temperature (°C)	Stokes	anti-Stokes-747.200	672.417	-0.064	-0.166
-746.185	30.972	0.177	0.152
-745.171	-72.994	0.078	0.029
-744.156	-200.000	-0.060	0.409
-743.142	-200.000	0.012	0.503
-742.127	93.820	-0.178	-0.203
-741.112	30.673	-0.060	0.052
-740.098	44.977	0.144	-0.133
-739.083	-141.360	0.370	0.038
-738.069	-14.245	-0.329	0.213
-737.054	-79.165	0.293	-0.100
-736.039	-136.927	-0.242	-0.028
-735.025	-200.000	-0.017	0.317
-734.010	-96.822	-0.209	-0.055
-732.996	-200.000	0.016	-0.515
-731.981	-70.355	-0.135	-0.051
-730.966	-89.330	-0.304	0.090
-729.952	539.616	-0.015	-0.035
-728.937	800.000	-0.036	0.103
-727.923	81.236	-0.125	-0.135
-726.908	-200.000	-0.009	-0.043
-725.894	781.888	-0.069	-0.189
-724.879	0.827	0.256	-0.184
-723.864	94.908	-0.118	-0.135
-722.850	-73.107	-0.173	-0.064
-721.835	-24.412	0.255	-0.152
-720.821	203.897	-0.170	0.264
-719.806	-200.000	0.004	0.135
-718.791	379.871	0.274	-0.563
-717.777	-200.000	-0.009	-0.260
-716.762	800.000	-0.031	-0.136
-715.748	202.999	-0.078	0.122
-714.733	-187.575	0.257	0.003
-713.718	4.462	-0.298	-0.219
-712.704	3.755	0.099	-0.073
-711.689	-91.358	0.163	-0.047
-710.675	-200.000	-0.006	-0.108
-709.660	-200.000	0.011	-0.516
-708.645	197.089	-0.067	0.103
-707.631	284.968	0.191	0.344
-706.616	631.384	-0.040	0.102
-705.602	468.439	0.057	0.128
-704.587	800.000	0.038	-0.112
-703.572	-67.102	-0.143	-0.057
-702.558	55.297	0.204	0.197
-701.543	18.975	0.265	0.213
-700.529	118.828	-0.240	0.297
-699.514	-200.000	0.007	-0.031
-698.499	800.000	0.088	0.261
-697.485	-200.000	0.038	-0.191
-696.470	81.241	0.217	0.235
-695.456	219.450	0.065	0.104
-694.441	17.677	0.256	0.204
-693.426	111.175	-0.119	-0.143
-692.412	490.567	0.051	-0.117
-691.397	170.063	0.148	0.212
-690.383	-200.000	-0.003	-0.136
-689.368	79.974	-0.044	-0.047
-688.354	-68.684	0.154	0.060
-687.339	-40.582	-0.139	0.072
-686.324	-200.000	0.022	0.208
-685.310	33.157	-0.161	-0.140
-684.295	-200.000	0.028	-0.128
-683.281	-53.395	-0.370	0.170
-682.266	-187.457	-0.267	0.004
-681.251	-94.393	-0.140	-0.038
-680.237	800.000	-0.059	-0.255
-679.222	-2.378	-0.198	-0.139
-678.208	44.111	0.136	0.125
-677.193	-24.816	0.429	0.256
-676.178	126.850	0.086	-0.109
-675.164	135.456	-0.144	-0.188
-674.149	800.000	-0.048	0.137
-673.135	800.000	-0.035	-0.148
-672.120	-55.034	-0.241	0.109
-671.105	800.000	0.015	-0.046
-670.091	-13.729	0.116	0.075
-669.076	-55.385	-0.074	0.033
-668.062	-200.000	0.008	0.244
-667.047	-51.574	-0.153	-0.071
-666.032	-46.094	-0.117	-0.058
-665.018	800.000	-0.071	0.236
-664.003	627.759	0.065	0.165
-662.989	-153.940	0.243	-0.017
-661.974	442.588	-0.068	-0.150
-660.959	-18.268	-0.233	-0.146
-659.945	679.766	-0.129	0.337
-658.930	-131.878	0.218	0.029
-657.916	-168.208	0.176	-0.007
-656.901	-94.242	-0.412	-0.113
-655.886	-200.000	0.053	-0.467
-654.872	-200.000	0.027	-0.146
-653.857	-83.275	0.173	-0.056
-652.843	-155.812	0.386	0.025
-651.828	92.472	0.093	0.105
-650.814	-200.000	0.035	-0.170
-649.799	149.983	-0.228	0.310
-648.784	800.000	0.027	0.087
-647.770	-144.728	-0.097	0.009
-646.755	800.000	0.048	0.200
-645.741	375.210	-0.080	-0.162
-644.726	800.000	0.020	0.084
-643.711	64.370	0.243	0.245
-642.697	-166.334	-0.106	0.004
-641.682	128.783	-0.203	0.259
-640.668	-85.064	0.134	-0.042
-639.653	19.599	-0.101	-0.081
-638.638	206.404	-0.074	0.116
-637.624	403.122	0.094	-0.197
-636.609	692.200	-0.046	-0.120
-635.595	800.000	0.046	-0.159
-634.580	-32.466	0.095	0.053
-633.565	-5.382	-0.127	0.087
-632.551	789.289	0.120	0.329
-631.536	425.640	-0.114	-0.245
-630.522	138.319	0.042	0.056
-629.507	-80.475	0.259	0.087
-628.492	280.606	0.183	-0.327
-627.478	-200.000	-0.023	0.271
-626.463	374.231	-0.101	0.207
-625.449	-200.000	-0.060	0.306
-624.434	214.490	0.025	0.040
-623.419	800.000	0.092	-0.271
-622.405	-200.000	-0.033	0.184
-621.390	-82.825	0.249	0.080
-620.376	-131.974	0.211	0.027
-619.361	-80.372	-0.197	0.066
-618.346	-200.000	-0.004	-0.418
-617.332	-34.817	0.123	-0.067
-616.317	123.792	-0.173	-0.217
-615.303	800.000	-0.051	0.201
-614.288	-169.319	-0.319	0.012
-613.273	-85.806	-0.275	0.085
-612.259	56.984	0.165	-0.161
-611.244	325.572	0.183	-0.349
-610.230	-50.540	0.118	0.055
-609.215	56.154	0.280	0.271
-608.201	422.105	-0.211	-0.452
-607.186	-144.024	0.378	-0.035
-606.171	-79.128	-0.216	-0.073
-605.157	226.594	-0.083	-0.134
-604.142	651.280	-0.030	-0.077
-603.128	306.041	-0.133	0.248
-602.113	-200.000	-0.037	-0.262
-601.098	-85.296	0.250	-0.078
-600.084	-74.395	-0.211	-0.076
-599.069	40.467	-0.096	0.087
-598.055	136.477	0.144	-0.188
-597.040	329.926	0.123	0.237
-596.025	-115.079	-0.222	0.042
-595.011	597.804	-0.109	0.269
-593.996	282.453	0.097	-0.174
-592.982	-160.918	-0.211	-0.011
-591.967	-50.489	0.126	-0.059
-590.952	-91.338	0.218	0.062
-589.938	-200.000	-0.005	0.181
-588.923	-200.000	-0.050	-0.234
-587.909	-85.943	-0.205	-0.063
-586.894	233.675	-0.116	-0.190
-585.879	-101.655	-0.165	-0.040
-584.865	-200.000	0.026	-0.189
-583.850	38.668	-0.150	0.134
-582.836	-12.716	-0.080	-0.052
-581.821	-62.599	0.148	0.061
-580.806	206.253	-0.021	0.032
-579.792	-133.554	0.292	0.037
-578.777	-68.171	0.174	-0.068
-577.763	-131.513	-0.269	0.035
-576.748	800.000	0.090	0.316
-575.733	-62.513	-0.148	-0.061
-574.719	105.136	0.175	-0.206
-573.704	-144.032	0.390	0.037
-572.690	-99.059	-0.175	0.044
-571.675	-46.400	0.224	-0.110
-570.661	-31.105	0.168	-0.095
-569.646	-66.510	-0.251	0.100
-568.631	800.000	0.023	-0.094
-567.617	-200.000	-0.007	-0.161
-566.602	215.553	0.157	0.248
-565.588	-176.854	-0.046	-0.001
-564.573	-200.000	0.013	0.100
-563.558	-56.597	-0.123	-0.054
-562.544	-193.353	-0.066	-0.001
-561.529	-88.167	0.068	-0.020
-560.515	-200.000	0.013	-0.100
-559.500	-69.527	0.091	0.035
-558.485	24.024	0.209	0.172
-557.471	7.373	-0.032	0.024
-556.456	43.603	0.211	0.193
-555.442	-35.182	0.249	-0.135
-554.427	486.988	0.112	0.255
-553.412	-200.000	0.018	0.240
-552.398	539.426	-0.023	-0.054
-551.383	-200.000	-0.015	-0.239
-550.369	-163.098	-0.200	-0.010
-549.354	91.202	-0.059	0.066
-548.339	316.075	0.085	-0.160
-547.325	450.881	-0.099	0.218
-546.310	-200.000	0.001	-0.075
-545.296	-200.000	0.004	-0.075
-544.281	-200.000	-0.035	-0.280
-543.266	176.948	0.092	-0.133
-542.252	-180.910	-0.244	0.005
-541.237	-65.887	-0.068	-0.027
-540.223	432.847	0.088	0.190
-539.208	-6.536	0.239	-0.162
-538.193	-5.612	0.341	-0.233
-537.179	800.000	-0.076	0.268
-536.164	800.000	0.012	0.041
-535.150	17.088	-0.179	0.141
-534.135	172.195	0.120	0.172
-533.121	165.911	-0.091	-0.128
-532.106	800.000	0.130	0.410
-531.091	-104.977	0.083	0.019
-530.077	-90.719	-0.150	-0.043
-529.062	-64.424	0.255	-0.103
-528.048	219.071	0.058	-0.092
-527.033	-127.853	0.188	-0.027
-526.018	450.742	-0.025	-0.054
-525.004	-200.000	-0.024	0.236
-523.989	149.788	-0.091	-0.122
-522.975	615.083	0.091	0.227
-521.960	-200.000	0.017	-0.486
-520.945	-200.000	-0.053	0.275
-519.931	419.680	0.127	-0.272
-518.916	800.000	-0.058	-0.196
-517.902	-200.000	0.083	-0.437
-516.887	490.141	-0.109	-0.248
-515.872	55.645	0.289	-0.279
-514.858	800.000	-0.058	-0.208
-513.843	-56.538	0.329	0.145
-512.829	-56.106	0.200	-0.089
-511.814	-40.603	-0.116	-0.060
-510.799	55.375	0.104	-0.101
-509.785	-39.935	0.236	0.123
-508.770	59.143	0.181	-0.178
-507.756	264.910	-0.149	0.259
-506.741	148.052	0.069	0.093
-505.726	-200.000	-0.037	-0.166
-504.712	-31.357	-0.094	0.053
-503.697	33.755	0.239	0.207
-502.683	31.299	0.258	0.221
-501.668	-50.214	-0.147	0.069
-500.653	69.593	0.097	0.099
-499.639	13.971	-0.201	0.155
-498.624	-200.000	0.017	0.149
-497.610	-21.136	-0.163	0.099
-496.595	-200.000	-0.003	-0.116
-495.581	-72.019	-0.185	-0.069
-494.566	448.177	-0.100	-0.220
-493.551	43.509	-0.215	0.195
-492.537	-106.634	0.215	0.048
-491.522	-104.807	-0.298	0.068
-490.508	145.425	-0.261	0.348
-489.493	673.005	0.025	0.064
-488.478	-200.000	0.020	-0.126
-487.464	89.584	-0.111	-0.123
-486.449	-184.077	0.106	-0.002
-485.435	14.704	-0.298	0.231
-484.420	483.354	0.117	0.265
-483.405	28.656	-0.217	-0.182
-482.391	351.912	0.193	-0.381
-481.376	20.360	-0.202	-0.163
-480.362	351.426	0.096	0.189
-479.347	379.197	-0.127	0.258
-478.332	-200.000	0.017	0.177
-477.318	-130.565	0.222	-0.030
-476.303	-143.334	-0.473	-0.045
-475.289	-200.000	0.017	-0.332
-474.274	62.491	0.167	-0.166
-473.259	-145.199	-0.288	-0.026
-472.245	88.660	-0.036	0.039
-471.230	27.641	0.023	0.019
-470.216	-97.379	0.057	-0.015
-469.201	-32.249	-0.335	-0.186
-468.186	313.525	0.110	0.206
-467.172	-43.007	-0.118	-0.060
-466.157	-76.294	0.468	-0.164
-465.143	-159.889	0.371	0.020
-464.128	102.589	-0.091	0.106
-463.113	15.562	-0.140	-0.109
-462.099	-54.216	0.111	-0.050
-461.084	-100.599	0.430	-0.105
-460.070	35.192	0.186	-0.162
-459.055	-130.092	-0.349	0.047
-458.040	714.324	-0.074	-0.194
-457.026	-48.732	0.351	-0.167
-456.011	-149.610	-0.127	-0.010
-454.997	-40.827	-0.031	0.016
-453.982	-200.000	-0.024	0.171
-452.968	-200.000	-0.034	0.168
-451.953	148.987	-0.178	0.239
-450.938	-200.000	0.075	-0.420
-449.924	-200.000	-0.004	0.162
-448.909	-175.728	0.238	-0.006
-447.895	-16.781	-0.104	0.065
-446.880	10.411	0.093	-0.071
-445.865	-100.972	-0.355	-0.086
-444.851	-83.365	0.346	-0.110
-443.836	12.770	-0.193	0.148
-442.822	237.362	-0.224	-0.368
-441.807	46.073	-0.064	0.059
-440.792	-64.786	-0.329	0.132
-439.778	427.940	0.100	-0.214
-438.763	-134.618	-0.121	-0.015
-437.749	-76.618	0.075	-0.026
-436.734	-200.000	-0.044	-0.231
-435.719	198.124	-0.154	0.233
-434.705	-121.802	-0.244	-0.040
-433.690	-200.000	-0.036	0.215
-432.676	256.994	0.070	-0.119
-431.661	282.238	0.072	0.129
-430.646	800.000	0.092	0.285
-429.632	584.064	-0.142	-0.345
-428.617	659.751	0.123	-0.315
-427.603	154.010	0.082	0.111
-426.588	130.356	0.227	0.289
-425.573	69.289	-0.341	-0.348
-424.559	-114.221	0.101	0.019
-423.544	-41.477	-0.335	-0.171
-422.530	-147.668	0.306	-0.026
-421.515	800.000	-0.038	-0.126
-420.500	-200.000	-0.011	-0.196
-419.486	-94.474	-0.019	0.005
-418.471	-83.196	-0.238	0.076
-417.457	-12.914	0.227	0.147
-416.442	-70.771	-0.209	-0.078
-415.428	-19.647	0.092	0.056
-414.413	-39.062	0.202	0.105
-413.398	-19.573	0.189	0.116
-412.384	-74.794	-0.105	0.037
-411.369	-116.297	0.057	0.010
-410.355	-200.000	-0.058	-0.333
-409.340	-5.676	-0.442	-0.300
-408.325	119.691	0.061	-0.075
-407.311	-52.884	-0.342	0.156
-406.296	163.451	-0.182	0.253
-405.282	-200.000	0.018	-0.211
-404.267	-65.050	0.105	-0.042
-403.252	319.770	-0.048	0.091
-402.238	-14.226	-0.091	-0.058
-401.223	-200.000	-0.019	-0.286
-400.209	81.762	-0.034	-0.036
-399.194	452.097	0.031	0.069
-398.179	-143.958	0.304	-0.028
-397.165	-101.211	0.318	-0.077
-396.150	-200.000	0.056	-0.380
-395.136	-53.749	-0.164	0.074
-394.121	99.826	-0.101	0.116
-393.106	-96.576	0.364	-0.095
-392.092	82.781	0.162	0.174
-391.077	325.913	-0.113	-0.213
-390.063	-119.061	0.430	0.075
-389.048	13.825	-0.164	0.126
-388.033	-200.000	-0.068	-0.465
-387.019	800.000	-0.089	-0.366
-386.004	-66.659	0.195	-0.077
-384.990	-92.032	0.155	0.043
-383.975	-95.732	-0.422	0.112
-382.960	-200.000	-0.002	0.064
-381.946	273.184	-0.165	-0.289
-380.931	-50.178	0.166	-0.078
-379.917	335.842	-0.148	-0.284
-378.902	44.841	-0.082	0.074
-377.888	262.409	0.152	0.262
-376.873	800.000	0.089	0.342
-375.858	800.000	0.087	0.371
-374.844	-106.074	0.205	-0.046
-373.829	69.163	-0.106	0.108
-372.815	51.854	-0.166	0.157
-371.800	111.630	0.171	-0.205
-370.785	-28.693	-0.166	-0.094
-369.771	800.000	-0.159	0.621
-368.756	800.000	-0.140	0.427
-367.742	14.441	-0.072	-0.056
-366.727	32.260	0.081	-0.070
-365.712	-53.655	-0.117	0.053
-364.698	673.236	0.199	-0.511
-363.683	-105.513	0.204	0.046
-362.669	800.000	0.107	-0.360
-361.654	-42.835	-0.201	-0.101
-360.639	-124.245	-0.315	0.049
-359.625	-48.786	0.295	0.140
-358.610	-108.680	0.169	-0.036
-357.596	710.468	0.141	0.370
-356.581	-54.980	-0.265	-0.118
-355.566	-123.369	0.151	-0.024
-354.552	-99.145	-0.365	0.091
-353.537	-200.000	0.043	-0.226
-352.523	-200.000	0.014	-0.086
-351.508	57.056	0.177	-0.171
-350.493	144.345	0.050	-0.067
-349.479	-148.973	-0.240	0.019
-348.464	179.532	0.200	0.290
-347.450	-16.983	-0.247	0.154
-346.435	271.001	-0.216	0.376
-345.420	-102.138	0.213	-0.051
-344.406	-27.122	0.130	0.075
-343.391	-200.000	0.026	-0.307
-342.377	-40.046	0.114	-0.059
-341.362	-87.055	0.116	-0.035
-340.348	82.695	0.241	0.258
-339.333	357.456	-0.104	0.206
-338.318	162.688	-0.213	-0.296
-337.304	-85.511	-0.149	0.046
-336.289	290.544	0.030	0.055
-335.275	-76.630	-0.292	0.101
-334.260	-50.710	0.201	-0.094
-333.245	76.048	0.054	0.056
-332.231	-200.000	-0.022	0.394
-331.216	-78.744	-0.326	0.110
-330.202	247.149	0.073	0.122
-329.187	-100.232	0.201	-0.049
-328.172	-200.000	-0.001	-0.084
-327.158	-4.502	0.173	0.118
-326.143	-129.211	-0.280	0.039
-325.129	213.151	0.031	-0.048
-324.114	-59.463	0.254	0.108
-323.099	-4.738	0.297	0.203
-322.085	257.248	0.112	-0.190
-321.070	-142.596	0.190	-0.018
-320.056	-158.179	-0.267	0.015
-319.041	-135.311	0.128	-0.015
-318.026	-200.000	0.046	-0.231
-317.012	-147.516	-0.140	-0.012
-315.997	-200.000	-0.011	-0.110
-314.983	-59.020	-0.291	-0.124
-313.968	196.101	-0.068	-0.102
-312.953	198.700	-0.254	0.383
-311.939	345.205	-0.069	-0.134
-310.924	210.168	-0.065	0.102
-309.910	800.000	0.028	-0.099
-308.895	-200.000	0.022	-0.258
-307.880	-16.305	-0.155	0.097
-306.866	272.874	-0.127	0.222
-305.851	800.000	0.056	0.241
-304.837	112.943	0.040	0.047
-303.822	38.337	0.162	0.143
-302.807	-128.274	-0.472	0.066
-301.793	-155.414	-0.478	-0.031
-300.778	-152.719	0.382	-0.027
-299.764	800.000	-0.065	-0.226
-298.749	800.000	0.051	0.163
-297.735	-72.490	0.069	-0.025
-296.720	213.126	0.109	-0.170
-295.705	321.267	0.142	0.266
-294.691	800.000	-0.048	0.190
-293.676	-19.640	-0.311	-0.190
-292.662	-51.608	0.104	-0.048
-291.647	84.617	0.184	0.198
-290.632	800.000	0.065	0.200
-289.618	800.000	-0.112	0.310
-288.603	-200.000	-0.054	-0.274
-287.589	-4.370	-0.056	-0.038
-286.574	-38.957	0.205	0.106
-285.559	800.000	0.066	-0.218
-284.545	68.282	-0.233	-0.236
-283.530	208.983	-0.060	-0.093
-282.516	73.973	0.112	-0.116
-281.501	184.329	0.219	0.319
-280.486	-94.665	-0.243	0.065
-279.472	241.390	-0.260	0.428
-278.457	-46.812	-0.075	-0.036
-277.443	263.140	-0.062	0.107
-276.428	-200.000	0.042	0.223
-275.413	48.016	0.077	0.071
-274.399	67.058	-0.107	-0.107
-273.384	-200.000	-0.023	0.218
-272.370	-20.901	0.134	0.081
-271.355	247.815	-0.198	0.330
-270.340	-200.000	-0.041	0.245
-269.326	-200.000	-0.069	-0.504
-268.311	800.000	0.075	-0.209
-267.297	12.430	0.169	-0.129
-266.282	72.030	-0.532	-0.545
-265.267	58.071	0.154	0.149
-264.253	-137.913	0.224	-0.025
-263.238	800.000	-0.091	-0.248
-262.224	-82.043	-0.163	-0.052
-261.209	563.248	0.159	-0.379
-260.195	-200.000	0.009	0.083
-259.180	-135.291	0.120	0.014
-258.165	580.767	0.104	-0.250
-257.151	-139.207	0.277	0.029
-256.136	-95.966	0.158	0.042
-255.122	-187.155	0.101	0.001
-254.107	49.590	0.174	-0.161
-253.092	-137.128	0.161	-0.018
-252.078	76.007	-0.175	0.182
-251.063	-142.864	0.029	-0.003
-250.049	-44.485	0.163	-0.080
-249.034	-35.749	-0.290	-0.155
-248.019	-131.420	-0.253	-0.033
-247.005	-64.301	-0.134	0.054
-245.990	800.000	0.115	0.327
-244.976	-56.190	-0.210	0.092
-243.961	643.980	-0.123	0.310
-242.946	-38.429	0.015	0.008
-241.932	-84.370	0.170	0.053
-240.917	48.293	0.104	-0.096
-239.903	607.965	-0.046	0.114
-238.888	-200.000	0.021	0.257
-237.873	216.199	-0.068	-0.106
-236.859	39.249	-0.230	0.202
-235.844	260.547	-0.202	-0.345
-234.830	-69.943	-0.201	-0.076
-233.815	546.868	-0.059	0.140
-232.800	44.010	0.173	0.156
-231.786	-75.482	0.246	0.086
-230.771	-9.770	-0.183	-0.120
-229.757	-194.590	-0.322	-0.003
-228.742	-200.000	0.001	0.244
-227.727	-126.114	0.180	0.027
-226.713	-124.374	0.187	0.029
-225.698	122.545	0.257	-0.316
-224.684	-53.477	0.143	0.065
-223.669	14.071	0.217	0.166
-222.655	61.232	0.171	0.167
-221.640	-115.697	0.153	0.028
-220.625	-126.105	-0.256	0.038
-219.611	179.745	-0.093	-0.134
-218.596	123.521	0.170	-0.210
-217.582	-73.028	-0.138	0.050
-216.567	194.301	-0.153	-0.229
-215.552	293.233	0.073	-0.131
-214.538	800.000	0.089	-0.251
-213.523	192.479	0.039	-0.057
-212.509	-58.351	0.154	-0.066
-211.494	415.297	-0.078	0.162
-210.479	-200.000	-0.007	-0.141
-209.465	-17.851	0.357	-0.220
-208.450	-71.752	-0.354	0.130
-207.436	-200.000	0.012	0.074
-206.421	33.003	0.087	0.074
-205.406	-83.670	-0.529	0.166
-204.392	-200.000	0.133	0.001
-203.377	30.803	-0.083	-0.070
-202.363	2.530	-0.010	0.007
-201.348	-30.752	-0.278	-0.154
-200.333	-0.177	0.168	0.117
-199.319	-58.055	0.275	0.118
-198.304	398.788	0.145	0.299
-197.290	800.000	0.058	0.209
-196.275	70.901	-0.205	0.209
-195.260	-200.000	0.012	-0.193
-194.246	186.709	-0.069	0.102
-193.231	637.161	0.026	-0.064
-192.217	457.200	0.073	-0.159
-191.202	-75.010	-0.171	-0.060
-190.187	-200.000	-0.019	0.120
-189.173	-180.578	-0.155	0.003
-188.158	-35.681	-0.219	-0.117
-187.144	-74.002	-0.176	-0.063
-186.129	-200.000	0.054	-0.235
-185.114	-4.198	0.275	0.187
-184.100	27.839	0.074	0.061
-183.085	-200.000	-0.016	-0.135
-182.071	544.366	0.057	-0.133
-181.056	-45.982	0.047	-0.023
-180.042	19.913	0.221	-0.175
-179.027	-75.425	-0.080	0.028
-178.012	199.951	-0.096	0.145
-176.998	52.208	-0.263	-0.246
-175.983	800.000	0.005	0.018
-174.969	-151.052	-0.107	0.008
-173.954	320.817	0.090	0.168
-172.939	37.086	0.252	0.219
-171.925	-18.237	-0.410	0.252
-170.910	-200.000	0.027	0.237
-169.896	649.776	-0.024	0.060
-168.881	-200.000	-0.007	-0.045
-167.866	800.000	0.088	0.304
-166.852	200.963	-0.251	0.379
-165.837	-200.000	0.046	0.420
-164.823	-11.637	-0.052	0.033
-163.808	647.166	-0.047	-0.119
-162.793	-200.000	0.027	-0.167
-161.779	216.229	-0.124	-0.193
-160.764	-110.225	-0.098	0.020
-159.750	23.051	0.331	-0.267
-158.735	-78.973	0.287	0.096
-157.720	14.713	0.111	-0.085
-156.706	-72.235	-0.268	-0.097
-155.691	-79.844	0.237	-0.078
-154.677	67.708	0.183	0.183
-153.662	-171.299	0.046	0.002
-152.647	800.000	-0.043	0.176
-151.633	686.848	0.123	-0.316
-150.618	-135.110	0.209	0.025
-149.604	-56.135	-0.265	0.116
-148.589	-79.021	0.126	0.042
-147.574	16.942	0.106	-0.082
-146.560	29.624	-0.170	-0.142
-145.545	-41.492	-0.121	-0.061
-144.531	-20.823	-0.257	-0.154
-143.516	-200.000	-0.095	-0.506
-142.502	242.621	-0.162	0.266
-141.487	-200.000	-0.020	-0.283
-140.472	-133.887	-0.155	-0.019
-139.458	-61.625	-0.137	-0.056
-138.443	491.498	0.113	0.253
-137.429	102.807	0.133	0.153
-136.414	21.476	0.105	-0.083
-135.399	18.484	0.188	-0.147
-134.385	178.222	-0.156	0.224
-133.370	-60.938	-0.129	-0.053
-132.356	-40.102	-0.303	0.155
-131.341	203.549	0.077	-0.117
-130.326	270.480	-0.126	0.217
-129.312	-27.386	-0.310	0.177
-128.297	71.434	0.237	-0.241
-127.283	52.289	0.110	-0.103
-126.268	295.203	0.102	0.184
-125.253	642.123	0.041	-0.101
-124.239	65.856	-0.079	0.078
-123.224	-95.049	-0.234	0.062
-122.210	800.000	0.032	-0.117
-121.195	104.946	-0.280	-0.323
