DTS Sentinel unit serial number:	SN413079Multiplexer serial number:	ORYXHardware model number:	OX4-SRSoftware version number:	ORYX F/W v4.00 Oryx Data Collector v3.7.2.0data status	okinstallation	princeton_trtdifferential loss correction	single-endedforward channel	channel 1reverse channel	N/Adate	2019/09/16time	03:38:35forward acquisition time	60.00reverse acquisition time	0.00gamma	496.2192k internal	0.2331k external	0.2331temperature offset calibration	0.9984default loss term (dB/km)	0.3790temperature slope calibration	1.0000multiplexer offset coefficient	1.0000multiplexer slope coefficient	1.0000fibre end	0.00T internal ref (°C)	27.62T ext. ref 1 (°C)	10.60T ext. ref 2 (°C)	21.74length (m)	temperature (°C)	Stokes	anti-Stokes-747.200	177.802	0.171	-0.250
-746.185	-200.000	0.059	0.366
-745.171	800.000	0.044	-0.179
-744.156	-117.108	-0.116	-0.021
-743.142	-200.000	-0.044	0.452
-742.127	-12.848	-0.091	0.060
-741.112	-132.040	0.299	0.039
-740.098	44.513	0.063	-0.059
-739.083	-52.890	0.290	0.134
-738.069	-200.000	-0.025	0.134
-737.054	342.594	-0.022	0.043
-736.039	402.184	-0.093	-0.197
-735.025	-84.946	-0.041	0.013
-734.010	-90.145	-0.255	-0.075
-732.996	2.730	0.118	-0.086
-731.981	-161.384	-0.194	0.010
-730.966	176.294	0.112	-0.164
-729.952	-100.402	-0.205	-0.051
-728.937	-126.503	-0.192	0.029
-727.923	545.897	-0.086	-0.207
-726.908	-100.896	-0.091	0.023
-725.894	-200.000	0.001	-0.157
-724.879	800.000	-0.107	0.355
-723.864	-200.000	0.022	0.152
-722.850	-200.000	0.065	-0.452
-721.835	85.308	-0.332	-0.366
-720.821	453.142	-0.045	-0.100
-719.806	80.566	-0.263	-0.285
-718.791	-152.894	0.194	0.014
-717.777	-46.519	0.276	-0.136
-716.762	161.731	-0.109	-0.154
-715.748	19.095	-0.169	-0.136
-714.733	-200.000	0.011	-0.356
-713.718	-200.000	-0.018	0.184
-712.704	-133.704	0.213	0.027
-711.689	800.000	0.059	-0.218
-710.675	-157.971	-0.033	-0.002
-709.660	-168.190	-0.142	-0.006
-708.645	-25.138	0.190	0.113
-707.631	-97.412	0.216	0.056
-706.616	-113.046	-0.160	-0.032
-705.602	147.775	0.070	-0.095
-704.587	-77.779	0.212	0.073
-703.572	-200.000	0.005	-0.289
-702.558	-42.401	-0.077	-0.039
-701.543	316.638	0.036	-0.068
-700.529	-113.278	0.279	0.055
-699.514	-200.000	0.045	-0.224
-698.499	-200.000	-0.022	-0.223
-697.485	-200.000	0.025	-0.182
-696.470	800.000	0.114	-0.350
-695.456	-200.000	0.050	-0.347
-694.441	184.436	-0.182	-0.271
-693.426	-167.293	0.107	-0.004
-692.412	-66.367	0.384	-0.153
-691.397	-135.067	0.175	0.021
-690.383	159.571	-0.172	-0.240
-689.368	800.000	0.104	0.315
-688.354	457.412	-0.095	0.213
-687.339	0.676	0.106	-0.076
-686.324	800.000	0.106	-0.430
-685.310	-32.701	-0.217	-0.121
-684.295	800.000	-0.094	-0.267
-683.281	-18.637	-0.077	0.048
-682.266	-200.000	0.012	-0.185
-681.251	800.000	0.013	-0.056
-680.237	402.535	0.011	-0.024
-679.222	-200.000	-0.009	-0.281
-678.208	800.000	-0.029	-0.082
-677.193	27.836	-0.071	0.060
-676.178	-200.000	0.002	0.525
-675.164	-150.876	0.202	-0.015
-674.149	-200.000	0.034	-0.402
-673.135	711.642	0.079	0.211
-672.120	-162.757	-0.110	-0.005
-671.105	7.754	-0.171	0.128
-670.091	151.781	0.210	-0.288
-669.076	-200.000	-0.013	-0.098
-668.062	25.201	0.107	-0.089
-667.047	183.616	-0.328	-0.487
-666.032	-66.767	-0.244	0.097
-665.018	50.917	0.046	-0.044
-664.003	65.320	0.134	0.136
-662.989	195.576	0.149	-0.227
-661.974	61.894	0.023	-0.023
-660.959	-200.000	-0.022	0.117
-659.945	476.853	0.082	-0.185
-658.930	294.069	0.157	0.287
-657.916	800.000	-0.024	-0.069
-656.901	-70.601	-0.209	-0.079
-655.886	-136.426	-0.319	-0.037
-654.872	-25.948	0.238	0.140
-653.857	-200.000	0.083	-0.375
-652.843	-76.931	-0.084	-0.029
-651.828	-71.416	-0.252	0.095
-650.814	-200.000	-0.012	-0.131
-649.799	22.767	-0.079	0.065
-648.784	-200.000	-0.001	0.313
-647.770	-126.946	-0.449	0.066
-646.755	332.597	0.074	-0.143
-645.741	-200.000	-0.027	-0.183
-644.726	-53.663	0.410	0.188
-643.711	-96.137	0.180	-0.048
-642.697	-45.893	-0.127	0.063
-641.682	-128.962	0.348	0.049
-640.668	-9.086	-0.039	-0.026
-639.653	61.971	-0.304	0.304
-638.638	-33.892	-0.136	0.075
-637.624	98.157	-0.097	-0.112
-636.609	110.435	-0.134	-0.161
-635.595	20.337	0.351	-0.284
-634.580	800.000	0.132	0.409
-633.565	416.052	0.189	-0.403
-632.551	-142.715	-0.109	0.011
-631.536	-163.340	-0.198	0.009
-630.522	-200.000	-0.071	0.325
-629.507	800.000	0.029	-0.083
-628.492	-200.000	-0.033	0.223
-627.478	800.000	-0.089	0.255
-626.463	-93.876	-0.123	0.034
-625.449	138.701	-0.131	-0.172
-624.434	-138.572	0.011	0.001
-623.419	-39.713	0.107	-0.056
-622.405	-108.838	0.033	0.007
-621.390	320.207	0.162	-0.309
-620.376	43.609	-0.233	-0.213
-619.361	800.000	-0.037	-0.118
-618.346	-46.099	-0.148	-0.073
-617.332	78.004	-0.065	-0.069
-616.317	-104.426	0.069	0.016
-615.303	-200.000	-0.039	-0.202
-614.288	136.090	-0.054	-0.071
-613.273	800.000	0.076	-0.212
-612.259	-46.282	0.152	0.075
-611.244	3.763	0.088	-0.064
-610.230	-57.645	-0.181	-0.079
-609.215	428.323	0.079	0.170
-608.201	54.780	-0.203	-0.196
-607.186	800.000	0.106	0.308
-606.171	48.658	-0.176	0.165
-605.157	-150.005	0.050	-0.004
-604.142	-187.224	0.318	-0.004
-603.128	2.062	0.246	0.178
-602.113	162.127	0.205	0.287
-601.098	7.282	0.047	0.035
-600.084	-59.713	-0.320	0.137
-599.069	-80.298	-0.295	0.099
-598.055	-14.332	-0.311	-0.201
-597.040	-200.000	-0.023	0.148
-596.025	39.544	0.161	0.144
-595.011	-96.836	-0.087	0.023
-593.996	-122.758	-0.231	-0.037
-592.982	736.249	-0.094	0.253
-591.967	-200.000	-0.014	0.096
-590.952	642.202	-0.073	-0.187
-589.938	800.000	-0.073	-0.254
-588.923	373.796	-0.121	-0.247
-587.909	30.565	-0.228	0.195
-586.894	278.539	0.174	0.310
-585.879	59.380	0.118	0.117
-584.865	-152.959	0.188	-0.013
-583.850	-62.230	-0.340	-0.142
-582.836	11.904	-0.022	0.017
-581.821	163.990	-0.260	-0.367
-580.806	507.386	-0.108	-0.252
-579.792	33.349	0.087	0.076
-578.777	-22.961	0.197	0.119
-577.763	13.593	-0.156	0.121
-576.748	-87.308	0.171	0.052
-575.733	-123.938	-0.396	-0.062
-574.719	800.000	-0.086	0.341
-573.704	99.276	-0.144	0.167
-572.690	198.339	0.097	0.149
-571.675	5.750	-0.229	-0.169
-570.661	800.000	0.060	0.240
-569.646	440.076	0.132	0.289
-568.631	800.000	-0.067	-0.217
-567.617	-200.000	0.069	-0.371
-566.602	-187.988	-0.234	-0.003
-565.588	49.767	-0.355	0.334
-564.573	-200.000	0.043	0.419
-563.558	-70.009	-0.338	-0.129
-562.544	-200.000	-0.002	-0.046
-561.529	800.000	-0.038	-0.130
-560.515	800.000	0.076	-0.325
-559.500	99.021	-0.073	0.085
-558.485	-200.000	-0.029	-0.287
-557.471	187.007	-0.147	-0.219
-556.456	37.738	0.221	0.196
-555.442	83.340	0.120	0.131
-554.427	1.253	-0.109	0.078
-553.412	22.766	0.376	0.307
-552.398	-200.000	-0.047	0.281
-551.383	800.000	0.027	-0.086
-550.369	-200.000	0.000	0.040
-549.354	50.954	0.087	-0.082
-548.339	474.019	-0.126	-0.284
-547.325	139.199	-0.140	-0.184
-546.310	-145.761	0.266	0.024
-545.296	-78.123	0.155	0.053
-544.281	112.666	0.252	0.304
-543.266	363.089	0.061	-0.122
-542.252	-200.000	-0.031	0.182
-541.237	436.460	0.044	0.095
-540.223	-16.655	0.193	-0.122
-539.208	47.293	-0.041	-0.038
-538.193	109.554	0.070	0.084
-537.179	-200.000	-0.004	0.328
-536.164	123.137	-0.157	-0.197
-535.150	-200.000	0.030	-0.140
-534.135	292.674	0.063	0.115
-533.121	-200.000	-0.027	-0.230
-532.106	-200.000	0.025	-0.186
-531.091	12.463	0.273	-0.210
-530.077	39.602	-0.039	-0.034
-529.062	-82.423	0.038	-0.012
-528.048	445.811	-0.014	0.031
-527.033	99.958	0.238	0.275
-526.018	-151.398	0.463	-0.034
-525.004	537.242	-0.102	-0.242
-523.989	800.000	0.074	-0.312
-522.975	296.959	-0.234	-0.428
-521.960	-128.249	-0.465	0.066
-520.945	-10.552	-0.056	-0.037
-519.931	-133.064	0.302	-0.038
-518.916	-61.133	0.171	0.072
-517.902	800.000	-0.114	-0.376
-516.887	-61.449	-0.223	-0.094
-515.872	800.000	-0.076	0.290
-514.858	-98.038	0.321	-0.083
-513.843	-200.000	-0.014	-0.195
-512.829	-94.231	-0.287	-0.078
-511.814	186.798	0.065	-0.097
-510.799	-10.547	-0.235	0.155
-509.785	50.853	0.190	0.179
-508.770	-200.000	0.067	-0.488
-507.756	-49.782	-0.187	-0.089
-506.741	800.000	-0.039	-0.158
-505.726	800.000	0.018	-0.070
-504.712	95.334	0.219	0.249
-503.697	800.000	0.079	-0.240
-502.683	800.000	-0.095	0.344
-501.668	800.000	0.018	0.064
-500.653	56.043	0.117	0.113
-499.639	-200.000	-0.051	0.345
-498.624	-103.548	0.179	0.042
-497.610	-60.995	-0.292	0.123
-496.595	-137.300	-0.141	0.016
-495.581	800.000	0.073	-0.224
-494.566	-200.000	-0.062	-0.289
-493.551	-200.000	-0.043	-0.202
-492.537	683.647	0.155	0.402
-491.522	39.582	-0.141	0.126
-490.508	37.840	-0.165	-0.146
-489.493	-41.635	-0.153	0.079
-488.478	-85.705	0.138	-0.043
-487.464	-98.794	0.590	0.149
-486.449	121.107	-0.062	-0.076
-485.435	1.353	0.046	0.033
-484.420	-180.668	-0.110	-0.002
-483.405	-70.721	-0.604	-0.227
-482.391	-200.000	0.012	-0.173
-481.376	-173.327	-0.312	0.009
-480.362	111.426	0.258	-0.309
-479.347	35.397	-0.085	0.074
-478.332	433.362	-0.028	-0.061
-477.318	-200.000	0.017	0.177
-476.303	-45.539	-0.109	0.054
-475.289	42.132	0.245	0.221
-474.274	-4.306	0.309	0.213
-473.259	62.808	0.239	-0.239
-472.245	102.057	0.195	-0.227
-471.230	-80.937	-0.328	0.108
-470.216	97.626	0.187	0.214
-469.201	-200.000	0.030	0.143
-468.186	445.389	-0.277	0.606
-467.172	-200.000	0.035	-0.178
-466.157	-127.698	-0.147	0.021
-465.143	-200.000	0.006	-0.469
-464.128	-200.000	0.031	-0.245
-463.113	333.387	-0.171	-0.330
-462.099	-135.820	0.186	-0.022
-461.084	-142.152	0.145	-0.014
-460.070	235.390	-0.047	-0.077
-459.055	-200.000	0.050	0.475
-458.040	-26.210	-0.366	0.214
-457.026	-98.409	0.379	0.096
-456.011	12.107	-0.295	-0.226
-454.997	-200.000	0.020	-0.192
-453.982	313.696	-0.033	0.062
-452.968	-65.301	-0.120	0.048
-451.953	35.419	-0.172	0.150
-450.938	-47.669	-0.212	0.102
-449.924	268.028	0.223	-0.389
-448.909	-200.000	0.054	0.417
-447.895	34.465	0.048	-0.041
-446.880	399.019	-0.059	-0.123
-445.865	401.518	-0.170	0.354
-444.851	57.859	-0.134	0.130
-443.836	2.088	0.193	-0.139
-442.822	-125.609	0.493	-0.074
-441.807	598.840	-0.013	-0.032
-440.792	-200.000	-0.002	0.088
-439.778	146.533	-0.196	0.262
-438.763	-140.096	-0.147	-0.015
-437.749	-65.304	-0.513	0.205
-436.734	292.151	-0.137	-0.248
-435.719	-200.000	0.010	-0.062
-434.705	-200.000	0.017	0.085
-433.690	-84.406	0.330	0.104
-432.676	-200.000	-0.097	-0.504
-431.661	187.769	-0.151	-0.224
-430.646	-200.000	0.005	-0.098
-429.632	800.000	0.022	0.068
-428.617	-133.523	0.146	0.018
-427.603	314.051	0.124	-0.232
-426.588	-14.024	-0.185	-0.119
-425.573	-93.750	0.233	0.064
-424.559	-200.000	-0.013	0.240
-423.544	371.552	0.062	0.125
-422.530	800.000	-0.025	-0.096
-421.515	-62.683	-0.307	0.126
-420.500	800.000	-0.051	0.184
-419.486	-0.126	0.208	-0.147
-418.471	111.724	-0.063	0.075
-417.457	-200.000	0.028	-0.338
-416.442	-56.417	0.115	0.051
-415.428	-15.632	-0.568	-0.360
-414.413	-114.249	0.314	-0.060
-413.398	-137.558	0.227	-0.025
-412.384	-52.408	-0.284	-0.131
-411.369	-119.987	0.345	-0.059
-410.355	800.000	0.052	0.221
-409.340	280.055	0.161	-0.285
-408.325	164.866	0.154	-0.216
-407.311	-200.000	-0.022	-0.258
-406.296	-200.000	-0.044	0.374
-405.282	-93.523	0.177	-0.049
-404.267	329.207	0.085	0.163
-403.252	800.000	-0.058	-0.202
-402.238	-88.325	-0.149	0.044
-401.223	-121.377	-0.198	-0.033
-400.209	-89.600	-0.112	-0.033
-399.194	800.000	0.133	0.369
-398.179	483.365	0.130	0.294
-397.165	155.712	-0.133	-0.183
-396.150	317.958	0.073	0.136
-395.136	191.368	0.162	0.242
-394.121	-42.253	-0.080	0.041
-393.106	10.761	-0.204	0.155
-392.092	800.000	0.057	0.204
-391.077	173.704	0.119	0.170
-390.063	-55.916	-0.286	-0.127
-389.048	800.000	-0.026	0.082
-388.033	-85.490	-0.252	0.078
-387.019	507.687	-0.106	0.243
-386.004	-75.283	0.286	-0.101
-384.990	25.896	-0.198	0.164
-383.975	-148.319	-0.461	-0.038
-382.960	-113.326	0.423	0.083
-381.946	-200.000	-0.036	-0.239
-380.931	284.455	-0.164	-0.293
-379.917	428.063	-0.027	0.057
-378.902	758.253	-0.050	-0.134
-377.888	-178.960	0.294	-0.007
-376.873	-60.929	0.159	0.067
-375.858	105.912	0.110	0.130
-374.844	800.000	-0.012	0.040
-373.829	-118.241	0.161	-0.028
-372.815	213.745	0.151	0.237
-371.800	-200.000	0.071	0.320
-370.785	-83.781	0.174	0.055
-369.771	-29.773	0.184	0.104
-368.756	-58.672	-0.315	-0.136
-367.742	-200.000	0.013	0.308
-366.727	-200.000	-0.030	0.269
-365.712	-65.321	0.335	0.134
-364.698	7.303	0.086	0.063
-363.683	800.000	0.122	-0.460
-362.669	-200.000	-0.016	-0.156
-361.654	191.399	0.133	0.199
-360.639	-101.447	0.247	0.060
-359.625	-147.647	0.160	0.013
-358.610	-65.751	-0.123	-0.049
-357.596	-173.997	-0.177	0.005
-356.581	-40.543	-0.316	-0.163
-355.566	291.030	-0.074	-0.134
-354.552	477.971	0.083	-0.185
-353.537	-176.383	-0.114	0.003
-352.523	800.000	-0.059	0.235
-351.508	7.685	-0.211	-0.156
-350.493	-200.000	-0.001	-0.187
-349.479	800.000	0.165	-0.461
-348.464	2.591	-0.128	0.092
-347.450	37.475	-0.025	-0.022
-346.435	-102.284	0.141	-0.033
-345.420	232.666	0.123	-0.201
-344.406	27.235	-0.275	0.229
-343.391	-107.587	0.264	0.057
-342.377	-69.840	-0.364	0.137
-341.362	10.721	-0.171	0.130
-340.348	250.712	0.256	-0.431
-339.333	126.714	-0.164	0.206
-338.318	152.906	0.043	0.058
-337.304	-200.000	-0.016	0.141
-336.289	61.447	-0.097	0.095
-335.275	52.874	-0.236	0.224
-334.260	-66.928	-0.356	0.139
-333.245	21.680	-0.235	0.190
-332.231	121.415	0.162	0.199
-331.216	253.041	0.058	-0.097
-330.202	-200.000	-0.022	0.127
-329.187	-61.374	0.089	-0.037
-328.172	-176.279	-0.143	0.004
-327.158	140.858	-0.143	-0.187
-326.143	28.148	0.103	-0.086
-325.129	192.335	-0.187	-0.280
-324.114	-200.000	0.030	-0.222
-323.099	410.907	0.181	0.380
-322.085	39.886	0.129	0.115
-321.070	35.575	-0.164	0.142
-320.056	-79.732	-0.389	0.130
-319.041	25.045	-0.068	-0.056
-318.026	254.855	0.035	0.059
-317.012	800.000	-0.113	0.381
-315.997	218.343	0.269	-0.425
-314.983	-70.742	-0.220	-0.082
-313.968	-128.567	0.535	-0.075
-312.953	50.744	-0.159	-0.149
-311.939	22.410	0.247	0.200
-310.924	-200.000	-0.040	0.326
-309.910	196.523	-0.160	0.241
-308.895	-200.000	-0.015	0.067
-307.880	800.000	0.026	0.089
-306.866	364.934	-0.127	-0.252
-305.851	800.000	0.140	0.427
-304.837	-200.000	0.010	-0.142
-303.822	82.115	-0.210	0.225
-302.807	129.475	-0.097	-0.123
-301.793	-30.323	-0.156	-0.088
-300.778	70.805	0.141	-0.145
-299.764	107.403	-0.223	-0.263
-298.749	42.955	0.188	-0.169
-297.735	254.615	0.069	0.116
-296.720	-72.454	0.156	-0.057
-295.705	66.976	0.310	0.312
-294.691	-52.658	-0.256	0.117
-293.676	800.000	-0.123	0.372
-292.662	-200.000	-0.006	-0.194
-291.647	417.960	0.111	-0.234
-290.632	20.529	0.176	-0.141
-289.618	391.747	-0.124	-0.254
-288.603	-104.920	0.309	-0.070
-287.589	-34.228	-0.127	0.069
-286.574	-42.320	-0.142	-0.072
-285.559	264.621	-0.235	-0.405
-284.545	-62.331	0.262	-0.108
-283.530	17.732	0.133	0.105
-282.516	-72.168	-0.281	-0.103
-281.501	-200.000	0.005	-0.060
-280.486	0.281	0.293	-0.207
-279.472	-200.000	-0.013	0.203
-278.457	-200.000	0.026	-0.142
-277.443	-42.476	0.182	0.092
-276.428	-51.626	-0.186	-0.086
-275.413	-65.694	0.299	0.118
-274.399	-155.400	0.133	-0.009
-273.384	12.121	-0.200	0.152
-272.370	-200.000	-0.055	0.335
-271.355	359.305	-0.123	0.243
-270.340	57.290	0.221	-0.213
-269.326	-6.844	0.157	-0.105
-268.311	28.838	-0.222	-0.186
-267.297	-72.856	0.183	0.067
-266.282	-6.359	-0.123	0.083
-265.267	-16.983	0.108	0.067
-264.253	-116.436	-0.178	-0.032
-263.238	-200.000	0.054	0.273
-262.224	800.000	-0.103	0.312
-261.209	33.632	0.043	-0.037
-260.195	800.000	-0.040	-0.119
-259.180	-5.985	0.243	-0.164
-258.165	325.861	-0.140	-0.265
-257.151	-15.918	0.219	-0.138
-256.136	800.000	0.141	0.490
-255.122	-135.126	0.327	0.039
-254.107	121.167	-0.080	0.099
-253.092	-74.329	0.309	0.110
-252.078	467.257	0.048	-0.107
-251.063	-67.318	0.118	-0.046
-250.049	-200.000	0.085	0.479
-249.034	58.875	0.147	-0.142
-248.019	-200.000	0.009	0.103
-247.005	211.171	0.074	-0.115
-245.990	341.293	-0.101	0.195
-244.976	-16.627	0.240	-0.150
-243.961	6.176	0.247	-0.181
-242.946	5.803	0.269	-0.196
-241.932	-200.000	0.031	0.359
-240.917	-73.390	-0.183	-0.066
-239.903	-10.776	0.103	0.067
-238.888	-145.519	0.103	-0.009
-237.873	800.000	-0.074	0.281
-236.859	111.461	0.041	0.049
-235.844	-200.000	0.028	-0.128
-234.830	800.000	-0.058	-0.240
-233.815	-200.000	-0.033	0.238
-232.800	-62.156	0.105	0.043
-231.786	-44.821	-0.167	0.082
-230.771	4.302	-0.256	-0.185
-229.757	-73.493	-0.164	-0.059
-228.742	-52.935	0.302	-0.137
-227.727	112.494	-0.102	-0.122
-226.713	800.000	-0.046	-0.131
-225.698	-200.000	-0.012	-0.150
-224.684	630.346	-0.096	0.240
-223.669	-58.292	-0.310	0.133
-222.655	41.912	0.069	-0.062
-221.640	800.000	-0.075	0.278
-220.625	-19.213	-0.231	-0.142
-219.611	110.639	-0.015	-0.018
-218.596	-200.000	0.052	0.555
-217.582	73.112	-0.102	0.105
-216.567	800.000	0.103	-0.313
-215.552	800.000	0.076	-0.288
-214.538	74.700	0.097	0.101
-213.523	-33.539	0.068	0.037
-212.509	-80.865	0.251	0.082
-211.494	85.928	0.042	-0.046
-210.479	-17.331	-0.410	-0.254
-209.465	155.282	-0.215	-0.292
-208.450	46.350	0.042	0.039
-207.436	-200.000	-0.028	-0.180
-206.421	-89.994	0.157	-0.045
-205.406	-87.653	0.101	-0.030
-204.392	-138.424	-0.343	0.037
-203.377	32.270	0.067	-0.057
-202.363	-92.304	0.116	-0.032
-201.348	-110.165	-0.127	0.026
-200.333	103.005	0.219	0.253
-199.319	-182.532	0.150	-0.003
-198.304	52.309	-0.181	-0.170
-197.290	21.156	0.244	0.195
-196.275	13.678	0.326	-0.249
-195.260	151.709	0.063	0.085
-194.246	-125.270	0.353	-0.053
-193.231	800.000	0.143	-0.402
-192.217	800.000	0.015	-0.052
-191.202	-57.346	-0.094	-0.041
-190.187	800.000	0.024	0.069
-189.173	-38.991	-0.057	-0.029
-188.158	-200.000	0.004	-0.096
-187.144	632.287	-0.049	0.122
-186.129	-200.000	-0.027	0.223
-185.114	-35.056	0.141	0.076
-184.100	710.591	0.056	-0.146
-183.085	518.023	-0.114	-0.263
-182.071	25.240	-0.104	-0.085
-181.056	-77.243	-0.008	0.003
-180.042	51.896	0.041	-0.038
-179.027	-74.268	0.036	-0.013
-178.012	-124.107	0.165	0.026
-176.998	350.302	-0.081	0.158
-175.983	800.000	-0.111	-0.343
-174.969	-71.170	-0.144	-0.053
-173.954	260.254	0.168	0.286
-172.939	207.548	0.135	-0.207
-171.925	-200.000	-0.011	0.157
-170.910	-108.664	-0.168	0.035
-169.896	8.625	-0.097	-0.072
-168.881	800.000	-0.106	0.358
-167.866	594.137	0.074	-0.180
-166.852	-105.764	-0.085	0.019
-165.837	3.375	-0.046	-0.033
-164.823	66.180	0.264	-0.263
-163.808	-68.901	-0.299	0.113
-162.793	470.860	-0.195	0.432
-161.779	264.862	0.227	0.389
-160.764	-24.236	-0.197	-0.116
-159.750	-200.000	0.013	-0.360
-158.735	-4.039	0.141	-0.096
-157.720	-56.310	0.260	-0.114
-156.706	195.357	0.165	-0.247
-155.691	-200.000	-0.030	-0.226
-154.677	-81.190	0.367	-0.119
-153.662	38.620	-0.182	-0.160
-152.647	308.181	0.189	-0.346
-151.633	191.294	-0.136	0.202
-150.618	340.752	-0.172	-0.331
-149.604	146.245	0.211	0.278
-148.589	-200.000	-0.018	0.213
-147.574	-88.763	-0.301	0.088
-146.560	-25.682	-0.186	0.108
-145.545	-182.702	-0.334	-0.006
-144.531	-148.682	-0.171	-0.014
-143.516	-200.000	-0.029	-0.409
-142.502	50.693	0.132	0.123
-141.487	800.000	0.079	0.229
-140.472	788.166	-0.103	-0.277
-139.458	14.281	0.069	0.053
-138.443	-155.303	-0.296	-0.019
-137.429	800.000	-0.096	-0.287
-136.414	104.149	0.108	-0.124
-135.399	515.141	-0.065	-0.149
-134.385	346.368	-0.039	0.075
-133.370	-65.615	0.296	0.117
-132.356	277.875	-0.186	-0.325
-131.341	548.722	0.038	-0.089
-130.326	-200.000	0.013	-0.179
-129.312	138.838	0.195	-0.252
-128.297	-200.000	0.071	-0.446
-127.283	317.112	-0.063	-0.118
-126.268	180.522	0.160	0.231
-125.253	-200.000	0.072	0.436
-124.239	-134.619	-0.209	-0.025
-123.224	752.789	0.036	0.095
-122.210	-200.000	0.085	0.529
-121.195	-23.312	0.006	0.004
