DTS Sentinel unit serial number:	SN413079Multiplexer serial number:	ORYXHardware model number:	OX4-SRSoftware version number:	ORYX F/W v4.00 Oryx Data Collector v3.7.2.0data status	okinstallation	princeton_trtdifferential loss correction	single-endedforward channel	channel 1reverse channel	N/Adate	2019/09/18time	15:22:35forward acquisition time	60.00reverse acquisition time	0.00gamma	496.2192k internal	0.2300k external	0.2300temperature offset calibration	0.9993default loss term (dB/km)	0.3790temperature slope calibration	1.0000multiplexer offset coefficient	1.0000multiplexer slope coefficient	1.0000fibre end	0.00T internal ref (°C)	35.83T ext. ref 1 (°C)	0.76T ext. ref 2 (°C)	33.85length (m)	temperature (°C)	Stokes	anti-Stokes-747.200	-200.000	0.044	-0.203
-746.185	-49.264	-0.286	0.139
-745.171	-159.433	0.103	0.006
-744.156	-68.277	0.098	0.039
-743.142	280.647	0.040	-0.073
-742.127	85.985	0.241	-0.271
-741.112	181.941	0.057	0.086
-740.098	800.000	0.028	0.114
-739.083	-27.568	-0.205	0.122
-738.069	-52.836	-0.296	0.139
-737.054	-200.000	0.062	-0.279
-736.039	-127.731	-0.255	-0.038
-735.025	-60.210	-0.173	0.075
-734.010	-171.712	-0.234	-0.008
-732.996	48.989	-0.229	0.219
-731.981	-200.000	-0.032	0.158
-730.966	-200.000	0.020	-0.245
-729.952	-61.384	-0.060	-0.026
-728.937	-55.313	-0.133	-0.061
-727.923	60.554	-0.052	-0.052
-726.908	800.000	-0.039	0.152
-725.894	722.933	-0.082	0.222
-724.879	-44.073	-0.123	0.063
-723.864	-26.887	-0.115	-0.068
-722.850	-200.000	-0.025	-0.224
-721.835	-133.742	-0.253	-0.032
-720.821	-35.001	-0.279	0.155
-719.806	23.374	0.464	-0.389
-718.791	-200.000	-0.005	-0.152
-717.777	-41.060	-0.281	-0.148
-716.762	-7.688	-0.226	-0.156
-715.748	114.632	0.225	-0.279
-714.733	212.673	0.177	-0.284
-713.718	-200.000	0.023	-0.339
-712.704	-15.473	0.109	-0.071
-711.689	-150.121	0.223	-0.018
-710.675	800.000	-0.023	0.103
-709.660	-200.000	0.036	0.239
-708.645	206.089	-0.220	0.348
-707.631	58.218	0.201	-0.200
-706.616	-143.291	-0.084	-0.008
-705.602	666.919	-0.116	-0.305
-704.587	-200.000	-0.017	0.274
-703.572	800.000	-0.015	-0.046
-702.558	-19.229	-0.148	0.094
-701.543	-200.000	-0.030	0.198
-700.529	-200.000	0.059	0.393
-699.514	-34.593	-0.372	-0.207
-698.499	64.189	-0.034	-0.035
-697.485	-200.000	-0.073	-0.441
-696.470	-5.331	-0.415	0.290
-695.456	-40.525	0.234	-0.124
-694.441	191.049	-0.094	-0.144
-693.426	-130.227	-0.215	0.030
-692.412	21.626	0.044	0.036
-691.397	-108.831	0.178	0.039
-690.383	-82.688	-0.376	-0.124
-689.368	325.362	0.049	-0.096
-688.354	-59.178	0.101	-0.044
-687.339	244.287	0.124	0.212
-686.324	-118.456	-0.102	-0.018
-685.310	-200.000	-0.010	-0.325
-684.295	203.413	-0.058	0.092
-683.281	389.972	0.048	-0.101
-682.266	-52.476	0.272	0.128
-681.251	800.000	0.089	0.266
-680.237	18.103	-0.024	0.020
-679.222	-24.253	0.521	0.316
-678.208	-87.888	-0.294	0.090
-677.193	15.475	-0.063	-0.050
-676.178	8.095	-0.396	-0.302
-675.164	-168.313	-0.159	-0.006
-674.149	181.116	0.153	0.229
-673.135	129.739	0.051	-0.066
-672.120	44.949	-0.049	0.046
-671.105	-65.129	-0.188	-0.077
-670.091	-143.534	-0.114	-0.011
-669.076	263.712	-0.114	-0.202
-668.062	-200.000	-0.011	0.084
-667.047	-28.271	-0.073	-0.043
-666.032	-200.000	0.075	0.402
-665.018	-200.000	0.013	-0.089
-664.003	474.895	0.155	-0.356
-662.989	-60.124	-0.331	0.143
-661.974	-35.216	0.255	-0.141
-660.959	94.180	0.147	0.170
-659.945	-200.000	-0.069	-0.376
-658.930	-200.000	-0.004	-0.073
-657.916	-6.728	0.073	-0.050
-656.901	-62.819	0.352	-0.148
-655.886	-23.077	-0.230	-0.141
-654.872	-47.407	-0.085	0.042
-653.857	-166.834	0.310	-0.013
-652.843	141.892	0.073	-0.098
-651.828	-36.902	-0.388	0.212
-650.814	-59.960	-0.055	-0.024
-649.799	339.930	0.034	-0.068
-648.784	-48.369	-0.226	-0.111
-647.770	-127.749	0.160	0.024
-646.755	84.923	-0.135	0.151
-645.741	-136.952	0.305	-0.036
-644.726	-109.029	-0.272	0.059
-643.711	12.753	-0.063	0.050
-642.697	-71.366	-0.082	-0.031
-641.682	-200.000	0.026	-0.371
-640.668	-66.112	-0.141	0.057
-639.653	235.252	0.090	-0.150
-638.638	800.000	-0.101	-0.337
-637.624	39.616	0.252	0.229
-636.609	586.657	0.216	0.539
-635.595	-90.700	-0.276	-0.081
-634.580	-100.857	-0.282	-0.070
-633.565	-149.683	0.022	0.002
-632.551	-67.713	0.180	0.071
-631.536	-86.343	-0.214	-0.067
-630.522	157.480	0.087	-0.123
-629.507	-200.000	0.004	0.072
-628.492	-70.198	0.095	0.037
-627.478	-48.575	-0.154	0.075
-626.463	249.881	0.129	-0.223
-625.449	-84.411	0.336	0.108
-624.434	-50.932	0.228	0.109
-623.419	800.000	-0.049	-0.173
-622.405	800.000	0.079	-0.279
-621.390	-28.530	-0.304	-0.178
-620.376	586.568	-0.053	-0.133
-619.361	654.767	0.023	-0.061
-618.346	-46.911	0.177	-0.088
-617.332	375.059	0.109	-0.224
-616.317	800.000	0.044	-0.179
-615.303	657.656	0.123	0.321
-614.288	189.044	0.053	0.081
-613.273	-114.080	-0.504	-0.099
-612.259	65.060	-0.080	0.082
-611.244	-59.831	0.078	-0.034
-610.230	-83.915	-0.040	0.013
-609.215	-200.000	-0.039	-0.433
-608.201	94.376	-0.234	-0.270
-607.186	-35.770	0.209	-0.115
-606.171	-200.000	-0.031	0.238
-605.157	-200.000	-0.005	-0.269
-604.142	800.000	0.044	-0.143
-603.128	-90.405	-0.382	-0.112
-602.113	377.494	0.039	-0.081
-601.098	-200.000	0.023	-0.134
-600.084	400.084	0.097	0.206
-599.069	-42.963	0.205	-0.106
-598.055	588.912	-0.067	-0.169
-597.040	64.192	-0.099	-0.101
-596.025	-200.000	0.020	-0.134
-595.011	-8.216	0.266	0.182
-593.996	800.000	0.089	-0.357
-592.982	-57.936	0.110	0.049
-591.967	172.293	-0.152	-0.222
-590.952	-200.000	0.007	0.094
-589.938	-64.360	0.138	-0.057
-588.923	-31.675	0.082	-0.047
-587.909	-76.580	-0.102	-0.036
-586.894	47.566	-0.250	0.236
-585.879	-200.000	0.061	-0.293
-584.865	-122.716	0.043	0.007
-583.850	800.000	0.103	0.446
-582.836	-44.604	0.098	-0.050
-581.821	369.756	-0.105	0.215
-580.806	720.790	0.026	-0.069
-579.792	-200.000	0.079	0.362
-578.777	-81.140	-0.195	-0.065
-577.763	-200.000	0.044	0.278
-576.748	-200.000	0.032	-0.154
-575.733	475.594	-0.132	0.301
-574.719	-132.182	0.121	-0.016
-573.704	7.711	-0.201	0.153
-572.690	-200.000	0.006	-0.220
-571.675	-10.723	0.211	-0.141
-570.661	-117.648	0.227	0.041
-569.646	36.477	0.059	-0.053
-568.631	-200.000	-0.051	-0.331
-567.617	80.912	-0.113	0.123
-566.602	-27.497	0.028	0.017
-565.588	-62.467	0.197	0.083
-564.573	243.798	0.179	-0.304
-563.558	-200.000	-0.052	0.245
-562.544	-131.226	-0.277	0.037
-561.529	475.668	0.233	0.532
-560.515	-157.940	0.195	-0.012
-559.500	-131.057	-0.239	0.032
-558.485	-54.329	0.116	-0.053
-557.471	-38.057	-0.508	0.273
-556.456	-41.843	-0.089	-0.046
-555.442	73.380	0.057	0.060
-554.427	59.519	-0.328	-0.328
-553.412	-5.798	0.211	-0.146
-552.398	13.737	0.087	-0.068
-551.383	-75.675	-0.143	0.052
-550.369	240.778	0.098	-0.165
-549.354	56.624	0.191	-0.188
-548.339	-151.570	-0.082	-0.006
-547.325	800.000	0.087	-0.267
-546.310	-6.447	0.189	-0.130
-545.296	544.169	0.050	-0.120
-544.281	-200.000	-0.056	-0.395
-543.266	-141.086	0.158	0.016
-542.252	-180.743	-0.319	-0.007
-541.237	-37.987	0.251	-0.135
-540.223	800.000	0.042	-0.124
-539.208	-139.077	-0.354	0.039
-538.193	187.940	0.076	0.114
-537.179	524.318	0.120	0.286
-536.164	-39.911	-0.095	-0.050
-535.150	-99.767	-0.219	0.055
-534.135	-45.490	0.154	-0.077
-533.121	174.264	-0.160	-0.234
-532.106	92.907	-0.116	-0.133
-531.091	360.471	-0.152	-0.308
-530.077	-39.984	0.125	-0.066
-529.062	16.850	-0.063	-0.050
-528.048	-33.752	-0.121	-0.068
-527.033	800.000	-0.121	0.392
-526.018	26.468	-0.116	-0.098
-525.004	264.372	0.096	-0.169
-523.989	274.809	0.060	0.107
-522.975	-200.000	-0.060	0.458
-521.960	-32.675	-0.290	-0.163
-520.945	-66.825	0.092	0.037
-519.931	8.925	0.104	0.079
-518.916	158.612	-0.112	-0.158
-517.902	-200.000	-0.014	-0.135
-516.887	-14.031	0.060	-0.039
-515.872	-19.821	-0.165	-0.103
-514.858	-200.000	0.014	-0.140
-513.843	629.643	0.062	0.158
-512.829	-115.372	0.430	-0.082
-511.814	-54.940	-0.138	0.063
-510.799	800.000	0.048	-0.171
-509.785	-59.498	-0.335	0.145
-508.770	800.000	0.091	-0.274
-507.756	-200.000	0.007	0.173
-506.741	-102.078	-0.197	-0.048
-505.726	368.932	-0.102	0.208
-504.712	129.768	0.051	0.065
-503.697	501.666	0.131	0.306
-502.683	778.447	-0.016	-0.045
-501.668	123.340	-0.308	0.390
-500.653	-33.278	-0.157	-0.088
-499.639	-139.832	-0.333	-0.036
-498.624	-200.000	0.022	0.128
-497.610	-101.256	0.331	0.082
-496.595	800.000	0.054	-0.219
-495.581	149.251	0.167	-0.229
-494.566	-177.709	-0.079	-0.002
-493.551	129.435	-0.230	-0.296
-492.537	-140.608	-0.155	0.016
-491.522	-33.279	0.267	-0.149
-490.508	316.424	0.201	0.383
-489.493	-97.692	-0.496	0.130
-488.478	178.621	-0.202	0.297
-487.464	-162.212	-0.369	0.019
-486.449	-96.711	-0.179	0.048
-485.435	-44.449	-0.036	0.018
-484.420	-142.476	0.568	-0.056
-483.405	-19.699	-0.049	0.030
-482.391	-28.687	0.320	0.186
-481.376	-200.000	-0.038	0.167
-480.362	-64.844	-0.188	-0.077
-479.347	-70.914	-0.116	-0.044
-478.332	524.996	-0.093	-0.222
-477.318	41.789	0.040	-0.037
-476.303	-6.337	-0.145	0.100
-475.289	-63.834	-0.222	0.092
-474.274	-97.418	0.137	-0.036
-473.259	-200.000	0.026	-0.543
-472.245	-200.000	-0.016	-0.144
-471.230	133.769	-0.074	-0.096
-470.216	800.000	0.054	0.211
-469.201	18.687	0.209	0.169
-468.186	-200.000	0.026	0.169
-467.172	-22.088	0.088	0.054
-466.157	-125.370	0.395	0.061
-465.143	-116.375	-0.059	-0.011
-464.128	-134.151	0.202	0.025
-463.113	531.776	-0.084	-0.200
-462.099	22.922	-0.303	-0.250
-461.084	-82.080	-0.046	0.015
-460.070	104.230	-0.169	0.201
-459.055	-92.169	0.078	0.022
-458.040	-200.000	-0.023	0.272
-457.026	800.000	0.024	-0.087
-456.011	63.514	-0.165	-0.167
-454.997	-64.731	-0.217	0.089
-453.982	-164.783	0.200	0.009
-452.968	460.856	-0.036	-0.081
-451.953	184.697	-0.106	0.159
-450.938	800.000	0.065	0.273
-449.924	-200.000	-0.032	0.258
-448.909	-110.761	-0.157	-0.033
-447.895	-99.747	-0.220	-0.056
-446.880	-37.332	-0.171	-0.092
-445.865	13.423	-0.177	0.138
-444.851	-200.000	0.025	-0.327
-443.836	-12.414	-0.184	-0.121
-442.822	-88.612	0.308	-0.093
-441.807	-52.110	-0.167	0.078
-440.792	800.000	-0.036	-0.129
-439.778	800.000	-0.090	-0.356
-438.763	197.741	0.102	-0.156
-437.749	-106.634	-0.316	0.071
-436.734	-174.270	0.242	0.007
-435.719	-71.725	-0.227	0.086
-434.705	10.994	-0.225	0.173
-433.690	114.716	0.077	-0.095
-432.676	257.389	0.040	-0.068
-431.661	-158.297	-0.099	0.006
-430.646	-120.741	-0.213	0.036
-429.632	-200.000	-0.005	0.094
-428.617	800.000	0.060	-0.248
-427.603	-55.174	-0.294	-0.133
-426.588	-30.333	0.293	-0.167
-425.573	-88.300	-0.187	0.056
-424.559	-147.631	0.230	-0.020
-423.544	-80.577	0.149	-0.050
-422.530	-153.085	0.106	0.008
-421.515	166.882	0.076	0.109
-420.500	7.694	-0.154	0.116
-419.486	9.679	0.138	-0.106
-418.471	-200.000	-0.033	-0.238
-417.457	-77.444	0.204	0.071
-416.442	-148.348	-0.050	0.004
-415.428	10.452	-0.220	-0.169
-414.413	440.460	-0.080	-0.176
-413.398	-200.000	-0.009	-0.081
-412.384	-107.544	-0.262	0.058
-411.369	21.153	0.121	0.099
-410.355	-200.000	0.009	-0.116
-409.340	-140.865	-0.189	0.020
-408.325	53.007	0.116	0.112
-407.311	-45.749	-0.139	-0.069
-406.296	44.792	-0.145	-0.134
-405.282	-200.000	-0.000	0.057
-404.267	-30.050	0.261	-0.149
-403.252	800.000	-0.033	0.115
-402.238	800.000	0.075	0.226
-401.223	-84.998	-0.292	0.092
-400.209	64.391	-0.116	-0.118
-399.194	21.597	-0.244	-0.200
-398.179	800.000	0.066	0.206
-397.165	800.000	-0.106	0.342
-396.150	-75.920	0.054	-0.019
-395.136	-36.774	0.312	0.168
-394.121	800.000	0.048	-0.187
-393.106	-200.000	-0.054	-0.352
-392.092	62.517	0.179	-0.180
-391.077	187.143	0.273	-0.409
-390.063	-200.000	0.009	-0.432
-389.048	-42.797	0.150	0.077
-388.033	-51.665	0.085	-0.040
-387.019	118.940	0.195	0.243
-386.004	488.428	-0.043	-0.099
-384.990	7.374	-0.173	0.130
-383.975	798.681	0.082	-0.226
-382.960	800.000	0.056	-0.160
-381.946	-93.204	-0.391	0.109
-380.931	460.131	0.072	-0.161
-379.917	800.000	0.088	0.250
-378.902	-62.363	-0.040	0.017
-377.888	73.052	-0.331	0.347
-376.873	-175.360	0.151	0.004
-375.858	-154.712	0.137	0.009
-374.844	-200.000	-0.007	-0.199
-373.829	54.896	-0.236	0.229
-372.815	747.886	0.080	0.216
-371.800	-71.991	0.127	-0.048
-370.785	163.618	0.015	-0.021
-369.771	541.038	-0.006	0.016
-368.756	-46.558	-0.247	-0.122
-367.742	-62.311	-0.213	0.089
-366.727	-169.906	0.149	0.005
-365.712	-128.608	0.019	-0.003
-364.698	-16.198	0.115	-0.073
-363.683	-0.661	0.398	-0.284
-362.669	-200.000	-0.007	0.090
-361.654	3.779	0.110	-0.081
-360.639	-200.000	-0.015	0.326
-359.625	-30.844	0.202	0.115
-358.610	-200.000	-0.006	0.241
-357.596	19.392	0.270	0.218
-356.581	44.419	0.137	-0.126
-355.566	2.244	0.237	-0.172
-354.552	-94.744	0.278	0.076
-353.537	-200.000	-0.024	0.398
-352.523	-200.000	-0.029	0.219
-351.508	581.311	0.053	0.131
-350.493	159.347	-0.191	0.267
-349.479	75.690	0.049	0.052
-348.464	-127.920	0.509	0.073
-347.450	-83.994	0.103	0.033
-346.435	45.473	0.111	-0.103
-345.420	266.625	0.151	0.265
-344.406	108.847	0.202	0.243
-343.391	775.792	-0.146	0.401
-342.377	90.315	0.130	-0.146
-341.362	239.361	-0.060	-0.100
-340.348	202.417	0.110	0.170
-339.333	-200.000	-0.023	0.204
-338.318	-100.905	0.130	-0.032
-337.304	-19.162	0.087	-0.055
-336.289	-200.000	0.013	-0.085
-335.275	-200.000	0.051	0.238
-334.260	-48.650	-0.019	0.009
-333.245	84.959	-0.040	-0.044
-332.231	-155.535	0.083	0.005
-331.216	99.069	0.135	0.157
-330.202	85.126	0.079	0.087
-329.187	4.649	-0.075	0.055
-328.172	800.000	0.012	-0.036
-327.158	-18.410	0.152	-0.095
-326.143	-200.000	0.042	0.231
-325.129	413.240	0.068	-0.144
-324.114	-117.115	-0.072	-0.013
-323.099	800.000	0.029	-0.082
-322.085	294.145	-0.057	-0.105
-321.070	-82.034	0.143	0.047
-320.056	800.000	-0.002	-0.007
-319.041	800.000	-0.029	0.081
-318.026	-200.000	-0.196	-0.000
-317.012	460.661	-0.039	-0.086
-315.997	-61.593	0.080	0.034
-314.983	-171.970	-0.376	0.012
-313.968	580.975	0.085	-0.208
-312.953	-121.889	0.063	0.010
-311.939	-109.349	0.159	-0.034
-310.924	-113.261	0.176	-0.035
-309.910	800.000	-0.063	-0.198
-308.895	8.572	0.322	0.243
-307.880	-60.880	-0.083	-0.035
-306.866	-19.278	0.120	0.074
-305.851	5.370	-0.159	0.117
-304.837	-200.000	0.025	0.271
-303.822	-200.000	-0.021	0.164
-302.807	-81.792	0.198	0.065
-301.793	197.090	-0.116	0.178
-300.778	-200.000	0.026	0.204
-299.764	61.345	0.175	-0.174
-298.749	-55.789	0.151	0.068
-297.735	-89.350	-0.269	0.079
-296.720	-68.398	-0.126	0.049
-295.705	-200.000	-0.003	-0.234
-294.691	-200.000	-0.040	0.267
-293.676	-116.427	-0.147	-0.027
-292.662	257.085	0.032	0.054
-291.647	170.497	-0.247	-0.355
-290.632	58.325	-0.111	0.109
-289.618	-163.092	0.135	0.007
-288.603	251.031	0.088	0.150
-287.589	249.596	0.244	-0.414
-286.574	-173.318	0.124	-0.004
-285.559	14.799	-0.095	0.074
-284.545	-139.597	0.258	0.028
-283.530	-110.393	0.192	-0.040
-282.516	-14.559	-0.154	-0.099
-281.501	-35.083	-0.119	-0.065
-280.486	167.674	-0.240	0.342
-279.472	131.678	0.044	0.057
-278.457	433.484	0.044	-0.096
-277.443	800.000	-0.067	-0.189
-276.428	254.041	0.113	0.194
-275.413	-146.128	0.212	-0.019
-274.399	323.768	-0.076	-0.146
-273.384	-155.785	0.350	0.022
-272.370	-99.053	0.253	0.064
-271.355	73.209	0.116	0.121
-270.340	800.000	0.104	0.341
-269.326	492.912	-0.056	0.128
-268.311	-200.000	0.013	-0.078
-267.297	-199.776	0.174	-0.001
-266.282	-122.750	0.093	-0.015
-265.267	800.000	0.002	0.007
-264.253	-200.000	-0.052	0.271
-263.238	449.761	0.148	-0.327
-262.224	-169.737	-0.241	0.009
-261.209	334.498	-0.053	-0.103
-260.195	40.034	-0.117	-0.105
-259.180	432.981	-0.076	-0.165
-258.165	183.324	-0.013	0.020
-257.151	-23.692	-0.178	-0.107
-256.136	800.000	-0.038	-0.131
-255.122	106.009	-0.103	0.122
-254.107	-125.166	-0.157	0.024
-253.092	-172.763	0.171	-0.005
-252.078	479.307	-0.126	-0.286
-251.063	218.345	0.066	-0.105
-250.049	395.048	-0.111	0.232
-249.034	107.310	0.129	0.153
-248.019	57.625	-0.142	-0.139
-247.005	-200.000	0.011	0.103
-245.990	-100.960	0.191	0.047
-244.976	780.485	-0.030	-0.081
-243.961	230.833	-0.076	0.125
-242.946	-139.464	0.122	-0.013
-241.932	-10.677	0.268	-0.177
-240.917	800.000	0.094	-0.301
-239.903	-12.430	0.027	-0.018
-238.888	16.262	-0.310	0.245
-237.873	-96.300	-0.414	-0.110
-236.859	528.497	-0.090	-0.211
-235.844	800.000	0.038	-0.156
-234.830	-200.000	-0.001	-0.087
-233.815	151.061	-0.142	0.193
-232.800	-40.022	-0.277	0.144
-231.786	-28.738	-0.334	-0.192
-230.771	-200.000	0.000	0.314
-229.757	-66.410	0.125	-0.050
-228.742	36.531	-0.160	-0.141
-227.727	97.847	0.250	0.288
-226.713	722.328	0.037	0.099
-225.698	-70.682	0.190	-0.072
-224.684	-200.000	0.026	0.284
-223.669	126.621	-0.136	0.173
-222.655	-200.000	0.002	-0.090
-221.640	202.336	0.023	-0.035
-220.625	325.091	-0.119	0.228
-219.611	-67.173	-0.149	0.059
-218.596	-26.534	-0.235	-0.138
-217.582	75.837	-0.359	0.380
-216.567	-142.413	-0.163	0.016
-215.552	176.603	-0.154	0.223
-214.538	-128.694	0.361	0.051
-213.523	601.349	-0.120	-0.298
-212.509	-66.883	-0.187	0.074
-211.494	-175.068	-0.147	0.004
-210.479	800.000	0.082	-0.292
-209.465	187.669	0.147	-0.220
-208.450	189.811	-0.168	-0.252
-207.436	800.000	-0.064	0.187
-206.421	68.426	0.262	0.268
-205.406	-23.280	0.169	0.101
-204.392	800.000	-0.069	-0.236
-203.377	-93.280	-0.115	0.032
-202.363	-200.000	0.018	-0.318
-201.348	-61.934	0.360	-0.150
-200.333	462.896	-0.026	-0.059
-199.319	76.075	0.082	0.087
-198.304	800.000	-0.090	0.348
-197.290	-200.000	-0.092	0.559
-196.275	-51.427	0.076	0.035
-195.260	-200.000	0.011	-0.236
-194.246	-60.761	0.179	-0.076
-193.231	-11.814	0.037	0.024
-192.217	800.000	-0.061	-0.219
-191.202	-42.473	-0.139	0.071
-190.187	22.053	0.075	-0.061
-189.173	-71.844	0.141	0.052
-188.158	129.839	0.016	0.020
-187.144	-116.644	0.114	-0.021
-186.129	-200.000	0.005	0.195
-185.114	16.166	-0.184	0.145
-184.100	-146.876	-0.318	0.027
-183.085	123.656	0.080	0.101
-182.071	-153.804	-0.135	0.009
-181.056	294.689	0.048	0.088
-180.042	800.000	0.146	-0.430
-179.027	1.462	0.184	0.132
-178.012	366.288	-0.139	0.279
-176.998	-42.040	0.119	0.061
-175.983	-44.680	-0.028	-0.014
-174.969	-44.820	0.156	-0.078
-173.954	-156.368	-0.314	0.020
-172.939	-164.244	-0.423	0.019
-171.925	-200.000	-0.011	0.134
-170.910	424.395	-0.105	-0.226
-169.896	-100.822	0.130	0.032
-168.881	437.296	0.256	0.555
-167.866	-200.000	-0.004	-0.184
-166.852	664.067	0.097	0.251
-165.837	22.502	0.169	-0.137
-164.823	-42.782	0.195	0.099
-163.808	-104.449	0.098	0.023
-162.793	120.225	-0.198	0.245
-161.779	426.538	0.042	0.090
-160.764	800.000	-0.103	-0.342
-159.750	-160.657	0.322	-0.017
-158.735	122.221	0.148	0.184
-157.720	-108.914	0.447	-0.095
-156.706	-200.000	-0.039	-0.218
-155.691	-200.000	-0.036	-0.159
-154.677	69.528	0.136	-0.139
-153.662	-138.426	0.097	0.011
-152.647	378.754	0.094	0.191
-151.633	-111.365	-0.261	0.053
-150.618	-200.000	-0.005	-0.111
-149.604	312.060	-0.072	0.135
-148.589	800.000	0.092	0.309
-147.574	800.000	0.041	0.133
-146.560	-62.253	-0.233	0.097
-145.545	-194.908	0.078	0.001
-144.531	-200.000	0.036	0.346
-143.516	106.267	0.111	-0.131
-142.502	-200.000	0.010	0.236
-141.487	189.965	-0.285	0.426
-140.472	-89.797	-0.288	0.084
-139.458	43.145	-0.068	0.062
-138.443	-181.040	-0.228	0.005
-137.429	159.188	0.181	0.251
-136.414	203.371	-0.286	0.440
-135.399	-125.532	0.230	-0.035
-134.385	717.649	-0.057	0.151
-133.370	30.081	0.275	-0.234
-132.356	-200.000	-0.017	-0.081
-131.341	-58.197	0.068	-0.029
-130.326	-106.238	-0.089	-0.020
-129.312	800.000	0.037	0.125
-128.297	-17.780	-0.096	-0.060
-127.283	212.344	0.106	0.167
-126.268	-149.810	0.147	-0.011
-125.253	-105.513	0.299	-0.068
-124.239	-122.929	0.196	-0.031
-123.224	-138.364	0.077	-0.008
-122.210	-132.029	0.360	-0.047
