DTS Sentinel unit serial number:	SN413079Multiplexer serial number:	ORYXHardware model number:	OX4-SRSoftware version number:	ORYX F/W v4.00 Oryx Data Collector v3.7.2.0data status	okinstallation	princeton_trtdifferential loss correction	single-endedforward channel	channel 1reverse channel	N/Adate	2019/09/18time	22:46:35forward acquisition time	60.00reverse acquisition time	0.00gamma	496.2192k internal	0.2341k external	0.2341temperature offset calibration	1.0016default loss term (dB/km)	0.3790temperature slope calibration	1.0000multiplexer offset coefficient	1.0000multiplexer slope coefficient	1.0000fibre end	0.00T internal ref (°C)	24.12T ext. ref 1 (°C)	0.79T ext. ref 2 (°C)	18.00length (m)	temperature (°C)	Stokes	anti-Stokes-747.200	-50.418	0.298	0.141
-746.185	-56.612	0.234	0.104
-745.171	-22.747	0.402	0.243
-744.156	800.000	0.051	0.162
-743.142	97.071	-0.144	0.166
-742.127	283.843	0.101	0.182
-741.112	800.000	-0.101	-0.280
-740.098	-8.787	0.252	0.169
-739.083	-21.232	-0.215	0.131
-738.069	-200.000	0.008	-0.215
-737.054	100.552	0.126	0.147
-736.039	-200.000	0.031	0.215
-735.025	198.286	-0.133	0.204
-734.010	221.396	-0.269	-0.433
-732.996	-134.612	0.057	0.007
-731.981	-200.000	-0.016	0.236
-730.966	-33.231	0.172	0.095
-729.952	-148.856	-0.146	0.012
-728.937	234.250	-0.051	0.084
-727.923	346.614	-0.165	0.326
-726.908	-30.104	-0.273	-0.156
-725.894	800.000	0.078	0.339
-724.879	90.409	-0.282	0.316
-723.864	-166.589	-0.236	-0.010
-722.850	800.000	0.065	0.183
-721.835	347.359	0.128	-0.252
-720.821	21.044	-0.369	-0.299
-719.806	126.563	0.041	-0.052
-718.791	-7.541	-0.104	-0.070
-717.777	-200.000	-0.039	0.184
-716.762	271.332	0.168	0.296
-715.748	-175.743	-0.250	-0.007
-714.733	-200.000	-0.043	0.356
-713.718	800.000	-0.062	-0.181
-712.704	616.720	-0.099	0.248
-711.689	-57.611	-0.451	0.198
-710.675	-58.289	0.216	0.094
-709.660	477.981	-0.093	-0.210
-708.645	224.161	-0.079	-0.127
-707.631	-86.299	0.419	-0.129
-706.616	-200.000	-0.010	0.188
-705.602	174.293	-0.154	0.223
-704.587	-26.572	-0.031	0.018
-703.572	800.000	-0.083	-0.315
-702.558	-193.078	0.226	0.002
-701.543	-123.907	-0.213	0.034
-700.529	-81.063	-0.203	-0.067
-699.514	-200.000	-0.031	0.218
-698.499	800.000	-0.083	-0.299
-697.485	28.429	0.261	-0.221
-696.470	-59.055	-0.059	0.025
-695.456	-85.356	0.200	-0.062
-694.441	-200.000	-0.017	0.303
-693.426	187.791	-0.117	0.174
-692.412	-200.000	-0.009	-0.090
-691.397	-10.252	0.136	0.091
-690.383	-38.042	-0.222	-0.118
-689.368	-200.000	0.014	-0.228
-688.354	-87.829	-0.296	0.089
-687.339	-200.000	0.059	-0.338
-686.324	66.153	-0.396	-0.402
-685.310	800.000	-0.153	-0.499
-684.295	77.381	0.271	0.289
-683.281	-124.738	-0.041	-0.006
-682.266	800.000	-0.077	-0.264
-681.251	-57.198	-0.140	-0.062
-680.237	-200.000	-0.038	-0.400
-679.222	74.215	0.049	-0.052
-678.208	71.484	0.146	0.151
-677.193	94.095	0.024	-0.027
-676.178	510.907	-0.063	0.146
-675.164	-200.000	0.002	-0.083
-674.149	800.000	0.063	0.223
-673.135	-128.953	-0.147	0.021
-672.120	30.552	-0.100	-0.086
-671.105	59.859	-0.040	0.039
-670.091	800.000	0.063	-0.250
-669.076	-200.000	0.024	0.228
-668.062	153.801	-0.118	0.161
-667.047	-75.533	0.036	-0.013
-666.032	38.400	-0.377	-0.335
-665.018	-37.410	0.275	-0.147
-664.003	45.860	0.107	0.099
-662.989	-3.203	0.064	-0.044
-661.974	142.945	0.123	-0.163
-660.959	-142.794	-0.223	0.022
-659.945	-49.268	-0.154	-0.074
-658.930	-26.785	-0.489	0.286
-657.916	-200.000	0.013	-0.113
-656.901	-200.000	0.024	0.307
-655.886	-47.524	0.067	0.032
-654.872	-103.876	-0.290	0.068
-653.857	-18.082	0.326	-0.204
-652.843	800.000	0.020	-0.058
-651.828	-155.347	-0.386	-0.025
-650.814	-200.000	0.049	-0.391
-649.799	-166.769	-0.060	0.002
-648.784	-128.337	0.271	-0.039
-647.770	-189.103	0.020	0.000
-646.755	-200.000	-0.013	0.125
-645.741	82.113	-0.087	0.094
-644.726	-110.839	0.077	-0.016
-643.711	201.407	-0.286	0.440
-642.697	-163.907	-0.155	0.007
-641.682	520.291	-0.087	-0.204
-640.668	310.685	0.072	-0.134
-639.653	57.309	0.121	0.117
-638.638	62.538	0.054	0.054
-637.624	-120.216	-0.117	-0.020
-636.609	-79.664	-0.182	-0.061
-635.595	-200.000	0.027	-0.206
-634.580	39.463	0.234	0.209
-633.565	800.000	0.118	0.358
-632.551	5.087	-0.253	-0.186
-631.536	217.149	-0.078	-0.124
-630.522	125.231	-0.253	-0.319
-629.507	500.205	-0.118	-0.271
-628.492	586.812	0.140	0.343
-627.478	-200.000	0.003	-0.040
-626.463	111.276	-0.264	-0.318
-625.449	-200.000	-0.032	-0.467
-624.434	-21.360	-0.338	0.206
-623.419	-90.827	-0.139	0.040
-622.405	800.000	0.035	-0.138
-621.390	-40.009	-0.108	-0.056
-620.376	26.005	-0.319	0.265
-619.361	51.876	0.214	-0.203
-618.346	28.868	-0.244	-0.206
-617.332	-200.000	-0.021	0.133
-616.317	800.000	0.069	0.244
-615.303	66.259	0.211	-0.214
-614.288	-200.000	-0.015	-0.241
-613.273	-103.630	0.486	0.114
-612.259	-135.300	0.049	0.006
-611.244	-96.191	-0.200	-0.053
-610.230	-200.000	0.076	0.420
-609.215	28.099	0.079	0.066
-608.201	-74.575	0.203	-0.073
-607.186	-29.297	0.203	0.116
-606.171	800.000	-0.041	-0.129
-605.157	-15.247	-0.328	0.209
-604.142	-37.541	-0.225	-0.119
-603.128	-85.996	0.355	0.109
-602.113	13.980	0.360	-0.279
-601.098	-200.000	0.035	-0.235
-600.084	-111.404	-0.058	-0.012
-599.069	107.357	0.161	0.191
-598.055	14.621	-0.169	-0.132
-597.040	-200.000	-0.062	0.376
-596.025	-200.000	0.006	-0.127
-595.011	-152.941	-0.047	-0.003
-593.996	44.288	0.325	-0.297
-592.982	-60.534	0.068	-0.029
-591.967	55.616	0.167	-0.161
-590.952	-126.972	-0.299	0.044
-589.938	800.000	0.077	-0.223
-588.923	-200.000	-0.039	-0.389
-587.909	-200.000	0.013	0.096
-586.894	109.309	0.134	0.159
-585.879	-72.900	-0.153	-0.056
-584.865	174.381	-0.111	-0.159
-583.850	72.742	0.218	0.227
-582.836	-92.740	0.087	-0.024
-581.821	325.677	-0.026	0.050
-580.806	-110.100	-0.436	-0.091
-579.792	800.000	-0.074	-0.259
-578.777	186.789	-0.105	-0.155
-577.763	-16.024	0.199	0.126
-576.748	800.000	-0.021	-0.071
-575.733	43.345	-0.213	0.193
-574.719	47.365	0.104	0.097
-573.704	800.000	0.052	0.152
-572.690	-200.000	0.003	-0.314
-571.675	800.000	0.006	0.017
-570.661	-200.000	0.008	-0.039
-569.646	239.615	-0.037	0.061
-568.631	550.567	-0.067	0.160
-567.617	269.291	0.049	-0.086
-566.602	-121.919	-0.170	-0.028
-565.588	-60.257	0.083	-0.035
-564.573	-82.616	-0.047	-0.015
-563.558	440.401	-0.213	0.463
-562.544	88.313	0.085	-0.094
-561.529	800.000	0.140	-0.400
-560.515	-167.654	-0.487	-0.019
-559.500	-200.000	-0.007	-0.064
-558.485	800.000	-0.018	0.054
-557.471	290.048	-0.040	0.072
-556.456	-113.014	0.101	-0.020
-555.442	-135.577	0.096	0.011
-554.427	-200.000	-0.106	-0.485
-553.412	800.000	0.038	0.121
-552.398	-91.392	-0.195	0.055
-551.383	210.939	0.140	0.220
-550.369	-191.434	-0.228	-0.002
-549.354	-82.367	0.132	0.043
-548.339	-200.000	-0.070	-0.398
-547.325	26.050	-0.255	-0.211
-546.310	-4.708	-0.122	0.083
-545.296	222.485	-0.067	-0.107
-544.281	431.342	-0.101	-0.217
-543.266	119.232	-0.081	0.100
-542.252	-21.674	0.056	-0.034
-541.237	378.230	-0.036	0.073
-540.223	251.457	0.088	-0.150
-539.208	-101.278	-0.160	-0.039
-538.193	800.000	0.083	-0.306
-537.179	-43.494	-0.124	-0.062
-536.164	800.000	-0.083	0.307
-535.150	136.159	0.117	-0.152
-534.135	-168.112	0.340	-0.013
-533.121	-200.000	0.051	-0.277
-532.106	158.059	-0.104	-0.143
-531.091	377.754	0.079	-0.160
-530.077	34.031	-0.222	-0.193
-529.062	-75.060	0.299	0.106
-528.048	-90.803	0.109	-0.031
-527.033	-151.106	-0.271	-0.020
-526.018	-13.544	0.218	-0.140
-525.004	39.811	0.124	-0.111
-523.989	-97.362	-0.323	-0.084
-522.975	19.850	-0.273	0.218
-521.960	-163.378	-0.265	0.013
-520.945	-200.000	0.013	0.590
-519.931	71.482	0.251	0.259
-518.916	74.855	-0.308	-0.322
-517.902	-62.517	-0.073	-0.030
-516.887	-151.233	-0.270	-0.020
-515.872	152.465	-0.062	0.084
-514.858	-38.379	0.040	-0.021
-513.843	74.161	-0.101	0.106
-512.829	-46.148	0.325	0.159
-511.814	23.345	0.478	-0.390
-510.799	193.467	0.137	0.205
-509.785	-200.000	0.024	0.297
-508.770	-152.820	0.276	0.019
-507.756	-166.688	0.424	-0.017
-506.741	-59.054	0.094	-0.040
-505.726	136.488	0.157	-0.203
-504.712	-126.426	-0.362	-0.054
-503.697	800.000	-0.043	0.158
-502.683	359.818	0.051	0.101
-501.668	-200.000	0.047	-0.263
-500.653	-91.910	0.294	0.083
-499.639	88.726	-0.178	0.196
-498.624	-131.641	0.243	-0.032
-497.610	542.322	0.117	-0.278
-496.595	-95.240	0.358	0.096
-495.581	-136.094	0.394	-0.046
-494.566	-200.000	0.004	-0.032
-493.551	60.273	-0.325	-0.319
-492.537	-118.148	0.388	0.069
-491.522	392.638	-0.053	-0.108
-490.508	-89.397	0.119	-0.035
-489.493	-200.000	0.017	-0.350
-488.478	-21.326	-0.356	-0.216
-487.464	-24.912	0.208	-0.123
-486.449	246.739	0.093	-0.156
-485.435	-200.000	0.007	0.165
-484.420	-76.997	0.297	-0.103
-483.405	-78.055	-0.280	-0.096
-482.391	231.944	0.125	0.203
-481.376	17.888	0.095	0.075
-480.362	-200.000	0.006	0.227
-479.347	-82.567	0.130	0.042
-478.332	230.386	0.072	-0.117
-477.318	-107.285	0.376	0.082
-476.303	800.000	0.024	-0.075
-475.289	423.985	0.125	0.267
-474.274	66.436	-0.218	0.220
-473.259	313.434	0.195	-0.363
-472.245	-100.179	0.175	0.043
-471.230	105.358	-0.130	0.153
-470.216	800.000	-0.033	0.129
-469.201	-200.000	0.031	0.150
-468.186	-98.497	-0.157	-0.040
-467.172	245.679	-0.146	0.244
-466.157	-200.000	-0.037	0.194
-465.143	-122.237	-0.251	-0.041
-464.128	800.000	-0.028	0.091
-463.113	-200.000	-0.016	-0.105
-462.099	800.000	0.105	0.301
-461.084	585.150	0.053	0.128
-460.070	-200.000	0.059	0.412
-459.055	672.241	-0.134	-0.344
-458.040	-200.000	-0.041	-0.197
-457.026	75.871	0.374	0.392
-456.011	-153.743	0.307	0.021
-454.997	-139.604	-0.276	0.029
-453.982	3.906	0.217	-0.157
-452.968	299.997	-0.029	-0.052
-451.953	147.416	0.057	-0.076
-450.938	24.828	-0.203	-0.167
-449.924	-200.000	0.020	-0.369
-448.909	-200.000	0.028	-0.233
-447.895	-200.000	0.035	0.196
-446.880	-156.386	-0.081	0.005
-445.865	-119.740	-0.065	0.011
-444.851	-12.048	-0.157	-0.102
-443.836	156.408	0.084	-0.114
-442.822	440.113	-0.049	0.107
-441.807	255.881	0.195	0.331
-440.792	-163.705	0.187	0.009
-439.778	-16.593	-0.234	-0.147
-438.763	82.533	-0.140	0.151
-437.749	-89.369	0.103	-0.030
-436.734	-121.038	-0.254	0.042
-435.719	800.000	0.108	0.339
-434.705	240.811	0.182	0.300
-433.690	-50.146	-0.063	-0.030
-432.676	-200.000	0.028	0.178
-431.661	800.000	0.078	0.219
-430.646	-200.000	0.023	0.125
-429.632	65.943	0.363	-0.364
-428.617	-180.183	0.174	-0.004
-427.603	-41.854	-0.131	-0.066
-426.588	-113.778	0.145	0.028
-425.573	-30.969	-0.171	0.095
-424.559	-200.000	0.001	-0.283
-423.544	800.000	-0.053	-0.186
-422.530	326.846	-0.133	-0.252
-421.515	-39.679	0.285	-0.148
-420.500	-200.000	-0.030	0.155
-419.486	-75.916	-0.307	0.107
-418.471	-128.178	-0.186	-0.026
-417.457	800.000	-0.057	-0.234
-416.442	267.973	-0.199	0.344
-415.428	-200.000	0.073	-0.360
-414.413	-193.771	-0.221	-0.002
-413.398	-192.780	0.456	0.004
-412.384	800.000	-0.057	-0.200
-411.369	126.400	-0.133	0.166
-410.355	166.488	0.196	0.274
-409.340	92.549	0.121	0.135
-408.325	141.623	0.203	0.266
-407.311	-181.514	-0.152	0.003
-406.296	-134.233	-0.153	0.019
-405.282	-101.943	0.318	0.076
-404.267	129.069	0.184	0.233
-403.252	446.557	-0.074	-0.161
-402.238	-32.800	-0.081	-0.045
-401.223	800.000	0.089	-0.294
-400.209	382.335	-0.265	-0.539
-399.194	800.000	0.046	-0.183
-398.179	-181.427	-0.434	0.008
-397.165	-200.000	0.001	0.131
-396.150	-2.823	-0.201	0.139
-395.136	-60.181	-0.246	-0.104
-394.121	800.000	0.126	-0.409
-393.106	-9.358	-0.186	0.123
-392.092	-200.000	0.014	0.214
-391.077	16.363	-0.046	0.036
-390.063	-23.606	0.215	-0.127
-389.048	-200.000	0.019	0.242
-388.033	77.900	0.050	-0.052
-387.019	-58.179	-0.324	-0.139
-386.004	-1.418	0.346	-0.242
-384.990	800.000	-0.047	0.186
-383.975	-80.373	0.071	0.023
-382.960	-166.694	0.239	0.010
-381.946	-109.434	0.177	-0.037
-380.931	-156.515	-0.478	0.029
-379.917	800.000	-0.103	0.290
-378.902	800.000	0.056	0.233
-377.888	0.669	0.275	-0.195
-376.873	-35.731	0.094	0.050
-375.858	684.238	0.051	0.132
-374.844	800.000	0.048	0.164
-373.829	-83.321	-0.175	0.055
-372.815	-102.420	-0.427	-0.101
-371.800	147.214	-0.252	0.335
-370.785	8.554	0.231	-0.172
-369.771	188.259	-0.102	-0.151
-368.756	-50.700	-0.284	0.132
-367.742	-200.000	-0.025	-0.474
-366.727	-119.923	0.235	-0.040
-365.712	244.553	0.155	0.258
-364.698	458.772	-0.013	-0.028
-363.683	44.749	0.249	-0.227
-362.669	-60.902	-0.032	0.013
-361.654	-45.065	0.297	0.146
-360.639	685.010	0.152	0.392
-359.625	-98.429	0.139	-0.035
-358.610	-200.000	0.016	-0.086
-357.596	-97.341	-0.269	0.069
-356.581	-139.834	-0.283	-0.030
-355.566	-198.248	-0.476	-0.003
-354.552	-33.255	-0.205	-0.112
-353.537	150.653	-0.012	0.016
-352.523	209.078	0.048	0.074
-351.508	-200.000	0.010	0.258
-350.493	174.626	0.134	0.191
-349.479	317.173	-0.118	-0.220
-348.464	22.988	0.193	0.156
-347.450	800.000	-0.067	0.214
-346.435	-200.000	0.013	-0.223
-345.420	-124.002	-0.108	0.017
-344.406	376.483	0.073	-0.146
-343.391	800.000	0.030	0.086
-342.377	77.959	0.140	0.148
-341.362	-31.112	-0.143	0.080
-340.348	-110.419	-0.297	0.061
-339.333	-154.528	0.139	0.009
-338.318	112.200	0.062	0.074
-337.304	-119.496	0.305	0.052
-336.289	-200.000	0.016	-0.327
-335.275	6.252	-0.128	0.094
-334.260	44.244	0.092	0.083
-333.245	-102.077	-0.072	0.017
-332.231	800.000	0.073	-0.226
-331.216	72.655	0.174	-0.180
-330.202	107.840	0.052	-0.061
-329.187	-59.524	-0.193	0.082
-328.172	800.000	0.059	0.206
-327.158	800.000	0.044	0.153
-326.143	-200.000	-0.098	-0.449
-325.129	38.291	-0.117	-0.103
-324.114	-200.000	-0.109	0.522
-323.099	-181.852	0.334	-0.006
-322.085	-200.000	0.026	-0.165
-321.070	-200.000	0.053	-0.278
-320.056	-153.022	-0.260	-0.018
-319.041	108.033	0.105	-0.124
-318.026	338.336	-0.088	-0.168
-317.012	790.985	0.073	0.199
-315.997	-120.680	-0.271	0.045
-314.983	800.000	-0.112	0.334
-313.968	143.917	-0.076	0.100
-312.953	-151.876	0.223	-0.016
-311.939	-200.000	-0.000	0.255
-310.924	-98.642	-0.169	-0.042
-309.910	245.838	0.149	-0.247
-308.895	96.451	-0.090	-0.101
-307.880	-200.000	-0.013	-0.131
-306.866	14.760	-0.112	0.086
-305.851	-65.227	-0.249	-0.099
-304.837	113.269	0.201	0.240
-303.822	125.767	-0.135	0.168
-302.807	-49.572	0.260	-0.122
-301.793	-80.098	-0.164	-0.054
-300.778	-200.000	-0.037	-0.339
-299.764	-139.540	0.205	-0.022
-298.749	302.694	0.202	0.368
-297.735	-140.023	-0.180	0.019
-296.720	178.063	-0.019	0.027
-295.705	-68.084	0.292	0.112
-294.691	800.000	-0.015	-0.063
-293.676	442.035	-0.259	-0.559
-292.662	95.287	-0.044	-0.049
-291.647	323.040	0.023	-0.043
-290.632	800.000	0.007	-0.031
-289.618	-39.164	0.029	-0.015
-288.603	11.708	0.325	-0.246
-287.589	232.738	-0.135	-0.219
-286.574	-200.000	0.042	0.260
-285.559	406.552	-0.089	0.186
-284.545	-200.000	-0.035	0.397
-283.530	54.624	-0.144	0.137
-282.516	800.000	0.197	0.584
-281.501	-200.000	0.058	0.271
-280.486	-70.212	-0.123	-0.046
-279.472	-200.000	-0.085	0.484
-278.457	-200.000	-0.008	-0.043
-277.443	-200.000	0.043	0.299
-276.428	-200.000	-0.005	-0.227
-275.413	183.759	-0.142	-0.206
-274.399	415.785	0.019	-0.039
-273.384	135.443	0.103	-0.132
-272.370	-19.023	-0.042	-0.026
-271.355	340.094	0.235	0.451
-270.340	-200.000	0.019	-0.147
-269.326	-5.093	-0.239	0.162
-268.311	65.690	0.124	0.123
-267.297	-60.463	0.132	-0.055
-266.282	56.397	-0.115	-0.110
-265.267	800.000	0.044	0.177
-264.253	-3.831	0.064	0.044
-263.238	-56.015	-0.114	-0.050
-262.224	597.453	-0.176	-0.430
-261.209	577.512	0.090	-0.215
-260.195	172.831	0.155	0.219
-259.180	560.634	-0.120	-0.286
-258.165	-77.108	-0.171	-0.059
-257.151	-200.000	0.007	-0.179
-256.136	183.918	-0.049	-0.071
-255.122	5.643	0.279	-0.203
-254.107	385.218	0.144	-0.291
-253.092	-85.248	0.130	-0.040
-252.078	-160.627	-0.121	0.006
-251.063	-66.654	0.275	0.107
-250.049	-200.000	0.020	0.088
-249.034	-122.816	0.094	-0.015
-248.019	-157.584	0.203	-0.012
-247.005	-64.577	0.085	-0.034
-245.990	-90.508	0.163	0.046
-244.976	-158.392	-0.165	-0.009
-243.961	-56.435	-0.306	0.134
-242.946	305.528	0.113	0.206
-241.932	501.088	0.028	0.064
-240.917	-200.000	-0.002	-0.122
-239.903	198.088	0.155	-0.232
-238.888	-200.000	-0.027	-0.201
-237.873	-200.000	0.039	0.181
-236.859	108.791	-0.354	0.415
-235.844	227.237	0.160	0.256
-234.830	212.905	-0.193	0.299
-233.815	800.000	0.032	-0.102
-232.800	23.382	-0.384	0.310
-231.786	66.072	0.231	-0.230
-230.771	628.457	0.200	-0.496
-229.757	-81.801	-0.188	0.060
-228.742	301.825	-0.124	-0.226
-227.727	800.000	-0.099	0.421
-226.713	-8.806	-0.123	0.081
-225.698	378.962	0.022	0.045
-224.684	800.000	0.050	-0.140
-223.669	215.356	0.055	0.085
-222.655	199.928	-0.049	-0.074
-221.640	749.286	-0.096	0.254
-220.625	-200.000	0.045	0.288
-219.611	-91.805	0.185	-0.051
-218.596	800.000	-0.036	0.102
-217.582	83.482	-0.185	-0.198
-216.567	-200.000	-0.006	0.153
-215.552	-35.811	0.314	0.167
-214.538	27.752	-0.266	-0.220
-213.523	-200.000	0.294	-0.001
-212.509	214.954	-0.163	0.253
-211.494	85.687	0.249	0.269
-210.479	-200.000	-0.012	-0.163
-209.465	-98.174	-0.523	0.132
-208.450	-200.000	-0.001	0.269
-207.436	192.147	-0.098	0.145
-206.421	-66.556	0.384	-0.149
-205.406	-26.868	0.092	0.053
-204.392	29.122	0.105	-0.088
-203.377	193.228	0.304	0.451
-202.363	-81.896	0.167	0.054
-201.348	800.000	0.101	0.390
-200.333	297.035	-0.159	0.287
-199.319	-200.000	-0.003	-0.208
-198.304	-99.966	-0.168	-0.041
-197.290	187.608	-0.242	0.355
-196.275	-200.000	0.007	-0.118
-195.260	-200.000	-0.004	-0.322
-194.246	-86.852	-0.099	-0.030
-193.231	-103.460	-0.157	0.036
-192.217	-200.000	0.002	-0.154
-191.202	-200.000	-0.007	0.073
-190.187	800.000	-0.059	0.177
-189.173	800.000	0.052	-0.211
-188.158	72.111	0.082	-0.084
-187.144	54.264	0.124	0.117
-186.129	-48.085	-0.359	-0.170
-185.114	-200.000	-0.024	-0.352
-184.100	-59.230	0.181	-0.076
-183.085	-200.000	0.034	0.245
-182.071	56.234	0.216	-0.206
-181.056	-13.915	-0.151	0.095
-180.042	-200.000	0.006	0.027
-179.027	106.586	-0.161	-0.187
-178.012	-116.386	-0.290	-0.052
-176.998	142.812	0.101	0.131
-175.983	-126.104	0.037	-0.005
-174.969	800.000	0.107	0.300
-173.954	-143.877	-0.388	-0.036
-172.939	-121.891	0.301	-0.049
-171.925	-164.498	0.117	-0.005
-170.910	229.069	-0.160	-0.256
-169.896	-200.000	-0.011	-0.073
-168.881	-39.995	-0.263	-0.135
-167.866	-1.635	0.250	0.173
-166.852	-136.477	-0.245	-0.028
-165.837	800.000	0.024	-0.100
-164.823	67.029	0.092	-0.091
-163.808	800.000	-0.043	-0.180
-162.793	238.437	-0.235	-0.382
-161.779	30.822	-0.040	0.034
-160.764	-71.787	0.224	-0.082
-159.750	-145.276	0.196	0.017
-158.735	109.836	0.089	0.105
-157.720	311.045	-0.083	-0.153
-156.706	17.343	-0.150	0.116
-155.691	-7.652	0.163	0.108
-154.677	-35.692	0.150	-0.080
-153.662	280.664	0.074	-0.130
-152.647	221.730	-0.278	0.438
-151.633	-118.595	0.182	-0.032
-150.618	-66.211	0.438	0.171
-149.604	-15.608	0.033	-0.020
-148.589	-200.000	0.018	0.403
-147.574	146.705	0.162	0.213
-146.560	-72.500	0.400	0.145
-145.545	-13.081	-0.230	0.146
-144.531	37.800	-0.080	-0.069
-143.516	512.761	-0.145	0.330
-142.502	-189.180	-0.248	-0.003
-141.487	255.939	0.224	-0.376
-140.472	800.000	-0.112	-0.338
-139.458	-153.144	0.451	-0.031
-138.443	233.577	-0.225	-0.362
-137.429	600.237	0.104	-0.254
-136.414	87.337	0.274	0.296
-135.399	91.280	-0.071	-0.078
-134.385	59.656	-0.022	-0.021
-133.370	-49.377	-0.295	-0.138
-132.356	305.602	-0.161	-0.293
-131.341	718.589	0.122	0.317
-130.326	124.603	0.143	0.176
-129.312	-122.315	-0.171	0.027
-128.297	-152.409	0.345	0.024
-127.283	-54.664	0.003	0.001
-126.268	800.000	-0.075	-0.253
-125.253	6.775	0.151	0.110
-124.239	-200.000	-0.015	0.189
-123.224	-93.577	0.347	0.094
-122.210	153.640	-0.120	0.161
