DTS Sentinel unit serial number:	SN413079Multiplexer serial number:	ORYXHardware model number:	OX4-SRSoftware version number:	ORYX F/W v4.00 Oryx Data Collector v3.7.2.0data status	okinstallation	princeton_trtdifferential loss correction	single-endedforward channel	channel 1reverse channel	N/Adate	2019/09/11time	12:24:11forward acquisition time	60.00reverse acquisition time	0.00gamma	496.2192k internal	0.2294k external	0.2294temperature offset calibration	0.9939default loss term (dB/km)	0.3790temperature slope calibration	1.0000multiplexer offset coefficient	1.0000multiplexer slope coefficient	1.0000fibre end	0.00T internal ref (°C)	40.27T ext. ref 1 (°C)	0.19T ext. ref 2 (°C)	38.37length (m)	temperature (°C)	Stokes	anti-Stokes-747.200	-200.000	-0.004	0.176
-746.185	-200.000	-0.034	0.462
-745.171	-79.509	0.080	0.028
-744.156	706.774	-0.131	0.354
-743.142	-170.544	0.132	0.005
-742.127	800.000	-0.087	-0.306
-741.112	-88.849	0.273	-0.083
-740.098	800.000	0.113	0.332
-739.083	-130.503	0.360	0.050
-738.069	433.650	0.045	0.101
-737.054	139.885	0.185	0.249
-736.039	800.000	-0.035	-0.128
-735.025	315.681	-0.040	-0.078
-734.010	-184.176	-0.380	-0.006
-732.996	274.355	0.009	-0.017
-731.981	2.599	-0.160	-0.119
-730.966	-200.000	-0.014	-0.153
-729.952	-200.000	-0.057	-0.415
-728.937	-101.198	-0.250	0.062
-727.923	-109.555	-0.244	-0.053
-726.908	-85.097	-0.321	-0.103
-725.894	9.997	-0.332	-0.257
-724.879	-15.538	0.281	-0.183
-723.864	-200.000	0.007	0.037
-722.850	271.218	-0.105	0.189
-721.835	800.000	-0.060	-0.171
-720.821	82.063	-0.037	0.041
-719.806	-175.782	-0.139	0.004
-718.791	800.000	-0.071	-0.317
-717.777	-96.315	0.203	0.055
-716.762	-200.000	0.008	-0.248
-715.748	800.000	0.118	-0.335
-714.733	487.668	-0.057	-0.132
-713.718	-106.634	-0.198	-0.045
-712.704	-91.969	0.042	0.012
-711.689	-200.000	0.004	0.091
-710.675	800.000	0.067	-0.279
-709.660	-14.132	-0.277	0.182
-708.645	366.613	-0.091	0.187
-707.631	-185.537	0.109	-0.002
-706.616	509.833	-0.024	0.056
-705.602	-200.000	0.052	0.252
-704.587	-200.000	-0.316	-0.001
-703.572	201.797	0.176	-0.277
-702.558	222.302	-0.080	0.131
-701.543	33.549	-0.345	-0.306
-700.529	-200.000	0.018	-0.123
-699.514	781.832	-0.065	0.182
-698.499	97.168	0.191	-0.224
-697.485	-63.878	0.294	-0.123
-696.470	-76.275	0.362	0.130
-695.456	-164.627	0.172	0.008
-694.441	-61.488	-0.358	-0.153
-693.426	22.532	0.130	-0.109
-692.412	42.977	-0.018	-0.017
-691.397	800.000	-0.099	0.371
-690.383	-200.000	0.013	-0.162
-689.368	800.000	-0.057	0.171
-688.354	-200.000	-0.038	0.177
-687.339	489.455	0.092	0.214
-686.324	800.000	-0.119	-0.345
-685.310	800.000	0.049	0.202
-684.295	-89.188	0.144	0.043
-683.281	-200.000	-0.016	-0.226
-682.266	58.986	-0.368	-0.369
-681.251	-150.588	-0.098	-0.008
-680.237	-82.844	0.220	-0.073
-679.222	69.083	0.094	-0.098
-678.208	585.597	0.082	0.206
-677.193	-50.149	0.059	0.028
-676.178	39.436	-0.164	0.150
-675.164	-89.931	-0.309	0.092
-674.149	-153.043	0.270	0.019
-673.135	-200.000	0.020	-0.142
-672.120	-105.095	-0.107	-0.025
-671.105	800.000	0.055	0.199
-670.091	-161.688	-0.138	-0.007
-669.076	-142.976	-0.014	-0.001
-668.062	173.121	0.094	-0.138
-667.047	-57.594	-0.112	0.050
-666.032	-69.631	0.208	-0.081
-665.018	-23.794	0.211	-0.129
-664.003	250.118	0.075	0.129
-662.989	525.087	-0.057	0.136
-661.974	-62.468	-0.177	0.075
-660.959	-32.858	0.350	0.198
-659.945	-25.875	0.200	-0.120
-658.930	291.287	0.060	0.111
-657.916	-170.044	0.309	-0.011
-656.901	-200.000	-0.004	-0.143
-655.886	-125.679	-0.291	-0.045
-654.872	-200.000	-0.081	-0.438
-653.857	-76.531	0.084	0.030
-652.843	-200.000	-0.037	-0.176
-651.828	-150.021	-0.269	0.021
-650.814	673.683	-0.010	-0.027
-649.799	-70.346	-0.101	0.039
-648.784	132.436	-0.062	-0.081
-647.770	-92.612	0.039	0.011
-646.755	-15.231	-0.165	-0.108
-645.741	-125.469	-0.309	0.048
-644.726	-200.000	-0.003	-0.179
-643.711	151.316	-0.067	0.093
-642.697	-200.000	0.036	0.264
-641.682	23.663	-0.141	0.118
-640.668	157.800	0.206	0.290
-639.653	25.727	0.296	0.251
-638.638	177.184	-0.122	0.181
-637.624	-200.000	-0.085	-0.386
-636.609	-200.000	0.011	0.066
-635.595	800.000	-0.021	0.078
-634.580	-40.569	-0.110	0.058
-633.565	167.477	-0.048	0.070
-632.551	51.245	0.196	-0.189
-631.536	-200.000	-0.010	0.101
-630.522	-79.951	0.071	-0.024
-629.507	-150.029	0.297	-0.024
-628.492	196.289	0.064	0.099
-627.478	-200.000	0.008	0.040
-626.463	124.307	0.255	-0.326
-625.449	121.166	-0.123	0.156
-624.434	28.510	0.183	-0.158
-623.419	-76.902	-0.199	-0.071
-622.405	-200.000	-0.002	-0.085
-621.390	-81.240	-0.283	-0.095
-620.376	-14.144	-0.188	0.124
-619.361	-2.411	-0.175	0.125
-618.346	-0.340	0.036	-0.026
-617.332	-42.462	-0.193	-0.100
-616.317	-200.000	-0.005	-0.184
-615.303	-43.998	-0.188	-0.096
-614.288	-134.213	-0.028	0.004
-613.273	-42.593	0.422	0.219
-612.259	-80.196	-0.251	-0.086
-611.244	-107.477	0.108	-0.024
-610.230	-200.000	-0.039	0.223
-609.215	-56.300	-0.156	0.071
-608.201	800.000	0.017	0.074
-607.186	506.244	0.059	-0.139
-606.171	12.877	-0.071	-0.056
-605.157	31.330	-0.051	-0.045
-604.142	127.459	0.195	-0.251
-603.128	-200.000	-0.006	-0.408
-602.113	150.757	-0.013	0.018
-601.098	76.372	-0.036	0.039
-600.084	-200.000	0.047	-0.234
-599.069	525.726	0.068	-0.163
-598.055	96.143	-0.161	0.188
-597.040	-70.022	-0.271	0.105
-596.025	800.000	0.118	0.342
-595.011	779.501	0.042	-0.117
-593.996	-15.556	0.127	-0.082
-592.982	-116.904	0.302	0.056
-591.967	-21.551	-0.219	0.136
-590.952	584.590	-0.149	-0.372
-589.938	228.979	-0.168	0.278
-588.923	-200.000	0.046	-0.212
-587.909	11.953	-0.202	0.158
-586.894	800.000	0.082	0.239
-585.879	105.198	0.187	-0.225
-584.865	722.868	0.170	-0.459
-583.850	412.047	0.067	-0.145
-582.836	27.339	0.074	-0.063
-581.821	117.097	-0.046	0.058
-580.806	800.000	0.065	0.203
-579.792	800.000	0.053	-0.237
-578.777	9.756	-0.112	0.086
-577.763	41.502	-0.099	0.091
-576.748	24.980	-0.354	0.299
-575.733	11.329	-0.227	-0.176
-574.719	-39.556	-0.141	-0.075
-573.704	-32.934	-0.130	0.073
-572.690	-200.000	-0.050	0.343
-571.675	226.651	0.053	-0.087
-570.661	21.899	0.372	-0.308
-569.646	72.036	-0.136	-0.144
-568.631	91.720	0.192	0.219
-567.617	-26.627	-0.048	-0.028
-566.602	-57.861	-0.183	-0.081
-565.588	115.712	0.127	-0.158
-564.573	153.867	0.088	0.123
-563.558	222.336	-0.034	0.056
-562.544	80.381	-0.049	-0.053
-561.529	244.064	0.118	0.200
-560.515	-105.456	0.169	0.039
-559.500	355.935	-0.186	-0.376
-558.485	260.972	0.037	-0.064
-557.471	800.000	-0.093	0.265
-556.456	538.617	0.126	0.304
-555.442	-100.296	0.164	-0.041
-554.427	124.224	-0.103	-0.132
-553.412	-83.933	0.101	0.032
-552.398	-50.896	-0.310	-0.148
-551.383	-154.831	-0.295	-0.020
-550.369	-96.771	-0.041	0.011
-549.354	112.557	-0.163	-0.200
-548.339	800.000	0.070	0.210
-547.325	652.304	0.104	0.270
-546.310	-36.534	0.340	0.186
-545.296	-142.394	0.356	0.036
-544.281	-200.000	0.041	-0.196
-543.266	800.000	0.068	-0.208
-542.252	-200.000	0.023	-0.162
-541.237	183.512	0.134	-0.201
-540.223	-137.429	0.139	-0.016
-539.208	214.973	-0.102	0.165
-538.193	96.640	-0.115	-0.134
-537.179	-13.927	-0.177	-0.116
-536.164	800.000	-0.082	0.324
-535.150	-39.640	0.278	0.148
-534.135	29.132	-0.123	0.106
-533.121	-60.941	-0.280	-0.120
-532.106	24.377	-0.065	0.054
-531.091	212.623	-0.022	0.035
-530.077	800.000	0.101	-0.291
-529.062	-200.000	0.284	-0.000
-528.048	51.953	0.218	0.211
-527.033	-200.000	0.019	0.175
-526.018	-152.597	0.064	-0.005
-525.004	-200.000	-0.000	-0.042
-523.989	13.121	0.299	-0.235
-522.975	-81.427	0.319	-0.107
-521.960	800.000	-0.078	-0.254
-520.945	-113.025	-0.158	0.032
-519.931	55.771	0.015	-0.014
-518.916	-105.986	-0.443	-0.101
-517.902	-200.000	0.004	-0.143
-516.887	-200.000	-0.013	-0.253
-515.872	-45.213	0.170	0.086
-514.858	93.559	-0.116	0.133
-513.843	393.501	0.137	-0.289
-512.829	-193.412	-0.344	-0.003
-511.814	-57.356	-0.170	0.076
-510.799	800.000	-0.024	0.103
-509.785	199.102	0.101	-0.157
-508.770	72.711	0.237	-0.250
-507.756	800.000	0.091	0.371
-506.741	-200.000	-0.059	-0.276
-505.726	800.000	-0.006	-0.020
-504.712	-200.000	-0.021	-0.250
-503.697	210.301	-0.098	-0.155
-502.683	-109.491	-0.129	-0.028
-501.668	204.940	-0.043	0.067
-500.653	225.266	-0.102	-0.168
-499.639	-200.000	0.002	-0.339
-498.624	-101.528	-0.461	-0.114
-497.610	-150.089	0.122	0.010
-496.595	-89.705	-0.095	0.028
-495.581	-7.414	0.173	0.118
-494.566	45.380	-0.158	0.148
-493.551	149.137	-0.132	0.181
-492.537	-200.000	0.006	0.125
-491.522	33.860	0.291	-0.257
-490.508	-200.000	0.018	-0.098
-489.493	800.000	0.121	0.431
-488.478	-200.000	-0.007	0.065
-487.464	621.888	0.024	0.062
-486.449	662.310	0.054	0.142
-485.435	-144.109	0.071	0.007
-484.420	-22.721	-0.343	-0.210
-483.405	-81.563	0.103	0.034
-482.391	512.148	-0.037	0.086
-481.376	800.000	-0.059	-0.171
-480.362	800.000	-0.057	-0.176
-479.347	361.246	0.033	0.068
-478.332	800.000	-0.039	0.133
-477.318	787.816	-0.211	0.586
-476.303	-38.127	0.134	0.072
-475.289	106.663	-0.116	-0.139
-474.274	666.972	0.071	0.186
-473.259	527.354	0.054	-0.128
-472.245	-121.453	0.160	-0.027
-471.230	-200.000	-0.032	-0.339
-470.216	-200.000	0.045	-0.446
-469.201	179.828	0.044	-0.066
-468.186	-118.357	0.396	0.071
-467.172	-101.178	-0.109	0.027
-466.157	800.000	-0.014	-0.048
-465.143	-200.000	0.032	-0.149
-464.128	113.132	0.050	-0.061
-463.113	116.882	0.068	0.085
-462.099	27.401	0.313	0.266
-461.084	-47.206	-0.112	0.055
-460.070	185.860	0.177	0.266
-459.055	46.013	-0.194	0.181
-458.040	-34.624	0.168	-0.093
-457.026	800.000	0.053	0.154
-456.011	800.000	0.038	0.141
-454.997	166.089	0.148	0.212
-453.982	303.110	-0.069	-0.129
-452.968	28.176	0.132	0.113
-451.953	62.205	-0.124	0.125
-450.938	-124.292	0.131	-0.021
-449.924	-91.113	-0.338	0.098
-448.909	-200.000	-0.013	0.082
-447.895	800.000	-0.030	0.107
-446.880	-50.019	0.305	-0.146
-445.865	-121.981	-0.275	-0.046
-444.851	195.199	-0.049	-0.075
-443.836	-200.000	0.039	0.185
-442.822	-200.000	-0.001	0.283
-441.807	272.909	-0.164	-0.293
-440.792	4.785	0.183	-0.136
-439.778	50.046	-0.089	0.085
-438.763	-200.000	0.022	0.178
-437.749	27.890	0.207	-0.176
-436.734	-200.000	-0.004	0.404
-435.719	-200.000	0.068	0.390
-434.705	616.626	-0.086	-0.219
-433.690	-200.000	0.011	0.107
-432.676	-200.000	-0.012	0.216
-431.661	39.960	0.175	0.159
-430.646	-145.994	-0.325	-0.029
-429.632	-67.392	0.310	-0.123
-428.617	-86.952	0.080	-0.025
-427.603	-146.406	-0.216	0.019
-426.588	-119.064	-0.027	0.005
-425.573	-124.902	-0.221	-0.034
-424.559	-90.696	-0.133	-0.039
-423.544	-86.986	0.333	-0.103
-422.530	-148.583	0.388	-0.032
-421.515	248.050	0.175	-0.300
-420.500	710.255	0.087	-0.233
-419.486	520.509	0.129	0.305
-418.471	-200.000	-0.042	0.276
-417.457	80.776	0.160	-0.174
-416.442	-200.000	-0.001	-0.175
-415.428	-11.500	-0.160	0.106
-414.413	-74.780	-0.327	0.118
-413.398	81.986	0.063	-0.069
-412.384	101.183	-0.134	-0.157
-411.369	800.000	0.054	-0.184
-410.355	88.864	0.067	-0.075
-409.340	-1.257	0.048	-0.034
-408.325	-156.434	-0.421	-0.026
-407.311	723.430	-0.073	-0.196
-406.296	120.034	-0.124	0.155
-405.282	-200.000	-0.023	-0.240
-404.267	800.000	-0.072	-0.209
-403.252	121.216	-0.227	0.286
-402.238	-158.746	0.099	-0.006
-401.223	37.791	0.187	0.167
-400.209	-47.099	-0.217	0.107
-399.194	30.039	0.068	0.059
-398.179	-35.762	0.216	-0.118
-397.165	-78.211	0.238	-0.083
-396.150	38.805	-0.173	-0.156
-395.136	-123.184	0.138	0.022
-394.121	23.526	0.186	0.155
-393.106	215.808	-0.280	-0.448
-392.092	-200.000	0.019	-0.143
-391.077	76.087	0.260	0.277
-390.063	-80.891	0.083	-0.028
-389.048	161.768	0.207	-0.293
-388.033	-200.000	0.011	-0.228
-387.019	-66.483	0.233	-0.093
-386.004	800.000	-0.065	0.228
-384.990	-81.860	0.263	0.087
-383.975	67.771	0.307	0.317
-382.960	-105.805	0.388	0.088
-381.946	2.291	-0.114	-0.083
-380.931	-163.266	0.358	-0.017
-379.917	527.321	-0.156	-0.372
-378.902	-79.534	0.118	0.040
-377.888	587.182	-0.082	-0.203
-376.873	-120.210	-0.336	-0.058
-375.858	-69.637	-0.293	0.113
-374.844	-200.000	0.030	-0.206
-373.829	-114.189	-0.213	-0.042
-372.815	505.365	-0.103	0.239
-371.800	302.077	0.039	-0.073
-370.785	-109.262	0.179	-0.038
-369.771	-200.000	-0.005	0.204
-368.756	800.000	-0.042	0.150
-367.742	13.793	0.053	-0.041
-366.727	-17.163	0.135	0.086
-365.712	-131.350	-0.124	-0.017
-364.698	-200.000	0.004	0.155
-363.683	-102.172	0.217	-0.053
-362.669	-200.000	0.011	0.218
-361.654	46.993	0.272	0.255
-360.639	-52.728	-0.249	-0.116
-359.625	125.774	0.068	0.086
-358.610	5.411	-0.108	0.080
-357.596	-200.000	0.023	0.129
-356.581	260.223	0.040	0.070
-355.566	-56.655	-0.103	-0.046
-354.552	-19.467	0.124	0.077
-353.537	184.548	-0.132	0.197
-352.523	-143.084	-0.131	0.013
-351.508	800.000	-0.081	-0.244
-350.493	84.414	-0.221	-0.244
-349.479	-200.000	0.021	0.198
-348.464	-143.784	0.130	0.012
-347.450	41.313	0.250	0.228
-346.435	-23.046	0.119	-0.072
-345.420	-135.247	0.241	0.029
-344.406	-53.897	-0.107	-0.049
-343.391	-144.536	-0.500	-0.047
-342.377	-1.059	-0.280	-0.199
-341.362	84.017	0.174	0.191
-340.348	-126.202	-0.446	0.067
-339.333	-200.000	-0.015	-0.120
-338.318	-133.986	0.131	0.016
-337.304	-66.792	0.140	-0.056
-336.289	657.562	-0.067	-0.175
-335.275	312.057	-0.107	-0.203
-334.260	-200.000	-0.038	-0.307
-333.245	61.142	-0.126	-0.126
-332.231	26.183	-0.104	-0.087
-331.216	67.172	-0.067	0.069
-330.202	-17.619	-0.143	-0.091
-329.187	800.000	0.146	-0.498
-328.172	-104.474	0.253	0.059
-327.158	-50.112	0.113	0.054
-326.143	800.000	0.019	-0.081
-325.129	32.506	-0.228	-0.198
-324.114	-122.735	-0.225	0.037
-323.099	40.657	0.137	-0.124
-322.085	66.412	-0.322	-0.329
-321.070	-30.078	-0.153	-0.088
-320.056	54.883	0.160	0.155
-319.041	-71.210	0.172	0.065
-318.026	-192.853	0.286	0.003
-317.012	186.947	0.211	-0.316
-315.997	-123.294	-0.331	-0.053
-314.983	-200.000	0.014	-0.091
-313.968	246.348	0.159	0.270
-312.953	-140.916	-0.307	0.032
-311.939	6.865	-0.178	0.133
-310.924	37.937	-0.217	0.194
-309.910	89.546	-0.046	0.051
-308.895	-200.000	-0.028	0.543
-307.880	800.000	-0.168	0.521
-306.866	-80.419	-0.332	0.111
-305.851	800.000	0.090	0.366
-304.837	194.612	0.210	0.320
-303.822	10.583	-0.084	-0.065
-302.807	-120.389	-0.312	-0.053
-301.793	16.222	-0.053	-0.042
-300.778	-91.879	0.166	0.047
-299.764	-140.947	0.288	-0.030
-298.749	-200.000	-0.065	-0.439
-297.735	419.547	-0.072	-0.154
-296.720	-165.044	0.204	-0.009
-295.705	-80.727	-0.246	0.082
-294.691	35.751	0.057	-0.050
-293.676	-200.000	0.011	0.244
-292.662	71.311	-0.160	0.167
-291.647	136.727	-0.252	-0.330
-290.632	-27.544	-0.451	-0.263
-289.618	-183.872	-0.074	-0.001
-288.603	-70.182	0.236	-0.090
-287.589	385.064	-0.090	-0.186
-286.574	-200.000	-0.015	0.187
-285.559	393.760	0.080	0.167
-284.545	800.000	-0.034	0.096
-283.530	127.979	0.217	0.277
-282.516	-23.384	-0.237	-0.143
-281.501	108.002	0.187	0.224
-280.486	-86.774	0.415	0.127
-279.472	110.178	0.099	-0.120
-278.457	800.000	0.042	0.175
-277.443	-54.486	-0.176	0.080
-276.428	-142.761	-0.081	0.008
-275.413	75.877	0.130	0.138
-274.399	-200.000	0.000	0.080
-273.384	-140.231	0.177	0.019
-272.370	123.529	0.113	0.143
-271.355	-200.000	0.004	-0.045
-270.340	619.127	0.041	-0.103
-269.326	-200.000	-0.022	0.340
-268.311	-118.520	-0.188	-0.033
-267.297	800.000	-0.061	-0.169
-266.282	107.019	0.021	0.025
-265.267	-7.336	-0.172	0.117
-264.253	-200.000	0.040	0.180
-263.238	366.748	0.118	-0.239
-262.224	-200.000	-0.008	0.156
-261.209	-148.541	-0.157	0.013
-260.195	475.654	-0.071	0.160
-259.180	80.949	-0.110	0.119
-258.165	-33.859	0.275	0.152
-257.151	80.689	-0.142	-0.154
-256.136	186.679	0.201	-0.300
-255.122	482.627	0.132	0.301
-254.107	109.374	0.186	0.223
-253.092	-159.297	0.405	-0.023
-252.078	-138.967	0.391	-0.043
-251.063	-141.695	-0.101	0.010
-250.049	507.370	0.013	-0.031
-249.034	27.956	-0.238	0.201
-248.019	655.253	0.075	0.192
-247.005	52.824	0.073	0.070
-245.990	160.224	0.166	-0.233
-244.976	-91.198	0.445	-0.128
-243.961	-21.200	-0.255	0.156
-242.946	-116.622	-0.154	-0.028
-241.932	283.798	0.193	-0.347
-240.917	-179.212	-0.169	-0.004
-239.903	-140.867	0.130	0.013
-238.888	800.000	0.067	-0.272
-237.873	-39.168	-0.146	-0.077
-236.859	-44.544	-0.210	-0.105
-235.844	-45.167	0.316	-0.158
-234.830	16.629	0.300	-0.237
-233.815	-135.694	0.100	0.012
-232.800	-43.296	0.199	-0.101
-231.786	-141.627	0.290	-0.029
-230.771	-60.182	0.488	0.209
-229.757	91.951	-0.251	0.283
-228.742	-16.698	0.220	0.139
-227.727	-169.160	-0.133	-0.005
-226.713	-56.982	0.177	0.078
-225.698	65.559	-0.177	-0.180
-224.684	-200.000	-0.066	0.355
-223.669	-122.126	-0.328	-0.054
-222.655	-35.222	0.349	0.190
-221.640	-113.156	0.263	-0.052
-220.625	185.809	-0.106	0.158
-219.611	-169.466	-0.266	0.010
-218.596	530.563	-0.228	0.541
-217.582	-61.130	-0.120	0.051
-216.567	-50.286	0.132	-0.063
-215.552	-200.000	-0.012	-0.103
-214.538	800.000	-0.021	-0.083
-213.523	-111.959	-0.543	-0.110
-212.509	192.919	-0.208	0.314
-211.494	800.000	-0.030	-0.131
-210.479	244.699	-0.051	-0.085
-209.465	188.637	-0.133	-0.199
-208.450	151.045	0.092	0.126
-207.436	-114.310	-0.224	-0.043
-206.421	29.214	-0.261	-0.222
-205.406	-33.871	-0.095	-0.052
-204.392	541.582	0.137	0.328
-203.377	-19.882	0.199	-0.123
-202.363	-106.371	0.111	-0.025
-201.348	25.293	-0.233	0.194
-200.333	-158.072	-0.095	0.006
-199.319	-143.330	0.371	0.036
-198.304	-61.477	0.269	-0.113
-197.290	-107.414	-0.287	0.063
-196.275	-126.950	0.146	-0.021
-195.260	15.352	0.163	0.128
-194.246	-1.804	-0.136	0.095
-193.231	-38.001	-0.221	-0.117
-192.217	22.318	-0.022	0.018
-191.202	-40.983	-0.193	-0.100
-190.187	531.579	-0.047	0.112
-189.173	-100.615	0.162	-0.040
-188.158	-140.077	-0.447	0.047
-187.144	-99.789	0.030	-0.008
-186.129	72.479	-0.090	-0.094
-185.114	-27.688	-0.050	0.029
-184.100	800.000	0.051	0.169
-183.085	16.380	-0.153	0.121
-182.071	-15.171	0.127	-0.081
-181.056	-146.917	-0.215	-0.018
-180.042	-45.783	-0.265	-0.131
-179.027	-20.384	-0.341	-0.210
-178.012	-105.697	-0.069	-0.016
-176.998	-43.192	0.435	0.220
-175.983	8.735	-0.359	-0.270
-174.969	-163.976	-0.247	-0.011
-173.954	-189.737	-0.398	0.005
-172.939	-59.057	0.304	-0.131
-171.925	-102.099	0.375	0.090
-170.910	49.650	-0.081	-0.076
-169.896	108.318	-0.071	-0.085
-168.881	301.445	0.112	0.208
-167.866	800.000	-0.043	0.136
-166.852	-154.988	0.152	-0.010
-165.837	285.440	0.109	-0.196
-164.823	-21.101	0.162	0.099
-163.808	-200.000	-0.074	-0.327
-162.793	114.925	0.125	-0.153
-161.779	273.465	0.164	0.291
-160.764	448.119	-0.046	-0.102
-159.750	-103.061	0.069	0.016
-158.735	800.000	-0.011	0.040
-157.720	24.190	0.128	0.105
-156.706	56.994	0.170	0.165
-155.691	-200.000	0.011	-0.407
-154.677	0.152	0.248	-0.177
-153.662	426.570	-0.057	-0.122
-152.647	329.896	0.117	0.225
-151.633	-200.000	0.054	-0.306
-150.618	-92.143	-0.133	0.038
-149.604	15.153	0.180	-0.141
-148.589	139.975	-0.087	0.115
-147.574	-25.030	-0.284	0.168
-146.560	-85.099	0.015	0.005
-145.545	-200.000	-0.016	0.226
-144.531	10.036	-0.241	0.183
-143.516	-121.596	0.081	-0.013
-142.502	-200.000	0.070	-0.358
-141.487	-200.000	-0.009	-0.096
-140.472	-152.451	0.152	-0.011
-139.458	51.414	-0.268	0.254
-138.443	-68.411	-0.150	-0.058
-137.429	800.000	0.038	-0.111
-136.414	-121.711	0.276	0.046
-135.399	-137.019	-0.320	-0.037
-134.385	139.064	-0.190	-0.249
-133.370	-22.810	0.341	-0.206
-132.356	-200.000	-0.097	-0.546
-131.341	-200.000	0.055	0.335
-130.326	-27.061	0.216	0.126
-129.312	-88.535	-0.090	-0.027
-128.297	-200.000	-0.044	-0.416
-127.283	-48.182	-0.063	-0.031
-126.268	800.000	0.040	0.161
-125.253	-101.925	0.186	0.045
-124.239	61.609	-0.122	-0.122
-123.224	71.660	0.255	0.265
-122.210	-200.000	-0.030	-0.318
