DTS Sentinel unit serial number:	SN413079Multiplexer serial number:	ORYXHardware model number:	OX4-SRSoftware version number:	ORYX F/W v4.00 Oryx Data Collector v3.7.2.0data status	okinstallation	princeton_trtdifferential loss correction	single-endedforward channel	channel 1reverse channel	N/Adate	2019/09/18time	22:02:35forward acquisition time	60.00reverse acquisition time	0.00gamma	496.2192k internal	0.2341k external	0.2341temperature offset calibration	1.0017default loss term (dB/km)	0.3790temperature slope calibration	1.0000multiplexer offset coefficient	1.0000multiplexer slope coefficient	1.0000fibre end	0.00T internal ref (°C)	24.56T ext. ref 1 (°C)	0.81T ext. ref 2 (°C)	18.29length (m)	temperature (°C)	Stokes	anti-Stokes-747.200	800.000	-0.111	0.344
-746.185	106.973	-0.062	-0.074
-745.171	261.866	0.031	0.053
-744.156	-200.000	-0.022	0.131
-743.142	338.453	0.204	-0.399
-742.127	-86.872	-0.329	-0.101
-741.112	-2.294	0.300	-0.211
-740.098	37.438	0.309	-0.275
-739.083	-200.000	0.371	-0.001
-738.069	-200.000	-0.013	0.075
-737.054	-56.800	0.154	-0.068
-736.039	61.597	-0.243	0.242
-735.025	477.798	0.156	-0.354
-734.010	137.518	-0.135	-0.177
-732.996	-55.473	-0.201	-0.090
-731.981	-200.000	-0.006	-0.213
-730.966	37.161	0.178	-0.158
-729.952	-200.000	-0.013	-0.430
-728.937	-18.871	-0.216	0.135
-727.923	200.945	-0.145	-0.224
-726.908	-46.902	-0.289	0.141
-725.894	189.002	-0.226	0.339
-724.879	-117.233	-0.276	0.050
-723.864	-55.415	-0.305	0.137
-722.850	-132.950	0.197	-0.025
-721.835	-57.785	-0.007	-0.003
-720.821	-20.411	-0.238	0.147
-719.806	113.546	-0.103	0.125
-718.791	-42.893	-0.214	0.109
-717.777	197.998	-0.137	0.210
-716.762	56.742	-0.298	0.290
-715.748	37.043	-0.166	0.147
-714.733	800.000	0.024	0.104
-713.718	189.398	-0.032	-0.048
-712.704	-44.386	-0.070	-0.035
-711.689	175.005	0.088	-0.128
-710.675	-15.834	-0.290	-0.185
-709.660	-200.000	0.035	0.209
-708.645	113.190	-0.125	0.152
-707.631	-200.000	-0.013	-0.073
-706.616	168.147	-0.147	-0.209
-705.602	-152.002	0.069	-0.005
-704.587	-200.000	0.019	-0.132
-703.572	352.313	0.159	-0.316
-702.558	5.236	0.091	0.067
-701.543	800.000	0.106	-0.293
-700.529	-44.405	-0.259	-0.130
-699.514	-89.896	-0.295	-0.086
-698.499	-200.000	-0.003	-0.171
-697.485	41.587	0.113	0.102
-696.470	-200.000	-0.011	0.250
-695.456	-200.000	-0.037	0.307
-694.441	285.431	0.055	-0.100
-693.426	-96.954	-0.240	-0.063
-692.412	472.015	0.130	-0.292
-691.397	-130.877	-0.161	-0.022
-690.383	-200.000	0.052	-0.272
-689.368	-200.000	-0.033	-0.329
-688.354	572.957	0.059	-0.143
-687.339	-39.543	0.152	0.079
-686.324	-22.128	0.111	-0.068
-685.310	800.000	-0.059	-0.229
-684.295	-97.994	-0.239	-0.062
-683.281	-125.794	-0.164	0.025
-682.266	-200.000	0.008	0.200
-681.251	72.739	-0.220	-0.230
-680.237	-53.787	0.102	0.046
-679.222	-200.000	0.011	-0.291
-678.208	-53.349	-0.181	-0.083
-677.193	800.000	-0.037	0.160
-676.178	-172.452	-0.234	0.007
-675.164	30.707	0.241	-0.207
-674.149	-70.154	0.191	0.072
-673.135	-38.134	0.213	0.113
-672.120	111.703	-0.133	0.160
-671.105	-30.954	-0.329	-0.186
-670.091	-200.000	0.007	-0.258
-669.076	-200.000	-0.042	-0.460
-668.062	1.435	-0.108	-0.078
-667.047	107.421	0.215	-0.255
-666.032	-7.410	0.146	-0.099
-665.018	-161.873	-0.039	0.002
-664.003	800.000	0.031	-0.104
-662.989	161.590	0.111	-0.156
-661.974	235.459	0.103	-0.170
-660.959	-200.000	-0.013	0.137
-659.945	-200.000	-0.020	-0.114
-658.930	90.185	0.150	0.168
-657.916	312.979	0.031	0.058
-656.901	-18.693	0.071	-0.044
-655.886	-123.980	0.163	-0.026
-654.872	-200.000	-0.046	-0.210
-653.857	60.990	0.072	-0.072
-652.843	-200.000	-0.003	-0.271
-651.828	-23.250	-0.082	0.049
-650.814	-77.958	-0.372	0.128
-649.799	127.121	-0.095	0.121
-648.784	370.573	-0.096	-0.194
-647.770	-200.000	0.049	0.222
-646.755	-118.966	0.035	-0.006
-645.741	254.843	0.082	0.141
-644.726	-29.683	-0.097	-0.055
-643.711	125.049	-0.121	0.153
-642.697	-50.086	-0.090	0.042
-641.682	-44.783	0.079	0.039
-640.668	115.818	-0.061	-0.075
-639.653	-10.578	0.317	0.210
-638.638	90.761	0.150	-0.168
-637.624	-105.292	0.087	0.020
-636.609	-77.156	-0.416	-0.145
-635.595	161.971	-0.101	0.141
-634.580	800.000	0.017	0.061
-633.565	-200.000	0.027	-0.376
-632.551	-200.000	0.014	-0.181
-631.536	-200.000	-0.002	-0.031
-630.522	232.144	0.066	-0.109
-629.507	-200.000	0.045	-0.264
-628.492	-133.848	-0.202	0.025
-627.478	-131.193	0.191	-0.025
-626.463	-26.766	-0.101	-0.059
-625.449	-200.000	-0.016	-0.267
-624.434	568.375	-0.029	0.071
-623.419	90.746	0.225	-0.252
-622.405	-88.219	0.253	0.076
-621.390	-200.000	0.047	-0.269
-620.376	-126.935	-0.073	0.011
-619.361	-200.000	-0.036	-0.233
-618.346	-84.723	0.274	-0.086
-617.332	-128.000	-0.120	0.017
-616.317	-81.647	-0.146	0.048
-615.303	219.428	-0.112	0.179
-614.288	-17.386	0.198	-0.124
-613.273	800.000	-0.048	-0.139
-612.259	0.722	0.231	0.165
-611.244	-75.283	0.111	-0.040
-610.230	-37.606	0.344	-0.183
-609.215	-38.367	-0.404	-0.213
-608.201	-200.000	0.174	-0.000
-607.186	334.784	-0.096	0.185
-606.171	34.655	-0.147	-0.128
-605.157	-200.000	0.033	0.405
-604.142	786.211	0.155	0.425
-603.128	-6.549	0.198	-0.134
-602.113	800.000	0.099	-0.306
-601.098	-81.386	0.111	0.037
-600.084	429.758	0.042	-0.090
-599.069	368.307	0.168	0.338
-598.055	374.834	-0.127	0.258
-597.040	-25.165	0.298	-0.176
-596.025	800.000	0.072	-0.219
-595.011	-83.525	-0.136	-0.043
-593.996	181.625	0.189	0.277
-592.982	182.625	0.168	0.247
-591.967	-200.000	-0.010	-0.258
-590.952	-129.225	-0.291	0.040
-589.938	-22.632	-0.153	-0.092
-588.923	88.972	-0.150	-0.167
-587.909	-125.092	-0.197	-0.030
-586.894	-93.945	-0.223	-0.061
-585.879	142.045	0.104	-0.138
-584.865	191.665	-0.220	0.330
-583.850	231.045	-0.127	-0.207
-582.836	800.000	-0.054	0.206
-581.821	186.678	0.036	-0.053
-580.806	-45.516	0.060	-0.029
-579.792	93.580	0.286	-0.322
-578.777	-94.454	-0.133	-0.036
-577.763	42.854	-0.130	0.118
-576.748	-152.516	0.071	0.005
-575.733	56.892	0.288	-0.279
-574.719	621.376	0.099	0.247
-573.704	4.057	-0.151	0.110
-572.690	166.202	0.031	0.044
-571.675	-83.516	0.266	0.085
-570.661	-58.631	0.179	0.077
-569.646	-154.994	0.154	-0.010
-568.631	185.725	-0.175	-0.259
-567.617	800.000	-0.019	-0.077
-566.602	-200.000	-0.019	-0.231
-565.588	329.304	-0.070	-0.133
-564.573	-119.542	0.423	-0.073
-563.558	800.000	0.138	0.514
-562.544	-98.261	0.211	0.054
-561.529	151.565	0.067	0.091
-560.515	-124.824	0.138	-0.021
-559.500	-33.787	-0.155	-0.085
-558.485	357.095	-0.189	-0.376
-557.471	-200.000	0.017	-0.077
-556.456	-94.906	0.066	-0.018
-555.442	110.943	0.068	-0.082
-554.427	-91.541	-0.195	0.055
-553.412	56.912	0.037	0.036
-552.398	-30.853	0.160	-0.090
-551.383	-49.109	-0.309	-0.147
-550.369	310.111	-0.134	-0.250
-549.354	-104.344	0.401	-0.092
-548.339	157.636	0.261	0.360
-547.325	-86.191	0.184	-0.057
-546.310	283.905	-0.040	-0.071
-545.296	26.753	-0.239	-0.199
-544.281	-57.729	0.086	0.038
-543.266	-200.000	-0.039	0.459
-542.252	-200.000	-0.001	-0.259
-541.237	-200.000	-0.038	0.366
-540.223	34.648	-0.211	0.184
-539.208	161.348	-0.062	-0.086
-538.193	59.541	0.078	-0.076
-537.179	-80.495	-0.066	0.022
-536.164	-11.741	-0.294	0.192
-535.150	94.919	-0.339	0.384
-534.135	-78.412	0.191	-0.065
-533.121	-41.326	-0.356	-0.182
-532.106	207.939	0.170	0.263
-531.091	574.329	0.072	0.175
-530.077	219.271	0.156	0.249
-529.062	-28.671	0.154	-0.088
-528.048	-116.202	-0.139	-0.026
-527.033	127.284	-0.138	-0.175
-526.018	-97.589	-0.033	-0.009
-525.004	-23.885	-0.099	-0.059
-523.989	-200.000	0.019	0.105
-522.975	119.300	-0.173	-0.213
-521.960	52.751	-0.291	-0.277
-520.945	-141.449	0.457	-0.046
-519.931	14.753	-0.152	-0.118
-518.916	-43.308	0.107	-0.054
-517.902	290.432	-0.186	-0.337
-516.887	-196.915	0.440	0.003
-515.872	-85.111	0.164	0.051
-514.858	800.000	-0.097	0.280
-513.843	102.862	0.165	0.191
-512.829	37.946	-0.283	0.250
-511.814	96.331	0.152	0.173
-510.799	181.183	0.052	-0.076
-509.785	-105.427	-0.202	-0.046
-508.770	16.393	-0.495	0.388
-507.756	794.457	-0.064	-0.176
-506.741	142.343	0.077	0.101
-505.726	69.656	-0.028	0.028
-504.712	336.884	-0.136	0.261
-503.697	-82.503	0.276	0.089
-502.683	-52.990	-0.166	0.076
-501.668	-106.648	-0.223	-0.049
-500.653	35.860	0.147	-0.129
-499.639	190.547	0.008	-0.012
-498.624	-76.920	-0.390	-0.135
-497.610	-68.703	-0.100	-0.038
-496.595	-2.146	0.357	-0.249
-495.581	800.000	-0.111	-0.347
-494.566	237.802	-0.084	0.138
-493.551	55.471	0.344	0.331
-492.537	358.242	0.161	-0.320
-491.522	-161.767	-0.258	-0.013
-490.508	90.936	0.233	0.260
-489.493	80.378	-0.050	-0.054
-488.478	-27.102	0.253	-0.146
-487.464	79.143	-0.142	-0.151
-486.449	92.346	-0.298	0.334
-485.435	-76.511	-0.336	0.117
-484.420	-200.000	0.035	0.232
-483.405	-142.265	-0.088	0.009
-482.391	-67.324	-0.183	0.071
-481.376	7.945	0.091	-0.067
-480.362	-33.934	-0.253	-0.138
-479.347	-200.000	-0.373	0.001
-478.332	-162.707	0.486	0.024
-477.318	800.000	-0.079	-0.271
-476.303	109.898	0.308	0.366
-475.289	-117.629	0.031	-0.006
-474.274	-197.924	-0.131	0.001
-473.259	18.398	0.203	-0.161
-472.245	-200.000	-0.006	0.043
-471.230	-200.000	-0.003	-0.070
-470.216	15.580	-0.066	0.051
-469.201	14.515	-0.102	0.079
-468.186	-116.246	-0.321	0.059
-467.172	-115.697	-0.196	0.037
-466.157	-1.812	-0.197	0.137
-465.143	112.800	-0.179	-0.215
-464.128	114.363	-0.051	-0.061
-463.113	-43.341	-0.252	0.126
-462.099	-0.727	0.195	0.137
-461.084	-200.000	-0.031	0.153
-460.070	-200.000	-0.057	-0.349
-459.055	121.113	-0.177	0.219
-458.040	-200.000	0.046	0.414
-457.026	-18.226	-0.118	-0.073
-456.011	-47.240	0.321	0.155
-454.997	800.000	0.104	0.362
-453.982	-138.941	-0.043	0.005
-452.968	-200.000	0.031	-0.438
-451.953	51.465	-0.187	0.176
-450.938	8.925	-0.187	-0.140
-449.924	-120.377	-0.143	-0.024
-448.909	739.419	0.060	0.161
-447.895	176.628	0.029	0.041
-446.880	13.006	-0.226	0.173
-445.865	-58.356	0.095	-0.041
-444.851	535.230	0.115	0.271
-443.836	-200.000	0.024	0.287
-442.822	-200.000	-0.006	-0.123
-441.807	-188.026	0.486	-0.006
-440.792	-200.000	-0.003	0.211
-439.778	800.000	-0.055	0.154
-438.763	482.886	-0.020	0.046
-437.749	59.635	-0.143	-0.140
-436.734	63.634	-0.070	0.069
-435.719	-200.000	-0.088	0.423
-434.705	365.902	-0.159	0.318
-433.690	-200.000	-0.011	0.097
-432.676	-200.000	0.007	-0.092
-431.661	800.000	0.044	-0.161
-430.646	-83.727	0.339	0.107
-429.632	-200.000	0.005	0.142
-428.617	481.596	-0.075	-0.169
-427.603	15.791	-0.054	0.042
-426.588	286.698	0.047	-0.084
-425.573	100.787	-0.110	0.126
-424.559	-139.869	-0.201	0.021
-423.544	131.018	-0.091	-0.116
-422.530	-200.000	-0.005	0.378
-421.515	-50.220	0.054	-0.025
-420.500	-185.553	0.375	-0.006
-419.486	207.348	0.044	0.068
-418.471	42.131	0.133	0.120
-417.457	-13.938	0.086	-0.055
-416.442	-33.443	-0.505	-0.276
-415.428	-116.375	0.298	0.054
-414.413	93.311	0.367	-0.410
-413.398	800.000	0.079	0.294
-412.384	-28.439	-0.142	0.081
-411.369	-159.607	-0.430	-0.024
-410.355	53.448	-0.092	-0.087
-409.340	54.044	-0.188	0.179
-408.325	-98.348	-0.105	-0.027
-407.311	-200.000	-0.002	-0.028
-406.296	-17.915	-0.051	0.032
-405.282	127.757	0.154	-0.193
-404.267	54.401	-0.165	0.157
-403.252	-2.759	-0.076	-0.052
-402.238	423.378	0.085	-0.180
-401.223	-200.000	-0.017	-0.086
-400.209	-200.000	-0.016	0.296
-399.194	230.030	-0.114	0.185
-398.179	100.013	0.153	-0.175
-397.165	30.304	-0.049	0.041
-396.150	-139.129	0.003	-0.000
-395.136	-200.000	-0.007	-0.164
-394.121	363.385	-0.039	-0.077
-393.106	228.093	-0.058	-0.094
-392.092	-200.000	-0.062	0.346
-391.077	3.048	-0.185	-0.133
-390.063	-200.000	-0.016	0.134
-389.048	-185.456	-0.150	0.002
-388.033	-169.994	0.215	0.008
-387.019	-31.040	0.133	0.074
-386.004	-200.000	0.002	-0.233
-384.990	-200.000	0.022	-0.131
-383.975	118.871	-0.146	-0.179
-382.960	180.505	0.195	-0.283
-381.946	-73.512	-0.138	-0.050
-380.931	207.819	0.193	0.297
-379.917	378.604	0.037	0.075
-378.902	49.232	-0.172	-0.159
-377.888	-200.000	-0.005	-0.090
-376.873	-13.418	0.334	-0.214
-375.858	-92.403	0.344	0.096
-374.844	390.928	-0.114	-0.233
-373.829	-200.000	0.058	0.343
-372.815	-38.379	-0.089	-0.047
-371.800	-155.389	-0.095	-0.006
-370.785	97.204	0.093	0.105
-369.771	-87.983	0.277	-0.082
-368.756	-200.000	-0.012	0.258
-367.742	-5.324	-0.111	0.075
-366.727	-89.610	0.135	0.039
-365.712	-50.349	-0.113	-0.053
-364.698	-52.106	0.236	0.108
-363.683	626.015	-0.086	-0.215
-362.669	-200.000	-0.033	-0.218
-361.654	180.259	-0.062	-0.090
-360.639	70.075	-0.249	0.254
-359.625	-170.420	-0.245	0.008
-358.610	-200.000	0.040	-0.231
-357.596	34.320	0.126	0.109
-356.581	58.342	-0.104	-0.101
-355.566	-200.000	-0.009	0.279
-354.552	-200.000	0.014	-0.183
-353.537	-200.000	0.013	-0.104
-352.523	-200.000	0.002	0.202
-351.508	-116.519	-0.148	-0.027
-350.493	-200.000	-0.024	-0.234
-349.479	15.266	0.036	-0.028
-348.464	164.036	-0.166	-0.231
-347.450	29.897	0.178	-0.149
-346.435	-200.000	0.067	0.394
-345.420	46.107	-0.125	-0.114
-344.406	117.396	-0.245	-0.298
-343.391	800.000	-0.074	0.258
-342.377	800.000	0.031	-0.085
-341.362	-200.000	0.010	0.089
-340.348	-33.763	-0.202	0.110
-339.333	-200.000	-0.028	-0.155
-338.318	90.147	-0.197	-0.217
-337.304	309.167	0.071	-0.130
-336.289	34.458	0.184	-0.158
-335.275	-96.292	-0.597	-0.156
-334.260	-200.000	0.002	-0.193
-333.245	275.321	0.173	-0.302
-332.231	-66.563	-0.099	0.039
-331.216	453.937	0.071	0.154
-330.202	-200.000	0.012	-0.114
-329.187	-105.924	0.408	0.091
-328.172	592.019	-0.053	0.128
-327.158	-200.000	0.055	0.247
-326.143	19.416	-0.138	-0.109
-325.129	800.000	0.054	0.157
-324.114	-82.971	0.203	0.064
-323.099	-200.000	-0.021	-0.138
-322.085	-59.218	-0.180	0.076
-321.070	-63.962	-0.124	-0.050
-320.056	199.160	0.097	0.147
-319.041	145.433	-0.084	0.111
-318.026	68.201	-0.128	0.130
-317.012	107.955	-0.194	0.228
-315.997	144.597	-0.095	-0.126
-314.983	137.887	-0.205	-0.265
-313.968	-200.000	-0.033	0.179
-312.953	134.299	0.114	0.146
-311.939	-18.099	-0.150	-0.093
-310.924	-170.109	-0.327	0.011
-309.910	-29.546	-0.250	-0.141
-308.895	800.000	0.100	0.330
-307.880	424.940	0.047	-0.099
-306.866	-200.000	-0.031	0.301
-305.851	50.649	-0.213	0.198
-304.837	245.470	0.192	0.318
-303.822	800.000	-0.041	-0.171
-302.807	65.140	-0.161	-0.160
-301.793	339.775	0.108	0.207
-300.778	-200.000	0.010	0.347
-299.764	800.000	-0.026	-0.081
-298.749	-200.000	-0.010	0.178
-297.735	-122.449	-0.213	-0.034
-296.720	-24.336	-0.208	0.122
-295.705	282.019	-0.136	-0.241
-294.691	-9.288	0.122	0.081
-293.676	800.000	0.028	-0.120
-292.662	147.430	0.136	-0.181
-291.647	-200.000	-0.031	0.144
-290.632	-49.110	0.200	-0.094
-289.618	800.000	-0.116	0.399
-288.603	-200.000	0.018	-0.128
-287.589	592.783	0.051	-0.124
-286.574	-107.207	0.138	-0.030
-285.559	89.311	-0.149	-0.164
-284.545	658.042	0.074	-0.188
-283.530	-146.983	0.244	-0.021
-282.516	800.000	0.034	-0.103
-281.501	-200.000	0.008	-0.207
-280.486	-200.000	-0.016	-0.187
-279.472	-50.685	0.171	0.079
-278.457	190.979	0.006	0.010
-277.443	-40.846	0.180	-0.092
-276.428	-149.023	0.210	-0.017
-275.413	-110.378	-0.271	0.055
-274.399	-11.644	-0.121	0.078
-273.384	203.409	-0.088	-0.134
-272.370	800.000	0.024	0.082
-271.355	59.565	-0.099	0.096
-270.340	-52.572	-0.140	0.064
-269.326	-200.000	0.041	0.353
-268.311	-88.998	0.221	0.064
-267.297	159.913	0.101	-0.138
-266.282	110.664	-0.149	0.177
-265.267	-167.429	0.358	0.014
-264.253	-101.786	-0.240	0.057
-263.238	-200.000	0.005	-0.031
-262.224	-86.580	0.181	0.054
-261.209	-31.645	-0.120	-0.066
-260.195	-49.741	0.234	-0.109
-259.180	-54.328	-0.154	-0.069
-258.165	-200.000	-0.007	-0.126
-257.151	10.010	-0.184	-0.137
-256.136	-200.000	0.030	0.254
-255.122	-200.000	0.029	0.361
-254.107	-154.370	0.222	0.015
-253.092	141.177	0.151	0.196
-252.078	-102.302	0.258	-0.061
-251.063	27.827	-0.214	-0.177
-250.049	194.997	-0.021	0.031
-249.034	3.501	-0.102	-0.073
-248.019	276.910	0.276	-0.482
-247.005	29.566	-0.240	-0.201
-245.990	221.780	0.091	-0.143
-244.976	-200.000	-0.010	0.276
-243.961	800.000	0.031	-0.128
-242.946	-134.344	0.265	0.032
-241.932	-200.000	-0.077	-0.363
-240.917	-80.280	-0.114	-0.037
-239.903	1.951	-0.374	0.265
-238.888	800.000	-0.019	-0.069
-237.873	-200.000	-0.031	-0.305
-236.859	-200.000	-0.038	0.289
-235.844	800.000	-0.056	-0.163
-234.830	-56.139	0.332	-0.145
-233.815	-80.048	0.342	0.113
-232.800	-174.053	0.236	-0.007
-231.786	-200.000	-0.010	-0.063
-230.771	-178.356	0.247	0.006
-229.757	442.522	-0.140	0.300
-228.742	5.353	0.298	-0.216
-227.727	-200.000	-0.015	-0.199
-226.713	157.967	0.101	-0.137
-225.698	-200.000	-0.049	-0.471
-224.684	-200.000	-0.010	0.112
-223.669	385.287	-0.086	0.174
-222.655	3.365	0.105	0.075
-221.640	-149.117	0.332	-0.026
-220.625	17.125	0.307	0.239
-219.611	74.715	0.258	-0.266
-218.596	188.876	0.192	0.282
-217.582	-33.380	-0.142	0.077
-216.567	291.944	0.110	0.197
-215.552	-168.563	0.337	-0.013
-214.538	129.543	0.306	-0.383
-213.523	59.677	0.161	0.156
-212.509	342.890	0.127	-0.245
-211.494	-100.385	-0.114	0.028
-210.479	-15.200	0.069	-0.043
-209.465	-30.505	0.163	-0.091
-208.450	800.000	0.090	-0.268
-207.436	280.757	0.178	-0.312
-206.421	800.000	-0.053	0.202
-205.406	800.000	0.067	0.188
-204.392	55.409	-0.088	0.084
-203.377	800.000	0.062	0.234
-202.363	534.970	0.062	0.145
-201.348	800.000	0.041	-0.124
-200.333	438.615	-0.124	0.266
-199.319	74.086	-0.236	0.243
-198.304	83.199	-0.046	0.049
-197.290	-105.189	-0.185	0.041
-196.275	-35.552	0.166	0.088
-195.260	360.082	-0.171	0.336
-194.246	800.000	-0.069	0.264
-193.231	183.498	0.143	0.207
-192.217	800.000	-0.060	-0.181
-191.202	21.706	-0.165	0.132
-190.187	-200.000	0.023	0.158
-189.173	-145.079	0.471	-0.042
-188.158	800.000	0.019	0.056
-187.144	-200.000	0.017	-0.169
-186.129	27.760	-0.134	-0.111
-185.114	-200.000	0.018	0.154
-184.100	-145.739	0.203	-0.018
-183.085	-102.672	-0.285	-0.067
-182.071	140.898	-0.237	-0.307
-181.056	-91.927	0.261	0.072
-180.042	235.125	0.007	0.011
-179.027	111.336	0.116	0.137
-178.012	25.291	-0.123	-0.101
-176.998	-103.748	0.215	-0.049
-175.983	29.647	-0.210	-0.175
-174.969	161.210	-0.119	-0.163
-173.954	-57.421	-0.298	-0.128
-172.939	53.176	0.153	-0.144
-171.925	-200.000	0.037	-0.199
-170.910	54.805	-0.100	0.095
-169.896	-8.973	-0.174	0.114
-168.881	800.000	-0.071	-0.279
-167.866	64.154	0.150	-0.148
-166.852	-62.171	0.081	0.033
-165.837	9.359	-0.133	-0.098
-164.823	171.022	-0.111	-0.156
-163.808	-50.504	0.187	-0.086
-162.793	31.645	0.185	-0.156
-161.779	554.600	-0.059	-0.140
-160.764	-200.000	0.042	-0.257
-159.750	-114.453	0.113	0.021
-158.735	-200.000	-0.032	0.282
-157.720	-31.492	-0.173	0.095
-156.706	127.539	-0.170	-0.212
-155.691	-54.493	0.111	0.049
-154.677	-200.000	-0.032	0.248
-153.662	136.433	0.082	0.105
-152.647	398.635	-0.081	-0.167
-151.633	308.905	0.056	-0.102
-150.618	90.949	-0.146	0.160
-149.604	-200.000	0.109	0.474
-148.589	-81.189	0.133	-0.043
-147.574	11.476	0.281	-0.211
-146.560	-200.000	0.000	0.003
-145.545	800.000	-0.038	0.161
-144.531	-165.494	0.393	0.017
-143.516	140.234	-0.090	0.116
-142.502	114.700	0.361	0.430
-141.487	-115.733	-0.277	-0.051
-140.472	-200.000	0.028	0.252
-139.458	-200.000	0.063	0.286
-138.443	210.597	0.138	-0.213
-137.429	10.445	-0.150	0.112
-136.414	-136.603	-0.199	-0.023
-135.399	521.572	0.102	0.234
-134.385	800.000	0.051	-0.142
-133.370	170.394	0.107	-0.150
-132.356	-147.690	-0.320	0.026
-131.341	-86.482	-0.156	-0.047
-130.326	-200.000	-0.018	-0.095
-129.312	787.298	0.115	0.309
-128.297	-97.160	-0.488	-0.125
-127.283	107.716	-0.151	0.176
-126.268	-200.000	0.012	-0.170
-125.253	-158.989	-0.185	0.010
-124.239	-48.677	-0.199	0.093
-123.224	27.378	0.204	-0.168
-122.210	667.638	-0.067	0.170
