DTS Sentinel unit serial number:	SN413079Multiplexer serial number:	ORYXHardware model number:	OX4-SRSoftware version number:	ORYX F/W v4.00 Oryx Data Collector v3.7.2.0data status	okinstallation	princeton_trtdifferential loss correction	single-endedforward channel	channel 1reverse channel	N/Adate	2019/09/12time	14:36:11forward acquisition time	60.00reverse acquisition time	0.00gamma	496.2192k internal	0.2293k external	0.2293temperature offset calibration	1.0054default loss term (dB/km)	0.3790temperature slope calibration	1.0000multiplexer offset coefficient	1.0000multiplexer slope coefficient	1.0000fibre end	0.00T internal ref (°C)	40.06T ext. ref 1 (°C)	2.27T ext. ref 2 (°C)	36.14length (m)	temperature (°C)	Stokes	anti-Stokes-747.200	800.000	0.091	0.313
-746.185	800.000	0.067	0.232
-745.171	232.839	-0.102	-0.172
-744.156	-99.966	-0.034	-0.009
-743.142	-200.000	-0.030	-0.165
-742.127	-200.000	0.038	0.245
-741.112	-104.368	0.337	0.080
-740.098	-200.000	0.005	0.106
-739.083	-132.288	0.256	-0.034
-738.069	-126.155	-0.111	0.017
-737.054	22.743	-0.222	0.186
-736.039	-149.963	-0.176	0.014
-735.025	-200.000	0.014	0.156
-734.010	193.045	-0.184	0.284
-732.996	-103.107	-0.396	-0.096
-731.981	-124.954	-0.022	0.003
-730.966	-79.503	-0.239	-0.083
-729.952	60.183	-0.194	-0.196
-728.937	45.017	-0.237	0.223
-727.923	-200.000	0.031	0.201
-726.908	-200.000	0.002	0.100
-725.894	-15.240	-0.325	-0.212
-724.879	-78.374	0.097	-0.034
-723.864	-43.635	0.111	-0.057
-722.850	207.815	0.203	0.324
-721.835	87.271	-0.215	0.242
-720.821	-200.000	0.015	0.144
-719.806	-200.000	0.038	-0.304
-718.791	37.076	-0.177	0.160
-717.777	800.000	0.081	-0.285
-716.762	-200.000	-0.013	-0.143
-715.748	-67.827	0.269	0.107
-714.733	-185.340	0.112	-0.002
-713.718	800.000	-0.035	-0.112
-712.704	-200.000	0.019	-0.088
-711.689	-64.188	0.172	-0.072
-710.675	-98.088	-0.464	0.122
-709.660	-200.000	0.054	0.458
-708.645	-86.565	0.186	0.058
-707.631	28.140	-0.149	-0.129
-706.616	800.000	0.052	-0.223
-705.602	103.472	-0.248	-0.297
-704.587	-103.291	-0.099	0.024
-703.572	-62.165	-0.056	-0.024
-702.558	221.869	-0.128	-0.210
-701.543	-200.000	-0.009	0.270
-700.529	-200.000	-0.001	0.253
-699.514	-17.090	-0.161	-0.104
-698.499	-54.551	0.187	-0.086
-697.485	-200.000	-0.016	-0.247
-696.470	-81.275	0.163	-0.055
-695.456	800.000	0.035	0.121
-694.441	137.887	-0.166	0.222
-693.426	-200.000	-0.015	0.344
-692.412	-121.574	0.553	-0.094
-691.397	25.690	-0.194	-0.165
-690.383	-129.716	0.417	-0.059
-689.368	-200.000	-0.027	-0.177
-688.354	565.816	-0.177	-0.437
-687.339	800.000	-0.056	0.212
-686.324	-57.472	0.150	-0.067
-685.310	260.664	-0.085	-0.150
-684.295	5.643	-0.477	-0.360
-683.281	159.666	0.253	-0.359
-682.266	259.237	0.100	0.175
-681.251	231.820	-0.217	0.363
-680.237	-200.000	0.028	-0.255
-679.222	260.206	0.111	0.196
-678.208	687.292	-0.011	0.029
-677.193	-91.266	-0.048	-0.014
-676.178	-200.000	-0.034	-0.270
-675.164	76.818	-0.158	-0.172
-674.149	-14.905	-0.525	-0.343
-673.135	16.240	0.186	-0.150
-672.120	-103.565	0.158	-0.038
-671.105	-12.674	0.040	0.026
-670.091	-147.025	-0.120	-0.011
-669.076	-200.000	-0.090	-0.406
-668.062	-200.000	-0.042	-0.362
-667.047	20.243	-0.165	-0.136
-666.032	-200.000	0.005	-0.077
-665.018	357.603	-0.193	-0.394
-664.003	94.737	0.059	-0.068
-662.989	121.403	0.076	0.097
-661.974	-63.570	-0.139	-0.058
-660.959	-46.438	-0.334	-0.167
-659.945	-200.000	0.003	0.126
-658.930	-98.956	0.043	-0.011
-657.916	-200.000	-0.024	0.120
-656.901	-200.000	0.082	-0.430
-655.886	-145.069	0.103	0.010
-654.872	76.899	0.032	-0.035
-653.857	800.000	0.031	-0.087
-652.843	126.468	-0.102	0.132
-651.828	-144.201	0.195	0.019
-650.814	-128.729	0.081	0.012
-649.799	-30.922	-0.163	0.094
-648.784	501.957	-0.150	-0.353
-647.770	542.128	0.069	0.167
-646.755	-200.000	-0.007	0.266
-645.741	320.483	-0.125	0.242
-644.726	-200.000	0.000	-0.298
-643.711	800.000	0.027	0.098
-642.697	-8.489	-0.118	-0.081
-641.682	-200.000	0.011	0.074
-640.668	193.645	-0.151	-0.233
-639.653	-200.000	0.013	0.094
-638.638	-97.848	0.292	-0.077
-637.624	-188.623	-0.482	-0.006
-636.609	-119.061	-0.079	-0.014
-635.595	-147.469	0.058	-0.005
-634.580	175.807	-0.226	-0.334
-633.565	5.697	0.350	-0.264
-632.551	-53.122	0.138	0.065
-631.536	41.696	-0.214	-0.197
-630.522	-90.790	0.128	0.037
-629.507	-64.678	-0.137	-0.056
-628.492	-67.223	-0.136	0.055
-627.478	170.086	-0.011	0.016
-626.463	800.000	-0.113	-0.341
-625.449	800.000	-0.004	0.016
-624.434	-200.000	-0.029	-0.179
-623.419	90.110	-0.133	0.152
-622.405	251.998	-0.089	-0.154
-621.390	-200.000	0.039	-0.284
-620.376	-84.008	-0.161	-0.052
-619.361	-200.000	-0.002	0.162
-618.346	-107.415	0.127	-0.028
-617.332	-152.744	-0.199	-0.014
-616.317	40.397	-0.170	-0.155
-615.303	800.000	-0.023	0.075
-614.288	-200.000	-0.030	0.185
-613.273	76.605	0.064	-0.069
-612.259	-69.118	-0.298	-0.117
-611.244	-8.459	0.197	-0.135
-610.230	-30.890	-0.119	-0.068
-609.215	-67.600	0.381	-0.152
-608.201	407.172	-0.135	0.290
-607.186	-200.000	0.004	-0.049
-606.171	-19.692	0.170	-0.107
-605.157	-64.402	0.331	-0.137
-604.142	253.199	-0.127	-0.221
-603.128	800.000	-0.016	-0.046
-602.113	-149.397	0.128	-0.010
-601.098	-38.384	-0.297	-0.160
-600.084	51.711	-0.209	0.202
-599.069	247.655	0.199	-0.343
-598.055	-200.000	0.010	0.312
-597.040	-151.452	0.149	-0.011
-596.025	147.162	0.217	0.296
-595.011	6.850	0.136	-0.103
-593.996	767.193	0.101	-0.280
-592.982	-152.992	-0.439	-0.031
-591.967	-16.044	0.450	0.291
-590.952	96.560	-0.131	0.153
-589.938	-88.183	0.361	-0.110
-588.923	564.130	-0.084	0.206
-587.909	800.000	-0.022	0.062
-586.894	-44.943	-0.101	-0.051
-585.879	36.929	-0.072	-0.064
-584.865	-69.165	-0.421	-0.165
-583.850	-200.000	0.000	-0.234
-582.836	-132.291	0.208	-0.027
-581.821	-117.162	0.321	-0.059
-580.806	-149.594	-0.202	0.016
-579.792	63.370	-0.294	0.300
-578.777	-200.000	0.002	-0.195
-577.763	21.892	-0.104	-0.086
-576.748	-119.432	-0.084	0.015
-575.733	-19.045	-0.309	-0.195
-574.719	800.000	-0.020	-0.072
-573.704	59.500	0.139	0.139
-572.690	235.025	0.126	0.211
-571.675	60.750	-0.231	-0.233
-570.661	-200.000	-0.029	0.169
-569.646	-164.301	-0.224	-0.010
-568.631	29.055	0.315	-0.271
-567.617	424.310	-0.205	0.448
-566.602	189.168	0.093	-0.142
-565.588	-189.149	-0.190	0.002
-564.573	-35.283	0.211	-0.117
-563.558	97.599	0.128	0.150
-562.544	59.098	0.230	0.230
-561.529	178.307	0.118	-0.174
-560.515	263.438	-0.048	0.084
-559.500	24.163	0.241	0.202
-558.485	44.858	-0.232	0.217
-557.471	-177.070	0.289	0.007
-556.456	-66.718	0.179	0.072
-555.442	160.844	0.057	-0.080
-554.427	-163.799	-0.047	0.002
-553.412	40.276	-0.071	-0.065
-552.398	-71.346	-0.207	0.079
-551.383	-34.021	-0.048	0.027
-550.369	800.000	-0.028	-0.115
-549.354	-200.000	-0.010	0.101
-548.339	-105.726	0.418	0.096
-547.325	-200.000	0.022	-0.318
-546.310	-131.495	0.240	-0.032
-545.296	-200.000	0.028	-0.153
-544.281	166.422	-0.141	-0.204
-543.266	499.696	0.004	0.010
-542.252	71.668	-0.135	-0.143
-541.237	295.502	0.095	0.177
-540.223	623.865	-0.171	-0.437
-539.208	-167.885	-0.102	0.004
-538.193	-200.000	0.021	0.333
-537.179	800.000	-0.047	-0.203
-536.164	268.214	-0.218	-0.388
-535.150	-200.000	0.031	-0.153
-534.135	370.403	0.141	-0.289
-533.121	744.766	-0.079	0.215
-532.106	800.000	-0.072	-0.228
-531.091	88.145	0.067	0.075
-530.077	-200.000	0.005	0.029
-529.062	82.488	-0.301	0.332
-528.048	17.819	0.114	0.092
-527.033	-200.000	-0.005	-0.253
-526.018	-200.000	0.005	-0.080
-525.004	170.582	0.106	0.153
-523.989	-200.000	-0.011	0.189
-522.975	415.220	-0.107	-0.231
-521.960	-126.874	0.214	-0.032
-520.945	57.504	-0.074	-0.074
-519.931	49.087	0.253	0.241
-518.916	438.403	-0.144	0.318
-517.902	-8.850	-0.097	-0.066
-516.887	800.000	-0.070	-0.290
-515.872	575.361	0.106	0.262
-514.858	-182.925	0.257	0.005
-513.843	280.111	0.043	-0.078
-512.829	174.007	0.211	-0.309
-511.814	-200.000	-0.007	0.385
-510.799	775.576	-0.106	0.293
-509.785	-200.000	0.068	-0.489
-508.770	237.547	0.166	-0.278
-507.756	338.122	-0.065	0.128
-506.741	800.000	0.035	-0.116
-505.726	-144.053	0.078	-0.007
-504.712	348.096	-0.053	-0.107
-503.697	145.614	0.106	0.143
-502.683	420.412	-0.140	-0.304
-501.668	-23.810	0.282	0.171
-500.653	370.758	-0.080	0.164
-499.639	608.306	-0.068	-0.172
-498.624	-200.000	-0.008	-0.246
-497.610	800.000	-0.077	-0.247
-496.595	169.891	0.129	0.186
-495.581	-78.015	-0.306	0.107
-494.566	49.437	-0.094	-0.090
-493.551	77.243	-0.138	-0.149
-492.537	723.548	0.063	-0.171
-491.522	-200.000	-0.013	-0.156
-490.508	-55.584	0.318	-0.144
-489.493	-200.000	-0.003	0.015
-488.478	-154.000	-0.057	0.004
-487.464	130.018	0.160	-0.207
-486.449	-125.026	-0.230	0.036
-485.435	-194.721	0.354	-0.003
-484.420	-178.386	-0.179	-0.004
-483.405	-102.575	0.112	0.027
-482.391	257.426	-0.198	0.345
-481.376	48.466	0.284	0.269
-480.362	800.000	0.072	0.288
-479.347	-126.134	0.125	-0.019
-478.332	-137.501	0.246	0.028
-477.318	-200.000	-0.092	0.439
-476.303	158.567	0.054	-0.077
-475.289	459.208	0.030	-0.066
-474.274	312.624	-0.193	-0.368
-473.259	-200.000	0.018	0.165
-472.245	29.835	0.119	0.102
-471.230	317.357	0.046	0.088
-470.216	-135.909	-0.162	-0.019
-469.201	1.288	0.173	0.126
-468.186	-200.000	-0.001	0.057
-467.172	-91.955	-0.108	-0.031
-466.157	-35.634	0.281	-0.154
-465.143	-200.000	0.022	0.321
-464.128	304.198	0.111	0.209
-463.113	232.465	0.019	0.031
-462.099	-32.007	0.110	-0.062
-461.084	46.767	-0.126	-0.119
-460.070	46.814	0.063	0.059
-459.055	-200.000	-0.003	-0.181
-458.040	-6.145	-0.268	0.185
-457.026	-170.991	-0.383	-0.013
-456.011	-79.334	-0.233	0.080
-454.997	63.783	-0.265	0.269
-453.982	-60.768	0.155	0.067
-452.968	-200.000	-0.058	-0.262
-451.953	800.000	0.033	-0.134
-450.938	248.823	0.160	-0.274
-449.924	-52.378	-0.235	-0.110
-448.909	177.652	-0.103	0.151
-447.895	-4.296	-0.291	0.204
-446.880	32.920	0.186	0.163
-445.865	69.497	0.266	-0.277
-444.851	-200.000	0.003	-0.043
-443.836	28.604	-0.109	-0.093
-442.822	417.375	-0.045	0.096
-441.807	800.000	0.058	-0.194
-440.792	97.987	-0.304	-0.354
-439.778	800.000	0.083	0.231
-438.763	-43.580	-0.116	-0.059
-437.749	183.715	-0.237	0.354
-436.734	-200.000	0.003	0.025
-435.719	-200.000	-0.045	0.345
-434.705	42.068	-0.201	0.185
-433.690	-62.228	-0.245	0.103
-432.676	749.391	-0.107	0.291
-431.661	519.261	0.078	0.185
-430.646	105.067	-0.082	-0.098
-429.632	-103.766	-0.108	-0.025
-428.617	-171.555	0.199	-0.007
-427.603	140.396	0.259	0.346
-426.588	-200.000	0.000	-0.133
-425.573	800.000	0.081	-0.318
-424.559	247.518	0.162	0.276
-423.544	-102.897	-0.205	-0.049
-422.530	-0.390	-0.109	-0.078
-421.515	149.966	-0.272	-0.372
-420.500	-156.095	0.272	-0.017
-419.486	-64.366	0.287	0.118
-418.471	225.485	-0.098	-0.161
-417.457	82.659	-0.309	0.339
-416.442	-8.848	-0.084	-0.057
-415.428	-136.456	0.183	-0.021
-414.413	-200.000	-0.005	0.136
-413.398	28.431	0.297	-0.253
-412.384	-200.000	0.064	-0.318
-411.369	800.000	-0.064	0.243
-410.355	298.033	-0.101	0.188
-409.340	621.560	0.040	0.101
-408.325	-200.000	-0.008	-0.130
-407.311	385.206	-0.136	-0.284
-406.296	201.771	-0.118	0.183
-405.282	-200.000	-0.019	0.221
-404.267	-72.411	0.044	0.016
-403.252	70.390	-0.197	-0.205
-402.238	199.782	0.074	0.114
-401.223	71.270	0.153	0.161
-400.209	-106.618	-0.073	-0.016
-399.194	12.547	0.010	0.007
-398.179	800.000	-0.077	-0.257
-397.165	160.185	0.114	-0.160
-396.150	-200.000	-0.050	-0.261
-395.136	-40.610	0.410	-0.215
-394.121	-52.636	-0.168	-0.078
-393.106	800.000	0.056	0.192
-392.092	501.103	-0.155	-0.360
-391.077	-52.220	0.214	0.100
-390.063	-96.387	-0.236	-0.063
-389.048	-90.893	-0.248	0.072
-388.033	-8.923	0.060	-0.040
-387.019	800.000	0.031	0.130
-386.004	-31.941	0.123	0.069
-384.990	800.000	0.084	-0.244
-383.975	198.908	-0.107	0.166
-382.960	-200.000	0.025	0.247
-381.946	-16.299	-0.035	-0.022
-380.931	-9.279	-0.185	-0.125
-379.917	443.641	-0.143	0.316
-378.902	-14.309	-0.198	-0.128
-377.888	-118.726	0.055	-0.010
-376.873	-35.799	-0.106	0.058
-375.858	9.761	-0.258	-0.197
-374.844	81.153	-0.239	-0.261
-373.829	378.429	0.098	0.202
-372.815	29.394	-0.271	-0.232
-371.800	-200.000	0.000	-0.039
-370.785	-200.000	0.031	-0.239
-369.771	-200.000	-0.012	0.066
-368.756	87.568	0.070	0.078
-367.742	-200.000	0.040	-0.357
-366.727	-10.011	-0.106	-0.071
-365.712	672.463	-0.127	-0.333
-364.698	-105.774	-0.182	-0.041
-363.683	-47.738	0.174	0.085
-362.669	165.613	-0.118	0.169
-361.654	-200.000	0.024	-0.269
-360.639	-200.000	0.049	-0.237
-359.625	11.143	0.098	-0.076
-358.610	-137.674	0.164	-0.019
-357.596	21.807	-0.210	-0.172
-356.581	-57.628	0.079	-0.035
-355.566	-128.059	0.281	-0.041
-354.552	234.708	-0.062	-0.103
-353.537	512.035	0.098	-0.229
-352.523	-200.000	-0.043	0.245
-351.508	534.132	-0.077	-0.184
-350.493	-170.756	0.079	-0.003
-349.479	-200.000	-0.082	0.396
-348.464	-200.000	-0.006	0.286
-347.450	9.666	0.180	-0.137
-346.435	7.369	0.081	0.061
-345.420	-200.000	-0.008	-0.042
-344.406	56.680	0.115	-0.113
-343.391	-178.953	0.053	0.001
-342.377	-200.000	-0.016	0.373
-341.362	218.877	-0.150	-0.241
-340.348	-34.647	0.204	0.113
-339.333	36.779	0.130	0.116
-338.318	-31.254	-0.220	0.125
-337.304	43.861	-0.048	-0.044
-336.289	-200.000	-0.001	-0.089
-335.275	494.873	-0.072	-0.167
-334.260	-113.824	0.195	-0.038
-333.245	-5.525	0.121	0.083
-332.231	144.322	-0.215	0.289
-331.216	-172.710	0.098	-0.003
-330.202	-106.814	0.336	0.075
-329.187	-51.853	0.265	0.124
-328.172	49.077	0.170	0.160
-327.158	273.873	-0.163	0.290
-326.143	-200.000	-0.046	0.249
-325.129	800.000	0.088	0.329
-324.114	800.000	-0.049	-0.140
-323.099	293.447	0.149	0.274
-322.085	355.010	0.120	-0.241
-321.070	90.935	0.150	0.169
-320.056	77.681	-0.023	0.025
-319.041	328.931	-0.128	-0.248
-318.026	800.000	-0.036	-0.154
-317.012	800.000	-0.077	-0.299
-315.997	-69.042	-0.313	-0.121
-314.983	-127.574	0.284	0.041
-313.968	360.529	0.145	-0.291
-312.953	223.866	-0.112	0.182
-311.939	-128.329	-0.067	0.010
-310.924	-91.129	0.332	0.096
-309.910	-200.000	-0.010	-0.054
-308.895	-132.352	0.312	0.041
-307.880	71.161	-0.081	-0.085
-306.866	-200.000	0.017	-0.105
-305.851	139.840	0.077	-0.101
-304.837	-200.000	-0.002	0.078
-303.822	800.000	-0.073	0.208
-302.807	-47.878	-0.047	-0.023
-301.793	142.206	-0.072	-0.096
-300.778	28.895	-0.194	0.165
-299.764	-74.581	-0.305	-0.110
-298.749	-15.864	-0.024	0.016
-297.735	-200.000	-0.014	-0.149
-296.720	211.645	-0.114	0.180
-295.705	-200.000	0.165	0.000
-294.691	-129.296	0.244	0.034
-293.676	278.962	-0.106	-0.190
-292.662	-200.000	0.025	0.320
-291.647	-33.468	0.229	0.127
-290.632	146.339	-0.152	0.205
-289.618	133.211	-0.120	-0.155
-288.603	-200.000	0.040	-0.269
-287.589	-100.948	-0.060	0.015
-286.574	-101.510	-0.145	0.035
-285.559	220.720	0.014	0.023
-284.545	-26.196	0.143	0.085
-283.530	-161.830	0.185	-0.009
-282.516	-46.681	0.157	0.077
-281.501	-28.581	0.398	0.230
-280.486	800.000	0.065	0.215
-279.472	-106.849	0.239	-0.053
-278.457	106.010	0.173	-0.205
-277.443	-65.523	-0.065	-0.026
-276.428	-50.431	0.240	0.114
-275.413	-108.183	-0.213	-0.046
-274.399	492.198	0.074	-0.170
-273.384	80.078	0.163	-0.176
-272.370	155.210	0.099	0.137
-271.355	-118.118	-0.265	0.048
-270.340	800.000	0.053	-0.161
-269.326	459.250	0.150	-0.335
-268.311	800.000	-0.021	-0.090
-267.297	800.000	0.015	-0.058
-266.282	79.402	0.124	-0.133
-265.267	-200.000	0.034	0.210
-264.253	-200.000	-0.017	-0.170
-263.238	68.914	-0.073	0.075
-262.224	-200.000	0.014	0.295
-261.209	112.175	0.123	-0.149
-260.195	-129.492	-0.069	0.010
-259.180	-50.814	0.132	-0.062
-258.165	-59.166	-0.246	0.106
-257.151	261.772	-0.107	-0.186
-256.136	17.296	-0.296	0.236
-255.122	17.116	0.074	-0.059
-254.107	68.021	-0.175	-0.180
-253.092	384.354	-0.071	0.147
-252.078	382.135	0.113	-0.233
-251.063	-70.795	-0.149	-0.056
-250.049	23.738	0.082	-0.068
-249.034	-200.000	0.015	0.415
-248.019	338.264	-0.116	0.227
-247.005	211.051	0.105	0.165
-245.990	-81.055	-0.184	0.061
-244.976	-128.871	0.131	-0.018
-243.961	-126.270	-0.160	-0.024
-242.946	800.000	-0.115	-0.319
-241.932	-128.759	-0.518	0.073
-240.917	800.000	-0.070	0.255
-239.903	321.649	-0.222	0.423
-238.888	235.990	0.092	0.153
-237.873	-161.025	0.293	-0.015
-236.859	-19.460	0.273	0.169
-235.844	800.000	0.047	0.181
-234.830	-61.144	0.274	-0.116
-233.815	-60.224	0.196	0.084
-232.800	77.097	-0.089	0.095
-231.786	-200.000	-0.052	0.417
-230.771	-151.671	0.166	0.012
-229.757	105.299	0.084	-0.099
-228.742	-50.241	0.370	-0.176
-227.727	93.838	-0.248	0.282
-226.713	-200.000	-0.026	0.317
-225.698	237.509	0.154	0.255
-224.684	-200.000	0.017	0.409
-223.669	102.535	0.131	0.154
-222.655	23.342	0.085	-0.070
-221.640	-173.479	-0.078	-0.002
-220.625	12.337	0.138	0.106
-219.611	800.000	0.032	-0.117
-218.596	-180.618	-0.155	-0.003
-217.582	90.765	0.186	-0.209
-216.567	-70.135	0.142	0.054
-215.552	-140.726	0.113	0.012
-214.538	-105.625	0.157	0.036
-213.523	800.000	-0.076	0.246
-212.509	-100.758	-0.236	0.058
-211.494	-14.004	-0.451	0.292
-210.479	255.900	0.071	0.122
-209.465	800.000	0.127	0.390
-208.450	-200.000	-0.010	0.116
-207.436	-55.502	-0.111	-0.050
-206.421	156.860	0.175	-0.243
-205.406	-200.000	0.020	-0.440
-204.392	800.000	0.016	0.060
-203.377	-92.153	0.177	-0.050
-202.363	357.567	0.246	0.491
-201.348	77.186	-0.280	-0.298
-200.333	800.000	0.036	-0.152
-199.319	375.137	0.077	-0.157
-198.304	120.538	0.149	-0.186
-197.290	459.875	0.034	-0.077
-196.275	-84.592	-0.162	0.051
-195.260	-0.004	0.203	0.145
-194.246	-24.823	0.068	0.041
-193.231	-113.773	0.202	-0.039
-192.217	-35.791	-0.339	0.184
-191.202	407.898	-0.128	0.271
-190.187	-200.000	0.018	0.126
-189.173	-95.062	-0.352	0.095
-188.158	137.217	0.062	-0.082
-187.144	348.130	0.081	0.159
-186.129	-200.000	-0.023	-0.202
-185.114	141.455	-0.106	-0.141
-184.100	-58.726	0.357	-0.155
-183.085	-113.123	-0.392	0.077
-182.071	-200.000	-0.046	-0.262
-181.056	-200.000	-0.033	-0.204
-180.042	16.465	0.144	0.114
-179.027	-62.360	0.204	0.085
-178.012	-51.925	-0.148	-0.069
-176.998	-176.479	-0.236	0.006
-175.983	51.490	-0.053	0.051
-174.969	33.610	0.141	0.122
-173.954	-69.768	0.194	-0.074
-172.939	-95.153	0.026	-0.007
-171.925	80.554	0.112	0.121
-170.910	-109.393	0.252	0.053
-169.896	-110.239	-0.160	0.033
-168.881	-200.000	-0.086	-0.410
-167.866	73.274	-0.158	0.166
-166.852	25.460	0.138	-0.114
-165.837	-136.063	0.168	-0.020
-164.823	238.076	0.085	-0.142
-163.808	338.338	0.285	0.555
-162.793	96.377	0.219	0.250
-161.779	-200.000	-0.087	0.403
-160.764	137.855	0.142	0.186
-159.750	-40.333	-0.208	-0.108
-158.735	-200.000	-0.017	-0.083
-157.720	32.814	-0.398	-0.344
-156.706	39.364	-0.138	-0.123
-155.691	416.109	0.160	0.342
-154.677	-118.191	-0.137	0.024
-153.662	-121.553	-0.273	0.045
-152.647	800.000	-0.127	-0.479
-151.633	230.196	-0.159	-0.259
-150.618	434.611	-0.146	-0.317
-149.604	-200.000	0.070	-0.419
-148.589	-150.892	0.229	-0.017
-147.574	-200.000	0.023	-0.103
-146.560	-56.698	0.202	-0.089
-145.545	-131.290	0.322	0.043
-144.531	800.000	-0.048	-0.170
-143.516	-103.406	0.483	0.114
-142.502	172.607	0.188	0.270
-141.487	-122.952	-0.376	0.060
-140.472	-138.222	0.216	-0.024
-139.458	-110.979	-0.295	-0.060
-138.443	800.000	-0.067	-0.191
-137.429	13.954	-0.156	0.121
-136.414	800.000	-0.037	0.147
-135.399	-142.080	-0.234	-0.023
-134.385	131.700	0.120	-0.154
-133.370	-10.025	0.058	0.038
-132.356	270.393	-0.050	-0.087
-131.341	189.345	0.123	0.185
-130.326	308.976	0.104	-0.194
-129.312	-123.002	-0.160	0.026
-128.297	-116.645	-0.194	-0.036
-127.283	1.318	-0.089	0.064
-126.268	-200.000	0.016	0.575
-125.253	133.452	0.027	0.035
-124.239	135.605	0.023	-0.030
-123.224	357.660	0.135	-0.269
-122.210	-143.139	0.398	0.038
