DTS Sentinel unit serial number:	SN413079Multiplexer serial number:	ORYXHardware model number:	OX4-SRSoftware version number:	ORYX F/W v4.00 Oryx Data Collector v3.7.2.0data status	okinstallation	princeton_trtdifferential loss correction	single-endedforward channel	channel 1reverse channel	N/Adate	2019/09/14time	00:22:35forward acquisition time	60.00reverse acquisition time	0.00gamma	496.2192k internal	0.2337k external	0.2337temperature offset calibration	1.0074default loss term (dB/km)	0.3790temperature slope calibration	1.0000multiplexer offset coefficient	1.0000multiplexer slope coefficient	1.0000fibre end	0.00T internal ref (°C)	26.50T ext. ref 1 (°C)	3.19T ext. ref 2 (°C)	21.34length (m)	temperature (°C)	Stokes	anti-Stokes-747.200	139.286	0.229	0.303
-746.185	274.593	-0.254	0.452
-745.171	-39.932	0.251	-0.131
-744.156	-27.202	0.129	0.075
-743.142	800.000	0.088	0.262
-742.127	339.018	-0.122	0.239
-741.112	-200.000	0.021	-0.201
-740.098	118.675	-0.204	-0.253
-739.083	-200.000	0.024	0.357
-738.069	38.381	-0.091	0.082
-737.054	619.946	-0.040	-0.101
-736.039	-8.255	-0.488	-0.330
-735.025	644.549	0.045	-0.115
-734.010	-108.634	0.152	0.033
-732.996	800.000	0.102	-0.339
-731.981	478.341	0.147	-0.334
-730.966	800.000	-0.079	-0.310
-729.952	-4.939	0.221	-0.153
-728.937	198.646	-0.099	-0.151
-727.923	-78.051	-0.121	-0.042
-726.908	-172.737	-0.106	-0.003
-725.894	-139.828	-0.174	0.018
-724.879	696.595	-0.088	-0.231
-723.864	-200.000	-0.047	0.218
-722.850	317.201	-0.133	0.252
-721.835	26.494	-0.185	-0.155
-720.821	-32.280	-0.228	0.128
-719.806	105.421	0.032	0.037
-718.791	106.794	-0.232	0.276
-717.777	-200.000	0.027	-0.297
-716.762	148.822	-0.053	0.071
-715.748	-25.786	-0.274	0.162
-714.733	183.934	-0.063	-0.094
-713.718	-200.000	-0.021	-0.284
-712.704	-28.847	-0.272	0.157
-711.689	-200.000	0.027	0.195
-710.675	-200.000	-0.010	0.207
-709.660	73.593	-0.273	-0.286
-708.645	-113.240	0.199	0.039
-707.631	-3.256	-0.218	-0.152
-706.616	12.636	-0.293	-0.227
-705.602	-94.271	0.179	0.049
-704.587	800.000	0.069	0.299
-703.572	15.757	0.308	0.243
-702.558	640.732	0.072	-0.183
-701.543	42.089	0.024	0.022
-700.529	800.000	-0.006	0.024
-699.514	800.000	-0.066	0.190
-698.499	-200.000	0.029	-0.184
-697.485	73.432	-0.048	-0.050
-696.470	-200.000	0.042	-0.243
-695.456	800.000	0.060	-0.213
-694.441	-123.021	0.602	-0.097
-693.426	800.000	-0.073	-0.214
-692.412	-200.000	-0.001	0.203
-691.397	11.485	0.225	0.173
-690.383	-200.000	0.093	-0.470
-689.368	-96.245	0.160	0.043
-688.354	619.080	-0.036	0.090
-687.339	-118.147	0.183	-0.033
-686.324	-83.532	0.107	0.034
-685.310	-67.911	-0.105	0.041
-684.295	-200.000	-0.033	-0.220
-683.281	136.811	-0.104	-0.136
-682.266	3.495	0.075	-0.055
-681.251	-72.980	0.356	0.131
-680.237	76.767	-0.096	-0.102
-679.222	36.539	-0.088	0.078
-678.208	-200.000	0.011	0.143
-677.193	75.173	-0.270	-0.285
-676.178	227.709	-0.202	-0.329
-675.164	425.167	-0.145	-0.313
-674.149	-200.000	0.022	-0.247
-673.135	3.652	0.157	0.114
-672.120	-50.754	0.119	0.056
-671.105	-102.044	-0.157	-0.038
-670.091	143.961	0.165	0.221
-669.076	-149.849	-0.008	-0.001
-668.062	23.379	-0.277	-0.228
-667.047	18.246	-0.042	-0.034
-666.032	512.944	-0.057	0.132
-665.018	-41.043	0.029	-0.015
-664.003	800.000	-0.109	0.312
-662.989	692.161	0.079	-0.206
-661.974	-200.000	-0.018	-0.082
-660.959	-200.000	0.055	0.245
-659.945	-27.110	0.153	0.089
-658.930	-130.024	0.365	0.050
-657.916	-57.735	-0.217	0.095
-656.901	6.978	-0.207	0.154
-655.886	-176.608	0.316	0.008
-654.872	-97.309	0.399	0.104
-653.857	-200.000	-0.026	0.273
-652.843	-82.862	-0.288	-0.093
-651.828	-121.784	-0.112	0.019
-650.814	-28.708	0.226	0.130
-649.799	150.051	0.115	0.156
-648.784	58.698	0.065	-0.063
-647.770	202.569	0.061	0.095
-646.755	800.000	-0.113	0.342
-645.741	-69.608	-0.101	0.039
-644.726	57.267	0.151	0.147
-643.711	57.543	-0.123	0.121
-642.697	-8.538	-0.102	0.068
-641.682	61.070	0.183	0.182
-640.668	39.154	-0.271	-0.242
-639.653	41.219	-0.169	-0.152
-638.638	-36.775	-0.211	-0.113
-637.624	48.278	-0.168	0.157
-636.609	-10.101	-0.163	0.108
-635.595	-200.000	-0.007	-0.166
-634.580	-200.000	0.051	0.401
-633.565	339.918	0.144	0.281
-632.551	800.000	0.015	-0.061
-631.536	-200.000	-0.010	0.097
-630.522	380.060	0.068	-0.139
-629.507	429.389	0.165	-0.356
-628.492	-152.335	-0.098	-0.007
-627.478	160.822	0.151	0.210
-626.463	6.304	-0.076	-0.056
-625.449	-200.000	0.016	-0.215
-624.434	706.515	0.120	-0.316
-623.419	186.939	0.205	-0.306
-622.405	340.285	0.017	0.033
-621.390	123.253	0.053	0.066
-620.376	-122.997	0.045	0.007
-619.361	539.426	-0.044	-0.105
-618.346	261.767	-0.103	-0.178
-617.332	-57.386	-0.104	0.046
-616.317	114.718	-0.026	-0.032
-615.303	-67.132	-0.208	-0.082
-614.288	-155.846	0.232	-0.015
-613.273	-4.359	0.045	-0.031
-612.259	264.265	0.176	0.306
-611.244	-66.085	-0.390	0.155
-610.230	-144.717	-0.280	-0.026
-609.215	-200.000	-0.025	0.218
-608.201	180.140	0.126	0.185
-607.186	-27.804	-0.055	0.032
-606.171	30.829	0.339	0.290
-605.157	-200.000	-0.024	-0.314
-604.142	27.811	-0.163	0.137
-603.128	-200.000	0.038	-0.223
-602.113	-136.442	-0.210	-0.024
-601.098	123.103	-0.070	0.088
-600.084	-112.675	0.223	-0.044
-599.069	-200.000	0.024	-0.218
-598.055	-200.000	-0.010	0.216
-597.040	-24.469	-0.248	-0.147
-596.025	-51.453	0.190	-0.089
-595.011	95.169	0.075	-0.086
-593.996	-25.455	0.187	0.110
-592.982	430.746	-0.207	-0.447
-591.967	483.599	0.041	0.094
-590.952	800.000	0.038	0.105
-589.938	-171.320	-0.308	-0.010
-588.923	-101.031	0.265	0.065
-587.909	-0.490	0.049	-0.034
-586.894	234.458	-0.066	0.108
-585.879	19.656	-0.430	0.345
-584.865	-33.563	-0.320	0.176
-583.850	-28.258	0.082	0.047
-582.836	-200.000	-0.015	-0.127
-581.821	-53.490	-0.257	-0.117
-580.806	165.391	0.060	0.084
-579.792	-117.327	0.225	-0.041
-578.777	-130.826	-0.271	-0.036
-577.763	-93.653	0.165	-0.045
-576.748	17.727	0.089	-0.071
-575.733	62.893	-0.086	0.085
-574.719	-166.206	0.182	0.008
-573.704	254.743	0.122	-0.209
-572.690	724.519	-0.108	0.287
-571.675	-115.392	-0.257	-0.048
-570.661	1.402	-0.291	0.208
-569.646	34.947	-0.160	0.139
-568.631	156.405	-0.129	-0.177
-567.617	-23.560	0.218	0.131
-566.602	-200.000	-0.046	-0.271
-565.588	-103.638	-0.156	-0.036
-564.573	-114.557	0.176	0.034
-563.558	536.413	0.045	0.106
-562.544	-113.358	0.181	-0.035
-561.529	-75.405	-0.218	-0.077
-560.515	490.305	-0.077	0.177
-559.500	-103.428	-0.074	0.017
-558.485	253.979	-0.236	0.401
-557.471	633.889	0.102	-0.257
-556.456	-200.000	0.025	0.196
-555.442	-25.271	-0.173	-0.102
-554.427	297.066	0.143	0.262
-553.412	-19.054	0.256	-0.158
-552.398	77.094	0.106	0.112
-551.383	-61.314	-0.297	0.125
-550.369	40.000	-0.254	0.228
-549.354	-1.076	0.084	0.059
-548.339	62.493	0.101	0.100
-547.325	800.000	0.214	0.611
-546.310	-35.972	-0.178	-0.096
-545.296	-125.436	0.259	0.039
-544.281	-200.000	-0.004	-0.134
-543.266	-117.100	-0.531	-0.096
-542.252	-200.000	0.033	0.175
-541.237	378.668	-0.208	-0.423
-540.223	800.000	-0.100	-0.380
-539.208	-18.621	-0.090	0.056
-538.193	326.831	0.161	-0.307
-537.179	145.109	-0.164	-0.218
-536.164	-113.151	0.264	-0.052
-535.150	-52.486	0.161	-0.074
-534.135	-40.317	-0.249	0.129
-533.121	-6.427	0.090	-0.061
-532.106	-47.056	0.145	0.070
-531.091	284.073	-0.184	-0.329
-530.077	717.031	0.166	-0.439
-529.062	42.208	-0.118	0.107
-528.048	34.643	-0.028	-0.024
-527.033	-200.000	0.017	-0.150
-526.018	-200.000	-0.000	0.030
-525.004	99.953	-0.151	0.174
-523.989	477.621	-0.041	0.092
-522.975	-87.543	-0.291	0.088
-521.960	226.415	0.022	-0.036
-520.945	-154.559	-0.153	-0.010
-519.931	335.204	-0.083	0.160
-518.916	41.136	-0.206	-0.185
-517.902	-3.183	-0.112	-0.078
-516.887	-200.000	0.136	-0.001
-515.872	-200.000	0.008	-0.126
-514.858	-46.585	0.080	-0.039
-513.843	-108.329	0.272	-0.058
-512.829	-200.000	0.000	0.286
-511.814	-67.940	0.012	-0.004
-510.799	192.322	-0.199	0.299
-509.785	33.255	0.228	-0.197
-508.770	159.229	-0.161	-0.222
-507.756	110.160	0.260	0.310
-506.741	94.687	0.178	-0.201
-505.726	140.034	-0.064	-0.083
-504.712	-88.719	-0.134	0.040
-503.697	-193.173	-0.062	0.001
-502.683	201.970	-0.102	-0.157
-501.668	-157.793	0.104	-0.006
-500.653	-200.000	-0.017	-0.603
-499.639	-93.616	-0.242	-0.066
-498.624	-9.171	-0.051	0.034
-497.610	-120.910	-0.365	0.061
-496.595	13.651	-0.195	-0.150
-495.581	800.000	-0.053	0.146
-494.566	58.369	-0.237	0.231
-493.551	157.963	0.140	0.193
-492.537	-200.000	-0.051	0.308
-491.522	-138.003	0.373	-0.041
-490.508	-36.905	0.348	-0.186
-489.493	-187.136	0.138	0.002
-488.478	25.102	0.179	-0.148
-487.464	-113.407	0.276	-0.054
-486.449	678.306	0.129	-0.334
-485.435	800.000	0.068	0.201
-484.420	-40.694	0.432	0.223
-483.405	-200.000	0.012	-0.222
-482.391	-11.646	-0.092	0.060
-481.376	70.775	0.127	-0.130
-480.362	-140.290	0.255	-0.026
-479.347	362.204	-0.098	-0.195
-478.332	-200.000	-0.030	-0.145
-477.318	-117.282	-0.357	0.064
-476.303	-129.835	0.027	-0.004
-475.289	606.879	-0.134	0.333
-474.274	-132.656	-0.381	0.048
-473.259	281.213	0.091	0.162
-472.245	12.440	0.010	-0.008
-471.230	22.429	-0.267	0.217
-470.216	-58.808	-0.188	-0.081
-469.201	101.663	-0.114	-0.132
-468.186	-68.574	-0.180	0.069
-467.172	-177.695	-0.406	0.010
-466.157	180.025	0.139	0.202
-465.143	596.122	0.134	-0.328
-464.128	-13.127	-0.139	-0.089
-463.113	-60.551	0.206	-0.087
-462.099	506.531	0.101	0.232
-461.084	-32.813	-0.062	0.034
-460.070	125.083	0.264	-0.330
-459.055	-200.000	0.033	-0.157
-458.040	37.081	-0.245	-0.215
-457.026	-85.713	0.055	0.017
-456.011	800.000	0.056	-0.171
-454.997	149.509	0.104	-0.140
-453.982	-191.913	-0.130	-0.001
-452.968	-200.000	0.014	-0.074
-451.953	-89.357	0.431	0.126
-450.938	-200.000	0.011	0.203
-449.924	55.498	-0.117	0.113
-448.909	-200.000	-0.043	0.189
-447.895	-200.000	0.002	0.171
-446.880	800.000	-0.032	0.123
-445.865	180.109	0.169	-0.246
-444.851	69.790	-0.116	0.119
-443.836	628.357	-0.058	0.146
-442.822	-200.000	-0.005	0.425
-441.807	-200.000	0.037	-0.243
-440.792	-4.677	-0.261	-0.179
-439.778	-35.147	0.132	-0.071
-438.763	800.000	-0.020	-0.056
-437.749	1.204	0.182	0.130
-436.734	25.266	0.066	-0.055
-435.719	-90.802	-0.233	-0.067
-434.705	120.592	-0.255	-0.315
-433.690	3.503	-0.238	0.172
-432.676	7.645	-0.173	0.129
-431.661	386.866	0.129	0.265
-430.646	455.582	-0.063	0.138
-429.632	800.000	0.033	-0.128
-428.617	-108.366	0.456	-0.098
-427.603	108.485	-0.186	-0.220
-426.588	150.947	0.242	-0.327
-425.573	800.000	-0.120	0.431
-424.559	-46.173	0.133	0.065
-423.544	-96.090	0.259	-0.068
-422.530	-85.707	0.089	0.027
-421.515	52.053	-0.152	0.144
-420.500	603.371	-0.109	0.270
-419.486	-160.337	0.304	-0.016
-418.471	-63.668	0.174	-0.071
-417.457	-176.141	-0.271	0.007
-416.442	-200.000	-0.032	0.287
-415.428	-72.073	0.335	-0.123
-414.413	-118.606	-0.083	-0.014
-413.398	800.000	-0.058	-0.228
-412.384	-200.000	0.008	0.083
-411.369	-200.000	-0.040	0.476
-410.355	-200.000	-0.036	-0.172
-409.340	338.386	0.097	-0.187
-408.325	-42.339	0.258	-0.130
-407.311	-24.525	-0.124	0.073
-406.296	365.963	0.064	0.127
-405.282	-200.000	-0.018	0.386
-404.267	-133.454	0.380	0.047
-403.252	289.852	0.133	-0.240
-402.238	333.114	-0.063	-0.121
-401.223	-31.775	-0.323	-0.179
-400.209	800.000	0.038	0.147
-399.194	446.642	0.065	0.142
-398.179	-57.959	-0.235	-0.102
-397.165	-23.636	0.255	-0.151
-396.150	-200.000	0.022	-0.216
-395.136	149.160	0.195	0.261
-394.121	-77.484	0.127	0.044
-393.106	-200.000	0.011	-0.156
-392.092	800.000	-0.038	-0.136
-391.077	-165.660	0.258	0.011
-390.063	-200.000	-0.007	-0.361
-389.048	-29.302	0.332	-0.188
-388.033	-134.178	0.085	0.010
-387.019	800.000	0.067	0.232
-386.004	-13.584	0.228	0.146
-384.990	-200.000	-0.021	0.220
-383.975	463.329	0.030	0.066
-382.960	-164.771	0.191	-0.009
-381.946	-179.055	-0.098	0.002
-380.931	-133.863	-0.075	-0.009
-379.917	276.068	-0.070	0.123
-378.902	-135.483	-0.274	0.032
-377.888	-72.049	0.110	-0.040
-376.873	-50.709	-0.288	0.134
-375.858	-200.000	-0.001	0.052
-374.844	-175.273	0.232	0.006
-373.829	-200.000	-0.024	0.134
-372.815	-200.000	0.006	0.428
-371.800	-114.279	0.287	-0.055
-370.785	125.714	-0.187	0.234
-369.771	-67.045	-0.466	-0.182
-368.756	40.120	0.143	0.127
-367.742	-200.000	-0.013	-0.338
-366.727	-200.000	0.011	-0.376
-365.712	79.076	-0.195	0.207
-364.698	-71.695	-0.402	-0.148
-363.683	491.485	-0.085	0.192
-362.669	46.428	-0.058	0.053
-361.654	7.993	-0.284	0.211
-360.639	-200.000	0.023	-0.111
-359.625	-119.444	-0.402	-0.069
-358.610	294.977	0.126	-0.227
-357.596	-36.381	-0.040	-0.021
-356.581	287.081	0.208	-0.371
-355.566	-200.000	0.017	0.288
-354.552	-78.389	0.232	-0.079
-353.537	800.000	0.043	0.133
-352.523	-153.515	0.211	-0.014
-351.508	116.614	-0.189	0.229
-350.493	-29.466	0.111	0.063
-349.479	217.731	-0.049	-0.077
-348.464	-126.590	-0.133	-0.020
-347.450	49.596	0.150	0.140
-346.435	199.462	-0.150	0.227
-345.420	800.000	-0.119	-0.329
-344.406	-200.000	-0.046	0.326
-343.391	-40.663	-0.065	-0.033
-342.377	800.000	-0.103	-0.306
-341.362	-49.567	-0.278	0.131
-340.348	152.411	0.161	-0.218
-339.333	-200.000	-0.053	-0.312
-338.318	-80.505	0.160	-0.053
-337.304	-200.000	-0.088	-0.415
-336.289	-200.000	0.027	0.251
-335.275	-96.010	-0.332	0.087
-334.260	241.422	0.102	-0.169
-333.245	-8.548	-0.180	0.119
-332.231	-60.583	0.209	-0.087
-331.216	-83.262	-0.031	-0.010
-330.202	359.923	0.043	-0.085
-329.187	692.834	-0.095	-0.247
-328.172	-200.000	-0.037	0.180
-327.158	141.232	-0.042	0.054
-326.143	-181.711	0.121	-0.002
-325.129	-200.000	-0.015	0.081
-324.114	-92.104	-0.258	-0.072
-323.099	470.353	-0.114	0.254
-322.085	800.000	-0.031	0.124
-321.070	-38.086	0.054	0.028
-320.056	49.930	0.088	-0.082
-319.041	-200.000	0.016	-0.075
-318.026	307.532	0.123	0.227
-317.012	71.595	0.309	0.317
-315.997	-200.000	-0.012	-0.223
-314.983	-136.730	0.157	-0.018
-313.968	363.655	-0.028	0.055
-312.953	-107.943	-0.187	0.040
-311.939	437.616	0.179	-0.384
-310.924	-7.689	-0.291	0.194
-309.910	-200.000	-0.018	-0.132
-308.895	80.799	-0.050	-0.053
-307.880	800.000	-0.082	0.271
-306.866	-200.000	0.072	0.317
-305.851	-191.938	0.022	-0.000
-304.837	711.337	0.046	-0.121
-303.822	800.000	0.071	0.217
-302.807	67.083	0.156	0.157
-301.793	175.354	0.066	-0.094
-300.778	129.064	-0.091	0.115
-299.764	-56.979	0.156	0.068
-298.749	-35.174	-0.073	0.039
-297.735	-200.000	-0.005	0.361
-296.720	800.000	0.098	0.303
-295.705	-149.552	0.201	-0.016
-294.691	96.252	0.047	-0.053
-293.676	67.280	-0.019	0.019
-292.662	-8.328	-0.118	0.078
-291.647	199.877	0.102	-0.154
-290.632	800.000	0.062	-0.232
-289.618	-138.188	-0.238	0.026
-288.603	-52.057	0.320	-0.146
-287.589	599.397	0.054	0.131
-286.574	-200.000	0.018	-0.108
-285.559	16.585	0.161	0.125
-284.545	-133.166	0.361	-0.045
-283.530	800.000	-0.093	-0.288
-282.516	89.280	0.044	-0.048
-281.501	-126.030	0.352	-0.052
-280.486	218.087	0.174	-0.274
-279.472	58.456	-0.060	-0.058
-278.457	-200.000	0.011	-0.237
-277.443	108.718	-0.051	-0.060
-276.428	-200.000	-0.006	0.312
-275.413	65.671	0.061	-0.061
-274.399	-97.352	0.229	-0.059
-273.384	694.004	0.049	-0.127
-272.370	116.419	0.140	0.169
-271.355	334.229	-0.059	0.113
-270.340	-154.122	0.499	-0.033
-269.326	-200.000	0.015	0.373
-268.311	-99.326	0.195	-0.048
-267.297	800.000	-0.020	-0.087
-266.282	19.282	0.177	-0.140
-265.267	22.445	-0.276	0.223
-264.253	800.000	0.100	0.329
-263.238	-14.697	-0.270	-0.171
-262.224	-200.000	0.075	-0.377
-261.209	7.306	0.224	0.165
-260.195	800.000	-0.058	-0.225
-259.180	-200.000	0.005	0.192
-258.165	-67.703	0.376	0.145
-257.151	698.983	0.093	0.240
-256.136	-200.000	-0.027	-0.193
-255.122	-200.000	0.016	-0.181
-254.107	-200.000	-0.002	-0.234
-253.092	800.000	-0.088	-0.331
-252.078	-200.000	-0.005	0.146
-251.063	800.000	0.094	0.263
-250.049	250.087	0.030	-0.050
-249.034	150.924	0.148	-0.198
-248.019	66.288	-0.155	0.155
-247.005	-76.433	0.109	-0.038
-245.990	12.629	-0.059	-0.045
-244.976	198.853	0.117	-0.176
-243.961	-67.196	0.045	0.017
-242.946	800.000	0.052	-0.215
-241.932	62.591	0.115	-0.113
-240.917	46.920	-0.084	0.077
-239.903	256.856	-0.176	-0.298
-238.888	-34.849	-0.308	-0.165
-237.873	-30.782	-0.324	-0.180
-236.859	-17.543	-0.039	-0.024
-235.844	130.989	-0.047	0.059
-234.830	-200.000	-0.050	0.325
-233.815	85.019	-0.203	0.219
-232.800	404.668	0.102	0.211
-231.786	718.659	-0.102	0.266
-230.771	115.318	0.202	0.243
-229.757	622.317	-0.016	0.041
-228.742	-20.489	-0.275	0.166
-227.727	21.633	0.118	0.094
-226.713	-67.081	-0.128	-0.049
-225.698	174.190	0.085	-0.121
-224.684	800.000	0.056	-0.194
-223.669	800.000	-0.014	0.041
-222.655	800.000	-0.089	-0.274
-221.640	-8.045	-0.195	-0.129
-220.625	313.288	0.225	0.417
-219.611	9.024	0.212	-0.157
-218.596	-200.000	-0.055	-0.264
-217.582	-60.999	0.230	-0.096
-216.567	-160.601	-0.418	0.022
-215.552	-107.948	0.342	-0.073
-214.538	212.262	0.122	0.188
-213.523	37.915	0.184	-0.161
-212.509	83.889	-0.172	-0.185
-211.494	195.561	-0.103	-0.154
-210.479	-200.000	0.022	-0.270
-209.465	-200.000	0.028	-0.142
-208.450	-41.965	-0.110	-0.056
-207.436	-149.531	0.054	-0.004
-206.421	-200.000	-0.069	-0.348
-205.406	29.035	0.352	-0.293
-204.392	-37.709	0.009	0.005
-203.377	-62.346	-0.562	0.230
-202.363	68.667	-0.086	0.087
-201.348	-146.230	0.321	0.028
-200.333	-171.176	0.137	0.005
-199.319	-200.000	-0.004	0.303
-198.304	-25.642	0.197	-0.114
-197.290	-110.943	0.290	-0.059
-196.275	-47.138	0.234	0.112
-195.260	352.894	-0.114	-0.221
-194.246	170.065	0.078	-0.109
-193.231	-24.701	-0.235	0.137
-192.217	-46.408	-0.126	-0.061
-191.202	8.851	-0.153	-0.113
-190.187	69.767	0.255	0.258
-189.173	-200.000	-0.011	0.164
-188.158	49.559	0.078	0.072
-187.144	-154.147	0.144	-0.010
-186.129	73.271	-0.167	-0.172
-185.114	-16.936	0.193	0.120
-184.100	-31.041	-0.091	0.050
-183.085	-25.809	-0.416	0.241
-182.071	-44.927	0.130	0.064
-181.056	183.614	-0.042	0.061
-180.042	9.730	0.096	0.071
-179.027	-26.394	-0.171	0.098
-178.012	-153.574	-0.132	0.009
-176.998	-200.000	0.062	-0.324
-175.983	-18.315	0.141	-0.086
-174.969	-200.000	0.018	0.124
-173.954	-31.766	-0.189	0.104
-172.939	-39.182	0.350	0.181
-171.925	56.322	0.300	-0.286
-170.910	9.018	-0.197	-0.146
-169.896	-73.043	-0.156	0.056
-168.881	14.091	-0.172	-0.131
-167.866	139.661	0.253	-0.327
-166.852	-142.227	-0.114	0.011
-165.837	-51.776	-0.243	-0.111
-164.823	800.000	-0.047	-0.162
-163.808	-131.967	0.154	0.020
-162.793	1.252	0.218	-0.154
-161.779	-186.928	-0.366	0.005
-160.764	-60.739	0.241	-0.100
-159.750	-10.499	0.067	0.043
-158.735	234.963	-0.228	0.369
-157.720	40.037	-0.172	0.151
-156.706	46.609	-0.090	0.082
-155.691	800.000	-0.050	-0.197
-154.677	34.322	0.082	0.070
-153.662	-103.966	0.185	0.042
-152.647	-200.000	-0.012	0.066
-151.633	-200.000	-0.052	0.318
-150.618	23.736	0.216	0.175
-149.604	-190.988	-0.182	0.002
-148.589	-61.138	-0.341	0.141
-147.574	-92.783	0.265	0.073
-146.560	800.000	0.057	-0.195
-145.545	341.031	-0.051	-0.097
-144.531	-90.619	0.328	-0.093
-143.516	-75.308	0.179	0.063
-142.502	-122.530	0.266	-0.042
-141.487	157.922	0.086	0.117
-140.472	219.085	0.195	0.306
-139.458	83.587	-0.148	-0.159
-138.443	-3.741	0.132	-0.090
-137.429	-102.763	-0.059	0.014
-136.414	800.000	-0.074	-0.203
-135.399	-124.958	0.129	-0.020
-134.385	-200.000	0.009	-0.089
-133.370	-200.000	0.038	0.171
-132.356	130.017	0.083	-0.103
-131.341	66.126	0.373	-0.371
-130.326	-200.000	0.011	-0.291
-129.312	800.000	0.046	-0.141
-128.297	161.392	0.211	0.289
-127.283	-142.184	-0.140	-0.014
-126.268	26.741	-0.280	0.230
-125.253	-200.000	0.044	0.393
-124.239	199.920	0.085	0.127
-123.224	-200.000	-0.014	-0.136
-122.210	79.215	0.099	-0.104
-121.195	-48.055	-0.049	0.023
