DTS Sentinel unit serial number:	SN413079Multiplexer serial number:	ORYXHardware model number:	OX4-SRSoftware version number:	ORYX F/W v4.00 Oryx Data Collector v3.7.2.0data status	okinstallation	princeton_trtdifferential loss correction	single-endedforward channel	channel 1reverse channel	N/Adate	2019/09/13time	15:50:35forward acquisition time	60.00reverse acquisition time	0.00gamma	496.2192k internal	0.2308k external	0.2308temperature offset calibration	1.0159default loss term (dB/km)	0.3790temperature slope calibration	1.0000multiplexer offset coefficient	1.0000multiplexer slope coefficient	1.0000fibre end	0.00T internal ref (°C)	34.67T ext. ref 1 (°C)	4.78T ext. ref 2 (°C)	30.00length (m)	temperature (°C)	Stokes	anti-Stokes-747.200	67.618	0.227	0.236
-746.185	107.066	-0.170	0.205
-745.171	-114.442	-0.138	-0.027
-744.156	-200.000	0.023	0.357
-743.142	9.235	-0.123	0.095
-742.127	-145.033	-0.134	0.012
-741.112	6.305	-0.287	-0.216
-740.098	-116.314	0.367	-0.069
-739.083	-52.162	-0.096	0.045
-738.069	-86.895	0.350	0.108
-737.054	-101.576	0.166	-0.041
-736.039	-83.371	-0.064	-0.021
-735.025	233.274	-0.077	0.129
-734.010	543.803	-0.022	0.054
-732.996	120.876	-0.236	-0.299
-731.981	61.004	-0.108	0.109
-730.966	342.960	-0.089	0.177
-729.952	73.244	-0.128	-0.136
-728.937	-54.797	-0.252	-0.115
-727.923	-200.000	-0.016	-0.110
-726.908	-200.000	-0.497	0.002
-725.894	-200.000	0.009	-0.154
-724.879	-76.870	-0.066	0.023
-723.864	-156.969	-0.417	0.026
-722.850	145.349	-0.076	0.103
-721.835	43.656	0.274	-0.254
-720.821	-200.000	0.047	-0.306
-719.806	-29.008	0.207	-0.121
-718.791	188.453	-0.211	-0.320
-717.777	97.022	-0.161	-0.187
-716.762	320.424	0.120	-0.232
-715.748	276.855	0.137	-0.247
-714.733	-8.006	0.173	-0.119
-713.718	25.849	-0.133	-0.113
-712.704	-200.000	0.008	-0.092
-711.689	-144.115	-0.282	0.027
-710.675	-200.000	-0.044	0.312
-709.660	51.733	0.127	0.123
-708.645	-86.937	0.131	-0.040
-707.631	52.371	0.294	-0.285
-706.616	91.322	0.171	0.194
-705.602	-200.000	-0.040	-0.470
-704.587	14.048	0.089	0.071
-703.572	-108.833	-0.143	-0.031
-702.558	-18.022	-0.182	-0.116
-701.543	-200.000	0.042	-0.260
-700.529	76.705	0.110	0.118
-699.514	-104.349	-0.446	-0.105
-698.499	-84.813	0.333	0.106
-697.485	800.000	0.019	0.054
-696.470	800.000	0.111	-0.384
-695.456	-124.270	0.231	0.037
-694.441	-46.688	-0.143	0.071
-693.426	800.000	0.019	-0.067
-692.412	-200.000	0.031	-0.240
-691.397	565.112	0.151	-0.371
-690.383	800.000	-0.038	-0.145
-689.368	-61.702	-0.104	-0.044
-688.354	110.056	-0.051	0.062
-687.339	800.000	-0.027	0.074
-686.324	-31.816	-0.084	-0.048
-685.310	-196.480	0.461	-0.003
-684.295	687.884	0.071	-0.187
-683.281	-26.588	-0.215	-0.127
-682.266	-86.497	-0.189	-0.059
-681.251	125.666	0.122	-0.157
-680.237	-33.705	0.137	-0.077
-679.222	226.399	-0.111	0.182
-678.208	-83.403	0.114	0.037
-677.193	-40.336	-0.142	0.075
-676.178	-83.961	0.180	-0.058
-675.164	-131.656	-0.208	0.028
-674.149	-200.000	-0.069	-0.493
-673.135	557.343	-0.153	-0.373
-672.120	-180.768	0.346	0.007
-671.105	-148.103	-0.146	0.012
-670.091	164.456	-0.063	-0.089
-669.076	-99.295	-0.262	-0.067
-668.062	800.000	0.038	-0.152
-667.047	-2.295	-0.171	0.122
-666.032	800.000	0.079	0.222
-665.018	174.827	0.172	-0.252
-664.003	414.408	0.169	-0.364
-662.989	-118.516	0.285	-0.051
-661.974	-83.713	-0.252	0.082
-660.959	275.715	0.137	0.246
-659.945	-22.398	-0.169	0.103
-658.930	-99.524	0.249	0.063
-657.916	-13.774	-0.087	0.057
-656.901	-200.000	-0.054	0.332
-655.886	-47.486	0.065	-0.032
-654.872	-200.000	0.053	-0.260
-653.857	-200.000	-0.005	-0.165
-652.843	386.103	0.108	-0.226
-651.828	-200.000	0.002	0.197
-650.814	-2.762	0.232	0.164
-649.799	800.000	-0.084	0.234
-648.784	-32.736	-0.142	0.080
-647.770	-137.236	0.174	0.020
-646.755	71.970	-0.194	-0.204
-645.741	-158.027	0.125	0.007
-644.726	43.139	0.352	0.325
-643.711	-200.000	-0.003	-0.085
-642.697	60.546	0.295	-0.296
-641.682	-200.000	0.016	-0.131
-640.668	273.679	-0.082	0.146
-639.653	-200.000	0.062	-0.338
-638.638	438.229	0.053	0.117
-637.624	-73.761	0.223	0.082
-636.609	-71.524	0.517	0.196
-635.595	-6.082	-0.115	-0.080
-634.580	7.461	0.381	-0.289
-633.565	800.000	-0.053	0.161
-632.551	32.830	0.141	0.123
-631.536	-40.067	-0.246	0.130
-630.522	-200.000	-0.006	-0.103
-629.507	-134.002	-0.191	-0.024
-628.492	-72.719	0.357	0.133
-627.478	800.000	0.041	0.171
-626.463	298.034	-0.096	-0.179
-625.449	5.008	-0.261	0.194
-624.434	83.302	0.134	-0.148
-623.419	23.457	-0.067	-0.055
-622.405	40.066	-0.354	0.322
-621.390	265.052	0.151	-0.266
-620.376	51.911	0.170	0.164
-619.361	381.631	-0.086	0.178
-618.346	800.000	-0.107	-0.309
-617.332	-128.767	-0.178	0.025
-616.317	570.969	0.051	-0.126
-615.303	1.020	0.141	-0.102
-614.288	0.421	-0.127	-0.092
-613.273	108.001	0.160	0.193
-612.259	-200.000	0.005	-0.387
-611.244	-116.858	-0.107	-0.020
-610.230	-200.000	-0.013	-0.088
-609.215	223.072	0.118	-0.192
-608.201	-39.182	-0.147	0.078
-607.186	43.055	0.118	-0.108
-606.171	-127.309	0.250	-0.037
-605.157	-48.972	-0.314	0.152
-604.142	51.093	0.107	-0.103
-603.128	-97.725	-0.397	0.104
-602.113	-35.985	-0.097	-0.053
-601.098	4.617	0.022	0.016
-600.084	-27.240	0.274	-0.161
-599.069	800.000	0.036	-0.155
-598.055	34.908	0.137	0.121
-597.040	-56.086	0.163	0.073
-596.025	-87.453	-0.261	-0.080
-595.011	238.880	0.180	-0.303
-593.996	12.339	-0.268	0.209
-592.982	661.698	-0.149	-0.389
-591.967	-131.989	0.266	-0.035
-590.952	-77.484	-0.050	-0.018
-589.938	133.903	-0.134	0.176
-588.923	-200.000	0.022	-0.231
-587.909	1.710	-0.129	-0.094
-586.894	-200.000	-0.009	-0.067
-585.879	800.000	-0.033	0.106
-584.865	325.442	0.094	-0.182
-583.850	268.963	-0.197	0.350
-582.836	-200.000	-0.048	0.431
-581.821	-56.991	-0.089	0.040
-580.806	-47.618	0.157	-0.077
-579.792	-106.760	0.211	0.047
-578.777	28.450	-0.394	0.336
-577.763	-200.000	0.060	-0.365
-576.748	181.670	0.184	-0.274
-575.733	-28.447	-0.148	0.086
-574.719	-116.017	-0.340	0.064
-573.704	42.029	0.182	-0.167
-572.690	-20.493	-0.076	-0.047
-571.675	535.612	0.136	-0.327
-570.661	-200.000	0.024	-0.401
-569.646	-94.410	0.130	-0.036
-568.631	26.629	0.204	0.173
-567.617	5.402	-0.081	0.060
-566.602	800.000	-0.078	-0.271
-565.588	-101.831	0.106	0.026
-564.573	14.616	0.145	-0.114
-563.558	-144.254	-0.411	0.039
-562.544	-108.089	0.252	-0.055
-561.529	-128.236	-0.419	0.060
-560.515	-200.000	0.002	0.078
-559.500	-53.990	-0.186	-0.086
-558.485	800.000	0.039	0.170
-557.471	-200.000	0.033	0.000
-556.456	-22.142	-0.113	-0.069
-555.442	-48.944	-0.281	-0.136
-554.427	98.261	-0.078	0.090
-553.412	-75.194	-0.354	0.127
-552.398	35.533	-0.182	-0.161
-551.383	-200.000	-0.057	0.254
-550.369	16.350	-0.253	-0.202
-549.354	-200.000	0.022	-0.270
-548.339	800.000	0.084	0.294
-547.325	-63.212	-0.379	-0.157
-546.310	157.609	0.124	0.173
-545.296	-200.000	0.249	0.000
-544.281	-166.476	0.116	-0.005
-543.266	-58.103	0.233	0.103
-542.252	498.899	-0.177	-0.412
-541.237	800.000	-0.063	0.208
-540.223	-200.000	-0.047	0.366
-539.208	160.735	0.203	-0.286
-538.193	800.000	0.043	0.120
-537.179	-200.000	-0.007	-0.185
-536.164	-200.000	-0.024	0.166
-535.150	-200.000	0.018	0.277
-534.135	-81.699	-0.227	0.075
-533.121	-120.608	-0.446	0.076
-532.106	271.037	0.035	-0.062
-531.091	-200.000	-0.021	0.201
-530.077	276.865	0.126	0.226
-529.062	-124.703	0.450	-0.070
-528.048	227.973	-0.048	0.078
-527.033	-200.000	0.013	0.106
-526.018	-200.000	-0.018	0.197
-525.004	-118.427	0.102	-0.018
-523.989	-138.487	-0.197	0.022
-522.975	225.470	0.076	0.124
-521.960	283.219	-0.046	-0.084
-520.945	-106.499	-0.167	-0.037
-519.931	-85.472	0.116	-0.036
-518.916	-79.316	-0.291	0.099
-517.902	-9.334	-0.045	0.030
-516.887	-200.000	-0.032	0.266
-515.872	12.840	-0.126	-0.098
-514.858	-200.000	0.013	0.446
-513.843	272.469	0.099	0.176
-512.829	-185.456	-0.238	0.004
-511.814	-115.721	0.113	-0.021
-510.799	-198.116	0.342	0.002
-509.785	44.976	0.126	0.117
-508.770	-119.939	0.140	0.024
-507.756	-152.421	0.137	-0.010
-506.741	82.139	-0.249	-0.272
-505.726	-103.942	-0.178	0.042
-504.712	-24.470	-0.109	0.065
-503.697	800.000	-0.015	0.049
-502.683	-42.350	0.126	-0.065
-501.668	-200.000	-0.019	-0.103
-500.653	-164.644	-0.074	0.003
-499.639	20.077	0.211	-0.171
-498.624	112.670	-0.246	0.299
-497.610	-6.970	-0.230	-0.158
-496.595	-200.000	0.054	-0.434
-495.581	132.630	0.093	-0.120
-494.566	-200.000	0.038	-0.260
-493.551	503.512	-0.108	-0.251
-492.537	-95.791	0.068	-0.018
-491.522	-9.861	0.224	-0.150
-490.508	-106.369	0.157	-0.035
-489.493	496.571	0.068	-0.158
-488.478	672.473	-0.118	-0.308
-487.464	-48.169	0.233	-0.113
-486.449	800.000	0.047	-0.134
-485.435	568.449	0.086	0.210
-484.420	-7.227	0.178	-0.122
-483.405	282.275	-0.104	-0.188
-482.391	-0.316	0.117	-0.084
-481.376	800.000	0.033	0.122
-480.362	49.744	-0.330	0.313
-479.347	-106.917	0.181	0.040
-478.332	-177.042	-0.043	-0.001
-477.318	800.000	-0.018	-0.070
-476.303	-200.000	0.009	-0.231
-475.289	228.760	0.127	-0.207
-474.274	-46.960	-0.399	-0.196
-473.259	800.000	0.116	-0.343
-472.245	-200.000	-0.066	0.338
-471.230	800.000	0.073	-0.267
-470.216	232.666	0.130	0.215
-469.201	196.743	0.069	0.106
-468.186	-47.723	-0.269	0.131
-467.172	-190.046	-0.278	0.003
-466.157	107.786	-0.095	-0.114
-465.143	-200.000	0.029	-0.149
-464.128	42.708	-0.030	0.027
-463.113	-46.515	-0.178	-0.088
-462.099	224.737	0.138	-0.224
-461.084	680.605	0.007	-0.017
-460.070	-123.281	-0.118	0.019
-459.055	-95.298	0.278	-0.075
-458.040	-200.000	0.006	0.342
-457.026	-58.964	0.144	0.062
-456.011	-94.524	0.274	-0.075
-454.997	-87.037	-0.170	-0.052
-453.982	115.115	-0.262	-0.322
-452.968	-123.251	-0.335	-0.054
-451.953	456.504	0.054	-0.121
-450.938	271.779	-0.038	-0.067
-449.924	42.707	0.218	-0.199
-448.909	-59.525	-0.119	0.051
-447.895	118.712	-0.057	-0.071
-446.880	35.356	-0.191	0.169
-445.865	14.940	-0.117	0.092
-444.851	-119.990	0.337	0.058
-443.836	800.000	-0.039	-0.111
-442.822	-200.000	-0.016	0.276
-441.807	12.894	0.170	0.132
-440.792	229.014	0.014	0.023
-439.778	-200.000	0.027	0.170
-438.763	-11.515	-0.308	0.203
-437.749	4.558	0.069	-0.051
-436.734	-129.929	-0.060	-0.008
-435.719	-180.879	-0.178	-0.004
-434.705	800.000	0.057	-0.174
-433.690	-98.204	-0.373	0.096
-432.676	800.000	0.045	0.162
-431.661	800.000	-0.093	0.265
-430.646	110.094	0.262	0.316
-429.632	-85.186	0.217	0.068
-428.617	-88.722	-0.130	0.039
-427.603	212.382	-0.125	0.197
-426.588	-200.000	-0.011	0.117
-425.573	800.000	-0.097	-0.335
-424.559	6.195	-0.171	-0.127
-423.544	-15.937	-0.208	0.133
-422.530	-30.952	-0.112	0.064
-421.515	-112.500	-0.057	0.011
-420.500	112.776	0.257	0.312
-419.486	283.142	-0.110	-0.199
-418.471	51.657	-0.166	-0.159
-417.457	-200.000	-0.001	0.101
-416.442	-200.000	-0.061	0.336
-415.428	-188.817	-0.263	0.003
-414.413	-19.259	-0.182	-0.113
-413.398	800.000	0.117	0.367
-412.384	121.943	-0.094	0.118
-411.369	23.608	-0.124	0.103
-410.355	360.252	-0.102	0.205
-409.340	-77.468	0.271	-0.094
-408.325	38.188	-0.419	-0.374
-407.311	249.653	0.122	0.208
-406.296	-200.000	-0.004	0.039
-405.282	247.450	-0.127	0.215
-404.267	48.440	0.065	-0.061
-403.252	93.420	0.068	0.077
-402.238	-131.786	-0.211	-0.028
-401.223	93.419	-0.078	-0.088
-400.209	74.536	-0.283	0.299
-399.194	321.104	0.026	-0.049
-398.179	-123.602	-0.258	0.041
-397.165	80.992	0.085	-0.092
-396.150	26.239	0.191	0.160
-395.136	-200.000	-0.046	-0.374
-394.121	101.361	-0.124	-0.144
-393.106	68.054	-0.113	-0.115
-392.092	-80.514	-0.176	0.059
-391.077	708.868	0.180	0.478
-390.063	-154.869	0.195	-0.013
-389.048	-92.777	0.089	-0.025
-388.033	-200.000	-0.047	-0.605
-387.019	-157.088	0.242	0.015
-386.004	-158.504	0.177	0.010
-384.990	48.314	-0.173	-0.162
-383.975	6.978	-0.038	-0.029
-382.960	12.357	-0.181	-0.140
-381.946	-48.593	0.148	0.071
-380.931	-119.859	-0.211	0.036
-379.917	-32.785	0.105	0.058
-378.902	-81.818	-0.285	-0.093
-377.888	-200.000	0.015	0.110
-376.873	-200.000	-0.043	-0.215
-375.858	79.981	0.152	0.163
-374.844	299.298	-0.140	0.259
-373.829	96.329	-0.095	0.109
-372.815	5.206	-0.246	-0.182
-371.800	800.000	0.107	-0.430
-370.785	-200.000	-0.046	-0.309
-369.771	-200.000	0.052	-0.249
-368.756	800.000	0.163	-0.567
-367.742	83.005	0.135	-0.147
-366.727	-200.000	-0.019	-0.212
-365.712	144.806	0.186	-0.248
-364.698	32.171	0.084	0.073
-363.683	16.912	0.159	-0.126
-362.669	281.237	-0.114	0.205
-361.654	29.178	-0.160	-0.136
-360.639	77.144	0.080	0.085
-359.625	54.748	0.050	0.049
-358.610	356.748	0.096	-0.192
-357.596	-148.528	0.071	0.006
-356.581	37.502	-0.109	0.096
-355.566	-200.000	-0.033	0.225
-354.552	527.901	-0.096	0.228
-353.537	-183.348	0.009	0.000
-352.523	-72.888	0.293	0.108
-351.508	-145.987	0.204	-0.018
-350.493	293.730	0.048	0.088
-349.479	299.261	0.098	-0.181
-348.464	800.000	-0.052	-0.188
-347.450	-58.609	0.081	0.035
-346.435	302.092	-0.068	0.126
-345.420	-200.000	0.160	0.707
-344.406	138.038	0.197	0.258
-343.391	81.952	-0.155	-0.168
-342.377	-200.000	0.001	0.049
-341.362	-55.587	0.247	0.111
-340.348	-114.438	0.137	-0.026
-339.333	-89.836	-0.149	0.044
-338.318	34.440	-0.161	-0.140
-337.304	-200.000	0.181	0.000
-336.289	-92.822	0.178	0.050
-335.275	77.108	0.232	-0.247
-334.260	-194.489	0.155	-0.001
-333.245	59.986	0.294	-0.290
-332.231	-81.923	0.272	-0.089
-331.216	-18.893	0.098	-0.061
-330.202	624.865	0.101	0.255
-329.187	800.000	-0.101	-0.320
-328.172	-120.112	-0.266	0.046
-327.158	-48.505	-0.253	-0.122
-326.143	800.000	0.021	0.066
-325.129	81.790	-0.151	-0.163
-324.114	308.719	-0.077	-0.144
-323.099	743.604	0.135	0.363
-322.085	255.125	0.159	0.272
-321.070	172.967	-0.100	0.144
-320.056	2.367	-0.312	0.226
-319.041	129.565	-0.167	0.213
-318.026	723.539	-0.111	0.296
-317.012	-36.543	0.027	0.014
-315.997	128.160	0.102	0.129
-314.983	-76.755	-0.261	0.091
-313.968	800.000	-0.067	0.289
-312.953	7.561	0.202	0.151
-311.939	-200.000	0.066	0.319
-310.924	800.000	-0.193	-0.536
-309.910	13.998	0.174	-0.135
-308.895	-200.000	-0.014	0.341
-307.880	-167.381	-0.452	-0.018
-306.866	5.814	-0.216	0.160
-305.851	-79.096	-0.175	0.059
-304.837	-128.367	-0.287	0.041
-303.822	43.693	0.336	0.307
-302.807	75.969	0.051	0.054
-301.793	-68.556	0.335	-0.130
-300.778	-200.000	0.003	-0.126
-299.764	142.338	0.256	-0.339
-298.749	-118.513	-0.203	0.036
-297.735	208.608	-0.234	0.366
-296.720	-60.038	-0.073	-0.031
-295.705	105.085	-0.242	0.285
-294.691	-4.817	-0.264	-0.181
-293.676	-200.000	0.004	-0.154
-292.662	-200.000	0.051	-0.303
-291.647	-83.592	0.102	-0.033
-290.632	-200.000	0.017	-0.135
-289.618	94.941	-0.081	-0.092
-288.603	-200.000	0.023	0.116
-287.589	630.727	0.037	0.093
-286.574	116.187	0.070	0.085
-285.559	305.931	0.168	-0.311
-284.545	-69.418	-0.193	0.074
-283.530	-4.964	0.044	0.030
-282.516	131.163	0.239	0.306
-281.501	91.214	-0.088	0.098
-280.486	-107.736	-0.196	-0.043
-279.472	-10.003	-0.099	0.066
-278.457	-200.000	0.025	0.460
-277.443	-28.100	0.040	0.023
-276.428	122.832	0.174	0.217
-275.413	-200.000	-0.006	0.094
-274.399	-17.433	0.395	0.248
-273.384	800.000	-0.074	-0.278
-272.370	-200.000	0.006	0.103
-271.355	-51.978	-0.074	-0.034
-270.340	-44.127	-0.253	-0.127
-269.326	294.028	-0.119	-0.216
-268.311	800.000	0.092	-0.342
-267.297	-81.890	0.374	0.122
-266.282	-200.000	-0.016	-0.125
-265.267	-108.364	-0.101	0.022
-264.253	112.526	0.078	0.094
-263.238	-200.000	0.000	-0.396
-262.224	-93.162	-0.273	0.076
-261.209	-47.594	-0.255	0.123
-260.195	-118.169	0.122	0.022
-259.180	-113.552	0.213	-0.041
-258.165	39.296	0.018	-0.016
-257.151	155.415	-0.198	0.272
-256.136	800.000	-0.072	-0.273
-255.122	168.038	-0.136	-0.193
-254.107	180.324	-0.060	-0.087
-253.092	-55.944	-0.159	-0.071
-252.078	-92.852	-0.207	-0.058
-251.063	106.600	0.098	-0.115
-250.049	-17.627	0.265	-0.166
-249.034	198.697	0.233	-0.355
-248.019	295.874	0.073	-0.133
-247.005	-19.725	-0.101	-0.062
-245.990	-165.830	0.131	-0.006
-244.976	-9.370	-0.021	0.014
-243.961	172.782	0.107	0.154
-242.946	800.000	-0.067	-0.288
-241.932	-200.000	0.030	-0.228
-240.917	247.383	0.120	-0.203
-239.903	69.413	0.136	0.139
-238.888	-55.270	-0.169	0.076
-237.873	-101.005	-0.024	-0.006
-236.859	-148.897	0.282	0.023
-235.844	64.959	0.206	0.208
-234.830	-70.044	-0.141	-0.054
-233.815	-41.142	-0.155	-0.080
-232.800	110.557	0.196	-0.235
-231.786	-57.158	0.187	0.082
-230.771	-200.000	-0.017	-0.130
-229.757	381.216	0.073	0.149
-228.742	18.836	0.085	0.068
-227.727	-200.000	-0.007	0.088
-226.713	-200.000	0.036	-0.186
-225.698	-200.000	-0.002	0.259
-224.684	-46.868	0.026	-0.013
-223.669	22.409	0.120	-0.098
-222.655	-200.000	-0.044	0.236
-221.640	800.000	0.054	-0.170
-220.625	-92.872	-0.006	-0.002
-219.611	-50.332	-0.325	-0.153
-218.596	-125.240	0.450	0.069
-217.582	485.784	0.057	0.129
-216.567	-12.021	0.125	-0.082
-215.552	641.522	0.127	0.323
-214.538	72.322	-0.066	-0.069
-213.523	-200.000	0.015	0.142
-212.509	104.536	0.094	0.111
-211.494	-113.068	-0.252	-0.050
-210.479	330.161	0.077	0.148
-209.465	-137.600	-0.163	-0.018
-208.450	-100.831	-0.118	-0.029
-207.436	645.899	-0.060	-0.152
-206.421	210.042	-0.199	0.310
-205.406	-200.000	-0.019	-0.213
-204.392	242.793	-0.122	0.204
-203.377	38.312	0.102	0.091
-202.363	-124.481	0.113	-0.018
-201.348	-67.087	-0.135	-0.053
-200.333	-200.000	0.003	0.212
-199.319	-161.281	-0.196	0.010
-198.304	-164.989	0.232	-0.010
-197.290	-102.108	0.117	-0.028
-196.275	-102.416	0.062	0.015
-195.260	252.006	-0.130	-0.220
-194.246	-200.000	-0.025	-0.289
-193.231	60.991	0.283	-0.279
-192.217	-200.000	0.017	-0.081
-191.202	58.020	-0.059	-0.058
-190.187	-152.014	-0.270	0.020
-189.173	-2.662	0.272	0.189
-188.158	-200.000	-0.010	0.184
-187.144	-161.367	0.041	0.002
-186.129	163.084	0.067	-0.094
-185.114	54.484	0.211	0.202
-184.100	-148.767	0.148	-0.012
-183.085	-200.000	0.067	0.433
-182.071	-97.609	0.466	-0.120
-181.056	-30.390	0.113	0.064
-180.042	800.000	0.076	-0.309
-179.027	-200.000	0.035	0.463
-178.012	-96.825	0.167	-0.044
-176.998	17.734	0.190	-0.150
-175.983	521.817	-0.021	0.048
-174.969	90.509	0.074	0.083
-173.954	104.040	0.128	0.150
-172.939	-20.160	-0.436	-0.267
-171.925	-200.000	0.025	0.260
-170.910	-23.636	0.231	0.138
-169.896	-38.386	0.232	0.122
-168.881	-200.000	0.010	0.270
-167.866	467.948	-0.049	0.109
-166.852	62.819	0.089	0.088
-165.837	-200.000	-0.022	-0.099
-164.823	31.895	-0.183	0.157
-163.808	108.900	0.239	0.284
-162.793	-132.727	-0.181	0.023
-161.779	106.461	-0.304	0.358
-160.764	-190.124	0.039	-0.000
-159.750	800.000	-0.152	-0.487
-158.735	127.774	0.070	-0.089
-157.720	-50.856	0.232	-0.108
-156.706	-116.035	0.201	0.037
-155.691	213.241	0.117	-0.184
-154.677	-200.000	0.205	0.000
-153.662	-80.821	0.085	0.028
-152.647	-40.189	0.275	-0.142
-151.633	177.326	-0.108	0.157
-150.618	-101.055	0.376	-0.092
-149.604	800.000	-0.013	0.041
-148.589	183.167	0.265	0.388
-147.574	434.282	-0.069	-0.148
-146.560	-105.243	0.324	0.073
-145.545	-135.184	0.119	0.014
-144.531	145.898	0.031	0.041
-143.516	-155.929	-0.265	0.017
-142.502	-119.794	0.027	0.005
-141.487	-80.648	0.167	0.055
-140.472	83.413	-0.175	0.189
-139.458	143.085	0.086	-0.114
-138.443	172.909	0.098	-0.140
-137.429	576.010	-0.193	-0.469
-136.414	65.033	-0.217	-0.218
-135.399	-143.727	0.423	0.040
-134.385	800.000	-0.038	-0.117
-133.370	20.112	0.339	-0.272
-132.356	119.353	-0.124	0.152
-131.341	-200.000	0.005	0.147
-130.326	800.000	-0.111	0.383
-129.312	-120.957	-0.241	0.040
-128.297	103.538	-0.355	0.413
-127.283	232.847	0.049	0.080
-126.268	-87.515	-0.345	0.104
-125.253	10.879	0.186	-0.141
-124.239	-200.000	0.027	-0.215
-123.224	-65.867	0.292	-0.116
-122.210	450.791	0.115	-0.251
-121.195	-52.870	-0.255	0.116
-120.180	-67.561	0.123	0.048
