DTS Sentinel unit serial number:	SN413079Multiplexer serial number:	ORYXHardware model number:	OX4-SRSoftware version number:	ORYX F/W v4.00 Oryx Data Collector v3.7.2.0data status	okinstallation	princeton_trtdifferential loss correction	single-endedforward channel	channel 1reverse channel	N/Adate	2019/09/17time	16:38:35forward acquisition time	60.00reverse acquisition time	0.00gamma	496.2192k internal	0.2292k external	0.2292temperature offset calibration	0.9958default loss term (dB/km)	0.3790temperature slope calibration	1.0000multiplexer offset coefficient	1.0000multiplexer slope coefficient	1.0000fibre end	0.00T internal ref (°C)	41.87T ext. ref 1 (°C)	0.36T ext. ref 2 (°C)	38.67length (m)	temperature (°C)	Stokes	anti-Stokes-747.200	-71.512	0.036	0.014
-746.185	-200.000	0.019	0.226
-745.171	-108.650	-0.251	0.055
-744.156	-193.036	0.210	0.002
-743.142	454.087	0.107	0.242
-742.127	-103.500	0.287	0.069
-741.112	736.458	-0.037	-0.100
-740.098	172.967	0.228	0.337
-739.083	666.906	-0.035	-0.093
-738.069	-200.000	0.046	0.382
-737.054	75.550	-0.248	0.268
-736.039	-47.959	-0.102	0.051
-735.025	-200.000	-0.020	0.258
-734.010	-53.377	0.090	-0.042
-732.996	-200.000	-0.013	0.105
-731.981	-56.892	-0.054	0.024
-730.966	-9.880	-0.126	-0.086
-729.952	18.714	0.267	0.219
-728.937	401.154	0.034	-0.072
-727.923	-200.000	0.009	-0.132
-726.908	29.865	0.206	-0.179
-725.894	191.221	-0.147	0.225
-724.879	-105.745	-0.351	-0.081
-723.864	-116.917	-0.175	0.033
-722.850	-101.743	0.153	0.038
-721.835	-127.168	0.555	0.083
-720.821	-25.563	-0.248	0.150
-719.806	-115.779	-0.138	0.026
-718.791	-113.316	-0.283	-0.057
-717.777	-87.661	0.152	-0.047
-716.762	-200.000	-0.009	0.256
-715.748	366.629	0.192	0.396
-714.733	-16.110	0.071	-0.046
-713.718	15.760	0.342	-0.275
-712.704	-200.000	-0.010	0.156
-711.689	35.322	-0.153	-0.137
-710.675	-114.876	0.355	-0.069
-709.660	800.000	-0.035	0.151
-708.645	88.127	0.224	0.254
-707.631	800.000	0.053	-0.200
-706.616	214.279	-0.058	-0.094
-705.602	104.957	0.186	0.225
-704.587	-200.000	-0.001	0.077
-703.572	283.721	-0.093	-0.171
-702.558	-41.590	-0.357	0.187
-701.543	-12.971	0.081	-0.054
-700.529	235.997	0.122	-0.205
-699.514	-139.043	0.313	0.035
-698.499	-84.012	-0.087	0.028
-697.485	91.277	0.122	0.140
-696.470	-103.314	-0.219	0.053
-695.456	-17.016	0.102	-0.066
-694.441	-99.155	-0.098	-0.025
-693.426	-147.306	0.229	-0.020
-692.412	800.000	-0.018	-0.075
-691.397	-32.157	0.156	0.089
-690.383	800.000	0.092	-0.328
-689.368	78.800	0.099	-0.109
-688.354	-76.793	-0.033	-0.012
-687.339	-122.314	0.111	-0.019
-686.324	800.000	-0.046	-0.140
-685.310	-75.987	0.160	-0.058
-684.295	-38.761	-0.210	0.113
-683.281	-11.093	0.182	-0.123
-682.266	60.239	-0.232	0.234
-681.251	504.209	0.083	0.195
-680.237	-116.841	0.102	-0.019
-679.222	-25.827	-0.123	0.074
-678.208	-200.000	0.005	0.181
-677.193	3.498	0.275	0.205
-676.178	156.306	0.095	0.134
-675.164	-174.897	0.265	-0.008
-674.149	-200.000	-0.011	-0.300
-673.135	800.000	0.134	-0.403
-672.120	225.335	0.152	-0.252
-671.105	227.434	0.186	-0.308
-670.091	-200.000	0.005	0.215
-669.076	-104.988	-0.280	0.065
-668.062	-58.156	0.077	-0.034
-667.047	800.000	-0.121	-0.341
-666.032	-42.933	0.287	0.148
-665.018	56.407	0.130	0.129
-664.003	-122.644	-0.255	-0.042
-662.989	-200.000	-0.022	0.199
-661.974	-129.351	-0.261	-0.037
-660.959	-130.839	-0.209	0.029
-659.945	800.000	0.036	-0.106
-658.930	-53.770	0.142	-0.066
-657.916	317.074	-0.137	0.263
-656.901	800.000	0.038	-0.122
-655.886	25.635	0.511	-0.434
-654.872	-71.256	-0.051	0.020
-653.857	-200.000	-0.082	0.376
-652.843	-57.925	0.301	0.134
-651.828	-52.437	-0.139	0.066
-650.814	335.007	0.125	0.246
-649.799	-50.777	0.062	0.030
-648.784	-101.088	0.244	0.061
-647.770	-55.591	0.092	0.042
-646.755	16.224	-0.298	-0.240
-645.741	-6.706	0.076	0.053
-644.726	53.315	-0.263	0.257
-643.711	800.000	0.053	-0.213
-642.697	-97.311	0.088	-0.023
-641.682	-36.935	0.118	-0.064
-640.668	-51.530	-0.295	-0.140
-639.653	800.000	0.060	-0.191
-638.638	-178.759	-0.211	-0.005
-637.624	-13.181	-0.341	0.226
-636.609	-200.000	0.023	0.159
-635.595	-27.301	0.360	-0.213
-634.580	800.000	0.051	-0.144
-633.565	-103.337	-0.011	-0.003
-632.551	47.340	-0.102	-0.097
-631.536	471.205	0.007	-0.015
-630.522	-0.045	-0.047	-0.034
-629.507	93.202	-0.166	0.191
-628.492	-126.465	-0.107	0.016
-627.478	-200.000	-0.040	-0.351
-626.463	-200.000	0.007	0.102
-625.449	-20.471	-0.139	0.087
-624.434	800.000	0.061	-0.237
-623.419	-200.000	-0.004	0.358
-622.405	-87.510	-0.493	0.152
-621.390	49.136	0.220	0.210
-620.376	112.676	0.222	-0.273
-619.361	-134.118	-0.123	-0.015
-618.346	-182.298	-0.360	0.007
-617.332	-31.755	-0.215	0.123
-616.317	-19.466	0.304	0.192
-615.303	67.966	-0.129	0.135
-614.288	800.000	0.062	-0.210
-613.273	-25.016	0.273	0.165
-612.259	-56.280	0.206	0.093
-611.244	800.000	-0.074	-0.210
-610.230	-179.585	-0.261	0.006
-609.215	-89.370	0.206	-0.062
-608.201	227.102	0.055	0.091
-607.186	54.677	-0.173	-0.170
-606.171	258.638	0.094	0.165
-605.157	143.622	0.212	0.287
-604.142	-53.327	-0.120	0.056
-603.128	-160.346	-0.308	0.017
-602.113	-155.897	0.192	0.012
-601.098	8.993	-0.082	-0.063
-600.084	-12.373	-0.207	0.138
-599.069	-36.610	0.219	0.120
-598.055	-130.511	0.288	0.040
-597.040	327.250	-0.060	-0.117
-596.025	800.000	-0.034	0.151
-595.011	-10.123	-0.181	-0.123
-593.996	338.404	-0.126	-0.249
-592.982	563.026	-0.070	0.171
-591.967	-200.000	-0.021	-0.255
-590.952	-20.621	0.255	0.160
-589.938	-105.821	-0.163	0.037
-588.923	-200.000	-0.002	-0.142
-587.909	112.155	0.118	-0.145
-586.894	-26.992	-0.195	-0.116
-585.879	800.000	0.034	-0.136
-584.865	329.632	0.136	0.267
-583.850	425.322	0.117	0.256
-582.836	-83.202	0.452	-0.148
-581.821	22.103	-0.236	-0.196
-580.806	277.340	-0.057	-0.102
-579.792	457.045	0.082	-0.184
-578.777	-4.545	0.113	0.079
-577.763	161.799	0.068	0.096
-576.748	-117.821	0.273	-0.050
-575.733	500.235	0.070	0.165
-574.719	232.000	-0.143	0.238
-573.704	-200.000	-0.003	-0.212
-572.690	-103.311	0.265	-0.064
-571.675	-73.450	-0.112	0.042
-570.661	-82.003	-0.209	0.069
-569.646	-170.853	-0.085	-0.003
-568.631	-125.695	0.457	-0.070
-567.617	134.997	0.113	0.149
-566.602	-146.752	0.142	-0.012
-565.588	468.963	0.104	0.236
-564.573	-130.677	0.143	-0.020
-563.558	140.550	0.196	-0.263
-562.544	191.520	-0.083	0.127
-561.529	800.000	0.071	-0.216
-560.515	-200.000	0.011	0.129
-559.500	239.792	-0.138	0.233
-558.485	65.814	-0.156	0.160
-557.471	800.000	-0.019	0.078
-556.456	-28.389	0.252	0.148
-555.442	324.571	-0.157	0.304
-554.427	-87.233	0.118	0.036
-553.412	325.910	-0.148	0.287
-552.398	138.705	0.125	-0.167
-551.383	508.935	0.113	-0.267
-550.369	447.992	0.060	0.133
-549.354	-104.125	0.186	-0.044
-548.339	-34.419	0.190	-0.106
-547.325	800.000	0.100	-0.296
-546.310	-105.905	0.106	0.024
-545.296	-89.953	-0.205	0.061
-544.281	800.000	-0.092	0.274
-543.266	-200.000	-0.046	-0.343
-542.252	-43.496	-0.221	-0.113
-541.237	767.830	-0.087	-0.240
-540.223	-51.124	-0.309	-0.147
-539.208	-200.000	0.026	-0.265
-538.193	55.576	-0.416	-0.409
-537.179	-80.687	-0.276	0.093
-536.164	-105.089	-0.385	-0.089
-535.150	120.785	-0.128	0.162
-534.135	89.949	0.183	0.208
-533.121	800.000	-0.080	-0.231
-532.106	46.462	0.136	0.128
-531.091	-81.128	-0.096	-0.032
-530.077	-61.265	0.175	0.075
-529.062	241.587	-0.049	0.083
-528.048	714.564	-0.034	-0.091
-527.033	800.000	-0.068	-0.295
-526.018	-57.684	-0.255	-0.113
-525.004	31.377	-0.436	0.380
-523.989	-143.598	0.108	-0.010
-522.975	800.000	0.075	-0.239
-521.960	-66.957	-0.331	0.133
-520.945	-200.000	0.016	0.167
-519.931	-121.281	-0.325	-0.055
-518.916	42.854	0.154	0.142
-517.902	-200.000	-0.067	0.412
-516.887	300.232	-0.080	0.150
-515.872	176.744	0.082	0.121
-514.858	-64.279	-0.229	-0.094
-513.843	92.310	-0.088	-0.100
-512.829	800.000	0.103	0.361
-511.814	84.836	-0.050	0.055
-510.799	466.398	0.045	-0.102
-509.785	-170.563	0.231	0.008
-508.770	35.015	0.143	-0.127
-507.756	124.561	0.077	-0.098
-506.741	118.469	-0.146	-0.183
-505.726	-90.754	0.048	-0.014
-504.712	298.596	0.122	-0.228
-503.697	392.346	0.043	0.090
-502.683	51.984	0.190	-0.183
-501.668	-145.789	-0.175	-0.016
-500.653	543.056	-0.043	0.104
-499.639	-156.123	-0.222	0.014
-498.624	122.049	-0.154	0.195
-497.610	143.147	0.255	0.344
-496.595	99.955	0.014	-0.016
-495.581	125.193	0.018	-0.023
-494.566	-76.929	0.192	0.068
-493.551	-86.374	0.128	0.040
-492.537	107.760	0.028	-0.034
-491.522	176.966	0.098	0.144
-490.508	203.195	0.014	-0.022
-489.493	800.000	-0.048	-0.142
-488.478	178.185	-0.126	-0.187
-487.464	800.000	-0.115	-0.446
-486.449	156.813	0.145	-0.203
-485.435	-91.338	-0.046	0.013
-484.420	-100.168	-0.117	-0.030
-483.405	366.091	0.059	0.121
-482.391	-155.370	-0.364	-0.024
-481.376	800.000	0.047	-0.182
-480.362	-200.000	0.070	0.345
-479.347	327.044	-0.010	-0.019
-478.332	130.448	-0.058	0.075
-477.318	140.788	0.088	0.117
-476.303	61.058	-0.034	-0.034
-475.289	-177.723	-0.177	-0.004
-474.274	7.906	-0.198	-0.150
-473.259	480.490	0.062	0.142
-472.245	353.412	-0.066	0.132
-471.230	800.000	-0.048	-0.158
-470.216	-200.000	-0.042	-0.307
-469.201	32.579	-0.148	-0.129
-468.186	-200.000	0.076	0.447
-467.172	154.765	-0.172	0.240
-466.157	441.264	0.077	0.171
-465.143	38.057	-0.176	0.158
-464.128	-90.272	-0.199	-0.059
-463.113	52.190	0.092	0.088
-462.099	-4.941	0.106	0.074
-461.084	22.456	-0.143	0.118
-460.070	64.181	-0.216	0.220
-459.055	800.000	-0.041	-0.140
-458.040	-200.000	-0.012	0.096
-457.026	-114.886	-0.118	-0.023
-456.011	44.103	-0.127	-0.118
-454.997	-98.166	0.149	0.039
-453.982	-46.194	-0.328	0.163
-452.968	-197.143	-0.179	0.001
-451.953	25.319	-0.260	-0.219
-450.938	84.196	0.157	-0.174
-449.924	-39.254	0.287	0.152
-448.909	90.342	-0.094	0.106
-447.895	122.998	-0.175	0.222
-446.880	443.909	-0.072	0.159
-445.865	74.585	0.186	0.197
-444.851	-128.096	0.151	0.022
-443.836	800.000	-0.097	-0.312
-442.822	-200.000	0.023	0.241
-441.807	800.000	0.082	0.262
-440.792	190.700	-0.099	0.150
-439.778	319.865	-0.168	-0.323
-438.763	133.922	-0.080	0.105
-437.749	121.369	0.238	-0.300
-436.734	-200.000	0.001	0.106
-435.719	1.820	-0.096	-0.070
-434.705	381.843	0.091	0.188
-433.690	-87.432	-0.227	-0.070
-432.676	-108.331	-0.126	0.028
-431.661	800.000	-0.014	0.040
-430.646	800.000	-0.033	-0.135
-429.632	800.000	0.061	-0.187
-428.617	800.000	0.098	-0.401
-427.603	17.651	0.114	0.091
-426.588	-14.005	-0.288	-0.188
-425.573	47.536	0.171	0.161
-424.559	-31.665	0.219	-0.124
-423.544	-200.000	-0.026	0.318
-422.530	567.538	0.121	-0.296
-421.515	-90.560	-0.235	-0.069
-420.500	-3.654	0.154	-0.108
-419.486	214.755	-0.068	0.108
-418.471	-12.206	-0.343	-0.227
-417.457	127.078	0.165	-0.212
-416.442	259.531	0.083	-0.144
-415.428	71.821	-0.115	-0.121
-414.413	637.296	0.096	0.247
-413.398	69.162	0.211	-0.219
-412.384	-170.446	-0.163	0.006
-411.369	-200.000	-0.023	0.141
-410.355	-39.167	0.207	-0.110
-409.340	-113.168	-0.201	-0.040
-408.325	-59.804	-0.218	0.094
-407.311	58.966	-0.108	0.108
-406.296	-89.045	-0.328	0.098
-405.282	800.000	-0.082	0.281
-404.267	-200.000	-0.002	0.334
-403.252	33.371	-0.166	0.145
-402.238	61.180	0.238	-0.239
-401.223	-107.840	-0.171	0.038
-400.209	800.000	0.083	-0.249
-399.194	-0.509	0.306	0.219
-398.179	154.270	0.031	0.043
-397.165	800.000	0.080	-0.262
-396.150	51.409	-0.165	0.158
-395.136	-116.272	0.054	0.010
-394.121	800.000	0.092	0.330
-393.106	166.793	0.094	0.135
-392.092	800.000	-0.013	0.053
-391.077	-200.000	-0.079	-0.414
-390.063	800.000	-0.066	-0.257
-389.048	3.502	-0.174	-0.128
-388.033	-167.569	0.300	-0.012
-387.019	-200.000	0.056	0.326
-386.004	19.215	-0.041	0.033
-384.990	-77.202	-0.140	0.049
-383.975	-52.950	0.256	0.119
-382.960	-22.798	0.202	0.123
-381.946	751.416	0.026	-0.071
-380.931	-106.599	-0.072	0.016
-379.917	-121.873	0.248	0.041
-378.902	-200.000	-0.032	0.254
-377.888	-134.137	-0.267	0.033
-376.873	-200.000	-0.001	0.190
-375.858	-103.362	0.268	0.064
-374.844	-71.409	-0.307	0.116
-373.829	-63.841	0.070	0.029
-372.815	33.158	0.118	-0.104
-371.800	-179.026	0.328	-0.007
-370.785	21.478	-0.249	-0.204
-369.771	-52.490	-0.470	-0.219
-368.756	72.854	0.198	-0.209
-367.742	-200.000	-0.037	-0.268
-366.727	-38.687	0.113	-0.060
-365.712	278.284	-0.110	0.198
-364.698	-200.000	0.005	0.228
-363.683	-6.579	0.048	0.033
-362.669	16.990	0.350	-0.279
-361.654	47.468	0.103	0.096
-360.639	470.048	0.067	0.153
-359.625	259.919	0.078	-0.137
-358.610	702.138	0.095	0.254
-357.596	-6.040	0.272	0.187
-356.581	-179.000	-0.235	0.005
-355.566	-200.000	0.009	-0.056
-354.552	-14.954	0.137	0.088
-353.537	96.882	-0.133	0.154
-352.523	-200.000	-0.064	0.357
-351.508	800.000	0.076	-0.333
-350.493	348.180	-0.074	-0.148
-349.479	-99.111	-0.198	-0.051
-348.464	-30.895	0.173	0.099
-347.450	-127.439	0.157	0.023
-346.435	148.580	-0.068	0.093
-345.420	132.906	0.176	0.229
-344.406	54.346	-0.143	-0.139
-343.391	-152.679	0.067	-0.005
-342.377	-71.516	-0.476	-0.179
-341.362	-85.028	0.115	0.036
-340.348	481.950	0.041	-0.094
-339.333	-36.972	-0.084	0.045
-338.318	-142.652	0.231	-0.023
-337.304	-200.000	-0.022	-0.103
-336.289	119.182	-0.146	0.182
-335.275	173.862	-0.114	0.165
-334.260	-200.000	0.045	0.210
-333.245	-163.784	0.207	0.010
-332.231	-156.489	-0.301	-0.019
-331.216	1.814	0.077	-0.056
-330.202	11.709	0.126	-0.098
-329.187	-137.317	-0.221	0.025
-328.172	800.000	0.052	-0.188
-327.158	-149.990	-0.555	-0.044
-326.143	267.355	0.062	-0.110
-325.129	-200.000	0.045	-0.223
-324.114	-200.000	-0.039	0.293
-323.099	-200.000	-0.026	0.258
-322.085	800.000	-0.042	-0.151
-321.070	0.350	0.208	-0.150
-320.056	800.000	0.022	-0.074
-319.041	792.334	-0.087	-0.242
-318.026	27.190	-0.091	-0.077
-317.012	213.377	-0.105	-0.167
-315.997	-200.000	-0.034	0.152
-314.983	-200.000	-0.074	0.561
-313.968	524.044	0.026	-0.061
-312.953	-200.000	-0.058	-0.301
-311.939	-56.446	-0.119	-0.053
-310.924	-28.438	-0.099	0.057
-309.910	-34.215	0.138	0.076
-308.895	-200.000	-0.039	0.228
-307.880	118.812	-0.253	-0.314
-306.866	492.801	-0.066	-0.152
-305.851	800.000	0.012	0.040
-304.837	-200.000	-0.029	0.185
-303.822	12.481	0.220	-0.171
-302.807	-111.829	-0.250	-0.051
-301.793	88.113	0.210	0.234
-300.778	45.701	-0.140	-0.130
-299.764	-0.926	-0.071	0.051
-298.749	-58.032	-0.299	-0.131
-297.735	-83.063	0.274	0.089
-296.720	-125.411	-0.145	-0.022
-295.705	-200.000	0.001	-0.070
-294.691	-119.941	-0.237	0.041
-293.676	-52.248	0.149	0.070
-292.662	-67.090	0.157	0.062
-291.647	23.158	0.232	0.192
-290.632	800.000	0.011	0.032
-289.618	-179.362	-0.221	-0.005
-288.603	92.742	-0.138	-0.157
-287.589	-39.122	0.278	-0.147
-286.574	800.000	0.057	0.181
-285.559	-200.000	-0.000	-0.114
-284.545	-75.812	0.194	-0.069
-283.530	489.639	-0.132	-0.304
-282.516	-178.525	0.097	-0.002
-281.501	-143.651	0.112	-0.011
-280.486	274.768	0.047	0.083
-279.472	-29.501	-0.097	-0.056
-278.457	-112.771	-0.364	-0.073
-277.443	95.231	-0.233	-0.267
-276.428	-200.000	0.083	-0.451
-275.413	337.616	-0.085	-0.167
-274.399	-19.659	0.248	-0.154
-273.384	-129.852	-0.240	0.033
-272.370	800.000	-0.023	0.096
-271.355	-24.823	-0.297	-0.177
-270.340	-200.000	-0.006	0.194
-269.326	29.439	0.080	0.069
-268.311	-120.565	-0.161	-0.027
-267.297	265.832	0.062	0.109
-266.282	-71.345	0.158	0.060
-265.267	-48.375	0.167	0.081
-264.253	16.215	0.145	0.115
-263.238	-200.000	-0.043	-0.195
-262.224	-77.475	0.131	-0.046
-261.209	-110.126	-0.204	-0.043
-260.195	800.000	0.087	-0.314
-259.180	570.324	-0.136	0.333
-258.165	181.825	0.091	0.135
-257.151	-200.000	0.024	0.273
-256.136	-29.259	-0.253	-0.145
-255.122	-87.263	0.105	0.032
-254.107	-82.292	-0.099	0.032
-253.092	569.219	0.051	0.125
-252.078	112.246	-0.060	0.073
-251.063	196.529	-0.121	-0.185
-250.049	-24.781	0.164	-0.098
-249.034	55.108	0.198	-0.192
-248.019	2.380	0.168	-0.122
-247.005	-36.792	0.206	-0.111
-245.990	90.819	-0.262	0.295
-244.976	-200.000	0.000	0.173
-243.961	-200.000	0.022	0.216
-242.946	650.221	-0.033	0.085
-241.932	-200.000	0.001	-0.099
-240.917	-164.790	-0.250	-0.011
-239.903	-181.451	0.218	0.004
-238.888	312.628	0.221	-0.417
-237.873	-200.000	-0.001	-0.103
-236.859	-200.000	0.040	-0.492
-235.844	166.765	0.123	-0.175
-234.830	25.074	0.124	0.103
-233.815	-200.000	-0.016	-0.151
-232.800	152.060	0.127	-0.174
-231.786	85.119	-0.192	-0.211
-230.771	89.041	0.141	-0.158
-229.757	-77.071	-0.117	0.041
-228.742	47.956	0.144	-0.135
-227.727	139.425	-0.099	0.131
-226.713	377.220	0.048	-0.098
-225.698	-6.269	-0.281	0.193
-224.684	21.877	-0.171	-0.140
-223.669	289.532	-0.081	0.148
-222.655	187.083	0.103	-0.154
-221.640	-200.000	-0.149	0.000
-220.625	44.918	0.031	-0.029
-219.611	12.475	0.219	-0.169
-218.596	-84.041	0.125	0.040
-217.582	249.941	0.105	-0.179
-216.567	44.801	-0.285	0.263
-215.552	-127.939	-0.342	-0.049
-214.538	-200.000	0.004	0.045
-213.523	-200.000	-0.006	-0.140
-212.509	-169.742	0.062	-0.002
-211.494	-18.936	-0.369	0.230
-210.479	800.000	-0.126	0.441
-209.465	98.044	0.242	-0.280
-208.450	96.529	0.253	-0.290
-207.436	-133.495	0.155	-0.019
-206.421	196.927	0.148	-0.226
-205.406	421.854	0.075	-0.162
-204.392	455.308	0.065	-0.145
-203.377	-109.086	-0.189	-0.040
-202.363	-131.551	0.245	-0.032
-201.348	-72.971	0.319	0.118
-200.333	-15.165	0.291	-0.187
-199.319	-200.000	0.054	0.288
-198.304	267.323	0.113	0.198
-197.290	-177.506	-0.237	-0.006
-196.275	-145.255	0.485	-0.044
-195.260	-39.544	0.356	-0.187
-194.246	146.246	-0.212	-0.285
-193.231	68.248	0.134	0.138
-192.217	-46.895	0.358	0.175
-191.202	-167.085	-0.230	-0.009
-190.187	80.637	0.243	-0.263
-189.173	-86.746	-0.046	0.014
-188.158	0.123	-0.086	0.061
-187.144	346.223	-0.062	-0.122
-186.129	-0.196	0.333	0.238
-185.114	64.558	0.234	-0.237
-184.100	-79.091	0.466	-0.159
-183.085	-200.000	0.016	0.219
-182.071	607.634	0.102	0.255
-181.056	800.000	0.021	0.082
-180.042	387.171	-0.067	0.139
-179.027	689.456	0.178	0.466
-178.012	46.555	0.157	0.146
-176.998	4.961	0.203	0.150
-175.983	-200.000	0.005	0.164
-174.969	-200.000	-0.067	-0.307
-173.954	13.546	-0.241	0.187
-172.939	800.000	0.098	-0.346
-171.925	758.577	0.130	0.353
-170.910	8.877	0.054	0.041
-169.896	-33.319	0.349	0.193
-168.881	3.898	-0.140	-0.102
-167.866	-200.000	0.023	-0.121
-166.852	-72.453	-0.015	-0.006
-165.837	353.994	-0.101	0.200
-164.823	800.000	0.058	-0.212
-163.808	398.422	0.141	-0.294
-162.793	-200.000	-0.001	-0.080
-161.779	22.589	-0.115	0.094
-160.764	531.652	-0.042	-0.100
-159.750	55.893	0.100	0.097
-158.735	-44.444	0.260	-0.130
-157.720	-79.506	0.259	-0.088
-156.706	-151.391	0.142	-0.011
-155.691	189.638	0.150	0.224
-154.677	-195.416	0.124	-0.001
-153.662	-142.531	-0.272	0.027
-152.647	-200.000	0.036	0.178
-151.633	-200.000	0.090	0.507
-150.618	10.981	0.068	0.052
-149.604	-102.818	-0.434	-0.103
-148.589	-200.000	0.057	0.319
-147.574	-9.730	0.168	0.112
-146.560	800.000	-0.053	-0.231
-145.545	42.605	0.135	-0.123
-144.531	540.134	0.072	-0.171
-143.516	-200.000	-0.008	-0.390
-142.502	-125.538	0.188	0.029
-141.487	-100.046	-0.160	-0.040
-140.472	-52.023	0.068	0.032
-139.458	-200.000	0.005	0.281
-138.443	-30.334	-0.029	0.016
-137.429	330.586	0.099	-0.191
-136.414	104.974	0.109	-0.128
-135.399	72.650	-0.080	0.084
-134.385	-123.604	-0.327	0.052
-133.370	-17.769	0.056	0.035
-132.356	-31.729	0.293	0.164
-131.341	388.998	0.076	0.158
-130.326	-15.218	0.086	-0.055
-129.312	124.366	0.029	0.037
-128.297	76.104	-0.120	0.127
-127.283	-200.000	0.025	-0.192
-126.268	800.000	-0.123	0.364
-125.253	800.000	0.036	-0.148
-124.239	161.944	0.070	-0.098
-123.224	681.684	-0.051	0.133
-122.210	-109.778	-0.269	0.056
-121.195	800.000	-0.008	-0.032
-120.180	8.067	-0.094	0.070
