DTS Sentinel unit serial number:	SN413079Multiplexer serial number:	ORYXHardware model number:	OX4-SRSoftware version number:	ORYX F/W v4.00 Oryx Data Collector v3.7.2.0data status	okinstallation	princeton_trtdifferential loss correction	single-endedforward channel	channel 1reverse channel	N/Adate	2019/09/10time	17:20:11forward acquisition time	60.00reverse acquisition time	0.00gamma	496.2192k internal	0.2299k external	0.2299temperature offset calibration	0.9924default loss term (dB/km)	0.3790temperature slope calibration	1.0000multiplexer offset coefficient	1.0000multiplexer slope coefficient	1.0000fibre end	0.00T internal ref (°C)	37.62T ext. ref 1 (°C)	-0.37T ext. ref 2 (°C)	32.10length (m)	temperature (°C)	Stokes	anti-Stokes-747.200	388.112	0.034	-0.073
-746.185	73.509	-0.218	0.233
-745.171	-103.506	-0.215	0.052
-744.156	21.497	-0.165	0.137
-743.142	-118.021	-0.367	-0.067
-742.127	48.197	-0.104	-0.099
-741.112	428.713	-0.081	-0.178
-740.098	5.610	-0.196	0.148
-739.083	800.000	0.063	0.185
-738.069	-112.827	-0.259	-0.052
-737.054	57.400	0.176	0.175
-736.039	800.000	0.047	0.143
-735.025	-46.073	0.129	0.065
-734.010	84.816	-0.396	-0.443
-732.996	-55.673	-0.191	0.087
-731.981	-75.868	0.259	-0.094
-730.966	-117.350	0.158	0.029
-729.952	-200.000	-0.075	-0.344
-728.937	-200.000	0.023	-0.151
-727.923	-200.000	-0.020	-0.148
-726.908	-86.420	-0.139	0.044
-725.894	45.195	-0.280	-0.263
-724.879	-170.762	-0.195	-0.007
-723.864	-15.763	0.046	0.030
-722.850	-84.352	-0.245	0.079
-721.835	-200.000	0.018	-0.151
-720.821	-36.081	-0.333	-0.183
-719.806	-38.418	0.184	0.099
-718.791	-83.877	0.112	-0.036
-717.777	-68.681	0.483	0.191
-716.762	168.140	0.227	0.330
-715.748	-85.623	-0.228	-0.072
-714.733	-200.000	-0.031	0.321
-713.718	53.532	-0.032	-0.032
-712.704	800.000	-0.074	-0.260
-711.689	315.610	0.219	-0.420
-710.675	141.991	0.152	0.205
-709.660	-132.497	-0.269	-0.035
-708.645	-182.717	-0.169	0.003
-707.631	-124.651	0.011	-0.002
-706.616	-92.409	-0.117	0.034
-705.602	36.348	-0.067	-0.060
-704.587	-57.507	0.216	-0.096
-703.572	152.750	0.111	-0.154
-702.558	-59.606	0.069	0.030
-701.543	-200.000	-0.007	0.166
-700.529	69.062	0.074	0.078
-699.514	-200.000	0.011	0.361
-698.499	-3.029	-0.220	0.156
-697.485	256.166	0.184	-0.322
-696.470	800.000	-0.020	0.056
-695.456	-159.561	-0.115	0.006
-694.441	-200.000	-0.017	0.075
-693.426	205.409	0.069	-0.109
-692.412	-17.436	-0.146	-0.093
-691.397	39.984	0.101	0.093
-690.383	448.752	-0.082	-0.185
-689.368	737.803	0.051	-0.140
-688.354	466.791	-0.022	0.050
-687.339	15.583	-0.058	-0.046
-686.324	-158.021	0.551	0.033
-685.310	-71.119	-0.098	-0.038
-684.295	28.629	-0.083	-0.072
-683.281	-200.000	0.013	-0.228
-682.266	-200.000	0.064	0.461
-681.251	123.399	-0.191	-0.244
-680.237	142.198	-0.100	0.135
-679.222	20.111	-0.190	0.156
-678.208	7.819	0.050	-0.038
-677.193	291.708	0.053	0.099
-676.178	109.065	-0.143	-0.174
-675.164	-168.548	-0.420	0.016
-674.149	631.479	0.084	-0.216
-673.135	-27.758	-0.077	0.045
-672.120	-64.529	-0.160	0.066
-671.105	-200.000	-0.040	-0.498
-670.091	-145.265	0.426	0.039
-669.076	256.809	-0.118	-0.207
-668.062	116.312	-0.139	-0.174
-667.047	800.000	-0.078	-0.280
-666.032	-110.148	0.362	-0.077
-665.018	122.408	0.232	-0.296
-664.003	-50.906	0.086	-0.041
-662.989	-45.678	0.061	0.031
-661.974	145.889	0.096	0.131
-660.959	-128.566	-0.093	-0.013
-659.945	-90.469	0.295	0.087
-658.930	205.312	-0.159	0.252
-657.916	-200.000	-0.067	-0.308
-656.901	185.333	-0.154	-0.232
-655.886	-200.000	0.096	-0.476
-654.872	224.184	0.151	-0.248
-653.857	392.372	-0.060	-0.127
-652.843	800.000	0.033	0.105
-651.828	2.477	0.254	0.187
-650.814	486.601	0.048	-0.111
-649.799	-200.000	0.115	0.588
-648.784	-200.000	-0.011	0.053
-647.770	-200.000	0.018	0.104
-646.755	-112.970	-0.334	0.067
-645.741	-162.767	0.245	0.012
-644.726	37.633	0.104	-0.094
-643.711	-49.340	0.336	0.163
-642.697	293.767	-0.185	0.344
-641.682	16.766	0.243	0.196
-640.668	-200.000	-0.004	0.217
-639.653	-125.621	0.219	-0.034
-638.638	80.380	-0.094	0.103
-637.624	-76.682	0.323	-0.115
-636.609	-138.749	-0.220	-0.024
-635.595	251.841	0.251	-0.434
-634.580	-9.980	0.147	-0.099
-633.565	103.132	-0.172	-0.205
-632.551	-56.332	-0.169	-0.076
-631.536	13.505	-0.224	-0.176
-630.522	-33.823	-0.223	0.125
-629.507	-36.745	0.103	-0.056
-628.492	248.153	-0.072	-0.124
-627.478	38.616	-0.026	0.023
-626.463	126.218	0.139	-0.178
-625.449	-112.403	-0.271	-0.055
-624.434	36.561	-0.125	-0.112
-623.419	26.721	0.229	0.195
-622.405	-81.560	0.326	-0.109
-621.390	-143.167	-0.290	-0.028
-620.376	74.175	0.075	-0.080
-619.361	800.000	-0.040	-0.135
-618.346	26.398	0.172	0.146
-617.332	-31.847	0.212	-0.121
-616.317	-107.389	0.270	0.060
-615.303	800.000	-0.027	-0.077
-614.288	238.188	0.154	0.260
-613.273	-111.470	-0.342	0.071
-612.259	-200.000	0.005	0.308
-611.244	347.843	-0.078	0.156
-610.230	57.938	0.221	-0.220
-609.215	-74.971	0.087	0.032
-608.201	-32.615	-0.386	0.218
-607.186	191.666	-0.109	-0.166
-606.171	-63.501	-0.183	0.076
-605.157	-43.305	-0.069	-0.036
-604.142	4.657	0.109	-0.081
-603.128	-29.998	-0.142	-0.082
-602.113	-73.469	-0.356	-0.132
-601.098	671.054	0.068	-0.178
-600.084	37.250	-0.168	0.151
-599.069	-133.240	0.119	-0.015
-598.055	-124.377	0.324	0.051
-597.040	46.453	0.082	-0.077
-596.025	-33.916	0.290	0.162
-595.011	-200.000	0.054	0.310
-593.996	-135.998	0.313	0.037
-592.982	-162.935	-0.036	0.002
-591.967	-130.911	0.350	0.047
-590.952	-82.718	0.188	0.062
-589.938	158.341	-0.111	0.157
-588.923	58.884	0.235	-0.234
-587.909	-136.664	0.178	-0.021
-586.894	-88.404	-0.230	0.070
-585.879	-143.226	0.198	0.019
-584.865	-170.051	0.259	0.009
-583.850	134.135	-0.343	0.451
-582.836	-19.779	-0.274	0.172
-581.821	57.491	-0.118	0.117
-580.806	-200.000	-0.021	0.492
-579.792	-200.000	-0.019	-0.369
-578.777	-32.086	-0.220	0.125
-577.763	-200.000	0.043	0.349
-576.748	208.494	0.149	0.236
-575.733	209.200	0.244	0.387
-574.719	-84.757	-0.323	0.103
-573.704	-143.865	-0.265	-0.025
-572.690	-54.068	-0.280	-0.129
-571.675	74.294	0.149	0.159
-570.661	-38.332	-0.066	0.036
-569.646	-200.000	-0.032	-0.432
-568.631	274.572	-0.234	0.420
-567.617	358.841	-0.085	0.172
-566.602	24.447	0.140	0.117
-565.588	50.556	-0.321	0.308
-564.573	24.256	-0.423	0.354
-563.558	-165.860	-0.139	0.006
-562.544	-0.859	0.269	-0.193
-561.529	-155.696	0.147	-0.010
-560.515	-33.662	-0.193	-0.108
-559.500	212.504	-0.231	-0.369
-558.485	-93.646	-0.196	0.055
-557.471	-23.308	0.217	-0.132
-556.456	95.138	-0.240	0.277
-555.442	-65.025	0.151	0.062
-554.427	-7.239	-0.325	-0.223
-553.412	-200.000	-0.023	0.258
-552.398	241.845	0.079	0.134
-551.383	123.121	-0.007	-0.009
-550.369	-148.066	-0.378	-0.032
-549.354	800.000	0.053	-0.152
-548.339	64.697	0.156	0.159
-547.325	-200.000	-0.037	0.291
-546.310	800.000	-0.018	0.069
-545.296	-137.313	-0.090	-0.010
-544.281	-200.000	-0.050	0.324
-543.266	-143.887	0.309	-0.029
-542.252	-70.344	0.222	-0.085
-541.237	-200.000	-0.002	-0.117
-540.223	584.097	-0.092	0.229
-539.208	62.439	-0.182	0.184
-538.193	-81.104	-0.333	0.112
-537.179	88.406	-0.025	-0.028
-536.164	614.925	0.139	0.353
-535.150	29.869	0.085	-0.073
-534.135	-85.970	-0.510	-0.160
-533.121	20.793	-0.091	0.075
-532.106	381.945	0.101	-0.211
-531.091	378.144	-0.115	-0.238
-530.077	-67.252	0.122	-0.049
-529.062	90.587	-0.122	0.138
-528.048	-31.225	0.216	-0.123
-527.033	-13.507	-0.174	0.114
-526.018	-200.000	-0.013	0.093
-525.004	-200.000	0.008	-0.142
-523.989	-52.074	0.374	0.176
-522.975	-87.192	0.212	-0.065
-521.960	-200.000	-0.004	0.118
-520.945	-200.000	-0.046	0.253
-519.931	-110.379	0.167	-0.035
-518.916	-81.813	0.143	-0.047
-517.902	-200.000	0.040	-0.294
-516.887	56.278	0.257	0.253
-515.872	-126.256	-0.074	0.011
-514.858	-200.000	-0.007	-0.055
-513.843	120.550	0.066	0.083
-512.829	195.517	-0.100	0.154
-511.814	49.983	0.167	-0.159
-510.799	-2.318	0.281	0.200
-509.785	-200.000	-0.003	0.036
-508.770	17.685	0.084	0.067
-507.756	335.463	-0.022	0.042
-506.741	18.118	0.149	-0.120
-505.726	2.940	-0.143	0.105
-504.712	-11.768	0.136	0.090
-503.697	-94.749	0.319	-0.087
-502.683	800.000	0.160	-0.516
-501.668	526.997	-0.110	-0.261
-500.653	800.000	-0.070	-0.304
-499.639	-38.367	-0.326	-0.174
-498.624	-51.024	-0.242	0.115
-497.610	29.012	0.055	0.047
-496.595	-78.039	-0.211	-0.073
-495.581	800.000	0.072	0.223
-494.566	-99.531	0.170	-0.043
-493.551	280.387	0.104	-0.187
-492.537	-78.162	0.200	0.070
-491.522	-76.717	0.205	0.073
-490.508	-85.932	0.212	0.066
-489.493	229.591	-0.088	0.145
-488.478	104.179	0.107	-0.127
-487.464	130.424	0.016	-0.020
-486.449	-200.000	-0.003	-0.205
-485.435	145.026	0.237	0.320
-484.420	-12.219	0.140	-0.093
-483.405	-39.167	0.273	-0.145
-482.391	354.753	0.095	0.191
-481.376	800.000	-0.021	0.078
-480.362	563.704	0.031	0.076
-479.347	800.000	0.042	0.141
-478.332	800.000	-0.036	-0.132
-477.318	56.057	-0.078	-0.076
-476.303	-48.132	0.055	-0.027
-475.289	-96.249	-0.243	-0.065
-474.274	43.498	0.087	0.080
-473.259	-16.521	0.166	-0.107
-472.245	194.209	-0.032	0.048
-471.230	-43.326	0.214	0.109
-470.216	-123.094	-0.055	0.009
-469.201	-200.000	0.012	0.110
-468.186	69.073	0.051	0.053
-467.172	-64.741	-0.156	-0.064
-466.157	404.632	-0.075	-0.159
-465.143	169.225	-0.242	0.349
-464.128	83.933	-0.050	0.055
-463.113	-200.000	0.000	0.029
-462.099	-93.848	-0.206	-0.057
-461.084	-0.964	0.085	-0.061
-460.070	800.000	-0.080	0.230
-459.055	87.822	0.119	0.133
-458.040	-12.179	-0.128	-0.085
-457.026	99.986	-0.253	0.296
-456.011	99.764	0.240	-0.281
-454.997	73.388	-0.113	-0.119
-453.982	-120.181	-0.294	0.051
-452.968	-200.000	-0.034	0.447
-451.953	-51.915	0.215	-0.101
-450.938	-104.844	-0.359	-0.083
-449.924	-200.000	0.016	-0.171
-448.909	151.991	0.103	-0.141
-447.895	-59.395	-0.227	-0.098
-446.880	-200.000	-0.027	-0.129
-445.865	-182.871	0.260	0.005
-444.851	138.924	-0.155	-0.205
-443.836	-200.000	0.020	0.154
-442.822	-37.284	0.332	0.179
-441.807	800.000	-0.140	-0.430
-440.792	-200.000	-0.025	-0.142
-439.778	318.392	-0.062	0.118
-438.763	-200.000	0.028	0.386
-437.749	374.839	-0.119	0.244
-436.734	-75.299	-0.486	0.175
-435.719	-97.091	-0.136	-0.036
-434.705	800.000	0.050	0.142
-433.690	24.384	0.090	-0.075
-432.676	-108.077	0.153	0.033
-431.661	168.404	0.137	-0.197
-430.646	800.000	0.110	-0.365
-429.632	-144.543	-0.154	0.014
-428.617	449.988	0.128	0.284
-427.603	-98.265	0.221	-0.057
-426.588	800.000	-0.074	0.295
-425.573	14.099	-0.208	0.163
-424.559	-200.000	0.015	-0.298
-423.544	5.727	0.098	-0.073
-422.530	800.000	-0.061	0.199
-421.515	66.126	-0.121	0.124
-420.500	231.627	-0.185	-0.305
-419.486	198.109	0.087	0.133
-418.471	246.377	0.210	-0.357
-417.457	-89.926	-0.185	0.054
-416.442	12.455	-0.181	-0.141
-415.428	-49.356	-0.210	-0.101
-414.413	-90.015	0.142	0.042
-413.398	-200.000	0.001	0.107
-412.384	800.000	0.077	0.265
-411.369	-43.365	0.056	-0.028
-410.355	44.089	-0.135	0.124
-409.340	0.998	-0.058	-0.042
-408.325	-50.797	-0.035	0.016
-407.311	-74.457	-0.285	0.104
-406.296	118.910	0.028	-0.034
-405.282	800.000	0.088	-0.249
-404.267	-200.000	0.013	-0.174
-403.252	259.769	-0.108	0.188
-402.238	162.572	0.058	-0.083
-401.223	800.000	-0.144	-0.444
-400.209	482.752	-0.191	-0.438
-399.194	227.011	-0.112	0.183
-398.179	800.000	0.028	-0.112
-397.165	-4.289	0.213	-0.148
-396.150	-95.286	0.070	0.019
-395.136	8.716	0.295	-0.224
-394.121	-200.000	-0.019	0.152
-393.106	800.000	0.038	-0.107
-392.092	-50.481	0.191	0.091
-391.077	596.154	-0.111	-0.276
-390.063	-97.891	0.236	0.061
-389.048	-93.202	-0.021	-0.006
-388.033	-34.724	0.035	-0.019
-387.019	800.000	0.118	-0.421
-386.004	204.663	0.059	0.092
-384.990	302.322	-0.136	-0.253
-383.975	-104.468	0.205	-0.048
-382.960	25.766	-0.082	0.069
-381.946	-84.940	0.338	-0.107
-380.931	119.111	0.054	-0.067
-379.917	-113.193	-0.131	0.026
-378.902	-41.702	-0.290	-0.150
-377.888	800.000	0.113	-0.363
-376.873	-31.489	-0.228	0.129
-375.858	-96.231	-0.156	-0.042
-374.844	608.846	-0.176	0.441
-373.829	-200.000	-0.013	-0.106
-372.815	-14.886	0.176	0.114
-371.800	-68.861	0.153	-0.060
-370.785	2.602	0.113	0.082
-369.771	118.140	-0.029	-0.037
-368.756	-200.000	0.043	0.294
-367.742	-24.769	-0.175	-0.104
-366.727	-200.000	0.030	0.302
-365.712	-200.000	0.057	0.353
-364.698	41.282	-0.184	0.167
-363.683	65.020	-0.217	0.220
-362.669	7.686	0.273	-0.205
-361.654	-178.600	0.097	0.002
-360.639	-101.452	0.202	-0.049
-359.625	68.239	0.219	0.226
-358.610	-18.312	-0.179	0.112
-357.596	-7.432	0.190	0.129
-356.581	-200.000	-0.004	-0.020
-355.566	-65.800	-0.026	-0.011
-354.552	443.262	0.122	0.270
-353.537	37.998	0.093	0.083
-352.523	-18.760	-0.218	0.136
-351.508	296.618	-0.086	-0.158
-350.493	-41.834	-0.167	-0.086
-349.479	11.743	0.014	-0.011
-348.464	152.223	0.038	-0.052
-347.450	-92.877	0.162	-0.046
-346.435	-130.422	0.088	0.012
-345.420	-94.603	-0.264	0.072
-344.406	-108.942	0.130	-0.028
-343.391	23.168	0.112	0.092
-342.377	615.421	0.019	-0.049
-341.362	800.000	-0.054	-0.222
-340.348	127.355	-0.018	-0.024
-339.333	-69.313	0.129	0.050
-338.318	-63.650	0.029	0.012
-337.304	-97.664	-0.291	-0.076
-336.289	37.437	0.238	0.212
-335.275	-95.638	0.145	0.039
-334.260	31.991	-0.081	0.070
-333.245	-35.094	0.131	-0.072
-332.231	-139.652	0.224	-0.024
-331.216	800.000	0.039	-0.134
-330.202	50.752	-0.265	-0.252
-329.187	-73.787	-0.121	-0.044
-328.172	41.059	0.178	-0.161
-327.158	-200.000	0.055	-0.395
-326.143	37.854	-0.241	-0.215
-325.129	163.115	-0.069	-0.097
-324.114	-200.000	0.036	-0.195
-323.099	-167.713	-0.247	-0.010
-322.085	-12.581	-0.305	-0.200
-321.070	161.810	0.193	0.271
-320.056	156.560	-0.019	0.026
-319.041	243.438	0.108	-0.181
-318.026	-130.317	-0.269	0.037
-317.012	205.132	0.023	-0.036
-315.997	800.000	0.060	-0.192
-314.983	-94.860	0.131	-0.036
-313.968	-56.990	-0.036	-0.016
-312.953	-200.000	0.031	-0.214
-311.939	-200.000	0.002	0.177
-310.924	-200.000	-0.047	-0.355
-309.910	-189.567	0.273	-0.003
-308.895	800.000	-0.039	-0.170
-307.880	-92.520	-0.080	0.023
-306.866	-115.551	0.100	0.019
-305.851	1.856	-0.088	-0.064
-304.837	800.000	-0.018	0.078
-303.822	501.796	0.158	0.365
-302.807	-200.000	0.081	-0.413
-301.793	26.888	-0.185	0.156
-300.778	-7.205	-0.145	-0.098
-299.764	164.415	-0.048	0.067
-298.749	-132.380	0.442	0.057
-297.735	800.000	0.066	0.233
-296.720	-200.000	-0.043	-0.357
-295.705	-30.760	0.043	0.024
-294.691	-200.000	-0.073	-0.514
-293.676	800.000	0.045	0.135
-292.662	-200.000	0.049	0.283
-291.647	-108.168	0.116	0.025
-290.632	-136.518	-0.148	-0.017
-289.618	800.000	-0.059	0.173
-288.603	-120.175	-0.055	-0.009
-287.589	-56.607	-0.210	0.093
-286.574	-47.704	0.094	0.045
-285.559	800.000	-0.080	-0.294
-284.545	-200.000	-0.040	0.293
-283.530	39.556	0.222	0.200
-282.516	-71.036	0.062	0.023
-281.501	288.083	0.122	0.221
-280.486	57.508	-0.137	0.134
-279.472	117.092	-0.054	0.066
-278.457	62.684	0.200	0.201
-277.443	-103.784	-0.338	0.079
-276.428	-28.492	0.158	0.092
-275.413	-200.000	0.021	-0.118
-274.399	28.558	-0.050	-0.042
-273.384	-29.314	0.140	-0.080
-272.370	-200.000	-0.004	-0.088
-271.355	-200.000	0.029	-0.195
-270.340	-30.456	0.145	0.082
-269.326	191.164	0.064	-0.096
-268.311	-4.365	-0.196	-0.136
-267.297	-21.791	-0.231	0.141
-266.282	271.645	0.312	0.551
-265.267	-11.009	-0.342	0.226
-264.253	800.000	-0.014	-0.047
-263.238	-38.108	-0.176	0.093
-262.224	-110.016	0.260	-0.055
-261.209	-200.000	0.062	0.352
-260.195	-133.848	0.253	-0.031
-259.180	-139.185	0.425	-0.046
-258.165	181.109	0.220	0.324
-257.151	-10.343	0.227	-0.151
-256.136	-200.000	0.065	0.313
-255.122	800.000	-0.071	0.215
-254.107	800.000	0.038	-0.147
-253.092	-67.097	0.439	0.173
-252.078	-88.777	-0.191	0.057
-251.063	77.849	-0.112	0.120
-250.049	-48.510	-0.135	-0.065
-249.034	113.612	0.184	0.224
-248.019	-57.290	0.304	-0.134
-247.005	558.497	0.024	0.058
-245.990	61.125	-0.340	-0.338
-244.976	-79.616	-0.160	0.054
-243.961	43.371	-0.112	-0.102
-242.946	-146.102	-0.123	-0.011
-241.932	-176.261	0.301	0.008
-240.917	-116.347	-0.511	-0.095
-239.903	65.126	-0.169	-0.171
-238.888	13.948	-0.241	-0.187
-237.873	-93.105	-0.208	0.058
-236.859	-120.258	0.252	0.043
-235.844	-200.000	-0.005	0.116
-234.830	-86.695	-0.055	-0.017
-233.815	-200.000	-0.006	0.230
-232.800	310.554	-0.029	-0.055
-231.786	-25.082	-0.296	0.176
-230.771	-200.000	-0.029	-0.156
-229.757	-62.349	-0.224	0.093
-228.742	409.719	0.149	-0.315
-227.727	-100.555	0.076	-0.019
-226.713	61.181	0.249	-0.248
-225.698	800.000	0.029	0.104
-224.684	-200.000	0.011	0.135
-223.669	-200.000	0.012	-0.076
-222.655	178.367	-0.131	-0.191
-221.640	65.742	-0.189	-0.191
-220.625	453.864	0.055	-0.121
-219.611	-84.046	0.046	-0.015
-218.596	-65.711	-0.140	-0.056
-217.582	-133.327	-0.293	0.037
-216.567	30.800	0.208	0.178
-215.552	280.375	-0.076	0.135
-214.538	-100.138	0.277	0.069
-213.523	59.473	0.066	-0.065
-212.509	56.192	-0.043	0.042
-211.494	-23.655	-0.286	-0.171
-210.479	62.525	-0.053	0.053
-209.465	258.055	-0.077	0.133
-208.450	189.447	0.223	-0.334
-207.436	-132.362	-0.055	0.007
-206.421	800.000	-0.047	-0.198
-205.406	-200.000	0.005	-0.169
-204.392	350.810	0.114	-0.226
-203.377	209.825	0.086	-0.134
-202.363	-200.000	-0.012	-0.076
-201.348	-133.112	-0.250	0.032
-200.333	-62.409	0.104	-0.043
-199.319	183.666	-0.069	-0.102
-198.304	-62.763	0.139	0.058
-197.290	-80.240	0.148	0.049
-196.275	-48.615	0.147	0.071
-195.260	-24.950	-0.022	-0.013
-194.246	-28.050	0.101	0.058
-193.231	-40.322	-0.129	-0.067
-192.217	-158.790	-0.116	0.007
-191.202	-200.000	0.078	-0.617
-190.187	192.419	-0.246	-0.370
-189.173	-200.000	-0.024	-0.121
-188.158	43.359	0.256	0.233
-187.144	-160.607	0.128	-0.007
-186.129	71.314	0.363	-0.376
-185.114	260.332	0.095	-0.164
-184.100	79.818	-0.181	-0.194
-183.085	-21.040	-0.139	-0.085
-182.071	-136.063	-0.261	0.031
-181.056	434.746	-0.055	0.120
-180.042	157.924	-0.331	-0.457
-179.027	240.869	0.077	0.129
-178.012	449.615	0.166	0.366
-176.998	57.109	-0.075	-0.073
-175.983	297.951	0.044	0.080
-174.969	0.418	0.162	-0.115
-173.954	-156.358	0.229	-0.014
-172.939	307.056	-0.039	-0.072
-171.925	-200.000	0.001	-0.177
-170.910	-74.542	-0.157	0.056
-169.896	-132.258	-0.119	-0.015
-168.881	-9.357	-0.243	0.162
-167.866	84.325	-0.125	-0.136
-166.852	-101.006	0.401	-0.098
-165.837	-200.000	0.016	-0.152
-164.823	106.932	-0.103	-0.123
-163.808	-36.048	0.174	0.094
-162.793	800.000	0.025	-0.092
-161.779	217.477	0.046	0.072
-160.764	694.473	0.099	-0.260
-159.750	-47.283	-0.179	-0.087
-158.735	87.292	-0.044	0.049
-157.720	-200.000	-0.013	-0.084
-156.706	-200.000	0.040	-0.182
-155.691	79.455	-0.276	-0.295
-154.677	166.209	-0.219	-0.310
-153.662	-59.488	0.061	0.026
-152.647	-200.000	0.032	0.364
-151.633	-151.253	-0.157	0.012
-150.618	-114.765	-0.180	0.034
-149.604	-200.000	0.003	0.063
-148.589	-200.000	-0.017	-0.153
-147.574	-200.000	-0.066	0.304
-146.560	57.660	-0.300	0.292
-145.545	800.000	-0.077	0.318
-144.531	50.115	0.140	0.131
-143.516	-200.000	-0.050	-0.363
-142.502	316.549	0.101	-0.191
-141.487	-200.000	-0.015	-0.166
-140.472	-65.492	0.177	-0.071
-139.458	310.052	-0.084	-0.156
-138.443	-21.122	-0.303	-0.185
-137.429	-13.479	-0.046	0.030
-136.414	331.416	0.021	0.040
-135.399	-90.331	0.323	-0.093
-134.385	-154.248	-0.157	-0.011
-133.370	800.000	0.066	-0.186
-132.356	-159.716	0.232	-0.013
-131.341	-95.065	-0.516	-0.139
-130.326	3.329	0.198	-0.144
-129.312	490.871	0.048	-0.109
-128.297	-34.110	0.204	-0.112
-127.283	-174.550	0.033	-0.001
-126.268	-136.798	0.264	0.030
-125.253	757.808	-0.079	0.214
-124.239	-200.000	0.028	-0.141
-123.224	138.890	0.103	-0.135
-122.210	-97.095	-0.363	-0.095
-121.195	303.468	0.122	0.225
