DTS Sentinel unit serial number:	SN413079Multiplexer serial number:	ORYXHardware model number:	OX4-SRSoftware version number:	ORYX F/W v4.00 Oryx Data Collector v3.7.2.0data status	okinstallation	princeton_trtdifferential loss correction	single-endedforward channel	channel 1reverse channel	N/Adate	2019/09/14time	20:22:35forward acquisition time	60.00reverse acquisition time	0.00gamma	496.2192k internal	0.2316k external	0.2316temperature offset calibration	1.0023default loss term (dB/km)	0.3790temperature slope calibration	1.0000multiplexer offset coefficient	1.0000multiplexer slope coefficient	1.0000fibre end	0.00T internal ref (°C)	33.66T ext. ref 1 (°C)	4.84T ext. ref 2 (°C)	28.18length (m)	temperature (°C)	Stokes	anti-Stokes-747.200	-61.709	-0.176	-0.075
-746.185	-200.000	0.001	0.042
-745.171	0.423	0.052	0.038
-744.156	-34.240	-0.048	0.026
-743.142	-86.363	0.075	0.023
-742.127	-200.000	0.013	0.359
-741.112	-138.588	0.232	-0.026
-740.098	488.511	0.021	0.049
-739.083	108.387	-0.108	0.130
-738.069	-200.000	0.014	0.274
-737.054	51.877	0.108	-0.104
-736.039	647.319	-0.111	-0.288
-735.025	-9.844	0.150	-0.101
-734.010	-161.621	-0.097	-0.005
-732.996	800.000	-0.074	-0.239
-731.981	9.746	-0.159	0.122
-730.966	-200.000	-0.021	-0.481
-729.952	-158.767	0.100	0.006
-728.937	800.000	-0.006	0.024
-727.923	172.514	-0.151	0.220
-726.908	786.007	0.143	0.398
-725.894	-200.000	0.002	0.030
-724.879	-12.961	-0.108	-0.071
-723.864	424.727	-0.143	0.310
-722.850	130.782	0.070	-0.091
-721.835	188.152	0.133	-0.201
-720.821	-62.871	-0.329	0.138
-719.806	-40.532	-0.197	-0.103
-718.791	113.578	-0.150	-0.185
-717.777	-130.239	-0.273	-0.038
-716.762	65.973	0.110	0.113
-715.748	-200.000	0.014	-0.213
-714.733	13.968	-0.307	-0.241
-713.718	-67.941	0.174	-0.069
-712.704	-200.000	-0.054	-0.321
-711.689	96.876	-0.199	-0.231
-710.675	48.955	-0.167	-0.158
-709.660	5.390	0.159	-0.119
-708.645	-200.000	-0.029	0.242
-707.631	-101.602	0.274	0.067
-706.616	9.630	-0.098	0.075
-705.602	800.000	0.011	-0.030
-704.587	-200.000	0.017	0.109
-703.572	21.424	0.297	-0.244
-702.558	800.000	0.051	-0.160
-701.543	249.045	-0.136	-0.233
-700.529	165.941	-0.086	-0.123
-699.514	-78.996	-0.275	0.095
-698.499	-200.000	0.009	0.097
-697.485	204.763	0.135	0.211
-696.470	322.371	-0.104	-0.199
-695.456	261.289	0.111	0.195
-694.441	800.000	0.030	0.088
-693.426	800.000	0.038	-0.158
-692.412	-62.168	0.293	-0.124
-691.397	135.306	-0.073	-0.096
-690.383	-139.380	-0.134	0.015
-689.368	9.133	0.370	-0.283
-688.354	-142.870	0.143	0.014
-687.339	-67.585	-0.155	-0.061
-686.324	-108.042	-0.230	0.050
-685.310	3.188	-0.274	-0.201
-684.295	-150.498	-0.273	-0.021
-683.281	2.321	-0.391	-0.286
-682.266	386.591	0.063	0.132
-681.251	-107.023	-0.107	-0.024
-680.237	306.488	0.055	-0.104
-679.222	286.804	0.189	-0.345
-678.208	-36.223	-0.309	-0.168
-677.193	-200.000	-0.006	-0.191
-676.178	182.269	-0.168	0.251
-675.164	-80.337	-0.362	0.122
-674.149	-83.057	-0.223	-0.072
-673.135	-137.515	0.214	-0.024
-672.120	55.996	-0.073	0.072
-671.105	-149.190	0.063	-0.005
-670.091	215.715	-0.048	-0.078
-669.076	-200.000	-0.007	0.078
-668.062	168.418	0.067	0.096
-667.047	-7.836	-0.114	0.078
-666.032	-74.743	0.187	-0.068
-665.018	800.000	0.049	-0.149
-664.003	-32.001	-0.153	0.086
-662.989	-200.000	-0.065	-0.336
-661.974	-200.000	0.014	-0.145
-660.959	-200.000	-0.001	-0.272
-659.945	126.306	0.020	0.025
-658.930	677.296	0.052	-0.137
-657.916	-200.000	0.051	0.342
-656.901	800.000	-0.093	-0.378
-655.886	398.599	0.063	0.133
-654.872	102.304	-0.096	-0.113
-653.857	-167.562	-0.385	-0.015
-652.843	49.191	0.185	0.175
-651.828	94.814	-0.266	-0.306
-650.814	800.000	0.072	-0.242
-649.799	151.019	0.172	-0.236
-648.784	-0.170	0.172	0.123
-647.770	206.753	-0.097	-0.153
-646.755	352.393	0.220	0.440
-645.741	800.000	-0.077	0.253
-644.726	-20.335	-0.274	-0.170
-643.711	-175.440	0.222	-0.006
-642.697	-72.799	0.155	0.057
-641.682	-200.000	-0.005	-0.060
-640.668	-71.686	-0.308	0.116
-639.653	216.405	0.139	-0.224
-638.638	800.000	-0.067	-0.189
-637.624	-107.488	0.112	-0.025
-636.609	13.198	0.082	0.064
-635.595	-200.000	0.006	0.054
-634.580	-25.334	-0.116	-0.069
-633.565	257.538	-0.172	-0.298
-632.551	10.322	-0.153	-0.117
-631.536	-200.000	0.061	0.293
-630.522	-200.000	-0.018	0.327
-629.507	-200.000	-0.022	0.187
-628.492	367.059	-0.084	0.170
-627.478	800.000	0.028	-0.120
-626.463	-6.405	-0.284	0.195
-625.449	267.302	-0.242	0.427
-624.434	114.365	-0.186	0.228
-623.419	-83.953	-0.201	0.064
-622.405	-90.693	-0.300	0.087
-621.390	-200.000	0.030	-0.285
-620.376	800.000	0.056	0.172
-619.361	-200.000	-0.011	0.287
-618.346	-200.000	0.061	-0.414
-617.332	-200.000	0.028	-0.315
-616.317	-64.139	0.321	0.132
-615.303	-60.691	-0.087	-0.037
-614.288	612.165	0.054	-0.136
-613.273	-200.000	0.030	-0.279
-612.259	-105.182	0.106	0.024
-611.244	-89.060	-0.243	-0.072
-610.230	557.199	0.169	-0.410
-609.215	74.765	0.112	0.118
-608.201	458.480	-0.087	-0.195
-607.186	181.687	-0.114	-0.169
-606.171	208.850	-0.118	0.186
-605.157	-33.217	0.241	-0.134
-604.142	708.630	-0.153	-0.408
-603.128	-80.998	-0.491	-0.164
-602.113	-23.711	0.112	0.068
-601.098	-99.867	0.090	-0.023
-600.084	-77.024	-0.487	0.171
-599.069	-70.526	-0.337	-0.128
-598.055	-200.000	-0.045	0.283
-597.040	800.000	-0.069	0.258
-596.025	254.588	-0.111	-0.191
-595.011	24.246	-0.293	-0.243
-593.996	-74.011	-0.072	-0.026
-592.982	17.585	0.079	0.064
-591.967	42.376	-0.390	0.357
-590.952	-126.713	-0.199	0.030
-589.938	713.211	-0.105	-0.280
-588.923	-63.959	0.140	-0.058
-587.909	566.551	-0.030	-0.074
-586.894	-200.000	-0.044	-0.224
-585.879	-200.000	0.012	-0.260
-584.865	-25.240	0.162	-0.096
-583.850	535.505	0.139	-0.331
-582.836	132.601	-0.074	-0.097
-581.821	69.457	-0.131	0.136
-580.806	21.125	-0.196	-0.160
-579.792	366.966	-0.133	0.270
-578.777	-200.000	-0.028	-0.194
-577.763	8.945	-0.278	-0.211
-576.748	-32.891	0.358	-0.200
-575.733	158.338	0.081	0.113
-574.719	-84.335	-0.286	0.091
-573.704	693.147	0.017	0.044
-572.690	-106.153	0.225	0.051
-571.675	-200.000	0.024	0.252
-570.661	-155.404	-0.142	-0.009
-569.646	-168.286	-0.348	-0.014
-568.631	182.542	0.097	0.144
-567.617	-80.142	-0.121	-0.041
-566.602	536.457	-0.065	-0.154
-565.588	278.642	-0.167	0.299
-564.573	104.434	0.203	0.240
-563.558	223.885	0.158	0.257
-562.544	-200.000	0.011	-0.317
-561.529	-51.168	0.165	0.078
-560.515	15.314	-0.383	-0.302
-559.500	800.000	0.042	0.143
-558.485	-139.735	0.362	-0.039
-557.471	-29.826	-0.227	0.130
-556.456	-5.352	0.319	0.220
-555.442	800.000	0.039	-0.150
-554.427	60.077	-0.175	-0.174
-553.412	247.032	0.074	-0.125
-552.398	800.000	0.018	-0.051
-551.383	-39.663	-0.152	-0.080
-550.369	31.730	-0.119	-0.103
-549.354	-121.943	-0.125	0.021
-548.339	134.398	-0.154	0.201
-547.325	-200.000	-0.026	0.123
-546.310	-69.188	-0.122	0.047
-545.296	146.382	0.145	-0.196
-544.281	-81.912	-0.120	-0.039
-543.266	26.179	0.189	-0.159
-542.252	-58.791	-0.336	0.146
-541.237	-15.606	0.390	-0.250
-540.223	223.052	-0.115	0.186
-539.208	-200.000	0.057	0.252
-538.193	-109.602	0.175	-0.037
-537.179	-200.000	0.008	-0.084
-536.164	-54.976	0.220	-0.100
-535.150	-11.458	-0.069	-0.046
-534.135	-200.000	-0.012	0.211
-533.121	649.440	-0.067	-0.173
-532.106	-73.362	-0.225	-0.083
-531.091	65.803	0.107	-0.109
-530.077	13.119	-0.149	-0.116
-529.062	162.835	0.183	-0.258
-528.048	231.143	-0.049	-0.081
-527.033	800.000	-0.108	0.327
-526.018	-200.000	-0.035	-0.158
-525.004	-200.000	0.026	-0.254
-523.989	310.097	0.092	0.173
-522.975	347.716	-0.125	0.248
-521.960	-46.547	-0.200	-0.098
-520.945	331.480	-0.119	0.231
-519.931	263.805	-0.142	0.247
-518.916	788.345	0.072	-0.198
-517.902	29.413	-0.150	0.128
-516.887	76.375	-0.047	-0.050
-515.872	75.412	-0.110	0.117
-514.858	35.927	-0.059	-0.052
-513.843	-138.322	-0.498	0.055
-512.829	128.175	0.349	-0.445
-511.814	-123.677	-0.248	-0.039
-510.799	-119.952	-0.229	-0.039
-509.785	516.990	0.087	0.205
-508.770	800.000	-0.039	-0.114
-507.756	-56.056	-0.068	-0.030
-506.741	126.717	-0.080	0.102
-505.726	-122.205	0.356	-0.059
-504.712	147.015	-0.203	-0.273
-503.697	-200.000	0.013	0.180
-502.683	-120.177	-0.240	-0.041
-501.668	22.428	0.277	-0.227
-500.653	-200.000	0.003	0.345
-499.639	243.961	0.163	0.274
-498.624	-119.935	0.300	-0.052
-497.610	-200.000	0.047	0.400
-496.595	581.127	0.088	0.216
-495.581	134.698	0.134	-0.174
-494.566	-85.667	0.281	-0.088
-493.551	-200.000	-0.013	0.294
-492.537	11.532	0.262	-0.202
-491.522	269.469	0.046	0.081
-490.508	443.904	0.211	0.465
-489.493	-90.484	-0.090	-0.026
-488.478	-78.830	0.139	0.048
-487.464	-200.000	0.038	-0.238
-486.449	312.276	-0.089	0.167
-485.435	800.000	-0.081	-0.302
-484.420	800.000	-0.095	-0.339
-483.405	-24.660	0.491	-0.293
-482.391	-200.000	0.017	-0.333
-481.376	-200.000	0.016	-0.303
-480.362	40.065	0.223	-0.201
-479.347	8.210	-0.226	-0.170
-478.332	-163.157	0.031	0.001
-477.318	26.163	0.111	0.093
-476.303	-200.000	-0.006	0.036
-475.289	-57.164	-0.270	0.119
-474.274	-200.000	0.001	0.009
-473.259	-85.870	-0.225	0.070
-472.245	-147.839	0.124	0.010
-471.230	55.402	0.125	0.122
-470.216	-200.000	-0.042	-0.195
-469.201	46.743	-0.233	-0.217
-468.186	48.423	-0.169	0.158
-467.172	800.000	-0.089	0.289
-466.157	-140.514	0.329	-0.034
-465.143	-200.000	-0.000	0.237
-464.128	113.096	-0.398	-0.483
-463.113	91.015	0.109	-0.123
-462.099	107.700	-0.087	-0.104
-461.084	-132.945	-0.332	0.042
-460.070	195.989	0.044	-0.067
-459.055	-200.000	-0.043	-0.189
-458.040	709.469	-0.092	0.243
-457.026	124.385	-0.111	-0.140
-456.011	579.774	0.094	0.230
-454.997	62.604	0.124	-0.124
-453.982	-73.665	-0.186	-0.068
-452.968	-90.176	0.231	0.067
-451.953	30.714	-0.131	0.112
-450.938	306.340	-0.071	-0.132
-449.924	-24.851	0.128	0.076
-448.909	386.205	0.132	-0.272
-447.895	-22.469	0.212	0.129
-446.880	91.592	0.138	0.155
-445.865	-200.000	-0.022	-0.164
-444.851	106.923	0.138	-0.164
-443.836	163.189	0.165	-0.233
-442.822	800.000	0.018	0.051
-441.807	-51.414	-0.440	0.206
-440.792	411.535	0.101	-0.214
-439.778	1.971	0.130	0.094
-438.763	107.067	-0.062	0.074
-437.749	27.247	-0.152	0.128
-436.734	372.382	-0.160	0.325
-435.719	-77.891	-0.202	-0.070
-434.705	-200.000	-0.013	-0.219
-433.690	-200.000	-0.002	-0.209
-432.676	118.903	-0.184	-0.227
-431.661	351.558	-0.135	-0.267
-430.646	-177.320	0.266	-0.007
-429.632	4.890	0.413	-0.304
-428.617	-46.823	-0.253	-0.124
-427.603	187.787	-0.109	0.163
-426.588	-200.000	-0.032	-0.240
-425.573	800.000	0.048	0.201
-424.559	-120.000	0.323	-0.055
-423.544	385.898	-0.076	0.157
-422.530	91.265	0.127	0.143
-421.515	-200.000	0.015	-0.083
-420.500	-200.000	-0.025	0.130
-419.486	61.028	0.141	0.140
-418.471	16.240	-0.102	-0.081
-417.457	-200.000	0.011	0.277
-416.442	61.401	-0.047	0.047
-415.428	-200.000	-0.056	0.278
-414.413	512.503	0.095	-0.221
-413.398	-127.043	0.278	-0.041
-412.384	800.000	-0.084	-0.331
-411.369	-34.275	0.184	0.101
-410.355	800.000	0.128	0.379
-409.340	632.513	0.078	-0.198
-408.325	-187.387	-0.185	0.002
-407.311	-60.847	0.223	0.094
-406.296	142.886	0.078	0.103
-405.282	-200.000	-0.035	0.224
-404.267	57.598	-0.231	0.225
-403.252	49.308	0.361	-0.339
-402.238	-108.720	0.311	-0.067
-401.223	-200.000	-0.061	-0.275
-400.209	23.464	0.109	-0.090
-399.194	130.987	0.176	0.225
-398.179	-145.816	0.343	-0.030
-397.165	-89.653	0.137	-0.040
-396.150	-200.000	-0.017	0.105
-395.136	126.446	0.221	0.280
-394.121	-77.376	-0.179	0.062
-393.106	71.975	0.094	-0.098
-392.092	-71.549	-0.188	0.070
-391.077	-90.943	0.041	-0.012
-390.063	667.379	0.049	-0.127
-389.048	-179.433	-0.054	-0.001
-388.033	37.705	0.057	0.051
-387.019	800.000	0.054	0.220
-386.004	34.258	-0.082	0.071
-384.990	-67.863	-0.107	0.042
-383.975	-67.878	0.207	0.081
-382.960	32.101	0.151	-0.130
-381.946	-85.473	0.314	-0.098
-380.931	800.000	0.105	0.377
-379.917	-200.000	0.036	-0.252
-378.902	17.471	0.262	-0.208
-377.888	-40.277	0.298	-0.155
-376.873	-45.023	-0.121	-0.060
-375.858	-71.700	0.139	-0.052
-374.844	70.134	-0.092	-0.094
-373.829	-155.233	-0.337	0.022
-372.815	168.597	-0.154	-0.219
-371.800	152.639	0.112	0.153
-370.785	3.605	0.325	0.237
-369.771	800.000	-0.010	0.027
-368.756	-200.000	-0.024	0.211
-367.742	506.919	0.151	0.350
-366.727	72.397	0.152	-0.158
-365.712	-156.701	-0.406	0.025
-364.698	-107.981	0.087	-0.019
-363.683	-116.629	-0.222	0.041
-362.669	-200.000	-0.026	0.431
-361.654	800.000	-0.099	0.286
-360.639	179.275	-0.119	0.174
-359.625	-200.000	-0.025	0.145
-358.610	33.015	0.416	-0.360
-357.596	218.122	-0.049	-0.078
-356.581	303.301	0.061	-0.112
-355.566	-200.000	0.050	0.491
-354.552	-149.996	0.405	-0.031
-353.537	21.009	0.229	-0.186
-352.523	-75.638	-0.101	0.036
-351.508	80.025	0.202	0.217
-350.493	-78.462	0.131	0.045
-349.479	800.000	-0.035	-0.141
-348.464	800.000	-0.061	-0.173
-347.450	-79.547	0.133	-0.045
-346.435	-8.054	0.162	-0.109
-345.420	-141.312	0.405	-0.041
-344.406	127.515	-0.295	-0.374
-343.391	302.264	0.103	-0.189
-342.377	98.832	-0.137	-0.157
-341.362	-11.067	0.175	0.115
-340.348	29.612	-0.084	-0.071
-339.333	-90.503	-0.030	-0.009
-338.318	172.169	-0.160	0.229
-337.304	385.509	-0.020	0.041
-336.289	106.318	-0.267	-0.315
-335.275	176.742	0.136	0.197
-334.260	271.970	-0.195	0.343
-333.245	-85.601	-0.070	-0.022
-332.231	-89.660	-0.319	-0.093
-331.216	800.000	-0.001	-0.003
-330.202	-7.949	-0.201	0.135
-329.187	5.913	-0.018	-0.014
-328.172	-128.353	-0.171	0.024
-327.158	-45.761	0.165	0.081
-326.143	275.691	0.100	0.177
-325.129	204.662	-0.045	0.070
-324.114	-200.000	0.044	-0.344
-323.099	-200.000	-0.021	0.267
-322.085	130.797	-0.062	0.079
-321.070	-195.274	0.056	0.000
-320.056	-200.000	0.030	-0.381
-319.041	-200.000	-0.003	-0.187
-318.026	-139.815	-0.037	0.004
-317.012	93.923	-0.219	-0.247
-315.997	-200.000	-0.065	-0.356
-314.983	6.242	-0.193	0.142
-313.968	-119.855	0.188	-0.032
-312.953	-2.160	-0.084	-0.059
-311.939	263.099	0.120	-0.208
-310.924	84.966	-0.189	-0.206
-309.910	44.774	-0.188	0.172
-308.895	6.384	0.160	0.119
-307.880	-116.883	-0.154	-0.028
-306.866	-87.476	-0.088	-0.027
-305.851	112.989	-0.108	-0.130
-304.837	-91.904	0.288	-0.081
-303.822	-164.928	-0.204	-0.009
-302.807	-200.000	-0.050	0.300
-301.793	-32.454	-0.247	0.137
-300.778	800.000	-0.074	0.216
-299.764	-55.101	0.281	-0.126
-298.749	17.549	0.181	0.143
-297.735	-200.000	0.011	-0.106
-296.720	800.000	0.064	-0.185
-295.705	-56.652	-0.272	0.120
-294.691	-39.525	-0.202	0.105
-293.676	-109.626	0.296	0.062
-292.662	-102.719	0.187	-0.044
-291.647	531.575	0.175	-0.412
-290.632	-87.706	0.156	-0.047
-289.618	800.000	-0.035	0.128
-288.603	73.298	0.110	0.115
-287.589	-163.936	0.205	0.010
-286.574	-200.000	0.018	-0.385
-285.559	-55.321	-0.156	-0.070
-284.545	-108.141	-0.352	-0.076
-283.530	315.989	-0.046	0.087
-282.516	96.120	-0.317	0.360
-281.501	23.932	-0.117	-0.096
-280.486	-87.901	0.329	0.099
-279.472	-147.324	-0.213	-0.018
-278.457	-117.223	-0.219	0.040
-277.443	11.814	0.116	-0.088
-276.428	800.000	0.049	-0.165
-275.413	-66.546	0.158	-0.063
-274.399	-87.848	-0.163	-0.049
-273.384	-89.411	-0.144	0.042
-272.370	-200.000	0.023	0.155
-271.355	27.732	0.099	0.083
-270.340	-91.051	0.165	0.047
-269.326	-62.027	0.024	-0.010
-268.311	-39.021	-0.041	-0.021
-267.297	-24.125	0.048	-0.028
-266.282	176.026	-0.088	0.127
-265.267	-200.000	0.010	0.096
-264.253	-138.341	0.235	0.026
-263.238	123.033	0.209	-0.261
-262.224	-95.822	0.191	0.051
-261.209	257.799	0.263	0.449
-260.195	-86.467	-0.051	0.016
-259.180	-62.533	0.172	-0.071
-258.165	-89.167	0.062	0.018
-257.151	800.000	0.096	-0.384
-256.136	485.286	-0.025	-0.057
-255.122	291.348	-0.145	-0.263
-254.107	-200.000	0.008	-0.472
-253.092	-123.214	0.309	0.049
-252.078	-26.260	0.199	0.116
-251.063	-82.576	-0.243	0.078
-250.049	76.060	-0.041	0.043
-249.034	129.389	0.301	0.382
-248.019	-37.742	-0.198	0.105
-247.005	-123.025	-0.195	0.031
-245.990	586.542	-0.048	-0.119
-244.976	-154.120	0.176	0.012
-243.961	22.164	0.149	0.121
-242.946	800.000	0.091	0.267
-241.932	67.061	-0.247	0.250
-240.917	226.851	0.185	0.299
-239.903	-45.212	0.224	-0.110
-238.888	-76.990	-0.266	-0.092
-237.873	-197.996	0.206	-0.001
-236.859	-200.000	-0.033	-0.336
-235.844	-196.087	-0.175	-0.001
-234.830	104.044	-0.161	0.188
-233.815	-74.732	-0.362	0.129
-232.800	-12.619	0.198	0.128
-231.786	-102.218	0.443	-0.106
-230.771	323.977	0.090	0.171
-229.757	-14.815	0.129	-0.082
-228.742	6.549	-0.040	0.030
-227.727	64.332	0.073	-0.073
-226.713	410.222	-0.103	0.216
-225.698	600.910	0.080	-0.196
-224.684	-164.087	0.155	0.007
-223.669	-59.844	-0.110	0.047
-222.655	136.686	0.084	-0.109
-221.640	-34.053	-0.318	0.174
-220.625	69.367	0.301	-0.308
-219.611	-59.094	0.194	0.083
-218.596	-164.513	0.092	0.004
-217.582	-38.734	-0.201	-0.105
-216.567	700.468	0.037	0.098
-215.552	-200.000	-0.023	0.245
-214.538	257.053	-0.082	0.140
-213.523	-23.836	0.333	0.198
-212.509	-200.000	-0.047	-0.274
-211.494	800.000	-0.104	-0.349
-210.479	38.674	-0.268	0.237
-209.465	-135.456	0.182	-0.022
-208.450	800.000	0.093	-0.312
-207.436	-148.475	0.156	-0.013
-206.421	-200.000	-0.010	-0.084
-205.406	471.863	0.088	-0.196
-204.392	800.000	-0.015	0.059
-203.377	56.200	0.222	-0.214
-202.363	-27.385	0.283	-0.163
-201.348	300.433	0.062	0.113
-200.333	-111.230	0.117	0.024
-199.319	68.670	0.084	-0.086
-198.304	-79.909	-0.387	-0.129
-197.290	260.291	0.029	0.050
-196.275	-33.302	-0.073	-0.040
-195.260	-160.338	-0.226	-0.012
-194.246	-200.000	-0.027	0.163
-193.231	9.383	0.075	0.056
-192.217	-192.533	-0.322	0.003
-191.202	-176.606	-0.151	0.004
-190.187	-199.452	0.401	0.002
-189.173	-112.963	-0.353	0.069
-188.158	-12.937	0.144	0.093
-187.144	800.000	0.058	0.184
-186.129	212.458	-0.059	0.092
-185.114	800.000	0.050	0.149
-184.100	5.889	-0.106	0.078
-183.085	-21.723	-0.351	0.212
-182.071	-22.226	-0.196	-0.118
-181.056	-93.454	0.152	0.042
-180.042	43.311	0.228	0.206
-179.027	21.377	-0.031	0.025
-178.012	-114.246	0.235	-0.045
-176.998	232.674	0.266	0.433
-175.983	-99.241	0.170	-0.042
-174.969	-95.948	0.157	-0.041
-173.954	-87.823	-0.205	0.061
-172.939	362.974	0.049	-0.098
-171.925	136.311	-0.162	-0.209
-170.910	-176.751	-0.164	0.004
-169.896	-0.145	-0.191	0.134
-168.881	50.538	-0.081	-0.076
-167.866	800.000	-0.154	0.529
-166.852	-64.539	0.384	0.154
-165.837	16.594	-0.040	-0.031
-164.823	800.000	0.025	0.075
-163.808	4.086	0.040	-0.029
-162.793	14.665	-0.248	-0.192
-161.779	-200.000	-0.003	0.134
-160.764	-172.872	-0.100	0.003
-159.750	296.458	0.170	0.309
-158.735	-60.807	0.343	-0.144
-157.720	-157.970	-0.150	-0.009
-156.706	46.765	-0.134	0.124
-155.691	8.030	-0.288	0.214
-154.677	135.495	-0.093	-0.120
-153.662	33.312	-0.163	-0.140
-152.647	-200.000	-0.019	0.409
-151.633	252.143	0.085	0.143
-150.618	-200.000	0.046	-0.281
-149.604	205.525	-0.043	-0.066
-148.589	177.414	-0.275	0.397
-147.574	-71.250	-0.174	-0.064
-146.560	-33.870	0.230	0.125
-145.545	-113.289	0.217	0.042
-144.531	-200.000	0.008	0.099
-143.516	-22.256	-0.247	0.148
-142.502	800.000	-0.052	0.180
-141.487	678.740	0.119	-0.306
-140.472	-102.655	0.072	0.017
-139.458	-9.114	0.274	0.182
-138.443	41.934	-0.198	0.178
-137.429	365.275	0.112	-0.224
-136.414	193.118	-0.160	-0.239
-135.399	-67.225	0.083	-0.032
-134.385	191.364	0.213	0.318
-133.370	614.096	-0.136	-0.338
-132.356	99.475	0.182	0.208
-131.341	-43.343	0.097	-0.049
-130.326	-200.000	-0.033	0.145
-129.312	-200.000	-0.018	0.286
-128.297	-40.472	-0.192	0.099
-127.283	43.995	0.058	0.053
-126.268	13.943	0.026	-0.020
-125.253	-59.360	-0.250	-0.106
-124.239	-145.062	-0.336	0.030
-123.224	-200.000	-0.004	-0.125
-122.210	196.321	-0.067	0.101
-121.195	-92.628	0.282	0.078
