DTS Sentinel unit serial number:	SN413079Multiplexer serial number:	ORYXHardware model number:	OX4-SRSoftware version number:	ORYX F/W v4.00 Oryx Data Collector v3.7.2.0data status	okinstallation	princeton_trtdifferential loss correction	single-endedforward channel	channel 1reverse channel	N/Adate	2019/09/14time	04:38:35forward acquisition time	60.00reverse acquisition time	0.00gamma	496.2192k internal	0.2334k external	0.2334temperature offset calibration	1.0077default loss term (dB/km)	0.3790temperature slope calibration	1.0000multiplexer offset coefficient	1.0000multiplexer slope coefficient	1.0000fibre end	0.00T internal ref (°C)	26.81T ext. ref 1 (°C)	3.35T ext. ref 2 (°C)	21.99length (m)	temperature (°C)	Stokes	anti-Stokes-747.200	-148.441	-0.145	0.012
-746.185	176.381	0.044	0.064
-745.171	166.953	-0.116	0.165
-744.156	214.630	0.119	0.189
-743.142	-174.893	-0.293	-0.008
-742.127	111.452	-0.070	0.084
-741.112	15.502	0.107	0.085
-740.098	-103.484	0.480	-0.113
-739.083	-78.554	-0.262	-0.090
-738.069	-58.394	0.058	0.025
-737.054	-164.200	0.201	-0.009
-736.039	-71.608	-0.291	0.109
-735.025	54.112	-0.079	-0.077
-734.010	-115.783	-0.236	-0.044
-732.996	-200.000	-0.049	-0.237
-731.981	148.390	0.200	0.272
-730.966	71.025	-0.167	-0.174
-729.952	-64.913	-0.067	-0.027
-728.937	-109.990	-0.092	-0.019
-727.923	59.728	0.122	0.121
-726.908	-44.245	-0.077	-0.039
-725.894	28.215	-0.100	0.085
-724.879	-119.189	0.130	-0.023
-723.864	398.621	0.100	0.210
-722.850	800.000	-0.066	0.262
-721.835	-81.708	-0.158	0.052
-720.821	800.000	-0.064	0.213
-719.806	-200.000	-0.002	0.162
-718.791	14.092	0.155	-0.121
-717.777	-137.122	-0.395	0.045
-716.762	317.635	-0.200	0.380
-715.748	112.012	0.179	0.217
-714.733	-60.158	0.341	0.146
-713.718	52.385	0.061	0.058
-712.704	-200.000	0.108	-0.489
-711.689	-200.000	-0.069	-0.310
-710.675	60.844	0.125	-0.124
-709.660	375.408	0.141	-0.288
-708.645	-14.127	0.139	-0.090
-707.631	-151.091	0.096	0.007
-706.616	-80.946	0.250	-0.083
-705.602	351.253	-0.041	0.081
-704.587	301.601	0.103	0.190
-703.572	84.833	-0.095	0.104
-702.558	153.371	0.183	-0.252
-701.543	-200.000	-0.008	-0.112
-700.529	-200.000	-0.053	0.288
-699.514	-200.000	-0.004	0.222
-698.499	52.528	-0.201	-0.193
-697.485	119.352	0.057	0.071
-696.470	97.800	-0.130	0.150
-695.456	226.779	-0.034	-0.055
-694.441	800.000	0.052	-0.161
-693.426	186.866	0.113	0.169
-692.412	35.226	0.363	-0.319
-691.397	-82.217	-0.263	-0.086
-690.383	107.359	-0.054	-0.064
-689.368	-19.983	0.229	0.142
-688.354	-200.000	0.042	0.223
-687.339	-114.600	0.075	-0.014
-686.324	77.037	-0.155	-0.165
-685.310	381.756	-0.038	0.078
-684.295	10.676	-0.163	0.125
-683.281	-176.269	-0.083	0.002
-682.266	-112.546	-0.259	-0.052
-681.251	-106.165	0.315	-0.071
-680.237	333.488	-0.057	-0.110
-679.222	-200.000	0.168	-0.001
-678.208	94.252	-0.026	0.029
-677.193	800.000	-0.073	-0.261
-676.178	-200.000	0.020	0.208
-675.164	299.376	-0.169	-0.312
-674.149	-5.446	-0.294	0.202
-673.135	-17.193	0.133	0.084
-672.120	-38.504	0.284	0.151
-671.105	104.250	-0.120	0.141
-670.091	-83.709	-0.307	0.098
-669.076	88.230	0.209	0.232
-668.062	-151.829	0.214	-0.016
-667.047	306.066	-0.049	0.091
-666.032	655.371	-0.133	0.341
-665.018	-43.550	-0.271	-0.137
-664.003	225.775	-0.093	-0.152
-662.989	226.823	-0.108	-0.176
-661.974	-200.000	0.030	-0.278
-660.959	-188.175	0.063	-0.001
-659.945	-117.374	0.234	0.043
-658.930	-109.677	-0.297	-0.063
-657.916	2.201	0.291	0.210
-656.901	-200.000	0.024	-0.129
-655.886	19.080	-0.063	-0.050
-654.872	-107.667	0.378	0.083
-653.857	-52.541	0.066	-0.031
-652.843	-187.032	-0.651	-0.009
-651.828	-28.403	0.234	-0.135
-650.814	273.555	0.127	0.225
-649.799	-200.000	0.081	-0.489
-648.784	800.000	-0.028	-0.112
-647.770	-144.752	-0.067	-0.006
-646.755	-200.000	0.016	-0.315
-645.741	501.334	-0.148	-0.341
-644.726	-19.292	-0.235	0.146
-643.711	800.000	-0.042	0.130
-642.697	800.000	-0.047	0.135
-641.682	18.132	0.125	-0.100
-640.668	-200.000	0.014	0.332
-639.653	-104.136	-0.054	-0.013
-638.638	16.950	-0.160	0.127
-637.624	-80.547	0.125	-0.042
-636.609	-200.000	0.016	0.166
-635.595	-200.000	-0.028	-0.141
-634.580	-200.000	0.022	0.398
-633.565	336.021	-0.150	0.291
-632.551	-13.875	-0.151	0.098
-631.536	800.000	-0.035	-0.105
-630.522	-98.174	0.266	0.068
-629.507	-200.000	0.002	-0.089
-628.492	117.925	-0.198	-0.244
-627.478	33.085	0.234	-0.203
-626.463	-41.323	0.125	-0.064
-625.449	-200.000	0.047	-0.258
-624.434	302.343	0.075	-0.139
-623.419	-200.000	-0.011	0.311
-622.405	-99.237	0.213	0.054
-621.390	-111.830	0.329	-0.067
-620.376	-140.150	-0.298	-0.031
-619.361	417.496	-0.052	-0.111
-618.346	-22.707	-0.221	0.134
-617.332	-143.783	-0.178	0.017
-616.317	-59.105	0.286	-0.123
-615.303	182.308	-0.112	-0.165
-614.288	-75.242	-0.076	0.027
-613.273	119.576	0.175	-0.217
-612.259	293.913	-0.019	0.034
-611.244	54.510	-0.371	0.358
-610.230	60.543	-0.148	-0.147
-609.215	-200.000	0.018	-0.097
-608.201	-52.546	0.166	-0.077
-607.186	1.227	-0.110	0.079
-606.171	-10.992	0.025	-0.016
-605.157	-78.997	0.220	0.075
-604.142	800.000	0.055	0.203
-603.128	-45.414	-0.106	-0.053
-602.113	800.000	-0.058	0.197
-601.098	-200.000	-0.038	0.273
-600.084	150.059	-0.097	-0.131
-599.069	-32.149	-0.289	0.161
-598.055	103.676	0.057	0.067
-597.040	-30.700	0.095	-0.054
-596.025	-200.000	-0.007	0.194
-595.011	11.396	0.221	0.169
-593.996	-155.115	0.110	0.007
-592.982	-200.000	-0.050	-0.559
-591.967	-23.522	-0.263	0.158
-590.952	31.904	0.154	-0.133
-589.938	727.942	0.111	-0.297
-588.923	48.439	-0.281	-0.263
-587.909	-17.798	0.283	0.177
-586.894	800.000	-0.039	0.139
-585.879	-200.000	-0.030	-0.237
-584.865	-200.000	0.028	-0.124
-583.850	102.587	0.178	-0.208
-582.836	27.857	-0.123	0.104
-581.821	564.971	0.144	-0.348
-580.806	800.000	0.060	-0.199
-579.792	162.948	0.050	0.070
-578.777	-200.000	0.020	0.149
-577.763	-200.000	-0.020	0.234
-576.748	162.711	0.059	0.083
-575.733	26.333	-0.063	-0.053
-574.719	-82.821	-0.026	-0.008
-573.704	137.015	-0.106	0.138
-572.690	-123.208	0.517	-0.083
-571.675	-94.198	-0.148	-0.040
-570.661	25.262	-0.199	0.165
-569.646	-200.000	0.030	-0.179
-568.631	-117.077	-0.229	0.042
-567.617	795.291	-0.146	-0.402
-566.602	-14.609	-0.194	0.124
-565.588	-159.547	-0.103	-0.006
-564.573	-13.721	-0.287	0.185
-563.558	-200.000	-0.029	0.127
-562.544	800.000	-0.048	-0.135
-561.529	221.243	-0.189	0.302
-560.515	-179.321	0.247	-0.005
-559.500	19.559	0.223	-0.179
-558.485	800.000	0.099	-0.328
-557.471	82.966	0.054	0.058
-556.456	-3.449	-0.051	-0.036
-555.442	-101.201	-0.325	0.079
-554.427	-112.779	-0.119	0.024
-553.412	-200.000	0.003	-0.068
-552.398	-136.117	-0.247	-0.029
-551.383	-161.531	0.250	-0.013
-550.369	-200.000	-0.026	-0.339
-549.354	-93.555	-0.110	0.030
-548.339	-43.930	-0.292	0.147
-547.325	-55.379	-0.179	-0.080
-546.310	800.000	-0.089	0.287
-545.296	800.000	0.108	0.452
-544.281	800.000	-0.115	0.404
-543.266	-62.470	-0.129	-0.053
-542.252	105.518	-0.189	0.223
-541.237	134.238	-0.177	-0.229
-540.223	-200.000	-0.044	0.227
-539.208	769.553	0.023	-0.064
-538.193	-63.384	0.412	0.169
-537.179	104.202	-0.159	0.187
-536.164	800.000	-0.026	0.089
-535.150	-56.936	-0.546	0.240
-534.135	-32.761	-0.088	0.049
-533.121	583.963	-0.091	0.223
-532.106	-200.000	-0.044	-0.218
-531.091	-93.319	-0.396	-0.110
-530.077	108.173	-0.089	-0.106
-529.062	-39.924	-0.401	0.209
-528.048	-174.508	-0.175	-0.005
-527.033	169.396	-0.029	-0.041
-526.018	-119.867	0.151	-0.026
-525.004	67.271	0.241	-0.245
-523.989	24.655	0.372	-0.307
-522.975	800.000	0.065	-0.265
-521.960	-200.000	-0.004	-0.195
-520.945	-200.000	0.000	-0.018
-519.931	-149.022	-0.168	0.013
-518.916	-200.000	-0.036	0.216
-517.902	-48.362	-0.212	0.102
-516.887	10.200	0.122	0.093
-515.872	23.883	-0.105	0.086
-514.858	-200.000	-0.009	-0.150
-513.843	-105.459	0.375	-0.085
-512.829	-200.000	0.008	-0.227
-511.814	-72.908	0.189	-0.069
-510.799	30.113	0.122	-0.104
-509.785	26.674	0.180	-0.150
-508.770	-55.969	-0.206	0.092
-507.756	5.797	-0.167	-0.123
-506.741	-200.000	0.021	0.282
-505.726	238.865	0.215	-0.356
-504.712	-78.901	-0.310	-0.105
-503.697	800.000	-0.022	-0.080
-502.683	-200.000	0.011	-0.116
-501.668	-93.215	-0.466	-0.129
-500.653	800.000	-0.186	-0.551
-499.639	-60.632	-0.180	0.076
-498.624	-200.000	-0.006	0.035
-497.610	-73.161	0.305	0.111
-496.595	-6.557	0.168	-0.114
-495.581	-49.026	-0.050	0.024
-494.566	-8.320	0.101	0.068
-493.551	800.000	0.015	-0.065
-492.537	74.033	-0.155	-0.162
-491.522	-200.000	0.033	0.292
-490.508	-173.331	0.194	-0.006
-489.493	182.239	-0.167	-0.245
-488.478	43.828	-0.187	-0.170
-487.464	-105.363	-0.261	-0.059
-486.449	-200.000	0.015	-0.259
-485.435	-200.000	0.033	0.515
-484.420	304.726	0.042	-0.078
-483.405	530.928	-0.073	-0.171
-482.391	-144.056	0.262	-0.024
-481.376	-14.530	-0.268	-0.172
-480.362	-2.664	-0.176	0.123
-479.347	94.746	0.104	0.118
-478.332	-82.303	-0.322	-0.104
-477.318	55.501	0.405	0.390
-476.303	800.000	-0.037	0.126
-475.289	-200.000	-0.021	0.310
-474.274	794.200	0.052	-0.141
-473.259	0.376	0.142	-0.101
-472.245	-145.913	0.125	-0.011
-471.230	-150.261	0.270	-0.021
-470.216	66.119	-0.150	-0.151
-469.201	129.647	-0.159	0.202
-468.186	455.552	-0.164	-0.361
-467.172	-200.000	0.044	0.209
-466.157	-200.000	0.009	-0.187
-465.143	-42.126	0.262	-0.133
-464.128	800.000	0.079	-0.336
-463.113	-64.714	0.072	0.029
-462.099	271.034	0.079	-0.138
-461.084	229.380	-0.133	-0.216
-460.070	154.728	-0.102	-0.139
-459.055	410.292	-0.077	0.162
-458.040	-200.000	0.069	0.302
-457.026	-200.000	-0.011	0.252
-456.011	51.559	0.135	-0.128
-454.997	-200.000	-0.015	0.080
-453.982	96.169	0.098	0.111
-452.968	232.250	-0.204	-0.333
-451.953	202.988	0.078	-0.120
-450.938	-72.421	-0.140	-0.051
-449.924	98.335	0.239	-0.273
-448.909	-65.888	-0.249	0.099
-447.895	210.682	-0.183	-0.286
-446.880	-200.000	0.027	0.269
-445.865	235.904	0.171	0.280
-444.851	-113.770	-0.485	0.094
-443.836	197.937	-0.130	-0.197
-442.822	-62.636	-0.142	0.058
-441.807	-161.954	-0.170	-0.009
-440.792	-200.000	-0.028	-0.125
-439.778	218.727	0.175	-0.277
-438.763	-57.662	-0.222	0.096
-437.749	-72.549	0.215	0.079
-436.734	314.933	0.085	0.159
-435.719	-63.330	-0.175	-0.072
-434.705	76.814	-0.154	0.162
-433.690	-200.000	0.009	0.074
-432.676	-200.000	-0.137	-0.000
-431.661	-102.026	0.276	0.066
-430.646	-59.379	0.142	0.061
-429.632	6.986	-0.307	0.227
-428.617	109.833	-0.146	-0.174
-427.603	-177.622	0.225	0.005
-426.588	-158.152	0.262	-0.015
-425.573	-36.808	-0.091	0.048
-424.559	800.000	0.108	0.323
-423.544	-111.486	-0.085	0.017
-422.530	82.568	-0.227	0.245
-421.515	-159.817	0.309	0.017
-420.500	90.727	-0.135	0.150
-419.486	-70.721	0.131	0.049
-418.471	319.530	0.162	-0.305
-417.457	-39.031	0.528	0.276
-416.442	123.302	-0.036	-0.045
-415.428	-102.816	0.161	0.038
-414.413	-41.225	-0.005	-0.002
-413.398	-200.000	0.080	-0.401
-412.384	392.624	0.082	-0.169
-411.369	81.903	0.119	0.128
-410.355	240.826	-0.129	0.213
-409.340	-92.812	0.194	-0.054
-408.325	-168.382	-0.368	0.014
-407.311	273.915	0.193	-0.339
-406.296	-20.784	-0.115	0.070
-405.282	127.773	0.224	-0.283
-404.267	-56.275	-0.190	-0.084
-403.252	800.000	0.088	0.274
-402.238	-24.577	-0.234	-0.138
-401.223	10.511	-0.079	0.060
-400.209	-54.129	0.176	0.080
-399.194	614.262	-0.063	0.156
-398.179	-77.933	-0.076	-0.026
-397.165	115.213	0.048	-0.058
-396.150	-76.091	-0.377	-0.132
-395.136	-104.028	0.185	0.043
-394.121	448.159	0.030	0.066
-393.106	-165.968	-0.156	-0.007
-392.092	244.537	0.141	0.234
-391.077	-120.335	0.252	0.043
-390.063	-67.311	0.274	0.107
-389.048	-200.000	0.058	0.410
-388.033	278.190	0.013	-0.023
-387.019	69.475	0.151	0.154
-386.004	271.961	-0.063	-0.109
-384.990	-108.050	0.278	0.060
-383.975	-73.350	-0.271	-0.098
-382.960	-1.657	0.152	-0.106
-381.946	-62.072	-0.517	0.214
-380.931	-69.065	-0.094	-0.036
-379.917	0.337	-0.065	-0.046
-378.902	6.623	-0.273	0.201
-377.888	-200.000	0.020	-0.378
-376.873	-200.000	0.020	0.114
-375.858	-24.883	0.212	-0.125
-374.844	-127.275	0.207	0.030
-373.829	-87.807	-0.297	0.089
-372.815	19.322	0.117	0.093
-371.800	70.509	0.185	-0.189
-370.785	-200.000	0.041	0.322
-369.771	323.069	0.084	0.159
-368.756	-86.978	0.172	0.052
-367.742	200.844	-0.120	-0.183
-366.727	169.118	0.122	-0.172
-365.712	66.350	0.072	0.072
-364.698	-122.650	-0.312	0.050
-363.683	-7.373	-0.047	-0.031
-362.669	-12.406	0.200	0.130
-361.654	-31.018	-0.313	0.175
-360.639	-92.042	-0.413	0.116
-359.625	91.659	0.171	-0.190
-358.610	361.811	0.073	0.145
-357.596	-200.000	-0.036	0.177
-356.581	254.818	0.136	0.230
-355.566	-76.263	-0.113	-0.039
-354.552	-200.000	0.024	0.201
-353.537	167.623	0.111	0.156
-352.523	800.000	-0.050	-0.153
-351.508	69.224	0.093	-0.094
-350.493	-200.000	-0.008	0.261
-349.479	216.282	0.133	-0.209
-348.464	315.878	-0.068	0.127
-347.450	582.000	0.127	-0.309
-346.435	282.598	-0.081	-0.144
-345.420	205.765	0.183	0.281
-344.406	-122.210	-0.227	-0.037
-343.391	800.000	0.111	0.343
-342.377	190.531	0.116	-0.172
-341.362	-10.403	0.205	-0.135
-340.348	800.000	-0.087	0.317
-339.333	-8.400	-0.210	-0.140
-338.318	-178.923	-0.169	-0.004
-337.304	-4.203	0.242	0.166
-336.289	-85.719	0.125	-0.038
-335.275	106.109	0.135	0.158
-334.260	-56.946	0.049	0.021
-333.245	-200.000	0.005	0.039
-332.231	-200.000	-0.058	0.369
-331.216	-106.955	0.315	0.069
-330.202	-157.103	-0.213	-0.013
-329.187	25.605	0.316	0.260
-328.172	119.540	0.280	0.343
-327.158	-200.000	0.054	-0.266
-326.143	-200.000	-0.020	0.456
-325.129	331.656	-0.137	-0.261
-324.114	-200.000	-0.040	-0.281
-323.099	-1.509	-0.081	-0.056
-322.085	108.966	0.071	-0.084
-321.070	29.459	-0.437	0.367
-320.056	-49.197	0.178	-0.084
-319.041	-64.319	-0.113	-0.045
-318.026	54.970	0.115	0.110
-317.012	56.804	0.107	0.103
-315.997	64.110	0.356	-0.354
-314.983	174.390	-0.188	-0.269
-313.968	377.347	0.167	-0.336
-312.953	800.000	-0.030	0.098
-311.939	-87.605	0.105	-0.031
-310.924	296.187	0.126	-0.228
-309.910	723.582	-0.064	-0.168
-308.895	-113.525	-0.140	-0.027
-307.880	-85.063	-0.108	-0.033
-306.866	-125.917	0.099	-0.015
-305.851	-17.545	-0.229	0.142
-304.837	54.734	-0.069	-0.066
-303.822	123.877	0.123	0.152
-302.807	-200.000	0.061	0.487
-301.793	-145.929	-0.323	0.028
-300.778	220.827	-0.135	-0.214
-299.764	-155.172	-0.063	-0.004
-298.749	143.257	-0.116	-0.152
-297.735	-148.080	0.304	-0.025
-296.720	-75.789	-0.327	-0.115
-295.705	150.456	-0.099	-0.133
-294.691	10.933	0.128	0.097
-293.676	-6.181	0.189	-0.127
-292.662	-2.155	0.251	0.174
-291.647	200.686	-0.414	-0.628
-290.632	253.670	0.140	0.236
-289.618	-144.296	0.203	-0.019
-288.603	535.858	-0.059	-0.138
-287.589	407.592	-0.045	0.094
-286.574	28.081	0.101	-0.084
-285.559	167.787	0.253	0.356
-284.545	-200.000	0.006	-0.029
-283.530	13.154	0.086	-0.066
-282.516	208.540	0.094	0.145
-281.501	-200.000	0.002	-0.275
-280.486	-134.003	0.306	0.037
-279.472	142.911	0.063	-0.083
-278.457	-174.480	0.381	-0.011
-277.443	398.123	-0.063	0.129
-276.428	800.000	-0.117	0.455
-275.413	-188.425	-0.293	-0.004
-274.399	800.000	0.083	-0.265
-273.384	-101.051	-0.194	-0.047
-272.370	587.876	-0.090	-0.219
-271.355	-44.202	0.199	0.098
-270.340	-131.531	0.175	0.023
-269.326	-21.369	-0.225	-0.135
-268.311	-200.000	-0.012	0.190
-267.297	149.935	-0.024	0.031
-266.282	-43.181	0.125	0.062
-265.267	-124.125	0.436	-0.068
-264.253	-3.506	-0.357	-0.245
-263.238	-200.000	-0.004	0.307
-262.224	-171.857	0.215	-0.007
-261.209	-76.858	-0.227	-0.078
-260.195	-141.019	0.101	0.010
-259.180	-3.902	-0.079	-0.054
-258.165	200.926	-0.083	0.126
-257.151	800.000	0.059	-0.209
-256.136	-44.480	-0.191	-0.094
-255.122	800.000	-0.045	0.163
-254.107	800.000	0.084	0.332
-253.092	-79.666	0.379	0.126
-252.078	683.770	-0.069	0.178
-251.063	212.091	0.178	0.277
-250.049	-200.000	-0.019	0.186
-249.034	273.661	0.136	0.237
-248.019	-87.033	-0.173	0.052
-247.005	-9.399	0.078	-0.051
-245.990	-177.217	-0.239	0.006
-244.976	268.509	0.011	0.019
-243.961	-200.000	0.001	0.062
-242.946	-4.083	-0.117	0.080
-241.932	800.000	0.068	-0.273
-240.917	-200.000	-0.063	-0.286
-239.903	165.112	0.060	-0.084
-238.888	-97.122	-0.441	-0.114
-237.873	-69.130	0.388	-0.147
-236.859	102.977	0.038	0.044
-235.844	-200.000	-0.023	0.262
-234.830	138.247	0.145	0.188
-233.815	-140.751	-0.293	0.030
-232.800	-106.094	0.068	0.015
-231.786	-159.433	0.359	-0.020
-230.771	141.327	0.030	-0.039
-229.757	-110.337	0.327	0.067
-228.742	-200.000	0.024	0.256
-227.727	-200.000	0.001	-0.149
-226.713	800.000	0.090	0.265
-225.698	-175.078	0.333	0.009
-224.684	-200.000	-0.030	-0.202
-223.669	712.199	0.153	0.398
-222.655	62.613	0.013	-0.013
-221.640	772.589	0.128	-0.345
-220.625	52.637	0.124	-0.116
-219.611	55.785	0.095	0.091
-218.596	-171.926	-0.164	-0.005
-217.582	-132.681	-0.329	0.042
-216.567	-200.000	-0.028	-0.205
-215.552	-145.296	0.206	0.018
-214.538	-134.155	-0.067	-0.008
-213.523	-200.000	-0.020	-0.175
-212.509	96.740	-0.126	-0.142
-211.494	148.015	0.296	-0.393
-210.479	800.000	-0.067	0.237
-209.465	-6.015	0.196	-0.132
-208.450	-200.000	-0.053	0.345
-207.436	-46.650	0.149	0.072
-206.421	334.572	-0.099	0.189
-205.406	338.006	-0.121	0.232
-204.392	-28.085	0.195	0.111
-203.377	-110.329	0.151	-0.031
-202.363	800.000	0.088	-0.331
-201.348	-163.055	-0.233	-0.011
-200.333	-120.315	-0.536	-0.090
-199.319	8.729	0.236	-0.175
-198.304	139.364	0.015	-0.020
-197.290	90.250	-0.080	0.088
-196.275	240.514	-0.070	0.115
-195.260	-200.000	-0.023	0.267
-194.246	-138.128	0.443	-0.048
-193.231	98.789	-0.278	0.316
-192.217	45.216	-0.159	0.144
-191.202	9.083	0.195	0.145
-190.187	-95.191	-0.097	-0.026
-189.173	-70.776	-0.447	-0.166
-188.158	196.776	-0.094	0.141
-187.144	75.232	0.242	-0.251
-186.129	180.766	-0.038	0.054
-185.114	-38.920	0.097	0.050
-184.100	96.811	-0.099	-0.111
-183.085	151.086	-0.067	-0.090
-182.071	-161.698	0.176	0.009
-181.056	379.691	-0.023	0.047
-180.042	730.412	0.041	0.109
-179.027	137.755	-0.099	-0.127
-178.012	112.390	-0.091	0.108
-176.998	-95.477	0.060	-0.016
-175.983	39.530	0.239	-0.210
-174.969	513.808	0.039	0.089
-173.954	-200.000	0.002	0.099
-172.939	-109.592	0.141	0.029
-171.925	188.854	0.123	-0.180
-170.910	-141.469	0.125	0.012
-169.896	85.691	-0.008	-0.009
-168.881	-25.441	0.286	-0.166
-167.866	-9.661	0.197	0.129
-166.852	-53.807	0.204	-0.091
-165.837	59.542	-0.051	-0.050
-164.823	-172.575	0.462	0.014
-163.808	-200.000	-0.029	-0.246
-162.793	-17.697	-0.098	0.060
-161.779	22.302	-0.126	0.101
-160.764	446.104	0.126	-0.272
-159.750	-89.511	0.097	0.028
-158.735	91.014	-0.069	-0.076
-157.720	-1.820	-0.123	-0.085
-156.706	-3.801	0.230	-0.157
-155.691	72.031	-0.197	-0.201
-154.677	-156.052	0.193	-0.012
-153.662	-25.470	-0.162	-0.094
-152.647	59.454	-0.185	-0.179
-151.633	-77.047	-0.365	0.125
-150.618	-95.689	0.350	0.092
-149.604	210.147	-0.213	0.328
-148.589	-104.389	0.054	-0.012
-147.574	-40.547	0.197	0.100
-146.560	74.092	0.438	0.451
-145.545	38.266	-0.063	0.055
-144.531	119.187	0.293	-0.355
-143.516	399.015	0.084	-0.173
-142.502	-5.408	-0.161	0.108
-141.487	-48.924	0.245	0.115
-140.472	-200.000	0.029	0.267
-139.458	-3.113	-0.360	-0.246
-138.443	-130.400	0.343	-0.046
-137.429	58.409	-0.170	0.164
-136.414	-200.000	0.046	0.235
-135.399	-200.000	0.066	0.375
-134.385	90.222	-0.157	-0.172
-133.370	-171.541	-0.532	-0.017
-132.356	-47.971	0.111	0.053
-131.341	-76.237	-0.087	-0.030
-130.326	432.750	-0.089	0.190
-129.312	187.817	0.120	0.176
-128.297	-200.000	0.007	-0.264
-127.283	-200.000	-0.012	0.293
-126.268	247.631	0.078	0.130
-125.253	99.565	0.372	0.422
-124.239	-200.000	0.007	-0.044
-123.224	186.103	-0.162	-0.236
-122.210	359.222	-0.135	-0.265
-121.195	-187.223	0.240	0.003
