DTS Sentinel unit serial number:	SN413079Multiplexer serial number:	ORYXHardware model number:	OX4-SRSoftware version number:	ORYX F/W v4.00 Oryx Data Collector v3.7.2.0data status	okinstallation	princeton_trtdifferential loss correction	single-endedforward channel	channel 1reverse channel	N/Adate	2019/09/17time	22:10:35forward acquisition time	60.00reverse acquisition time	0.00gamma	496.2192k internal	0.2340k external	0.2340temperature offset calibration	0.9976default loss term (dB/km)	0.3790temperature slope calibration	1.0000multiplexer offset coefficient	1.0000multiplexer slope coefficient	1.0000fibre end	0.00T internal ref (°C)	25.78T ext. ref 1 (°C)	0.18T ext. ref 2 (°C)	18.66length (m)	temperature (°C)	Stokes	anti-Stokes-747.200	235.577	0.114	0.188
-746.185	141.555	-0.063	0.083
-745.171	-162.421	0.160	-0.008
-744.156	-89.392	-0.190	0.056
-743.142	-139.447	0.094	0.010
-742.127	-57.792	0.109	0.048
-741.112	-37.197	0.418	0.224
-740.098	-146.174	-0.421	-0.037
-739.083	-121.759	-0.173	-0.029
-738.069	-130.434	-0.150	0.020
-737.054	62.322	-0.090	0.090
-736.039	-135.654	-0.439	0.052
-735.025	621.422	0.094	-0.238
-734.010	134.495	-0.328	0.427
-732.996	-121.659	0.102	-0.017
-731.981	-200.000	-0.042	-0.226
-730.966	-58.801	0.390	-0.169
-729.952	-177.854	-0.003	0.000
-728.937	322.992	0.079	-0.150
-727.923	171.653	0.266	-0.383
-726.908	-87.087	-0.280	0.085
-725.894	-103.626	-0.103	0.024
-724.879	170.358	0.156	0.224
-723.864	118.826	0.085	-0.105
-722.850	-22.784	0.067	-0.040
-721.835	71.475	0.253	-0.263
-720.821	800.000	0.038	-0.131
-719.806	-186.126	-0.299	-0.004
-718.791	143.620	0.054	0.073
-717.777	661.167	0.106	0.272
-716.762	19.773	-0.335	0.270
-715.748	132.518	-0.096	0.124
-714.733	579.554	0.048	0.118
-713.718	-111.912	0.198	0.040
-712.704	-200.000	-0.011	-0.152
-711.689	800.000	-0.035	-0.098
-710.675	173.980	-0.089	-0.129
-709.660	-103.650	-0.274	0.064
-708.645	47.309	-0.076	0.071
-707.631	-200.000	-0.016	0.263
-706.616	-72.571	0.224	-0.083
-705.602	161.266	0.108	-0.151
-704.587	-96.473	0.177	-0.047
-703.572	-200.000	0.014	-0.203
-702.558	-65.239	0.163	0.066
-701.543	308.367	-0.036	0.068
-700.529	25.414	-0.111	-0.092
-699.514	581.288	0.059	-0.146
-698.499	-97.961	-0.057	0.015
-697.485	118.964	-0.105	-0.129
-696.470	210.962	-0.142	0.223
-695.456	-90.100	0.294	-0.086
-694.441	-87.342	0.198	0.060
-693.426	60.222	-0.098	-0.097
-692.412	-42.421	0.202	0.103
-691.397	-38.510	0.099	-0.052
-690.383	-200.000	0.059	0.290
-689.368	800.000	-0.007	0.029
-688.354	614.563	0.120	0.302
-687.339	-200.000	-0.086	0.397
-686.324	-200.000	-0.042	-0.218
-685.310	52.625	0.116	-0.111
-684.295	335.200	0.087	-0.168
-683.281	180.118	0.139	0.204
-682.266	-155.384	-0.036	-0.002
-681.251	-200.000	0.025	0.283
-680.237	-200.000	0.002	0.246
-679.222	130.892	-0.253	0.325
-678.208	-94.620	-0.259	-0.071
-677.193	-11.255	-0.299	0.197
-676.178	447.887	0.099	0.219
-675.164	144.102	-0.149	0.199
-674.149	-8.742	0.206	-0.138
-673.135	-101.085	-0.243	0.060
-672.120	246.257	-0.170	-0.286
-671.105	800.000	-0.057	0.208
-670.091	79.858	0.178	-0.192
-669.076	107.083	-0.063	-0.074
-668.062	202.531	0.075	0.115
-667.047	-72.130	-0.062	-0.023
-666.032	29.856	0.119	0.102
-665.018	1.156	-0.193	0.138
-664.003	-200.000	0.031	0.148
-662.989	168.175	0.117	-0.166
-661.974	-200.000	-0.030	-0.325
-660.959	-87.258	-0.379	0.115
-659.945	642.394	0.141	0.359
-658.930	139.805	-0.149	0.196
-657.916	-16.052	0.216	-0.137
-656.901	-200.000	0.006	-0.185
-655.886	-25.365	-0.136	-0.081
-654.872	605.002	-0.061	0.151
-653.857	-32.858	0.075	-0.041
-652.843	-200.000	-0.041	-0.224
-651.828	-200.000	0.009	-0.239
-650.814	202.840	0.111	0.172
-649.799	-40.872	0.117	-0.060
-648.784	18.625	-0.112	-0.090
-647.770	-115.277	0.132	0.025
-646.755	800.000	-0.026	-0.084
-645.741	800.000	-0.093	0.366
-644.726	3.534	-0.201	0.146
-643.711	-67.428	0.120	0.047
-642.697	675.191	0.110	0.286
-641.682	-112.500	0.318	-0.063
-640.668	71.909	-0.213	0.221
-639.653	280.680	0.067	0.120
-638.638	133.594	-0.144	0.186
-637.624	122.619	-0.118	-0.147
-636.609	68.648	0.123	-0.126
-635.595	23.084	-0.226	-0.185
-634.580	-154.181	-0.214	0.014
-633.565	-53.614	0.145	-0.066
-632.551	565.031	0.014	0.035
-631.536	-118.457	-0.227	-0.040
-630.522	-68.248	-0.272	-0.105
-629.507	17.380	0.303	0.240
-628.492	-73.938	-0.273	-0.099
-627.478	800.000	-0.066	-0.287
-626.463	-200.000	0.029	-0.217
-625.449	-200.000	0.009	0.091
-624.434	-25.480	-0.105	-0.062
-623.419	800.000	0.129	0.398
-622.405	-41.297	0.327	-0.168
-621.390	-32.589	0.123	0.068
-620.376	157.459	-0.181	-0.250
-619.361	-200.000	0.025	0.228
-618.346	-200.000	-0.025	-0.258
-617.332	-155.668	0.112	0.007
-616.317	-140.407	0.199	0.021
-615.303	232.135	-0.079	-0.129
-614.288	-103.199	-0.126	-0.030
-613.273	-24.374	-0.052	0.031
-612.259	507.992	-0.018	0.042
-611.244	-129.818	-0.083	-0.011
-610.230	121.369	0.246	-0.306
-609.215	-138.331	0.260	0.029
-608.201	-200.000	0.047	0.377
-607.186	-200.000	-0.034	0.158
-606.171	163.010	0.175	0.245
-605.157	28.197	-0.110	0.093
-604.142	593.027	0.134	0.330
-603.128	-15.921	-0.233	0.148
-602.113	-200.000	-0.023	-0.165
-601.098	137.136	0.297	-0.387
-600.084	-172.243	-0.244	0.008
-599.069	-34.499	0.100	0.054
-598.055	-119.361	-0.220	-0.038
-597.040	-52.951	-0.316	-0.145
-596.025	-137.738	-0.086	-0.010
-595.011	14.856	-0.142	-0.110
-593.996	-103.994	-0.152	-0.035
-592.982	-200.000	-0.015	-0.098
-591.967	757.790	0.115	-0.312
-590.952	800.000	0.070	-0.198
-589.938	62.256	-0.078	-0.078
-588.923	-98.804	-0.312	0.079
-587.909	-72.006	0.079	-0.029
-586.894	-107.045	-0.131	0.029
-585.879	-200.000	-0.026	-0.358
-584.865	777.788	0.107	0.292
-583.850	-135.155	0.221	-0.026
-582.836	143.983	-0.242	-0.322
-581.821	-3.240	-0.085	-0.059
-580.806	72.539	0.121	0.126
-579.792	-3.506	0.141	0.097
-578.777	222.867	0.117	-0.187
-577.763	94.940	0.202	0.229
-576.748	800.000	0.039	-0.121
-575.733	-200.000	0.050	0.302
-574.719	-109.661	0.215	-0.045
-573.704	221.398	0.120	0.192
-572.690	195.681	0.215	0.325
-571.675	-74.807	-0.260	-0.093
-570.661	-170.863	-0.115	0.004
-569.646	102.206	0.065	-0.076
-568.631	-200.000	0.008	-0.240
-567.617	79.726	-0.192	0.205
-566.602	800.000	0.063	-0.235
-565.588	-76.264	-0.249	0.087
-564.573	-68.855	0.138	-0.053
-563.558	195.177	0.098	-0.149
-562.544	800.000	0.042	-0.155
-561.529	260.521	0.110	0.190
-560.515	188.011	0.217	0.323
-559.500	133.623	-0.161	0.207
-558.485	-108.315	0.235	-0.050
-557.471	39.825	-0.228	0.203
-556.456	-34.842	-0.128	-0.070
-555.442	636.663	-0.095	-0.241
-554.427	4.546	0.181	0.132
-553.412	-57.286	-0.162	0.071
-552.398	-13.587	-0.183	-0.118
-551.383	-119.145	-0.161	-0.028
-550.369	-200.000	0.023	0.179
-549.354	4.064	-0.362	0.263
-548.339	53.489	0.092	0.088
-547.325	195.649	0.111	-0.168
-546.310	-200.000	0.057	-0.514
-545.296	-200.000	-0.039	-0.292
-544.281	160.171	-0.259	0.359
-543.266	28.623	-0.106	-0.089
-542.252	-49.536	0.294	0.139
-541.237	52.340	-0.049	0.047
-540.223	162.177	0.028	0.040
-539.208	251.411	0.245	-0.415
-538.193	-142.456	-0.286	-0.028
-537.179	580.918	0.086	0.211
-536.164	800.000	-0.066	0.191
-535.150	-200.000	0.006	-0.141
-534.135	288.908	0.133	-0.240
-533.121	311.575	-0.049	0.091
-532.106	-200.000	-0.065	0.312
-531.091	86.433	0.204	-0.224
-530.077	90.208	0.079	-0.088
-529.062	25.684	0.134	-0.111
-528.048	-200.000	-0.031	-0.168
-527.033	-183.090	0.332	-0.006
-526.018	241.492	-0.211	0.350
-525.004	-200.000	0.005	-0.057
-523.989	-65.601	0.254	-0.101
-522.975	-14.759	-0.316	0.201
-521.960	38.718	-0.274	0.243
-520.945	-36.884	0.143	0.076
-519.931	-70.500	-0.256	-0.096
-518.916	226.824	0.075	0.121
-517.902	-200.000	-0.013	-0.077
-516.887	-200.000	-0.073	-0.320
-515.872	-200.000	-0.040	-0.203
-514.858	5.947	0.197	-0.145
-513.843	68.692	0.144	-0.147
-512.829	-200.000	-0.033	0.285
-511.814	-200.000	-0.033	0.144
-510.799	-166.376	0.204	0.009
-509.785	196.733	-0.139	-0.211
-508.770	800.000	0.034	0.118
-507.756	-200.000	0.031	0.308
-506.741	-97.737	-0.155	0.040
-505.726	7.684	-0.163	-0.121
-504.712	-200.000	0.005	0.057
-503.697	471.587	0.061	-0.136
-502.683	53.323	-0.067	-0.064
-501.668	-57.644	-0.229	0.100
-500.653	149.231	0.078	0.105
-499.639	-173.082	-0.105	-0.003
-498.624	103.578	0.104	0.121
-497.610	-90.385	-0.123	-0.036
-496.595	800.000	-0.157	0.476
-495.581	-27.629	-0.051	-0.029
-494.566	14.233	0.324	-0.250
-493.551	-124.711	-0.430	0.066
-492.537	679.364	-0.101	-0.262
-491.522	3.846	-0.025	0.018
-490.508	-200.000	-0.008	-0.258
-489.493	-64.688	-0.239	0.096
-488.478	800.000	-0.053	-0.155
-487.464	64.911	0.061	-0.061
-486.449	-178.883	0.122	-0.003
-485.435	40.384	0.249	0.223
-484.420	154.695	0.097	0.132
-483.405	-55.064	0.314	0.140
-482.391	-120.091	-0.171	-0.029
-481.376	-200.000	0.020	0.089
-480.362	-151.179	-0.214	-0.016
-479.347	-200.000	0.061	-0.313
-478.332	-46.847	0.133	-0.064
-477.318	69.506	-0.105	0.108
-476.303	100.074	0.164	0.189
-475.289	-200.000	0.044	-0.255
-474.274	800.000	0.027	-0.086
-473.259	0.732	0.173	0.123
-472.245	-200.000	0.017	0.154
-471.230	-41.316	0.056	-0.029
-470.216	800.000	0.124	-0.347
-469.201	-21.743	-0.175	-0.106
-468.186	68.047	0.070	0.071
-467.172	-5.856	0.153	0.104
-466.157	460.862	-0.102	0.224
-465.143	141.783	0.110	-0.145
-464.128	-108.613	-0.122	0.026
-463.113	-181.029	0.137	0.003
-462.099	15.584	0.211	-0.164
-461.084	-167.432	-0.249	-0.010
-460.070	670.789	0.140	0.359
-459.055	-200.000	0.035	-0.175
-458.040	332.122	0.199	0.381
-457.026	-62.103	0.248	0.102
-456.011	2.471	0.224	0.161
-454.997	-128.779	-0.097	-0.014
-453.982	-200.000	0.062	0.293
-452.968	49.803	-0.076	0.071
-451.953	32.415	-0.060	-0.051
-450.938	432.635	-0.111	-0.240
-449.924	223.443	0.089	0.143
-448.909	388.338	-0.088	0.181
-447.895	-47.757	0.119	-0.057
-446.880	-17.935	-0.410	-0.255
-445.865	-200.000	0.012	0.253
-444.851	-200.000	0.045	0.364
-443.836	-129.203	0.060	-0.008
-442.822	-9.739	0.243	-0.161
-441.807	-200.000	0.054	0.360
-440.792	80.006	0.125	0.133
-439.778	224.211	-0.187	0.299
-438.763	63.992	-0.206	-0.205
-437.749	-61.732	-0.304	0.126
-436.734	367.380	0.057	-0.113
-435.719	66.834	0.180	-0.181
-434.705	471.412	-0.102	-0.228
-433.690	-114.106	-0.233	0.045
-432.676	800.000	0.057	0.160
-431.661	-67.106	0.131	-0.051
-430.646	-200.000	0.011	-0.295
-429.632	-200.000	0.048	0.283
-428.617	252.160	0.169	0.285
-427.603	139.140	-0.147	0.191
-426.588	-128.366	-0.539	0.076
-425.573	374.345	0.061	-0.122
-424.559	-200.000	-0.032	-0.160
-423.544	569.377	0.176	-0.423
-422.530	800.000	0.054	0.153
-421.515	23.698	-0.213	-0.174
-420.500	-108.999	0.405	-0.085
-419.486	-15.947	-0.123	-0.078
-418.471	452.426	0.067	0.148
-417.457	-31.933	0.092	-0.051
-416.442	504.842	0.029	-0.068
-415.428	354.602	0.209	-0.411
-414.413	-200.000	0.019	0.110
-413.398	-95.922	-0.113	0.030
-412.384	-43.873	-0.324	0.161
-411.369	-200.000	0.048	-0.209
-410.355	800.000	-0.062	-0.233
-409.340	190.675	0.049	0.073
-408.325	-200.000	-0.007	0.062
-407.311	-125.669	0.105	-0.016
-406.296	-112.760	0.065	-0.013
-405.282	62.914	-0.104	-0.103
-404.267	95.783	0.166	-0.188
-403.252	-106.174	-0.253	0.056
-402.238	-8.474	-0.207	0.138
-401.223	700.144	0.150	-0.390
-400.209	-36.632	-0.137	0.073
-399.194	31.573	-0.194	-0.165
-398.179	-200.000	-0.017	-0.351
-397.165	448.310	-0.139	-0.302
-396.150	-62.951	-0.128	-0.052
-395.136	199.333	0.157	-0.238
-394.121	212.954	0.109	0.169
-393.106	-200.000	-0.032	0.210
-392.092	-61.600	-0.131	-0.054
-391.077	244.557	-0.034	0.056
-390.063	72.359	-0.253	-0.261
-389.048	-52.912	0.072	0.033
-388.033	201.954	0.094	-0.144
-387.019	-200.000	0.033	0.242
-386.004	-66.051	0.307	-0.121
-384.990	-148.491	0.359	0.029
-383.975	22.270	-0.277	-0.223
-382.960	-78.292	-0.083	-0.028
-381.946	146.992	0.098	0.130
-380.931	800.000	-0.192	0.641
-379.917	-35.737	-0.065	-0.035
-378.902	-200.000	-0.009	-0.435
-377.888	-194.287	-0.192	0.002
-376.873	-75.659	0.166	0.058
-375.858	-200.000	0.039	0.263
-374.844	-147.571	0.288	0.024
-373.829	-54.013	0.328	0.147
-372.815	374.096	0.060	-0.121
-371.800	-200.000	-0.002	0.310
-370.785	-200.000	0.011	0.164
-369.771	43.265	-0.031	0.028
-368.756	16.465	0.150	-0.117
-367.742	-88.626	0.392	-0.115
-366.727	-166.455	-0.170	-0.007
-365.712	431.981	-0.179	-0.384
-364.698	-13.004	0.193	-0.124
-363.683	-49.988	0.419	0.196
-362.669	-81.711	0.111	-0.036
-361.654	-4.085	0.139	0.095
-360.639	-19.406	-0.068	-0.042
-359.625	203.996	-0.039	0.059
-358.610	-200.000	-0.031	0.237
-357.596	248.673	-0.217	0.363
-356.581	-200.000	-0.026	0.264
-355.566	-50.234	0.232	0.108
-354.552	189.277	-0.123	-0.181
-353.537	-60.810	0.175	0.073
-352.523	208.545	0.046	0.072
-351.508	-5.188	0.180	-0.122
-350.493	392.048	0.048	0.098
-349.479	-200.000	0.037	0.163
-348.464	-127.930	0.288	-0.041
-347.450	-128.143	-0.337	-0.048
-346.435	800.000	0.038	0.112
-345.420	48.075	-0.208	0.192
-344.406	-38.366	-0.035	-0.018
-343.391	80.996	0.198	-0.211
-342.377	-151.284	0.134	0.010
-341.362	-106.101	-0.404	0.090
-340.348	-95.755	0.434	-0.114
-339.333	507.768	-0.106	0.243
-338.318	424.607	-0.241	-0.512
-337.304	-113.538	0.067	-0.013
-336.289	-200.000	-0.073	0.327
-335.275	800.000	0.089	-0.283
-334.260	-117.520	0.110	0.020
-333.245	-100.060	-0.059	0.015
-332.231	-200.000	-0.021	0.283
-331.216	-63.719	0.457	-0.185
-330.202	210.811	0.098	-0.153
-329.187	-200.000	-0.026	-0.148
-328.172	186.393	-0.173	0.254
-327.158	3.779	0.144	0.104
-326.143	-124.124	-0.280	0.043
-325.129	800.000	0.030	0.098
-324.114	-70.313	0.218	-0.082
-323.099	-122.263	-0.154	-0.025
-322.085	800.000	-0.027	0.083
-321.070	800.000	0.100	0.392
-320.056	-31.378	-0.144	-0.080
-319.041	800.000	0.065	-0.274
-318.026	-87.947	0.160	0.048
-317.012	235.317	-0.082	0.134
-315.997	47.731	0.226	-0.208
-314.983	132.575	0.350	0.445
-313.968	228.555	0.148	-0.238
-312.953	244.134	0.229	-0.380
-311.939	-42.676	-0.272	-0.137
-310.924	-131.722	-0.212	0.027
-309.910	795.922	-0.111	0.302
-308.895	800.000	-0.019	-0.081
-307.880	-67.006	-0.266	-0.103
-306.866	800.000	-0.060	-0.220
-305.851	-135.429	-0.242	0.028
-304.837	800.000	0.106	-0.303
-303.822	-92.390	-0.011	-0.003
-302.807	-200.000	0.011	0.102
-301.793	25.494	0.433	-0.355
-300.778	-100.418	-0.235	0.057
-299.764	-200.000	-0.056	0.299
-298.749	640.498	0.125	0.314
-297.735	-200.000	-0.018	-0.284
-296.720	-36.151	0.306	-0.163
-295.705	-200.000	0.002	-0.299
-294.691	-96.015	-0.127	0.033
-293.676	-98.049	-0.126	-0.032
-292.662	-200.000	0.062	-0.285
-291.647	-5.931	-0.255	-0.172
-290.632	-200.000	-0.003	-0.222
-289.618	-44.163	-0.245	-0.121
-288.603	-11.231	0.251	0.163
-287.589	123.494	0.165	-0.204
-286.574	73.125	-0.109	-0.112
-285.559	-22.533	-0.135	0.080
-284.545	-200.000	-0.025	-0.303
-283.530	-200.000	0.019	0.283
-282.516	156.935	-0.082	0.112
-281.501	-66.565	-0.436	-0.170
-280.486	179.251	0.022	0.032
-279.472	-46.330	-0.061	0.030
-278.457	-200.000	0.006	0.051
-277.443	-107.974	-0.161	0.034
-276.428	-200.000	0.027	-0.369
-275.413	-105.772	-0.146	0.032
-274.399	326.074	0.219	0.412
-273.384	-200.000	-0.009	0.144
-272.370	485.563	-0.050	0.111
-271.355	-200.000	0.039	0.224
-270.340	-36.568	-0.215	-0.114
-269.326	-200.000	-0.008	0.148
-268.311	-50.619	0.519	-0.241
-267.297	15.213	-0.323	-0.249
-266.282	20.602	-0.325	0.259
-265.267	-99.448	-0.086	0.021
-264.253	-74.704	0.130	0.046
-263.238	111.171	-0.126	0.149
-262.224	-200.000	-0.010	-0.050
-261.209	-200.000	0.042	-0.200
-260.195	-131.254	-0.295	-0.039
-259.180	-136.349	0.603	-0.069
-258.165	13.356	0.128	0.097
-257.151	190.405	0.192	0.284
-256.136	-56.957	0.143	0.062
-255.122	139.354	0.140	-0.181
-254.107	99.701	0.105	-0.119
-253.092	11.174	0.140	0.105
-252.078	197.038	0.047	-0.071
-251.063	-51.211	-0.059	0.027
-250.049	174.233	0.157	0.224
-249.034	-200.000	0.037	-0.245
-248.019	800.000	0.113	-0.350
-247.005	-116.056	-0.098	-0.018
-245.990	12.517	-0.050	0.038
-244.976	-153.575	-0.058	0.004
-243.961	22.672	0.297	-0.239
-242.946	499.036	0.139	-0.315
-241.932	-77.842	0.139	-0.047
-240.917	-49.769	0.242	-0.113
-239.903	-200.000	-0.011	-0.154
-238.888	-37.280	-0.253	-0.133
-237.873	52.902	-0.345	0.325
-236.859	800.000	-0.070	0.264
-235.844	-178.129	-0.296	0.007
-234.830	-136.006	0.259	0.030
-233.815	-157.090	0.108	-0.006
-232.800	248.703	-0.167	0.278
-231.786	179.658	-0.256	-0.369
-230.771	103.887	0.173	0.200
-229.757	197.324	-0.069	0.103
-228.742	320.816	-0.146	-0.273
-227.727	-69.207	-0.227	-0.086
-226.713	470.506	0.027	0.060
-225.698	131.628	0.128	0.161
-224.684	-48.518	0.147	0.070
-223.669	-94.099	-0.237	0.064
-222.655	-200.000	0.007	-0.207
-221.640	372.822	0.078	-0.155
-220.625	800.000	0.057	0.239
-219.611	-31.879	0.138	-0.076
-218.596	800.000	0.079	-0.246
-217.582	-19.402	-0.212	0.129
-216.567	-65.095	0.083	-0.033
-215.552	51.722	0.167	-0.156
-214.538	586.789	-0.112	-0.271
-213.523	-170.960	-0.397	-0.013
-212.509	-99.460	-0.069	0.017
-211.494	-200.000	-0.034	-0.190
-210.479	-183.759	0.173	-0.003
-209.465	-118.201	0.106	0.019
-208.450	40.593	-0.127	0.112
-207.436	30.489	0.123	-0.103
-206.421	800.000	-0.010	0.027
-205.406	305.329	-0.120	0.219
-204.392	-140.778	-0.137	0.014
-203.377	-56.785	-0.330	-0.143
-202.363	148.151	0.068	-0.090
-201.348	-115.442	-0.056	0.010
-200.333	-40.420	-0.147	0.075
-199.319	668.936	-0.119	-0.302
-198.304	-200.000	0.001	0.165
-197.290	8.933	-0.191	0.141
-196.275	-59.822	-0.427	0.179
-195.260	-69.947	0.132	0.049
-194.246	800.000	0.101	-0.390
-193.231	303.140	-0.034	0.062
-192.217	-70.912	-0.175	0.065
-191.202	20.861	-0.233	-0.185
-190.187	-48.821	-0.142	0.067
-189.173	-83.586	0.365	0.115
-188.158	97.432	0.246	0.278
-187.144	-132.054	-0.114	-0.014
-186.129	-50.815	-0.089	-0.041
-185.114	38.864	-0.097	-0.085
-184.100	37.094	-0.202	-0.176
-183.085	-200.000	0.015	0.107
-182.071	800.000	-0.020	-0.076
-181.056	-101.638	0.335	-0.080
-180.042	-200.000	0.022	0.126
-179.027	-10.704	-0.072	-0.047
-178.012	800.000	0.056	0.153
-176.998	800.000	0.084	0.289
-175.983	-84.050	0.183	-0.057
-174.969	-200.000	0.023	0.200
-173.954	-25.718	-0.297	-0.172
-172.939	97.353	-0.075	0.084
-171.925	128.843	0.123	0.154
-170.910	-69.651	-0.101	0.038
-169.896	-168.501	0.291	-0.011
-168.881	-25.109	0.102	0.059
-167.866	-80.382	0.294	0.096
-166.852	228.913	-0.097	-0.156
-165.837	-200.000	-0.051	0.345
-164.823	42.916	0.130	0.116
-163.808	123.935	-0.100	-0.123
-162.793	800.000	0.093	0.345
-161.779	-49.906	0.111	0.052
-160.764	197.594	0.024	-0.036
-159.750	-131.533	0.273	0.035
-158.735	-31.295	-0.124	0.069
-157.720	192.646	-0.051	0.076
-156.706	22.358	0.088	-0.070
-155.691	18.707	-0.100	0.079
-154.677	-200.000	-0.018	0.350
-153.662	-200.000	-0.029	-0.265
-152.647	-40.075	-0.357	0.182
-151.633	800.000	-0.012	0.036
-150.618	-200.000	-0.044	-0.225
-149.604	-200.000	-0.032	0.479
-148.589	-121.381	-0.218	0.036
-147.574	-63.988	0.314	-0.126
-146.560	-200.000	-0.010	0.129
-145.545	-200.000	0.028	-0.133
-144.531	-16.518	0.251	-0.156
-143.516	-137.864	0.320	0.035
-142.502	-26.030	0.094	-0.054
-141.487	-38.502	0.343	0.178
-140.472	49.863	-0.102	0.094
-139.458	-200.000	0.044	-0.211
-138.443	-50.827	-0.240	0.110
-137.429	-65.715	0.497	0.195
-136.414	-43.849	-0.340	-0.168
-135.399	-200.000	0.032	-0.211
-134.385	-52.564	-0.229	0.103
-133.370	-71.995	0.204	0.074
-132.356	248.657	0.126	0.209
-131.341	-121.509	0.251	0.041
-130.326	-4.685	-0.072	-0.049
-129.312	-95.826	-0.075	-0.020
-128.297	-200.000	0.001	-0.207
-127.283	-103.325	0.140	0.032
-126.268	-110.177	-0.143	0.029
-125.253	34.170	0.158	0.135
-124.239	-148.476	-0.162	-0.013
-123.224	293.202	-0.019	0.034
-122.210	-200.000	0.005	0.124
-121.195	203.096	-0.114	0.173
