DTS Sentinel unit serial number:	SN413079Multiplexer serial number:	ORYXHardware model number:	OX4-SRSoftware version number:	ORYX F/W v4.00 Oryx Data Collector v3.7.2.0data status	okinstallation	princeton_trtdifferential loss correction	single-endedforward channel	channel 1reverse channel	N/Adate	2019/09/16time	15:58:35forward acquisition time	60.00reverse acquisition time	0.00gamma	496.2192k internal	0.2293k external	0.2293temperature offset calibration	0.9952default loss term (dB/km)	0.3790temperature slope calibration	1.0000multiplexer offset coefficient	1.0000multiplexer slope coefficient	1.0000fibre end	0.00T internal ref (°C)	41.03T ext. ref 1 (°C)	14.88T ext. ref 2 (°C)	35.48length (m)	temperature (°C)	Stokes	anti-Stokes-747.200	96.801	-0.044	-0.051
-746.185	-200.000	-0.053	0.426
-745.171	339.313	-0.060	-0.119
-744.156	-2.960	0.070	-0.050
-743.142	-33.529	-0.228	0.129
-742.127	222.018	0.059	0.097
-741.112	60.368	0.293	-0.297
-740.098	-87.905	-0.032	0.010
-739.083	-200.000	-0.044	-0.216
-738.069	-200.000	0.019	0.356
-737.054	-118.923	-0.030	-0.005
-736.039	-132.160	-0.247	-0.033
-735.025	82.281	0.175	0.194
-734.010	-40.755	-0.411	-0.218
-732.996	212.876	0.048	-0.077
-731.981	-53.569	0.394	-0.184
-730.966	-200.000	-0.006	-0.147
-729.952	359.633	0.089	-0.182
-728.937	-149.357	0.291	0.024
-727.923	-3.211	0.230	-0.164
-726.908	-200.000	0.010	-0.435
-725.894	-200.000	0.007	-0.281
-724.879	-200.000	0.008	-0.130
-723.864	-147.590	-0.165	-0.014
-722.850	-103.030	-0.250	0.061
-721.835	-61.041	0.219	-0.095
-720.821	20.648	-0.153	-0.126
-719.806	-40.325	-0.108	-0.057
-718.791	-91.053	0.262	0.077
-717.777	-192.424	0.069	-0.001
-716.762	-104.882	-0.283	-0.066
-715.748	800.000	-0.062	-0.267
-714.733	-18.666	-0.313	-0.199
-713.718	-10.646	-0.362	0.245
-712.704	-108.846	0.117	0.026
-711.689	750.843	-0.178	-0.491
-710.675	2.193	0.252	-0.186
-709.660	556.526	-0.176	-0.434
-708.645	619.458	0.111	-0.285
-707.631	800.000	0.051	0.211
-706.616	214.340	0.114	-0.184
-705.602	749.601	-0.103	-0.284
-704.587	-164.760	-0.074	-0.003
-703.572	-10.355	0.184	-0.125
-702.558	187.015	0.241	-0.368
-701.543	-200.000	-0.010	0.133
-700.529	-69.371	0.408	-0.160
-699.514	127.706	-0.132	0.171
-698.499	92.942	0.077	0.089
-697.485	-167.154	-0.611	-0.025
-696.470	-16.436	0.189	-0.122
-695.456	-74.096	-0.259	-0.096
-694.441	-200.000	0.071	0.362
-693.426	201.518	-0.240	0.378
-692.412	124.750	-0.141	-0.182
-691.397	800.000	-0.046	-0.196
-690.383	-73.463	0.209	-0.078
-689.368	184.217	0.229	-0.346
-688.354	-139.152	-0.149	-0.016
-687.339	-200.000	0.012	0.068
-686.324	9.132	0.115	0.089
-685.310	-59.794	-0.206	-0.090
-684.295	-4.873	-0.187	0.132
-683.281	-82.163	-0.253	-0.084
-682.266	94.170	0.045	-0.052
-681.251	9.786	-0.112	0.087
-680.237	-150.344	0.037	-0.003
-679.222	-92.770	-0.155	-0.044
-678.208	-127.368	0.198	0.029
-677.193	-83.139	0.066	-0.022
-676.178	213.644	0.047	-0.076
-675.164	132.607	-0.274	0.360
-674.149	-78.007	0.277	-0.097
-673.135	-37.030	-0.148	-0.081
-672.120	-129.814	0.259	0.036
-671.105	9.932	0.135	-0.105
-670.091	-43.047	-0.289	-0.149
-669.076	-114.427	-0.196	0.038
-668.062	-151.484	-0.302	-0.023
-667.047	-41.025	0.208	-0.109
-666.032	-90.414	0.094	-0.028
-665.018	6.641	-0.082	-0.062
-664.003	-200.000	0.006	0.256
-662.989	800.000	0.053	-0.201
-661.974	-55.896	-0.494	-0.225
-660.959	-131.397	-0.289	-0.039
-659.945	205.003	-0.115	-0.182
-658.930	-80.321	0.186	-0.063
-657.916	-200.000	0.066	-0.311
-656.901	-58.254	0.365	-0.162
-655.886	-200.000	0.029	0.213
-654.872	-150.949	0.360	-0.028
-653.857	-62.370	0.261	-0.111
-652.843	-41.083	-0.109	-0.057
-651.828	409.573	-0.075	-0.162
-650.814	-86.689	-0.074	-0.023
-649.799	5.314	0.048	-0.036
-648.784	506.144	0.073	-0.172
-647.770	-82.948	0.083	-0.027
-646.755	-88.785	0.228	0.069
-645.741	63.332	-0.263	0.269
-644.726	-64.449	0.128	0.053
-643.711	-88.628	0.219	-0.067
-642.697	-149.062	0.117	0.010
-641.682	25.779	0.207	-0.176
-640.668	800.000	0.037	0.150
-639.653	-200.000	-0.020	0.221
-638.638	-144.702	-0.213	-0.020
-637.624	20.812	-0.093	-0.077
-636.609	-85.391	0.128	0.041
-635.595	-52.710	-0.342	0.161
-634.580	49.643	-0.109	-0.104
-633.565	-7.713	-0.151	-0.104
-632.551	400.558	0.118	-0.253
-631.536	800.000	0.066	-0.211
-630.522	199.672	-0.124	-0.194
-629.507	-109.416	-0.226	0.049
-628.492	15.275	-0.111	0.089
-627.478	-171.306	0.223	0.008
-626.463	44.250	0.072	0.067
-625.449	-200.000	-0.002	0.291
-624.434	-55.985	0.210	-0.095
-623.419	455.837	-0.063	-0.143
-622.405	637.241	-0.162	-0.419
-621.390	-19.310	0.215	-0.136
-620.376	437.267	0.191	-0.425
-619.361	405.072	0.129	-0.276
-618.346	-13.443	-0.189	-0.125
-617.332	766.229	0.069	0.191
-616.317	-200.000	0.003	-0.156
-615.303	-73.581	0.309	-0.115
-614.288	-70.703	-0.228	-0.088
-613.273	193.966	-0.088	-0.135
-612.259	785.758	0.034	0.095
-611.244	-50.483	-0.105	0.050
-610.230	-142.409	0.100	-0.010
-609.215	-200.000	0.017	0.118
-608.201	-149.115	-0.192	-0.016
-607.186	-36.081	-0.355	-0.195
-606.171	76.125	0.172	-0.185
-605.157	80.481	-0.181	0.198
-604.142	-119.569	-0.422	-0.074
-603.128	101.197	0.115	-0.136
-602.113	237.890	-0.219	0.369
-601.098	86.823	0.048	-0.054
-600.084	125.225	0.201	-0.258
-599.069	-65.346	0.178	0.073
-598.055	334.103	-0.195	-0.383
-597.040	-23.129	0.184	0.113
-596.025	-58.049	-0.099	-0.044
-595.011	-137.880	0.242	0.028
-593.996	158.582	0.115	-0.163
-592.982	-10.825	-0.251	0.169
-591.967	655.514	0.048	0.126
-590.952	800.000	-0.044	0.141
-589.938	-200.000	-0.029	-0.332
-588.923	694.090	-0.144	0.383
-587.909	159.658	-0.045	0.064
-586.894	-111.633	0.367	0.076
-585.879	-45.148	0.373	-0.189
-584.865	-200.000	0.020	-0.327
-583.850	536.888	0.142	-0.342
-582.836	-21.265	0.281	0.175
-581.821	2.599	-0.295	0.217
-580.806	240.937	-0.151	0.256
-579.792	-162.557	0.185	0.009
-578.777	268.469	0.028	0.050
-577.763	-120.415	-0.120	0.021
-576.748	-200.000	0.007	-0.174
-575.733	282.795	-0.189	-0.345
-574.719	13.322	0.152	-0.120
-573.704	111.138	-0.193	0.236
-572.690	609.717	-0.058	0.146
-571.675	115.175	0.145	0.179
-570.661	-1.332	0.122	-0.088
-569.646	-135.162	-0.128	0.016
-568.631	-200.000	0.041	-0.186
-567.617	341.501	0.083	-0.165
-566.602	-200.000	0.014	0.220
-565.588	-83.263	-0.208	0.068
-564.573	-107.784	-0.242	0.054
-563.558	800.000	0.034	-0.148
-562.544	-26.410	-0.167	0.099
-561.529	286.455	0.130	0.238
-560.515	-200.000	-0.002	0.141
-559.500	241.376	0.072	0.123
-558.485	-200.000	0.034	0.217
-557.471	-168.775	-0.397	-0.015
-556.456	677.570	-0.042	0.111
-555.442	575.663	-0.052	0.129
-554.427	4.749	-0.100	-0.075
-553.412	-200.000	0.006	0.242
-552.398	53.974	-0.263	0.257
-551.383	-23.703	0.204	-0.124
-550.369	27.685	0.326	-0.279
-549.354	418.832	-0.130	0.282
-548.339	470.847	-0.083	0.189
-547.325	800.000	0.026	0.076
-546.310	-16.639	0.214	-0.137
-545.296	800.000	-0.079	-0.334
-544.281	800.000	-0.032	-0.094
-543.266	-175.666	-0.160	-0.004
-542.252	31.428	0.283	0.246
-541.237	175.659	0.030	0.044
-540.223	-148.682	0.354	-0.029
-539.208	276.777	0.097	-0.175
-538.193	737.826	-0.105	-0.285
-537.179	-87.205	0.196	0.060
-536.164	-30.318	0.266	-0.153
-535.150	34.428	-0.277	-0.245
-534.135	-172.598	0.199	-0.006
-533.121	104.310	0.121	-0.145
-532.106	-200.000	0.004	-0.143
-531.091	-106.114	0.152	0.035
-530.077	92.557	-0.092	-0.105
-529.062	-75.035	-0.161	-0.059
-528.048	740.628	0.030	-0.083
-527.033	24.031	0.277	-0.232
-526.018	88.945	0.162	0.183
-525.004	8.993	-0.259	-0.198
-523.989	278.508	0.088	-0.160
-522.975	-200.000	-0.059	-0.276
-521.960	-74.077	-0.316	0.116
-520.945	800.000	-0.079	-0.289
-519.931	-67.901	-0.178	-0.070
-518.916	-33.303	0.204	-0.115
-517.902	-79.609	-0.242	-0.083
-516.887	-105.454	-0.082	0.019
-515.872	-75.850	0.188	-0.067
-514.858	-135.548	-0.417	-0.050
-513.843	-160.866	0.138	-0.007
-512.829	-106.075	0.212	0.048
-511.814	97.395	-0.125	-0.146
-510.799	-100.886	0.213	-0.053
-509.785	-189.790	0.268	-0.003
-508.770	128.270	0.064	-0.082
-507.756	-97.876	0.331	0.087
-506.741	-147.312	0.377	-0.032
-505.726	219.178	0.085	0.139
-504.712	45.470	-0.008	-0.008
-503.697	-82.598	-0.150	0.049
-502.683	203.253	-0.116	-0.182
-501.668	-174.149	-0.080	-0.002
-500.653	-64.733	-0.149	-0.061
-499.639	711.265	0.043	-0.114
-498.624	12.499	-0.126	-0.098
-497.610	-106.543	-0.337	0.076
-496.595	-80.515	-0.326	0.110
-495.581	-200.000	0.002	-0.407
-494.566	96.050	0.055	0.064
-493.551	-121.153	0.316	0.054
-492.537	2.533	0.218	-0.160
-491.522	-200.000	-0.042	0.338
-490.508	-200.000	-0.012	-0.157
-489.493	551.854	-0.050	-0.123
-488.478	304.488	-0.243	-0.456
-487.464	-60.594	-0.210	-0.090
-486.449	-169.598	0.115	-0.004
-485.435	-7.997	0.134	-0.092
-484.420	31.267	0.444	-0.386
-483.405	-60.269	-0.301	0.130
-482.391	-3.470	0.098	0.069
-481.376	-98.118	0.268	-0.070
-480.362	-200.000	-0.019	0.096
-479.347	229.281	0.201	-0.333
-478.332	-143.175	-0.147	0.014
-477.318	-124.507	-0.376	0.059
-476.303	-32.633	0.214	0.121
-475.289	-5.454	-0.132	0.091
-474.274	-200.000	0.050	-0.343
-473.259	143.848	-0.073	-0.099
-472.245	520.162	-0.057	-0.135
-471.230	222.688	0.237	0.387
-470.216	-200.000	0.024	0.130
-469.201	800.000	0.007	-0.029
-468.186	-72.765	-0.376	-0.140
-467.172	175.031	-0.071	-0.104
-466.157	-96.009	0.182	0.049
-465.143	-132.751	0.019	-0.002
-464.128	149.966	-0.070	0.097
-463.113	-111.266	-0.182	0.038
-462.099	-13.242	-0.200	0.131
-461.084	544.871	0.053	-0.129
-460.070	-8.576	0.226	-0.154
-459.055	-200.000	-0.012	-0.178
-458.040	-26.108	-0.204	0.122
-457.026	-42.696	0.179	-0.092
-456.011	398.271	-0.081	0.171
-454.997	46.582	0.056	0.052
-453.982	58.682	0.250	0.249
-452.968	11.805	0.191	0.148
-451.953	-66.712	0.024	0.010
-450.938	84.584	-0.187	0.207
-449.924	104.229	0.232	-0.276
-448.909	-200.000	0.002	0.286
-447.895	-87.931	0.408	0.124
-446.880	-147.880	-0.433	-0.037
-445.865	-96.613	-0.464	0.124
-444.851	520.918	-0.125	-0.296
-443.836	-112.053	0.076	-0.016
-442.822	-152.980	-0.243	-0.017
-441.807	392.843	-0.122	0.256
-440.792	49.931	-0.209	0.199
-439.778	-29.371	-0.262	-0.151
-438.763	28.954	-0.293	-0.251
-437.749	-49.498	0.274	-0.132
-436.734	536.279	0.060	-0.144
-435.719	-200.000	0.047	0.288
-434.705	800.000	-0.129	-0.405
-433.690	-134.378	-0.134	-0.017
-432.676	81.480	-0.120	0.131
-431.661	-137.912	0.224	0.025
-430.646	571.014	0.070	0.173
-429.632	-114.528	-0.332	-0.064
-428.617	-86.250	0.071	0.022
-427.603	633.907	-0.051	-0.132
-426.588	-8.275	0.152	-0.103
-425.573	-200.000	-0.030	-0.185
-424.559	19.266	-0.299	0.243
-423.544	18.006	-0.055	0.044
-422.530	-200.000	0.007	-0.338
-421.515	52.576	0.007	0.006
-420.500	356.966	0.034	0.068
-419.486	11.306	0.126	0.097
-418.471	800.000	0.028	-0.114
-417.457	210.978	-0.066	0.105
-416.442	800.000	0.142	-0.399
-415.428	-65.712	-0.049	0.020
-414.413	8.520	0.141	0.107
-413.398	70.157	-0.133	-0.139
-412.384	348.436	-0.099	-0.197
-411.369	-200.000	-0.023	-0.178
-410.355	6.326	-0.096	-0.072
-409.340	800.000	0.039	-0.115
-408.325	-200.000	-0.008	-0.384
-407.311	-27.287	0.278	-0.163
-406.296	-142.524	0.381	-0.038
-405.282	-200.000	-0.008	0.110
-404.267	105.007	-0.146	-0.174
-403.252	-25.747	0.491	0.292
-402.238	-95.162	0.280	0.076
-401.223	-117.333	0.093	-0.017
-400.209	-200.000	0.029	-0.315
-399.194	-163.406	-0.169	0.008
-398.179	-127.916	-0.134	-0.019
-397.165	642.736	0.031	0.080
-396.150	129.126	0.112	0.145
-395.136	800.000	0.143	0.443
-394.121	302.206	-0.197	-0.368
-393.106	-110.545	-0.475	-0.099
-392.092	-64.175	0.031	-0.013
-391.077	-16.130	-0.242	0.155
-390.063	160.576	-0.177	-0.250
-389.048	122.850	-0.121	-0.152
-388.033	-200.000	0.007	0.066
-387.019	-76.749	-0.152	0.054
-386.004	145.668	-0.223	0.301
-384.990	147.767	0.121	0.165
-383.975	-94.160	-0.140	-0.039
-382.960	800.000	0.092	-0.294
-381.946	758.207	-0.082	0.223
-380.931	-25.607	0.170	0.101
-379.917	14.994	0.146	0.116
-378.902	-200.000	-0.059	0.433
-377.888	78.882	-0.091	-0.098
-376.873	38.447	0.116	0.104
-375.858	-200.000	0.001	0.022
-374.844	440.641	-0.082	0.182
-373.829	-200.000	-0.016	0.120
-372.815	-200.000	0.021	0.244
-371.800	-174.634	0.327	0.009
-370.785	19.804	-0.019	-0.015
-369.771	43.759	0.214	0.198
-368.756	-200.000	-0.015	0.198
-367.742	-200.000	-0.016	-0.080
-366.727	72.002	-0.080	0.084
-365.712	-200.000	0.014	0.182
-364.698	24.154	-0.128	-0.107
-363.683	405.973	0.064	-0.136
-362.669	-101.937	-0.268	-0.065
-361.654	-55.434	-0.058	-0.026
-360.639	23.440	-0.218	-0.181
-359.625	56.717	-0.034	-0.033
-358.610	-97.115	0.132	0.035
-357.596	63.655	0.064	0.065
-356.581	-200.000	0.103	-0.001
-355.566	-92.260	0.046	-0.013
-354.552	-91.988	0.059	-0.017
-353.537	-200.000	0.021	0.250
-352.523	407.832	-0.075	-0.159
-351.508	276.834	0.042	-0.075
-350.493	-200.000	0.028	0.191
-349.479	-113.250	-0.205	0.041
-348.464	116.108	-0.131	-0.162
-347.450	184.556	0.194	-0.290
-346.435	106.918	0.091	-0.109
-345.420	800.000	-0.065	0.246
-344.406	348.363	0.051	0.102
-343.391	-101.310	-0.075	0.018
-342.377	-46.815	-0.144	-0.071
-341.362	-34.333	-0.128	-0.071
-340.348	-98.021	-0.238	0.062
-339.333	-200.000	0.016	-0.165
-338.318	-200.000	0.005	0.330
-337.304	-200.000	-0.011	-0.069
-336.289	-84.832	-0.060	-0.019
-335.275	290.328	0.051	-0.092
-334.260	-200.000	-0.039	0.246
-333.245	-58.318	-0.061	0.027
-332.231	-133.584	0.234	0.030
-331.216	-131.533	0.387	-0.051
-330.202	800.000	0.085	-0.278
-329.187	79.883	-0.126	0.136
-328.172	800.000	0.097	0.342
-327.158	-200.000	0.004	-0.128
-326.143	568.089	-0.102	0.249
-325.129	-200.000	-0.010	-0.109
-324.114	704.447	-0.110	0.291
-323.099	40.704	0.124	-0.112
-322.085	37.956	0.047	0.042
-321.070	-116.975	0.216	-0.040
-320.056	215.229	-0.196	-0.314
-319.041	554.140	0.061	0.148
-318.026	-62.772	0.374	0.156
-317.012	-200.000	-0.048	0.243
-315.997	-159.360	0.260	-0.015
-314.983	-125.029	0.037	-0.006
-313.968	0.778	-0.124	0.089
-312.953	-146.089	0.189	-0.017
-311.939	136.486	0.222	0.291
-310.924	2.546	-0.236	-0.172
-309.910	620.133	0.057	-0.144
-308.895	50.292	0.190	-0.180
-307.880	-200.000	0.038	0.196
-306.866	61.704	0.023	0.023
-305.851	800.000	0.105	-0.352
-304.837	86.692	-0.112	-0.124
-303.822	366.700	-0.181	0.367
-302.807	-200.000	0.009	-0.138
-301.793	15.812	-0.229	0.181
-300.778	77.914	0.155	0.166
-299.764	-15.064	-0.395	0.254
-298.749	-11.630	-0.247	0.163
-297.735	420.064	0.074	0.159
-296.720	-129.820	0.244	0.034
-295.705	-115.882	0.220	0.041
-294.691	718.355	0.058	0.154
-293.676	-37.882	-0.525	0.281
-292.662	-121.994	0.217	-0.036
-291.647	-91.270	0.144	-0.042
-290.632	25.586	0.159	0.133
-289.618	103.984	0.092	0.109
-288.603	800.000	0.048	0.136
-287.589	-200.000	0.011	-0.220
-286.574	8.767	-0.152	-0.115
-285.559	-69.889	0.177	-0.068
-284.545	594.934	0.013	0.033
-283.530	-109.581	-0.029	0.006
-282.516	-200.000	0.014	-0.106
-281.501	-200.000	0.038	0.362
-280.486	-19.482	0.273	-0.170
-279.472	514.569	-0.093	0.218
-278.457	-200.000	0.003	0.312
-277.443	800.000	-0.014	0.044
-276.428	304.895	-0.086	-0.160
-275.413	-200.000	0.007	0.227
-274.399	-79.696	-0.343	-0.116
-273.384	-124.156	0.348	0.055
-272.370	800.000	-0.105	0.397
-271.355	-200.000	-0.047	0.363
-270.340	-122.160	-0.269	0.044
-269.326	-200.000	0.010	0.246
-268.311	-23.907	0.141	0.085
-267.297	34.207	0.141	0.123
-266.282	800.000	0.111	0.482
-265.267	-78.077	-0.290	0.100
-264.253	-200.000	-0.048	0.305
-263.238	215.982	0.170	0.271
-262.224	800.000	-0.068	-0.202
-261.209	-200.000	-0.059	-0.385
-260.195	110.232	-0.095	-0.115
-259.180	-200.000	0.024	-0.199
-258.165	-132.934	0.473	-0.060
-257.151	-66.093	0.160	0.064
-256.136	-61.481	0.297	-0.125
-255.122	109.089	0.118	-0.142
-254.107	-1.333	-0.044	-0.031
-253.092	147.885	0.087	0.117
-252.078	533.017	0.141	0.334
-251.063	-200.000	0.041	0.352
-250.049	-9.583	-0.140	-0.094
-249.034	206.230	0.062	-0.097
-248.019	-83.477	0.193	-0.062
-247.005	-33.477	0.178	0.099
-245.990	618.023	-0.009	-0.023
-244.976	-200.000	0.003	0.409
-243.961	10.590	-0.199	-0.152
-242.946	-200.000	0.007	0.095
-241.932	-200.000	-0.041	0.197
-240.917	82.396	0.208	-0.227
-239.903	-143.111	-0.347	-0.034
-238.888	-200.000	-0.041	-0.217
-237.873	-161.586	-0.162	0.008
-236.859	800.000	-0.129	-0.468
-235.844	62.835	0.211	0.212
-234.830	-92.229	0.181	-0.051
-233.815	-200.000	-0.009	-0.228
-232.800	-14.693	-0.190	-0.122
-231.786	28.314	-0.196	0.166
-230.771	-200.000	-0.019	0.153
-229.757	27.013	0.188	0.158
-228.742	-185.581	-0.230	0.003
-227.727	-152.597	0.070	-0.005
-226.713	800.000	-0.102	-0.331
-225.698	-13.720	0.202	-0.131
-224.684	118.741	0.137	0.169
-223.669	175.004	-0.185	0.268
-222.655	175.431	-0.019	-0.027
-221.640	-125.712	-0.259	0.039
-220.625	-200.000	0.001	-0.083
-219.611	-72.708	-0.240	-0.089
-218.596	800.000	0.067	0.276
-217.582	283.467	0.066	0.118
-216.567	-149.843	-0.245	-0.019
-215.552	800.000	0.099	0.338
-214.538	138.055	-0.120	0.158
-213.523	493.216	-0.109	-0.250
-212.509	104.372	0.197	0.233
-211.494	-133.156	0.047	-0.006
-210.479	-30.615	0.168	0.095
-209.465	-148.597	0.254	-0.021
-208.450	349.667	0.142	-0.280
-207.436	168.331	-0.158	-0.225
-206.421	-200.000	0.048	0.239
-205.406	244.397	-0.125	-0.210
-204.392	-129.460	-0.202	-0.028
-203.377	-200.000	-0.047	-0.301
-202.363	800.000	0.022	-0.073
-201.348	64.697	0.111	-0.112
-200.333	2.818	0.218	-0.158
-199.319	-163.105	0.421	-0.020
-198.304	77.240	-0.011	0.011
-197.290	238.056	-0.192	-0.320
-196.275	-200.000	0.022	-0.106
-195.260	713.790	-0.120	0.318
-194.246	661.882	0.121	0.311
-193.231	-3.260	0.102	-0.071
-192.217	-200.000	0.009	-0.072
-191.202	85.178	-0.159	-0.175
-190.187	49.966	-0.109	-0.103
-189.173	-5.449	-0.252	0.173
-188.158	170.510	0.200	0.286
-187.144	147.924	-0.060	-0.081
-186.129	626.619	-0.170	-0.429
-185.114	103.959	0.203	0.239
-184.100	-200.000	0.047	0.375
-183.085	-200.000	-0.050	0.353
-182.071	347.272	0.195	-0.384
-181.056	464.279	-0.224	-0.502
-180.042	800.000	0.022	-0.090
-179.027	800.000	-0.038	-0.112
-178.012	9.091	-0.197	0.149
-176.998	-63.809	-0.325	-0.133
-175.983	800.000	-0.053	0.187
-174.969	-87.789	-0.165	-0.050
-173.954	-41.036	-0.288	-0.149
-172.939	197.687	0.075	-0.115
-171.925	-54.807	0.046	0.021
-170.910	-200.000	0.047	0.300
-169.896	99.607	0.430	-0.498
-168.881	623.951	-0.066	0.168
-167.866	-45.779	0.094	-0.046
-166.852	176.450	0.078	0.113
-165.837	316.551	-0.119	0.225
-164.823	800.000	-0.132	0.445
-163.808	-200.000	0.006	-0.083
-162.793	108.549	0.224	0.268
-161.779	-131.281	-0.070	-0.009
-160.764	-20.419	-0.261	0.161
-159.750	53.224	-0.278	0.266
-158.735	-50.148	-0.319	0.151
-157.720	-26.180	0.517	0.304
-156.706	-142.446	0.335	-0.033
-155.691	78.136	-0.383	-0.408
-154.677	54.151	-0.126	-0.121
-153.662	-28.855	0.164	0.094
-152.647	38.862	0.022	-0.020
-151.633	-200.000	0.003	0.072
-150.618	169.636	-0.098	-0.140
-149.604	-16.311	-0.199	0.127
-148.589	-35.995	0.237	0.128
-147.574	-56.669	0.381	0.168
-146.560	30.635	-0.240	-0.206
-145.545	-36.428	0.069	-0.037
-144.531	50.248	0.096	-0.091
-143.516	-200.000	0.037	-0.193
-142.502	-200.000	-0.049	-0.290
-141.487	-60.215	-0.165	-0.070
-140.472	-200.000	-0.026	0.171
-139.458	-79.664	-0.160	0.054
-138.443	-188.913	-0.145	-0.002
-137.429	713.714	0.035	0.093
-136.414	82.269	0.290	-0.315
-135.399	-200.000	-0.006	0.208
-134.385	-131.117	0.142	0.019
-133.370	386.456	0.156	0.322
-132.356	-200.000	-0.025	0.117
-131.341	615.872	-0.019	-0.048
-130.326	-57.681	0.337	-0.148
-129.312	30.928	-0.230	-0.197
-128.297	137.771	-0.243	0.319
-127.283	-200.000	0.024	0.200
-126.268	475.060	0.189	-0.427
-125.253	27.705	-0.213	-0.179
-124.239	624.411	0.166	0.418
-123.224	472.256	0.019	0.042
-122.210	261.665	0.106	-0.184
-121.195	-82.472	-0.199	-0.064
