DTS Sentinel unit serial number:	SN413079Multiplexer serial number:	ORYXHardware model number:	OX4-SRSoftware version number:	ORYX F/W v4.00 Oryx Data Collector v3.7.2.0data status	okinstallation	princeton_trtdifferential loss correction	single-endedforward channel	channel 1reverse channel	N/Adate	2019/09/15time	00:50:35forward acquisition time	60.00reverse acquisition time	0.00gamma	496.2192k internal	0.2321k external	0.2321temperature offset calibration	0.9989default loss term (dB/km)	0.3790temperature slope calibration	1.0000multiplexer offset coefficient	1.0000multiplexer slope coefficient	1.0000fibre end	0.00T internal ref (°C)	32.06T ext. ref 1 (°C)	4.57T ext. ref 2 (°C)	26.99length (m)	temperature (°C)	Stokes	anti-Stokes-747.200	800.000	0.017	-0.061
-746.185	100.489	0.295	0.347
-745.171	-26.894	0.172	-0.102
-744.156	800.000	-0.053	0.148
-743.142	420.054	-0.090	-0.196
-742.127	-7.411	-0.248	0.169
-741.112	-55.806	0.134	0.061
-740.098	-58.604	-0.045	-0.020
-739.083	-200.000	0.008	-0.059
-738.069	152.487	0.112	0.155
-737.054	20.141	0.255	0.208
-736.039	-200.000	-0.060	-0.277
-735.025	-141.935	0.467	0.047
-734.010	-33.800	0.086	0.048
-732.996	514.884	0.043	-0.101
-731.981	-200.000	0.001	-0.285
-730.966	-46.507	-0.250	0.124
-729.952	24.882	-0.271	-0.227
-728.937	800.000	-0.046	-0.194
-727.923	-71.524	-0.131	0.049
-726.908	-83.057	-0.133	0.043
-725.894	-89.611	-0.173	-0.051
-724.879	131.726	-0.106	0.138
-723.864	-35.415	0.356	-0.195
-722.850	-110.687	-0.110	0.023
-721.835	-200.000	0.036	0.178
-720.821	300.490	-0.044	0.083
-719.806	11.701	0.312	0.242
-718.791	-45.470	-0.217	-0.108
-717.777	800.000	-0.048	-0.201
-716.762	-25.610	-0.180	-0.107
-715.748	-6.121	0.279	-0.192
-714.733	-49.297	0.103	-0.050
-713.718	3.618	-0.099	-0.073
-712.704	-52.679	0.232	0.108
-711.689	21.896	0.249	-0.205
-710.675	435.680	-0.121	-0.266
-709.660	800.000	0.043	-0.157
-708.645	-45.828	0.259	-0.129
-707.631	-200.000	0.002	-0.147
-706.616	-200.000	0.024	0.206
-705.602	225.645	0.036	-0.058
-704.587	58.570	-0.355	-0.352
-703.572	-9.972	-0.148	-0.099
-702.558	-48.654	-0.134	0.065
-701.543	736.402	0.064	0.172
-700.529	27.254	0.067	-0.057
-699.514	-200.000	-0.020	0.096
-698.499	257.464	0.116	0.202
-697.485	800.000	-0.097	-0.413
-696.470	-200.000	0.016	-0.131
-695.456	178.141	-0.151	-0.222
-694.441	280.940	-0.158	-0.286
-693.426	-129.896	0.074	0.010
-692.412	-25.465	-0.153	0.091
-691.397	800.000	0.050	0.146
-690.383	0.427	0.046	0.033
-689.368	-200.000	-0.051	-0.329
-688.354	-200.000	-0.019	0.160
-687.339	800.000	-0.074	0.300
-686.324	-135.430	-0.243	-0.029
-685.310	-100.024	-0.142	0.036
-684.295	-108.216	0.085	0.019
-683.281	-137.646	0.206	-0.023
-682.266	-200.000	0.055	0.399
-681.251	278.416	0.120	-0.216
-680.237	-95.510	-0.177	-0.048
-679.222	53.921	0.084	-0.081
-678.208	82.664	-0.030	-0.033
-677.193	-200.000	-0.084	-0.393
-676.178	800.000	0.063	-0.196
-675.164	-200.000	-0.032	-0.152
-674.149	-200.000	0.013	0.078
-673.135	5.655	-0.242	-0.181
-672.120	-82.331	0.043	-0.014
-671.105	-60.063	-0.221	0.095
-670.091	-200.000	0.010	0.107
-669.076	510.828	-0.124	0.290
-668.062	692.827	0.075	-0.199
-667.047	743.339	0.088	0.240
-666.032	-112.868	-0.117	-0.023
-665.018	-200.000	0.004	0.069
-664.003	-98.436	-0.228	-0.059
-662.989	18.750	0.171	-0.138
-661.974	-31.172	0.154	-0.087
-660.959	34.764	0.138	-0.122
-659.945	43.737	-0.160	-0.147
-658.930	-108.663	0.225	0.049
-657.916	-89.059	-0.278	-0.083
-656.901	210.834	-0.228	-0.361
-655.886	-154.234	0.266	-0.018
-654.872	-65.834	-0.132	-0.053
-653.857	-97.402	0.233	-0.061
-652.843	-200.000	-0.072	0.430
-651.828	29.356	-0.138	0.118
-650.814	36.785	-0.182	0.162
-649.799	477.040	0.097	0.221
-648.784	-47.939	-0.276	-0.134
-647.770	-200.000	-0.000	0.230
-646.755	-200.000	0.027	0.134
-645.741	-34.262	-0.070	-0.038
-644.726	728.733	0.057	0.152
-643.711	-77.602	0.425	-0.148
-642.697	336.381	-0.123	-0.241
-641.682	-69.818	0.183	-0.070
-640.668	117.637	-0.028	0.035
-639.653	-200.000	-0.051	0.330
-638.638	216.140	0.150	0.239
-637.624	-99.694	-0.159	0.040
-636.609	-51.375	-0.130	0.061
-635.595	282.980	-0.116	-0.209
-634.580	-97.692	0.451	-0.118
-633.565	-149.149	-0.450	0.036
-632.551	-78.562	0.316	0.109
-631.536	-133.580	-0.271	0.034
-630.522	160.946	-0.217	-0.305
-629.507	-1.539	-0.130	-0.092
-628.492	-155.333	0.190	-0.012
-627.478	800.000	-0.094	-0.298
-626.463	17.527	0.057	-0.045
-625.449	-200.000	-0.040	0.255
-624.434	126.357	0.134	0.170
-623.419	442.135	-0.102	-0.224
-622.405	-61.216	0.183	0.077
-621.390	-80.083	0.163	0.055
-620.376	21.776	-0.154	-0.126
-619.361	31.939	-0.118	-0.102
-618.346	24.440	0.175	0.146
-617.332	39.006	-0.260	0.234
-616.317	71.431	0.273	-0.285
-615.303	-85.151	0.169	-0.053
-614.288	9.856	-0.217	0.166
-613.273	-60.900	0.032	0.014
-612.259	-108.074	0.237	-0.052
-611.244	186.635	-0.218	0.326
-610.230	800.000	0.038	0.134
-609.215	-171.164	-0.075	-0.003
-608.201	4.632	0.207	0.153
-607.186	-200.000	0.001	0.010
-606.171	800.000	-0.068	-0.236
-605.157	-133.792	-0.149	-0.019
-604.142	153.756	0.022	-0.030
-603.128	447.498	-0.035	0.077
-602.113	800.000	0.079	-0.284
-601.098	-81.875	-0.154	-0.051
-600.084	59.784	-0.088	0.087
-599.069	-50.237	0.257	-0.122
-598.055	-200.000	-0.031	-0.313
-597.040	-200.000	-0.002	-0.118
-596.025	37.625	-0.317	0.283
-595.011	-17.688	0.285	-0.180
-593.996	800.000	0.085	-0.260
-592.982	44.223	0.222	0.204
-591.967	-34.670	0.297	-0.163
-590.952	13.936	-0.234	0.183
-589.938	133.200	0.091	-0.118
-588.923	53.249	-0.142	-0.136
-587.909	106.135	-0.121	0.144
-586.894	-155.255	0.148	-0.010
-585.879	-61.284	-0.246	0.104
-584.865	0.993	0.150	-0.108
-583.850	501.311	0.062	-0.144
-582.836	95.339	-0.130	0.149
-581.821	9.164	-0.216	0.164
-580.806	-41.557	-0.246	0.127
-579.792	-200.000	0.005	0.163
-578.777	260.005	0.168	-0.291
-577.763	-46.753	-0.258	-0.127
-576.748	-35.829	-0.257	0.140
-575.733	-40.830	0.038	-0.020
-574.719	575.893	0.100	-0.246
-573.704	-153.575	0.234	0.016
-572.690	-200.000	-0.027	-0.244
-571.675	72.975	-0.017	-0.017
-570.661	-132.189	0.258	-0.034
-569.646	-131.398	0.281	0.037
-568.631	-23.995	-0.310	-0.186
-567.617	-96.371	0.144	0.038
-566.602	185.164	0.087	0.130
-565.588	800.000	-0.110	-0.354
-564.573	800.000	-0.102	-0.335
-563.558	-200.000	0.058	0.347
-562.544	143.893	-0.162	-0.217
-561.529	53.879	0.169	-0.163
-560.515	-55.408	0.086	-0.039
-559.500	800.000	-0.074	-0.227
-558.485	-59.368	-0.219	0.095
-557.471	-163.782	0.257	0.012
-556.456	-200.000	-0.009	-0.073
-555.442	-66.395	-0.307	-0.122
-554.427	-93.889	0.445	-0.123
-553.412	213.477	-0.193	-0.307
-552.398	-146.000	-0.219	0.019
-551.383	-65.785	-0.189	-0.076
-550.369	-125.225	0.253	0.039
-549.354	800.000	0.050	0.154
-548.339	-200.000	0.017	-0.248
-547.325	-200.000	0.016	-0.297
-546.310	77.663	-0.210	0.225
-545.296	-117.492	0.020	0.004
-544.281	-200.000	-0.011	-0.216
-543.266	-96.342	-0.059	0.016
-542.252	-200.000	-0.011	0.278
-541.237	-31.672	-0.234	-0.132
-540.223	-53.917	0.258	0.118
-539.208	-200.000	-0.013	-0.310
-538.193	-55.163	-0.008	-0.004
-537.179	-200.000	0.041	-0.234
-536.164	137.267	-0.158	-0.207
-535.150	-123.357	0.048	-0.008
-534.135	-200.000	0.011	0.107
-533.121	-200.000	0.058	0.468
-532.106	-157.563	0.056	0.003
-531.091	-111.350	-0.269	0.055
-530.077	152.668	0.055	-0.076
-529.062	85.235	-0.256	0.281
-528.048	-200.000	0.007	-0.183
-527.033	-72.977	0.104	0.038
-526.018	800.000	0.153	0.625
-525.004	33.353	0.211	0.183
-523.989	523.653	0.024	0.057
-522.975	365.376	0.247	0.498
-521.960	-95.739	-0.277	0.074
-520.945	111.181	-0.145	0.175
-519.931	-91.254	-0.183	-0.052
-518.916	-55.513	-0.305	0.137
-517.902	-131.572	-0.229	0.030
-516.887	565.648	0.134	-0.327
-515.872	-52.552	0.159	0.074
-514.858	288.702	-0.155	0.281
-513.843	-200.000	-0.028	-0.123
-512.829	-70.943	-0.186	-0.070
-511.814	-200.000	0.026	-0.194
-510.799	-200.000	-0.025	-0.241
-509.785	800.000	0.028	-0.101
-508.770	46.111	0.140	-0.130
-507.756	483.522	0.115	-0.262
-506.741	-200.000	0.007	-0.153
-505.726	0.956	-0.089	0.064
-504.712	136.101	0.086	0.112
-503.697	582.743	-0.066	-0.162
-502.683	103.475	0.249	0.292
-501.668	-200.000	0.009	0.080
-500.653	424.584	-0.140	-0.303
-499.639	27.292	0.362	-0.304
-498.624	34.097	-0.155	0.136
-497.610	-200.000	-0.004	-0.217
-496.595	-200.000	-0.009	0.045
-495.581	-65.629	-0.124	-0.050
-494.566	-122.971	-0.142	-0.023
-493.551	800.000	-0.047	0.198
-492.537	-200.000	-0.048	-0.273
-491.522	38.001	0.150	0.134
-490.508	800.000	-0.091	0.287
-489.493	800.000	-0.086	-0.240
-488.478	-200.000	-0.038	0.193
-487.464	42.761	0.053	0.048
-486.449	201.276	-0.100	0.154
-485.435	-76.796	0.216	0.076
-484.420	-119.502	0.152	-0.026
-483.405	49.020	-0.172	-0.161
-482.391	509.658	0.030	-0.069
-481.376	800.000	-0.036	-0.147
-480.362	800.000	-0.024	-0.078
-479.347	122.478	-0.159	0.199
-478.332	-9.733	-0.125	0.083
-477.318	-200.000	0.020	0.099
-476.303	76.137	-0.127	0.135
-475.289	800.000	0.027	-0.096
-474.274	-99.198	0.310	-0.078
-473.259	102.845	0.113	0.133
-472.245	81.113	0.268	0.289
-471.230	24.313	0.050	-0.042
-470.216	-31.299	-0.125	0.071
-469.201	275.428	0.050	0.089
-468.186	-135.383	0.085	0.010
-467.172	-164.793	-0.162	-0.007
-466.157	-150.180	-0.263	-0.020
-465.143	-103.258	0.085	0.020
-464.128	-117.348	0.018	0.003
-463.113	-17.848	-0.250	-0.157
-462.099	34.499	0.129	-0.113
-461.084	-53.119	-0.300	-0.138
-460.070	127.835	-0.142	0.180
-459.055	800.000	-0.183	-0.540
-458.040	210.843	0.075	0.118
-457.026	-11.246	-0.174	-0.114
-456.011	800.000	-0.020	0.056
-454.997	-102.614	0.029	0.007
-453.982	-200.000	0.002	0.051
-452.968	-200.000	0.014	-0.198
-451.953	31.865	-0.095	0.082
-450.938	32.454	-0.175	0.151
-449.924	-109.043	-0.279	0.059
-448.909	-188.082	0.372	-0.005
-447.895	-200.000	-0.031	0.465
-446.880	800.000	0.097	-0.350
-445.865	-70.691	-0.239	0.090
-444.851	216.089	0.065	-0.103
-443.836	-99.127	-0.270	0.068
-442.822	67.789	0.125	-0.128
-441.807	292.428	-0.028	0.051
-440.792	-50.942	-0.365	-0.171
-439.778	800.000	0.085	-0.292
-438.763	-15.321	0.060	0.038
-437.749	49.619	0.204	0.192
-436.734	-84.507	-0.174	0.055
-435.719	-200.000	-0.011	-0.189
-434.705	-49.757	0.346	-0.164
-433.690	800.000	0.093	0.327
-432.676	137.553	-0.127	-0.166
-431.661	-200.000	0.008	-0.326
-430.646	-122.959	0.076	0.012
-429.632	800.000	-0.050	0.177
-428.617	61.811	0.138	-0.137
-427.603	55.944	0.130	0.126
-426.588	658.564	-0.077	-0.198
-425.573	-84.088	0.466	0.148
-424.559	-142.852	-0.207	-0.020
-423.544	800.000	-0.033	-0.129
-422.530	-109.354	-0.060	-0.013
-421.515	-64.638	0.354	-0.143
-420.500	-99.399	0.159	-0.040
-419.486	-124.819	0.362	0.056
-418.471	-13.266	-0.349	0.226
-417.457	-107.899	-0.127	-0.028
-416.442	25.834	0.208	-0.173
-415.428	200.818	-0.110	0.169
-414.413	14.211	-0.151	0.117
-413.398	22.650	-0.224	0.183
-412.384	55.799	-0.046	0.044
-411.369	89.177	0.197	-0.219
-410.355	24.935	0.088	-0.073
-409.340	231.975	0.181	-0.296
-408.325	-75.857	0.288	0.102
-407.311	-200.000	-0.011	0.427
-406.296	-109.070	-0.034	0.007
-405.282	-200.000	-0.076	0.393
-404.267	-200.000	-0.073	0.349
-403.252	681.700	-0.039	-0.103
-402.238	-172.059	0.157	-0.005
-401.223	800.000	0.058	0.207
-400.209	1.453	0.129	0.092
-399.194	160.340	-0.127	0.176
-398.179	800.000	-0.083	0.229
-397.165	-109.834	-0.334	-0.070
-396.150	72.132	-0.027	0.028
-395.136	-200.000	0.008	-0.063
-394.121	800.000	-0.027	-0.106
-393.106	-11.728	0.122	-0.080
-392.092	-135.864	0.290	0.034
-391.077	-200.000	-0.012	0.172
-390.063	800.000	-0.101	0.340
-389.048	-140.863	0.157	0.016
-388.033	10.119	0.213	0.161
-387.019	135.053	-0.049	0.063
-386.004	-200.000	-0.029	0.130
-384.990	-136.942	0.328	-0.037
-383.975	-121.311	-0.137	0.023
-382.960	-128.828	0.228	0.032
-381.946	800.000	-0.046	-0.183
-380.931	-200.000	-0.034	-0.205
-379.917	800.000	0.101	0.318
-378.902	-16.053	0.159	-0.100
-377.888	234.289	0.101	0.165
-376.873	168.896	-0.070	-0.099
-375.858	-200.000	-0.010	0.056
-374.844	-0.360	0.232	0.164
-373.829	-127.764	-0.176	0.025
-372.815	-118.470	0.496	-0.088
-371.800	-200.000	-0.016	0.091
-370.785	800.000	0.063	0.223
-369.771	124.288	-0.047	0.059
-368.756	-175.567	0.206	-0.006
-367.742	275.735	0.150	0.266
-366.727	289.002	0.136	0.246
-365.712	-85.160	-0.194	0.060
-364.698	-18.670	-0.191	0.119
-363.683	285.978	-0.086	-0.155
-362.669	609.695	-0.157	-0.391
-361.654	119.890	-0.067	-0.082
-360.639	607.107	-0.085	0.212
-359.625	-200.000	0.030	0.133
-358.610	70.091	-0.199	-0.204
-357.596	-132.967	0.220	-0.028
-356.581	60.738	0.029	0.028
-355.566	660.294	0.060	-0.153
-354.552	25.384	0.049	0.040
-353.537	62.262	-0.202	-0.201
-352.523	-94.024	0.468	-0.128
-351.508	-107.610	0.702	0.153
-350.493	-89.332	-0.138	0.040
-349.479	-200.000	-0.012	0.104
-348.464	-62.304	0.227	0.094
-347.450	-47.299	-0.365	-0.177
-346.435	-60.208	0.168	0.071
-345.420	-38.826	0.022	-0.011
-344.406	149.917	-0.147	-0.199
-343.391	-97.832	0.169	0.044
-342.377	149.483	-0.253	-0.342
-341.362	51.831	-0.170	-0.161
-340.348	27.632	0.324	0.271
-339.333	33.081	-0.173	0.149
-338.318	-200.000	-0.103	0.000
-337.304	756.011	0.025	0.068
-336.289	157.428	-0.144	-0.199
-335.275	-200.000	-0.032	0.309
-334.260	-65.555	-0.201	0.080
-333.245	800.000	0.071	0.230
-332.231	-200.000	-0.023	0.113
-331.216	-117.814	-0.058	-0.010
-330.202	-164.649	-0.255	0.011
-329.187	-63.973	0.190	0.077
-328.172	-200.000	-0.058	-0.301
-327.158	800.000	-0.034	-0.094
-326.143	-117.009	-0.102	0.019
-325.129	-200.000	-0.050	0.350
-324.114	-200.000	0.029	-0.507
-323.099	-152.267	0.304	-0.022
-322.085	157.490	-0.106	0.146
-321.070	-45.459	0.389	0.192
-320.056	-71.803	-0.083	-0.031
-319.041	-68.688	-0.164	0.063
-318.026	-64.648	-0.271	-0.109
-317.012	-73.869	0.354	0.128
-315.997	336.063	-0.097	0.188
-314.983	40.984	0.175	-0.157
-313.968	-200.000	0.047	-0.255
-312.953	271.611	0.022	0.038
-311.939	-159.782	0.150	0.008
-310.924	-200.000	-0.010	-0.295
-309.910	-4.083	0.187	-0.129
-308.895	752.609	0.101	0.272
-307.880	97.791	-0.188	0.215
-306.866	395.121	0.024	-0.050
-305.851	241.138	-0.169	-0.281
-304.837	-200.000	0.008	0.198
-303.822	227.279	-0.022	0.035
-302.807	-97.957	0.535	0.137
-301.793	-134.793	0.093	0.011
-300.778	-68.071	-0.135	-0.052
-299.764	-200.000	-0.002	-0.167
-298.749	-200.000	0.001	0.033
-297.735	-126.995	0.335	0.049
-296.720	-74.646	0.245	-0.088
-295.705	-16.657	0.071	0.045
-294.691	800.000	-0.080	-0.247
-293.676	-93.520	-0.073	0.020
-292.662	-33.393	0.286	-0.157
-291.647	786.155	0.076	-0.207
-290.632	-175.254	0.191	-0.005
-289.618	735.185	0.019	0.051
-288.603	295.172	-0.057	-0.104
-287.589	-115.124	0.298	-0.056
-286.574	800.000	-0.055	0.169
-285.559	388.692	-0.028	-0.057
-284.545	-14.349	-0.150	-0.096
-283.530	-178.686	-0.107	0.002
-282.516	-14.561	-0.237	0.151
-281.501	-112.885	0.040	-0.008
-280.486	-55.224	-0.173	-0.077
-279.472	79.016	-0.182	0.194
-278.457	-200.000	0.010	0.095
-277.443	-46.706	-0.230	-0.112
-276.428	18.730	0.144	0.114
-275.413	98.446	0.326	0.373
-274.399	129.961	-0.189	-0.240
-273.384	-69.755	0.035	0.013
-272.370	26.010	-0.060	0.050
-271.355	244.496	-0.034	-0.056
-270.340	800.000	-0.011	-0.047
-269.326	151.603	0.047	0.063
-268.311	800.000	-0.013	0.038
-267.297	-173.601	0.501	-0.015
-266.282	291.345	0.108	0.194
-265.267	-19.418	0.137	-0.084
-264.253	-82.088	-0.246	0.080
-263.238	-166.155	0.083	-0.003
-262.224	800.000	-0.080	0.266
-261.209	-200.000	0.071	0.345
-260.195	65.530	0.035	-0.035
-259.180	-117.102	-0.023	0.004
-258.165	369.214	0.029	0.058
-257.151	-66.321	-0.299	-0.118
-256.136	-22.983	-0.108	-0.065
-255.122	-200.000	-0.007	-0.199
-254.107	555.021	-0.110	0.264
-253.092	794.487	-0.006	-0.016
-252.078	5.979	0.270	0.198
-251.063	-200.000	0.000	-0.075
-250.049	403.271	0.087	0.181
-249.034	347.198	-0.173	-0.338
-248.019	-143.773	0.455	0.043
-247.005	-77.511	0.228	-0.078
-245.990	-200.000	0.002	-0.052
-244.976	75.571	-0.400	-0.419
-243.961	-72.747	-0.378	-0.138
-242.946	-200.000	-0.028	-0.140
-241.932	-200.000	-0.006	-0.377
-240.917	-109.510	-0.214	-0.045
-239.903	-13.551	0.420	0.270
-238.888	-109.638	-0.126	-0.026
-237.873	-102.029	0.236	0.056
-236.859	424.225	0.052	0.112
-235.844	-77.546	-0.308	0.106
-234.830	90.616	0.163	0.180
-233.815	-54.950	0.071	-0.032
-232.800	239.207	-0.135	0.222
-231.786	222.556	0.181	-0.288
-230.771	46.474	-0.085	0.079
-229.757	-46.746	-0.070	0.034
-228.742	-27.862	0.011	0.006
-227.727	-114.000	-0.382	-0.073
-226.713	-189.380	0.096	0.001
-225.698	-200.000	-0.027	0.416
-224.684	17.729	-0.184	0.145
-223.669	351.608	0.091	0.178
-222.655	-139.167	-0.131	-0.014
-221.640	-51.085	-0.254	-0.118
-220.625	-200.000	0.011	-0.581
-219.611	37.899	-0.009	-0.008
-218.596	-87.324	0.135	0.040
-217.582	-66.143	-0.112	0.044
-216.567	632.345	0.026	0.066
-215.552	-200.000	0.003	-0.195
-214.538	-61.303	-0.244	-0.102
-213.523	-200.000	0.018	-0.126
-212.509	51.278	0.075	-0.071
-211.494	800.000	0.051	-0.191
-210.479	78.516	-0.270	0.285
-209.465	-37.297	0.115	-0.061
-208.450	-149.801	0.106	-0.008
-207.436	-105.248	0.323	-0.073
-206.421	-108.388	-0.171	-0.037
-205.406	-200.000	0.019	-0.335
-204.392	120.627	-0.108	-0.133
-203.377	-200.000	0.063	0.293
-202.363	-200.000	0.024	-0.270
-201.348	-146.702	0.199	0.017
-200.333	670.815	0.156	-0.401
-199.319	347.612	-0.079	0.154
-198.304	-131.867	-0.345	0.045
-197.290	129.580	0.123	-0.156
-196.275	-88.256	-0.120	0.036
-195.260	-200.000	-0.025	0.171
-194.246	-77.506	-0.047	0.016
-193.231	-9.163	-0.211	-0.139
-192.217	800.000	0.102	0.315
-191.202	122.263	-0.162	0.201
-190.187	66.772	-0.032	-0.033
-189.173	-115.842	-0.153	-0.028
-188.158	-5.935	-0.266	0.180
-187.144	162.332	0.066	0.092
-186.129	-200.000	0.027	-0.299
-185.114	259.125	-0.126	-0.215
-184.100	-187.745	-0.200	-0.003
-183.085	430.221	0.137	0.293
-182.071	-33.290	-0.161	0.088
-181.056	-57.314	0.173	0.075
-180.042	-200.000	-0.033	-0.272
-179.027	-127.222	-0.094	-0.014
-178.012	66.508	-0.042	-0.042
-176.998	-102.789	-0.077	0.018
-175.983	156.179	-0.122	0.166
-174.969	36.614	-0.258	0.225
-173.954	51.213	0.073	-0.069
-172.939	-188.744	-0.059	0.001
-171.925	-43.902	-0.272	-0.136
-170.910	-37.076	-0.105	-0.056
-169.896	-153.271	0.207	0.014
-168.881	117.377	0.145	0.176
-167.866	-181.954	0.186	-0.003
-166.852	674.059	-0.181	-0.464
-165.837	-85.411	0.158	0.049
-164.823	179.129	0.116	-0.168
-163.808	-54.603	-0.351	0.157
-162.793	-11.388	-0.306	0.199
-161.779	-65.925	0.231	-0.091
-160.764	108.945	-0.141	0.167
-159.750	353.725	-0.123	0.241
-158.735	251.231	-0.090	-0.152
-157.720	-36.806	0.210	0.111
-156.706	-86.982	0.041	-0.012
-155.691	-107.722	0.014	0.003
-154.677	800.000	-0.085	-0.296
-153.662	361.908	0.084	0.167
-152.647	-178.935	0.440	-0.010
-151.633	430.991	-0.058	0.124
-150.618	148.605	0.159	-0.212
-149.604	-182.801	0.254	0.005
-148.589	800.000	0.081	0.268
-147.574	-72.264	-0.276	0.101
-146.560	-179.123	-0.404	-0.009
-145.545	-51.115	-0.164	-0.076
-144.531	140.622	-0.253	0.330
-143.516	-84.255	-0.177	-0.055
-142.502	274.752	-0.045	-0.078
-141.487	-6.071	-0.176	0.119
-140.472	226.033	0.207	-0.331
-139.458	-26.055	0.210	-0.122
-138.443	60.498	-0.265	0.260
-137.429	-34.964	-0.171	-0.092
-136.414	800.000	-0.027	0.117
-135.399	-126.653	0.287	0.042
-134.385	281.054	-0.037	0.065
-133.370	-116.500	-0.084	-0.015
-132.356	-78.322	-0.198	0.067
-131.341	-66.618	0.152	0.060
-130.326	300.233	0.120	0.218
-129.312	-119.785	-0.364	0.062
-128.297	-200.000	0.011	0.058
-127.283	-59.929	-0.160	0.068
-126.268	-58.601	0.100	0.043
-125.253	12.798	0.233	-0.177
-124.239	7.748	-0.105	0.078
-123.224	480.278	-0.169	-0.378
-122.210	800.000	0.058	-0.212
