DTS Sentinel unit serial number:	SN413079Multiplexer serial number:	ORYXHardware model number:	OX4-SRSoftware version number:	ORYX F/W v4.00 Oryx Data Collector v3.7.2.0data status	okinstallation	princeton_trtdifferential loss correction	single-endedforward channel	channel 1reverse channel	N/Adate	2019/09/13time	21:18:35forward acquisition time	60.00reverse acquisition time	0.00gamma	496.2192k internal	0.2331k external	0.2331temperature offset calibration	1.0090default loss term (dB/km)	0.3790temperature slope calibration	1.0000multiplexer offset coefficient	1.0000multiplexer slope coefficient	1.0000fibre end	0.00T internal ref (°C)	28.41T ext. ref 1 (°C)	3.24T ext. ref 2 (°C)	23.12length (m)	temperature (°C)	Stokes	anti-Stokes-747.200	746.504	-0.037	-0.100
-746.185	-200.000	-0.062	0.280
-745.171	-8.818	0.140	-0.095
-744.156	319.663	-0.061	-0.116
-743.142	111.836	0.121	0.147
-742.127	35.698	0.086	-0.076
-741.112	242.789	-0.127	0.214
-740.098	76.595	0.089	0.095
-739.083	357.024	-0.035	0.070
-738.069	-121.860	0.370	0.061
-737.054	-200.000	0.012	-0.199
-736.039	-121.970	-0.270	0.045
-735.025	467.557	0.105	0.237
-734.010	-139.195	0.092	-0.010
-732.996	-41.191	0.191	0.099
-731.981	-200.000	0.022	-0.152
-730.966	-167.770	-0.136	-0.005
-729.952	-131.805	-0.241	0.032
-728.937	318.331	-0.057	0.108
-727.923	-200.000	0.014	0.075
-726.908	471.867	0.039	-0.087
-725.894	800.000	0.041	0.180
-724.879	-26.662	0.395	0.233
-723.864	800.000	0.059	-0.211
-722.850	-76.575	0.052	0.018
-721.835	-112.866	-0.360	-0.072
-720.821	21.077	-0.092	0.075
-719.806	-200.000	-0.006	0.107
-718.791	-36.345	0.004	-0.002
-717.777	-83.184	0.178	0.058
-716.762	-200.000	0.059	-0.318
-715.748	209.673	-0.167	-0.263
-714.733	800.000	-0.050	-0.159
-713.718	404.192	0.152	-0.321
-712.704	-10.069	-0.403	-0.269
-711.689	800.000	0.052	0.188
-710.675	191.095	0.097	0.146
-709.660	68.561	-0.190	-0.196
-708.645	599.467	0.066	-0.165
-707.631	-15.931	-0.165	-0.105
-706.616	-94.074	0.221	-0.061
-705.602	154.351	-0.077	0.107
-704.587	800.000	-0.016	-0.064
-703.572	-200.000	0.044	-0.349
-702.558	-200.000	-0.018	-0.150
-701.543	192.629	0.132	0.200
-700.529	-200.000	0.117	0.520
-699.514	-118.331	0.222	-0.040
-698.499	500.705	0.063	-0.145
-697.485	800.000	0.072	0.225
-696.470	457.789	0.071	-0.159
-695.456	-8.879	-0.239	0.161
-694.441	-200.000	-0.022	-0.163
-693.426	365.366	-0.157	-0.319
-692.412	344.652	-0.072	-0.142
-691.397	72.736	-0.186	-0.195
-690.383	29.814	-0.097	-0.083
-689.368	-85.990	0.356	0.111
-688.354	800.000	0.059	0.226
-687.339	-49.519	-0.327	-0.157
-686.324	800.000	0.055	0.177
-685.310	53.666	0.329	-0.317
-684.295	114.447	0.130	-0.159
-683.281	2.325	0.303	-0.220
-682.266	280.306	-0.034	0.062
-681.251	-151.013	-0.299	-0.023
-680.237	-87.733	0.247	-0.075
-679.222	18.697	-0.319	-0.256
-678.208	131.547	0.083	-0.107
-677.193	371.261	0.106	0.216
-676.178	85.792	-0.155	-0.172
-675.164	-28.472	-0.102	-0.059
-674.149	-200.000	0.001	-0.052
-673.135	-16.236	0.147	-0.093
-672.120	-85.080	-0.194	-0.061
-671.105	-200.000	-0.010	0.120
-670.091	23.003	-0.093	-0.077
-669.076	-3.659	0.284	0.198
-668.062	-200.000	-0.003	0.226
-667.047	-18.866	-0.345	-0.215
-666.032	-200.000	-0.022	-0.142
-665.018	107.601	-0.073	0.087
-664.003	-200.000	-0.030	0.249
-662.989	-124.716	0.135	0.021
-661.974	35.777	0.142	-0.125
-660.959	-83.567	-0.194	-0.062
-659.945	409.825	-0.122	-0.259
-658.930	-18.438	-0.181	-0.113
-657.916	55.526	0.155	-0.151
-656.901	5.876	0.144	-0.107
-655.886	800.000	0.029	0.119
-654.872	-132.406	-0.285	-0.037
-653.857	-200.000	-0.073	-0.526
-652.843	-121.742	0.323	-0.053
-651.828	-126.005	-0.242	0.036
-650.814	153.007	0.101	0.139
-649.799	-175.385	-0.196	-0.005
-648.784	435.232	-0.029	-0.062
-647.770	-200.000	-0.009	0.201
-646.755	-63.239	0.299	0.124
-645.741	800.000	0.044	0.164
-644.726	432.752	0.052	0.113
-643.711	189.096	0.058	0.087
-642.697	-200.000	-0.108	-0.525
-641.682	-67.067	-0.158	0.063
-640.668	-3.093	0.254	0.177
-639.653	-103.451	-0.404	-0.095
-638.638	63.355	-0.114	0.114
-637.624	653.006	0.021	0.053
-636.609	-141.437	0.354	0.036
-635.595	-37.834	-0.052	-0.028
-634.580	-123.401	-0.597	0.095
-633.565	88.467	0.032	0.035
-632.551	-138.019	-0.161	-0.018
-631.536	800.000	-0.047	0.143
-630.522	-11.931	0.063	0.042
-629.507	-123.758	0.297	0.047
-628.492	-48.201	0.261	-0.126
-627.478	251.956	0.152	0.260
-626.463	209.210	0.123	-0.193
-625.449	-45.571	-0.316	-0.157
-624.434	800.000	-0.056	-0.159
-623.419	87.171	0.155	0.172
-622.405	-58.616	0.056	-0.024
-621.390	-200.000	0.020	0.281
-620.376	-105.725	-0.150	-0.034
-619.361	9.469	-0.060	-0.046
-618.346	-163.218	0.248	-0.012
-617.332	-135.346	-0.065	-0.008
-616.317	-200.000	0.006	0.100
-615.303	292.692	0.146	-0.267
-614.288	-200.000	-0.044	-0.230
-613.273	-160.810	0.323	-0.017
-612.259	-200.000	-0.026	-0.269
-611.244	-6.107	0.108	0.074
-610.230	800.000	-0.027	0.086
-609.215	-113.228	0.100	-0.020
-608.201	-200.000	-0.038	0.194
-607.186	-162.374	-0.336	0.017
-606.171	-200.000	-0.051	-0.319
-605.157	-51.481	0.245	-0.115
-604.142	-154.448	0.324	-0.022
-603.128	-84.405	0.083	0.026
-602.113	168.894	0.145	-0.207
-601.098	44.040	-0.222	-0.204
-600.084	-54.802	0.171	0.077
-599.069	129.627	-0.181	0.232
-598.055	-67.913	-0.232	-0.091
-597.040	526.936	0.127	-0.299
-596.025	109.488	-0.046	0.055
-595.011	-83.372	0.148	0.048
-593.996	-57.372	0.467	0.205
-592.982	160.686	0.021	0.030
-591.967	60.654	-0.198	-0.196
-590.952	180.259	-0.186	0.272
-589.938	-200.000	-0.039	0.364
-588.923	0.908	0.192	0.138
-587.909	-200.000	-0.022	0.166
-586.894	800.000	-0.068	-0.193
-585.879	-14.963	0.116	0.074
-584.865	-93.455	-0.131	-0.036
-583.850	452.654	0.038	0.084
-582.836	-115.069	-0.220	0.042
-581.821	124.966	-0.096	0.122
-580.806	800.000	0.130	-0.363
-579.792	277.273	-0.202	-0.360
-578.777	-72.622	0.241	-0.089
-577.763	-200.000	-0.112	0.513
-576.748	800.000	0.024	-0.078
-575.733	-55.252	-0.512	-0.230
-574.719	-147.742	0.063	-0.005
-573.704	7.847	0.078	-0.059
-572.690	800.000	0.060	-0.225
-571.675	800.000	0.036	-0.116
-570.661	280.852	0.112	-0.200
-569.646	-8.446	-0.191	-0.128
-568.631	-102.770	-0.142	0.034
-567.617	-156.106	-0.197	0.012
-566.602	625.494	-0.127	0.319
-565.588	-42.474	0.290	-0.148
-564.573	43.045	0.149	0.136
-563.558	-190.870	-0.094	0.001
-562.544	-68.654	0.195	-0.075
-561.529	-152.531	-0.153	0.011
-560.515	-46.509	-0.314	-0.154
-559.500	-200.000	0.017	0.168
-558.485	-200.000	0.035	-0.298
-557.471	-109.725	-0.133	0.028
-556.456	-96.313	-0.351	0.093
-555.442	-102.701	-0.229	0.055
-554.427	56.059	0.177	-0.171
-553.412	-71.829	0.206	0.077
-552.398	800.000	0.076	-0.288
-551.383	156.707	0.192	-0.265
-550.369	-200.000	-0.006	-0.250
-549.354	83.544	-0.358	-0.390
-548.339	112.906	0.219	-0.265
-547.325	-200.000	0.005	-0.073
-546.310	490.043	-0.051	0.118
-545.296	800.000	-0.017	-0.072
-544.281	-97.490	0.056	0.015
-543.266	49.158	0.253	-0.238
-542.252	800.000	-0.067	-0.192
-541.237	-88.427	-0.112	0.033
-540.223	-200.000	0.045	-0.332
-539.208	-63.024	0.062	0.025
-538.193	-68.910	0.302	0.116
-537.179	-73.678	0.104	-0.038
-536.164	-139.852	-0.283	0.030
-535.150	-117.979	-0.048	-0.009
-534.135	800.000	-0.058	-0.219
-533.121	-200.000	-0.098	-0.463
-532.106	-200.000	0.033	-0.144
-531.091	-200.000	0.013	-0.175
-530.077	-111.009	-0.262	0.054
-529.062	62.606	-0.211	-0.210
-528.048	800.000	0.045	0.187
-527.033	-200.000	-0.032	-0.328
-526.018	261.319	-0.074	-0.128
-525.004	64.787	0.234	-0.236
-523.989	-200.000	-0.022	-0.166
-522.975	-138.553	-0.195	0.021
-521.960	107.118	-0.027	0.032
-520.945	-118.963	-0.268	-0.047
-519.931	-136.270	-0.194	-0.023
-518.916	-200.000	-0.051	0.331
-517.902	-78.648	-0.245	0.084
-516.887	-5.573	0.170	-0.116
-515.872	-200.000	0.012	-0.227
-514.858	89.026	-0.316	0.350
-513.843	574.336	0.017	0.042
-512.829	-200.000	-0.019	0.197
-511.814	-200.000	-0.022	0.176
-510.799	643.150	-0.080	-0.203
-509.785	-91.681	-0.312	-0.089
-508.770	-25.364	-0.168	-0.099
-507.756	-175.850	-0.260	0.007
-506.741	5.586	-0.227	0.167
-505.726	-200.000	-0.078	-0.348
-504.712	-136.239	-0.326	0.038
-503.697	800.000	0.097	0.301
-502.683	630.440	0.119	-0.300
-501.668	-94.924	-0.121	-0.033
-500.653	457.802	-0.145	0.322
-499.639	191.413	-0.171	0.257
-498.624	-200.000	-0.021	0.208
-497.610	229.424	-0.102	-0.166
-496.595	-81.372	-0.181	0.059
-495.581	-200.000	-0.016	-0.281
-494.566	-32.805	-0.260	0.144
-493.551	-94.996	0.137	-0.037
-492.537	-159.499	0.243	0.013
-491.522	0.616	-0.099	-0.071
-490.508	-87.326	0.235	0.071
-489.493	-200.000	-0.072	-0.326
-488.478	-184.756	0.413	-0.007
-487.464	55.203	-0.098	-0.095
-486.449	-186.921	-0.394	0.005
-485.435	-200.000	-0.058	-0.285
-484.420	57.502	0.271	0.264
-483.405	83.410	-0.303	-0.329
-482.391	-26.662	0.139	-0.081
-481.376	602.104	0.107	-0.264
-480.362	800.000	-0.106	0.352
-479.347	80.858	-0.063	-0.068
-478.332	-200.000	-0.001	-0.086
-477.318	-200.000	-0.006	0.043
-476.303	252.749	0.077	0.130
-475.289	-200.000	-0.058	-0.314
-474.274	-156.909	-0.201	0.012
-473.259	123.701	0.299	0.373
-472.245	-36.186	-0.183	0.099
-471.230	-42.314	0.178	-0.090
-470.216	-200.000	0.025	0.211
-469.201	-7.874	0.268	-0.180
-468.186	236.483	0.127	-0.209
-467.172	396.397	0.131	0.273
-466.157	-58.409	-0.170	-0.074
-465.143	-181.186	0.508	0.010
-464.128	-81.121	-0.187	0.062
-463.113	44.500	0.162	-0.148
-462.099	-200.000	-0.001	-0.147
-461.084	310.093	-0.042	0.078
-460.070	-140.880	0.102	0.010
-459.055	-80.833	-0.147	-0.048
-458.040	-84.038	0.175	-0.055
-457.026	-3.724	-0.284	0.197
-456.011	350.657	-0.083	0.164
-454.997	800.000	0.045	-0.146
-453.982	-200.000	-0.010	-0.368
-452.968	-120.098	0.089	-0.015
-451.953	253.440	-0.174	-0.295
-450.938	-147.519	0.260	-0.022
-449.924	49.353	-0.197	0.184
-448.909	-105.124	0.134	0.031
-447.895	-123.410	0.303	0.048
-446.880	-161.781	0.104	-0.005
-445.865	-197.901	-0.331	-0.002
-444.851	107.445	0.021	0.025
-443.836	-183.859	0.500	0.008
-442.822	-200.000	0.024	0.192
-441.807	54.983	-0.077	-0.074
-440.792	227.840	0.208	0.337
-439.778	394.883	-0.064	-0.134
-438.763	609.809	0.116	0.288
-437.749	-46.935	-0.344	-0.167
-436.734	254.358	0.097	-0.164
-435.719	800.000	-0.041	0.161
-434.705	800.000	0.121	0.425
-433.690	-82.759	0.190	0.061
-432.676	-48.978	-0.506	-0.241
-431.661	229.615	-0.028	0.046
-430.646	33.861	0.087	0.075
-429.632	721.585	-0.148	-0.391
-428.617	-2.557	-0.302	-0.210
-427.603	-7.201	0.069	-0.046
-426.588	26.193	-0.186	-0.154
-425.573	53.077	-0.353	0.336
-424.559	546.066	0.058	0.137
-423.544	800.000	-0.061	-0.210
-422.530	-200.000	-0.010	-0.248
-421.515	-12.693	0.211	-0.137
-420.500	-75.410	0.128	-0.045
-419.486	79.930	-0.238	0.254
-418.471	-194.308	0.382	0.003
-417.457	-101.982	-0.390	0.093
-416.442	-59.137	-0.330	-0.141
-415.428	800.000	-0.087	0.347
-414.413	800.000	0.098	-0.422
-413.398	-46.488	0.137	0.067
-412.384	209.346	-0.141	0.220
-411.369	-148.745	0.039	-0.003
-410.355	701.461	0.082	-0.213
-409.340	421.529	0.134	0.286
-408.325	-64.179	0.069	-0.028
-407.311	-72.262	-0.171	0.063
-406.296	800.000	0.086	-0.261
-405.282	687.855	0.028	-0.072
-404.267	241.874	0.089	-0.148
-403.252	22.314	-0.327	0.265
-402.238	410.514	0.060	0.127
-401.223	-200.000	-0.030	-0.162
-400.209	-161.653	0.183	0.009
-399.194	30.387	0.136	0.115
-398.179	336.435	-0.098	0.188
-397.165	800.000	-0.039	-0.132
-396.150	-33.962	0.040	-0.022
-395.136	120.303	0.109	-0.134
-394.121	800.000	0.090	0.289
-393.106	613.060	-0.064	-0.160
-392.092	-200.000	-0.025	0.163
-391.077	-65.125	-0.080	-0.032
-390.063	-85.177	-0.157	0.049
-389.048	478.627	0.045	0.101
-388.033	-200.000	-0.005	-0.031
-387.019	800.000	0.070	0.268
-386.004	51.662	0.137	0.129
-384.990	570.385	-0.120	-0.290
-383.975	-87.797	0.195	0.058
-382.960	730.704	-0.117	0.311
-381.946	109.511	-0.051	-0.060
-380.931	-93.439	0.113	0.031
-379.917	-14.678	-0.109	0.069
-378.902	-29.616	0.055	0.031
-377.888	88.814	0.143	-0.158
-376.873	800.000	-0.106	-0.432
-375.858	-58.904	0.069	-0.029
-374.844	7.630	-0.142	-0.105
-373.829	114.218	-0.137	0.165
-372.815	275.479	-0.012	-0.022
-371.800	-61.567	-0.219	-0.091
-370.785	-153.474	-0.267	0.018
-369.771	-200.000	0.025	0.145
-368.756	-108.514	0.505	-0.108
-367.742	328.401	0.062	0.119
-366.727	248.916	-0.088	0.149
-365.712	-135.267	-0.076	0.009
-364.698	-152.189	0.291	0.021
-363.683	-97.863	-0.136	-0.035
-362.669	-146.041	-0.144	0.013
-361.654	-200.000	0.077	0.524
-360.639	233.405	0.207	0.337
-359.625	800.000	-0.068	0.208
-358.610	671.478	-0.003	0.008
-357.596	-59.239	-0.352	0.150
-356.581	-200.000	-0.008	0.102
-355.566	-47.317	-0.273	-0.132
-354.552	800.000	-0.064	-0.237
-353.537	218.765	0.064	0.101
-352.523	-12.627	-0.149	-0.096
-351.508	-173.785	0.143	-0.004
-350.493	800.000	-0.035	-0.133
-349.479	-66.861	-0.213	-0.083
-348.464	166.841	0.252	0.354
-347.450	54.125	-0.073	0.069
-346.435	-64.433	0.196	-0.079
-345.420	-81.363	0.121	-0.040
-344.406	-200.000	-0.018	0.293
-343.391	349.288	-0.027	-0.052
-342.377	14.093	-0.155	-0.120
-341.362	-38.482	0.078	0.041
-340.348	-135.535	0.277	-0.033
-339.333	800.000	-0.098	-0.326
-338.318	-0.549	0.164	0.115
-337.304	-112.764	0.226	-0.044
-336.289	-103.970	0.415	-0.096
-335.275	364.242	0.141	0.281
-334.260	163.901	-0.260	0.363
-333.245	800.000	-0.073	0.306
-332.231	-93.128	0.169	-0.047
-331.216	324.378	-0.156	-0.294
-330.202	66.179	-0.182	-0.183
-329.187	-73.453	0.255	-0.092
-328.172	133.610	-0.109	0.139
-327.158	-200.000	-0.007	-0.034
-326.143	-51.248	0.214	0.099
-325.129	-20.892	0.221	-0.134
-324.114	-69.437	-0.282	-0.107
-323.099	-137.383	0.362	0.041
-322.085	-114.980	-0.178	0.034
-321.070	223.804	0.058	-0.092
-320.056	170.814	-0.195	-0.276
-319.041	738.490	0.166	-0.441
-318.026	176.071	0.048	0.069
-317.012	311.933	-0.069	-0.127
-315.997	463.682	0.122	-0.270
-314.983	-151.234	0.402	0.030
-313.968	-200.000	0.038	0.270
-312.953	-200.000	-0.016	0.114
-311.939	-42.698	0.110	0.055
-310.924	-47.014	0.525	0.254
-309.910	49.318	-0.186	0.173
-308.895	-143.943	-0.192	-0.018
-307.880	243.854	0.089	0.147
-306.866	53.818	-0.144	0.136
-305.851	-132.599	0.153	0.019
-304.837	-91.654	0.044	-0.013
-303.822	-123.205	0.114	0.018
-302.807	290.778	0.139	-0.249
-301.793	220.836	-0.041	0.065
-300.778	-200.000	-0.076	-0.341
-299.764	55.942	0.127	0.122
-298.749	85.533	0.206	0.224
-297.735	-200.000	-0.000	0.027
-296.720	-0.183	-0.088	0.062
-295.705	-200.000	-0.021	0.221
-294.691	95.091	-0.150	0.168
-293.676	82.213	-0.115	0.123
-292.662	-113.927	0.334	0.064
-291.647	-84.536	-0.306	0.095
-290.632	384.511	-0.097	0.198
-289.618	621.288	0.132	0.329
-288.603	110.352	0.112	0.134
-287.589	678.215	0.064	0.166
-286.574	800.000	0.154	0.603
-285.559	-55.926	0.291	-0.128
-284.545	-75.908	-0.215	0.075
-283.530	80.382	0.196	-0.209
-282.516	-60.935	0.052	0.022
-281.501	-116.872	-0.220	0.040
-280.486	800.000	-0.014	-0.054
-279.472	163.158	0.157	0.218
-278.457	800.000	0.014	-0.056
-277.443	-66.368	-0.017	0.007
-276.428	-96.918	-0.057	0.015
-275.413	-44.987	-0.124	0.061
-274.399	-45.324	0.377	-0.185
-273.384	651.812	0.135	0.341
-272.370	-200.000	-0.035	0.392
-271.355	-200.000	-0.036	-0.299
-270.340	70.613	-0.005	-0.005
-269.326	19.612	-0.279	0.221
-268.311	-97.843	-0.277	-0.071
-267.297	-136.647	0.236	0.027
-266.282	36.144	0.122	-0.106
-265.267	-114.389	-0.452	0.086
-264.253	41.885	-0.338	0.303
-263.238	702.672	-0.063	0.165
-262.224	-200.000	-0.024	-0.219
-261.209	-200.000	-0.013	-0.273
-260.195	800.000	-0.053	-0.154
-259.180	-200.000	0.003	0.117
-258.165	-200.000	-0.087	0.000
-257.151	-200.000	0.037	0.523
-256.136	364.045	0.075	0.148
-255.122	-102.072	-0.312	-0.074
-254.107	800.000	0.069	-0.207
-253.092	98.771	0.081	0.093
-252.078	-200.000	0.011	-0.099
-251.063	261.714	0.076	-0.130
-250.049	74.149	0.193	0.200
-249.034	-200.000	-0.047	-0.384
-248.019	800.000	-0.039	-0.159
-247.005	800.000	-0.002	0.009
-245.990	433.511	-0.227	0.486
-244.976	285.885	0.171	-0.305
-243.961	596.096	0.148	0.362
-242.946	241.855	-0.059	-0.097
-241.932	9.407	0.227	0.170
-240.917	229.787	-0.065	-0.105
-239.903	-200.000	-0.080	0.492
-238.888	-200.000	0.021	-0.107
-237.873	328.171	0.086	0.163
-236.859	-200.000	0.035	-0.171
-235.844	209.883	-0.124	-0.192
-234.830	-97.351	0.408	-0.105
-233.815	-134.823	0.041	-0.005
-232.800	-7.763	0.254	0.169
-231.786	-56.036	0.158	0.069
-230.771	-86.671	0.089	-0.027
-229.757	193.377	-0.088	0.131
-228.742	800.000	-0.067	-0.259
-227.727	-81.421	0.491	0.160
-226.713	-6.715	-0.248	-0.167
-225.698	-200.000	-0.052	-0.353
-224.684	-30.002	-0.147	0.082
-223.669	-29.959	-0.124	-0.070
-222.655	55.203	0.204	-0.194
-221.640	65.287	0.038	0.038
-220.625	80.118	0.290	0.308
-219.611	123.766	-0.262	0.324
-218.596	-200.000	-0.007	0.185
-217.582	-72.415	-0.335	0.122
-216.567	-200.000	0.056	0.437
-215.552	148.334	0.115	0.154
-214.538	189.410	0.306	-0.452
-213.523	332.667	-0.133	0.252
-212.509	-60.818	0.149	0.062
-211.494	674.027	-0.020	-0.051
-210.479	24.264	-0.084	-0.069
-209.465	77.727	-0.174	-0.183
-208.450	11.529	-0.157	-0.119
-207.436	125.935	-0.031	-0.039
-206.421	-101.305	0.063	-0.015
-205.406	-200.000	-0.000	0.109
-204.392	632.372	-0.100	-0.251
-203.377	-71.255	0.100	0.037
-202.363	-200.000	0.020	-0.137
-201.348	-200.000	0.004	0.144
-200.333	461.928	0.022	-0.047
-199.319	-117.264	0.063	-0.011
-198.304	795.570	-0.084	0.227
-197.290	188.923	-0.092	-0.136
-196.275	199.732	0.132	0.200
-195.260	800.000	-0.035	0.105
-194.246	-20.118	0.181	-0.110
-193.231	-101.240	-0.042	-0.010
-192.217	100.836	0.159	0.182
-191.202	-200.000	-0.014	-0.241
-190.187	-51.685	0.117	-0.054
-189.173	-41.762	0.358	-0.181
-188.158	508.017	-0.079	0.180
-187.144	108.578	0.114	0.134
-186.129	-15.659	0.223	0.140
-185.114	39.088	-0.128	0.113
-184.100	-200.000	-0.025	-0.108
-183.085	800.000	-0.084	0.258
-182.071	-200.000	0.007	0.284
-181.056	-63.901	0.304	-0.123
-180.042	120.261	-0.194	-0.237
-179.027	-60.357	0.237	-0.099
-178.012	-200.000	0.019	-0.207
-176.998	-69.547	0.197	0.074
-175.983	-87.886	-0.215	0.064
-174.969	-3.310	0.157	0.107
-173.954	-133.506	0.346	0.043
-172.939	2.962	-0.106	-0.076
-171.925	50.996	-0.091	0.085
-170.910	-199.998	-0.264	0.001
-169.896	-200.000	-0.002	-0.259
-168.881	-48.817	-0.203	0.096
-167.866	-105.908	0.378	0.084
-166.852	-103.860	0.173	-0.040
-165.837	4.842	0.108	-0.078
-164.823	-89.692	-0.182	0.053
-163.808	555.727	0.053	0.125
-162.793	-169.885	-0.377	0.013
-161.779	437.127	0.142	-0.305
-160.764	-33.248	-0.171	-0.093
-159.750	52.360	0.371	0.348
-158.735	321.261	-0.274	-0.512
-157.720	800.000	0.069	-0.238
-156.706	-62.981	-0.284	0.115
-155.691	-139.698	-0.319	0.033
-154.677	-143.654	-0.326	-0.030
-153.662	59.232	0.296	-0.286
-152.647	161.713	0.023	-0.032
-151.633	-22.801	0.091	0.054
-150.618	-133.023	0.270	-0.034
-149.604	-28.694	0.214	0.121
-148.589	655.318	0.119	-0.300
-147.574	-200.000	-0.004	0.267
-146.560	313.429	-0.048	-0.089
-145.545	-62.408	0.136	-0.056
-144.531	-179.423	-0.417	0.009
-143.516	800.000	-0.086	0.249
-142.502	-114.007	0.145	0.028
-141.487	-27.724	0.268	-0.153
-140.472	-200.000	0.007	0.216
-139.458	12.807	-0.144	-0.109
-138.443	-200.000	-0.002	-0.311
-137.429	800.000	0.038	0.146
-136.414	-170.295	-0.127	0.004
-135.399	-152.693	0.337	0.024
-134.385	-200.000	0.002	0.233
-133.370	505.863	0.051	-0.117
-132.356	-102.278	0.138	-0.033
-131.341	199.781	0.090	0.136
-130.326	-129.192	-0.216	0.030
-129.312	-111.305	0.103	-0.021
-128.297	752.230	-0.079	-0.209
-127.283	-23.865	-0.094	-0.055
-126.268	-200.000	-0.041	-0.208
-125.253	-131.644	0.285	0.037
-124.239	15.368	-0.278	-0.214
-123.224	360.211	0.092	0.180
-122.210	139.872	0.076	-0.098
