DTS Sentinel unit serial number:	SN413079Multiplexer serial number:	ORYXHardware model number:	OX4-SRSoftware version number:	ORYX F/W v4.00 Oryx Data Collector v3.7.2.0data status	okinstallation	princeton_trtdifferential loss correction	single-endedforward channel	channel 1reverse channel	N/Adate	2019/09/12time	21:38:35forward acquisition time	60.00reverse acquisition time	0.00gamma	496.2192k internal	0.2325k external	0.2325temperature offset calibration	1.0142default loss term (dB/km)	0.3790temperature slope calibration	1.0000multiplexer offset coefficient	1.0000multiplexer slope coefficient	1.0000fibre end	0.00T internal ref (°C)	30.31T ext. ref 1 (°C)	3.69T ext. ref 2 (°C)	24.93length (m)	temperature (°C)	Stokes	anti-Stokes-747.200	-80.025	0.080	-0.027
-746.185	-200.000	0.039	0.400
-745.171	8.653	-0.097	-0.073
-744.156	-78.145	-0.108	0.037
-743.142	-126.575	-0.038	0.006
-742.127	256.495	-0.202	0.350
-741.112	706.011	0.082	-0.217
-740.098	251.192	0.078	0.134
-739.083	729.443	-0.066	0.178
-738.069	-103.892	0.110	0.026
-737.054	-0.095	0.237	0.170
-736.039	800.000	-0.097	-0.426
-735.025	-144.305	-0.235	-0.022
-734.010	800.000	0.048	-0.183
-732.996	558.927	-0.070	0.170
-731.981	800.000	0.031	-0.133
-730.966	274.684	0.124	0.221
-729.952	-77.458	-0.202	-0.071
-728.937	233.166	0.010	0.017
-727.923	-13.648	0.153	-0.100
-726.908	-12.486	-0.178	-0.117
-725.894	-200.000	0.003	0.046
-724.879	800.000	0.008	-0.033
-723.864	-200.000	-0.011	0.145
-722.850	-13.617	-0.126	0.082
-721.835	156.926	-0.049	-0.069
-720.821	-200.000	0.003	0.082
-719.806	-104.089	-0.206	-0.048
-718.791	-94.571	0.171	-0.047
-717.777	-175.152	-0.259	-0.007
-716.762	310.775	0.130	-0.245
-715.748	93.627	0.048	0.054
-714.733	800.000	0.074	0.224
-713.718	-84.284	0.104	-0.033
-712.704	-62.072	0.386	-0.162
-711.689	100.980	-0.122	0.143
-710.675	791.780	-0.081	0.226
-709.660	611.727	0.025	-0.063
-708.645	-200.000	-0.006	0.117
-707.631	349.037	0.092	-0.184
-706.616	-76.643	0.267	0.094
-705.602	-14.231	0.045	-0.029
-704.587	368.271	0.196	-0.400
-703.572	-200.000	-0.014	0.256
-702.558	-28.202	-0.334	0.194
-701.543	-50.388	-0.161	-0.077
-700.529	-29.717	-0.146	0.084
-699.514	-12.378	-0.140	-0.092
-698.499	-21.065	0.057	0.035
-697.485	-0.929	0.149	0.106
-696.470	147.916	-0.121	0.164
-695.456	-111.505	0.187	0.038
-694.441	-16.284	-0.206	0.132
-693.426	11.887	-0.128	0.099
-692.412	800.000	-0.087	-0.242
-691.397	-5.891	-0.137	-0.094
-690.383	800.000	0.057	0.233
-689.368	-117.778	0.298	0.054
-688.354	-110.161	-0.453	0.095
-687.339	6.564	-0.034	-0.025
-686.324	-109.081	0.130	-0.028
-685.310	-177.462	0.197	-0.005
-684.295	800.000	-0.069	-0.306
-683.281	228.503	0.085	0.140
-682.266	-57.478	-0.156	-0.069
-681.251	479.283	0.134	-0.306
-680.237	277.889	0.056	-0.101
-679.222	7.508	0.022	0.017
-678.208	204.011	0.095	0.148
-677.193	-89.966	-0.149	0.044
-676.178	94.729	-0.155	-0.177
-675.164	78.485	-0.121	0.130
-674.149	111.629	-0.209	-0.254
-673.135	-18.218	0.341	-0.215
-672.120	74.753	-0.100	-0.106
-671.105	-92.442	0.227	0.064
-670.091	-68.021	0.049	-0.019
-669.076	-15.117	-0.190	-0.122
-668.062	-200.000	0.027	0.182
-667.047	11.214	0.011	-0.009
-666.032	130.927	0.122	0.157
-665.018	215.450	0.079	-0.126
-664.003	21.745	-0.228	-0.186
-662.989	-200.000	-0.030	-0.133
-661.974	-123.394	0.172	-0.028
-660.959	-91.616	0.233	0.067
-659.945	132.454	-0.129	0.167
-658.930	-136.944	-0.197	-0.023
-657.916	-98.725	0.033	0.009
-656.901	-200.000	-0.023	-0.143
-655.886	800.000	0.046	-0.134
-654.872	102.152	-0.219	0.257
-653.857	45.712	0.098	-0.091
-652.843	-200.000	0.014	-0.180
-651.828	-200.000	-0.023	-0.238
-650.814	-123.862	-0.139	0.022
-649.799	21.146	0.266	0.217
-648.784	800.000	-0.044	0.132
-647.770	292.360	0.066	-0.121
-646.755	-39.392	-0.228	0.120
-645.741	-200.000	-0.023	0.304
-644.726	-84.758	-0.072	-0.023
-643.711	37.372	0.344	-0.306
-642.697	112.481	0.126	-0.153
-641.682	-10.639	-0.037	0.025
-640.668	-109.762	0.353	-0.074
-639.653	76.093	-0.053	-0.057
-638.638	140.827	-0.227	-0.302
-637.624	-99.706	0.139	-0.035
-636.609	-124.264	0.272	-0.043
-635.595	-200.000	-0.020	-0.219
-634.580	-43.040	-0.114	0.058
-633.565	397.751	-0.069	-0.145
-632.551	-200.000	-0.008	0.369
-631.536	-131.504	0.187	-0.025
-630.522	328.206	-0.139	0.267
-629.507	166.117	0.160	0.228
-628.492	148.267	-0.276	-0.374
-627.478	-200.000	0.012	0.221
-626.463	152.955	0.028	0.038
-625.449	112.428	0.095	0.115
-624.434	-200.000	-0.002	0.177
-623.419	-200.000	0.026	-0.191
-622.405	-200.000	0.050	-0.223
-621.390	-137.876	0.096	-0.011
-620.376	28.704	-0.268	0.228
-619.361	24.318	-0.147	-0.122
-618.346	-114.275	0.354	0.069
-617.332	270.296	0.047	0.083
-616.317	129.411	0.182	0.234
-615.303	-1.644	0.145	0.102
-614.288	-17.692	-0.071	0.045
-613.273	-77.700	-0.365	-0.127
-612.259	-200.000	0.008	0.266
-611.244	-25.889	0.400	0.236
-610.230	302.630	0.178	-0.331
-609.215	409.710	0.111	-0.235
-608.201	39.046	0.041	-0.037
-607.186	294.828	0.173	0.318
-606.171	-180.344	0.154	-0.003
-605.157	-71.024	-0.126	0.048
-604.142	120.387	-0.219	-0.273
-603.128	-93.305	-0.251	0.070
-602.113	-200.000	-0.004	-0.052
-601.098	800.000	-0.068	-0.212
-600.084	-92.190	0.142	0.040
-599.069	60.407	-0.433	0.430
-598.055	-51.635	-0.101	-0.047
-597.040	-200.000	-0.046	-0.250
-596.025	-200.000	0.050	-0.506
-595.011	157.613	-0.098	-0.137
-593.996	121.521	0.107	-0.134
-592.982	-106.025	0.031	0.007
-591.967	59.878	-0.207	-0.205
-590.952	-118.739	0.146	-0.026
-589.938	-88.253	0.142	0.042
-588.923	-200.000	-0.008	-0.381
-587.909	-123.123	-0.383	-0.062
-586.894	-85.290	0.217	0.068
-585.879	95.525	-0.160	0.184
-584.865	-171.895	0.343	-0.011
-583.850	-39.457	0.316	0.166
-582.836	-98.732	0.045	0.011
-581.821	-187.154	-0.137	-0.002
-580.806	198.012	-0.232	-0.355
-579.792	-185.622	-0.212	-0.003
-578.777	-200.000	0.041	-0.354
-577.763	-10.928	-0.160	0.106
-576.748	295.537	0.040	0.073
-575.733	-91.906	0.239	-0.068
-574.719	-200.000	0.000	0.095
-573.704	62.089	-0.112	-0.112
-572.690	188.039	-0.316	0.473
-571.675	-85.918	0.279	-0.087
-570.661	-24.289	0.219	-0.131
-569.646	800.000	-0.145	-0.437
-568.631	-72.831	-0.254	-0.094
-567.617	-200.000	0.027	0.163
-566.602	-200.000	0.003	0.049
-565.588	-7.818	-0.241	-0.163
-564.573	-200.000	0.090	-0.582
-563.558	10.213	-0.369	-0.281
-562.544	-115.440	-0.070	0.013
-561.529	-74.401	0.417	-0.151
-560.515	-64.509	0.101	-0.041
-559.500	146.593	-0.127	0.171
-558.485	82.571	0.021	0.022
-557.471	-162.885	0.203	-0.010
-556.456	-86.839	-0.268	0.082
-555.442	-4.666	-0.094	-0.065
-554.427	24.506	-0.205	0.169
-553.412	-200.000	-0.008	0.201
-552.398	375.970	-0.100	-0.205
-551.383	385.666	0.096	0.197
-550.369	800.000	0.034	0.123
-549.354	123.792	-0.070	0.088
-548.339	-102.767	-0.180	0.043
-547.325	583.979	-0.052	0.127
-546.310	447.926	0.132	-0.292
-545.296	122.444	-0.083	0.104
-544.281	-200.000	0.033	-0.227
-543.266	330.447	0.114	0.220
-542.252	-18.771	0.375	-0.234
-541.237	-36.838	-0.249	0.134
-540.223	-83.723	0.174	0.056
-539.208	-200.000	-0.009	-0.311
-538.193	800.000	-0.055	-0.180
-537.179	383.432	0.088	0.182
-536.164	129.705	0.156	-0.200
-535.150	42.740	-0.176	0.160
-534.135	-200.000	0.019	0.315
-533.121	-122.168	-0.055	0.009
-532.106	246.014	-0.146	0.246
-531.091	98.468	0.053	-0.061
-530.077	-200.000	0.007	-0.184
-529.062	235.308	0.255	0.422
-528.048	-66.396	-0.250	-0.099
-527.033	117.952	0.360	0.443
-526.018	800.000	0.032	-0.132
-525.004	-108.831	0.161	-0.034
-523.989	-56.480	-0.123	0.054
-522.975	197.760	0.209	-0.319
-521.960	20.950	0.220	-0.179
-520.945	307.421	0.108	-0.202
-519.931	59.562	0.052	0.051
-518.916	73.127	0.096	0.100
-517.902	12.085	-0.087	0.067
-516.887	5.729	0.084	-0.062
-515.872	-191.622	0.200	0.002
-514.858	-18.785	-0.162	0.101
-513.843	-98.818	-0.205	0.052
-512.829	-200.000	0.596	-0.001
-511.814	-200.000	0.009	0.096
-510.799	800.000	-0.057	0.176
-509.785	248.621	0.061	-0.103
-508.770	20.508	-0.155	-0.126
-507.756	205.132	-0.306	0.475
-506.741	800.000	-0.064	0.244
-505.726	-70.425	0.194	-0.074
-504.712	-200.000	0.012	-0.117
-503.697	188.046	-0.204	0.305
-502.683	800.000	0.056	-0.196
-501.668	-51.517	-0.372	0.174
-500.653	-133.078	0.310	0.039
-499.639	-69.916	0.239	-0.091
-498.624	-12.599	-0.260	0.169
-497.610	-200.000	0.010	0.223
-496.595	146.848	-0.251	-0.337
-495.581	84.935	-0.140	0.153
-494.566	271.958	-0.082	0.145
-493.551	1.821	0.141	0.102
-492.537	-110.609	0.232	-0.048
-491.522	-200.000	-0.070	-0.433
-490.508	128.518	-0.114	-0.145
-489.493	-200.000	0.019	-0.116
-488.478	-120.560	-0.192	-0.032
-487.464	-40.909	0.106	-0.055
-486.449	415.316	-0.113	-0.240
-485.435	268.436	0.188	0.328
-484.420	-100.607	0.174	0.043
-483.405	42.858	0.084	0.076
-482.391	-32.610	0.171	-0.095
-481.376	-120.953	0.624	0.105
-480.362	106.098	0.228	0.270
-479.347	-17.467	0.229	-0.144
-478.332	-200.000	-0.044	-0.196
-477.318	81.764	-0.271	-0.293
-476.303	800.000	-0.105	0.296
-475.289	237.756	0.088	-0.145
-474.274	10.910	0.079	0.060
-473.259	-166.530	-0.116	0.005
-472.245	281.392	0.177	-0.316
-471.230	139.583	-0.101	0.133
-470.216	-200.000	-0.040	0.207
-469.201	-142.767	0.123	-0.012
-468.186	58.217	-0.112	-0.110
-467.172	-199.567	0.218	-0.001
-466.157	109.904	-0.149	0.179
-465.143	765.539	0.131	0.354
-464.128	800.000	0.034	0.147
-463.113	-200.000	-0.041	0.250
-462.099	39.598	-0.254	-0.227
-461.084	-41.438	0.136	-0.070
-460.070	-200.000	-0.013	-0.485
-459.055	145.477	0.083	-0.111
-458.040	-147.896	-0.106	0.009
-457.026	-78.729	-0.107	0.036
-456.011	-200.000	-0.017	-0.184
-454.997	186.886	0.059	0.088
-453.982	-200.000	-0.002	-0.291
-452.968	-200.000	-0.012	-0.066
-451.953	-200.000	0.038	-0.194
-450.938	275.649	0.134	0.237
-449.924	60.407	-0.121	-0.119
-448.909	-86.013	0.120	0.037
-447.895	-27.737	-0.226	0.131
-446.880	-61.212	0.141	0.059
-445.865	800.000	-0.088	-0.294
-444.851	671.992	-0.112	0.290
-443.836	-200.000	0.109	-0.559
-442.822	81.212	-0.076	0.082
-441.807	42.164	-0.107	-0.097
-440.792	-200.000	0.031	-0.189
-439.778	-200.000	0.016	0.337
-438.763	-200.000	-0.020	0.217
-437.749	191.197	-0.088	0.133
-436.734	-10.382	-0.180	-0.119
-435.719	19.583	0.194	0.155
-434.705	-200.000	-0.000	0.055
-433.690	275.827	-0.198	-0.350
-432.676	-87.721	-0.146	0.044
-431.661	-200.000	-0.067	-0.314
-430.646	-200.000	0.019	-0.189
-429.632	-105.691	0.327	0.074
-428.617	-70.903	0.070	-0.026
-427.603	-14.149	-0.168	-0.108
-426.588	-106.528	0.230	-0.051
-425.573	-13.907	0.178	0.114
-424.559	-153.177	-0.231	0.016
-423.544	215.590	0.184	0.292
-422.530	555.419	-0.072	-0.172
-421.515	38.440	0.166	-0.147
-420.500	800.000	0.052	-0.145
-419.486	-172.544	-0.074	-0.002
-418.471	800.000	0.052	0.164
-417.457	-109.314	0.190	-0.040
-416.442	-142.247	-0.165	-0.016
-415.428	160.393	0.059	-0.082
-414.413	263.840	0.043	0.075
-413.398	-8.130	0.333	0.223
-412.384	96.024	-0.108	0.123
-411.369	77.722	0.168	-0.178
-410.355	32.243	0.094	0.081
-409.340	-143.027	-0.329	0.032
-408.325	-200.000	-0.012	0.286
-407.311	-54.305	0.149	-0.067
-406.296	-61.198	-0.275	-0.116
-405.282	71.674	-0.140	-0.145
-404.267	15.953	-0.151	-0.118
-403.252	-111.776	-0.560	-0.113
-402.238	153.285	-0.088	-0.119
-401.223	167.403	-0.057	0.080
-400.209	128.634	-0.134	0.170
-399.194	2.604	-0.164	-0.118
-398.179	411.444	-0.192	-0.406
-397.165	-200.000	0.090	-0.429
-396.150	188.864	0.057	0.085
-395.136	-92.283	-0.210	0.059
-394.121	-24.543	0.216	0.128
-393.106	-146.510	0.335	0.029
-392.092	800.000	-0.061	0.194
-391.077	-142.900	-0.165	0.016
-390.063	-41.062	-0.319	0.164
-389.048	-52.757	-0.250	0.114
-388.033	31.073	-0.107	-0.092
-387.019	51.788	0.176	-0.167
-386.004	-200.000	0.030	-0.144
-384.990	-86.442	0.425	0.130
-383.975	313.659	-0.185	0.345
-382.960	-134.274	0.129	-0.016
-381.946	42.156	-0.051	-0.046
-380.931	-200.000	-0.091	0.520
-379.917	-109.035	0.047	0.010
-378.902	300.188	-0.106	-0.194
-377.888	23.784	0.293	-0.240
-376.873	210.489	-0.293	0.457
-375.858	127.549	-0.078	-0.098
-374.844	368.654	0.130	-0.262
-373.829	584.330	-0.020	-0.050
-372.815	195.880	-0.160	-0.242
-371.800	7.810	-0.023	-0.017
-370.785	169.670	-0.162	0.231
-369.771	-42.066	0.208	0.106
-368.756	179.632	0.033	-0.048
-367.742	52.681	-0.113	-0.108
-366.727	800.000	-0.006	0.021
-365.712	-0.121	0.281	0.199
-364.698	110.074	0.018	-0.022
-363.683	1.384	-0.084	0.060
-362.669	479.395	0.106	0.238
-361.654	-200.000	-0.010	0.098
-360.639	84.837	0.093	-0.101
-359.625	-52.170	0.210	-0.097
-358.610	-92.341	0.426	-0.119
-357.596	316.663	-0.122	-0.230
-356.581	-73.675	-0.045	-0.016
-355.566	-200.000	-0.013	-0.152
-354.552	-16.508	-0.364	0.229
-353.537	-19.974	-0.339	0.208
-352.523	-35.473	0.035	0.019
-351.508	101.280	-0.103	0.119
-350.493	-200.000	-0.012	-0.141
-349.479	120.675	0.036	-0.045
-348.464	700.773	-0.081	0.213
-347.450	535.538	-0.050	-0.117
-346.435	-154.174	-0.235	0.016
-345.420	-134.711	0.264	-0.032
-344.406	-200.000	0.014	0.150
-343.391	-200.000	-0.027	-0.392
-342.377	-102.708	0.328	-0.078
-341.362	-58.914	0.252	0.108
-340.348	-200.000	0.022	-0.198
-339.333	-200.000	-0.024	-0.147
-338.318	-200.000	0.044	0.250
-337.304	-110.691	-0.164	0.034
-336.289	-33.775	0.308	0.169
-335.275	-54.882	-0.141	0.063
-334.260	79.750	-0.135	0.144
-333.245	-31.464	-0.213	0.119
-332.231	167.825	-0.115	0.162
-331.216	250.082	-0.118	-0.199
-330.202	800.000	-0.031	0.109
-329.187	800.000	-0.068	0.242
-328.172	-47.330	-0.078	-0.038
-327.158	-136.389	-0.180	0.021
-326.143	-200.000	-0.004	-0.027
-325.129	-22.885	0.209	0.125
-324.114	164.192	0.143	-0.200
-323.099	43.180	-0.210	-0.190
-322.085	-22.778	-0.100	0.060
-321.070	-59.173	-0.288	-0.123
-320.056	-128.732	-0.315	0.044
-319.041	21.554	0.291	0.235
-318.026	-200.000	0.005	-0.057
-317.012	-22.824	0.265	-0.159
-315.997	-107.770	-0.079	0.017
-314.983	-200.000	0.066	-0.293
-313.968	-200.000	-0.009	-0.097
-312.953	800.000	-0.079	-0.224
-311.939	2.070	0.027	0.019
-310.924	-15.543	0.433	0.274
-309.910	3.359	-0.250	0.180
-308.895	-129.604	-0.203	-0.028
-307.880	30.949	-0.256	0.218
-306.866	8.460	-0.192	-0.144
-305.851	181.571	0.151	0.221
-304.837	-156.907	0.301	-0.018
-303.822	-32.506	0.315	-0.174
-302.807	-200.000	0.007	-0.084
-301.793	394.934	-0.166	0.342
-300.778	399.875	-0.060	0.125
-299.764	-110.563	0.214	-0.044
-298.749	70.875	-0.093	-0.095
-297.735	800.000	-0.023	0.084
-296.720	40.381	-0.155	-0.138
-295.705	-10.593	-0.120	0.079
-294.691	234.859	0.155	-0.253
-293.676	76.131	-0.055	0.058
-292.662	212.177	-0.131	-0.204
-291.647	-7.054	0.208	-0.140
-290.632	-104.438	-0.615	-0.141
-289.618	-134.276	-0.106	-0.013
-288.603	-126.557	0.198	0.029
-287.589	179.899	-0.188	-0.273
-286.574	-200.000	0.019	0.135
-285.559	65.222	-0.203	-0.204
-284.545	-92.595	0.084	0.023
-283.530	47.553	0.269	0.249
-282.516	-22.344	0.260	-0.156
-281.501	41.023	0.446	0.399
-280.486	-200.000	0.037	-0.340
-279.472	131.753	-0.178	0.227
-278.457	8.498	0.139	0.103
-277.443	-200.000	0.091	0.416
-276.428	1.237	0.114	-0.081
-275.413	217.894	-0.107	0.169
-274.399	-194.337	-0.212	0.002
-273.384	608.003	0.179	-0.443
-272.370	-73.740	-0.167	0.060
-271.355	800.000	0.034	-0.140
-270.340	800.000	-0.068	0.208
-269.326	-54.103	0.076	-0.034
-268.311	-147.670	0.302	0.025
-267.297	-61.857	-0.248	0.103
-266.282	800.000	-0.075	0.217
-265.267	284.765	-0.019	-0.035
-264.253	800.000	0.065	-0.254
-263.238	-200.000	-0.055	0.311
-262.224	-200.000	0.036	-0.354
-261.209	800.000	0.113	0.351
-260.195	-118.881	-0.361	0.063
-259.180	129.777	0.226	-0.286
-258.165	-66.884	0.463	-0.181
-257.151	8.490	0.182	0.136
-256.136	-74.841	-0.202	0.072
-255.122	-200.000	-0.067	-0.300
-254.107	-39.337	0.207	-0.107
-253.092	-68.328	0.195	0.075
-252.078	-200.000	-0.009	-0.165
-251.063	-184.801	0.195	-0.003
-250.049	99.711	0.094	0.108
-249.034	43.816	-0.106	0.096
-248.019	21.199	-0.102	-0.082
-247.005	127.087	0.031	-0.039
-245.990	-54.856	0.033	-0.015
-244.976	-109.281	0.192	0.040
-243.961	-140.951	0.151	0.015
-242.946	-180.591	-0.231	-0.005
-241.932	10.441	-0.096	-0.072
-240.917	-123.899	-0.296	0.046
-239.903	117.502	-0.121	-0.147
-238.888	-83.638	-0.201	0.063
-237.873	-52.141	-0.094	0.043
-236.859	-200.000	0.007	0.117
-235.844	95.462	-0.110	0.124
-234.830	231.321	0.073	0.118
-233.815	-117.892	-0.144	0.025
-232.800	-135.322	0.130	0.015
-231.786	-20.191	-0.170	-0.104
-230.771	33.151	-0.269	0.231
-229.757	-141.770	-0.312	-0.031
-228.742	-200.000	-0.005	-0.200
-227.727	-52.002	0.291	-0.134
-226.713	-200.000	-0.057	-0.459
-225.698	-10.098	-0.072	0.047
-224.684	-200.000	0.047	-0.280
-223.669	-200.000	-0.005	0.321
-222.655	260.440	0.189	-0.324
-221.640	-84.929	0.212	0.066
-220.625	-30.163	-0.094	0.053
-219.611	243.387	-0.019	0.031
-218.596	800.000	0.157	-0.453
-217.582	-200.000	0.024	-0.230
-216.567	68.518	-0.183	-0.186
-215.552	566.013	-0.124	-0.297
-214.538	-131.080	-0.189	-0.025
-213.523	800.000	0.014	0.044
-212.509	61.347	-0.048	0.047
-211.494	800.000	0.133	0.387
-210.479	68.134	0.237	0.239
-209.465	-97.860	0.141	-0.036
-208.450	77.931	0.051	0.054
-207.436	-200.000	-0.026	-0.146
-206.421	56.271	-0.235	0.226
-205.406	-33.450	0.098	-0.054
-204.392	-200.000	0.209	0.001
-203.377	-200.000	-0.026	-0.174
-202.363	-188.258	0.245	-0.003
-201.348	-106.938	-0.333	-0.073
-200.333	71.459	-0.062	-0.063
-199.319	-125.756	-0.145	-0.022
-198.304	3.596	-0.184	-0.133
-197.290	118.931	0.206	0.252
-196.275	-200.000	-0.003	0.165
-195.260	114.705	-0.091	0.109
-194.246	316.414	-0.137	0.256
-193.231	-132.654	-0.225	0.028
-192.217	6.104	0.086	-0.063
-191.202	-200.000	-0.109	0.485
-190.187	-68.594	0.049	0.019
-189.173	264.469	-0.041	0.071
-188.158	-32.426	-0.240	-0.132
-187.144	-143.902	0.272	-0.025
-186.129	-68.511	0.420	0.161
-185.114	-200.000	-0.067	0.295
-184.100	94.656	-0.152	0.171
-183.085	58.001	0.274	0.264
-182.071	-200.000	0.037	0.315
-181.056	-99.568	-0.249	-0.062
-180.042	-101.914	-0.117	-0.028
-179.027	173.192	0.065	-0.092
-178.012	-107.934	0.113	-0.024
-176.998	-200.000	-0.007	0.394
-175.983	-11.853	-0.258	0.167
-174.969	-138.693	-0.097	0.010
-173.954	286.314	-0.119	-0.213
-172.939	-16.455	0.047	-0.029
-171.925	408.986	-0.205	-0.429
-170.910	535.301	0.126	0.295
-169.896	194.542	0.098	0.146
-168.881	190.166	-0.107	-0.158
-167.866	-11.333	0.118	0.077
-166.852	-200.000	-0.011	0.195
-165.837	307.612	-0.074	0.135
-164.823	58.063	-0.207	0.200
-163.808	-134.004	-0.243	0.030
-162.793	-122.399	0.181	0.029
-161.779	-41.492	0.256	-0.130
-160.764	373.231	-0.028	-0.056
-159.750	225.906	0.104	0.166
-158.735	145.976	0.101	-0.134
-157.720	411.749	0.093	0.194
-156.706	-55.951	0.065	0.028
-155.691	299.791	-0.036	-0.066
-154.677	-200.000	-0.050	0.490
-153.662	308.107	-0.016	0.030
-152.647	110.178	0.065	-0.077
-151.633	227.934	0.156	-0.250
-150.618	-18.091	-0.078	-0.048
-149.604	-200.000	-0.014	-0.109
-148.589	-168.613	-0.283	0.011
-147.574	-46.942	0.134	0.065
-146.560	800.000	-0.035	-0.119
-145.545	-167.009	-0.333	0.013
-144.531	166.773	0.099	0.139
-143.516	-108.631	0.279	-0.059
-142.502	121.770	-0.121	0.149
-141.487	411.281	0.052	-0.108
-140.472	10.213	0.089	-0.067
-139.458	-19.518	0.218	-0.133
-138.443	-51.032	0.193	-0.089
-137.429	-9.529	-0.148	0.097
-136.414	98.104	-0.092	-0.104
-135.399	-200.000	-0.019	-0.094
-134.385	45.994	-0.268	0.244
-133.370	55.190	-0.158	0.150
-132.356	80.778	0.187	0.198
-131.341	-122.581	0.153	-0.024
-130.326	145.973	0.133	-0.176
-129.312	111.765	-0.146	-0.173
-128.297	-200.000	-0.005	0.183
-127.283	-200.000	0.018	0.230
-126.268	118.948	-0.032	0.039
-125.253	-200.000	0.000	-0.106
-124.239	-200.000	0.002	-0.218
-123.224	-121.207	-0.274	0.045
-122.210	-200.000	-0.022	-0.098
