DTS Sentinel unit serial number:	SN413079Multiplexer serial number:	ORYXHardware model number:	OX4-SRSoftware version number:	ORYX F/W v4.00 Oryx Data Collector v3.7.2.0data status	okinstallation	princeton_trtdifferential loss correction	single-endedforward channel	channel 1reverse channel	N/Adate	2019/09/13time	20:18:35forward acquisition time	60.00reverse acquisition time	0.00gamma	496.2192k internal	0.2330k external	0.2330temperature offset calibration	1.0086default loss term (dB/km)	0.3790temperature slope calibration	1.0000multiplexer offset coefficient	1.0000multiplexer slope coefficient	1.0000fibre end	0.00T internal ref (°C)	29.34T ext. ref 1 (°C)	3.20T ext. ref 2 (°C)	23.86length (m)	temperature (°C)	Stokes	anti-Stokes-747.200	128.706	0.043	0.056
-746.185	800.000	0.068	0.198
-745.171	800.000	0.091	-0.316
-744.156	-83.271	-0.095	0.031
-743.142	286.382	-0.089	0.161
-742.127	-200.000	-0.042	0.336
-741.112	-200.000	-0.038	0.269
-740.098	-70.331	-0.437	0.167
-739.083	-121.366	0.132	0.022
-738.069	-64.088	-0.133	0.055
-737.054	-48.591	0.122	-0.059
-736.039	-100.928	-0.246	-0.061
-735.025	-24.030	0.127	0.076
-734.010	-36.353	-0.089	0.048
-732.996	-33.838	-0.212	-0.118
-731.981	-200.000	-0.046	0.441
-730.966	-47.794	0.104	0.051
-729.952	-200.000	-0.019	-0.273
-728.937	37.583	0.064	0.057
-727.923	800.000	-0.097	0.279
-726.908	-114.935	-0.149	0.028
-725.894	-156.976	0.186	-0.011
-724.879	226.569	0.063	0.103
-723.864	-143.790	0.183	-0.017
-722.850	-200.000	-0.054	-0.295
-721.835	-200.000	0.047	-0.260
-720.821	38.393	-0.278	0.249
-719.806	-84.669	-0.136	-0.043
-718.791	120.375	0.160	0.200
-717.777	-200.000	-0.039	0.291
-716.762	-109.889	-0.284	-0.060
-715.748	-62.956	0.439	-0.182
-714.733	94.806	0.214	-0.244
-713.718	158.482	0.172	-0.240
-712.704	331.641	0.087	-0.170
-711.689	9.409	0.345	0.262
-710.675	800.000	-0.045	-0.170
-709.660	-77.711	0.078	0.027
-708.645	125.349	-0.223	0.282
-707.631	-46.103	-0.354	-0.175
-706.616	-88.407	-0.217	0.065
-705.602	-200.000	-0.026	0.320
-704.587	-200.000	-0.006	0.256
-703.572	83.152	-0.020	-0.022
-702.558	-200.000	0.062	0.342
-701.543	-200.000	0.000	0.099
-700.529	-76.758	-0.278	-0.098
-699.514	219.624	0.073	-0.117
-698.499	-5.788	-0.173	-0.119
-697.485	132.018	0.171	-0.221
-696.470	-170.965	0.257	-0.009
-695.456	75.930	0.009	-0.009
-694.441	-102.729	-0.238	-0.057
-693.426	-200.000	-0.031	-0.266
-692.412	-27.650	0.043	0.025
-691.397	69.081	-0.218	0.225
-690.383	-128.686	-0.217	0.031
-689.368	630.601	0.063	0.161
-688.354	-93.307	-0.155	0.043
-687.339	-163.455	0.189	0.009
-686.324	-164.574	-0.159	0.007
-685.310	-61.729	0.095	0.040
-684.295	523.452	-0.069	-0.163
-683.281	287.960	-0.028	-0.050
-682.266	194.750	0.126	-0.192
-681.251	-200.000	-0.002	-0.225
-680.237	-200.000	0.035	-0.314
-679.222	1.179	-0.236	0.170
-678.208	37.610	-0.241	0.215
-677.193	-173.359	0.108	-0.003
-676.178	-118.945	-0.139	0.024
-675.164	-103.234	-0.186	-0.044
-674.149	539.129	0.088	0.209
-673.135	10.364	0.060	-0.046
-672.120	-200.000	0.043	-0.289
-671.105	74.663	0.065	-0.069
-670.091	-200.000	-0.010	0.205
-669.076	-160.943	-0.298	0.016
-668.062	-151.388	0.284	0.021
-667.047	-132.836	0.248	0.032
-666.032	0.046	-0.082	-0.059
-665.018	43.511	0.116	-0.107
-664.003	-64.935	0.084	0.034
-662.989	-18.039	0.247	-0.155
-661.974	-98.015	0.104	0.027
-660.959	122.090	-0.157	0.196
-659.945	134.493	0.095	-0.124
-658.930	-200.000	0.011	-0.257
-657.916	-200.000	0.003	0.260
-656.901	427.674	0.085	0.184
-655.886	800.000	-0.056	0.229
-654.872	6.652	-0.144	-0.107
-653.857	-150.989	0.463	-0.035
-652.843	-200.000	0.023	0.372
-651.828	-78.630	-0.146	-0.050
-650.814	-69.257	-0.316	-0.122
-649.799	678.405	-0.026	-0.069
-648.784	-200.000	0.028	-0.142
-647.770	-200.000	-0.019	-0.216
-646.755	800.000	-0.049	0.181
-645.741	-166.816	-0.342	-0.014
-644.726	-200.000	-0.061	-0.353
-643.711	-200.000	0.047	-0.330
-642.697	765.292	0.020	0.055
-641.682	67.853	-0.122	-0.125
-640.668	166.294	-0.056	-0.079
-639.653	149.093	0.068	0.093
-638.638	-52.059	0.114	0.053
-637.624	43.872	0.122	0.112
-636.609	298.560	0.075	-0.139
-635.595	-200.000	0.017	-0.356
-634.580	269.090	0.072	0.126
-633.565	366.726	0.086	0.173
-632.551	-85.009	-0.232	-0.073
-631.536	-62.229	0.132	-0.055
-630.522	-48.637	-0.054	-0.026
-629.507	-99.321	0.133	0.034
-628.492	-36.707	-0.227	0.122
-627.478	800.000	-0.059	0.213
-626.463	-200.000	0.205	-0.000
-625.449	59.277	-0.086	0.085
-624.434	-200.000	-0.006	-0.102
-623.419	-200.000	0.012	0.343
-622.405	-146.924	-0.277	0.024
-621.390	-200.000	-0.021	0.153
-620.376	-77.301	-0.287	-0.100
-619.361	800.000	0.085	-0.268
-618.346	-76.817	0.163	0.057
-617.332	-98.134	-0.124	0.032
-616.317	136.055	-0.041	0.053
-615.303	800.000	0.115	0.359
-614.288	-6.532	-0.203	-0.138
-613.273	-136.101	0.110	0.013
-612.259	1.103	0.063	0.045
-611.244	800.000	-0.042	0.117
-610.230	253.060	-0.166	-0.284
-609.215	-200.000	-0.011	-0.385
-608.201	-200.000	-0.033	0.286
-607.186	-106.707	0.178	-0.040
-606.171	183.361	0.108	-0.159
-605.157	-200.000	-0.010	-0.115
-604.142	611.533	-0.081	0.203
-603.128	300.740	-0.040	-0.075
-602.113	800.000	-0.046	-0.184
-601.098	238.673	-0.077	0.129
-600.084	-94.736	-0.288	0.078
-599.069	-200.000	-0.023	-0.348
-598.055	728.590	0.081	-0.217
-597.040	45.793	0.097	-0.090
-596.025	-26.122	0.081	0.047
-595.011	-169.162	0.165	-0.006
-593.996	21.987	0.109	0.089
-592.982	-200.000	-0.029	-0.137
-591.967	-51.657	0.190	-0.089
-590.952	-81.863	-0.210	0.069
-589.938	-200.000	-0.006	0.186
-588.923	142.196	0.125	0.167
-587.909	234.707	0.158	-0.260
-586.894	-41.078	0.060	-0.031
-585.879	-200.000	-0.049	-0.235
-584.865	206.337	-0.182	-0.283
-583.850	-111.198	0.052	-0.011
-582.836	573.673	-0.108	-0.264
-581.821	25.426	0.195	-0.162
-580.806	-200.000	-0.009	0.068
-579.792	57.589	-0.063	-0.062
-578.777	50.907	0.192	0.182
-577.763	-152.900	-0.252	-0.018
-576.748	143.306	-0.214	0.285
-575.733	65.590	-0.075	-0.076
-574.719	-9.791	-0.091	0.061
-573.704	-121.224	0.383	-0.064
-572.690	5.703	-0.265	-0.196
-571.675	-33.783	0.042	-0.023
-570.661	-84.776	0.257	0.081
-569.646	-83.455	0.061	-0.019
-568.631	88.791	0.265	0.295
-567.617	617.194	0.087	0.219
-566.602	-200.000	0.002	0.223
-565.588	-140.725	-0.368	0.038
-564.573	800.000	0.050	-0.210
-563.558	70.222	0.148	-0.153
-562.544	-70.091	-0.359	0.137
-561.529	225.462	0.084	0.135
-560.515	309.866	-0.089	-0.166
-559.500	-109.932	-0.302	0.063
-558.485	245.456	0.009	-0.015
-557.471	160.296	-0.138	-0.193
-556.456	297.898	-0.287	-0.528
-555.442	152.534	0.138	0.188
-554.427	-121.885	0.281	0.046
-553.412	-69.304	-0.597	0.229
-552.398	-200.000	-0.002	-0.294
-551.383	-95.805	0.051	-0.014
-550.369	-200.000	-0.009	-0.159
-549.354	-200.000	0.036	-0.191
-548.339	-200.000	-0.061	-0.272
-547.325	-154.495	-0.107	-0.007
-546.310	-31.362	-0.139	-0.078
-545.296	-200.000	-0.102	0.471
-544.281	2.144	-0.269	0.194
-543.266	-157.308	-0.276	-0.017
-542.252	-200.000	0.137	-0.000
-541.237	-38.601	0.456	0.240
-540.223	-46.027	-0.363	-0.179
-539.208	56.670	-0.175	0.171
-538.193	-200.000	-0.027	0.274
-537.179	575.151	-0.094	0.230
-536.164	-82.585	0.422	0.137
-535.150	-102.585	0.147	0.035
-534.135	-17.137	-0.272	0.171
-533.121	25.283	0.302	0.251
-532.106	171.835	-0.082	0.118
-531.091	800.000	0.111	0.323
-530.077	-11.989	-0.130	0.085
-529.062	-7.258	-0.234	0.158
-528.048	-17.980	-0.046	0.029
-527.033	181.245	-0.044	0.065
-526.018	-112.337	0.300	-0.060
-525.004	-137.061	-0.224	0.026
-523.989	-2.426	-0.228	-0.160
-522.975	-143.426	-0.124	0.012
-521.960	-67.159	0.166	-0.065
-520.945	472.648	-0.097	-0.219
-519.931	-92.124	-0.235	0.066
-518.916	701.284	-0.095	-0.248
-517.902	-36.605	-0.182	-0.098
-516.887	-88.191	-0.281	-0.084
-515.872	-92.707	0.069	-0.019
-514.858	-96.833	-0.070	0.018
-513.843	28.180	-0.142	-0.120
-512.829	-11.614	0.092	-0.061
-511.814	800.000	0.037	0.123
-510.799	-120.104	-0.529	0.090
-509.785	339.344	0.057	-0.111
-508.770	92.841	0.048	0.055
-507.756	-182.861	0.060	-0.001
-506.741	-200.000	0.001	-0.433
-505.726	33.712	-0.038	-0.033
-504.712	-200.000	-0.064	0.295
-503.697	310.454	0.036	0.067
-502.683	156.955	-0.163	-0.225
-501.668	-116.959	-0.296	-0.054
-500.653	-200.000	0.058	-0.269
-499.639	-200.000	-0.047	0.261
-498.624	-68.716	0.176	-0.068
-497.610	-108.116	-0.158	-0.034
-496.595	-61.796	0.171	-0.072
-495.581	-38.712	0.109	-0.058
-494.566	-185.317	-0.436	-0.007
-493.551	-93.142	-0.165	0.046
-492.537	372.477	0.069	0.139
-491.522	-125.051	0.073	0.011
-490.508	30.575	0.159	0.136
-489.493	-8.407	-0.184	0.123
-488.478	409.367	-0.169	-0.357
-487.464	-200.000	-0.048	-0.222
-486.449	353.504	0.110	-0.218
-485.435	-27.245	-0.116	0.068
-484.420	91.764	0.160	0.179
-483.405	57.019	0.192	-0.186
-482.391	-25.963	0.148	0.087
-481.376	800.000	0.045	0.166
-480.362	48.553	0.091	0.085
-479.347	-126.548	-0.013	-0.002
-478.332	444.919	-0.090	-0.197
-477.318	134.759	0.263	-0.340
-476.303	-69.571	0.083	0.032
-475.289	-69.977	-0.392	-0.149
-474.274	-83.651	-0.442	-0.141
-473.259	-65.988	0.194	0.077
-472.245	93.557	0.196	0.221
-471.230	-200.000	-0.070	0.359
-470.216	-100.634	0.175	0.043
-469.201	35.009	-0.161	-0.140
-468.186	86.721	-0.183	-0.201
-467.172	196.378	-0.100	0.151
-466.157	-66.218	-0.158	-0.063
-465.143	75.135	0.129	-0.136
-464.128	255.419	0.210	-0.358
-463.113	800.000	-0.049	0.140
-462.099	109.029	0.291	-0.347
-461.084	-100.979	-0.161	0.039
-460.070	800.000	0.022	-0.069
-459.055	71.426	-0.123	-0.127
-458.040	-43.626	0.141	0.071
-457.026	40.180	-0.224	0.200
-456.011	393.795	0.039	-0.081
-454.997	1.472	0.230	-0.165
-453.982	189.811	-0.087	-0.129
-452.968	306.307	-0.086	0.160
-451.953	713.660	0.045	0.120
-450.938	15.728	0.045	0.035
-449.924	800.000	0.067	-0.276
-448.909	743.835	0.106	-0.285
-447.895	-22.952	-0.061	0.037
-446.880	800.000	-0.054	0.170
-445.865	210.699	0.186	0.291
-444.851	-200.000	-0.042	0.333
-443.836	154.286	0.157	-0.214
-442.822	-200.000	-0.014	0.123
-441.807	110.674	0.075	-0.090
-440.792	-200.000	0.015	0.161
-439.778	-166.480	-0.296	0.012
-438.763	-128.412	0.362	-0.051
-437.749	-200.000	0.052	-0.304
-436.734	654.125	0.105	-0.267
-435.719	-37.703	0.399	0.211
-434.705	-3.488	0.062	0.043
-433.690	-200.000	0.014	-0.154
-432.676	-110.809	-0.128	-0.026
-431.661	-116.642	-0.472	-0.086
-430.646	217.270	0.139	-0.220
-429.632	-200.000	0.002	0.214
-428.617	-29.009	0.157	0.090
-427.603	-30.837	-0.130	-0.073
-426.588	-200.000	-0.038	-0.180
-425.573	611.587	0.077	0.193
-424.559	-200.000	-0.008	0.403
-423.544	-13.488	0.261	0.168
-422.530	-113.506	-0.085	-0.017
-421.515	-69.059	-0.214	0.082
-420.500	51.449	0.107	0.101
-419.486	701.703	0.061	0.160
-418.471	85.005	-0.043	-0.047
-417.457	-200.000	0.044	-0.203
-416.442	78.387	-0.323	0.343
-415.428	15.135	0.337	-0.262
-414.413	-79.328	-0.124	-0.042
-413.398	27.808	0.200	0.167
-412.384	-90.145	0.197	-0.057
-411.369	-129.499	0.246	-0.034
-410.355	28.355	-0.184	-0.154
-409.340	-56.190	0.284	0.126
-408.325	-105.692	0.075	-0.017
-407.311	-120.047	-0.157	-0.027
-406.296	76.188	0.191	0.201
-405.282	217.541	0.143	-0.227
-404.267	89.011	0.123	0.136
-403.252	-200.000	0.007	0.504
-402.238	196.613	0.199	0.301
-401.223	110.533	0.158	0.189
-400.209	-133.414	0.230	-0.029
-399.194	-97.173	0.071	-0.018
-398.179	93.656	0.162	-0.182
-397.165	-169.724	-0.344	-0.012
-396.150	-200.000	0.020	0.154
-395.136	800.000	-0.075	-0.291
-394.121	-153.125	0.066	-0.005
-393.106	-125.038	-0.338	0.052
-392.092	-56.867	-0.318	-0.139
-391.077	-85.861	0.269	-0.083
-390.063	60.582	-0.157	-0.154
-389.048	347.828	0.054	-0.106
-388.033	-7.808	-0.166	-0.111
-387.019	-140.742	-0.191	-0.020
-386.004	-200.000	0.011	0.219
-384.990	-125.108	0.151	-0.023
-383.975	239.717	-0.144	-0.237
-382.960	107.782	0.239	0.282
-381.946	-92.051	0.040	-0.011
-380.931	-200.000	-0.012	0.057
-379.917	58.604	0.159	0.155
-378.902	324.589	-0.063	-0.120
-377.888	-128.885	0.148	-0.021
-376.873	800.000	0.085	0.364
-375.858	-4.189	0.108	-0.074
-374.844	451.699	-0.054	0.117
-373.829	-200.000	0.029	0.174
-372.815	167.719	-0.150	-0.211
-371.800	-200.000	-0.050	0.328
-370.785	800.000	0.079	0.272
-369.771	-10.191	-0.127	0.084
-368.756	-74.771	0.515	-0.183
-367.742	-39.864	-0.176	-0.091
-366.727	-200.000	0.089	-0.439
-365.712	-109.093	-0.191	-0.040
-364.698	-74.151	-0.335	0.120
-363.683	800.000	-0.069	0.192
-362.669	-158.119	0.210	-0.012
-361.654	-164.709	-0.230	-0.010
-360.639	126.499	0.192	0.242
-359.625	-105.510	-0.250	0.056
-358.610	-166.243	-0.212	0.009
-357.596	-200.000	0.038	0.187
-356.581	-72.238	-0.117	0.043
-355.566	-53.329	0.246	-0.112
-354.552	-200.000	-0.057	-0.250
-353.537	11.534	-0.093	-0.071
-352.523	800.000	-0.016	-0.060
-351.508	579.844	-0.032	-0.078
-350.493	0.373	0.293	0.208
-349.479	-122.768	0.266	-0.043
-348.464	-67.929	-0.182	0.071
-347.450	-54.415	-0.063	0.028
-346.435	-87.779	-0.380	-0.113
-345.420	-200.000	0.038	-0.568
-344.406	625.638	0.088	-0.220
-343.391	-73.991	0.219	-0.079
-342.377	-38.207	0.206	-0.108
-341.362	-130.294	0.123	-0.017
-340.348	-67.946	-0.175	-0.068
-339.333	84.170	0.204	0.221
-338.318	334.217	-0.146	0.281
-337.304	-200.000	-0.013	0.060
-336.289	431.938	-0.063	0.135
-335.275	-200.000	-0.014	-0.181
-334.260	-69.236	0.201	0.076
-333.245	-75.766	-0.214	-0.075
-332.231	244.310	0.115	0.191
-331.216	110.360	0.199	0.237
-330.202	131.207	-0.204	-0.259
-329.187	-200.000	-0.008	-0.151
-328.172	58.701	0.086	0.084
-327.158	36.613	-0.108	0.095
-326.143	-200.000	0.013	0.270
-325.129	-27.760	-0.132	0.076
-324.114	800.000	-0.040	-0.111
-323.099	-84.333	-0.381	0.119
-322.085	-200.000	0.024	0.239
-321.070	-200.000	-0.029	-0.194
-320.056	340.689	-0.051	-0.100
-319.041	279.836	0.099	-0.174
-318.026	86.854	0.144	-0.158
-317.012	10.676	0.111	0.084
-315.997	800.000	-0.092	0.290
-314.983	48.804	0.155	0.144
-313.968	-55.795	0.143	-0.063
-312.953	-200.000	-0.003	-0.118
-311.939	-200.000	0.068	-0.350
-310.924	-200.000	-0.026	0.420
-309.910	-37.517	0.227	-0.120
-308.895	800.000	-0.085	0.263
-307.880	373.062	-0.125	0.252
-306.866	-51.340	-0.130	0.060
-305.851	-5.877	0.012	-0.008
-304.837	345.877	-0.031	-0.060
-303.822	451.690	0.067	-0.146
-302.807	79.421	-0.144	0.152
-301.793	94.979	0.080	0.090
-300.778	-200.000	-0.035	-0.170
-299.764	-200.000	0.012	-0.065
-298.749	-200.000	0.001	-0.295
-297.735	-69.160	0.108	0.041
-296.720	2.544	-0.086	-0.062
-295.705	-200.000	0.003	0.029
-294.691	-200.000	-0.005	-0.137
-293.676	-164.750	0.051	-0.002
-292.662	-200.000	0.010	0.164
-291.647	309.050	0.080	-0.148
-290.632	800.000	0.092	0.257
-289.618	316.919	0.132	0.247
-288.603	371.663	-0.081	0.163
-287.589	498.539	-0.093	0.211
-286.574	-127.512	-0.065	0.009
-285.559	-6.523	0.059	-0.040
-284.545	43.784	0.141	-0.127
-283.530	-58.944	-0.207	0.089
-282.516	-200.000	-0.015	-0.203
-281.501	800.000	-0.065	-0.180
-280.486	800.000	0.137	-0.406
-279.472	94.239	-0.086	0.097
-278.457	-34.382	0.197	0.107
-277.443	81.191	0.246	-0.263
-276.428	201.943	-0.087	0.133
-275.413	543.508	-0.069	-0.163
-274.399	21.670	0.354	-0.285
-273.384	25.304	0.212	-0.174
-272.370	-13.374	-0.182	0.117
-271.355	-39.783	-0.200	-0.103
-270.340	-66.576	0.310	-0.122
-269.326	53.536	0.076	0.072
-268.311	-200.000	-0.030	0.305
-267.297	800.000	0.025	0.077
-266.282	371.817	-0.154	-0.310
-265.267	-200.000	0.025	-0.116
-264.253	56.920	0.082	-0.079
-263.238	51.108	-0.276	-0.259
-262.224	246.917	0.180	0.301
-261.209	-40.203	0.304	0.157
-260.195	-120.447	0.116	0.019
-259.180	78.541	-0.094	-0.100
-258.165	86.638	0.057	-0.062
-257.151	105.846	0.209	0.244
-256.136	112.896	0.036	-0.043
-255.122	-140.482	-0.203	-0.021
-254.107	-200.000	0.003	0.113
-253.092	134.468	0.191	0.245
-252.078	-142.531	0.043	0.004
-251.063	-150.138	-0.418	0.032
-250.049	-200.000	0.001	-0.193
-249.034	-200.000	-0.021	0.142
-248.019	-4.064	0.258	0.177
-247.005	-73.747	-0.261	-0.094
-245.990	-136.039	0.217	0.025
-244.976	274.450	-0.103	-0.180
-243.961	500.633	0.136	0.309
-242.946	-200.000	0.073	-0.490
-241.932	-136.139	-0.288	-0.033
-240.917	506.614	0.111	-0.255
-239.903	-148.642	0.233	-0.019
-238.888	339.658	0.051	-0.098
-237.873	-105.356	0.335	0.075
-236.859	37.889	-0.213	0.187
-235.844	-10.088	-0.059	-0.039
-234.830	11.946	0.169	0.128
-233.815	24.235	-0.343	-0.279
-232.800	590.998	0.134	0.327
-231.786	540.516	-0.081	0.190
-230.771	211.239	0.070	0.108
-229.757	795.633	-0.029	-0.080
-228.742	218.361	-0.068	0.107
-227.727	-22.819	0.132	-0.079
-226.713	-169.584	0.111	0.004
-225.698	63.011	0.281	-0.277
-224.684	-59.324	0.473	-0.201
-223.669	98.452	0.176	-0.200
-222.655	-200.000	0.081	0.455
-221.640	-95.158	0.089	0.024
-220.625	-200.000	-0.099	0.457
-219.611	557.562	0.186	0.441
-218.596	-200.000	0.004	-0.187
-217.582	-160.248	-0.178	0.009
-216.567	-127.474	-0.072	-0.010
-215.552	800.000	0.032	0.103
-214.538	70.119	-0.108	0.110
-213.523	126.662	0.190	-0.237
-212.509	-94.293	-0.082	-0.022
-211.494	-110.748	0.170	0.035
-210.479	-154.310	-0.346	0.023
-209.465	-200.000	-0.043	-0.210
-208.450	-83.899	-0.238	-0.075
-207.436	214.018	0.051	-0.079
-206.421	-176.156	-0.350	-0.009
-205.406	102.342	0.108	0.125
-204.392	800.000	-0.037	0.115
-203.377	-106.821	-0.198	0.043
-202.363	-140.004	0.282	-0.029
-201.348	-200.000	0.030	0.230
-200.333	126.870	0.339	-0.424
-199.319	-200.000	-0.032	-0.156
-198.304	164.766	0.071	0.099
-197.290	-200.000	0.049	0.269
-196.275	157.000	0.135	0.184
-195.260	-99.575	-0.350	-0.087
-194.246	255.171	0.150	0.253
-193.231	37.795	-0.134	0.117
-192.217	340.092	0.155	0.299
-191.202	373.342	-0.152	0.305
-190.187	-117.741	0.165	-0.029
-189.173	-136.232	-0.424	0.049
-188.158	40.016	-0.193	0.170
-187.144	-165.248	0.216	-0.009
-186.129	-51.474	-0.066	-0.030
-185.114	-142.041	0.165	-0.016
-184.100	-200.000	-0.004	-0.296
-183.085	73.926	0.149	-0.154
-182.071	-200.000	0.025	0.112
-181.056	112.874	-0.099	0.119
-180.042	0.156	-0.325	0.228
-179.027	-200.000	0.023	-0.283
-178.012	-61.841	0.300	-0.124
-176.998	800.000	0.030	-0.096
-175.983	141.570	0.231	-0.301
-174.969	-200.000	-0.039	0.171
-173.954	228.731	0.157	0.251
-172.939	800.000	-0.060	-0.245
-171.925	67.530	-0.115	0.116
-170.910	171.768	-0.178	0.252
-169.896	176.861	0.245	-0.350
-168.881	388.482	0.073	-0.149
-167.866	296.046	-0.055	-0.100
-166.852	-94.736	0.175	0.047
-165.837	-200.000	0.017	-0.096
-164.823	111.325	0.148	-0.175
-163.808	-105.882	-0.236	-0.052
-162.793	-157.630	0.286	-0.017
-161.779	215.142	-0.087	0.136
-160.764	173.014	-0.127	-0.181
-159.750	-87.733	0.247	0.073
-158.735	-147.579	0.091	0.008
-157.720	68.126	-0.183	0.185
-156.706	122.935	0.088	0.108
-155.691	243.404	-0.132	0.217
-154.677	6.921	-0.095	-0.069
-153.662	-18.085	0.038	-0.023
-152.647	-200.000	-0.018	0.232
-151.633	-158.562	-0.246	-0.014
-150.618	-43.630	0.198	0.098
-149.604	-200.000	0.005	0.234
-148.589	-20.113	-0.123	0.075
-147.574	122.211	0.065	-0.080
-146.560	251.468	0.025	0.042
-145.545	-106.404	-0.225	-0.049
-144.531	-8.247	0.119	-0.079
-143.516	21.027	-0.047	-0.037
-142.502	-200.000	0.037	0.435
-141.487	-200.000	0.039	0.280
-140.472	-97.767	0.200	-0.051
-139.458	-27.961	-0.221	0.126
-138.443	-177.418	0.331	0.008
-137.429	-60.744	0.127	-0.053
-136.414	170.162	-0.124	-0.174
-135.399	-200.000	-0.056	0.381
-134.385	-47.844	-0.140	-0.067
-133.370	-97.070	-0.159	-0.041
-132.356	-42.549	0.236	0.118
-131.341	-175.180	0.230	-0.006
-130.326	-89.633	-0.296	-0.085
-129.312	-200.000	0.004	0.071
-128.297	-136.942	0.226	-0.025
-127.283	-14.397	0.184	-0.116
-126.268	189.379	-0.092	0.135
-125.253	-43.735	0.416	0.206
-124.239	85.035	-0.048	-0.051
-123.224	38.839	0.071	0.062
-122.210	10.570	-0.066	0.049
