DTS Sentinel unit serial number:	SN413079Multiplexer serial number:	ORYXHardware model number:	OX4-SRSoftware version number:	ORYX F/W v4.00 Oryx Data Collector v3.7.2.0data status	okinstallation	princeton_trtdifferential loss correction	single-endedforward channel	channel 1reverse channel	N/Adate	2019/09/19time	08:46:35forward acquisition time	60.00reverse acquisition time	0.00gamma	496.2192k internal	0.2343k external	0.2343temperature offset calibration	1.0005default loss term (dB/km)	0.3790temperature slope calibration	1.0000multiplexer offset coefficient	1.0000multiplexer slope coefficient	1.0000fibre end	0.00T internal ref (°C)	21.08T ext. ref 1 (°C)	0.58T ext. ref 2 (°C)	16.67length (m)	temperature (°C)	Stokes	anti-Stokes-747.200	-200.000	0.007	0.221
-746.185	800.000	-0.046	0.186
-745.171	-82.602	0.219	-0.071
-744.156	-174.287	-0.104	-0.003
-743.142	694.046	0.041	-0.109
-742.127	-108.589	-0.046	0.010
-741.112	295.698	-0.181	0.331
-740.098	-177.019	0.132	-0.003
-739.083	163.097	0.177	0.249
-738.069	337.183	-0.181	0.353
-737.054	-66.434	0.048	0.019
-736.039	-78.615	-0.152	0.052
-735.025	-200.000	-0.026	-0.183
-734.010	100.003	0.141	0.164
-732.996	-3.556	-0.255	-0.177
-731.981	451.434	-0.127	-0.281
-730.966	-142.147	0.143	-0.014
-729.952	800.000	0.091	0.306
-728.937	48.182	-0.142	-0.133
-727.923	124.853	0.034	-0.043
-726.908	-200.000	0.009	0.287
-725.894	-111.314	-0.370	0.075
-724.879	426.669	-0.118	-0.255
-723.864	-89.165	0.113	0.033
-722.850	553.312	-0.073	-0.176
-721.835	800.000	-0.081	0.260
-720.821	-200.000	0.045	0.318
-719.806	306.347	0.272	-0.507
-718.791	95.941	-0.089	-0.102
-717.777	-50.587	-0.064	0.030
-716.762	735.471	0.046	0.124
-715.748	44.516	-0.233	-0.214
-714.733	800.000	-0.116	-0.416
-713.718	30.430	-0.161	-0.137
-712.704	-133.632	0.269	-0.034
-711.689	305.538	-0.139	-0.258
-710.675	-200.000	-0.005	0.336
-709.660	-200.000	0.044	-0.262
-708.645	800.000	0.027	-0.088
-707.631	800.000	0.032	-0.112
-706.616	800.000	0.078	-0.335
-705.602	217.798	0.024	0.038
-704.587	46.256	-0.129	0.120
-703.572	-28.021	-0.111	0.064
-702.558	105.150	-0.205	0.241
-701.543	-200.000	0.001	0.065
-700.529	423.562	0.058	-0.124
-699.514	-41.172	-0.172	0.089
-698.499	-200.000	0.002	-0.141
-697.485	-164.587	0.130	0.006
-696.470	-25.423	-0.105	-0.062
-695.456	387.539	0.166	0.344
-694.441	631.337	-0.063	-0.159
-693.426	800.000	0.078	-0.283
-692.412	314.453	-0.081	-0.153
-691.397	618.626	0.020	-0.051
-690.383	-15.373	0.051	0.033
-689.368	196.828	-0.025	0.039
-688.354	-200.000	0.053	0.341
-687.339	73.109	-0.156	-0.163
-686.324	74.593	-0.087	-0.091
-685.310	-200.000	0.019	0.253
-684.295	249.979	-0.123	0.208
-683.281	-20.521	-0.102	-0.062
-682.266	-23.182	-0.190	-0.114
-681.251	181.426	-0.095	-0.139
-680.237	-200.000	-0.024	-0.196
-679.222	-64.546	0.073	-0.029
-678.208	-200.000	0.021	-0.268
-677.193	388.338	-0.049	-0.101
-676.178	-200.000	-0.023	-0.367
-675.164	-24.951	0.353	0.209
-674.149	45.821	-0.158	-0.146
-673.135	-200.000	0.002	0.217
-672.120	-9.612	-0.199	0.132
-671.105	-23.836	-0.140	-0.083
-670.091	800.000	0.025	0.096
-669.076	471.287	0.116	-0.260
-668.062	53.950	0.109	-0.105
-667.047	800.000	-0.045	0.144
-666.032	-44.167	-0.389	-0.195
-665.018	-64.104	-0.204	-0.083
-664.003	183.850	0.112	-0.165
-662.989	14.149	0.336	-0.261
-661.974	-159.072	0.179	0.010
-660.959	146.493	-0.076	0.102
-659.945	25.950	-0.205	-0.170
-658.930	590.681	-0.136	-0.335
-657.916	-84.826	0.208	-0.065
-656.901	-36.494	-0.181	0.097
-655.886	-156.644	0.207	0.013
-654.872	24.922	0.198	0.164
-653.857	-73.110	0.142	0.052
-652.843	333.179	-0.083	0.160
-651.828	800.000	-0.018	0.057
-650.814	-55.459	-0.316	-0.141
-649.799	-200.000	-0.046	0.341
-648.784	-9.248	0.422	0.282
-647.770	-170.250	0.102	0.004
-646.755	-200.000	0.035	-0.283
-645.741	-74.120	-0.333	-0.120
-644.726	-200.000	-0.054	-0.284
-643.711	-174.027	0.288	-0.008
-642.697	509.734	-0.035	0.081
-641.682	160.053	-0.137	-0.190
-640.668	-137.318	0.175	-0.020
-639.653	265.430	-0.132	-0.230
-638.638	14.014	-0.178	-0.138
-637.624	-97.418	0.200	0.052
-636.609	-134.158	-0.173	0.021
-635.595	-122.722	-0.128	0.021
-634.580	-91.958	-0.248	0.070
-633.565	-54.513	0.210	0.095
-632.551	52.340	-0.168	-0.160
-631.536	66.690	0.141	0.143
-630.522	502.086	-0.116	-0.266
-629.507	583.303	-0.097	0.237
-628.492	-139.748	0.295	-0.031
-627.478	522.657	0.032	-0.075
-626.463	23.425	-0.114	0.094
-625.449	-200.000	0.023	0.230
-624.434	548.660	-0.012	0.029
-623.419	800.000	0.060	-0.257
-622.405	-36.888	0.189	0.101
-621.390	-73.894	0.261	0.095
-620.376	-156.859	0.292	-0.018
-619.361	-200.000	0.013	-0.141
-618.346	-186.124	-0.258	-0.004
-617.332	800.000	-0.097	-0.365
-616.317	231.422	-0.331	-0.541
-615.303	-200.000	-0.012	0.234
-614.288	-200.000	-0.019	0.180
-613.273	-104.697	0.089	0.020
-612.259	-112.223	-0.234	-0.047
-611.244	14.415	0.225	0.175
-610.230	371.261	0.173	-0.349
-609.215	-200.000	0.014	-0.235
-608.201	800.000	-0.068	0.204
-607.186	15.242	-0.430	-0.336
-606.171	305.298	-0.132	0.244
-605.157	-36.998	0.112	0.060
-604.142	32.848	0.069	0.060
-603.128	800.000	0.069	-0.299
-602.113	-76.065	0.189	0.067
-601.098	800.000	0.099	-0.302
-600.084	144.287	0.184	-0.244
-599.069	-143.485	0.139	-0.013
-598.055	19.218	-0.330	-0.264
-597.040	182.466	-0.238	-0.350
-596.025	-20.770	0.186	0.113
-595.011	84.867	-0.250	-0.272
-593.996	107.463	0.059	-0.070
-592.982	37.685	-0.205	-0.181
-591.967	-143.121	-0.306	0.029
-590.952	-200.000	-0.024	0.155
-589.938	-200.000	0.002	0.061
-588.923	4.506	-0.152	0.111
-587.909	144.674	0.131	-0.174
-586.894	800.000	-0.051	0.148
-585.879	249.439	-0.103	-0.174
-584.865	-200.000	0.025	-0.215
-583.850	73.902	0.192	-0.200
-582.836	187.742	-0.189	-0.281
-581.821	91.698	0.134	0.150
-580.806	-106.542	-0.100	-0.022
-579.792	-109.507	-0.368	0.077
-578.777	502.977	0.149	-0.343
-577.763	-200.000	0.004	-0.226
-576.748	-200.000	-0.017	-0.391
-575.733	287.751	-0.088	-0.159
-574.719	438.718	-0.035	0.076
-573.704	308.658	-0.097	-0.180
-572.690	-65.227	-0.393	0.157
-571.675	217.097	0.170	0.269
-570.661	-49.659	0.294	0.139
-569.646	-32.929	0.145	0.080
-568.631	-18.045	-0.129	-0.080
-567.617	-70.461	0.284	0.107
-566.602	269.508	-0.125	-0.219
-565.588	800.000	0.118	0.348
-564.573	-58.348	-0.203	-0.088
-563.558	-96.614	-0.116	-0.030
-562.544	800.000	-0.082	-0.240
-561.529	-24.315	-0.367	0.218
-560.515	303.622	0.078	-0.143
-559.500	-132.083	-0.453	-0.059
-558.485	-60.213	0.236	0.100
-557.471	-116.010	-0.328	-0.061
-556.456	4.692	-0.064	-0.047
-555.442	800.000	0.091	0.370
-554.427	138.695	0.212	0.276
-553.412	185.756	-0.157	0.232
-552.398	800.000	-0.018	0.073
-551.383	-200.000	0.029	0.166
-550.369	-103.809	0.142	-0.033
-549.354	376.955	0.092	0.186
-548.339	57.690	-0.154	-0.149
-547.325	-200.000	-0.001	0.066
-546.310	-200.000	0.031	-0.181
-545.296	-200.000	0.028	0.448
-544.281	2.979	-0.105	-0.076
-543.266	-200.000	-0.018	0.139
-542.252	-93.977	-0.391	0.107
-541.237	-68.213	-0.103	-0.040
-540.223	-132.497	-0.011	-0.001
-539.208	63.060	0.277	-0.276
-538.193	-200.000	0.066	-0.368
-537.179	15.901	-0.189	0.148
-536.164	-141.795	0.352	-0.035
-535.150	43.984	-0.372	-0.339
-534.135	-155.006	-0.066	0.004
-533.121	98.914	-0.280	0.322
-532.106	428.761	-0.026	-0.055
-531.091	800.000	0.045	-0.140
-530.077	345.410	-0.187	0.365
-529.062	-49.784	0.193	-0.091
-528.048	187.424	-0.099	-0.147
-527.033	464.277	-0.138	-0.306
-526.018	127.592	-0.135	-0.170
-525.004	-85.686	-0.362	0.112
-523.989	800.000	-0.041	-0.164
-522.975	-3.488	-0.374	0.259
-521.960	651.918	0.032	0.082
-520.945	-169.152	-0.251	-0.009
-519.931	-200.000	-0.049	0.230
-518.916	-80.414	0.130	0.043
-517.902	800.000	-0.071	0.217
-516.887	100.607	0.042	0.049
-515.872	201.756	0.088	-0.134
-514.858	17.423	0.211	-0.166
-513.843	800.000	-0.033	0.113
-512.829	-145.314	0.117	-0.010
-511.814	-11.839	-0.148	0.097
-510.799	370.345	-0.071	0.143
-509.785	154.963	0.063	-0.086
-508.770	63.585	-0.121	-0.121
-507.756	83.712	0.042	-0.045
-506.741	-200.000	0.031	-0.542
-505.726	-200.000	0.014	0.071
-504.712	-200.000	-0.005	-0.155
-503.697	291.283	-0.139	-0.250
-502.683	204.184	0.075	-0.115
-501.668	-24.911	0.181	-0.106
-500.653	85.706	-0.304	-0.331
-499.639	-146.626	0.345	0.030
-498.624	-34.799	-0.118	0.064
-497.610	-78.245	0.325	-0.111
-496.595	-200.000	-0.001	-0.040
-495.581	-33.774	-0.127	-0.069
-494.566	-21.164	-0.323	0.196
-493.551	-200.000	-0.045	-0.211
-492.537	-19.775	-0.218	-0.134
-491.522	800.000	-0.049	-0.170
-490.508	-117.302	-0.104	0.019
-489.493	8.667	-0.276	0.206
-488.478	252.069	0.142	0.240
-487.464	-200.000	-0.007	0.175
-486.449	78.013	0.052	-0.055
-485.435	-153.445	0.077	-0.005
-484.420	192.424	0.061	0.091
-483.405	-200.000	0.014	-0.064
-482.391	-200.000	-0.014	0.099
-481.376	-126.182	-0.326	-0.048
-480.362	-96.349	-0.189	0.050
-479.347	-200.000	-0.018	0.091
-478.332	800.000	0.048	0.178
-477.318	-33.596	-0.240	0.131
-476.303	-71.818	0.101	-0.037
-475.289	251.330	0.055	0.093
-474.274	-200.000	0.019	-0.156
-473.259	-102.475	-0.218	-0.052
-472.245	616.251	-0.099	0.247
-471.230	78.676	0.138	-0.146
-470.216	798.352	0.044	-0.120
-469.201	-200.000	0.038	-0.369
-468.186	273.029	-0.146	-0.255
-467.172	-123.594	0.194	0.030
-466.157	-200.000	-0.030	0.301
-465.143	-200.000	0.002	-0.143
-464.128	124.078	0.196	-0.244
-463.113	-147.309	0.249	0.021
-462.099	800.000	0.051	-0.190
-461.084	-47.368	0.422	0.203
-460.070	800.000	-0.048	0.169
-459.055	-86.406	0.247	-0.075
-458.040	-41.546	0.322	-0.164
-457.026	83.695	0.155	-0.167
-456.011	-116.123	-0.371	-0.068
-454.997	136.190	0.242	0.313
-453.982	-200.000	0.005	0.254
-452.968	-200.000	-0.066	0.425
-451.953	-200.000	-0.029	0.323
-450.938	-200.000	-0.010	0.187
-449.924	235.654	-0.044	0.073
-448.909	-62.523	0.277	-0.114
-447.895	424.013	0.104	0.222
-446.880	643.264	0.129	-0.325
-445.865	335.491	-0.172	-0.330
-444.851	-60.010	-0.132	-0.056
-443.836	-200.000	0.005	-0.272
-442.822	143.338	-0.249	-0.328
-441.807	83.131	0.186	0.200
-440.792	214.436	-0.100	-0.156
-439.778	70.381	-0.065	0.066
-438.763	-17.847	-0.205	0.127
-437.749	-200.000	0.013	0.077
-436.734	-200.000	-0.020	0.400
-435.719	-115.717	-0.150	-0.028
-434.705	80.054	-0.098	0.104
-433.690	-153.926	0.254	-0.017
-432.676	20.087	-0.139	0.111
-431.661	262.398	0.095	0.164
-430.646	48.963	0.107	0.099
-429.632	-136.835	0.078	0.009
-428.617	221.592	-0.112	0.177
-427.603	-153.863	-0.203	-0.014
-426.588	221.554	-0.022	-0.035
-425.573	183.713	0.153	0.223
-424.559	125.484	0.048	0.060
-423.544	-200.000	-0.019	-0.122
-422.530	247.308	0.037	-0.062
-421.515	-106.031	-0.264	0.059
-420.500	800.000	0.101	-0.373
-419.486	90.453	-0.281	0.311
-418.471	-121.634	-0.026	-0.004
-417.457	-160.201	0.204	0.011
-416.442	-63.006	-0.180	0.073
-415.428	-87.202	0.107	0.032
-414.413	129.779	-0.152	-0.192
-413.398	96.910	-0.087	-0.098
-412.384	-200.000	-0.009	-0.131
-411.369	-149.834	0.486	-0.038
-410.355	364.360	0.041	0.081
-409.340	-86.230	-0.142	0.043
-408.325	13.837	-0.285	0.219
-407.311	204.861	-0.139	-0.214
-406.296	800.000	0.065	-0.209
-405.282	-200.000	-0.011	0.074
-404.267	143.923	-0.070	-0.092
-403.252	255.727	0.125	-0.212
-402.238	-200.000	-0.020	0.196
-401.223	622.909	-0.072	0.179
-400.209	-200.000	-0.027	-0.143
-399.194	-24.898	0.251	-0.147
-398.179	-10.023	-0.192	0.126
-397.165	453.583	0.224	0.489
-396.150	61.729	-0.111	-0.109
-395.136	-163.202	0.208	0.010
-394.121	-83.717	-0.076	0.024
-393.106	18.394	-0.094	0.074
-392.092	10.520	0.278	0.209
-391.077	-200.000	0.037	0.326
-390.063	-108.074	0.153	0.033
-389.048	-200.000	-0.013	0.370
-388.033	-200.000	0.001	0.021
-387.019	61.775	0.034	-0.033
-386.004	176.774	-0.226	0.325
-384.990	-109.397	-0.143	-0.030
-383.975	-175.137	-0.270	-0.007
-382.960	-200.000	0.054	0.534
-381.946	106.562	0.100	-0.117
-380.931	-65.976	0.231	-0.091
-379.917	378.204	-0.152	0.308
-378.902	-200.000	-0.078	-0.478
-377.888	101.859	-0.071	0.082
-376.873	-192.744	0.171	-0.002
-375.858	140.750	0.259	-0.338
-374.844	174.961	0.208	-0.298
-373.829	-100.326	0.290	-0.071
-372.815	-27.749	0.322	0.184
-371.800	32.041	0.196	-0.167
-370.785	368.680	0.069	-0.137
-369.771	-8.486	-0.114	0.075
-368.756	-160.105	0.281	-0.015
-367.742	-23.510	-0.171	-0.101
-366.727	299.474	0.036	0.066
-365.712	373.906	0.127	-0.255
-364.698	114.847	0.179	-0.216
-363.683	657.940	-0.081	-0.206
-362.669	800.000	0.013	-0.051
-361.654	87.883	-0.258	-0.283
-360.639	-177.527	0.452	-0.011
-359.625	-135.514	0.154	-0.018
-358.610	603.114	0.101	0.247
-357.596	133.587	-0.249	0.318
-356.581	-200.000	0.008	0.156
-355.566	-90.718	0.127	0.036
-354.552	-108.560	-0.217	-0.046
-353.537	657.842	-0.198	0.502
-352.523	-200.000	-0.016	0.463
-351.508	215.375	-0.038	-0.059
-350.493	-120.765	-0.116	0.019
-349.479	170.104	-0.027	-0.038
-348.464	329.559	-0.104	0.198
-347.450	81.473	-0.107	-0.114
-346.435	-65.025	0.193	-0.077
-345.420	-75.493	-0.385	0.135
-344.406	37.470	0.166	0.145
-343.391	-28.652	-0.259	0.147
-342.377	-60.410	-0.240	-0.100
-341.362	-122.982	-0.342	-0.054
-340.348	66.416	0.039	0.039
-339.333	-134.294	0.099	-0.012
-338.318	-67.742	0.281	-0.108
-337.304	-14.546	0.103	-0.065
-336.289	27.499	-0.023	0.019
-335.275	-200.000	-0.018	0.183
-334.260	375.994	-0.071	-0.142
-333.245	59.103	-0.172	0.166
-332.231	-73.823	-0.258	-0.093
-331.216	95.398	-0.223	0.250
-330.202	216.864	-0.168	0.263
-329.187	800.000	-0.047	-0.136
-328.172	800.000	-0.051	0.153
-327.158	127.742	0.149	0.187
-326.143	142.612	0.325	0.425
-325.129	-8.984	-0.148	0.098
-324.114	196.807	-0.137	-0.205
-323.099	10.110	0.090	0.067
-322.085	110.004	0.038	0.045
-321.070	95.050	0.230	-0.258
-320.056	414.941	0.047	-0.098
-319.041	800.000	-0.039	0.165
-318.026	800.000	-0.051	-0.170
-317.012	-48.052	0.211	0.100
-315.997	356.036	0.049	-0.096
-314.983	568.550	0.085	-0.204
-313.968	180.746	0.034	-0.049
-312.953	-200.000	-0.018	-0.143
-311.939	86.308	-0.059	-0.064
-310.924	9.755	0.102	-0.076
-309.910	-157.978	-0.222	0.013
-308.895	362.688	0.095	0.188
-307.880	137.359	-0.029	-0.038
-306.866	-83.961	0.155	0.048
-305.851	-18.290	-0.278	0.171
-304.837	-93.965	0.089	-0.024
-303.822	99.427	0.198	-0.225
-302.807	-132.030	-0.494	0.063
-301.793	800.000	-0.068	0.262
-300.778	-57.131	-0.213	0.092
-299.764	-170.080	0.205	-0.007
-298.749	-133.356	-0.139	0.017
-297.735	800.000	-0.025	0.103
-296.720	187.634	0.104	-0.153
-295.705	-200.000	0.034	-0.414
-294.691	-83.215	-0.216	0.068
-293.676	800.000	0.019	0.079
-292.662	-16.145	0.077	0.048
-291.647	-153.840	-0.127	0.009
-290.632	-88.325	0.332	-0.097
-289.618	156.347	-0.194	-0.263
-288.603	-200.000	-0.043	0.385
-287.589	-70.995	-0.039	-0.015
-286.574	-74.686	-0.286	-0.101
-285.559	-103.330	-0.263	0.061
-284.545	-167.941	0.158	0.006
-283.530	-153.939	0.123	0.008
-282.516	-43.836	-0.309	0.153
-281.501	135.032	0.048	0.061
-280.486	-200.000	-0.020	0.203
-279.472	800.000	-0.117	-0.325
-278.457	474.697	0.188	-0.416
-277.443	274.266	0.041	-0.072
-276.428	-71.169	-0.170	0.063
-275.413	-200.000	0.106	0.631
-274.399	48.303	-0.149	-0.137
-273.384	-84.535	0.088	0.027
-272.370	50.439	0.176	-0.164
-271.355	-163.601	0.212	-0.010
-270.340	94.232	-0.079	-0.088
-269.326	800.000	0.050	-0.159
-268.311	32.194	0.123	0.105
-267.297	-41.852	-0.332	0.167
-266.282	-28.580	0.165	-0.093
-265.267	270.752	-0.097	0.169
-264.253	-109.280	0.279	0.058
-263.238	-99.658	-0.322	-0.079
-262.224	-200.000	-0.002	-0.054
-261.209	-200.000	-0.006	0.231
-260.195	-200.000	-0.033	0.258
-259.180	121.590	-0.021	0.026
-258.165	-2.620	-0.203	0.140
-257.151	656.492	-0.035	0.089
-256.136	145.125	0.037	0.049
-255.122	-5.807	0.189	-0.127
-254.107	184.288	-0.124	0.180
-253.092	-71.379	0.319	-0.117
-252.078	-67.539	-0.153	-0.059
-251.063	-2.558	0.219	-0.150
-250.049	-200.000	0.001	0.251
-249.034	174.466	0.116	-0.165
-248.019	32.336	-0.306	0.260
-247.005	143.504	-0.070	0.091
-245.990	-157.625	0.433	0.025
-244.976	-200.000	-0.013	-0.221
-243.961	-98.367	0.136	0.034
-242.946	-111.601	0.099	0.020
-241.932	-158.115	0.348	-0.020
-240.917	465.499	0.079	-0.174
-239.903	292.466	-0.097	0.174
-238.888	-200.000	-0.000	-0.020
-237.873	800.000	0.092	-0.269
-236.859	800.000	-0.051	0.166
-235.844	-22.806	0.209	-0.124
-234.830	99.080	0.168	-0.190
-233.815	-165.566	0.296	0.013
-232.800	-200.000	0.005	-0.079
-231.786	-200.000	0.016	-0.091
-230.771	-200.000	0.001	-0.288
-229.757	21.988	0.197	0.157
-228.742	-141.536	-0.162	-0.016
-227.727	212.495	-0.110	-0.171
-226.713	-135.096	0.238	0.028
-225.698	486.232	-0.119	-0.267
-224.684	55.793	-0.404	-0.385
-223.669	-92.569	-0.160	0.044
-222.655	-67.785	0.391	-0.150
-221.640	800.000	0.084	0.247
-220.625	162.982	-0.107	0.147
-219.611	-126.310	0.205	-0.030
-218.596	-146.059	-0.165	-0.014
-217.582	703.175	-0.116	0.299
-216.567	800.000	-0.069	0.224
-215.552	-200.000	-0.028	0.217
-214.538	389.895	0.100	0.203
-213.523	63.119	0.156	0.154
-212.509	12.854	-0.211	-0.160
-211.494	-200.000	-0.013	0.239
-210.479	-133.018	-0.108	0.013
-209.465	347.153	-0.192	-0.370
-208.450	-200.000	0.004	0.071
-207.436	800.000	0.095	0.381
-206.421	-45.791	0.111	-0.054
-205.406	580.693	0.017	-0.041
-204.392	210.861	0.110	0.170
-203.377	-83.641	0.280	-0.088
-202.363	104.144	0.121	-0.139
-201.348	-57.157	0.268	0.116
-200.333	800.000	-0.054	-0.150
-199.319	58.383	0.030	-0.029
-198.304	-57.964	-0.165	-0.071
-197.290	-47.094	-0.375	-0.179
-196.275	186.367	0.102	0.149
-195.260	-200.000	-0.006	0.254
-194.246	-88.333	0.124	-0.036
-193.231	-200.000	0.056	0.272
-192.217	141.528	0.124	-0.161
-191.202	-47.727	-0.183	-0.087
-190.187	121.353	0.122	0.149
-189.173	12.073	0.198	-0.149
-188.158	-89.242	0.194	-0.056
-187.144	159.091	-0.231	0.314
-186.129	162.772	-0.118	0.163
-185.114	577.348	0.137	-0.329
-184.100	-125.985	0.339	-0.050
-183.085	111.030	-0.115	0.135
-182.071	-200.000	0.004	0.177
-181.056	-26.289	0.333	0.192
-180.042	-28.963	0.090	0.051
-179.027	-4.882	0.318	0.215
-178.012	51.526	0.280	-0.261
-176.998	-200.000	0.021	0.113
-175.983	-39.641	-0.155	-0.080
-174.969	366.294	0.102	-0.202
-173.954	330.878	0.138	-0.260
-172.939	-38.136	0.431	0.224
-171.925	-161.373	0.248	0.013
-170.910	24.926	0.113	-0.091
-169.896	-7.079	-0.149	0.099
-168.881	-200.000	-0.015	0.125
-167.866	26.762	-0.088	0.072
-166.852	-112.687	-0.380	-0.074
-165.837	800.000	-0.059	0.218
-164.823	-103.796	0.311	-0.071
-163.808	250.396	-0.111	0.185
-162.793	800.000	-0.034	-0.097
-161.779	-120.526	0.121	-0.020
-160.764	-46.185	0.249	0.120
-159.750	-99.120	-0.214	-0.053
-158.735	-200.000	0.024	-0.215
-157.720	156.416	0.233	-0.315
-156.706	-36.654	0.139	0.073
-155.691	376.530	-0.110	0.220
-154.677	800.000	0.073	0.259
-153.662	654.470	0.135	-0.338
-152.647	16.137	0.185	0.142
-151.633	-200.000	0.025	-0.410
-150.618	800.000	-0.035	-0.099
-149.604	549.460	-0.093	0.218
-148.589	-103.378	0.109	-0.025
-147.574	-109.456	0.204	-0.042
-146.560	-200.000	0.067	-0.556
-145.545	-138.274	-0.042	-0.005
-144.531	-200.000	-0.046	0.356
-143.516	10.090	0.279	-0.207
-142.502	-200.000	0.009	0.046
-141.487	267.299	-0.117	-0.200
-140.472	800.000	-0.051	0.167
-139.458	-200.000	-0.062	0.331
-138.443	-190.535	0.156	0.002
-137.429	51.080	0.256	0.238
-136.414	231.534	0.025	0.040
-135.399	178.519	0.120	0.171
-134.385	11.144	-0.142	0.106
-133.370	70.457	-0.092	-0.093
-132.356	148.260	-0.120	-0.158
-131.341	-83.789	0.380	0.118
-130.326	-200.000	-0.054	-0.240
-129.312	-200.000	-0.019	-0.297
-128.297	-20.047	0.116	-0.070
-127.283	-104.078	-0.139	-0.032
-126.268	-47.692	-0.085	-0.040
-125.253	-48.331	-0.042	0.020
-124.239	800.000	0.043	0.179
-123.224	-200.000	0.013	0.099
-122.210	403.426	-0.141	0.290
