DTS Sentinel unit serial number:	SN413079Multiplexer serial number:	ORYXHardware model number:	OX4-SRSoftware version number:	ORYX F/W v4.00 Oryx Data Collector v3.7.2.0data status	okinstallation	princeton_trtdifferential loss correction	single-endedforward channel	channel 1reverse channel	N/Adate	2019/09/11time	08:44:11forward acquisition time	60.00reverse acquisition time	0.00gamma	496.2192k internal	0.2313k external	0.2313temperature offset calibration	0.9947default loss term (dB/km)	0.3790temperature slope calibration	1.0000multiplexer offset coefficient	1.0000multiplexer slope coefficient	1.0000fibre end	0.00T internal ref (°C)	33.62T ext. ref 1 (°C)	0.08T ext. ref 2 (°C)	30.86length (m)	temperature (°C)	Stokes	anti-Stokes-747.200	-70.433	0.131	-0.050
-746.185	533.748	-0.023	0.054
-745.171	-200.000	-0.024	0.130
-744.156	-84.817	-0.508	0.162
-743.142	35.565	-0.098	0.087
-742.127	453.732	-0.201	0.450
-741.112	110.816	-0.108	0.132
-740.098	-194.705	-0.131	-0.001
-739.083	-127.702	0.124	-0.018
-738.069	-107.859	-0.282	-0.062
-737.054	60.863	0.086	0.086
-736.039	800.000	-0.119	-0.414
-735.025	-21.146	0.233	0.145
-734.010	-122.151	-0.320	-0.053
-732.996	479.424	-0.142	0.326
-731.981	320.763	0.136	0.261
-730.966	250.651	-0.075	-0.129
-729.952	-62.621	-0.216	0.091
-728.937	-53.328	0.067	0.031
-727.923	-96.855	0.129	0.034
-726.908	56.529	-0.285	-0.281
-725.894	-142.283	-0.267	-0.027
-724.879	-0.552	-0.060	0.043
-723.864	800.000	-0.015	0.047
-722.850	-200.000	-0.007	0.047
-721.835	-166.493	-0.147	-0.006
-720.821	371.223	0.085	-0.174
-719.806	800.000	-0.052	0.224
-718.791	169.751	-0.118	-0.171
-717.777	454.543	-0.097	-0.218
-716.762	115.469	-0.217	-0.268
-715.748	-134.669	0.384	-0.047
-714.733	606.746	-0.045	0.113
-713.718	28.463	0.080	0.069
-712.704	44.060	0.282	0.262
-711.689	-94.778	0.072	-0.020
-710.675	-11.968	-0.062	-0.041
-709.660	-200.000	-0.030	0.210
-708.645	-146.903	-0.320	0.028
-707.631	-200.000	-0.039	-0.321
-706.616	144.605	-0.098	-0.133
-705.602	800.000	-0.127	-0.494
-704.587	-200.000	-0.017	-0.277
-703.572	468.990	0.042	0.096
-702.558	601.533	-0.096	-0.242
-701.543	800.000	-0.057	-0.178
-700.529	-20.022	0.244	-0.153
-699.514	41.658	-0.228	0.209
-698.499	524.037	0.157	-0.373
-697.485	-29.051	0.134	0.078
-696.470	-35.074	-0.083	0.046
-695.456	99.467	-0.043	0.050
-694.441	-82.484	0.152	-0.050
-693.426	145.392	0.021	-0.028
-692.412	-21.280	0.162	0.100
-691.397	63.475	-0.275	-0.279
-690.383	-129.309	-0.244	0.034
-689.368	64.194	0.130	0.132
-688.354	3.741	-0.209	0.154
-687.339	-200.000	0.020	-0.186
-686.324	-200.000	0.030	0.211
-685.310	42.950	-0.327	0.301
-684.295	-13.581	-0.021	0.014
-683.281	-148.249	0.077	-0.006
-682.266	-200.000	-0.007	-0.035
-681.251	-38.165	-0.204	0.110
-680.237	272.086	0.052	-0.094
-679.222	-55.051	-0.338	-0.154
-678.208	1.027	0.268	-0.194
-677.193	-197.723	0.049	-0.000
-676.178	-40.839	0.120	0.063
-675.164	-200.000	-0.008	-0.222
-674.149	212.146	0.167	-0.267
-673.135	685.958	-0.155	-0.409
-672.120	-147.809	-0.153	0.013
-671.105	-13.993	-0.228	-0.149
-670.091	800.000	-0.063	0.190
-669.076	-120.051	-0.241	-0.042
-668.062	-122.916	-0.362	0.059
-667.047	-30.258	0.203	-0.116
-666.032	-60.140	0.097	-0.042
-665.018	800.000	0.131	-0.391
-664.003	-200.000	-0.007	-0.110
-662.989	411.067	-0.105	-0.225
-661.974	800.000	-0.052	0.152
-660.959	84.594	-0.125	-0.138
-659.945	-142.024	-0.318	-0.032
-658.930	57.121	0.122	-0.121
-657.916	432.331	-0.157	0.345
-656.901	-151.196	0.202	-0.015
-655.886	-200.000	-0.083	0.471
-654.872	35.454	-0.099	-0.088
-653.857	2.210	0.194	-0.141
-652.843	139.927	0.107	0.142
-651.828	-58.422	-0.030	0.013
-650.814	-173.914	-0.304	-0.009
-649.799	-200.000	-0.003	-0.016
-648.784	-139.421	0.044	-0.005
-647.770	-29.758	0.276	-0.159
-646.755	-163.035	-0.222	0.011
-645.741	188.519	-0.134	-0.203
-644.726	-80.156	0.119	0.040
-643.711	739.929	-0.023	0.063
-642.697	490.886	-0.086	0.199
-641.682	146.350	-0.123	0.166
-640.668	284.119	0.095	0.173
-639.653	-138.463	-0.107	0.012
-638.638	-115.630	-0.227	0.043
-637.624	800.000	0.066	-0.223
-636.609	800.000	0.034	-0.107
-635.595	800.000	0.062	0.186
-634.580	-24.261	0.091	-0.055
-633.565	-42.798	-0.055	-0.028
-632.551	119.312	0.206	-0.257
-631.536	-43.377	0.209	-0.107
-630.522	-200.000	-0.040	0.241
-629.507	325.527	0.131	0.252
-628.492	203.784	-0.053	-0.083
-627.478	-200.000	-0.029	-0.184
-626.463	-200.000	0.032	-0.321
-625.449	87.336	-0.179	0.200
-624.434	5.718	-0.213	-0.159
-623.419	81.704	-0.118	-0.129
-622.405	-200.000	-0.014	0.094
-621.390	-64.140	-0.198	0.081
-620.376	-123.537	-0.333	-0.053
-619.361	190.558	0.200	-0.303
-618.346	-172.048	-0.300	-0.010
-617.332	-200.000	-0.039	0.246
-616.317	54.533	0.296	0.288
-615.303	-155.344	0.181	0.012
-614.288	-167.424	-0.249	0.010
-613.273	66.674	-0.227	0.233
-612.259	-93.030	-0.381	-0.107
-611.244	-21.632	-0.302	0.185
-610.230	37.825	-0.053	0.048
-609.215	-200.000	0.008	0.194
-608.201	96.519	0.079	0.091
-607.186	20.804	-0.380	-0.311
-606.171	-200.000	0.007	0.086
-605.157	679.972	0.091	0.239
-604.142	68.795	-0.203	0.211
-603.128	347.720	-0.089	-0.176
-602.113	-85.970	0.265	0.083
-601.098	57.914	-0.107	-0.106
-600.084	164.160	0.226	0.321
-599.069	84.093	0.174	-0.192
-598.055	800.000	-0.043	-0.129
-597.040	-200.000	0.056	-0.374
-596.025	-57.887	-0.226	0.099
-595.011	68.179	-0.181	0.187
-593.996	-147.851	0.138	-0.012
-592.982	160.483	-0.145	-0.204
-591.967	-71.393	-0.198	0.075
-590.952	800.000	-0.160	0.569
-589.938	103.172	-0.100	0.118
-588.923	-43.230	0.305	-0.156
-587.909	-8.774	0.120	-0.081
-586.894	324.789	0.027	0.052
-585.879	-19.443	-0.134	-0.084
-584.865	205.230	-0.111	0.174
-583.850	-127.877	-0.120	0.017
-582.836	-134.708	-0.358	-0.044
-581.821	10.109	0.067	0.051
-580.806	-76.938	0.056	-0.020
-579.792	-200.000	0.047	-0.405
-578.777	-37.619	-0.202	-0.108
-577.763	0.157	0.274	-0.197
-576.748	58.910	0.028	0.027
-575.733	99.348	-0.127	-0.148
-574.719	800.000	-0.023	0.082
-573.704	-21.458	-0.051	-0.031
-572.690	80.584	-0.060	0.065
-571.675	-200.000	-0.021	-0.139
-570.661	111.107	-0.111	0.135
-569.646	-70.638	0.215	0.082
-568.631	-160.677	-0.474	-0.025
-567.617	699.140	-0.098	-0.259
-566.602	-61.358	-0.093	-0.039
-565.588	-106.209	0.338	0.076
-564.573	331.620	-0.195	0.380
-563.558	-200.000	-0.037	0.229
-562.544	-200.000	0.050	-0.339
-561.529	-51.216	-0.202	-0.095
-560.515	800.000	-0.078	-0.253
-559.500	395.843	-0.129	-0.272
-558.485	311.751	-0.182	-0.344
-557.471	-200.000	-0.007	-0.034
-556.456	-176.801	-0.174	0.004
-555.442	692.739	0.144	0.381
-554.427	-159.440	0.042	-0.002
-553.412	96.699	-0.155	0.179
-552.398	-121.349	0.268	-0.045
-551.383	800.000	-0.080	0.288
-550.369	786.074	-0.022	0.062
-549.354	348.440	-0.244	0.484
-548.339	-27.872	-0.165	0.096
-547.325	230.309	-0.098	-0.162
-546.310	21.338	-0.100	-0.082
-545.296	-51.890	0.116	-0.054
-544.281	218.288	0.293	0.471
-543.266	-200.000	0.010	-0.062
-542.252	-146.087	-0.214	-0.019
-541.237	79.498	0.210	0.226
-540.223	25.988	0.112	-0.094
-539.208	116.150	0.169	0.208
-538.193	33.826	-0.255	0.224
-537.179	800.000	0.075	0.231
-536.164	43.798	-0.115	-0.106
-535.150	800.000	-0.047	0.133
-534.135	800.000	0.088	0.364
-533.121	-35.838	-0.128	0.069
-532.106	-27.561	0.119	-0.070
-531.091	-108.854	0.111	0.024
-530.077	-79.814	-0.134	-0.045
-529.062	-42.545	0.320	-0.164
-528.048	57.959	0.065	0.064
-527.033	-200.000	0.000	-0.060
-526.018	614.587	0.048	-0.121
-525.004	-102.868	0.120	-0.029
-523.989	76.830	-0.183	-0.195
-522.975	23.252	-0.336	0.278
-521.960	57.704	0.217	-0.214
-520.945	321.522	-0.208	0.397
-519.931	800.000	0.057	-0.181
-518.916	188.848	0.092	-0.139
-517.902	11.085	0.205	-0.158
-516.887	5.642	0.100	0.074
-515.872	-156.666	0.291	0.018
-514.858	7.155	0.271	0.203
-513.843	-58.373	0.027	0.012
-512.829	-47.836	0.325	-0.158
-511.814	800.000	0.031	0.120
-510.799	104.248	0.095	-0.112
-509.785	62.063	0.097	-0.097
-508.770	359.348	0.057	0.115
-507.756	-57.286	-0.342	-0.151
-506.741	-200.000	0.025	-0.190
-505.726	-79.581	-0.141	0.048
-504.712	150.763	-0.066	-0.090
-503.697	494.801	0.112	-0.259
-502.683	295.608	-0.188	-0.345
-501.668	-200.000	0.005	0.309
-500.653	-200.000	-0.009	0.113
-499.639	-97.020	-0.142	-0.037
-498.624	201.217	0.024	-0.037
-497.610	-86.753	0.213	-0.065
-496.595	219.703	0.142	-0.229
-495.581	800.000	0.016	-0.067
-494.566	76.698	-0.067	0.072
-493.551	800.000	0.130	-0.477
-492.537	800.000	-0.043	-0.177
-491.522	20.899	-0.229	0.187
-490.508	722.553	0.102	0.273
-489.493	-200.000	-0.018	0.203
-488.478	-141.615	-0.158	0.016
-487.464	-139.731	0.026	0.003
-486.449	-87.938	-0.339	0.102
-485.435	800.000	-0.133	-0.401
-484.420	183.744	0.044	-0.066
-483.405	-200.000	-0.022	0.116
-482.391	100.045	0.127	0.148
-481.376	-200.000	0.045	-0.224
-480.362	97.255	-0.271	-0.312
-479.347	-198.284	0.560	0.003
-478.332	137.512	0.178	-0.233
-477.318	26.811	-0.501	0.422
-476.303	-125.255	0.256	-0.039
-475.289	-41.476	-0.144	-0.074
-474.274	21.940	0.124	0.101
-473.259	-175.026	-0.085	0.002
-472.245	-57.450	-0.236	-0.104
-471.230	-200.000	0.010	0.092
-470.216	63.497	-0.124	-0.125
-469.201	-56.348	0.075	0.033
-468.186	-118.190	0.099	-0.018
-467.172	-106.476	-0.066	-0.015
-466.157	-98.554	0.327	-0.084
-465.143	679.212	0.120	0.313
-464.128	-7.788	0.327	0.222
-463.113	-6.240	0.178	0.122
-462.099	-86.359	0.141	0.043
-461.084	-150.603	-0.070	-0.005
-460.070	164.764	-0.136	-0.193
-459.055	164.220	0.050	-0.071
-458.040	303.913	-0.042	-0.078
-457.026	-53.948	-0.129	-0.059
-456.011	-200.000	0.026	-0.204
-454.997	-96.620	-0.074	0.020
-453.982	241.250	-0.117	-0.195
-452.968	-109.865	0.138	0.029
-451.953	423.602	0.167	-0.360
-450.938	205.640	-0.127	-0.198
-449.924	-23.614	0.281	-0.169
-448.909	671.708	-0.183	0.476
-447.895	800.000	-0.066	-0.262
-446.880	-59.135	0.110	-0.048
-445.865	107.544	-0.117	0.140
-444.851	800.000	-0.073	-0.318
-443.836	-171.328	0.137	-0.005
-442.822	225.041	-0.087	-0.141
-441.807	800.000	-0.080	-0.267
-440.792	-45.626	0.142	0.071
-439.778	551.142	0.072	0.172
-438.763	-200.000	0.031	-0.151
-437.749	-156.932	-0.176	0.011
-436.734	-37.844	0.289	-0.154
-435.719	-39.522	0.322	0.169
-434.705	-200.000	-0.020	0.179
-433.690	800.000	0.044	0.176
-432.676	-21.483	0.146	-0.089
-431.661	13.503	-0.138	-0.107
-430.646	-200.000	0.317	-0.001
-429.632	-132.864	-0.074	-0.010
-428.617	-117.226	-0.239	-0.043
-427.603	144.210	0.166	-0.222
-426.588	413.612	0.065	0.139
-425.573	23.514	0.166	0.137
-424.559	305.052	0.190	0.353
-423.544	93.917	-0.046	0.052
-422.530	-200.000	-0.001	0.083
-421.515	449.041	0.041	0.091
-420.500	-200.000	-0.010	-0.404
-419.486	-117.793	0.428	-0.077
-418.471	97.068	-0.150	-0.172
-417.457	584.701	-0.025	-0.062
-416.442	-37.786	0.360	-0.192
-415.428	136.379	-0.142	0.185
-414.413	-80.792	-0.456	0.152
-413.398	132.120	0.183	-0.236
-412.384	73.172	0.080	-0.084
-411.369	240.152	-0.198	-0.331
-410.355	22.637	0.165	0.135
-409.340	55.648	-0.188	-0.182
-408.325	-22.691	-0.378	-0.229
-407.311	-36.394	-0.045	-0.024
-406.296	-200.000	0.007	-0.065
-405.282	-72.092	0.252	0.094
-404.267	-200.000	0.267	-0.001
-403.252	280.225	0.101	0.180
-402.238	-98.584	0.424	0.108
-401.223	2.473	0.198	-0.143
-400.209	800.000	-0.061	-0.186
-399.194	114.621	-0.207	-0.252
-398.179	247.774	0.068	-0.115
-397.165	-200.000	-0.025	0.165
-396.150	66.804	-0.272	-0.277
-395.136	223.172	0.063	-0.102
-394.121	348.707	-0.071	0.141
-393.106	263.528	0.043	0.074
-392.092	-133.635	0.208	-0.026
-391.077	800.000	-0.063	0.226
-390.063	-122.481	-0.113	-0.018
-389.048	-200.000	-0.011	-0.133
-388.033	97.967	-0.264	-0.304
-387.019	-31.967	-0.188	0.105
-386.004	800.000	-0.026	0.098
-384.990	-66.361	-0.171	-0.068
-383.975	-97.067	0.278	-0.073
-382.960	-70.374	-0.340	0.129
-381.946	-166.569	-0.114	0.005
-380.931	-200.000	-0.013	0.210
-379.917	376.968	0.087	-0.177
-378.902	800.000	-0.016	-0.069
-377.888	800.000	-0.110	0.387
-376.873	-200.000	-0.055	0.262
-375.858	236.402	-0.244	0.404
-374.844	117.807	0.116	0.143
-373.829	-72.183	0.131	-0.049
-372.815	-123.966	-0.197	-0.031
-371.800	-200.000	-0.004	0.026
-370.785	57.602	-0.189	0.184
-369.771	-200.000	-0.003	-0.173
-368.756	134.185	-0.139	0.180
-367.742	287.264	-0.062	-0.112
-366.727	-58.977	0.124	-0.054
-365.712	-150.275	0.171	0.013
-364.698	-104.604	0.289	0.067
-363.683	42.749	-0.316	0.288
-362.669	-200.000	-0.004	-0.147
-361.654	-35.655	0.080	0.043
-360.639	37.793	0.070	0.062
-359.625	517.662	-0.095	0.222
-358.610	6.754	0.155	0.116
-357.596	-53.320	0.106	0.048
-356.581	110.167	-0.088	-0.106
-355.566	-148.617	-0.230	-0.019
-354.552	-99.135	0.193	-0.049
-353.537	89.565	-0.076	0.085
-352.523	482.144	0.037	-0.085
-351.508	800.000	-0.069	0.255
-350.493	49.667	-0.179	-0.168
-349.479	17.047	-0.239	0.189
-348.464	-200.000	-0.047	0.272
-347.450	18.500	0.108	-0.086
-346.435	-94.480	0.154	0.042
-345.420	-200.000	0.030	-0.382
-344.406	-29.473	-0.259	-0.148
-343.391	-8.028	0.044	-0.030
-342.377	-117.806	-0.325	0.058
-341.362	-125.171	-0.092	-0.014
-340.348	78.104	0.188	0.200
-339.333	-199.229	-0.418	0.002
-338.318	-112.121	0.143	-0.029
-337.304	113.638	0.133	-0.161
-336.289	129.628	0.157	0.201
-335.275	141.284	0.215	-0.284
-334.260	-144.489	-0.088	-0.008
-333.245	743.129	0.022	-0.059
-332.231	190.421	-0.093	-0.139
-331.216	17.900	0.027	-0.021
-330.202	507.498	-0.121	0.280
-329.187	-200.000	0.051	0.359
-328.172	-200.000	0.037	-0.360
-327.158	-31.587	0.054	0.030
-326.143	-64.788	-0.098	0.040
-325.129	800.000	0.056	-0.202
-324.114	294.988	-0.171	-0.312
-323.099	-70.661	0.180	-0.068
-322.085	89.088	0.082	0.091
-321.070	-81.715	-0.018	-0.006
-320.056	28.968	0.200	0.169
-319.041	-160.152	-0.228	-0.012
-318.026	-75.662	0.380	-0.134
-317.012	349.470	0.075	0.148
-315.997	-200.000	-0.035	-0.307
-314.983	-97.652	0.141	-0.037
-313.968	800.000	0.080	-0.243
-312.953	387.588	0.090	-0.186
-311.939	27.877	-0.174	0.146
-310.924	-38.670	0.144	-0.076
-309.910	728.315	0.101	0.268
-308.895	143.662	0.218	-0.290
-307.880	128.455	-0.186	-0.237
-306.866	800.000	0.031	-0.104
-305.851	-200.000	-0.049	0.237
-304.837	-163.027	-0.179	-0.009
-303.822	-51.877	0.362	0.168
-302.807	-78.537	0.161	-0.055
-301.793	-7.407	-0.122	-0.082
-300.778	526.071	0.144	0.338
-299.764	-99.853	0.130	-0.033
-298.749	163.091	0.133	0.187
-297.735	800.000	0.076	-0.234
-296.720	30.735	-0.181	-0.154
-295.705	700.479	0.026	0.067
-294.691	235.631	0.092	0.152
-293.676	58.281	-0.060	-0.058
-292.662	110.744	-0.182	-0.218
-291.647	81.718	-0.105	-0.114
-290.632	-200.000	0.136	0.597
-289.618	-51.958	0.143	0.066
-288.603	-200.000	0.028	0.166
-287.589	-200.000	-0.021	-0.373
-286.574	-146.937	0.222	0.019
-285.559	-29.202	-0.208	-0.119
-284.545	295.225	0.121	-0.221
-283.530	18.258	0.028	-0.022
-282.516	-48.350	-0.432	0.208
-281.501	-200.000	-0.035	0.306
-280.486	-200.000	0.029	0.157
-279.472	64.606	-0.096	-0.096
-278.457	375.298	-0.021	0.043
-277.443	800.000	0.071	-0.226
-276.428	800.000	0.030	-0.118
-275.413	-76.245	0.244	0.086
-274.399	-200.000	0.062	-0.343
-273.384	-3.281	0.142	-0.098
-272.370	-173.561	-0.362	0.011
-271.355	4.071	0.174	0.126
-270.340	-71.794	0.120	0.044
-269.326	192.564	0.223	-0.334
-268.311	-33.623	-0.099	-0.054
-267.297	-71.280	0.156	-0.058
-266.282	195.960	0.123	-0.187
-265.267	205.486	0.256	0.396
-264.253	800.000	0.108	0.371
-263.238	122.863	0.203	0.252
-262.224	-200.000	-0.002	-0.080
-261.209	258.307	0.119	0.204
-260.195	53.933	0.152	0.146
-259.180	-18.849	0.062	-0.039
-258.165	11.794	-0.164	0.126
-257.151	-3.572	-0.110	-0.076
-256.136	73.508	-0.233	-0.243
-255.122	143.347	0.338	-0.447
-254.107	60.734	-0.144	0.142
-253.092	387.191	-0.014	0.029
-252.078	16.642	0.156	-0.123
-251.063	-4.235	-0.217	-0.149
-250.049	-200.000	-0.009	-0.199
-249.034	-200.000	-0.003	-0.050
-248.019	-140.721	0.380	-0.039
-247.005	-12.117	-0.069	0.045
-245.990	-18.171	0.293	-0.183
-244.976	-14.222	-0.262	0.168
-243.961	33.467	0.307	0.265
-242.946	255.420	-0.132	-0.225
-241.932	552.748	-0.021	-0.050
-240.917	800.000	0.066	0.204
-239.903	-150.228	0.261	-0.020
-238.888	-200.000	0.007	0.181
-237.873	-71.785	-0.205	0.076
-236.859	-200.000	-0.004	-0.027
-235.844	476.313	0.136	0.306
-234.830	-68.664	-0.074	0.028
-233.815	-200.000	-0.258	0.000
-232.800	274.561	0.161	0.283
-231.786	84.352	0.241	0.262
-230.771	106.977	-0.042	-0.050
-229.757	-117.016	0.257	-0.047
-228.742	-81.166	-0.136	0.045
-227.727	-133.155	-0.127	0.016
-226.713	-160.212	0.259	0.014
-225.698	-166.163	-0.285	-0.012
-224.684	-147.753	-0.084	0.007
-223.669	800.000	-0.112	0.353
-222.655	262.332	-0.045	0.078
-221.640	-200.000	0.016	0.100
-220.625	9.322	-0.198	-0.149
-219.611	101.684	0.136	-0.158
-218.596	-138.801	0.059	0.006
-217.582	-200.000	-0.005	-0.079
-216.567	-200.000	-0.007	0.050
-215.552	-52.855	-0.344	-0.157
-214.538	-57.008	0.085	0.037
-213.523	-5.562	-0.318	-0.217
-212.509	-6.903	0.329	0.222
-211.494	493.866	-0.090	0.204
-210.479	-117.250	-0.192	-0.035
-209.465	270.569	-0.082	0.143
-208.450	24.889	0.155	0.128
-207.436	-53.585	0.232	0.105
-206.421	356.291	-0.072	-0.142
-205.406	-7.800	0.135	-0.091
-204.392	-143.787	0.122	0.011
-203.377	-23.877	-0.119	-0.071
-202.363	172.470	-0.137	-0.196
-201.348	-200.000	0.012	0.108
-200.333	57.290	-0.160	0.155
-199.319	-100.143	0.049	0.012
-198.304	-200.000	0.029	0.354
-197.290	66.574	0.098	0.099
-196.275	-200.000	0.014	0.287
-195.260	38.261	-0.106	-0.094
-194.246	-28.662	0.260	0.149
-193.231	-200.000	0.027	-0.403
-192.217	109.676	-0.168	0.200
-191.202	2.607	-0.050	-0.036
-190.187	174.961	0.234	-0.336
-189.173	-139.189	0.452	0.048
-188.158	204.956	0.183	-0.281
-187.144	-149.379	0.389	-0.031
-186.129	-200.000	0.052	0.337
-185.114	-200.000	0.065	0.324
-184.100	558.016	-0.055	-0.130
-183.085	111.269	0.076	-0.091
-182.071	-85.692	-0.216	0.066
-181.056	800.000	-0.100	0.339
-180.042	319.903	-0.156	-0.295
-179.027	-180.831	-0.155	0.003
-178.012	-11.320	0.079	0.052
-176.998	-53.798	0.067	0.030
-175.983	-140.934	-0.207	0.021
-174.969	-112.638	0.333	-0.066
-173.954	130.973	0.064	0.081
-172.939	-79.180	0.084	-0.028
-171.925	65.159	-0.104	0.104
-170.910	566.604	-0.097	-0.234
-169.896	-159.169	0.072	0.004
-168.881	-51.479	0.203	0.094
-167.866	-126.318	-0.251	-0.037
-166.852	-169.293	0.325	-0.012
-165.837	2.902	-0.356	0.256
-164.823	-200.000	-0.003	0.173
-163.808	-120.366	-0.331	0.056
-162.793	292.603	-0.067	0.122
-161.779	-54.457	-0.274	-0.123
-160.764	800.000	0.068	-0.195
-159.750	301.928	-0.050	-0.092
-158.735	-149.515	-0.185	-0.015
-157.720	173.333	-0.201	-0.288
-156.706	-56.622	0.370	0.162
-155.691	800.000	-0.085	-0.264
-154.677	800.000	-0.024	-0.070
-153.662	-200.000	-0.026	-0.227
-152.647	-94.258	-0.172	0.047
-151.633	43.125	-0.128	0.115
-150.618	800.000	0.068	0.202
-149.604	14.644	0.239	0.185
-148.589	-200.000	-0.012	0.279
-147.574	-26.647	0.086	-0.050
-146.560	-111.581	-0.338	0.068
-145.545	-171.400	-0.229	-0.008
-144.531	410.235	0.031	0.064
-143.516	-94.978	-0.285	0.076
-142.502	165.453	-0.136	-0.190
-141.487	771.311	-0.058	-0.156
-140.472	113.099	-0.150	-0.180
-139.458	-114.089	-0.352	0.068
-138.443	108.459	-0.062	-0.073
-137.429	314.207	-0.157	-0.293
-136.414	152.385	-0.316	0.427
-135.399	-200.000	0.007	0.137
-134.385	-200.000	0.039	-0.256
-133.370	-130.296	0.101	0.014
-132.356	-51.159	-0.224	-0.104
-131.341	800.000	0.070	0.217
-130.326	61.383	-0.051	0.050
-129.312	62.894	-0.151	-0.150
-128.297	-152.051	0.348	-0.025
-127.283	202.447	-0.193	0.294
-126.268	800.000	-0.023	0.065
-125.253	36.468	-0.139	-0.121
-124.239	-167.592	-0.034	0.001
-123.224	800.000	-0.027	0.116
-122.210	56.595	-0.058	0.055
-121.195	-23.379	0.131	-0.078
