DTS Sentinel unit serial number:	SN413079Multiplexer serial number:	ORYXHardware model number:	OX4-SRSoftware version number:	ORYX F/W v4.00 Oryx Data Collector v3.7.2.0data status	okinstallation	princeton_trtdifferential loss correction	single-endedforward channel	channel 1reverse channel	N/Adate	2019/09/17time	20:46:35forward acquisition time	60.00reverse acquisition time	0.00gamma	496.2192k internal	0.2332k external	0.2332temperature offset calibration	0.9980default loss term (dB/km)	0.3790temperature slope calibration	1.0000multiplexer offset coefficient	1.0000multiplexer slope coefficient	1.0000fibre end	0.00T internal ref (°C)	29.48T ext. ref 1 (°C)	0.21T ext. ref 2 (°C)	20.78length (m)	temperature (°C)	Stokes	anti-Stokes-747.200	18.346	0.301	-0.242
-746.185	44.126	-0.249	0.230
-745.171	308.305	0.063	-0.118
-744.156	800.000	0.077	0.268
-743.142	-200.000	0.103	0.495
-742.127	27.955	-0.204	-0.173
-741.112	800.000	-0.130	0.384
-740.098	422.963	0.071	-0.153
-739.083	-12.072	-0.182	-0.120
-738.069	-200.000	0.057	0.372
-737.054	440.825	0.161	0.355
-736.039	-200.000	-0.013	0.344
-735.025	-10.195	-0.137	0.091
-734.010	190.806	0.076	-0.115
-732.996	57.981	-0.109	-0.108
-731.981	-2.169	-0.087	-0.062
-730.966	-200.000	0.018	-0.115
-729.952	22.934	-0.147	-0.122
-728.937	67.316	-0.234	-0.240
-727.923	127.042	-0.149	0.190
-726.908	777.570	-0.029	0.080
-725.894	489.617	0.066	-0.152
-724.879	-54.314	-0.298	-0.136
-723.864	430.667	-0.151	-0.330
-722.850	-178.019	0.151	0.004
-721.835	800.000	0.017	0.057
-720.821	-131.396	0.068	0.009
-719.806	574.024	0.086	-0.210
-718.791	-6.969	0.337	-0.230
-717.777	-200.000	0.005	-0.219
-716.762	-50.210	0.120	0.057
-715.748	83.441	-0.159	-0.174
-714.733	-47.001	-0.132	0.065
-713.718	-193.208	-0.321	-0.003
-712.704	153.142	-0.115	0.158
-711.689	-59.631	-0.282	0.121
-710.675	244.006	-0.213	0.358
-709.660	425.978	-0.131	-0.283
-708.645	-200.000	0.036	-0.172
-707.631	-73.335	-0.108	-0.040
-706.616	335.979	-0.074	-0.144
-705.602	-200.000	-0.053	-0.251
-704.587	13.213	0.030	-0.023
-703.572	-200.000	-0.016	0.281
-702.558	800.000	-0.064	0.241
-701.543	185.938	-0.099	0.148
-700.529	-102.716	-0.202	0.048
-699.514	124.992	-0.211	-0.266
-698.499	-171.907	0.133	0.004
-697.485	-200.000	-0.076	-0.472
-696.470	-107.196	-0.079	-0.017
-695.456	-22.849	-0.326	-0.198
-694.441	-200.000	0.027	-0.275
-693.426	-99.081	0.053	-0.014
-692.412	800.000	-0.026	0.085
-691.397	-176.987	-0.177	-0.004
-690.383	800.000	-0.083	0.300
-689.368	-200.000	0.026	-0.216
-688.354	800.000	-0.041	0.172
-687.339	-32.898	0.090	0.050
-686.324	250.467	-0.075	0.128
-685.310	-200.000	0.261	0.001
-684.295	-171.733	0.345	-0.011
-683.281	285.349	-0.119	-0.215
-682.266	-64.434	0.431	-0.176
-681.251	305.960	0.101	0.188
-680.237	-200.000	0.036	0.284
-679.222	263.977	-0.089	0.156
-678.208	24.153	-0.245	0.203
-677.193	164.714	0.193	0.273
-676.178	-5.235	-0.115	-0.080
-675.164	-200.000	-0.009	-0.098
-674.149	-109.576	0.077	0.016
-673.135	69.456	0.230	0.238
-672.120	-200.000	-0.003	-0.110
-671.105	99.906	0.205	0.238
-670.091	621.275	0.077	-0.193
-669.076	-39.966	-0.269	-0.141
-668.062	353.940	0.068	-0.135
-667.047	-200.000	0.015	0.214
-666.032	-18.394	-0.344	-0.216
-665.018	-200.000	0.021	-0.160
-664.003	-187.271	-0.047	0.001
-662.989	-159.961	-0.204	-0.011
-661.974	-23.733	0.123	-0.074
-660.959	800.000	-0.022	-0.071
-659.945	225.555	0.023	-0.037
-658.930	-9.927	0.186	-0.124
-657.916	-200.000	0.004	-0.119
-656.901	800.000	0.041	-0.165
-655.886	140.022	-0.166	0.219
-654.872	-112.456	-0.327	-0.065
-653.857	240.871	0.125	0.210
-652.843	-96.556	-0.292	-0.077
-651.828	173.261	-0.244	-0.353
-650.814	-5.057	-0.090	-0.062
-649.799	-104.069	-0.322	0.075
-648.784	620.469	0.209	0.528
-647.770	149.906	-0.291	-0.396
-646.755	32.696	0.118	-0.102
-645.741	-8.832	-0.179	0.120
-644.726	-67.176	-0.125	0.049
-643.711	-39.865	-0.157	0.082
-642.697	9.705	-0.164	-0.125
-641.682	-113.553	0.295	0.058
-640.668	-45.137	-0.287	0.143
-639.653	-200.000	0.020	0.182
-638.638	-200.000	-0.004	-0.143
-637.624	202.414	0.147	0.228
-636.609	-178.287	0.214	0.005
-635.595	-200.000	0.016	-0.257
-634.580	48.049	0.127	-0.119
-633.565	800.000	-0.050	0.202
-632.551	-200.000	0.014	0.146
-631.536	-71.283	-0.146	0.055
-630.522	-104.199	0.407	0.095
-629.507	49.760	0.184	-0.174
-628.492	-96.773	-0.211	0.055
-627.478	94.526	-0.148	-0.168
-626.463	-59.531	-0.217	-0.094
-625.449	436.857	0.054	0.118
-624.434	800.000	-0.123	-0.442
-623.419	-200.000	0.022	0.151
-622.405	23.654	-0.160	0.132
-621.390	-55.262	0.177	0.080
-620.376	-200.000	0.025	-0.443
-619.361	-200.000	-0.026	0.154
-618.346	-200.000	0.018	-0.135
-617.332	800.000	0.090	0.307
-616.317	-200.000	-0.013	0.129
-615.303	800.000	0.043	0.167
-614.288	187.309	0.068	-0.101
-613.273	800.000	-0.078	-0.252
-612.259	-77.358	-0.518	-0.180
-611.244	19.761	-0.147	0.119
-610.230	-140.763	-0.128	0.013
-609.215	-200.000	-0.011	-0.070
-608.201	143.523	-0.185	0.247
-607.186	-56.537	0.276	-0.123
-606.171	-34.407	-0.102	-0.056
-605.157	683.037	0.124	0.323
-604.142	85.771	0.265	0.292
-603.128	800.000	-0.042	-0.120
-602.113	-98.676	0.262	-0.067
-601.098	-137.140	0.247	-0.028
-600.084	-152.911	-0.252	-0.018
-599.069	-200.000	0.004	0.184
-598.055	445.329	0.135	-0.298
-597.040	192.923	-0.144	-0.218
-596.025	61.325	0.242	-0.241
-595.011	149.451	0.055	-0.075
-593.996	-82.406	0.318	0.103
-592.982	-98.649	-0.266	-0.068
-591.967	-79.134	-0.308	-0.105
-590.952	110.882	-0.139	0.168
-589.938	-200.000	-0.082	-0.402
-588.923	94.346	-0.114	0.130
-587.909	22.069	0.246	-0.201
-586.894	-95.473	0.174	0.047
-585.879	800.000	-0.071	0.237
-584.865	-200.000	-0.051	0.367
-583.850	17.147	0.194	-0.154
-582.836	62.157	0.079	-0.079
-581.821	-141.618	-0.235	-0.024
-580.806	-28.979	-0.245	0.141
-579.792	302.756	0.031	0.058
-578.777	121.713	-0.183	0.228
-577.763	-89.629	0.113	-0.033
-576.748	151.944	-0.330	-0.449
-575.733	614.698	0.107	-0.268
-574.719	-200.000	0.031	-0.271
-573.704	-200.000	-0.022	0.286
-572.690	-144.714	0.048	-0.004
-571.675	-200.000	0.003	0.081
-570.661	100.005	0.163	-0.188
-569.646	73.097	-0.255	-0.267
-568.631	-124.172	-0.381	0.060
-567.617	88.731	-0.342	-0.381
-566.602	-85.022	-0.125	0.039
-565.588	351.382	0.101	-0.199
-564.573	-162.927	-0.091	-0.004
-563.558	-63.691	-0.114	-0.047
-562.544	-17.863	-0.215	-0.135
-561.529	-45.748	0.083	0.041
-560.515	167.557	-0.068	0.096
-559.500	-52.771	0.224	-0.103
-558.485	-1.478	-0.232	0.164
-557.471	-81.567	0.157	-0.052
-556.456	-49.842	-0.620	0.294
-555.442	-12.897	0.198	0.128
-554.427	-77.951	-0.156	0.054
-553.412	-200.000	0.003	0.135
-552.398	-106.176	-0.163	-0.037
-551.383	483.861	-0.049	-0.111
-550.369	25.920	0.304	0.253
-549.354	-45.854	0.256	0.126
-548.339	0.499	-0.187	-0.133
-547.325	-21.920	0.137	-0.083
-546.310	-21.207	-0.076	0.047
-545.296	-145.209	0.263	-0.024
-544.281	634.494	0.092	-0.233
-543.266	-0.299	0.113	-0.080
-542.252	-37.095	-0.161	0.086
-541.237	-200.000	-0.053	0.319
-540.223	-134.836	0.138	0.017
-539.208	428.924	-0.057	-0.123
-538.193	344.713	0.112	0.219
-537.179	800.000	0.051	-0.218
-536.164	-139.063	0.079	-0.009
-535.150	151.677	0.187	-0.254
-534.135	28.382	0.292	0.246
-533.121	-59.876	0.198	0.084
-532.106	-27.076	0.279	-0.162
-531.091	-200.000	0.041	-0.332
-530.077	-66.181	-0.313	-0.125
-529.062	145.270	0.172	-0.230
-528.048	-128.145	-0.275	0.039
-527.033	95.807	-0.196	0.223
-526.018	49.371	0.167	-0.157
-525.004	81.343	0.064	-0.069
-523.989	-136.181	-0.133	-0.016
-522.975	800.000	0.082	0.297
-521.960	-177.981	0.054	-0.001
-520.945	-200.000	-0.055	0.284
-519.931	-113.409	0.180	-0.035
-518.916	780.323	0.057	0.155
-517.902	-64.340	0.127	-0.052
-516.887	98.812	-0.173	-0.199
-515.872	122.591	-0.162	-0.202
-514.858	800.000	0.029	0.097
-513.843	-73.323	-0.262	-0.096
-512.829	-43.901	-0.230	-0.115
-511.814	253.054	0.125	-0.212
-510.799	-200.000	-0.030	-0.356
-509.785	-170.511	-0.159	0.006
-508.770	517.668	-0.046	0.107
-507.756	-73.101	0.259	-0.095
-506.741	199.532	-0.093	-0.141
-505.726	-200.000	-0.001	-0.583
-504.712	136.413	-0.221	-0.288
-503.697	433.576	0.183	-0.396
-502.683	57.108	0.124	-0.121
-501.668	-12.950	0.373	-0.242
-500.653	11.591	0.215	0.164
-499.639	-140.754	0.235	-0.024
-498.624	101.591	-0.071	0.082
-497.610	800.000	0.057	0.221
-496.595	123.704	-0.139	0.174
-495.581	-93.624	-0.275	-0.076
-494.566	-64.743	0.169	-0.068
-493.551	434.817	0.074	-0.160
-492.537	-119.249	-0.181	0.031
-491.522	-56.292	0.059	0.026
-490.508	-200.000	0.014	-0.136
-489.493	800.000	0.071	-0.218
-488.478	-54.128	0.131	-0.059
-487.464	-200.000	0.041	-0.227
-486.449	314.559	-0.222	0.416
-485.435	191.924	-0.131	0.196
-484.420	80.341	-0.139	-0.149
-483.405	353.110	-0.127	0.251
-482.391	-6.357	-0.270	0.184
-481.376	20.788	0.103	-0.083
-480.362	-52.404	-0.387	0.178
-479.347	-122.763	-0.171	0.027
-478.332	102.092	0.100	-0.116
-477.318	-200.000	-0.051	-0.316
-476.303	19.421	-0.190	-0.152
-475.289	13.882	0.310	0.240
-474.274	800.000	0.024	0.077
-473.259	187.105	-0.185	-0.275
-472.245	-145.720	-0.164	-0.015
-471.230	-63.939	0.234	0.095
-470.216	-53.035	-0.118	-0.054
-469.201	-156.318	0.027	0.002
-468.186	-63.285	-0.110	0.045
-467.172	-122.488	-0.128	-0.021
-466.157	-200.000	0.151	0.000
-465.143	145.812	-0.143	-0.191
-464.128	279.157	0.142	0.252
-463.113	800.000	0.057	0.217
-462.099	-36.347	-0.108	0.058
-461.084	792.086	0.056	-0.152
-460.070	145.168	0.122	-0.163
-459.055	-200.000	-0.016	-0.264
-458.040	-46.444	0.292	-0.142
-457.026	-187.879	0.152	0.002
-456.011	-9.242	-0.197	0.131
-454.997	696.390	-0.092	-0.242
-453.982	800.000	0.037	-0.112
-452.968	-146.553	-0.185	-0.016
-451.953	14.541	0.169	0.131
-450.938	-56.738	0.049	-0.022
-449.924	-200.000	-0.183	-0.001
-448.909	-5.380	-0.184	-0.126
-447.895	800.000	-0.090	-0.386
-446.880	-85.948	0.239	0.074
-445.865	536.918	-0.056	0.133
-444.851	-116.335	0.228	0.042
-443.836	-63.631	-0.152	-0.062
-442.822	-89.417	0.280	0.082
-441.807	-28.799	-0.260	-0.149
-440.792	-1.849	-0.368	0.258
-439.778	-89.273	-0.260	0.076
-438.763	-200.000	-0.067	-0.376
-437.749	266.048	0.153	0.266
-436.734	-100.779	-0.300	0.073
-435.719	-71.056	-0.148	0.055
-434.705	334.570	-0.082	0.159
-433.690	427.106	-0.094	0.203
-432.676	84.341	0.115	0.125
-431.661	22.846	0.034	0.028
-430.646	-200.000	-0.001	0.107
-429.632	800.000	0.077	0.320
-428.617	156.448	0.061	-0.084
-427.603	-37.017	0.201	0.107
-426.588	800.000	-0.093	-0.375
-425.573	28.767	-0.026	-0.022
-424.559	20.332	0.344	0.276
-423.544	-56.388	0.324	0.143
-422.530	-200.000	0.004	-0.064
-421.515	37.721	0.251	0.221
-420.500	197.817	-0.128	0.194
-419.486	81.498	-0.075	-0.081
-418.471	104.330	0.236	0.276
-417.457	-200.000	0.074	0.405
-416.442	-200.000	0.006	-0.058
-415.428	-200.000	0.016	0.185
-414.413	-61.135	-0.129	-0.054
-413.398	-200.000	0.023	-0.108
-412.384	-12.713	-0.062	0.040
-411.369	800.000	-0.096	-0.271
-410.355	75.880	-0.189	-0.199
-409.340	135.072	-0.300	0.387
-408.325	-149.338	-0.138	0.011
-407.311	743.446	0.114	-0.305
-406.296	-174.460	0.285	-0.008
-405.282	-200.000	-0.038	-0.195
-404.267	-70.301	-0.099	-0.037
-403.252	471.253	0.190	-0.424
-402.238	138.902	-0.091	0.119
-401.223	15.612	-0.124	0.097
-400.209	-200.000	0.011	0.082
-399.194	-84.575	0.369	0.116
-398.179	-7.437	0.174	-0.117
-397.165	171.720	0.131	-0.187
-396.150	-63.501	0.248	0.101
-395.136	14.128	-0.118	-0.091
-394.121	20.390	-0.309	0.248
-393.106	-40.063	0.230	-0.119
-392.092	-75.189	-0.140	-0.050
-391.077	-186.079	0.120	0.002
-390.063	3.038	0.067	0.048
-389.048	56.009	-0.301	-0.290
-388.033	6.453	-0.209	0.154
-387.019	-200.000	-0.049	0.284
-386.004	800.000	-0.079	0.228
-384.990	-200.000	0.032	0.183
-383.975	-200.000	0.026	-0.123
-382.960	800.000	0.031	0.106
-381.946	-200.000	-0.013	0.265
-380.931	149.466	-0.159	0.214
-379.917	78.710	-0.048	-0.051
-378.902	190.280	0.116	0.172
-377.888	50.374	0.152	0.142
-376.873	356.692	-0.121	0.240
-375.858	800.000	-0.031	-0.130
-374.844	800.000	0.068	0.235
-373.829	93.486	0.032	-0.036
-372.815	326.782	-0.020	-0.039
-371.800	16.694	-0.135	0.106
-370.785	67.009	0.018	0.018
-369.771	-32.118	-0.050	-0.028
-368.756	-19.144	-0.083	-0.051
-367.742	-101.978	-0.263	0.063
-366.727	-200.000	-0.028	0.280
-365.712	-200.000	0.064	-0.286
-364.698	800.000	-0.079	-0.222
-363.683	331.432	-0.133	-0.254
-362.669	231.391	0.095	0.155
-361.654	166.021	0.138	0.194
-360.639	-31.941	0.090	0.050
-359.625	800.000	-0.064	-0.187
-358.610	115.495	0.073	0.088
-357.596	-122.401	-0.188	0.030
-356.581	225.070	-0.250	-0.401
-355.566	-158.011	-0.255	0.015
-354.552	303.583	0.133	-0.244
-353.537	800.000	0.093	0.297
-352.523	-48.496	-0.160	0.076
-351.508	-0.985	-0.181	-0.127
-350.493	238.882	0.207	0.341
-349.479	434.858	0.087	-0.188
-348.464	800.000	0.075	0.288
-347.450	-109.665	0.259	0.054
-346.435	-200.000	0.061	0.300
-345.420	455.090	-0.101	-0.221
-344.406	800.000	-0.106	0.351
-343.391	-92.576	0.180	-0.050
-342.377	-13.780	-0.298	0.191
-341.362	800.000	0.057	-0.241
-340.348	-57.967	0.157	0.068
-339.333	-105.603	0.204	-0.046
-338.318	-94.331	-0.345	-0.093
-337.304	155.522	-0.237	0.324
-336.289	22.850	-0.052	0.042
-335.275	38.454	-0.401	-0.354
-334.260	-14.324	-0.389	0.248
-333.245	-200.000	-0.022	0.327
-332.231	-200.000	-0.002	0.184
-331.216	-100.277	0.143	0.035
-330.202	97.874	0.142	-0.161
-329.187	-200.000	0.004	-0.259
-328.172	800.000	0.087	-0.265
-327.158	-152.875	0.188	-0.013
-326.143	91.530	-0.168	0.187
-325.129	-21.583	-0.122	-0.074
-324.114	111.191	-0.110	0.132
-323.099	800.000	-0.069	0.219
-322.085	-200.000	0.045	-0.230
-321.070	140.799	0.078	0.102
-320.056	-200.000	-0.019	0.220
-319.041	-200.000	-0.056	0.573
-318.026	-21.085	-0.213	-0.129
-317.012	77.958	0.141	0.148
-315.997	-200.000	0.097	0.455
-314.983	-200.000	-0.012	0.187
-313.968	-81.479	-0.096	0.031
-312.953	-65.525	0.319	0.127
-311.939	-130.226	-0.100	0.013
-310.924	-200.000	-0.020	-0.140
-309.910	-15.753	0.043	-0.027
-308.895	-19.410	0.131	0.080
-307.880	-200.000	-0.081	0.419
-306.866	-42.623	0.111	-0.056
-305.851	71.377	0.264	0.271
-304.837	545.186	0.011	-0.026
-303.822	232.511	0.091	-0.148
-302.807	184.198	-0.082	-0.120
-301.793	56.608	-0.312	-0.300
-300.778	219.992	-0.030	-0.047
-299.764	800.000	-0.048	0.168
-298.749	-66.481	-0.292	-0.115
-297.735	-2.047	0.228	-0.159
-296.720	77.278	-0.190	-0.200
-295.705	12.181	0.201	-0.153
-294.691	-25.307	0.257	0.150
-293.676	223.492	0.067	-0.107
-292.662	5.714	0.181	0.132
-291.647	110.270	0.203	-0.240
-290.632	78.852	0.171	-0.181
-289.618	-62.453	0.087	0.036
-288.603	-165.609	0.257	0.011
-287.589	-21.483	-0.342	-0.206
-286.574	107.884	0.061	-0.071
-285.559	-200.000	0.006	-0.608
-284.545	-200.000	-0.002	-0.047
-283.530	-11.972	-0.345	-0.224
-282.516	46.721	0.424	0.389
-281.501	-116.820	0.119	0.021
-280.486	24.804	-0.123	-0.101
-279.472	800.000	0.051	-0.150
-278.457	-55.509	-0.278	-0.123
-277.443	-200.000	0.005	-0.190
-276.428	414.864	-0.101	-0.212
-275.413	-39.115	0.099	-0.051
-274.399	18.687	0.290	-0.229
-273.384	-120.315	-0.063	0.011
-272.370	-113.236	0.331	-0.064
-271.355	152.719	-0.038	0.051
-270.340	-141.734	0.127	-0.013
-269.326	-2.656	-0.149	-0.103
-268.311	-78.121	0.153	-0.052
-267.297	-142.175	0.246	-0.024
-266.282	800.000	-0.076	0.233
-265.267	-95.266	-0.149	0.040
-264.253	1.525	-0.258	0.183
-263.238	-127.901	-0.365	0.052
-262.224	-92.324	0.240	-0.067
-261.209	25.489	-0.117	-0.096
-260.195	383.426	-0.081	0.166
-259.180	800.000	-0.070	0.221
-258.165	-200.000	0.060	0.296
-257.151	-200.000	-0.036	0.261
-256.136	-200.000	-0.031	-0.211
-255.122	278.090	0.244	-0.428
-254.107	800.000	-0.084	0.323
-253.092	37.767	0.191	0.168
-252.078	-200.000	-0.020	-0.322
-251.063	539.328	-0.058	0.136
-250.049	-19.478	0.076	0.046
-249.034	-62.579	0.299	0.123
-248.019	-118.652	0.369	-0.064
-247.005	617.543	0.065	0.161
-245.990	52.091	0.180	-0.169
-244.976	800.000	0.036	0.137
-243.961	800.000	-0.028	0.077
-242.946	25.804	-0.319	0.262
-241.932	117.768	-0.282	0.343
-240.917	516.626	-0.089	-0.205
-239.903	81.277	0.115	0.123
-238.888	-65.321	0.379	-0.151
-237.873	-200.000	-0.012	-0.116
-236.859	-113.679	0.085	0.016
-235.844	151.460	-0.102	-0.137
-234.830	800.000	-0.064	-0.226
-233.815	96.957	-0.152	-0.172
-232.800	188.438	-0.038	-0.057
-231.786	33.265	0.153	-0.131
-230.771	472.863	-0.047	0.105
-229.757	-132.516	-0.248	0.032
-228.742	-200.000	0.020	-0.228
-227.727	21.651	0.236	-0.190
-226.713	-200.000	-0.009	0.104
-225.698	193.314	0.049	-0.073
-224.684	74.032	0.125	0.130
-223.669	94.908	0.103	-0.116
-222.655	-200.000	-0.003	-0.054
-221.640	153.314	0.057	0.078
-220.625	15.538	0.344	0.266
-219.611	174.096	0.110	-0.157
-218.596	-200.000	-0.027	0.139
-217.582	-134.434	-0.609	-0.074
-216.567	-59.580	0.296	-0.125
-215.552	-161.390	0.062	0.003
-214.538	238.305	0.091	-0.149
-213.523	199.599	0.186	-0.280
-212.509	-19.106	0.217	0.133
-211.494	-200.000	0.013	0.143
-210.479	-200.000	0.009	-0.183
-209.465	-68.077	0.148	0.057
-208.450	-151.577	-0.152	0.011
-207.436	-200.000	-0.002	-0.040
-206.421	211.284	-0.039	0.060
-205.406	800.000	0.068	-0.219
-204.392	-122.556	-0.253	-0.041
-203.377	-160.694	-0.147	-0.008
-202.363	-128.469	-0.218	-0.030
-201.348	-200.000	-0.077	0.363
-200.333	-106.740	0.035	-0.008
-199.319	497.852	-0.057	0.129
-198.304	800.000	0.059	-0.229
-197.290	-26.998	-0.158	0.091
-196.275	480.363	0.070	0.156
-195.260	49.131	0.315	-0.291
-194.246	249.504	-0.117	-0.195
-193.231	800.000	0.078	0.283
-192.217	87.081	-0.250	-0.272
-191.202	46.857	0.142	-0.130
-190.187	-39.301	0.083	-0.043
-189.173	183.095	0.058	-0.084
-188.158	800.000	0.089	-0.275
-187.144	-181.109	0.111	-0.002
-186.129	-146.687	0.185	-0.016
-185.114	-61.644	-0.040	0.017
-184.100	86.594	0.269	-0.292
-183.085	11.431	0.243	0.183
-182.071	-200.000	-0.015	0.329
-181.056	134.790	0.161	0.206
-180.042	269.941	0.128	0.221
-179.027	-139.855	-0.169	-0.018
-178.012	48.645	0.214	0.198
-176.998	-44.530	0.222	-0.109
-175.983	313.821	0.088	0.163
-174.969	-49.067	-0.072	0.034
-173.954	-104.110	0.380	0.087
-172.939	-121.118	-0.180	0.030
-171.925	-69.275	-0.214	-0.081
-170.910	800.000	0.107	0.312
-169.896	-33.354	-0.348	0.190
-168.881	347.732	-0.040	0.077
-167.866	-60.093	-0.065	0.027
-166.852	-52.763	0.236	-0.107
-165.837	147.528	-0.168	-0.222
-164.823	-120.325	-0.099	0.017
-163.808	-200.000	-0.043	0.233
-162.793	322.744	-0.095	0.178
-161.779	-200.000	0.002	-0.122
-160.764	-200.000	0.013	0.396
-159.750	25.949	-0.070	-0.057
-158.735	-75.001	0.171	-0.060
-157.720	-92.128	0.205	-0.057
-156.706	-60.098	-0.434	-0.182
-155.691	81.547	0.166	0.177
-154.677	-115.440	0.362	0.067
-153.662	13.851	0.193	0.147
-152.647	-86.087	0.125	-0.038
-151.633	800.000	-0.026	-0.081
-150.618	287.205	-0.074	0.132
-149.604	-200.000	-0.011	0.212
-148.589	-200.000	-0.000	-0.391
-147.574	-37.388	-0.087	0.046
-146.560	154.217	0.164	-0.221
-145.545	-151.915	-0.339	-0.024
-144.531	-200.000	0.020	0.295
-143.516	-200.000	0.035	0.280
-142.502	-200.000	0.014	0.520
-141.487	-47.420	-0.428	-0.204
-140.472	-200.000	-0.015	-0.368
-139.458	8.995	0.334	0.248
-138.443	376.684	-0.128	0.256
-137.429	800.000	-0.079	0.271
-136.414	-96.441	-0.250	0.065
-135.399	640.299	-0.036	0.090
-134.385	50.178	-0.092	0.085
-133.370	572.689	0.070	0.166
-132.356	112.598	0.187	-0.223
-131.341	-9.912	0.367	0.240
-130.326	739.416	-0.072	-0.189
-129.312	-59.687	-0.123	0.052
-128.297	-55.029	-0.176	-0.078
-127.283	120.976	-0.226	0.276
-126.268	-50.079	-0.138	-0.064
-125.253	609.807	-0.043	-0.105
-124.239	-43.308	0.177	-0.088
-123.224	-160.118	0.180	0.010
-122.210	-4.818	-0.138	0.094
-121.195	-14.097	0.124	0.078
