DTS Sentinel unit serial number:	SN413079Multiplexer serial number:	ORYXHardware model number:	OX4-SRSoftware version number:	ORYX F/W v4.00 Oryx Data Collector v3.7.2.0data status	okinstallation	princeton_trtdifferential loss correction	single-endedforward channel	channel 1reverse channel	N/Adate	2019/09/19time	04:58:35forward acquisition time	60.00reverse acquisition time	0.00gamma	496.2192k internal	0.2343k external	0.2343temperature offset calibration	1.0018default loss term (dB/km)	0.3790temperature slope calibration	1.0000multiplexer offset coefficient	1.0000multiplexer slope coefficient	1.0000fibre end	0.00T internal ref (°C)	19.75T ext. ref 1 (°C)	0.61T ext. ref 2 (°C)	12.97length (m)	temperature (°C)	Stokes	anti-Stokes-747.200	-200.000	0.018	0.105
-746.185	202.561	-0.187	0.290
-745.171	22.668	-0.309	-0.254
-744.156	263.553	-0.115	0.201
-743.142	-18.817	-0.181	0.113
-742.127	760.224	-0.093	-0.254
-741.112	800.000	-0.025	0.091
-740.098	-120.760	0.180	0.030
-739.083	183.239	0.092	-0.136
-738.069	33.970	0.126	0.109
-737.054	-94.255	-0.191	0.052
-736.039	-200.000	-0.002	-0.200
-735.025	240.554	-0.021	-0.035
-734.010	-80.184	0.266	-0.089
-732.996	-200.000	0.011	-0.072
-731.981	48.144	0.243	-0.228
-730.966	-131.843	-0.139	-0.018
-729.952	-48.202	0.160	0.077
-728.937	-200.000	0.073	-0.331
-727.923	-200.000	0.043	-0.278
-726.908	659.394	0.049	-0.127
-725.894	22.822	-0.047	-0.038
-724.879	444.405	0.098	-0.216
-723.864	800.000	0.080	-0.328
-722.850	97.101	-0.201	-0.231
-721.835	800.000	0.074	-0.243
-720.821	283.247	-0.084	-0.151
-719.806	800.000	0.096	-0.391
-718.791	276.590	-0.225	0.399
-717.777	80.562	-0.066	-0.071
-716.762	-200.000	-0.056	-0.301
-715.748	-137.542	-0.006	-0.001
-714.733	617.005	0.084	0.211
-713.718	-29.185	-0.103	-0.059
-712.704	-67.491	-0.046	0.018
-711.689	18.435	-0.217	-0.174
-710.675	12.607	0.043	0.033
-709.660	164.261	-0.054	0.076
-708.645	-173.309	0.280	-0.009
-707.631	-24.640	0.137	-0.081
-706.616	147.435	0.080	-0.108
-705.602	-2.911	-0.150	0.105
-704.587	132.145	0.157	0.202
-703.572	114.057	-0.063	-0.077
-702.558	-35.695	0.070	-0.038
-701.543	-76.482	0.231	-0.081
-700.529	61.403	0.136	-0.135
-699.514	-85.110	-0.083	-0.026
-698.499	165.018	0.124	-0.175
-697.485	-200.000	0.038	0.175
-696.470	524.096	-0.035	-0.082
-695.456	-142.146	0.038	-0.004
-694.441	-200.000	0.029	-0.131
-693.426	-71.588	0.055	-0.021
-692.412	208.731	0.040	0.062
-691.397	-79.224	-0.426	-0.144
-690.383	-84.998	0.225	-0.070
-689.368	-138.692	0.256	-0.028
-688.354	22.260	-0.055	0.045
-687.339	786.898	0.040	0.109
-686.324	-2.473	-0.130	-0.091
-685.310	800.000	-0.073	0.232
-684.295	-158.663	0.117	-0.007
-683.281	-200.000	0.052	0.266
-682.266	-111.628	0.135	-0.027
-681.251	-200.000	0.007	-0.247
-680.237	95.896	-0.163	0.186
-679.222	-84.957	0.107	-0.033
-678.208	-76.950	-0.305	0.106
-677.193	800.000	-0.039	-0.165
-676.178	-117.167	0.149	-0.027
-675.164	145.923	0.129	0.173
-674.149	-52.500	0.082	0.038
-673.135	242.762	0.174	-0.292
-672.120	800.000	-0.079	0.272
-671.105	800.000	-0.082	0.327
-670.091	-200.000	-0.015	0.220
-669.076	-200.000	0.025	0.156
-668.062	585.899	-0.075	-0.184
-667.047	800.000	-0.024	0.103
-666.032	-42.408	-0.148	-0.075
-665.018	-22.788	-0.223	-0.135
-664.003	-154.409	-0.117	0.008
-662.989	-8.511	-0.063	0.042
-661.974	403.401	-0.085	0.179
-660.959	-129.376	0.096	-0.013
-659.945	-60.726	-0.232	0.098
-658.930	-63.144	-0.437	-0.180
-657.916	-33.845	-0.084	-0.046
-656.901	131.499	-0.074	0.095
-655.886	-35.573	-0.616	-0.333
-654.872	-107.489	-0.493	-0.108
-653.857	-104.137	0.331	0.077
-652.843	197.362	-0.060	0.091
-651.828	-152.941	0.283	-0.020
-650.814	-129.165	-0.363	0.051
-649.799	98.443	0.323	0.371
-648.784	86.507	0.179	-0.196
-647.770	-200.000	0.038	-0.323
-646.755	-200.000	-0.023	-0.121
-645.741	-120.311	-0.129	-0.022
-644.726	-40.901	-0.206	0.106
-643.711	61.125	-0.162	0.161
-642.697	112.649	-0.166	-0.201
-641.682	245.768	-0.106	0.177
-640.668	-74.609	0.464	-0.166
-639.653	83.348	-0.060	-0.066
-638.638	-53.230	-0.353	0.162
-637.624	800.000	0.073	0.292
-636.609	-1.367	-0.146	-0.103
-635.595	-154.636	-0.305	-0.020
-634.580	67.857	0.256	0.261
-633.565	-200.000	0.021	0.184
-632.551	-200.000	-0.010	-0.547
-631.536	35.775	-0.196	-0.172
-630.522	161.553	0.056	0.078
-629.507	91.516	-0.139	0.156
-628.492	544.916	-0.074	0.177
-627.478	-70.276	0.074	-0.028
-626.463	-200.000	-0.029	0.194
-625.449	-43.521	-0.171	0.086
-624.434	-200.000	0.013	0.058
-623.419	-78.903	-0.073	0.025
-622.405	162.776	-0.188	-0.263
-621.390	139.708	0.191	-0.251
-620.376	-200.000	-0.015	-0.092
-619.361	-108.672	0.265	-0.057
-618.346	20.322	0.195	0.157
-617.332	-173.476	-0.056	-0.002
-616.317	800.000	0.102	-0.414
-615.303	297.496	0.099	0.180
-614.288	-200.000	-0.001	-0.202
-613.273	633.011	-0.123	-0.312
-612.259	800.000	0.027	0.096
-611.244	-135.783	0.088	0.010
-610.230	-95.427	-0.123	0.033
-609.215	276.014	-0.037	-0.066
-608.201	-168.645	0.229	-0.009
-607.186	-34.834	0.192	-0.104
-606.171	-200.000	-0.016	-0.080
-605.157	-200.000	-0.017	-0.090
-604.142	800.000	0.005	0.018
-603.128	-200.000	0.038	-0.379
-602.113	-200.000	0.053	0.236
-601.098	402.640	-0.232	0.486
-600.084	800.000	-0.084	-0.288
-599.069	3.638	0.061	-0.044
-598.055	-200.000	-0.031	0.143
-597.040	-36.727	0.165	0.089
-596.025	-64.750	-0.041	0.017
-595.011	800.000	-0.121	-0.380
-593.996	406.731	-0.101	0.213
-592.982	566.384	-0.033	-0.079
-591.967	691.223	-0.142	0.369
-590.952	56.734	-0.213	0.207
-589.938	-148.710	0.124	-0.010
-588.923	75.124	-0.152	-0.159
-587.909	-200.000	0.029	0.163
-586.894	-200.000	0.004	-0.232
-585.879	-200.000	-0.029	-0.226
-584.865	6.751	0.082	0.061
-583.850	456.395	-0.050	-0.111
-582.836	-54.969	0.155	0.069
-581.821	129.445	-0.153	0.194
-580.806	207.452	-0.113	0.176
-579.792	412.766	-0.038	0.081
-578.777	-186.315	0.183	0.003
-577.763	161.004	0.193	-0.268
-576.748	-28.710	0.112	0.064
-575.733	499.539	0.255	0.585
-574.719	800.000	0.025	0.095
-573.704	-61.200	-0.290	0.121
-572.690	-200.000	-0.032	0.261
-571.675	-110.839	0.239	0.049
-570.661	800.000	0.051	-0.185
-569.646	-44.532	0.237	0.118
-568.631	-200.000	0.016	-0.141
-567.617	-43.886	-0.133	-0.067
-566.602	-107.320	0.335	-0.073
-565.588	-61.156	0.074	-0.031
-564.573	800.000	-0.057	0.197
-563.558	-200.000	-0.033	-0.187
-562.544	389.777	-0.047	0.098
-561.529	10.255	0.251	0.190
-560.515	-124.139	-0.200	0.031
-559.500	-72.246	-0.066	0.024
-558.485	-200.000	-0.074	-0.335
-557.471	-86.730	0.039	-0.012
-556.456	800.000	-0.055	-0.167
-555.442	233.215	-0.217	-0.355
-554.427	-66.558	-0.192	0.076
-553.412	97.430	0.031	0.036
-552.398	94.233	-0.303	-0.341
-551.383	304.048	-0.115	0.212
-550.369	-111.961	-0.085	-0.017
-549.354	-73.332	0.339	0.123
-548.339	-200.000	0.005	0.130
-547.325	-60.717	0.126	-0.053
-546.310	161.148	-0.146	-0.202
-545.296	767.810	0.136	-0.369
-544.281	800.000	0.048	-0.162
-543.266	471.801	0.109	0.244
-542.252	769.207	-0.078	0.210
-541.237	800.000	0.059	0.236
-540.223	-59.126	-0.295	0.127
-539.208	800.000	0.077	0.241
-538.193	-200.000	-0.003	-0.077
-537.179	-200.000	-0.031	-0.282
-536.164	-147.159	0.255	-0.022
-535.150	800.000	0.092	-0.290
-534.135	-200.000	0.005	-0.269
-533.121	535.685	0.080	-0.188
-532.106	-90.921	-0.227	-0.065
-531.091	115.825	-0.159	0.194
-530.077	-200.000	-0.006	0.192
-529.062	-200.000	0.001	-0.322
-528.048	-51.836	-0.117	0.054
-527.033	-142.088	-0.216	-0.021
-526.018	-200.000	-0.043	-0.215
-525.004	-120.190	0.138	-0.023
-523.989	10.405	0.115	0.087
-522.975	-113.179	0.212	-0.041
-521.960	69.758	0.207	-0.212
-520.945	-137.343	-0.259	-0.029
-519.931	-128.088	0.153	-0.022
-518.916	313.914	-0.104	-0.195
-517.902	-62.165	0.164	0.068
-516.887	-148.321	0.166	-0.014
-515.872	2.424	0.128	-0.092
-514.858	-70.700	0.281	0.105
-513.843	-200.000	-0.043	-0.228
-512.829	-17.646	0.261	-0.163
-511.814	-90.981	-0.363	0.104
-510.799	-191.212	-0.179	-0.002
-509.785	7.930	0.181	-0.135
-508.770	-35.343	-0.345	0.186
-507.756	234.956	-0.096	0.158
-506.741	-200.000	-0.057	0.287
-505.726	-104.419	0.129	0.030
-504.712	-123.796	-0.246	-0.039
-503.697	141.214	0.143	0.187
-502.683	-175.148	-0.520	-0.014
-501.668	800.000	0.068	-0.199
-500.653	-58.719	-0.162	-0.070
-499.639	4.567	0.043	-0.031
-498.624	-155.718	-0.178	-0.011
-497.610	75.905	-0.093	0.098
-496.595	140.121	-0.200	0.262
-495.581	652.824	-0.113	0.287
-494.566	-116.211	0.094	-0.017
-493.551	650.264	0.056	0.142
-492.537	800.000	-0.064	0.190
-491.522	-86.841	0.331	0.100
-490.508	-109.246	-0.503	-0.106
-489.493	800.000	-0.036	0.149
-488.478	-125.479	0.191	-0.029
-487.464	-87.445	0.389	-0.117
-486.449	-173.909	-0.349	0.010
-485.435	800.000	0.085	0.301
-484.420	193.698	0.106	-0.159
-483.405	67.334	-0.113	0.115
-482.391	-27.461	0.231	0.133
-481.376	-99.536	-0.312	-0.078
-480.362	399.491	0.107	-0.222
-479.347	314.214	-0.175	-0.326
-478.332	142.723	0.173	0.228
-477.318	-111.839	0.137	-0.027
-476.303	-200.000	-0.053	0.338
-475.289	238.773	-0.082	0.135
-474.274	393.299	-0.064	0.132
-473.259	49.206	-0.201	-0.187
-472.245	-114.627	0.155	0.029
-471.230	10.203	-0.224	-0.169
-470.216	8.435	-0.260	-0.194
-469.201	-56.670	0.155	-0.068
-468.186	-78.011	0.203	-0.069
-467.172	-81.031	0.153	0.050
-466.157	139.248	0.123	-0.160
-465.143	588.103	-0.037	0.090
-464.128	-32.780	-0.234	0.129
-463.113	-70.412	-0.159	0.060
-462.099	-32.681	0.241	-0.133
-461.084	51.703	-0.151	-0.142
-460.070	72.073	-0.221	0.228
-459.055	-20.574	-0.161	0.098
-458.040	-111.820	-0.067	0.013
-457.026	-13.646	0.289	0.186
-456.011	264.682	-0.048	0.083
-454.997	800.000	-0.103	0.357
-453.982	-75.432	0.123	-0.043
-452.968	-30.815	0.323	0.181
-451.953	188.788	0.459	-0.681
-450.938	-200.000	-0.051	0.275
-449.924	-64.795	-0.247	0.099
-448.909	-38.755	-0.223	-0.116
-447.895	-45.991	-0.128	0.063
-446.880	800.000	-0.078	0.331
-445.865	-37.337	-0.238	0.126
-444.851	-73.748	-0.070	0.025
-443.836	-139.850	-0.185	-0.019
-442.822	-66.285	-0.275	-0.109
-441.807	-200.000	0.009	-0.163
-440.792	517.371	-0.142	0.328
-439.778	-12.895	-0.280	-0.180
-438.763	-144.747	0.131	-0.012
-437.749	-200.000	0.009	-0.408
-436.734	527.373	-0.060	-0.141
-435.719	140.825	-0.030	0.040
-434.705	35.573	0.120	-0.104
-433.690	223.511	0.155	0.247
-432.676	104.335	-0.160	0.186
-431.661	97.246	0.154	-0.175
-430.646	97.015	0.015	-0.017
-429.632	288.912	-0.154	-0.276
-428.617	163.536	-0.068	0.095
-427.603	248.514	0.189	-0.316
-426.588	89.046	0.068	-0.075
-425.573	223.640	0.203	0.324
-424.559	27.466	-0.058	-0.048
-423.544	-21.218	-0.356	0.215
-422.530	407.421	-0.091	-0.190
-421.515	-45.492	0.224	-0.110
-420.500	6.202	-0.174	-0.128
-419.486	321.364	-0.076	0.143
-418.471	382.455	-0.273	0.556
-417.457	-200.000	0.010	-0.421
-416.442	-94.982	0.317	0.085
-415.428	800.000	-0.047	-0.168
-414.413	-200.000	-0.063	0.309
-413.398	-129.135	0.487	0.067
-412.384	106.731	-0.124	-0.145
-411.369	50.799	-0.282	0.264
-410.355	571.691	-0.017	0.041
-409.340	-200.000	-0.046	-0.250
-408.325	-55.274	-0.041	0.018
-407.311	-200.000	-0.014	-0.222
-406.296	371.844	-0.144	-0.289
-405.282	800.000	-0.084	0.246
-404.267	-200.000	-0.012	-0.197
-403.252	88.479	-0.067	-0.074
-402.238	-100.039	-0.225	0.056
-401.223	800.000	-0.026	-0.083
-400.209	51.422	0.148	0.139
-399.194	-131.072	0.203	-0.027
-398.179	-38.182	-0.145	-0.076
-397.165	236.314	-0.073	0.120
-396.150	-52.020	0.272	0.125
-395.136	800.000	0.018	-0.070
-394.121	-38.867	-0.095	0.050
-393.106	-115.941	-0.352	0.065
-392.092	-200.000	-0.064	0.416
-391.077	120.584	0.142	0.174
-390.063	800.000	0.071	0.230
-389.048	598.240	0.064	-0.157
-388.033	388.575	0.057	0.117
-387.019	81.204	0.227	0.242
-386.004	-200.000	0.034	0.247
-384.990	174.913	0.172	0.246
-383.975	129.338	0.217	-0.274
-382.960	800.000	0.054	-0.183
-381.946	-65.960	-0.042	-0.017
-380.931	47.318	0.332	-0.305
-379.917	4.744	0.176	-0.127
-378.902	126.670	-0.020	-0.025
-377.888	800.000	0.085	0.236
-376.873	800.000	-0.067	0.261
-375.858	800.000	-0.039	-0.117
-374.844	457.279	0.072	0.159
-373.829	103.097	0.212	0.246
-372.815	27.606	0.169	0.140
-371.800	-7.541	-0.079	-0.053
-370.785	800.000	0.078	-0.319
-369.771	-109.087	0.217	-0.046
-368.756	72.621	0.148	-0.152
-367.742	800.000	0.091	0.251
-366.727	800.000	0.060	0.166
-365.712	382.985	-0.053	0.107
-364.698	-200.000	0.032	-0.261
-363.683	48.799	-0.097	-0.090
-362.669	70.613	-0.219	-0.223
-361.654	2.797	-0.319	-0.229
-360.639	36.991	-0.171	0.149
-359.625	18.556	0.034	0.027
-358.610	-200.000	0.004	-0.067
-357.596	111.240	0.156	-0.185
-356.581	22.052	-0.149	-0.120
-355.566	800.000	0.063	-0.248
-354.552	800.000	0.105	-0.400
-353.537	260.894	-0.074	-0.126
-352.523	-200.000	0.009	0.083
-351.508	121.637	0.175	-0.215
-350.493	-200.000	0.005	0.128
-349.479	800.000	0.060	-0.208
-348.464	-97.831	0.114	0.029
-347.450	-175.238	0.190	0.005
-346.435	18.653	-0.247	0.195
-345.420	800.000	-0.084	0.305
-344.406	-29.566	-0.174	0.098
-343.391	-200.000	0.006	-0.166
-342.377	-164.158	0.151	-0.007
-341.362	-117.394	-0.445	-0.079
-340.348	519.832	-0.072	0.166
-339.333	23.716	0.145	0.117
-338.318	-116.759	-0.167	-0.030
-337.304	-200.000	-0.014	0.142
-336.289	-57.968	0.156	0.067
-335.275	59.029	0.142	0.137
-334.260	19.082	-0.217	0.172
-333.245	133.381	-0.315	0.402
-332.231	63.537	0.157	-0.155
-331.216	-200.000	-0.037	-0.237
-330.202	14.830	-0.205	-0.158
-329.187	-200.000	0.013	0.119
-328.172	-12.645	-0.172	0.111
-327.158	66.667	0.123	0.124
-326.143	122.537	-0.016	0.020
-325.129	669.487	0.103	-0.264
-324.114	42.958	-0.200	0.180
-323.099	-74.990	-0.036	0.013
-322.085	390.388	0.075	0.153
-321.070	-24.279	0.044	-0.026
-320.056	204.204	0.201	-0.307
-319.041	-69.008	0.356	-0.135
-318.026	-20.957	-0.190	0.115
-317.012	148.850	0.143	-0.190
-315.997	-131.341	-0.063	-0.008
-314.983	-56.663	-0.102	-0.044
-313.968	-200.000	0.032	0.180
-312.953	58.579	-0.256	0.247
-311.939	-7.241	-0.190	0.127
-310.924	-13.761	0.184	-0.117
-309.910	-28.272	-0.217	-0.124
-308.895	-62.980	0.285	0.116
-307.880	17.824	0.219	0.171
-306.866	-39.658	-0.056	0.029
-305.851	-140.154	-0.225	0.023
-304.837	2.473	0.176	-0.125
-303.822	-119.939	0.216	0.037
-302.807	47.694	-0.412	0.379
-301.793	-101.052	-0.118	-0.029
-300.778	614.826	-0.071	0.174
-299.764	800.000	-0.043	0.168
-298.749	-200.000	-0.023	-0.351
-297.735	-117.436	0.295	0.053
-296.720	-41.740	-0.195	0.098
-295.705	-32.255	-0.197	0.108
-294.691	27.339	-0.096	0.080
-293.676	-6.399	-0.071	0.048
-292.662	82.655	0.071	0.076
-291.647	-79.925	0.305	-0.101
-290.632	-57.822	0.159	0.068
-289.618	165.151	-0.111	0.154
-288.603	607.880	-0.164	0.402
-287.589	-53.775	-0.214	0.096
-286.574	-35.218	0.313	0.168
-285.559	38.622	-0.018	-0.016
-284.545	157.060	0.197	-0.267
-283.530	-147.108	-0.026	0.002
-282.516	-200.000	-0.043	0.552
-281.501	-42.227	0.076	-0.038
-280.486	13.086	0.065	-0.050
-279.472	-3.257	-0.168	0.115
-278.457	130.089	0.232	-0.292
-277.443	-15.869	0.447	0.280
-276.428	800.000	0.050	0.143
-275.413	78.560	-0.172	0.180
-274.399	-144.533	0.133	-0.012
-273.384	-14.851	0.214	-0.135
-272.370	16.357	0.158	-0.123
-271.355	43.979	0.177	0.160
-270.340	800.000	-0.085	-0.365
-269.326	47.973	0.140	-0.128
-268.311	-51.718	-0.152	-0.069
-267.297	66.833	0.070	-0.070
-266.282	-200.000	-0.017	0.256
-265.267	219.757	0.129	-0.203
-264.253	-200.000	-0.081	0.568
-263.238	24.371	-0.223	-0.181
-262.224	800.000	0.047	0.160
-261.209	-35.679	0.217	-0.115
-260.195	-19.545	0.497	-0.302
-259.180	142.338	0.177	-0.230
-258.165	-113.810	0.261	0.050
-257.151	-67.903	-0.194	0.074
-256.136	30.666	-0.067	0.056
-255.122	-45.259	0.204	-0.100
-254.107	168.801	0.194	-0.272
-253.092	-124.565	-0.066	-0.010
-252.078	-200.000	-0.067	-0.295
-251.063	199.335	0.111	-0.167
-250.049	-48.459	0.108	-0.051
-249.034	-200.000	0.016	-0.193
-248.019	225.375	0.076	-0.121
-247.005	22.554	-0.114	0.092
-245.990	800.000	0.031	-0.091
-244.976	-200.000	0.002	0.054
-243.961	800.000	0.028	-0.092
-242.946	114.196	0.162	0.194
-241.932	680.124	0.087	-0.223
-240.917	345.514	-0.048	-0.092
-239.903	157.758	0.097	-0.132
-238.888	87.687	-0.344	-0.374
-237.873	-113.968	0.110	0.021
-236.859	74.923	0.187	0.194
-235.844	-48.409	-0.158	0.075
-234.830	773.521	-0.015	0.040
-233.815	800.000	0.112	-0.349
-232.800	414.387	0.099	0.206
-231.786	-144.221	-0.375	-0.034
-230.771	13.139	0.194	0.148
-229.757	611.589	-0.107	-0.263
-228.742	-142.912	0.059	0.006
-227.727	-41.359	0.266	-0.135
-226.713	-103.891	-0.446	-0.102
-225.698	-85.755	0.058	-0.018
-224.684	200.589	-0.146	0.220
-223.669	48.106	-0.233	0.214
-222.655	6.154	0.316	0.230
-221.640	-7.960	-0.166	-0.110
-220.625	-7.569	0.046	0.031
-219.611	261.389	0.092	-0.155
-218.596	-18.052	0.251	0.154
-217.582	-137.767	-0.403	-0.044
-216.567	-200.000	0.019	-0.092
-215.552	484.606	-0.070	0.156
-214.538	800.000	-0.057	0.186
-213.523	800.000	-0.094	-0.272
-212.509	-55.684	-0.094	-0.041
-211.494	-136.299	0.259	-0.030
-210.479	-38.102	0.530	0.276
-209.465	36.207	-0.146	0.126
-208.450	609.666	-0.051	0.124
-207.436	81.429	0.173	0.183
-206.421	-40.492	0.085	0.043
-205.406	-80.590	-0.555	-0.181
-204.392	187.808	0.022	-0.032
-203.377	638.868	0.095	-0.238
-202.363	243.690	-0.068	-0.111
-201.348	-71.488	-0.293	-0.107
-200.333	-11.962	-0.296	-0.190
-199.319	602.245	0.082	-0.199
-198.304	240.189	-0.153	0.249
-197.290	2.724	-0.225	0.160
-196.275	166.589	-0.061	-0.084
-195.260	800.000	-0.021	0.085
-194.246	-82.858	0.232	0.074
-193.231	800.000	-0.078	-0.294
-192.217	63.518	-0.141	-0.139
-191.202	-200.000	0.008	-0.151
-190.187	517.433	0.040	-0.091
-189.173	-134.309	-0.276	0.033
-188.158	-200.000	0.010	0.124
-187.144	61.962	0.105	-0.103
-186.129	-200.000	-0.005	0.065
-185.114	-102.872	0.178	0.041
-184.100	437.993	0.108	-0.231
-183.085	-43.632	0.018	0.009
-182.071	-50.440	0.139	-0.064
-181.056	124.514	0.264	-0.325
-180.042	-200.000	-0.030	0.329
-179.027	-111.839	0.182	0.036
-178.012	53.673	0.109	-0.102
-176.998	16.671	0.093	-0.072
-175.983	-33.078	0.118	0.064
-174.969	162.571	-0.075	-0.103
-173.954	207.549	-0.082	0.126
-172.939	-145.859	0.134	0.012
-171.925	41.590	-0.242	-0.215
-170.910	-139.996	0.142	0.015
-169.896	-153.142	-0.314	-0.022
-168.881	146.560	0.162	0.213
-167.866	41.891	0.095	-0.084
-166.852	800.000	0.019	0.071
-165.837	-200.000	-0.001	0.200
-164.823	467.217	0.084	0.184
-163.808	800.000	-0.034	0.124
-162.793	-84.342	0.079	0.024
-161.779	115.600	-0.104	-0.124
-160.764	-102.890	0.339	0.079
-159.750	-187.584	0.072	-0.001
-158.735	-5.977	-0.248	-0.166
-157.720	-200.000	0.045	-0.296
-156.706	-200.000	-0.367	0.001
-155.691	-48.903	0.222	-0.104
-154.677	-60.391	0.243	-0.101
-153.662	-148.155	-0.198	0.016
-152.647	800.000	0.044	0.144
-151.633	-200.000	-0.010	0.060
-150.618	74.707	0.165	0.170
-149.604	-200.000	0.012	-0.147
-148.589	-55.332	0.134	0.059
-147.574	-16.485	0.194	0.121
-146.560	-15.875	0.148	0.092
-145.545	800.000	-0.083	-0.327
-144.531	514.150	0.028	-0.064
-143.516	280.450	0.069	0.121
-142.502	-200.000	0.036	0.186
-141.487	43.272	-0.037	0.033
-140.472	800.000	-0.059	-0.210
-139.458	800.000	-0.094	0.316
-138.443	45.902	0.164	0.148
-137.429	155.963	-0.309	-0.416
-136.414	85.763	0.043	0.046
-135.399	-120.440	0.181	-0.030
-134.385	-122.769	-0.042	-0.007
-133.370	-91.245	0.171	0.048
-132.356	-20.121	-0.075	-0.046
-131.341	16.782	-0.082	0.063
-130.326	58.327	-0.010	-0.010
-129.312	58.792	-0.282	-0.271
-128.297	28.606	-0.178	0.147
-127.283	800.000	0.112	0.386
-126.268	-200.000	0.097	-0.429
-125.253	-128.432	-0.324	0.045
-124.239	-77.870	0.219	-0.074
-123.224	800.000	-0.165	0.522
-122.210	-11.499	0.055	0.035
-121.195	116.124	0.024	-0.029
-120.180	800.000	0.085	0.300
