DTS Sentinel unit serial number:	SN413079Multiplexer serial number:	ORYXHardware model number:	OX4-SRSoftware version number:	ORYX F/W v4.00 Oryx Data Collector v3.7.2.0data status	okinstallation	princeton_trtdifferential loss correction	single-endedforward channel	channel 1reverse channel	N/Adate	2019/09/14time	12:02:35forward acquisition time	60.00reverse acquisition time	0.00gamma	496.2192k internal	0.2296k external	0.2296temperature offset calibration	1.0087default loss term (dB/km)	0.3790temperature slope calibration	1.0000multiplexer offset coefficient	1.0000multiplexer slope coefficient	1.0000fibre end	0.00T internal ref (°C)	37.47T ext. ref 1 (°C)	4.66T ext. ref 2 (°C)	34.65length (m)	temperature (°C)	Stokes	anti-Stokes-747.200	464.546	0.036	0.082
-746.185	64.035	-0.026	0.027
-745.171	133.126	-0.138	0.183
-744.156	156.065	0.079	-0.112
-743.142	-200.000	0.007	0.237
-742.127	595.882	-0.147	0.373
-741.112	800.000	0.064	-0.216
-740.098	37.552	0.114	-0.104
-739.083	281.578	0.076	-0.139
-738.069	84.790	0.061	-0.068
-737.054	-25.362	0.068	0.041
-736.039	-200.000	-0.029	0.396
-735.025	800.000	-0.050	0.168
-734.010	-36.579	-0.182	0.100
-732.996	-91.215	0.206	-0.060
-731.981	-200.000	0.012	-0.226
-730.966	-16.224	0.210	0.136
-729.952	116.517	-0.187	-0.234
-728.937	-200.000	-0.041	-0.306
-727.923	-55.499	-0.294	0.134
-726.908	221.985	0.131	0.214
-725.894	-200.000	-0.008	-0.263
-724.879	-2.084	-0.066	-0.047
-723.864	544.456	-0.120	-0.292
-722.850	-48.808	0.444	-0.217
-721.835	800.000	0.139	-0.526
-720.821	-200.000	-0.008	-0.063
-719.806	570.739	-0.074	-0.183
-718.791	-95.613	0.226	0.062
-717.777	-118.444	-0.291	-0.053
-716.762	271.176	-0.084	-0.151
-715.748	-200.000	0.003	0.155
-714.733	-76.392	-0.166	0.059
-713.718	39.942	-0.151	0.139
-712.704	61.778	0.123	0.125
-711.689	308.293	0.134	0.256
-710.675	-84.976	0.073	0.023
-709.660	39.059	0.324	-0.295
-708.645	-140.083	-0.041	-0.004
-707.631	-125.494	0.248	0.038
-706.616	334.367	0.098	-0.193
-705.602	69.334	-0.083	0.087
-704.587	377.655	0.147	-0.307
-703.572	-22.112	0.357	-0.221
-702.558	-200.000	0.019	-0.271
-701.543	800.000	0.109	0.436
-700.529	-46.262	0.221	0.111
-699.514	-72.007	-0.333	-0.126
-698.499	38.742	0.223	-0.203
-697.485	58.235	-0.034	0.034
-696.470	-42.876	-0.168	0.087
-695.456	-9.484	-0.170	-0.115
-694.441	-59.794	-0.174	0.076
-693.426	-30.331	0.098	0.057
-692.412	215.164	0.072	0.117
-691.397	-200.000	-0.009	0.289
-690.383	134.689	-0.075	0.100
-689.368	-121.289	0.267	0.045
-688.354	800.000	-0.011	0.041
-687.339	15.984	0.101	0.081
-686.324	159.671	-0.117	0.166
-685.310	-167.140	0.373	-0.015
-684.295	-41.415	0.066	-0.035
-683.281	190.274	0.123	-0.188
-682.266	800.000	0.101	0.322
-681.251	800.000	0.080	0.254
-680.237	15.044	-0.341	-0.272
-679.222	70.449	0.346	-0.364
-678.208	-200.000	0.026	-0.265
-677.193	-18.073	-0.104	-0.066
-676.178	800.000	-0.038	0.150
-675.164	800.000	0.028	-0.089
-674.149	109.686	-0.182	-0.222
-673.135	-117.119	-0.326	0.060
-672.120	57.388	-0.285	0.284
-671.105	-78.774	-0.200	0.070
-670.091	156.682	0.041	0.058
-669.076	800.000	-0.079	-0.230
-668.062	-91.136	0.186	-0.054
-667.047	-113.617	0.139	0.028
-666.032	-130.544	-0.196	0.027
-665.018	-200.000	-0.067	-0.318
-664.003	-200.000	-0.021	-0.242
-662.989	325.678	-0.173	-0.337
-661.974	-93.813	-0.161	-0.045
-660.959	800.000	0.039	0.165
-659.945	181.499	0.030	0.044
-658.930	-143.080	-0.364	-0.036
-657.916	695.783	0.016	0.044
-656.901	-147.792	-0.343	0.029
-655.886	-55.831	-0.151	-0.069
-654.872	-200.000	-0.015	-0.168
-653.857	97.132	-0.075	-0.088
-652.843	60.861	0.076	-0.077
-651.828	190.581	-0.080	0.123
-650.814	-100.768	0.213	-0.053
-649.799	-38.688	-0.196	0.106
-648.784	139.715	-0.121	-0.162
-647.770	55.034	0.182	-0.179
-646.755	-25.613	-0.485	-0.291
-645.741	-200.000	0.051	0.246
-644.726	-11.372	0.170	0.114
-643.711	59.975	-0.092	-0.092
-642.697	-54.030	-0.387	-0.179
-641.682	24.322	0.086	-0.073
-640.668	-41.689	0.014	-0.007
-639.653	800.000	0.009	0.029
-638.638	800.000	-0.003	0.008
-637.624	-200.000	-0.097	0.000
-636.609	-47.073	0.275	-0.137
-635.595	110.880	0.091	-0.111
-634.580	-126.813	0.400	0.060
-633.565	2.873	-0.209	0.155
-632.551	-144.688	-0.248	-0.023
-631.536	-200.000	0.034	-0.269
-630.522	5.367	0.103	-0.077
-629.507	64.692	-0.088	-0.090
-628.492	-100.806	-0.345	0.086
-627.478	-56.203	0.152	0.069
-626.463	800.000	-0.061	-0.216
-625.449	-200.000	-0.054	-0.273
-624.434	-134.253	-0.247	-0.031
-623.419	253.855	0.013	0.023
-622.405	-150.113	-0.239	0.019
-621.390	-103.460	0.184	0.044
-620.376	-155.276	-0.301	-0.020
-619.361	-73.994	-0.291	-0.107
-618.346	-27.433	0.136	0.081
-617.332	-96.992	-0.294	0.078
-616.317	-183.613	0.580	-0.010
-615.303	271.265	-0.105	-0.188
-614.288	-200.000	0.033	-0.303
-613.273	-84.825	-0.252	-0.081
-612.259	286.087	-0.035	0.064
-611.244	-83.546	-0.309	0.100
-610.230	-97.543	-0.318	-0.084
-609.215	-200.000	0.036	-0.196
-608.201	-129.469	0.387	-0.055
-607.186	-9.722	-0.159	-0.108
-606.171	800.000	0.117	-0.398
-605.157	-200.000	-0.049	-0.235
-604.142	41.298	0.173	0.159
-603.128	207.013	0.058	0.091
-602.113	-51.594	-0.235	-0.111
-601.098	-200.000	-0.005	-0.084
-600.084	117.591	-0.189	0.236
-599.069	143.995	0.215	-0.292
-598.055	32.402	-0.131	-0.115
-597.040	-80.919	0.207	-0.070
-596.025	329.366	-0.057	-0.111
-595.011	48.516	-0.119	0.113
-593.996	-96.419	-0.275	-0.074
-592.982	19.675	-0.324	0.265
-591.967	-200.000	0.020	-0.469
-590.952	-121.037	-0.183	-0.031
-589.938	-200.000	0.002	0.164
-588.923	134.523	0.194	0.256
-587.909	-37.435	-0.281	-0.152
-586.894	800.000	0.058	-0.259
-585.879	-56.891	0.425	0.191
-584.865	-182.977	-0.413	0.007
-583.850	800.000	0.122	0.349
-582.836	-39.292	-0.265	0.141
-581.821	384.750	-0.101	-0.212
-580.806	-146.676	0.159	0.014
-579.792	2.680	-0.316	-0.232
-578.777	157.922	-0.132	-0.186
-577.763	-20.904	-0.062	-0.038
-576.748	-200.000	0.027	-0.174
-575.733	-112.520	-0.087	0.018
-574.719	127.380	0.106	-0.136
-573.704	71.148	-0.091	-0.096
-572.690	106.534	-0.142	0.171
-571.675	800.000	-0.050	-0.153
-570.661	-99.986	0.525	0.133
-569.646	-181.586	-0.227	-0.004
-568.631	33.167	0.067	-0.059
-567.617	48.289	-0.076	-0.072
-566.602	110.487	0.084	-0.102
-565.588	12.531	-0.131	-0.103
-564.573	-191.491	0.094	0.001
-563.558	-57.645	0.100	-0.045
-562.544	241.199	-0.064	0.109
-561.529	-114.448	0.275	-0.054
-560.515	43.253	-0.015	0.014
-559.500	-200.000	-0.001	-0.114
-558.485	-22.541	0.286	0.176
-557.471	-89.939	0.281	-0.083
-556.456	-0.202	-0.164	-0.118
-555.442	800.000	-0.017	-0.051
-554.427	-6.698	-0.194	0.134
-553.412	-77.361	-0.146	-0.052
-552.398	-200.000	0.008	0.189
-551.383	-200.000	0.003	0.324
-550.369	-17.942	0.292	0.186
-549.354	268.402	-0.106	0.188
-548.339	442.117	-0.028	0.062
-547.325	610.566	0.061	-0.154
-546.310	-150.987	0.362	0.028
-545.296	800.000	-0.061	0.186
-544.281	177.312	-0.077	-0.113
-543.266	147.242	-0.200	0.273
-542.252	-146.938	0.231	-0.020
-541.237	-162.271	-0.138	0.007
-540.223	-121.920	0.177	0.030
-539.208	131.416	0.215	-0.280
-538.193	12.432	0.467	-0.365
-537.179	-185.270	-0.160	0.003
-536.164	-91.315	-0.118	-0.034
-535.150	81.758	0.090	-0.099
-534.135	550.774	-0.104	-0.252
-533.121	78.091	-0.132	0.142
-532.106	800.000	-0.022	-0.069
-531.091	-176.569	-0.240	-0.006
-530.077	-118.358	-0.305	0.055
-529.062	161.804	-0.173	-0.246
-528.048	46.931	-0.081	0.076
-527.033	-122.841	0.145	-0.024
-526.018	-132.779	-0.128	0.017
-525.004	800.000	-0.091	0.307
-523.989	-134.824	0.482	0.059
-522.975	-46.524	0.069	-0.034
-521.960	638.749	-0.131	0.336
-520.945	-26.009	0.117	0.069
-519.931	-135.472	0.093	0.011
-518.916	-82.356	0.158	-0.052
-517.902	-200.000	0.015	-0.264
-516.887	32.302	0.205	-0.180
-515.872	585.014	0.129	-0.322
-514.858	800.000	0.055	0.174
-513.843	-71.273	0.173	0.066
-512.829	800.000	-0.042	0.138
-511.814	-136.137	0.143	0.017
-510.799	31.349	0.098	-0.085
-509.785	-200.000	0.024	-0.224
-508.770	-56.821	-0.087	-0.039
-507.756	241.703	-0.040	0.068
-506.741	66.847	-0.038	0.040
-505.726	-200.000	0.003	-0.045
-504.712	232.696	0.041	-0.069
-503.697	-164.897	0.182	-0.008
-502.683	-109.495	-0.381	-0.082
-501.668	-200.000	-0.008	-0.283
-500.653	-200.000	-0.023	-0.229
-499.639	60.959	-0.151	0.152
-498.624	47.290	-0.038	-0.036
-497.610	439.737	-0.151	-0.334
-496.595	-21.803	0.061	-0.038
-495.581	-85.817	-0.067	-0.021
-494.566	-200.000	0.013	0.131
-493.551	-68.516	0.075	0.029
-492.537	261.284	0.041	0.072
-491.522	-60.162	0.123	0.053
-490.508	282.258	-0.167	0.303
-489.493	-200.000	0.013	-0.158
-488.478	41.361	-0.124	-0.113
-487.464	228.705	-0.102	0.168
-486.449	800.000	-0.101	0.327
-485.435	-39.082	0.278	0.148
-484.420	-10.604	0.280	-0.187
-483.405	-6.482	-0.151	-0.104
-482.391	147.362	0.082	-0.112
-481.376	108.842	-0.015	0.018
-480.362	-200.000	-0.002	0.195
-479.347	19.515	0.205	0.167
-478.332	-170.036	0.428	0.015
-477.318	45.510	-0.068	-0.064
-476.303	333.747	-0.077	-0.150
-475.289	-62.743	0.022	-0.009
-474.274	-14.535	0.223	-0.145
-473.259	37.424	-0.086	0.077
-472.245	800.000	0.096	-0.282
-471.230	66.649	0.113	-0.117
-470.216	332.892	0.115	0.225
-469.201	-44.897	-0.076	0.038
-468.186	15.253	-0.150	-0.119
-467.172	-181.536	-0.306	-0.006
-466.157	149.073	0.097	0.132
-465.143	294.650	-0.047	-0.086
-464.128	-200.000	0.009	-0.094
-463.113	-44.371	-0.133	-0.067
-462.099	241.128	0.178	-0.300
-461.084	64.885	0.085	0.087
-460.070	800.000	0.093	0.307
-459.055	146.651	-0.073	-0.099
-458.040	113.748	-0.134	-0.165
-457.026	22.545	0.136	0.112
-456.011	-200.000	-0.060	-0.292
-454.997	-59.455	-0.169	-0.073
-453.982	-177.670	-0.545	0.013
-452.968	130.847	-0.073	-0.095
-451.953	-136.001	0.200	0.024
-450.938	181.730	0.151	0.224
-449.924	-200.000	0.005	0.154
-448.909	-200.000	-0.048	0.278
-447.895	-200.000	-0.003	0.054
-446.880	222.871	0.188	0.306
-445.865	-163.377	0.327	-0.016
-444.851	129.218	0.108	-0.139
-443.836	155.860	0.142	0.197
-442.822	-142.420	0.158	0.016
-441.807	-111.266	-0.040	-0.008
-440.792	-68.755	0.102	-0.040
-439.778	-175.041	0.031	0.001
-438.763	44.232	0.148	-0.137
-437.749	-60.199	0.235	-0.101
-436.734	109.215	-0.179	-0.216
-435.719	-156.580	0.222	0.014
-434.705	234.008	-0.076	-0.126
-433.690	-200.000	0.010	0.086
-432.676	-61.255	-0.288	-0.123
-431.661	-111.135	0.098	0.020
-430.646	-71.881	0.234	0.088
-429.632	7.177	0.039	0.029
-428.617	-35.635	0.171	0.093
-427.603	643.585	-0.070	0.179
-426.588	406.365	0.199	-0.424
-425.573	-141.097	0.171	0.018
-424.559	-72.811	-0.297	-0.110
-423.544	-200.000	-0.026	0.152
-422.530	104.691	-0.036	0.043
-421.515	85.969	0.174	-0.193
-420.500	-200.000	-0.017	0.299
-419.486	-36.189	0.176	0.096
-418.471	-200.000	0.054	0.252
-417.457	-142.751	-0.260	-0.026
-416.442	-57.592	0.018	0.008
-415.428	42.127	0.042	-0.039
-414.413	-137.355	0.090	-0.010
-413.398	-170.293	-0.079	0.003
-412.384	-3.376	-0.131	-0.092
-411.369	369.032	-0.125	-0.255
-410.355	-200.000	-0.003	-0.310
-409.340	-152.631	0.089	-0.006
-408.325	232.061	0.196	0.324
-407.311	-116.527	-0.246	0.046
-406.296	66.128	-0.091	0.093
-405.282	191.147	0.166	-0.253
-404.267	-121.397	-0.247	0.042
-403.252	414.821	0.027	0.058
-402.238	-75.163	0.232	-0.084
-401.223	96.384	-0.315	-0.363
-400.209	-76.516	-0.082	-0.029
-399.194	800.000	-0.073	-0.256
-398.179	-200.000	-0.011	-0.110
-397.165	6.562	-0.123	0.092
-396.150	48.975	-0.055	0.052
-395.136	2.328	0.142	0.103
-394.121	-129.933	0.324	-0.045
-393.106	236.140	0.076	0.127
-392.092	730.874	0.169	0.456
-391.077	-98.997	-0.335	0.086
-390.063	192.518	0.099	0.150
-389.048	-122.256	0.120	-0.020
-388.033	-200.000	-0.026	-0.194
-387.019	3.130	-0.247	0.181
-386.004	68.226	-0.123	0.126
-384.990	-46.177	0.134	0.066
-383.975	-94.238	-0.178	-0.049
-382.960	-181.786	0.062	-0.001
-381.946	-1.802	-0.171	0.121
-380.931	192.160	0.147	0.223
-379.917	-200.000	-0.008	0.443
-378.902	-23.504	-0.073	0.044
-377.888	-31.853	-0.065	0.037
-376.873	-61.517	0.121	0.051
-375.858	-200.000	-0.016	0.259
-374.844	800.000	-0.018	0.075
-373.829	-200.000	-0.051	0.441
-372.815	174.502	0.076	0.110
-371.800	371.239	0.065	0.132
-370.785	342.630	-0.091	-0.179
-369.771	689.988	0.092	-0.242
-368.756	-84.026	-0.398	0.127
-367.742	-200.000	0.005	-0.265
-366.727	16.294	0.233	-0.185
-365.712	119.222	0.175	-0.218
-364.698	223.020	0.102	0.166
-363.683	-8.307	0.101	-0.068
-362.669	-60.383	0.238	0.102
-361.654	-200.000	-0.001	0.045
-360.639	212.565	-0.207	-0.329
-359.625	-200.000	0.033	-0.373
-358.610	-90.718	0.287	0.083
-357.596	800.000	-0.063	0.213
-356.581	800.000	0.048	-0.176
-355.566	800.000	0.058	0.180
-354.552	-200.000	0.038	0.263
-353.537	-70.595	-0.214	0.081
-352.523	-140.601	-0.366	-0.038
-351.508	165.867	-0.101	-0.143
-350.493	92.141	-0.126	0.143
-349.479	16.782	-0.169	-0.135
-348.464	32.392	0.370	0.321
-347.450	643.573	0.014	-0.037
-346.435	85.101	0.127	-0.140
-345.420	197.591	0.077	-0.118
-344.406	-59.997	-0.186	-0.080
-343.391	280.704	-0.162	0.291
-342.377	459.599	-0.235	0.527
-341.362	-191.906	-0.356	-0.003
-340.348	-120.453	0.262	0.045
-339.333	118.200	0.070	0.086
-338.318	127.588	-0.219	0.280
-337.304	-200.000	0.011	0.066
-336.289	800.000	-0.073	0.236
-335.275	-185.572	-0.258	-0.004
-334.260	-140.992	-0.132	0.014
-333.245	560.764	0.059	-0.143
-332.231	-109.879	-0.073	-0.015
-331.216	800.000	0.004	0.012
-330.202	-183.265	0.329	-0.006
-329.187	150.293	0.144	0.196
-328.172	-200.000	0.003	0.200
-327.158	156.441	0.126	-0.175
-326.143	-200.000	0.023	0.232
-325.129	135.349	-0.072	0.094
-324.114	-200.000	0.005	0.084
-323.099	800.000	0.057	0.195
-322.085	-46.142	-0.054	-0.027
-321.070	36.450	-0.302	-0.268
-320.056	220.716	0.162	-0.261
-319.041	357.431	-0.039	0.078
-318.026	-77.634	0.055	-0.019
-317.012	-200.000	0.025	0.233
-315.997	-41.863	-0.239	0.123
-314.983	102.029	0.195	-0.228
-313.968	236.210	0.146	-0.243
-312.953	-71.164	0.284	0.107
-311.939	-15.985	0.229	-0.146
-310.924	-129.204	-0.139	0.020
-309.910	9.507	0.178	-0.135
-308.895	-200.000	0.008	0.058
-307.880	24.275	-0.274	-0.227
-306.866	-200.000	-0.044	0.250
-305.851	800.000	-0.021	-0.070
-304.837	280.581	-0.282	0.506
-303.822	2.777	-0.112	0.081
-302.807	800.000	-0.077	0.239
-301.793	178.310	-0.129	0.189
-300.778	419.031	-0.127	-0.273
-299.764	-70.340	0.146	-0.056
-298.749	26.576	-0.114	0.096
-297.735	-127.927	-0.139	-0.020
-296.720	-36.376	0.114	0.062
-295.705	68.789	-0.275	0.284
-294.691	397.991	0.128	0.270
-293.676	32.939	0.076	0.067
-292.662	-78.838	0.355	0.121
-291.647	197.192	0.086	0.132
-290.632	-64.056	-0.217	0.089
-289.618	-97.195	-0.185	-0.049
-288.603	-48.717	0.139	-0.067
-287.589	315.637	0.051	0.096
-286.574	-31.858	-0.215	-0.121
-285.559	6.364	-0.352	-0.262
-284.545	800.000	0.084	-0.318
-283.530	88.573	-0.181	0.202
-282.516	137.984	0.137	0.180
-281.501	192.001	0.097	-0.147
-280.486	565.276	0.091	-0.221
-279.472	-18.049	-0.306	-0.192
-278.457	538.732	-0.044	-0.105
-277.443	-65.902	0.040	-0.016
-276.428	664.235	-0.115	-0.298
-275.413	-100.379	0.306	-0.076
-274.399	192.032	0.066	0.100
-273.384	-10.029	0.098	-0.066
-272.370	623.608	0.037	-0.094
-271.355	-101.450	-0.197	-0.048
-270.340	783.085	0.079	-0.218
-269.326	280.217	0.131	0.234
-268.311	-78.400	-0.158	-0.054
-267.297	800.000	0.016	-0.047
-266.282	247.999	0.062	-0.104
-265.267	619.629	0.125	0.314
-264.253	-119.279	-0.156	0.027
-263.238	-153.433	0.192	0.013
-262.224	-119.921	0.198	-0.034
-261.209	329.081	-0.260	0.500
-260.195	-97.968	-0.273	-0.070
-259.180	-61.782	0.208	-0.087
-258.165	-72.456	0.174	0.065
-257.151	79.559	-0.149	-0.161
-256.136	436.223	-0.078	0.169
-255.122	299.764	0.095	0.175
-254.107	221.394	-0.140	-0.225
-253.092	318.402	0.202	-0.383
-252.078	233.360	0.135	-0.223
-251.063	-200.000	-0.011	-0.079
-250.049	-200.000	0.029	-0.149
-249.034	-135.364	0.144	-0.017
-248.019	-52.434	-0.207	0.096
-247.005	-200.000	0.018	0.084
-245.990	-145.309	0.286	-0.026
-244.976	-200.000	0.051	0.267
-243.961	47.563	0.017	-0.016
-242.946	173.558	-0.093	0.134
-241.932	39.050	0.033	-0.030
-240.917	-94.185	0.068	-0.019
-239.903	800.000	0.058	-0.179
-238.888	-198.430	-0.184	-0.001
-237.873	-30.008	-0.249	-0.142
-236.859	-200.000	-0.028	-0.197
-235.844	-200.000	0.063	-0.351
-234.830	-25.676	0.202	-0.119
-233.815	800.000	-0.031	0.117
-232.800	545.302	0.128	0.306
-231.786	-28.971	-0.193	-0.111
-230.771	-107.775	0.090	-0.020
-229.757	-200.000	0.063	-0.395
-228.742	-19.929	0.145	0.090
-227.727	-31.656	0.174	0.098
-226.713	28.966	0.217	0.184
-225.698	-200.000	-0.012	0.216
-224.684	-200.000	-0.040	0.322
-223.669	66.004	-0.297	0.302
-222.655	-166.915	-0.321	0.013
-221.640	-200.000	0.027	0.157
-220.625	712.139	0.063	-0.168
-219.611	122.080	-0.135	0.168
-218.596	17.703	0.213	-0.170
-217.582	-200.000	-0.002	0.292
-216.567	621.750	-0.053	-0.134
-215.552	65.695	-0.196	-0.198
-214.538	195.558	-0.047	-0.071
-213.523	-200.000	-0.000	0.084
-212.509	104.476	-0.128	0.151
-211.494	-34.130	0.370	0.204
-210.479	-68.287	0.251	-0.098
-209.465	67.509	0.114	-0.117
-208.450	-60.409	-0.032	0.014
-207.436	87.770	-0.156	-0.173
-206.421	800.000	0.075	0.217
-205.406	-91.117	0.016	-0.005
-204.392	627.242	0.089	0.224
-203.377	-29.635	0.039	0.022
-202.363	-200.000	0.011	0.182
-201.348	-182.864	0.334	0.006
-200.333	61.791	0.037	-0.037
-199.319	104.371	0.144	-0.169
-198.304	51.084	0.183	0.173
-197.290	-79.644	0.171	-0.058
-196.275	800.000	0.113	-0.461
-195.260	602.887	-0.130	0.324
-194.246	434.998	0.028	-0.061
-193.231	-7.161	-0.081	0.055
-192.217	-125.445	-0.206	0.031
-191.202	-150.944	0.123	0.009
-190.187	119.521	-0.308	0.381
-189.173	38.690	0.205	0.183
-188.158	-9.283	0.179	-0.120
-187.144	161.080	0.125	0.174
-186.129	-33.023	-0.092	0.051
-185.114	-62.844	-0.143	-0.059
-184.100	10.701	0.069	0.053
-183.085	200.812	-0.212	-0.326
-182.071	-29.321	0.216	0.124
-181.056	-164.019	-0.168	0.008
-180.042	-82.695	0.290	0.094
-179.027	800.000	0.025	0.082
-178.012	-200.000	0.007	0.099
-176.998	212.849	-0.169	0.267
-175.983	-200.000	-0.025	-0.292
-174.969	-81.179	-0.149	-0.049
-173.954	-31.231	0.228	-0.128
-172.939	130.677	0.094	0.121
-171.925	-66.126	0.215	-0.086
-170.910	-200.000	-0.047	0.301
-169.896	204.868	-0.063	0.098
-168.881	-54.778	0.143	-0.064
-167.866	800.000	-0.097	-0.323
-166.852	399.028	0.140	0.292
-165.837	-11.862	-0.062	0.040
-164.823	-29.097	0.141	-0.081
-163.808	13.675	0.084	0.065
-162.793	201.361	-0.124	-0.191
-161.779	428.413	-0.100	-0.216
-160.764	-51.458	0.171	-0.080
-159.750	29.944	-0.146	0.124
-158.735	-32.850	-0.262	-0.145
-157.720	689.235	0.045	0.118
-156.706	-125.482	0.172	0.026
-155.691	131.780	-0.111	0.143
-154.677	-110.745	-0.216	0.044
-153.662	-200.000	-0.014	-0.204
-152.647	82.064	0.149	0.162
-151.633	-62.341	-0.072	-0.030
-150.618	-54.826	0.022	-0.010
-149.604	-200.000	0.041	0.238
-148.589	-35.107	0.066	-0.036
-147.574	61.778	-0.248	-0.246
-146.560	-200.000	-0.092	-0.570
-145.545	800.000	0.034	-0.139
-144.531	-147.758	0.219	-0.018
-143.516	407.122	0.098	0.207
-142.502	-2.548	0.152	0.106
-141.487	609.807	-0.072	0.179
-140.472	341.333	-0.228	0.445
-139.458	206.563	-0.202	-0.314
-138.443	544.557	0.085	-0.202
-137.429	800.000	0.060	-0.241
-136.414	-200.000	0.010	-0.083
-135.399	427.281	0.077	-0.165
-134.385	-42.628	-0.112	-0.057
-133.370	-158.732	-0.184	0.011
-132.356	137.428	0.280	0.365
-131.341	-115.519	0.236	0.044
-130.326	-57.135	-0.102	-0.045
-129.312	-73.611	0.216	0.078
-128.297	-38.066	-0.204	-0.108
-127.283	165.776	-0.091	-0.129
-126.268	-200.000	-0.010	0.102
-125.253	242.440	-0.110	-0.183
-124.239	528.854	0.125	-0.293
-123.224	45.274	0.235	-0.216
-122.210	800.000	0.102	0.373
-121.195	-200.000	0.012	-0.231
