DTS Sentinel unit serial number:	SN413079Multiplexer serial number:	ORYXHardware model number:	OX4-SRSoftware version number:	ORYX F/W v4.00 Oryx Data Collector v3.7.2.0data status	okinstallation	princeton_trtdifferential loss correction	single-endedforward channel	channel 1reverse channel	N/Adate	2019/09/18time	07:46:35forward acquisition time	60.00reverse acquisition time	0.00gamma	496.2192k internal	0.2339k external	0.2339temperature offset calibration	0.9976default loss term (dB/km)	0.3790temperature slope calibration	1.0000multiplexer offset coefficient	1.0000multiplexer slope coefficient	1.0000fibre end	0.00T internal ref (°C)	23.31T ext. ref 1 (°C)	0.20T ext. ref 2 (°C)	18.66length (m)	temperature (°C)	Stokes	anti-Stokes-747.200	-200.000	0.034	-0.249
-746.185	37.430	0.104	0.092
-745.171	5.770	0.101	-0.075
-744.156	269.395	0.217	0.383
-743.142	-200.000	-0.007	0.436
-742.127	-105.636	-0.406	0.092
-741.112	91.251	0.076	-0.085
-740.098	33.481	-0.293	-0.255
-739.083	235.515	0.221	-0.366
-738.069	176.811	-0.046	-0.067
-737.054	25.885	-0.060	-0.050
-736.039	-35.836	-0.167	-0.090
-735.025	800.000	-0.047	0.195
-734.010	-191.869	-0.280	0.003
-732.996	-200.000	0.007	0.194
-731.981	-58.043	0.064	-0.028
-730.966	800.000	-0.045	0.165
-729.952	56.319	-0.287	-0.279
-728.937	-155.007	0.048	0.003
-727.923	-71.893	-0.143	0.053
-726.908	352.010	0.062	-0.123
-725.894	-200.000	0.013	-0.362
-724.879	-200.000	0.006	-0.369
-723.864	-22.900	0.237	0.143
-722.850	173.645	-0.215	-0.311
-721.835	-63.014	-0.008	-0.003
-720.821	25.891	0.039	-0.032
-719.806	134.340	0.117	-0.153
-718.791	-200.000	-0.032	-0.161
-717.777	-178.147	-0.160	-0.004
-716.762	114.705	0.200	-0.244
-715.748	728.764	-0.153	-0.409
-714.733	800.000	0.046	-0.147
-713.718	-10.738	-0.200	0.132
-712.704	-200.000	0.018	0.128
-711.689	14.282	0.208	-0.163
-710.675	-178.118	0.042	-0.001
-709.660	-71.279	-0.373	0.140
-708.645	103.426	-0.008	-0.009
-707.631	-119.804	0.312	-0.054
-706.616	78.897	0.177	-0.189
-705.602	-17.567	-0.136	0.086
-704.587	-145.668	-0.138	0.012
-703.572	389.417	-0.075	-0.156
-702.558	259.079	-0.077	0.132
-701.543	402.457	-0.139	-0.292
-700.529	159.577	-0.034	0.048
-699.514	587.507	-0.143	0.353
-698.499	800.000	0.064	-0.180
-697.485	-200.000	-0.012	0.111
-696.470	-163.621	-0.159	-0.008
-695.456	800.000	0.041	-0.127
-694.441	26.409	-0.135	-0.113
-693.426	-174.330	0.177	-0.005
-692.412	-200.000	0.028	0.266
-691.397	-71.290	0.054	0.020
-690.383	175.167	0.022	-0.032
-689.368	-144.330	0.235	0.022
-688.354	258.164	0.046	0.079
-687.339	800.000	-0.071	0.211
-686.324	-42.347	0.215	-0.110
-685.310	55.250	-0.116	0.112
-684.295	45.336	0.023	-0.021
-683.281	-2.313	-0.319	-0.224
-682.266	-73.176	0.215	-0.079
-681.251	800.000	-0.040	0.115
-680.237	168.172	-0.101	-0.144
-679.222	406.777	0.078	-0.166
-678.208	122.877	0.328	-0.410
-677.193	800.000	-0.108	-0.299
-676.178	115.152	-0.185	-0.226
-675.164	-200.000	-0.041	-0.252
-674.149	448.147	0.100	-0.221
-673.135	-100.642	-0.152	0.037
-672.120	-52.751	-0.288	0.133
-671.105	152.137	0.089	-0.121
-670.091	191.591	0.121	-0.183
-669.076	-57.376	-0.176	-0.077
-668.062	5.431	0.075	-0.055
-667.047	-90.271	0.228	-0.066
-666.032	-6.367	-0.103	0.070
-665.018	236.889	0.116	0.192
-664.003	-110.020	-0.150	0.031
-662.989	156.027	-0.037	-0.051
-661.974	-200.000	-0.040	-0.296
-660.959	-74.572	0.057	-0.020
-659.945	41.668	0.138	0.125
-658.930	-53.124	-0.173	-0.079
-657.916	42.726	-0.071	-0.065
-656.901	-108.858	-0.189	-0.040
-655.886	-67.054	0.171	-0.068
-654.872	181.927	-0.122	0.180
-653.857	-187.345	0.183	-0.002
-652.843	-127.681	-0.240	0.035
-651.828	271.266	0.134	-0.235
-650.814	-20.582	-0.435	-0.267
-649.799	-114.136	0.328	-0.063
-648.784	598.209	0.107	-0.265
-647.770	233.838	0.032	-0.052
-646.755	-200.000	0.033	-0.177
-645.741	585.514	-0.095	0.233
-644.726	244.090	0.083	0.139
-643.711	396.919	-0.088	-0.183
-642.697	159.669	0.031	0.044
-641.682	-98.869	-0.558	0.142
-640.668	800.000	-0.041	-0.138
-639.653	95.876	0.050	-0.057
-638.638	-91.941	-0.152	-0.043
-637.624	-62.434	-0.077	0.032
-636.609	-147.779	-0.459	0.038
-635.595	110.337	-0.233	0.280
-634.580	-39.288	-0.040	-0.021
-633.565	447.276	0.060	-0.132
-632.551	80.365	0.134	0.144
-631.536	471.829	0.081	-0.182
-630.522	12.109	0.169	-0.130
-629.507	94.008	0.187	0.212
-628.492	-144.404	0.270	-0.025
-627.478	-200.000	-0.062	0.344
-626.463	174.851	-0.090	0.130
-625.449	-107.177	-0.229	0.050
-624.434	-0.952	0.160	0.113
-623.419	-2.358	0.220	0.154
-622.405	-200.000	-0.028	-0.395
-621.390	-200.000	-0.016	0.152
-620.376	-36.744	-0.144	0.077
-619.361	800.000	-0.087	-0.379
-618.346	-100.845	-0.196	0.048
-617.332	-18.306	-0.141	-0.088
-616.317	-103.681	-0.316	0.074
-615.303	-45.369	0.127	0.063
-614.288	278.863	0.030	-0.053
-613.273	800.000	0.083	-0.231
-612.259	-5.556	-0.077	-0.053
-611.244	451.541	0.059	-0.130
-610.230	-99.419	0.057	0.014
-609.215	50.741	0.203	-0.191
-608.201	-200.000	0.038	-0.256
-607.186	-20.340	0.287	-0.176
-606.171	-200.000	0.076	-0.376
-605.157	-63.111	0.191	-0.078
-604.142	-2.302	0.198	-0.138
-603.128	248.337	-0.060	0.101
-602.113	390.264	-0.141	-0.291
-601.098	-200.000	-0.044	-0.312
-600.084	18.745	-0.054	-0.043
-599.069	-35.826	0.298	0.161
-598.055	-133.578	-0.324	-0.040
-597.040	-108.837	-0.303	-0.065
-596.025	-116.321	0.354	-0.065
-595.011	9.540	-0.378	0.286
-593.996	-41.878	-0.510	-0.261
-592.982	120.304	0.132	-0.163
-591.967	241.061	-0.024	-0.039
-590.952	-98.614	0.144	0.037
-589.938	-200.000	-0.029	0.140
-588.923	-8.881	-0.221	-0.148
-587.909	-69.132	-0.140	0.054
-586.894	10.760	-0.126	-0.096
-585.879	159.366	-0.071	0.098
-584.865	154.432	-0.056	-0.077
-583.850	163.191	0.015	-0.021
-582.836	190.994	-0.118	-0.177
-581.821	-174.989	0.339	-0.009
-580.806	104.286	-0.101	0.119
-579.792	29.336	-0.142	0.120
-578.777	-140.855	0.312	0.032
-577.763	-56.328	-0.313	0.139
-576.748	281.101	-0.047	0.084
-575.733	-95.261	0.246	0.066
-574.719	251.272	-0.057	-0.096
-573.704	-105.383	-0.121	-0.027
-572.690	-119.207	-0.199	-0.035
-571.675	24.121	-0.131	0.107
-570.661	168.941	-0.122	0.174
-569.646	-13.010	0.133	0.086
-568.631	-11.031	0.045	0.030
-567.617	44.978	0.089	0.081
-566.602	-138.654	0.222	0.024
-565.588	-200.000	-0.025	0.192
-564.573	800.000	0.098	-0.314
-563.558	28.268	0.221	0.186
-562.544	24.908	-0.076	0.063
-561.529	155.568	0.055	0.076
-560.515	-200.000	-0.008	-0.128
-559.500	-200.000	0.035	0.290
-558.485	-200.000	0.002	0.269
-557.471	-31.168	-0.214	-0.120
-556.456	-139.373	-0.138	-0.015
-555.442	-67.837	0.240	0.093
-554.427	-104.883	0.165	-0.038
-553.412	66.719	-0.296	0.300
-552.398	15.481	-0.065	0.051
-551.383	440.196	0.051	-0.111
-550.369	-58.746	-0.077	0.033
-549.354	0.447	-0.273	0.194
-548.339	800.000	-0.067	-0.255
-547.325	118.735	-0.046	-0.056
-546.310	669.816	-0.103	0.266
-545.296	-200.000	0.059	0.283
-544.281	-84.607	0.139	-0.044
-543.266	-157.059	0.236	0.014
-542.252	-200.000	-0.040	-0.276
-541.237	-196.237	0.054	-0.000
-540.223	800.000	-0.025	-0.091
-539.208	-94.018	-0.318	-0.087
-538.193	-200.000	-0.041	-0.185
-537.179	-17.747	0.285	0.178
-536.164	63.440	-0.086	0.086
-535.150	800.000	-0.056	-0.208
-534.135	80.280	0.057	0.061
-533.121	70.948	0.262	0.270
-532.106	800.000	-0.045	-0.151
-531.091	-42.327	0.260	-0.132
-530.077	-200.000	0.085	-0.524
-529.062	-200.000	0.061	0.344
-528.048	-43.840	-0.329	0.165
-527.033	-69.931	0.164	0.062
-526.018	26.944	0.143	0.119
-525.004	-44.129	0.237	-0.118
-523.989	800.000	0.058	-0.172
-522.975	-158.685	0.246	-0.014
-521.960	29.739	-0.208	-0.176
-520.945	302.600	-0.118	-0.217
-519.931	-48.222	-0.357	0.171
-518.916	-10.313	0.011	-0.007
-517.902	-164.282	-0.051	-0.002
-516.887	-167.450	0.326	0.013
-515.872	117.383	-0.154	-0.189
-514.858	252.589	-0.111	-0.189
-513.843	245.949	0.033	-0.056
-512.829	526.301	-0.132	0.310
-511.814	-112.417	-0.444	0.088
-510.799	246.408	-0.216	-0.361
-509.785	136.749	0.135	0.175
-508.770	-46.087	0.149	-0.073
-507.756	53.123	-0.140	-0.133
-506.741	281.768	-0.126	-0.224
-505.726	547.275	-0.067	0.159
-504.712	800.000	0.029	-0.124
-503.697	32.608	0.123	0.106
-502.683	800.000	0.052	0.207
-501.668	-96.918	-0.249	0.065
-500.653	375.995	-0.099	-0.200
-499.639	-77.383	-0.217	0.075
-498.624	-17.264	0.101	-0.063
-497.610	709.960	-0.046	0.121
-496.595	-158.360	-0.207	-0.012
-495.581	-200.000	-0.033	-0.191
-494.566	-22.296	-0.307	-0.185
-493.551	53.449	0.109	0.104
-492.537	-64.354	0.186	0.075
-491.522	269.487	-0.164	0.286
-490.508	67.383	0.073	-0.074
-489.493	-200.000	-0.013	-0.088
-488.478	-133.541	-0.317	0.039
-487.464	13.786	0.175	-0.135
-486.449	-61.883	0.332	0.138
-485.435	83.183	0.201	-0.217
-484.420	-1.960	-0.109	-0.076
-483.405	-71.357	0.055	-0.020
-482.391	57.406	-0.200	-0.194
-481.376	168.056	0.164	0.231
-480.362	-61.807	-0.334	0.139
-479.347	-200.000	-0.045	-0.322
-478.332	21.991	0.286	0.231
-477.318	27.152	0.105	-0.087
-476.303	108.558	-0.056	-0.066
-475.289	-16.784	-0.317	-0.199
-474.274	86.293	0.104	-0.114
-473.259	-200.000	0.029	-0.206
-472.245	1.750	0.193	-0.138
-471.230	-67.741	-0.106	-0.041
-470.216	-125.957	0.087	-0.013
-469.201	-62.176	0.449	-0.186
-468.186	-71.989	0.272	0.100
-467.172	-49.660	0.078	0.037
-466.157	87.933	0.093	-0.102
-465.143	-75.916	0.069	0.024
-464.128	-95.485	-0.154	-0.041
-463.113	63.542	-0.259	-0.258
-462.099	77.218	-0.062	0.065
-461.084	-103.485	0.270	-0.063
-460.070	3.197	-0.499	-0.360
-459.055	13.514	0.090	-0.069
-458.040	-64.487	-0.293	-0.118
-457.026	800.000	0.052	0.153
-456.011	-200.000	0.006	-0.421
-454.997	-200.000	-0.009	-0.074
-453.982	248.341	-0.240	-0.403
-452.968	800.000	-0.094	0.276
-451.953	11.328	-0.183	-0.139
-450.938	81.711	-0.075	-0.081
-449.924	-120.840	-0.237	0.040
-448.909	-21.525	0.110	0.067
-447.895	-31.306	0.285	0.159
-446.880	-200.000	-0.009	0.061
-445.865	-29.803	-0.222	0.126
-444.851	-200.000	0.022	-0.291
-443.836	-134.401	-0.137	0.017
-442.822	64.406	0.187	0.187
-441.807	417.467	0.195	0.413
-440.792	-200.000	0.063	0.277
-439.778	53.769	0.161	0.154
-438.763	111.572	0.241	0.288
-437.749	342.205	0.071	-0.138
-436.734	328.874	-0.055	0.106
-435.719	352.650	-0.048	0.094
-434.705	-88.903	-0.048	-0.014
-433.690	-108.998	0.250	0.053
-432.676	144.256	0.253	0.335
-431.661	-200.000	-0.020	0.140
-430.646	-200.000	-0.031	-0.247
-429.632	-200.000	-0.009	-0.233
-428.617	-200.000	0.005	-0.155
-427.603	-56.912	0.191	0.084
-426.588	-200.000	-0.013	0.128
-425.573	758.037	-0.090	0.242
-424.559	112.450	0.209	0.250
-423.544	-200.000	0.027	-0.154
-422.530	654.940	0.118	0.300
-421.515	800.000	-0.060	-0.250
-420.500	-33.704	0.309	0.169
-419.486	412.733	-0.191	-0.403
-418.471	84.360	-0.194	-0.210
-417.457	800.000	-0.100	0.316
-416.442	800.000	0.086	-0.259
-415.428	-200.000	-0.007	0.085
-414.413	480.806	-0.132	0.297
-413.398	25.552	-0.179	0.147
-412.384	-108.112	0.043	-0.009
-411.369	-200.000	0.005	-0.125
-410.355	469.459	0.036	-0.080
-409.340	-194.275	-0.250	-0.002
-408.325	11.847	-0.128	0.098
-407.311	-164.476	-0.239	-0.011
-406.296	-5.170	0.177	-0.121
-405.282	83.940	0.016	0.017
-404.267	-119.537	-0.347	-0.059
-403.252	-200.000	0.005	0.153
-402.238	82.855	0.082	0.089
-401.223	800.000	0.043	-0.175
-400.209	226.523	-0.092	-0.148
-399.194	299.364	0.043	0.078
-398.179	131.932	0.093	-0.118
-397.165	80.221	-0.038	0.041
-396.150	257.018	0.071	0.122
-395.136	-99.045	0.051	0.013
-394.121	-42.380	-0.206	0.104
-393.106	496.947	0.105	0.239
-392.092	-157.193	0.286	-0.017
-391.077	72.320	-0.256	-0.264
-390.063	128.548	-0.084	-0.106
-389.048	-130.568	0.110	-0.015
-388.033	-181.454	-0.143	-0.003
-387.019	98.601	0.097	0.110
-386.004	12.629	0.054	-0.042
-384.990	-85.417	-0.133	-0.041
-383.975	-64.986	-0.078	0.031
-382.960	-20.593	0.293	0.178
-381.946	800.000	0.126	-0.371
-380.931	80.109	0.229	-0.243
-379.917	-138.039	0.356	-0.039
-378.902	-200.000	-0.037	0.176
-377.888	-159.106	-0.254	0.014
-376.873	433.540	0.089	-0.191
-375.858	-104.890	0.326	-0.074
-374.844	157.004	-0.133	-0.181
-373.829	18.379	-0.164	-0.130
-372.815	-151.327	-0.190	0.014
-371.800	13.163	0.263	-0.201
-370.785	-110.632	0.273	-0.056
-369.771	-33.564	-0.285	-0.156
-368.756	-60.335	-0.353	0.149
-367.742	-31.730	-0.262	0.145
-366.727	-200.000	0.015	0.173
-365.712	193.825	-0.095	0.142
-364.698	407.155	-0.152	0.317
-363.683	46.659	0.185	0.170
-362.669	-124.698	-0.315	-0.048
-361.654	61.394	0.017	0.017
-360.639	800.000	-0.091	-0.257
-359.625	-86.364	0.119	0.036
-358.610	-105.699	-0.097	-0.022
-357.596	477.232	0.079	0.177
-356.581	48.423	-0.050	-0.047
-355.566	-161.387	-0.187	0.010
-354.552	-200.000	0.010	0.198
-353.537	191.129	-0.086	0.128
-352.523	96.454	0.328	0.371
-351.508	181.691	-0.080	0.116
-350.493	623.428	-0.047	-0.116
-349.479	-103.794	0.240	-0.055
-348.464	-157.924	0.113	-0.007
-347.450	-200.000	0.043	0.233
-346.435	-94.818	-0.208	0.056
-345.420	-35.728	0.124	0.066
-344.406	-200.000	0.008	0.245
-343.391	-128.756	-0.202	-0.028
-342.377	673.140	-0.058	-0.149
-341.362	95.892	0.197	-0.223
-340.348	-24.783	0.160	0.094
-339.333	-61.687	-0.211	0.087
-338.318	-200.000	0.002	-0.221
-337.304	75.513	0.110	0.114
-336.289	-200.000	0.016	0.187
-335.275	-47.459	-0.141	-0.068
-334.260	-120.506	0.114	0.019
-333.245	138.779	0.158	0.205
-332.231	105.893	-0.269	0.314
-331.216	800.000	0.048	0.144
-330.202	31.021	0.354	-0.300
-329.187	-68.561	0.248	-0.095
-328.172	-200.000	-0.026	-0.421
-327.158	142.576	-0.053	0.069
-326.143	-69.511	0.291	0.110
-325.129	65.497	-0.329	0.328
-324.114	800.000	0.100	0.288
-323.099	800.000	0.109	0.387
-322.085	135.589	0.040	-0.051
-321.070	8.255	-0.275	-0.203
-320.056	285.546	0.079	-0.141
-319.041	-88.946	0.169	0.049
-318.026	-10.848	0.253	0.165
-317.012	501.346	0.047	-0.107
-315.997	-157.892	-0.197	-0.012
-314.983	-67.712	-0.316	0.122
-313.968	-91.514	0.112	-0.031
-312.953	320.896	-0.007	0.013
-311.939	-51.617	-0.326	0.150
-310.924	-112.591	0.248	0.049
-309.910	77.012	0.112	0.117
-308.895	60.584	0.081	-0.079
-307.880	-23.571	0.128	-0.076
-306.866	50.700	-0.165	0.154
-305.851	800.000	-0.097	0.285
-304.837	-132.394	0.271	0.034
-303.822	248.467	0.321	0.535
-302.807	800.000	0.036	0.115
-301.793	58.028	0.322	0.311
-300.778	-200.000	0.010	0.229
-299.764	303.266	0.041	-0.074
-298.749	-129.575	0.317	-0.043
-297.735	-60.835	-0.206	0.086
-296.720	800.000	0.093	-0.316
-295.705	221.638	0.098	-0.156
-294.691	800.000	-0.060	-0.178
-293.676	-24.570	0.105	0.061
-292.662	316.154	-0.058	-0.108
-291.647	374.077	-0.099	0.199
-290.632	-200.000	0.012	0.341
-289.618	-69.727	0.352	-0.132
-288.603	90.015	-0.164	-0.180
-287.589	800.000	0.059	-0.203
-286.574	492.250	0.032	0.073
-285.559	311.300	-0.033	-0.061
-284.545	-16.383	-0.270	-0.169
-283.530	34.695	-0.093	0.080
-282.516	-42.724	-0.171	0.086
-281.501	-115.410	-0.337	-0.063
-280.486	-36.161	0.186	0.099
-279.472	-93.117	-0.026	-0.007
-278.457	79.689	-0.163	0.172
-277.443	-200.000	-0.024	0.162
-276.428	-16.280	0.215	0.134
-275.413	-149.110	-0.264	0.021
-274.399	412.037	0.060	-0.126
-273.384	248.927	0.073	0.123
-272.370	-97.096	0.298	-0.077
-271.355	-114.023	0.269	-0.051
-270.340	-5.046	-0.188	-0.128
-269.326	800.000	-0.066	0.232
-268.311	-6.871	-0.203	-0.136
-267.297	-200.000	-0.030	-0.171
-266.282	226.555	0.077	0.123
-265.267	129.797	-0.040	-0.050
-264.253	-112.198	0.167	0.033
-263.238	-122.285	-0.306	-0.049
-262.224	-200.000	-0.027	-0.169
-261.209	201.409	0.144	0.218
-260.195	311.912	-0.108	-0.199
-259.180	-68.464	0.129	-0.049
-258.165	-54.384	-0.448	0.200
-257.151	-200.000	0.017	0.469
-256.136	800.000	0.075	0.301
-255.122	132.156	0.071	0.090
-254.107	-200.000	0.022	-0.155
-253.092	-65.155	0.288	-0.114
-252.078	-200.000	0.001	0.120
-251.063	408.108	-0.049	0.102
-250.049	-80.336	-0.155	0.051
-249.034	800.000	-0.060	-0.208
-248.019	-29.577	-0.258	0.145
-247.005	-200.000	-0.040	0.183
-245.990	159.639	-0.103	-0.141
-244.976	-82.269	-0.148	-0.047
-243.961	264.999	-0.197	-0.338
-242.946	65.729	0.183	-0.183
-241.932	-30.670	-0.249	0.139
-240.917	-200.000	0.025	0.254
-239.903	-200.000	-0.000	-0.010
-238.888	-31.748	0.275	0.152
-237.873	-73.262	0.212	0.076
-236.859	118.935	0.087	-0.106
-235.844	226.762	-0.139	0.222
-234.830	800.000	0.082	0.246
-233.815	112.161	-0.168	0.199
-232.800	643.202	0.083	-0.209
-231.786	94.863	0.162	0.181
-230.771	-200.000	-0.023	-0.428
-229.757	-123.651	0.058	0.009
-228.742	339.510	0.110	0.211
-227.727	-200.000	-0.062	0.269
-226.713	275.632	-0.103	-0.179
-225.698	800.000	0.017	-0.048
-224.684	-145.836	0.280	-0.024
-223.669	-10.227	-0.219	-0.143
-222.655	198.586	0.199	0.299
-221.640	-11.596	0.174	0.112
-220.625	268.619	-0.133	0.230
-219.611	-78.542	-0.113	0.038
-218.596	90.640	-0.109	-0.120
-217.582	-123.439	0.142	-0.022
-216.567	-68.471	0.416	-0.159
-215.552	-103.792	0.610	-0.140
-214.538	-200.000	-0.023	-0.339
-213.523	-26.999	0.234	-0.134
-212.509	-200.000	0.051	-0.369
-211.494	162.720	-0.181	0.249
-210.479	72.335	0.175	-0.179
-209.465	-25.623	-0.083	0.048
-208.450	-1.905	-0.014	-0.009
-207.436	88.847	0.403	0.440
-206.421	29.743	0.089	0.075
-205.406	601.270	-0.076	0.186
-204.392	-96.824	-0.235	0.061
-203.377	39.853	0.104	-0.091
-202.363	244.894	0.184	0.304
-201.348	-110.061	-0.316	-0.065
-200.333	-127.037	0.329	0.047
-199.319	-200.000	-0.053	-0.231
-198.304	-200.000	0.018	-0.179
-197.290	-141.806	0.142	0.014
-196.275	73.215	-0.188	0.193
-195.260	341.458	0.124	-0.237
-194.246	43.157	0.075	-0.067
-193.231	387.868	0.112	0.228
-192.217	-48.130	0.137	-0.065
-191.202	-100.123	-0.405	-0.099
-190.187	507.751	0.073	0.167
-189.173	800.000	-0.048	0.150
-188.158	179.172	-0.169	0.242
-187.144	-200.000	0.043	-0.250
-186.129	-47.392	-0.206	-0.098
-185.114	55.950	0.068	0.064
-184.100	-200.000	-0.039	-0.266
-183.085	134.537	-0.114	-0.145
-182.071	-200.000	0.007	-0.057
-181.056	800.000	0.096	0.264
-180.042	-189.823	-0.087	0.001
-179.027	-77.972	0.264	0.089
-178.012	-104.801	-0.271	-0.061
-176.998	169.436	0.144	-0.202
-175.983	-161.099	-0.332	0.017
-174.969	-76.724	0.023	0.008
-173.954	-140.219	-0.451	0.046
-172.939	-135.734	0.272	-0.032
-171.925	119.669	0.004	-0.005
-170.910	-200.000	-0.005	0.094
-169.896	-60.139	-0.211	0.088
-168.881	77.263	-0.241	-0.251
-167.866	-76.402	0.049	0.017
-166.852	612.974	0.041	-0.101
-165.837	264.475	0.119	-0.203
-164.823	-177.333	0.176	-0.004
-163.808	67.440	0.119	-0.119
-162.793	251.789	0.088	-0.147
-161.779	-197.193	0.178	-0.001
-160.764	-41.094	-0.129	-0.065
-159.750	-89.589	0.157	-0.045
-158.735	-44.827	0.247	0.121
-157.720	83.065	0.099	-0.106
-156.706	-99.000	-0.180	-0.045
-155.691	564.506	-0.082	-0.194
-154.677	800.000	0.115	-0.450
-153.662	800.000	0.041	-0.146
-152.647	289.802	-0.033	-0.059
-151.633	-177.628	-0.140	0.003
-150.618	495.781	0.048	-0.109
-149.604	-57.454	-0.062	0.027
-148.589	597.277	0.110	-0.267
-147.574	-100.525	-0.283	0.069
-146.560	-200.000	0.006	0.288
-145.545	-95.295	0.120	0.032
-144.531	46.023	0.180	0.163
-143.516	-96.773	-0.237	0.061
-142.502	-100.485	0.171	0.041
-141.487	800.000	0.091	0.267
-140.472	-81.874	0.262	-0.084
-139.458	-81.959	0.104	-0.033
-138.443	23.065	-0.102	0.082
-137.429	-79.496	-0.254	0.084
-136.414	-200.000	-0.058	-0.456
-135.399	-26.076	0.239	0.138
-134.385	-200.000	0.014	0.350
-133.370	800.000	-0.087	-0.271
-132.356	-46.603	0.167	-0.080
-131.341	-173.679	-0.201	0.006
-130.326	-48.789	-0.182	0.085
-129.312	-11.057	-0.044	-0.028
-128.297	-86.732	-0.064	0.019
-127.283	-105.044	-0.209	0.047
-126.268	800.000	-0.088	-0.321
-125.253	616.062	0.082	-0.202
-124.239	-43.344	0.104	-0.051
-123.224	50.889	-0.150	0.139
-122.210	173.481	-0.117	0.165
-121.195	738.981	0.028	0.074
