DTS Sentinel unit serial number:	SN413079Multiplexer serial number:	ORYXHardware model number:	OX4-SRSoftware version number:	ORYX F/W v4.00 Oryx Data Collector v3.7.2.0data status	okinstallation	princeton_trtdifferential loss correction	single-endedforward channel	channel 1reverse channel	N/Adate	2019/09/19time	15:30:35forward acquisition time	60.00reverse acquisition time	0.00gamma	496.2192k internal	0.2311k external	0.2311temperature offset calibration	1.0022default loss term (dB/km)	0.3790temperature slope calibration	1.0000multiplexer offset coefficient	1.0000multiplexer slope coefficient	1.0000fibre end	0.00T internal ref (°C)	34.06T ext. ref 1 (°C)	1.15T ext. ref 2 (°C)	31.40length (m)	temperature (°C)	Stokes	anti-Stokes-747.200	800.000	-0.064	0.273
-746.185	-26.811	-0.320	0.190
-745.171	-76.827	0.340	0.121
-744.156	-28.583	0.102	0.060
-743.142	-132.817	-0.289	-0.037
-742.127	583.181	-0.195	0.485
-741.112	800.000	0.021	-0.080
-740.098	-200.000	-0.018	0.192
-739.083	-90.180	0.080	0.024
-738.069	-200.000	0.048	0.239
-737.054	-109.899	-0.135	-0.029
-736.039	-4.926	-0.296	0.207
-735.025	-44.341	0.403	0.205
-734.010	-200.000	-0.042	-0.386
-732.996	1.590	-0.191	-0.139
-731.981	-75.791	0.077	0.028
-730.966	-97.281	0.180	-0.048
-729.952	261.273	0.081	-0.143
-728.937	-68.005	0.103	-0.041
-727.923	-200.000	0.034	-0.166
-726.908	-33.724	0.226	0.127
-725.894	-104.109	-0.117	-0.028
-724.879	30.838	0.249	-0.217
-723.864	-200.000	-0.086	0.427
-722.850	-56.888	-0.292	0.131
-721.835	68.446	0.224	0.233
-720.821	-200.000	0.058	-0.385
-719.806	-58.930	-0.067	-0.029
-718.791	-91.020	0.021	-0.006
-717.777	383.069	-0.095	-0.199
-716.762	800.000	-0.085	-0.370
-715.748	-51.435	-0.077	0.037
-714.733	-135.772	-0.414	-0.050
-713.718	-200.000	-0.013	0.179
-712.704	-146.073	0.156	0.014
-711.689	-88.693	-0.471	-0.142
-710.675	174.628	-0.225	-0.329
-709.660	21.717	0.130	0.107
-708.645	179.855	0.097	0.144
-707.631	105.844	0.189	-0.227
-706.616	-200.000	-0.005	-0.181
-705.602	737.588	0.193	0.524
-704.587	-123.231	-0.093	0.015
-703.572	-131.737	0.280	0.037
-702.558	-127.294	0.145	-0.021
-701.543	-30.335	0.195	-0.112
-700.529	473.049	-0.118	0.270
-699.514	-41.882	-0.114	0.059
-698.499	-37.660	-0.241	0.130
-697.485	4.168	0.235	0.175
-696.470	43.281	-0.145	-0.134
-695.456	-148.776	-0.038	0.003
-694.441	-100.861	-0.273	0.068
-693.426	291.979	-0.050	0.091
-692.412	328.227	0.180	-0.350
-691.397	800.000	0.041	-0.149
-690.383	302.705	-0.114	-0.215
-689.368	-125.637	0.194	0.030
-688.354	-54.505	0.049	0.022
-687.339	800.000	0.061	-0.181
-686.324	266.435	0.042	0.075
-685.310	800.000	0.028	-0.099
-684.295	42.755	0.063	0.058
-683.281	-25.444	0.114	0.068
-682.266	5.148	0.189	0.141
-681.251	-200.000	-0.025	0.205
-680.237	-200.000	0.048	-0.355
-679.222	173.850	0.070	-0.102
-678.208	800.000	-0.044	0.144
-677.193	-102.238	-0.083	-0.020
-676.178	-200.000	0.020	-0.179
-675.164	103.293	-0.068	-0.081
-674.149	-115.430	0.165	-0.032
-673.135	107.046	0.063	-0.076
-672.120	17.575	-0.428	-0.344
-671.105	152.100	-0.072	0.099
-670.091	-200.000	-0.052	0.289
-669.076	-9.509	-0.067	0.045
-668.062	-200.000	-0.029	-0.152
-667.047	-200.000	-0.011	-0.558
-666.032	-200.000	-0.010	-0.072
-665.018	56.195	-0.160	-0.157
-664.003	115.410	-0.216	-0.267
-662.989	-200.000	0.024	-0.262
-661.974	-81.129	0.389	-0.130
-660.959	800.000	-0.007	-0.019
-659.945	192.537	-0.099	0.152
-658.930	-200.000	0.030	0.224
-657.916	-48.846	0.181	0.088
-656.901	125.911	-0.352	-0.450
-655.886	310.613	0.086	-0.162
-654.872	540.514	0.104	-0.250
-653.857	456.797	0.106	-0.238
-652.843	-51.874	-0.239	-0.113
-651.828	379.739	0.068	-0.141
-650.814	178.672	-0.020	0.030
-649.799	-90.943	-0.104	0.030
-648.784	146.980	0.163	-0.221
-647.770	-22.110	-0.188	-0.115
-646.755	76.683	0.173	-0.185
-645.741	-135.511	-0.106	-0.013
-644.726	50.493	0.138	-0.132
-643.711	89.548	-0.120	-0.135
-642.697	-10.901	-0.117	-0.078
-641.682	-200.000	-0.036	-0.267
-640.668	-165.854	0.151	0.007
-639.653	-200.000	0.107	0.494
-638.638	-200.000	-0.004	0.053
-637.624	387.307	0.053	-0.111
-636.609	458.863	0.050	-0.111
-635.595	-60.304	0.210	-0.090
-634.580	-200.000	-0.011	-0.061
-633.565	-37.371	0.142	0.076
-632.551	157.229	-0.100	-0.140
-631.536	-74.691	0.358	0.130
-630.522	-37.953	-0.164	-0.088
-629.507	-140.702	0.234	0.024
-628.492	1.888	-0.143	0.104
-627.478	-5.200	0.125	0.087
-626.463	800.000	-0.036	0.141
-625.449	-94.659	-0.360	0.099
-624.434	30.828	-0.058	-0.050
-623.419	-194.496	0.346	0.003
-622.405	-200.000	-0.038	0.177
-621.390	800.000	-0.048	0.136
-620.376	550.344	0.028	-0.067
-619.361	142.001	-0.102	-0.137
-618.346	-151.487	-0.123	0.009
-617.332	270.440	0.154	-0.274
-616.317	800.000	0.112	0.396
-615.303	-103.648	-0.394	0.093
-614.288	114.822	-0.328	0.405
-613.273	-78.163	-0.202	0.070
-612.259	800.000	-0.116	0.418
-611.244	3.681	-0.108	0.079
-610.230	306.703	-0.223	-0.419
-609.215	37.973	0.209	0.188
-608.201	-200.000	-0.008	0.140
-607.186	-22.203	-0.555	0.340
-606.171	-77.761	0.200	-0.070
-605.157	-36.691	-0.314	0.170
-604.142	-200.000	0.008	-0.079
-603.128	-26.163	-0.220	-0.131
-602.113	153.826	0.098	0.136
-601.098	-4.259	-0.127	0.088
-600.084	47.900	0.136	0.128
-599.069	-53.911	-0.354	-0.163
-598.055	30.972	-0.152	0.132
-597.040	-52.730	0.435	-0.202
-596.025	105.354	0.059	0.071
-595.011	-80.004	0.187	-0.063
-593.996	800.000	0.049	-0.186
-592.982	77.759	0.241	-0.259
-591.967	-93.842	0.053	-0.015
-590.952	-20.825	-0.229	-0.142
-589.938	-118.539	0.229	0.041
-588.923	-70.598	-0.222	0.085
-587.909	-200.000	0.010	-0.124
-586.894	-181.153	-0.257	0.005
-585.879	71.764	-0.313	-0.328
-584.865	-68.218	-0.166	0.065
-583.850	-76.654	0.075	0.027
-582.836	-49.669	0.085	0.041
-581.821	-58.197	0.201	-0.088
-580.806	-200.000	0.004	0.126
-579.792	-81.708	-0.078	-0.026
-578.777	-99.807	-0.446	0.113
-577.763	91.902	-0.280	0.317
-576.748	77.223	-0.296	0.317
-575.733	-138.269	-0.331	0.037
-574.719	-36.360	-0.183	0.100
-573.704	-84.931	0.143	-0.045
-572.690	-9.500	0.137	-0.092
-571.675	133.673	-0.087	-0.113
-570.661	-146.455	0.262	-0.023
-569.646	-83.483	0.380	-0.123
-568.631	159.678	-0.162	0.228
-567.617	-80.234	-0.239	-0.081
-566.602	-142.360	0.343	-0.034
-565.588	247.479	-0.057	-0.096
-564.573	170.975	0.239	-0.345
-563.558	132.229	-0.111	-0.144
-562.544	-200.000	-0.013	0.080
-561.529	-97.516	-0.377	-0.099
-560.515	800.000	-0.032	0.092
-559.500	0.699	0.032	-0.023
-558.485	-79.269	-0.302	0.103
-557.471	-158.046	-0.126	0.007
-556.456	-141.077	-0.222	0.023
-555.442	-169.260	0.292	0.011
-554.427	-200.000	0.009	-0.142
-553.412	800.000	-0.073	-0.277
-552.398	16.277	-0.226	0.180
-551.383	-51.406	-0.194	-0.091
-550.369	-200.000	-0.028	-0.413
-549.354	274.997	-0.017	0.031
-548.339	-73.864	-0.251	-0.092
-547.325	-136.763	-0.211	-0.024
-546.310	37.195	0.116	-0.103
-545.296	35.499	-0.252	-0.223
-544.281	-142.119	0.076	-0.008
-543.266	-87.015	0.120	0.037
-542.252	69.306	0.258	-0.268
-541.237	-123.995	-0.200	0.032
-540.223	800.000	0.073	0.237
-539.208	-200.000	-0.012	0.270
-538.193	-200.000	-0.208	0.000
-537.179	800.000	-0.109	0.432
-536.164	-136.628	0.055	-0.006
-535.150	-1.568	0.071	-0.050
-534.135	454.696	-0.045	-0.100
-533.121	-200.000	0.033	0.184
-532.106	-200.000	0.017	-0.111
-531.091	-96.068	-0.198	-0.053
-530.077	-200.000	0.016	-0.486
-529.062	-73.072	0.328	0.121
-528.048	-200.000	0.013	0.171
-527.033	-167.596	-0.119	0.005
-526.018	-200.000	-0.006	-0.247
-525.004	179.820	0.066	-0.098
-523.989	800.000	-0.098	-0.380
-522.975	-179.873	0.228	0.005
-521.960	-200.000	0.008	0.060
-520.945	-47.017	-0.092	-0.045
-519.931	-142.319	0.066	-0.007
-518.916	131.034	0.101	-0.131
-517.902	651.040	0.038	-0.098
-516.887	777.455	0.031	-0.086
-515.872	-40.429	0.164	-0.086
-514.858	95.981	0.165	0.190
-513.843	-127.206	-0.425	-0.062
-512.829	117.485	0.188	-0.233
-511.814	-121.826	-0.139	0.023
-510.799	-28.335	-0.195	0.113
-509.785	800.000	-0.084	-0.283
-508.770	-166.885	0.209	0.009
-507.756	473.313	-0.100	-0.227
-506.741	-16.559	-0.140	0.089
-505.726	492.192	-0.122	-0.282
-504.712	-124.065	0.098	-0.015
-503.697	-27.468	0.104	0.061
-502.683	-132.626	0.130	0.017
-501.668	8.397	-0.037	-0.028
-500.653	45.315	0.095	-0.089
-499.639	800.000	0.033	0.132
-498.624	35.722	0.197	-0.174
-497.610	52.582	-0.214	0.206
-496.595	220.826	0.186	-0.300
-495.581	-83.372	-0.172	0.055
-494.566	-184.266	-0.163	0.003
-493.551	43.209	-0.248	0.228
-492.537	-16.738	0.155	0.099
-491.522	295.199	0.155	-0.285
-490.508	800.000	-0.088	0.277
-489.493	72.757	0.126	-0.133
-488.478	-69.032	-0.244	-0.094
-487.464	-136.105	0.266	0.031
-486.449	-78.235	0.179	0.062
-485.435	98.962	-0.132	-0.153
-484.420	-28.936	0.083	0.048
-483.405	-125.292	0.266	0.041
-482.391	768.598	-0.149	0.408
-481.376	-108.918	0.070	0.015
-480.362	515.619	-0.168	-0.393
-479.347	800.000	0.096	-0.381
-478.332	-127.150	0.174	-0.026
-477.318	-59.543	0.188	0.081
-476.303	800.000	-0.055	0.168
-475.289	77.205	0.123	0.132
-474.274	-29.674	0.101	-0.058
-473.259	77.229	0.090	0.096
-472.245	-57.043	0.080	0.035
-471.230	-146.927	0.258	0.022
-470.216	-16.388	-0.049	0.031
-469.201	109.956	0.191	-0.230
-468.186	-56.663	0.342	-0.152
-467.172	-200.000	0.043	-0.260
-466.157	-44.189	0.430	-0.217
-465.143	9.648	0.120	0.091
-464.128	625.777	0.185	0.469
-463.113	436.159	0.158	-0.345
-462.099	800.000	0.029	-0.099
-461.084	1.621	-0.350	0.253
-460.070	-200.000	0.053	0.242
-459.055	800.000	0.092	-0.258
-458.040	-127.227	-0.324	-0.048
-457.026	-200.000	-0.053	-0.306
-456.011	-0.882	0.121	0.086
-454.997	152.556	-0.100	-0.137
-453.982	800.000	0.049	0.167
-452.968	542.624	0.071	-0.169
-451.953	-198.720	-0.270	0.002
-450.938	116.322	-0.148	0.182
-449.924	800.000	-0.065	0.244
-448.909	-58.444	0.189	-0.082
-447.895	-200.000	0.016	0.088
-446.880	24.491	-0.110	0.091
-445.865	-200.000	0.028	-0.179
-444.851	-200.000	0.028	0.182
-443.836	2.884	-0.371	-0.270
-442.822	800.000	0.079	-0.244
-441.807	565.252	0.069	-0.169
-440.792	-51.498	-0.224	0.105
-439.778	-116.586	0.332	0.061
-438.763	612.035	-0.031	0.078
-437.749	-200.000	-0.012	0.058
-436.734	82.460	0.102	-0.111
-435.719	800.000	0.050	-0.176
-434.705	4.613	0.217	0.160
-433.690	-113.359	0.111	0.022
-432.676	157.322	0.234	0.324
-431.661	-58.435	-0.152	-0.066
-430.646	-200.000	-0.025	-0.134
-429.632	-200.000	0.048	0.383
-428.617	-122.387	0.077	-0.013
-427.603	-148.617	-0.449	-0.037
-426.588	-92.569	-0.042	0.012
-425.573	-31.894	-0.112	0.063
-424.559	4.310	0.091	0.067
-423.544	31.842	-0.172	0.148
-422.530	-200.000	-0.011	-0.257
-421.515	48.889	-0.053	0.050
-420.500	-23.820	-0.114	0.069
-419.486	-132.998	-0.162	-0.021
-418.471	7.426	0.331	0.248
-417.457	800.000	0.088	-0.289
-416.442	-4.587	0.312	-0.216
-415.428	800.000	0.091	0.333
-414.413	-111.400	0.252	0.052
-413.398	-48.193	0.178	0.086
-412.384	-200.000	-0.016	-0.263
-411.369	-143.639	0.015	-0.001
-410.355	80.701	0.033	-0.035
-409.340	43.971	-0.182	0.167
-408.325	-103.923	0.211	-0.049
-407.311	-200.000	0.005	0.296
-406.296	118.997	-0.255	0.316
-405.282	800.000	-0.119	-0.336
-404.267	144.716	0.217	-0.291
-403.252	235.076	-0.079	-0.131
-402.238	28.348	0.183	0.155
-401.223	241.894	0.103	0.172
-400.209	-79.052	-0.094	-0.032
-399.194	-200.000	0.040	-0.235
-398.179	138.211	-0.146	0.192
-397.165	21.164	-0.034	0.028
-396.150	-128.983	-0.235	0.033
-395.136	-104.516	0.320	-0.074
-394.121	116.256	0.069	-0.084
-393.106	181.531	0.057	-0.084
-392.092	-77.868	-0.075	-0.026
-391.077	7.717	-0.262	-0.196
-390.063	64.450	0.088	0.089
-389.048	4.938	0.022	0.016
-388.033	41.892	-0.173	0.157
-387.019	393.505	0.082	0.171
-386.004	47.010	-0.053	0.049
-384.990	-200.000	0.005	-0.323
-383.975	800.000	-0.048	-0.190
-382.960	30.629	-0.019	0.016
-381.946	418.096	0.066	-0.142
-380.931	800.000	-0.080	-0.270
-379.917	523.306	-0.064	-0.150
-378.902	-200.000	0.037	-0.199
-377.888	-135.341	0.185	0.022
-376.873	-4.122	-0.265	-0.184
-375.858	800.000	0.003	0.011
-374.844	15.674	0.149	-0.117
-373.829	-120.862	-0.279	0.047
-372.815	800.000	-0.012	-0.051
-371.800	-53.972	-0.085	0.039
-370.785	800.000	-0.064	-0.233
-369.771	56.983	0.153	0.149
-368.756	-200.000	-0.030	-0.153
-367.742	47.706	0.159	-0.148
-366.727	-139.061	-0.065	0.007
-365.712	209.528	0.075	-0.117
-364.698	522.963	0.207	-0.486
-363.683	-10.890	-0.231	0.153
-362.669	362.316	-0.175	-0.350
-361.654	-90.624	0.160	0.046
-360.639	-200.000	-0.015	-0.131
-359.625	-162.377	0.255	-0.013
-358.610	-38.434	0.108	-0.057
-357.596	141.872	-0.077	-0.102
-356.581	47.624	0.134	-0.125
-355.566	-79.850	-0.341	0.115
-354.552	800.000	0.010	0.032
-353.537	332.308	-0.146	0.282
-352.523	-200.000	0.006	0.067
-351.508	294.749	0.060	-0.110
-350.493	800.000	-0.044	-0.127
-349.479	-91.248	-0.272	-0.078
-348.464	-83.174	-0.124	-0.040
-347.450	-175.666	0.197	0.005
-346.435	56.904	0.087	0.084
-345.420	-71.137	0.225	-0.084
-344.406	-140.693	0.275	0.028
-343.391	-200.000	0.006	0.202
-342.377	-14.845	-0.201	0.129
-341.362	-117.304	-0.185	-0.033
-340.348	2.126	-0.276	-0.199
-339.333	-142.225	-0.212	-0.021
-338.318	800.000	0.069	-0.195
-337.304	-200.000	-0.007	0.193
-336.289	800.000	0.047	0.206
-335.275	5.427	0.135	-0.100
-334.260	-79.892	-0.205	0.069
-333.245	70.277	-0.212	0.219
-332.231	800.000	0.010	0.039
-331.216	72.316	-0.232	0.242
-330.202	-113.832	-0.159	0.031
-329.187	700.383	0.020	0.054
-328.172	-200.000	0.030	0.137
-327.158	-113.675	-0.148	0.029
-326.143	-108.404	0.325	0.070
-325.129	149.334	0.042	0.057
-324.114	-200.000	-0.019	-0.173
-323.099	-200.000	-0.060	0.336
-322.085	-200.000	-0.012	-0.179
-321.070	190.965	-0.061	0.092
-320.056	-103.215	0.124	0.029
-319.041	12.287	-0.248	-0.190
-318.026	-200.000	-0.052	0.302
-317.012	-111.369	0.340	0.069
-315.997	800.000	-0.128	-0.353
-314.983	-17.564	0.214	-0.135
-313.968	-121.861	-0.346	-0.057
-312.953	181.365	-0.210	0.309
-311.939	-125.841	0.169	-0.025
-310.924	-7.063	0.104	-0.071
-309.910	212.899	0.058	-0.092
-308.895	-118.003	-0.190	0.034
-307.880	-149.543	-0.294	0.023
-306.866	800.000	0.022	0.083
-305.851	-200.000	0.008	0.154
-304.837	356.523	0.128	0.255
-303.822	-63.359	0.203	-0.083
-302.807	-200.000	-0.003	0.303
-301.793	-34.458	0.037	-0.020
-300.778	-42.053	0.147	-0.075
-299.764	70.582	0.039	-0.040
-298.749	-94.594	-0.192	0.052
-297.735	-67.556	0.268	0.105
-296.720	800.000	0.011	-0.036
-295.705	-200.000	0.017	0.178
-294.691	-147.041	-0.121	0.010
-293.676	83.408	-0.155	-0.169
-292.662	800.000	-0.091	-0.373
-291.647	-122.205	0.197	0.032
-290.632	-96.824	0.238	0.062
-289.618	122.559	-0.192	-0.240
-288.603	761.505	-0.026	-0.070
-287.589	-138.148	-0.117	0.013
-286.574	-166.564	0.378	0.016
-285.559	-200.000	0.037	0.168
-284.545	36.325	0.108	0.095
-283.530	-173.767	0.457	0.014
-282.516	204.785	-0.156	-0.241
-281.501	-62.148	-0.076	-0.031
-280.486	-200.000	0.012	0.115
-279.472	43.924	0.237	0.216
-278.457	-200.000	0.007	-0.162
-277.443	-82.035	0.184	0.060
-276.428	210.529	-0.197	-0.309
-275.413	67.579	0.206	0.210
-274.399	79.303	0.429	0.459
-273.384	-26.545	0.084	-0.049
-272.370	24.795	-0.119	-0.099
-271.355	-200.000	-0.046	-0.275
-270.340	-200.000	0.002	-0.176
-269.326	-18.601	0.075	0.047
-268.311	101.982	-0.196	0.229
-267.297	212.979	0.021	-0.032
-266.282	-44.656	0.304	-0.151
-265.267	-96.881	0.062	0.016
-264.253	-63.086	-0.392	-0.161
-263.238	206.611	-0.224	-0.348
-262.224	-193.217	-0.215	0.002
-261.209	-73.827	0.135	0.049
-260.195	290.818	0.061	0.110
-259.180	-8.040	0.438	-0.294
-258.165	-139.190	-0.272	0.029
-257.151	-95.109	-0.283	0.076
-256.136	63.491	0.159	0.159
-255.122	-91.248	-0.218	0.062
-254.107	-102.277	0.244	-0.058
-253.092	-200.000	-0.030	0.136
-252.078	800.000	0.026	0.073
-251.063	65.352	-0.160	0.162
-250.049	-158.195	-0.141	-0.008
-249.034	-70.414	0.167	0.063
-248.019	619.804	0.045	0.111
-247.005	-178.933	0.263	-0.006
-245.990	-173.247	0.070	-0.002
-244.976	-200.000	-0.012	-0.112
-243.961	-153.178	-0.165	-0.011
-242.946	-109.015	-0.284	-0.060
-241.932	-115.883	0.179	0.033
-240.917	-82.006	-0.182	0.059
-239.903	1.334	-0.057	0.041
-238.888	-22.586	-0.241	0.145
-237.873	-94.283	0.260	-0.071
-236.859	-200.000	-0.000	-0.363
-235.844	68.701	-0.087	0.089
-234.830	16.774	-0.072	-0.056
-233.815	800.000	-0.017	-0.070
-232.800	-133.096	-0.091	-0.011
-231.786	406.928	0.131	0.276
-230.771	800.000	-0.026	0.111
-229.757	86.196	0.155	-0.170
-228.742	-200.000	0.010	0.237
-227.727	800.000	0.056	0.208
-226.713	-64.081	0.192	0.078
-225.698	-188.575	-0.153	0.002
-224.684	-101.546	0.562	-0.136
-223.669	622.361	-0.169	0.423
-222.655	-200.000	0.009	0.164
-221.640	800.000	0.072	-0.240
-220.625	-200.000	-0.033	0.177
-219.611	608.063	0.026	0.065
-218.596	38.048	-0.279	0.247
-217.582	-200.000	0.000	0.083
-216.567	288.228	0.191	0.345
-215.552	-95.231	0.157	-0.042
-214.538	-41.042	0.135	0.070
-213.523	-200.000	-0.022	0.182
-212.509	-162.381	-0.244	0.012
-211.494	-42.840	-0.253	-0.128
-210.479	-135.563	0.311	0.037
-209.465	-61.986	0.167	0.069
-208.450	800.000	0.061	-0.243
-207.436	800.000	-0.058	-0.244
-206.421	42.923	-0.331	-0.300
-205.406	-22.495	-0.181	0.109
-204.392	267.948	0.154	0.269
-203.377	4.852	-0.092	0.068
-202.363	473.240	-0.173	0.388
-201.348	252.050	0.035	0.059
-200.333	-200.000	-0.069	-0.327
-199.319	-29.596	-0.162	-0.092
-198.304	-34.870	0.058	-0.031
-197.290	-200.000	-0.015	0.241
-196.275	-60.424	-0.095	-0.040
-195.260	145.229	0.195	0.259
-194.246	273.240	0.043	0.076
-193.231	800.000	0.084	0.335
-192.217	-200.000	-0.054	0.510
-191.202	-200.000	-0.013	0.080
-190.187	800.000	-0.130	0.488
-189.173	-135.574	-0.270	0.032
-188.158	-200.000	-0.005	0.252
-187.144	-143.699	0.359	-0.034
-186.129	50.082	-0.094	-0.088
-185.114	-134.054	0.109	0.013
-184.100	-139.498	-0.292	-0.031
-183.085	63.612	-0.193	-0.192
-182.071	115.092	0.273	-0.331
-181.056	514.182	0.071	0.164
-180.042	-200.000	-0.009	0.262
-179.027	133.845	0.295	0.379
-178.012	-165.845	-0.272	0.012
-176.998	-128.011	0.142	-0.020
-175.983	-85.079	-0.148	0.046
-174.969	174.369	0.127	0.183
-173.954	800.000	-0.048	0.154
-172.939	353.121	0.091	-0.180
-171.925	61.121	0.284	-0.280
-170.910	-32.223	0.308	0.171
-169.896	11.053	-0.146	0.111
-168.881	-45.117	-0.032	-0.016
-167.866	-169.614	0.091	0.003
-166.852	220.979	-0.138	-0.220
-165.837	-160.460	0.326	-0.017
-164.823	123.385	0.170	-0.212
-163.808	156.828	-0.116	0.160
-162.793	-74.801	0.332	0.118
-161.779	-112.847	0.251	0.049
-160.764	800.000	-0.142	-0.538
-159.750	200.056	0.267	-0.406
-158.735	4.137	0.240	-0.174
-157.720	243.433	-0.202	0.336
-156.706	144.385	-0.176	0.233
-155.691	800.000	0.026	0.080
-154.677	800.000	-0.019	-0.058
-153.662	-200.000	-0.006	0.207
-152.647	-200.000	0.010	-0.102
-151.633	-200.000	0.017	0.091
-150.618	-169.675	0.382	-0.014
-149.604	-25.717	0.201	0.118
-148.589	-125.790	0.215	-0.032
-147.574	34.928	-0.185	0.160
-146.560	115.089	0.221	0.268
-145.545	-136.496	0.271	0.031
-144.531	67.322	0.222	0.225
-143.516	-125.764	-0.026	0.004
-142.502	-98.057	-0.263	0.067
-141.487	95.782	-0.161	0.182
-140.472	216.392	0.152	0.239
-139.458	442.869	-0.093	-0.203
-138.443	95.145	0.216	-0.244
-137.429	-200.000	-0.035	-0.157
-136.414	68.584	-0.107	-0.108
-135.399	111.278	0.079	-0.094
-134.385	-182.126	0.381	0.007
-133.370	-29.078	-0.337	-0.192
-132.356	-200.000	0.005	0.099
-131.341	82.748	0.175	0.189
-130.326	141.061	0.180	-0.236
-129.312	800.000	0.060	0.231
-128.297	50.843	0.383	-0.360
-127.283	800.000	-0.073	0.226
-126.268	-73.209	-0.147	0.053
-125.253	53.967	0.179	0.170
-124.239	-76.980	0.335	-0.116
-123.224	226.643	-0.095	-0.153
-122.210	-200.000	0.018	0.221
-121.195	331.564	-0.104	0.199
-120.180	-41.979	0.294	0.149
