DTS Sentinel unit serial number:	SN413079Multiplexer serial number:	ORYXHardware model number:	OX4-SRSoftware version number:	ORYX F/W v4.00 Oryx Data Collector v3.7.2.0data status	okinstallation	princeton_trtdifferential loss correction	single-endedforward channel	channel 1reverse channel	N/Adate	2019/09/15time	06:38:35forward acquisition time	60.00reverse acquisition time	0.00gamma	496.2192k internal	0.2324k external	0.2324temperature offset calibration	0.9993default loss term (dB/km)	0.3790temperature slope calibration	1.0000multiplexer offset coefficient	1.0000multiplexer slope coefficient	1.0000fibre end	0.00T internal ref (°C)	30.50T ext. ref 1 (°C)	4.78T ext. ref 2 (°C)	25.45length (m)	temperature (°C)	Stokes	anti-Stokes-747.200	124.681	-0.155	-0.197
-746.185	143.318	-0.276	0.371
-745.171	5.583	-0.070	-0.052
-744.156	-141.810	-0.286	0.029
-743.142	-98.812	0.232	-0.060
-742.127	-154.732	-0.213	-0.014
-741.112	76.937	0.092	-0.099
-740.098	166.248	-0.151	0.216
-739.083	280.636	0.120	0.217
-738.069	-10.539	-0.100	0.067
-737.054	-80.256	-0.093	-0.031
-736.039	483.214	-0.064	0.148
-735.025	327.996	0.144	0.280
-734.010	-51.964	-0.227	0.107
-732.996	196.696	-0.106	-0.164
-731.981	-181.529	-0.167	-0.003
-730.966	135.145	-0.192	-0.252
-729.952	-96.095	0.160	0.043
-728.937	-77.587	-0.498	0.174
-727.923	-200.000	0.025	0.149
-726.908	-167.327	-0.247	-0.010
-725.894	157.423	0.165	0.230
-724.879	94.383	0.033	-0.038
-723.864	-97.119	0.269	-0.071
-722.850	-19.508	0.216	-0.135
-721.835	156.574	0.111	0.154
-720.821	286.470	0.242	-0.441
-719.806	-30.645	-0.320	0.182
-718.791	-200.000	0.009	0.050
-717.777	75.613	0.050	0.053
-716.762	168.322	-0.125	-0.180
-715.748	-200.000	0.052	0.246
-714.733	-142.651	0.029	0.003
-713.718	112.832	-0.163	-0.199
-712.704	-65.275	0.361	-0.147
-711.689	120.008	-0.155	0.194
-710.675	-197.020	0.400	-0.003
-709.660	-200.000	0.048	0.216
-708.645	-200.000	-0.031	0.211
-707.631	208.385	-0.080	0.126
-706.616	-102.560	0.125	-0.030
-705.602	24.231	0.307	0.255
-704.587	800.000	-0.144	-0.427
-703.572	691.152	0.146	-0.385
-702.558	-84.080	-0.521	0.167
-701.543	-62.791	0.263	0.110
-700.529	-86.521	0.243	0.075
-699.514	556.919	-0.081	0.197
-698.499	-67.668	-0.308	0.121
-697.485	-79.000	0.163	0.056
-696.470	148.624	0.075	0.102
-695.456	704.467	0.169	0.449
-694.441	160.770	0.191	-0.269
-693.426	-109.013	-0.189	-0.041
-692.412	-32.643	0.114	0.064
-691.397	-132.634	0.230	-0.030
-690.383	-136.813	-0.070	-0.008
-689.368	46.150	-0.072	-0.068
-688.354	212.359	-0.148	-0.234
-687.339	-80.245	-0.074	-0.025
-686.324	-200.000	0.056	-0.271
-685.310	18.451	0.229	-0.184
-684.295	-8.093	-0.096	-0.065
-683.281	0.069	0.208	0.149
-682.266	6.519	0.188	-0.141
-681.251	68.595	-0.128	-0.132
-680.237	-55.229	-0.211	0.096
-679.222	34.778	0.225	-0.198
-678.208	-88.587	-0.282	0.084
-677.193	800.000	0.086	0.300
-676.178	57.696	-0.173	-0.170
-675.164	800.000	0.020	0.059
-674.149	368.682	-0.033	-0.066
-673.135	-121.220	0.070	0.012
-672.120	-200.000	-0.034	-0.197
-671.105	28.422	-0.118	-0.101
-670.091	592.074	0.130	-0.324
-669.076	-200.000	-0.012	0.320
-668.062	89.381	0.009	-0.010
-667.047	-200.000	-0.006	-0.249
-666.032	-92.933	0.255	-0.072
-665.018	-53.125	0.254	-0.117
-664.003	-86.044	-0.150	-0.047
-662.989	-126.851	-0.092	0.014
-661.974	-200.000	-0.040	-0.392
-660.959	-131.162	0.313	0.042
-659.945	124.838	0.115	0.146
-658.930	224.353	0.137	-0.223
-657.916	-200.000	0.000	-0.180
-656.901	800.000	-0.061	0.186
-655.886	-47.712	0.541	0.264
-654.872	513.518	0.126	-0.296
-653.857	-200.000	0.003	-0.115
-652.843	-101.183	-0.242	0.059
-651.828	260.175	0.081	-0.140
-650.814	-22.383	-0.264	-0.161
-649.799	-97.452	0.238	0.062
-648.784	5.435	-0.142	-0.105
-647.770	108.436	-0.108	-0.130
-646.755	407.964	-0.117	-0.249
-645.741	800.000	0.072	-0.311
-644.726	-22.358	0.371	-0.226
-643.711	800.000	-0.092	-0.328
-642.697	-144.665	0.200	0.019
-641.682	-9.693	0.200	-0.134
-640.668	-200.000	-0.014	0.108
-639.653	-1.959	-0.401	-0.284
-638.638	250.178	0.083	-0.142
-637.624	121.538	-0.176	0.220
-636.609	-95.022	-0.089	0.024
-635.595	247.336	-0.155	0.263
-634.580	-128.453	0.213	0.030
-633.565	149.332	0.174	-0.237
-632.551	194.143	0.166	0.253
-631.536	-73.858	0.144	0.053
-630.522	800.000	0.049	0.148
-629.507	-27.741	-0.131	-0.076
-628.492	88.571	0.157	-0.175
-627.478	329.294	-0.096	-0.186
-626.463	-71.982	-0.131	-0.049
-625.449	-70.249	0.357	0.136
-624.434	-0.505	-0.425	0.303
-623.419	-19.674	0.266	0.165
-622.405	-119.443	0.082	0.014
-621.390	-183.074	0.280	-0.005
-620.376	800.000	0.021	-0.072
-619.361	80.397	-0.104	-0.112
-618.346	-62.957	0.228	0.095
-617.332	-142.860	-0.208	0.020
-616.317	116.416	-0.086	-0.106
-615.303	-99.125	-0.075	-0.019
-614.288	-200.000	0.039	-0.291
-613.273	-73.672	0.393	-0.144
-612.259	-200.000	-0.033	-0.318
-611.244	299.895	-0.199	-0.368
-610.230	-76.785	-0.120	0.042
-609.215	-46.936	-0.433	0.212
-608.201	697.422	-0.028	0.073
-607.186	-27.332	-0.078	0.046
-606.171	-166.633	0.491	0.020
-605.157	-87.579	-0.338	0.103
-604.142	-200.000	0.029	-0.157
-603.128	-114.655	0.197	-0.038
-602.113	-85.730	-0.468	-0.146
-601.098	-200.000	0.012	-0.065
-600.084	36.526	-0.225	0.199
-599.069	-45.471	-0.084	0.042
-598.055	95.764	0.188	0.215
-597.040	187.190	0.261	-0.390
-596.025	-135.461	-0.161	0.019
-595.011	-132.346	0.568	-0.074
-593.996	126.611	-0.115	-0.147
-592.982	32.770	0.263	-0.229
-591.967	-200.000	0.033	0.181
-590.952	124.409	-0.335	-0.423
-589.938	83.389	0.404	-0.442
-588.923	10.478	-0.172	-0.132
-587.909	648.111	-0.087	-0.223
-586.894	137.594	0.235	0.309
-585.879	401.529	-0.086	-0.181
-584.865	27.062	0.114	0.096
-583.850	-34.695	0.178	-0.097
-582.836	-33.316	-0.116	0.064
-581.821	212.658	-0.116	0.183
-580.806	-101.598	0.254	-0.062
-579.792	116.067	0.096	0.118
-578.777	-45.964	-0.206	0.102
-577.763	800.000	0.119	-0.469
-576.748	448.002	0.047	-0.105
-575.733	49.289	-0.293	-0.276
-574.719	148.499	-0.280	0.380
-573.704	800.000	0.059	0.230
-572.690	-76.451	0.278	-0.098
-571.675	-74.068	-0.146	0.053
-570.661	-60.392	-0.198	-0.085
-569.646	-25.359	0.133	0.079
-568.631	-36.551	-0.186	-0.100
-567.617	-29.573	-0.139	-0.080
-566.602	-14.457	0.328	-0.212
-565.588	-200.000	0.003	-0.201
-564.573	800.000	-0.092	0.382
-563.558	97.055	-0.111	0.127
-562.544	-82.999	0.158	0.051
-561.529	-34.850	-0.129	0.071
-560.515	-44.357	-0.276	0.139
-559.500	800.000	0.077	-0.256
-558.485	-32.188	0.213	-0.119
-557.471	42.583	-0.172	0.157
-556.456	-12.607	-0.131	0.085
-555.442	-179.551	-0.101	0.002
-554.427	-107.201	-0.085	0.019
-553.412	27.296	0.115	-0.097
-552.398	-71.891	0.185	0.069
-551.383	390.181	0.088	0.182
-550.369	-2.385	0.106	0.074
-549.354	800.000	-0.039	-0.110
-548.339	-2.289	0.066	0.047
-547.325	800.000	-0.041	0.157
-546.310	243.400	0.080	-0.134
-545.296	-114.464	-0.575	0.111
-544.281	-200.000	-0.018	-0.182
-543.266	-127.009	-0.084	0.012
-542.252	-200.000	0.023	-0.157
-541.237	800.000	-0.020	0.083
-540.223	470.693	-0.101	0.227
-539.208	10.727	-0.031	-0.024
-538.193	452.242	-0.081	0.180
-537.179	-200.000	-0.093	-0.444
-536.164	800.000	-0.090	-0.263
-535.150	377.340	0.045	0.091
-534.135	213.845	0.195	0.309
-533.121	-95.035	0.245	-0.066
-532.106	-129.723	-0.195	0.027
-531.091	-63.452	-0.398	-0.164
-530.077	-200.000	-0.011	-0.199
-529.062	516.276	-0.137	-0.321
-528.048	81.316	-0.036	-0.039
-527.033	-12.691	-0.160	0.104
-526.018	800.000	0.030	0.088
-525.004	631.833	-0.122	0.309
-523.989	-124.243	-0.354	-0.055
-522.975	800.000	0.050	-0.182
-521.960	22.287	0.231	-0.189
-520.945	100.218	0.128	-0.148
-519.931	44.877	-0.155	0.143
-518.916	-124.020	-0.295	-0.046
-517.902	-200.000	-0.019	-0.328
-516.887	-88.315	0.170	0.051
-515.872	330.986	0.156	-0.300
-514.858	800.000	-0.030	0.091
-513.843	-47.521	0.192	0.093
-512.829	34.499	-0.216	0.189
-511.814	-200.000	-0.012	0.098
-510.799	73.950	0.169	0.177
-509.785	-160.129	-0.253	0.014
-508.770	-5.710	0.125	-0.086
-507.756	115.109	-0.209	0.255
-506.741	-35.076	-0.055	0.030
-505.726	99.582	-0.382	-0.441
-504.712	258.591	0.016	-0.028
-503.697	-82.815	-0.228	-0.074
-502.683	-89.687	-0.334	-0.098
-501.668	-62.450	0.006	0.002
-500.653	41.531	0.142	-0.129
-499.639	203.387	-0.094	0.145
-498.624	14.077	0.276	-0.215
-497.610	-200.000	0.001	0.084
-496.595	-110.975	0.161	-0.033
-495.581	-166.304	-0.217	-0.009
-494.566	138.157	0.033	-0.044
-493.551	543.395	0.140	0.333
-492.537	99.739	-0.209	0.242
-491.522	-47.599	-0.305	0.148
-490.508	-185.529	0.137	-0.002
-489.493	800.000	-0.048	-0.182
-488.478	-200.000	0.035	0.317
-487.464	-168.209	-0.167	-0.006
-486.449	-138.172	0.508	-0.056
-485.435	318.905	0.058	-0.110
-484.420	800.000	-0.011	0.034
-483.405	-109.642	0.048	0.010
-482.391	35.834	-0.238	0.209
-481.376	-144.563	-0.434	0.040
-480.362	-36.487	0.183	0.098
-479.347	-118.978	-0.234	0.041
-478.332	-156.032	-0.225	0.014
-477.318	120.020	-0.068	0.084
-476.303	800.000	0.114	0.341
-475.289	800.000	0.037	-0.103
-474.274	18.403	0.093	0.074
-473.259	-200.000	0.007	-0.141
-472.245	-122.326	-0.098	-0.016
-471.230	-200.000	-0.003	0.140
-470.216	3.689	0.261	0.190
-469.201	-69.165	-0.168	-0.065
-468.186	-103.659	0.283	-0.066
-467.172	196.384	-0.114	0.173
-466.157	683.691	-0.029	-0.076
-465.143	143.977	-0.123	0.164
-464.128	192.796	0.202	0.304
-463.113	411.142	0.071	-0.150
-462.099	-24.563	0.129	-0.076
-461.084	-99.552	-0.298	0.075
-460.070	-89.934	0.223	0.065
-459.055	800.000	-0.054	-0.229
-458.040	-179.832	-0.297	0.006
-457.026	-142.565	0.543	-0.053
-456.011	216.285	-0.040	0.063
-454.997	800.000	0.100	-0.342
-453.982	102.715	0.105	0.123
-452.968	-32.279	-0.339	0.189
-451.953	-13.110	-0.317	0.205
-450.938	571.713	-0.085	0.207
-449.924	-95.176	0.315	-0.085
-448.909	59.228	0.047	-0.046
-447.895	131.832	0.136	0.174
-446.880	-2.596	-0.119	-0.083
-445.865	398.131	0.146	-0.305
-444.851	800.000	-0.084	0.252
-443.836	-177.819	-0.173	0.004
-442.822	800.000	0.086	0.258
-441.807	-200.000	-0.011	-0.235
-440.792	800.000	0.105	-0.385
-439.778	90.077	-0.188	0.209
-438.763	20.897	0.164	0.133
-437.749	-200.000	-0.035	-0.182
-436.734	-138.598	0.205	-0.022
-435.719	-11.356	0.146	-0.096
-434.705	-35.929	0.309	0.166
-433.690	-101.306	-0.320	0.078
-432.676	149.494	-0.245	-0.331
-431.661	800.000	0.020	0.069
-430.646	70.156	0.123	0.126
-429.632	-83.970	-0.179	-0.057
-428.617	-40.283	-0.141	-0.073
-427.603	285.978	-0.217	-0.390
-426.588	-9.423	-0.137	0.091
-425.573	-72.532	0.306	-0.113
-424.559	800.000	-0.094	0.276
-423.544	-200.000	-0.030	0.280
-422.530	-200.000	-0.007	0.089
-421.515	39.624	0.239	0.214
-420.500	126.134	0.065	-0.082
-419.486	-200.000	-0.028	-0.214
-418.471	-51.549	-0.063	-0.030
-417.457	-200.000	-0.002	-0.155
-416.442	-83.935	-0.159	-0.050
-415.428	414.134	0.083	-0.177
-414.413	260.361	0.073	-0.126
-413.398	-200.000	0.006	-0.191
-412.384	330.288	-0.015	-0.028
-411.369	-200.000	-0.001	-0.108
-410.355	28.975	0.096	0.081
-409.340	-32.789	-0.046	0.025
-408.325	-145.810	0.103	0.009
-407.311	408.313	0.058	-0.122
-406.296	-11.349	-0.422	-0.277
-405.282	51.037	0.104	-0.099
-404.267	-43.258	-0.153	-0.077
-403.252	-200.000	-0.009	-0.115
-402.238	626.244	0.063	0.159
-401.223	-87.514	-0.262	0.079
-400.209	-132.872	-0.209	0.027
-399.194	-59.202	-0.316	0.136
-398.179	-90.451	-0.213	0.061
-397.165	-115.456	-0.063	-0.012
-396.150	572.179	0.069	0.166
-395.136	800.000	-0.016	-0.045
-394.121	-47.011	0.204	0.099
-393.106	264.071	0.125	-0.216
-392.092	-200.000	0.004	0.092
-391.077	624.283	-0.098	-0.245
-390.063	800.000	0.086	-0.327
-389.048	800.000	0.083	-0.323
-388.033	-45.466	-0.055	0.027
-387.019	-127.563	0.280	-0.040
-386.004	548.501	0.047	0.111
-384.990	-200.000	-0.005	-0.211
-383.975	72.246	-0.056	-0.058
-382.960	800.000	-0.098	0.300
-381.946	192.397	0.154	0.231
-380.931	66.968	-0.308	0.312
-379.917	83.429	-0.116	-0.126
-378.902	196.846	-0.127	-0.192
-377.888	49.106	-0.124	0.116
-376.873	-178.941	0.285	-0.006
-375.858	497.071	0.072	0.164
-374.844	-156.185	-0.590	0.037
-373.829	-200.000	0.018	-0.125
-372.815	135.186	-0.120	-0.156
-371.800	-200.000	0.123	0.001
-370.785	-200.000	0.008	-0.043
-369.771	311.036	0.027	0.050
-368.756	17.510	0.211	-0.166
-367.742	-200.000	-0.033	-0.200
-366.727	426.863	-0.043	0.093
-365.712	-26.245	0.177	-0.103
-364.698	-116.706	-0.168	0.031
-363.683	32.699	-0.069	-0.060
-362.669	800.000	0.056	0.193
-361.654	499.846	0.158	0.362
-360.639	-200.000	0.029	0.139
-359.625	-42.638	-0.135	0.068
-358.610	-99.544	0.127	0.032
-357.596	28.499	0.281	-0.236
-356.581	-200.000	0.071	-0.445
-355.566	52.412	0.085	-0.081
-354.552	310.931	0.150	0.280
-353.537	208.233	-0.077	0.119
-352.523	-24.961	0.072	0.042
-351.508	64.050	0.265	-0.265
-350.493	-175.068	-0.102	0.003
-349.479	-94.936	-0.333	0.090
-348.464	800.000	0.065	0.255
-347.450	-128.702	0.083	0.012
-346.435	-2.005	0.070	0.049
-345.420	-144.805	0.315	0.029
-344.406	-135.331	0.376	0.045
-343.391	-200.000	0.005	0.137
-342.377	114.343	0.147	0.178
-341.362	-135.577	0.112	0.013
-340.348	-182.882	0.259	-0.005
-339.333	516.929	-0.202	-0.470
-338.318	356.304	0.030	0.060
-337.304	313.432	-0.035	-0.065
-336.289	420.307	0.079	0.167
-335.275	-200.000	0.001	0.230
-334.260	-75.696	-0.243	-0.086
-333.245	10.731	-0.224	-0.170
-332.231	766.873	-0.096	-0.259
-331.216	71.816	-0.108	0.111
-330.202	752.405	0.028	0.075
-329.187	800.000	-0.059	0.194
-328.172	-200.000	0.028	0.290
-327.158	3.829	0.113	-0.082
-326.143	40.728	-0.186	0.166
-325.129	-61.273	0.042	-0.017
-324.114	-70.887	0.193	0.072
-323.099	307.876	0.179	0.332
-322.085	-4.736	-0.224	0.153
-321.070	-23.722	0.067	-0.040
-320.056	-64.472	-0.044	0.018
-319.041	-200.000	-0.003	0.096
-318.026	-136.399	-0.051	0.006
-317.012	800.000	0.102	0.292
-315.997	-200.000	0.051	0.332
-314.983	-40.262	0.185	0.095
-313.968	61.041	-0.208	0.205
-312.953	-145.070	0.144	0.013
-311.939	48.666	0.192	-0.179
-310.924	1.163	0.337	-0.240
-309.910	-200.000	0.025	-0.200
-308.895	-200.000	-0.020	-0.090
-307.880	-146.415	0.211	-0.018
-306.866	249.186	-0.010	0.017
-305.851	544.689	0.116	0.274
-304.837	72.858	0.299	0.310
-303.822	-61.935	0.193	-0.080
-302.807	96.473	0.053	-0.060
-301.793	435.335	0.034	-0.073
-300.778	296.347	-0.075	0.136
-299.764	-8.465	0.207	-0.138
-298.749	577.897	-0.052	0.125
-297.735	141.450	0.055	-0.072
-296.720	80.197	-0.055	0.058
-295.705	-123.945	0.222	-0.035
-294.691	-72.588	0.169	-0.062
-293.676	800.000	-0.066	0.201
-292.662	176.894	0.108	0.156
-291.647	321.283	0.086	0.162
-290.632	117.683	0.078	-0.096
-289.618	66.720	0.214	0.216
-288.603	398.527	-0.098	-0.204
-287.589	108.600	-0.185	0.219
-286.574	-95.799	0.100	0.027
-285.559	105.578	-0.134	-0.157
-284.545	-200.000	-0.018	0.118
-283.530	-200.000	0.002	0.132
-282.516	76.009	-0.238	-0.249
-281.501	229.429	-0.198	0.320
-280.486	-200.000	-0.013	0.071
-279.472	800.000	0.085	-0.273
-278.457	-200.000	0.027	-0.182
-277.443	20.738	0.256	0.205
-276.428	-94.939	0.210	0.056
-275.413	800.000	0.021	0.059
-274.399	-45.235	-0.121	-0.059
-273.384	210.444	0.134	-0.208
-272.370	-110.754	0.212	-0.043
-271.355	-101.016	0.255	-0.062
-270.340	-71.679	-0.149	-0.055
-269.326	386.774	0.038	-0.077
-268.311	214.979	0.159	0.250
-267.297	800.000	-0.058	0.209
-266.282	-200.000	0.086	0.419
-265.267	245.731	-0.101	0.168
-264.253	-45.340	0.142	0.070
-263.238	-200.000	0.002	-0.111
-262.224	-200.000	0.007	-0.178
-261.209	113.353	-0.169	0.203
-260.195	-121.562	-0.238	0.039
-259.180	64.366	-0.112	0.112
-258.165	538.488	-0.022	0.051
-257.151	-26.303	-0.091	0.053
-256.136	477.046	0.095	-0.213
-255.122	7.890	-0.211	-0.156
-254.107	250.723	0.084	0.141
-253.092	289.498	-0.067	-0.121
-252.078	-200.000	0.044	0.194
-251.063	-45.933	0.137	0.067
-250.049	-100.622	-0.297	-0.073
-249.034	-37.645	-0.304	-0.160
-248.019	800.000	0.150	0.441
-247.005	-144.873	-0.298	0.027
-245.990	-200.000	-0.002	0.103
-244.976	-154.557	0.182	0.012
-243.961	20.586	-0.199	0.159
-242.946	-10.204	-0.059	-0.039
-241.932	55.413	0.076	0.073
-240.917	-97.593	-0.494	0.127
-239.903	-200.000	0.029	0.160
-238.888	-200.000	0.027	0.388
-237.873	-200.000	-0.037	-0.203
-236.859	9.593	0.062	0.046
-235.844	161.464	0.072	0.100
-234.830	-83.377	-0.289	0.092
-233.815	-200.000	0.002	-0.159
-232.800	62.175	-0.112	0.111
-231.786	800.000	-0.052	0.186
-230.771	-200.000	-0.039	-0.299
-229.757	-36.942	-0.265	-0.141
-228.742	-200.000	0.010	0.160
-227.727	25.013	-0.280	-0.230
-226.713	63.353	0.128	-0.127
-225.698	-5.801	0.393	0.266
-224.684	-113.507	-0.081	-0.016
-223.669	-68.258	-0.292	0.112
-222.655	-120.571	-0.167	-0.028
-221.640	-200.000	0.065	-0.316
-220.625	-200.000	0.022	-0.153
-219.611	800.000	-0.016	-0.063
-218.596	-81.536	0.307	-0.100
-217.582	-7.931	0.209	-0.139
-216.567	-83.636	0.080	0.025
-215.552	73.090	0.108	0.112
-214.538	-169.496	0.111	0.004
-213.523	55.199	-0.119	0.113
-212.509	-200.000	-0.040	0.198
-211.494	29.539	0.114	-0.096
-210.479	800.000	0.035	0.113
-209.465	-194.168	-0.212	-0.002
-208.450	-140.482	-0.182	-0.019
-207.436	-106.258	-0.433	0.096
-206.421	53.114	0.111	0.105
-205.406	800.000	-0.091	-0.382
-204.392	-55.628	-0.295	-0.130
-203.377	-200.000	-0.000	-0.274
-202.363	-161.143	-0.250	0.013
-201.348	-57.867	-0.060	-0.026
-200.333	-15.998	0.072	-0.045
-199.319	-200.000	0.006	0.179
-198.304	142.607	-0.187	0.245
-197.290	0.754	0.260	0.184
-196.275	96.357	-0.205	0.231
-195.260	92.724	0.171	-0.191
-194.246	65.609	-0.101	-0.101
-193.231	768.795	-0.035	0.095
-192.217	-57.352	0.218	-0.094
-191.202	33.029	0.207	-0.177
-190.187	800.000	0.032	-0.134
-189.173	-37.582	0.275	-0.145
-188.158	359.985	0.127	0.250
-187.144	18.049	0.136	0.107
-186.129	121.941	-0.163	-0.201
-185.114	-200.000	0.056	0.389
-184.100	-200.000	0.009	-0.111
-183.085	-71.960	0.177	0.065
-182.071	-146.210	0.139	-0.012
-181.056	-82.244	-0.286	-0.092
-180.042	-160.713	-0.312	0.016
-179.027	324.914	0.082	-0.155
-178.012	-114.487	0.263	0.050
-176.998	-200.000	0.035	-0.232
-175.983	324.503	0.085	0.160
-174.969	327.973	-0.088	0.166
-173.954	188.661	0.240	-0.355
-172.939	-200.000	0.099	-0.428
-171.925	-165.180	0.133	0.006
-170.910	132.921	0.091	0.116
-169.896	-200.000	0.005	0.179
-168.881	-200.000	0.025	0.292
-167.866	10.436	-0.168	-0.126
-166.852	-61.072	-0.128	0.053
-165.837	11.004	0.154	-0.116
-164.823	376.844	-0.067	0.135
-163.808	73.239	0.200	-0.206
-162.793	800.000	-0.033	-0.098
-161.779	316.842	0.145	-0.270
-160.764	274.869	0.085	0.149
-159.750	-91.939	0.216	-0.060
-158.735	723.112	-0.040	-0.105
-157.720	-58.173	-0.070	-0.030
-156.706	115.673	0.034	-0.041
-155.691	142.787	-0.100	0.131
-154.677	-14.310	0.196	0.125
-153.662	-73.336	-0.082	0.029
-152.647	-13.166	0.229	0.147
-151.633	26.841	0.194	0.160
-150.618	62.019	0.242	-0.237
-149.604	-200.000	0.040	-0.223
-148.589	800.000	0.093	-0.292
-147.574	167.865	-0.112	0.157
-146.560	-117.852	0.363	0.064
-145.545	53.443	-0.111	-0.105
-144.531	-200.000	-0.036	0.248
-143.516	-83.003	-0.127	0.040
-142.502	-200.000	0.036	-0.173
-141.487	-54.349	-0.208	-0.093
-140.472	-200.000	-0.024	-0.201
-139.458	434.119	-0.172	0.368
-138.443	-166.118	-0.577	-0.024
-137.429	-200.000	-0.012	0.095
-136.414	-200.000	0.040	0.214
-135.399	237.484	0.186	0.305
-134.385	-120.470	-0.548	-0.092
-133.370	485.563	-0.137	-0.308
-132.356	13.197	-0.180	0.138
-131.341	-68.358	0.223	0.085
-130.326	-148.772	-0.090	-0.007
-129.312	177.190	0.166	-0.237
-128.297	-200.000	-0.019	-0.396
-127.283	93.408	0.187	-0.209
-126.268	256.480	0.063	0.107
-125.253	-180.205	0.372	0.008
-124.239	800.000	0.086	-0.272
-123.224	-200.000	-0.025	-0.168
-122.210	-100.984	-0.308	-0.075
-121.195	142.046	0.071	0.092
-120.180	36.514	0.364	0.317
