DTS Sentinel unit serial number:	SN413079Multiplexer serial number:	ORYXHardware model number:	OX4-SRSoftware version number:	ORYX F/W v4.00 Oryx Data Collector v3.7.2.0data status	okinstallation	princeton_trtdifferential loss correction	single-endedforward channel	channel 1reverse channel	N/Adate	2019/09/18time	23:18:35forward acquisition time	60.00reverse acquisition time	0.00gamma	496.2192k internal	0.2341k external	0.2341temperature offset calibration	1.0019default loss term (dB/km)	0.3790temperature slope calibration	1.0000multiplexer offset coefficient	1.0000multiplexer slope coefficient	1.0000fibre end	0.00T internal ref (°C)	23.87T ext. ref 1 (°C)	0.77T ext. ref 2 (°C)	17.09length (m)	temperature (°C)	Stokes	anti-Stokes-747.200	-42.127	0.177	0.091
-746.185	146.990	-0.111	0.149
-745.171	-200.000	0.005	-0.126
-744.156	19.567	-0.230	-0.185
-743.142	-104.440	0.160	-0.037
-742.127	800.000	-0.046	-0.175
-741.112	800.000	0.024	0.074
-740.098	66.426	-0.228	-0.232
-739.083	-32.808	-0.124	0.069
-738.069	79.940	0.340	0.366
-737.054	-112.646	0.117	-0.023
-736.039	-131.718	-0.493	0.065
-735.025	-27.883	0.204	0.118
-734.010	-200.000	0.012	-0.068
-732.996	2.014	-0.151	-0.109
-731.981	85.443	-0.207	0.228
-730.966	326.681	0.058	0.110
-729.952	-200.000	0.010	0.237
-728.937	17.644	-0.266	0.212
-727.923	788.175	0.022	0.062
-726.908	800.000	0.038	0.143
-725.894	597.614	0.048	-0.120
-724.879	52.664	-0.238	-0.228
-723.864	206.720	-0.047	0.073
-722.850	800.000	0.060	0.209
-721.835	-42.067	-0.187	-0.096
-720.821	-95.803	0.142	0.038
-719.806	-121.875	-0.177	-0.029
-718.791	36.456	0.338	-0.298
-717.777	121.964	-0.294	-0.367
-716.762	-154.127	-0.173	0.012
-715.748	-86.062	0.314	-0.097
-714.733	234.657	-0.212	0.349
-713.718	-68.585	-0.139	-0.054
-712.704	-53.367	0.291	0.133
-711.689	-117.313	-0.108	-0.020
-710.675	-101.115	-0.179	0.044
-709.660	800.000	-0.132	-0.401
-708.645	12.995	-0.172	-0.133
-707.631	440.308	-0.155	-0.338
-706.616	-32.297	0.079	0.044
-705.602	-200.000	-0.037	-0.163
-704.587	800.000	-0.102	-0.415
-703.572	11.485	0.137	0.105
-702.558	294.456	-0.107	0.196
-701.543	800.000	-0.016	-0.056
-700.529	800.000	-0.049	0.176
-699.514	-92.055	-0.201	-0.057
-698.499	-164.486	0.261	-0.012
-697.485	98.803	-0.101	0.116
-696.470	-188.895	0.207	0.003
-695.456	-65.538	0.221	-0.089
-694.441	-88.331	0.102	0.031
-693.426	-130.499	-0.229	-0.031
-692.412	-155.353	-0.087	0.006
-691.397	-200.000	0.009	0.204
-690.383	27.939	0.275	0.232
-689.368	605.441	0.031	-0.077
-688.354	161.958	-0.100	0.140
-687.339	6.095	0.198	-0.147
-686.324	-157.604	0.209	-0.012
-685.310	96.126	0.235	-0.269
-684.295	-200.000	-0.060	-0.434
-683.281	-36.588	-0.152	-0.082
-682.266	-200.000	0.004	0.132
-681.251	-200.000	0.033	-0.375
-680.237	631.449	-0.078	0.196
-679.222	-74.894	0.206	-0.074
-678.208	-168.254	0.207	0.008
-677.193	121.863	-0.095	0.119
-676.178	800.000	-0.099	0.369
-675.164	-200.000	0.116	-0.509
-674.149	-200.000	0.019	0.253
-673.135	-200.000	-0.008	0.186
-672.120	493.396	-0.044	-0.102
-671.105	492.324	-0.105	-0.240
-670.091	-200.000	-0.020	-0.127
-669.076	800.000	-0.072	0.224
-668.062	465.020	0.206	-0.461
-667.047	-179.111	-0.324	0.007
-666.032	-56.898	-0.382	-0.168
-665.018	50.190	0.062	-0.059
-664.003	-200.000	0.028	-0.141
-662.989	-127.963	0.180	0.026
-661.974	-69.175	-0.161	0.062
-660.959	800.000	0.039	-0.135
-659.945	-137.319	0.094	-0.011
-658.930	-130.024	0.197	-0.027
-657.916	-30.710	-0.374	-0.212
-656.901	-200.000	-0.064	-0.451
-655.886	108.405	-0.161	0.191
-654.872	608.451	0.056	-0.140
-653.857	-200.000	0.011	0.080
-652.843	44.701	-0.135	0.124
-651.828	-128.676	0.177	-0.025
-650.814	-117.450	-0.149	-0.027
-649.799	-200.000	-0.000	0.087
-648.784	238.584	0.134	0.222
-647.770	249.306	-0.044	-0.074
-646.755	-103.782	-0.206	0.048
-645.741	45.219	-0.018	0.016
-644.726	283.109	0.252	-0.452
-643.711	800.000	0.099	0.370
-642.697	800.000	0.100	0.298
-641.682	407.666	0.129	0.272
-640.668	79.987	-0.105	0.113
-639.653	-200.000	0.001	-0.170
-638.638	43.777	-0.235	-0.215
-637.624	142.114	-0.253	-0.335
-636.609	-44.433	0.194	-0.097
-635.595	385.014	-0.177	0.364
-634.580	0.953	0.147	0.105
-633.565	-200.000	0.030	-0.178
-632.551	414.935	0.135	-0.288
-631.536	-200.000	-0.038	-0.273
-630.522	-25.705	0.017	0.010
-629.507	11.525	0.184	0.140
-628.492	-11.297	0.306	0.201
-627.478	-200.000	0.037	0.412
-626.463	-47.340	0.028	-0.013
-625.449	-1.825	0.303	-0.213
-624.434	-134.363	-0.136	0.017
-623.419	-200.000	-0.016	0.114
-622.405	58.028	-0.082	-0.080
-621.390	800.000	0.078	0.336
-620.376	-103.119	0.178	-0.042
-619.361	74.097	0.138	-0.144
-618.346	94.402	-0.137	-0.155
-617.332	-200.000	0.036	0.204
-616.317	-200.000	0.013	0.097
-615.303	-200.000	0.066	-0.302
-614.288	-61.221	0.137	-0.058
-613.273	-120.772	-0.245	-0.041
-612.259	-168.929	-0.315	-0.012
-611.244	-14.062	-0.222	0.143
-610.230	19.798	-0.085	0.068
-609.215	800.000	-0.114	0.393
-608.201	-200.000	-0.019	0.264
-607.186	44.450	-0.113	-0.103
-606.171	121.565	-0.281	-0.349
-605.157	217.344	-0.100	-0.158
-604.142	-200.000	0.064	-0.316
-603.128	-87.860	0.323	-0.097
-602.113	283.942	0.142	-0.254
-601.098	171.181	-0.086	0.123
-600.084	799.946	0.079	-0.217
-599.069	-200.000	-0.005	-0.282
-598.055	383.718	-0.106	0.217
-597.040	-200.000	0.006	-0.317
-596.025	329.991	-0.088	-0.169
-595.011	-8.251	-0.230	-0.154
-593.996	-37.862	-0.063	-0.033
-592.982	-200.000	-0.034	-0.233
-591.967	-64.838	-0.147	0.059
-590.952	-52.138	0.159	0.073
-589.938	-31.476	0.304	-0.170
-588.923	-73.821	-0.147	0.053
-587.909	90.956	0.094	0.105
-586.894	108.981	0.298	0.355
-585.879	-67.725	-0.286	0.111
-584.865	693.259	0.044	0.116
-583.850	181.106	0.086	-0.126
-582.836	-200.000	-0.003	-0.274
-581.821	800.000	0.057	0.219
-580.806	-15.498	0.183	0.116
-579.792	681.595	-0.055	0.142
-578.777	-144.454	-0.047	0.004
-577.763	-4.175	-0.230	0.158
-576.748	-21.947	0.113	-0.068
-575.733	-105.718	0.277	0.062
-574.719	-27.658	0.190	-0.110
-573.704	206.458	-0.171	0.265
-572.690	-141.505	0.233	0.023
-571.675	-200.000	0.038	-0.356
-570.661	-200.000	0.007	-0.213
-569.646	406.290	0.065	-0.137
-568.631	-149.560	-0.355	0.028
-567.617	-200.000	-0.012	0.314
-566.602	-47.642	-0.176	0.085
-565.588	-200.000	-0.005	0.129
-564.573	-124.036	0.536	-0.084
-563.558	288.456	-0.227	-0.408
-562.544	800.000	0.071	0.212
-561.529	-134.123	-0.088	-0.011
-560.515	258.566	0.199	0.341
-559.500	-114.672	0.287	0.055
-558.485	-10.449	0.195	-0.129
-557.471	-200.000	0.021	-0.280
-556.456	-15.956	0.243	-0.154
-555.442	187.518	-0.219	0.325
-554.427	10.290	-0.271	-0.205
-553.412	-128.749	0.420	0.059
-552.398	340.939	0.207	-0.403
-551.383	400.273	0.125	-0.262
-550.369	176.646	-0.036	-0.051
-549.354	152.851	0.145	0.198
-548.339	-101.802	-0.184	-0.044
-547.325	-66.059	0.120	0.048
-546.310	-104.511	-0.275	-0.063
-545.296	-200.000	-0.008	0.081
-544.281	359.424	-0.020	-0.041
-543.266	-200.000	0.031	0.359
-542.252	483.230	-0.107	0.242
-541.237	-166.523	0.262	-0.011
-540.223	230.800	-0.143	0.233
-539.208	-200.000	-0.012	0.065
-538.193	-101.713	0.066	0.016
-537.179	-37.887	0.244	-0.129
-536.164	59.672	-0.142	0.139
-535.150	72.997	-0.058	-0.060
-534.135	-36.102	-0.148	0.079
-533.121	85.268	-0.319	-0.348
-532.106	17.242	-0.244	0.192
-531.091	784.997	-0.058	-0.157
-530.077	-172.445	0.310	0.010
-529.062	-200.000	-0.015	-0.192
-528.048	-200.000	-0.007	0.138
-527.033	-45.931	-0.127	0.062
-526.018	137.872	0.026	-0.034
-525.004	-200.000	0.032	-0.230
-523.989	140.817	0.206	0.270
-522.975	80.293	-0.127	-0.135
-521.960	15.476	0.234	0.183
-520.945	-180.865	-0.245	-0.005
-519.931	201.241	-0.068	0.104
-518.916	-61.955	0.134	0.056
-517.902	2.543	-0.336	-0.242
-516.887	-57.137	0.090	-0.039
-515.872	-110.125	0.264	-0.055
-514.858	-200.000	-0.028	0.125
-513.843	665.352	0.058	0.149
-512.829	5.443	-0.114	-0.084
-511.814	-11.450	-0.282	0.184
-510.799	-176.139	0.038	0.001
-509.785	-68.968	-0.223	0.085
-508.770	0.851	0.213	0.152
-507.756	-180.098	-0.134	0.003
-506.741	-200.000	0.006	-0.081
-505.726	516.698	0.092	0.213
-504.712	-200.000	-0.009	0.208
-503.697	157.421	-0.109	-0.150
-502.683	-200.000	-0.015	-0.204
-501.668	-200.000	-0.014	-0.070
-500.653	81.471	0.149	-0.159
-499.639	-51.347	-0.276	0.128
-498.624	30.660	0.224	0.190
-497.610	800.000	-0.066	0.244
-496.595	-200.000	0.012	0.274
-495.581	610.652	-0.036	-0.089
-494.566	90.746	0.132	0.147
-493.551	-131.763	-0.063	0.008
-492.537	800.000	-0.040	0.141
-491.522	17.558	-0.170	-0.134
-490.508	-23.494	0.316	-0.188
-489.493	-200.000	0.025	0.355
-488.478	-33.081	-0.021	0.012
-487.464	28.391	-0.255	-0.214
-486.449	-200.000	0.019	0.237
-485.435	-137.677	-0.131	-0.015
-484.420	-200.000	-0.002	0.378
-483.405	800.000	0.063	0.207
-482.391	-200.000	0.024	-0.181
-481.376	-99.062	-0.124	0.031
-480.362	-200.000	0.018	-0.134
-479.347	532.872	0.108	0.254
-478.332	-78.705	-0.253	0.086
-477.318	-200.000	-0.022	0.197
-476.303	-28.547	-0.053	-0.030
-475.289	-104.150	0.122	0.028
-474.274	34.752	-0.148	0.128
-473.259	-200.000	0.041	-0.293
-472.245	73.252	-0.160	-0.166
-471.230	80.158	0.171	-0.182
-470.216	-12.474	0.311	-0.202
-469.201	-123.996	-0.104	-0.016
-468.186	10.948	-0.164	0.124
-467.172	-118.835	-0.062	0.011
-466.157	41.121	-0.215	0.193
-465.143	32.165	0.146	0.125
-464.128	-200.000	-0.007	0.221
-463.113	-72.612	-0.095	0.035
-462.099	404.805	-0.084	0.176
-461.084	84.492	-0.147	0.159
-460.070	-102.204	-0.244	0.058
-459.055	-27.360	-0.198	-0.114
-458.040	800.000	-0.048	-0.192
-457.026	555.601	0.048	-0.114
-456.011	-200.000	-0.035	-0.220
-454.997	-49.252	-0.323	-0.153
-453.982	-130.108	0.156	-0.021
-452.968	-38.553	-0.398	0.208
-451.953	-121.341	-0.111	0.018
-450.938	-71.001	-0.220	0.082
-449.924	-109.525	-0.306	0.064
-448.909	112.329	-0.022	0.027
-447.895	292.743	-0.143	-0.258
-446.880	22.322	0.312	-0.253
-445.865	-200.000	0.036	0.278
-444.851	-200.000	-0.036	-0.231
-443.836	174.407	-0.295	-0.422
-442.822	-60.578	0.222	0.093
-441.807	126.782	-0.210	-0.263
-440.792	-200.000	0.021	0.126
-439.778	96.931	-0.026	-0.030
-438.763	-158.480	0.042	-0.002
-437.749	-135.408	0.135	-0.016
-436.734	-200.000	-0.000	-0.043
-435.719	-100.716	0.093	0.023
-434.705	-8.358	0.039	0.026
-433.690	800.000	0.025	-0.084
-432.676	70.124	-0.328	-0.335
-431.661	-157.209	-0.106	0.006
-430.646	50.907	-0.183	0.172
-429.632	-160.386	-0.150	0.008
-428.617	486.990	0.138	-0.312
-427.603	303.992	-0.244	0.449
-426.588	-19.103	-0.301	-0.185
-425.573	220.442	-0.204	-0.324
-424.559	38.375	0.213	-0.188
-423.544	-200.000	0.000	-0.185
-422.530	30.513	-0.153	-0.129
-421.515	800.000	0.036	-0.124
-420.500	-125.540	0.115	0.017
-419.486	800.000	-0.081	-0.302
-418.471	35.029	-0.208	-0.180
-417.457	-33.548	-0.020	0.011
-416.442	266.790	0.149	0.257
-415.428	130.073	0.145	-0.184
-414.413	23.790	0.141	-0.115
-413.398	53.288	0.070	-0.067
-412.384	-200.000	-0.043	-0.261
-411.369	-47.575	0.065	0.031
-410.355	-133.301	-0.242	-0.030
-409.340	-200.000	0.024	0.143
-408.325	-200.000	-0.023	-0.451
-407.311	-66.779	0.182	0.071
-406.296	87.174	0.230	-0.251
-405.282	-133.754	-0.077	-0.010
-404.267	-54.859	0.145	0.065
-403.252	89.002	0.202	-0.223
-402.238	-134.143	0.077	0.009
-401.223	-105.742	0.344	-0.077
-400.209	218.000	0.043	0.068
-399.194	800.000	0.056	0.200
-398.179	59.218	-0.052	-0.050
-397.165	-110.503	0.239	0.049
-396.150	-200.000	-0.001	0.055
-395.136	48.372	0.164	0.151
-394.121	-200.000	-0.002	-0.088
-393.106	-65.867	-0.032	-0.013
-392.092	177.129	0.119	-0.171
-391.077	10.480	0.284	0.214
-390.063	17.015	0.113	-0.089
-389.048	800.000	-0.025	-0.086
-388.033	-56.513	-0.250	-0.110
-387.019	-122.806	-0.055	0.009
-386.004	800.000	-0.159	-0.484
-384.990	-67.960	0.161	0.062
-383.975	69.701	-0.047	-0.047
-382.960	-33.944	-0.151	0.082
-381.946	-168.982	0.168	0.006
-380.931	-48.179	-0.424	0.202
-379.917	103.927	0.103	0.119
-378.902	232.041	0.191	-0.310
-377.888	79.642	-0.125	-0.132
-376.873	23.107	-0.306	0.248
-375.858	133.841	-0.143	0.183
-374.844	-200.000	0.079	-0.356
-373.829	71.630	0.184	-0.189
-372.815	-37.577	0.094	-0.049
-371.800	-139.882	0.175	-0.018
-370.785	316.733	-0.127	0.237
-369.771	224.895	-0.172	0.275
-368.756	-117.773	-0.115	-0.020
-367.742	524.785	0.063	0.147
-366.727	-8.872	-0.111	0.074
-365.712	-200.000	-0.030	0.250
-364.698	123.525	-0.034	0.042
-363.683	-200.000	-0.011	0.158
-362.669	-82.873	0.269	-0.086
-361.654	71.024	-0.139	0.142
-360.639	-42.428	0.288	-0.145
-359.625	224.494	-0.123	-0.197
-358.610	-47.230	0.341	0.164
-357.596	800.000	-0.067	0.205
-356.581	48.146	-0.090	0.083
-355.566	-119.339	-0.045	0.008
-354.552	-60.101	0.151	-0.064
-353.537	-27.012	0.088	0.051
-352.523	627.142	-0.086	-0.213
-351.508	-70.900	0.032	-0.012
-350.493	133.677	0.089	-0.114
-349.479	83.951	0.135	-0.145
-348.464	-200.000	0.007	-0.157
-347.450	-129.251	0.071	-0.010
-346.435	800.000	0.041	0.173
-345.420	800.000	0.069	-0.188
-344.406	-48.871	-0.338	-0.160
-343.391	98.822	0.187	-0.213
-342.377	-132.975	0.091	-0.011
-341.362	-78.969	0.045	0.015
-340.348	-130.130	0.055	0.007
-339.333	-122.277	0.123	-0.020
-338.318	-174.944	-0.122	0.003
-337.304	-150.152	0.223	-0.017
-336.289	-32.717	-0.069	0.038
-335.275	439.205	0.150	0.322
-334.260	33.985	0.244	0.210
-333.245	-79.580	0.308	0.102
-332.231	-190.076	0.091	0.001
-331.216	-200.000	0.026	-0.296
-330.202	800.000	-0.046	-0.138
-329.187	-66.769	-0.088	0.034
-328.172	9.879	0.077	0.057
-327.158	51.945	-0.096	0.090
-326.143	-23.544	0.062	-0.037
-325.129	-119.945	0.266	0.045
-324.114	322.554	-0.064	0.120
-323.099	138.201	0.161	0.208
-322.085	-90.041	-0.215	0.062
-321.070	-200.000	0.003	0.186
-320.056	-20.704	-0.105	0.063
-319.041	482.477	-0.044	0.098
-318.026	-200.000	0.055	0.421
-317.012	251.400	0.095	0.160
-315.997	437.333	0.134	0.287
-314.983	684.943	-0.010	-0.025
-313.968	-64.890	-0.145	-0.058
-312.953	-117.976	-0.161	-0.028
-311.939	-172.059	-0.010	-0.000
-310.924	-200.000	0.008	0.101
-309.910	11.224	-0.033	-0.025
-308.895	150.111	0.299	0.400
-307.880	-169.091	0.278	0.010
-306.866	-200.000	-0.011	-0.060
-305.851	-200.000	-0.069	0.297
-304.837	-147.289	-0.401	0.034
-303.822	124.608	-0.038	0.047
-302.807	-29.329	0.296	0.167
-301.793	800.000	-0.032	-0.108
-300.778	-35.319	0.130	-0.070
-299.764	-200.000	-0.042	0.424
-298.749	-89.573	0.126	-0.036
-297.735	-200.000	-0.071	-0.469
-296.720	-91.826	0.113	0.032
-295.705	142.542	-0.086	0.112
-294.691	-51.537	-0.339	-0.156
-293.676	-200.000	-0.011	-0.189
-292.662	-200.000	-0.021	0.179
-291.647	25.690	-0.250	-0.205
-290.632	14.654	0.148	0.114
-289.618	86.879	-0.132	0.144
-288.603	-200.000	0.008	-0.054
-287.589	141.167	0.086	0.112
-286.574	-183.678	-0.193	0.003
-285.559	-56.616	0.148	-0.064
-284.545	-13.274	0.134	-0.086
-283.530	-66.349	-0.220	0.086
-282.516	56.149	-0.178	-0.170
-281.501	70.931	0.121	0.123
-280.486	-200.000	-0.020	0.217
-279.472	-129.357	-0.269	-0.037
-278.457	-71.635	0.359	-0.132
-277.443	38.562	-0.238	-0.208
-276.428	21.715	0.065	-0.052
-275.413	-200.000	0.040	0.225
-274.399	-118.235	0.069	0.012
-273.384	450.095	0.101	0.219
-272.370	796.161	0.038	0.103
-271.355	159.637	-0.259	-0.355
-270.340	9.737	0.070	-0.053
-269.326	34.984	-0.113	-0.098
-268.311	-18.257	-0.280	-0.172
-267.297	-200.000	0.010	-0.050
-266.282	-36.258	0.132	-0.070
-265.267	8.940	-0.101	-0.075
-264.253	800.000	-0.064	0.185
-263.238	-141.978	0.126	-0.012
-262.224	-200.000	-0.027	-0.350
-261.209	-146.718	-0.068	-0.006
-260.195	-115.223	0.081	0.015
-259.180	49.148	0.218	-0.201
-258.165	331.734	-0.100	0.190
-257.151	14.512	-0.088	0.067
-256.136	393.980	-0.044	0.091
-255.122	-94.319	0.235	0.063
-254.107	415.213	-0.061	0.129
-253.092	139.491	-0.102	-0.132
-252.078	17.780	0.161	0.126
-251.063	-60.613	-0.072	0.030
-250.049	-63.838	-0.127	0.051
-249.034	800.000	0.120	-0.424
-248.019	557.325	-0.173	-0.409
-247.005	-200.000	0.012	-0.110
-245.990	-87.262	-0.035	0.010
-244.976	69.661	0.046	0.047
-243.961	800.000	-0.059	0.184
-242.946	800.000	0.068	0.239
-241.932	71.989	-0.203	-0.208
-240.917	-85.129	0.138	-0.042
-239.903	-200.000	0.017	-0.263
-238.888	2.625	0.266	-0.189
-237.873	735.916	-0.068	0.180
-236.859	-200.000	-0.009	0.171
-235.844	56.896	0.089	0.085
-234.830	-56.296	0.210	-0.092
-233.815	64.109	-0.245	-0.242
-232.800	159.255	-0.066	0.090
-231.786	187.178	-0.210	0.307
-230.771	-133.573	0.442	-0.054
-229.757	-6.160	-0.234	0.157
-228.742	198.918	-0.126	0.189
-227.727	-37.316	-0.226	0.119
-226.713	-200.000	-0.073	-0.402
-225.698	-107.389	0.201	-0.043
-224.684	-156.909	0.100	0.006
-223.669	301.756	0.047	0.085
-222.655	515.628	0.127	0.292
-221.640	-1.729	0.456	0.315
-220.625	793.265	0.090	0.244
-219.611	-119.689	0.212	0.036
-218.596	-200.000	-0.009	-0.039
-217.582	25.926	-0.099	-0.081
-216.567	-200.000	-0.010	-0.286
-215.552	-200.000	0.012	-0.343
-214.538	102.770	-0.112	0.129
-213.523	-19.324	-0.240	0.146
-212.509	-200.000	-0.007	0.172
-211.494	-155.490	0.239	-0.015
-210.479	317.086	-0.125	0.231
-209.465	63.664	-0.127	0.125
-208.450	-12.886	0.161	0.103
-207.436	-200.000	0.042	0.187
-206.421	207.700	-0.095	0.146
-205.406	-100.340	0.182	-0.044
-204.392	-23.787	-0.043	0.025
-203.377	84.683	0.159	-0.170
-202.363	-91.845	0.281	0.078
-201.348	800.000	-0.090	-0.258
-200.333	800.000	-0.105	-0.416
-199.319	-69.434	-0.176	-0.066
-198.304	135.832	0.120	0.153
-197.290	-200.000	-0.001	0.200
-196.275	194.214	0.093	0.139
-195.260	-73.871	-0.173	0.062
-194.246	131.559	0.211	0.266
-193.231	800.000	0.025	-0.073
-192.217	-119.877	0.139	-0.023
-191.202	9.089	0.089	0.066
-190.187	-89.506	0.092	0.026
-189.173	28.899	-0.025	-0.021
-188.158	-104.330	0.183	0.042
-187.144	-123.901	0.256	0.040
-186.129	-52.404	-0.247	0.112
-185.114	-200.000	0.001	-0.294
-184.100	-200.000	0.010	-0.178
-183.085	-200.000	0.046	-0.286
-182.071	69.408	-0.362	-0.365
-181.056	-200.000	0.013	0.288
-180.042	-24.408	0.186	-0.108
-179.027	-54.043	0.007	0.003
-178.012	515.643	-0.030	-0.068
-176.998	-200.000	-0.022	0.122
-175.983	112.199	-0.290	0.344
-174.969	65.891	-0.053	-0.053
-173.954	120.725	-0.040	-0.048
-172.939	626.206	0.023	-0.056
-171.925	224.356	-0.112	0.177
-170.910	147.103	-0.159	-0.209
-169.896	26.220	-0.291	0.238
-168.881	-200.000	0.080	-0.371
-167.866	-28.011	0.097	-0.055
-166.852	-135.789	-0.200	-0.023
-165.837	13.745	-0.142	-0.108
-164.823	-200.000	0.014	0.105
-163.808	-200.000	-0.074	0.422
-162.793	144.502	0.132	0.173
-161.779	-113.087	-0.276	-0.053
-160.764	-108.475	0.186	0.039
-159.750	-75.810	0.044	0.015
-158.735	108.634	-0.168	-0.197
-157.720	800.000	0.056	-0.214
-156.706	-67.986	-0.049	-0.019
-155.691	-112.191	0.186	0.037
-154.677	-150.430	0.229	-0.017
-153.662	83.076	-0.138	-0.147
-152.647	-48.175	0.184	-0.087
-151.633	-70.101	-0.212	0.079
-150.618	-200.000	-0.023	0.292
-149.604	-200.000	-0.006	0.050
-148.589	-134.881	0.236	-0.028
-147.574	48.681	-0.237	-0.217
-146.560	-130.410	0.133	0.018
-145.545	-200.000	0.027	-0.365
-144.531	-67.974	0.326	-0.125
-143.516	-8.162	-0.296	0.195
-142.502	186.316	-0.033	0.048
-141.487	800.000	0.054	0.145
-140.472	-200.000	-0.014	0.243
-139.458	90.377	-0.209	-0.229
-138.443	-159.292	-0.184	0.010
-137.429	36.861	0.030	-0.026
-136.414	-30.555	-0.284	-0.158
-135.399	33.256	-0.196	0.166
-134.385	371.575	-0.122	-0.242
-133.370	800.000	-0.167	0.553
-132.356	-72.531	0.137	-0.049
-131.341	249.820	-0.098	0.163
-130.326	-168.791	-0.060	0.002
-129.312	189.732	-0.367	-0.538
-128.297	15.671	0.403	0.310
-127.283	-110.123	-0.116	0.024
-126.268	138.077	0.080	0.102
-125.253	-173.520	-0.115	0.003
-124.239	79.944	0.201	-0.211
-123.224	-78.792	0.084	0.028
-122.210	800.000	-0.136	0.443
