DTS Sentinel unit serial number:	SN413079Multiplexer serial number:	ORYXHardware model number:	OX4-SRSoftware version number:	ORYX F/W v4.00 Oryx Data Collector v3.7.2.0data status	okinstallation	princeton_trtdifferential loss correction	single-endedforward channel	channel 1reverse channel	N/Adate	2019/09/16time	06:10:35forward acquisition time	60.00reverse acquisition time	0.00gamma	496.2192k internal	0.2331k external	0.2331temperature offset calibration	0.9986default loss term (dB/km)	0.3790temperature slope calibration	1.0000multiplexer offset coefficient	1.0000multiplexer slope coefficient	1.0000fibre end	0.00T internal ref (°C)	27.44T ext. ref 1 (°C)	11.30T ext. ref 2 (°C)	21.80length (m)	temperature (°C)	Stokes	anti-Stokes-747.200	19.422	-0.140	-0.113
-746.185	3.167	0.195	0.143
-745.171	-200.000	-0.012	-0.114
-744.156	-200.000	0.015	0.148
-743.142	800.000	-0.106	-0.358
-742.127	394.672	0.093	0.194
-741.112	71.936	0.137	0.143
-740.098	-23.765	-0.420	0.253
-739.083	-90.732	0.089	-0.026
-738.069	-200.000	0.144	0.640
-737.054	-12.405	0.539	-0.354
-736.039	-100.138	-0.111	0.028
-735.025	-200.000	0.012	0.382
-734.010	-200.000	0.014	-0.148
-732.996	-200.000	0.015	-0.175
-731.981	-112.998	-0.348	-0.069
-730.966	45.735	-0.398	0.370
-729.952	-200.000	-0.016	0.129
-728.937	-121.040	-0.090	-0.015
-727.923	-52.891	-0.260	-0.120
-726.908	-23.388	-0.323	-0.195
-725.894	51.711	-0.246	0.235
-724.879	-200.000	0.014	-0.132
-723.864	770.692	-0.089	-0.245
-722.850	264.201	0.119	-0.209
-721.835	26.206	0.048	0.041
-720.821	29.857	0.225	0.193
-719.806	160.582	-0.295	0.414
-718.791	-87.759	-0.444	-0.135
-717.777	-177.598	-0.206	-0.005
-716.762	220.815	0.038	-0.061
-715.748	-18.242	-0.121	0.076
-714.733	-39.085	0.079	0.042
-713.718	365.629	0.097	-0.196
-712.704	212.270	0.069	-0.109
-711.689	-200.000	0.037	-0.252
-710.675	-200.000	-0.008	-0.254
-709.660	-105.434	0.187	-0.043
-708.645	186.317	-0.304	0.455
-707.631	-200.000	0.037	0.167
-706.616	-2.475	0.193	-0.136
-705.602	607.331	0.133	-0.334
-704.587	-200.000	0.006	0.131
-703.572	130.672	0.008	0.011
-702.558	-5.783	0.124	0.085
-701.543	221.407	-0.153	0.247
-700.529	800.000	0.040	-0.164
-699.514	30.645	0.222	-0.191
-698.499	-200.000	-0.029	-0.224
-697.485	2.400	-0.309	-0.224
-696.470	106.618	-0.082	-0.098
-695.456	-200.000	0.010	0.175
-694.441	-81.391	0.118	0.039
-693.426	-97.580	-0.116	0.030
-692.412	-14.529	0.073	0.047
-691.397	-200.000	0.032	-0.199
-690.383	-109.265	0.228	0.049
-689.368	-56.188	-0.329	-0.147
-688.354	-200.000	0.007	0.053
-687.339	-33.716	-0.095	-0.053
-686.324	441.152	0.078	-0.171
-685.310	33.624	0.081	-0.071
-684.295	18.209	0.114	-0.092
-683.281	-11.755	0.409	-0.270
-682.266	602.124	-0.053	0.132
-681.251	-29.504	0.111	-0.064
-680.237	-150.078	0.138	-0.011
-679.222	-64.698	0.196	-0.080
-678.208	-98.261	-0.145	0.037
-677.193	7.398	0.112	-0.084
-676.178	104.826	-0.177	0.209
-675.164	-120.657	0.052	-0.009
-674.149	-18.562	-0.286	0.179
-673.135	-52.106	-0.150	-0.070
-672.120	465.886	-0.061	0.136
-671.105	50.360	-0.372	0.353
-670.091	-200.000	-0.003	0.290
-669.076	20.557	0.100	0.081
-668.062	-200.000	0.048	-0.415
-667.047	-200.000	0.015	-0.121
-666.032	-200.000	-0.026	0.216
-665.018	-200.000	0.028	0.314
-664.003	-95.200	0.262	0.071
-662.989	496.745	0.037	-0.084
-661.974	9.300	-0.240	-0.182
-660.959	14.597	-0.195	-0.153
-659.945	437.300	-0.037	-0.081
-658.930	268.468	0.117	0.206
-657.916	800.000	0.049	-0.137
-656.901	-97.773	-0.199	-0.052
-655.886	-99.118	0.172	-0.044
-654.872	505.128	-0.128	-0.298
-653.857	800.000	-0.097	-0.383
-652.843	-153.078	-0.027	-0.002
-651.828	-54.376	-0.188	0.085
-650.814	-73.886	-0.212	0.077
-649.799	-4.518	0.172	0.119
-648.784	-96.712	0.252	0.066
-647.770	720.460	-0.092	-0.245
-646.755	31.372	0.264	0.228
-645.741	21.899	0.096	-0.078
-644.726	-171.521	-0.214	-0.007
-643.711	-54.537	0.317	-0.144
-642.697	-36.804	0.229	-0.123
-641.682	-95.823	-0.150	0.040
-640.668	-200.000	0.001	0.123
-639.653	337.340	0.093	0.182
-638.638	194.302	-0.179	-0.272
-637.624	32.805	0.212	0.184
-636.609	-160.952	-0.096	0.005
-635.595	44.179	0.059	0.054
-634.580	65.347	-0.055	-0.056
-633.565	184.168	0.115	0.170
-632.551	434.846	-0.127	-0.276
-631.536	424.324	-0.068	0.146
-630.522	-200.000	-0.053	0.304
-629.507	800.000	-0.037	-0.111
-628.492	-124.453	0.170	0.026
-627.478	-200.000	-0.007	-0.354
-626.463	101.689	-0.149	0.175
-625.449	-200.000	-0.064	0.299
-624.434	17.614	-0.154	-0.123
-623.419	61.435	-0.032	0.032
-622.405	-34.351	0.254	-0.139
-621.390	-116.081	0.286	0.053
-620.376	-200.000	0.001	0.185
-619.361	457.583	-0.184	0.409
-618.346	232.752	-0.228	0.376
-617.332	-14.267	-0.174	-0.113
-616.317	-78.562	0.144	0.049
-615.303	-83.333	0.060	0.019
-614.288	-200.000	-0.000	0.163
-613.273	-116.125	0.299	-0.056
-612.259	-162.920	-0.275	-0.013
-611.244	-159.056	-0.166	-0.009
-610.230	-138.009	0.120	0.013
-609.215	289.749	0.130	0.236
-608.201	783.495	0.088	0.241
-607.186	74.712	0.228	-0.240
-606.171	800.000	-0.062	0.197
-605.157	-200.000	-0.010	0.185
-604.142	354.274	-0.181	0.360
-603.128	-150.520	0.303	0.023
-602.113	1.125	-0.273	-0.196
-601.098	-200.000	0.028	-0.134
-600.084	800.000	0.074	-0.318
-599.069	265.511	-0.104	-0.181
-598.055	-147.059	-0.485	-0.042
-597.040	-200.000	-0.002	-0.139
-596.025	3.393	-0.141	0.103
-595.011	-200.000	-0.007	0.075
-593.996	10.233	0.144	0.109
-592.982	-58.516	0.329	-0.143
-591.967	-200.000	-0.039	-0.175
-590.952	-38.496	-0.279	0.147
-589.938	-63.729	0.119	0.049
-588.923	168.478	0.119	0.170
-587.909	686.035	0.089	0.233
-586.894	-61.885	0.270	-0.113
-585.879	-80.241	0.102	-0.034
-584.865	-6.726	-0.226	-0.154
-583.850	-97.447	0.382	0.099
-582.836	27.065	0.121	-0.102
-581.821	167.853	-0.184	-0.262
-580.806	263.717	-0.056	0.097
-579.792	-200.000	0.023	0.531
-578.777	-124.360	0.369	-0.058
-577.763	-200.000	0.038	-0.203
-576.748	-200.000	0.011	0.111
-575.733	159.196	0.323	-0.450
-574.719	-79.381	-0.122	0.041
-573.704	-200.000	-0.005	0.142
-572.690	-0.418	-0.235	-0.167
-571.675	89.509	-0.191	-0.213
-570.661	59.539	-0.019	0.019
-569.646	-17.444	-0.199	-0.125
-568.631	-2.714	0.050	-0.035
-567.617	30.122	-0.102	0.087
-566.602	-48.940	-0.147	-0.070
-565.588	152.235	0.111	0.151
-564.573	-42.243	-0.268	-0.137
-563.558	-9.341	0.207	-0.138
-562.544	1.619	-0.233	-0.167
-561.529	205.592	-0.236	0.366
-560.515	384.320	0.204	-0.420
-559.500	-200.000	0.049	-0.271
-558.485	-70.498	-0.239	-0.090
-557.471	109.041	0.191	0.228
-556.456	-119.613	-0.224	-0.039
-555.442	-200.000	-0.014	0.121
-554.427	-33.902	-0.139	0.076
-553.412	-131.157	0.197	-0.026
-552.398	-57.679	0.305	-0.134
-551.383	59.822	-0.074	-0.073
-550.369	-131.365	0.197	0.026
-549.354	-67.617	0.291	-0.114
-548.339	11.117	-0.027	-0.021
-547.325	-13.546	-0.047	0.030
-546.310	358.489	-0.101	-0.202
-545.296	-200.000	0.000	-0.215
-544.281	-133.984	0.110	-0.014
-543.266	-200.000	-0.026	0.194
-542.252	-51.086	0.168	-0.079
-541.237	-133.386	-0.283	0.036
-540.223	255.449	-0.121	-0.207
-539.208	-200.000	0.027	-0.312
-538.193	-200.000	0.007	-0.196
-537.179	46.186	0.148	0.137
-536.164	235.742	-0.235	-0.388
-535.150	-156.125	0.207	-0.013
-534.135	356.766	-0.019	0.038
-533.121	-167.845	-0.185	-0.007
-532.106	280.117	0.129	0.230
-531.091	183.162	-0.100	-0.147
-530.077	-39.039	0.373	-0.196
-529.062	-200.000	-0.032	0.177
-528.048	-61.929	0.277	-0.116
-527.033	121.631	0.161	0.201
-526.018	36.280	0.140	-0.123
-525.004	-161.411	0.159	0.008
-523.989	248.514	0.061	0.103
-522.975	-133.557	-0.290	-0.036
-521.960	-200.000	-0.068	0.443
-520.945	800.000	-0.067	-0.189
-519.931	164.856	-0.110	0.155
-518.916	-87.028	-0.060	0.018
-517.902	800.000	-0.038	-0.142
-516.887	-200.000	-0.013	0.068
-515.872	231.837	0.156	-0.256
-514.858	50.970	-0.117	-0.111
-513.843	62.938	0.013	-0.013
-512.829	-85.409	0.153	-0.048
-511.814	-52.869	-0.354	-0.163
-510.799	2.448	-0.083	0.060
-509.785	800.000	0.030	-0.102
-508.770	-65.544	0.248	-0.099
-507.756	245.078	-0.122	-0.204
-506.741	-101.781	0.114	-0.028
-505.726	-44.372	0.261	0.130
-504.712	-104.383	-0.158	-0.036
-503.697	358.116	0.101	0.201
-502.683	107.509	0.228	-0.270
-501.668	181.265	-0.081	0.118
-500.653	800.000	0.084	0.240
-499.639	-186.807	0.113	0.002
-498.624	139.778	-0.058	-0.077
-497.610	-200.000	0.026	-0.139
-496.595	87.531	0.062	-0.068
-495.581	67.781	0.109	-0.111
-494.566	800.000	0.014	0.048
-493.551	21.146	0.140	0.113
-492.537	-127.513	-0.288	-0.042
-491.522	-145.297	-0.278	-0.025
-490.508	14.923	0.089	0.070
-489.493	81.655	0.152	0.164
-488.478	607.451	-0.107	0.266
-487.464	-76.235	-0.230	0.081
-486.449	-108.693	-0.211	-0.045
-485.435	-200.000	0.024	0.178
-484.420	-19.925	-0.166	0.102
-483.405	-175.159	0.239	-0.007
-482.391	633.620	-0.028	-0.071
-481.376	-109.825	-0.170	-0.036
-480.362	1.143	-0.315	0.225
-479.347	-34.279	0.097	-0.053
-478.332	-95.543	0.165	-0.044
-477.318	14.242	-0.257	0.199
-476.303	-200.000	0.012	-0.061
-475.289	154.507	-0.226	0.308
-474.274	170.202	-0.102	-0.146
-473.259	800.000	-0.077	-0.282
-472.245	23.251	0.248	-0.203
-471.230	640.109	-0.160	-0.405
-470.216	-129.160	0.227	0.032
-469.201	245.678	0.107	0.180
-468.186	-150.589	0.371	-0.028
-467.172	-54.644	-0.152	-0.068
-466.157	-200.000	0.003	0.067
-465.143	-200.000	-0.047	-0.215
-464.128	379.599	0.112	-0.228
-463.113	-200.000	-0.008	-0.038
-462.099	82.401	0.215	0.232
-461.084	25.928	-0.163	-0.135
-460.070	92.563	-0.106	-0.120
-459.055	-139.321	-0.184	-0.020
-458.040	-200.000	0.002	-0.153
-457.026	-63.974	0.141	-0.057
-456.011	121.029	-0.059	-0.073
-454.997	494.148	0.057	0.130
-453.982	-153.844	-0.081	0.006
-452.968	26.310	0.065	0.054
-451.953	200.496	0.067	-0.103
-450.938	-4.410	-0.147	-0.101
-449.924	5.837	-0.098	0.072
-448.909	-25.397	0.052	0.031
-447.895	191.742	0.202	0.302
-446.880	-25.431	-0.223	-0.131
-445.865	240.120	-0.058	-0.096
-444.851	-33.732	-0.160	0.088
-443.836	-20.747	0.222	0.136
-442.822	58.132	0.280	0.272
-441.807	-108.305	0.221	0.048
-440.792	-76.433	-0.243	-0.085
-439.778	-126.907	-0.056	0.008
-438.763	-200.000	-0.078	0.419
-437.749	170.914	-0.102	0.145
-436.734	-200.000	-0.040	-0.288
-435.719	-97.942	-0.143	0.037
-434.705	53.927	-0.241	-0.231
-433.690	-117.762	0.344	0.062
-432.676	-200.000	-0.038	0.352
-431.661	1.474	0.099	-0.071
-430.646	19.684	0.144	-0.115
-429.632	-57.249	-0.071	0.031
-428.617	33.758	-0.051	0.045
-427.603	-200.000	-0.233	-0.001
-426.588	7.551	-0.120	0.090
-425.573	-200.000	0.030	-0.301
-424.559	17.084	0.094	-0.074
-423.544	-149.980	0.086	0.007
-422.530	-100.109	0.149	0.037
-421.515	-63.942	-0.118	-0.048
-420.500	-155.383	0.094	0.006
-419.486	-152.333	-0.077	-0.005
-418.471	671.362	-0.068	0.176
-417.457	267.448	0.118	0.206
-416.442	83.787	0.155	-0.168
-415.428	800.000	0.092	-0.337
-414.413	-30.091	0.169	0.096
-413.398	683.588	0.051	0.133
-412.384	-75.315	-0.100	-0.036
-411.369	-100.464	0.304	-0.075
-410.355	-200.000	-0.019	0.090
-409.340	-200.000	-0.024	-0.141
-408.325	-200.000	0.023	0.326
-407.311	-98.020	0.268	0.069
-406.296	144.607	0.107	-0.142
-405.282	-113.357	-0.271	0.053
-404.267	-200.000	0.061	-0.371
-403.252	462.345	-0.106	-0.235
-402.238	-135.555	-0.345	0.041
-401.223	111.945	-0.115	0.138
-400.209	-200.000	-0.003	0.123
-399.194	303.143	-0.064	-0.119
-398.179	135.383	-0.114	-0.147
-397.165	-200.000	0.033	-0.285
-396.150	-131.925	0.545	-0.071
-395.136	-118.227	0.171	0.030
-394.121	157.616	0.043	-0.059
-393.106	-14.862	-0.125	-0.079
-392.092	800.000	-0.060	-0.200
-391.077	71.639	-0.238	0.245
-390.063	-174.149	0.438	-0.013
-389.048	1.125	-0.022	0.016
-388.033	-200.000	-0.045	0.405
-387.019	21.135	0.036	0.029
-386.004	31.149	-0.173	0.147
-384.990	-125.292	0.273	0.041
-383.975	-121.444	-0.060	0.010
-382.960	-200.000	-0.043	0.260
-381.946	-38.366	-0.148	-0.078
-380.931	-82.380	0.202	0.065
-379.917	-200.000	-0.002	-0.034
-378.902	-200.000	-0.005	0.105
-377.888	164.628	0.178	0.249
-376.873	13.099	-0.145	-0.112
-375.858	-40.438	0.337	0.174
-374.844	-77.211	-0.103	-0.035
-373.829	-40.562	0.258	-0.133
-372.815	69.713	0.026	0.027
-371.800	196.621	-0.081	-0.122
-370.785	-96.866	-0.211	-0.055
-369.771	-200.000	0.002	-0.138
-368.756	-200.000	0.011	0.186
-367.742	41.215	0.149	-0.134
-366.727	-200.000	-0.008	-0.126
-365.712	-114.101	0.105	-0.020
-364.698	-87.268	-0.143	-0.043
-363.683	-200.000	0.005	-0.071
-362.669	-87.008	0.132	0.040
-361.654	603.428	-0.072	-0.179
-360.639	-45.772	-0.273	-0.134
-359.625	-45.938	0.193	0.095
-358.610	629.713	0.086	0.216
-357.596	-113.816	-0.248	0.048
-356.581	513.026	0.048	-0.111
-355.566	13.825	0.194	-0.149
-354.552	-70.613	0.183	0.068
-353.537	31.390	0.249	0.212
-352.523	-167.406	-0.224	0.009
-351.508	256.068	0.084	0.143
-350.493	16.699	-0.126	-0.099
-349.479	800.000	0.068	0.244
-348.464	96.076	0.203	0.230
-347.450	-9.897	-0.095	0.062
-346.435	-88.497	0.116	-0.034
-345.420	-200.000	0.007	0.321
-344.406	63.819	-0.304	-0.303
-343.391	800.000	-0.062	-0.189
-342.377	-157.080	-0.226	-0.014
-341.362	96.645	-0.124	0.140
-340.348	-200.000	0.029	0.169
-339.333	144.194	-0.124	-0.164
-338.318	-195.701	0.146	0.001
-337.304	62.784	-0.177	0.175
-336.289	76.615	-0.283	-0.297
-335.275	-200.000	0.014	0.433
-334.260	-12.754	-0.121	-0.078
-333.245	235.279	-0.121	0.197
-332.231	-200.000	-0.007	0.074
-331.216	-23.460	0.387	0.230
-330.202	-200.000	0.017	-0.223
-329.187	-53.446	-0.205	-0.093
-328.172	309.839	-0.116	-0.216
-327.158	134.101	-0.193	0.248
-326.143	218.810	-0.150	0.238
-325.129	425.376	0.055	-0.118
-324.114	-146.470	0.105	0.009
-323.099	79.587	-0.085	-0.091
-322.085	-66.443	-0.197	0.077
-321.070	72.108	-0.262	-0.270
-320.056	-11.360	0.206	-0.134
-319.041	800.000	0.072	0.280
-318.026	-84.056	0.173	0.054
-317.012	-99.436	0.289	-0.072
-315.997	800.000	-0.012	0.039
-314.983	-200.000	-0.037	-0.328
-313.968	262.607	0.155	-0.267
-312.953	-80.319	0.109	0.036
-311.939	35.616	-0.144	0.125
-310.924	381.398	-0.027	0.054
-309.910	451.953	0.097	0.212
-308.895	-200.000	-0.016	0.097
-307.880	-200.000	0.055	0.290
-306.866	800.000	0.074	0.220
-305.851	-53.899	0.204	0.092
-304.837	162.826	-0.108	-0.150
-303.822	-126.564	0.135	0.020
-302.807	-122.412	0.170	0.027
-301.793	-200.000	0.004	0.105
-300.778	800.000	0.043	0.122
-299.764	232.230	-0.267	0.433
-298.749	45.262	-0.051	-0.046
-297.735	-84.981	0.162	0.050
-296.720	-200.000	-0.001	0.091
-295.705	254.471	0.173	-0.293
-294.691	-137.304	0.166	0.019
-293.676	41.884	-0.283	0.254
-292.662	51.088	-0.174	0.163
-291.647	-17.539	-0.104	0.065
-290.632	327.170	0.058	-0.110
-289.618	-200.000	-0.019	0.300
-288.603	43.470	-0.007	0.007
-287.589	800.000	-0.027	-0.076
-286.574	800.000	-0.045	0.185
-285.559	-39.795	-0.270	0.139
-284.545	388.473	-0.089	0.183
-283.530	30.708	-0.257	-0.217
-282.516	800.000	-0.018	-0.072
-281.501	324.853	-0.057	-0.108
-280.486	32.845	0.137	0.117
-279.472	129.973	-0.024	-0.031
-278.457	149.822	-0.069	0.093
-277.443	181.926	0.042	0.061
-276.428	-110.740	-0.341	0.070
-275.413	-145.512	-0.089	-0.008
-274.399	-27.925	-0.300	-0.172
-273.384	-61.931	-0.131	-0.054
-272.370	-40.290	-0.222	0.114
-271.355	-200.000	-0.007	0.306
-270.340	-124.106	0.180	-0.028
-269.326	-95.526	0.259	0.069
-268.311	-200.000	-0.023	0.099
-267.297	80.755	0.114	-0.121
-266.282	226.339	0.116	-0.186
-265.267	-135.313	-0.172	0.020
-264.253	-162.304	-0.304	0.015
-263.238	87.285	0.103	-0.112
-262.224	-117.825	-0.364	-0.065
-261.209	800.000	-0.031	0.086
-260.195	-38.855	-0.064	0.034
-259.180	-101.998	-0.250	-0.060
-258.165	452.667	0.158	0.345
-257.151	355.173	-0.074	-0.145
-256.136	800.000	0.050	-0.214
-255.122	-136.839	0.051	-0.006
-254.107	-123.079	0.139	0.022
-253.092	800.000	0.060	-0.243
-252.078	-54.338	-0.213	0.095
-251.063	-105.000	-0.241	0.055
-250.049	-50.671	-0.186	-0.086
-249.034	-72.133	-0.123	-0.045
-248.019	800.000	-0.068	0.240
-247.005	-128.645	-0.157	0.022
-245.990	-6.014	-0.516	0.348
-244.976	28.492	-0.101	-0.084
-243.961	-196.705	0.122	-0.001
-242.946	97.506	0.159	-0.180
-241.932	-200.000	-0.005	-0.233
-240.917	656.455	0.061	-0.155
-239.903	-200.000	0.021	-0.471
-238.888	140.326	0.124	0.162
-237.873	800.000	-0.073	0.270
-236.859	-61.110	-0.157	0.065
-235.844	-24.447	0.163	0.096
-234.830	-200.000	-0.018	-0.124
-233.815	294.642	-0.059	0.107
-232.800	-200.000	-0.006	0.180
-231.786	-45.851	0.410	0.200
-230.771	-96.791	-0.033	0.009
-229.757	580.027	0.131	-0.316
-228.742	-200.000	0.044	-0.255
-227.727	800.000	-0.037	0.109
-226.713	217.961	-0.133	-0.209
-225.698	113.734	0.115	-0.138
-224.684	-200.000	0.033	-0.251
-223.669	554.152	0.042	-0.099
-222.655	704.965	-0.126	0.327
-221.640	218.645	0.036	0.057
-220.625	-90.833	-0.493	-0.140
-219.611	-154.778	-0.260	-0.017
-218.596	-161.772	-0.249	-0.012
-217.582	-149.530	0.068	0.005
-216.567	-33.312	0.301	0.164
-215.552	-80.766	0.074	0.024
-214.538	4.994	-0.201	-0.146
-213.523	-166.644	-0.064	0.003
-212.509	800.000	-0.029	0.117
-211.494	162.201	0.114	0.157
-210.479	-200.000	0.022	-0.179
-209.465	-87.645	-0.066	-0.020
-208.450	-85.598	0.249	-0.076
-207.436	-1.641	0.258	-0.179
-206.421	84.495	0.123	-0.133
-205.406	800.000	-0.049	0.181
-204.392	-200.000	0.033	0.233
-203.377	-187.843	0.132	-0.002
-202.363	-200.000	0.025	-0.165
-201.348	84.433	-0.147	0.159
-200.333	-128.899	-0.089	0.012
-199.319	-10.268	-0.106	-0.070
-198.304	-200.000	-0.024	0.232
-197.290	-200.000	-0.012	-0.076
-196.275	-200.000	0.105	-0.463
-195.260	-200.000	-0.039	-0.297
-194.246	-200.000	0.070	0.448
-193.231	-200.000	-0.008	-0.119
-192.217	217.092	0.012	-0.020
-191.202	800.000	-0.019	-0.077
-190.187	-158.871	0.201	-0.011
-189.173	-158.165	-0.491	0.028
-188.158	-76.094	0.286	-0.100
-187.144	242.303	-0.082	0.136
-186.129	-200.000	-0.018	-0.154
-185.114	-36.832	0.093	0.049
-184.100	395.178	0.021	-0.044
-183.085	181.733	0.147	0.213
-182.071	800.000	-0.044	-0.153
-181.056	-92.920	-0.061	-0.017
-180.042	-173.709	0.344	-0.010
-179.027	521.615	-0.085	0.196
-178.012	12.891	0.082	-0.063
-176.998	70.332	0.302	-0.307
-175.983	135.923	0.122	0.156
-174.969	372.904	-0.085	-0.171
-173.954	4.742	-0.328	-0.237
-172.939	-200.000	-0.020	0.204
-171.925	-108.858	0.350	0.074
-170.910	192.592	-0.098	-0.146
-169.896	-107.136	-0.253	-0.055
-168.881	-166.130	0.127	0.005
-167.866	35.976	0.242	0.209
-166.852	342.122	-0.056	-0.109
-165.837	-82.648	0.244	-0.078
-164.823	-64.449	0.064	-0.025
-163.808	-132.724	-0.202	0.025
-162.793	266.519	-0.155	-0.266
-161.779	-78.188	0.099	-0.034
-160.764	597.559	0.055	0.135
-159.750	800.000	0.040	-0.161
-158.735	-31.337	-0.267	0.148
-157.720	-77.554	0.109	-0.037
-156.706	-58.559	0.211	-0.090
-155.691	-200.000	-0.041	0.224
-154.677	-200.000	0.027	-0.183
-153.662	-200.000	-0.021	0.122
-152.647	159.419	-0.156	-0.214
-151.633	-34.372	0.279	-0.151
-150.618	157.046	0.228	-0.311
-149.604	30.027	0.115	-0.097
-148.589	388.655	-0.115	-0.233
-147.574	413.837	-0.049	-0.102
-146.560	-16.226	-0.081	0.051
-145.545	-98.834	0.056	0.014
-144.531	10.150	-0.141	-0.106
-143.516	6.926	-0.111	0.081
-142.502	288.872	0.036	-0.065
-141.487	-104.353	-0.365	0.083
-140.472	60.716	0.261	-0.254
-139.458	-73.318	0.115	-0.041
-138.443	-39.609	0.178	0.092
-137.429	-25.372	0.278	0.161
-136.414	341.480	0.091	0.174
-135.399	635.191	0.126	-0.315
-134.385	-47.391	0.446	-0.213
-133.370	-91.263	-0.080	0.022
-132.356	190.563	0.089	-0.131
-131.341	-35.941	0.363	0.193
-130.326	-138.260	0.306	0.033
-129.312	-200.000	0.051	0.269
-128.297	142.993	0.104	0.136
-127.283	-35.460	-0.152	-0.081
-126.268	800.000	-0.017	0.071
-125.253	84.238	0.111	0.119
-124.239	800.000	0.011	0.032
-123.224	-87.546	0.129	-0.038
-122.210	-147.343	0.060	-0.005
