DTS Sentinel unit serial number:	SN413079Multiplexer serial number:	ORYXHardware model number:	OX4-SRSoftware version number:	ORYX F/W v4.00 Oryx Data Collector v3.7.2.0data status	okinstallation	princeton_trtdifferential loss correction	single-endedforward channel	channel 1reverse channel	N/Adate	2019/09/15time	04:22:35forward acquisition time	60.00reverse acquisition time	0.00gamma	496.2192k internal	0.2323k external	0.2323temperature offset calibration	0.9989default loss term (dB/km)	0.3790temperature slope calibration	1.0000multiplexer offset coefficient	1.0000multiplexer slope coefficient	1.0000fibre end	0.00T internal ref (°C)	30.87T ext. ref 1 (°C)	4.62T ext. ref 2 (°C)	25.61length (m)	temperature (°C)	Stokes	anti-Stokes-747.200	800.000	0.047	0.191
-746.185	-110.217	-0.211	0.044
-745.171	-91.465	0.195	0.056
-744.156	-200.000	-0.058	0.301
-743.142	-38.572	0.112	0.060
-742.127	-134.008	-0.354	-0.044
-741.112	231.671	0.136	0.225
-740.098	-130.061	-0.123	0.017
-739.083	72.207	-0.153	0.161
-738.069	24.591	-0.170	0.142
-737.054	540.626	0.048	-0.115
-736.039	-68.764	-0.265	-0.103
-735.025	31.114	0.253	0.219
-734.010	-49.913	-0.234	-0.112
-732.996	-200.000	0.001	-0.009
-731.981	112.332	0.191	-0.233
-730.966	101.431	0.144	-0.169
-729.952	41.959	-0.063	0.058
-728.937	440.058	0.066	-0.147
-727.923	381.576	-0.093	-0.192
-726.908	-63.066	-0.147	-0.061
-725.894	450.545	-0.058	-0.128
-724.879	523.864	0.039	0.093
-723.864	106.877	-0.289	-0.346
-722.850	287.938	-0.153	0.280
-721.835	-5.177	-0.100	0.070
-720.821	393.088	-0.015	-0.030
-719.806	800.000	-0.078	0.260
-718.791	-63.186	0.303	0.126
-717.777	106.869	-0.101	-0.121
-716.762	76.886	-0.099	0.106
-715.748	188.931	-0.164	-0.248
-714.733	-31.073	0.241	-0.137
-713.718	-200.000	0.035	-0.199
-712.704	-95.959	-0.170	-0.046
-711.689	800.000	-0.098	-0.418
-710.675	800.000	-0.089	-0.267
-709.660	-87.172	-0.338	-0.104
-708.645	229.067	0.086	0.142
-707.631	800.000	-0.079	0.275
-706.616	-94.200	-0.158	0.044
-705.602	-200.000	-0.029	-0.145
-704.587	186.391	-0.175	-0.263
-703.572	85.958	-0.112	-0.124
-702.558	-42.634	-0.208	0.107
-701.543	800.000	-0.056	-0.193
-700.529	165.538	0.055	0.078
-699.514	-115.908	0.538	0.101
-698.499	421.221	-0.115	-0.248
-697.485	-35.176	-0.267	-0.147
-696.470	-200.000	-0.003	0.155
-695.456	102.471	0.111	0.131
-694.441	-88.086	0.204	-0.062
-693.426	-97.809	-0.231	-0.060
-692.412	-200.000	-0.058	-0.334
-691.397	-83.570	-0.115	-0.037
-690.383	-135.158	-0.259	-0.031
-689.368	800.000	-0.052	0.228
-688.354	452.765	0.117	-0.260
-687.339	359.751	0.048	-0.096
-686.324	260.946	-0.107	0.186
-685.310	-200.000	-0.073	0.389
-684.295	-200.000	-0.021	-0.122
-683.281	-53.287	0.215	-0.099
-682.266	118.841	-0.129	0.160
-681.251	-26.548	-0.124	-0.073
-680.237	-200.000	-0.022	-0.156
-679.222	-155.468	0.136	-0.009
-678.208	-200.000	-0.031	0.193
-677.193	-200.000	-0.056	0.325
-676.178	52.361	-0.330	0.317
-675.164	507.537	0.099	-0.232
-674.149	81.161	0.236	-0.257
-673.135	-72.062	-0.059	-0.022
-672.120	800.000	0.039	0.166
-671.105	175.670	0.117	-0.171
-670.091	13.695	-0.193	-0.151
-669.076	117.386	0.102	0.127
-668.062	93.538	0.294	0.335
-667.047	122.278	0.331	-0.417
-666.032	-66.786	0.150	0.060
-665.018	-171.470	-0.220	0.007
-664.003	800.000	0.064	-0.182
-662.989	-200.000	-0.028	-0.270
-661.974	800.000	0.050	-0.138
-660.959	-31.616	-0.139	-0.078
-659.945	-200.000	-0.043	0.270
-658.930	-7.411	0.207	-0.141
-657.916	-175.822	-0.360	-0.010
-656.901	-200.000	-0.015	0.068
-655.886	55.592	-0.144	-0.140
-654.872	-96.852	0.314	-0.083
-653.857	91.527	-0.063	0.071
-652.843	-19.273	0.178	-0.111
-651.828	-200.000	0.070	0.464
-650.814	-141.734	0.241	0.024
-649.799	-95.674	-0.296	0.080
-648.784	-70.739	-0.292	0.111
-647.770	550.055	-0.082	0.197
-646.755	800.000	-0.043	0.132
-645.741	-200.000	0.029	0.309
-644.726	-85.609	0.113	-0.035
-643.711	-68.254	-0.187	0.073
-642.697	43.224	-0.239	0.220
-641.682	-107.383	-0.032	-0.007
-640.668	-51.721	0.099	-0.046
-639.653	-47.191	-0.373	-0.183
-638.638	-200.000	0.012	-0.463
-637.624	-200.000	-0.003	-0.087
-636.609	-200.000	0.003	0.182
-635.595	800.000	0.048	0.186
-634.580	99.746	0.110	-0.128
-633.565	-132.887	0.115	0.015
-632.551	-19.182	-0.165	0.103
-631.536	372.986	0.168	0.343
-630.522	-144.991	-0.119	-0.011
-629.507	240.241	0.063	0.106
-628.492	-27.128	-0.030	0.018
-627.478	800.000	0.033	-0.128
-626.463	-200.000	-0.002	0.289
-625.449	-64.938	-0.092	0.037
-624.434	146.006	-0.198	0.267
-623.419	-160.472	-0.199	-0.011
-622.405	374.928	0.081	-0.166
-621.390	-156.913	0.472	0.029
-620.376	210.729	-0.090	0.142
-619.361	27.004	0.242	-0.204
-618.346	10.104	-0.109	-0.083
-617.332	332.514	0.143	-0.277
-616.317	-52.853	-0.256	0.119
-615.303	-12.524	-0.260	-0.171
-614.288	-59.592	0.095	-0.041
-613.273	-200.000	-0.002	0.213
-612.259	-126.975	-0.103	0.015
-611.244	-3.643	-0.060	-0.042
-610.230	-132.265	-0.186	0.024
-609.215	-36.133	0.133	-0.072
-608.201	800.000	0.065	-0.277
-607.186	677.345	-0.073	-0.192
-606.171	-75.660	0.104	0.037
-605.157	419.703	0.085	0.184
-604.142	-47.814	-0.134	-0.065
-603.128	80.039	-0.231	0.250
-602.113	-40.925	0.289	0.150
-601.098	800.000	0.045	-0.151
-600.084	800.000	-0.037	0.155
-599.069	61.510	0.050	0.050
-598.055	-9.814	0.174	-0.116
-597.040	-131.805	-0.247	0.033
-596.025	-159.405	0.237	0.013
-595.011	1.750	-0.281	0.203
-593.996	-200.000	-0.023	0.210
-592.982	43.206	-0.129	-0.118
-591.967	-23.573	0.201	0.121
-590.952	-65.942	-0.264	0.106
-589.938	-182.529	0.028	-0.001
-588.923	-24.700	-0.290	0.173
-587.909	800.000	-0.062	-0.265
-586.894	518.588	0.085	-0.200
-585.879	24.170	0.087	0.072
-584.865	-200.000	0.016	-0.433
-583.850	681.513	-0.068	-0.178
-582.836	103.355	-0.089	-0.105
-581.821	-200.000	-0.050	-0.343
-580.806	625.009	0.157	0.396
-579.792	68.061	0.021	0.021
-578.777	-200.000	0.071	-0.388
-577.763	-93.637	-0.141	0.039
-576.748	149.057	0.043	-0.059
-575.733	-89.458	-0.089	-0.026
-574.719	800.000	-0.094	-0.281
-573.704	-13.928	0.104	-0.067
-572.690	-41.303	-0.235	-0.122
-571.675	-95.919	-0.148	-0.039
-570.661	800.000	0.144	0.401
-569.646	800.000	0.092	0.276
-568.631	-53.347	0.158	0.072
-567.617	-200.000	0.050	0.333
-566.602	-52.912	0.116	-0.054
-565.588	-93.969	-0.125	-0.034
-564.573	-133.387	-0.090	0.011
-563.558	21.621	0.084	-0.069
-562.544	571.022	-0.127	-0.309
-561.529	-119.311	0.214	-0.037
-560.515	99.700	-0.028	0.032
-559.500	122.760	-0.093	-0.117
-558.485	-88.425	0.241	0.072
-557.471	-29.750	-0.215	-0.123
-556.456	148.532	0.062	-0.084
-555.442	800.000	0.082	0.257
-554.427	11.658	-0.235	0.181
-553.412	-90.310	-0.163	-0.047
-552.398	119.715	-0.240	-0.298
-551.383	2.338	-0.092	-0.066
-550.369	-20.025	-0.393	-0.243
-549.354	-200.000	0.038	0.199
-548.339	286.779	0.057	0.103
-547.325	28.060	-0.187	0.158
-546.310	-75.529	0.077	0.028
-545.296	312.010	-0.174	-0.326
-544.281	-200.000	-0.022	-0.108
-543.266	224.887	-0.055	-0.089
-542.252	-7.169	-0.182	-0.123
-541.237	100.159	0.083	-0.097
-540.223	12.925	-0.157	0.122
-539.208	243.306	0.208	-0.350
-538.193	23.294	-0.036	0.030
-537.179	236.150	-0.081	0.135
-536.164	-200.000	0.005	-0.230
-535.150	-200.000	0.005	-0.066
-534.135	-200.000	-0.034	-0.336
-533.121	-200.000	0.008	-0.069
-532.106	-200.000	-0.054	0.287
-531.091	29.631	-0.101	-0.086
-530.077	50.148	0.086	0.081
-529.062	800.000	0.069	-0.274
-528.048	-79.384	-0.149	0.051
-527.033	800.000	-0.049	-0.190
-526.018	-16.238	-0.183	0.116
-525.004	800.000	0.048	0.135
-523.989	75.563	0.109	-0.115
-522.975	-137.326	0.316	0.036
-521.960	66.856	-0.182	-0.185
-520.945	90.778	-0.160	0.180
-519.931	3.976	-0.049	0.036
-518.916	-94.407	-0.326	-0.089
-517.902	800.000	0.034	0.126
-516.887	-200.000	-0.004	0.038
-515.872	0.860	0.369	-0.264
-514.858	-50.242	-0.162	0.077
-513.843	-70.995	-0.149	0.056
-512.829	220.708	0.104	0.167
-511.814	235.087	-0.141	-0.233
-510.799	-135.249	-0.278	0.033
-509.785	126.966	0.066	-0.084
-508.770	-72.759	0.178	-0.066
-507.756	342.785	-0.077	-0.150
-506.741	-164.315	-0.206	-0.009
-505.726	726.555	-0.014	-0.038
-504.712	280.999	0.082	0.147
-503.697	-27.683	-0.061	-0.036
-502.683	180.938	-0.136	0.199
-501.668	-47.847	-0.201	0.097
-500.653	-200.000	-0.020	-0.365
-499.639	-79.667	-0.049	-0.017
-498.624	-179.756	0.141	0.003
-497.610	-6.031	0.049	0.034
-496.595	-158.328	0.377	-0.022
-495.581	800.000	0.033	0.097
-494.566	800.000	-0.028	0.095
-493.551	-200.000	-0.008	0.086
-492.537	-108.400	0.131	-0.028
-491.522	41.455	-0.096	-0.087
-490.508	-200.000	0.058	-0.255
-489.493	800.000	0.050	-0.201
-488.478	26.385	-0.164	-0.137
-487.464	337.951	-0.171	0.333
-486.449	-31.910	-0.178	0.100
-485.435	800.000	0.052	-0.201
-484.420	90.639	-0.207	-0.231
-483.405	479.443	-0.079	-0.179
-482.391	81.659	0.149	-0.161
-481.376	-50.902	-0.050	-0.023
-480.362	-107.783	0.126	-0.027
-479.347	-149.235	0.084	-0.007
-478.332	110.831	0.165	0.198
-477.318	-69.511	-0.230	-0.088
-476.303	56.289	-0.172	0.167
-475.289	394.324	0.170	0.353
-474.274	-42.130	-0.255	0.130
-473.259	-200.000	0.021	0.148
-472.245	61.465	0.052	0.051
-471.230	116.260	-0.183	-0.224
-470.216	29.638	0.136	-0.116
-469.201	-200.000	0.003	0.128
-468.186	-27.890	0.013	0.008
-467.172	385.941	0.048	-0.098
-466.157	207.648	-0.110	0.171
-465.143	301.161	-0.060	-0.110
-464.128	-173.019	0.104	-0.003
-463.113	14.852	0.360	-0.281
-462.099	800.000	0.070	-0.234
-461.084	84.412	0.117	0.128
-460.070	800.000	0.080	-0.263
-459.055	-200.000	0.013	-0.292
-458.040	-41.025	0.188	0.097
-457.026	800.000	0.011	-0.032
-456.011	36.798	0.144	-0.127
-454.997	-141.935	0.149	0.015
-453.982	63.700	0.210	0.210
-452.968	17.695	-0.052	-0.041
-451.953	-68.870	0.057	0.022
-450.938	-200.000	0.033	-0.214
-449.924	-123.479	-0.409	0.065
-448.909	-200.000	0.102	-0.459
-447.895	-104.086	-0.030	0.007
-446.880	35.405	0.172	0.150
-445.865	509.015	-0.154	-0.358
-444.851	-98.217	0.233	0.060
-443.836	-171.104	-0.213	-0.007
-442.822	-35.403	0.322	0.174
-441.807	-38.407	0.183	-0.097
-440.792	-83.911	0.084	-0.027
-439.778	49.087	-0.210	0.197
-438.763	250.610	-0.215	0.364
-437.749	-165.155	-0.120	0.005
-436.734	98.956	0.121	-0.140
-435.719	-200.000	0.054	-0.259
-434.705	-200.000	-0.007	0.151
-433.690	-39.744	-0.203	0.106
-432.676	-200.000	0.034	-0.293
-431.661	217.207	-0.022	0.035
-430.646	-200.000	0.015	-0.085
-429.632	-109.902	-0.323	-0.068
-428.617	800.000	-0.038	-0.106
-427.603	78.863	-0.290	-0.309
-426.588	363.933	-0.035	0.070
-425.573	758.201	-0.139	-0.375
-424.559	142.269	0.220	0.291
-423.544	-107.973	0.336	0.073
-422.530	57.485	0.275	-0.268
-421.515	348.306	-0.083	-0.164
-420.500	-200.000	0.043	-0.331
-419.486	-62.499	-0.109	0.045
-418.471	54.035	-0.169	0.162
-417.457	30.513	0.119	0.101
-416.442	-141.696	0.205	-0.021
-415.428	109.255	0.109	0.130
-414.413	-22.549	0.103	-0.062
-413.398	-140.820	-0.310	0.032
-412.384	-200.000	0.000	0.097
-411.369	-32.062	-0.090	-0.050
-410.355	8.916	0.088	0.066
-409.340	138.888	0.294	-0.384
-408.325	-1.608	-0.232	-0.163
-407.311	-170.002	-0.290	-0.010
-406.296	-200.000	-0.004	0.364
-405.282	-15.509	-0.217	-0.138
-404.267	-146.484	0.093	-0.008
-403.252	-122.069	-0.310	0.051
-402.238	-64.143	0.332	-0.135
-401.223	-112.070	-0.309	0.062
-400.209	-19.925	0.276	-0.170
-399.194	-42.777	-0.193	-0.098
-398.179	367.058	0.107	-0.215
-397.165	258.781	-0.122	0.209
-396.150	-200.000	-0.044	-0.459
-395.136	-193.056	-0.041	-0.000
-394.121	-92.918	0.106	0.029
-393.106	284.149	-0.214	-0.383
-392.092	-54.072	-0.094	0.042
-391.077	141.687	0.165	0.217
-390.063	-124.509	-0.141	0.022
-389.048	164.906	0.128	-0.180
-388.033	-122.681	-0.120	0.019
-387.019	-200.000	0.059	0.275
-386.004	252.888	-0.096	-0.163
-384.990	-84.210	0.112	0.035
-383.975	-92.435	0.176	0.049
-382.960	-200.000	-0.017	0.304
-381.946	-200.000	0.069	-0.314
-380.931	-47.559	0.368	0.178
-379.917	-61.662	0.298	-0.124
-378.902	-32.186	-0.124	0.069
-377.888	37.728	0.089	0.079
-376.873	-53.863	0.189	-0.086
-375.858	-58.097	-0.427	0.185
-374.844	-116.735	0.048	0.009
-373.829	-200.000	0.002	0.129
-372.815	-71.079	0.113	0.042
-371.800	-122.779	-0.149	0.024
-370.785	506.116	0.118	0.272
-369.771	-31.271	0.053	-0.030
-368.756	-36.716	0.179	-0.096
-367.742	438.463	-0.008	-0.016
-366.727	-30.099	-0.219	-0.124
-365.712	558.531	-0.106	-0.254
-364.698	-129.883	0.447	-0.061
-363.683	-70.462	0.057	0.022
-362.669	-39.045	0.341	0.178
-361.654	23.824	-0.316	0.259
-360.639	-109.175	0.208	0.044
-359.625	83.833	-0.116	0.126
-358.610	59.989	0.208	0.204
-357.596	-200.000	-0.039	0.249
-356.581	-114.661	0.201	-0.038
-355.566	800.000	-0.054	-0.220
-354.552	62.445	0.028	-0.028
-353.537	439.394	-0.123	-0.266
-352.523	-104.067	0.131	-0.030
-351.508	800.000	0.101	0.310
-350.493	-79.686	0.213	0.072
-349.479	800.000	0.143	0.481
-348.464	-200.000	-0.033	0.169
-347.450	-28.586	-0.156	-0.089
-346.435	51.099	0.066	-0.062
-345.420	-200.000	0.005	-0.078
-344.406	-200.000	-0.039	0.260
-343.391	-23.472	0.074	-0.044
-342.377	419.424	-0.080	-0.171
-341.362	586.587	0.089	0.218
-340.348	-41.081	-0.245	0.126
-339.333	-120.748	-0.230	0.039
-338.318	3.426	-0.168	0.122
-337.304	94.671	-0.150	-0.170
-336.289	-200.000	0.020	-0.123
-335.275	101.733	-0.235	0.272
-334.260	-82.056	0.207	0.067
-333.245	116.140	-0.125	-0.152
-332.231	-19.249	-0.296	-0.183
-331.216	527.791	-0.051	0.120
-330.202	483.311	-0.101	-0.228
-329.187	-200.000	0.021	0.302
-328.172	800.000	-0.059	0.164
-327.158	-103.639	0.335	0.078
-326.143	-140.675	0.284	0.029
-325.129	-119.483	-0.346	0.060
-324.114	-29.033	-0.269	0.153
-323.099	-15.948	-0.274	0.173
-322.085	800.000	-0.060	0.251
-321.070	90.036	0.099	0.110
-320.056	-200.000	-0.044	-0.216
-319.041	-200.000	0.071	0.361
-318.026	-135.205	0.308	-0.037
-317.012	-76.726	0.208	0.072
-315.997	319.075	0.043	0.081
-314.983	29.338	0.275	0.232
-313.968	783.259	-0.029	-0.080
-312.953	558.301	0.165	0.395
-311.939	-200.000	-0.015	0.249
-310.924	-200.000	-0.001	0.111
-309.910	-169.770	0.118	0.004
-308.895	-38.869	-0.183	0.096
-307.880	6.142	0.375	-0.276
-306.866	25.506	0.195	-0.161
-305.851	-138.930	-0.265	0.029
-304.837	652.485	-0.045	0.114
-303.822	42.139	-0.135	-0.122
-302.807	246.687	0.094	0.158
-301.793	299.554	-0.150	0.274
-300.778	-31.335	-0.188	-0.105
-299.764	-91.884	0.224	0.063
-298.749	-125.263	-0.128	-0.019
-297.735	-23.523	0.135	-0.080
-296.720	421.796	-0.176	-0.375
-295.705	-18.846	-0.087	0.054
-294.691	-121.341	0.221	-0.037
-293.676	609.554	0.103	-0.255
-292.662	-45.954	0.354	0.173
-291.647	232.664	0.043	-0.071
-290.632	574.420	0.079	-0.191
-289.618	34.377	0.040	0.035
-288.603	213.791	-0.141	-0.221
-287.589	-57.270	-0.258	-0.113
-286.574	63.972	0.056	-0.056
-285.559	-124.437	0.286	0.044
-284.545	-172.244	-0.221	-0.007
-283.530	-83.308	-0.045	0.014
-282.516	-108.732	0.081	-0.017
-281.501	-200.000	0.035	0.264
-280.486	-165.128	-0.329	-0.014
-279.472	-50.541	-0.090	-0.042
-278.457	-34.781	-0.041	0.022
-277.443	-145.038	0.182	0.016
-276.428	134.168	0.034	0.044
-275.413	58.250	-0.083	-0.081
-274.399	-113.675	0.082	-0.016
-273.384	-63.183	-0.139	0.057
-272.370	-169.424	-0.079	-0.003
-271.355	-3.232	0.121	0.083
-270.340	36.077	-0.107	0.094
-269.326	-157.609	0.154	-0.009
-268.311	-200.000	0.010	-0.088
-267.297	-78.384	-0.222	-0.076
-266.282	800.000	0.142	0.416
-265.267	-15.327	0.422	0.267
-264.253	94.771	0.180	0.202
-263.238	-62.203	-0.190	-0.079
-262.224	50.262	0.165	-0.155
-261.209	-200.000	-0.010	0.351
-260.195	-4.607	0.252	0.173
-259.180	-44.811	-0.357	-0.176
-258.165	800.000	0.125	0.371
-257.151	-168.852	-0.181	-0.007
-256.136	-1.439	-0.020	0.014
-255.122	617.132	0.125	-0.312
-254.107	-200.000	0.019	0.166
-253.092	-146.599	-0.148	0.013
-252.078	-200.000	0.003	-0.089
-251.063	139.778	0.131	0.172
-250.049	-4.164	0.250	-0.171
-249.034	67.524	0.156	0.157
-248.019	-48.495	-0.385	0.183
-247.005	8.073	-0.179	-0.133
-245.990	-62.191	-0.086	-0.036
-244.976	136.951	-0.106	0.137
-243.961	-52.110	0.533	-0.245
-242.946	615.861	0.077	-0.190
-241.932	94.468	-0.168	-0.189
-240.917	201.480	-0.126	0.192
-239.903	-200.000	-0.051	-0.383
-238.888	-141.644	0.393	-0.039
-237.873	-200.000	-0.023	0.158
-236.859	-200.000	0.009	0.142
-235.844	800.000	-0.193	0.559
-234.830	-115.280	0.291	0.054
-233.815	-29.447	-0.320	0.181
-232.800	-34.358	0.092	0.050
-231.786	119.801	0.084	0.103
-230.771	102.851	0.070	-0.081
-229.757	-200.000	-0.027	-0.460
-228.742	-200.000	-0.026	-0.324
-227.727	-96.314	0.180	-0.047
-226.713	-115.562	0.236	0.044
-225.698	-113.482	-0.291	-0.056
-224.684	596.081	0.031	-0.075
-223.669	103.720	-0.134	0.156
-222.655	-159.507	-0.204	0.011
-221.640	490.698	0.024	0.055
-220.625	-200.000	0.012	0.261
-219.611	220.790	0.156	0.247
-218.596	21.080	0.145	0.117
-217.582	-90.160	0.127	-0.037
-216.567	-200.000	0.050	-0.350
-215.552	-3.644	0.234	-0.161
-214.538	-96.382	-0.430	0.113
-213.523	-99.078	0.439	0.110
-212.509	-200.000	-0.001	-0.013
-211.494	300.731	-0.118	-0.214
-210.479	800.000	0.014	-0.039
-209.465	-159.469	0.283	0.016
-208.450	-200.000	-0.040	0.380
-207.436	-200.000	-0.004	0.230
-206.421	800.000	0.124	0.344
-205.406	220.561	0.196	0.311
-204.392	-60.318	0.112	-0.047
-203.377	-126.975	-0.289	-0.042
-202.363	27.629	-0.040	0.034
-201.348	-67.218	0.177	-0.069
-200.333	299.180	-0.021	0.039
-199.319	156.698	0.097	0.132
-198.304	386.366	-0.051	-0.104
-197.290	-200.000	0.017	0.089
-196.275	-19.809	-0.054	-0.033
-195.260	48.962	0.120	0.112
-194.246	296.277	0.159	-0.287
-193.231	102.816	0.178	-0.206
-192.217	154.931	0.058	-0.079
-191.202	800.000	-0.041	0.151
-190.187	-21.571	0.168	-0.101
-189.173	-78.873	-0.039	0.013
-188.158	103.903	0.112	-0.130
-187.144	-125.214	0.158	0.024
-186.129	-45.299	0.207	0.101
-185.114	-95.749	-0.154	-0.041
-184.100	114.088	0.069	0.083
-183.085	800.000	-0.084	0.251
-182.071	103.295	0.172	0.200
-181.056	-26.863	-0.263	0.152
-180.042	800.000	0.081	-0.222
-179.027	34.511	0.181	0.156
-178.012	249.994	0.067	0.113
-176.998	-14.977	0.241	0.152
-175.983	134.362	-0.043	0.054
-174.969	-148.236	0.197	0.016
-173.954	-42.324	-0.067	-0.034
-172.939	-147.762	0.282	0.023
-171.925	-136.464	0.500	0.057
-170.910	-71.624	0.102	0.038
-169.896	744.987	-0.097	-0.258
-168.881	-200.000	-0.001	0.011
-167.866	-164.469	-0.114	-0.005
-166.852	-188.523	-0.160	-0.002
-165.837	62.187	-0.184	0.181
-164.823	276.788	-0.074	0.129
-163.808	6.909	-0.060	0.044
-162.793	205.511	0.193	-0.296
-161.779	800.000	-0.088	-0.360
-160.764	-18.987	-0.455	-0.280
-159.750	800.000	0.091	0.272
-158.735	-200.000	-0.033	-0.434
-157.720	334.862	-0.115	-0.219
-156.706	232.559	0.165	-0.267
-155.691	-108.900	0.129	0.027
-154.677	800.000	-0.077	0.300
-153.662	-161.195	-0.317	-0.016
-152.647	800.000	-0.156	-0.556
-151.633	-4.671	0.157	0.107
-150.618	193.554	0.094	0.141
-149.604	-93.852	0.282	-0.076
-148.589	800.000	-0.055	0.208
-147.574	61.998	-0.283	-0.279
-146.560	6.283	0.133	0.097
-145.545	239.794	0.161	0.265
-144.531	443.358	0.162	0.349
-143.516	-200.000	0.048	0.313
-142.502	41.641	-0.058	-0.052
-141.487	800.000	-0.079	0.312
-140.472	-168.248	-0.175	0.007
-139.458	-200.000	-0.013	-0.476
-138.443	27.657	-0.105	-0.087
-137.429	300.760	0.125	0.228
-136.414	-200.000	0.002	-0.205
-135.399	-44.781	0.254	-0.125
-134.385	-200.000	-0.042	-0.254
-133.370	800.000	0.008	-0.027
-132.356	249.726	-0.058	0.097
-131.341	-73.794	-0.174	-0.062
-130.326	184.711	0.294	-0.430
-129.312	420.922	-0.039	-0.083
-128.297	-166.711	-0.092	-0.004
-127.283	-200.000	0.015	-0.072
-126.268	-33.702	-0.479	0.261
-125.253	-150.237	0.266	-0.020
-124.239	-124.185	-0.454	0.070
-123.224	-200.000	-0.054	0.235
-122.210	-106.136	0.151	-0.033
-121.195	-124.493	0.115	-0.018
