DTS Sentinel unit serial number:	SN413079Multiplexer serial number:	ORYXHardware model number:	OX4-SRSoftware version number:	ORYX F/W v4.00 Oryx Data Collector v3.7.2.0data status	okinstallation	princeton_trtdifferential loss correction	single-endedforward channel	channel 1reverse channel	N/Adate	2019/09/12time	15:52:11forward acquisition time	60.00reverse acquisition time	0.00gamma	496.2192k internal	0.2298k external	0.2298temperature offset calibration	1.0077default loss term (dB/km)	0.3790temperature slope calibration	1.0000multiplexer offset coefficient	1.0000multiplexer slope coefficient	1.0000fibre end	0.00T internal ref (°C)	39.48T ext. ref 1 (°C)	2.49T ext. ref 2 (°C)	32.29length (m)	temperature (°C)	Stokes	anti-Stokes-747.200	-200.000	-0.004	-0.160
-746.185	-19.757	-0.128	0.081
-745.171	233.844	-0.222	-0.373
-744.156	-200.000	0.040	0.509
-743.142	-200.000	-0.008	-0.193
-742.127	-22.966	0.283	0.174
-741.112	800.000	-0.017	0.069
-740.098	-200.000	-0.079	0.373
-739.083	660.112	-0.194	0.510
-738.069	-200.000	-0.008	0.088
-737.054	-200.000	-0.001	0.321
-736.039	-200.000	-0.160	-0.000
-735.025	-200.000	0.016	-0.570
-734.010	-79.832	-0.155	-0.053
-732.996	532.172	-0.168	0.406
-731.981	-99.398	0.071	-0.018
-730.966	67.195	0.160	-0.167
-729.952	535.604	0.035	-0.086
-728.937	-60.875	-0.270	0.117
-727.923	-40.952	0.061	0.032
-726.908	-52.884	0.120	0.056
-725.894	-113.518	0.070	-0.014
-724.879	-200.000	-0.013	-0.127
-723.864	-164.621	0.117	0.005
-722.850	209.627	-0.171	-0.274
-721.835	-200.000	-0.081	-0.467
-720.821	63.257	0.210	-0.214
-719.806	-200.000	-0.023	0.485
-718.791	-33.770	-0.261	0.147
-717.777	800.000	0.107	-0.304
-716.762	30.704	0.145	-0.127
-715.748	42.647	0.169	-0.156
-714.733	-43.549	0.204	-0.105
-713.718	-200.000	-0.003	-0.052
-712.704	800.000	-0.074	-0.294
-711.689	-47.387	-0.416	-0.206
-710.675	34.121	0.183	-0.163
-709.660	800.000	-0.109	-0.321
-708.645	-105.828	0.110	0.025
-707.631	-42.765	-0.347	-0.180
-706.616	40.855	0.061	0.056
-705.602	-25.292	-0.042	-0.025
-704.587	87.289	-0.034	-0.038
-703.572	32.694	-0.262	-0.231
-702.558	137.224	0.063	-0.084
-701.543	-35.250	-0.426	-0.236
-700.529	-99.552	-0.396	-0.101
-699.514	-140.017	-0.045	-0.005
-698.499	800.000	-0.007	-0.031
-697.485	88.961	-0.132	0.150
-696.470	800.000	-0.028	0.095
-695.456	-41.336	0.124	0.065
-694.441	25.924	0.162	0.137
-693.426	-40.655	-0.122	-0.065
-692.412	259.993	-0.064	0.112
-691.397	800.000	0.035	0.152
-690.383	77.032	0.064	-0.069
-689.368	800.000	0.102	0.367
-688.354	-200.000	-0.007	-0.144
-687.339	-200.000	-0.014	0.139
-686.324	65.824	0.193	0.199
-685.310	168.668	-0.086	0.124
-684.295	274.889	0.057	-0.102
-683.281	-52.403	-0.224	-0.106
-682.266	227.288	0.092	-0.152
-681.251	-124.971	-0.134	0.021
-680.237	4.853	0.101	0.076
-679.222	-71.730	-0.144	0.055
-678.208	800.000	0.058	0.214
-677.193	-200.000	-0.023	0.319
-676.178	-118.551	0.405	0.073
-675.164	-63.738	-0.220	0.092
-674.149	124.914	0.207	-0.266
-673.135	-88.712	0.142	-0.043
-672.120	-79.661	-0.243	-0.083
-671.105	201.813	-0.139	0.218
-670.091	-96.559	-0.107	-0.029
-669.076	-145.129	-0.489	0.045
-668.062	74.920	0.187	-0.200
-667.047	800.000	-0.025	-0.084
-666.032	-195.100	-0.225	-0.002
-665.018	-41.787	-0.397	-0.208
-664.003	-131.771	-0.171	0.023
-662.989	-57.917	-0.236	0.105
-661.974	272.131	0.108	0.193
-660.959	71.190	0.265	-0.280
-659.945	-10.781	0.081	-0.054
-658.930	397.500	0.111	0.237
-657.916	-200.000	0.020	0.164
-656.901	-130.838	-0.142	-0.019
-655.886	-200.000	-0.006	-0.108
-654.872	800.000	-0.086	-0.266
-653.857	-46.663	-0.059	-0.029
-652.843	800.000	0.032	-0.137
-651.828	800.000	-0.039	-0.148
-650.814	425.753	0.114	-0.250
-649.799	-0.569	0.065	0.047
-648.784	-6.721	0.273	-0.189
-647.770	-143.854	0.138	0.013
-646.755	-13.418	-0.171	-0.113
-645.741	189.926	0.168	-0.257
-644.726	800.000	-0.103	0.353
-643.711	-69.187	-0.153	-0.060
-642.697	53.748	0.155	0.151
-641.682	16.381	-0.130	0.105
-640.668	-12.056	-0.189	-0.126
-639.653	-59.234	0.256	-0.112
-638.638	396.489	0.210	0.446
-637.624	357.993	0.137	0.277
-636.609	-67.155	-0.341	-0.136
-635.595	10.736	-0.152	-0.118
-634.580	-68.533	-0.117	-0.046
-633.565	149.247	-0.095	0.130
-632.551	-51.714	0.104	-0.049
-631.536	800.000	0.053	0.165
-630.522	667.754	-0.044	0.115
-629.507	463.394	0.026	0.058
-628.492	-80.185	0.314	-0.107
-627.478	-6.366	-0.095	-0.066
-626.463	800.000	-0.129	-0.371
-625.449	199.035	-0.124	0.193
-624.434	126.341	-0.087	0.111
-623.419	48.518	-0.049	-0.047
-622.405	-200.000	-0.005	0.540
-621.390	411.697	-0.183	0.394
-620.376	102.633	-0.130	0.155
-619.361	752.077	0.064	-0.176
-618.346	-200.000	-0.003	-0.118
-617.332	-200.000	0.015	0.090
-616.317	-28.599	0.149	-0.087
-615.303	-200.000	0.045	0.380
-614.288	800.000	-0.028	-0.094
-613.273	410.257	0.052	-0.111
-612.259	-151.507	-0.344	0.026
-611.244	-93.744	0.238	0.067
-610.230	-72.096	-0.067	-0.025
-609.215	58.454	0.381	-0.380
-608.201	-200.000	0.025	-0.136
-607.186	285.823	0.157	-0.288
-606.171	60.321	-0.154	-0.155
-605.157	-200.000	0.048	0.316
-604.142	-105.876	-0.176	0.040
-603.128	-23.388	-0.099	-0.060
-602.113	120.584	0.175	-0.220
-601.098	93.564	0.136	0.157
-600.084	-82.208	0.307	-0.102
-599.069	-200.000	-0.011	0.086
-598.055	-135.019	0.096	0.012
-597.040	140.969	-0.066	-0.088
-596.025	-200.000	-0.004	0.309
-595.011	800.000	0.034	-0.142
-593.996	-127.603	-0.248	-0.036
-592.982	164.779	0.068	-0.097
-591.967	-80.295	-0.385	0.131
-590.952	259.846	0.094	-0.165
-589.938	-113.715	0.168	0.033
-588.923	-9.115	-0.222	0.151
-587.909	261.820	0.099	-0.174
-586.894	800.000	0.053	-0.179
-585.879	-200.000	-0.019	-0.111
-584.865	-25.464	0.253	0.152
-583.850	149.873	-0.166	0.228
-582.836	-5.040	-0.107	0.075
-581.821	-200.000	0.048	-0.404
-580.806	-103.615	0.256	-0.061
-579.792	170.405	-0.133	0.192
-578.777	247.949	0.093	0.160
-577.763	-94.711	-0.226	0.062
-576.748	800.000	0.140	0.474
-575.733	-140.449	-0.099	-0.010
-574.719	-200.000	0.023	0.309
-573.704	-53.387	-0.325	0.151
-572.690	-13.523	-0.223	-0.146
-571.675	800.000	0.022	0.090
-570.661	-151.866	0.183	0.014
-569.646	133.970	-0.041	-0.053
-568.631	800.000	0.035	-0.106
-567.617	-82.345	0.206	-0.068
-566.602	268.872	-0.288	-0.511
-565.588	800.000	-0.108	-0.322
-564.573	-134.320	-0.247	0.031
-563.558	65.884	-0.190	0.195
-562.544	-134.763	-0.111	0.014
-561.529	-169.216	-0.223	0.008
-560.515	-200.000	0.016	0.216
-559.500	80.041	0.093	0.102
-558.485	-127.233	-0.147	-0.022
-557.471	-120.950	0.173	0.029
-556.456	142.462	0.102	0.137
-555.442	272.576	-0.100	-0.178
-554.427	-51.876	0.311	0.147
-553.412	137.239	0.126	-0.167
-552.398	-96.671	0.059	-0.016
-551.383	52.996	-0.239	-0.232
-550.369	-200.000	0.011	-0.322
-549.354	-74.172	0.176	0.064
-548.339	-77.087	-0.277	-0.098
-547.325	167.390	-0.193	0.278
-546.310	57.482	0.149	-0.147
-545.296	333.563	-0.049	0.095
-544.281	-200.000	-0.032	-0.171
-543.266	-200.000	0.005	-0.168
-542.252	-200.000	0.032	0.313
-541.237	-200.000	0.007	0.207
-540.223	-95.872	-0.391	0.106
-539.208	23.766	-0.350	-0.292
-538.193	144.746	-0.058	-0.078
-537.179	22.184	0.129	-0.107
-536.164	113.034	-0.115	-0.141
-535.150	51.431	-0.261	-0.251
-534.135	-200.000	-0.048	0.277
-533.121	188.744	0.017	0.026
-532.106	-14.599	-0.046	0.030
-531.091	152.886	-0.127	0.175
-530.077	800.000	0.059	-0.177
-529.062	290.783	0.055	0.100
-528.048	-154.935	-0.160	-0.011
-527.033	-200.000	-0.006	-0.192
-526.018	292.557	-0.100	0.184
-525.004	57.310	-0.264	0.261
-523.989	-200.000	0.009	-0.046
-522.975	-86.816	0.183	0.056
-521.960	-135.329	0.055	-0.007
-520.945	-21.395	-0.125	-0.077
-519.931	800.000	0.052	0.155
-518.916	334.759	0.132	-0.258
-517.902	-200.000	-0.012	0.075
-516.887	-200.000	0.037	-0.611
-515.872	675.512	-0.115	0.301
-514.858	91.585	0.101	0.115
-513.843	42.352	-0.137	-0.126
-512.829	-99.075	0.389	0.100
-511.814	-178.009	0.362	-0.009
-510.799	-5.543	0.063	0.044
-509.785	-143.491	-0.307	-0.030
-508.770	-195.487	-0.187	0.001
-507.756	-200.000	-0.043	-0.200
-506.741	-123.583	0.036	0.006
-505.726	-155.678	0.323	0.021
-504.712	-33.973	0.396	0.221
-503.697	-114.839	0.368	-0.071
-502.683	28.517	0.077	-0.066
-501.668	-11.723	-0.065	0.043
-500.653	377.207	-0.121	0.250
-499.639	-142.732	-0.183	0.018
-498.624	-38.186	0.166	0.089
-497.610	456.937	0.067	0.149
-496.595	217.323	0.076	0.123
-495.581	13.150	0.099	0.078
-494.566	-200.000	-0.023	0.200
-493.551	-27.783	-0.225	0.132
-492.537	-200.000	-0.086	-0.395
-491.522	800.000	0.022	0.090
-490.508	-125.737	0.136	0.021
-489.493	161.319	0.235	0.332
-488.478	800.000	0.046	0.180
-487.464	-43.260	0.431	0.221
-486.449	-200.000	-0.028	-0.162
-485.435	38.357	-0.092	-0.083
-484.420	-200.000	-0.011	0.312
-483.405	800.000	-0.134	-0.391
-482.391	-173.468	-0.344	-0.010
-481.376	-80.205	-0.123	0.042
-480.362	800.000	-0.089	-0.372
-479.347	115.441	-0.059	-0.073
-478.332	671.717	0.069	0.180
-477.318	102.578	0.181	0.214
-476.303	800.000	-0.026	-0.095
-475.289	800.000	0.039	0.128
-474.274	252.964	-0.175	0.302
-473.259	-200.000	0.040	-0.182
-472.245	-200.000	0.041	0.443
-471.230	62.907	0.207	0.210
-470.216	-200.000	-0.052	0.268
-469.201	800.000	-0.098	-0.279
-468.186	-126.703	0.355	0.053
-467.172	5.356	-0.231	0.172
-466.157	-200.000	0.072	-0.331
-465.143	326.926	-0.121	-0.233
-464.128	-200.000	-0.004	-0.218
-463.113	-84.844	-0.094	-0.030
-462.099	-14.960	0.197	-0.128
-461.084	320.981	0.195	-0.375
-460.070	99.154	0.129	-0.150
-459.055	-200.000	0.028	-0.144
-458.040	800.000	-0.099	0.304
-457.026	168.593	0.119	-0.172
-456.011	800.000	0.085	-0.278
-454.997	206.144	0.081	-0.127
-453.982	126.374	-0.219	0.279
-452.968	14.531	0.275	-0.217
-451.953	-18.878	0.114	0.072
-450.938	-104.962	0.420	0.097
-449.924	-121.354	-0.400	-0.067
-448.909	-82.548	-0.249	-0.082
-447.895	-72.344	-0.425	-0.159
-446.880	452.737	0.031	0.068
-445.865	-67.194	-0.321	0.128
-444.851	127.337	0.110	-0.141
-443.836	-94.096	0.321	0.089
-442.822	35.055	-0.201	-0.178
-441.807	-200.000	0.004	0.262
-440.792	350.871	0.107	0.214
-439.778	203.551	-0.228	-0.356
-438.763	69.816	-0.089	-0.093
-437.749	-34.888	-0.184	-0.101
-436.734	396.215	0.071	-0.149
-435.719	-200.000	0.006	-0.194
-434.705	-76.677	-0.185	-0.065
-433.690	27.360	-0.243	-0.206
-432.676	-91.513	-0.173	0.050
-431.661	-42.593	-0.404	-0.207
-430.646	82.066	-0.086	0.094
-429.632	-152.432	-0.262	-0.019
-428.617	441.600	-0.135	-0.299
-427.603	-200.000	0.023	-0.127
-426.588	37.557	0.267	-0.239
-425.573	524.371	0.087	0.207
-424.559	-200.000	0.037	0.259
-423.544	208.298	-0.017	0.026
-422.530	-56.092	0.042	0.019
-421.515	7.915	-0.241	-0.182
-420.500	131.174	-0.111	0.143
-419.486	-84.657	0.234	0.074
-418.471	652.394	0.144	0.373
-417.457	225.429	0.051	0.083
-416.442	641.989	0.067	-0.173
-415.428	-162.415	-0.534	-0.027
-414.413	-200.000	-0.012	-0.250
-413.398	111.590	0.027	0.033
-412.384	-35.384	-0.259	-0.142
-411.369	305.915	0.161	0.302
-410.355	-200.000	-0.011	-0.221
-409.340	633.983	0.161	-0.410
-408.325	209.519	-0.095	-0.150
-407.311	-33.528	0.064	0.036
-406.296	81.898	-0.170	-0.185
-405.282	-110.590	0.188	0.039
-404.267	382.140	0.066	0.136
-403.252	121.873	0.200	0.252
-402.238	-93.055	0.286	0.080
-401.223	37.088	0.053	-0.047
-400.209	-200.000	0.053	0.272
-399.194	86.680	0.058	0.064
-398.179	-15.538	-0.091	0.058
-397.165	-18.292	-0.055	-0.034
-396.150	800.000	0.041	-0.155
-395.136	210.879	0.127	0.201
-394.121	133.487	0.070	-0.091
-393.106	498.853	0.079	-0.184
-392.092	669.531	-0.049	-0.127
-391.077	-200.000	-0.029	0.210
-390.063	-200.000	-0.004	-0.348
-389.048	504.123	-0.098	-0.228
-388.033	-36.656	-0.220	0.119
-387.019	16.106	-0.078	-0.062
-386.004	11.981	-0.290	-0.225
-384.990	12.493	0.069	0.054
-383.975	-82.112	-0.196	-0.064
-382.960	51.952	0.169	-0.162
-381.946	-134.445	-0.231	-0.028
-380.931	361.358	-0.042	-0.084
-379.917	0.332	0.251	0.180
-378.902	43.216	0.241	0.221
-377.888	201.969	0.041	-0.064
-376.873	-200.000	-0.042	-0.383
-375.858	-17.503	0.081	-0.051
-374.844	479.307	-0.047	-0.106
-373.829	572.158	0.048	-0.118
-372.815	672.051	0.155	-0.404
-371.800	289.987	0.047	-0.085
-370.785	800.000	0.182	-0.552
-369.771	-58.148	-0.127	-0.056
-368.756	297.782	0.079	-0.145
-367.742	393.101	0.093	0.194
-366.727	800.000	0.099	0.325
-365.712	39.886	-0.204	-0.184
-364.698	800.000	-0.060	-0.181
-363.683	485.389	0.087	-0.199
-362.669	-7.340	-0.315	-0.215
-361.654	-50.173	-0.047	0.022
-360.639	-141.327	-0.639	-0.065
-359.625	-27.522	-0.407	0.238
-358.610	41.660	0.159	0.145
-357.596	-18.776	-0.406	-0.255
-356.581	167.479	0.280	0.400
-355.566	10.254	0.183	-0.140
-354.552	-200.000	-0.041	-0.315
-353.537	-58.391	0.091	0.040
-352.523	45.054	0.014	0.013
-351.508	-200.000	-0.006	0.141
-350.493	-200.000	-0.008	-0.038
-349.479	-200.000	0.055	-0.266
-348.464	28.582	0.031	0.027
-347.450	-103.614	-0.199	-0.047
-346.435	223.028	-0.108	0.176
-345.420	-200.000	-0.029	0.205
-344.406	134.471	-0.147	0.191
-343.391	-43.091	0.288	0.147
-342.377	-200.000	0.010	0.129
-341.362	-200.000	0.004	0.036
-340.348	-74.081	0.430	0.157
-339.333	148.245	-0.070	-0.095
-338.318	-200.000	-0.011	-0.137
-337.304	-45.204	-0.028	-0.014
-336.289	37.040	0.123	0.109
-335.275	416.686	0.082	-0.175
-334.260	496.227	-0.021	0.049
-333.245	427.336	0.159	0.344
-332.231	-200.000	-0.041	0.204
-331.216	13.819	-0.119	-0.093
-330.202	-65.171	0.231	-0.093
-329.187	78.488	0.120	0.129
-328.172	23.153	-0.103	-0.085
-327.158	-143.757	-0.174	0.017
-326.143	-189.683	0.468	0.005
-325.129	-62.424	-0.194	0.081
-324.114	59.343	0.171	-0.169
-323.099	-75.746	-0.146	-0.052
-322.085	-200.000	0.057	0.572
-321.070	-160.031	-0.159	-0.009
-320.056	-10.206	0.055	-0.037
-319.041	-64.200	0.267	-0.109
-318.026	-140.317	-0.438	0.046
-317.012	-151.453	-0.323	0.024
-315.997	-103.056	0.088	0.021
-314.983	-200.000	0.025	-0.287
-313.968	-147.825	0.083	-0.007
-312.953	-117.512	-0.133	0.024
-311.939	-88.255	0.129	0.039
-310.924	35.145	0.220	-0.193
-309.910	-161.675	-0.238	0.012
-308.895	6.180	-0.104	-0.077
-307.880	254.577	0.034	0.058
-306.866	-143.519	-0.319	-0.031
-305.851	81.869	0.172	0.187
-304.837	-200.000	-0.007	-0.248
-303.822	-200.000	0.030	-0.152
-302.807	-137.277	0.257	0.029
-301.793	313.699	0.135	-0.255
-300.778	-105.712	-0.251	0.057
-299.764	-200.000	-0.032	-0.169
-298.749	59.887	0.110	0.109
-297.735	-16.891	0.080	0.051
-296.720	-33.564	0.120	0.067
-295.705	395.449	-0.119	-0.248
-294.691	185.605	-0.145	0.216
-293.676	-68.069	0.180	-0.070
-292.662	-7.984	-0.058	0.039
-291.647	-200.000	-0.028	-0.519
-290.632	-95.006	0.323	-0.088
-289.618	417.195	0.090	-0.192
-288.603	-79.334	0.214	-0.073
-287.589	472.882	-0.009	0.020
-286.574	-200.000	0.007	0.156
-285.559	-138.997	-0.491	0.053
-284.545	800.000	-0.064	0.209
-283.530	-56.151	-0.073	-0.032
-282.516	158.450	0.167	-0.232
-281.501	800.000	-0.022	0.096
-280.486	170.559	-0.158	0.227
-279.472	-187.349	0.216	-0.003
-278.457	768.810	-0.151	0.412
-277.443	-105.473	0.418	0.095
-276.428	120.570	0.181	0.225
-275.413	-118.313	-0.184	0.033
-274.399	800.000	0.015	0.063
-273.384	-84.230	-0.084	0.027
-272.370	-32.426	0.181	0.101
-271.355	569.702	-0.132	0.321
-270.340	26.177	0.130	0.109
-269.326	-41.593	-0.234	-0.121
-268.311	-200.000	-0.016	-0.303
-267.297	358.904	-0.104	0.209
-266.282	8.605	0.140	0.105
-265.267	-48.421	0.052	0.025
-264.253	800.000	0.120	0.463
-263.238	-61.206	0.403	-0.170
-262.224	-200.000	0.020	0.373
-261.209	-200.000	0.023	-0.213
-260.195	-200.000	-0.001	-0.208
-259.180	-200.000	-0.049	-0.216
-258.165	-22.239	-0.131	-0.080
-257.151	-25.839	0.388	-0.229
-256.136	295.073	-0.074	-0.136
-255.122	-200.000	-0.003	0.020
-254.107	-138.713	0.246	-0.027
-253.092	683.847	-0.069	0.181
-252.078	401.785	0.043	0.090
-251.063	514.949	-0.091	-0.214
-250.049	191.583	0.042	-0.064
-249.034	-109.846	0.299	-0.063
-248.019	-49.280	0.223	-0.107
-247.005	-200.000	0.009	-0.380
-245.990	-200.000	-0.001	0.103
-244.976	800.000	0.064	-0.209
-243.961	543.273	-0.096	0.229
-242.946	99.636	0.205	0.238
-241.932	-102.649	-0.129	-0.031
-240.917	75.918	0.146	0.154
-239.903	-200.000	-0.008	0.036
-238.888	-53.049	0.065	-0.030
-237.873	263.563	0.102	-0.178
-236.859	31.363	0.100	-0.086
-235.844	-200.000	-0.025	0.166
-234.830	209.727	-0.152	0.238
-233.815	301.043	-0.135	-0.250
-232.800	800.000	0.068	-0.192
-231.786	361.239	-0.150	-0.300
-230.771	-200.000	-0.016	0.081
-229.757	-99.435	0.211	0.053
-228.742	-200.000	-0.029	0.198
-227.727	62.898	-0.070	0.070
-226.713	52.071	0.170	0.162
-225.698	-200.000	-0.037	-0.183
-224.684	-200.000	-0.010	0.165
-223.669	-130.942	0.089	0.012
-222.655	42.618	0.286	-0.260
-221.640	-200.000	0.032	-0.188
-220.625	79.686	-0.075	0.081
-219.611	-200.000	0.011	0.215
-218.596	8.756	-0.047	0.036
-217.582	29.576	0.109	-0.093
-216.567	-82.195	0.086	0.028
-215.552	800.000	-0.163	0.545
-214.538	-200.000	-0.025	0.271
-213.523	-200.000	-0.046	0.205
-212.509	800.000	0.185	0.536
-211.494	800.000	0.038	-0.155
-210.479	95.281	-0.095	0.109
-209.465	21.926	0.136	-0.111
-208.450	-200.000	-0.042	0.282
-207.436	11.435	-0.044	0.034
-206.421	-127.754	0.332	0.048
-205.406	-16.512	0.049	0.031
-204.392	-94.804	-0.255	0.069
-203.377	348.034	0.144	0.284
-202.363	-80.794	0.070	0.023
-201.348	79.360	-0.238	0.255
-200.333	-200.000	-0.017	-0.090
-199.319	57.642	0.266	-0.260
-198.304	0.938	-0.279	-0.200
-197.290	277.238	-0.140	-0.250
-196.275	-33.112	0.291	-0.161
-195.260	286.491	-0.039	-0.071
-194.246	-173.549	0.339	-0.010
-193.231	247.646	-0.109	-0.185
-192.217	151.155	-0.091	0.123
-191.202	-117.914	-0.200	0.036
-190.187	-47.624	-0.208	-0.101
-189.173	-9.310	-0.104	0.069
-188.158	-200.000	0.010	0.189
-187.144	800.000	0.022	0.062
-186.129	420.247	0.175	0.374
-185.114	-91.698	0.338	0.096
-184.100	-200.000	0.022	-0.190
-183.085	540.800	0.161	0.382
-182.071	-200.000	-0.072	0.405
-181.056	-3.435	0.204	-0.142
-180.042	99.952	-0.073	0.085
-179.027	203.294	0.059	-0.090
-178.012	-86.303	-0.148	0.045
-176.998	453.050	-0.041	-0.091
-175.983	-200.000	-0.007	-0.171
-174.969	-200.000	0.010	0.057
-173.954	-68.289	0.142	-0.055
-172.939	-125.899	-0.146	0.022
-171.925	261.179	-0.122	-0.211
-170.910	-200.000	-0.008	-0.215
-169.896	223.093	0.060	0.097
-168.881	-200.000	0.044	0.213
-167.866	10.187	0.135	-0.103
-166.852	-110.968	-0.284	-0.058
-165.837	-120.750	0.184	-0.031
-164.823	-88.518	-0.191	-0.057
-163.808	100.617	-0.123	-0.142
-162.793	571.011	0.062	-0.152
-161.779	-72.537	-0.140	0.051
-160.764	13.609	-0.191	0.148
-159.750	-23.202	0.269	0.161
-158.735	-200.000	-0.056	-0.297
-157.720	-88.398	0.186	0.055
-156.706	25.750	-0.158	0.131
-155.691	-142.071	-0.264	0.026
-154.677	800.000	-0.038	-0.147
-153.662	-200.000	-0.002	0.431
-152.647	-200.000	0.011	0.268
-151.633	194.010	-0.052	-0.079
-150.618	-93.555	-0.252	-0.070
-149.604	-46.013	-0.175	-0.086
-148.589	189.838	0.026	-0.038
-147.574	-22.146	0.254	-0.154
-146.560	202.050	-0.093	0.143
-145.545	-200.000	0.103	0.528
-144.531	-200.000	-0.004	0.047
-143.516	117.566	0.136	0.167
-142.502	800.000	-0.111	0.333
-141.487	-88.813	0.234	0.069
-140.472	155.061	0.109	0.149
-139.458	202.532	-0.085	-0.130
-138.443	-78.138	0.230	0.079
-137.429	-122.006	0.089	-0.015
-136.414	195.062	-0.167	-0.253
-135.399	800.000	0.050	-0.152
-134.385	126.932	0.165	-0.208
-133.370	245.621	-0.063	-0.106
-132.356	-47.924	0.411	-0.198
-131.341	800.000	-0.087	-0.244
-130.326	255.861	-0.191	-0.326
-129.312	-200.000	0.066	0.451
-128.297	-200.000	0.067	0.295
-127.283	18.240	-0.109	-0.087
-126.268	164.991	0.141	-0.198
-125.253	-200.000	-0.012	-0.235
-124.239	6.286	-0.275	-0.203
-123.224	51.958	0.079	-0.075
-122.210	119.116	-0.156	0.192
