DTS Sentinel unit serial number:	SN413079Multiplexer serial number:	ORYXHardware model number:	OX4-SRSoftware version number:	ORYX F/W v4.00 Oryx Data Collector v3.7.2.0data status	okinstallation	princeton_trtdifferential loss correction	single-endedforward channel	channel 1reverse channel	N/Adate	2019/09/13time	20:10:35forward acquisition time	60.00reverse acquisition time	0.00gamma	496.2192k internal	0.2330k external	0.2330temperature offset calibration	1.0085default loss term (dB/km)	0.3790temperature slope calibration	1.0000multiplexer offset coefficient	1.0000multiplexer slope coefficient	1.0000fibre end	0.00T internal ref (°C)	29.52T ext. ref 1 (°C)	3.21T ext. ref 2 (°C)	24.00length (m)	temperature (°C)	Stokes	anti-Stokes-747.200	-91.560	-0.252	-0.072
-746.185	-26.557	0.133	0.079
-745.171	65.613	0.097	-0.099
-744.156	-67.799	0.248	0.098
-743.142	-0.079	0.088	0.063
-742.127	403.384	-0.111	0.236
-741.112	45.253	-0.184	-0.171
-740.098	-200.000	-0.043	0.268
-739.083	-124.449	0.283	0.044
-738.069	712.541	-0.136	0.363
-737.054	-56.383	0.300	-0.134
-736.039	86.924	-0.305	0.339
-735.025	-75.144	0.233	0.084
-734.010	564.435	0.018	-0.043
-732.996	-200.000	0.056	-0.304
-731.981	-200.000	0.050	0.355
-730.966	-99.385	-0.184	-0.047
-729.952	-200.000	-0.183	0.000
-728.937	659.345	0.022	0.056
-727.923	-171.766	-0.152	0.005
-726.908	-200.000	0.012	0.070
-725.894	745.790	-0.053	-0.143
-724.879	19.226	-0.359	-0.290
-723.864	271.678	-0.115	0.204
-722.850	800.000	-0.037	-0.125
-721.835	-39.363	-0.222	-0.117
-720.821	800.000	0.075	-0.284
-719.806	66.825	-0.074	0.075
-718.791	-85.049	-0.097	0.031
-717.777	727.232	-0.101	0.271
-716.762	-83.735	-0.124	-0.040
-715.748	-200.000	-0.000	-0.035
-714.733	-112.517	0.023	0.005
-713.718	585.386	-0.050	0.124
-712.704	466.592	0.182	-0.411
-711.689	-200.000	0.017	-0.198
-710.675	-54.999	0.175	0.079
-709.660	-200.000	0.082	-0.362
-708.645	-12.200	0.030	0.020
-707.631	-200.000	-0.028	0.232
-706.616	-200.000	-0.007	0.085
-705.602	-65.284	0.203	-0.082
-704.587	3.216	0.146	0.107
-703.572	81.702	-0.086	0.093
-702.558	800.000	0.103	-0.329
-701.543	251.277	0.188	-0.321
-700.529	-200.000	0.015	-0.087
-699.514	800.000	0.033	-0.138
-698.499	-113.363	0.067	-0.013
-697.485	800.000	0.047	-0.132
-696.470	-164.968	0.323	0.015
-695.456	141.911	-0.099	0.132
-694.441	-112.253	0.085	0.017
-693.426	28.616	-0.128	0.109
-692.412	-200.000	0.015	0.152
-691.397	346.949	0.111	-0.219
-690.383	800.000	-0.097	-0.278
-689.368	-86.339	0.163	-0.050
-688.354	95.296	-0.169	0.193
-687.339	43.260	-0.289	-0.265
-686.324	15.503	-0.234	-0.185
-685.310	-182.035	0.173	-0.003
-684.295	-160.176	-0.374	-0.020
-683.281	-200.000	0.009	-0.114
-682.266	-161.883	0.143	-0.007
-681.251	21.511	0.185	0.151
-680.237	-200.000	-0.003	0.246
-679.222	278.672	-0.123	-0.220
-678.208	-200.000	0.002	-0.015
-677.193	-70.458	-0.143	0.055
-676.178	-200.000	-0.017	-0.171
-675.164	-103.231	-0.187	0.044
-674.149	633.239	-0.089	0.227
-673.135	-136.838	0.271	-0.031
-672.120	-200.000	0.022	-0.208
-671.105	277.582	0.025	-0.045
-670.091	-115.261	0.160	0.030
-669.076	-42.586	0.144	-0.074
-668.062	154.716	-0.018	0.025
-667.047	175.770	-0.164	-0.240
-666.032	-200.000	-0.041	0.180
-665.018	706.475	0.030	0.081
-664.003	47.442	-0.224	0.209
-662.989	-33.996	0.410	-0.226
-661.974	800.000	0.039	-0.126
-660.959	-45.906	-0.146	0.072
-659.945	-149.911	0.239	-0.019
-658.930	-104.659	-0.162	0.037
-657.916	-141.553	0.300	0.030
-656.901	582.266	0.018	0.044
-655.886	37.046	0.148	0.131
-654.872	-105.066	0.296	0.068
-653.857	-38.358	0.084	0.044
-652.843	-200.000	0.047	-0.316
-651.828	639.456	0.057	-0.145
-650.814	73.812	-0.141	-0.148
-649.799	800.000	0.096	-0.390
-648.784	247.213	-0.109	0.185
-647.770	-4.767	-0.270	-0.187
-646.755	-200.000	-0.014	-0.062
-645.741	-200.000	0.005	-0.066
-644.726	-45.384	-0.170	-0.084
-643.711	546.905	-0.097	-0.234
-642.697	149.905	-0.096	-0.131
-641.682	329.524	0.103	-0.199
-640.668	33.582	-0.072	0.062
-639.653	232.650	0.134	-0.220
-638.638	-138.219	-0.343	0.038
-637.624	-118.416	-0.083	0.015
-636.609	-200.000	-0.060	-0.322
-635.595	549.132	-0.131	-0.315
-634.580	153.510	-0.053	-0.073
-633.565	-200.000	0.015	-0.207
-632.551	-145.702	0.317	-0.028
-631.536	-41.962	-0.140	0.072
-630.522	182.611	0.106	-0.157
-629.507	29.145	-0.331	-0.281
-628.492	38.498	-0.270	0.241
-627.478	-200.000	-0.129	-0.000
-626.463	-200.000	0.035	0.256
-625.449	-76.822	0.189	-0.066
-624.434	800.000	0.024	0.096
-623.419	-200.000	-0.002	0.073
-622.405	-106.064	-0.124	-0.028
-621.390	-173.672	0.152	0.005
-620.376	-33.868	-0.202	-0.111
-619.361	-51.147	0.293	-0.138
-618.346	610.948	-0.054	0.134
-617.332	-75.711	-0.363	-0.129
-616.317	-120.726	-0.257	0.043
-615.303	-200.000	0.056	-0.377
-614.288	56.537	-0.041	0.040
-613.273	-60.951	0.246	0.104
-612.259	-100.478	-0.317	-0.079
-611.244	285.623	-0.082	-0.148
-610.230	800.000	-0.077	-0.328
-609.215	800.000	-0.062	-0.178
-608.201	-116.087	0.012	-0.002
-607.186	-108.165	-0.099	-0.022
-606.171	12.023	0.084	-0.065
-605.157	662.488	-0.052	-0.134
-604.142	-49.348	-0.157	-0.075
-603.128	-200.000	-0.039	-0.175
-602.113	-186.721	-0.136	0.002
-601.098	-85.189	0.302	-0.095
-600.084	160.133	0.130	-0.181
-599.069	-53.129	0.031	-0.014
-598.055	-200.000	-0.028	0.400
-597.040	-200.000	0.068	-0.369
-596.025	-200.000	-0.076	0.000
-595.011	-139.673	-0.167	0.018
-593.996	314.239	-0.113	-0.212
-592.982	585.265	0.033	-0.082
-591.967	800.000	0.094	-0.331
-590.952	74.571	0.062	-0.065
-589.938	-200.000	-0.010	-0.414
-588.923	81.912	0.128	0.139
-587.909	-95.836	-0.297	0.079
-586.894	178.868	-0.162	0.238
-585.879	-77.722	-0.219	0.076
-584.865	-200.000	-0.301	-0.000
-583.850	120.121	-0.198	0.246
-582.836	-124.258	-0.203	-0.032
-581.821	343.764	-0.092	0.180
-580.806	-52.034	0.200	-0.093
-579.792	-108.558	0.367	-0.079
-578.777	230.412	0.019	0.032
-577.763	65.982	0.189	-0.192
-576.748	18.550	0.097	0.078
-575.733	-200.000	-0.050	-0.236
-574.719	228.085	-0.019	0.031
-573.704	411.991	0.082	-0.174
-572.690	-109.469	-0.330	0.070
-571.675	525.795	-0.056	0.132
-570.661	-200.000	-0.000	0.384
-569.646	-110.143	0.281	0.059
-568.631	800.000	0.074	-0.246
-567.617	-200.000	-0.054	-0.329
-566.602	334.992	-0.078	0.152
-565.588	-78.954	0.234	-0.080
-564.573	26.829	0.314	0.263
-563.558	-64.165	0.267	0.109
-562.544	-34.711	-0.038	0.021
-561.529	-5.927	0.088	-0.060
-560.515	-200.000	0.018	-0.096
-559.500	-26.603	-0.057	0.034
-558.485	-32.115	0.333	-0.186
-557.471	-125.265	0.265	0.040
-556.456	182.635	-0.023	-0.034
-555.442	77.108	-0.289	-0.307
-554.427	-59.331	0.069	-0.030
-553.412	77.969	-0.207	0.221
-552.398	-153.593	-0.172	-0.012
-551.383	97.526	0.097	0.111
-550.369	133.158	-0.094	-0.122
-549.354	-200.000	0.011	-0.085
-548.339	-60.050	0.356	-0.152
-547.325	19.704	0.255	-0.205
-546.310	144.824	-0.122	0.163
-545.296	-118.272	0.203	0.036
-544.281	543.896	0.116	-0.277
-543.266	635.815	0.018	0.046
-542.252	358.690	-0.090	-0.179
-541.237	-89.387	0.133	0.039
-540.223	286.037	0.059	0.106
-539.208	-41.232	0.056	0.029
-538.193	-200.000	0.013	-0.199
-537.179	-147.904	-0.301	-0.025
-536.164	378.884	0.095	-0.195
-535.150	10.788	-0.093	0.071
-534.135	-106.243	-0.437	0.098
-533.121	16.609	-0.125	0.098
-532.106	800.000	-0.070	-0.306
-531.091	800.000	-0.084	0.350
-530.077	195.026	0.169	0.256
-529.062	-200.000	0.038	-0.253
-528.048	55.383	0.138	0.133
-527.033	-200.000	0.048	-0.326
-526.018	-46.598	0.203	-0.099
-525.004	-55.589	0.181	-0.081
-523.989	-32.282	-0.352	0.196
-522.975	-200.000	0.018	-0.085
-521.960	237.380	0.110	0.182
-520.945	-111.732	-0.197	-0.040
-519.931	-106.219	0.121	-0.027
-518.916	241.599	-0.149	-0.248
-517.902	94.713	0.033	-0.037
-516.887	-116.608	-0.195	-0.036
-515.872	-82.919	-0.136	-0.044
-514.858	-80.084	0.158	-0.053
-513.843	-200.000	0.063	0.417
-512.829	291.645	-0.188	0.342
-511.814	-200.000	0.006	-0.111
-510.799	-200.000	-0.007	-0.178
-509.785	17.017	0.205	0.162
-508.770	-41.542	0.187	-0.096
-507.756	-7.289	0.250	-0.169
-506.741	24.553	-0.337	-0.279
-505.726	-200.000	-0.030	0.255
-504.712	-200.000	0.005	0.164
-503.697	127.199	0.177	-0.224
-502.683	109.054	0.127	0.152
-501.668	-60.588	0.022	0.009
-500.653	-5.011	-0.369	-0.254
-499.639	-87.063	0.215	0.065
-498.624	-152.875	-0.318	-0.022
-497.610	-31.061	0.109	0.061
-496.595	-86.709	-0.068	-0.021
-495.581	211.825	0.025	-0.039
-494.566	-189.830	0.221	0.003
-493.551	-153.675	-0.288	-0.020
-492.537	-35.470	0.286	0.155
-491.522	800.000	0.014	0.042
-490.508	17.284	-0.185	-0.146
-489.493	147.212	-0.241	-0.323
-488.478	-200.000	0.046	-0.316
-487.464	69.187	0.200	-0.205
-486.449	-200.000	0.015	0.120
-485.435	-200.000	0.051	-0.340
-484.420	109.311	0.143	-0.171
-483.405	392.505	0.097	0.200
-482.391	-26.705	0.221	0.129
-481.376	-76.006	-0.570	0.201
-480.362	-165.027	0.347	0.015
-479.347	-200.000	0.094	0.481
-478.332	-149.536	-0.401	-0.032
-477.318	187.027	-0.065	0.097
-476.303	800.000	0.052	-0.227
-475.289	272.384	-0.083	0.145
-474.274	-200.000	-0.006	-0.081
-473.259	-64.200	0.375	0.152
-472.245	-9.937	0.160	0.106
-471.230	-18.150	0.084	0.052
-470.216	-155.002	-0.263	-0.017
-469.201	359.442	-0.064	-0.128
-468.186	-153.095	0.116	0.008
-467.172	800.000	-0.094	0.307
-466.157	-70.458	-0.270	0.102
-465.143	54.401	-0.211	-0.202
-464.128	-147.239	-0.166	-0.014
-463.113	-70.804	-0.216	0.081
-462.099	-200.000	-0.018	0.291
-461.084	397.240	-0.176	0.367
-460.070	64.842	0.112	-0.112
-459.055	31.410	0.090	-0.077
-458.040	-81.605	0.092	0.030
-457.026	71.334	-0.254	0.262
-456.011	14.142	-0.123	-0.095
-454.997	800.000	-0.016	-0.059
-453.982	-200.000	-0.037	-0.161
-452.968	-200.000	0.051	0.256
-451.953	-112.769	0.176	-0.035
-450.938	800.000	-0.056	0.169
-449.924	800.000	-0.002	-0.008
-448.909	-200.000	-0.026	-0.197
-447.895	-75.322	-0.038	-0.013
-446.880	-118.862	0.079	0.014
-445.865	308.985	0.055	-0.103
-444.851	-159.481	0.294	0.016
-443.836	-138.892	0.209	0.023
-442.822	144.713	-0.124	-0.165
-441.807	-180.617	0.240	-0.005
-440.792	-40.831	0.295	0.152
-439.778	186.984	-0.278	-0.412
-438.763	98.971	-0.124	0.143
-437.749	-200.000	-0.013	-0.241
-436.734	-173.559	0.113	0.003
-435.719	-200.000	0.029	-0.254
-434.705	800.000	0.076	-0.276
-433.690	232.731	0.147	0.241
-432.676	685.003	-0.065	0.170
-431.661	-55.817	-0.204	-0.091
-430.646	88.232	-0.113	-0.125
-429.632	-82.263	-0.149	-0.048
-428.617	212.898	0.241	-0.378
-427.603	-51.459	0.059	-0.027
-426.588	282.499	0.090	-0.161
-425.573	117.742	0.037	-0.045
-424.559	418.183	-0.037	0.078
-423.544	22.129	-0.291	-0.236
-422.530	-32.236	0.191	0.106
-421.515	-62.321	-0.257	0.106
-420.500	800.000	0.113	0.398
-419.486	-131.439	-0.208	0.027
-418.471	-91.669	-0.129	-0.036
-417.457	150.544	-0.093	0.125
-416.442	-68.737	-0.170	0.065
-415.428	-154.518	-0.230	-0.015
-414.413	-12.125	-0.281	-0.183
-413.398	131.021	-0.109	0.139
-412.384	-107.615	0.436	-0.095
-411.369	-54.098	-0.159	-0.072
-410.355	-75.478	-0.091	-0.032
-409.340	21.435	0.274	0.221
-408.325	22.237	-0.163	0.132
-407.311	-200.000	0.063	0.341
-406.296	139.993	-0.130	0.170
-405.282	254.098	-0.100	0.170
-404.267	87.963	-0.093	0.103
-403.252	-87.128	0.076	-0.023
-402.238	-200.000	0.000	-0.120
-401.223	-200.000	-0.048	-0.248
-400.209	800.000	-0.055	-0.224
-399.194	-200.000	0.011	-0.114
-398.179	94.320	-0.129	-0.146
-397.165	-180.346	0.314	0.007
-396.150	800.000	0.160	-0.537
-395.136	706.320	0.038	0.100
-394.121	-77.039	0.318	-0.110
-393.106	11.439	-0.106	0.081
-392.092	-31.467	-0.172	0.096
-391.077	-16.473	0.231	-0.146
-390.063	192.755	-0.089	0.133
-389.048	-200.000	0.014	-0.123
-388.033	800.000	-0.145	-0.532
-387.019	35.807	-0.223	0.195
-386.004	-78.362	-0.068	-0.023
-384.990	761.387	0.106	-0.285
-383.975	-200.000	-0.005	-0.029
-382.960	715.820	0.131	0.345
-381.946	-31.583	0.208	0.116
-380.931	397.739	-0.063	0.130
-379.917	-153.169	0.135	-0.009
-378.902	-200.000	-0.050	-0.349
-377.888	800.000	-0.039	-0.130
-376.873	-3.628	0.171	-0.118
-375.858	-36.020	0.175	0.094
-374.844	-200.000	0.037	0.172
-373.829	-83.098	-0.295	0.094
-372.815	-40.037	0.142	0.074
-371.800	-200.000	-0.034	0.168
-370.785	-200.000	-0.047	0.227
-369.771	800.000	-0.072	0.203
-368.756	-110.015	-0.524	-0.109
-367.742	59.842	-0.125	0.122
-366.727	-67.369	0.201	0.078
-365.712	-22.317	0.292	0.175
-364.698	40.300	0.194	0.173
-363.683	295.747	-0.217	0.395
-362.669	-81.704	0.288	0.094
-361.654	277.295	0.144	-0.254
-360.639	-109.020	-0.225	-0.048
-359.625	410.363	-0.029	0.061
-358.610	-67.019	-0.119	0.047
-357.596	361.724	-0.018	-0.036
-356.581	-200.000	-0.006	0.045
-355.566	244.611	0.072	0.120
-354.552	-131.235	0.235	0.031
-353.537	-78.776	0.089	0.030
-352.523	-162.452	0.157	-0.008
-351.508	-200.000	-0.037	0.162
-350.493	336.774	-0.104	0.200
-349.479	371.282	0.060	-0.121
-348.464	133.433	0.086	0.110
-347.450	-43.691	-0.094	-0.047
-346.435	-200.000	-0.020	0.290
-345.420	-107.047	0.136	-0.030
-344.406	-65.859	0.143	-0.057
-343.391	232.910	-0.025	0.040
-342.377	-126.056	-0.346	-0.051
-341.362	168.442	-0.190	-0.268
-340.348	-50.495	0.133	-0.062
-339.333	369.569	0.060	-0.121
-338.318	-158.419	0.129	-0.007
-337.304	800.000	-0.067	-0.223
-336.289	-7.601	-0.121	-0.081
-335.275	239.815	-0.220	0.364
-334.260	-69.953	-0.201	0.076
-333.245	-127.718	0.162	-0.023
-332.231	800.000	0.019	0.075
-331.216	-33.910	-0.128	0.070
-330.202	-200.000	-0.042	0.259
-329.187	149.050	-0.145	-0.195
-328.172	350.315	-0.139	-0.271
-327.158	800.000	-0.127	0.362
-326.143	687.065	0.046	0.120
-325.129	-200.000	0.010	-0.150
-324.114	-200.000	0.007	0.182
-323.099	100.128	0.175	0.201
-322.085	6.278	0.119	0.087
-321.070	-2.425	-0.240	0.167
-320.056	-28.015	0.039	0.022
-319.041	241.613	-0.125	-0.207
-318.026	784.603	-0.059	-0.161
-317.012	-56.100	-0.334	0.147
-315.997	-200.000	0.033	0.166
-314.983	-54.650	0.196	-0.088
-313.968	67.897	-0.105	0.107
-312.953	708.755	0.142	0.371
-311.939	36.524	0.086	-0.075
-310.924	-148.719	0.189	-0.015
-309.910	271.227	0.033	0.058
-308.895	330.612	-0.027	0.051
-307.880	-128.547	0.312	0.044
-306.866	105.400	0.123	-0.144
-305.851	40.562	0.091	0.081
-304.837	-147.233	-0.264	0.022
-303.822	144.116	-0.150	0.197
-302.807	-42.752	0.185	0.093
-301.793	-131.914	-0.071	0.009
-300.778	197.528	-0.094	0.143
-299.764	55.811	0.048	-0.046
-298.749	-200.000	-0.070	-0.384
-297.735	60.358	0.144	-0.141
-296.720	120.586	-0.091	-0.112
-295.705	387.137	-0.113	0.231
-294.691	-137.764	0.274	-0.030
-293.676	-45.690	0.121	0.059
-292.662	713.685	0.133	0.348
-291.647	-200.000	0.019	-0.098
-290.632	-103.614	0.242	0.056
-289.618	9.020	-0.106	-0.079
-288.603	800.000	-0.092	0.260
-287.589	-69.281	0.320	-0.122
-286.574	108.313	-0.138	0.163
-285.559	-138.701	0.373	-0.040
-284.545	-38.507	-0.038	0.020
-283.530	-100.101	-0.074	-0.018
-282.516	-55.836	-0.140	-0.062
-281.501	-139.820	-0.041	-0.004
-280.486	212.588	0.018	-0.029
-279.472	56.247	-0.131	-0.126
-278.457	800.000	0.101	0.278
-277.443	-92.210	0.065	-0.018
-276.428	-178.276	-0.219	-0.005
-275.413	63.816	0.093	-0.093
-274.399	-111.196	0.542	0.110
-273.384	21.469	0.110	0.088
-272.370	555.917	0.061	-0.146
-271.355	-22.637	-0.274	0.163
-270.340	-135.787	-0.189	-0.022
-269.326	800.000	0.056	0.186
-268.311	332.586	0.182	-0.347
-267.297	73.357	0.095	-0.098
-266.282	-32.335	0.055	-0.030
-265.267	-129.467	0.131	-0.018
-264.253	19.537	0.106	-0.084
-263.238	-200.000	-0.027	0.155
-262.224	-93.671	0.239	0.065
-261.209	38.317	-0.161	-0.141
-260.195	238.722	-0.051	-0.084
-259.180	-110.910	0.174	-0.035
-258.165	-142.412	-0.297	0.029
-257.151	433.250	0.146	-0.314
-256.136	-101.885	-0.328	-0.078
-255.122	-33.620	-0.091	-0.049
-254.107	47.543	0.018	0.016
-253.092	284.039	0.065	-0.115
-252.078	-61.391	0.250	0.104
-251.063	-200.000	-0.063	-0.320
-250.049	168.016	-0.205	-0.289
-249.034	-200.000	0.010	0.098
-248.019	-120.307	0.205	-0.035
-247.005	-67.561	-0.138	0.054
-245.990	26.551	0.126	-0.104
-244.976	-101.823	0.406	-0.097
-243.961	391.344	0.020	-0.041
-242.946	549.827	-0.070	0.166
-241.932	289.743	0.115	0.205
-240.917	137.498	0.056	-0.072
-239.903	159.822	0.216	0.297
-238.888	800.000	-0.021	-0.061
-237.873	-58.983	0.182	0.078
-236.859	4.980	0.054	-0.039
-235.844	-200.000	-0.069	0.366
-234.830	45.772	0.221	0.202
-233.815	-118.411	-0.543	-0.095
-232.800	-119.648	0.224	0.038
-231.786	37.745	0.095	-0.083
-230.771	-0.775	0.027	-0.019
-229.757	-97.851	0.035	0.009
-228.742	-70.686	0.185	-0.069
-227.727	42.029	0.036	0.032
-226.713	46.740	-0.166	0.152
-225.698	-29.054	0.089	0.050
-224.684	-115.487	-0.197	-0.037
-223.669	-93.053	0.200	-0.055
-222.655	800.000	-0.083	0.258
-221.640	-200.000	-0.065	0.293
-220.625	800.000	-0.035	-0.126
-219.611	-200.000	-0.006	0.061
-218.596	-200.000	0.016	0.157
-217.582	800.000	0.028	0.115
-216.567	-19.711	-0.261	0.159
-215.552	800.000	0.089	0.270
-214.538	7.469	-0.174	-0.129
-213.523	-69.526	-0.031	0.012
-212.509	-135.838	0.083	-0.010
-211.494	96.107	-0.308	-0.347
-210.479	355.780	-0.083	-0.163
-209.465	465.793	-0.084	0.185
-208.450	57.457	0.191	0.184
-207.436	476.780	0.053	0.117
-206.421	-45.622	0.197	-0.096
-205.406	-150.645	0.162	-0.012
-204.392	-121.435	-0.135	-0.022
-203.377	800.000	-0.074	0.312
-202.363	-82.468	0.361	0.116
-201.348	-200.000	0.004	0.162
-200.333	107.141	0.141	0.165
-199.319	800.000	0.041	-0.166
-198.304	-11.860	0.123	0.079
-197.290	-156.096	0.055	-0.003
-196.275	-183.008	-0.162	-0.003
-195.260	-28.358	0.142	-0.081
-194.246	-122.848	-0.122	0.019
-193.231	-87.200	0.183	0.055
-192.217	800.000	-0.082	-0.235
-191.202	800.000	-0.127	-0.542
-190.187	26.527	0.139	-0.115
-189.173	-200.000	0.139	-0.613
-188.158	800.000	-0.075	-0.299
-187.144	-200.000	0.020	0.244
-186.129	111.720	0.256	0.305
-185.114	-1.766	-0.132	0.091
-184.100	67.297	-0.119	0.120
-183.085	80.604	0.167	0.178
-182.071	49.285	0.164	0.152
-181.056	-118.250	-0.096	0.017
-180.042	229.015	-0.043	0.068
-179.027	131.804	0.244	0.310
-178.012	-200.000	0.015	0.094
-176.998	-136.738	-0.322	0.037
-175.983	-65.854	0.298	-0.117
-174.969	-18.116	-0.372	0.229
-173.954	-37.739	0.124	0.065
-172.939	800.000	0.079	-0.229
-171.925	-24.978	-0.315	0.184
-170.910	-200.000	-0.007	0.095
-169.896	-200.000	0.014	0.350
-168.881	-83.914	0.356	-0.112
-167.866	800.000	-0.046	0.199
-166.852	-174.519	-0.370	-0.010
-165.837	-200.000	-0.032	0.276
-164.823	-109.816	-0.055	-0.011
-163.808	462.975	0.166	0.364
-162.793	-138.327	0.323	0.035
-161.779	-87.578	-0.067	-0.020
-160.764	154.659	-0.158	0.213
-159.750	450.786	0.040	-0.087
-158.735	800.000	-0.128	0.424
-157.720	422.617	0.087	0.184
-156.706	800.000	-0.131	-0.366
-155.691	61.106	0.033	-0.032
-154.677	356.500	-0.116	0.228
-153.662	-200.000	0.021	0.142
-152.647	6.521	0.083	0.060
-151.633	8.046	0.153	-0.113
-150.618	205.254	-0.040	-0.061
-149.604	-35.954	-0.182	0.097
-148.589	-144.410	0.225	0.021
-147.574	-151.813	-0.278	-0.020
-146.560	-200.000	0.022	0.143
-145.545	17.696	0.108	-0.084
-144.531	-82.560	0.058	0.019
-143.516	-168.376	0.145	0.005
-142.502	-83.515	0.048	0.015
-141.487	-200.000	-0.024	-0.148
-140.472	-200.000	-0.041	0.247
-139.458	87.921	0.246	-0.268
-138.443	-84.830	0.149	0.046
-137.429	170.731	0.071	-0.100
-136.414	-70.964	-0.150	-0.056
-135.399	800.000	0.136	0.391
-134.385	46.913	0.248	0.227
-133.370	-193.480	-0.068	0.001
-132.356	-108.911	0.131	-0.027
-131.341	800.000	-0.102	0.321
-130.326	-135.352	0.220	0.026
-129.312	600.488	0.047	-0.116
-128.297	464.127	0.100	-0.219
-127.283	-200.000	-0.010	-0.196
-126.268	-8.541	0.193	-0.128
-125.253	565.128	-0.132	-0.315
-124.239	-200.000	0.009	0.353
-123.224	531.199	0.114	0.264
-122.210	-42.114	0.196	0.099
