DTS Sentinel unit serial number:	SN413079Multiplexer serial number:	ORYXHardware model number:	OX4-SRSoftware version number:	ORYX F/W v4.00 Oryx Data Collector v3.7.2.0data status	okinstallation	princeton_trtdifferential loss correction	single-endedforward channel	channel 1reverse channel	N/Adate	2019/09/16time	00:46:35forward acquisition time	60.00reverse acquisition time	0.00gamma	496.2192k internal	0.2335k external	0.2335temperature offset calibration	0.9975default loss term (dB/km)	0.3790temperature slope calibration	1.0000multiplexer offset coefficient	1.0000multiplexer slope coefficient	1.0000fibre end	0.00T internal ref (°C)	27.44T ext. ref 1 (°C)	9.66T ext. ref 2 (°C)	21.43length (m)	temperature (°C)	Stokes	anti-Stokes-747.200	-168.306	-0.158	-0.006
-746.185	-49.072	-0.164	0.079
-745.171	171.153	0.116	0.167
-744.156	-184.549	-0.107	0.002
-743.142	77.717	-0.238	-0.254
-742.127	-200.000	-0.058	0.555
-741.112	107.862	0.058	-0.069
-740.098	-119.565	-0.242	0.042
-739.083	17.822	0.211	0.169
-738.069	341.763	-0.075	-0.148
-737.054	33.520	0.082	-0.072
-736.039	-66.085	-0.371	0.149
-735.025	-27.739	0.415	0.242
-734.010	102.519	0.066	-0.078
-732.996	-200.000	-0.018	-0.132
-731.981	5.666	0.170	-0.126
-730.966	-167.345	-0.081	-0.003
-729.952	12.106	0.291	0.225
-728.937	37.638	0.175	-0.156
-727.923	-130.480	-0.039	-0.005
-726.908	104.060	0.174	-0.205
-725.894	-12.007	-0.140	-0.092
-724.879	-101.040	0.334	0.082
-723.864	-55.610	0.215	-0.096
-722.850	229.407	-0.083	-0.135
-721.835	-200.000	0.025	-0.249
-720.821	124.741	-0.106	-0.134
-719.806	800.000	-0.038	0.134
-718.791	44.545	0.068	-0.062
-717.777	-200.000	0.009	-0.090
-716.762	21.486	0.153	0.125
-715.748	800.000	0.063	-0.214
-714.733	800.000	-0.037	0.145
-713.718	-200.000	0.030	-0.262
-712.704	-129.364	-0.217	0.030
-711.689	-150.615	-0.215	0.016
-710.675	306.731	0.022	0.040
-709.660	-200.000	0.026	-0.213
-708.645	-104.077	0.157	0.037
-707.631	-2.541	-0.054	-0.038
-706.616	235.937	-0.223	0.370
-705.602	89.738	0.220	-0.247
-704.587	-46.615	-0.363	-0.179
-703.572	-130.498	0.368	-0.050
-702.558	-67.490	0.339	0.134
-701.543	1.272	0.089	0.064
-700.529	-92.250	-0.353	-0.100
-699.514	405.769	-0.128	0.271
-698.499	557.470	0.070	-0.169
-697.485	112.835	-0.122	0.149
-696.470	-84.938	-0.485	0.153
-695.456	244.441	0.037	0.063
-694.441	-117.035	0.092	0.017
-693.426	-200.000	0.026	0.119
-692.412	-53.119	-0.249	0.115
-691.397	558.510	-0.094	-0.228
-690.383	-50.360	0.328	0.155
-689.368	-83.112	0.313	0.101
-688.354	-200.000	0.041	0.187
-687.339	-200.000	0.011	0.310
-686.324	-68.304	-0.191	0.074
-685.310	10.082	0.213	-0.163
-684.295	-70.879	-0.084	0.032
-683.281	-99.765	-0.291	-0.073
-682.266	626.516	0.115	-0.292
-681.251	370.109	0.087	0.177
-680.237	335.884	0.080	-0.155
-679.222	800.000	0.056	0.190
-678.208	-179.679	-0.111	-0.002
-677.193	-2.690	-0.101	-0.071
-676.178	100.353	-0.082	-0.095
-675.164	-200.000	0.009	-0.068
-674.149	-131.118	0.137	0.018
-673.135	-128.748	-0.432	0.061
-672.120	-110.837	0.450	0.093
-671.105	-19.117	-0.056	-0.035
-670.091	-200.000	-0.013	0.134
-669.076	484.151	0.050	0.114
-668.062	782.867	0.027	-0.074
-667.047	-72.046	-0.229	-0.085
-666.032	-111.638	-0.192	-0.039
-665.018	-82.224	0.100	0.033
-664.003	7.037	0.150	-0.112
-662.989	186.981	0.066	-0.099
-661.974	316.597	-0.104	0.196
-660.959	535.611	-0.045	-0.107
-659.945	-26.570	0.052	0.030
-658.930	-126.019	-0.291	-0.044
-657.916	276.708	-0.098	-0.175
-656.901	-41.126	0.185	-0.096
-655.886	-156.460	0.195	0.012
-654.872	-119.304	-0.285	0.050
-653.857	800.000	-0.089	-0.348
-652.843	53.756	0.104	-0.100
-651.828	-86.096	-0.388	0.120
-650.814	-61.433	-0.205	-0.086
-649.799	-62.194	0.106	0.044
-648.784	800.000	-0.107	-0.306
-647.770	562.422	-0.135	0.326
-646.755	-24.375	0.108	-0.064
-645.741	-200.000	0.054	0.261
-644.726	-138.883	-0.397	-0.043
-643.711	800.000	-0.012	0.053
-642.697	-200.000	-0.016	0.091
-641.682	141.831	0.104	0.138
-640.668	-12.012	0.158	-0.104
-639.653	-24.562	-0.061	-0.036
-638.638	800.000	-0.024	0.102
-637.624	-136.109	-0.083	-0.010
-636.609	-75.367	0.194	-0.069
-635.595	-200.000	0.007	-0.141
-634.580	610.179	0.050	0.126
-633.565	-148.170	0.304	-0.025
-632.551	23.195	-0.086	-0.071
-631.536	-35.693	-0.207	-0.112
-630.522	219.830	0.028	-0.045
-629.507	71.946	-0.061	-0.063
-628.492	-16.959	0.191	0.121
-627.478	-25.730	-0.369	-0.218
-626.463	-113.788	0.264	0.051
-625.449	333.070	0.076	0.146
-624.434	-0.439	-0.280	0.199
-623.419	-71.320	0.212	0.079
-622.405	-84.991	-0.104	0.033
-621.390	124.082	-0.129	0.162
-620.376	800.000	-0.078	0.256
-619.361	-119.200	0.267	-0.047
-618.346	-52.600	-0.125	-0.058
-617.332	87.631	-0.182	-0.202
-616.317	-200.000	0.035	-0.188
-615.303	599.865	0.099	0.246
-614.288	-200.000	0.007	-0.236
-613.273	-200.000	0.028	-0.461
-612.259	159.660	-0.085	0.118
-611.244	-137.558	-0.172	-0.019
-610.230	512.795	0.106	0.246
-609.215	202.678	-0.048	0.074
-608.201	162.864	-0.180	0.253
-607.186	530.798	0.118	-0.278
-606.171	287.930	0.055	-0.099
-605.157	239.661	-0.078	-0.129
-604.142	-57.635	0.218	0.095
-603.128	63.895	0.110	0.111
-602.113	-36.325	0.236	-0.127
-601.098	18.938	0.275	0.220
-600.084	-26.329	-0.145	0.085
-599.069	-139.523	-0.424	-0.045
-598.055	-200.000	0.026	-0.116
-597.040	-140.243	0.095	0.010
-596.025	300.370	-0.070	0.128
-595.011	536.112	-0.055	-0.130
-593.996	-88.024	-0.545	-0.163
-592.982	800.000	0.129	0.511
-591.967	800.000	-0.147	0.430
-590.952	800.000	0.058	0.185
-589.938	-69.115	0.127	0.049
-588.923	322.329	-0.288	-0.548
-587.909	-200.000	-0.071	-0.389
-586.894	417.027	-0.090	-0.192
-585.879	295.048	-0.111	0.202
-584.865	-200.000	0.026	-0.284
-583.850	-200.000	-0.004	0.300
-582.836	-172.086	0.305	-0.010
-581.821	-200.000	0.160	-0.001
-580.806	270.100	0.159	-0.279
-579.792	800.000	-0.016	-0.053
-578.777	4.917	0.169	0.124
-577.763	20.826	0.169	-0.136
-576.748	145.470	-0.251	0.335
-575.733	-106.023	-0.250	-0.056
-574.719	800.000	0.110	0.386
-573.704	113.207	-0.031	-0.037
-572.690	-31.100	-0.114	0.064
-571.675	206.133	0.209	-0.325
-570.661	28.092	-0.213	0.179
-569.646	-188.982	-0.127	-0.002
-568.631	-200.000	0.057	0.255
-567.617	399.025	0.074	0.156
-566.602	-33.238	-0.184	-0.102
-565.588	-200.000	-0.060	-0.278
-564.573	-200.000	-0.009	-0.201
-563.558	150.034	0.145	0.196
-562.544	44.568	-0.064	0.059
-561.529	196.162	0.241	0.366
-560.515	117.488	0.201	0.247
-559.500	-159.192	0.198	0.011
-558.485	-122.169	-0.330	0.054
-557.471	31.433	-0.111	0.095
-556.456	-200.000	0.014	-0.271
-555.442	33.202	-0.282	-0.244
-554.427	-110.324	0.184	-0.038
-553.412	-146.420	0.458	0.040
-552.398	71.758	-0.122	0.127
-551.383	264.563	0.037	0.064
-550.369	-200.000	0.001	0.085
-549.354	101.435	-0.145	0.169
-548.339	95.135	-0.197	-0.223
-547.325	-98.741	-0.219	-0.056
-546.310	-85.354	0.220	0.068
-545.296	-109.861	0.126	-0.026
-544.281	349.756	-0.098	-0.192
-543.266	-69.088	0.374	-0.144
-542.252	-97.023	-0.061	-0.016
-541.237	272.382	0.147	0.259
-540.223	-3.793	0.069	-0.048
-539.208	69.356	0.259	-0.265
-538.193	63.189	0.085	0.085
-537.179	112.736	-0.402	-0.485
-536.164	465.803	-0.243	-0.541
-535.150	-65.390	0.177	-0.071
-534.135	590.471	-0.145	0.356
-533.121	-90.963	-0.158	0.045
-532.106	-200.000	0.025	-0.298
-531.091	59.433	0.125	-0.123
-530.077	800.000	-0.134	0.402
-529.062	98.819	-0.229	-0.264
-528.048	-200.000	0.010	0.107
-527.033	-200.000	-0.050	-0.248
-526.018	332.316	0.027	0.053
-525.004	91.205	-0.161	-0.181
-523.989	493.257	-0.051	-0.117
-522.975	-83.957	-0.215	0.068
-521.960	78.218	0.182	0.193
-520.945	71.627	-0.140	0.145
-519.931	-2.001	-0.284	-0.198
-518.916	-36.815	0.163	-0.087
-517.902	-72.289	-0.053	0.019
-516.887	780.958	-0.094	-0.255
-515.872	537.296	-0.126	-0.299
-514.858	800.000	-0.041	-0.148
-513.843	-97.474	0.172	-0.045
-512.829	-63.145	0.505	-0.208
-511.814	449.272	-0.160	-0.351
-510.799	-152.330	-0.417	0.030
-509.785	-53.369	-0.384	0.175
-508.770	-200.000	-0.010	0.233
-507.756	95.218	0.229	0.260
-506.741	-69.484	0.189	0.072
-505.726	-200.000	-0.030	-0.373
-504.712	53.740	-0.195	0.187
-503.697	800.000	-0.019	-0.081
-502.683	-71.378	0.354	0.132
-501.668	-106.601	-0.227	0.050
-500.653	54.333	0.118	-0.113
-499.639	-114.371	0.122	-0.023
-498.624	-118.787	-0.322	-0.056
-497.610	-157.327	0.099	-0.006
-496.595	11.342	-0.146	0.111
-495.581	366.939	0.128	-0.258
-494.566	-88.057	0.104	-0.031
-493.551	251.607	-0.066	0.111
-492.537	613.481	0.043	0.107
-491.522	-128.724	0.285	-0.040
-490.508	-83.350	0.309	-0.099
-489.493	11.969	-0.047	0.036
-488.478	84.427	-0.190	0.207
-487.464	-200.000	0.044	-0.194
-486.449	29.026	-0.227	-0.191
-485.435	17.049	0.120	-0.095
-484.420	43.207	0.232	0.211
-483.405	-200.000	0.012	0.298
-482.391	-100.762	-0.474	-0.116
-481.376	-11.397	0.166	-0.108
-480.362	245.981	-0.161	0.269
-479.347	-105.454	-0.231	0.052
-478.332	-200.000	-0.057	-0.628
-477.318	-150.189	-0.093	-0.007
-476.303	-22.257	0.059	0.035
-475.289	-46.415	0.364	-0.178
-474.274	-98.048	-0.312	-0.080
-473.259	151.048	-0.210	0.285
-472.245	-200.000	-0.022	-0.108
-471.230	300.107	0.120	0.220
-470.216	327.125	0.056	-0.106
-469.201	-76.693	-0.111	0.039
-468.186	-200.000	-0.222	0.001
-467.172	706.769	0.098	0.256
-466.157	425.666	-0.082	-0.175
-465.143	2.776	-0.167	-0.120
-464.128	-42.731	-0.199	0.101
-463.113	-171.858	0.370	0.012
-462.099	1.252	-0.067	0.048
-461.084	800.000	-0.077	0.213
-460.070	-200.000	-0.022	0.303
-459.055	-51.011	-0.244	-0.114
-458.040	108.157	-0.114	0.135
-457.026	109.559	-0.055	-0.066
-456.011	-137.966	-0.316	0.035
-454.997	800.000	-0.011	0.035
-453.982	-200.000	-0.003	-0.269
-452.968	800.000	0.105	-0.294
-451.953	-144.401	0.209	0.019
-450.938	396.227	-0.191	-0.395
-449.924	-167.539	0.260	-0.010
-448.909	2.906	-0.337	-0.243
-447.895	-162.332	-0.452	-0.022
-446.880	-200.000	-0.049	0.323
-445.865	91.066	0.133	0.148
-444.851	-65.922	0.097	-0.039
-443.836	251.740	0.127	0.214
-442.822	121.832	0.157	0.194
-441.807	188.266	0.193	-0.286
-440.792	36.989	0.124	-0.109
-439.778	-200.000	-0.030	-0.278
-438.763	-141.973	0.342	-0.034
-437.749	174.033	-0.100	-0.144
-436.734	-108.447	0.115	0.025
-435.719	125.713	0.173	-0.217
-434.705	-200.000	0.005	0.289
-433.690	-97.702	0.237	0.061
-432.676	-79.103	-0.127	0.043
-431.661	13.817	-0.198	-0.153
-430.646	-183.679	0.010	-0.000
-429.632	411.246	-0.079	0.166
-428.617	-126.554	-0.110	0.016
-427.603	-31.142	-0.118	0.066
-426.588	800.000	0.127	-0.389
-425.573	18.899	0.139	-0.111
-424.559	190.135	0.125	-0.186
-423.544	800.000	0.116	-0.446
-422.530	-200.000	-0.042	0.283
-421.515	126.788	0.109	0.138
-420.500	800.000	-0.061	0.204
-419.486	-85.098	0.091	-0.028
-418.471	-91.197	-0.151	-0.043
-417.457	4.602	-0.188	-0.137
-416.442	100.916	-0.165	-0.190
-415.428	-62.151	0.219	-0.091
-414.413	-33.991	-0.097	-0.053
-413.398	-200.000	0.034	0.273
-412.384	147.037	-0.015	0.020
-411.369	-36.650	0.162	0.086
-410.355	114.267	-0.117	0.141
-409.340	24.334	0.374	0.306
-408.325	-131.989	-0.267	-0.034
-407.311	107.512	-0.069	0.082
-406.296	-108.305	0.062	0.013
-405.282	-200.000	0.031	0.373
-404.267	202.451	-0.014	-0.021
-403.252	62.037	0.183	-0.181
-402.238	52.349	-0.257	-0.243
-401.223	-26.084	0.144	-0.084
-400.209	800.000	0.049	-0.183
-399.194	21.284	0.118	-0.095
-398.179	26.415	-0.065	-0.054
-397.165	800.000	0.018	0.078
-396.150	800.000	0.078	0.312
-395.136	-73.025	0.147	-0.053
-394.121	-160.973	0.115	-0.006
-393.106	-61.977	-0.030	0.012
-392.092	-200.000	0.003	-0.032
-391.077	55.636	0.277	0.266
-390.063	-82.864	0.130	0.042
-389.048	18.995	-0.130	-0.104
-388.033	-200.000	0.044	0.300
-387.019	-76.571	0.054	0.019
-386.004	-9.606	0.192	0.127
-384.990	-70.175	0.049	-0.018
-383.975	76.487	0.111	0.116
-382.960	299.520	-0.085	-0.155
-381.946	-200.000	-0.041	0.216
-380.931	73.824	-0.233	-0.242
-379.917	279.980	-0.051	0.091
-378.902	-157.183	-0.230	-0.014
-377.888	800.000	0.086	-0.305
-376.873	800.000	0.073	0.256
-375.858	-200.000	0.016	0.129
-374.844	-154.279	-0.222	0.015
-373.829	-101.859	0.275	-0.066
-372.815	-200.000	0.006	0.195
-371.800	18.480	-0.383	-0.303
-370.785	55.223	0.061	0.059
-369.771	800.000	0.084	0.349
-368.756	175.435	0.090	-0.129
-367.742	322.247	-0.141	-0.266
-366.727	151.403	-0.428	-0.577
-365.712	73.575	0.163	-0.170
-364.698	528.356	-0.147	0.343
-363.683	356.720	-0.051	0.101
-362.669	-85.546	0.050	-0.015
-361.654	800.000	0.084	0.231
-360.639	800.000	-0.078	-0.222
-359.625	-1.613	0.245	-0.171
-358.610	-34.640	-0.042	0.023
-357.596	-154.053	0.320	0.022
-356.581	319.657	0.137	0.258
-355.566	-200.000	-0.014	-0.160
-354.552	-139.477	-0.305	0.032
-353.537	31.497	-0.076	0.065
-352.523	-200.000	-0.025	0.228
-351.508	13.342	0.326	-0.250
-350.493	800.000	-0.068	0.265
-349.479	280.137	0.038	-0.067
-348.464	6.869	0.338	0.249
-347.450	45.167	-0.248	0.226
-346.435	-21.867	0.188	0.113
-345.420	-68.066	-0.176	-0.068
-344.406	-4.916	0.151	0.103
-343.391	-169.051	-0.299	-0.011
-342.377	34.175	-0.217	-0.188
-341.362	-13.313	0.141	-0.091
-340.348	-76.079	-0.148	-0.052
-339.333	-139.669	-0.162	0.017
-338.318	800.000	0.055	0.161
-337.304	97.219	0.126	0.143
-336.289	-200.000	0.010	-0.141
-335.275	-45.346	-0.278	0.136
-334.260	-0.875	-0.113	0.079
-333.245	-78.475	0.196	-0.066
-332.231	213.997	0.157	-0.246
-331.216	-85.577	0.395	0.121
-330.202	151.538	0.036	-0.048
-329.187	-200.000	0.043	0.192
-328.172	-200.000	-0.017	0.261
-327.158	800.000	0.034	0.099
-326.143	-48.504	-0.099	0.047
-325.129	-62.976	-0.169	-0.069
-324.114	597.813	-0.079	-0.193
-323.099	54.759	-0.254	-0.243
-322.085	-200.000	-0.037	0.355
-321.070	361.732	-0.094	0.185
-320.056	-118.861	-0.090	0.016
-319.041	-151.924	-0.479	-0.035
-318.026	244.226	0.136	-0.226
-317.012	-200.000	0.019	-0.084
-315.997	-132.091	0.062	0.008
-314.983	56.972	0.299	-0.288
-313.968	-200.000	0.017	0.078
-312.953	-83.809	-0.202	0.064
-311.939	-118.811	0.308	0.054
-310.924	69.505	-0.217	0.220
-309.910	398.048	-0.158	-0.326
-308.895	-119.692	0.416	0.071
-307.880	89.885	0.172	0.189
-306.866	800.000	-0.144	-0.614
-305.851	271.642	0.245	-0.426
-304.837	-200.000	0.020	-0.187
-303.822	665.335	-0.059	-0.150
-302.807	-200.000	-0.009	0.240
-301.793	7.701	-0.208	-0.154
-300.778	-200.000	-0.015	-0.089
-299.764	-107.178	-0.230	0.050
-298.749	178.119	0.146	-0.210
-297.735	-111.345	-0.190	-0.038
-296.720	0.202	0.137	0.097
-295.705	-200.000	-0.018	0.101
-294.691	-100.753	-0.150	0.037
-293.676	-113.554	-0.017	0.003
-292.662	31.312	-0.075	-0.063
-291.647	0.974	0.122	0.087
-290.632	188.459	0.192	-0.283
-289.618	465.544	0.141	-0.311
-288.603	-90.555	-0.278	0.079
-287.589	-46.056	0.125	0.061
-286.574	800.000	0.094	0.336
-285.559	9.273	-0.170	-0.127
-284.545	133.035	-0.151	-0.192
-283.530	800.000	-0.026	-0.074
-282.516	-114.298	0.241	0.046
-281.501	-25.639	0.225	0.131
-280.486	196.060	0.130	-0.196
-279.472	800.000	-0.087	-0.295
-278.457	800.000	0.047	-0.130
-277.443	59.863	-0.106	-0.104
-276.428	-49.102	-0.265	0.125
-275.413	2.148	0.169	-0.120
-274.399	60.711	0.331	-0.323
-273.384	40.489	0.153	0.136
-272.370	-136.431	-0.153	-0.018
-271.355	-78.683	-0.098	-0.033
-270.340	-48.212	0.331	0.158
-269.326	800.000	0.043	-0.178
-268.311	-200.000	0.049	-0.260
-267.297	-200.000	0.046	0.273
-266.282	-51.252	0.162	-0.075
-265.267	362.848	-0.104	0.206
-264.253	-200.000	-0.030	0.205
-263.238	-200.000	-0.026	0.135
-262.224	-200.000	-0.021	-0.124
-261.209	-200.000	-0.000	-0.012
-260.195	58.994	-0.141	0.137
-259.180	-200.000	-0.002	0.035
-258.165	254.667	0.125	0.211
-257.151	-200.000	-0.000	0.147
-256.136	24.999	-0.142	0.116
-255.122	-165.974	0.278	0.012
-254.107	-27.516	-0.195	0.112
-253.092	-200.000	0.191	-0.000
-252.078	143.914	-0.030	0.040
-251.063	-200.000	-0.001	0.164
-250.049	-200.000	0.028	0.156
-249.034	-200.000	0.038	0.293
-248.019	58.698	0.217	0.210
-247.005	-200.000	-0.012	-0.488
-245.990	43.725	0.309	0.278
-244.976	-200.000	0.042	-0.255
-243.961	-200.000	0.042	0.291
-242.946	-164.541	0.339	-0.015
-241.932	-0.393	-0.147	0.103
-240.917	246.975	0.154	-0.257
-239.903	-90.067	-0.032	-0.009
-238.888	773.987	0.061	0.164
-237.873	-88.369	-0.084	-0.025
-236.859	24.929	-0.096	-0.078
-235.844	434.933	-0.085	0.181
-234.830	19.809	-0.073	0.058
-233.815	800.000	0.209	0.568
-232.800	800.000	-0.082	-0.312
-231.786	85.712	0.184	-0.200
-230.771	668.869	0.063	0.160
-229.757	800.000	0.044	-0.124
-228.742	372.972	-0.065	-0.131
-227.727	423.462	-0.058	0.123
-226.713	-200.000	0.055	-0.268
-225.698	-52.465	-0.065	-0.030
-224.684	86.921	0.176	0.191
-223.669	102.346	0.221	-0.255
-222.655	137.416	-0.098	-0.126
-221.640	8.087	0.207	-0.153
-220.625	166.848	-0.162	-0.226
-219.611	21.997	0.264	-0.212
-218.596	203.272	-0.138	-0.211
-217.582	-80.476	-0.228	0.075
-216.567	-104.779	0.217	-0.049
-215.552	319.725	0.064	-0.119
-214.538	-200.000	0.040	0.179
-213.523	800.000	0.077	0.273
-212.509	502.383	0.118	0.269
-211.494	-64.153	0.068	0.027
-210.479	20.508	-0.094	0.075
-209.465	-85.896	-0.435	-0.133
-208.450	800.000	-0.071	0.277
-207.436	16.599	0.249	-0.194
-206.421	-86.895	-0.245	0.074
-205.406	-97.303	0.068	0.017
-204.392	-159.590	-0.378	0.021
-203.377	-180.428	0.154	-0.003
-202.363	-13.665	-0.225	0.143
-201.348	800.000	-0.088	-0.370
-200.333	22.643	-0.037	-0.030
-199.319	381.094	-0.182	-0.368
-198.304	145.457	0.127	-0.168
-197.290	-53.484	0.131	-0.059
-196.275	-200.000	-0.016	0.259
-195.260	32.549	-0.099	-0.085
-194.246	138.174	0.270	0.348
-193.231	356.380	-0.085	0.166
-192.217	45.194	0.299	-0.271
-191.202	509.022	0.143	0.328
-190.187	219.656	-0.145	0.228
-189.173	555.592	-0.024	0.057
-188.158	2.810	0.221	0.157
-187.144	203.690	0.055	-0.083
-186.129	-166.102	0.301	0.013
-185.114	-200.000	0.101	0.558
-184.100	-200.000	0.002	-0.146
-183.085	11.279	-0.313	0.236
-182.071	26.086	-0.371	0.305
-181.056	800.000	-0.106	-0.363
-180.042	-200.000	0.027	0.267
-179.027	-200.000	-0.001	0.127
-178.012	21.606	0.107	0.085
-176.998	64.641	-0.291	-0.289
-175.983	-92.742	-0.117	0.032
-174.969	160.548	0.133	0.183
-173.954	-200.000	0.045	0.521
-172.939	181.145	-0.139	0.201
-171.925	15.771	-0.073	-0.056
-170.910	61.989	0.320	-0.313
-169.896	800.000	-0.078	-0.236
-168.881	380.701	-0.122	0.246
-167.866	800.000	0.042	0.171
-166.852	-110.642	-0.032	-0.006
-165.837	-6.885	-0.137	0.091
-164.823	-115.322	0.369	-0.069
-163.808	-39.839	-0.174	0.089
-162.793	-95.269	-0.035	0.009
-161.779	101.731	-0.107	-0.122
-160.764	-53.054	0.132	0.059
-159.750	165.680	0.130	-0.181
-158.735	-200.000	-0.013	0.064
-157.720	-101.631	0.126	0.030
-156.706	201.956	0.120	-0.182
-155.691	215.509	-0.074	0.115
-154.677	309.821	-0.050	-0.092
-153.662	-132.000	0.266	-0.034
-152.647	-25.925	-0.310	0.179
-151.633	-200.000	0.013	0.096
-150.618	-181.573	-0.123	0.002
-149.604	43.443	-0.039	0.035
-148.589	-88.916	0.397	0.115
-147.574	390.446	0.147	0.300
-146.560	40.337	0.085	0.075
-145.545	-47.693	-0.140	-0.067
-144.531	-5.005	-0.222	-0.150
-143.516	-200.000	-0.027	0.239
-142.502	800.000	0.022	-0.059
-141.487	306.159	-0.150	-0.273
-140.472	53.921	0.189	-0.178
-139.458	-164.989	0.267	0.012
-138.443	-85.107	-0.229	-0.070
-137.429	800.000	-0.080	-0.217
-136.414	-24.767	0.232	-0.135
-135.399	-26.292	-0.071	0.041
-134.385	-147.175	0.538	-0.045
-133.370	-38.216	-0.192	-0.100
-132.356	48.680	0.049	0.045
-131.341	-52.553	-0.420	-0.191
-130.326	-200.000	-0.010	-0.167
-129.312	-116.064	-0.246	-0.045
-128.297	-200.000	0.004	0.195
-127.283	-200.000	0.061	0.369
-126.268	72.260	-0.196	-0.200
-125.253	-20.865	0.092	0.055
-124.239	99.222	-0.102	-0.115
-123.224	569.656	0.102	-0.244
-122.210	132.354	0.062	-0.079
-121.195	-200.000	0.077	0.458
-120.180	-137.871	0.366	-0.040
