DTS Sentinel unit serial number:	SN413079Multiplexer serial number:	ORYXHardware model number:	OX4-SRSoftware version number:	ORYX F/W v4.00 Oryx Data Collector v3.7.2.0data status	okinstallation	princeton_trtdifferential loss correction	single-endedforward channel	channel 1reverse channel	N/Adate	2019/09/10time	19:00:11forward acquisition time	60.00reverse acquisition time	0.00gamma	496.2192k internal	0.2314k external	0.2314temperature offset calibration	0.9921default loss term (dB/km)	0.3790temperature slope calibration	1.0000multiplexer offset coefficient	1.0000multiplexer slope coefficient	1.0000fibre end	0.00T internal ref (°C)	34.56T ext. ref 1 (°C)	-0.41T ext. ref 2 (°C)	26.78length (m)	temperature (°C)	Stokes	anti-Stokes-747.200	231.172	-0.024	-0.039
-746.185	800.000	-0.090	-0.294
-745.171	21.775	0.134	-0.111
-744.156	-18.593	0.045	0.028
-743.142	-154.388	-0.251	-0.017
-742.127	-197.743	-0.235	-0.001
-741.112	800.000	0.094	-0.334
-740.098	89.618	-0.027	0.031
-739.083	-174.953	0.268	-0.008
-738.069	523.874	-0.161	0.383
-737.054	19.347	-0.151	0.123
-736.039	-108.091	-0.218	-0.048
-735.025	281.273	-0.132	0.239
-734.010	40.906	-0.112	-0.103
-732.996	83.353	-0.049	0.054
-731.981	534.238	-0.162	-0.388
-730.966	-200.000	-0.083	-0.381
-729.952	-36.580	-0.231	-0.126
-728.937	-81.355	-0.413	0.138
-727.923	144.338	0.228	-0.308
-726.908	800.000	-0.064	-0.237
-725.894	479.477	0.142	-0.326
-724.879	-200.000	0.021	-0.419
-723.864	-94.607	0.097	-0.027
-722.850	-200.000	0.025	-0.219
-721.835	-200.000	-0.078	0.485
-720.821	131.560	0.092	0.119
-719.806	53.121	0.042	0.041
-718.791	800.000	0.042	-0.172
-717.777	-200.000	0.005	-0.314
-716.762	-200.000	0.080	-0.393
-715.748	-200.000	0.005	-0.057
-714.733	38.709	0.122	-0.111
-713.718	-200.000	-0.121	0.544
-712.704	-200.000	-0.031	-0.199
-711.689	132.041	0.235	0.306
-710.675	-200.000	0.022	-0.370
-709.660	-102.162	0.284	0.069
-708.645	-17.981	-0.049	0.031
-707.631	102.467	-0.080	-0.095
-706.616	-200.000	-0.020	-0.092
-705.602	-120.128	-0.245	0.043
-704.587	-36.023	-0.333	-0.182
-703.572	-39.542	0.056	0.030
-702.558	35.665	-0.222	-0.198
-701.543	800.000	-0.059	-0.168
-700.529	-147.660	-0.061	-0.005
-699.514	207.285	0.080	0.127
-698.499	428.392	0.058	0.127
-697.485	800.000	-0.030	0.108
-696.470	-146.358	0.472	-0.042
-695.456	-144.579	0.160	-0.015
-694.441	-146.647	0.165	-0.014
-693.426	-82.459	0.157	0.052
-692.412	55.912	0.034	-0.033
-691.397	-200.000	-0.014	0.182
-690.383	-79.961	0.246	-0.084
-689.368	800.000	-0.024	-0.084
-688.354	44.954	0.109	-0.102
-687.339	-200.000	-0.014	0.121
-686.324	360.947	0.052	-0.106
-685.310	-69.049	0.284	-0.111
-684.295	-141.734	0.197	0.020
-683.281	32.949	-0.147	-0.129
-682.266	-32.948	-0.323	-0.181
-681.251	54.316	-0.159	0.155
-680.237	-200.000	-0.028	-0.202
-679.222	-3.977	-0.185	0.129
-678.208	771.706	-0.045	0.123
-677.193	61.552	-0.291	0.293
-676.178	69.717	0.121	0.126
-675.164	-200.000	0.013	0.092
-674.149	-29.972	-0.016	0.009
-673.135	800.000	0.102	-0.318
-672.120	-124.521	-0.198	0.031
-671.105	800.000	0.064	0.190
-670.091	103.247	0.194	0.229
-669.076	-200.000	0.035	-0.230
-668.062	140.138	-0.118	-0.157
-667.047	44.587	-0.317	0.294
-666.032	-108.302	-0.184	0.040
-665.018	-108.678	0.288	-0.063
-664.003	14.583	-0.180	-0.142
-662.989	-15.378	0.094	-0.061
-661.974	-62.211	-0.044	0.019
-660.959	674.260	0.104	-0.274
-659.945	-200.000	0.005	0.056
-658.930	-77.102	-0.292	-0.103
-657.916	-8.700	-0.166	-0.113
-656.901	2.004	-0.054	-0.039
-655.886	9.510	-0.149	-0.114
-654.872	-23.061	0.339	0.207
-653.857	-65.441	0.236	-0.096
-652.843	-25.800	-0.081	0.048
-651.828	90.673	-0.117	-0.132
-650.814	-196.837	-0.319	0.002
-649.799	58.032	-0.095	0.094
-648.784	139.976	-0.140	-0.186
-647.770	-200.000	-0.037	-0.222
-646.755	-200.000	0.036	-0.206
-645.741	395.763	-0.112	-0.235
-644.726	-143.816	0.252	-0.024
-643.711	-96.218	0.064	0.017
-642.697	281.762	-0.104	-0.189
-641.682	346.610	0.125	0.248
-640.668	-53.949	0.160	0.074
-639.653	107.389	-0.225	0.270
-638.638	790.205	-0.054	0.149
-637.624	800.000	-0.141	0.469
-636.609	190.348	-0.160	0.243
-635.595	-59.438	0.105	0.046
-634.580	-127.481	-0.222	-0.033
-633.565	-79.136	-0.099	0.034
-632.551	-93.624	0.098	0.027
-631.536	-200.000	0.002	0.220
-630.522	379.979	0.051	0.105
-629.507	-27.230	-0.102	-0.060
-628.492	109.355	0.126	0.152
-627.478	35.114	-0.142	-0.125
-626.463	-63.533	-0.328	0.136
-625.449	800.000	-0.109	-0.402
-624.434	-200.000	0.001	-0.114
-623.419	-50.841	0.267	0.127
-622.405	88.496	-0.074	-0.083
-621.390	10.973	0.081	0.063
-620.376	-200.000	-0.011	0.131
-619.361	-101.377	0.155	-0.038
-618.346	-65.584	0.244	0.099
-617.332	224.333	-0.139	0.227
-616.317	-154.894	0.218	-0.015
-615.303	-42.231	-0.225	0.116
-614.288	323.232	0.184	-0.355
-613.273	2.033	-0.404	-0.295
-612.259	-32.207	-0.115	0.065
-611.244	-100.655	0.486	0.121
-610.230	35.813	-0.118	-0.104
-609.215	-53.341	-0.487	0.225
-608.201	18.579	-0.302	-0.244
-607.186	-64.251	0.145	-0.060
-606.171	440.893	-0.123	0.271
-605.157	29.660	0.293	0.252
-604.142	-200.000	0.045	-0.223
-603.128	-147.863	0.394	-0.033
-602.113	-96.465	0.114	-0.030
-601.098	-8.771	-0.281	-0.190
-600.084	134.768	0.230	0.301
-599.069	575.038	0.114	-0.280
-598.055	229.743	-0.163	0.269
-597.040	82.592	0.154	0.169
-596.025	-145.946	0.350	0.031
-595.011	-107.469	0.234	-0.052
-593.996	-73.248	-0.021	-0.008
-592.982	-104.792	-0.096	-0.022
-591.967	-29.226	-0.367	0.212
-590.952	-30.973	-0.172	0.098
-589.938	9.944	-0.025	0.019
-588.923	800.000	-0.060	0.177
-587.909	-200.000	0.056	0.412
-586.894	-200.000	-0.034	-0.171
-585.879	-200.000	-0.132	-0.001
-584.865	-56.488	0.311	0.139
-583.850	100.598	0.059	-0.069
-582.836	-200.000	-0.019	0.131
-581.821	77.518	0.117	-0.125
-580.806	-195.140	-0.094	0.001
-579.792	-117.054	-0.203	0.037
-578.777	-106.917	0.074	-0.017
-577.763	-110.104	-0.292	-0.061
-576.748	-200.000	-0.057	-0.372
-575.733	-11.051	0.214	0.142
-574.719	-25.255	0.242	-0.144
-573.704	-200.000	-0.050	-0.270
-572.690	-60.035	-0.090	-0.039
-571.675	-159.704	0.137	0.008
-570.661	648.946	0.095	0.245
-569.646	15.326	-0.120	-0.095
-568.631	-111.351	0.113	0.023
-567.617	-160.319	0.534	0.029
-566.602	-110.598	0.133	-0.028
-565.588	-44.995	-0.017	0.009
-564.573	-200.000	-0.004	-0.161
-563.558	1.132	-0.239	0.173
-562.544	54.333	0.171	-0.166
-561.529	117.497	0.184	-0.228
-560.515	-138.527	-0.135	0.015
-559.500	-34.388	-0.263	0.145
-558.485	-83.171	0.071	-0.023
-557.471	800.000	-0.113	0.329
-556.456	37.773	0.168	0.150
-555.442	-97.898	0.358	0.093
-554.427	-95.177	-0.169	-0.046
-553.412	800.000	-0.064	-0.275
-552.398	26.479	-0.224	-0.188
-551.383	-123.932	-0.301	0.048
-550.369	-46.802	0.078	-0.038
-549.354	-89.704	-0.378	-0.112
-548.339	200.850	-0.043	-0.066
-547.325	-102.698	-0.409	-0.098
-546.310	376.243	-0.152	0.312
-545.296	660.671	0.049	-0.128
-544.281	251.287	-0.028	0.048
-543.266	260.588	0.056	0.098
-542.252	800.000	0.025	0.082
-541.237	42.641	-0.102	0.094
-540.223	-200.000	0.015	0.271
-539.208	-96.427	-0.275	0.073
-538.193	-151.029	-0.296	0.022
-537.179	-59.961	0.228	0.098
-536.164	-200.000	-0.086	-0.522
-535.150	-200.000	0.026	-0.187
-534.135	-200.000	-0.017	0.251
-533.121	25.421	0.084	0.070
-532.106	170.341	0.166	-0.239
-531.091	614.590	-0.009	-0.023
-530.077	10.467	-0.156	-0.119
-529.062	-200.000	-0.006	0.147
-528.048	-137.498	0.180	0.020
-527.033	145.807	-0.203	0.274
-526.018	-200.000	0.008	-0.118
-525.004	231.583	-0.201	0.331
-523.989	-200.000	0.015	0.080
-522.975	-200.000	0.019	-0.205
-521.960	-47.700	-0.169	-0.082
-520.945	395.709	-0.063	-0.132
-519.931	318.873	-0.114	-0.217
-518.916	160.026	0.120	0.169
-517.902	-200.000	0.006	0.172
-516.887	-136.242	-0.493	0.058
-515.872	-43.537	-0.284	-0.144
-514.858	-27.883	0.097	0.057
-513.843	115.178	-0.343	-0.421
-512.829	-2.159	0.216	-0.153
-511.814	-102.076	-0.449	0.109
-510.799	-171.612	-0.144	0.005
-509.785	-72.134	0.344	-0.128
-508.770	-200.000	0.028	-0.146
-507.756	135.720	0.162	-0.211
-506.741	-40.682	-0.213	-0.111
-505.726	-144.101	-0.309	0.029
-504.712	-154.922	0.187	0.012
-503.697	-170.499	-0.209	-0.007
-502.683	-200.000	-0.028	0.131
-501.668	-200.000	-0.015	0.215
-500.653	63.966	0.150	-0.151
-499.639	-24.846	0.443	-0.264
-498.624	-200.000	0.085	0.405
-497.610	148.734	-0.035	-0.048
-496.595	422.208	0.108	0.232
-495.581	-28.664	0.015	-0.009
-494.566	402.603	-0.112	0.237
-493.551	-200.000	0.001	0.135
-492.537	-200.000	-0.007	0.082
-491.522	-60.943	0.288	-0.122
-490.508	800.000	0.059	-0.249
-489.493	-53.150	-0.210	-0.097
-488.478	146.243	0.160	-0.215
-487.464	63.233	0.205	0.206
-486.449	-114.181	-0.058	0.011
-485.435	191.745	0.068	0.103
-484.420	800.000	0.090	-0.256
-483.405	-200.000	-0.010	0.159
-482.391	-47.025	-0.131	0.064
-481.376	-200.000	0.064	0.303
-480.362	260.786	-0.103	-0.179
-479.347	-53.715	-0.219	-0.100
-478.332	79.319	0.178	-0.192
-477.318	800.000	0.036	-0.117
-476.303	-16.191	-0.246	-0.157
-475.289	-54.678	0.270	0.123
-474.274	800.000	0.043	-0.178
-473.259	430.343	0.039	-0.084
-472.245	-200.000	-0.004	0.049
-471.230	267.951	0.076	-0.133
-470.216	-149.333	0.219	-0.017
-469.201	164.678	-0.091	-0.129
-468.186	-181.715	0.121	-0.002
-467.172	800.000	-0.045	0.173
-466.157	74.779	-0.209	-0.221
-465.143	24.612	0.109	-0.090
-464.128	-39.375	-0.152	0.080
-463.113	-116.288	-0.050	-0.009
-462.099	800.000	-0.109	-0.324
-461.084	-200.000	0.011	-0.166
-460.070	325.984	0.158	-0.303
-459.055	-55.216	-0.140	0.063
-458.040	95.272	0.288	0.329
-457.026	81.218	0.252	-0.273
-456.011	-163.140	-0.065	0.003
-454.997	84.999	0.178	0.195
-453.982	140.203	-0.067	-0.088
-452.968	438.488	0.065	-0.143
-451.953	-19.954	0.087	0.054
-450.938	66.964	-0.166	-0.169
-449.924	-22.737	-0.129	0.078
-448.909	-184.355	0.219	-0.004
-447.895	800.000	0.022	0.068
-446.880	217.946	0.217	0.347
-445.865	-54.581	-0.080	-0.036
-444.851	714.361	0.057	0.152
-443.836	-20.911	0.093	0.057
-442.822	33.901	-0.160	0.140
-441.807	-200.000	-0.058	0.261
-440.792	117.599	0.110	-0.136
-439.778	69.961	0.271	0.280
-438.763	-7.378	-0.188	0.127
-437.749	800.000	-0.015	0.044
-436.734	800.000	-0.091	-0.302
-435.719	-73.130	0.136	0.050
-434.705	333.078	0.162	-0.313
-433.690	-200.000	-0.027	0.197
-432.676	40.549	-0.249	-0.225
-431.661	171.059	0.051	-0.073
-430.646	-74.234	0.295	-0.107
-429.632	-59.289	-0.284	-0.122
-428.617	85.357	-0.050	0.055
-427.603	-200.000	0.006	-0.303
-426.588	132.967	0.169	0.218
-425.573	-200.000	0.021	-0.255
-424.559	213.608	-0.143	-0.226
-423.544	-50.597	0.319	-0.150
-422.530	800.000	0.030	-0.093
-421.515	-200.000	0.019	0.269
-420.500	-200.000	0.010	0.290
-419.486	-86.054	0.288	0.089
-418.471	7.914	0.212	0.159
-417.457	228.984	0.104	0.170
-416.442	-143.509	-0.379	-0.036
-415.428	-75.720	-0.161	-0.057
-414.413	-200.000	-0.014	0.243
-413.398	-77.851	0.161	0.056
-412.384	800.000	0.033	-0.139
-411.369	4.387	-0.207	-0.152
-410.355	-200.000	-0.008	-0.061
-409.340	37.375	0.191	-0.169
-408.325	512.313	-0.096	0.223
-407.311	800.000	0.016	-0.054
-406.296	-200.000	-0.005	0.047
-405.282	168.498	0.066	-0.094
-404.267	-56.228	-0.345	-0.154
-403.252	40.961	-0.099	-0.089
-402.238	140.277	0.153	0.202
-401.223	-25.236	0.437	-0.259
-400.209	-200.000	-0.011	0.131
-399.194	72.485	-0.178	-0.186
-398.179	-154.231	0.161	-0.011
-397.165	66.736	0.153	0.156
-396.150	-5.053	0.416	0.287
-395.136	708.731	-0.063	0.167
-394.121	800.000	0.088	0.298
-393.106	-200.000	0.026	-0.264
-392.092	-200.000	-0.006	0.208
-391.077	-200.000	-0.031	0.179
-390.063	39.231	0.252	-0.225
-389.048	178.780	0.285	0.416
-388.033	-200.000	0.018	-0.216
-387.019	-78.126	0.160	-0.055
-386.004	-5.661	0.108	0.074
-384.990	117.657	0.105	0.130
-383.975	80.700	-0.227	-0.244
-382.960	-39.144	-0.408	0.215
-381.946	800.000	0.066	0.238
-380.931	439.811	0.111	0.243
-379.917	-200.000	0.003	0.074
-378.902	65.959	-0.140	0.142
-377.888	800.000	-0.060	0.204
-376.873	-142.324	0.037	-0.004
-375.858	110.642	0.101	-0.121
-374.844	-24.749	-0.319	-0.190
-373.829	-103.294	0.152	0.036
-372.815	-171.729	-0.291	0.010
-371.800	-43.896	0.247	-0.124
-370.785	800.000	0.062	0.258
-369.771	100.297	-0.110	-0.128
-368.756	800.000	0.061	-0.207
-367.742	-200.000	-0.007	-0.128
-366.727	147.232	-0.150	-0.202
-365.712	800.000	0.078	-0.243
-364.698	310.344	-0.009	-0.016
-363.683	200.939	0.062	0.095
-362.669	-200.000	-0.038	-0.176
-361.654	116.726	-0.136	0.167
-360.639	-119.547	-0.184	-0.032
-359.625	170.607	-0.205	-0.293
-358.610	-200.000	-0.006	-0.411
-357.596	800.000	0.042	-0.149
-356.581	-83.135	-0.278	0.089
-355.566	-19.459	0.088	0.055
-354.552	-29.065	-0.114	-0.065
-353.537	-102.835	-0.379	0.090
-352.523	-125.381	0.074	0.011
-351.508	800.000	-0.037	0.131
-350.493	-17.902	-0.352	-0.221
-349.479	68.649	0.285	-0.292
-348.464	800.000	-0.088	-0.282
-347.450	-140.768	0.241	-0.025
-346.435	-200.000	-0.005	0.300
-345.420	800.000	0.057	-0.243
-344.406	-41.063	0.041	-0.021
-343.391	117.387	-0.234	-0.287
-342.377	-88.393	-0.144	0.043
-341.362	708.921	-0.073	-0.194
-340.348	-20.212	-0.094	-0.058
-339.333	626.916	0.033	0.084
-338.318	-94.470	-0.099	0.027
-337.304	-69.689	-0.132	0.050
-336.289	143.171	0.096	-0.127
-335.275	-81.986	0.116	-0.038
-334.260	-56.221	-0.034	-0.015
-333.245	-97.124	0.097	-0.025
-332.231	-121.579	-0.252	0.042
-331.216	33.785	-0.300	0.261
-330.202	135.225	0.125	-0.162
-329.187	443.880	0.070	0.152
-328.172	-200.000	0.038	0.320
-327.158	-163.377	0.116	-0.006
-326.143	313.017	0.138	-0.260
-325.129	-200.000	0.043	-0.316
-324.114	800.000	0.062	0.194
-323.099	92.018	-0.101	0.113
-322.085	16.400	0.227	0.179
-321.070	-150.947	0.213	0.016
-320.056	85.028	-0.228	-0.250
-319.041	-144.166	-0.301	-0.028
-318.026	2.801	0.131	-0.095
-317.012	31.695	0.065	0.056
-315.997	-61.846	0.128	0.053
-314.983	-67.169	-0.235	0.092
-313.968	800.000	0.052	0.194
-312.953	176.132	-0.276	-0.400
-311.939	256.338	0.068	0.116
-310.924	800.000	0.059	0.172
-309.910	218.158	-0.021	0.034
-308.895	800.000	-0.072	-0.308
-307.880	-200.000	-0.037	0.398
-306.866	800.000	0.094	-0.289
-305.851	79.800	0.161	0.172
-304.837	800.000	0.131	-0.448
-303.822	-138.037	-0.330	0.037
-302.807	302.808	0.091	0.168
-301.793	-109.517	0.298	-0.063
-300.778	-77.290	-0.317	0.110
-299.764	146.704	0.248	-0.331
-298.749	-53.992	0.139	0.063
-297.735	-133.326	0.379	0.048
-296.720	-169.259	-0.667	-0.025
-295.705	-173.741	-0.061	0.002
-294.691	800.000	0.082	0.302
-293.676	258.246	0.081	-0.139
-292.662	-142.545	0.202	0.020
-291.647	-53.431	-0.074	-0.034
-290.632	-200.000	-0.008	0.164
-289.618	-155.285	-0.251	0.016
-288.603	-36.643	0.281	0.151
-287.589	800.000	0.087	0.288
-286.574	-154.427	-0.163	-0.011
-285.559	212.517	-0.140	0.220
-284.545	800.000	0.044	-0.180
-283.530	386.785	-0.149	-0.306
-282.516	-200.000	-0.041	0.347
-281.501	-200.000	0.024	-0.340
-280.486	101.782	-0.021	0.025
-279.472	585.278	0.035	-0.085
-278.457	149.680	-0.034	-0.046
-277.443	800.000	-0.058	-0.182
-276.428	-200.000	0.024	0.196
-275.413	-105.072	0.164	-0.037
-274.399	392.973	-0.102	0.211
-273.384	800.000	0.113	-0.392
-272.370	800.000	0.058	0.223
-271.355	-200.000	-0.004	-0.174
-270.340	-200.000	-0.057	-0.325
-269.326	-38.606	-0.301	-0.158
-268.311	-200.000	-0.029	-0.362
-267.297	-89.589	0.207	0.060
-266.282	141.834	0.072	0.096
-265.267	435.711	0.085	-0.183
-264.253	142.148	0.112	-0.148
-263.238	-200.000	-0.009	0.137
-262.224	423.178	-0.079	-0.168
-261.209	-200.000	-0.014	-0.080
-260.195	94.411	0.055	0.063
-259.180	57.890	0.028	-0.028
-258.165	118.171	-0.176	0.216
-257.151	-107.573	0.340	0.074
-256.136	-200.000	0.020	-0.227
-255.122	258.672	-0.220	0.378
-254.107	-124.878	-0.259	0.040
-253.092	183.022	0.123	-0.180
-252.078	17.509	-0.123	0.097
-251.063	-127.622	0.135	-0.019
-250.049	-200.000	0.006	0.069
-249.034	-24.175	0.179	0.107
-248.019	-15.895	-0.264	0.167
-247.005	35.271	0.009	-0.008
-245.990	-15.946	-0.180	0.114
-244.976	-151.181	0.188	0.014
-243.961	-138.345	-0.125	-0.014
-242.946	-131.653	-0.276	0.036
-241.932	-200.000	-0.003	-0.015
-240.917	171.507	0.118	0.169
-239.903	-200.000	0.035	0.401
-238.888	-200.000	-0.053	0.236
-237.873	150.351	-0.082	-0.111
-236.859	264.452	0.094	0.163
-235.844	-86.033	-0.106	-0.033
-234.830	-31.691	-0.157	-0.088
-233.815	-14.177	0.174	-0.111
-232.800	-164.028	-0.395	-0.018
-231.786	-122.569	0.496	-0.080
-230.771	6.640	-0.135	-0.100
-229.757	74.385	0.149	0.156
-228.742	-200.000	-0.003	0.255
-227.727	800.000	-0.067	0.213
-226.713	193.973	-0.073	0.109
-225.698	71.220	0.203	-0.210
-224.684	-53.160	-0.290	-0.132
-223.669	90.150	-0.260	0.289
-222.655	-115.092	-0.489	0.092
-221.640	119.172	-0.066	0.082
-220.625	279.180	-0.075	-0.133
-219.611	26.730	0.106	-0.088
-218.596	-49.370	0.311	0.148
-217.582	-65.079	0.325	0.130
-216.567	-131.956	-0.163	-0.021
-215.552	-67.046	0.060	0.024
-214.538	488.164	0.182	0.412
-213.523	-147.633	-0.395	-0.033
-212.509	-59.046	0.290	-0.124
-211.494	11.963	0.120	0.091
-210.479	43.902	-0.179	0.163
-209.465	-80.172	0.115	-0.038
-208.450	-200.000	-0.011	0.165
-207.436	-98.339	-0.275	0.070
-206.421	502.543	-0.053	0.122
-205.406	-200.000	-0.029	-0.214
-204.392	-200.000	-0.001	0.450
-203.377	-200.000	-0.036	-0.198
-202.363	95.464	-0.054	-0.061
-201.348	567.208	-0.080	0.192
-200.333	45.133	-0.064	-0.058
-199.319	-11.290	-0.195	0.128
-198.304	-200.000	0.016	-0.103
-197.290	-73.223	0.272	-0.099
-196.275	209.251	0.146	-0.227
-195.260	9.772	-0.271	-0.204
-194.246	-200.000	-0.025	-0.199
-193.231	800.000	-0.047	0.195
-192.217	76.551	0.260	-0.273
-191.202	-88.728	-0.062	-0.018
-190.187	-93.476	-0.100	-0.028
-189.173	-166.992	0.272	-0.011
-188.158	-200.000	-0.047	0.225
-187.144	29.063	-0.260	0.219
-186.129	117.045	0.148	-0.180
-185.114	406.306	0.015	-0.031
-184.100	10.431	0.229	0.173
-183.085	-124.243	0.254	0.039
-182.071	-84.371	-0.258	-0.081
-181.056	61.759	0.196	-0.193
-180.042	-3.836	-0.227	-0.156
-179.027	361.978	-0.177	0.352
-178.012	106.945	0.347	0.409
-176.998	312.558	-0.034	0.063
-175.983	-95.210	0.571	-0.153
-174.969	-98.143	0.261	-0.067
-173.954	-45.882	0.129	-0.063
-172.939	-61.005	-0.226	-0.095
-171.925	-45.543	0.334	-0.164
-170.910	248.812	-0.065	0.110
-169.896	-193.574	0.275	-0.002
-168.881	-200.000	-0.022	-0.123
-167.866	-63.876	-0.171	-0.069
-166.852	295.662	0.116	-0.211
-165.837	234.717	-0.179	-0.293
-164.823	231.931	0.115	0.187
-163.808	-200.000	0.107	0.000
-162.793	-63.549	0.353	0.144
-161.779	-139.497	0.194	-0.021
-160.764	-64.510	-0.102	0.041
-159.750	-200.000	0.002	-0.206
-158.735	32.274	0.139	-0.119
-157.720	-200.000	0.033	-0.162
-156.706	-200.000	0.021	0.149
-155.691	-200.000	-0.019	0.699
-154.677	35.686	0.104	-0.090
-153.662	-200.000	-0.027	-0.220
-152.647	-97.065	0.154	-0.040
-151.633	800.000	-0.008	-0.029
-150.618	-4.996	0.143	-0.097
-149.604	800.000	0.046	-0.156
-148.589	312.865	0.132	-0.246
-147.574	-19.442	0.176	-0.108
-146.560	-63.209	-0.184	-0.075
-145.545	-163.135	0.065	-0.003
-144.531	84.108	0.137	0.148
-143.516	-89.658	0.062	-0.018
-142.502	-200.000	0.039	-0.293
-141.487	-106.050	-0.345	-0.077
-140.472	14.786	-0.180	0.140
-139.458	116.413	-0.211	0.256
-138.443	800.000	0.036	0.147
-137.429	800.000	-0.019	0.069
-136.414	800.000	-0.050	0.206
-135.399	-51.524	0.117	-0.054
-134.385	89.550	0.289	0.320
-133.370	66.149	0.225	0.226
-132.356	-3.553	-0.214	0.147
-131.341	-143.103	0.297	-0.028
-130.326	-169.895	0.054	0.002
-129.312	66.387	0.268	0.269
-128.297	-200.000	0.009	-0.180
-127.283	-41.678	0.157	-0.080
-126.268	-0.061	-0.081	0.057
-125.253	-41.932	-0.128	0.065
-124.239	66.073	-0.077	0.077
-123.224	-33.396	0.161	-0.088
-122.210	23.417	0.036	0.030
