DTS Sentinel unit serial number:	SN413079Multiplexer serial number:	ORYXHardware model number:	OX4-SRSoftware version number:	ORYX F/W v4.00 Oryx Data Collector v3.7.2.0data status	okinstallation	princeton_trtdifferential loss correction	single-endedforward channel	channel 1reverse channel	N/Adate	2019/09/17time	09:38:36forward acquisition time	60.00reverse acquisition time	0.00gamma	496.2192k internal	0.2323k external	0.2323temperature offset calibration	0.9959default loss term (dB/km)	0.3790temperature slope calibration	1.0000multiplexer offset coefficient	1.0000multiplexer slope coefficient	1.0000fibre end	0.00T internal ref (°C)	29.19T ext. ref 1 (°C)	0.15T ext. ref 2 (°C)	25.42length (m)	temperature (°C)	Stokes	anti-Stokes-747.200	-14.405	0.223	-0.145
-746.185	380.853	0.025	0.051
-745.171	-26.721	-0.136	-0.080
-744.156	-134.030	-0.419	0.052
-743.142	-44.884	-0.295	0.148
-742.127	-70.595	-0.304	-0.116
-741.112	549.485	-0.034	-0.082
-740.098	-99.222	-0.406	0.103
-739.083	154.907	0.122	0.169
-738.069	800.000	-0.067	0.287
-737.054	50.867	-0.152	-0.146
-736.039	-78.850	-0.159	-0.055
-735.025	800.000	0.025	-0.082
-734.010	116.110	-0.338	0.418
-732.996	-200.000	0.070	-0.372
-731.981	132.489	0.119	-0.155
-730.966	800.000	0.053	0.212
-729.952	-11.672	-0.274	-0.182
-728.937	800.000	-0.123	-0.383
-727.923	-21.878	-0.173	-0.106
-726.908	-87.662	0.345	-0.105
-725.894	196.804	0.053	-0.082
-724.879	-8.807	0.147	0.100
-723.864	-200.000	0.029	0.337
-722.850	-172.901	0.091	-0.003
-721.835	800.000	-0.070	-0.295
-720.821	284.028	-0.153	0.277
-719.806	800.000	0.052	-0.157
-718.791	-20.545	0.236	-0.146
-717.777	11.338	-0.150	0.116
-716.762	174.757	-0.251	-0.366
-715.748	-200.000	-0.072	0.420
-714.733	85.566	-0.143	0.158
-713.718	-200.000	-0.023	0.194
-712.704	-200.000	0.015	-0.199
-711.689	60.172	0.136	-0.136
-710.675	0.404	0.226	0.163
-709.660	130.437	-0.142	0.184
-708.645	529.125	0.022	0.053
-707.631	-11.619	-0.217	-0.144
-706.616	-30.852	-0.224	-0.127
-705.602	-200.000	0.319	-0.001
-704.587	-104.157	-0.245	-0.057
-703.572	206.313	-0.119	-0.186
-702.558	25.523	-0.285	-0.239
-701.543	-35.588	0.156	0.085
-700.529	172.965	-0.184	-0.267
-699.514	70.319	-0.184	-0.192
-698.499	-83.627	-0.226	-0.073
-697.485	-90.095	-0.104	0.030
-696.470	-200.000	0.027	-0.314
-695.456	458.299	0.085	-0.190
-694.441	87.571	-0.108	-0.121
-693.426	453.046	-0.113	-0.252
-692.412	10.425	-0.207	-0.159
-691.397	157.689	0.182	-0.254
-690.383	120.257	0.051	0.064
-689.368	-133.726	0.218	-0.027
-688.354	-200.000	-0.023	-0.141
-687.339	-177.111	-0.460	0.012
-686.324	261.732	-0.140	0.244
-685.310	-150.097	0.150	-0.012
-684.295	221.437	0.143	0.231
-683.281	167.385	0.135	0.193
-682.266	27.839	-0.208	0.177
-681.251	-155.604	0.160	-0.010
-680.237	-200.000	-0.002	0.251
-679.222	67.132	-0.176	0.181
-678.208	-68.330	0.203	-0.079
-677.193	593.082	-0.052	0.129
-676.178	800.000	0.084	-0.325
-675.164	-125.432	0.419	-0.064
-674.149	-128.811	-0.168	-0.024
-673.135	489.291	-0.082	0.188
-672.120	-200.000	0.016	0.326
-671.105	-200.000	-0.005	0.059
-670.091	-200.000	0.017	0.167
-669.076	-200.000	0.070	-0.490
-668.062	685.575	-0.163	-0.430
-667.047	710.777	0.029	-0.076
-666.032	-72.048	-0.046	0.017
-665.018	99.470	0.051	0.059
-664.003	800.000	-0.135	-0.488
-662.989	800.000	-0.035	-0.117
-661.974	192.773	0.145	0.220
-660.959	-101.615	-0.445	0.109
-659.945	-200.000	0.006	0.087
-658.930	-66.825	-0.094	-0.037
-657.916	166.775	0.151	-0.215
-656.901	-200.000	0.017	0.115
-655.886	-122.137	0.316	0.052
-654.872	-162.697	-0.213	-0.011
-653.857	-200.000	-0.001	-0.133
-652.843	103.090	0.009	-0.011
-651.828	329.564	0.083	0.161
-650.814	800.000	-0.086	-0.291
-649.799	149.743	-0.093	0.127
-648.784	-147.714	-0.245	0.021
-647.770	105.350	0.185	-0.220
-646.755	-114.624	-0.182	0.035
-645.741	800.000	-0.084	0.323
-644.726	-145.779	0.231	0.021
-643.711	223.250	0.066	0.107
-642.697	631.134	-0.083	0.211
-641.682	-86.660	-0.147	0.045
-640.668	-72.813	-0.298	-0.110
-639.653	-78.860	0.326	-0.112
-638.638	-100.498	0.255	0.063
-637.624	-61.659	-0.228	-0.096
-636.609	115.929	-0.091	-0.112
-635.595	18.202	0.284	-0.228
-634.580	414.916	-0.142	0.303
-633.565	124.740	-0.242	0.306
-632.551	-72.672	0.211	-0.078
-631.536	3.443	-0.197	-0.144
-630.522	-55.177	-0.267	0.121
-629.507	-70.425	0.108	-0.041
-628.492	-91.149	0.395	0.114
-627.478	30.721	-0.166	-0.142
-626.463	24.880	0.201	-0.167
-625.449	132.313	-0.261	-0.338
-624.434	-47.318	0.150	-0.073
-623.419	145.137	0.137	0.185
-622.405	800.000	0.027	-0.076
-621.390	416.185	0.112	-0.240
-620.376	278.618	-0.057	0.102
-619.361	-38.674	0.291	-0.154
-618.346	-42.093	0.266	-0.137
-617.332	-154.283	-0.095	-0.006
-616.317	379.020	0.054	-0.112
-615.303	800.000	0.010	0.030
-614.288	548.825	0.020	0.049
-613.273	-41.612	-0.203	-0.105
-612.259	800.000	0.006	-0.018
-611.244	-200.000	0.004	0.251
-610.230	-200.000	0.053	0.299
-609.215	-84.337	-0.129	0.041
-608.201	566.393	-0.127	0.310
-607.186	-93.296	-0.200	0.056
-606.171	-200.000	-0.034	-0.228
-605.157	40.508	-0.071	-0.064
-604.142	-18.535	-0.069	0.043
-603.128	450.639	0.015	0.033
-602.113	-200.000	0.010	0.197
-601.098	-200.000	0.012	-0.161
-600.084	-200.000	0.048	0.300
-599.069	-200.000	0.003	0.035
-598.055	-33.770	0.288	-0.159
-597.040	-106.488	-0.160	0.036
-596.025	800.000	-0.044	-0.163
-595.011	39.846	-0.166	-0.150
-593.996	-29.532	0.105	0.060
-592.982	-84.213	-0.076	-0.024
-591.967	190.437	0.116	0.176
-590.952	-117.349	-0.160	0.029
-589.938	-85.041	0.283	-0.089
-588.923	286.230	-0.036	0.066
-587.909	-97.491	0.236	0.061
-586.894	129.373	-0.169	-0.216
-585.879	-97.389	-0.298	-0.078
-584.865	-200.000	-0.016	0.208
-583.850	772.169	0.153	0.418
-582.836	-32.613	0.288	-0.161
-581.821	-103.952	0.022	0.005
-580.806	-17.837	0.097	-0.061
-579.792	-133.673	-0.133	0.017
-578.777	800.000	0.024	-0.090
-577.763	-200.000	0.018	0.198
-576.748	-8.119	-0.283	-0.192
-575.733	51.000	-0.104	0.099
-574.719	-200.000	0.003	0.065
-573.704	30.902	0.156	-0.134
-572.690	-17.961	0.243	-0.153
-571.675	-134.397	-0.053	0.007
-570.661	800.000	-0.057	0.223
-569.646	-190.209	0.162	0.002
-568.631	80.348	-0.228	0.246
-567.617	71.006	0.074	-0.076
-566.602	-14.644	0.097	-0.062
-565.588	800.000	0.062	-0.221
-564.573	220.899	-0.106	-0.170
-563.558	11.684	0.141	-0.109
-562.544	-200.000	0.028	-0.244
-561.529	451.953	0.083	0.184
-560.515	31.428	-0.136	-0.117
-559.500	-200.000	0.002	-0.049
-558.485	-67.636	-0.240	-0.094
-557.471	157.569	0.047	-0.065
-556.456	52.029	-0.168	0.160
-555.442	-200.000	0.065	0.298
-554.427	-124.432	-0.148	-0.023
-553.412	-200.000	0.053	-0.257
-552.398	-11.287	0.343	-0.227
-551.383	800.000	0.065	-0.248
-550.369	4.803	-0.145	0.107
-549.354	80.736	-0.156	-0.169
-548.339	-200.000	-0.062	-0.348
-547.325	150.321	-0.159	0.217
-546.310	53.203	-0.284	0.273
-545.296	74.876	-0.096	-0.101
-544.281	-80.782	0.133	-0.044
-543.266	-121.081	0.225	-0.038
-542.252	-41.495	-0.273	-0.140
-541.237	-170.446	-0.123	-0.004
-540.223	457.728	-0.033	0.073
-539.208	-200.000	-0.019	-0.130
-538.193	-146.889	-0.149	0.013
-537.179	-114.764	0.150	-0.029
-536.164	-4.991	-0.244	-0.169
-535.150	-200.000	0.020	-0.106
-534.135	-200.000	0.014	-0.076
-533.121	-173.755	-0.289	-0.009
-532.106	108.433	0.254	-0.304
-531.091	-85.688	0.259	0.080
-530.077	131.851	0.059	-0.076
-529.062	-114.812	0.053	-0.010
-528.048	-123.702	-0.359	-0.057
-527.033	-100.679	-0.315	-0.078
-526.018	35.982	-0.098	0.086
-525.004	-79.595	-0.283	0.096
-523.989	-70.371	0.255	-0.097
-522.975	800.000	-0.109	-0.326
-521.960	-186.269	0.448	0.007
-520.945	-123.958	0.055	-0.009
-519.931	250.035	-0.196	0.332
-518.916	-84.094	0.139	-0.044
-517.902	494.750	-0.027	0.062
-516.887	-9.921	-0.240	0.160
-515.872	215.831	-0.128	0.203
-514.858	-200.000	-0.088	0.447
-513.843	37.600	-0.262	-0.233
-512.829	-200.000	0.043	0.343
-511.814	-200.000	-0.005	-0.111
-510.799	-200.000	0.038	0.259
-509.785	63.021	-0.150	0.150
-508.770	376.681	-0.150	-0.306
-507.756	-24.844	-0.229	-0.136
-506.741	800.000	-0.032	0.140
-505.726	-75.767	-0.056	0.020
-504.712	-72.745	-0.150	0.055
-503.697	-123.776	0.313	-0.049
-502.683	343.097	0.083	0.163
-501.668	348.128	0.070	0.138
-500.653	-131.493	-0.107	-0.014
-499.639	-200.000	0.063	0.378
-498.624	333.296	-0.093	0.180
-497.610	-200.000	-0.009	0.039
-496.595	16.663	-0.271	0.214
-495.581	77.775	0.078	-0.083
-494.566	47.081	-0.165	-0.154
-493.551	-150.456	0.187	0.014
-492.537	-94.345	0.130	-0.036
-491.522	-105.864	-0.291	0.066
-490.508	-55.872	-0.291	0.130
-489.493	-200.000	-0.024	-0.190
-488.478	34.363	-0.216	-0.188
-487.464	-56.209	-0.060	-0.027
-486.449	180.054	0.198	0.291
-485.435	-200.000	-0.088	-0.400
-484.420	465.330	-0.043	-0.095
-483.405	708.216	0.047	0.124
-482.391	-165.606	0.188	-0.008
-481.376	-173.989	-0.173	-0.005
-480.362	-174.747	-0.183	-0.005
-479.347	-200.000	-0.020	-0.190
-478.332	-65.659	-0.074	0.030
-477.318	498.552	-0.127	0.292
-476.303	-200.000	0.015	-0.128
-475.289	371.893	-0.109	0.221
-474.274	-93.931	0.172	-0.047
-473.259	18.308	0.196	-0.156
-472.245	464.855	-0.186	0.415
-471.230	29.744	-0.142	0.121
-470.216	239.417	-0.157	-0.261
-469.201	154.018	-0.208	0.285
-468.186	135.542	0.275	0.358
-467.172	-53.957	-0.222	-0.101
-466.157	-200.000	0.012	0.131
-465.143	111.828	0.320	0.386
-464.128	-17.773	-0.293	0.184
-463.113	83.065	-0.020	0.022
-462.099	-128.849	-0.178	0.025
-461.084	800.000	-0.098	0.358
-460.070	-153.312	0.471	-0.033
-459.055	101.851	0.184	0.215
-458.040	487.338	-0.130	-0.295
-457.026	108.016	-0.041	-0.049
-456.011	800.000	0.038	0.133
-454.997	62.720	0.024	0.024
-453.982	-200.000	-0.013	-0.105
-452.968	171.967	0.105	0.151
-451.953	57.619	0.089	0.087
-450.938	41.424	-0.257	-0.232
-449.924	502.115	-0.064	-0.148
-448.909	-200.000	0.038	0.197
-447.895	27.587	-0.122	0.102
-446.880	0.434	-0.196	0.140
-445.865	-129.767	-0.295	0.041
-444.851	-200.000	-0.011	-0.106
-443.836	-96.266	0.086	0.023
-442.822	-200.000	-0.036	0.212
-441.807	-200.000	-0.002	0.210
-440.792	-200.000	-0.046	0.636
-439.778	113.449	0.318	-0.385
-438.763	-33.424	-0.198	0.109
-437.749	-30.286	0.192	0.109
-436.734	-69.917	-0.085	0.032
-435.719	-200.000	-0.007	-0.069
-434.705	34.845	-0.018	0.015
-433.690	-11.424	0.313	0.205
-432.676	8.518	-0.415	0.312
-431.661	-135.897	-0.386	-0.045
-430.646	-132.369	-0.032	0.004
-429.632	-100.271	-0.245	0.061
-428.617	-200.000	-0.052	0.240
-427.603	-79.927	-0.095	-0.032
-426.588	161.646	0.017	0.023
-425.573	114.820	-0.103	-0.126
-424.559	800.000	-0.058	0.218
-423.544	-200.000	0.028	0.464
-422.530	213.899	-0.125	0.197
-421.515	-200.000	0.006	-0.092
-420.500	8.325	0.146	-0.110
-419.486	461.118	0.191	-0.425
-418.471	322.633	-0.038	-0.072
-417.457	-200.000	0.019	0.152
-416.442	-67.222	0.028	0.011
-415.428	800.000	0.185	-0.517
-414.413	77.134	0.123	-0.130
-413.398	-147.260	0.282	0.024
-412.384	-200.000	-0.044	0.293
-411.369	-82.614	-0.222	-0.072
-410.355	-22.742	-0.141	-0.085
-409.340	-136.025	0.101	-0.012
-408.325	-66.996	-0.316	0.124
-407.311	-129.815	-0.259	-0.035
-406.296	-136.788	0.194	-0.022
-405.282	255.645	0.168	-0.287
-404.267	240.877	0.036	0.060
-403.252	297.011	0.048	0.089
-402.238	-119.614	-0.121	0.021
-401.223	800.000	-0.116	0.335
-400.209	-200.000	-0.002	-0.340
-399.194	-30.932	0.164	0.092
-398.179	-200.000	0.010	0.049
-397.165	-50.163	0.210	-0.099
-396.150	800.000	-0.112	-0.467
-395.136	18.236	0.260	-0.207
-394.121	800.000	0.029	0.113
-393.106	501.261	-0.021	-0.048
-392.092	494.825	0.030	0.068
-391.077	-200.000	-0.002	0.060
-390.063	800.000	0.156	0.538
-389.048	-9.145	0.435	-0.290
-388.033	-200.000	-0.012	0.288
-387.019	800.000	0.172	0.514
-386.004	-116.522	-0.132	-0.024
-384.990	-48.282	0.132	0.064
-383.975	-108.304	0.182	0.039
-382.960	-139.841	-0.365	0.038
-381.946	800.000	0.101	-0.337
-380.931	800.000	-0.117	-0.324
-379.917	-11.241	0.196	0.129
-378.902	-200.000	0.061	0.315
-377.888	-33.448	0.157	-0.086
-376.873	601.158	0.104	0.256
-375.858	-200.000	-0.001	-0.060
-374.844	-138.001	-0.234	0.026
-373.829	-107.967	0.071	0.015
-372.815	43.829	-0.315	0.287
-371.800	29.559	0.206	-0.174
-370.785	-9.934	-0.196	-0.130
-369.771	800.000	-0.063	-0.195
-368.756	120.289	0.045	-0.056
-367.742	76.839	0.322	0.340
-366.727	800.000	0.076	-0.324
-365.712	-158.238	-0.191	0.011
-364.698	247.963	-0.159	-0.268
-363.683	800.000	0.070	-0.270
-362.669	800.000	-0.058	0.233
-361.654	228.504	0.119	0.193
-360.639	-141.221	0.129	-0.013
-359.625	683.937	-0.055	0.142
-358.610	542.348	0.128	-0.304
-357.596	-200.000	0.055	0.356
-356.581	32.530	0.244	-0.209
-355.566	800.000	-0.086	-0.277
-354.552	167.480	-0.033	0.046
-353.537	800.000	-0.056	-0.173
-352.523	593.691	0.088	-0.217
-351.508	-200.000	0.037	-0.167
-350.493	-75.180	0.175	0.062
-349.479	83.773	-0.155	-0.168
-348.464	-200.000	0.051	0.464
-347.450	39.087	-0.107	0.095
-346.435	785.696	0.054	-0.146
-345.420	-200.000	0.014	-0.385
-344.406	-200.000	0.008	-0.208
-343.391	-61.433	0.175	0.073
-342.377	60.612	0.141	0.139
-341.362	225.057	-0.269	0.433
-340.348	-200.000	-0.065	0.364
-339.333	-84.875	-0.071	0.022
-338.318	-14.784	-0.123	-0.078
-337.304	-94.850	-0.042	-0.011
-336.289	53.813	0.230	0.220
-335.275	-200.000	0.018	0.127
-334.260	-200.000	0.020	-0.396
-333.245	-28.769	0.046	-0.026
-332.231	23.773	0.141	0.116
-331.216	49.436	0.228	-0.213
-330.202	146.114	-0.339	-0.451
-329.187	39.778	-0.132	0.117
-328.172	276.983	-0.020	-0.035
-327.158	777.957	0.022	0.058
-326.143	-5.225	-0.256	0.175
-325.129	103.589	0.152	-0.177
-324.114	-41.848	-0.244	0.124
-323.099	153.596	-0.116	0.158
-322.085	-48.014	-0.209	-0.100
-321.070	-104.791	-0.228	-0.052
-320.056	-200.000	0.007	0.374
-319.041	308.474	-0.116	0.215
-318.026	800.000	0.150	-0.449
-317.012	-155.595	0.497	0.032
-315.997	-109.766	-0.235	0.049
-314.983	56.061	-0.244	-0.235
-313.968	38.176	-0.071	-0.063
-312.953	32.332	-0.320	0.274
-311.939	-92.890	0.284	-0.079
-310.924	71.154	0.092	-0.094
-309.910	-40.328	-0.185	-0.095
-308.895	-124.252	-0.148	0.023
-307.880	6.476	-0.132	-0.097
-306.866	-32.276	0.471	-0.261
-305.851	800.000	-0.177	-0.529
-304.837	-128.647	-0.036	0.005
-303.822	311.521	0.045	0.084
-302.807	63.608	0.035	-0.035
-301.793	268.609	0.178	-0.309
-300.778	-142.525	-0.261	-0.025
-299.764	-54.127	-0.110	0.050
-298.749	-67.365	-0.038	-0.015
-297.735	-151.609	-0.071	0.005
-296.720	348.001	-0.050	0.099
-295.705	-103.475	0.197	-0.046
-294.691	-160.476	-0.087	-0.005
-293.676	13.000	0.276	-0.212
-292.662	-85.188	-0.319	-0.099
-291.647	521.724	0.089	-0.206
-290.632	800.000	-0.103	-0.328
-289.618	52.194	0.263	0.249
-288.603	345.800	0.048	0.094
-287.589	359.878	-0.046	0.091
-286.574	320.486	0.058	0.109
-285.559	59.860	0.133	-0.131
-284.545	-33.305	0.225	-0.124
-283.530	69.303	0.231	0.236
-282.516	154.682	0.028	-0.038
-281.501	781.594	-0.043	0.117
-280.486	160.971	-0.112	-0.155
-279.472	-200.000	0.035	-0.236
-278.457	172.239	0.110	-0.157
-277.443	-72.454	-0.144	0.053
-276.428	42.408	0.085	0.076
-275.413	-200.000	0.043	-0.264
-274.399	-44.764	0.212	0.105
-273.384	7.705	-0.219	0.163
-272.370	-84.689	0.174	-0.054
-271.355	160.423	0.220	-0.304
-270.340	228.482	-0.167	0.270
-269.326	15.196	-0.107	0.083
-268.311	491.996	0.112	-0.253
-267.297	111.752	-0.225	-0.269
-266.282	-124.925	0.193	-0.029
-265.267	84.184	-0.257	0.278
-264.253	186.341	0.183	0.270
-263.238	11.888	0.378	-0.288
-262.224	12.629	0.225	-0.172
-261.209	800.000	0.077	-0.213
-260.195	247.691	0.118	-0.197
-259.180	-200.000	-0.003	-0.068
-258.165	-93.634	0.228	0.062
-257.151	3.287	0.143	0.103
-256.136	-200.000	0.011	-0.100
-255.122	41.743	0.205	0.184
-254.107	181.119	0.230	0.334
-253.092	-46.751	-0.253	-0.123
-252.078	-200.000	0.003	-0.290
-251.063	-61.849	0.195	-0.081
-250.049	699.424	-0.038	0.099
-249.034	-200.000	0.022	-0.222
-248.019	361.124	-0.045	-0.089
-247.005	-67.064	-0.219	0.085
-245.990	-85.302	0.288	0.089
-244.976	-200.000	-0.095	0.430
-243.961	367.086	-0.074	-0.149
-242.946	2.405	-0.200	0.143
-241.932	36.509	0.097	-0.085
-240.917	-182.671	-0.223	0.004
-239.903	-67.128	0.169	0.066
-238.888	163.927	0.165	0.229
-237.873	-51.198	0.388	0.180
-236.859	80.263	-0.211	0.225
-235.844	800.000	0.033	-0.125
-234.830	800.000	-0.090	0.388
-233.815	800.000	0.070	-0.267
-232.800	-1.911	-0.261	-0.182
-231.786	663.048	0.101	-0.257
-230.771	175.984	-0.180	-0.259
-229.757	82.505	-0.020	-0.022
-228.742	-200.000	-0.014	-0.224
-227.727	84.260	-0.126	-0.136
-226.713	-122.923	0.201	-0.032
-225.698	800.000	0.062	-0.195
-224.684	422.307	0.135	-0.287
-223.669	129.533	0.114	-0.144
-222.655	-110.015	-0.226	-0.047
-221.640	-47.997	0.367	-0.176
-220.625	125.275	-0.149	0.186
-219.611	-101.896	-0.119	-0.029
-218.596	-17.556	0.074	0.046
-217.582	115.174	-0.150	-0.181
-216.567	147.112	-0.162	0.215
-215.552	15.915	-0.257	-0.200
-214.538	-45.059	-0.171	0.084
-213.523	99.805	-0.081	0.093
-212.509	128.791	0.184	0.232
-211.494	-179.101	0.501	0.011
-210.479	60.404	-0.402	-0.394
-209.465	-41.893	0.114	0.058
-208.450	-117.507	0.385	-0.069
-207.436	-102.166	0.160	-0.038
-206.421	-200.000	-0.015	-0.156
-205.406	800.000	-0.064	-0.196
-204.392	800.000	-0.045	-0.170
-203.377	-101.099	0.132	0.032
-202.363	-200.000	-0.008	-0.045
-201.348	-200.000	0.041	-0.249
-200.333	29.389	0.271	-0.227
-199.319	-93.330	0.434	0.119
-198.304	17.167	-0.052	-0.041
-197.290	-200.000	0.040	-0.298
-196.275	222.850	-0.125	0.199
-195.260	-63.912	0.327	0.132
-194.246	-200.000	0.009	0.467
-193.231	-200.000	-0.034	0.220
-192.217	-110.709	0.073	-0.015
-191.202	243.973	-0.086	0.143
-190.187	-200.000	-0.005	-0.170
-189.173	171.659	0.219	0.311
-188.158	154.522	-0.134	0.182
-187.144	-181.438	-0.068	0.001
-186.129	278.871	0.169	-0.298
-185.114	-200.000	-0.030	-0.244
-184.100	-49.384	-0.292	0.138
-183.085	800.000	-0.080	0.281
-182.071	136.612	0.056	0.072
-181.056	-56.560	0.104	0.046
-180.042	-91.417	0.133	-0.038
-179.027	241.562	0.033	0.054
-178.012	-53.558	-0.108	-0.049
-176.998	53.348	-0.142	0.134
-175.983	-102.209	-0.201	0.048
-174.969	107.517	0.053	-0.062
-173.954	731.368	0.077	-0.204
-172.939	153.977	0.121	0.163
-171.925	-98.030	0.429	0.109
-170.910	16.000	-0.335	0.260
-169.896	759.007	0.069	-0.185
-168.881	-200.000	-0.005	-0.147
-167.866	-69.965	-0.051	0.019
-166.852	-200.000	0.035	0.169
-165.837	800.000	0.051	0.186
-164.823	17.670	0.207	0.162
-163.808	-64.807	-0.018	-0.007
-162.793	-58.573	0.253	0.108
-161.779	43.271	-0.247	0.223
-160.764	480.396	0.127	-0.284
-159.750	15.480	0.194	-0.150
-158.735	21.659	0.114	-0.091
-157.720	-148.044	0.230	0.019
-156.706	-106.566	0.333	-0.073
-155.691	-200.000	0.015	-0.109
-154.677	-61.651	-0.144	-0.059
-153.662	-142.050	-0.144	0.014
-152.647	-101.989	-0.257	0.061
-151.633	643.520	0.019	-0.048
-150.618	197.943	-0.212	0.320
-149.604	133.937	-0.097	-0.123
-148.589	472.888	-0.102	-0.227
-147.574	26.633	-0.256	0.211
-146.560	800.000	0.096	0.265
-145.545	-98.663	-0.239	0.060
-144.531	-200.000	0.022	0.179
-143.516	119.626	-0.069	0.085
-142.502	72.890	-0.080	-0.083
-141.487	-200.000	-0.039	0.326
-140.472	-59.559	0.103	-0.044
-139.458	83.476	-0.168	0.181
-138.443	800.000	0.107	0.294
-137.429	-30.136	0.138	0.077
-136.414	103.269	-0.326	-0.377
-135.399	-23.562	0.312	-0.185
-134.385	800.000	-0.129	0.430
-133.370	135.996	0.044	0.056
-132.356	-21.499	-0.121	0.073
-131.341	22.355	0.069	0.056
-130.326	-79.091	0.075	0.025
-129.312	-8.800	-0.122	-0.081
-128.297	-200.000	0.080	0.355
-127.283	90.549	-0.147	0.162
-126.268	32.041	0.036	0.030
-125.253	800.000	0.085	0.301
-124.239	-66.469	-0.310	-0.121
-123.224	800.000	0.051	-0.157
-122.210	-108.906	0.162	-0.034
-121.195	-200.000	0.007	0.148
