DTS Sentinel unit serial number:	SN413079Multiplexer serial number:	ORYXHardware model number:	OX4-SRSoftware version number:	ORYX F/W v4.00 Oryx Data Collector v3.7.2.0data status	okinstallation	princeton_trtdifferential loss correction	single-endedforward channel	channel 1reverse channel	N/Adate	2019/09/11time	14:00:11forward acquisition time	60.00reverse acquisition time	0.00gamma	496.2192k internal	0.2294k external	0.2294temperature offset calibration	0.9981default loss term (dB/km)	0.3790temperature slope calibration	1.0000multiplexer offset coefficient	1.0000multiplexer slope coefficient	1.0000fibre end	0.00T internal ref (°C)	41.89T ext. ref 1 (°C)	0.86T ext. ref 2 (°C)	37.50length (m)	temperature (°C)	Stokes	anti-Stokes-747.200	800.000	-0.088	-0.315
-746.185	-115.504	-0.271	-0.052
-745.171	-200.000	0.022	0.262
-744.156	-22.481	-0.100	0.062
-743.142	11.291	-0.351	-0.275
-742.127	800.000	-0.034	0.120
-741.112	159.250	-0.218	0.310
-740.098	65.941	0.081	0.084
-739.083	49.031	0.223	-0.215
-738.069	-186.531	0.193	-0.003
-737.054	-117.833	0.242	-0.044
-736.039	-75.869	-0.042	-0.015
-735.025	151.942	0.232	0.323
-734.010	39.194	-0.238	0.218
-732.996	-50.912	0.095	0.046
-731.981	-27.688	-0.106	-0.063
-730.966	800.000	-0.087	-0.264
-729.952	-146.622	0.212	-0.019
-728.937	184.187	-0.017	-0.025
-727.923	82.312	0.014	-0.015
-726.908	-11.902	-0.423	-0.283
-725.894	290.448	0.049	-0.092
-724.879	35.801	-0.238	-0.214
-723.864	-102.578	-0.484	-0.118
-722.850	674.015	0.055	0.146
-721.835	-68.342	-0.109	0.043
-720.821	45.223	-0.164	-0.154
-719.806	-200.000	0.013	-0.187
-718.791	440.393	0.219	-0.489
-717.777	-6.727	0.167	-0.116
-716.762	174.706	-0.054	0.079
-715.748	-143.761	-0.055	0.005
-714.733	-83.633	0.082	0.027
-713.718	-54.601	-0.260	-0.120
-712.704	800.000	-0.062	-0.254
-711.689	-75.436	-0.167	0.061
-710.675	143.826	0.077	-0.105
-709.660	-200.000	0.046	0.291
-708.645	162.492	0.092	-0.131
-707.631	-194.654	0.257	-0.002
-706.616	491.490	-0.131	0.307
-705.602	-70.343	0.210	0.081
-704.587	93.540	-0.139	-0.160
-703.572	-200.000	0.016	-0.139
-702.558	-200.000	-0.015	-0.273
-701.543	52.594	-0.066	0.065
-700.529	-27.975	-0.355	0.210
-699.514	-200.000	-0.064	0.332
-698.499	-115.133	-0.221	0.043
-697.485	-200.000	-0.010	-0.120
-696.470	-107.086	-0.358	0.081
-695.456	-79.921	-0.115	-0.040
-694.441	219.474	0.097	-0.158
-693.426	289.977	0.181	-0.336
-692.412	623.096	-0.103	-0.266
-691.397	-200.000	-0.007	0.099
-690.383	-200.000	-0.002	0.070
-689.368	43.383	0.050	0.047
-688.354	64.999	0.222	0.228
-687.339	436.174	-0.088	-0.196
-686.324	-200.000	0.071	-0.335
-685.310	800.000	-0.073	0.209
-684.295	208.967	-0.145	-0.231
-683.281	79.951	-0.172	0.188
-682.266	-200.000	0.050	0.389
-681.251	-56.276	0.254	0.115
-680.237	66.894	-0.183	-0.191
-679.222	-148.183	0.567	0.048
-678.208	190.706	0.063	-0.097
-677.193	-46.406	-0.123	-0.061
-676.178	11.938	-0.236	0.185
-675.164	-200.000	0.020	0.315
-674.149	53.840	-0.117	-0.115
-673.135	-18.125	-0.175	-0.112
-672.120	8.178	0.206	-0.158
-671.105	467.211	-0.093	-0.212
-670.091	-66.636	0.101	0.041
-669.076	-200.000	-0.021	-0.149
-668.062	-88.883	-0.209	0.063
-667.047	49.868	-0.155	-0.149
-666.032	118.268	-0.201	0.253
-665.018	-200.000	-0.024	0.235
-664.003	195.327	0.034	-0.053
-662.989	66.541	0.130	-0.135
-661.974	-11.495	-0.029	0.019
-660.959	-200.000	-0.036	-0.174
-659.945	800.000	0.020	-0.064
-658.930	504.920	-0.132	-0.312
-657.916	407.365	-0.068	0.146
-656.901	-73.884	-0.221	-0.082
-655.886	410.974	0.031	0.067
-654.872	-200.000	-0.049	0.262
-653.857	151.770	0.100	0.139
-652.843	37.911	-0.202	-0.183
-651.828	143.334	-0.056	0.075
-650.814	69.587	-0.134	0.141
-649.799	-200.000	-0.407	-0.002
-648.784	-23.169	-0.187	0.114
-647.770	800.000	0.131	0.398
-646.755	7.836	-0.069	-0.053
-645.741	325.275	-0.004	0.008
-644.726	-151.406	-0.041	0.003
-643.711	81.677	-0.134	0.148
-642.697	417.506	0.159	0.346
-641.682	-58.870	0.197	0.087
-640.668	-22.423	-0.111	0.069
-639.653	-6.423	0.175	0.122
-638.638	-16.279	-0.235	0.152
-637.624	-28.411	-0.208	0.122
-636.609	430.213	0.035	-0.077
-635.595	-147.151	0.200	-0.017
-634.580	84.004	-0.023	-0.026
-633.565	-200.000	-0.037	-0.237
-632.551	-40.037	0.276	-0.146
-631.536	800.000	-0.052	-0.153
-630.522	9.488	-0.179	0.138
-629.507	623.553	0.097	0.248
-628.492	-10.450	0.090	0.061
-627.478	-110.001	0.418	0.089
-626.463	-34.151	0.235	0.132
-625.449	33.600	0.088	0.078
-624.434	210.041	-0.203	-0.324
-623.419	122.588	-0.194	0.247
-622.405	-143.727	0.237	0.023
-621.390	-3.924	-0.191	0.135
-620.376	800.000	0.101	-0.339
-619.361	-200.000	0.011	0.148
-618.346	800.000	-0.071	-0.293
-617.332	-28.766	-0.061	0.036
-616.317	-200.000	-0.019	0.091
-615.303	158.845	-0.167	0.237
-614.288	-87.798	-0.413	-0.127
-613.273	13.007	0.034	-0.027
-612.259	169.086	0.111	-0.162
-611.244	79.099	-0.116	-0.126
-610.230	-98.504	-0.114	0.030
-609.215	-33.647	0.380	0.213
-608.201	-200.000	0.034	-0.276
-607.186	450.335	-0.091	-0.204
-606.171	-200.000	0.015	-0.126
-605.157	-165.286	-0.211	0.009
-604.142	-99.484	0.110	0.028
-603.128	-200.000	0.036	0.191
-602.113	-47.588	-0.108	0.054
-601.098	800.000	-0.114	0.411
-600.084	29.913	-0.107	-0.093
-599.069	-14.212	-0.178	-0.117
-598.055	-89.378	-0.290	0.087
-597.040	-102.304	-0.471	-0.115
-596.025	432.372	0.125	-0.275
-595.011	800.000	0.118	-0.468
-593.996	-122.575	0.159	0.026
-592.982	800.000	0.051	-0.166
-591.967	-200.000	-0.030	0.194
-590.952	284.541	-0.138	-0.252
-589.938	106.042	0.130	0.156
-588.923	82.293	0.130	-0.144
-587.909	129.564	-0.040	0.051
-586.894	48.819	0.153	-0.146
-585.879	-103.931	0.243	0.058
-584.865	508.624	-0.083	-0.195
-583.850	577.638	-0.142	-0.353
-582.836	-64.762	0.079	-0.033
-581.821	-71.086	-0.210	-0.080
-580.806	-200.000	0.015	0.241
-579.792	123.556	-0.145	0.185
-578.777	800.000	-0.136	-0.382
-577.763	202.482	-0.128	-0.201
-576.748	-52.306	0.071	0.034
-575.733	-200.000	-0.028	-0.225
-574.719	2.730	-0.164	0.121
-573.704	63.174	-0.329	0.335
-572.690	36.115	0.087	-0.078
-571.675	131.107	-0.164	-0.213
-570.661	100.708	-0.344	0.406
-569.646	331.017	0.121	0.237
-568.631	-200.000	0.008	0.214
-567.617	78.950	-0.176	-0.192
-566.602	-0.859	0.150	-0.108
-565.588	96.244	-0.111	0.129
-564.573	-51.610	0.108	0.051
-563.558	183.107	0.157	-0.236
-562.544	-87.311	-0.287	0.089
-561.529	295.476	0.125	-0.232
-560.515	100.197	0.088	0.104
-559.500	-200.000	0.027	0.275
-558.485	800.000	-0.111	0.342
-557.471	-152.211	0.133	-0.010
-556.456	43.124	0.162	0.150
-555.442	800.000	0.154	-0.447
-554.427	24.749	0.031	0.026
-553.412	163.978	-0.088	-0.126
-552.398	-147.938	0.199	-0.017
-551.383	-22.349	0.071	0.044
-550.369	68.181	-0.204	-0.212
-549.354	-82.942	-0.137	-0.045
-548.339	4.671	-0.158	-0.118
-547.325	-192.559	0.301	0.003
-546.310	-70.966	0.104	-0.040
-545.296	80.635	-0.190	-0.207
-544.281	-129.018	0.035	0.005
-543.266	-200.000	-0.008	-0.334
-542.252	56.815	-0.130	0.128
-541.237	800.000	0.149	0.441
-540.223	-105.663	0.212	0.049
-539.208	-98.575	-0.530	0.137
-538.193	769.246	0.102	-0.281
-537.179	800.000	0.060	-0.197
-536.164	15.863	-0.154	0.123
-535.150	-143.028	0.281	0.028
-534.135	-200.000	-0.009	-0.080
-533.121	-200.000	-0.014	-0.134
-532.106	-181.618	-0.205	-0.004
-531.091	-155.605	-0.332	-0.022
-530.077	6.031	-0.200	-0.151
-529.062	-200.000	0.012	-0.074
-528.048	59.679	-0.189	0.189
-527.033	373.877	-0.162	0.335
-526.018	44.633	-0.217	-0.202
-525.004	-199.683	0.255	-0.001
-523.989	-34.418	-0.335	-0.186
-522.975	684.541	-0.071	0.187
-521.960	800.000	-0.055	0.155
-520.945	398.851	-0.135	0.286
-519.931	124.069	0.219	0.279
-518.916	-112.524	0.125	0.025
-517.902	-200.000	0.011	0.210
-516.887	800.000	-0.086	0.254
-515.872	-200.000	0.048	0.251
-514.858	111.106	-0.120	-0.147
-513.843	-121.990	-0.083	-0.014
-512.829	658.226	-0.088	0.231
-511.814	800.000	0.055	-0.204
-510.799	-1.159	0.222	0.159
-509.785	-200.000	0.049	-0.275
-508.770	22.504	0.059	-0.049
-507.756	-184.795	0.296	-0.005
-506.741	37.265	-0.268	0.241
-505.726	293.286	-0.189	-0.350
-504.712	-145.016	-0.239	0.022
-503.697	-22.912	0.065	0.040
-502.683	171.956	0.176	-0.256
-501.668	-51.932	-0.222	0.105
-500.653	240.001	0.063	-0.106
-499.639	166.473	0.118	-0.169
-498.624	-98.278	-0.125	-0.032
-497.610	-130.144	0.336	0.046
-496.595	30.406	-0.407	0.352
-495.581	-200.000	0.037	-0.232
-494.566	-103.717	0.204	-0.049
-493.551	-200.000	-0.030	0.188
-492.537	-200.000	-0.034	-0.289
-491.522	-187.096	0.543	0.008
-490.508	-200.000	-0.035	0.233
-489.493	800.000	-0.057	-0.235
-488.478	139.965	-0.104	-0.139
-487.464	-72.350	0.412	-0.154
-486.449	-200.000	0.014	0.337
-485.435	-176.956	-0.321	-0.008
-484.420	-114.906	0.361	0.070
-483.405	99.687	0.085	0.100
-482.391	-117.016	0.227	0.042
-481.376	585.900	0.077	-0.191
-480.362	-0.794	-0.048	0.034
-479.347	800.000	0.106	0.301
-478.332	254.708	0.092	-0.160
-477.318	-200.000	0.005	-0.121
-476.303	159.332	-0.125	0.176
-475.289	-200.000	-0.002	-0.152
-474.274	800.000	-0.097	0.317
-473.259	-200.000	0.023	0.111
-472.245	60.637	0.117	-0.118
-471.230	61.301	-0.055	-0.055
-470.216	800.000	-0.064	-0.217
-469.201	-129.610	-0.119	0.017
-468.186	-24.721	0.159	-0.096
-467.172	391.693	0.060	0.126
-466.157	-200.000	-0.072	-0.484
-465.143	95.026	0.032	-0.036
-464.128	-41.645	-0.213	-0.111
-463.113	7.958	0.098	0.074
-462.099	31.599	-0.147	0.128
-461.084	264.935	0.140	-0.246
-460.070	208.100	-0.220	0.348
-459.055	-119.392	-0.119	0.021
-458.040	800.000	0.105	0.426
-457.026	-95.284	0.096	0.026
-456.011	79.472	0.119	-0.129
-454.997	-170.667	0.098	-0.003
-453.982	-160.676	0.144	0.008
-452.968	-2.259	0.263	-0.187
-451.953	-119.371	0.226	0.040
-450.938	-200.000	0.040	-0.181
-449.924	-200.000	0.002	0.232
-448.909	268.308	0.226	0.401
-447.895	-96.838	-0.281	-0.075
-446.880	-107.993	0.248	0.054
-445.865	-120.492	-0.185	0.032
-444.851	-151.692	0.152	-0.011
-443.836	98.514	0.157	-0.183
-442.822	-42.276	-0.152	-0.078
-441.807	-104.175	-0.139	-0.033
-440.792	-125.384	-0.264	-0.041
-439.778	-70.735	0.415	-0.158
-438.763	-48.443	-0.093	-0.045
-437.749	800.000	0.059	0.188
-436.734	-28.517	-0.110	0.064
-435.719	35.701	0.214	0.190
-434.705	-200.000	-0.002	-0.014
-433.690	-114.219	0.189	0.037
-432.676	-37.681	0.307	0.165
-431.661	3.926	-0.102	-0.076
-430.646	-119.678	-0.119	0.021
-429.632	358.152	-0.092	-0.186
-428.617	-200.000	0.001	0.184
-427.603	147.832	0.135	-0.183
-426.588	-52.819	0.243	0.113
-425.573	43.040	0.150	0.139
-424.559	-149.150	-0.145	0.012
-423.544	13.977	0.175	0.138
-422.530	-14.360	-0.398	-0.259
-421.515	86.155	0.152	-0.169
-420.500	-89.864	0.157	-0.046
-419.486	-118.059	-0.081	-0.015
-418.471	302.661	0.126	-0.236
-417.457	205.942	0.149	-0.234
-416.442	19.011	-0.317	-0.257
-415.428	120.904	-0.174	0.219
-414.413	-96.945	0.262	-0.069
-413.398	47.065	-0.066	0.062
-412.384	-146.076	0.513	-0.046
-411.369	-80.376	0.387	-0.130
-410.355	800.000	0.005	0.015
-409.340	-29.481	0.086	-0.049
-408.325	30.092	0.151	-0.130
-407.311	153.750	0.185	-0.256
-406.296	800.000	-0.022	-0.080
-405.282	39.776	0.258	0.233
-404.267	-200.000	-0.038	0.264
-403.252	145.910	0.057	0.077
-402.238	-70.446	0.391	-0.150
-401.223	84.013	-0.066	-0.073
-400.209	15.343	0.345	0.273
-399.194	-84.088	0.205	0.066
-398.179	-29.497	-0.070	-0.040
-397.165	-181.991	-0.061	-0.001
-396.150	115.944	-0.118	-0.145
-395.136	-94.659	0.006	-0.002
-394.121	-143.265	-0.471	0.046
-393.106	-200.000	-0.004	-0.454
-392.092	33.646	-0.222	-0.195
-391.077	-52.996	0.111	-0.052
-390.063	479.011	0.122	0.280
-389.048	662.731	-0.115	0.299
-388.033	35.040	0.196	0.173
-387.019	330.011	-0.147	-0.286
-386.004	-115.919	0.259	0.049
-384.990	574.919	-0.109	0.269
-383.975	91.238	0.151	-0.171
-382.960	-130.066	-0.182	-0.025
-381.946	-123.589	-0.225	-0.036
-380.931	346.989	-0.063	-0.125
-379.917	-200.000	-0.038	-0.258
-378.902	245.085	-0.083	-0.141
-377.888	20.623	0.265	0.216
-376.873	274.997	-0.093	-0.166
-375.858	288.651	0.242	-0.442
-374.844	-200.000	0.016	-0.213
-373.829	18.927	0.171	0.138
-372.815	-140.607	0.105	0.011
-371.800	375.047	0.291	0.598
-370.785	490.020	-0.059	-0.135
-369.771	-165.599	0.233	0.010
-368.756	770.794	0.109	0.298
-367.742	-88.765	0.011	0.003
-366.727	-200.000	-0.021	0.178
-365.712	-40.620	-0.221	0.116
-364.698	105.009	0.085	-0.101
-363.683	-65.430	0.137	-0.056
-362.669	438.831	-0.181	0.398
-361.654	800.000	-0.084	0.237
-360.639	-32.048	0.263	-0.148
-359.625	-200.000	-0.079	-0.448
-358.610	32.894	-0.175	-0.152
-357.596	8.920	-0.107	0.081
-356.581	33.111	-0.086	-0.075
-355.566	169.844	-0.142	0.204
-354.552	65.905	-0.151	-0.154
-353.537	217.951	-0.097	0.157
-352.523	-33.303	0.257	-0.143
-351.508	-200.000	0.011	0.241
-350.493	381.104	0.089	-0.185
-349.479	50.398	-0.091	0.086
-348.464	-200.000	0.008	-0.250
-347.450	-22.773	-0.256	-0.156
-346.435	387.107	0.115	0.238
-345.420	-65.947	0.171	0.069
-344.406	2.962	-0.397	-0.290
-343.391	-25.601	-0.148	0.088
-342.377	59.582	-0.106	0.105
-341.362	-200.000	-0.002	-0.206
-340.348	128.172	-0.064	-0.082
-339.333	425.215	0.079	0.171
-338.318	280.014	-0.084	-0.150
-337.304	-200.000	0.010	0.146
-336.289	-50.221	-0.308	0.147
-335.275	315.859	-0.138	0.261
-334.260	259.609	0.141	0.245
-333.245	-39.456	0.042	-0.022
-332.231	95.534	-0.178	-0.205
-331.216	-37.909	0.301	0.161
-330.202	800.000	0.048	0.134
-329.187	390.020	0.108	0.226
-328.172	-134.186	0.335	-0.042
-327.158	-105.648	0.287	-0.065
-326.143	7.840	0.335	0.253
-325.129	800.000	0.056	0.198
-324.114	138.269	0.034	-0.045
-323.099	-24.721	0.056	0.033
-322.085	-83.561	-0.284	-0.091
-321.070	-128.705	-0.131	0.019
-320.056	-86.346	0.037	-0.012
-319.041	58.147	-0.071	-0.070
-318.026	-108.242	-0.240	0.052
-317.012	-200.000	-0.018	-0.135
-315.997	-104.076	0.412	-0.097
-314.983	278.910	-0.071	-0.128
-313.968	121.741	0.014	-0.018
-312.953	-78.966	-0.030	0.010
-311.939	267.986	-0.110	-0.194
-310.924	-99.915	-0.127	0.032
-309.910	-144.450	-0.417	0.039
-308.895	-200.000	0.007	0.040
-307.880	-146.481	-0.396	0.035
-306.866	-200.000	-0.065	-0.424
-305.851	170.564	0.048	0.070
-304.837	-90.710	-0.142	-0.041
-303.822	-200.000	0.027	0.394
-302.807	136.855	0.227	-0.298
-301.793	-200.000	0.028	0.153
-300.778	185.463	-0.040	-0.060
-299.764	81.072	0.101	-0.110
-298.749	3.420	-0.197	-0.144
-297.735	-107.772	-0.100	0.022
-296.720	-200.000	-0.049	0.235
-295.705	250.927	0.129	0.221
-294.691	-21.026	-0.132	0.081
-293.676	91.337	0.422	0.476
-292.662	-44.728	0.367	-0.184
-291.647	-200.000	-0.002	-0.082
-290.632	-47.700	0.360	-0.175
-289.618	-200.000	-0.025	0.204
-288.603	-76.207	0.249	-0.088
-287.589	-52.493	-0.092	0.043
-286.574	-166.294	-0.291	-0.012
-285.559	162.177	0.165	-0.232
-284.545	-154.320	0.318	0.021
-283.530	800.000	0.090	0.268
-282.516	800.000	-0.049	-0.165
-281.501	-168.205	-0.229	0.009
-280.486	55.242	-0.151	0.146
-279.472	4.950	0.174	0.129
-278.457	-27.832	0.137	0.080
-277.443	48.331	-0.218	0.205
-276.428	205.507	-0.079	-0.123
-275.413	-31.770	-0.334	-0.188
-274.399	-67.646	0.404	-0.159
-273.384	-68.819	-0.299	-0.116
-272.370	-36.717	0.088	-0.047
-271.355	799.748	-0.040	-0.110
-270.340	-20.715	0.137	0.085
-269.326	-200.000	0.013	-0.178
-268.311	746.457	0.107	-0.290
-267.297	696.632	-0.023	-0.060
-266.282	-20.344	-0.255	-0.157
-265.267	189.753	0.045	-0.067
-264.253	-1.108	-0.205	-0.145
-263.238	101.849	-0.064	0.075
-262.224	-1.630	-0.162	-0.114
-261.209	-27.897	-0.203	0.118
-260.195	87.285	-0.213	0.236
-259.180	-200.000	-0.018	0.304
-258.165	-200.000	0.004	0.375
-257.151	-161.370	-0.275	0.014
-256.136	800.000	-0.072	-0.216
-255.122	105.153	0.042	-0.050
-254.107	-168.169	-0.247	0.010
-253.092	800.000	-0.094	-0.326
-252.078	-127.021	-0.216	0.032
-251.063	-53.670	0.280	0.128
-250.049	-200.000	0.006	-0.092
-249.034	250.802	-0.076	0.129
-248.019	800.000	0.073	-0.205
-247.005	-200.000	-0.029	0.381
-245.990	239.927	-0.144	-0.241
-244.976	641.840	0.097	0.248
-243.961	-55.231	0.052	-0.023
-242.946	-106.890	0.311	0.069
-241.932	-19.465	-0.238	-0.148
-240.917	-33.160	-0.325	0.180
-239.903	202.962	-0.112	-0.174
-238.888	3.717	0.433	0.317
-237.873	742.810	-0.094	0.254
-236.859	-200.000	-0.000	0.041
-235.844	39.848	-0.213	0.191
-234.830	-159.260	0.150	0.008
-233.815	38.138	0.119	-0.106
-232.800	-61.661	-0.225	-0.095
-231.786	-200.000	-0.033	-0.303
-230.771	139.827	0.184	-0.243
-229.757	43.820	-0.277	0.254
-228.742	-200.000	-0.022	-0.173
-227.727	91.318	-0.132	0.149
-226.713	-7.189	-0.210	-0.143
-225.698	-8.779	-0.302	0.203
-224.684	231.210	-0.141	-0.231
-223.669	-72.026	-0.246	-0.092
-222.655	2.625	0.075	0.055
-221.640	-200.000	0.042	0.237
-220.625	800.000	0.077	-0.233
-219.611	-160.515	0.286	-0.015
-218.596	-121.400	0.220	-0.037
-217.582	800.000	-0.034	0.135
-216.567	-200.000	-0.044	0.354
-215.552	388.209	-0.097	0.201
-214.538	101.983	-0.067	0.079
-213.523	800.000	-0.094	0.301
-212.509	189.212	-0.071	0.107
-211.494	-200.000	-0.005	-0.237
-210.479	-200.000	-0.020	-0.127
-209.465	-107.116	-0.144	0.032
-208.450	-12.185	0.300	0.197
-207.436	562.456	0.033	0.079
-206.421	12.378	-0.249	-0.192
-205.406	-167.116	0.309	0.013
-204.392	-200.000	-0.027	0.126
-203.377	-200.000	-0.028	0.333
-202.363	-21.341	0.220	0.134
-201.348	637.893	0.067	0.170
-200.333	581.968	-0.097	-0.238
-199.319	101.681	0.171	-0.200
-198.304	187.939	0.122	-0.182
-197.290	-81.356	-0.185	-0.061
-196.275	166.491	0.077	0.109
-195.260	-200.000	-0.048	-0.418
-194.246	234.983	0.116	0.191
-193.231	-30.793	-0.258	0.146
-192.217	-200.000	0.036	0.510
-191.202	-170.270	-0.270	-0.010
-190.187	-200.000	-0.018	0.124
-189.173	482.977	0.061	-0.138
-188.158	82.818	0.200	0.217
-187.144	-70.239	-0.370	0.140
-186.129	-200.000	-0.056	-0.311
-185.114	-200.000	-0.002	0.058
-184.100	-1.499	-0.121	-0.085
-183.085	221.409	-0.041	0.066
-182.071	177.187	0.131	-0.190
-181.056	-94.201	-0.113	-0.031
-180.042	-200.000	-0.051	-0.249
-179.027	-200.000	0.001	0.028
-178.012	-7.497	0.109	0.074
-176.998	-18.310	-0.100	-0.063
-175.983	-112.262	-0.218	0.044
-174.969	-88.260	0.297	0.089
-173.954	325.216	0.150	-0.287
-172.939	-200.000	0.013	-0.193
-171.925	-185.268	0.173	0.003
-170.910	-200.000	0.006	-0.139
-169.896	13.433	-0.066	0.051
-168.881	-44.794	0.154	-0.077
-167.866	79.022	-0.182	-0.195
-166.852	127.506	-0.066	-0.084
-165.837	-156.949	-0.157	-0.010
-164.823	46.396	0.120	-0.111
-163.808	199.699	0.197	0.301
-162.793	-62.156	-0.057	-0.024
-161.779	-19.390	-0.220	-0.136
-160.764	-125.205	-0.185	-0.028
-159.750	5.998	0.327	-0.242
-158.735	-120.481	0.280	-0.048
-157.720	-113.563	0.263	-0.051
-156.706	96.285	0.014	-0.016
-155.691	-200.000	0.018	0.105
-154.677	-107.900	0.186	0.040
-153.662	-200.000	-0.064	-0.395
-152.647	-200.000	0.020	-0.097
-151.633	-44.223	0.539	0.270
-150.618	-103.180	-0.316	0.075
-149.604	-119.655	-0.255	-0.044
-148.589	800.000	0.025	-0.099
-147.574	102.112	-0.044	0.052
-146.560	-158.645	-0.152	0.009
-145.545	-160.866	-0.025	-0.001
-144.531	233.470	-0.315	-0.518
-143.516	-200.000	0.025	-0.140
-142.502	-40.282	-0.172	0.089
-141.487	-148.595	-0.120	-0.010
-140.472	281.039	0.007	-0.013
-139.458	-11.678	-0.229	0.150
-138.443	-170.107	0.059	-0.002
-137.429	-56.221	0.360	0.160
-136.414	-155.731	-0.244	-0.016
-135.399	217.514	-0.142	-0.226
-134.385	-200.000	-0.005	-0.229
-133.370	-30.871	-0.135	0.076
-132.356	-1.637	-0.102	0.072
-131.341	-93.248	-0.369	-0.102
-130.326	56.323	-0.101	0.098
-129.312	-169.884	-0.397	-0.014
-128.297	-67.388	-0.120	-0.047
-127.283	89.359	-0.268	-0.298
-126.268	-68.929	-0.064	0.025
-125.253	-33.060	0.371	0.205
-124.239	-200.000	-0.059	0.356
-123.224	-43.183	-0.237	-0.120
-122.210	647.581	0.155	0.395
