DTS Sentinel unit serial number:	SN413079Multiplexer serial number:	ORYXHardware model number:	OX4-SRSoftware version number:	ORYX F/W v4.00 Oryx Data Collector v3.7.2.0data status	okinstallation	princeton_trtdifferential loss correction	single-endedforward channel	channel 1reverse channel	N/Adate	2019/09/16time	17:46:35forward acquisition time	60.00reverse acquisition time	0.00gamma	496.2192k internal	0.2298k external	0.2298temperature offset calibration	0.9969default loss term (dB/km)	0.3790temperature slope calibration	1.0000multiplexer offset coefficient	1.0000multiplexer slope coefficient	1.0000fibre end	0.00T internal ref (°C)	38.00T ext. ref 1 (°C)	15.57T ext. ref 2 (°C)	32.01length (m)	temperature (°C)	Stokes	anti-Stokes-747.200	13.478	-0.358	-0.284
-746.185	-200.000	-0.011	0.057
-745.171	-200.000	-0.026	-0.336
-744.156	9.987	0.250	0.194
-743.142	253.050	0.037	-0.064
-742.127	482.418	0.070	-0.163
-741.112	-127.001	-0.042	0.006
-740.098	59.628	0.378	0.381
-739.083	800.000	0.076	-0.265
-738.069	-24.375	-0.135	0.082
-737.054	-43.164	-0.332	0.172
-736.039	40.672	-0.309	0.284
-735.025	84.575	0.173	0.194
-734.010	-36.890	0.083	0.045
-732.996	-8.885	-0.103	-0.071
-731.981	85.158	-0.074	0.083
-730.966	-5.677	0.231	0.162
-729.952	-116.081	0.423	-0.080
-728.937	227.324	-0.104	-0.172
-727.923	25.684	-0.272	0.231
-726.908	303.883	0.029	-0.056
-725.894	-200.000	0.087	-0.652
-724.879	129.019	-0.160	-0.208
-723.864	123.170	-0.152	-0.194
-722.850	637.509	0.093	-0.241
-721.835	-3.212	-0.131	0.093
-720.821	-63.377	-0.143	-0.060
-719.806	-87.503	-0.163	-0.050
-718.791	-200.000	0.023	0.145
-717.777	67.812	0.056	-0.059
-716.762	87.916	-0.104	0.118
-715.748	-200.000	0.070	-0.329
-714.733	114.024	0.212	0.263
-713.718	-45.435	0.199	0.101
-712.704	-106.428	-0.143	0.033
-711.689	-54.784	-0.246	0.113
-710.675	181.601	-0.083	-0.125
-709.660	-200.000	0.016	0.124
-708.645	648.921	-0.139	-0.362
-707.631	47.453	-0.268	-0.255
-706.616	39.489	-0.073	-0.067
-705.602	-79.701	0.301	0.103
-704.587	-99.213	0.271	-0.070
-703.572	-82.840	0.133	0.044
-702.558	-50.117	0.175	0.084
-701.543	47.057	0.226	-0.214
-700.529	800.000	0.059	0.217
-699.514	-191.455	0.473	-0.005
-698.499	96.155	0.137	-0.160
-697.485	-98.560	-0.124	0.032
-696.470	166.808	0.121	-0.175
-695.456	46.861	0.078	-0.074
-694.441	-97.529	0.303	-0.080
-693.426	-114.632	-0.288	0.056
-692.412	765.016	-0.060	-0.165
-691.397	-200.000	0.000	-0.007
-690.383	324.394	-0.191	-0.373
-689.368	-144.560	0.067	0.006
-688.354	-48.218	0.302	-0.149
-687.339	-200.000	0.008	0.098
-686.324	-37.513	-0.151	0.082
-685.310	-200.000	0.014	0.182
-684.295	109.567	0.121	0.148
-683.281	41.816	0.100	-0.093
-682.266	31.284	-0.128	0.112
-681.251	58.658	-0.184	-0.184
-680.237	100.276	0.054	0.064
-679.222	-113.884	0.147	0.029
-678.208	51.449	-0.076	-0.074
-677.193	-124.051	0.339	0.054
-676.178	-200.000	-0.033	0.270
-675.164	-46.787	-0.039	-0.019
-674.149	48.657	-0.038	0.036
-673.135	192.558	-0.198	0.305
-672.120	-96.677	-0.257	0.069
-671.105	85.706	-0.130	-0.146
-670.091	375.923	-0.082	-0.169
-669.076	163.547	0.091	0.130
-668.062	-17.506	-0.326	0.208
-667.047	155.063	-0.241	0.337
-666.032	-55.772	0.250	0.114
-665.018	-44.495	-0.180	-0.091
-664.003	70.492	0.259	-0.273
-662.989	169.135	0.205	0.298
-661.974	121.401	0.142	-0.180
-660.959	-200.000	0.013	-0.121
-659.945	-200.000	-0.012	0.109
-658.930	-200.000	0.009	-0.181
-657.916	325.040	0.012	-0.023
-656.901	800.000	-0.067	0.195
-655.886	-15.277	0.218	-0.142
-654.872	63.351	-0.090	-0.092
-653.857	-67.080	-0.121	0.049
-652.843	122.015	-0.117	0.149
-651.828	3.922	-0.091	-0.067
-650.814	-75.171	0.108	-0.039
-649.799	-51.533	0.362	-0.172
-648.784	800.000	-0.093	-0.308
-647.770	-172.901	0.097	0.003
-646.755	-18.863	-0.367	0.232
-645.741	-96.149	-0.312	0.084
-644.726	-200.000	0.008	-0.142
-643.711	-49.784	0.129	-0.062
-642.697	-154.742	-0.269	0.018
-641.682	21.587	-0.248	0.205
-640.668	21.314	0.142	-0.117
-639.653	517.744	-0.082	-0.194
-638.638	-121.085	-0.215	-0.037
-637.624	-4.612	-0.327	0.230
-636.609	97.302	0.147	0.172
-635.595	104.480	0.180	-0.216
-634.580	367.072	0.117	0.241
-633.565	86.818	0.076	0.085
-632.551	-114.600	0.264	0.051
-631.536	-77.088	-0.319	-0.113
-630.522	-71.989	-0.427	-0.161
-629.507	-20.447	0.157	0.098
-628.492	-26.082	-0.209	-0.125
-627.478	-40.790	-0.214	-0.112
-626.463	22.207	-0.100	0.083
-625.449	-200.000	-0.017	0.171
-624.434	149.808	-0.166	0.228
-623.419	-42.368	-0.370	-0.192
-622.405	28.622	0.245	0.211
-621.390	124.380	0.123	0.157
-620.376	27.863	0.094	0.081
-619.361	-167.223	0.189	-0.008
-618.346	-57.686	0.151	0.067
-617.332	-118.272	-0.219	0.040
-616.317	800.000	0.065	0.240
-615.303	247.365	-0.057	0.097
-614.288	-98.427	-0.183	0.048
-613.273	-1.475	-0.279	0.200
-612.259	99.369	0.283	0.332
-611.244	-79.933	-0.364	-0.124
-610.230	-25.620	0.270	-0.162
-609.215	-11.393	0.204	-0.137
-608.201	800.000	-0.105	0.336
-607.186	-50.524	0.154	0.074
-606.171	592.452	0.143	0.358
-605.157	112.888	0.074	0.091
-604.142	121.813	0.012	0.015
-603.128	-67.278	0.094	0.038
-602.113	397.948	-0.057	-0.122
-601.098	-122.417	0.439	-0.073
-600.084	-200.000	0.041	0.213
-599.069	286.969	0.071	-0.130
-598.055	-25.675	-0.124	-0.074
-597.040	-200.000	0.058	0.397
-596.025	18.777	0.228	-0.185
-595.011	-200.000	-0.026	-0.183
-593.996	800.000	-0.054	-0.165
-592.982	322.682	-0.255	0.493
-591.967	-39.732	-0.264	-0.140
-590.952	-34.585	-0.292	-0.162
-589.938	-91.815	0.317	-0.091
-588.923	-200.000	0.053	-0.328
-587.909	-46.391	-0.433	-0.216
-586.894	-66.436	-0.157	-0.063
-585.879	30.873	-0.138	-0.120
-584.865	-200.000	-0.025	-0.152
-583.850	174.810	0.057	0.084
-582.836	-12.239	0.148	0.098
-581.821	24.892	-0.227	0.191
-580.806	-59.199	0.265	-0.116
-579.792	-89.593	0.170	-0.051
-578.777	-200.000	0.024	0.272
-577.763	16.516	0.083	0.066
-576.748	800.000	-0.056	0.223
-575.733	-150.993	0.122	-0.009
-574.719	-200.000	0.031	0.166
-573.704	-200.000	-0.004	-0.266
-572.690	-200.000	0.035	-0.184
-571.675	210.517	0.192	0.306
-570.661	-51.252	-0.177	0.084
-569.646	-200.000	-0.079	-0.391
-568.631	85.694	0.073	-0.082
-567.617	-34.562	-0.129	0.072
-566.602	-200.000	0.035	0.158
-565.588	77.971	-0.231	-0.250
-564.573	-74.589	-0.297	-0.108
-563.558	19.934	-0.136	0.111
-562.544	-200.000	0.051	0.253
-561.529	-29.979	-0.146	0.084
-560.515	115.131	-0.160	-0.198
-559.500	-200.000	-0.058	-0.456
-558.485	-81.750	0.299	0.099
-557.471	104.343	0.149	-0.177
-556.456	428.454	0.106	-0.231
-555.442	-26.739	0.155	-0.092
-554.427	800.000	0.074	-0.227
-553.412	800.000	0.043	0.137
-552.398	800.000	-0.086	-0.265
-551.383	-200.000	0.029	-0.151
-550.369	-92.091	0.430	-0.123
-549.354	-106.296	-0.086	0.019
-548.339	-200.000	-0.070	0.317
-547.325	-48.689	-0.250	-0.122
-546.310	16.372	0.057	0.046
-545.296	-200.000	0.020	0.118
-544.281	355.876	-0.143	-0.288
-543.266	800.000	0.050	-0.174
-542.252	-7.875	-0.275	0.188
-541.237	-100.439	-0.199	-0.050
-540.223	-29.238	0.131	0.076
-539.208	-115.045	-0.069	-0.013
-538.193	-45.700	0.080	-0.040
-537.179	-167.823	-0.148	-0.006
-536.164	-200.000	-0.003	-0.205
-535.150	-138.713	0.220	-0.024
-534.135	800.000	0.044	-0.147
-533.121	6.158	-0.313	0.235
-532.106	-106.244	-0.099	-0.022
-531.091	-45.994	-0.202	0.101
-530.077	-37.930	0.302	-0.163
-529.062	-74.753	0.179	-0.065
-528.048	-52.535	-0.203	0.095
-527.033	-69.812	0.075	0.029
-526.018	800.000	-0.027	0.089
-525.004	347.254	0.153	0.305
-523.989	-21.920	0.026	-0.016
-522.975	-149.123	-0.514	-0.042
-521.960	282.841	0.206	-0.374
-520.945	800.000	-0.036	0.119
-519.931	-109.847	-0.112	0.024
-518.916	800.000	-0.093	0.339
-517.902	441.505	-0.059	0.131
-516.887	-11.878	0.063	-0.042
-515.872	-127.658	0.206	0.030
-514.858	76.487	-0.089	-0.095
-513.843	34.244	0.237	0.209
-512.829	621.840	-0.039	0.098
-511.814	62.353	0.274	0.277
-510.799	-73.982	-0.396	0.145
-509.785	-65.495	-0.295	0.120
-508.770	454.651	0.142	0.318
-507.756	-178.606	-0.297	0.007
-506.741	357.236	0.121	0.245
-505.726	-200.000	-0.013	-0.092
-504.712	-200.000	0.050	-0.471
-503.697	-200.000	-0.276	0.001
-502.683	82.097	0.148	0.162
-501.668	131.747	0.340	-0.442
-500.653	554.888	-0.044	-0.108
-499.639	-110.839	0.189	0.039
-498.624	-200.000	0.074	-0.508
-497.610	469.887	-0.053	0.119
-496.595	435.669	0.133	0.293
-495.581	47.148	0.197	0.186
-494.566	-200.000	0.001	0.039
-493.551	800.000	-0.094	-0.277
-492.537	-154.776	0.166	-0.011
-491.522	-200.000	-0.030	-0.375
-490.508	-200.000	0.005	0.251
-489.493	-153.446	0.251	0.018
-488.478	-166.235	0.164	0.007
-487.464	-132.816	-0.157	-0.020
-486.449	448.090	-0.143	0.318
-485.435	167.510	0.112	0.161
-484.420	200.475	0.042	-0.065
-483.405	514.041	-0.107	-0.252
-482.391	222.247	-0.241	0.392
-481.376	26.271	-0.245	-0.207
-480.362	-200.000	-0.015	-0.102
-479.347	12.450	0.153	0.119
-478.332	-200.000	-0.072	-0.345
-477.318	-166.923	0.234	-0.010
-476.303	800.000	0.162	-0.509
-475.289	88.504	-0.235	-0.264
-474.274	-144.734	0.192	0.018
-473.259	176.157	-0.168	-0.246
-472.245	-40.132	-0.125	-0.066
-471.230	-200.000	0.011	-0.095
-470.216	-153.472	-0.385	-0.027
-469.201	-6.614	-0.126	-0.087
-468.186	-200.000	0.005	0.151
-467.172	-200.000	-0.057	0.466
-466.157	800.000	0.060	0.192
-465.143	-50.476	0.360	0.172
-464.128	-84.316	0.227	0.073
-463.113	24.733	-0.089	0.074
-462.099	337.048	-0.075	-0.147
-461.084	-200.000	-0.022	0.173
-460.070	9.672	0.149	-0.114
-459.055	343.425	-0.129	-0.256
-458.040	731.907	0.046	0.125
-457.026	109.120	-0.177	-0.214
-456.011	-90.181	-0.139	-0.041
-454.997	-52.162	0.520	0.244
-453.982	-54.168	0.251	0.115
-452.968	31.330	-0.195	-0.169
-451.953	-50.456	0.148	-0.071
-450.938	-105.481	0.298	0.068
-449.924	-65.645	-0.228	-0.092
-448.909	-70.468	0.208	-0.079
-447.895	149.495	0.113	0.154
-446.880	800.000	-0.037	-0.135
-445.865	-56.668	-0.078	-0.035
-444.851	-62.382	0.403	0.169
-443.836	-66.617	0.028	0.011
-442.822	-102.735	0.203	0.049
-441.807	-200.000	0.006	-0.143
-440.792	113.722	0.203	-0.249
-439.778	93.968	-0.130	-0.149
-438.763	-58.456	-0.013	0.006
-437.749	-10.428	0.066	0.044
-436.734	-57.065	-0.261	-0.116
-435.719	579.292	-0.124	0.306
-434.705	570.604	0.129	-0.316
-433.690	-34.866	-0.232	0.128
-432.676	80.898	-0.142	-0.155
-431.661	-112.996	-0.115	0.023
-430.646	-186.067	-0.157	0.002
-429.632	308.618	-0.115	-0.216
-428.617	32.352	0.127	-0.111
-427.603	-69.822	-0.443	0.171
-426.588	419.299	-0.088	0.189
-425.573	-194.866	0.138	0.001
-424.559	111.001	0.122	0.148
-423.544	-109.122	0.222	-0.048
-422.530	65.644	-0.130	0.132
-421.515	-200.000	0.011	0.389
-420.500	-106.274	-0.102	0.023
-419.486	-102.848	-0.536	-0.129
-418.471	-26.011	-0.114	-0.067
-417.457	147.947	0.117	0.159
-416.442	115.172	-0.165	0.203
-415.428	318.368	-0.126	-0.240
-414.413	-189.299	0.283	0.003
-413.398	723.452	0.070	-0.189
-412.384	-10.742	0.140	-0.094
-411.369	13.464	0.151	-0.118
-410.355	764.018	-0.041	0.112
-409.340	173.151	0.080	0.116
-408.325	-140.966	-0.113	0.012
-407.311	17.785	0.114	0.092
-406.296	88.401	0.191	-0.214
-405.282	-41.770	-0.428	-0.221
-404.267	-95.075	0.092	-0.025
-403.252	-134.233	-0.146	0.018
-402.238	94.774	-0.248	-0.284
-401.223	162.861	0.135	0.190
-400.209	238.907	0.137	0.229
-399.194	90.835	-0.218	-0.246
-398.179	-200.000	0.005	0.030
-397.165	-200.000	0.035	0.179
-396.150	-200.000	0.023	0.177
-395.136	-47.963	0.291	-0.142
-394.121	-8.604	-0.155	-0.105
-393.106	245.428	-0.207	-0.351
-392.092	316.950	0.042	-0.080
-391.077	-103.684	-0.597	-0.141
-390.063	-29.321	-0.009	-0.005
-389.048	71.756	0.158	0.165
-388.033	-49.432	-0.147	-0.070
-387.019	-62.147	0.224	-0.094
-386.004	-41.229	0.102	0.053
-384.990	-42.188	0.203	-0.105
-383.975	-129.076	-0.152	-0.021
-382.960	-119.958	0.211	-0.036
-381.946	179.747	-0.141	0.207
-380.931	58.877	0.182	-0.180
-379.917	-61.788	-0.252	0.106
-378.902	141.978	-0.120	0.160
-377.888	-139.201	-0.337	0.037
-376.873	-27.792	0.123	-0.072
-375.858	-200.000	-0.069	0.462
-374.844	800.000	-0.021	0.073
-373.829	678.594	0.102	-0.268
-372.815	18.848	-0.413	-0.333
-371.800	127.974	0.221	-0.282
-370.785	-116.560	0.285	0.053
-369.771	411.598	0.017	-0.036
-368.756	443.658	-0.092	0.204
-367.742	-200.000	-0.053	0.350
-366.727	800.000	-0.057	-0.171
-365.712	-130.069	0.094	-0.013
-364.698	-120.608	0.112	0.019
-363.683	-89.488	-0.156	-0.046
-362.669	98.687	-0.153	0.178
-361.654	-82.384	-0.289	0.095
-360.639	-90.741	0.171	-0.050
-359.625	586.555	0.084	0.209
-358.610	-200.000	0.040	0.210
-357.596	261.482	-0.101	-0.176
-356.581	-3.021	-0.109	0.077
-355.566	-200.000	-0.085	0.388
-354.552	796.169	0.013	-0.036
-353.537	-69.104	-0.287	-0.111
-352.523	-186.518	-0.267	-0.004
-351.508	-13.203	0.228	-0.149
-350.493	3.815	0.156	0.114
-349.479	-59.299	-0.458	0.198
-348.464	167.474	-0.108	0.154
-347.450	-16.057	-0.306	0.196
-346.435	42.234	0.207	-0.189
-345.420	13.115	0.180	-0.140
-344.406	-60.826	-0.310	-0.132
-343.391	-200.000	-0.010	0.144
-342.377	-96.335	-0.329	0.088
-341.362	-149.723	0.277	-0.022
-340.348	-179.741	0.142	-0.003
-339.333	-139.840	-0.397	-0.042
-338.318	-15.759	-0.201	-0.129
-337.304	-44.944	-0.246	-0.123
-336.289	800.000	-0.061	-0.204
-335.275	800.000	0.050	-0.146
-334.260	669.052	-0.064	-0.167
-333.245	-109.579	0.217	-0.046
-332.231	327.659	0.061	0.118
-331.216	-140.623	0.249	-0.026
-330.202	476.983	-0.072	-0.164
-329.187	288.676	0.102	-0.185
-328.172	-99.053	0.152	-0.039
-327.158	-200.000	0.019	0.284
-326.143	-138.595	-0.230	-0.025
-325.129	2.073	0.154	0.111
-324.114	142.536	0.050	0.066
-323.099	-80.489	0.102	-0.034
-322.085	237.257	0.069	0.114
-321.070	50.630	-0.286	-0.272
-320.056	-50.283	0.147	-0.070
-319.041	21.007	0.346	-0.282
-318.026	-63.036	0.268	0.111
-317.012	252.228	0.077	0.131
-315.997	800.000	0.024	0.096
-314.983	800.000	0.082	0.312
-313.968	-147.491	0.214	0.018
-312.953	-135.139	0.130	-0.016
-311.939	-72.997	-0.626	-0.231
-310.924	220.207	0.149	0.240
-309.910	144.524	0.104	0.140
-308.895	-4.727	0.127	0.088
-307.880	767.099	0.042	0.115
-306.866	95.910	-0.180	0.207
-305.851	-200.000	-0.024	0.332
-304.837	95.637	-0.131	-0.150
-303.822	-87.941	-0.193	-0.058
-302.807	-66.990	-0.170	0.067
-301.793	-66.170	0.308	0.123
-300.778	-77.869	-0.310	0.107
-299.764	-200.000	0.010	-0.100
-298.749	-200.000	0.014	0.109
-297.735	-118.803	0.311	-0.055
-296.720	-200.000	-0.031	0.213
-295.705	19.466	-0.088	-0.071
-294.691	-94.214	0.323	0.089
-293.676	275.642	-0.081	0.145
-292.662	62.245	0.104	0.104
-291.647	660.115	0.016	-0.041
-290.632	-71.494	-0.239	-0.090
-289.618	800.000	-0.025	0.101
-288.603	2.900	0.148	-0.108
-287.589	-120.942	-0.135	0.023
-286.574	-200.000	0.057	-0.327
-285.559	84.420	0.215	-0.236
-284.545	-200.000	-0.036	0.196
-283.530	44.105	-0.123	-0.113
-282.516	-200.000	-0.289	-0.001
-281.501	31.373	0.302	0.260
-280.486	455.171	-0.097	-0.217
-279.472	-200.000	0.029	-0.166
-278.457	-51.899	0.208	-0.097
-277.443	142.365	0.333	0.443
-276.428	-130.232	0.481	-0.066
-275.413	-47.405	-0.078	0.038
-274.399	-155.425	-0.129	-0.008
-273.384	135.478	-0.070	-0.091
-272.370	-38.436	0.025	0.013
-271.355	-24.119	0.036	0.022
-270.340	147.319	0.189	-0.255
-269.326	167.155	0.056	-0.080
-268.311	42.950	0.090	0.082
-267.297	-59.729	-0.286	0.123
-266.282	11.415	0.131	-0.101
-265.267	800.000	0.046	0.188
-264.253	-200.000	0.025	-0.122
-263.238	800.000	0.034	0.140
-262.224	-200.000	0.004	-0.176
-261.209	3.940	0.136	0.100
-260.195	-91.061	0.182	-0.052
-259.180	-200.000	0.025	0.124
-258.165	800.000	0.133	0.433
-257.151	-200.000	-0.027	-0.248
-256.136	82.802	-0.295	0.321
-255.122	21.208	0.042	0.034
-254.107	-64.307	-0.163	0.067
-253.092	-97.682	-0.158	0.041
-252.078	-33.607	0.043	-0.024
-251.063	112.812	0.108	0.131
-250.049	-17.858	-0.209	0.131
-249.034	636.585	-0.057	0.146
-248.019	-94.965	-0.177	-0.048
-247.005	-113.890	-0.116	0.023
-245.990	-146.802	0.269	-0.023
-244.976	-25.706	0.096	0.057
-243.961	800.000	0.040	0.175
-242.946	800.000	0.062	-0.184
-241.932	-15.619	0.140	0.089
-240.917	252.856	-0.077	0.131
-239.903	8.958	-0.228	-0.172
-238.888	-21.870	0.327	0.199
-237.873	81.462	0.163	-0.177
-236.859	-109.996	0.323	-0.068
-235.844	100.709	0.047	-0.055
-234.830	800.000	0.055	-0.205
-233.815	-2.261	-0.221	0.155
-232.800	205.858	0.153	0.238
-231.786	-45.892	0.216	0.107
-230.771	65.270	-0.104	-0.105
-229.757	-137.385	0.489	0.055
-228.742	-9.248	0.074	-0.050
-227.727	-200.000	0.015	0.149
-226.713	-30.523	-0.017	-0.009
-225.698	-96.540	-0.120	0.032
-224.684	12.032	-0.277	-0.213
-223.669	51.993	0.345	-0.329
-222.655	-78.442	0.209	-0.072
-221.640	122.108	0.110	0.137
-220.625	800.000	0.032	-0.095
-219.611	65.866	0.092	0.093
-218.596	-159.633	0.302	-0.017
-217.582	42.388	-0.176	0.160
-216.567	667.782	0.080	0.206
-215.552	18.891	0.085	0.068
-214.538	800.000	-0.066	-0.243
-213.523	106.828	-0.082	0.098
-212.509	-200.000	-0.006	0.291
-211.494	-113.912	0.312	0.061
-210.479	108.130	-0.254	-0.302
-209.465	152.435	-0.111	0.151
-208.450	-40.237	0.419	-0.218
-207.436	-9.070	0.151	-0.101
-206.421	-48.594	0.288	-0.138
-205.406	-184.851	-0.165	0.003
-204.392	208.039	0.153	0.240
-203.377	-58.376	-0.286	0.124
-202.363	75.875	0.272	-0.288
-201.348	-79.423	0.052	0.017
-200.333	263.364	0.123	0.214
-199.319	15.431	-0.182	0.143
-198.304	-200.000	-0.048	-0.323
-197.290	239.733	0.044	-0.074
-196.275	-107.206	-0.142	-0.031
-195.260	-200.000	-0.002	0.140
-194.246	-200.000	-0.026	0.119
-193.231	233.642	-0.017	-0.027
-192.217	-200.000	-0.030	-0.387
-191.202	-200.000	0.060	0.289
-190.187	-87.004	0.199	0.060
-189.173	-172.836	-0.159	-0.005
-188.158	-97.361	0.180	0.047
-187.144	5.120	0.183	0.135
-186.129	315.653	-0.054	0.101
-185.114	-95.260	-0.062	-0.017
-184.100	-104.430	-0.243	-0.056
-183.085	315.404	-0.066	0.124
-182.071	314.718	0.078	0.146
-181.056	628.534	0.038	-0.096
-180.042	127.323	-0.059	-0.075
-179.027	-7.713	-0.249	-0.168
-178.012	-200.000	-0.054	-0.332
-176.998	-37.105	-0.092	-0.049
-175.983	-20.563	0.185	-0.114
-174.969	-39.910	-0.146	-0.076
-173.954	-105.551	0.409	0.093
-172.939	-200.000	0.038	-0.171
-171.925	-48.348	-0.213	-0.102
-170.910	-82.855	0.062	-0.020
-169.896	129.921	-0.056	0.071
-168.881	800.000	0.110	-0.360
-167.866	-40.737	0.242	-0.125
-166.852	-125.140	0.169	0.026
-165.837	-32.402	0.192	0.107
-164.823	-142.410	-0.469	-0.046
-163.808	800.000	-0.043	-0.170
-162.793	259.855	-0.102	-0.176
-161.779	-200.000	0.011	0.210
-160.764	-196.022	0.241	-0.002
-159.750	-78.947	-0.174	0.059
-158.735	-200.000	-0.022	0.113
-157.720	615.034	0.081	-0.201
-156.706	616.219	-0.036	-0.090
-155.691	541.940	0.075	0.178
-154.677	103.117	-0.285	-0.333
-153.662	195.597	0.120	-0.182
-152.647	-83.692	0.067	0.021
-151.633	-200.000	-0.008	-0.057
-150.618	800.000	0.058	0.215
-149.604	-126.078	0.266	-0.040
-148.589	9.461	0.101	0.076
-147.574	-200.000	0.012	0.278
-146.560	-65.982	0.157	0.062
-145.545	-41.049	0.254	-0.131
-144.531	-200.000	0.033	-0.293
-143.516	127.338	0.241	0.305
-142.502	39.382	0.288	-0.257
-141.487	224.159	0.143	0.231
-140.472	800.000	0.077	0.240
-139.458	-70.121	-0.165	-0.062
-138.443	-105.430	-0.060	0.014
-137.429	800.000	0.123	0.456
-136.414	-200.000	0.015	-0.211
-135.399	23.787	0.065	0.053
-134.385	-200.000	0.001	-0.334
-133.370	99.056	-0.029	-0.033
-132.356	-160.032	0.272	-0.015
-131.341	800.000	-0.051	-0.210
-130.326	-27.097	0.076	-0.044
-129.312	-101.556	0.147	0.036
-128.297	101.663	-0.153	-0.178
-127.283	-116.069	0.120	-0.022
-126.268	435.523	-0.069	-0.150
-125.253	-70.282	-0.245	-0.093
-124.239	28.382	0.139	-0.117
-123.224	1.973	-0.111	0.080
-122.210	-127.191	-0.126	0.018
-121.195	747.806	0.066	-0.177
-120.180	112.587	0.077	0.093
