DTS Sentinel unit serial number:	SN413079Multiplexer serial number:	ORYXHardware model number:	OX4-SRSoftware version number:	ORYX F/W v4.00 Oryx Data Collector v3.7.2.0data status	okinstallation	princeton_trtdifferential loss correction	single-endedforward channel	channel 1reverse channel	N/Adate	2019/09/14time	10:26:35forward acquisition time	60.00reverse acquisition time	0.00gamma	496.2192k internal	0.2306k external	0.2306temperature offset calibration	1.0072default loss term (dB/km)	0.3790temperature slope calibration	1.0000multiplexer offset coefficient	1.0000multiplexer slope coefficient	1.0000fibre end	0.00T internal ref (°C)	34.56T ext. ref 1 (°C)	4.16T ext. ref 2 (°C)	32.75length (m)	temperature (°C)	Stokes	anti-Stokes-747.200	35.285	0.271	0.241
-746.185	441.000	0.043	-0.096
-745.171	-149.096	-0.073	0.006
-744.156	-121.406	-0.430	-0.073
-743.142	9.112	0.193	-0.148
-742.127	-15.837	-0.045	-0.029
-741.112	39.700	-0.050	-0.046
-740.098	-110.497	-0.211	-0.044
-739.083	-43.972	0.129	0.066
-738.069	800.000	-0.054	0.206
-737.054	-200.000	0.012	0.104
-736.039	178.045	-0.068	0.100
-735.025	-74.096	0.250	-0.092
-734.010	205.453	-0.127	0.201
-732.996	-121.622	-0.082	0.014
-731.981	176.561	-0.138	-0.204
-730.966	-200.000	0.001	-0.495
-729.952	466.960	0.176	-0.402
-728.937	-6.760	-0.070	-0.049
-727.923	-65.854	0.211	-0.086
-726.908	800.000	0.128	-0.445
-725.894	526.513	0.138	-0.330
-724.879	-77.810	-0.492	0.173
-723.864	800.000	-0.042	-0.132
-722.850	800.000	0.111	-0.474
-721.835	-200.000	0.018	-0.217
-720.821	672.644	-0.011	0.030
-719.806	305.706	0.073	0.138
-718.791	-200.000	0.045	-0.417
-717.777	83.485	0.126	-0.139
-716.762	-200.000	0.028	-0.310
-715.748	607.265	-0.162	-0.411
-714.733	90.185	-0.041	-0.046
-713.718	-136.086	0.220	-0.026
-712.704	-200.000	0.032	-0.239
-711.689	-112.325	0.105	0.021
-710.675	-6.742	0.204	0.141
-709.660	-25.441	0.076	0.045
-708.645	81.053	-0.137	-0.150
-707.631	-181.307	-0.247	-0.005
-706.616	-2.506	0.185	0.132
-705.602	-110.857	-0.249	0.052
-704.587	85.458	-0.071	0.080
-703.572	5.065	-0.195	-0.146
-702.558	-10.341	0.451	-0.304
-701.543	800.000	-0.029	-0.126
-700.529	-200.000	-0.022	0.118
-699.514	-75.446	0.345	-0.125
-698.499	254.030	-0.030	0.053
-697.485	92.369	0.159	-0.182
-696.470	62.792	-0.330	-0.335
-695.456	-200.000	-0.018	-0.387
-694.441	800.000	0.054	-0.185
-693.426	-104.537	0.231	0.054
-692.412	800.000	-0.082	-0.229
-691.397	517.243	0.112	0.265
-690.383	40.320	0.215	0.197
-689.368	-150.034	-0.307	0.024
-688.354	-133.304	0.102	-0.013
-687.339	-121.927	-0.207	0.035
-686.324	-165.868	0.136	-0.006
-685.310	120.796	0.073	0.092
-684.295	-16.527	0.144	-0.093
-683.281	61.310	0.176	-0.177
-682.266	800.000	0.022	-0.076
-681.251	-30.667	-0.092	0.053
-680.237	-200.000	-0.033	-0.196
-679.222	800.000	-0.053	-0.190
-678.208	-116.350	0.196	0.037
-677.193	49.119	-0.180	0.171
-676.178	-48.136	0.121	0.059
-675.164	-79.369	0.254	0.087
-674.149	-74.058	0.434	0.160
-673.135	800.000	-0.042	-0.127
-672.120	168.104	-0.214	0.308
-671.105	596.514	0.045	0.112
-670.091	10.220	0.028	-0.021
-669.076	-88.024	0.148	-0.045
-668.062	-77.735	-0.456	0.160
-667.047	800.000	-0.022	0.067
-666.032	37.825	-0.069	-0.062
-665.018	154.707	-0.058	-0.081
-664.003	-200.000	-0.032	-0.205
-662.989	-200.000	0.051	-0.327
-661.974	-163.380	0.196	-0.009
-660.959	477.803	-0.221	-0.506
-659.945	-109.623	0.333	0.071
-658.930	-99.481	-0.343	0.088
-657.916	-200.000	0.014	0.425
-656.901	-200.000	-0.004	-0.128
-655.886	763.344	-0.005	-0.015
-654.872	132.147	0.056	0.073
-653.857	118.479	0.069	0.086
-652.843	713.810	-0.051	-0.136
-651.828	24.028	-0.234	0.196
-650.814	-36.789	-0.336	0.183
-649.799	77.617	0.175	0.189
-648.784	-97.466	-0.157	-0.041
-647.770	206.558	-0.145	-0.228
-646.755	-68.894	0.106	-0.041
-645.741	714.096	0.082	-0.221
-644.726	304.059	0.042	0.080
-643.711	177.674	-0.050	0.074
-642.697	-200.000	-0.008	-0.119
-641.682	15.902	-0.229	0.183
-640.668	800.000	0.068	0.273
-639.653	9.549	0.289	-0.222
-638.638	-131.492	0.238	0.032
-637.624	-91.041	-0.155	0.045
-636.609	-172.715	-0.120	0.004
-635.595	800.000	-0.109	-0.394
-634.580	-80.772	-0.442	-0.149
-633.565	-59.714	0.087	0.038
-632.551	-200.000	0.001	0.115
-631.536	226.019	-0.124	0.203
-630.522	734.296	0.165	0.446
-629.507	341.391	0.137	-0.271
-628.492	-200.000	0.022	-0.195
-627.478	492.469	-0.050	0.117
-626.463	33.134	0.070	0.061
-625.449	-125.943	-0.107	-0.016
-624.434	-12.512	-0.179	0.118
-623.419	229.127	0.036	-0.060
-622.405	-12.325	0.105	-0.070
-621.390	-69.564	0.026	-0.010
-620.376	1.108	0.023	-0.017
-619.361	538.490	0.024	-0.059
-618.346	437.606	0.046	-0.102
-617.332	-5.621	-0.100	-0.069
-616.317	-186.481	-0.270	-0.004
-615.303	91.606	0.142	-0.162
-614.288	106.890	-0.052	-0.062
-613.273	149.082	0.100	-0.137
-612.259	-84.689	-0.034	0.011
-611.244	-163.051	-0.495	0.024
-610.230	113.624	0.164	0.202
-609.215	-74.054	-0.371	0.136
-608.201	19.928	-0.162	-0.132
-607.186	-9.833	-0.225	-0.151
-606.171	523.568	-0.113	-0.270
-605.157	337.139	0.049	-0.096
-604.142	-200.000	-0.046	0.216
-603.128	198.292	-0.131	0.202
-602.113	211.252	-0.123	-0.197
-601.098	-45.260	0.087	0.044
-600.084	-47.020	0.327	0.162
-599.069	800.000	0.053	-0.159
-598.055	-69.672	0.523	-0.202
-597.040	-200.000	0.049	0.273
-596.025	-200.000	0.027	0.264
-595.011	-29.656	-0.135	-0.078
-593.996	126.736	0.106	-0.135
-592.982	38.841	0.248	-0.224
-591.967	-200.000	0.024	-0.201
-590.952	800.000	-0.077	0.265
-589.938	337.779	0.167	0.329
-588.923	-127.246	0.272	-0.040
-587.909	3.281	-0.170	-0.125
-586.894	467.083	0.120	-0.273
-585.879	274.543	0.139	-0.248
-584.865	-200.000	0.030	-0.182
-583.850	-114.860	0.112	-0.022
-582.836	-98.062	-0.408	0.106
-581.821	112.105	0.032	-0.040
-580.806	-133.578	0.076	-0.010
-579.792	800.000	0.086	0.253
-578.777	-200.000	0.004	0.451
-577.763	-200.000	-0.003	0.155
-576.748	37.953	0.296	0.266
-575.733	800.000	0.084	-0.249
-574.719	-24.947	0.164	-0.098
-573.704	65.035	-0.210	0.214
-572.690	-39.145	-0.111	0.059
-571.675	-200.000	0.035	-0.262
-570.661	-200.000	-0.003	0.158
-569.646	-85.232	-0.088	-0.028
-568.631	-106.430	-0.185	0.042
-567.617	-200.000	-0.006	-0.219
-566.602	12.825	0.106	-0.083
-565.588	48.040	0.189	-0.178
-564.573	-39.040	0.123	-0.065
-563.558	-89.697	-0.353	-0.105
-562.544	-105.971	0.190	-0.043
-561.529	-46.346	0.236	-0.117
-560.515	69.042	-0.098	-0.102
-559.500	-18.074	0.113	0.072
-558.485	800.000	0.017	-0.062
-557.471	91.851	-0.194	0.221
-556.456	19.578	0.146	0.118
-555.442	-200.000	-0.001	0.051
-554.427	462.063	-0.051	-0.115
-553.412	-111.022	0.399	-0.083
-552.398	-200.000	-0.064	-0.401
-551.383	-77.025	-0.114	-0.040
-550.369	-200.000	0.032	0.215
-549.354	415.342	-0.122	0.262
-548.339	-138.496	-0.230	0.026
-547.325	410.227	0.090	-0.193
-546.310	50.407	0.249	0.237
-545.296	-121.482	-0.405	0.068
-544.281	-66.029	-0.185	0.075
-543.266	125.657	-0.052	-0.066
-542.252	252.954	0.132	-0.227
-541.237	-1.758	-0.329	-0.234
-540.223	-78.733	0.345	0.119
-539.208	-35.860	0.100	-0.055
-538.193	-98.422	0.164	-0.042
-537.179	219.321	0.041	-0.066
-536.164	1.842	0.161	-0.117
-535.150	350.400	-0.148	-0.295
-534.135	-51.658	-0.264	-0.124
-533.121	164.139	-0.021	-0.030
-532.106	41.101	-0.127	0.115
-531.091	-89.918	-0.181	0.053
-530.077	734.524	0.177	-0.479
-529.062	-200.000	-0.014	0.271
-528.048	-166.665	-0.209	-0.009
-527.033	-200.000	-0.032	-0.212
-526.018	129.595	-0.259	0.334
-525.004	-105.536	0.094	0.021
-523.989	800.000	0.062	-0.234
-522.975	-68.363	-0.146	-0.057
-521.960	87.964	-0.265	-0.296
-520.945	-200.000	-0.017	-0.240
-519.931	-200.000	-0.001	0.010
-518.916	-200.000	0.001	0.113
-517.902	-43.101	-0.092	0.047
-516.887	-153.622	0.398	0.028
-515.872	-51.659	-0.120	0.057
-514.858	558.244	0.088	0.215
-513.843	-200.000	0.018	0.106
-512.829	51.318	-0.148	-0.142
-511.814	-136.984	0.176	0.020
-510.799	490.648	-0.143	0.330
-509.785	-50.332	-0.316	0.150
-508.770	21.522	0.213	-0.175
-507.756	-92.438	0.242	0.069
-506.741	-131.345	-0.152	0.020
-505.726	68.116	-0.110	0.113
-504.712	164.589	-0.266	0.378
-503.697	761.713	-0.053	0.144
-502.683	-200.000	0.045	0.246
-501.668	-200.000	-0.004	-0.156
-500.653	-200.000	-0.005	-0.022
-499.639	800.000	0.022	-0.078
-498.624	176.122	-0.031	-0.046
-497.610	-200.000	0.024	0.140
-496.595	-50.995	-0.144	-0.068
-495.581	-66.285	-0.163	0.065
-494.566	-124.678	-0.080	0.012
-493.551	18.000	-0.140	-0.112
-492.537	43.148	-0.134	-0.123
-491.522	31.712	0.262	-0.227
-490.508	99.811	-0.104	0.121
-489.493	-200.000	-0.011	-0.060
-488.478	-200.000	0.014	-0.487
-487.464	-155.352	-0.102	0.007
-486.449	-79.398	-0.305	0.104
-485.435	-200.000	0.067	0.315
-484.420	-118.817	0.233	-0.041
-483.405	-200.000	-0.051	0.238
-482.391	-200.000	0.011	-0.047
-481.376	-42.836	0.364	-0.186
-480.362	-200.000	0.007	0.070
-479.347	-200.000	-0.008	-0.211
-478.332	-7.031	-0.087	-0.060
-477.318	91.033	-0.116	-0.131
-476.303	800.000	-0.024	-0.089
-475.289	202.039	0.133	-0.207
-474.274	17.926	-0.106	0.085
-473.259	-73.798	0.235	-0.086
-472.245	78.331	-0.197	0.212
-471.230	-56.254	0.031	-0.014
-470.216	-200.000	0.009	-0.167
-469.201	570.831	-0.113	0.277
-468.186	60.367	0.354	0.353
-467.172	-150.329	0.228	0.018
-466.157	-42.206	-0.146	0.075
-465.143	-14.791	-0.300	0.194
-464.128	-103.496	-0.187	0.044
-463.113	-161.614	0.195	-0.010
-462.099	236.306	-0.003	0.005
-461.084	-54.899	-0.283	-0.128
-460.070	800.000	0.071	0.200
-459.055	7.660	0.203	-0.153
-458.040	558.943	0.129	0.313
-457.026	116.663	0.071	-0.087
-456.011	-140.401	-0.072	0.008
-454.997	-44.805	0.250	0.125
-453.982	634.859	0.062	-0.159
-452.968	-93.321	0.135	-0.038
-451.953	-200.000	-0.021	0.291
-450.938	115.714	-0.165	0.204
-449.924	-200.000	-0.025	-0.174
-448.909	-200.000	0.010	0.072
-447.895	-13.760	-0.126	-0.082
-446.880	-84.474	-0.189	0.060
-445.865	-11.547	-0.189	0.125
-444.851	361.992	0.045	0.091
-443.836	0.260	-0.112	-0.080
-442.822	-109.360	0.115	0.025
-441.807	-87.109	-0.098	-0.030
-440.792	129.818	0.111	0.143
-439.778	311.329	0.112	-0.210
-438.763	-200.000	-0.078	-0.398
-437.749	314.697	-0.198	0.374
-436.734	800.000	0.057	0.231
-435.719	73.747	-0.189	-0.199
-434.705	800.000	-0.143	-0.445
-433.690	-27.014	-0.305	0.179
-432.676	-23.750	-0.022	-0.013
-431.661	-154.360	-0.168	0.011
-430.646	153.498	0.287	0.396
-429.632	-72.183	-0.450	-0.168
-428.617	65.737	0.014	0.014
-427.603	-7.543	0.166	0.113
-426.588	-188.651	-0.286	-0.004
-425.573	-185.842	0.330	-0.005
-424.559	209.666	0.082	0.129
-423.544	-104.121	-0.218	0.051
-422.530	-111.730	-0.040	-0.008
-421.515	138.463	0.050	-0.066
-420.500	-167.065	0.276	0.011
-419.486	449.092	0.155	-0.342
-418.471	-14.201	0.137	0.089
-417.457	-132.076	0.272	0.036
-416.442	170.915	-0.054	-0.078
-415.428	-120.573	0.179	0.031
-414.413	193.552	-0.203	-0.308
-413.398	-200.000	0.006	-0.045
-412.384	-200.000	-0.011	0.169
-411.369	-43.060	-0.285	0.145
-410.355	110.168	-0.187	0.225
-409.340	-14.482	0.115	0.075
-408.325	-17.333	0.468	0.296
-407.311	-200.000	-0.052	-0.239
-406.296	-84.354	-0.073	0.023
-405.282	708.729	-0.158	0.420
-404.267	-105.920	0.282	-0.064
-403.252	-140.276	-0.292	0.031
-402.238	-73.871	0.279	0.102
-401.223	89.501	0.132	0.148
-400.209	330.868	0.061	-0.118
-399.194	-131.584	0.173	-0.023
-398.179	-200.000	0.008	0.146
-397.165	776.241	0.085	0.234
-396.150	460.116	-0.069	0.155
-395.136	196.465	0.134	-0.204
-394.121	-69.038	-0.229	0.088
-393.106	61.822	-0.139	0.139
-392.092	-63.227	0.245	-0.102
-391.077	29.157	0.127	-0.108
-390.063	-200.000	0.002	-0.055
-389.048	127.614	-0.135	0.172
-388.033	-88.588	-0.090	-0.027
-387.019	286.075	0.183	-0.332
-386.004	-11.225	-0.176	0.117
-384.990	-88.975	-0.082	-0.024
-383.975	-20.785	-0.235	0.144
-382.960	336.387	-0.233	0.453
-381.946	634.425	0.117	-0.297
-380.931	116.514	-0.184	-0.226
-379.917	-122.417	-0.301	0.049
-378.902	592.168	0.053	0.131
-377.888	43.210	0.148	0.136
-376.873	-134.687	0.160	0.020
-375.858	-20.208	-0.205	-0.127
-374.844	22.049	0.238	-0.195
-373.829	561.548	0.116	-0.281
-372.815	800.000	0.097	-0.306
-371.800	-62.186	-0.013	-0.006
-370.785	183.461	0.183	0.272
-369.771	36.992	-0.240	0.213
-368.756	-200.000	-0.007	-0.364
-367.742	183.093	-0.224	-0.332
-366.727	239.332	0.075	0.125
-365.712	-105.093	0.210	-0.048
-364.698	408.581	0.089	0.189
-363.683	-90.763	-0.353	-0.102
-362.669	800.000	0.064	0.214
-361.654	-200.000	0.011	-0.084
-360.639	-200.000	0.012	0.144
-359.625	-198.550	0.108	0.001
-358.610	800.000	0.021	0.067
-357.596	593.403	-0.061	-0.151
-356.581	-200.000	0.009	-0.226
-355.566	-200.000	-0.003	-0.183
-354.552	-200.000	-0.278	-0.000
-353.537	-69.297	-0.289	-0.111
-352.523	215.037	0.056	0.090
-351.508	-200.000	0.188	-0.001
-350.493	-200.000	-0.027	0.294
-349.479	-129.480	-0.045	0.006
-348.464	51.565	0.148	-0.141
-347.450	326.923	-0.067	-0.129
-346.435	203.146	0.134	-0.208
-345.420	-40.910	-0.091	-0.047
-344.406	51.178	-0.056	-0.053
-343.391	-200.000	0.034	-0.228
-342.377	800.000	-0.104	-0.294
-341.362	-8.646	-0.012	0.008
-340.348	127.835	0.118	-0.150
-339.333	-111.099	-0.066	-0.013
-338.318	-78.410	-0.324	-0.111
-337.304	-200.000	0.032	0.415
-336.289	799.997	-0.170	0.470
-335.275	-115.149	0.282	-0.054
-334.260	-52.014	-0.266	0.124
-333.245	-144.097	0.228	-0.021
-332.231	68.309	0.045	0.046
-331.216	-200.000	0.209	-0.000
-330.202	800.000	0.048	0.147
-329.187	-93.627	0.151	-0.042
-328.172	-19.038	0.182	-0.113
-327.158	84.601	-0.201	0.220
-326.143	615.723	-0.066	-0.165
-325.129	15.900	-0.048	0.038
-324.114	-12.611	-0.162	-0.106
-323.099	85.447	0.268	0.294
-322.085	173.684	-0.202	-0.292
-321.070	-200.000	-0.029	-0.198
-320.056	-168.916	-0.250	-0.009
-319.041	-79.141	-0.472	-0.160
-318.026	800.000	0.073	-0.242
-317.012	-36.908	0.130	-0.070
-315.997	800.000	-0.063	0.229
-314.983	-94.496	0.443	0.121
-313.968	800.000	-0.092	-0.370
-312.953	692.955	0.069	0.181
-311.939	-153.966	-0.152	0.010
-310.924	-200.000	-0.020	0.360
-309.910	-25.543	0.278	-0.164
-308.895	98.266	-0.185	0.213
-307.880	800.000	0.051	0.211
-306.866	-200.000	-0.026	0.227
-305.851	-200.000	0.001	0.065
-304.837	-200.000	0.026	0.330
-303.822	-135.008	0.045	-0.005
-302.807	-27.814	0.230	0.133
-301.793	-14.905	-0.204	-0.131
-300.778	453.443	-0.050	-0.111
-299.764	-52.772	0.087	0.040
-298.749	-200.000	0.029	-0.144
-297.735	-71.553	0.182	-0.068
-296.720	-123.294	-0.243	0.039
-295.705	800.000	0.082	0.325
-294.691	800.000	-0.105	-0.359
-293.676	152.221	0.149	0.204
-292.662	-106.853	0.084	-0.019
-291.647	800.000	-0.068	0.199
-290.632	-150.691	-0.181	-0.014
-289.618	-115.346	0.162	0.031
-288.603	-200.000	-0.004	0.133
-287.589	800.000	0.049	-0.164
-286.574	-12.205	-0.227	0.149
-285.559	383.741	-0.094	-0.193
-284.545	-200.000	0.054	-0.299
-283.530	-5.101	0.423	-0.291
-282.516	-200.000	0.281	-0.001
-281.501	-200.000	-0.019	0.185
-280.486	-200.000	-0.003	-0.122
-279.472	-71.512	0.271	0.101
-278.457	46.941	0.131	-0.121
-277.443	800.000	-0.041	-0.177
-276.428	-200.000	0.019	-0.274
-275.413	-64.576	0.171	0.069
-274.399	295.374	-0.103	-0.189
-273.384	419.528	0.109	-0.233
-272.370	-131.763	0.364	0.048
-271.355	-151.307	0.169	0.013
-270.340	429.914	-0.120	0.260
-269.326	657.597	-0.090	0.231
-268.311	-43.992	-0.198	-0.100
-267.297	-145.415	0.560	-0.050
-266.282	-200.000	0.121	-0.000
-265.267	-0.286	-0.200	-0.142
-264.253	-188.415	-0.357	0.004
-263.238	-148.055	0.280	-0.023
-262.224	354.301	0.117	0.232
-261.209	-21.769	-0.107	-0.065
-260.195	-24.384	0.194	0.115
-259.180	-200.000	0.053	0.261
-258.165	-136.131	0.249	-0.029
-257.151	59.372	-0.075	0.074
-256.136	-56.456	0.340	-0.151
-255.122	220.009	-0.117	0.187
-254.107	58.601	-0.139	-0.136
-253.092	462.336	-0.072	0.159
-252.078	265.373	0.151	0.262
-251.063	372.553	-0.051	0.104
-250.049	-146.630	-0.240	0.021
-249.034	476.317	-0.064	-0.143
-248.019	-147.742	-0.048	0.004
-247.005	75.589	-0.064	-0.068
-245.990	-55.345	-0.185	-0.083
-244.976	-200.000	-0.034	-0.214
-243.961	85.774	-0.114	-0.125
-242.946	-17.749	-0.084	0.052
-241.932	800.000	0.030	0.110
-240.917	-200.000	-0.028	0.411
-239.903	-200.000	0.032	0.331
-238.888	221.261	0.098	-0.157
-237.873	185.538	-0.110	0.163
-236.859	800.000	0.091	0.361
-235.844	409.576	-0.104	0.220
-234.830	800.000	0.054	-0.233
-233.815	800.000	-0.056	-0.220
-232.800	107.861	0.090	-0.107
-231.786	-87.991	0.188	0.056
-230.771	-85.042	0.185	0.058
-229.757	114.449	0.139	0.169
-228.742	-116.729	-0.185	-0.034
-227.727	51.521	0.137	0.130
-226.713	-113.067	0.088	-0.017
-225.698	111.729	0.145	-0.174
-224.684	-8.622	0.038	-0.025
-223.669	800.000	0.028	-0.089
-222.655	45.377	0.099	0.091
-221.640	-67.309	-0.214	0.084
-220.625	800.000	-0.028	-0.109
-219.611	-200.000	-0.092	0.434
-218.596	-106.898	0.218	-0.048
-217.582	-146.207	0.368	0.032
-216.567	800.000	0.046	-0.177
-215.552	-4.430	-0.143	-0.099
-214.538	33.173	-0.210	-0.181
-213.523	-128.198	0.064	0.009
-212.509	-71.514	0.179	-0.067
-211.494	-200.000	0.016	-0.343
-210.479	-200.000	-0.057	0.302
-209.465	158.934	0.045	0.062
-208.450	129.694	-0.105	-0.133
-207.436	484.691	-0.036	0.082
-206.421	-157.381	0.196	-0.012
-205.406	217.167	-0.116	-0.184
-204.392	-57.062	-0.252	0.111
-203.377	-126.926	0.325	0.048
-202.363	490.528	0.131	-0.299
-201.348	800.000	0.045	0.132
-200.333	9.763	-0.052	0.040
-199.319	-128.129	-0.162	0.023
-198.304	-125.486	0.341	-0.052
-197.290	-39.591	-0.117	0.061
-196.275	-20.471	-0.233	-0.143
-195.260	-116.670	-0.177	0.032
-194.246	800.000	0.060	-0.187
-193.231	660.465	-0.080	-0.204
-192.217	-47.352	0.229	0.111
-191.202	143.890	-0.291	0.386
-190.187	323.472	0.191	0.364
-189.173	-200.000	0.063	-0.286
-188.158	800.000	-0.081	-0.248
-187.144	29.201	-0.170	0.144
-186.129	20.477	0.125	0.101
-185.114	-200.000	-0.032	0.243
-184.100	-7.862	-0.084	-0.057
-183.085	-81.092	-0.048	-0.016
-182.071	-3.340	0.144	-0.099
-181.056	-74.767	0.324	-0.116
-180.042	800.000	0.024	-0.104
-179.027	82.178	0.268	0.289
-178.012	462.078	-0.215	0.477
-176.998	279.566	-0.123	-0.219
-175.983	-186.611	0.245	-0.003
-174.969	-73.394	0.163	0.059
-173.954	-200.000	-0.008	-0.121
-172.939	71.071	-0.291	-0.300
-171.925	-109.595	-0.268	-0.056
-170.910	-114.922	-0.216	0.041
-169.896	-146.966	0.207	-0.018
-168.881	-39.773	0.027	-0.014
-167.866	195.366	0.102	-0.155
-166.852	18.302	0.324	-0.258
-165.837	12.408	0.082	0.063
-164.823	-39.046	-0.410	0.215
-163.808	-200.000	0.038	0.168
-162.793	-50.315	0.185	-0.087
-161.779	4.419	-0.085	-0.062
-160.764	779.658	-0.154	0.420
-159.750	-167.335	-0.114	0.005
-158.735	-200.000	-0.042	-0.255
-157.720	-200.000	0.033	0.409
-156.706	-24.680	0.174	0.103
-155.691	-200.000	-0.061	-0.285
-154.677	19.469	-0.186	-0.149
-153.662	-141.412	-0.094	0.009
-152.647	-200.000	0.024	-0.389
-151.633	800.000	-0.035	-0.124
-150.618	-159.616	0.203	0.011
-149.604	-34.817	0.080	0.043
-148.589	317.538	0.242	0.456
-147.574	-105.378	0.328	0.074
-146.560	-34.335	-0.124	0.068
-145.545	338.114	-0.061	0.119
-144.531	205.996	0.081	0.125
-143.516	-100.617	0.175	-0.043
-142.502	-96.653	0.054	0.014
-141.487	800.000	-0.055	-0.176
-140.472	263.088	-0.107	-0.184
-139.458	-105.416	0.224	-0.051
-138.443	-200.000	-0.061	0.319
-137.429	417.558	-0.081	0.171
-136.414	62.855	0.185	0.184
-135.399	-61.980	-0.137	0.057
-134.385	-11.546	0.147	-0.096
-133.370	16.842	0.014	-0.011
-132.356	800.000	0.040	0.172
-131.341	-200.000	-0.001	-0.017
-130.326	55.474	0.256	0.246
-129.312	34.504	0.030	-0.026
-128.297	-37.936	-0.298	0.157
-127.283	-166.316	0.357	0.015
-126.268	-60.210	-0.390	-0.165
-125.253	370.031	-0.029	-0.057
-124.239	-30.694	0.328	0.184
-123.224	-200.000	0.009	0.213
-122.210	-93.033	0.331	-0.092
