DTS Sentinel unit serial number:	SN413079Multiplexer serial number:	ORYXHardware model number:	OX4-SRSoftware version number:	ORYX F/W v4.00 Oryx Data Collector v3.7.2.0data status	okinstallation	princeton_trtdifferential loss correction	single-endedforward channel	channel 1reverse channel	N/Adate	2019/09/12time	18:09:34forward acquisition time	15.00reverse acquisition time	0.00gamma	496.2192k internal	0.2316k external	0.2316temperature offset calibration	1.0110default loss term (dB/km)	0.3790temperature slope calibration	1.0000multiplexer offset coefficient	1.0000multiplexer slope coefficient	1.0000fibre end	0.00T internal ref (°C)	33.62T ext. ref 1 (°C)	3.02T ext. ref 2 (°C)	28.18length (m)	temperature (°C)	Stokes	anti-Stokes-747.200	-90.799	-0.475	-0.139
-746.185	-111.756	0.590	0.121
-745.171	399.224	0.358	0.759
-744.156	47.794	-0.597	0.564
-743.142	25.846	0.413	-0.349
-742.127	-55.684	0.769	0.349
-741.112	156.646	0.201	-0.281
-740.098	-51.294	0.387	0.184
-739.083	-148.505	-0.280	-0.023
-738.069	-200.000	0.021	-0.287
-737.054	-21.522	0.106	0.066
-736.039	87.548	-0.338	0.379
-735.025	-119.735	-0.221	-0.039
-734.010	800.000	0.143	0.595
-732.996	472.527	-0.106	-0.242
-731.981	110.607	-0.380	-0.463
-730.966	574.936	0.148	-0.366
-729.952	63.159	-0.190	-0.192
-728.937	41.620	0.714	-0.654
-727.923	-156.116	-0.960	-0.061
-726.908	415.626	-0.053	-0.115
-725.894	-178.457	0.572	-0.013
-724.879	800.000	0.161	0.567
-723.864	-200.000	0.006	-0.436
-722.850	-81.320	-0.987	-0.329
-721.835	-140.813	-0.163	0.017
-720.821	531.275	0.307	0.735
-719.806	14.557	0.374	0.296
-718.791	-122.332	-0.398	0.066
-717.777	-96.832	-0.784	-0.208
-716.762	60.206	-0.393	-0.393
-715.748	-77.079	-0.256	-0.090
-714.733	51.560	-0.243	-0.233
-713.718	137.676	-0.041	-0.054
-712.704	-75.608	-0.182	-0.065
-711.689	800.000	0.034	0.144
-710.675	-137.192	-0.438	-0.050
-709.660	-122.075	0.749	-0.124
-708.645	-47.230	0.526	-0.259
-707.631	109.139	0.149	-0.180
-706.616	-106.388	0.630	0.142
-705.602	431.778	-0.250	-0.548
-704.587	-55.271	-0.906	-0.412
-703.572	115.989	0.395	-0.489
-702.558	23.069	0.151	-0.125
-701.543	800.000	-0.050	0.206
-700.529	67.665	0.213	-0.220
-699.514	800.000	-0.266	0.849
-698.499	-84.706	-0.552	-0.176
-697.485	-8.834	0.795	0.539
-696.470	-0.948	0.271	-0.194
-695.456	546.492	0.059	0.142
-694.441	125.210	0.395	-0.503
-693.426	-74.432	-0.579	-0.211
-692.412	-7.759	-0.383	0.262
-691.397	-200.000	0.038	-0.254
-690.383	-109.676	-0.987	0.210
-689.368	-128.152	-0.760	-0.110
-688.354	-60.752	0.421	0.180
-687.339	800.000	0.142	-0.496
-686.324	109.314	0.121	-0.147
-685.310	17.304	-0.673	0.540
-684.295	92.785	-0.264	0.301
-683.281	33.226	-0.316	-0.277
-682.266	-102.747	-0.667	-0.161
-681.251	-137.286	0.151	-0.017
-680.237	-119.240	-1.142	0.201
-679.222	350.185	-0.113	0.226
-678.208	248.741	-0.156	0.267
-677.193	94.376	-0.477	-0.547
-676.178	800.000	-0.122	-0.419
-675.164	800.000	-0.091	-0.255
-674.149	-102.381	0.391	-0.095
-673.135	51.298	-0.518	-0.496
-672.120	268.828	-0.170	-0.302
-671.105	240.513	0.218	0.367
-670.091	-173.727	-0.339	-0.010
-669.076	-132.154	0.456	-0.060
-668.062	14.925	0.112	0.089
-667.047	188.375	-0.225	-0.340
-666.032	-200.000	-0.038	0.692
-665.018	408.035	-0.315	0.672
-664.003	-54.616	-0.981	-0.448
-662.989	-72.229	-0.244	0.091
-661.974	-150.147	-0.897	0.070
-660.959	227.494	0.158	-0.259
-659.945	-200.000	-0.156	1.013
-658.930	20.663	1.069	0.874
-657.916	572.225	-0.298	0.733
-656.901	800.000	-0.262	0.831
-655.886	-200.000	-0.066	-1.285
-654.872	151.039	-0.534	-0.734
-653.857	-81.263	0.265	-0.088
-652.843	-85.337	-0.317	-0.100
-651.828	719.032	0.056	-0.149
-650.814	-132.793	0.264	-0.034
-649.799	156.717	0.470	0.655
-648.784	-76.027	-0.409	-0.146
-647.770	800.000	-0.275	0.854
-646.755	-200.000	-0.027	-0.163
-645.741	557.303	-0.039	0.094
-644.726	-200.000	-0.062	0.661
-643.711	-57.563	0.474	-0.210
-642.697	190.452	0.138	0.209
-641.682	-200.000	-0.014	-0.452
-640.668	800.000	0.249	-0.838
-639.653	-200.000	-0.199	-1.308
-638.638	409.617	-0.311	-0.665
-637.624	56.053	0.214	-0.210
-636.609	-122.018	0.794	-0.132
-635.595	148.097	0.226	-0.307
-634.580	-17.143	0.580	-0.369
-633.565	-111.893	-0.541	-0.110
-632.551	-200.000	0.056	-0.409
-631.536	-200.000	-0.105	0.924
-630.522	-53.472	-0.424	0.196
-629.507	-200.000	-0.017	0.631
-628.492	-40.589	-0.447	0.234
-627.478	800.000	-0.259	-0.976
-626.463	-200.000	-0.061	-0.593
-625.449	75.127	0.210	0.223
-624.434	94.573	0.062	0.071
-623.419	800.000	-0.133	-0.404
-622.405	800.000	-0.151	-0.471
-621.390	161.404	-0.461	0.650
-620.376	-116.907	-0.414	0.076
-619.361	-200.000	-0.076	0.620
-618.346	594.389	-0.216	0.539
-617.332	46.209	0.410	-0.383
-616.317	-155.008	-0.469	-0.031
-615.303	79.604	-0.321	0.347
-614.288	707.000	-0.143	-0.379
-613.273	800.000	-0.404	1.476
-612.259	22.525	0.496	0.409
-611.244	-200.000	-0.022	-0.232
-610.230	-188.957	-0.837	-0.010
-609.215	-28.625	-0.976	-0.566
-608.201	-158.750	0.227	-0.013
-607.186	37.835	1.067	-0.956
-606.171	321.875	0.499	0.956
-605.157	800.000	0.182	0.698
-604.142	111.881	0.300	0.364
-603.128	-200.000	-0.017	-0.132
-602.113	-7.104	0.164	-0.112
-601.098	35.764	-0.549	0.486
-600.084	-98.683	-0.554	0.142
-599.069	103.214	0.346	0.408
-598.055	-61.933	0.666	0.280
-597.040	-103.930	0.940	-0.221
-596.025	-200.000	-0.046	-0.637
-595.011	-100.431	0.350	0.087
-593.996	800.000	0.416	1.169
-592.982	-200.000	0.052	-0.411
-591.967	108.806	0.171	-0.205
-590.952	-163.966	-0.557	-0.026
-589.938	-96.973	-0.341	0.090
-588.923	157.281	-0.339	-0.473
-587.909	0.150	1.101	0.790
-586.894	-58.606	0.942	-0.411
-585.879	85.995	-0.546	0.605
-584.865	56.745	0.212	0.208
-583.850	17.298	-0.336	-0.269
-582.836	100.506	0.261	-0.305
-581.821	424.694	0.304	0.658
-580.806	153.249	-0.566	0.780
-579.792	219.742	-0.684	-1.102
-578.777	37.763	0.480	-0.429
-577.763	-200.000	-0.093	0.859
-576.748	-200.000	0.084	-0.497
-575.733	798.916	0.282	-0.784
-574.719	-85.131	0.465	-0.146
-573.704	800.000	-0.112	-0.446
-572.690	-200.000	0.025	0.476
-571.675	-200.000	0.019	0.484
-570.661	-63.761	-0.406	-0.167
-569.646	-200.000	0.078	1.029
-568.631	20.815	0.397	-0.324
-567.617	151.212	-0.306	0.418
-566.602	357.337	0.341	-0.684
-565.588	112.048	-0.462	0.562
-564.573	254.959	0.405	-0.697
-563.558	435.598	0.359	-0.785
-562.544	-126.427	-0.277	0.041
-561.529	-145.206	0.366	-0.033
-560.515	-141.727	0.907	0.092
-559.500	-173.757	-0.884	-0.026
-558.485	-87.554	0.623	0.189
-557.471	-70.874	0.574	-0.217
-556.456	29.107	0.290	-0.248
-555.442	-200.000	0.058	-0.562
-554.427	32.190	0.290	-0.252
-553.412	-75.262	-0.290	0.104
-552.398	800.000	-0.253	0.704
-551.383	-131.331	-0.982	-0.131
-550.369	-200.000	0.001	0.181
-549.354	108.074	-0.121	0.145
-548.339	-2.431	-0.871	0.613
-547.325	137.211	0.550	-0.722
-546.310	-159.984	0.447	-0.025
-545.296	662.992	0.404	-1.047
-544.281	-142.630	0.316	-0.031
-543.266	216.069	0.529	0.844
-542.252	-106.062	-0.784	0.177
-541.237	-54.245	-0.312	-0.142
-540.223	800.000	0.130	0.528
-539.208	800.000	0.055	-0.189
-538.193	-200.000	0.033	0.420
-537.179	-200.000	-0.006	0.339
-536.164	-200.000	-0.044	-0.649
-535.150	24.945	-0.300	0.250
-534.135	168.726	-0.160	0.229
-533.121	186.299	-0.164	0.245
-532.106	-86.036	0.489	0.152
-531.091	36.645	0.244	0.217
-530.077	-174.725	-0.470	0.013
-529.062	-92.335	0.345	-0.098
-528.048	-83.540	-0.788	0.253
-527.033	-122.651	-0.407	-0.066
-526.018	-57.258	-0.488	-0.216
-525.004	716.680	-0.102	0.273
-523.989	-60.044	0.542	-0.232
-522.975	-108.168	-0.557	-0.121
-521.960	-95.609	-0.231	-0.062
-520.945	800.000	-0.228	-0.794
-519.931	227.100	0.422	0.689
-518.916	-48.043	0.312	0.151
-517.902	2.544	-0.313	0.228
-516.887	-200.000	-0.097	0.436
-515.872	-77.741	0.604	-0.210
-514.858	-57.614	0.872	-0.384
-513.843	800.000	-0.101	0.381
-512.829	-159.229	0.679	-0.038
-511.814	-84.846	-0.431	-0.136
-510.799	-200.000	0.081	-0.639
-509.785	246.168	-0.207	-0.350
-508.770	-50.984	0.839	-0.395
-507.756	-200.000	0.014	0.306
-506.741	-200.000	0.035	0.212
-505.726	-72.934	-0.286	-0.106
-504.712	-74.657	0.915	-0.330
-503.697	-158.354	0.427	-0.025
-502.683	-200.000	-0.088	-0.395
-501.668	287.322	-0.104	-0.189
-500.653	-21.120	0.813	-0.499
-499.639	-200.000	-0.003	-0.737
-498.624	-200.000	-0.026	0.165
-497.610	-76.073	0.167	-0.059
-496.595	524.391	-0.107	0.252
-495.581	-109.142	-0.414	0.088
-494.566	-55.522	-0.266	-0.120
-493.551	108.835	0.275	0.329
-492.537	-59.291	0.421	0.182
-491.522	177.942	0.354	-0.518
-490.508	-122.934	-0.274	0.044
-489.493	68.734	-0.397	0.409
-488.478	-200.000	-0.055	-0.575
-487.464	108.155	0.662	-0.792
-486.449	-49.792	0.534	0.254
-485.435	-6.220	-0.538	0.368
-484.420	-99.140	-0.269	-0.068
-483.405	5.729	-0.729	-0.540
-482.391	299.626	0.239	0.441
-481.376	37.189	-0.085	-0.075
-480.362	-200.000	0.071	-0.505
-479.347	-6.951	0.357	0.243
-478.332	141.365	0.352	-0.467
-477.318	294.021	0.198	0.362
-476.303	351.338	-0.235	-0.467
-475.289	398.132	-0.061	-0.129
-474.274	124.047	0.579	-0.729
-473.259	86.335	-0.074	-0.082
-472.245	285.831	0.252	0.455
-471.230	-200.000	0.062	0.573
-470.216	-117.894	-0.335	-0.060
-469.201	-49.304	0.720	-0.344
-468.186	564.880	0.324	-0.786
-467.172	-126.964	-0.400	-0.059
-466.157	-2.394	0.679	0.477
-465.143	-94.384	0.598	0.164
-464.128	-37.206	-0.601	-0.322
-463.113	-107.744	-0.316	-0.069
-462.099	-17.165	-0.776	0.490
-461.084	38.395	0.710	0.634
-460.070	-152.643	-0.765	0.055
-459.055	-66.624	-0.646	-0.257
-458.040	34.577	0.646	-0.565
-457.026	89.493	-0.310	0.346
-456.011	195.638	-0.123	0.187
-454.997	387.026	-0.094	-0.194
-453.982	645.798	0.045	-0.116
-452.968	-153.806	-0.779	-0.053
-451.953	13.996	0.189	0.147
-450.938	-136.668	1.060	-0.123
-449.924	-200.000	-0.007	0.385
-448.909	800.000	-0.160	0.536
-447.895	236.892	-0.250	-0.415
-446.880	112.393	0.263	0.318
-445.865	-140.880	-1.027	0.106
-444.851	-5.114	0.586	0.404
-443.836	136.466	-0.413	0.539
-442.822	348.771	0.420	0.829
-441.807	97.237	0.226	0.260
-440.792	-31.668	-0.257	-0.144
-439.778	156.483	-0.287	-0.397
-438.763	-200.000	-0.184	-1.003
-437.749	198.358	0.068	0.105
-436.734	180.146	0.244	0.358
-435.719	289.006	-0.234	-0.425
-434.705	-200.000	0.035	-0.645
-433.690	316.531	-0.111	0.210
-432.676	-132.553	-0.684	-0.088
-431.661	-100.652	0.729	-0.180
-430.646	800.000	-0.103	0.311
-429.632	-127.222	0.310	0.045
-428.617	685.131	-0.366	0.955
-427.603	-88.467	-0.392	-0.117
-426.588	-200.000	0.208	-1.061
-425.573	-200.000	-0.020	0.193
-424.559	32.698	-0.167	-0.145
-423.544	263.900	-0.410	0.714
-422.530	255.626	-0.184	-0.316
-421.515	320.675	-0.625	1.187
-420.500	269.603	0.098	-0.172
-419.486	-200.000	0.013	-0.306
-418.471	32.688	-0.494	0.427
-417.457	800.000	-0.141	-0.431
-416.442	279.289	-0.355	-0.633
-415.428	-153.683	-0.656	0.045
-414.413	79.528	0.135	-0.145
-413.398	-154.185	-0.438	0.030
-412.384	-91.132	0.660	0.189
-411.369	-200.000	-0.007	0.409
-410.355	-29.295	-0.260	0.149
-409.340	79.052	0.347	0.371
-408.325	-84.893	0.420	-0.132
-407.311	141.202	-0.290	0.384
-406.296	-26.510	-0.441	0.259
-405.282	-127.684	-0.334	-0.048
-404.267	-99.487	0.676	-0.170
-403.252	25.833	0.202	-0.168
-402.238	107.988	-0.573	0.683
-401.223	-200.000	0.112	0.576
-400.209	-108.777	-1.310	-0.280
-399.194	-200.000	0.141	-0.717
-398.179	-115.819	-0.203	0.038
-397.165	318.415	-0.525	0.993
-396.150	800.000	0.079	0.328
-395.136	208.471	0.265	0.414
-394.121	372.600	-0.329	-0.668
-393.106	2.768	-0.147	-0.107
-392.092	-64.477	-0.493	-0.200
-391.077	800.000	0.305	-0.881
-390.063	117.016	-0.384	-0.471
-389.048	-13.202	-0.663	-0.430
-388.033	37.109	0.534	0.472
-387.019	401.696	0.130	-0.272
-386.004	138.327	-0.294	0.386
-384.990	-97.439	-0.735	0.191
-383.975	-36.216	0.383	0.206
-382.960	800.000	0.051	-0.172
-381.946	-200.000	0.041	-0.367
-380.931	300.061	-0.195	0.360
-379.917	115.676	-0.308	0.376
-378.902	71.626	0.195	0.202
-377.888	-178.038	-0.337	0.008
-376.873	-69.742	0.434	-0.166
-375.858	667.197	-0.254	-0.655
-374.844	800.000	0.078	-0.266
-373.829	800.000	-0.040	0.128
-372.815	681.212	-0.079	-0.206
-371.800	-200.000	0.582	0.003
-370.785	-81.846	0.276	-0.090
-369.771	800.000	-0.165	0.527
-368.756	-90.259	-0.751	-0.218
-367.742	42.813	-0.266	-0.242
-366.727	4.651	0.562	-0.412
-365.712	101.156	-0.326	-0.379
-364.698	300.966	0.230	0.424
-363.683	-95.185	0.471	-0.127
-362.669	623.895	-0.116	-0.292
-361.654	171.536	-0.288	-0.412
-360.639	186.089	-0.099	-0.147
-359.625	222.554	0.209	-0.335
-358.610	183.232	0.503	0.741
-357.596	-91.956	-0.331	0.093
-356.581	-200.000	-0.050	0.277
-355.566	-120.625	0.930	-0.157
-354.552	-70.745	-0.753	0.284
-353.537	-8.622	0.625	-0.418
-352.523	-121.569	0.476	-0.079
-351.508	-199.185	1.069	-0.006
-350.493	-200.000	-0.024	0.532
-349.479	-200.000	-0.024	-0.219
-348.464	-64.159	0.664	0.270
-347.450	-6.373	-0.614	0.418
-346.435	-200.000	-0.006	0.721
-345.420	-96.777	-0.441	0.116
-344.406	6.551	-0.484	-0.359
-343.391	363.972	0.213	-0.428
-342.377	-15.658	-0.316	0.201
-341.362	-159.501	-1.277	-0.071
-340.348	-11.333	0.493	0.324
-339.333	48.865	0.331	-0.310
-338.318	248.421	-0.127	-0.214
-337.304	16.899	0.313	0.247
-336.289	635.151	-0.065	-0.165
-335.275	688.981	0.143	0.372
-334.260	800.000	-0.020	-0.069
-333.245	180.553	0.303	0.444
-332.231	108.667	0.292	-0.348
-331.216	6.013	0.372	-0.275
-330.202	-121.231	0.547	0.091
-329.187	-137.444	-0.641	0.072
-328.172	-200.000	0.030	-0.194
-327.158	-67.460	0.751	-0.294
-326.143	157.990	0.316	-0.436
-325.129	-140.107	0.540	-0.057
-324.114	34.780	0.949	0.827
-323.099	-200.000	-0.180	0.960
-322.085	30.699	-0.678	0.578
-321.070	-159.525	0.350	-0.019
-320.056	144.953	0.045	0.060
-319.041	20.192	-0.411	-0.330
-318.026	-157.651	-0.731	0.043
-317.012	-123.905	-0.796	-0.125
-315.997	66.611	-0.233	-0.236
-314.983	388.284	0.283	-0.582
-313.968	-93.659	-0.479	0.132
-312.953	-93.321	-0.153	-0.042
-311.939	-94.141	0.049	-0.013
-310.924	-200.000	-0.035	-0.473
-309.910	35.188	-0.399	0.348
-308.895	-200.000	0.123	0.689
-307.880	-103.597	-0.177	-0.041
-306.866	800.000	-0.073	0.285
-305.851	-200.000	-0.030	-0.255
-304.837	-176.925	0.370	-0.009
-303.822	-100.015	0.726	-0.180
-302.807	-16.958	-0.634	0.399
-301.793	-52.757	0.301	-0.138
-300.778	1.525	0.294	0.210
-299.764	-41.221	-0.494	-0.254
-298.749	451.963	0.121	-0.267
-297.735	69.940	0.396	-0.407
-296.720	445.952	-0.162	-0.354
-295.705	-159.605	-0.260	-0.014
-294.691	293.054	-0.415	0.754
-293.676	-200.000	0.119	0.774
-292.662	-200.000	-0.076	0.773
-291.647	-69.285	-0.778	-0.297
-290.632	800.000	-0.075	-0.289
-289.618	-200.000	0.051	-0.975
-288.603	-105.627	0.659	0.149
-287.589	-200.000	0.057	0.738
-286.574	-200.000	-0.032	-0.328
-285.559	800.000	-0.269	-0.806
-284.545	6.728	-0.340	-0.252
-283.530	140.056	0.582	0.764
-282.516	95.207	0.591	0.670
-281.501	-61.118	0.463	-0.194
-280.486	376.784	-0.067	0.136
-279.472	-48.706	0.611	-0.292
-278.457	-200.000	0.005	0.893
-277.443	60.109	0.229	-0.225
-276.428	80.866	0.927	-0.994
-275.413	55.882	0.247	-0.238
-274.399	-7.751	-0.540	0.363
-273.384	-82.246	0.476	-0.154
-272.370	-200.000	0.120	-0.745
-271.355	54.589	0.711	0.681
-270.340	-170.825	0.517	0.018
-269.326	-13.035	-0.353	0.228
-268.311	800.000	-0.091	0.368
-267.297	233.218	-0.137	0.225
-266.282	458.929	-0.195	0.431
-265.267	800.000	0.065	-0.190
-264.253	22.404	0.681	-0.553
-263.238	800.000	-0.231	-0.720
-262.224	-78.264	-0.647	-0.221
-261.209	2.522	-0.255	-0.183
-260.195	-17.395	-0.095	0.059
-259.180	166.366	-0.526	-0.740
-258.165	-184.381	0.743	-0.012
-257.151	529.661	-0.373	-0.875
-256.136	35.584	0.263	-0.229
-255.122	-200.000	0.112	0.564
-254.107	-75.410	-0.463	0.164
-253.092	-200.000	-0.003	-0.146
-252.078	241.482	-0.680	-1.129
-251.063	160.729	0.393	-0.544
-250.049	227.415	0.060	-0.097
-249.034	173.997	-0.126	-0.181
-248.019	800.000	-0.119	0.410
-247.005	532.883	-0.288	0.678
-245.990	237.236	-0.156	0.257
-244.976	211.050	-0.249	0.389
-243.961	-200.000	0.105	0.459
-242.946	-198.646	-0.700	-0.004
-241.932	335.348	-0.301	-0.580
-240.917	-5.989	0.478	-0.325
-239.903	35.146	-1.297	-1.129
-238.888	-200.000	-0.003	-0.314
-237.873	86.899	0.654	-0.717
-236.859	-133.326	0.189	0.024
-235.844	-60.750	0.865	-0.364
-234.830	800.000	0.261	-0.717
-233.815	800.000	0.182	-0.777
-232.800	-24.297	0.282	0.167
-231.786	-84.133	0.151	-0.047
-230.771	619.674	0.203	0.506
-229.757	-22.408	-0.570	0.343
-228.742	-73.588	0.892	-0.323
-227.727	-127.803	-0.650	-0.093
-226.713	108.377	-0.402	0.476
-225.698	9.316	0.260	-0.195
-224.684	-73.901	-0.214	-0.077
-223.669	443.661	0.089	-0.193
-222.655	434.868	0.138	-0.297
-221.640	-200.000	-0.028	0.165
-220.625	-21.225	-0.378	-0.229
-219.611	-59.489	-0.239	0.102
-218.596	114.922	-0.211	-0.256
-217.582	800.000	-0.177	-0.562
-216.567	-146.319	-0.760	-0.066
-215.552	-25.738	0.661	-0.387
-214.538	29.597	1.045	0.882
-213.523	-57.303	-0.600	0.262
-212.509	-0.186	-0.371	0.262
-211.494	57.070	0.318	0.307
-210.479	800.000	-0.095	0.407
-209.465	-187.963	-0.290	0.004
-208.450	800.000	0.115	-0.479
-207.436	84.347	-0.557	0.604
-206.421	-200.000	-0.022	-0.356
-205.406	-38.374	0.431	-0.226
-204.392	87.093	-0.110	-0.121
-203.377	-16.230	-0.480	0.303
-202.363	-200.000	0.018	-0.902
-201.348	800.000	-0.198	-0.588
-200.333	252.107	0.478	0.807
-199.319	23.461	-0.532	0.434
-198.304	271.037	-0.313	-0.546
-197.290	-14.895	-0.318	-0.202
-196.275	-79.366	-0.452	0.152
-195.260	800.000	-0.061	0.254
-194.246	800.000	0.080	0.234
-193.231	-200.000	0.119	0.765
-192.217	306.768	0.115	-0.212
-191.202	232.629	-0.341	-0.554
-190.187	800.000	0.268	0.885
-189.173	48.883	-0.242	-0.226
-188.158	-36.274	-0.668	-0.357
-187.144	-43.804	1.095	-0.546
-186.129	179.755	0.493	-0.716
-185.114	96.362	-0.414	0.470
-184.100	15.833	-0.523	0.408
-183.085	-200.000	0.010	0.062
-182.071	-63.775	0.306	0.124
-181.056	236.058	-0.430	0.705
-180.042	72.880	-0.882	0.913
-179.027	800.000	-0.237	-0.678
-178.012	-99.769	0.371	0.092
-176.998	-105.012	0.392	-0.089
-175.983	23.013	-0.250	0.203
-174.969	-200.000	-0.149	1.023
-173.954	-84.200	0.562	0.177
-172.939	-176.511	0.400	0.010
-171.925	156.791	0.045	0.062
-170.910	129.892	0.088	0.112
-169.896	176.851	0.800	1.152
-168.881	94.525	-0.231	0.260
-167.866	-106.175	-0.678	-0.151
-166.852	-100.218	0.515	-0.127
-165.837	7.081	-0.415	-0.307
-164.823	-200.000	-0.049	-0.215
-163.808	160.688	-0.377	-0.521
-162.793	-200.000	0.017	0.518
-161.779	-109.054	0.603	-0.127
-160.764	-54.130	0.402	0.181
-159.750	-111.608	0.647	0.130
-158.735	-142.188	0.885	0.087
-157.720	63.287	-0.606	0.602
-156.706	93.890	0.253	0.283
-155.691	-173.060	-0.319	-0.010
-154.677	-90.262	-0.218	-0.063
-153.662	27.858	0.057	-0.048
-152.647	443.013	-0.345	0.749
-151.633	-51.810	0.457	0.211
-150.618	-61.656	-0.169	0.070
-149.604	-150.290	-0.492	0.038
-148.589	44.128	-0.721	0.654
-147.574	295.424	0.291	0.527
-146.560	-200.000	-0.022	0.348
-145.545	-200.000	0.036	-0.346
-144.531	23.194	0.171	0.139
-143.516	-102.784	0.333	-0.078
-142.502	274.446	0.292	-0.511
-141.487	-126.094	-0.874	0.130
-140.472	97.408	-0.250	-0.284
-139.458	-11.082	0.557	-0.363
-138.443	-124.920	-0.229	0.035
-137.429	324.475	0.542	1.023
-136.414	-200.000	-0.087	0.650
-135.399	-16.017	-0.401	0.252
-134.385	-200.000	0.036	0.200
-133.370	-29.734	-0.333	-0.188
-132.356	800.000	0.225	0.761
-131.341	-13.647	-0.591	0.378
-130.326	-200.000	0.437	0.001
-129.312	-200.000	0.062	0.346
-128.297	-135.310	0.048	0.006
-127.283	-0.822	-0.331	-0.232
-126.268	18.829	-0.265	0.210
-125.253	774.979	-0.167	-0.449
-124.239	800.000	-0.029	0.100
-123.224	84.651	-0.386	-0.418
-122.210	511.313	0.079	0.181
