DTS Sentinel unit serial number:	SN413079Multiplexer serial number:	ORYXHardware model number:	OX4-SRSoftware version number:	ORYX F/W v4.00 Oryx Data Collector v3.7.2.0data status	okinstallation	princeton_trtdifferential loss correction	single-endedforward channel	channel 1reverse channel	N/Adate	2019/09/15time	06:58:35forward acquisition time	60.00reverse acquisition time	0.00gamma	496.2192k internal	0.2325k external	0.2325temperature offset calibration	0.9995default loss term (dB/km)	0.3790temperature slope calibration	1.0000multiplexer offset coefficient	1.0000multiplexer slope coefficient	1.0000fibre end	0.00T internal ref (°C)	30.50T ext. ref 1 (°C)	4.87T ext. ref 2 (°C)	25.57length (m)	temperature (°C)	Stokes	anti-Stokes-747.200	-38.522	-0.059	0.031
-746.185	-200.000	0.025	0.382
-745.171	-133.238	0.036	-0.005
-744.156	-65.784	-0.254	0.103
-743.142	-100.193	0.150	0.038
-742.127	65.494	0.058	-0.059
-741.112	153.128	-0.140	0.193
-740.098	800.000	-0.027	0.099
-739.083	800.000	-0.043	-0.122
-738.069	-200.000	-0.056	0.321
-737.054	800.000	-0.028	0.124
-736.039	194.424	-0.119	-0.182
-735.025	194.011	0.099	-0.151
-734.010	-200.000	0.029	-0.165
-732.996	-200.000	-0.025	0.247
-731.981	-200.000	-0.034	0.245
-730.966	-39.875	0.308	0.162
-729.952	-200.000	0.007	0.049
-728.937	800.000	-0.044	-0.166
-727.923	800.000	0.064	-0.217
-726.908	153.832	-0.027	-0.037
-725.894	-200.000	-0.004	-0.033
-724.879	-128.446	-0.049	-0.007
-723.864	32.213	-0.109	0.095
-722.850	134.891	-0.032	-0.042
-721.835	-200.000	-0.067	0.386
-720.821	-66.003	-0.279	-0.113
-719.806	758.304	0.095	-0.260
-718.791	-171.754	-0.049	-0.002
-717.777	-196.435	0.136	0.001
-716.762	282.010	0.152	-0.274
-715.748	92.855	0.123	-0.140
-714.733	-200.000	0.004	0.071
-713.718	-200.000	0.010	0.163
-712.704	15.655	-0.284	0.225
-711.689	-200.000	-0.017	-0.160
-710.675	800.000	0.012	0.045
-709.660	800.000	0.055	0.224
-708.645	-200.000	-0.059	0.290
-707.631	-51.022	0.214	-0.101
-706.616	800.000	-0.162	-0.547
-705.602	-200.000	0.029	-0.130
-704.587	-193.492	-0.186	-0.002
-703.572	207.571	0.098	0.155
-702.558	-43.110	0.058	-0.030
-701.543	-137.693	0.187	-0.021
-700.529	560.968	0.081	-0.197
-699.514	478.534	-0.132	-0.302
-698.499	339.639	0.058	-0.114
-697.485	-165.030	-0.403	-0.018
-696.470	26.075	-0.179	-0.151
-695.456	-12.162	0.227	0.150
-694.441	140.309	-0.284	-0.377
-693.426	88.017	0.149	-0.166
-692.412	56.841	-0.232	-0.227
-691.397	-37.913	0.198	-0.106
-690.383	-200.000	-0.006	-0.099
-689.368	64.366	-0.069	0.070
-688.354	-200.000	-0.011	0.212
-687.339	44.071	0.091	0.084
-686.324	438.068	-0.135	0.296
-685.310	-119.884	-0.152	0.026
-684.295	800.000	-0.029	-0.099
-683.281	-32.090	-0.147	-0.083
-682.266	467.915	-0.121	0.273
-681.251	800.000	0.058	-0.221
-680.237	22.436	-0.291	-0.239
-679.222	-200.000	0.005	0.113
-678.208	309.236	-0.128	-0.240
-677.193	-82.052	-0.218	-0.072
-676.178	-200.000	-0.055	-0.316
-675.164	-95.643	-0.112	0.030
-674.149	-55.509	-0.286	-0.129
-673.135	300.363	-0.053	0.098
-672.120	-113.036	0.276	0.055
-671.105	-32.002	-0.298	-0.168
-670.091	-49.399	0.054	-0.026
-669.076	-200.000	0.018	-0.307
-668.062	23.942	-0.145	0.120
-667.047	-200.000	-0.020	0.091
-666.032	-200.000	-0.004	-0.144
-665.018	291.097	-0.135	-0.246
-664.003	-200.000	-0.024	-0.154
-662.989	-141.528	0.069	0.007
-661.974	-200.000	-0.007	0.051
-660.959	-18.698	-0.089	-0.056
-659.945	22.572	0.111	-0.092
-658.930	-200.000	0.034	-0.195
-657.916	528.644	-0.089	-0.211
-656.901	-60.182	0.192	-0.082
-655.886	29.468	0.043	0.037
-654.872	-154.194	-0.172	-0.012
-653.857	243.555	-0.117	-0.197
-652.843	-31.794	0.069	0.039
-651.828	20.518	-0.124	0.101
-650.814	-200.000	-0.021	0.118
-649.799	164.463	0.175	0.248
-648.784	751.935	-0.122	-0.331
-647.770	602.242	-0.070	-0.175
-646.755	-200.000	0.036	-0.347
-645.741	159.044	-0.070	0.097
-644.726	-200.000	-0.012	0.133
-643.711	-27.982	-0.445	-0.259
-642.697	-121.678	0.294	-0.049
-641.682	-60.991	-0.211	-0.090
-640.668	-147.765	-0.117	0.010
-639.653	466.521	0.050	-0.113
-638.638	586.565	-0.072	0.178
-637.624	564.716	-0.065	-0.159
-636.609	-200.000	0.049	-0.314
-635.595	-28.504	0.077	0.045
-634.580	-200.000	-0.061	0.271
-633.565	55.887	0.096	0.093
-632.551	-171.470	-0.079	-0.003
-631.536	-55.395	0.350	-0.158
-630.522	800.000	-0.065	-0.265
-629.507	-48.708	0.190	-0.091
-628.492	304.150	-0.111	0.207
-627.478	-40.394	0.105	-0.055
-626.463	59.675	0.078	-0.077
-625.449	212.071	-0.125	-0.197
-624.434	11.747	-0.097	0.075
-623.419	20.439	-0.071	-0.057
-622.405	-113.630	0.115	0.023
-621.390	-54.916	0.130	-0.059
-620.376	-24.312	0.181	0.109
-619.361	-88.041	-0.369	0.111
-618.346	50.624	0.232	-0.221
-617.332	-102.272	-0.310	-0.075
-616.317	70.052	-0.194	0.202
-615.303	-89.329	0.066	0.020
-614.288	-117.531	-0.498	0.090
-613.273	-57.218	0.060	0.027
-612.259	800.000	0.137	-0.423
-611.244	-132.202	-0.122	-0.016
-610.230	800.000	0.095	-0.288
-609.215	27.141	0.064	0.054
-608.201	-119.456	-0.321	0.056
-607.186	23.852	-0.158	-0.131
-606.171	-60.315	0.253	-0.108
-605.157	-200.000	-0.024	-0.244
-604.142	800.000	-0.025	0.087
-603.128	329.400	-0.068	0.131
-602.113	-78.569	0.326	-0.112
-601.098	450.244	-0.102	0.225
-600.084	-136.587	0.176	-0.020
-599.069	39.519	0.117	-0.106
-598.055	-200.000	-0.074	0.414
-597.040	800.000	0.032	-0.117
-596.025	-111.712	0.064	-0.013
-595.011	-31.757	0.172	0.097
-593.996	36.409	-0.118	0.104
-592.982	-200.000	-0.006	0.137
-591.967	-75.057	0.303	0.109
-590.952	115.161	0.288	-0.352
-589.938	4.477	-0.092	-0.067
-588.923	445.525	-0.166	0.367
-587.909	-200.000	-0.021	0.472
-586.894	393.630	0.126	-0.264
-585.879	-13.239	0.092	-0.060
-584.865	543.416	0.073	-0.174
-583.850	-102.361	0.098	0.024
-582.836	169.559	-0.084	0.120
-581.821	800.000	0.006	-0.019
-580.806	-161.567	0.139	0.007
-579.792	30.486	-0.107	0.092
-578.777	-200.000	0.048	0.227
-577.763	53.158	0.235	0.226
-576.748	-175.597	-0.411	0.011
-575.733	-69.910	0.204	0.078
-574.719	-4.007	0.370	0.257
-573.704	464.545	0.084	-0.189
-572.690	-200.000	0.009	-0.342
-571.675	800.000	-0.129	-0.388
-570.661	-102.181	0.074	-0.018
-569.646	800.000	-0.071	0.278
-568.631	204.678	-0.090	-0.140
-567.617	-200.000	-0.038	0.233
-566.602	800.000	-0.038	-0.111
-565.588	207.671	0.090	-0.141
-564.573	-85.973	0.182	0.056
-563.558	58.960	-0.218	0.215
-562.544	-111.199	-0.211	0.043
-561.529	-64.148	0.272	-0.111
-560.515	-39.311	-0.025	0.013
-559.500	-200.000	0.064	-0.504
-558.485	-31.031	0.211	-0.120
-557.471	468.708	0.179	-0.402
-556.456	-200.000	0.007	-0.108
-555.442	716.107	0.063	-0.168
-554.427	92.083	0.220	-0.248
-553.412	-106.023	0.186	-0.042
-552.398	-21.256	-0.105	-0.065
-551.383	800.000	-0.041	0.175
-550.369	369.006	-0.157	-0.317
-549.354	-200.000	0.018	0.128
-548.339	271.034	0.051	-0.091
-547.325	-169.799	-0.339	0.012
-546.310	-94.894	0.217	-0.059
-545.296	-34.031	-0.120	0.066
-544.281	-43.865	0.052	0.026
-543.266	-128.917	-0.111	-0.016
-542.252	-130.382	0.146	0.020
-541.237	-200.000	0.042	0.187
-540.223	127.626	0.092	-0.117
-539.208	180.210	0.146	0.215
-538.193	-82.665	-0.250	0.081
-537.179	60.252	0.138	0.136
-536.164	-183.674	0.088	0.001
-535.150	14.197	0.125	-0.097
-534.135	-200.000	0.041	0.302
-533.121	800.000	0.031	0.125
-532.106	-200.000	-0.007	-0.057
-531.091	-43.765	-0.199	0.100
-530.077	-200.000	0.038	-0.330
-529.062	-6.198	-0.124	-0.085
-528.048	-200.000	0.070	0.386
-527.033	800.000	0.108	0.307
-526.018	-36.590	-0.093	0.050
-525.004	-63.846	0.146	-0.060
-523.989	-171.501	-0.196	-0.007
-522.975	800.000	0.047	0.175
-521.960	353.336	0.142	0.281
-520.945	-51.634	0.309	0.144
-519.931	-157.220	0.096	0.006
-518.916	-42.346	0.050	0.026
-517.902	-200.000	-0.014	-0.218
-516.887	-14.346	0.448	0.289
-515.872	-79.664	-0.313	0.106
-514.858	218.747	0.056	-0.090
-513.843	-72.144	0.326	-0.121
-512.829	98.959	0.097	0.112
-511.814	184.979	-0.129	-0.191
-510.799	132.537	-0.211	0.272
-509.785	-59.248	0.090	-0.039
-508.770	-55.195	-0.223	0.100
-507.756	472.644	0.049	-0.111
-506.741	-83.666	0.203	-0.065
-505.726	-31.824	-0.213	-0.119
-504.712	-200.000	0.012	-0.289
-503.697	343.615	0.109	0.214
-502.683	-55.239	-0.284	0.128
-501.668	231.144	-0.087	0.142
-500.653	800.000	-0.061	0.253
-499.639	-77.415	0.270	-0.094
-498.624	-200.000	0.015	-0.385
-497.610	-83.158	-0.005	0.002
-496.595	-200.000	0.010	-0.377
-495.581	-24.297	0.196	0.117
-494.566	-20.497	0.119	-0.073
-493.551	36.194	-0.057	-0.050
-492.537	-119.337	-0.429	0.075
-491.522	-200.000	0.001	0.086
-490.508	-200.000	0.022	0.100
-489.493	-96.387	-0.120	-0.032
-488.478	-200.000	-0.013	0.095
-487.464	-200.000	0.001	-0.204
-486.449	-100.239	0.069	0.017
-485.435	-34.599	-0.339	0.185
-484.420	-14.966	-0.137	0.088
-483.405	-56.335	-0.226	0.101
-482.391	-200.000	-0.043	0.213
-481.376	20.306	0.154	0.124
-480.362	-200.000	-0.019	0.104
-479.347	128.844	0.124	-0.159
-478.332	252.308	-0.053	0.090
-477.318	2.366	0.049	0.035
-476.303	-61.915	-0.041	0.017
-475.289	46.302	-0.103	0.095
-474.274	165.555	0.174	-0.246
-473.259	-200.000	-0.032	-0.316
-472.245	800.000	-0.049	-0.160
-471.230	-45.748	0.202	-0.100
-470.216	-54.680	0.311	-0.141
-469.201	345.744	-0.074	0.146
-468.186	-8.270	0.294	-0.197
-467.172	-90.513	0.106	0.031
-466.157	-200.000	0.022	0.125
-465.143	54.457	0.161	-0.155
-464.128	-122.716	0.204	-0.033
-463.113	-135.752	-0.226	0.027
-462.099	-16.981	-0.237	0.150
-461.084	800.000	-0.065	0.256
-460.070	383.913	0.045	0.092
-459.055	-102.172	-0.176	0.042
-458.040	117.686	0.243	-0.299
-457.026	-200.000	-0.006	0.328
-456.011	-200.000	0.035	-0.201
-454.997	800.000	-0.035	-0.144
-453.982	120.828	-0.084	0.105
-452.968	197.891	-0.210	0.320
-451.953	212.888	-0.104	0.163
-450.938	800.000	-0.101	-0.334
-449.924	-20.855	0.101	-0.062
-448.909	727.211	-0.024	-0.064
-447.895	-45.011	-0.177	-0.088
-446.880	-133.465	0.130	-0.016
-445.865	167.847	0.068	0.097
-444.851	-200.000	0.025	-0.276
-443.836	-6.734	-0.239	0.162
-442.822	227.440	-0.043	-0.069
-441.807	35.876	0.150	-0.131
-440.792	160.287	0.152	0.211
-439.778	-24.885	-0.175	0.104
-438.763	114.084	-0.073	-0.089
-437.749	584.133	0.096	-0.235
-436.734	-200.000	0.004	-0.102
-435.719	800.000	0.111	-0.385
-434.705	93.182	0.060	-0.068
-433.690	-26.851	0.274	-0.160
-432.676	-111.472	0.101	-0.020
-431.661	-200.000	-0.004	-0.158
-430.646	465.998	-0.090	0.201
-429.632	107.139	0.052	-0.061
-428.617	608.686	0.130	-0.322
-427.603	139.419	0.036	0.047
-426.588	67.365	0.336	0.342
-425.573	-28.779	0.264	0.151
-424.559	-200.000	-0.002	-0.181
-423.544	114.525	0.158	-0.191
-422.530	-84.289	0.040	0.012
-421.515	-20.509	0.069	0.043
-420.500	800.000	-0.046	-0.140
-419.486	125.655	-0.114	0.144
-418.471	-17.733	-0.280	0.175
-417.457	-17.101	-0.110	-0.069
-416.442	-79.687	0.452	0.152
-415.428	263.817	0.253	0.438
-414.413	-43.111	-0.192	0.097
-413.398	-11.130	-0.112	-0.074
-412.384	-74.114	-0.100	-0.036
-411.369	170.192	0.049	-0.070
-410.355	-200.000	0.002	0.082
-409.340	-74.165	-0.085	-0.031
-408.325	-51.906	-0.278	-0.129
-407.311	-69.593	0.024	0.009
-406.296	-200.000	0.027	-0.142
-405.282	111.894	0.185	0.223
-404.267	-200.000	-0.025	0.143
-403.252	387.564	0.121	-0.248
-402.238	-200.000	0.001	-0.321
-401.223	7.794	0.101	0.075
-400.209	-118.953	-0.328	-0.057
-399.194	-114.800	0.306	0.058
-398.179	-108.435	-0.279	-0.060
-397.165	170.409	-0.102	-0.145
-396.150	-29.957	-0.122	-0.069
-395.136	198.080	-0.132	0.200
-394.121	123.545	0.049	-0.061
-393.106	-200.000	-0.001	-0.285
-392.092	253.348	-0.141	0.240
-391.077	-190.133	-0.238	-0.003
-390.063	169.857	-0.071	0.102
-389.048	491.181	0.064	-0.147
-388.033	-200.000	0.037	0.242
-387.019	-102.847	0.361	-0.085
-386.004	-200.000	0.016	-0.207
-384.990	14.362	-0.113	-0.088
-383.975	255.024	0.061	0.103
-382.960	-102.453	-0.327	-0.078
-381.946	140.289	-0.073	-0.096
-380.931	800.000	-0.131	-0.441
-379.917	-110.992	-0.115	0.023
-378.902	-7.747	-0.264	-0.177
-377.888	-200.000	-0.022	0.277
-376.873	406.140	-0.073	0.154
-375.858	84.616	0.266	-0.290
-374.844	715.745	0.137	-0.362
-373.829	-84.776	0.029	0.009
-372.815	-170.049	0.194	0.007
-371.800	-149.651	0.064	-0.005
-370.785	109.415	0.080	0.095
-369.771	228.610	0.069	-0.112
-368.756	800.000	0.049	-0.146
-367.742	-164.644	0.050	0.002
-366.727	261.165	-0.163	-0.280
-365.712	781.537	0.051	0.140
-364.698	-118.635	-0.184	0.032
-363.683	298.573	0.074	0.135
-362.669	528.339	0.009	0.021
-361.654	785.985	-0.118	-0.322
-360.639	800.000	-0.016	-0.062
-359.625	-61.829	-0.274	-0.114
-358.610	-90.308	0.216	0.062
-357.596	-23.745	-0.306	0.182
-356.581	-200.000	-0.010	-0.346
-355.566	-200.000	-0.016	0.155
-354.552	-111.688	-0.134	0.027
-353.537	-89.801	0.514	-0.149
-352.523	216.132	0.044	-0.070
-351.508	800.000	-0.078	0.214
-350.493	482.492	0.098	-0.222
-349.479	-7.621	-0.163	0.110
-348.464	-170.680	0.241	-0.008
-347.450	62.637	0.213	-0.212
-346.435	-200.000	0.012	-0.181
-345.420	-91.196	-0.183	0.052
-344.406	-120.251	0.177	-0.030
-343.391	702.024	0.040	-0.105
-342.377	-163.804	-0.289	-0.013
-341.362	-18.646	-0.160	0.099
-340.348	57.154	0.187	0.181
-339.333	-0.706	0.110	0.077
-338.318	-3.382	-0.215	0.149
-337.304	161.811	0.058	-0.080
-336.289	-22.124	-0.248	0.149
-335.275	-200.000	0.006	-0.052
-334.260	31.980	0.053	0.045
-333.245	-5.769	0.189	-0.128
-332.231	109.704	-0.142	0.169
-331.216	-200.000	-0.054	0.338
-330.202	30.809	-0.049	0.042
-329.187	56.254	0.144	0.139
-328.172	-200.000	0.046	-0.286
-327.158	-41.690	0.055	-0.028
-326.143	50.639	0.117	-0.110
-325.129	-96.622	0.153	0.040
-324.114	-27.666	-0.275	0.159
-323.099	-88.897	0.161	0.048
-322.085	-146.474	-0.370	-0.032
-321.070	-46.798	0.221	-0.107
-320.056	87.840	-0.163	0.179
-319.041	89.653	0.195	0.216
-318.026	-200.000	-0.178	0.000
-317.012	53.788	-0.220	0.210
-315.997	800.000	0.026	-0.080
-314.983	22.228	0.123	0.100
-313.968	75.205	0.080	0.083
-312.953	800.000	0.104	0.325
-311.939	-200.000	-0.082	0.381
-310.924	-5.060	-0.136	-0.093
-309.910	15.269	-0.099	-0.077
-308.895	-97.373	-0.152	-0.039
-307.880	304.198	0.059	-0.108
-306.866	-112.417	-0.162	0.032
-305.851	800.000	-0.073	0.285
-304.837	-102.485	0.209	0.050
-303.822	-94.143	0.164	-0.045
-302.807	90.071	-0.047	-0.052
-301.793	173.082	-0.045	-0.064
-300.778	-87.782	-0.328	0.098
-299.764	-109.270	0.066	0.014
-298.749	-152.620	0.184	-0.013
-297.735	-200.000	0.006	-0.036
-296.720	109.204	0.278	-0.330
-295.705	-60.378	0.073	-0.031
-294.691	-137.622	-0.346	0.039
-293.676	800.000	-0.031	0.096
-292.662	28.790	0.223	-0.187
-291.647	31.193	-0.080	-0.068
-290.632	12.807	-0.180	-0.138
-289.618	-56.147	-0.171	0.075
-288.603	-111.792	0.203	-0.041
-287.589	-200.000	-0.009	0.082
-286.574	-125.608	-0.126	-0.019
-285.559	-149.934	-0.352	0.027
-284.545	-119.324	-0.131	-0.023
-283.530	800.000	-0.041	-0.143
-282.516	27.356	0.135	0.113
-281.501	-56.318	-0.424	-0.187
-280.486	-142.368	-0.203	-0.020
-279.472	-38.382	0.261	0.137
-278.457	388.029	-0.110	0.225
-277.443	32.207	-0.084	0.072
-276.428	-121.654	0.223	0.037
-275.413	-138.084	-0.110	-0.012
-274.399	161.932	0.019	0.027
-273.384	-65.792	-0.215	0.085
-272.370	-134.567	-0.325	-0.039
-271.355	-200.000	0.005	-0.391
-270.340	64.959	0.142	-0.142
-269.326	98.091	0.173	-0.197
-268.311	-200.000	0.036	0.243
-267.297	25.289	0.210	-0.173
-266.282	195.046	0.121	-0.182
-265.267	800.000	0.047	0.164
-264.253	800.000	-0.081	0.284
-263.238	10.776	0.252	-0.191
-262.224	-158.988	-0.156	0.009
-261.209	-137.053	-0.086	0.010
-260.195	-67.528	0.040	-0.015
-259.180	-200.000	-0.017	-0.117
-258.165	323.034	0.030	0.057
-257.151	-200.000	0.040	0.228
-256.136	299.006	-0.133	0.242
-255.122	-147.327	-0.410	0.034
-254.107	-48.541	-0.133	-0.064
-253.092	201.815	0.084	0.128
-252.078	-100.318	0.250	0.061
-251.063	-89.187	-0.171	0.050
-250.049	7.036	-0.211	-0.155
-249.034	-90.801	-0.249	-0.071
-248.019	-78.117	0.169	0.058
-247.005	-132.608	-0.177	-0.023
-245.990	-132.071	-0.369	-0.047
-244.976	-200.000	0.132	-0.001
-243.961	-20.555	-0.261	0.159
-242.946	-133.285	-0.242	0.030
-241.932	638.578	0.027	0.067
-240.917	-200.000	-0.011	-0.129
-239.903	382.689	-0.160	0.325
-238.888	-11.493	0.096	0.063
-237.873	16.269	0.251	0.196
-236.859	9.368	-0.343	0.256
-235.844	-82.897	-0.178	0.057
-234.830	-0.506	0.110	0.077
-233.815	-128.890	-0.149	0.021
-232.800	-200.000	0.038	-0.181
-231.786	-64.492	0.277	-0.111
-230.771	109.915	0.042	-0.049
-229.757	-200.000	-0.004	0.128
-228.742	-34.698	-0.243	0.132
-227.727	-89.602	0.213	-0.062
-226.713	-200.000	0.002	-0.011
-225.698	192.792	-0.304	0.454
-224.684	-6.348	0.332	-0.224
-223.669	-200.000	-0.020	-0.173
-222.655	-2.194	0.147	-0.102
-221.640	190.598	-0.110	-0.164
-220.625	-80.182	-0.120	-0.040
-219.611	-137.195	0.150	-0.017
-218.596	53.335	0.175	-0.165
-217.582	162.698	-0.055	-0.076
-216.567	107.988	0.056	0.066
-215.552	-32.088	0.252	-0.139
-214.538	327.594	0.087	-0.166
-213.523	-50.846	0.102	0.047
-212.509	56.153	0.058	-0.055
-211.494	280.394	-0.161	0.284
-210.479	-25.199	-0.094	-0.055
-209.465	584.127	-0.096	0.232
-208.450	800.000	0.020	-0.056
-207.436	147.488	0.068	-0.091
-206.421	-72.917	-0.153	0.055
-205.406	800.000	0.042	-0.128
-204.392	800.000	-0.044	-0.134
-203.377	-21.323	-0.110	0.067
-202.363	69.082	0.371	0.377
-201.348	373.169	0.068	0.137
-200.333	-17.494	-0.145	-0.090
-199.319	681.081	0.077	-0.198
-198.304	-37.317	0.202	-0.107
-197.290	-127.165	0.297	0.043
-196.275	17.272	0.096	-0.075
-195.260	129.764	-0.088	-0.111
-194.246	-200.000	0.040	0.216
-193.231	-200.000	-0.020	0.165
-192.217	405.471	0.133	0.278
-191.202	-200.000	0.003	0.093
-190.187	-17.535	0.252	0.156
-189.173	-81.016	-0.162	-0.053
-188.158	-95.655	-0.017	0.004
-187.144	30.355	0.199	-0.168
-186.129	800.000	0.044	0.179
-185.114	800.000	-0.018	-0.074
-184.100	84.446	-0.196	0.212
-183.085	-141.144	0.300	-0.030
-182.071	226.480	0.071	-0.114
-181.056	800.000	0.139	-0.384
-180.042	-130.379	-0.281	-0.038
-179.027	72.508	0.276	0.284
-178.012	-200.000	-0.005	0.081
-176.998	800.000	-0.090	0.321
-175.983	-200.000	0.010	0.236
-174.969	-166.194	-0.139	0.006
-173.954	11.218	-0.120	-0.091
-172.939	384.006	0.184	-0.373
-171.925	-200.000	-0.039	0.226
-170.910	12.312	-0.233	-0.177
-169.896	-7.725	0.105	0.070
-168.881	35.637	0.177	0.153
-167.866	62.108	-0.357	0.351
-166.852	54.242	-0.202	-0.192
-165.837	630.527	-0.073	0.182
-164.823	342.620	0.127	0.245
-163.808	-200.000	-0.003	-0.174
-162.793	280.174	0.066	-0.116
-161.779	-90.660	-0.094	-0.027
-160.764	-81.757	0.173	-0.056
-159.750	-98.144	0.230	0.058
-158.735	54.269	-0.231	-0.219
-157.720	4.425	-0.059	0.043
-156.706	-200.000	0.003	0.249
-155.691	-15.275	-0.245	0.155
-154.677	-154.716	-0.116	0.008
-153.662	-25.872	0.066	0.038
-152.647	73.956	0.141	0.145
-151.633	243.841	-0.211	0.349
-150.618	-114.330	-0.160	0.030
-149.604	-97.176	0.066	-0.017
-148.589	1.787	0.089	-0.063
-147.574	-38.147	-0.080	-0.042
-146.560	542.218	0.174	-0.408
-145.545	-170.715	0.185	0.006
-144.531	190.380	0.176	0.260
-143.516	-200.000	-0.060	0.426
-142.502	800.000	-0.117	-0.358
-141.487	213.751	-0.051	0.080
-140.472	158.519	-0.064	0.088
-139.458	-138.534	0.085	0.009
-138.443	93.878	-0.026	0.029
-137.429	63.857	0.042	-0.041
-136.414	540.073	-0.193	0.453
-135.399	-2.098	0.132	0.091
-134.385	-143.471	-0.066	-0.006
-133.370	10.525	0.176	0.132
-132.356	-79.275	0.313	0.104
-131.341	-200.000	0.007	-0.043
-130.326	-200.000	-0.044	-0.260
-129.312	-72.544	0.045	0.016
-128.297	100.960	-0.040	0.046
-127.283	-1.385	-0.089	0.062
-126.268	-200.000	-0.012	0.091
-125.253	277.841	0.080	-0.140
-124.239	-80.871	-0.093	0.030
-123.224	34.391	0.081	-0.070
-122.210	800.000	-0.109	-0.376
-121.195	-200.000	-0.011	-0.125
