DTS Sentinel unit serial number:	SN413079Multiplexer serial number:	ORYXHardware model number:	OX4-SRSoftware version number:	ORYX F/W v4.00 Oryx Data Collector v3.7.2.0data status	okinstallation	princeton_trtdifferential loss correction	single-endedforward channel	channel 1reverse channel	N/Adate	2019/09/16time	06:30:35forward acquisition time	60.00reverse acquisition time	0.00gamma	496.2192k internal	0.2331k external	0.2331temperature offset calibration	0.9984default loss term (dB/km)	0.3790temperature slope calibration	1.0000multiplexer offset coefficient	1.0000multiplexer slope coefficient	1.0000fibre end	0.00T internal ref (°C)	27.37T ext. ref 1 (°C)	11.37T ext. ref 2 (°C)	21.77length (m)	temperature (°C)	Stokes	anti-Stokes-747.200	-200.000	0.038	0.449
-746.185	-63.524	-0.316	0.131
-745.171	50.089	-0.168	-0.160
-744.156	-117.217	-0.346	-0.063
-743.142	-126.815	-0.294	-0.044
-742.127	486.168	0.126	0.288
-741.112	31.013	0.051	-0.044
-740.098	-24.585	-0.340	0.203
-739.083	51.407	0.145	-0.139
-738.069	-200.000	0.026	0.299
-737.054	-16.743	0.101	-0.064
-736.039	-200.000	-0.072	-0.437
-735.025	54.836	0.152	0.147
-734.010	-10.039	-0.181	0.121
-732.996	325.906	-0.116	-0.223
-731.981	545.935	-0.114	0.274
-730.966	-119.332	0.160	-0.028
-729.952	690.647	-0.010	0.027
-728.937	-86.688	-0.121	-0.037
-727.923	-60.915	0.165	0.070
-726.908	94.155	0.093	0.106
-725.894	-27.640	-0.170	-0.099
-724.879	44.092	-0.091	0.084
-723.864	-154.434	-0.222	0.015
-722.850	-108.129	-0.176	0.038
-721.835	800.000	-0.005	-0.016
-720.821	-200.000	-0.013	0.073
-719.806	-200.000	-0.052	0.336
-718.791	-17.860	0.083	0.052
-717.777	-200.000	0.003	0.128
-716.762	-103.641	0.385	-0.091
-715.748	528.605	-0.120	-0.284
-714.733	-200.000	0.012	-0.117
-713.718	449.465	0.109	-0.242
-712.704	-48.300	-0.213	0.103
-711.689	-78.819	0.291	-0.100
-710.675	457.967	-0.075	0.168
-709.660	800.000	-0.075	0.212
-708.645	-200.000	-0.117	-0.641
-707.631	253.761	0.127	-0.218
-706.616	-56.577	-0.246	0.110
-705.602	421.915	0.146	-0.314
-704.587	-8.758	-0.163	0.110
-703.572	32.435	0.136	-0.118
-702.558	7.879	0.120	-0.090
-701.543	-109.059	-0.088	-0.019
-700.529	-80.640	0.278	-0.093
-699.514	-100.798	0.165	-0.041
-698.499	86.820	0.081	0.090
-697.485	310.031	0.083	-0.156
-696.470	-84.802	0.285	0.090
-695.456	58.555	0.211	-0.208
-694.441	-200.000	0.000	0.041
-693.426	36.828	-0.255	-0.226
-692.412	31.843	-0.126	0.109
-691.397	166.560	0.109	0.155
-690.383	-135.425	-0.075	0.009
-689.368	84.435	0.144	0.158
-688.354	-145.600	-0.294	0.026
-687.339	208.765	-0.129	0.202
-686.324	156.157	-0.197	-0.273
-685.310	800.000	0.063	0.182
-684.295	800.000	0.090	0.262
-683.281	57.240	-0.194	0.190
-682.266	-200.000	0.014	-0.240
-681.251	26.706	-0.163	-0.137
-680.237	-193.531	-0.397	-0.003
-679.222	38.022	-0.099	-0.088
-678.208	431.073	0.031	-0.067
-677.193	113.635	0.108	-0.132
-676.178	-113.280	0.269	-0.053
-675.164	129.889	0.182	-0.233
-674.149	-28.227	0.128	-0.074
-673.135	90.627	0.165	-0.186
-672.120	800.000	0.067	-0.240
-671.105	141.237	-0.050	-0.066
-670.091	-80.476	0.387	-0.130
-669.076	-200.000	-0.017	-0.297
-668.062	-39.540	0.131	0.069
-667.047	-143.342	-0.601	-0.058
-666.032	-99.007	-0.141	-0.036
-665.018	-68.384	-0.154	-0.060
-664.003	-152.025	0.150	0.011
-662.989	-103.054	-0.353	-0.084
-661.974	-119.873	-0.080	-0.014
-660.959	605.914	0.093	-0.234
-659.945	584.239	-0.089	-0.218
-658.930	27.782	-0.106	-0.089
-657.916	-200.000	-0.048	-0.218
-656.901	429.222	-0.101	-0.218
-655.886	800.000	0.048	-0.168
-654.872	52.779	-0.120	0.115
-653.857	63.303	0.073	-0.074
-652.843	-133.163	-0.136	0.017
-651.828	-41.474	0.233	0.120
-650.814	-2.596	-0.254	-0.178
-649.799	8.494	0.133	-0.101
-648.784	-200.000	-0.025	0.168
-647.770	-145.147	0.107	0.010
-646.755	-200.000	-0.024	-0.223
-645.741	-87.988	-0.153	0.046
-644.726	-200.000	0.013	0.112
-643.711	12.707	0.119	-0.092
-642.697	-71.238	0.153	-0.057
-641.682	-200.000	-0.028	-0.133
-640.668	-200.000	0.004	-0.213
-639.653	159.494	-0.074	-0.103
-638.638	-35.841	-0.304	-0.165
-637.624	-200.000	0.030	0.237
-636.609	-134.844	0.152	-0.018
-635.595	379.804	-0.080	-0.164
-634.580	84.434	-0.137	-0.150
-633.565	27.563	0.157	-0.133
-632.551	136.425	0.064	0.084
-631.536	-20.724	-0.046	-0.028
-630.522	-40.368	0.094	0.049
-629.507	-119.270	-0.272	-0.048
-628.492	-78.430	0.095	-0.033
-627.478	98.288	-0.213	-0.246
-626.463	84.955	0.081	0.089
-625.449	-200.000	0.009	-0.067
-624.434	-169.652	0.188	-0.007
-623.419	-114.117	-0.083	0.016
-622.405	-107.069	0.350	-0.077
-621.390	63.879	-0.245	0.247
-620.376	-61.646	0.114	-0.048
-619.361	800.000	0.024	-0.076
-618.346	-78.572	-0.222	-0.076
-617.332	-63.879	-0.180	0.074
-616.317	111.201	0.084	-0.102
-615.303	140.918	-0.217	-0.287
-614.288	20.867	0.202	-0.164
-613.273	-71.861	0.270	0.101
-612.259	204.188	0.176	-0.273
-611.244	175.208	-0.110	0.159
-610.230	313.031	0.071	0.133
-609.215	109.769	-0.120	-0.144
-608.201	-61.534	0.155	0.065
-607.186	12.925	-0.244	-0.189
-606.171	28.384	-0.223	-0.189
-605.157	384.606	0.223	-0.460
-604.142	115.228	0.128	0.156
-603.128	-200.000	-0.091	-0.412
-602.113	157.691	-0.215	-0.299
-601.098	63.496	0.255	0.257
-600.084	-114.369	-0.381	-0.073
-599.069	-200.000	-0.010	-0.276
-598.055	-200.000	0.005	0.169
-597.040	-138.061	0.202	-0.022
-596.025	-86.164	-0.061	0.019
-595.011	-72.417	0.150	0.055
-593.996	-63.251	0.198	0.082
-592.982	-66.179	0.187	-0.075
-591.967	-200.000	-0.026	0.304
-590.952	237.088	0.085	0.141
-589.938	-200.000	0.023	-0.235
-588.923	246.245	-0.123	0.208
-587.909	-2.210	-0.143	-0.100
-586.894	-200.000	0.021	-0.101
-585.879	732.781	0.039	-0.106
-584.865	44.371	0.192	-0.176
-583.850	-178.891	0.092	0.002
-582.836	-41.336	0.130	-0.067
-581.821	27.965	-0.156	-0.131
-580.806	531.896	0.186	-0.441
-579.792	18.514	-0.067	0.053
-578.777	-3.355	0.242	0.169
-577.763	99.009	0.183	-0.212
-576.748	102.017	0.188	-0.219
-575.733	214.616	-0.078	0.123
-574.719	141.097	0.114	-0.150
-573.704	-1.920	-0.184	-0.129
-572.690	-200.000	0.009	0.054
-571.675	800.000	-0.063	0.235
-570.661	295.772	-0.120	-0.219
-569.646	222.567	-0.131	-0.211
-568.631	212.875	-0.107	0.168
-567.617	-37.870	0.048	0.026
-566.602	370.736	-0.073	-0.147
-565.588	800.000	0.085	0.236
-564.573	-200.000	0.072	0.384
-563.558	800.000	-0.061	0.175
-562.544	-71.391	0.174	0.065
-561.529	621.218	0.088	0.220
-560.515	-39.881	0.120	0.063
-559.500	-30.323	-0.329	-0.187
-558.485	-120.748	-0.113	0.019
-557.471	172.269	-0.283	0.406
-556.456	-83.920	0.070	0.022
-555.442	20.545	0.206	0.167
-554.427	-147.245	0.126	-0.011
-553.412	-3.317	0.147	0.102
-552.398	-137.816	0.377	-0.042
-551.383	4.019	-0.231	0.169
-550.369	86.047	-0.154	0.169
-549.354	-104.084	-0.041	0.010
-548.339	404.171	0.075	0.157
-547.325	-101.141	0.179	0.044
-546.310	-141.151	0.173	-0.018
-545.296	-20.247	0.194	-0.120
-544.281	19.720	0.083	-0.067
-543.266	-115.644	-0.280	-0.052
-542.252	20.774	0.085	-0.069
-541.237	-9.348	-0.240	0.160
-540.223	30.700	0.201	-0.172
-539.208	1.380	0.150	-0.107
-538.193	504.036	-0.148	-0.341
-537.179	117.520	-0.174	0.214
-536.164	800.000	-0.033	0.119
-535.150	-200.000	0.034	0.287
-534.135	222.572	-0.164	0.263
-533.121	-142.018	-0.206	0.020
-532.106	-36.098	-0.169	0.091
-531.091	-30.634	-0.120	0.068
-530.077	-125.628	0.091	-0.014
-529.062	-18.932	0.320	0.199
-528.048	-116.228	-0.185	-0.034
-527.033	117.526	0.181	0.223
-526.018	201.273	-0.178	-0.274
-525.004	-200.000	-0.009	0.057
-523.989	-84.181	0.333	0.106
-522.975	-200.000	0.001	-0.024
-521.960	-200.000	0.005	-0.169
-520.945	21.314	0.074	0.060
-519.931	-92.168	0.123	0.035
-518.916	-200.000	-0.016	0.105
-517.902	-100.420	-0.185	0.046
-516.887	-103.525	0.282	-0.066
-515.872	-200.000	0.046	0.330
-514.858	122.823	0.180	0.224
-513.843	-97.181	0.237	-0.062
-512.829	-138.576	-0.168	0.018
-511.814	74.929	-0.292	0.307
-510.799	88.780	-0.169	0.188
-509.785	126.199	0.106	0.134
-508.770	476.062	-0.034	0.076
-507.756	109.640	-0.145	0.174
-506.741	-115.343	-0.099	0.019
-505.726	-200.000	0.014	0.082
-504.712	31.589	0.286	0.245
-503.697	-26.544	-0.356	0.208
-502.683	-161.039	-0.142	0.007
-501.668	-158.124	-0.310	-0.018
-500.653	69.539	-0.237	0.243
-499.639	-46.987	0.174	0.085
-498.624	311.052	-0.165	-0.308
-497.610	608.818	0.079	0.197
-496.595	800.000	0.064	-0.203
-495.581	-200.000	0.036	-0.282
-494.566	-81.618	0.122	-0.040
-493.551	-82.343	-0.411	-0.133
-492.537	-33.534	0.400	0.220
-491.522	-16.252	-0.076	0.048
-490.508	387.635	0.077	-0.160
-489.493	-58.642	0.413	-0.178
-488.478	800.000	-0.051	-0.188
-487.464	-144.965	-0.217	-0.020
-486.449	389.710	0.231	-0.478
-485.435	-200.000	0.043	-0.242
-484.420	800.000	-0.039	0.159
-483.405	30.564	0.218	0.186
-482.391	800.000	-0.053	-0.204
-481.376	-200.000	0.002	-0.020
-480.362	119.926	0.281	-0.347
-479.347	35.973	0.187	-0.164
-478.332	-50.533	0.147	-0.069
-477.318	-200.000	-0.030	-0.188
-476.303	211.408	-0.055	0.086
-475.289	-7.453	0.129	-0.087
-474.274	-47.285	-0.140	-0.068
-473.259	96.919	0.090	-0.103
-472.245	302.978	0.172	-0.317
-471.230	-126.863	-0.229	0.034
-470.216	-182.345	-0.121	0.002
-469.201	-65.929	0.310	0.123
-468.186	-200.000	-0.001	-0.140
-467.172	-120.819	0.015	0.003
-466.157	205.260	0.114	-0.176
-465.143	33.033	-0.078	0.067
-464.128	-95.315	0.074	0.020
-463.113	800.000	-0.040	0.146
-462.099	530.675	0.098	-0.230
-461.084	-59.331	0.353	0.151
-460.070	22.403	-0.341	0.278
-459.055	-136.975	0.287	-0.033
-458.040	-116.513	-0.315	0.058
-457.026	-141.644	0.013	0.001
-456.011	800.000	-0.045	-0.186
-454.997	93.822	-0.166	0.187
-453.982	-200.000	0.004	0.105
-452.968	95.006	0.142	-0.160
-451.953	579.775	-0.044	0.108
-450.938	800.000	0.049	0.189
-449.924	46.298	0.267	0.246
-448.909	300.460	-0.027	-0.050
-447.895	-108.763	-0.100	0.021
-446.880	-90.306	0.226	-0.065
-445.865	169.776	0.152	0.216
-444.851	-188.981	0.187	-0.002
-443.836	74.227	-0.245	-0.256
-442.822	3.027	0.184	0.133
-441.807	513.887	0.096	-0.222
-440.792	-56.851	0.195	-0.086
-439.778	-200.000	-0.037	-0.384
-438.763	302.851	0.116	-0.213
-437.749	75.573	-0.236	0.247
-436.734	21.592	-0.098	-0.079
-435.719	275.005	-0.014	-0.024
-434.705	-200.000	0.015	0.145
-433.690	-105.685	-0.264	0.059
-432.676	-200.000	0.009	0.255
-431.661	529.871	0.083	-0.195
-430.646	711.728	0.150	0.396
-429.632	-96.452	-0.201	0.053
-428.617	-32.711	-0.491	0.271
-427.603	219.152	-0.121	0.192
-426.588	-116.874	-0.403	0.073
-425.573	381.393	-0.110	0.225
-424.559	-20.556	-0.022	-0.013
-423.544	800.000	-0.057	0.240
-422.530	-53.263	0.320	0.146
-421.515	125.452	0.078	-0.098
-420.500	-38.270	-0.361	0.190
-419.486	-17.241	0.089	-0.056
-418.471	95.819	0.124	-0.141
-417.457	-93.392	-0.394	-0.109
-416.442	50.128	-0.063	-0.060
-415.428	-31.292	-0.068	0.038
-414.413	-91.883	-0.132	-0.037
-413.398	426.402	0.093	0.199
-412.384	-200.000	0.054	0.259
-411.369	800.000	-0.046	0.166
-410.355	-147.392	-0.254	-0.021
-409.340	-104.829	-0.431	-0.098
-408.325	-200.000	0.017	-0.199
-407.311	-81.453	0.340	0.111
-406.296	128.988	-0.120	0.152
-405.282	-104.464	0.229	0.053
-404.267	-147.609	-0.109	-0.009
-403.252	524.641	-0.109	0.254
-402.238	-200.000	0.033	0.282
-401.223	-87.314	-0.424	-0.128
-400.209	800.000	0.071	-0.308
-399.194	51.671	0.061	-0.057
-398.179	-33.974	0.176	0.096
-397.165	-174.388	0.280	-0.008
-396.150	800.000	-0.023	0.069
-395.136	-74.045	0.113	0.041
-394.121	-200.000	-0.026	0.333
-393.106	-200.000	-0.009	0.279
-392.092	-120.431	-0.247	-0.042
-391.077	-200.000	-0.037	-0.174
-390.063	92.936	-0.028	0.032
-389.048	133.806	-0.104	0.133
-388.033	6.612	-0.038	0.028
-387.019	73.833	-0.258	0.269
-386.004	-24.178	0.278	0.165
-384.990	-181.553	-0.215	-0.004
-383.975	800.000	-0.073	-0.204
-382.960	-104.845	0.399	0.091
-381.946	97.262	-0.162	0.184
-380.931	91.785	0.216	-0.241
-379.917	-138.160	0.298	-0.033
-378.902	800.000	0.078	-0.278
-377.888	248.396	-0.091	-0.152
-376.873	-200.000	0.107	0.471
-375.858	-55.427	-0.235	0.104
-374.844	-37.998	0.145	0.076
-373.829	92.475	0.157	-0.176
-372.815	-200.000	-0.055	-0.400
-371.800	16.898	-0.113	0.088
-370.785	-182.723	0.165	-0.003
-369.771	-107.723	0.331	-0.072
-368.756	-200.000	-0.006	0.152
-367.742	800.000	-0.110	-0.443
-366.727	-20.628	0.260	-0.158
-365.712	-20.451	-0.228	0.139
-364.698	1.120	-0.265	-0.189
-363.683	130.473	0.153	-0.194
-362.669	70.114	-0.167	-0.171
-361.654	-200.000	-0.020	-0.095
-360.639	-63.686	-0.356	0.145
-359.625	-30.213	-0.043	0.024
-358.610	329.287	-0.190	-0.361
-357.596	-178.258	0.154	-0.004
-356.581	55.418	0.353	0.339
-355.566	-200.000	0.006	-0.069
-354.552	-124.242	0.250	-0.039
-353.537	-50.275	-0.195	-0.091
-352.523	-74.213	0.299	0.107
-351.508	-14.678	-0.041	-0.026
-350.493	-200.000	-0.001	0.180
-349.479	52.044	-0.021	0.019
-348.464	-165.014	-0.168	0.007
-347.450	800.000	-0.035	-0.116
-346.435	-36.646	0.169	-0.090
-345.420	18.350	0.091	0.072
-344.406	-49.457	-0.186	0.088
-343.391	-105.143	0.312	-0.071
-342.377	-23.004	0.178	0.106
-341.362	753.355	0.096	0.257
-340.348	123.459	0.175	-0.218
-339.333	-88.993	-0.339	-0.099
-338.318	800.000	-0.047	-0.149
-337.304	12.484	-0.164	0.125
-336.289	239.184	0.090	-0.148
-335.275	-116.615	0.328	-0.060
-334.260	138.951	0.039	0.050
-333.245	128.841	0.111	-0.140
-332.231	45.715	-0.176	-0.161
-331.216	-65.025	0.215	0.086
-330.202	-146.239	0.116	-0.010
-329.187	669.302	-0.047	0.120
-328.172	-71.730	0.098	0.036
-327.158	800.000	-0.028	0.116
-326.143	-200.000	-0.003	0.132
-325.129	-106.203	-0.467	0.104
-324.114	43.458	-0.083	0.075
-323.099	151.924	-0.185	0.250
-322.085	-51.077	-0.138	0.064
-321.070	322.569	0.080	-0.151
-320.056	-73.739	0.111	0.040
-319.041	-30.742	0.133	-0.075
-318.026	800.000	0.013	0.051
-317.012	-200.000	0.012	-0.117
-315.997	-146.688	-0.152	-0.013
-314.983	216.052	0.059	-0.093
-313.968	-20.016	0.158	-0.097
-312.953	-46.956	-0.357	-0.172
-311.939	222.996	-0.100	-0.159
-310.924	-127.320	-0.471	0.068
-309.910	142.513	-0.101	0.133
-308.895	-5.420	0.244	0.166
-307.880	-200.000	0.002	-0.208
-306.866	-62.680	0.246	0.101
-305.851	-85.706	-0.201	0.062
-304.837	15.935	-0.320	-0.249
-303.822	800.000	0.091	-0.296
-302.807	800.000	-0.117	-0.389
-301.793	322.206	0.127	-0.238
-300.778	12.289	0.218	0.166
-299.764	67.155	0.236	0.238
-298.749	-200.000	-0.042	0.210
-297.735	16.372	0.089	-0.070
-296.720	130.898	0.082	0.105
-295.705	722.275	-0.134	0.352
-294.691	561.139	-0.066	0.158
-293.676	-200.000	-0.007	-0.177
-292.662	-79.893	0.265	-0.088
-291.647	-192.060	0.172	0.002
-290.632	-43.143	-0.131	-0.066
-289.618	158.878	-0.030	-0.041
-288.603	-119.272	-0.217	-0.037
-287.589	-110.395	0.223	0.046
-286.574	-2.015	0.278	0.193
-285.559	-138.645	-0.122	0.013
-284.545	0.011	-0.215	0.152
-283.530	-200.000	-0.027	0.190
-282.516	800.000	-0.039	0.136
-281.501	-134.921	-0.128	-0.015
-280.486	236.987	-0.195	-0.319
-279.472	-200.000	0.004	0.182
-278.457	-200.000	-0.074	-0.394
-277.443	-44.728	0.239	-0.118
-276.428	159.100	0.109	0.149
-275.413	-80.323	-0.053	0.018
-274.399	-118.225	-0.214	0.038
-273.384	-90.661	-0.043	0.012
-272.370	741.148	0.015	-0.041
-271.355	75.048	0.070	-0.073
-270.340	265.461	-0.101	0.175
-269.326	-132.259	0.074	0.010
-268.311	50.034	0.244	-0.227
-267.297	-200.000	-0.002	0.082
-266.282	489.533	0.093	0.210
-265.267	-71.793	0.260	0.096
-264.253	-130.944	-0.281	0.037
-263.238	132.392	-0.135	0.172
-262.224	-107.893	-0.234	-0.050
-261.209	800.000	-0.067	0.202
-260.195	208.787	0.138	0.213
-259.180	800.000	-0.108	0.430
-258.165	-15.277	-0.014	0.009
-257.151	47.194	-0.280	0.258
-256.136	183.823	0.109	0.159
-255.122	-57.405	0.269	-0.117
-254.107	-105.109	-0.091	0.020
-253.092	-17.268	0.154	-0.096
-252.078	-200.000	0.006	0.027
-251.063	-129.171	-0.030	0.004
-250.049	-200.000	0.007	0.196
-249.034	-145.581	-0.215	0.019
-248.019	163.765	-0.143	0.199
-247.005	-200.000	-0.060	-0.344
-245.990	29.566	-0.047	-0.039
-244.976	-86.168	-0.180	0.055
-243.961	306.385	0.071	-0.130
-242.946	-61.110	-0.343	-0.143
-241.932	-166.655	0.200	-0.008
-240.917	-18.159	-0.257	0.159
-239.903	763.188	0.033	-0.089
-238.888	336.536	0.204	-0.391
-237.873	-59.820	-0.346	-0.146
-236.859	34.222	0.141	-0.121
-235.844	29.537	-0.171	0.143
-234.830	89.360	-0.175	-0.192
-233.815	86.428	0.074	-0.081
-232.800	73.882	-0.080	-0.083
-231.786	33.630	-0.213	-0.183
-230.771	-162.334	0.181	-0.009
-229.757	46.818	0.069	0.063
-228.742	1.668	-0.281	-0.199
-227.727	200.240	-0.120	-0.182
-226.713	587.772	-0.048	-0.115
-225.698	-19.592	-0.297	0.181
-224.684	8.983	0.342	0.254
-223.669	192.852	-0.180	-0.268
-222.655	-38.863	0.122	0.063
-221.640	-106.545	0.155	-0.034
-220.625	-20.207	-0.141	-0.086
-219.611	283.345	0.038	0.067
-218.596	-200.000	0.013	-0.196
-217.582	-144.526	-0.216	0.020
-216.567	27.615	-0.230	-0.191
-215.552	-200.000	-0.006	-0.228
-214.538	800.000	-0.083	0.228
-213.523	-4.525	0.092	0.063
-212.509	-100.120	0.356	-0.087
-211.494	120.810	0.047	-0.057
-210.479	104.563	-0.203	0.235
-209.465	-51.759	0.370	0.170
-208.450	43.027	-0.131	0.118
-207.436	39.780	-0.078	0.069
-206.421	-107.669	-0.225	0.048
-205.406	34.160	-0.037	-0.032
-204.392	39.951	-0.137	0.122
-203.377	189.845	0.110	-0.163
-202.363	800.000	-0.054	-0.187
-201.348	306.481	-0.129	-0.237
-200.333	372.898	0.140	-0.281
-199.319	-160.850	0.240	-0.012
-198.304	44.210	0.149	0.135
-197.290	-124.036	0.068	-0.011
-196.275	-14.620	0.224	-0.142
-195.260	64.421	0.243	-0.241
-194.246	485.258	0.099	0.221
-193.231	-200.000	-0.070	0.639
-192.217	-200.000	0.015	0.203
-191.202	-39.543	-0.195	-0.101
-190.187	557.639	0.256	0.609
-189.173	-167.336	0.123	0.005
-188.158	119.368	-0.280	-0.342
-187.144	-36.878	0.040	0.021
-186.129	-99.048	-0.369	-0.092
-185.114	232.136	-0.197	0.318
-184.100	76.161	0.134	-0.140
-183.085	-200.000	-0.025	0.162
-182.071	505.020	-0.056	-0.128
-181.056	-200.000	-0.017	-0.220
-180.042	-140.856	0.148	0.015
-179.027	-146.657	-0.475	-0.041
-178.012	267.320	0.207	-0.357
-176.998	24.888	-0.129	0.105
-175.983	590.337	0.123	0.298
-174.969	800.000	0.028	0.093
-173.954	-18.192	0.135	0.083
-172.939	-42.349	0.135	0.068
-171.925	-47.836	0.171	0.082
-170.910	198.531	0.142	0.214
-169.896	-98.950	-0.228	0.057
-168.881	9.726	0.076	0.057
-167.866	-200.000	0.003	-0.085
-166.852	355.416	-0.191	-0.373
-165.837	-88.439	0.039	0.012
-164.823	-200.000	0.010	0.316
-163.808	-72.802	0.223	-0.081
-162.793	-200.000	0.024	-0.184
-161.779	800.000	0.104	-0.303
-160.764	-149.726	0.178	0.014
-159.750	59.421	-0.225	-0.219
-158.735	-71.872	0.075	0.028
-157.720	-4.629	0.070	-0.048
-156.706	-124.626	0.261	-0.040
-155.691	4.459	-0.198	0.143
-154.677	800.000	0.045	-0.184
-153.662	47.305	-0.052	0.048
-152.647	-200.000	-0.008	0.055
-151.633	68.230	0.130	-0.131
-150.618	-39.372	-0.181	-0.093
-149.604	8.152	-0.149	0.110
-148.589	28.043	0.279	0.232
-147.574	270.078	0.155	-0.268
-146.560	-200.000	0.037	0.168
-145.545	-143.989	-0.342	-0.032
-144.531	-154.923	-0.151	0.010
-143.516	25.419	-0.291	0.238
-142.502	-125.636	-0.272	-0.041
-141.487	-22.525	0.227	-0.135
-140.472	12.483	0.190	-0.144
-139.458	63.363	-0.306	-0.302
-138.443	433.213	-0.112	0.239
-137.429	93.657	-0.106	-0.118
-136.414	-16.737	0.106	0.066
-135.399	70.406	-0.156	-0.158
-134.385	-48.962	-0.251	0.118
-133.370	-200.000	0.061	0.327
-132.356	181.447	0.065	-0.094
-131.341	-47.623	-0.101	-0.048
-130.326	-58.327	0.151	0.065
-129.312	-36.669	0.413	0.218
-128.297	-118.730	0.159	0.028
-127.283	-200.000	-0.034	0.460
-126.268	-157.604	0.369	-0.022
-125.253	-121.028	-0.376	-0.062
-124.239	-122.035	0.211	0.034
-123.224	-150.972	0.284	0.021
-122.210	73.018	0.199	0.204
-121.195	-124.035	0.041	0.006
-120.180	69.556	-0.131	0.133
