DTS Sentinel unit serial number:	SN413079Multiplexer serial number:	ORYXHardware model number:	OX4-SRSoftware version number:	ORYX F/W v4.00 Oryx Data Collector v3.7.2.0data status	okinstallation	princeton_trtdifferential loss correction	single-endedforward channel	channel 1reverse channel	N/Adate	2019/09/18time	11:18:35forward acquisition time	60.00reverse acquisition time	0.00gamma	496.2192k internal	0.2326k external	0.2326temperature offset calibration	0.9976default loss term (dB/km)	0.3790temperature slope calibration	1.0000multiplexer offset coefficient	1.0000multiplexer slope coefficient	1.0000fibre end	0.00T internal ref (°C)	29.92T ext. ref 1 (°C)	0.41T ext. ref 2 (°C)	27.19length (m)	temperature (°C)	Stokes	anti-Stokes-747.200	-16.656	0.246	-0.157
-746.185	66.420	-0.150	0.154
-745.171	422.142	0.086	-0.185
-744.156	-37.570	-0.317	0.171
-743.142	800.000	0.092	0.265
-742.127	73.326	-0.210	-0.222
-741.112	800.000	-0.053	0.174
-740.098	29.022	0.143	0.122
-739.083	-66.327	-0.189	-0.076
-738.069	405.972	0.204	0.435
-737.054	-17.499	-0.320	0.203
-736.039	-158.070	-0.398	-0.024
-735.025	141.328	0.109	0.146
-734.010	279.792	-0.072	-0.129
-732.996	-2.225	0.123	0.087
-731.981	109.851	-0.108	0.131
-730.966	800.000	-0.014	-0.059
-729.952	-48.451	-0.314	-0.152
-728.937	-83.281	0.135	0.044
-727.923	338.555	-0.088	-0.174
-726.908	-83.056	-0.071	0.023
-725.894	-143.210	-0.146	0.014
-724.879	272.225	-0.041	0.073
-723.864	-200.000	-0.004	-0.163
-722.850	33.761	0.228	0.200
-721.835	317.985	-0.159	-0.304
-720.821	210.741	0.275	-0.435
-719.806	-200.000	-0.006	-0.177
-718.791	225.905	-0.132	0.215
-717.777	-127.722	-0.257	0.037
-716.762	-200.000	-0.027	-0.223
-715.748	118.199	-0.148	-0.184
-714.733	-169.388	0.253	-0.009
-713.718	-179.515	-0.337	0.007
-712.704	-102.197	-0.040	0.010
-711.689	-57.788	-0.059	-0.026
-710.675	-95.556	0.098	0.026
-709.660	34.849	0.089	-0.079
-708.645	800.000	-0.012	-0.038
-707.631	27.414	-0.232	0.197
-706.616	758.447	-0.078	-0.213
-705.602	518.238	-0.054	0.126
-704.587	800.000	-0.092	0.288
-703.572	103.364	-0.402	0.475
-702.558	41.334	-0.088	0.080
-701.543	-99.955	0.190	-0.048
-700.529	800.000	-0.073	-0.228
-699.514	-200.000	0.004	0.131
-698.499	417.786	-0.075	-0.162
-697.485	-52.822	-0.430	-0.200
-696.470	-67.241	0.144	-0.057
-695.456	-200.000	0.005	-0.330
-694.441	-85.555	0.156	-0.049
-693.426	-90.437	0.243	0.071
-692.412	-200.000	-0.030	0.363
-691.397	162.861	-0.030	-0.042
-690.383	68.087	-0.188	0.194
-689.368	-200.000	-0.013	0.150
-688.354	106.067	-0.118	-0.141
-687.339	1.714	-0.216	-0.157
-686.324	-111.701	0.264	-0.054
-685.310	-200.000	-0.070	-0.334
-684.295	-69.132	-0.261	-0.101
-683.281	800.000	-0.051	-0.180
-682.266	146.580	0.172	-0.233
-681.251	91.114	-0.074	0.084
-680.237	-80.354	0.241	0.081
-679.222	800.000	-0.038	-0.121
-678.208	800.000	-0.104	0.300
-677.193	-200.000	0.003	0.291
-676.178	-200.000	0.021	0.116
-675.164	66.233	-0.093	0.095
-674.149	203.733	0.033	-0.052
-673.135	-143.202	0.107	-0.010
-672.120	361.528	0.179	-0.362
-671.105	257.061	0.115	-0.200
-670.091	800.000	-0.042	-0.154
-669.076	-13.249	-0.094	0.062
-668.062	-19.239	-0.226	0.141
-667.047	634.191	-0.105	-0.267
-666.032	752.177	-0.097	-0.262
-665.018	81.770	-0.090	0.098
-664.003	-56.938	0.063	-0.028
-662.989	800.000	0.099	-0.333
-661.974	220.385	-0.038	0.061
-660.959	-31.351	-0.107	-0.061
-659.945	-59.366	0.337	-0.146
-658.930	-9.442	-0.119	-0.080
-657.916	-147.040	0.245	0.021
-656.901	-95.125	-0.073	0.020
-655.886	-141.570	0.381	-0.039
-654.872	-79.507	-0.230	-0.078
-653.857	-200.000	-0.017	-0.203
-652.843	-196.222	-0.237	0.002
-651.828	-200.000	-0.042	0.431
-650.814	-123.282	-0.292	0.047
-649.799	188.944	0.091	-0.137
-648.784	-30.378	-0.131	-0.075
-647.770	121.575	-0.025	-0.032
-646.755	8.006	0.160	-0.121
-645.741	151.527	0.061	0.084
-644.726	-106.915	0.376	-0.084
-643.711	-4.422	0.137	0.095
-642.697	-87.741	0.078	0.024
-641.682	-200.000	-0.016	-0.199
-640.668	-200.000	0.037	-0.229
-639.653	131.737	0.145	-0.187
-638.638	800.000	-0.101	-0.288
-637.624	-19.588	-0.245	-0.152
-636.609	223.408	0.062	0.100
-635.595	63.751	-0.106	0.107
-634.580	-200.000	0.072	0.334
-633.565	800.000	0.037	0.144
-632.551	-131.781	-0.128	0.017
-631.536	310.892	-0.055	-0.104
-630.522	152.035	0.119	0.163
-629.507	71.907	0.066	0.068
-628.492	800.000	0.074	0.207
-627.478	70.887	0.181	0.188
-626.463	-200.000	0.004	-0.047
-625.449	11.305	0.057	0.044
-624.434	-59.100	-0.149	0.065
-623.419	-74.107	0.171	0.062
-622.405	-39.300	0.216	-0.114
-621.390	364.586	0.053	0.108
-620.376	433.515	0.016	-0.034
-619.361	118.617	0.245	-0.304
-618.346	-200.000	0.036	-0.209
-617.332	-85.577	-0.147	-0.046
-616.317	-143.115	0.255	0.025
-615.303	-5.738	-0.160	-0.110
-614.288	-200.000	0.007	0.131
-613.273	-200.000	0.020	0.183
-612.259	-200.000	-0.014	-0.081
-611.244	-91.534	0.357	-0.102
-610.230	470.251	0.065	0.146
-609.215	102.237	0.141	-0.165
-608.201	-46.955	-0.286	-0.140
-607.186	-142.276	-0.163	-0.016
-606.171	-79.519	0.229	0.078
-605.157	150.173	-0.093	0.127
-604.142	-77.479	-0.353	-0.123
-603.128	-200.000	0.023	-0.192
-602.113	800.000	0.055	-0.175
-601.098	-10.888	-0.298	-0.197
-600.084	106.885	0.029	-0.035
-599.069	-54.947	-0.271	-0.123
-598.055	800.000	-0.101	-0.378
-597.040	-15.804	-0.206	-0.132
-596.025	-200.000	0.072	-0.328
-595.011	-138.995	-0.098	-0.011
-593.996	-69.161	0.429	0.165
-592.982	222.601	0.084	0.136
-591.967	524.248	0.068	-0.159
-590.952	-124.892	0.176	-0.027
-589.938	-200.000	-0.053	-0.301
-588.923	-35.229	-0.087	-0.047
-587.909	-189.553	-0.257	0.003
-586.894	350.388	0.098	-0.194
-585.879	245.052	-0.099	-0.168
-584.865	-200.000	0.001	-0.185
-583.850	45.337	0.303	0.280
-582.836	3.767	0.100	0.074
-581.821	276.966	0.086	0.154
-580.806	-110.034	-0.137	0.029
-579.792	-200.000	0.037	-0.420
-578.777	498.380	0.120	0.276
-577.763	34.253	0.108	-0.094
-576.748	800.000	-0.012	-0.047
-575.733	401.391	-0.137	-0.287
-574.719	800.000	0.053	0.148
-573.704	-19.659	0.069	-0.043
-572.690	-200.000	-0.044	-0.313
-571.675	284.229	-0.026	0.048
-570.661	305.807	0.115	0.214
-569.646	-200.000	0.007	-0.074
-568.631	291.831	-0.046	0.083
-567.617	800.000	0.100	-0.418
-566.602	-6.943	0.048	0.032
-565.588	800.000	0.063	-0.235
-564.573	-200.000	0.005	0.118
-563.558	501.339	0.021	0.048
-562.544	-148.320	-0.042	0.003
-561.529	800.000	-0.057	-0.176
-560.515	127.908	0.191	0.243
-559.500	-6.289	-0.234	-0.160
-558.485	-8.925	-0.254	-0.171
-557.471	-103.461	-0.160	-0.038
-556.456	108.227	0.160	0.191
-555.442	-90.090	0.116	0.034
-554.427	-200.000	0.055	0.351
-553.412	-62.942	-0.234	0.097
-552.398	-78.414	0.230	0.079
-551.383	-200.000	0.024	-0.124
-550.369	-39.077	0.270	-0.142
-549.354	-139.141	-0.249	0.027
-548.339	-200.000	-0.001	0.455
-547.325	635.642	-0.041	0.103
-546.310	-85.478	-0.242	-0.075
-545.296	71.846	0.053	-0.055
-544.281	-200.000	0.016	-0.176
-543.266	-55.595	0.281	0.126
-542.252	-18.457	-0.275	0.172
-541.237	-183.812	-0.254	0.004
-540.223	-47.537	-0.309	-0.150
-539.208	-46.581	-0.014	-0.007
-538.193	-200.000	-0.076	0.000
-537.179	93.945	-0.260	0.295
-536.164	800.000	-0.086	0.346
-535.150	144.074	0.045	-0.060
-534.135	232.839	0.022	0.036
-533.121	-200.000	0.015	-0.135
-532.106	800.000	-0.105	-0.390
-531.091	800.000	-0.026	0.084
-530.077	276.463	-0.027	0.049
-529.062	800.000	0.067	0.197
-528.048	5.298	0.280	0.207
-527.033	19.092	-0.133	0.107
-526.018	-37.639	0.363	0.193
-525.004	800.000	0.084	-0.269
-523.989	270.772	0.103	-0.180
-522.975	233.448	-0.036	0.060
-521.960	398.115	0.070	0.146
-520.945	138.224	0.240	-0.314
-519.931	800.000	-0.012	0.036
-518.916	-15.118	0.100	-0.064
-517.902	-200.000	-0.180	-0.000
-516.887	-163.889	-0.188	0.009
-515.872	37.943	0.081	-0.072
-514.858	800.000	0.131	0.407
-513.843	778.080	-0.191	-0.521
-512.829	263.425	-0.170	-0.295
-511.814	97.331	-0.214	0.245
-510.799	-200.000	0.067	-0.471
-509.785	-93.741	-0.179	-0.049
-508.770	101.568	-0.081	0.094
-507.756	59.312	0.300	-0.295
-506.741	-71.473	-0.143	0.054
-505.726	800.000	0.012	-0.043
-504.712	-39.675	0.169	0.088
-503.697	141.252	-0.144	-0.191
-502.683	-200.000	0.040	0.243
-501.668	-200.000	0.013	-0.316
-500.653	332.650	-0.094	-0.181
-499.639	-200.000	0.011	-0.193
-498.624	601.891	-0.040	-0.098
-497.610	-138.028	0.224	0.025
-496.595	-123.354	0.109	0.017
-495.581	-100.845	0.196	-0.048
-494.566	-200.000	0.008	-0.218
-493.551	-52.741	-0.082	0.038
-492.537	800.000	-0.031	-0.087
-491.522	-200.000	-0.043	0.235
-490.508	-139.391	-0.305	-0.033
-489.493	181.981	-0.204	0.299
-488.478	603.419	-0.020	-0.049
-487.464	61.854	0.215	-0.213
-486.449	-166.050	-0.150	0.006
-485.435	64.234	-0.180	-0.181
-484.420	-100.520	0.229	-0.057
-483.405	83.910	0.197	0.215
-482.391	473.829	0.169	0.381
-481.376	8.515	-0.258	0.194
-480.362	-61.774	0.393	-0.164
-479.347	-161.520	0.127	-0.007
-478.332	-196.392	-0.351	0.002
-477.318	800.000	-0.124	0.376
-476.303	-109.943	-0.077	0.016
-475.289	101.882	0.056	0.066
-474.274	-200.000	0.002	-0.082
-473.259	-128.951	0.312	0.044
-472.245	-91.918	-0.288	-0.081
-471.230	41.343	0.316	0.286
-470.216	683.494	-0.115	-0.300
-469.201	-200.000	-0.112	0.489
-468.186	199.041	-0.076	0.116
-467.172	87.853	-0.352	0.390
-466.157	737.722	-0.129	0.344
-465.143	800.000	0.070	0.289
-464.128	-23.020	0.193	-0.116
-463.113	-157.108	-0.308	-0.019
-462.099	-200.000	-0.033	0.188
-461.084	-163.613	0.088	-0.004
-460.070	-200.000	0.024	-0.401
-459.055	-200.000	0.033	-0.192
-458.040	-200.000	0.012	0.208
-457.026	21.561	0.166	-0.135
-456.011	58.061	0.182	0.178
-454.997	-167.998	0.050	0.002
-453.982	-43.680	0.020	0.010
-452.968	-179.870	-0.264	0.006
-451.953	-174.061	0.234	0.007
-450.938	-14.504	-0.298	0.191
-449.924	353.821	0.118	0.233
-448.909	-106.177	-0.092	-0.020
-447.895	-181.580	-0.123	0.002
-446.880	-200.000	0.010	-0.207
-445.865	58.132	0.112	-0.110
-444.851	-36.440	-0.206	-0.110
-443.836	-108.366	0.137	-0.029
-442.822	-200.000	-0.033	0.263
-441.807	-79.080	-0.218	0.074
-440.792	-64.396	-0.222	-0.090
-439.778	731.299	0.030	0.081
-438.763	-160.987	0.357	-0.019
-437.749	119.729	-0.203	0.250
-436.734	-62.448	-0.154	-0.064
-435.719	112.637	0.199	-0.240
-434.705	68.169	0.092	0.094
-433.690	800.000	-0.033	0.101
-432.676	800.000	-0.004	-0.013
-431.661	-79.217	-0.414	0.140
-430.646	44.379	-0.273	0.250
-429.632	199.291	0.120	0.183
-428.617	265.219	0.134	0.233
-427.603	-76.986	-0.223	0.078
-426.588	-200.000	0.006	0.027
-425.573	800.000	0.028	0.117
-424.559	263.186	0.184	0.318
-423.544	-131.260	-0.268	-0.035
-422.530	-200.000	-0.019	0.096
-421.515	-200.000	0.010	-0.133
-420.500	-122.776	-0.293	0.047
-419.486	-200.000	0.021	-0.134
-418.471	116.775	-0.216	0.264
-417.457	49.276	0.094	0.088
-416.442	-36.184	-0.256	0.138
-415.428	310.883	-0.042	0.079
-414.413	217.896	0.260	-0.414
-413.398	800.000	0.063	-0.176
-412.384	-77.732	-0.402	-0.138
-411.369	800.000	0.126	0.382
-410.355	13.806	-0.248	0.192
-409.340	-40.730	-0.236	-0.122
-408.325	-26.738	0.226	0.132
-407.311	133.119	-0.171	0.219
-406.296	-28.192	0.380	0.219
-405.282	81.672	0.093	-0.101
-404.267	-200.000	-0.006	-0.166
-403.252	245.562	0.149	-0.249
-402.238	66.006	-0.083	0.084
-401.223	-136.170	0.430	0.050
-400.209	46.884	0.163	0.151
-399.194	-50.226	0.393	-0.185
-398.179	37.434	-0.227	-0.200
-397.165	-110.812	0.046	0.010
-396.150	800.000	0.075	0.249
-395.136	71.379	0.207	0.214
-394.121	31.218	-0.238	-0.203
-393.106	-20.391	-0.090	0.055
-392.092	-85.641	0.272	0.084
-391.077	118.110	-0.089	0.109
-390.063	-200.000	0.006	-0.156
-389.048	566.805	0.065	-0.158
-388.033	515.152	0.086	0.200
-387.019	346.794	-0.074	0.145
-386.004	-100.000	-0.129	0.032
-384.990	458.884	-0.075	-0.166
-383.975	666.099	0.069	-0.178
-382.960	-200.000	-0.005	0.192
-381.946	81.899	0.140	0.151
-380.931	800.000	0.090	-0.249
-379.917	23.053	0.200	-0.163
-378.902	-27.508	-0.150	-0.087
-377.888	18.485	0.288	-0.229
-376.873	20.583	0.119	0.096
-375.858	-200.000	0.028	0.236
-374.844	-200.000	0.021	-0.103
-373.829	-200.000	-0.029	-0.319
-372.815	-124.109	-0.358	0.056
-371.800	-46.497	-0.186	0.091
-370.785	-79.831	0.197	-0.066
-369.771	28.606	0.142	-0.119
-368.756	-61.983	0.209	-0.087
-367.742	74.864	-0.138	-0.145
-366.727	276.592	-0.129	-0.228
-365.712	-155.789	0.087	0.006
-364.698	-35.195	0.146	0.079
-363.683	-200.000	0.013	-0.470
-362.669	11.365	0.047	0.036
-361.654	-142.259	0.354	0.035
-360.639	-200.000	0.012	0.135
-359.625	96.356	0.195	-0.222
-358.610	-22.536	0.304	-0.183
-357.596	-115.641	-0.424	-0.079
-356.581	-78.486	-0.335	0.114
-355.566	800.000	-0.042	0.180
-354.552	-200.000	0.021	-0.103
-353.537	791.979	-0.087	-0.239
-352.523	-200.000	-0.044	0.322
-351.508	-101.109	0.230	-0.056
-350.493	-121.256	-0.206	-0.034
-349.479	-122.616	0.094	0.015
-348.464	45.995	-0.036	-0.033
-347.450	278.471	-0.112	-0.198
-346.435	-59.573	-0.056	0.024
-345.420	-110.188	0.346	0.072
-344.406	-137.994	-0.311	0.034
-343.391	41.473	0.061	0.055
-342.377	354.049	0.144	0.283
-341.362	299.042	-0.079	0.144
-340.348	-61.027	0.027	-0.011
-339.333	800.000	-0.036	0.130
-338.318	-19.292	0.066	-0.040
-337.304	800.000	-0.055	-0.173
-336.289	-79.314	-0.331	0.111
-335.275	800.000	-0.057	0.188
-334.260	-35.910	-0.321	0.173
-333.245	145.568	0.132	-0.175
-332.231	-103.649	0.250	-0.058
-331.216	-20.633	-0.076	0.046
-330.202	444.043	-0.167	0.363
-329.187	-45.419	-0.127	0.063
-328.172	-111.881	-0.245	0.049
-327.158	266.622	0.222	-0.384
-326.143	800.000	0.048	0.189
-325.129	-159.051	-0.148	0.008
-324.114	-31.088	-0.188	0.105
-323.099	760.050	-0.032	-0.087
-322.085	-124.249	0.034	-0.005
-321.070	800.000	0.017	0.072
-320.056	-99.499	0.233	-0.058
-319.041	179.503	-0.078	-0.113
-318.026	63.964	-0.099	-0.098
-317.012	-145.223	-0.131	0.012
-315.997	-90.813	0.283	-0.081
-314.983	-200.000	0.047	-0.385
-313.968	84.611	-0.201	-0.219
-312.953	-200.000	-0.023	0.294
-311.939	-146.069	0.131	0.011
-310.924	131.509	-0.244	-0.311
-309.910	-40.044	-0.171	-0.088
-308.895	80.941	0.148	0.158
-307.880	710.927	0.125	0.328
-306.866	-200.000	-0.068	0.381
-305.851	33.327	0.178	-0.154
-304.837	800.000	-0.085	-0.255
-303.822	-200.000	-0.002	-0.040
-302.807	800.000	0.049	-0.143
-301.793	-28.159	0.236	0.135
-300.778	134.630	-0.064	-0.082
-299.764	-123.965	-0.185	0.029
-298.749	104.679	-0.204	-0.238
-297.735	-113.012	0.218	0.043
-296.720	800.000	0.029	0.102
-295.705	6.571	0.134	-0.099
-294.691	-200.000	-0.064	0.408
-293.676	-200.000	-0.003	0.040
-292.662	-112.484	-0.287	0.057
-291.647	-31.931	-0.214	-0.119
-290.632	-200.000	-0.025	0.419
-289.618	-18.609	0.286	-0.177
-288.603	94.531	0.176	0.199
-287.589	-200.000	-0.032	0.265
-286.574	800.000	-0.066	0.254
-285.559	-166.023	0.256	-0.011
-284.545	18.241	-0.274	-0.217
-283.530	-57.751	-0.146	-0.063
-282.516	-80.464	0.321	-0.106
-281.501	800.000	-0.052	0.180
-280.486	264.515	0.068	0.118
-279.472	800.000	0.025	-0.089
-278.457	-37.570	0.015	-0.008
-277.443	34.174	-0.254	-0.219
-276.428	143.553	-0.086	-0.113
-275.413	314.577	0.080	0.150
-274.399	156.179	-0.191	-0.261
-273.384	131.803	0.122	-0.156
-272.370	145.535	0.205	-0.272
-271.355	121.637	0.071	0.088
-270.340	12.970	-0.169	0.130
-269.326	-200.000	-0.056	-0.357
-268.311	71.594	0.034	-0.035
-267.297	13.500	-0.163	-0.125
-266.282	44.825	0.271	-0.247
-265.267	800.000	-0.012	0.042
-264.253	-200.000	-0.001	-0.408
-263.238	800.000	-0.077	-0.271
-262.224	9.098	-0.063	-0.047
-261.209	649.886	0.113	0.286
-260.195	18.487	0.083	-0.065
-259.180	-137.936	-0.212	0.023
-258.165	-200.000	0.035	-0.230
-257.151	6.402	-0.272	0.200
-256.136	474.995	0.077	0.172
-255.122	22.211	-0.051	0.042
-254.107	97.740	0.115	0.131
-253.092	351.194	0.085	0.166
-252.078	57.473	0.135	-0.131
-251.063	-141.823	0.217	-0.022
-250.049	-62.137	-0.174	0.072
-249.034	-200.000	0.101	0.475
-248.019	26.797	-0.152	-0.126
-247.005	-86.713	-0.033	0.010
-245.990	97.773	0.090	0.103
-244.976	-86.588	-0.293	0.089
-243.961	800.000	-0.017	-0.062
-242.946	52.464	0.105	-0.099
-241.932	-200.000	0.189	-0.001
-240.917	-181.932	-0.245	0.005
-239.903	800.000	0.082	-0.269
-238.888	-200.000	0.022	0.196
-237.873	-99.090	0.150	0.038
-236.859	-15.664	-0.239	0.151
-235.844	-85.371	-0.162	0.050
-234.830	684.572	0.051	0.131
-233.815	189.082	-0.073	0.108
-232.800	-200.000	0.042	0.204
-231.786	800.000	-0.013	0.053
-230.771	-200.000	0.013	-0.413
-229.757	-200.000	-0.018	0.149
-228.742	-102.332	-0.070	0.017
-227.727	-13.817	-0.229	0.146
-226.713	334.755	0.074	0.143
-225.698	512.144	0.146	0.337
-224.684	-200.000	0.006	0.036
-223.669	35.344	-0.332	0.288
-222.655	156.639	-0.102	-0.140
-221.640	-34.139	-0.316	-0.172
-220.625	45.996	-0.034	0.031
-219.611	82.552	-0.155	0.167
-218.596	-89.242	-0.132	-0.039
-217.582	30.824	0.129	0.109
-216.567	529.343	-0.046	-0.107
-215.552	-193.458	-0.103	-0.001
-214.538	-200.000	-0.018	-0.219
-213.523	746.823	0.068	-0.181
-212.509	370.463	0.016	0.033
-211.494	-12.002	-0.201	-0.130
-210.479	567.785	0.099	0.239
-209.465	-47.857	-0.184	-0.088
-208.450	320.353	0.111	-0.209
-207.436	34.964	0.222	0.192
-206.421	745.542	0.085	0.225
-205.406	-8.757	0.137	0.091
-204.392	198.665	-0.085	0.128
-203.377	584.604	0.126	0.306
-202.363	204.481	0.312	-0.477
-201.348	238.954	-0.139	-0.228
-200.333	10.390	-0.262	-0.197
-199.319	-200.000	0.003	-0.364
-198.304	118.885	-0.095	0.116
-197.290	-200.000	0.013	0.416
-196.275	86.899	-0.121	0.132
-195.260	154.141	0.175	-0.237
-194.246	-116.413	0.159	-0.029
-193.231	-190.071	0.135	0.001
-192.217	-80.345	-0.047	0.016
-191.202	159.273	-0.048	0.066
-190.187	86.408	0.253	0.275
-189.173	57.761	0.182	-0.176
-188.158	-26.661	-0.175	0.101
-187.144	-150.744	-0.336	0.025
-186.129	251.814	0.026	0.044
-185.114	379.161	-0.126	-0.255
-184.100	-107.392	-0.194	0.042
-183.085	-21.574	-0.201	0.121
-182.071	-152.943	-0.307	-0.021
-181.056	100.171	-0.116	0.132
-180.042	196.972	0.187	-0.281
-179.027	245.896	0.105	-0.175
-178.012	800.000	0.096	0.268
-176.998	-57.042	0.310	0.135
-175.983	14.977	0.047	-0.037
-174.969	-139.401	0.182	-0.019
-173.954	-124.979	-0.130	-0.020
-172.939	-86.701	0.355	-0.107
-171.925	-72.147	0.265	0.097
-170.910	-25.212	0.306	0.179
-169.896	-51.266	-0.195	0.090
-168.881	708.730	-0.031	0.080
-167.866	236.674	0.128	0.209
-166.852	-120.931	0.053	-0.009
-165.837	204.889	0.017	0.026
-164.823	612.375	-0.095	0.234
-163.808	91.105	-0.218	0.242
-162.793	-18.397	0.222	-0.137
-161.779	329.509	0.175	-0.331
-160.764	197.161	0.104	-0.156
-159.750	25.414	-0.205	0.168
-158.735	-88.729	-0.284	0.083
-157.720	-28.663	0.365	0.207
-156.706	69.825	0.321	-0.326
-155.691	-16.262	0.438	-0.274
-154.677	-200.000	-0.117	-0.625
-153.662	800.000	0.076	0.244
-152.647	33.962	-0.048	0.041
-151.633	800.000	-0.085	0.282
-150.618	621.404	-0.055	0.136
-149.604	204.698	0.184	0.281
-148.589	294.572	0.174	-0.314
-147.574	342.422	-0.096	-0.185
-146.560	195.801	-0.108	-0.161
-145.545	20.789	-0.092	-0.073
-144.531	124.768	-0.039	0.049
-143.516	-121.642	-0.066	0.011
-142.502	800.000	0.062	-0.223
-141.487	-12.668	0.280	-0.180
-140.472	269.940	-0.065	0.113
-139.458	296.807	-0.066	0.119
-138.443	-31.281	-0.247	0.137
-137.429	-198.024	-0.231	0.001
-136.414	325.909	0.106	-0.199
-135.399	119.187	-0.402	0.490
-134.385	-61.756	-0.246	0.102
-133.370	-200.000	0.039	0.184
-132.356	-97.082	0.245	-0.063
-131.341	-38.211	0.146	-0.076
-130.326	37.023	0.099	0.086
-129.312	-81.154	0.105	-0.034
-128.297	-200.000	-0.184	0.000
-127.283	-138.641	-0.183	-0.020
-126.268	128.714	0.214	-0.269
-125.253	-200.000	0.024	0.132
-124.239	-200.000	0.011	0.184
-123.224	-46.048	-0.189	-0.092
-122.210	224.554	0.067	0.107
-121.195	800.000	-0.053	-0.194
