DTS Sentinel unit serial number:	SN413079Multiplexer serial number:	ORYXHardware model number:	OX4-SRSoftware version number:	ORYX F/W v4.00 Oryx Data Collector v3.7.2.0data status	okinstallation	princeton_trtdifferential loss correction	single-endedforward channel	channel 1reverse channel	N/Adate	2019/09/16time	14:10:35forward acquisition time	60.00reverse acquisition time	0.00gamma	496.2192k internal	0.2293k external	0.2293temperature offset calibration	0.9953default loss term (dB/km)	0.3790temperature slope calibration	1.0000multiplexer offset coefficient	1.0000multiplexer slope coefficient	1.0000fibre end	0.00T internal ref (°C)	42.27T ext. ref 1 (°C)	14.10T ext. ref 2 (°C)	36.89length (m)	temperature (°C)	Stokes	anti-Stokes-747.200	339.750	0.057	0.114
-746.185	-39.257	0.072	-0.038
-745.171	480.005	-0.119	-0.276
-744.156	108.893	0.407	0.497
-743.142	431.248	0.167	0.370
-742.127	-200.000	-0.026	0.185
-741.112	124.416	-0.242	-0.311
-740.098	95.121	0.107	0.125
-739.083	38.368	0.067	-0.061
-738.069	59.277	-0.125	0.126
-737.054	198.586	-0.122	0.191
-736.039	100.004	-0.112	0.133
-735.025	-32.500	0.228	0.130
-734.010	-200.000	-0.030	-0.295
-732.996	-130.854	-0.116	0.016
-731.981	493.268	-0.129	0.303
-730.966	-132.150	0.450	0.060
-729.952	-160.190	0.183	-0.010
-728.937	-4.669	-0.502	-0.354
-727.923	-58.919	-0.209	0.093
-726.908	-60.578	-0.326	-0.141
-725.894	670.168	0.172	-0.454
-724.879	110.952	-0.087	-0.108
-723.864	42.624	-0.046	-0.043
-722.850	-200.000	0.019	0.428
-721.835	-200.000	-0.003	-0.050
-720.821	77.005	0.123	-0.134
-719.806	800.000	-0.033	0.097
-718.791	194.221	-0.151	0.234
-717.777	-142.101	0.041	-0.004
-716.762	426.793	-0.104	-0.229
-715.748	55.388	-0.086	-0.085
-714.733	416.960	-0.090	0.197
-713.718	78.862	0.223	-0.244
-712.704	-102.829	-0.170	-0.041
-711.689	-149.583	0.111	-0.009
-710.675	-200.000	0.084	0.457
-709.660	-15.351	0.224	0.147
-708.645	-156.133	-0.244	0.016
-707.631	-200.000	-0.041	-0.210
-706.616	-200.000	-0.002	0.176
-705.602	-200.000	0.023	0.130
-704.587	8.891	-0.076	-0.058
-703.572	-156.217	0.159	0.010
-702.558	-71.357	-0.180	-0.069
-701.543	-200.000	-0.062	-0.375
-700.529	130.876	-0.094	-0.123
-699.514	-169.887	0.145	0.005
-698.499	-100.987	-0.070	-0.018
-697.485	-188.987	-0.123	-0.002
-696.470	-200.000	-0.009	-0.143
-695.456	447.997	-0.058	-0.130
-694.441	-200.000	0.051	-0.389
-693.426	-200.000	0.059	-0.267
-692.412	-80.762	-0.084	-0.029
-691.397	250.870	0.142	-0.247
-690.383	322.055	-0.148	-0.287
-689.368	143.150	-0.018	-0.024
-688.354	-122.609	-0.202	-0.033
-687.339	10.907	0.155	0.121
-686.324	176.979	0.171	0.253
-685.310	121.315	-0.163	-0.207
-684.295	-200.000	0.003	0.015
-683.281	-200.000	-0.006	-0.085
-682.266	800.000	0.051	-0.169
-681.251	19.113	0.147	-0.120
-680.237	168.729	-0.149	-0.217
-679.222	93.797	-0.161	-0.186
-678.208	115.599	0.110	-0.138
-677.193	72.883	-0.166	-0.177
-676.178	-200.000	0.055	0.283
-675.164	24.144	-0.040	0.034
-674.149	-135.919	0.196	0.024
-673.135	-75.900	-0.039	-0.014
-672.120	-65.293	-0.288	-0.118
-671.105	-4.410	-0.321	-0.226
-670.091	-200.000	-0.079	0.379
-669.076	-134.245	0.200	-0.025
-668.062	394.176	0.169	-0.359
-667.047	383.325	-0.142	-0.299
-666.032	382.454	0.037	-0.078
-665.018	-76.256	-0.200	0.072
-664.003	95.182	-0.330	0.383
-662.989	-146.422	0.418	-0.037
-661.974	-165.404	-0.063	-0.003
-660.959	-200.000	-0.017	0.219
-659.945	-65.546	0.196	-0.080
-658.930	-85.678	0.299	-0.095
-657.916	800.000	-0.095	-0.378
-656.901	324.367	0.140	0.273
-655.886	-200.000	-0.048	0.258
-654.872	-139.339	-0.117	-0.013
-653.857	125.561	-0.118	0.152
-652.843	800.000	-0.050	0.152
-651.828	800.000	0.026	-0.088
-650.814	76.504	0.130	-0.141
-649.799	800.000	0.093	0.339
-648.784	-88.063	0.265	-0.081
-647.770	-200.000	-0.001	-0.183
-646.755	-8.267	-0.320	0.220
-645.741	800.000	0.124	-0.450
-644.726	-82.026	-0.243	0.081
-643.711	364.386	0.118	0.243
-642.697	28.067	0.223	0.192
-641.682	14.540	-0.198	0.158
-640.668	-146.681	-0.357	-0.031
-639.653	545.778	0.208	0.508
-638.638	-200.000	0.024	-0.149
-637.624	312.035	0.082	-0.157
-636.609	91.969	0.219	0.251
-635.595	62.347	0.044	0.045
-634.580	-151.405	0.002	-0.000
-633.565	-104.882	-0.305	-0.071
-632.551	-171.698	-0.260	0.009
-631.536	-200.000	0.009	0.152
-630.522	-200.000	-0.014	0.190
-629.507	-50.906	-0.138	-0.066
-628.492	-83.365	0.354	-0.116
-627.478	-27.210	-0.246	-0.146
-626.463	-97.956	-0.245	-0.064
-625.449	182.351	-0.092	0.138
-624.434	-39.068	0.369	0.198
-623.419	585.155	0.048	-0.119
-622.405	229.326	-0.196	0.325
-621.390	-53.643	-0.150	0.070
-620.376	-72.288	-0.435	-0.164
-619.361	103.960	0.149	0.178
-618.346	-16.515	-0.115	-0.074
-617.332	-200.000	-0.054	-0.318
-616.317	-200.000	0.040	-0.305
-615.303	-143.257	-0.223	-0.022
-614.288	193.724	-0.128	-0.197
-613.273	205.623	-0.178	0.281
-612.259	800.000	-0.047	-0.154
-611.244	-148.657	0.247	0.020
-610.230	119.482	-0.108	-0.135
-609.215	800.000	0.045	0.179
-608.201	337.961	0.077	-0.153
-607.186	-74.201	-0.067	-0.025
-606.171	-9.859	0.131	-0.088
-605.157	-6.499	-0.150	-0.104
-604.142	92.843	-0.166	-0.190
-603.128	54.040	0.136	-0.133
-602.113	105.135	-0.047	0.057
-601.098	-159.909	0.274	0.015
-600.084	537.989	-0.163	0.395
-599.069	-113.696	0.121	-0.024
-598.055	-200.000	-0.029	-0.213
-597.040	800.000	-0.043	0.151
-596.025	800.000	-0.208	-0.624
-595.011	136.325	-0.214	-0.284
-593.996	92.427	0.169	0.194
-592.982	-74.517	0.030	-0.011
-591.967	188.773	-0.125	-0.191
-590.952	-27.703	0.184	0.108
-589.938	-200.000	-0.021	0.198
-588.923	800.000	-0.019	-0.086
-587.909	-42.141	0.135	0.070
-586.894	800.000	-0.034	0.141
-585.879	-21.929	0.094	0.058
-584.865	800.000	-0.199	0.568
-583.850	-96.163	-0.268	-0.072
-582.836	-36.845	-0.396	-0.216
-581.821	-110.259	0.024	-0.005
-580.806	-86.687	-0.135	0.042
-579.792	-159.493	0.335	0.019
-578.777	174.267	0.105	-0.154
-577.763	-9.093	0.241	0.164
-576.748	-127.466	0.399	0.059
-575.733	359.817	0.054	0.110
-574.719	16.674	0.351	0.282
-573.704	-63.492	-0.401	0.167
-572.690	498.959	0.077	-0.181
-571.675	-111.242	-0.147	0.031
-570.661	15.976	0.113	0.090
-569.646	-160.525	0.159	-0.009
-568.631	7.618	-0.089	-0.068
-567.617	-62.542	0.209	-0.088
-566.602	103.660	-0.296	0.353
-565.588	-5.430	-0.116	0.081
-564.573	-115.691	-0.115	-0.022
-563.558	244.177	0.169	-0.289
-562.544	40.578	0.122	-0.112
-561.529	-65.292	0.312	-0.128
-560.515	105.190	-0.074	-0.088
-559.500	204.843	-0.137	-0.216
-558.485	-12.601	-0.161	-0.106
-557.471	4.932	0.061	0.046
-556.456	336.729	-0.114	-0.225
-555.442	38.891	-0.284	-0.258
-554.427	780.307	-0.052	-0.146
-553.412	-83.321	0.138	-0.045
-552.398	159.572	0.122	0.173
-551.383	-166.509	-0.210	-0.009
-550.369	82.432	0.117	-0.129
-549.354	-150.936	0.251	0.019
-548.339	20.750	-0.298	-0.245
-547.325	-200.000	-0.037	-0.166
-546.310	-200.000	0.009	-0.401
-545.296	-111.720	-0.138	0.028
-544.281	-105.888	-0.121	-0.028
-543.266	-128.908	0.255	-0.036
-542.252	800.000	-0.070	0.247
-541.237	55.575	0.063	-0.061
-540.223	-123.404	0.515	-0.083
-539.208	203.151	0.087	0.136
-538.193	-19.665	-0.336	0.211
-537.179	363.388	0.092	-0.188
-536.164	-200.000	-0.007	-0.184
-535.150	800.000	-0.034	0.100
-534.135	-200.000	0.030	-0.396
-533.121	10.763	-0.364	-0.282
-532.106	800.000	-0.064	0.277
-531.091	289.674	0.014	0.025
-530.077	800.000	0.052	0.215
-529.062	-9.622	0.189	-0.128
-528.048	-83.106	-0.057	-0.019
-527.033	-200.000	0.013	-0.093
-526.018	800.000	-0.069	0.203
-525.004	800.000	0.055	-0.165
-523.989	-67.084	0.107	0.043
-522.975	-159.139	-0.223	-0.013
-521.960	-151.237	0.215	-0.016
-520.945	184.415	0.205	0.308
-519.931	800.000	-0.100	-0.314
-518.916	10.834	0.213	0.165
-517.902	800.000	0.147	0.534
-516.887	85.036	-0.289	-0.321
-515.872	40.787	0.057	-0.052
-514.858	418.826	-0.028	0.060
-513.843	-200.000	-0.042	0.206
-512.829	270.511	0.033	-0.058
-511.814	-57.372	0.246	-0.110
-510.799	-200.000	0.015	-0.161
-509.785	-200.000	0.067	0.302
-508.770	-200.000	0.000	-0.077
-507.756	-17.626	-0.040	-0.026
-506.741	800.000	0.042	-0.153
-505.726	-107.102	-0.240	-0.054
-504.712	179.513	-0.068	-0.100
-503.697	800.000	-0.034	-0.100
-502.683	473.859	-0.128	0.293
-501.668	-121.103	0.051	0.009
-500.653	15.295	-0.234	0.186
-499.639	800.000	-0.056	0.231
-498.624	187.518	0.174	-0.262
-497.610	18.719	-0.214	0.173
-496.595	-86.318	-0.186	0.058
-495.581	-63.401	-0.039	-0.016
-494.566	800.000	0.044	0.173
-493.551	31.536	-0.081	0.070
-492.537	-28.061	-0.130	0.076
-491.522	771.149	0.026	0.073
-490.508	15.223	0.011	0.009
-489.493	-200.000	0.006	0.292
-488.478	390.477	-0.077	0.162
-487.464	-3.398	0.088	-0.062
-486.449	-98.169	-0.178	0.046
-485.435	296.610	-0.103	0.192
-484.420	-200.000	-0.019	0.272
-483.405	-163.632	-0.248	0.012
-482.391	-106.444	0.360	-0.081
-481.376	800.000	0.027	0.092
-480.362	-200.000	0.033	0.333
-479.347	41.811	0.032	0.030
-478.332	-3.319	-0.229	-0.162
-477.318	-156.611	-0.371	-0.023
-476.303	-99.495	-0.274	0.070
-475.289	-100.205	-0.243	-0.061
-474.274	270.317	0.064	-0.115
-473.259	-75.591	-0.084	-0.030
-472.245	495.965	-0.128	0.297
-471.230	-92.074	-0.269	0.077
-470.216	-200.000	-0.034	-0.297
-469.201	-40.904	0.211	0.110
-468.186	-37.307	-0.172	-0.093
-467.172	-200.000	-0.002	0.151
-466.157	-197.042	0.382	0.002
-465.143	50.986	-0.252	0.242
-464.128	77.109	-0.136	0.147
-463.113	-200.000	-0.052	-0.257
-462.099	0.571	-0.364	0.263
-461.084	-61.804	0.084	0.035
-460.070	577.422	0.096	0.239
-459.055	-123.581	-0.187	0.030
-458.040	-104.053	-0.065	0.015
-457.026	226.084	0.171	-0.281
-456.011	-65.806	-0.420	0.170
-454.997	-25.412	0.250	-0.149
-453.982	800.000	0.043	-0.180
-452.968	-89.491	0.102	0.030
-451.953	152.748	0.088	-0.122
-450.938	-200.000	-0.069	-0.346
-449.924	-136.432	0.269	0.032
-448.909	-200.000	-0.058	-0.403
-447.895	-200.000	0.030	0.335
-446.880	-200.000	0.019	-0.254
-445.865	-200.000	-0.024	0.271
-444.851	126.535	0.156	0.200
-443.836	800.000	-0.039	-0.120
-442.822	87.372	0.144	0.161
-441.807	48.754	0.294	0.279
-440.792	107.360	-0.070	-0.084
-439.778	-183.242	0.252	-0.004
-438.763	280.786	-0.154	-0.278
-437.749	-151.003	-0.093	0.007
-436.734	16.530	0.257	-0.205
-435.719	138.383	-0.164	-0.217
-434.705	-13.692	0.182	0.119
-433.690	800.000	0.059	-0.173
-432.676	-200.000	-0.038	-0.169
-431.661	-200.000	0.017	0.223
-430.646	144.081	0.254	-0.342
-429.632	-197.526	0.162	0.001
-428.617	-110.518	0.152	-0.032
-427.603	-40.495	0.264	-0.139
-426.588	-145.005	0.101	0.009
-425.573	-112.674	-0.074	0.015
-424.559	20.260	0.332	0.271
-423.544	-200.000	0.005	0.208
-422.530	-150.216	0.129	-0.010
-421.515	-27.342	0.175	0.103
-420.500	-161.291	-0.241	-0.013
-419.486	-200.000	0.025	0.160
-418.471	663.033	0.007	0.019
-417.457	171.752	-0.010	-0.015
-416.442	-130.920	-0.436	-0.059
-415.428	149.033	-0.125	-0.170
-414.413	800.000	0.093	-0.385
-413.398	800.000	0.031	0.117
-412.384	615.240	0.070	0.177
-411.369	800.000	0.082	-0.290
-410.355	-21.900	-0.269	-0.165
-409.340	800.000	0.019	-0.067
-408.325	73.701	-0.225	-0.238
-407.311	-157.648	0.261	0.016
-406.296	-142.836	-0.142	-0.014
-405.282	800.000	0.065	0.184
-404.267	800.000	-0.040	0.153
-403.252	139.520	0.114	0.152
-402.238	-112.527	-0.031	0.006
-401.223	-49.817	0.130	-0.062
-400.209	171.457	-0.155	-0.225
-399.194	-169.308	-0.255	0.009
-398.179	-200.000	-0.006	-0.033
-397.165	-2.176	0.150	-0.106
-396.150	-139.252	-0.156	0.017
-395.136	800.000	-0.083	-0.327
-394.121	32.015	-0.276	-0.240
-393.106	-116.494	0.158	-0.029
-392.092	-1.136	0.092	0.066
-391.077	109.672	-0.066	0.080
-390.063	189.781	0.106	-0.161
-389.048	-82.337	0.152	-0.050
-388.033	-200.000	0.012	-0.258
-387.019	-83.622	0.235	0.076
-386.004	800.000	-0.039	0.120
-384.990	-200.000	-0.012	0.170
-383.975	385.739	0.084	0.175
-382.960	272.397	0.155	0.276
-381.946	191.418	0.218	-0.331
-380.931	-28.090	0.202	0.118
-379.917	800.000	-0.062	0.225
-378.902	-144.932	-0.301	-0.028
-377.888	-103.404	0.440	-0.104
-376.873	-126.103	0.193	-0.029
-375.858	42.886	-0.219	0.201
-374.844	619.908	0.129	0.328
-373.829	318.618	-0.070	-0.133
-372.815	-133.074	0.364	0.047
-371.800	-78.659	0.099	-0.034
-370.785	-200.000	-0.008	-0.080
-369.771	800.000	0.036	0.124
-368.756	389.705	0.111	0.232
-367.742	620.115	0.029	0.073
-366.727	800.000	0.108	0.419
-365.712	-147.036	0.180	0.016
-364.698	-200.000	-0.006	0.196
-363.683	-200.000	-0.013	0.109
-362.669	-32.008	0.143	-0.081
-361.654	-102.781	0.157	-0.038
-360.639	-33.867	-0.117	-0.065
-359.625	-32.355	-0.200	-0.112
-358.610	168.211	0.079	0.113
-357.596	179.393	0.079	0.117
-356.581	-200.000	0.016	-0.089
-355.566	800.000	-0.021	0.076
-354.552	-200.000	-0.047	-0.283
-353.537	-102.371	0.341	-0.082
-352.523	800.000	-0.114	-0.492
-351.508	-107.286	-0.190	0.042
-350.493	1.378	0.216	-0.157
-349.479	-45.950	-0.244	-0.121
-348.464	68.787	-0.105	0.109
-347.450	-86.691	0.183	-0.057
-346.435	577.175	-0.051	-0.126
-345.420	-59.508	0.110	0.048
-344.406	-14.300	-0.181	-0.118
-343.391	122.184	0.009	-0.012
-342.377	-200.000	0.009	-0.302
-341.362	-137.190	-0.498	0.057
-340.348	154.567	0.144	0.200
-339.333	706.353	0.088	0.234
-338.318	-52.427	0.131	-0.061
-337.304	800.000	0.070	0.219
-336.289	-100.346	-0.202	0.051
-335.275	-9.350	-0.165	0.111
-334.260	-139.803	0.037	0.004
-333.245	-79.108	-0.486	0.166
-332.231	-8.139	0.535	-0.363
-331.216	-120.153	0.285	-0.049
-330.202	-200.000	-0.006	0.050
-329.187	-71.065	0.074	-0.028
-328.172	-157.337	-0.193	-0.012
-327.158	-200.000	0.003	-0.172
-326.143	-41.200	-0.212	0.110
-325.129	800.000	-0.049	0.138
-324.114	-168.703	-0.147	0.006
-323.099	210.477	0.140	-0.221
-322.085	189.384	-0.174	-0.263
-321.070	-102.347	-0.259	0.063
-320.056	27.486	-0.144	-0.122
-319.041	-51.444	-0.322	0.151
-318.026	-58.629	-0.111	-0.048
-317.012	213.759	0.072	-0.115
-315.997	-200.000	0.011	-0.135
-314.983	-107.240	0.291	-0.064
-313.968	344.994	0.117	-0.231
-312.953	-149.303	-0.174	0.014
-311.939	-73.236	0.105	-0.039
-310.924	800.000	0.035	-0.130
-309.910	-16.126	-0.171	0.110
-308.895	29.862	-0.242	-0.207
-307.880	351.074	-0.114	0.227
-306.866	43.211	0.085	0.078
-305.851	494.456	0.088	0.203
-304.837	-113.344	-0.174	-0.034
-303.822	98.938	-0.170	0.197
-302.807	800.000	0.052	-0.196
-301.793	57.624	-0.155	0.152
-300.778	171.771	-0.174	0.251
-299.764	467.878	0.030	0.068
-298.749	800.000	0.030	-0.085
-297.735	26.532	-0.028	-0.023
-296.720	-82.530	-0.219	-0.072
-295.705	-200.000	-0.020	0.102
-294.691	371.997	0.138	0.281
-293.676	-21.070	-0.225	-0.138
-292.662	-200.000	-0.043	-0.256
-291.647	-99.350	-0.011	-0.003
-290.632	-87.516	0.255	0.078
-289.618	-151.289	-0.101	-0.008
-288.603	-89.881	-0.130	0.038
-287.589	-162.345	-0.366	-0.018
-286.574	703.411	0.146	-0.387
-285.559	-200.000	-0.020	0.138
-284.545	-122.941	0.242	0.039
-283.530	-2.809	-0.466	0.327
-282.516	-21.319	0.326	-0.200
-281.501	-200.000	-0.028	-0.362
-280.486	-100.368	0.192	-0.048
-279.472	-15.541	-0.054	-0.035
-278.457	-200.000	-0.070	-0.000
-277.443	131.663	0.076	0.099
-276.428	629.481	0.008	0.021
-275.413	800.000	-0.031	0.108
-274.399	-200.000	-0.095	0.000
-273.384	-82.888	0.408	0.132
-272.370	36.096	0.097	-0.086
-271.355	-200.000	0.041	-0.262
-270.340	800.000	0.030	-0.110
-269.326	281.394	-0.147	-0.264
-268.311	-200.000	-0.003	0.036
-267.297	-14.901	0.189	0.122
-266.282	-200.000	0.470	0.001
-265.267	-111.529	-0.309	0.063
-264.253	800.000	-0.065	0.276
-263.238	-200.000	0.140	-0.000
-262.224	80.041	-0.226	0.243
-261.209	164.103	0.136	0.192
-260.195	83.330	0.189	0.207
-259.180	-52.296	0.125	-0.058
-258.165	-200.000	0.008	-0.246
-257.151	800.000	0.076	0.306
-256.136	-121.058	0.210	0.035
-255.122	-73.236	0.191	0.070
-254.107	52.570	0.125	0.120
-253.092	-88.797	0.259	0.077
-252.078	144.248	0.093	0.124
-251.063	-52.185	0.198	-0.092
-250.049	-89.137	-0.354	-0.105
-249.034	104.291	0.130	-0.154
-248.019	115.258	0.083	-0.102
-247.005	-200.000	0.001	0.079
-245.990	-44.180	0.109	0.055
-244.976	-57.233	0.302	0.133
-243.961	84.055	-0.072	0.079
-242.946	406.814	0.080	-0.171
-241.932	72.496	-0.144	0.151
-240.917	-139.373	-0.197	0.021
-239.903	-200.000	-0.056	-0.393
-238.888	103.509	-0.126	-0.148
-237.873	-10.851	-0.190	-0.126
-236.859	328.611	0.174	0.335
-235.844	-85.724	0.123	0.038
-234.830	-100.405	-0.310	0.077
-233.815	-142.168	0.179	0.018
-232.800	-17.036	-0.044	-0.028
-231.786	441.962	-0.094	0.206
-230.771	-6.213	-0.192	-0.132
-229.757	126.486	0.162	0.206
-228.742	-98.635	-0.279	0.071
-227.727	-101.019	-0.098	-0.024
-226.713	760.784	-0.137	-0.374
-225.698	-200.000	-0.015	0.071
-224.684	96.306	-0.044	-0.050
-223.669	800.000	-0.054	0.191
-222.655	-74.477	-0.137	-0.050
-221.640	102.621	0.129	-0.151
-220.625	800.000	0.061	-0.174
-219.611	-200.000	-0.018	0.181
-218.596	-109.881	-0.093	-0.020
-217.582	-86.957	0.345	0.105
-216.567	162.768	-0.145	-0.204
-215.552	-76.021	0.176	-0.062
-214.538	800.000	-0.108	-0.310
-213.523	113.789	-0.035	0.042
-212.509	49.150	0.131	0.123
-211.494	-32.787	0.133	-0.074
-210.479	-123.874	-0.332	-0.053
-209.465	34.144	0.130	0.113
-208.450	-54.040	0.372	0.169
-207.436	-137.435	0.360	0.041
-206.421	-200.000	0.052	0.342
-205.406	-40.748	0.080	-0.041
-204.392	14.388	-0.255	0.199
-203.377	233.028	-0.106	0.175
-202.363	53.365	-0.085	0.082
-201.348	350.866	-0.043	0.085
-200.333	146.823	-0.090	-0.121
-199.319	484.829	-0.142	-0.325
-198.304	395.271	0.077	0.161
-197.290	75.792	0.125	-0.132
-196.275	-121.439	0.215	0.036
-195.260	152.079	-0.110	-0.151
-194.246	-55.327	0.128	0.057
-193.231	800.000	-0.010	-0.033
-192.217	800.000	-0.091	-0.337
-191.202	-107.700	0.161	0.035
-190.187	693.100	0.102	0.268
-189.173	-104.976	0.006	0.001
-188.158	56.485	0.255	0.248
-187.144	106.648	-0.180	0.214
-186.129	-43.577	0.117	-0.059
-185.114	-47.997	0.343	-0.166
-184.100	9.923	0.108	-0.082
-183.085	-124.348	-0.056	0.009
-182.071	689.694	0.073	0.192
-181.056	245.967	0.091	0.153
-180.042	-41.013	-0.193	-0.100
-179.027	100.358	0.270	-0.314
-178.012	-16.186	-0.126	-0.080
-176.998	-12.108	0.034	0.023
-175.983	29.121	0.281	-0.239
-174.969	67.365	-0.134	-0.137
-173.954	162.026	0.077	-0.108
-172.939	800.000	-0.020	0.089
-171.925	8.667	0.110	-0.083
-170.910	506.930	-0.115	0.267
-169.896	-169.455	0.251	0.009
-168.881	-200.000	-0.030	0.207
-167.866	35.704	-0.202	0.178
-166.852	141.196	-0.087	0.115
-165.837	42.801	0.268	-0.244
-164.823	-79.903	0.129	-0.043
-163.808	226.726	0.149	-0.241
-162.793	85.878	-0.052	-0.057
-161.779	-200.000	0.003	0.251
-160.764	-165.439	-0.241	-0.011
-159.750	-186.991	-0.181	0.002
-158.735	381.173	0.134	-0.275
-157.720	746.956	-0.085	0.228
-156.706	354.560	-0.144	0.286
-155.691	128.517	0.093	-0.118
-154.677	127.726	-0.130	-0.165
-153.662	-61.932	-0.274	0.115
-152.647	170.454	0.030	0.043
-151.633	-200.000	0.006	-0.276
-150.618	800.000	0.083	-0.277
-149.604	-77.081	0.192	-0.067
-148.589	212.784	-0.236	0.372
-147.574	800.000	0.018	0.067
-146.560	-73.801	-0.453	-0.165
-145.545	-20.329	-0.158	-0.097
-144.531	-68.771	0.302	-0.117
-143.516	-84.765	-0.269	0.084
-142.502	-95.488	0.257	-0.069
-141.487	-82.018	0.178	0.058
-140.472	-157.720	-0.245	-0.015
-139.458	-200.000	-0.033	-0.392
-138.443	-113.171	-0.054	-0.011
-137.429	55.317	-0.060	-0.058
-136.414	-200.000	-0.028	0.257
-135.399	800.000	-0.065	0.184
-134.385	-163.491	0.341	0.016
-133.370	124.733	-0.248	0.312
-132.356	10.254	0.130	-0.099
-131.341	170.546	0.247	-0.353
-130.326	-126.733	0.422	-0.062
-129.312	501.629	0.103	0.238
-128.297	800.000	-0.072	-0.304
-127.283	-75.821	0.379	-0.134
-126.268	-91.812	0.188	-0.053
-125.253	-50.678	-0.315	0.148
-124.239	703.039	-0.081	-0.212
-123.224	-60.017	-0.280	-0.119
-122.210	-148.228	-0.094	-0.008
