DTS Sentinel unit serial number:	SN413079Multiplexer serial number:	ORYXHardware model number:	OX4-SRSoftware version number:	ORYX F/W v4.00 Oryx Data Collector v3.7.2.0data status	okinstallation	princeton_trtdifferential loss correction	single-endedforward channel	channel 1reverse channel	N/Adate	2019/09/11time	13:08:11forward acquisition time	60.00reverse acquisition time	0.00gamma	496.2192k internal	0.2295k external	0.2295temperature offset calibration	0.9973default loss term (dB/km)	0.3790temperature slope calibration	1.0000multiplexer offset coefficient	1.0000multiplexer slope coefficient	1.0000fibre end	0.00T internal ref (°C)	41.81T ext. ref 1 (°C)	0.66T ext. ref 2 (°C)	39.18length (m)	temperature (°C)	Stokes	anti-Stokes-747.200	83.234	-0.077	-0.086
-746.185	-200.000	-0.067	0.333
-745.171	338.790	0.074	-0.146
-744.156	429.922	0.270	0.597
-743.142	-200.000	0.007	0.269
-742.127	-42.431	0.333	0.174
-741.112	73.560	-0.185	-0.198
-740.098	298.383	-0.146	0.275
-739.083	-75.365	0.349	0.127
-738.069	-200.000	-0.043	0.211
-737.054	351.897	0.125	-0.253
-736.039	-36.050	-0.236	0.130
-735.025	161.604	-0.039	0.055
-734.010	648.717	0.059	-0.154
-732.996	-96.045	-0.459	0.125
-731.981	380.320	0.102	-0.213
-730.966	-64.927	0.354	-0.146
-729.952	62.317	-0.202	0.206
-728.937	-200.000	0.013	-0.539
-727.923	-14.817	-0.292	0.192
-726.908	82.175	0.131	0.146
-725.894	-89.383	0.273	-0.082
-724.879	-93.286	-0.209	0.059
-723.864	-200.000	0.029	-0.191
-722.850	800.000	0.058	0.184
-721.835	283.393	-0.092	-0.169
-720.821	55.119	0.213	-0.210
-719.806	800.000	0.050	0.168
-718.791	-200.000	-0.015	-0.078
-717.777	563.343	0.043	-0.106
-716.762	37.672	-0.037	-0.033
-715.748	174.355	-0.164	0.242
-714.733	-200.000	0.026	0.224
-713.718	57.902	-0.122	-0.122
-712.704	640.360	-0.243	-0.631
-711.689	270.100	0.110	0.197
-710.675	73.065	-0.022	0.023
-709.660	-122.658	0.095	-0.016
-708.645	-200.000	-0.006	0.339
-707.631	153.192	0.186	0.260
-706.616	238.204	-0.103	-0.174
-705.602	50.908	-0.084	-0.081
-704.587	-112.837	-0.335	0.068
-703.572	-162.099	-0.148	-0.008
-702.558	318.499	0.110	-0.212
-701.543	-65.684	-0.206	0.084
-700.529	-61.346	-0.433	-0.186
-699.514	-38.964	-0.141	-0.076
-698.499	408.139	0.188	0.406
-697.485	239.397	-0.093	-0.157
-696.470	800.000	-0.022	-0.068
-695.456	-95.846	-0.105	-0.029
-694.441	-126.081	0.077	-0.012
-693.426	-200.000	-0.011	-0.232
-692.412	-200.000	0.035	-0.325
-691.397	-157.880	0.232	-0.014
-690.383	296.994	0.090	0.168
-689.368	76.732	-0.130	0.141
-688.354	304.344	0.093	-0.176
-687.339	67.586	-0.179	-0.187
-686.324	388.735	0.127	0.268
-685.310	31.946	0.105	0.093
-684.295	712.128	-0.039	-0.105
-683.281	-200.000	-0.006	0.047
-682.266	-41.055	-0.213	-0.112
-681.251	-165.855	-0.084	0.004
-680.237	558.015	-0.150	-0.370
-679.222	61.459	0.061	0.061
-678.208	-84.797	0.042	-0.013
-677.193	-92.831	-0.341	-0.097
-676.178	131.111	-0.032	-0.042
-675.164	65.587	-0.207	0.214
-674.149	273.645	-0.084	0.151
-673.135	-139.482	0.115	-0.012
-672.120	793.389	-0.135	0.380
-671.105	-200.000	0.054	0.324
-670.091	-200.000	-0.034	-0.205
-669.076	-79.525	-0.025	0.009
-668.062	-110.112	-0.175	-0.037
-667.047	50.005	0.229	0.220
-666.032	-94.827	-0.164	0.045
-665.018	222.592	0.123	0.202
-664.003	141.421	-0.259	-0.350
-662.989	-117.049	0.097	-0.018
-661.974	333.894	0.019	-0.037
-660.959	-136.910	-0.232	-0.027
-659.945	13.480	-0.317	0.251
-658.930	126.004	0.116	-0.149
-657.916	800.000	-0.059	0.215
-656.901	-55.712	-0.066	-0.030
-655.886	132.916	0.114	0.149
-654.872	-56.167	0.082	-0.037
-653.857	-134.343	0.212	0.027
-652.843	-47.239	-0.122	0.061
-651.828	281.914	0.110	-0.201
-650.814	118.322	-0.251	0.315
-649.799	-200.000	0.020	0.108
-648.784	719.722	-0.057	-0.155
-647.770	-87.140	0.355	0.110
-646.755	-101.293	-0.054	-0.013
-645.741	162.820	-0.213	0.304
-644.726	-200.000	0.068	0.380
-643.711	-124.639	-0.105	-0.017
-642.697	-67.264	-0.061	0.024
-641.682	-28.934	0.139	0.081
-640.668	800.000	-0.032	0.113
-639.653	800.000	0.041	0.118
-638.638	158.596	-0.132	0.187
-637.624	800.000	0.118	-0.337
-636.609	24.869	-0.152	-0.129
-635.595	145.765	-0.103	-0.140
-634.580	-152.279	0.249	-0.018
-633.565	-144.474	0.186	0.018
-632.551	190.534	0.132	-0.202
-631.536	-151.559	-0.309	0.023
-630.522	-129.023	0.181	-0.026
-629.507	178.213	0.082	-0.121
-628.492	-200.000	-0.046	0.237
-627.478	43.187	-0.061	-0.057
-626.463	-89.615	-0.235	0.070
-625.449	-55.499	0.060	-0.028
-624.434	-54.162	-0.054	0.025
-623.419	214.691	-0.054	0.087
-622.405	543.770	0.028	0.068
-621.390	-200.000	0.013	0.154
-620.376	800.000	0.061	0.180
-619.361	-96.773	0.190	0.051
-618.346	-134.694	-0.552	0.068
-617.332	695.804	-0.058	-0.156
-616.317	-21.450	-0.119	-0.074
-615.303	768.488	-0.009	0.024
-614.288	657.850	0.059	-0.153
-613.273	-200.000	-0.009	0.236
-612.259	52.410	-0.209	-0.202
-611.244	-200.000	-0.002	-0.009
-610.230	-68.954	0.258	-0.101
-609.215	332.246	-0.117	-0.230
-608.201	-89.791	-0.206	-0.061
-607.186	196.502	-0.036	-0.055
-606.171	-38.242	0.131	0.071
-605.157	196.444	0.108	-0.168
-604.142	-75.770	-0.363	0.131
-603.128	101.467	-0.021	0.025
-602.113	-200.000	-0.031	-0.194
-601.098	360.039	-0.094	0.192
-600.084	800.000	0.040	0.134
-599.069	0.589	0.031	0.022
-598.055	-39.857	-0.158	0.084
-597.040	39.086	-0.200	-0.182
-596.025	-10.484	0.174	0.117
-595.011	76.050	-0.085	0.091
-593.996	-153.513	-0.322	0.023
-592.982	800.000	0.051	0.224
-591.967	481.284	0.112	0.259
-590.952	115.370	0.245	0.304
-589.938	-200.000	-0.038	0.171
-588.923	-137.889	0.302	-0.034
-587.909	-75.404	0.244	-0.088
-586.894	16.996	0.213	0.172
-585.879	-158.723	-0.152	0.009
-584.865	-84.835	0.216	0.069
-583.850	617.814	-0.077	-0.197
-582.836	263.689	-0.058	0.102
-581.821	-200.000	-0.037	-0.317
-580.806	311.871	0.097	-0.184
-579.792	42.829	0.009	0.008
-578.777	-96.149	-0.039	-0.011
-577.763	-92.227	-0.176	-0.050
-576.748	331.479	0.056	-0.109
-575.733	-45.975	-0.163	0.082
-574.719	13.342	0.194	-0.153
-573.704	32.356	0.131	-0.115
-572.690	-200.000	0.002	-0.034
-571.675	-200.000	-0.044	-0.251
-570.661	-123.752	-0.249	-0.040
-569.646	-200.000	-0.029	0.312
-568.631	465.999	0.075	-0.171
-567.617	441.217	0.044	0.098
-566.602	124.436	-0.068	-0.087
-565.588	-98.282	-0.234	-0.061
-564.573	502.218	0.081	-0.191
-563.558	24.988	0.208	-0.175
-562.544	107.307	-0.220	0.266
-561.529	7.979	-0.097	-0.074
-560.515	133.125	-0.097	-0.127
-559.500	-4.727	-0.211	-0.148
-558.485	220.415	0.097	0.158
-557.471	16.390	-0.296	-0.237
-556.456	-32.490	-0.218	0.123
-555.442	-65.669	-0.143	-0.058
-554.427	-200.000	0.003	0.013
-553.412	8.655	-0.358	-0.273
-552.398	220.854	-0.280	-0.455
-551.383	-76.145	0.270	0.097
-550.369	-200.000	0.009	-0.129
-549.354	163.109	-0.111	0.158
-548.339	14.608	-0.158	-0.125
-547.325	5.054	0.331	0.247
-546.310	357.105	0.103	0.208
-545.296	800.000	-0.126	-0.496
-544.281	17.810	0.015	-0.012
-543.266	-17.777	0.167	-0.106
-542.252	38.710	0.129	0.117
-541.237	-158.984	-0.413	-0.024
-540.223	-200.000	0.052	0.265
-539.208	353.657	0.148	-0.298
-538.193	146.537	0.261	-0.355
-537.179	-31.421	-0.169	-0.097
-536.164	800.000	0.032	0.108
-535.150	-200.000	-0.002	-0.375
-534.135	264.516	0.169	0.298
-533.121	-100.839	-0.104	0.026
-532.106	-119.217	-0.148	0.026
-531.091	297.542	-0.218	0.405
-530.077	-68.615	-0.239	0.094
-529.062	71.049	0.249	0.261
-528.048	264.398	0.186	0.328
-527.033	-33.723	0.017	0.009
-526.018	-147.143	-0.214	-0.019
-525.004	-101.339	-0.121	-0.030
-523.989	-200.000	-0.014	0.322
-522.975	-32.103	-0.139	-0.078
-521.960	-96.238	-0.157	0.042
-520.945	-181.636	0.165	0.003
-519.931	59.060	0.086	-0.086
-518.916	-29.735	0.275	0.159
-517.902	-200.000	-0.004	0.025
-516.887	-167.957	-0.330	-0.013
-515.872	45.751	-0.082	0.077
-514.858	75.940	-0.308	0.330
-513.843	-131.773	-0.124	-0.016
-512.829	70.263	0.084	-0.087
-511.814	101.373	-0.217	-0.256
-510.799	203.216	-0.136	-0.213
-509.785	-46.913	-0.196	-0.097
-508.770	-200.000	-0.007	0.392
-507.756	64.429	0.126	0.128
-506.741	-200.000	-0.013	-0.344
-505.726	477.054	0.067	0.153
-504.712	-200.000	-0.019	0.135
-503.697	-54.932	0.083	0.038
-502.683	-200.000	0.010	-0.150
-501.668	87.912	-0.165	-0.185
-500.653	-200.000	-0.008	0.110
-499.639	-40.462	0.026	-0.014
-498.624	800.000	0.065	0.203
-497.610	-200.000	0.082	0.411
-496.595	119.763	-0.149	0.186
-495.581	102.112	-0.189	-0.223
-494.566	-95.130	0.154	0.042
-493.551	-200.000	-0.007	0.115
-492.537	-130.878	0.100	0.014
-491.522	403.020	-0.030	0.063
-490.508	-18.049	0.214	-0.136
-489.493	228.250	0.030	-0.049
-488.478	-200.000	0.008	0.175
-487.464	-200.000	0.015	0.100
-486.449	121.120	0.231	0.291
-485.435	-200.000	-0.003	0.170
-484.420	83.867	-0.077	-0.085
-483.405	-200.000	-0.013	-0.110
-482.391	36.198	0.095	0.084
-481.376	800.000	0.082	-0.251
-480.362	-200.000	0.014	-0.119
-479.347	523.064	0.037	-0.087
-478.332	20.655	-0.021	0.017
-477.318	-200.000	0.061	0.389
-476.303	132.627	0.138	0.180
-475.289	-200.000	0.047	-0.241
-474.274	153.206	-0.347	-0.481
-473.259	-30.240	0.047	0.027
-472.245	128.934	0.038	0.049
-471.230	800.000	0.080	0.261
-470.216	-41.688	-0.340	-0.177
-469.201	11.847	0.155	0.120
-468.186	169.747	-0.262	0.378
-467.172	282.979	0.142	-0.257
-466.157	-58.618	-0.105	-0.046
-465.143	-31.989	-0.223	0.126
-464.128	800.000	-0.130	-0.444
-463.113	-136.804	0.339	-0.039
-462.099	9.387	0.151	-0.115
-461.084	88.298	-0.085	0.095
-460.070	201.529	-0.086	0.133
-459.055	800.000	-0.082	-0.268
-458.040	-200.000	0.014	0.249
-457.026	-200.000	-0.062	-0.285
-456.011	6.024	0.063	0.047
-454.997	-200.000	-0.019	0.110
-453.982	-113.910	0.073	0.014
-452.968	-55.885	0.022	0.010
-451.953	158.170	0.139	0.195
-450.938	-200.000	0.018	-0.335
-449.924	-120.305	0.372	-0.064
-448.909	800.000	0.054	0.158
-447.895	-101.875	-0.186	0.045
-446.880	-15.610	-0.156	-0.100
-445.865	-99.118	-0.123	-0.031
-444.851	72.114	-0.106	0.111
-443.836	-102.604	-0.063	-0.015
-442.822	415.114	0.119	0.257
-441.807	-107.777	-0.244	0.054
-440.792	581.091	-0.113	0.279
-439.778	-28.774	0.353	0.205
-438.763	604.766	-0.051	-0.127
-437.749	-106.632	0.192	-0.043
-436.734	86.768	-0.265	0.295
-435.719	800.000	-0.033	-0.110
-434.705	-132.065	-0.223	0.029
-433.690	-105.451	0.262	0.060
-432.676	-130.755	0.265	-0.036
-431.661	-118.327	-0.321	0.058
-430.646	-200.000	0.057	-0.255
-429.632	-22.959	0.321	-0.196
-428.617	365.420	0.120	-0.245
-427.603	-200.000	-0.054	0.340
-426.588	-71.802	-0.318	0.120
-425.573	53.298	0.276	-0.267
-424.559	-122.365	-0.259	-0.043
-423.544	19.209	0.028	0.022
-422.530	-200.000	-0.032	-0.335
-421.515	-55.338	-0.387	-0.175
-420.500	135.846	0.027	-0.035
-419.486	-200.000	-0.004	-0.186
-418.471	-34.618	-0.173	0.096
-417.457	158.234	0.151	-0.212
-416.442	800.000	-0.029	-0.118
-415.428	516.216	0.036	-0.084
-414.413	-59.111	0.105	0.046
-413.398	-123.993	0.079	0.013
-412.384	800.000	-0.036	0.148
-411.369	-27.126	0.230	0.135
-410.355	-200.000	-0.001	0.023
-409.340	-138.348	0.113	-0.013
-408.325	22.095	0.156	0.128
-407.311	800.000	0.038	0.160
-406.296	136.788	0.143	-0.189
-405.282	-16.512	0.120	-0.077
-404.267	-24.970	0.347	0.208
-403.252	-66.804	0.126	0.050
-402.238	-185.837	0.227	0.003
-401.223	-200.000	-0.003	-0.028
-400.209	73.030	0.075	0.079
-399.194	-57.396	-0.262	-0.116
-398.179	544.077	0.070	0.168
-397.165	37.769	-0.037	0.033
-396.150	274.105	-0.136	-0.243
-395.136	197.329	0.113	-0.174
-394.121	-200.000	-0.044	-0.307
-393.106	-84.734	-0.320	-0.102
-392.092	149.673	0.092	-0.125
-391.077	-85.224	-0.182	-0.057
-390.063	-54.421	0.313	-0.143
-389.048	551.898	-0.307	-0.742
-388.033	151.244	0.085	0.116
-387.019	-200.000	0.010	-0.172
-386.004	-55.054	-0.052	0.023
-384.990	-30.624	0.095	-0.054
-383.975	-166.769	-0.161	0.007
-382.960	-134.482	0.338	-0.042
-381.946	13.207	-0.079	-0.062
-380.931	-142.321	-0.193	-0.019
-379.917	114.294	-0.268	0.329
-378.902	-57.956	0.270	0.119
-377.888	-123.648	0.139	-0.022
-376.873	-133.908	0.128	-0.016
-375.858	-113.910	0.293	0.057
-374.844	-140.890	0.168	-0.017
-373.829	365.071	-0.029	0.060
-372.815	445.239	-0.112	-0.248
-371.800	119.134	0.081	-0.101
-370.785	178.665	-0.076	0.112
-369.771	-62.078	0.326	0.137
-368.756	57.742	-0.200	0.197
-367.742	800.000	0.023	0.065
-366.727	-126.667	0.232	0.035
-365.712	758.278	0.062	0.170
-364.698	-200.000	-0.021	0.188
-363.683	-11.803	0.224	0.148
-362.669	-143.829	0.255	0.024
-361.654	-63.149	-0.296	-0.123
-360.639	-79.018	-0.145	0.050
-359.625	102.251	-0.231	-0.272
-358.610	-4.685	0.171	0.119
-357.596	58.169	-0.311	0.306
-356.581	102.449	0.080	-0.094
-355.566	-6.699	0.120	0.082
-354.552	369.578	0.074	-0.151
-353.537	-200.000	0.042	0.233
-352.523	78.824	-0.004	0.004
-351.508	110.374	-0.152	0.184
-350.493	139.800	0.163	-0.217
-349.479	-15.079	0.098	-0.063
-348.464	-17.924	-0.188	0.118
-347.450	155.074	-0.153	0.211
-346.435	0.516	0.046	0.033
-345.420	-184.674	-0.248	0.004
-344.406	-127.751	-0.155	0.023
-343.391	-124.079	0.153	0.024
-342.377	154.905	0.163	-0.225
-341.362	180.960	-0.124	0.183
-340.348	61.260	-0.267	-0.267
-339.333	-200.000	0.041	-0.291
-338.318	-3.972	0.301	-0.210
-337.304	800.000	-0.075	0.217
-336.289	436.832	-0.079	0.174
-335.275	-200.000	0.028	0.140
-334.260	-107.849	-0.111	0.024
-333.245	-60.663	-0.081	-0.035
-332.231	32.793	0.261	-0.227
-331.216	-81.461	0.170	-0.056
-330.202	173.431	0.282	0.409
-329.187	-67.232	-0.425	-0.168
-328.172	79.256	-0.297	0.320
-327.158	-78.889	-0.129	0.044
-326.143	-200.000	0.053	-0.315
-325.129	-93.480	0.245	0.068
-324.114	45.564	0.139	-0.129
-323.099	134.151	0.128	-0.167
-322.085	-41.698	-0.217	-0.112
-321.070	-12.941	-0.293	-0.191
-320.056	488.662	-0.140	0.322
-319.041	173.719	-0.070	0.102
-318.026	417.259	0.139	0.299
-317.012	-200.000	0.029	-0.319
-315.997	-74.198	0.229	-0.083
-314.983	692.728	0.101	-0.267
-313.968	-200.000	-0.036	-0.299
-312.953	-200.000	-0.018	0.244
-311.939	34.614	-0.216	-0.190
-310.924	-200.000	0.009	0.267
-309.910	63.069	-0.077	-0.077
-308.895	-92.490	-0.244	0.069
-307.880	12.846	0.224	-0.174
-306.866	-200.000	-0.077	-0.387
-305.851	800.000	-0.080	-0.231
-304.837	17.968	-0.415	-0.332
-303.822	56.084	-0.407	0.397
-302.807	-131.549	-0.230	0.030
-301.793	-200.000	0.046	0.347
-300.778	71.802	-0.143	0.150
-299.764	419.349	0.156	0.335
-298.749	29.822	0.103	0.089
-297.735	-200.000	-0.040	0.265
-296.720	-81.862	-0.110	0.036
-295.705	180.511	0.045	0.066
-294.691	70.144	0.286	0.297
-293.676	147.411	0.029	-0.039
-292.662	-134.297	0.202	-0.025
-291.647	17.370	0.130	0.103
-290.632	-122.412	-0.212	-0.035
-289.618	564.693	0.105	0.254
-288.603	-200.000	0.044	0.221
-287.589	-175.471	0.213	-0.006
-286.574	-200.000	-0.016	-0.217
-285.559	-98.749	-0.098	-0.025
-284.545	3.046	0.560	-0.408
-283.530	-129.567	0.291	-0.040
-282.516	-46.425	-0.275	-0.136
-281.501	-118.659	0.671	0.119
-280.486	245.850	-0.062	-0.105
-279.472	113.955	0.193	-0.236
-278.457	105.015	-0.106	-0.126
-277.443	496.027	0.130	-0.299
-276.428	385.478	-0.156	0.323
-275.413	-77.933	0.187	-0.065
-274.399	-52.599	0.168	0.078
-273.384	800.000	-0.040	0.145
-272.370	-58.416	0.401	-0.175
-271.355	-200.000	0.026	0.246
-270.340	153.490	0.243	-0.334
-269.326	-68.461	0.252	-0.098
-268.311	115.702	-0.185	-0.228
-267.297	-9.865	-0.156	-0.104
-266.282	-120.647	0.241	0.041
-265.267	204.102	0.028	0.043
-264.253	-43.689	0.361	0.183
-263.238	47.034	0.096	0.090
-262.224	407.344	-0.060	-0.128
-261.209	25.791	0.192	0.160
-260.195	-47.060	0.140	-0.069
-259.180	-182.311	-0.232	-0.004
-258.165	-112.837	-0.240	0.048
-257.151	-200.000	-0.013	0.085
-256.136	-200.000	-0.007	0.078
-255.122	-4.963	-0.405	0.280
-254.107	-123.036	-0.279	-0.045
-253.092	33.641	-0.063	-0.055
-252.078	-200.000	-0.027	0.137
-251.063	-200.000	0.050	0.233
-250.049	-200.000	0.005	-0.024
-249.034	251.405	-0.098	-0.167
-248.019	-200.000	-0.001	0.031
-247.005	-200.000	-0.014	0.232
-245.990	84.740	-0.183	-0.201
-244.976	99.689	-0.114	0.132
-243.961	800.000	-0.064	0.223
-242.946	-61.675	0.156	-0.066
-241.932	610.576	-0.064	-0.160
-240.917	-92.803	0.375	-0.105
-239.903	-103.730	0.012	-0.003
-238.888	178.058	0.066	-0.097
-237.873	-200.000	-0.022	0.202
-236.859	-9.829	-0.102	0.068
-235.844	40.871	-0.112	-0.101
-234.830	34.645	0.219	0.191
-233.815	286.387	0.124	-0.225
-232.800	-200.000	-0.017	-0.310
-231.786	-200.000	-0.003	0.098
-230.771	48.570	-0.222	-0.208
-229.757	443.594	0.040	0.087
-228.742	53.873	-0.244	-0.235
-227.727	371.272	0.085	-0.172
-226.713	-88.777	0.311	0.093
-225.698	-93.424	-0.246	-0.068
-224.684	94.519	0.139	0.159
-223.669	466.777	-0.043	-0.096
-222.655	-200.000	0.016	0.093
-221.640	114.859	0.118	-0.144
-220.625	6.863	0.233	-0.174
-219.611	-124.330	-0.427	0.067
-218.596	113.393	-0.158	0.192
-217.582	28.757	0.441	-0.374
-216.567	800.000	0.067	-0.211
-215.552	-200.000	-0.028	0.339
-214.538	184.154	0.140	0.208
-213.523	303.742	0.056	0.104
-212.509	386.177	0.058	-0.120
-211.494	431.976	-0.069	-0.151
-210.479	800.000	0.075	0.298
-209.465	-200.000	0.035	-0.250
-208.450	-66.581	-0.421	0.167
-207.436	-146.347	0.400	-0.035
-206.421	-200.000	-0.026	-0.204
-205.406	800.000	-0.039	-0.152
-204.392	-134.105	-0.377	-0.047
-203.377	149.010	-0.185	0.250
-202.363	-6.170	0.039	-0.027
-201.348	251.624	-0.035	-0.060
-200.333	-200.000	-0.035	-0.189
-199.319	66.837	-0.150	-0.152
-198.304	39.863	0.099	-0.089
-197.290	-97.010	-0.128	-0.034
-196.275	237.495	-0.076	0.125
-195.260	-200.000	0.163	0.000
-194.246	75.285	0.058	0.062
-193.231	-29.976	-0.224	0.127
-192.217	-118.929	-0.518	0.091
-191.202	78.556	-0.201	-0.215
-190.187	646.432	0.048	-0.124
-189.173	-1.426	0.338	-0.238
-188.158	422.405	-0.087	0.186
-187.144	194.540	0.065	0.099
-186.129	-41.995	0.162	0.083
-185.114	-55.163	-0.126	-0.057
-184.100	-109.023	0.217	0.046
-183.085	315.074	0.059	-0.111
-182.071	105.121	0.294	-0.347
-181.056	283.547	0.222	-0.399
-180.042	-200.000	0.004	0.161
-179.027	-35.120	0.387	0.211
-178.012	36.019	-0.098	0.086
-176.998	385.298	0.105	0.216
-175.983	481.348	-0.169	-0.383
-174.969	-6.311	0.040	0.027
-173.954	-64.957	-0.272	0.110
-172.939	-165.526	0.122	-0.005
-171.925	148.470	0.066	0.089
-170.910	800.000	0.017	-0.048
-169.896	-70.743	0.130	0.049
-168.881	305.853	0.154	0.286
-167.866	58.084	0.269	0.264
-166.852	-124.862	-0.170	0.026
-165.837	-200.000	0.026	0.288
-164.823	-79.458	0.058	0.020
-163.808	-60.503	0.154	-0.065
-162.793	-32.156	-0.010	-0.005
-161.779	0.380	0.235	-0.168
-160.764	-200.000	0.023	-0.191
-159.750	-3.832	-0.179	-0.124
-158.735	800.000	-0.028	0.105
-157.720	-161.866	0.170	-0.009
-156.706	-113.662	0.168	0.033
-155.691	800.000	-0.195	0.566
-154.677	-161.653	-0.366	0.019
-153.662	800.000	-0.082	-0.238
-152.647	-200.000	0.010	0.180
-151.633	800.000	0.038	-0.161
-150.618	-58.807	-0.039	0.017
-149.604	-79.625	0.077	-0.026
-148.589	668.822	0.131	0.339
-147.574	122.243	0.304	0.379
-146.560	-19.414	-0.262	0.162
-145.545	-200.000	0.015	0.410
-144.531	-84.093	0.323	0.102
-143.516	657.555	-0.149	0.383
-142.502	272.289	0.111	0.195
-141.487	-17.633	0.166	0.104
-140.472	514.791	0.057	-0.133
-139.458	-38.269	0.399	0.211
-138.443	-68.997	0.158	-0.061
-137.429	-143.858	0.046	-0.004
-136.414	186.683	0.111	0.166
-135.399	800.000	0.081	-0.332
-134.385	-97.393	-0.276	0.072
-133.370	-149.100	-0.074	0.006
-132.356	-122.492	-0.019	-0.003
-131.341	532.059	-0.146	-0.345
-130.326	-200.000	-0.020	0.276
-129.312	-16.405	-0.179	0.113
-128.297	109.385	0.138	-0.165
-127.283	-155.117	0.150	-0.010
-126.268	-200.000	-0.011	-0.055
-125.253	-87.788	-0.055	0.017
-124.239	456.829	0.206	0.456
-123.224	-39.015	-0.287	0.151
-122.210	189.507	0.120	0.179
-121.195	-200.000	-0.004	0.213
