DTS Sentinel unit serial number:	SN413079Multiplexer serial number:	ORYXHardware model number:	OX4-SRSoftware version number:	ORYX F/W v4.00 Oryx Data Collector v3.7.2.0data status	okinstallation	princeton_trtdifferential loss correction	single-endedforward channel	channel 1reverse channel	N/Adate	2019/09/16time	05:38:35forward acquisition time	60.00reverse acquisition time	0.00gamma	496.2192k internal	0.2331k external	0.2331temperature offset calibration	0.9986default loss term (dB/km)	0.3790temperature slope calibration	1.0000multiplexer offset coefficient	1.0000multiplexer slope coefficient	1.0000fibre end	0.00T internal ref (°C)	27.31T ext. ref 1 (°C)	11.15T ext. ref 2 (°C)	22.12length (m)	temperature (°C)	Stokes	anti-Stokes-747.200	143.231	-0.116	-0.155
-746.185	-200.000	-0.045	0.682
-745.171	151.941	0.216	0.296
-744.156	-79.714	-0.382	-0.129
-743.142	800.000	0.134	-0.426
-742.127	0.006	-0.129	-0.092
-741.112	800.000	-0.073	0.269
-740.098	800.000	-0.150	0.423
-739.083	-142.640	-0.385	-0.038
-738.069	274.001	-0.152	0.270
-737.054	159.573	-0.236	0.330
-736.039	129.154	-0.175	-0.225
-735.025	158.326	-0.156	0.218
-734.010	155.949	0.107	-0.148
-732.996	-182.495	-0.233	-0.004
-731.981	-13.911	-0.091	0.059
-730.966	67.791	-0.181	-0.186
-729.952	-105.016	0.281	-0.065
-728.937	-3.006	-0.172	-0.121
-727.923	38.066	-0.226	-0.202
-726.908	-76.309	-0.300	0.106
-725.894	207.631	-0.109	0.172
-724.879	-89.779	0.140	0.041
-723.864	211.660	-0.158	-0.250
-722.850	128.103	-0.134	-0.171
-721.835	800.000	-0.065	0.194
-720.821	50.736	0.222	-0.211
-719.806	40.434	-0.093	-0.084
-718.791	226.966	0.036	-0.058
-717.777	-200.000	0.012	0.124
-716.762	50.857	-0.298	-0.284
-715.748	338.538	0.142	0.278
-714.733	44.560	-0.145	0.134
-713.718	565.039	0.113	0.277
-712.704	-20.139	-0.520	0.322
-711.689	-137.511	0.086	0.010
-710.675	-80.283	-0.320	0.108
-709.660	345.730	0.137	-0.271
-708.645	742.968	0.056	0.151
-707.631	-200.000	0.026	-0.139
-706.616	69.996	0.170	-0.176
-705.602	-200.000	-0.061	-0.312
-704.587	800.000	-0.082	0.252
-703.572	-200.000	0.005	-0.032
-702.558	-22.114	-0.146	-0.089
-701.543	101.825	0.191	0.224
-700.529	-19.868	-0.285	0.177
-699.514	-200.000	-0.017	-0.417
-698.499	13.826	0.251	-0.196
-697.485	-81.815	0.153	0.050
-696.470	-200.000	-0.028	0.193
-695.456	-76.427	-0.387	0.137
-694.441	800.000	0.113	-0.355
-693.426	-73.575	0.068	-0.025
-692.412	-200.000	0.012	-0.182
-691.397	-192.519	-0.239	-0.002
-690.383	18.555	0.104	0.083
-689.368	-200.000	0.036	0.186
-688.354	157.832	0.109	0.152
-687.339	78.310	0.193	0.207
-686.324	-120.080	-0.074	0.013
-685.310	-200.000	-0.012	0.321
-684.295	132.589	-0.049	0.064
-683.281	-200.000	-0.319	0.000
-682.266	-127.808	-0.155	0.022
-681.251	-181.399	0.271	0.005
-680.237	112.179	0.275	-0.334
-679.222	-200.000	0.070	0.312
-678.208	278.456	-0.036	0.064
-677.193	-200.000	-0.018	0.251
-676.178	10.902	-0.231	0.177
-675.164	-63.480	-0.224	-0.092
-674.149	218.903	-0.128	-0.205
-673.135	800.000	-0.015	0.055
-672.120	-38.612	0.249	0.132
-671.105	40.844	0.198	-0.179
-670.091	-200.000	0.026	0.170
-669.076	-34.361	0.161	-0.088
-668.062	54.591	0.322	-0.312
-667.047	-97.441	0.148	0.039
-666.032	-5.508	-0.436	-0.300
-665.018	-102.121	0.106	0.026
-664.003	-200.000	0.009	0.199
-662.989	-131.523	-0.376	0.050
-661.974	-200.000	-0.020	-0.164
-660.959	-200.000	-0.031	-0.235
-659.945	39.906	-0.171	-0.154
-658.930	-200.000	0.004	-0.024
-657.916	-26.841	0.344	0.202
-656.901	13.326	0.293	-0.228
-655.886	633.838	-0.030	-0.075
-654.872	46.543	-0.073	0.068
-653.857	21.711	0.043	0.035
-652.843	377.114	0.032	-0.065
-651.828	-20.477	0.354	0.219
-650.814	56.120	-0.125	0.122
-649.799	2.548	-0.053	-0.039
-648.784	-48.181	-0.159	-0.077
-647.770	140.413	0.218	0.288
-646.755	-200.000	0.042	0.210
-645.741	576.758	0.093	0.229
-644.726	-136.608	0.447	-0.052
-643.711	-153.884	-0.143	-0.010
-642.697	-36.324	-0.075	-0.041
-641.682	37.557	-0.081	0.072
-640.668	-25.673	-0.149	0.088
-639.653	45.173	-0.081	0.075
-638.638	-200.000	0.004	-0.047
-637.624	-200.000	0.103	0.470
-636.609	-200.000	-0.003	0.208
-635.595	93.733	-0.217	-0.247
-634.580	87.598	0.290	-0.321
-633.565	373.952	0.051	0.104
-632.551	280.502	-0.065	-0.117
-631.536	-126.066	-0.117	0.018
-630.522	170.133	-0.019	-0.028
-629.507	-200.000	0.008	0.069
-628.492	572.742	0.089	0.217
-627.478	-200.000	-0.017	0.196
-626.463	147.740	-0.169	-0.228
-625.449	5.808	0.153	0.113
-624.434	-200.000	0.045	-0.294
-623.419	-200.000	-0.015	0.084
-622.405	288.050	-0.040	-0.072
-621.390	210.854	-0.098	-0.154
-620.376	-200.000	-0.029	0.164
-619.361	221.030	-0.165	0.265
-618.346	-125.211	-0.193	-0.030
-617.332	-113.396	-0.219	0.043
-616.317	-140.687	-0.305	0.032
-615.303	-200.000	-0.007	-0.097
-614.288	-86.157	0.492	0.152
-613.273	49.324	-0.105	-0.099
-612.259	800.000	-0.105	-0.321
-611.244	-91.199	-0.422	-0.121
-610.230	-76.724	-0.124	-0.044
-609.215	-200.000	-0.001	-0.264
-608.201	-113.307	-0.118	-0.023
-607.186	800.000	-0.087	0.346
-606.171	-200.000	0.007	-0.249
-605.157	-200.000	-0.027	-0.156
-604.142	-62.371	-0.324	-0.135
-603.128	-200.000	-0.009	0.315
-602.113	800.000	-0.095	0.326
-601.098	572.268	-0.042	-0.103
-600.084	-192.636	-0.226	-0.002
-599.069	-147.165	-0.165	0.014
-598.055	-200.000	0.002	-0.057
-597.040	-139.115	-0.240	-0.026
-596.025	46.911	-0.103	-0.095
-595.011	-200.000	0.095	-0.491
-593.996	619.337	-0.162	0.406
-592.982	-200.000	-0.026	0.135
-591.967	740.227	0.082	-0.221
-590.952	-146.209	0.312	0.027
-589.938	-57.447	0.299	-0.131
-588.923	-52.865	0.113	0.052
-587.909	-34.996	-0.186	0.102
-586.894	395.842	-0.042	0.089
-585.879	-49.746	-0.249	-0.118
-584.865	467.081	0.105	-0.235
-583.850	278.177	-0.094	0.167
-582.836	17.361	0.056	0.045
-581.821	94.120	-0.179	-0.203
-580.806	152.205	0.099	-0.135
-579.792	-200.000	0.043	-0.282
-578.777	-38.329	-0.233	-0.123
-577.763	-129.310	-0.083	0.012
-576.748	84.668	0.052	-0.057
-575.733	800.000	-0.002	-0.007
-574.719	110.969	0.175	0.211
-573.704	3.581	-0.244	0.178
-572.690	-43.635	-0.131	0.066
-571.675	-91.180	-0.192	-0.055
-570.661	227.620	-0.161	0.261
-569.646	455.374	-0.107	-0.236
-568.631	-200.000	-0.001	0.023
-567.617	-112.848	-0.273	0.054
-566.602	159.988	0.079	0.110
-565.588	-200.000	-0.023	0.109
-564.573	-23.084	-0.104	-0.062
-563.558	-145.433	-0.122	-0.011
-562.544	453.925	0.094	-0.208
-561.529	-200.000	0.055	0.350
-560.515	-98.903	-0.105	-0.027
-559.500	800.000	-0.087	-0.357
-558.485	-15.323	0.121	-0.078
-557.471	-89.744	0.088	-0.026
-556.456	262.753	0.090	0.156
-555.442	26.282	-0.131	0.110
-554.427	800.000	-0.011	0.046
-553.412	-73.666	0.358	0.130
-552.398	-200.000	-0.022	0.112
-551.383	-200.000	-0.006	-0.100
-550.369	-167.496	-0.361	-0.014
-549.354	-200.000	-0.017	-0.238
-548.339	-135.783	-0.178	0.021
-547.325	-171.470	0.085	0.003
-546.310	-75.888	0.244	-0.086
-545.296	-46.854	-0.206	-0.100
-544.281	21.471	-0.364	-0.295
-543.266	-200.000	0.081	-0.467
-542.252	284.242	-0.162	0.291
-541.237	800.000	0.030	-0.102
-540.223	-5.389	-0.156	-0.107
-539.208	-108.315	0.169	0.036
-538.193	-65.879	0.191	0.076
-537.179	9.972	0.220	-0.167
-536.164	396.641	-0.065	-0.135
-535.150	800.000	-0.027	0.103
-534.135	-56.714	-0.404	-0.179
-533.121	-50.216	0.174	0.082
-532.106	79.643	0.382	-0.410
-531.091	263.600	0.179	0.311
-530.077	-147.622	0.166	-0.014
-529.062	-74.023	-0.211	-0.076
-528.048	132.594	-0.028	-0.036
-527.033	217.757	0.039	-0.063
-526.018	-121.677	0.070	-0.012
-525.004	-36.513	0.256	-0.138
-523.989	-88.235	-0.388	-0.116
-522.975	43.392	0.250	-0.228
-521.960	-200.000	0.010	0.103
-520.945	-200.000	0.019	-0.437
-519.931	-48.112	0.204	-0.098
-518.916	22.593	-0.116	-0.095
-517.902	-200.000	0.008	-0.259
-516.887	107.578	0.178	-0.212
-515.872	-200.000	-0.058	0.277
-514.858	121.506	-0.162	-0.202
-513.843	-200.000	-0.009	0.101
-512.829	90.183	0.185	0.207
-511.814	772.428	-0.131	-0.356
-510.799	-80.334	-0.051	-0.017
-509.785	-200.000	-0.033	0.151
-508.770	-4.951	0.293	-0.201
-507.756	102.490	-0.176	0.206
-506.741	-45.839	0.138	0.068
-505.726	106.844	-0.149	0.176
-504.712	177.449	0.206	0.300
-503.697	148.995	-0.083	-0.112
-502.683	-98.850	0.126	0.032
-501.668	-0.758	0.386	0.273
-500.653	16.203	-0.371	-0.292
-499.639	-50.794	0.040	0.019
-498.624	-25.360	0.337	-0.199
-497.610	-85.083	-0.075	-0.023
-496.595	-200.000	0.025	0.131
-495.581	336.786	-0.123	0.238
-494.566	321.129	-0.012	-0.022
-493.551	67.508	0.213	-0.217
-492.537	13.349	0.089	0.069
-491.522	-169.659	-0.131	0.005
-490.508	-200.000	0.012	0.159
-489.493	82.297	0.174	0.188
-488.478	-106.988	0.326	0.072
-487.464	800.000	0.008	-0.032
-486.449	51.597	-0.164	0.156
-485.435	28.473	0.092	-0.077
-484.420	-87.960	0.026	-0.008
-483.405	-200.000	-0.045	0.262
-482.391	38.690	0.189	0.168
-481.376	-200.000	0.056	0.343
-480.362	-200.000	0.003	-0.071
-479.347	800.000	-0.045	-0.169
-478.332	-192.402	-0.221	0.002
-477.318	-149.329	0.148	0.012
-476.303	216.724	-0.210	-0.333
-475.289	-200.000	0.023	0.268
-474.274	100.380	-0.256	-0.296
-473.259	-190.387	-0.179	-0.002
-472.245	800.000	0.100	0.331
-471.230	25.858	-0.217	-0.180
-470.216	-200.000	-0.011	-0.140
-469.201	-76.867	0.393	-0.137
-468.186	-106.647	0.104	-0.023
-467.172	-81.830	-0.111	-0.036
-466.157	-200.000	0.043	-0.321
-465.143	82.604	-0.173	-0.187
-464.128	-74.715	0.208	0.074
-463.113	-8.592	0.013	0.009
-462.099	108.169	-0.142	-0.168
-461.084	-59.058	0.051	0.022
-460.070	232.948	-0.127	0.208
-459.055	117.627	0.077	0.094
-458.040	235.134	-0.109	0.179
-457.026	800.000	0.092	-0.320
-456.011	528.841	-0.106	0.248
-454.997	189.928	0.080	0.120
-453.982	60.293	-0.186	0.183
-452.968	800.000	-0.023	-0.095
-451.953	-145.232	0.226	-0.020
-450.938	-32.994	0.309	-0.171
-449.924	800.000	-0.113	-0.481
-448.909	-112.425	-0.134	-0.027
-447.895	-19.596	0.216	-0.133
-446.880	800.000	-0.057	0.171
-445.865	-181.065	0.432	0.009
-444.851	-200.000	-0.005	-0.043
-443.836	-84.987	-0.453	-0.141
-442.822	-65.374	0.319	-0.128
-441.807	-83.203	-0.161	0.052
-440.792	489.938	0.038	0.086
-439.778	-200.000	0.007	0.481
-438.763	-200.000	-0.039	0.317
-437.749	800.000	-0.048	0.151
-436.734	-200.000	0.091	-0.419
-435.719	-15.057	-0.231	0.147
-434.705	-200.000	-0.039	0.345
-433.690	285.555	0.096	0.172
-432.676	172.802	-0.242	-0.347
-431.661	365.370	-0.183	-0.366
-430.646	-97.263	0.197	-0.051
-429.632	-106.576	-0.114	0.025
-428.617	800.000	0.078	0.291
-427.603	-98.487	-0.157	-0.040
-426.588	104.950	-0.125	-0.147
-425.573	28.843	-0.117	-0.098
-424.559	-47.950	0.101	0.048
-423.544	-61.353	-0.094	-0.039
-422.530	-200.000	-0.019	-0.151
-421.515	233.267	0.096	-0.157
-420.500	-167.109	-0.107	-0.004
-419.486	269.027	-0.150	-0.262
-418.471	47.731	-0.259	-0.240
-417.457	161.981	-0.166	-0.231
-416.442	-141.126	-0.256	-0.026
-415.428	-91.452	-0.113	0.032
-414.413	-200.000	0.001	0.192
-413.398	-200.000	0.021	-0.205
-412.384	10.595	-0.127	0.096
-411.369	-200.000	-0.023	0.209
-410.355	-45.259	-0.170	-0.084
-409.340	-33.250	0.139	-0.077
-408.325	-200.000	-0.006	-0.054
-407.311	800.000	-0.056	-0.155
-406.296	-12.631	0.350	0.227
-405.282	-200.000	0.050	0.298
-404.267	-29.264	0.232	-0.132
-403.252	-111.688	-0.141	0.028
-402.238	197.700	-0.201	-0.304
-401.223	-17.468	-0.242	0.151
-400.209	-200.000	0.063	0.426
-399.194	-42.067	-0.315	-0.160
-398.179	-107.361	-0.095	0.021
-397.165	17.763	-0.084	-0.067
-396.150	-25.284	0.042	0.024
-395.136	46.654	-0.325	-0.300
-394.121	234.066	-0.068	-0.111
-393.106	-45.673	0.174	0.086
-392.092	-171.773	-0.192	-0.006
-391.077	100.002	-0.143	-0.164
-390.063	-200.000	0.026	-0.165
-389.048	53.354	0.180	0.172
-388.033	-200.000	-0.004	-0.205
-387.019	-116.489	-0.063	-0.012
-386.004	-54.350	0.142	-0.064
-384.990	181.645	-0.086	-0.125
-383.975	101.752	-0.210	-0.243
-382.960	100.133	0.116	0.134
-381.946	228.378	0.109	-0.176
-380.931	800.000	0.077	-0.244
-379.917	800.000	0.062	0.197
-378.902	19.920	-0.291	-0.232
-377.888	-200.000	-0.020	0.141
-376.873	50.530	0.280	0.263
-375.858	-150.186	-0.203	-0.016
-374.844	24.043	-0.060	-0.049
-373.829	-79.748	0.101	-0.034
-372.815	-102.801	-0.121	0.029
-371.800	-200.000	-0.046	-0.300
-370.785	-200.000	0.266	0.001
-369.771	302.857	-0.080	-0.146
-368.756	-65.792	0.089	0.035
-367.742	248.018	0.050	0.084
-366.727	-113.697	0.077	0.015
-365.712	-200.000	0.065	0.313
-364.698	649.711	-0.039	0.098
-363.683	-84.190	0.235	0.074
-362.669	150.868	0.310	0.418
-361.654	-69.271	-0.137	-0.052
-360.639	-11.246	0.174	0.114
-359.625	161.337	0.158	-0.218
-358.610	-75.353	0.136	-0.048
-357.596	-200.000	-0.030	-0.142
-356.581	-106.148	-0.147	0.033
-355.566	-179.504	0.479	-0.010
-354.552	75.918	0.037	0.039
-353.537	-15.207	0.183	0.116
-352.523	-12.068	0.163	-0.106
-351.508	-167.687	-0.166	0.007
-350.493	-5.584	0.215	0.146
-349.479	244.682	0.105	-0.175
-348.464	-11.221	-0.242	-0.158
-347.450	21.555	0.315	-0.254
-346.435	-49.471	0.199	0.094
-345.420	223.278	0.293	-0.468
-344.406	-64.129	-0.256	-0.103
-343.391	-160.699	-0.191	0.010
-342.377	85.660	-0.198	0.215
-341.362	-73.866	0.354	-0.127
-340.348	-158.711	-0.096	0.005
-339.333	457.783	0.094	0.207
-338.318	-121.856	0.129	0.021
-337.304	-75.264	0.226	-0.080
-336.289	-104.174	0.248	0.057
-335.275	491.784	-0.098	-0.222
-334.260	138.571	0.055	0.071
-333.245	-107.843	-0.290	0.062
-332.231	-100.712	-0.166	-0.041
-331.216	32.311	0.021	-0.018
-330.202	-200.000	0.009	-0.043
-329.187	-200.000	0.042	-0.252
-328.172	-150.453	-0.225	-0.017
-327.158	253.314	0.167	-0.282
-326.143	-200.000	0.008	0.161
-325.129	107.332	0.050	0.059
-324.114	540.590	0.059	0.138
-323.099	-200.000	-0.051	-0.245
-322.085	-23.552	-0.373	-0.222
-321.070	-45.141	-0.110	0.054
-320.056	-200.000	-0.023	0.160
-319.041	13.261	-0.237	-0.182
-318.026	29.845	-0.152	-0.128
-317.012	45.166	-0.172	-0.157
-315.997	-199.039	0.137	0.001
-314.983	-143.989	0.027	-0.003
-313.968	134.545	-0.170	0.218
-312.953	136.465	-0.060	-0.078
-311.939	-165.481	-0.385	-0.017
-310.924	53.006	-0.212	0.200
-309.910	117.040	0.149	0.182
-308.895	800.000	-0.053	-0.211
-307.880	159.227	0.218	-0.300
-306.866	800.000	-0.052	-0.181
-305.851	23.138	-0.255	-0.207
-304.837	195.904	0.143	0.215
-303.822	800.000	0.061	0.236
-302.807	-51.916	-0.126	0.058
-301.793	24.803	0.280	0.229
-300.778	-200.000	-0.039	0.171
-299.764	-159.961	0.272	-0.015
-298.749	350.327	-0.113	-0.220
-297.735	570.899	0.085	0.205
-296.720	-200.000	-0.052	0.408
-295.705	7.551	-0.178	0.132
-294.691	188.430	-0.042	-0.063
-293.676	161.834	-0.087	0.121
-292.662	-136.247	-0.067	0.008
-291.647	3.182	-0.292	-0.210
-290.632	800.000	-0.061	0.177
-289.618	210.202	0.119	0.184
-288.603	135.797	0.122	0.157
-287.589	-162.226	0.382	-0.019
-286.574	311.509	0.051	-0.095
-285.559	-33.510	0.122	0.067
-284.545	-200.000	-0.017	-0.208
-283.530	-200.000	0.006	0.078
-282.516	-182.472	-0.301	0.005
-281.501	35.305	-0.314	0.272
-280.486	-127.783	0.597	0.085
-279.472	29.041	0.186	-0.156
-278.457	-97.982	-0.198	-0.050
-277.443	80.680	0.252	0.269
-276.428	770.228	-0.099	0.266
-275.413	-70.941	-0.053	0.020
-274.399	-200.000	-0.025	0.193
-273.384	-89.204	-0.248	-0.072
-272.370	-200.000	0.004	0.093
-271.355	193.190	0.044	0.066
-270.340	494.243	0.146	0.330
-269.326	-200.000	0.064	0.475
-268.311	-46.555	-0.116	-0.056
-267.297	-122.275	0.067	0.011
-266.282	97.559	-0.122	0.139
-265.267	-151.131	-0.190	0.014
-264.253	-59.898	-0.113	0.048
-263.238	625.794	-0.046	-0.115
-262.224	-79.112	-0.146	0.049
-261.209	738.367	0.082	0.217
-260.195	168.182	-0.194	0.273
-259.180	-124.112	-0.275	-0.043
-258.165	-200.000	-0.038	0.229
-257.151	-120.576	-0.151	0.025
-256.136	-113.734	-0.173	0.033
-255.122	-200.000	0.023	0.114
-254.107	606.240	0.095	-0.234
-253.092	165.707	0.125	0.174
-252.078	-72.935	0.132	0.048
-251.063	457.978	-0.103	-0.227
-250.049	-200.000	-0.013	-0.075
-249.034	133.949	0.121	-0.155
-248.019	5.780	0.307	-0.224
-247.005	-184.098	-0.244	-0.004
-245.990	-111.456	-0.205	-0.041
-244.976	120.371	0.159	0.195
-243.961	800.000	0.024	0.072
-242.946	-200.000	0.039	0.462
-241.932	-124.253	0.018	-0.003
-240.917	-200.000	0.050	0.254
-239.903	-116.667	0.115	0.021
-238.888	-148.846	0.150	0.012
-237.873	277.973	0.127	0.224
-236.859	6.767	-0.041	-0.030
-235.844	-29.003	-0.197	0.112
-234.830	77.595	-0.093	0.098
-233.815	167.627	-0.117	0.165
-232.800	86.169	0.143	-0.155
-231.786	261.352	0.094	-0.160
-230.771	160.306	0.070	-0.096
-229.757	800.000	-0.040	0.116
-228.742	-101.427	0.467	0.112
-227.727	17.634	0.142	0.111
-226.713	299.175	-0.142	-0.259
-225.698	-200.000	-0.038	-0.207
-224.684	470.634	-0.049	0.110
-223.669	-114.106	0.305	-0.058
-222.655	800.000	0.164	0.481
-221.640	116.978	0.172	0.208
-220.625	350.512	-0.067	0.130
-219.611	200.186	-0.110	0.167
-218.596	-200.000	-0.066	0.317
-217.582	200.925	0.096	0.146
-216.567	-200.000	-0.001	0.102
-215.552	57.595	0.092	-0.089
-214.538	-47.916	-0.137	-0.065
-213.523	-21.414	0.181	-0.109
-212.509	43.993	0.164	0.149
-211.494	-77.201	0.108	-0.037
-210.479	-112.777	-0.173	-0.034
-209.465	34.168	0.259	-0.223
-208.450	800.000	0.057	-0.186
-207.436	93.102	0.186	0.207
-206.421	-200.000	-0.003	0.062
-205.406	-58.280	0.150	0.064
-204.392	235.886	-0.161	-0.262
-203.377	-32.985	-0.172	-0.094
-202.363	-89.581	0.345	0.100
-201.348	-13.719	-0.285	0.182
-200.333	-200.000	0.029	-0.365
-199.319	-138.611	-0.102	0.011
-198.304	296.927	0.141	-0.255
-197.290	584.757	-0.056	-0.136
-196.275	-35.577	0.204	-0.109
-195.260	800.000	0.031	-0.104
-194.246	45.696	0.396	0.360
-193.231	-105.961	-0.327	0.073
-192.217	-200.000	0.052	-0.315
-191.202	-98.746	-0.313	0.078
-190.187	-153.388	0.186	0.013
-189.173	-142.331	-0.134	0.013
-188.158	800.000	-0.045	-0.129
-187.144	-85.243	0.150	0.046
-186.129	381.904	0.137	-0.278
-185.114	800.000	0.064	0.209
-184.100	263.834	0.168	-0.288
-183.085	141.150	0.167	-0.218
-182.071	-40.232	-0.384	0.197
-181.056	-109.425	-0.137	0.028
-180.042	248.117	0.151	0.252
-179.027	-95.042	0.507	0.135
-178.012	216.477	0.044	-0.068
-176.998	-66.813	0.339	0.132
-175.983	-200.000	-0.009	0.228
-174.969	399.526	-0.024	-0.050
-173.954	23.426	0.118	0.096
-172.939	32.992	-0.097	0.083
-171.925	193.825	0.087	-0.130
-170.910	312.962	0.044	0.081
-169.896	497.602	0.082	-0.186
-168.881	-78.976	-0.158	-0.053
-167.866	197.597	0.116	0.175
-166.852	212.289	-0.057	0.089
-165.837	-85.455	0.220	0.067
-164.823	-81.775	0.130	-0.042
-163.808	-84.677	0.437	0.135
-162.793	-82.934	0.151	-0.048
-161.779	37.382	0.133	0.116
-160.764	7.063	0.128	-0.094
-159.750	-140.457	-0.093	0.009
-158.735	713.791	0.107	-0.280
-157.720	-69.045	-0.290	0.110
-156.706	-200.000	0.035	-0.240
-155.691	499.375	0.091	-0.207
-154.677	80.947	0.233	0.247
-153.662	-200.000	-0.068	0.308
-152.647	-116.910	0.181	0.032
-151.633	48.194	-0.191	-0.176
-150.618	467.963	-0.070	0.154
-149.604	-200.000	-0.005	-0.116
-148.589	800.000	-0.120	0.410
-147.574	-106.448	-0.155	0.034
-146.560	40.573	0.032	0.028
-145.545	-33.380	0.264	-0.144
-144.531	123.843	-0.066	-0.081
-143.516	-58.853	0.287	0.122
-142.502	584.735	0.088	0.214
-141.487	143.285	0.112	0.147
-140.472	800.000	0.051	-0.216
-139.458	534.498	-0.049	-0.114
-138.443	-77.073	-0.329	0.113
-137.429	-200.000	0.031	0.207
-136.414	69.010	0.197	0.199
-135.399	114.557	0.039	0.047
-134.385	-77.111	0.341	0.117
-133.370	-200.000	-0.022	0.407
-132.356	800.000	0.104	-0.333
-131.341	-200.000	-0.018	0.381
-130.326	-70.102	0.101	-0.038
-129.312	9.889	0.100	-0.075
-128.297	641.604	0.028	-0.069
-127.283	-155.967	0.121	0.008
-126.268	82.021	0.104	-0.111
-125.253	-54.150	0.229	0.102
-124.239	-184.923	0.314	0.005
-123.224	-112.782	-0.233	-0.045
-122.210	152.608	0.152	-0.205
