DTS Sentinel unit serial number:	SN413079Multiplexer serial number:	ORYXHardware model number:	OX4-SRSoftware version number:	ORYX F/W v4.00 Oryx Data Collector v3.7.2.0data status	okinstallation	princeton_trtdifferential loss correction	single-endedforward channel	channel 1reverse channel	N/Adate	2019/09/14time	10:58:35forward acquisition time	60.00reverse acquisition time	0.00gamma	496.2192k internal	0.2299k external	0.2299temperature offset calibration	1.0082default loss term (dB/km)	0.3790temperature slope calibration	1.0000multiplexer offset coefficient	1.0000multiplexer slope coefficient	1.0000fibre end	0.00T internal ref (°C)	35.91T ext. ref 1 (°C)	4.35T ext. ref 2 (°C)	33.65length (m)	temperature (°C)	Stokes	anti-Stokes-747.200	800.000	0.053	-0.151
-746.185	-143.607	0.202	-0.020
-745.171	-200.000	-0.009	0.266
-744.156	-30.941	-0.335	0.193
-743.142	6.537	0.222	0.169
-742.127	200.782	-0.114	0.179
-741.112	800.000	-0.078	0.246
-740.098	-19.813	-0.040	0.025
-739.083	-91.094	0.023	0.007
-738.069	-200.000	0.003	0.394
-737.054	800.000	0.131	0.502
-736.039	7.312	-0.274	-0.208
-735.025	-71.509	-0.105	-0.040
-734.010	-114.944	-0.251	-0.049
-732.996	-57.112	0.183	0.082
-731.981	800.000	0.073	-0.284
-730.966	-44.202	-0.122	-0.062
-729.952	52.415	0.177	0.172
-728.937	-96.471	0.060	0.016
-727.923	71.458	0.106	-0.112
-726.908	-76.611	0.138	0.049
-725.894	800.000	-0.035	-0.113
-724.879	762.592	-0.091	-0.250
-723.864	107.981	-0.219	-0.267
-722.850	122.964	0.135	-0.172
-721.835	139.353	0.100	-0.134
-720.821	309.282	-0.035	0.066
-719.806	-105.915	0.234	-0.054
-718.791	352.010	0.131	-0.264
-717.777	-15.023	-0.102	-0.067
-716.762	-9.681	-0.262	-0.178
-715.748	-200.000	0.019	0.356
-714.733	140.745	-0.053	0.071
-713.718	-91.124	-0.179	-0.052
-712.704	-112.409	-0.435	0.089
-711.689	-200.000	0.010	-0.077
-710.675	229.671	0.044	0.073
-709.660	-135.545	0.249	-0.030
-708.645	-200.000	0.115	-0.559
-707.631	203.586	0.107	-0.169
-706.616	-200.000	-0.171	0.001
-705.602	289.567	-0.184	-0.341
-704.587	-0.789	-0.302	0.218
-703.572	749.441	0.033	0.091
-702.558	-117.225	0.291	-0.054
-701.543	800.000	0.030	-0.100
-700.529	101.691	-0.157	0.186
-699.514	-50.055	0.124	-0.060
-698.499	-68.460	-0.547	0.216
-697.485	-11.966	-0.136	0.091
-696.470	-145.098	0.222	0.021
-695.456	243.212	0.282	-0.481
-694.441	-140.929	0.050	0.005
-693.426	-200.000	0.050	-0.286
-692.412	548.604	-0.095	-0.231
-691.397	-16.709	-0.112	0.072
-690.383	-1.365	-0.068	0.049
-689.368	-36.514	0.032	0.018
-688.354	499.900	0.007	-0.016
-687.339	-200.000	0.007	-0.187
-686.324	-89.264	-0.075	-0.023
-685.310	-200.000	0.029	0.167
-684.295	228.808	-0.119	0.197
-683.281	-200.000	0.002	-0.118
-682.266	481.718	0.085	-0.196
-681.251	-8.570	-0.115	0.079
-680.237	-56.532	-0.413	-0.186
-679.222	313.098	-0.176	-0.337
-678.208	106.513	-0.236	-0.285
-677.193	223.680	-0.145	-0.238
-676.178	8.768	-0.343	-0.263
-675.164	-95.510	0.195	0.053
-674.149	36.184	0.453	0.406
-673.135	-155.147	-0.305	0.020
-672.120	-2.164	-0.266	-0.190
-671.105	37.601	-0.203	-0.184
-670.091	800.000	-0.046	0.168
-669.076	-77.921	0.144	-0.051
-668.062	-200.000	0.028	-0.129
-667.047	-86.277	0.156	0.049
-666.032	402.888	-0.037	-0.079
-665.018	-62.903	0.119	0.050
-664.003	-68.733	-0.122	0.048
-662.989	-200.000	0.008	-0.096
-661.974	112.590	0.097	-0.120
-660.959	45.061	-0.257	-0.241
-659.945	-129.266	0.151	-0.021
-658.930	-131.041	-0.149	0.020
-657.916	-28.963	-0.144	-0.084
-656.901	-98.570	0.167	-0.043
-655.886	359.496	-0.051	-0.104
-654.872	800.000	0.131	0.373
-653.857	-200.000	0.002	0.101
-652.843	-58.420	-0.218	0.096
-651.828	247.829	0.103	-0.177
-650.814	-63.493	-0.403	0.168
-649.799	553.978	0.104	-0.253
-648.784	56.310	0.072	0.071
-647.770	-162.759	-0.102	0.005
-646.755	-78.307	0.320	0.112
-645.741	202.346	-0.069	-0.108
-644.726	-26.674	-0.389	0.231
-643.711	115.696	0.052	0.065
-642.697	-41.452	0.380	-0.199
-641.682	-86.631	-0.272	0.085
-640.668	-25.293	0.208	0.125
-639.653	-63.519	-0.138	-0.057
-638.638	235.056	-0.192	-0.322
-637.624	98.643	-0.197	0.231
-636.609	54.101	-0.279	0.272
-635.595	-29.451	-0.105	0.061
-634.580	-142.377	0.144	-0.014
-633.565	-159.372	-0.190	-0.011
-632.551	-200.000	0.015	0.338
-631.536	-123.615	-0.130	-0.021
-630.522	298.421	-0.051	0.095
-629.507	91.384	0.164	-0.187
-628.492	-4.349	0.362	-0.254
-627.478	-200.000	0.020	-0.272
-626.463	252.889	-0.069	-0.120
-625.449	25.689	-0.044	0.037
-624.434	-200.000	0.006	-0.378
-623.419	-192.866	-0.110	-0.001
-622.405	-200.000	-0.045	0.277
-621.390	800.000	-0.090	0.264
-620.376	-67.564	-0.162	0.064
-619.361	21.492	0.055	-0.045
-618.346	-200.000	-0.092	-0.455
-617.332	174.310	0.024	0.036
-616.317	82.580	0.258	0.284
-615.303	73.486	-0.145	0.154
-614.288	-119.308	-0.189	0.033
-613.273	-200.000	-0.040	-0.184
-612.259	-36.926	0.154	0.084
-611.244	-131.468	-0.194	-0.026
-610.230	-200.000	0.046	0.241
-609.215	-79.230	-0.164	0.056
-608.201	3.317	-0.048	0.035
-607.186	77.044	0.199	0.215
-606.171	287.354	-0.072	-0.132
-605.157	389.846	0.072	0.152
-604.142	98.657	-0.078	-0.092
-603.128	-200.000	-0.036	0.176
-602.113	-200.000	0.013	0.082
-601.098	-64.679	0.273	0.112
-600.084	-188.517	-0.180	-0.002
-599.069	-41.278	0.224	-0.117
-598.055	21.567	-0.209	-0.173
-597.040	-57.785	0.194	-0.086
-596.025	348.219	0.080	-0.160
-595.011	-77.051	-0.235	-0.083
-593.996	-109.192	-0.422	-0.091
-592.982	-24.658	-0.196	0.118
-591.967	800.000	-0.052	0.145
-590.952	-96.655	-0.191	0.051
-589.938	-93.557	0.293	0.082
-588.923	1.853	0.265	-0.194
-587.909	40.772	-0.290	0.265
-586.894	105.394	0.085	0.101
-585.879	429.023	0.052	-0.114
-584.865	800.000	-0.069	-0.236
-583.850	-34.547	0.324	0.180
-582.836	-22.937	0.122	-0.075
-581.821	-35.226	0.074	-0.041
-580.806	164.041	-0.089	0.127
-579.792	800.000	0.052	0.157
-578.777	800.000	0.065	-0.267
-577.763	-64.177	0.317	-0.131
-576.748	17.481	-0.057	-0.046
-575.733	55.693	-0.113	0.111
-574.719	224.299	-0.111	0.182
-573.704	65.361	-0.181	-0.186
-572.690	-41.457	-0.236	0.123
-571.675	-148.514	0.162	-0.013
-570.661	-104.447	-0.320	-0.075
-569.646	-200.000	0.024	-0.193
-568.631	-31.206	-0.182	0.104
-567.617	727.273	-0.161	0.434
-566.602	154.533	-0.242	-0.336
-565.588	-79.381	-0.138	0.047
-564.573	-49.874	-0.235	0.113
-563.558	194.536	0.164	-0.252
-562.544	-200.000	-0.033	-0.322
-561.529	800.000	-0.005	0.016
-560.515	296.881	0.054	0.101
-559.500	-166.213	0.200	0.009
-558.485	-86.257	-0.325	0.101
-557.471	-64.899	-0.472	0.193
-556.456	132.172	0.107	-0.140
-555.442	224.573	0.136	-0.223
-554.427	-200.000	0.035	0.402
-553.412	-141.575	-0.176	-0.018
-552.398	102.110	-0.271	0.321
-551.383	300.534	0.089	0.165
-550.369	800.000	-0.053	-0.151
-549.354	82.044	-0.201	-0.221
-548.339	-113.385	-0.059	-0.012
-547.325	73.641	0.158	-0.168
-546.310	275.898	-0.056	0.100
-545.296	-110.335	-0.217	0.046
-544.281	41.605	0.095	0.087
-543.266	324.408	0.017	0.033
-542.252	-176.351	-0.168	-0.004
-541.237	-32.758	0.106	-0.060
-540.223	166.260	0.153	-0.219
-539.208	177.146	0.151	-0.223
-538.193	-33.936	-0.245	-0.137
-537.179	-182.136	-0.099	0.002
-536.164	138.571	-0.011	0.015
-535.150	-110.185	-0.287	0.061
-534.135	800.000	-0.045	0.127
-533.121	-200.000	-0.025	-0.260
-532.106	127.279	-0.273	-0.351
-531.091	136.588	0.159	-0.210
-530.077	-92.457	-0.052	0.015
-529.062	800.000	0.008	-0.025
-528.048	284.108	-0.102	-0.185
-527.033	-200.000	-0.013	-0.156
-526.018	-200.000	-0.033	-0.195
-525.004	194.920	-0.158	-0.243
-523.989	-60.673	0.037	-0.016
-522.975	-6.407	-0.056	-0.039
-521.960	-105.430	0.298	0.068
-520.945	280.658	-0.191	0.346
-519.931	-1.264	0.188	-0.135
-518.916	800.000	0.039	-0.159
-517.902	-89.790	-0.129	0.038
-516.887	43.578	0.512	0.474
-515.872	-15.380	-0.036	0.023
-514.858	393.125	-0.047	-0.098
-513.843	156.860	0.050	0.069
-512.829	-200.000	0.043	-0.337
-511.814	619.279	-0.051	0.130
-510.799	-53.486	0.325	0.150
-509.785	-200.000	0.020	0.123
-508.770	-4.209	-0.136	0.095
-507.756	-134.653	-0.071	-0.009
-506.741	-24.241	0.175	-0.106
-505.726	-140.460	0.435	0.046
-504.712	-200.000	-0.024	-0.373
-503.697	72.342	0.278	0.293
-502.683	-81.358	0.136	0.045
-501.668	-27.268	-0.174	0.102
-500.653	-64.882	-0.168	-0.069
-499.639	-90.918	-0.259	-0.075
-498.624	44.537	-0.219	-0.203
-497.610	169.304	0.087	-0.126
-496.595	800.000	0.061	0.207
-495.581	800.000	-0.044	0.139
-494.566	800.000	0.037	0.154
-493.551	106.817	-0.231	0.276
-492.537	-66.764	-0.058	-0.023
-491.522	430.174	0.062	-0.134
-490.508	-105.747	-0.258	-0.059
-489.493	-38.644	0.118	0.063
-488.478	98.103	0.256	-0.297
-487.464	3.820	-0.109	-0.080
-486.449	800.000	-0.043	-0.120
-485.435	800.000	-0.034	-0.105
-484.420	-77.193	0.020	0.007
-483.405	350.384	0.178	-0.356
-482.391	455.320	-0.087	0.196
-481.376	76.085	0.068	-0.073
-480.362	88.825	-0.173	-0.195
-479.347	-7.338	0.011	-0.007
-478.332	-8.629	-0.309	-0.210
-477.318	360.664	0.081	-0.164
-476.303	773.922	0.094	0.258
-475.289	365.456	0.190	0.387
-474.274	64.642	-0.081	-0.083
-473.259	13.737	0.272	-0.214
-472.245	-200.000	-0.019	-0.099
-471.230	-35.792	-0.125	0.068
-470.216	73.401	0.196	-0.207
-469.201	-200.000	-0.031	-0.235
-468.186	99.546	0.096	-0.112
-467.172	-29.275	0.267	0.154
-466.157	-9.955	0.130	0.087
-465.143	132.288	-0.115	-0.149
-464.128	-33.870	-0.133	0.074
-463.113	800.000	-0.060	-0.197
-462.099	164.007	0.171	0.243
-461.084	-99.069	0.253	0.065
-460.070	30.586	0.029	0.025
-459.055	333.219	-0.064	-0.126
-458.040	380.500	-0.062	0.129
-457.026	-38.521	0.207	0.110
-456.011	-200.000	-0.065	-0.431
-454.997	183.269	0.142	-0.212
-453.982	-64.368	0.371	0.152
-452.968	9.560	0.138	-0.105
-451.953	313.696	0.109	-0.206
-450.938	-56.972	0.115	-0.051
-449.924	-69.853	0.390	0.150
-448.909	-6.049	0.169	0.116
-447.895	-34.853	-0.177	-0.098
-446.880	-200.000	0.027	0.209
-445.865	13.162	-0.142	-0.111
-444.851	618.624	-0.048	-0.122
-443.836	60.606	0.142	0.142
-442.822	800.000	0.128	0.378
-441.807	-102.919	-0.068	-0.016
-440.792	-174.427	0.311	-0.009
-439.778	-62.133	-0.067	-0.028
-438.763	800.000	0.029	0.113
-437.749	83.147	-0.098	0.108
-436.734	-4.189	-0.144	0.100
-435.719	-89.657	0.208	-0.062
-434.705	-52.787	-0.147	-0.068
-433.690	-188.202	0.258	-0.003
-432.676	24.876	-0.029	-0.024
-431.661	90.508	0.109	0.123
-430.646	-200.000	-0.008	-0.146
-429.632	238.103	-0.024	-0.040
-428.617	-94.890	-0.119	-0.032
-427.603	377.853	-0.082	-0.170
-426.588	-106.660	0.221	0.049
-425.573	-200.000	0.027	0.188
-424.559	-193.907	0.162	0.001
-423.544	-196.382	0.145	0.001
-422.530	69.718	0.185	0.192
-421.515	800.000	0.064	-0.227
-420.500	81.809	-0.131	-0.143
-419.486	-200.000	0.002	0.072
-418.471	158.491	0.139	-0.194
-417.457	-200.000	0.016	0.201
-416.442	750.547	0.084	0.229
-415.428	-115.903	0.145	-0.027
-414.413	-98.035	-0.204	0.053
-413.398	413.506	-0.069	-0.149
-412.384	-24.965	-0.112	0.067
-411.369	636.013	-0.057	0.146
-410.355	296.459	-0.105	0.193
-409.340	66.279	-0.250	0.256
-408.325	800.000	-0.029	-0.090
-407.311	241.013	0.139	-0.234
-406.296	-68.635	-0.326	0.127
-405.282	-200.000	0.002	-0.069
-404.267	-28.329	0.188	0.109
-403.252	800.000	-0.044	0.167
-402.238	-104.952	-0.261	0.060
-401.223	-93.967	0.263	-0.073
-400.209	-200.000	-0.035	-0.310
-399.194	800.000	-0.023	-0.077
-398.179	-96.551	0.077	0.021
-397.165	-126.481	0.070	-0.010
-396.150	-83.398	0.221	0.071
-395.136	-6.607	0.062	-0.043
-394.121	-200.000	-0.013	0.093
-393.106	-200.000	-0.035	-0.221
-392.092	-23.259	0.072	0.044
-391.077	-200.000	0.045	0.227
-390.063	687.508	-0.050	-0.132
-389.048	243.816	0.077	-0.130
-388.033	610.500	-0.120	-0.301
-387.019	-200.000	0.025	0.241
-386.004	-114.496	-0.360	-0.069
-384.990	-23.827	-0.188	0.114
-383.975	-61.631	0.127	0.053
-382.960	-200.000	-0.009	0.064
-381.946	153.454	-0.034	0.046
-380.931	-0.248	0.193	0.138
-379.917	-55.290	-0.256	0.116
-378.902	36.806	0.097	-0.086
-377.888	-164.314	0.403	0.019
-376.873	-17.495	0.248	0.157
-375.858	645.970	-0.042	-0.107
-374.844	-73.554	-0.204	0.075
-373.829	-200.000	-0.023	0.193
-372.815	20.197	-0.162	-0.131
-371.800	-159.344	-0.224	-0.013
-370.785	-163.804	-0.261	0.012
-369.771	800.000	-0.064	-0.283
-368.756	257.317	0.033	0.056
-367.742	218.742	-0.114	0.183
-366.727	-185.170	0.453	0.007
-365.712	100.682	0.078	-0.091
-364.698	42.594	-0.133	-0.121
-363.683	-153.476	0.248	0.017
-362.669	-3.610	0.258	-0.180
-361.654	165.557	-0.109	-0.154
-360.639	137.686	0.057	-0.075
-359.625	-145.036	0.136	-0.012
-358.610	74.665	-0.249	0.264
-357.596	800.000	0.086	0.341
-356.581	-124.230	-0.198	0.031
-355.566	34.025	-0.043	-0.037
-354.552	-56.140	-0.152	-0.068
-353.537	81.024	-0.313	0.340
-352.523	128.668	-0.153	0.196
-351.508	377.931	-0.030	0.061
-350.493	-200.000	0.002	0.133
-349.479	-200.000	0.031	0.157
-348.464	98.475	0.161	-0.187
-347.450	82.559	0.266	0.290
-346.435	-142.770	0.195	-0.019
-345.420	351.980	-0.091	0.182
-344.406	-10.030	0.195	0.130
-343.391	800.000	-0.034	0.132
-342.377	-121.998	-0.202	-0.033
-341.362	170.049	0.103	-0.148
-340.348	-123.740	0.267	-0.043
-339.333	18.134	0.191	-0.153
-338.318	-156.916	0.144	0.009
-337.304	205.761	-0.039	0.061
-336.289	-200.000	0.021	-0.165
-335.275	-127.743	0.089	0.013
-334.260	-96.601	-0.222	-0.059
-333.245	36.656	0.109	-0.097
-332.231	-44.162	-0.161	-0.081
-331.216	4.299	0.272	-0.200
-330.202	-183.086	-0.139	0.002
-329.187	736.305	-0.073	-0.196
-328.172	96.783	0.107	-0.124
-327.158	-64.768	-0.053	-0.022
-326.143	-9.072	-0.216	-0.145
-325.129	405.277	0.122	0.258
-324.114	-24.163	0.067	0.040
-323.099	41.327	0.148	0.135
-322.085	-129.679	-0.244	-0.034
-321.070	-35.917	-0.152	-0.083
-320.056	551.374	-0.152	-0.367
-319.041	364.924	0.143	0.289
-318.026	-86.619	-0.064	0.020
-317.012	-140.241	0.109	0.011
-315.997	15.367	-0.091	0.072
-314.983	-111.536	-0.262	0.053
-313.968	94.496	-0.072	-0.082
-312.953	54.941	0.138	0.134
-311.939	-74.638	-0.098	0.035
-310.924	216.942	0.066	0.106
-309.910	-32.677	-0.165	-0.092
-308.895	-76.589	0.130	-0.046
-307.880	386.868	0.195	-0.404
-306.866	677.686	-0.073	-0.191
-305.851	-200.000	0.308	-0.001
-304.837	-78.163	0.253	-0.087
-303.822	-200.000	0.024	0.362
-302.807	-200.000	-0.024	-0.209
-301.793	13.129	-0.082	-0.063
-300.778	-155.845	0.186	0.012
-299.764	101.137	0.208	-0.242
-298.749	800.000	-0.025	-0.094
-297.735	20.652	-0.129	-0.105
-296.720	131.858	0.101	-0.130
-295.705	-43.668	-0.126	-0.064
-294.691	320.837	0.079	0.151
-293.676	44.789	-0.257	0.237
-292.662	-200.000	0.028	0.497
-291.647	-200.000	0.038	0.467
-290.632	86.116	-0.045	-0.049
-289.618	-200.000	-0.024	0.255
-288.603	580.973	0.058	-0.143
-287.589	51.673	0.203	0.193
-286.574	111.982	-0.278	-0.336
-285.559	3.537	-0.336	0.246
-284.545	-175.770	0.496	-0.013
-283.530	-101.704	0.224	-0.055
-282.516	-180.581	0.114	-0.002
-281.501	-200.000	0.001	0.235
-280.486	249.928	0.075	0.128
-279.472	224.641	-0.081	0.130
-278.457	-2.580	0.246	0.173
-277.443	-200.000	0.031	0.155
-276.428	-119.874	0.299	0.052
-275.413	-66.177	0.064	0.026
-274.399	-39.179	0.468	-0.246
-273.384	-47.919	0.069	0.034
-272.370	800.000	0.029	-0.119
-271.355	-56.535	0.100	0.044
-270.340	-82.382	0.413	0.135
-269.326	-200.000	0.004	0.161
-268.311	-132.308	-0.311	0.040
-267.297	17.241	0.187	0.149
-266.282	742.082	0.059	-0.160
-265.267	110.335	0.115	-0.138
-264.253	765.070	0.164	-0.447
-263.238	104.304	0.258	-0.304
-262.224	-110.144	-0.345	0.072
-261.209	-6.940	-0.213	-0.145
-260.195	417.104	0.018	-0.039
-259.180	727.808	-0.049	0.130
-258.165	161.059	-0.214	0.300
-257.151	144.679	0.097	-0.129
-256.136	-11.862	0.222	0.146
-255.122	-54.148	0.045	0.020
-254.107	152.460	0.141	0.192
-253.092	-125.919	-0.230	-0.035
-252.078	-29.665	-0.444	-0.254
-251.063	-200.000	-0.012	-0.064
-250.049	-200.000	-0.032	0.200
-249.034	-72.666	-0.546	0.202
-248.019	-151.945	-0.317	0.023
-247.005	-137.736	0.394	-0.044
-245.990	-128.019	-0.031	-0.004
-244.976	-200.000	0.055	0.293
-243.961	-200.000	0.015	-0.186
-242.946	800.000	0.080	0.277
-241.932	-200.000	-0.000	0.263
-240.917	23.578	-0.185	-0.152
-239.903	55.247	-0.397	0.384
-238.888	104.297	-0.087	0.102
-237.873	129.872	-0.121	-0.154
-236.859	38.022	0.261	0.232
-235.844	86.855	-0.267	0.295
-234.830	-2.494	0.365	-0.256
-233.815	-200.000	0.011	0.079
-232.800	43.447	0.094	-0.086
-231.786	-200.000	-0.009	0.285
-230.771	-28.907	-0.229	0.132
-229.757	-9.122	-0.152	-0.102
-228.742	-24.814	-0.232	0.138
-227.727	-18.028	0.279	0.175
-226.713	20.193	-0.359	-0.290
-225.698	-186.486	-0.123	-0.002
-224.684	22.291	-0.117	-0.095
-223.669	800.000	0.101	-0.330
-222.655	-200.000	-0.060	-0.328
-221.640	-114.958	0.110	-0.021
-220.625	7.976	0.145	0.108
-219.611	-129.961	0.159	-0.022
-218.596	591.098	0.095	-0.233
-217.582	274.423	-0.052	0.091
-216.567	-137.282	-0.241	0.027
-215.552	-35.163	-0.156	-0.085
-214.538	-200.000	0.017	-0.194
-213.523	-200.000	-0.344	-0.001
-212.509	-116.264	-0.040	0.007
-211.494	-23.220	-0.356	-0.214
-210.479	3.536	-0.220	0.160
-209.465	-200.000	-0.027	0.209
-208.450	206.947	-0.211	0.329
-207.436	-109.613	0.187	-0.039
-206.421	488.137	0.122	-0.278
-205.406	40.438	0.088	-0.079
-204.392	-12.132	-0.140	-0.091
-203.377	170.269	0.021	0.030
-202.363	800.000	-0.052	-0.191
-201.348	-158.913	0.232	-0.013
-200.333	111.356	-0.075	0.091
-199.319	183.785	0.173	0.255
-198.304	800.000	0.104	0.402
-197.290	800.000	-0.064	-0.188
-196.275	570.872	0.070	0.171
-195.260	-81.809	0.272	-0.089
-194.246	61.171	-0.019	-0.019
-193.231	77.769	-0.173	0.184
-192.217	360.381	-0.230	-0.461
-191.202	-200.000	-0.049	-0.259
-190.187	-106.944	0.075	-0.017
-189.173	800.000	0.100	-0.286
-188.158	-200.000	0.014	0.304
-187.144	800.000	-0.079	-0.267
-186.129	-200.000	0.013	0.148
-185.114	-200.000	0.006	0.149
-184.100	58.314	0.035	0.034
-183.085	-70.407	0.236	0.089
-182.071	-102.237	0.153	0.037
-181.056	41.117	0.059	0.053
-180.042	337.088	-0.142	0.275
-179.027	8.772	0.161	0.121
-178.012	-119.268	-0.075	0.013
-176.998	62.426	-0.082	-0.081
-175.983	-103.780	0.150	0.035
-174.969	28.364	-0.054	-0.045
-173.954	-116.036	-0.255	0.047
-172.939	157.586	0.065	-0.089
-171.925	-163.019	0.319	0.015
-170.910	-139.519	-0.092	0.010
-169.896	-142.988	-0.106	-0.010
-168.881	-200.000	-0.018	0.405
-167.866	-200.000	-0.038	0.324
-166.852	-200.000	-0.012	-0.116
-165.837	245.736	0.170	-0.286
-164.823	-59.901	-0.149	-0.063
-163.808	502.167	0.079	0.183
-162.793	-200.000	0.025	-0.290
-161.779	-170.653	0.175	0.006
-160.764	96.692	-0.269	-0.308
-159.750	162.709	0.076	-0.106
-158.735	246.574	-0.115	-0.193
-157.720	-142.908	0.260	0.025
-156.706	39.903	-0.057	0.051
-155.691	-6.974	0.065	0.044
-154.677	-200.000	0.044	-0.227
-153.662	6.556	-0.312	-0.231
-152.647	-66.341	0.339	-0.134
-151.633	-118.163	-0.209	0.037
-150.618	727.988	0.062	0.164
-149.604	22.876	-0.250	-0.204
-148.589	129.811	-0.141	0.180
-147.574	-145.849	-0.187	-0.017
-146.560	96.392	0.052	-0.060
-145.545	-200.000	-0.019	-0.241
-144.531	-122.512	-0.248	0.040
-143.516	800.000	-0.055	-0.175
-142.502	432.706	0.059	0.128
-141.487	800.000	-0.065	0.202
-140.472	-4.884	0.227	0.156
-139.458	-200.000	0.029	-0.332
-138.443	-44.224	-0.067	0.033
-137.429	-165.420	0.217	0.009
-136.414	-55.685	-0.112	-0.050
-135.399	-55.269	0.169	0.076
-134.385	-154.463	-0.038	0.003
-133.370	-40.117	-0.207	0.107
-132.356	169.451	-0.036	0.051
-131.341	800.000	0.015	0.050
-130.326	-200.000	0.009	0.042
-129.312	800.000	0.025	-0.109
-128.297	48.578	0.134	0.125
-127.283	-92.582	-0.194	0.054
-126.268	-112.299	0.503	-0.100
-125.253	-117.677	0.215	-0.038
-124.239	-200.000	-0.050	0.249
-123.224	-137.579	-0.105	-0.012
-122.210	284.318	-0.175	0.314
-121.195	249.882	0.056	0.095
-120.180	-78.921	-0.260	0.088
