DTS Sentinel unit serial number:	SN413079Multiplexer serial number:	ORYXHardware model number:	OX4-SRSoftware version number:	ORYX F/W v4.00 Oryx Data Collector v3.7.2.0data status	okinstallation	princeton_trtdifferential loss correction	single-endedforward channel	channel 1reverse channel	N/Adate	2019/09/14time	14:54:36forward acquisition time	60.00reverse acquisition time	0.00gamma	496.2192k internal	0.2294k external	0.2294temperature offset calibration	1.0073default loss term (dB/km)	0.3790temperature slope calibration	1.0000multiplexer offset coefficient	1.0000multiplexer slope coefficient	1.0000fibre end	0.00T internal ref (°C)	39.12T ext. ref 1 (°C)	5.02T ext. ref 2 (°C)	34.05length (m)	temperature (°C)	Stokes	anti-Stokes-747.200	-60.433	0.146	-0.063
-746.185	800.000	-0.098	0.368
-745.171	-180.089	-0.286	0.006
-744.156	-200.000	0.026	0.191
-743.142	-138.802	-0.301	-0.034
-742.127	57.671	-0.270	0.270
-741.112	-39.939	-0.294	0.157
-740.098	-117.739	-0.261	0.048
-739.083	-62.695	0.078	0.033
-738.069	789.632	-0.025	-0.071
-737.054	128.025	0.035	0.046
-736.039	-92.254	0.234	-0.067
-735.025	-200.000	-0.015	-0.173
-734.010	800.000	0.020	-0.079
-732.996	-62.242	-0.312	-0.133
-731.981	-91.950	0.396	-0.115
-730.966	203.482	-0.069	-0.110
-729.952	86.151	-0.088	-0.099
-728.937	-170.845	-0.408	-0.014
-727.923	25.650	0.098	0.083
-726.908	-4.506	0.073	-0.051
-725.894	-18.979	-0.174	-0.111
-724.879	144.412	-0.290	-0.396
-723.864	-200.000	-0.022	-0.306
-722.850	263.480	0.077	-0.136
-721.835	800.000	-0.046	0.142
-720.821	-133.699	-0.157	0.020
-719.806	-200.000	0.021	-0.207
-718.791	-27.658	-0.089	0.053
-717.777	800.000	-0.043	-0.184
-716.762	-147.304	0.335	0.029
-715.748	212.496	0.102	0.164
-714.733	-8.586	-0.115	-0.079
-713.718	-148.000	-0.216	-0.018
-712.704	-200.000	-0.414	-0.001
-711.689	46.146	0.202	0.191
-710.675	569.377	-0.049	-0.122
-709.660	800.000	-0.038	-0.144
-708.645	174.096	-0.175	0.258
-707.631	54.433	0.168	0.165
-706.616	17.518	-0.218	-0.177
-705.602	800.000	-0.103	0.338
-704.587	130.030	-0.128	0.167
-703.572	800.000	-0.067	0.272
-702.558	26.632	-0.409	-0.349
-701.543	-132.812	-0.206	0.027
-700.529	-26.668	-0.264	0.157
-699.514	-50.058	-0.292	0.141
-698.499	9.585	0.130	-0.101
-697.485	800.000	0.095	-0.325
-696.470	48.960	-0.168	-0.161
-695.456	677.691	-0.137	-0.362
-694.441	-140.821	-0.270	-0.028
-693.426	800.000	0.021	0.087
-692.412	-23.744	-0.178	0.109
-691.397	-52.773	-0.126	-0.059
-690.383	501.146	-0.163	0.384
-689.368	-36.742	-0.147	0.080
-688.354	24.284	-0.166	-0.140
-687.339	-124.372	-0.136	0.022
-686.324	-93.853	-0.169	-0.048
-685.310	800.000	0.113	-0.358
-684.295	139.194	-0.097	-0.130
-683.281	-66.025	-0.096	0.039
-682.266	-136.317	0.350	-0.042
-681.251	108.365	-0.043	0.053
-680.237	40.239	-0.191	-0.175
-679.222	46.602	0.082	0.078
-678.208	-111.897	-0.225	0.046
-677.193	-200.000	0.045	-0.205
-676.178	-143.567	-0.126	-0.012
-675.164	-127.284	0.065	0.010
-674.149	-108.966	0.090	-0.019
-673.135	-200.000	0.018	-0.423
-672.120	-200.000	-0.030	-0.383
-671.105	800.000	0.049	-0.193
-670.091	357.928	-0.216	-0.440
-669.076	-29.559	0.178	0.104
-668.062	-200.000	0.018	-0.156
-667.047	189.117	0.190	-0.291
-666.032	800.000	-0.037	-0.151
-665.018	-200.000	-0.006	0.181
-664.003	-148.484	-0.234	-0.019
-662.989	365.864	-0.042	0.086
-661.974	374.753	-0.082	-0.170
-660.959	800.000	0.052	0.170
-659.945	800.000	0.063	0.260
-658.930	117.000	-0.059	0.074
-657.916	16.974	-0.275	-0.222
-656.901	21.381	-0.128	0.106
-655.886	305.500	0.048	0.091
-654.872	-59.788	0.134	-0.058
-653.857	320.689	-0.120	-0.233
-652.843	-179.717	-0.239	0.005
-651.828	180.967	0.139	-0.208
-650.814	248.981	0.073	-0.127
-649.799	800.000	0.053	-0.172
-648.784	800.000	0.055	-0.198
-647.770	800.000	0.037	-0.125
-646.755	800.000	0.076	0.225
-645.741	649.927	-0.062	0.162
-644.726	800.000	-0.013	0.037
-643.711	-200.000	0.003	0.109
-642.697	-28.295	0.351	0.207
-641.682	800.000	0.094	-0.305
-640.668	88.746	-0.177	-0.201
-639.653	-23.716	0.127	0.078
-638.638	72.090	-0.164	0.174
-637.624	-29.984	0.097	-0.056
-636.609	418.812	-0.175	0.382
-635.595	127.955	-0.079	-0.102
-634.580	15.831	-0.189	-0.151
-633.565	-90.568	-0.115	0.034
-632.551	-200.000	-0.003	0.027
-631.536	-105.971	-0.368	0.084
-630.522	84.396	0.197	0.219
-629.507	62.214	0.178	-0.181
-628.492	-200.000	0.051	-0.271
-627.478	105.244	0.370	0.444
-626.463	-132.858	-0.038	0.005
-625.449	-26.252	-0.119	-0.071
-624.434	-129.885	0.036	-0.005
-623.419	275.324	-0.074	-0.134
-622.405	-6.163	0.220	-0.153
-621.390	-118.119	-0.280	-0.051
-620.376	689.365	-0.174	0.462
-619.361	-200.000	-0.015	-0.281
-618.346	225.917	-0.124	-0.204
-617.332	68.937	0.052	-0.054
-616.317	136.285	-0.149	0.198
-615.303	339.171	0.043	0.086
-614.288	-89.269	-0.030	-0.009
-613.273	-29.060	-0.210	0.123
-612.259	-2.177	0.218	0.156
-611.244	164.079	0.109	0.156
-610.230	233.380	-0.120	0.200
-609.215	109.708	-0.022	0.027
-608.201	-29.945	-0.340	0.197
-607.186	-51.662	0.395	0.187
-606.171	22.884	0.208	0.173
-605.157	800.000	-0.037	0.110
-604.142	265.396	0.074	-0.131
-603.128	159.255	0.130	0.184
-602.113	-118.645	0.156	0.028
-601.098	42.517	0.119	-0.110
-600.084	44.063	0.148	-0.138
-599.069	-200.000	0.011	0.103
-598.055	-24.398	0.087	-0.053
-597.040	92.254	-0.080	0.091
-596.025	21.467	0.070	-0.058
-595.011	-200.000	-0.026	-0.116
-593.996	471.450	0.048	0.109
-592.982	800.000	-0.053	0.231
-591.967	91.761	-0.096	0.109
-590.952	-200.000	0.018	-0.242
-589.938	-200.000	-0.021	-0.126
-588.923	-1.598	0.157	-0.112
-587.909	23.021	0.065	0.054
-586.894	8.372	0.196	0.150
-585.879	71.682	0.242	0.256
-584.865	-86.387	0.181	-0.057
-583.850	-49.971	0.140	0.067
-582.836	36.606	-0.072	0.065
-581.821	-6.550	0.131	0.091
-580.806	35.409	-0.295	0.263
-579.792	648.094	-0.080	-0.207
-578.777	340.429	0.074	-0.148
-577.763	195.983	-0.190	0.293
-576.748	-195.209	-0.189	0.001
-575.733	-200.000	-0.068	0.387
-574.719	43.478	0.245	0.227
-573.704	398.029	0.127	-0.269
-572.690	800.000	-0.127	-0.384
-571.675	-200.000	0.012	0.092
-570.661	-92.856	0.179	0.051
-569.646	-17.153	-0.098	0.063
-568.631	-175.671	0.365	-0.010
-567.617	417.180	0.048	-0.104
-566.602	-154.763	0.201	-0.014
-565.588	-200.000	0.005	0.161
-564.573	121.834	-0.145	-0.184
-563.558	-70.806	0.046	0.018
-562.544	-40.286	-0.184	0.097
-561.529	-137.719	0.422	0.048
-560.515	-200.000	-0.033	0.304
-559.500	-122.148	-0.386	-0.064
-558.485	-200.000	0.004	-0.074
-557.471	24.807	-0.110	0.092
-556.456	531.141	-0.134	-0.321
-555.442	101.494	-0.161	-0.191
-554.427	-200.000	0.038	-0.190
-553.412	-107.698	0.146	0.032
-552.398	-108.544	0.362	-0.079
-551.383	-75.860	0.267	0.096
-550.369	7.999	-0.189	0.144
-549.354	800.000	0.020	0.079
-548.339	254.753	0.063	0.109
-547.325	-133.578	0.238	-0.030
-546.310	0.273	0.218	-0.158
-545.296	671.809	-0.187	-0.491
-544.281	-43.781	0.231	-0.118
-543.266	28.077	-0.187	0.160
-542.252	-151.442	0.126	0.009
-541.237	-67.886	0.243	0.096
-540.223	-11.997	-0.128	0.085
-539.208	218.824	-0.073	0.119
-538.193	-192.060	0.254	0.002
-537.179	58.336	-0.155	-0.154
-536.164	800.000	-0.066	-0.256
-535.150	-72.921	-0.128	0.048
-534.135	105.736	-0.362	-0.434
-533.121	-200.000	0.017	0.172
-532.106	214.273	0.175	0.282
-531.091	-41.562	0.212	-0.111
-530.077	303.741	-0.075	-0.141
-529.062	-130.604	0.240	0.033
-528.048	-134.572	-0.301	-0.037
-527.033	286.742	0.076	-0.139
-526.018	-200.000	0.015	0.124
-525.004	-200.000	-0.008	0.080
-523.989	-82.395	-0.202	-0.067
-522.975	-200.000	-0.022	0.309
-521.960	-112.621	-0.155	-0.031
-520.945	420.624	-0.096	-0.209
-519.931	11.909	0.257	-0.200
-518.916	63.480	0.284	0.289
-517.902	-32.549	-0.267	-0.151
-516.887	-200.000	0.030	-0.389
-515.872	-200.000	-0.014	-0.272
-514.858	-200.000	0.026	0.116
-513.843	-200.000	-0.006	-0.060
-512.829	-84.319	0.131	-0.042
-511.814	73.939	-0.071	0.076
-510.799	-155.330	-0.261	0.017
-509.785	-29.260	-0.094	0.055
-508.770	106.936	-0.290	0.348
-507.756	3.241	0.044	-0.033
-506.741	800.000	-0.057	-0.227
-505.726	311.776	-0.129	0.245
-504.712	-150.234	-0.287	-0.022
-503.697	113.147	-0.233	0.286
-502.683	-104.870	0.450	-0.105
-501.668	-200.000	0.006	-0.308
-500.653	-27.146	-0.318	0.188
-499.639	-51.397	0.084	-0.040
-498.624	253.560	0.123	-0.212
-497.610	-16.520	0.284	0.182
-496.595	-42.038	-0.270	-0.140
-495.581	-159.420	0.363	-0.021
-494.566	-152.003	0.514	-0.038
-493.551	37.633	0.157	-0.141
-492.537	138.375	-0.016	-0.022
-491.522	-200.000	-0.050	0.422
-490.508	-76.790	-0.074	-0.026
-489.493	52.855	-0.029	-0.028
-488.478	-200.000	-0.011	0.062
-487.464	247.589	0.091	-0.156
-486.449	-57.090	-0.201	0.090
-485.435	-95.496	0.132	0.036
-484.420	-200.000	-0.198	-0.000
-483.405	-86.436	0.503	0.156
-482.391	-8.700	-0.148	0.101
-481.376	-7.622	0.088	0.060
-480.362	-91.197	-0.155	-0.045
-479.347	386.742	0.170	0.356
-478.332	124.304	-0.136	0.173
-477.318	-200.000	-0.049	0.229
-476.303	-41.750	0.211	-0.110
-475.289	-200.000	0.037	-0.273
-474.274	-200.000	0.027	0.147
-473.259	800.000	-0.035	0.126
-472.245	24.474	-0.078	-0.065
-471.230	-56.850	-0.178	0.080
-470.216	106.480	0.022	0.026
-469.201	519.322	0.054	-0.128
-468.186	-200.000	-0.014	-0.156
-467.172	-195.555	-0.155	0.001
-466.157	-200.000	-0.019	0.115
-465.143	62.459	0.206	0.208
-464.128	-116.168	-0.311	-0.058
-463.113	800.000	-0.057	-0.229
-462.099	-200.000	-0.032	0.191
-461.084	-125.201	-0.266	0.041
-460.070	-200.000	0.020	0.138
-459.055	13.745	-0.071	-0.056
-458.040	31.035	-0.111	-0.096
-457.026	215.486	0.186	-0.298
-456.011	145.959	-0.154	0.209
-454.997	-75.440	-0.335	-0.121
-453.982	198.877	0.168	0.260
-452.968	-200.000	-0.031	0.220
-451.953	-200.000	0.055	-0.375
-450.938	-8.874	-0.063	-0.042
-449.924	67.034	0.057	-0.059
-448.909	-39.747	0.235	-0.124
-447.895	-155.644	-0.257	0.017
-446.880	19.667	0.327	-0.266
-445.865	150.092	-0.083	-0.114
-444.851	-116.106	-0.300	-0.056
-443.836	800.000	0.069	0.207
-442.822	-85.748	-0.081	0.025
-441.807	545.610	0.096	0.233
-440.792	-146.477	-0.032	0.003
-439.778	-13.680	-0.335	-0.219
-438.763	-200.000	0.006	-0.252
-437.749	12.267	0.166	-0.129
-436.734	-200.000	-0.010	-0.166
-435.719	-16.287	0.126	0.081
-434.705	-200.000	-0.011	0.300
-433.690	268.893	-0.133	0.235
-432.676	-200.000	0.007	-0.041
-431.661	-200.000	0.001	-0.192
-430.646	-200.000	0.016	-0.078
-429.632	-200.000	-0.005	0.148
-428.617	389.751	0.005	-0.011
-427.603	-200.000	0.036	-0.221
-426.588	-200.000	0.016	0.174
-425.573	800.000	-0.041	-0.134
-424.559	-89.333	-0.167	-0.050
-423.544	-122.193	0.198	-0.033
-422.530	-81.545	0.268	0.089
-421.515	-200.000	-0.009	-0.252
-420.500	-19.317	0.131	0.082
-419.486	-200.000	0.018	-0.266
-418.471	79.513	0.035	-0.038
-417.457	-47.455	0.105	0.052
-416.442	119.044	-0.136	-0.170
-415.428	78.616	0.104	0.112
-414.413	195.525	0.167	-0.257
-413.398	-157.291	0.269	0.016
-412.384	520.781	-0.094	0.222
-411.369	-0.157	-0.229	-0.164
-410.355	-102.563	0.179	0.043
-409.340	163.992	0.035	-0.049
-408.325	93.478	0.158	0.180
-407.311	67.319	0.058	-0.060
-406.296	-168.350	-0.360	-0.014
-405.282	67.264	0.094	-0.097
-404.267	-97.520	-0.133	-0.035
-403.252	-24.917	-0.241	0.144
-402.238	-90.534	-0.167	-0.049
-401.223	457.114	-0.066	0.147
-400.209	513.258	0.167	0.393
-399.194	800.000	0.039	0.151
-398.179	676.995	0.031	-0.080
-397.165	-200.000	0.004	-0.288
-396.150	800.000	-0.037	-0.139
-395.136	-95.679	-0.329	0.089
-394.121	44.990	0.207	-0.192
-393.106	-27.670	0.184	0.108
-392.092	-200.000	0.007	0.144
-391.077	-43.261	0.250	0.128
-390.063	151.922	-0.147	0.202
-389.048	280.459	-0.184	-0.332
-388.033	-41.204	0.103	-0.054
-387.019	-200.000	0.031	-0.196
-386.004	346.014	0.111	0.219
-384.990	72.447	0.179	-0.188
-383.975	-61.019	-0.085	-0.036
-382.960	63.485	-0.108	0.109
-381.946	-19.853	-0.214	0.134
-380.931	-200.000	0.002	0.209
-379.917	-200.000	0.012	0.151
-378.902	-78.732	-0.366	-0.126
-377.888	-20.911	-0.274	-0.169
-376.873	-61.265	0.254	-0.108
-375.858	-49.453	-0.351	0.168
-374.844	-65.189	0.046	-0.019
-373.829	57.572	0.268	-0.264
-372.815	14.781	-0.161	0.127
-371.800	444.485	-0.052	0.116
-370.785	37.311	-0.212	-0.189
-369.771	226.363	-0.085	-0.138
-368.756	800.000	0.040	0.147
-367.742	161.328	-0.196	0.276
-366.727	-95.289	-0.389	-0.105
-365.712	-52.447	-0.166	0.078
-364.698	546.839	0.031	0.075
-363.683	22.554	-0.287	-0.237
-362.669	-51.440	-0.272	-0.128
-361.654	-93.387	0.245	0.069
-360.639	321.085	-0.120	0.229
-359.625	800.000	0.048	-0.186
-358.610	642.909	0.055	0.141
-357.596	-55.499	0.237	0.107
-356.581	-55.804	-0.218	-0.098
-355.566	-200.000	0.009	0.275
-354.552	-23.501	0.178	-0.108
-353.537	50.731	-0.162	0.155
-352.523	800.000	-0.082	-0.254
-351.508	-125.930	-0.288	-0.044
-350.493	87.316	-0.152	-0.169
-349.479	-161.683	0.197	-0.010
-348.464	47.906	0.226	0.212
-347.450	-154.026	0.205	0.014
-346.435	800.000	-0.073	-0.212
-345.420	-26.724	-0.014	-0.008
-344.406	-46.854	0.076	-0.038
-343.391	-67.154	-0.155	-0.061
-342.377	12.985	0.187	-0.145
-341.362	-200.000	0.060	0.285
-340.348	800.000	0.077	0.249
-339.333	-200.000	0.023	0.101
-338.318	20.610	0.227	-0.185
-337.304	200.764	-0.045	0.069
-336.289	-25.540	0.181	-0.108
-335.275	800.000	0.070	-0.307
-334.260	171.176	-0.179	-0.259
-333.245	-139.587	0.294	0.032
-332.231	0.881	0.235	-0.169
-331.216	224.962	0.138	-0.224
-330.202	-200.000	-0.051	0.000
-329.187	-200.000	-0.037	-0.289
-328.172	5.453	0.165	0.122
-327.158	323.457	-0.092	0.177
-326.143	-96.393	-0.293	-0.078
-325.129	-200.000	-0.003	0.117
-324.114	-121.257	-0.125	0.021
-323.099	-148.037	-0.205	-0.017
-322.085	-46.922	0.263	0.129
-321.070	-133.314	0.250	-0.032
-320.056	-96.145	-0.280	0.075
-319.041	-40.684	-0.171	-0.089
-318.026	141.512	0.354	0.471
-317.012	-51.509	-0.288	-0.135
-315.997	201.819	-0.104	0.161
-314.983	-200.000	0.013	0.207
-313.968	70.201	-0.106	0.110
-312.953	-76.513	-0.322	-0.114
-311.939	491.899	0.072	0.166
-310.924	-56.006	0.099	0.044
-309.910	-200.000	-0.055	0.241
-308.895	-90.404	-0.182	-0.053
-307.880	-164.053	0.100	-0.005
-306.866	-81.191	-0.225	-0.075
-305.851	290.873	-0.095	0.174
-304.837	253.998	0.127	0.218
-303.822	-116.219	-0.262	0.049
-302.807	-167.470	-0.514	-0.021
-301.793	-187.129	-0.124	0.002
-300.778	61.134	0.344	0.343
-299.764	120.895	0.256	-0.320
-298.749	-6.898	0.059	0.040
-297.735	-90.957	-0.280	0.081
-296.720	-197.634	-0.403	0.002
-295.705	800.000	0.031	-0.105
-294.691	-115.735	0.158	0.030
-293.676	239.161	0.140	-0.233
-292.662	303.274	0.107	0.199
-291.647	-122.874	-0.091	0.015
-290.632	135.872	-0.109	0.143
-289.618	112.046	0.189	-0.230
-288.603	-50.416	0.173	-0.082
-287.589	-68.350	0.162	0.063
-286.574	800.000	-0.080	0.231
-285.559	-29.165	0.265	0.153
-284.545	136.904	-0.192	-0.252
-283.530	341.630	-0.131	-0.258
-282.516	-23.846	-0.064	-0.038
-281.501	-63.426	0.345	-0.143
-280.486	103.369	0.080	0.095
-279.472	-107.733	0.092	0.020
-278.457	-40.111	0.135	-0.071
-277.443	103.160	-0.216	-0.254
-276.428	-87.937	-0.096	-0.029
-275.413	-200.000	0.099	-0.477
-274.399	440.187	0.096	-0.211
-273.384	-8.090	-0.053	-0.036
-272.370	-200.000	-0.018	-0.095
-271.355	-156.465	-0.523	-0.033
-270.340	16.144	-0.170	-0.135
-269.326	54.333	0.091	0.088
-268.311	800.000	-0.030	-0.095
-267.297	-49.175	0.117	0.056
-266.282	218.480	0.121	0.195
-265.267	-200.000	-0.033	0.173
-264.253	-176.686	0.112	-0.003
-263.238	165.682	0.149	0.211
-262.224	-200.000	0.035	-0.255
-261.209	150.929	0.157	-0.214
-260.195	124.991	0.265	0.335
-259.180	-37.146	-0.205	0.110
-258.165	-57.527	-0.068	0.030
-257.151	122.533	0.105	-0.131
-256.136	477.471	-0.051	0.116
-255.122	-145.862	-0.086	-0.008
-254.107	-73.579	-0.173	-0.063
-253.092	53.282	0.059	-0.057
-252.078	99.770	-0.120	-0.139
-251.063	-113.141	0.218	0.043
-250.049	-11.946	0.079	0.052
-249.034	1.161	0.100	0.072
-248.019	-75.860	0.150	-0.053
-247.005	101.577	-0.142	-0.166
-245.990	-87.340	0.212	0.065
-244.976	321.855	0.035	0.066
-243.961	-133.497	0.101	0.013
-242.946	29.989	0.190	0.162
-241.932	17.664	-0.059	-0.047
-240.917	-21.204	0.392	-0.240
-239.903	-155.470	0.370	-0.024
-238.888	800.000	-0.081	0.265
-237.873	-200.000	0.003	0.066
-236.859	-82.008	0.047	0.015
-235.844	519.366	0.108	-0.254
-234.830	284.063	0.075	0.135
-233.815	17.006	-0.107	-0.085
-232.800	800.000	-0.113	-0.346
-231.786	-120.952	-0.130	0.022
-230.771	-116.767	0.003	0.001
-229.757	-143.344	-0.289	0.028
-228.742	95.181	0.319	-0.365
-227.727	88.694	-0.306	0.340
-226.713	-19.718	0.221	0.137
-225.698	-99.969	0.239	-0.060
-224.684	24.987	0.120	-0.100
-223.669	-118.818	-0.129	0.023
-222.655	-110.551	-0.223	-0.046
-221.640	-200.000	0.006	-0.238
-220.625	-152.445	-0.178	0.013
-219.611	136.995	0.122	-0.160
-218.596	-82.880	0.162	0.052
-217.582	-60.138	0.036	0.015
-216.567	-65.926	0.345	-0.138
-215.552	68.458	0.115	-0.119
-214.538	101.108	0.078	-0.090
-213.523	100.152	-0.146	0.170
-212.509	313.434	-0.033	0.061
-211.494	3.062	0.078	0.057
-210.479	141.067	-0.113	-0.149
-209.465	-200.000	-0.019	-0.108
-208.450	-185.178	0.110	-0.002
-207.436	-87.997	-0.159	0.048
-206.421	-189.989	0.271	-0.003
-205.406	800.000	-0.066	-0.209
-204.392	62.700	0.073	-0.073
-203.377	112.555	0.073	-0.088
-202.363	-4.196	-0.144	0.100
-201.348	123.399	0.081	-0.101
-200.333	-200.000	0.001	-0.306
-199.319	-200.000	-0.017	0.203
-198.304	-148.480	0.142	0.012
-197.290	-200.000	0.003	0.195
-196.275	-200.000	-0.276	-0.001
-195.260	-183.324	-0.269	0.005
-194.246	47.071	-0.195	0.182
-193.231	-200.000	0.036	-0.262
-192.217	-53.502	-0.088	0.040
-191.202	187.386	-0.095	0.141
-190.187	-200.000	-0.031	-0.313
-189.173	-183.067	-0.207	0.004
-188.158	-200.000	0.028	-0.189
-187.144	-134.920	-0.390	0.047
-186.129	-49.482	-0.103	0.049
-185.114	-10.007	0.330	0.219
-184.100	800.000	0.146	0.417
-183.085	-200.000	-0.035	0.284
-182.071	769.624	-0.019	-0.051
-181.056	-73.697	-0.259	-0.094
-180.042	-46.807	0.055	-0.027
-179.027	-63.389	-0.255	0.105
-178.012	13.391	-0.103	0.080
-176.998	91.483	0.055	-0.062
-175.983	98.243	0.088	0.102
-174.969	51.180	-0.187	-0.177
-173.954	-102.528	-0.201	-0.048
-172.939	-8.138	0.127	-0.086
-171.925	105.303	-0.349	0.412
-170.910	-200.000	0.001	-0.196
-169.896	51.860	0.210	-0.200
-168.881	27.494	0.159	-0.133
-167.866	125.747	-0.099	0.125
-166.852	-98.918	0.121	-0.031
-165.837	184.376	-0.162	0.240
-164.823	50.544	0.230	-0.217
-163.808	-34.121	0.260	-0.143
-162.793	26.670	0.196	0.164
-161.779	-2.491	-0.162	-0.113
-160.764	800.000	0.027	-0.109
-159.750	568.216	-0.081	-0.196
-158.735	-200.000	-0.041	0.394
-157.720	-89.017	-0.152	0.045
-156.706	-38.523	0.334	-0.176
-155.691	800.000	0.062	0.229
-154.677	-200.000	-0.014	0.209
-153.662	615.403	0.098	-0.244
-152.647	800.000	0.041	0.115
-151.633	-199.350	-0.438	-0.002
-150.618	-200.000	-0.021	0.121
-149.604	-76.545	0.027	0.009
-148.589	-98.787	-0.160	0.041
-147.574	-145.872	0.150	-0.013
-146.560	-123.090	-0.133	-0.021
-145.545	-200.000	0.006	0.176
-144.531	60.643	0.060	-0.059
-143.516	-95.428	0.110	0.029
-142.502	-121.719	-0.266	-0.044
-141.487	23.873	0.135	0.111
-140.472	-6.737	-0.103	-0.070
-139.458	-142.944	0.465	-0.045
-138.443	-200.000	-0.014	-0.245
-137.429	-200.000	-0.003	0.154
-136.414	-80.855	-0.194	-0.064
-135.399	-108.237	-0.132	0.028
-134.385	86.358	0.159	0.175
-133.370	-141.356	-0.464	0.047
-132.356	800.000	0.025	0.083
-131.341	-162.035	-0.435	0.022
-130.326	-99.820	-0.117	0.029
-129.312	-200.000	-0.005	0.038
-128.297	132.427	-0.037	-0.047
-127.283	800.000	-0.071	-0.279
-126.268	-102.282	0.199	0.048
-125.253	170.142	0.110	-0.157
-124.239	279.238	-0.142	-0.252
-123.224	-121.427	0.311	0.052
-122.210	125.697	-0.273	0.345
-121.195	440.947	0.168	-0.367
