DTS Sentinel unit serial number:	SN413079Multiplexer serial number:	ORYXHardware model number:	OX4-SRSoftware version number:	ORYX F/W v4.00 Oryx Data Collector v3.7.2.0data status	okinstallation	princeton_trtdifferential loss correction	single-endedforward channel	channel 1reverse channel	N/Adate	2019/09/16time	05:54:35forward acquisition time	60.00reverse acquisition time	0.00gamma	496.2192k internal	0.2330k external	0.2330temperature offset calibration	0.9983default loss term (dB/km)	0.3790temperature slope calibration	1.0000multiplexer offset coefficient	1.0000multiplexer slope coefficient	1.0000fibre end	0.00T internal ref (°C)	27.37T ext. ref 1 (°C)	11.22T ext. ref 2 (°C)	22.22length (m)	temperature (°C)	Stokes	anti-Stokes-747.200	183.290	0.053	-0.079
-746.185	-31.356	0.151	0.085
-745.171	-142.537	-0.088	0.009
-744.156	122.586	-0.178	0.225
-743.142	62.879	-0.178	0.179
-742.127	-163.829	0.291	0.014
-741.112	99.412	0.200	-0.233
-740.098	-200.000	-0.005	0.237
-739.083	-200.000	-0.010	0.240
-738.069	0.751	-0.276	0.199
-737.054	800.000	-0.122	-0.350
-736.039	-133.209	-0.147	-0.019
-735.025	-50.126	0.209	0.099
-734.010	51.363	-0.280	-0.267
-732.996	-85.715	-0.336	0.105
-731.981	-200.000	0.023	-0.126
-730.966	7.515	0.256	0.193
-729.952	-19.775	0.143	-0.089
-728.937	-123.254	-0.150	0.024
-727.923	-200.000	0.002	0.238
-726.908	-64.240	-0.251	0.103
-725.894	235.848	0.182	-0.302
-724.879	-151.761	-0.334	-0.025
-723.864	-200.000	0.018	-0.223
-722.850	-200.000	0.001	-0.112
-721.835	72.051	-0.290	-0.303
-720.821	-144.178	0.098	-0.009
-719.806	-30.691	0.457	0.260
-718.791	318.424	-0.088	-0.167
-717.777	-148.850	0.059	0.005
-716.762	76.755	0.022	-0.024
-715.748	-107.722	-0.277	-0.061
-714.733	8.296	-0.224	0.169
-713.718	-34.388	-0.083	0.046
-712.704	800.000	-0.045	0.189
-711.689	-136.894	0.290	0.033
-710.675	498.815	0.010	0.024
-709.660	-125.417	-0.271	0.041
-708.645	-200.000	0.035	0.164
-707.631	-34.200	0.379	-0.209
-706.616	-200.000	0.028	0.224
-705.602	48.579	-0.040	-0.038
-704.587	-200.000	-0.015	-0.399
-703.572	122.970	0.141	0.178
-702.558	-200.000	-0.006	-0.223
-701.543	-200.000	0.014	-0.169
-700.529	800.000	-0.057	-0.178
-699.514	800.000	0.052	0.165
-698.499	628.953	-0.164	-0.416
-697.485	-130.380	-0.423	0.058
-696.470	-159.331	-0.113	0.006
-695.456	-122.753	0.251	-0.041
-694.441	-118.094	-0.183	-0.033
-693.426	42.174	0.077	-0.070
-692.412	-24.097	-0.187	0.112
-691.397	-65.633	-0.194	0.078
-690.383	119.523	0.065	0.081
-689.368	-52.960	-0.430	0.199
-688.354	179.389	-0.181	-0.266
-687.339	-200.000	-0.000	0.086
-686.324	16.415	0.301	-0.239
-685.310	318.529	-0.103	-0.197
-684.295	44.275	-0.118	-0.109
-683.281	312.007	-0.201	-0.378
-682.266	-200.000	0.017	-0.270
-681.251	61.689	0.160	0.160
-680.237	659.212	0.173	-0.446
-679.222	196.196	-0.066	-0.101
-678.208	-58.563	0.125	-0.055
-677.193	800.000	0.105	-0.327
-676.178	-21.657	-0.236	-0.144
-675.164	574.807	-0.129	-0.315
-674.149	315.609	-0.115	-0.218
-673.135	-136.344	-0.168	0.020
-672.120	154.099	-0.062	0.086
-671.105	-71.841	0.152	0.057
-670.091	-200.000	0.005	0.188
-669.076	-200.000	-0.043	0.438
-668.062	5.682	-0.298	0.221
-667.047	548.475	0.144	-0.345
-666.032	-154.589	0.280	-0.019
-665.018	-30.615	-0.041	0.023
-664.003	46.511	-0.173	0.161
-662.989	-39.147	-0.153	0.081
-661.974	63.268	0.179	-0.180
-660.959	-96.952	0.317	-0.083
-659.945	-200.000	-0.021	-0.111
-658.930	-140.988	0.183	-0.019
-657.916	-141.390	-0.134	0.014
-656.901	-63.761	-0.082	-0.034
-655.886	-1.828	-0.248	-0.175
-654.872	-49.813	-0.174	-0.083
-653.857	-1.882	0.121	-0.086
-652.843	-200.000	0.027	0.224
-651.828	-62.273	0.236	0.099
-650.814	-166.954	-0.230	-0.009
-649.799	-58.210	-0.155	0.068
-648.784	55.049	-0.147	0.143
-647.770	800.000	-0.105	-0.356
-646.755	800.000	0.009	-0.035
-645.741	-200.000	-0.028	0.267
-644.726	624.634	0.135	-0.341
-643.711	-200.000	-0.030	0.210
-642.697	138.787	0.050	-0.066
-641.682	-146.838	-0.156	0.013
-640.668	146.634	-0.077	0.103
-639.653	800.000	-0.105	-0.359
-638.638	800.000	0.085	0.325
-637.624	-200.000	0.025	0.169
-636.609	140.243	0.126	-0.166
-635.595	-200.000	-0.011	-0.151
-634.580	77.419	0.037	0.040
-633.565	-31.108	0.134	-0.075
-632.551	-123.501	0.220	-0.035
-631.536	-138.772	-0.190	0.021
-630.522	7.423	-0.237	0.178
-629.507	-122.227	0.257	0.042
-628.492	28.634	0.136	-0.115
-627.478	-39.203	-0.108	0.057
-626.463	-200.000	0.019	0.278
-625.449	-200.000	0.021	0.332
-624.434	561.765	0.084	-0.203
-623.419	737.458	-0.021	0.057
-622.405	17.026	-0.153	-0.122
-621.390	363.428	-0.153	-0.308
-620.376	-54.263	0.259	-0.118
-619.361	-64.996	-0.306	-0.124
-618.346	-54.325	0.116	0.053
-617.332	77.176	0.143	-0.152
-616.317	-77.531	0.275	0.095
-615.303	-138.876	0.128	0.014
-614.288	-200.000	0.057	-0.327
-613.273	800.000	-0.086	-0.280
-612.259	-200.000	-0.102	0.523
-611.244	-50.285	0.206	-0.097
-610.230	62.434	-0.238	-0.238
-609.215	-200.000	0.032	0.195
-608.201	394.050	0.198	-0.412
-607.186	-21.032	-0.297	0.182
-606.171	-111.222	0.223	-0.046
-605.157	301.380	-0.019	-0.035
-604.142	64.833	0.068	-0.068
-603.128	-33.775	-0.172	0.095
-602.113	-200.000	-0.060	-0.430
-601.098	-200.000	-0.003	0.242
-600.084	73.566	0.131	-0.138
-599.069	27.148	0.031	0.026
-598.055	-35.260	-0.148	-0.080
-597.040	-14.188	0.115	-0.074
-596.025	47.518	-0.142	-0.132
-595.011	523.513	-0.137	0.321
-593.996	-200.000	0.048	0.280
-592.982	-200.000	0.000	-0.231
-591.967	-99.002	-0.054	0.014
-590.952	-54.577	-0.129	-0.059
-589.938	-200.000	0.005	0.076
-588.923	545.521	0.045	-0.107
-587.909	205.777	0.046	-0.072
-586.894	46.023	-0.184	-0.170
-585.879	-39.953	0.419	-0.218
-584.865	-197.759	0.114	0.001
-583.850	-48.952	-0.123	0.059
-582.836	-25.361	-0.109	-0.065
-581.821	204.827	-0.182	-0.282
-580.806	305.074	0.105	-0.195
-579.792	-173.282	-0.198	-0.006
-578.777	325.301	-0.087	0.165
-577.763	-4.836	-0.109	-0.075
-576.748	-163.305	-0.343	0.016
-575.733	-78.411	0.228	0.078
-574.719	-13.519	0.083	-0.054
-573.704	373.759	-0.184	-0.374
-572.690	-69.493	-0.019	-0.007
-571.675	-93.609	0.414	-0.114
-570.661	160.792	-0.182	-0.253
-569.646	194.246	-0.138	-0.209
-568.631	-132.872	-0.198	-0.025
-567.617	-84.646	0.131	0.041
-566.602	67.459	-0.330	-0.336
-565.588	198.261	-0.145	0.221
-564.573	-168.375	0.175	-0.007
-563.558	169.463	-0.126	0.180
-562.544	-13.229	0.128	0.083
-561.529	-39.494	0.298	-0.156
-560.515	440.067	-0.194	0.425
-559.500	-82.804	-0.055	-0.018
-558.485	-51.562	-0.233	-0.109
-557.471	323.175	0.193	-0.368
-556.456	21.333	-0.064	-0.052
-555.442	-138.892	-0.328	0.036
-554.427	-88.735	-0.314	0.093
-553.412	65.392	0.038	-0.038
-552.398	298.868	-0.137	-0.253
-551.383	-152.656	-0.409	0.029
-550.369	117.552	0.222	0.273
-549.354	-114.415	0.136	-0.026
-548.339	-81.323	-0.060	-0.020
-547.325	48.881	-0.097	-0.091
-546.310	-200.000	-0.055	-0.413
-545.296	-120.309	-0.254	-0.043
-544.281	50.907	0.147	-0.139
-543.266	-200.000	0.024	0.227
-542.252	438.757	0.078	-0.171
-541.237	-47.446	0.055	-0.027
-540.223	181.787	0.098	0.144
-539.208	-188.733	-0.248	0.003
-538.193	134.429	0.200	0.260
-537.179	-103.887	-0.156	0.036
-536.164	53.855	0.214	0.205
-535.150	11.704	-0.211	0.162
-534.135	-61.325	-0.072	-0.030
-533.121	48.099	0.197	-0.184
-532.106	-161.435	-0.212	0.011
-531.091	364.064	0.076	-0.153
-530.077	-200.000	0.044	0.293
-529.062	-200.000	-0.021	0.118
-528.048	-200.000	0.014	-0.301
-527.033	-159.261	-0.097	-0.005
-526.018	-200.000	0.026	-0.221
-525.004	-200.000	0.016	-0.091
-523.989	-18.032	-0.348	0.217
-522.975	350.056	0.103	0.202
-521.960	-119.724	0.208	-0.036
-520.945	446.772	-0.066	0.144
-519.931	-200.000	-0.053	0.303
-518.916	132.438	0.279	-0.359
-517.902	54.042	-0.176	0.169
-516.887	800.000	0.050	-0.202
-515.872	74.386	0.101	-0.106
-514.858	-12.187	-0.230	0.150
-513.843	800.000	0.045	0.185
-512.829	-200.000	-0.007	-0.201
-511.814	478.934	0.090	0.204
-510.799	163.837	-0.225	0.316
-509.785	60.837	0.123	-0.121
-508.770	-124.696	0.157	-0.024
-507.756	-127.822	0.147	-0.021
-506.741	-153.168	0.116	-0.008
-505.726	783.820	0.114	-0.312
-504.712	-67.452	0.302	-0.118
-503.697	486.972	-0.080	-0.182
-502.683	19.674	-0.095	0.077
-501.668	-10.287	0.237	-0.157
-500.653	785.115	-0.063	-0.171
-499.639	8.775	0.045	0.034
-498.624	415.162	-0.068	0.144
-497.610	800.000	0.048	-0.151
-496.595	-116.100	-0.265	0.049
-495.581	-157.608	-0.231	0.014
-494.566	-200.000	0.007	0.101
-493.551	800.000	0.015	0.056
-492.537	65.447	-0.141	-0.142
-491.522	601.484	0.090	-0.223
-490.508	47.643	-0.048	0.045
-489.493	208.712	-0.121	0.189
-488.478	-140.354	0.312	0.032
-487.464	-54.943	-0.310	0.139
-486.449	-200.000	-0.008	0.073
-485.435	-60.353	0.160	0.068
-484.420	47.748	0.085	-0.080
-483.405	103.235	-0.225	-0.262
-482.391	32.818	-0.042	-0.036
-481.376	-200.000	0.000	0.111
-480.362	260.444	-0.080	0.137
-479.347	85.846	0.103	0.113
-478.332	24.375	0.163	0.134
-477.318	-35.295	0.443	-0.240
-476.303	-200.000	-0.024	-0.122
-475.289	516.493	0.085	-0.198
-474.274	114.681	0.110	0.134
-473.259	24.869	-0.028	-0.024
-472.245	-78.746	0.315	-0.107
-471.230	-99.700	-0.414	0.103
-470.216	17.351	0.379	0.300
-469.201	-97.301	-0.253	-0.066
-468.186	-56.179	0.201	-0.089
-467.172	34.608	-0.171	-0.149
-466.157	800.000	0.097	0.284
-465.143	-152.418	0.051	-0.004
-464.128	-200.000	0.037	-0.165
-463.113	162.935	0.209	0.292
-462.099	-101.508	-0.243	-0.059
-461.084	-110.262	0.426	-0.088
-460.070	-200.000	0.016	-0.193
-459.055	91.277	-0.089	0.100
-458.040	-31.097	-0.282	0.158
-457.026	-108.140	-0.393	0.085
-456.011	-73.037	0.212	-0.077
-454.997	-119.000	0.357	-0.062
-453.982	225.869	-0.104	-0.167
-452.968	6.020	0.217	-0.160
-451.953	40.718	0.154	-0.138
-450.938	773.787	-0.086	-0.234
-449.924	-168.788	0.145	-0.005
-448.909	183.190	0.151	0.222
-447.895	-59.350	0.010	0.004
-446.880	-200.000	-0.020	0.182
-445.865	401.134	0.117	-0.245
-444.851	-18.945	-0.111	0.069
-443.836	-122.601	-0.113	-0.018
-442.822	429.978	-0.059	-0.127
-441.807	-111.923	0.241	0.048
-440.792	258.746	0.036	0.061
-439.778	-200.000	0.004	-0.138
-438.763	-200.000	0.016	-0.186
-437.749	-52.760	-0.425	0.195
-436.734	-59.099	0.294	-0.126
-435.719	-128.782	-0.071	0.010
-434.705	328.952	0.112	0.214
-433.690	-38.154	-0.275	0.145
-432.676	800.000	0.074	0.233
-431.661	-64.734	0.277	-0.112
-430.646	-135.672	-0.373	-0.044
-429.632	47.114	0.319	-0.295
-428.617	-141.252	-0.226	-0.023
-427.603	358.507	0.139	0.277
-426.588	-113.390	-0.242	-0.047
-425.573	-110.149	-0.169	-0.035
-424.559	800.000	-0.126	0.488
-423.544	-34.354	-0.187	-0.102
-422.530	659.060	-0.028	-0.071
-421.515	42.028	-0.206	-0.186
-420.500	-32.704	0.266	0.147
-419.486	-200.000	0.040	-0.237
-418.471	312.110	0.121	-0.227
-417.457	334.376	0.034	0.065
-416.442	123.289	-0.122	-0.152
-415.428	-98.537	-0.150	-0.038
-414.413	800.000	-0.131	-0.489
-413.398	-200.000	0.062	-0.285
-412.384	800.000	-0.144	-0.421
-411.369	90.538	0.238	0.265
-410.355	27.594	0.407	0.341
-409.340	-70.633	-0.212	-0.080
-408.325	-176.298	0.088	-0.002
-407.311	111.166	-0.015	-0.018
-406.296	5.437	0.184	-0.135
-405.282	-75.354	0.262	0.093
-404.267	-200.000	-0.018	0.241
-403.252	191.767	-0.137	-0.205
-402.238	8.240	-0.088	-0.066
-401.223	75.045	0.324	-0.339
-400.209	25.687	0.199	0.164
-399.194	800.000	-0.013	0.035
-398.179	-143.097	-0.356	0.034
-397.165	-200.000	-0.026	0.407
-396.150	800.000	0.076	0.301
-395.136	43.821	-0.198	0.180
-394.121	-33.278	0.269	0.148
-393.106	201.272	0.056	-0.086
-392.092	800.000	-0.051	-0.172
-391.077	-200.000	0.008	-0.064
-390.063	131.050	0.111	0.142
-389.048	-33.719	0.144	-0.079
-388.033	130.858	0.026	-0.033
-387.019	-128.902	0.092	0.013
-386.004	800.000	0.052	0.149
-384.990	-86.214	0.286	0.088
-383.975	-8.833	-0.060	-0.040
-382.960	-49.336	0.257	0.122
-381.946	-73.979	0.222	0.080
-380.931	23.086	0.171	-0.140
-379.917	290.966	-0.353	0.637
-378.902	-112.152	-0.073	-0.015
-377.888	338.327	0.063	-0.122
-376.873	-200.000	-0.028	-0.299
-375.858	-200.000	-0.010	0.141
-374.844	-187.896	-0.214	-0.003
-373.829	-48.471	0.195	0.093
-372.815	-200.000	-0.258	-0.001
-371.800	-55.816	0.150	0.067
-370.785	121.200	0.095	0.118
-369.771	-200.000	0.011	0.067
-368.756	-200.000	-0.000	0.283
-367.742	-193.660	-0.275	0.002
-366.727	-137.832	-0.379	0.042
-365.712	-136.167	0.111	0.013
-364.698	11.433	-0.148	0.113
-363.683	-200.000	0.002	-0.121
-362.669	44.838	0.293	0.268
-361.654	-149.507	0.059	-0.005
-360.639	-200.000	0.024	0.256
-359.625	-68.671	-0.433	0.166
-358.610	800.000	-0.082	0.285
-357.596	-3.178	0.091	-0.063
-356.581	119.628	0.075	0.092
-355.566	270.650	-0.032	0.057
-354.552	-200.000	-0.032	0.253
-353.537	-54.055	0.232	0.105
-352.523	7.515	-0.095	0.070
-351.508	123.930	0.107	-0.134
-350.493	92.529	-0.294	0.329
-349.479	-186.471	0.224	-0.003
-348.464	40.934	-0.301	-0.270
-347.450	800.000	-0.056	-0.216
-346.435	48.788	-0.019	0.017
-345.420	95.315	-0.074	0.084
-344.406	-104.558	0.144	0.033
-343.391	20.548	0.072	-0.058
-342.377	80.434	0.064	-0.068
-341.362	-88.766	0.096	0.028
-340.348	264.877	0.126	-0.217
-339.333	-182.793	0.127	-0.002
-338.318	-24.276	-0.249	-0.147
-337.304	-200.000	-0.003	-0.249
-336.289	-200.000	0.003	-0.176
-335.275	-200.000	-0.002	-0.067
-334.260	401.864	-0.132	0.274
-333.245	280.549	-0.186	-0.330
-332.231	-200.000	-0.031	0.301
-331.216	117.255	-0.201	0.245
-330.202	352.718	-0.108	0.212
-329.187	63.935	0.207	-0.206
-328.172	-96.868	-0.143	0.037
-327.158	-132.790	-0.365	0.046
-326.143	156.051	-0.127	-0.173
-325.129	91.206	0.067	-0.074
-324.114	-107.099	-0.290	-0.063
-323.099	268.490	-0.147	0.255
-322.085	-55.418	-0.139	-0.062
-321.070	83.811	0.119	0.128
-320.056	-38.956	0.158	-0.082
-319.041	173.832	0.167	-0.239
-318.026	120.230	0.238	0.292
-317.012	370.691	0.019	-0.039
-315.997	64.790	0.327	-0.327
-314.983	169.550	0.093	0.131
-313.968	75.528	0.170	-0.178
-312.953	-134.462	0.261	0.032
-311.939	-200.000	-0.000	-0.070
-310.924	103.844	0.168	0.195
-309.910	-138.575	0.214	-0.023
-308.895	629.600	0.085	0.214
-307.880	-120.723	-0.271	-0.045
-306.866	-140.358	-0.114	0.012
-305.851	190.567	0.244	-0.363
-304.837	-150.239	0.156	-0.012
-303.822	-158.639	-0.244	0.014
-302.807	427.310	-0.217	0.463
-301.793	56.968	0.189	0.182
-300.778	91.708	-0.216	0.240
-299.764	-100.359	-0.152	-0.037
-298.749	-95.909	0.367	-0.097
-297.735	-200.000	0.010	-0.134
-296.720	-4.260	-0.328	0.225
-295.705	50.126	0.102	-0.095
-294.691	800.000	0.023	0.066
-293.676	131.731	0.116	0.147
-292.662	626.226	0.128	0.318
-291.647	172.774	-0.216	-0.308
-290.632	1.797	0.146	0.104
-289.618	-155.110	-0.199	-0.013
-288.603	-41.458	0.203	-0.104
-287.589	-200.000	0.019	-0.156
-286.574	170.679	0.120	0.170
-285.559	-200.000	-0.101	0.527
-284.545	-54.126	0.101	-0.045
-283.530	-6.080	0.077	-0.052
-282.516	-116.528	-0.126	-0.023
-281.501	-200.000	0.012	0.219
-280.486	-143.237	0.163	-0.015
-279.472	-200.000	-0.038	0.249
-278.457	-74.950	-0.294	-0.104
-277.443	68.502	0.337	0.341
-276.428	800.000	0.053	-0.223
-275.413	-156.312	-0.363	0.022
-274.399	-144.780	0.318	0.029
-273.384	421.640	-0.136	-0.288
-272.370	97.760	-0.208	-0.236
-271.355	-160.327	0.211	-0.011
-270.340	-65.840	0.290	-0.115
-269.326	-74.444	-0.160	-0.057
-268.311	-28.862	0.183	-0.104
-267.297	-88.034	0.200	0.059
-266.282	-40.383	-0.246	-0.126
-265.267	-137.943	-0.425	0.047
-264.253	-109.343	0.225	-0.047
-263.238	-56.211	-0.181	0.079
-262.224	431.228	-0.031	0.066
-261.209	-102.595	-0.132	-0.031
-260.195	-200.000	-0.002	0.340
-259.180	141.671	0.157	0.206
-258.165	-96.213	0.421	-0.110
-257.151	-91.220	-0.411	-0.116
-256.136	-121.610	0.096	0.016
-255.122	-17.467	-0.297	-0.185
-254.107	800.000	0.019	0.061
-253.092	-120.183	0.367	-0.062
-252.078	-33.414	0.252	-0.138
-251.063	-44.075	-0.129	-0.064
-250.049	-78.838	0.319	-0.107
-249.034	50.759	-0.020	0.019
-248.019	282.040	0.129	0.228
-247.005	800.000	0.034	-0.125
-245.990	-11.134	0.141	0.092
-244.976	-200.000	-0.080	0.409
-243.961	-86.779	0.148	-0.045
-242.946	-137.727	0.403	-0.045
-241.932	-48.564	-0.339	0.161
-240.917	231.254	0.227	0.368
-239.903	-200.000	-0.069	0.000
-238.888	13.276	-0.105	0.081
-237.873	10.766	-0.211	-0.159
-236.859	800.000	-0.036	-0.112
-235.844	300.650	0.077	-0.141
-234.830	-106.814	0.073	0.016
-233.815	229.467	0.191	-0.308
-232.800	-200.000	-0.011	0.094
-231.786	-200.000	0.095	-0.574
-230.771	36.839	-0.087	0.076
-229.757	-149.577	-0.142	-0.011
-228.742	254.235	-0.138	0.233
-227.727	-75.043	0.209	0.074
-226.713	-48.088	-0.382	-0.182
-225.698	-95.383	-0.127	-0.034
-224.684	484.092	0.103	0.230
-223.669	-54.196	0.402	0.180
-222.655	-110.645	-0.260	-0.053
-221.640	282.226	-0.044	-0.077
-220.625	254.310	0.094	0.159
-219.611	395.928	-0.142	0.293
-218.596	-87.035	-0.220	-0.066
-217.582	96.467	-0.220	-0.248
-216.567	-200.000	0.024	0.139
-215.552	-110.545	-0.388	-0.079
-214.538	-173.067	0.301	-0.009
-213.523	267.703	0.037	-0.065
-212.509	-200.000	0.001	0.099
-211.494	-134.701	0.286	0.034
-210.479	148.850	-0.183	0.243
-209.465	-28.548	-0.473	0.269
-208.450	223.137	0.023	-0.037
-207.436	-74.765	-0.244	-0.086
-206.421	-200.000	-0.014	0.315
-205.406	344.719	0.084	-0.163
-204.392	83.675	-0.090	-0.096
-203.377	-68.927	0.139	0.053
-202.363	29.845	-0.250	0.210
-201.348	644.718	-0.061	0.155
-200.333	61.605	0.378	-0.371
-199.319	455.162	0.056	0.123
-198.304	-110.340	0.135	0.028
-197.290	-69.885	-0.118	-0.044
-196.275	-166.227	0.291	-0.012
-195.260	-58.621	-0.204	-0.087
-194.246	115.944	-0.253	0.305
-193.231	-103.007	-0.219	-0.051
-192.217	-200.000	0.006	-0.050
-191.202	-154.121	0.283	-0.019
-190.187	538.445	-0.123	0.289
-189.173	-200.000	-0.025	0.153
-188.158	521.597	0.075	-0.173
-187.144	262.614	0.069	0.119
-186.129	-200.000	0.037	-0.178
-185.114	17.593	-0.088	0.069
-184.100	98.753	-0.099	-0.113
-183.085	-118.368	-0.116	-0.020
-182.071	138.087	-0.151	0.194
-181.056	714.794	-0.085	0.222
-180.042	-53.885	-0.038	-0.017
-179.027	737.585	-0.045	0.118
-178.012	10.012	0.117	0.087
-176.998	-78.591	-0.151	-0.051
-175.983	86.806	-0.093	-0.101
-174.969	-188.789	0.091	-0.001
-173.954	148.468	0.084	-0.112
-172.939	344.401	0.160	0.308
-171.925	800.000	0.072	-0.266
-170.910	-135.594	-0.166	0.019
-169.896	-200.000	0.003	-0.137
-168.881	3.159	-0.292	-0.209
-167.866	157.172	0.147	0.201
-166.852	-72.944	0.314	0.114
-165.837	-144.698	-0.244	-0.022
-164.823	235.014	-0.089	-0.145
-163.808	-84.250	-0.218	0.068
-162.793	-56.330	0.322	-0.141
-161.779	141.514	0.197	0.256
-160.764	-40.841	-0.199	-0.101
-159.750	43.850	-0.232	-0.209
-158.735	58.222	-0.089	-0.086
-157.720	-177.337	0.235	0.006
-156.706	-200.000	-0.060	-0.277
-155.691	-31.155	0.194	0.108
-154.677	-200.000	-0.009	-0.334
-153.662	145.881	0.219	0.288
-152.647	-190.479	0.120	0.001
-151.633	-15.827	0.229	-0.144
-150.618	462.218	-0.037	0.080
-149.604	-160.976	0.344	-0.018
-148.589	-141.480	-0.148	-0.015
-147.574	22.646	-0.075	-0.061
-146.560	-26.517	-0.302	-0.174
-145.545	168.103	-0.230	-0.322
-144.531	-135.471	0.096	0.011
-143.516	-200.000	-0.048	0.519
-142.502	-123.143	0.061	-0.010
-141.487	-46.872	-0.283	0.136
-140.472	-43.898	-0.111	-0.055
-139.458	21.109	0.262	-0.209
-138.443	620.251	-0.007	0.017
-137.429	800.000	0.050	0.157
-136.414	153.665	-0.187	-0.252
-135.399	40.413	-0.209	0.185
-134.385	-129.765	-0.096	-0.013
-133.370	-87.993	0.079	0.023
-132.356	-15.294	-0.189	-0.119
-131.341	-177.667	0.134	-0.003
-130.326	-85.384	-0.304	0.093
-129.312	374.482	0.202	0.403
-128.297	182.129	-0.096	-0.139
-127.283	141.703	0.104	0.135
-126.268	-101.591	0.335	-0.080
-125.253	586.442	0.088	0.212
-124.239	460.726	0.087	-0.190
-123.224	13.303	-0.154	-0.117
-122.210	598.311	0.074	-0.179
