DTS Sentinel unit serial number:	SN413079Multiplexer serial number:	ORYXHardware model number:	OX4-SRSoftware version number:	ORYX F/W v4.00 Oryx Data Collector v3.7.2.0data status	okinstallation	princeton_trtdifferential loss correction	single-endedforward channel	channel 1reverse channel	N/Adate	2019/09/14time	06:34:35forward acquisition time	60.00reverse acquisition time	0.00gamma	496.2192k internal	0.2337k external	0.2337temperature offset calibration	1.0081default loss term (dB/km)	0.3790temperature slope calibration	1.0000multiplexer offset coefficient	1.0000multiplexer slope coefficient	1.0000fibre end	0.00T internal ref (°C)	26.42T ext. ref 1 (°C)	3.40T ext. ref 2 (°C)	20.35length (m)	temperature (°C)	Stokes	anti-Stokes-747.200	60.306	0.131	0.130
-746.185	-200.000	0.002	0.154
-745.171	-200.000	0.024	-0.153
-744.156	-46.334	-0.158	-0.078
-743.142	800.000	-0.053	-0.202
-742.127	-40.842	0.196	-0.102
-741.112	-114.365	0.089	0.017
-740.098	386.477	-0.083	0.171
-739.083	317.595	-0.022	0.042
-738.069	240.639	-0.185	0.310
-737.054	-110.316	0.251	0.052
-736.039	-14.277	-0.315	-0.204
-735.025	-200.000	0.084	0.437
-734.010	85.762	-0.159	0.175
-732.996	-13.516	-0.161	0.105
-731.981	800.000	0.073	-0.204
-730.966	-200.000	0.043	-0.313
-729.952	47.392	0.001	0.001
-728.937	510.584	-0.078	-0.183
-727.923	8.174	-0.182	0.137
-726.908	-134.679	-0.245	-0.030
-725.894	-136.285	0.272	-0.032
-724.879	800.000	-0.111	-0.425
-723.864	-200.000	0.058	-0.258
-722.850	607.442	0.087	-0.218
-721.835	10.393	-0.127	-0.097
-720.821	43.458	-0.088	0.080
-719.806	642.524	-0.045	-0.116
-718.791	-120.047	-0.101	0.017
-717.777	697.879	-0.136	0.358
-716.762	103.960	-0.138	-0.163
-715.748	255.907	0.027	0.046
-714.733	-154.383	0.415	0.028
-713.718	244.575	0.116	-0.195
-712.704	175.070	-0.164	0.238
-711.689	2.929	-0.115	0.084
-710.675	-10.407	-0.316	-0.210
-709.660	39.096	-0.172	0.154
-708.645	-127.147	-0.084	0.012
-707.631	800.000	-0.053	-0.221
-706.616	-158.128	-0.187	0.011
-705.602	-117.931	0.336	0.060
-704.587	-1.350	-0.238	0.168
-703.572	44.044	0.140	0.129
-702.558	342.943	0.123	-0.242
-701.543	28.598	0.088	0.074
-700.529	-200.000	-0.086	0.429
-699.514	-200.000	0.015	0.188
-698.499	-105.914	0.206	0.046
-697.485	79.598	-0.101	-0.109
-696.470	-93.954	-0.294	-0.081
-695.456	-54.200	-0.018	-0.008
-694.441	-34.288	-0.221	-0.121
-693.426	14.065	-0.264	0.206
-692.412	-200.000	0.027	0.337
-691.397	586.814	0.080	0.198
-690.383	-186.939	-0.330	-0.005
-689.368	-85.068	0.273	0.086
-688.354	-200.000	-0.029	0.162
-687.339	301.603	0.079	0.145
-686.324	-200.000	-0.002	0.248
-685.310	-32.022	-0.032	0.018
-684.295	-88.451	-0.234	-0.070
-683.281	-82.054	-0.280	0.092
-682.266	297.597	-0.020	0.036
-681.251	253.425	-0.210	-0.359
-680.237	-16.431	0.126	0.080
-679.222	31.821	0.214	0.185
-678.208	800.000	0.046	-0.161
-677.193	-42.114	-0.176	0.090
-676.178	-200.000	0.001	-0.293
-675.164	-67.837	-0.204	0.080
-674.149	-56.771	-0.212	-0.094
-673.135	-200.000	-0.010	0.162
-672.120	800.000	-0.028	0.099
-671.105	126.106	-0.090	0.113
-670.091	506.204	-0.120	0.279
-669.076	-68.105	0.109	0.043
-668.062	-80.269	-0.207	0.069
-667.047	-200.000	0.015	0.137
-666.032	156.394	-0.160	-0.221
-665.018	158.067	-0.181	0.251
-664.003	-29.725	-0.099	-0.056
-662.989	190.261	-0.103	-0.155
-661.974	-171.914	-0.174	0.006
-660.959	-93.942	0.423	-0.116
-659.945	124.411	-0.115	-0.145
-658.930	10.871	0.165	-0.126
-657.916	633.663	0.086	-0.218
-656.901	800.000	-0.050	-0.184
-655.886	-200.000	-0.009	-0.194
-654.872	-24.868	-0.255	-0.151
-653.857	-3.540	0.044	-0.031
-652.843	-134.451	-0.273	0.033
-651.828	-57.695	0.121	-0.053
-650.814	-200.000	-0.037	-0.169
-649.799	39.746	-0.087	-0.078
-648.784	800.000	-0.037	-0.160
-647.770	462.774	0.150	0.336
-646.755	41.447	0.121	0.110
-645.741	100.167	-0.106	-0.123
-644.726	374.510	0.070	0.142
-643.711	40.649	0.158	-0.142
-642.697	-36.035	-0.077	0.042
-641.682	-111.649	-0.095	-0.019
-640.668	-184.557	0.417	-0.007
-639.653	627.941	0.115	-0.290
-638.638	-29.746	-0.159	0.091
-637.624	-200.000	0.011	0.091
-636.609	260.742	-0.035	0.061
-635.595	-152.403	-0.225	-0.016
-634.580	-108.017	0.201	-0.044
-633.565	-5.686	0.160	0.109
-632.551	-9.434	-0.367	0.245
-631.536	195.776	0.087	0.132
-630.522	171.596	-0.133	-0.190
-629.507	-200.000	0.009	-0.234
-628.492	158.509	0.089	-0.124
-627.478	-146.005	0.224	0.020
-626.463	-57.078	-0.248	0.109
-625.449	97.622	0.173	-0.199
-624.434	163.386	0.146	0.206
-623.419	679.487	0.146	0.379
-622.405	-138.239	-0.125	0.014
-621.390	226.743	0.093	-0.150
-620.376	-200.000	0.015	-0.121
-619.361	800.000	-0.117	0.429
-618.346	800.000	-0.083	-0.230
-617.332	800.000	-0.033	0.123
-616.317	-40.611	-0.221	0.114
-615.303	127.679	0.189	-0.240
-614.288	-61.833	-0.295	0.123
-613.273	128.664	0.161	-0.206
-612.259	-114.016	0.226	0.044
-611.244	356.614	-0.068	-0.136
-610.230	-74.502	0.250	0.090
-609.215	-9.771	0.158	-0.105
-608.201	7.988	0.094	0.071
-607.186	-200.000	0.056	-0.245
-606.171	-61.271	-0.397	-0.167
-605.157	-42.119	0.192	-0.098
-604.142	800.000	-0.069	-0.193
-603.128	39.883	-0.190	-0.170
-602.113	87.361	-0.096	0.106
-601.098	-109.108	-0.137	0.029
-600.084	-104.031	0.105	0.024
-599.069	211.231	-0.125	0.197
-598.055	641.862	-0.069	-0.176
-597.040	-160.811	0.166	0.009
-596.025	-200.000	0.015	0.169
-595.011	109.393	0.147	-0.175
-593.996	-200.000	0.019	0.402
-592.982	-140.623	0.191	0.020
-591.967	-140.504	-0.262	0.027
-590.952	97.558	0.161	-0.184
-589.938	164.480	0.129	-0.181
-588.923	79.899	-0.024	-0.026
-587.909	6.702	0.119	-0.088
-586.894	40.013	0.205	-0.184
-585.879	-200.000	-0.017	-0.105
-584.865	-200.000	-0.047	0.319
-583.850	-53.683	-0.188	0.086
-582.836	127.608	-0.224	-0.283
-581.821	18.243	-0.114	0.091
-580.806	28.571	-0.044	0.037
-579.792	0.932	0.034	-0.024
-578.777	-20.255	0.207	0.127
-577.763	-200.000	-0.056	-0.363
-576.748	-36.531	0.245	0.132
-575.733	326.185	0.068	-0.131
-574.719	411.332	0.087	0.184
-573.704	86.772	0.067	0.074
-572.690	-65.321	0.171	0.068
-571.675	-5.623	0.088	0.060
-570.661	-200.000	-0.132	0.586
-569.646	-98.581	-0.201	-0.051
-568.631	-53.986	-0.123	0.056
-567.617	-200.000	-0.029	-0.296
-566.602	0.324	-0.348	0.247
-565.588	369.791	0.096	-0.193
-564.573	800.000	-0.045	-0.150
-563.558	-200.000	-0.020	-0.195
-562.544	62.171	-0.219	0.218
-561.529	-133.765	0.122	0.015
-560.515	190.751	-0.130	0.195
-559.500	-200.000	0.018	-0.346
-558.485	-142.825	-0.217	-0.021
-557.471	-109.107	-0.048	0.010
-556.456	-200.000	0.070	-0.313
-555.442	-34.947	-0.285	-0.155
-554.427	-100.528	0.067	0.016
-553.412	-200.000	-0.017	-0.185
-552.398	-39.053	-0.091	-0.047
-551.383	-105.442	-0.044	0.010
-550.369	234.437	0.100	-0.164
-549.354	25.493	0.184	0.153
-548.339	-4.667	-0.267	-0.183
-547.325	800.000	-0.072	0.219
-546.310	82.006	-0.080	0.087
-545.296	390.539	-0.110	-0.228
-544.281	800.000	-0.051	0.219
-543.266	99.167	0.217	0.250
-542.252	-110.060	-0.113	-0.023
-541.237	70.985	-0.021	-0.022
-540.223	-107.357	-0.185	0.041
-539.208	146.062	0.164	-0.220
-538.193	-191.880	-0.322	0.003
-537.179	275.456	-0.106	-0.188
-536.164	-166.254	-0.265	0.011
-535.150	-200.000	0.019	0.336
-534.135	-117.698	0.117	-0.021
-533.121	173.707	0.084	0.121
-532.106	-117.864	0.166	-0.030
-531.091	350.549	0.065	0.129
-530.077	57.878	0.167	0.162
-529.062	-88.659	0.158	-0.047
-528.048	-84.551	-0.077	0.024
-527.033	-200.000	-0.021	-0.126
-526.018	-29.708	0.274	0.156
-525.004	-200.000	0.000	0.364
-523.989	283.974	0.063	-0.112
-522.975	-45.092	-0.045	0.022
-521.960	-115.972	-0.215	0.040
-520.945	552.553	-0.129	-0.309
-519.931	131.573	0.249	-0.318
-518.916	-147.078	0.123	-0.010
-517.902	158.867	0.151	0.209
-516.887	-200.000	-0.022	-0.368
-515.872	-82.289	-0.077	0.025
-514.858	91.703	0.275	-0.308
-513.843	-33.886	0.234	0.128
-512.829	-157.877	0.200	0.012
-511.814	-200.000	-0.023	0.103
-510.799	38.014	0.267	-0.237
-509.785	61.183	-0.141	-0.140
-508.770	-114.151	-0.075	0.014
-507.756	-136.057	-0.197	0.023
-506.741	-146.772	0.215	-0.018
-505.726	-105.914	0.124	-0.028
-504.712	225.425	0.114	-0.183
-503.697	-186.166	0.306	-0.004
-502.683	-70.472	0.312	0.117
-501.668	61.636	0.087	-0.086
-500.653	-157.793	-0.182	0.011
-499.639	237.457	-0.106	-0.175
-498.624	176.046	0.247	0.356
-497.610	-30.147	-0.209	-0.118
-496.595	-177.431	-0.252	-0.006
-495.581	-88.743	0.196	-0.058
-494.566	-184.650	0.144	0.002
-493.551	93.966	0.248	-0.280
-492.537	-200.000	0.000	-0.068
-491.522	-107.298	-0.130	0.028
-490.508	25.526	0.164	-0.135
-489.493	-134.215	-0.227	0.028
-488.478	663.579	-0.067	0.172
-487.464	-200.000	-0.010	-0.317
-486.449	44.213	-0.045	-0.041
-485.435	381.773	-0.114	0.232
-484.420	800.000	-0.127	0.365
-483.405	118.469	0.148	-0.182
-482.391	407.965	0.114	0.241
-481.376	-200.000	-0.013	-0.119
-480.362	-132.664	-0.414	0.053
-479.347	-8.725	0.248	-0.165
-478.332	-30.848	0.230	0.129
-477.318	152.178	-0.154	0.209
-476.303	-26.181	-0.187	-0.109
-475.289	189.259	-0.174	-0.259
-474.274	-8.901	-0.371	-0.247
-473.259	402.576	-0.067	0.139
-472.245	800.000	-0.093	0.279
-471.230	497.380	-0.140	-0.321
-470.216	-200.000	0.011	-0.281
-469.201	232.603	0.076	-0.123
-468.186	-88.935	0.232	0.068
-467.172	-200.000	-0.004	0.179
-466.157	-72.152	0.311	-0.115
-465.143	-105.391	-0.368	-0.083
-464.128	142.782	-0.176	-0.233
-463.113	162.257	0.125	0.175
-462.099	398.616	0.123	-0.256
-461.084	783.945	0.031	0.083
-460.070	83.541	0.078	-0.085
-459.055	-74.674	0.129	-0.046
-458.040	-82.030	-0.019	-0.006
-457.026	-12.126	-0.124	-0.080
-456.011	204.748	0.081	0.125
-454.997	260.985	-0.115	0.198
-453.982	471.060	-0.142	-0.318
-452.968	-51.808	0.095	0.044
-451.953	800.000	0.078	-0.337
-450.938	305.982	0.098	0.181
-449.924	-200.000	-0.024	-0.120
-448.909	317.343	-0.110	0.206
-447.895	489.814	-0.095	0.216
-446.880	-105.051	0.282	0.064
-445.865	-83.103	-0.161	-0.052
-444.851	800.000	0.129	-0.384
-443.836	-86.238	-0.323	-0.099
-442.822	348.379	-0.104	0.203
-441.807	145.098	0.174	0.231
-440.792	-152.291	0.180	-0.013
-439.778	-200.000	0.063	-0.276
-438.763	-124.093	-0.266	0.041
-437.749	-92.174	0.144	0.040
-436.734	-200.000	-0.004	0.259
-435.719	-48.814	-0.419	0.199
-434.705	89.372	-0.287	-0.318
-433.690	-49.279	0.116	-0.055
-432.676	-122.225	0.267	-0.043
-431.661	-5.851	-0.156	-0.106
-430.646	-176.454	0.111	0.003
-429.632	-200.000	-0.003	0.072
-428.617	427.066	-0.044	0.093
-427.603	121.181	-0.177	0.218
-426.588	42.685	0.214	0.193
-425.573	88.021	0.167	-0.184
-424.559	-45.945	0.134	0.066
-423.544	166.078	-0.211	0.296
-422.530	152.808	0.102	-0.139
-421.515	800.000	0.019	-0.057
-420.500	1.361	-0.208	-0.148
-419.486	-54.635	0.101	0.045
-418.471	70.535	-0.094	0.096
-417.457	-200.000	-0.011	0.223
-416.442	-69.480	0.325	-0.123
-415.428	30.128	0.377	0.319
-414.413	-159.373	-0.142	-0.008
-413.398	180.542	0.192	0.279
-412.384	-59.688	-0.442	0.188
-411.369	-53.731	-0.181	-0.082
-410.355	-200.000	-0.015	0.078
-409.340	-45.535	-0.161	0.079
-408.325	-200.000	0.026	-0.246
-407.311	193.119	-0.132	-0.198
-406.296	-200.000	-0.001	0.277
-405.282	-27.024	-0.068	0.040
-404.267	12.864	-0.192	-0.147
-403.252	312.978	-0.029	0.055
-402.238	137.005	0.050	0.065
-401.223	-144.437	0.159	-0.015
-400.209	-146.568	0.164	-0.014
-399.194	800.000	0.068	0.218
-398.179	-110.401	0.070	-0.014
-397.165	182.190	-0.159	-0.232
-396.150	1.927	0.140	-0.100
-395.136	-200.000	-0.006	-0.117
-394.121	133.649	0.108	0.138
-393.106	800.000	0.157	0.467
-392.092	-200.000	0.025	0.192
-391.077	-64.795	-0.177	0.071
-390.063	-142.154	-0.050	0.005
-389.048	-200.000	-0.017	0.200
-388.033	-200.000	0.003	-0.337
-387.019	-76.777	-0.125	-0.043
-386.004	79.794	0.101	0.108
-384.990	-141.758	0.201	-0.020
-383.975	124.107	0.066	0.082
-382.960	800.000	-0.133	0.378
-381.946	-48.927	0.183	-0.087
-380.931	-200.000	-0.029	0.235
-379.917	-3.402	-0.146	-0.101
-378.902	-79.842	-0.297	-0.099
-377.888	64.664	-0.086	0.086
-376.873	800.000	0.090	0.321
-375.858	-200.000	0.002	0.068
-374.844	94.886	0.159	0.180
-373.829	-200.000	-0.021	-0.143
-372.815	800.000	0.082	0.352
-371.800	-96.543	0.126	0.033
-370.785	189.694	-0.148	0.219
-369.771	336.156	-0.060	0.115
-368.756	-89.893	-0.411	0.119
-367.742	362.447	-0.138	0.274
-366.727	-34.071	-0.047	0.026
-365.712	3.531	0.241	-0.174
-364.698	-20.881	0.304	-0.184
-363.683	800.000	0.042	0.140
-362.669	-29.904	-0.273	-0.154
-361.654	537.070	-0.055	-0.129
-360.639	-113.299	0.342	-0.067
-359.625	-200.000	0.032	0.177
-358.610	-130.284	-0.134	0.018
-357.596	17.091	-0.095	-0.074
-356.581	-115.251	0.169	-0.032
-355.566	-200.000	-0.053	-0.254
-354.552	48.944	-0.121	-0.112
-353.537	-32.157	0.165	0.091
-352.523	-200.000	0.004	0.289
-351.508	800.000	-0.097	0.317
-350.493	-200.000	-0.018	-0.605
-349.479	42.466	-0.102	0.091
-348.464	-200.000	0.054	0.266
-347.450	92.513	-0.182	0.203
-346.435	-130.987	-0.489	0.065
-345.420	800.000	0.078	-0.231
-344.406	3.108	0.238	0.171
-343.391	-200.000	-0.025	-0.333
-342.377	82.288	-0.092	-0.098
-341.362	800.000	-0.118	0.359
-340.348	592.900	0.081	0.197
-339.333	565.824	-0.011	0.027
-338.318	238.434	-0.083	0.136
-337.304	-200.000	0.005	-0.310
-336.289	234.363	0.142	-0.231
-335.275	655.663	-0.044	0.113
-334.260	-133.980	-0.144	-0.018
-333.245	-54.316	0.146	0.065
-332.231	-105.070	0.121	0.027
-331.216	55.233	0.188	0.180
-330.202	-65.660	-0.183	0.072
-329.187	-59.980	0.145	-0.061
-328.172	146.102	0.159	0.210
-327.158	800.000	-0.056	0.198
-326.143	131.802	-0.153	0.195
-325.129	85.356	-0.107	0.116
-324.114	-116.017	0.171	-0.032
-323.099	-200.000	-0.008	-0.203
-322.085	263.768	0.067	0.114
-321.070	261.033	-0.107	0.182
-320.056	32.761	-0.096	-0.082
-319.041	253.488	0.144	-0.243
-318.026	-5.898	-0.123	0.083
-317.012	-39.426	-0.101	0.052
-315.997	26.426	-0.269	-0.222
-314.983	-200.000	0.006	0.351
-313.968	377.302	-0.066	0.132
-312.953	76.343	-0.084	0.088
-311.939	12.917	-0.131	0.100
-310.924	-200.000	-0.036	0.296
-309.910	-131.977	0.152	-0.020
-308.895	446.066	-0.082	-0.178
-307.880	800.000	-0.043	0.154
-306.866	-200.000	0.007	-0.253
-305.851	-97.657	0.254	0.065
-304.837	36.396	0.012	0.011
-303.822	-200.000	0.001	-0.069
-302.807	96.739	0.355	-0.401
-301.793	-196.303	0.076	0.001
-300.778	-133.758	0.210	0.026
-299.764	29.440	-0.075	-0.063
-298.749	126.929	-0.086	0.108
-297.735	-42.691	0.257	0.129
-296.720	-103.845	-0.476	0.110
-295.705	141.394	-0.128	-0.168
-294.691	800.000	-0.097	-0.328
-293.676	396.374	0.167	-0.343
-292.662	-51.118	-0.255	0.118
-291.647	-200.000	0.001	0.420
-290.632	98.079	0.222	-0.253
-289.618	-38.766	0.205	-0.107
-288.603	-200.000	-0.001	-0.035
-287.589	725.976	0.069	0.181
-286.574	-200.000	-0.025	0.121
-285.559	800.000	-0.128	0.367
-284.545	-20.671	-0.343	0.208
-283.530	-76.587	0.242	-0.084
-282.516	-77.630	0.076	0.026
-281.501	68.642	0.159	-0.161
-280.486	128.214	0.263	-0.330
-279.472	800.000	0.068	0.218
-278.457	800.000	0.063	0.239
-277.443	-82.128	0.306	0.098
-276.428	-200.000	0.024	0.224
-275.413	140.660	0.275	-0.359
-274.399	331.361	-0.050	0.094
-273.384	-85.787	0.437	0.134
-272.370	172.010	-0.111	-0.157
-271.355	109.576	-0.173	-0.204
-270.340	56.643	-0.241	-0.231
-269.326	466.571	-0.072	0.159
-268.311	-200.000	-0.008	0.242
-267.297	33.832	0.188	0.161
-266.282	-71.795	0.163	0.060
-265.267	311.841	0.169	-0.313
-264.253	-161.872	0.268	0.013
-263.238	-200.000	0.069	0.555
-262.224	-173.792	-0.371	0.011
-261.209	-165.029	0.235	-0.010
-260.195	203.012	-0.100	-0.152
-259.180	800.000	0.017	-0.054
-258.165	-61.224	-0.336	-0.140
-257.151	-118.334	-0.136	0.024
-256.136	-147.896	0.190	-0.016
-255.122	127.261	0.122	-0.153
-254.107	-30.633	0.259	-0.145
-253.092	333.334	-0.143	-0.272
-252.078	800.000	0.140	-0.474
-251.063	-65.781	0.251	-0.099
-250.049	-200.000	-0.042	-0.367
-249.034	159.748	-0.154	-0.212
-248.019	-15.953	0.052	-0.033
-247.005	-41.888	-0.236	-0.119
-245.990	679.582	0.066	0.169
-244.976	502.747	-0.072	0.165
-243.961	328.174	-0.080	-0.152
-242.946	40.170	-0.217	-0.192
-241.932	441.397	-0.114	0.247
-240.917	37.944	-0.131	0.115
-239.903	-200.000	0.024	0.239
-238.888	104.570	-0.081	-0.093
-237.873	800.000	0.077	-0.242
-236.859	-9.382	0.161	-0.106
-235.844	-38.042	-0.232	-0.121
-234.830	200.863	-0.054	0.082
-233.815	-6.912	0.140	-0.093
-232.800	142.174	0.210	0.275
-231.786	-130.335	0.128	0.017
-230.771	-59.269	-0.241	-0.102
-229.757	298.010	0.068	-0.123
-228.742	-61.910	-0.371	0.153
-227.727	-127.180	-0.128	0.018
-226.713	658.543	-0.070	-0.178
-225.698	-200.000	-0.059	0.267
-224.684	694.032	-0.086	0.221
-223.669	-124.522	0.068	-0.010
-222.655	-135.168	0.282	-0.033
-221.640	-62.723	-0.293	0.119
-220.625	287.017	-0.101	0.179
-219.611	65.055	0.279	0.277
-218.596	15.170	0.186	0.143
-217.582	-65.912	-0.159	0.063
-216.567	-4.718	0.184	0.125
-215.552	800.000	-0.059	0.171
-214.538	-200.000	0.031	-0.372
-213.523	-200.000	-0.018	-0.247
-212.509	-23.969	-0.136	0.080
-211.494	210.528	0.139	-0.214
-210.479	-200.000	-0.003	-0.172
-209.465	-86.104	-0.303	-0.092
-208.450	-71.491	0.107	0.039
-207.436	-104.175	0.203	-0.046
-206.421	-122.285	-0.082	0.013
-205.406	800.000	0.052	0.147
-204.392	-200.000	0.002	0.096
-203.377	-200.000	0.038	-0.180
-202.363	-15.368	-0.220	-0.138
-201.348	143.918	0.048	0.063
-200.333	-14.257	-0.127	0.081
-199.319	135.387	0.040	0.051
-198.304	800.000	0.087	-0.293
-197.290	432.040	0.071	0.151
-196.275	16.275	0.181	-0.141
-195.260	-149.270	0.127	0.010
-194.246	800.000	0.063	0.207
-193.231	-103.540	0.074	-0.017
-192.217	800.000	0.067	0.184
-191.202	132.381	-0.171	0.217
-190.187	611.403	-0.106	-0.259
-189.173	-78.325	0.097	0.033
-188.158	503.605	0.076	-0.174
-187.144	-33.459	-0.031	0.017
-186.129	-83.890	-0.153	-0.048
-185.114	243.192	-0.152	0.250
-184.100	-200.000	0.034	-0.197
-183.085	-200.000	-0.007	-0.036
-182.071	-118.542	-0.150	0.026
-181.056	-82.926	0.345	0.109
-180.042	80.156	0.243	-0.257
-179.027	-135.102	-0.132	0.016
-178.012	-6.048	0.194	0.130
-176.998	13.554	-0.131	-0.100
-175.983	-99.239	0.097	-0.024
-174.969	10.248	0.073	-0.055
-173.954	-200.000	-0.021	-0.178
-172.939	-200.000	-0.004	0.061
-171.925	-100.842	-0.183	-0.044
-170.910	-44.795	0.217	-0.106
-169.896	-102.787	0.082	0.019
-168.881	-73.482	0.142	-0.051
-167.866	800.000	-0.047	-0.165
-166.852	-51.156	-0.281	-0.129
-165.837	-32.788	0.152	-0.083
-164.823	470.746	-0.160	0.352
-163.808	27.345	-0.153	-0.126
-162.793	-139.752	0.155	0.016
-161.779	754.716	0.061	0.162
-160.764	102.439	-0.132	-0.151
-159.750	-42.191	-0.462	-0.232
-158.735	-107.311	-0.233	0.050
-157.720	-92.439	0.337	-0.093
-156.706	20.242	-0.150	0.119
-155.691	-200.000	-0.054	0.267
-154.677	-200.000	0.025	-0.131
-153.662	-43.226	-0.199	-0.099
-152.647	452.729	-0.085	-0.185
-151.633	253.625	-0.151	-0.253
-150.618	605.622	0.020	0.049
-149.604	156.158	0.146	0.198
-148.589	399.954	0.100	-0.207
-147.574	129.509	-0.106	-0.133
-146.560	-22.168	0.218	0.130
-145.545	-200.000	0.023	-0.267
-144.531	-132.056	0.030	-0.004
-143.516	-149.775	-0.292	-0.022
-142.502	108.327	-0.033	0.039
-141.487	-190.858	-0.079	0.001
-140.472	-7.508	0.133	0.088
-139.458	-114.705	0.080	-0.015
-138.443	-95.513	0.133	0.035
-137.429	-162.822	-0.157	-0.007
-136.414	-102.849	-0.308	0.072
-135.399	-108.177	0.137	-0.029
-134.385	359.233	0.159	-0.311
-133.370	-71.483	-0.340	-0.125
-132.356	-163.229	-0.142	-0.007
-131.341	197.301	0.221	0.331
-130.326	-0.537	0.269	-0.187
-129.312	-171.026	-0.225	-0.007
-128.297	279.716	-0.044	0.076
-127.283	27.389	-0.103	-0.085
-126.268	5.645	-0.196	-0.142
-125.253	-20.446	0.169	0.102
-124.239	-169.342	0.061	-0.002
-123.224	-58.134	-0.420	0.179
-122.210	-49.191	0.175	0.082
-121.195	-116.805	0.545	0.098
