DTS Sentinel unit serial number:	SN413079Multiplexer serial number:	ORYXHardware model number:	OX4-SRSoftware version number:	ORYX F/W v4.00 Oryx Data Collector v3.7.2.0data status	okinstallation	princeton_trtdifferential loss correction	single-endedforward channel	channel 1reverse channel	N/Adate	2019/09/19time	13:14:35forward acquisition time	60.00reverse acquisition time	0.00gamma	496.2192k internal	0.2327k external	0.2327temperature offset calibration	1.0012default loss term (dB/km)	0.3790temperature slope calibration	1.0000multiplexer offset coefficient	1.0000multiplexer slope coefficient	1.0000fibre end	0.00T internal ref (°C)	29.34T ext. ref 1 (°C)	0.95T ext. ref 2 (°C)	27.12length (m)	temperature (°C)	Stokes	anti-Stokes-747.200	-108.654	0.278	-0.060
-746.185	-179.708	0.026	0.001
-745.171	800.000	-0.017	0.058
-744.156	800.000	-0.021	-0.077
-743.142	305.396	-0.054	0.101
-742.127	491.397	-0.020	0.046
-741.112	337.138	-0.072	0.142
-740.098	800.000	0.036	0.129
-739.083	-124.315	0.306	0.048
-738.069	-51.927	-0.185	0.087
-737.054	78.674	-0.237	0.255
-736.039	800.000	0.087	0.315
-735.025	190.656	-0.016	0.025
-734.010	120.048	0.209	-0.261
-732.996	162.183	0.127	-0.179
-731.981	-53.820	-0.362	0.167
-730.966	-200.000	-0.014	0.120
-729.952	133.186	0.075	-0.097
-728.937	0.229	0.061	-0.044
-727.923	800.000	0.057	-0.202
-726.908	-90.628	-0.316	-0.092
-725.894	-200.000	0.011	0.129
-724.879	67.884	-0.129	0.133
-723.864	398.956	0.141	0.298
-722.850	-200.000	-0.013	0.327
-721.835	-200.000	-0.042	-0.236
-720.821	-147.503	-0.240	0.020
-719.806	-69.462	-0.228	0.088
-718.791	9.007	-0.225	-0.171
-717.777	-200.000	0.033	-0.338
-716.762	260.775	0.092	-0.160
-715.748	800.000	-0.163	-0.457
-714.733	-200.000	-0.003	-0.169
-713.718	5.889	0.162	0.121
-712.704	800.000	0.107	-0.317
-711.689	800.000	-0.063	-0.221
-710.675	-67.951	0.066	-0.026
-709.660	740.362	-0.035	-0.094
-708.645	-200.000	-0.014	-0.408
-707.631	800.000	-0.012	0.054
-706.616	30.962	-0.154	0.133
-705.602	288.766	-0.066	0.120
-704.587	-68.167	-0.413	0.162
-703.572	249.478	-0.302	0.515
-702.558	-15.662	0.199	-0.128
-701.543	614.237	0.196	-0.494
-700.529	397.439	-0.131	0.275
-699.514	-25.910	0.337	0.200
-698.499	-124.469	-0.356	-0.056
-697.485	-200.000	0.067	-0.428
-696.470	-200.000	-0.042	-0.276
-695.456	86.215	-0.058	-0.064
-694.441	800.000	0.071	-0.288
-693.426	176.951	-0.188	-0.275
-692.412	-200.000	0.056	-0.328
-691.397	-200.000	-0.064	-0.429
-690.383	-43.523	-0.229	-0.116
-689.368	583.389	-0.013	0.032
-688.354	-83.223	-0.391	0.126
-687.339	-157.554	-0.059	0.004
-686.324	-200.000	-0.023	-0.513
-685.310	-200.000	0.014	-0.296
-684.295	-35.745	0.262	-0.143
-683.281	-200.000	0.029	-0.151
-682.266	-151.056	-0.265	-0.020
-681.251	-200.000	0.070	-0.308
-680.237	737.610	0.013	-0.034
-679.222	-200.000	-0.010	0.294
-678.208	380.963	0.043	0.088
-677.193	-75.251	-0.360	-0.129
-676.178	179.213	-0.040	0.059
-675.164	-200.000	-0.022	0.172
-674.149	186.384	-0.108	-0.162
-673.135	450.445	0.112	0.249
-672.120	-89.357	0.176	-0.052
-671.105	237.676	0.133	-0.222
-670.091	-35.816	-0.167	0.091
-669.076	-6.186	-0.221	0.152
-668.062	-131.204	-0.081	-0.011
-667.047	-200.000	-0.004	0.044
-666.032	166.601	0.025	0.036
-665.018	-182.106	0.156	0.003
-664.003	-200.000	0.044	-0.219
-662.989	-18.666	-0.084	-0.053
-661.974	231.706	0.049	0.080
-660.959	-178.904	0.268	-0.006
-659.945	135.876	-0.150	0.197
-658.930	-160.920	0.329	-0.017
-657.916	-88.742	-0.153	-0.046
-656.901	115.985	-0.027	-0.033
-655.886	505.835	-0.042	-0.098
-654.872	196.785	0.096	-0.147
-653.857	317.138	-0.059	0.112
-652.843	-65.275	-0.106	-0.043
-651.828	-152.726	-0.151	0.011
-650.814	-200.000	0.020	0.107
-649.799	-200.000	0.007	-0.403
-648.784	76.498	-0.360	0.383
-647.770	-35.624	0.135	0.074
-646.755	800.000	-0.063	-0.259
-645.741	755.244	-0.152	-0.413
-644.726	67.722	0.144	0.148
-643.711	-76.405	0.202	-0.071
-642.697	-200.000	0.062	0.467
-641.682	271.515	0.096	-0.169
-640.668	4.228	0.340	-0.250
-639.653	190.224	0.097	0.147
-638.638	295.764	0.102	0.188
-637.624	24.413	0.253	0.210
-636.609	-143.371	-0.173	-0.017
-635.595	-177.438	-0.195	-0.005
-634.580	-140.599	-0.139	0.015
-633.565	800.000	-0.056	-0.158
-632.551	331.238	-0.232	-0.450
-631.536	315.280	0.058	-0.110
-630.522	-63.013	0.239	-0.099
-629.507	75.028	-0.235	0.249
-628.492	-54.825	-0.269	0.122
-627.478	800.000	0.009	0.037
-626.463	-70.153	-0.184	0.070
-625.449	800.000	0.086	0.350
-624.434	24.532	0.089	0.074
-623.419	326.173	0.060	-0.116
-622.405	-137.206	0.180	0.021
-621.390	110.471	-0.134	0.162
-620.376	-147.133	0.056	-0.005
-619.361	-91.652	-0.476	0.136
-618.346	201.386	0.121	0.186
-617.332	-200.000	-0.002	-0.309
-616.317	-42.766	0.269	0.137
-615.303	-83.910	-0.051	0.016
-614.288	-20.782	-0.136	0.084
-613.273	-200.000	0.037	-0.353
-612.259	-0.025	-0.259	-0.185
-611.244	800.000	-0.048	-0.133
-610.230	-29.000	-0.282	-0.163
-609.215	421.928	-0.082	-0.176
-608.201	-3.149	0.246	-0.172
-607.186	438.951	-0.122	0.268
-606.171	43.263	-0.313	0.287
-605.157	-34.580	0.263	0.144
-604.142	424.568	-0.015	-0.032
-603.128	29.128	0.178	0.152
-602.113	-84.360	-0.166	-0.053
-601.098	800.000	0.134	0.547
-600.084	23.635	-0.065	0.053
-599.069	348.256	-0.097	-0.192
-598.055	800.000	-0.066	-0.275
-597.040	-200.000	0.033	-0.310
-596.025	178.569	-0.084	0.124
-595.011	-72.484	-0.215	0.080
-593.996	-9.891	0.031	0.021
-592.982	287.014	0.040	-0.072
-591.967	-110.199	-0.228	-0.048
-590.952	800.000	-0.050	-0.166
-589.938	39.775	0.155	0.140
-588.923	800.000	0.071	0.265
-587.909	-200.000	-0.012	-0.085
-586.894	93.190	0.075	-0.086
-585.879	149.413	-0.197	0.267
-584.865	407.976	0.004	0.009
-583.850	-200.000	0.019	-0.092
-582.836	-200.000	0.003	-0.017
-581.821	800.000	-0.032	0.102
-580.806	800.000	-0.068	-0.215
-579.792	-184.268	0.190	-0.003
-578.777	274.656	0.256	0.454
-577.763	-200.000	0.052	0.230
-576.748	92.770	-0.202	-0.228
-575.733	-30.434	-0.206	-0.117
-574.719	-123.817	0.282	-0.045
-573.704	130.982	-0.019	0.025
-572.690	-11.908	-0.222	0.146
-571.675	-118.030	0.127	0.023
-570.661	489.733	0.063	0.145
-569.646	26.555	0.163	-0.137
-568.631	215.262	0.076	-0.121
-567.617	165.463	-0.042	0.059
-566.602	339.897	0.075	-0.147
-565.588	-6.990	-0.111	-0.076
-564.573	-72.643	0.159	-0.059
-563.558	-137.522	0.132	0.015
-562.544	-57.859	-0.113	0.049
-561.529	149.469	0.110	-0.149
-560.515	8.655	-0.192	-0.145
-559.500	-78.790	-0.268	0.092
-558.485	215.538	-0.089	-0.142
-557.471	-200.000	-0.039	-0.549
-556.456	-85.474	0.120	-0.037
-555.442	-39.379	-0.162	-0.085
-554.427	-200.000	-0.015	0.211
-553.412	-17.008	0.018	0.012
-552.398	800.000	-0.033	0.113
-551.383	-200.000	0.024	-0.445
-550.369	111.089	0.305	0.368
-549.354	-49.309	-0.068	-0.033
-548.339	-200.000	0.041	0.313
-547.325	364.757	-0.121	0.243
-546.310	-4.606	0.408	-0.281
-545.296	800.000	-0.082	-0.254
-544.281	-200.000	0.040	-0.292
-543.266	-86.108	-0.363	0.112
-542.252	228.150	0.122	-0.199
-541.237	-80.859	0.337	0.112
-540.223	-200.000	0.020	-0.152
-539.208	-20.674	-0.181	-0.111
-538.193	61.103	-0.106	-0.105
-537.179	-161.569	-0.225	0.012
-536.164	-70.688	0.120	-0.045
-535.150	13.701	0.168	0.130
-534.135	51.222	0.068	-0.064
-533.121	-200.000	0.007	-0.141
-532.106	234.691	-0.125	-0.207
-531.091	-100.986	-0.202	-0.050
-530.077	61.761	-0.329	0.327
-529.062	-100.913	-0.147	-0.036
-528.048	-14.873	0.196	-0.126
-527.033	319.406	0.140	-0.266
-526.018	-200.000	0.048	0.407
-525.004	-92.992	-0.262	0.073
-523.989	-171.123	0.085	-0.003
-522.975	-63.407	-0.301	0.124
-521.960	252.619	-0.056	-0.095
-520.945	58.682	0.294	0.289
-519.931	4.466	-0.233	0.171
-518.916	-112.626	0.341	-0.068
-517.902	-6.094	-0.132	-0.090
-516.887	-114.553	0.341	0.065
-515.872	800.000	0.049	0.141
-514.858	93.246	0.018	0.020
-513.843	60.604	0.019	-0.019
-512.829	800.000	0.009	0.025
-511.814	-200.000	0.044	0.324
-510.799	-72.538	0.134	-0.049
-509.785	286.725	-0.187	-0.337
-508.770	94.075	-0.194	-0.220
-507.756	-200.000	-0.021	-0.167
-506.741	20.441	-0.075	0.061
-505.726	-74.987	-0.345	0.123
-504.712	-128.270	0.267	-0.038
-503.697	-200.000	0.016	0.084
-502.683	-20.650	0.214	-0.131
-501.668	-200.000	-0.071	-0.373
-500.653	-200.000	-0.016	-0.082
-499.639	-129.273	-0.267	0.037
-498.624	-200.000	-0.030	-0.198
-497.610	-200.000	0.061	-0.349
-496.595	22.527	0.194	-0.158
-495.581	357.025	0.155	0.308
-494.566	-200.000	-0.000	-0.059
-493.551	-74.361	-0.238	-0.086
-492.537	-125.272	-0.163	-0.025
-491.522	389.436	-0.097	0.201
-490.508	728.742	-0.038	0.102
-489.493	-143.280	-0.320	0.031
-488.478	313.014	-0.081	0.152
-487.464	173.837	-0.125	-0.180
-486.449	-44.446	-0.220	-0.110
-485.435	-16.126	0.201	0.128
-484.420	-200.000	0.010	-0.395
-483.405	-200.000	0.025	0.172
-482.391	800.000	0.063	0.226
-481.376	316.263	-0.090	0.169
-480.362	800.000	-0.025	0.074
-479.347	-106.391	-0.235	-0.052
-478.332	-123.757	-0.139	-0.022
-477.318	-39.843	-0.105	0.055
-476.303	-35.340	0.158	0.086
-475.289	-13.876	-0.246	0.159
-474.274	800.000	-0.011	0.038
-473.259	-143.899	-0.297	-0.028
-472.245	-99.528	-0.220	-0.055
-471.230	12.684	-0.227	-0.175
-470.216	800.000	-0.013	-0.051
-469.201	-9.787	-0.127	-0.084
-468.186	376.696	-0.115	0.234
-467.172	-188.114	-0.248	-0.003
-466.157	-11.776	-0.373	-0.244
-465.143	44.672	-0.193	0.177
-464.128	-86.562	0.321	-0.098
-463.113	110.242	0.174	0.209
-462.099	-19.561	-0.344	0.212
-461.084	370.863	-0.100	-0.201
-460.070	120.345	-0.223	-0.276
-459.055	252.112	0.265	0.449
-458.040	-162.247	-0.379	-0.019
-457.026	383.195	-0.104	0.214
-456.011	732.384	-0.077	0.205
-454.997	-200.000	-0.042	-0.287
-453.982	133.933	0.129	-0.166
-452.968	142.522	-0.033	0.044
-451.953	3.415	-0.079	-0.057
-450.938	-200.000	0.028	-0.240
-449.924	-27.839	-0.029	0.017
-448.909	-72.918	-0.331	-0.121
-447.895	-19.556	0.359	-0.222
-446.880	638.252	-0.022	-0.057
-445.865	-81.880	-0.285	-0.093
-444.851	94.955	-0.083	0.094
-443.836	-161.611	0.006	-0.000
-442.822	36.514	0.250	-0.220
-441.807	84.870	0.242	-0.265
-440.792	187.824	-0.141	-0.210
-439.778	20.391	-0.315	-0.254
-438.763	800.000	-0.084	-0.368
-437.749	394.417	0.005	0.010
-436.734	-200.000	-0.052	-0.350
-435.719	-111.920	-0.180	0.036
-434.705	-200.000	0.017	0.340
-433.690	262.252	0.117	-0.201
-432.676	-127.672	-0.163	-0.023
-431.661	-99.496	0.148	0.037
-430.646	-63.726	0.381	0.155
-429.632	-141.725	0.239	-0.024
-428.617	-200.000	-0.019	-0.335
-427.603	800.000	-0.078	-0.280
-426.588	324.086	0.063	-0.119
-425.573	-153.865	0.141	0.010
-424.559	8.445	0.201	-0.150
-423.544	124.060	-0.105	0.131
-422.530	219.949	-0.099	0.158
-421.515	-68.505	0.404	-0.156
-420.500	-133.390	0.264	0.033
-419.486	-14.999	0.119	-0.076
-418.471	187.391	-0.107	0.160
-417.457	43.487	-0.049	0.045
-416.442	756.630	-0.068	0.183
-415.428	55.738	0.324	0.313
-414.413	-200.000	0.003	0.317
-413.398	116.609	-0.146	0.178
-412.384	-18.653	0.101	0.063
-411.369	-73.529	0.165	-0.060
-410.355	-23.726	0.492	-0.293
-409.340	-134.918	-0.012	0.001
-408.325	23.425	0.322	0.264
-407.311	-23.770	-0.172	-0.102
-406.296	57.461	-0.142	-0.138
-405.282	231.492	-0.213	0.347
-404.267	-200.000	-0.018	0.104
-403.252	-200.000	-0.001	0.078
-402.238	-32.531	-0.044	-0.025
-401.223	674.125	0.055	0.143
-400.209	473.869	0.107	-0.240
-399.194	-77.648	0.306	0.105
-398.179	30.319	0.096	-0.082
-397.165	63.764	-0.180	0.180
-396.150	-1.432	0.232	-0.163
-395.136	-137.590	0.258	-0.029
-394.121	-38.155	0.247	0.131
-393.106	-200.000	-0.005	-0.295
-392.092	90.253	0.170	-0.189
-391.077	-0.027	-0.139	-0.099
-390.063	-200.000	-0.005	-0.056
-389.048	105.084	0.253	0.297
-388.033	293.987	0.056	-0.103
-387.019	221.338	0.145	0.231
-386.004	783.802	-0.143	-0.391
-384.990	-57.572	-0.252	-0.110
-383.975	185.383	0.064	0.095
-382.960	10.682	0.062	0.047
-381.946	608.298	0.062	0.153
-380.931	-116.817	-0.316	0.058
-379.917	16.602	0.114	-0.089
-378.902	567.389	0.123	0.296
-377.888	-18.008	-0.122	-0.076
-376.873	800.000	-0.013	0.048
-375.858	44.358	0.315	0.288
-374.844	-87.409	0.288	-0.087
-373.829	152.414	0.161	-0.219
-372.815	61.186	-0.064	-0.064
-371.800	-135.978	0.171	0.020
-370.785	532.710	-0.032	0.075
-369.771	-160.827	0.103	-0.005
-368.756	-81.932	-0.102	0.033
-367.742	-47.747	0.190	-0.091
-366.727	782.203	-0.040	-0.108
-365.712	245.078	-0.171	0.286
-364.698	-56.199	0.116	0.051
-363.683	-71.602	0.199	0.074
-362.669	104.290	-0.209	-0.245
-361.654	77.408	-0.183	-0.194
-360.639	-200.000	0.042	-0.246
-359.625	-27.310	-0.258	-0.149
-358.610	12.974	-0.194	-0.149
-357.596	-200.000	-0.075	0.358
-356.581	60.184	-0.321	0.315
-355.566	39.558	0.108	-0.096
-354.552	-200.000	-0.033	-0.180
-353.537	-126.128	0.307	0.046
-352.523	68.413	-0.053	-0.054
-351.508	800.000	0.032	-0.100
-350.493	-92.850	-0.138	0.038
-349.479	573.031	-0.126	0.306
-348.464	-28.269	0.285	0.163
-347.450	-200.000	-0.004	-0.290
-346.435	82.377	-0.267	0.288
-345.420	800.000	0.045	0.184
-344.406	226.282	-0.085	-0.136
-343.391	800.000	-0.056	-0.177
-342.377	-11.912	0.280	-0.182
-341.362	389.148	0.088	-0.181
-340.348	262.522	-0.175	-0.301
-339.333	800.000	-0.061	-0.188
-338.318	23.228	-0.118	-0.096
-337.304	58.524	-0.057	-0.055
-336.289	-106.535	-0.053	-0.012
-335.275	-200.000	0.041	0.256
-334.260	253.640	-0.081	-0.138
-333.245	-129.609	0.555	-0.076
-332.231	58.921	0.255	-0.248
-331.216	42.342	-0.246	-0.222
-330.202	-200.000	-0.020	0.253
-329.187	-200.000	0.001	-0.166
-328.172	800.000	0.040	0.144
-327.158	80.794	-0.067	0.071
-326.143	433.104	-0.066	-0.141
-325.129	-79.246	-0.249	-0.084
-324.114	-8.943	0.148	-0.098
-323.099	-141.625	-0.225	-0.022
-322.085	179.763	0.100	0.146
-321.070	800.000	0.089	0.287
-320.056	-131.213	-0.156	-0.020
-319.041	375.007	-0.072	0.145
-318.026	-200.000	0.485	-0.000
-317.012	275.736	0.164	0.289
-315.997	-91.587	-0.200	-0.056
-314.983	-65.359	0.012	-0.005
-313.968	190.284	0.140	0.209
-312.953	-200.000	0.029	0.133
-311.939	22.016	0.110	-0.089
-310.924	-70.822	-0.195	0.073
-309.910	-200.000	-0.007	-0.383
-308.895	145.126	-0.111	-0.147
-307.880	-200.000	0.012	-0.200
-306.866	-12.339	-0.110	0.071
-305.851	-20.245	-0.252	-0.154
-304.837	-65.262	-0.228	-0.091
-303.822	-112.275	-0.482	0.096
-302.807	255.965	-0.117	0.198
-301.793	214.280	-0.261	0.410
-300.778	403.280	-0.093	0.193
-299.764	163.979	-0.133	0.185
-298.749	-200.000	0.031	0.143
-297.735	281.506	0.120	-0.213
-296.720	262.861	-0.113	-0.194
-295.705	779.008	0.045	-0.121
-294.691	114.363	-0.237	-0.286
-293.676	38.858	0.303	-0.268
-292.662	-200.000	0.016	-0.072
-291.647	800.000	-0.085	0.247
-290.632	-111.594	0.182	-0.037
-289.618	601.279	0.061	0.149
-288.603	-200.000	0.008	0.197
-287.589	395.714	-0.085	0.176
-286.574	50.008	-0.257	0.240
-285.559	800.000	0.138	0.476
-284.545	-41.907	0.282	0.143
-283.530	274.470	-0.321	-0.562
-282.516	261.226	0.216	-0.370
-281.501	800.000	0.092	0.363
-280.486	-117.002	-0.181	0.033
-279.472	123.408	0.082	-0.102
-278.457	66.342	-0.027	-0.027
-277.443	-109.592	0.266	-0.056
-276.428	-85.816	0.188	0.058
-275.413	416.273	0.163	-0.344
-274.399	95.163	-0.144	0.162
-273.384	-153.744	-0.395	-0.027
-272.370	-57.146	-0.138	0.060
-271.355	-28.333	0.172	-0.098
-270.340	467.937	-0.036	0.081
-269.326	554.448	-0.151	0.359
-268.311	-200.000	0.081	0.407
-267.297	293.552	0.275	0.496
-266.282	-200.000	-0.073	-0.334
-265.267	-200.000	0.022	-0.378
-264.253	-200.000	-0.011	-0.096
-263.238	49.843	-0.093	0.086
-262.224	-200.000	-0.007	0.175
-261.209	382.676	0.203	-0.413
-260.195	7.902	-0.100	0.074
-259.180	193.235	-0.030	0.045
-258.165	92.946	-0.253	0.282
-257.151	-200.000	0.163	-0.000
-256.136	-200.000	0.026	0.142
-255.122	-200.000	-0.027	0.285
-254.107	-1.619	-0.125	-0.087
-253.092	-100.405	-0.258	-0.063
-252.078	166.201	-0.025	-0.035
-251.063	63.859	0.327	0.325
-250.049	-95.070	0.354	0.094
-249.034	169.793	0.204	0.288
-248.019	-200.000	-0.009	-0.075
-247.005	-130.094	-0.275	0.037
-245.990	800.000	0.102	-0.348
-244.976	-174.311	0.217	0.006
-243.961	107.450	0.095	-0.112
-242.946	78.555	-0.223	0.235
-241.932	-45.723	0.128	0.063
-240.917	-200.000	-0.013	-0.173
-239.903	384.375	0.087	0.176
-238.888	-69.144	0.374	0.142
-237.873	37.924	0.022	0.019
-236.859	117.424	-0.041	0.049
-235.844	-200.000	-0.007	-0.313
-234.830	650.751	-0.097	-0.244
-233.815	277.513	-0.143	-0.251
-232.800	46.961	0.054	0.049
-231.786	-200.000	-0.009	0.130
-230.771	-46.233	0.117	-0.057
-229.757	-200.000	0.037	-0.226
-228.742	-200.000	0.001	-0.046
-227.727	-57.839	0.339	0.146
-226.713	752.194	-0.096	-0.256
-225.698	18.165	0.235	0.185
-224.684	-63.369	-0.078	-0.032
-223.669	-37.767	0.344	0.181
-222.655	-200.000	-0.052	0.331
-221.640	737.757	-0.093	-0.246
-220.625	-17.702	-0.325	-0.202
-219.611	-177.934	0.122	-0.003
-218.596	-85.025	-0.325	0.101
-217.582	-104.669	-0.200	0.045
-216.567	22.387	0.309	-0.249
-215.552	469.075	0.067	-0.148
-214.538	-62.320	0.394	-0.162
-213.523	-135.395	0.160	-0.019
-212.509	321.723	0.092	-0.173
-211.494	800.000	0.040	-0.148
-210.479	-173.222	0.301	-0.009
-209.465	123.473	-0.172	0.213
-208.450	-28.813	0.236	0.134
-207.436	-1.410	0.024	0.017
-206.421	800.000	-0.051	-0.211
-205.406	-200.000	0.027	-0.195
-204.392	-35.181	-0.272	0.146
-203.377	-72.969	-0.030	-0.011
-202.363	32.123	0.076	-0.065
-201.348	-51.413	0.350	-0.161
-200.333	-200.000	-0.068	0.328
-199.319	-136.039	0.279	-0.032
-198.304	-132.818	-0.076	0.010
-197.290	-200.000	-0.005	0.214
-196.275	-200.000	0.041	0.257
-195.260	-0.532	-0.068	0.047
-194.246	-200.000	0.076	-0.479
-193.231	34.838	-0.177	-0.153
-192.217	800.000	-0.128	0.386
-191.202	3.700	-0.262	0.189
-190.187	-54.460	0.208	0.093
-189.173	404.318	-0.101	0.209
-188.158	93.070	-0.137	0.152
-187.144	543.512	0.121	0.285
-186.129	-200.000	0.416	0.000
-185.114	63.065	0.271	0.268
-184.100	-200.000	0.023	0.375
-183.085	-87.297	-0.251	0.075
-182.071	237.304	0.150	0.245
-181.056	-62.375	0.271	0.111
-180.042	103.622	-0.127	0.147
-179.027	-169.567	-0.258	-0.009
-178.012	29.108	0.333	-0.278
-176.998	-143.424	0.199	-0.019
-175.983	-114.003	0.050	0.010
-174.969	-139.658	-0.307	-0.032
-173.954	102.015	-0.137	-0.158
-172.939	-76.860	0.105	-0.036
-171.925	800.000	0.098	0.369
-170.910	-200.000	-0.011	0.260
-169.896	800.000	0.149	0.487
-168.881	161.246	-0.082	-0.114
-167.866	800.000	-0.055	-0.184
-166.852	522.541	0.034	-0.079
-165.837	-200.000	0.023	-0.177
-164.823	-139.084	0.191	0.020
-163.808	-171.241	0.227	0.008
-162.793	271.018	0.139	0.241
-161.779	-82.900	0.236	-0.075
-160.764	-44.493	-0.406	-0.200
-159.750	104.772	0.396	0.460
-158.735	-39.889	-0.151	-0.077
-157.720	800.000	0.034	0.109
-156.706	-148.490	-0.310	-0.025
-155.691	800.000	-0.038	-0.138
-154.677	-112.039	0.109	-0.022
-153.662	54.397	-0.144	-0.137
-152.647	-29.120	0.175	0.099
-151.633	-20.834	0.072	0.043
-150.618	132.950	0.068	-0.087
-149.604	800.000	-0.048	0.201
-148.589	-200.000	-0.058	-0.377
-147.574	-200.000	-0.357	-0.001
-146.560	-61.059	-0.139	0.058
-145.545	291.500	0.284	0.510
-144.531	150.930	-0.074	-0.100
-143.516	-34.667	-0.070	-0.038
-142.502	-65.775	-0.095	0.038
-141.487	293.203	0.026	-0.047
-140.472	-50.982	0.359	0.166
-139.458	-83.875	0.064	-0.020
-138.443	238.156	0.016	-0.026
-137.429	-200.000	0.043	0.378
-136.414	-141.588	0.060	-0.006
-135.399	-44.463	-0.276	-0.136
-134.385	74.138	0.149	-0.154
-133.370	119.982	0.068	-0.083
-132.356	-22.201	-0.185	-0.111
-131.341	-87.386	-0.255	-0.076
-130.326	-9.156	0.127	0.084
-129.312	-85.647	0.041	0.012
-128.297	221.554	-0.145	-0.230
-127.283	168.275	0.282	0.396
-126.268	-38.525	0.160	0.083
-125.253	-38.225	0.145	-0.075
-124.239	-200.000	-0.009	0.139
-123.224	324.350	0.185	0.347
-122.210	66.647	-0.203	0.203
