DTS Sentinel unit serial number:	SN413079Multiplexer serial number:	ORYXHardware model number:	OX4-SRSoftware version number:	ORYX F/W v4.00 Oryx Data Collector v3.7.2.0data status	okinstallation	princeton_trtdifferential loss correction	single-endedforward channel	channel 1reverse channel	N/Adate	2019/09/12time	19:30:34forward acquisition time	15.00reverse acquisition time	0.00gamma	496.2192k internal	0.2321k external	0.2321temperature offset calibration	1.0125default loss term (dB/km)	0.3790temperature slope calibration	1.0000multiplexer offset coefficient	1.0000multiplexer slope coefficient	1.0000fibre end	0.00T internal ref (°C)	32.25T ext. ref 1 (°C)	3.21T ext. ref 2 (°C)	26.76length (m)	temperature (°C)	Stokes	anti-Stokes-747.200	-85.520	0.155	-0.049
-746.185	98.018	-0.552	0.642
-745.171	-86.045	0.182	0.057
-744.156	-93.469	-0.635	0.178
-743.142	800.000	-0.099	-0.299
-742.127	-93.263	0.771	0.216
-741.112	-137.692	0.581	-0.066
-740.098	-200.000	0.107	0.514
-739.083	10.799	-0.684	-0.528
-738.069	99.218	0.435	-0.508
-737.054	-143.390	-1.028	-0.099
-736.039	-200.000	-0.015	-0.136
-735.025	800.000	-0.074	-0.271
-734.010	-14.611	0.210	-0.136
-732.996	-77.883	-0.034	-0.012
-731.981	-145.864	0.064	-0.006
-730.966	112.697	0.459	-0.561
-729.952	46.944	0.043	0.041
-728.937	140.230	0.289	-0.384
-727.923	35.896	-0.219	-0.194
-726.908	-62.378	-0.293	-0.123
-725.894	-62.914	0.696	-0.291
-724.879	-103.903	-0.852	-0.201
-723.864	-13.679	-0.914	0.598
-722.850	-137.419	-0.872	-0.100
-721.835	-111.377	0.771	0.159
-720.821	800.000	-0.080	-0.261
-719.806	104.596	0.674	-0.802
-718.791	-200.000	0.004	-0.189
-717.777	-87.451	-0.606	-0.185
-716.762	-97.393	-0.190	0.050
-715.748	-200.000	-0.035	0.174
-714.733	-34.855	-0.199	0.110
-713.718	-85.883	0.232	0.072
-712.704	96.436	-0.317	-0.366
-711.689	106.273	0.262	0.313
-710.675	2.588	-0.716	-0.524
-709.660	-200.000	0.310	0.002
-708.645	57.395	-0.157	-0.155
-707.631	-200.000	-0.097	0.871
-706.616	22.902	-0.236	0.196
-705.602	-37.460	-0.549	0.296
-704.587	320.002	-0.564	-1.080
-703.572	120.485	-0.543	-0.681
-702.558	-200.000	0.149	1.174
-701.543	23.576	-0.704	-0.585
-700.529	-91.216	0.231	-0.067
-699.514	150.355	0.354	0.485
-698.499	800.000	-0.094	0.304
-697.485	91.612	-0.636	-0.722
-696.470	107.426	-0.442	0.531
-695.456	-132.761	-0.153	0.020
-694.441	-200.000	-0.243	1.328
-693.426	-9.778	0.405	0.272
-692.412	-71.069	-0.794	-0.301
-691.397	800.000	0.241	-0.835
-690.383	-37.662	-0.598	0.321
-689.368	-11.782	-0.466	-0.309
-688.354	171.161	0.300	-0.435
-687.339	-151.249	-0.483	-0.036
-686.324	160.874	0.014	-0.020
-685.310	-200.000	0.003	0.279
-684.295	800.000	0.153	-0.539
-683.281	-66.809	-0.566	-0.226
-682.266	-200.000	0.000	-0.710
-681.251	362.619	0.259	0.525
-680.237	518.628	0.075	0.177
-679.222	800.000	-0.165	0.505
-678.208	-42.223	0.216	-0.111
-677.193	327.116	0.448	0.866
-676.178	-200.000	-0.113	-0.551
-675.164	-30.541	0.287	0.164
-674.149	-149.524	-0.546	0.044
-673.135	110.465	0.424	0.513
-672.120	-66.308	-0.542	-0.217
-671.105	37.228	-0.744	-0.664
-670.091	-175.589	-1.312	0.036
-669.076	631.747	0.298	0.761
-668.062	-163.855	-0.144	0.007
-667.047	-95.856	-0.553	-0.149
-666.032	221.251	-0.092	0.149
-665.018	-76.281	0.350	0.124
-664.003	-17.796	0.894	0.565
-662.989	102.092	0.133	-0.156
-661.974	-127.259	1.096	0.161
-660.959	-161.361	0.066	0.003
-659.945	99.585	-0.482	0.562
-658.930	-87.172	0.277	-0.085
-657.916	163.037	0.210	0.297
-656.901	404.945	0.085	-0.180
-655.886	-62.249	0.836	-0.351
-654.872	53.234	0.161	0.155
-653.857	549.270	-0.351	-0.847
-652.843	-145.276	0.572	0.052
-651.828	270.849	-0.153	-0.271
-650.814	-200.000	0.079	0.560
-649.799	-86.507	-0.510	-0.158
-648.784	26.427	-0.076	0.064
-647.770	-98.511	0.230	0.059
-646.755	-46.308	-0.479	-0.237
-645.741	-22.624	0.581	0.354
-644.726	-9.585	0.545	-0.366
-643.711	116.037	0.185	-0.229
-642.697	32.062	0.344	-0.299
-641.682	767.338	0.264	-0.722
-640.668	-200.000	0.136	0.657
-639.653	-200.000	-0.095	-0.548
-638.638	-131.432	-0.218	-0.029
-637.624	-87.947	0.529	0.160
-636.609	61.651	-0.007	0.007
-635.595	212.472	-0.135	-0.214
-634.580	36.024	0.336	-0.297
-633.565	85.224	-0.304	0.335
-632.551	78.938	0.195	-0.210
-631.536	800.000	0.351	-0.990
-630.522	-40.656	-0.090	-0.047
-629.507	-58.134	0.332	0.146
-628.492	-62.803	-0.594	0.248
-627.478	-200.000	-0.039	0.214
-626.463	800.000	-0.317	0.894
-625.449	54.813	0.045	0.043
-624.434	-4.639	-0.356	0.247
-623.419	146.464	0.321	-0.434
-622.405	-200.000	0.127	0.000
-621.390	249.144	-0.401	0.684
-620.376	77.095	-0.401	0.429
-619.361	-69.444	-0.155	-0.060
-618.346	-87.201	0.639	-0.195
-617.332	-200.000	-0.014	-0.200
-616.317	23.610	0.471	-0.390
-615.303	-57.020	0.317	0.141
-614.288	-9.206	-0.466	0.314
-613.273	389.031	0.608	1.266
-612.259	97.448	0.327	-0.378
-611.244	-137.882	-0.898	0.101
-610.230	33.779	0.579	-0.507
-609.215	-2.506	-0.466	0.328
-608.201	17.917	-0.513	-0.411
-607.186	-200.000	-0.015	0.489
-606.171	800.000	0.278	-0.887
-605.157	-76.428	0.993	0.351
-604.142	103.851	-0.411	0.485
-603.128	-85.132	-0.262	-0.082
-602.113	-22.447	0.327	-0.199
-601.098	-23.359	0.458	0.277
-600.084	-54.143	1.252	-0.572
-599.069	-145.354	-0.539	0.049
-598.055	74.032	0.879	0.927
-597.040	340.632	-0.356	-0.698
-596.025	4.519	-0.199	-0.147
-595.011	180.301	-0.351	-0.518
-593.996	800.000	0.143	-0.560
-592.982	107.556	-0.194	0.232
-591.967	190.680	0.154	-0.233
-590.952	222.343	-0.536	-0.866
-589.938	-200.000	0.051	-1.134
-588.923	800.000	0.142	-0.604
-587.909	-126.747	-0.570	-0.085
-586.894	-200.000	-0.029	0.770
-585.879	114.282	-0.577	-0.705
-584.865	-9.656	-0.788	0.527
-583.850	-140.396	0.603	-0.063
-582.836	87.144	0.181	0.201
-581.821	-200.000	0.056	0.474
-580.806	-200.000	-0.201	-1.009
-579.792	-8.637	-0.790	-0.532
-578.777	75.942	0.273	-0.290
-577.763	-85.623	-0.362	-0.113
-576.748	-85.410	-0.387	0.121
-575.733	-51.825	-0.593	0.277
-574.719	-0.682	-0.276	-0.197
-573.704	405.796	-0.128	0.271
-572.690	-49.360	-0.433	0.208
-571.675	118.921	-0.078	-0.097
-570.661	800.000	-0.139	-0.526
-569.646	-51.507	-0.499	-0.234
-568.631	8.962	0.393	-0.298
-567.617	561.591	-0.311	-0.754
-566.602	-200.000	0.059	0.272
-565.588	143.219	0.401	0.536
-564.573	-200.000	-0.084	-0.399
-563.558	-30.108	0.697	0.398
-562.544	506.927	-0.448	1.044
-561.529	-136.833	-0.605	0.070
-560.515	190.195	0.422	0.636
-559.500	-132.791	-0.580	0.074
-558.485	-200.000	0.031	-0.344
-557.471	46.688	-0.643	-0.600
-556.456	-200.000	0.013	-1.270
-555.442	800.000	-0.279	-1.121
-554.427	264.922	0.050	-0.087
-553.412	290.435	-0.165	-0.301
-552.398	-200.000	-0.116	-0.665
-551.383	-200.000	0.018	-0.131
-550.369	-91.340	-1.145	-0.328
-549.354	576.580	-0.205	0.501
-548.339	-200.000	0.015	0.204
-547.325	98.680	-0.482	-0.557
-546.310	133.184	-0.244	0.316
-545.296	-76.948	-0.272	-0.095
-544.281	-61.151	0.446	-0.189
-543.266	-86.441	-0.241	-0.074
-542.252	-32.299	-0.826	0.462
-541.237	-200.000	0.012	0.460
-540.223	800.000	0.360	1.048
-539.208	-199.344	-0.936	-0.005
-538.193	-155.873	-0.047	-0.003
-537.179	800.000	-0.156	0.577
-536.164	-200.000	0.047	0.285
-535.150	-25.626	0.216	-0.128
-534.135	-177.862	0.459	0.011
-533.121	288.387	0.433	-0.785
-532.106	800.000	0.152	-0.475
-531.091	-89.858	-0.314	-0.092
-530.077	-200.000	0.056	-0.293
-529.062	-200.000	-0.066	-0.671
-528.048	-78.681	-0.319	-0.109
-527.033	-8.853	0.747	0.502
-526.018	153.294	0.347	0.476
-525.004	-200.000	-0.081	-0.527
-523.989	-200.000	0.024	-0.200
-522.975	-161.645	-0.684	-0.035
-521.960	600.180	-0.176	-0.437
-520.945	-36.802	0.583	0.313
-519.931	371.796	-0.222	-0.451
-518.916	212.136	-0.192	0.303
-517.902	800.000	-0.068	0.261
-516.887	-81.120	0.683	0.226
-515.872	28.453	-0.592	-0.502
-514.858	-108.639	-1.071	-0.230
-513.843	-200.000	0.008	0.648
-512.829	163.480	0.282	0.397
-511.814	-27.019	0.151	-0.088
-510.799	-38.538	-0.089	-0.047
-509.785	76.405	0.264	0.280
-508.770	73.516	-0.333	0.349
-507.756	-200.000	0.087	0.455
-506.741	450.598	-0.117	-0.259
-505.726	-200.000	0.159	-1.011
-504.712	158.812	-0.385	0.535
-503.697	-158.634	0.907	0.052
-502.683	-2.095	-0.464	-0.326
-501.668	410.481	0.151	0.320
-500.653	213.765	0.264	0.418
-499.639	0.764	0.376	0.269
-498.624	-155.035	-0.427	-0.028
-497.610	-48.917	-0.695	-0.333
-496.595	60.155	0.282	-0.279
-495.581	-69.793	-0.696	-0.266
-494.566	-111.545	0.541	-0.110
-493.551	-133.523	0.152	-0.019
-492.537	98.922	0.230	0.266
-491.522	142.167	-0.118	0.156
-490.508	-200.000	-0.015	-0.230
-489.493	-54.479	0.234	0.106
-488.478	495.606	-0.077	0.176
-487.464	761.954	-0.127	-0.345
-486.449	-28.365	0.848	0.490
-485.435	-200.000	0.056	-0.403
-484.420	0.952	-0.576	-0.413
-483.405	-200.000	0.024	0.649
-482.391	290.303	0.281	-0.511
-481.376	58.331	0.333	0.327
-480.362	111.045	0.319	0.384
-479.347	164.856	-0.319	-0.450
-478.332	-200.000	0.024	-0.653
-477.318	113.577	0.429	0.521
-476.303	-19.400	-0.394	0.244
-475.289	-74.707	0.688	-0.247
-474.274	-46.894	0.847	-0.414
-473.259	-137.536	-0.683	0.077
-472.245	-17.858	-0.400	0.251
-471.230	-200.000	0.079	0.626
-470.216	-200.000	0.063	-0.331
-469.201	800.000	0.116	-0.345
-468.186	26.133	0.898	-0.750
-467.172	-200.000	-0.045	-0.589
-466.157	-200.000	-0.060	-0.386
-465.143	-200.000	0.117	0.525
-464.128	-139.255	0.415	-0.045
-463.113	-57.739	-0.328	-0.144
-462.099	214.262	-0.320	0.506
-461.084	-49.893	0.646	0.306
-460.070	-40.067	0.762	0.397
-459.055	-200.000	0.115	-0.600
-458.040	-200.000	0.072	0.881
-457.026	-125.005	-0.723	-0.111
-456.011	-200.000	-0.099	-0.533
-454.997	-26.993	-0.285	-0.166
-453.982	-32.147	-0.512	-0.286
-452.968	59.946	0.582	-0.574
-451.953	-25.775	-0.105	-0.062
-450.938	-106.365	0.314	0.070
-449.924	700.418	0.121	-0.319
-448.909	54.165	-0.281	0.270
-447.895	155.061	0.536	-0.736
-446.880	-200.000	-0.049	-0.304
-445.865	-200.000	-0.090	0.532
-444.851	-0.488	0.369	-0.262
-443.836	-67.660	0.232	0.091
-442.822	-200.000	-0.047	-0.653
-441.807	106.902	-0.426	0.505
-440.792	800.000	-0.239	-0.666
-439.778	-67.877	0.123	0.048
-438.763	564.006	0.251	-0.607
-437.749	-11.964	-0.087	-0.057
-436.734	303.042	-0.187	-0.345
-435.719	66.726	-0.454	-0.461
-434.705	129.065	-0.159	0.203
-433.690	-132.332	0.557	-0.072
-432.676	-90.175	-1.898	-0.551
-431.661	-38.045	-0.364	0.193
-430.646	-190.351	0.604	-0.007
-429.632	459.350	0.112	-0.250
-428.617	-200.000	0.073	0.338
-427.603	-93.824	-0.530	0.146
-426.588	800.000	-0.037	-0.153
-425.573	175.557	0.126	0.182
-424.559	-107.741	0.204	-0.044
-423.544	-1.596	0.238	-0.167
-422.530	271.226	-0.215	0.377
-421.515	-97.261	-0.818	0.213
-420.500	9.513	0.673	0.509
-419.486	800.000	0.095	-0.358
-418.471	-120.006	0.606	0.104
-417.457	204.674	-0.320	0.495
-416.442	-50.900	0.127	0.059
-415.428	800.000	0.088	0.286
-414.413	-83.559	0.494	-0.158
-413.398	-87.621	0.734	0.221
-412.384	529.919	-0.292	-0.689
-411.369	269.929	-0.357	-0.625
-410.355	800.000	-0.384	-1.433
-409.340	-97.725	0.359	0.093
-408.325	-151.433	-0.796	0.059
-407.311	-3.734	0.511	0.354
-406.296	-150.357	-0.585	0.045
-405.282	297.509	-0.318	-0.583
-404.267	-17.833	-0.495	-0.310
-403.252	-121.717	0.446	0.074
-402.238	-200.000	0.072	0.455
-401.223	775.214	0.146	0.396
-400.209	-3.032	-0.641	0.446
-399.194	-138.101	0.610	-0.068
-398.179	96.281	-0.036	-0.041
-397.165	388.206	0.129	0.266
-396.150	141.050	0.245	-0.323
-395.136	-179.987	0.466	0.010
-394.121	-8.790	0.090	0.060
-393.106	-200.000	-0.032	0.582
-392.092	110.889	0.155	0.186
-391.077	485.779	0.151	0.344
-390.063	99.288	-0.473	0.545
-389.048	71.868	-0.036	-0.037
-388.033	800.000	-0.051	-0.187
-387.019	-122.134	-0.988	0.161
-386.004	177.870	-0.157	0.229
-384.990	-93.114	0.317	0.088
-383.975	-74.246	-0.249	-0.090
-382.960	-67.417	-0.516	0.202
-381.946	-200.000	-0.149	-0.909
-380.931	86.501	-0.358	-0.393
-379.917	-26.115	0.392	0.230
-378.902	244.258	-0.550	-0.920
-377.888	-121.318	0.837	0.139
-376.873	528.915	0.387	0.910
-375.858	-200.000	-0.094	1.125
-374.844	-0.597	0.192	-0.136
-373.829	-36.608	0.398	-0.213
-372.815	225.041	0.162	-0.260
-371.800	5.220	-0.214	0.157
-370.785	746.930	-0.245	0.658
-369.771	-36.401	-0.339	0.182
-368.756	-89.033	-0.276	0.081
-367.742	371.906	0.162	-0.328
-366.727	800.000	-0.098	-0.395
-365.712	178.331	0.428	-0.623
-364.698	114.740	-0.211	0.257
-363.683	800.000	-0.165	0.517
-362.669	800.000	0.238	-0.671
-361.654	800.000	-0.056	-0.213
-360.639	177.761	-0.423	-0.614
-359.625	655.357	0.292	-0.747
-358.610	800.000	0.062	-0.210
-357.596	-200.000	-0.040	0.447
-356.581	154.868	-0.147	-0.201
-355.566	91.111	-0.361	-0.404
-354.552	-57.961	0.707	0.307
-353.537	-147.989	-0.796	-0.066
-352.523	-121.885	-0.861	-0.141
-351.508	-187.897	-0.422	0.005
-350.493	353.653	-0.039	0.078
-349.479	-54.577	-0.568	0.256
-348.464	-116.014	-0.355	0.066
-347.450	269.885	0.410	-0.716
-346.435	-23.355	0.634	-0.379
-345.420	332.141	-0.512	0.984
-344.406	800.000	-0.143	0.480
-343.391	401.448	-0.188	0.392
-342.377	36.686	0.354	-0.311
-341.362	120.791	-0.444	-0.549
-340.348	91.878	-0.108	0.121
-339.333	-200.000	-0.018	-0.102
-338.318	53.008	-0.264	-0.251
-337.304	128.300	0.354	-0.448
-336.289	97.279	-0.267	0.305
-335.275	-136.765	-0.279	0.032
-334.260	800.000	0.084	-0.277
-333.245	34.473	0.418	0.363
-332.231	-102.351	0.320	0.076
-331.216	-97.791	0.526	0.135
-330.202	800.000	0.161	-0.670
-329.187	800.000	0.268	-0.903
-328.172	-200.000	0.031	0.215
-327.158	-200.000	-0.018	0.273
-326.143	509.067	-0.310	0.715
-325.129	36.265	0.355	0.311
-324.114	-141.717	0.557	0.056
-323.099	-94.172	0.363	0.099
-322.085	800.000	0.061	0.181
-321.070	-77.747	0.470	0.162
-320.056	66.713	0.203	-0.205
-319.041	297.210	-0.098	0.179
-318.026	764.240	0.170	0.459
-317.012	89.735	0.723	-0.802
-315.997	70.166	0.439	0.450
-314.983	800.000	0.094	0.289
-313.968	336.414	0.315	0.607
-312.953	-128.756	0.498	-0.070
-311.939	-7.245	-1.088	-0.733
-310.924	82.452	-0.049	0.053
-309.910	205.976	-0.306	-0.472
-308.895	-36.962	-0.399	0.213
-307.880	187.558	0.210	0.311
-306.866	-58.873	-0.305	-0.131
-305.851	-200.000	-0.076	-1.585
-304.837	30.212	0.524	0.444
-303.822	-75.073	0.635	0.226
-302.807	-11.478	0.353	0.230
-301.793	-70.028	-0.597	-0.226
-300.778	216.836	-0.344	-0.544
-299.764	-200.000	-0.045	-0.546
-298.749	95.660	0.341	-0.387
-297.735	-36.906	0.181	-0.097
-296.720	-200.000	-0.152	0.825
-295.705	-200.000	-0.019	-0.111
-294.691	78.714	-0.487	-0.517
-293.676	-120.821	-0.240	-0.040
-292.662	-200.000	-0.100	-1.018
-291.647	324.527	0.125	-0.237
-290.632	9.194	-0.166	0.125
-289.618	56.196	0.583	0.562
-288.603	403.339	-0.178	-0.372
-287.589	6.050	0.256	-0.188
-286.574	800.000	0.050	0.187
-285.559	-200.000	-0.027	-0.325
-284.545	347.564	0.241	-0.472
-283.530	-200.000	0.049	0.339
-282.516	249.635	-0.171	-0.288
-281.501	800.000	-0.245	1.022
-280.486	-200.000	0.025	0.426
-279.472	-200.000	0.053	-0.657
-278.457	-45.649	0.467	-0.230
-277.443	685.650	-0.454	1.175
-276.428	-200.000	0.102	0.917
-275.413	-165.115	0.577	-0.025
-274.399	-189.533	0.214	-0.002
-273.384	-81.743	-0.965	-0.314
-272.370	-71.393	-0.567	0.211
-271.355	-149.514	0.333	-0.026
-270.340	193.804	0.092	-0.138
-269.326	140.736	0.218	0.286
-268.311	-200.000	-0.046	0.458
-267.297	-18.595	-0.570	0.353
-266.282	-43.757	-0.789	0.394
-265.267	-19.884	0.397	0.243
-264.253	28.983	0.285	0.240
-263.238	-200.000	0.007	-0.068
-262.224	17.663	0.931	-0.734
-261.209	158.743	0.294	-0.404
-260.195	348.005	-0.054	0.106
-259.180	800.000	-0.114	0.458
-258.165	332.802	0.261	-0.501
-257.151	69.984	-0.678	-0.694
-256.136	246.141	-0.478	0.799
-255.122	-36.295	0.282	-0.151
-254.107	-162.086	0.439	0.022
-253.092	287.788	-0.238	0.427
-252.078	800.000	-0.090	-0.309
-251.063	-77.803	-0.816	0.279
-250.049	-14.935	-0.946	0.601
-249.034	-200.000	-0.043	-0.274
-248.019	288.590	-0.222	-0.399
-247.005	-98.945	0.648	0.163
-245.990	219.652	0.207	0.328
-244.976	-145.437	-0.431	0.038
-243.961	-122.233	0.351	-0.057
-242.946	-90.321	0.165	-0.048
-241.932	183.985	0.362	-0.530
-240.917	800.000	-0.054	-0.182
-239.903	800.000	0.206	0.884
-238.888	-63.774	0.777	0.315
-237.873	-145.714	0.567	0.050
-236.859	-144.907	0.496	0.045
-235.844	-91.367	-0.550	-0.156
-234.830	-51.082	-0.525	0.244
-233.815	-83.162	0.498	0.159
-232.800	-200.000	-0.005	-0.233
-231.786	-79.463	0.549	0.184
-230.771	800.000	-0.071	0.294
-229.757	-200.000	-0.143	0.852
-228.742	-22.680	-0.578	-0.346
-227.727	-32.737	0.040	-0.022
-226.713	84.936	0.213	0.231
-225.698	302.341	0.274	0.501
-224.684	465.640	0.213	-0.473
-223.669	98.315	-0.498	0.568
-222.655	-40.286	-0.824	-0.425
-221.640	241.076	-0.457	0.755
-220.625	-3.294	0.627	0.433
-219.611	800.000	-0.150	0.508
-218.596	-200.000	-0.041	0.423
-217.582	-42.146	-0.219	-0.111
-216.567	335.165	0.176	0.338
-215.552	537.151	0.187	0.439
-214.538	-200.000	0.056	-0.696
-213.523	-68.723	-0.522	-0.200
-212.509	-200.000	-0.004	0.151
-211.494	-200.000	-0.120	1.013
-210.479	800.000	-0.130	0.528
-209.465	-200.000	-0.009	0.142
-208.450	-121.367	0.116	-0.019
-207.436	64.700	-0.222	-0.221
-206.421	-22.407	-0.476	-0.285
-205.406	-91.388	1.224	-0.346
-204.392	701.278	0.278	0.724
-203.377	-67.194	0.529	-0.206
-202.363	-200.000	0.008	-1.241
-201.348	-33.022	0.600	0.330
-200.333	-200.000	0.002	0.905
-199.319	-102.672	-0.534	-0.126
-198.304	-200.000	0.076	-0.556
-197.290	-27.452	0.576	0.331
-196.275	19.300	-0.349	-0.278
-195.260	145.604	0.286	-0.379
-194.246	-200.000	-0.034	0.392
-193.231	125.076	0.193	0.241
-192.217	-8.402	0.804	-0.535
-191.202	72.739	0.209	-0.216
-190.187	-32.426	0.789	0.435
-189.173	187.930	0.250	0.369
-188.158	531.379	0.202	0.472
-187.144	-200.000	-0.145	0.000
-186.129	-200.000	-0.085	-0.482
-185.114	-41.437	-0.616	0.314
-184.100	-200.000	-0.044	-0.222
-183.085	-45.609	-0.213	0.104
-182.071	-34.781	-0.578	-0.312
-181.056	50.190	-0.290	-0.271
-180.042	300.790	-0.752	1.373
-179.027	-141.786	-0.612	-0.061
-178.012	-165.274	-0.151	0.007
-176.998	279.925	0.274	0.484
-175.983	68.217	0.257	0.260
-174.969	800.000	-0.068	-0.257
-173.954	105.928	-0.155	-0.181
-172.939	154.379	-0.141	-0.191
-171.925	141.578	-0.569	0.745
-170.910	-120.084	0.497	0.084
-169.896	-200.000	0.042	0.648
-168.881	-200.000	0.213	0.946
-167.866	314.065	0.613	1.141
-166.852	-32.327	-0.393	0.217
-165.837	328.429	0.574	1.088
-164.823	277.500	0.306	-0.538
-163.808	-149.723	-0.589	-0.046
-162.793	220.781	0.097	-0.153
-161.779	-27.363	1.336	0.768
-160.764	438.247	-0.117	0.252
-159.750	-94.818	0.250	-0.067
-158.735	-200.000	0.023	0.125
-157.720	-164.754	0.258	0.011
-156.706	-130.975	0.807	0.106
-155.691	800.000	-0.195	0.777
-154.677	504.908	0.110	0.252
-153.662	172.424	0.204	-0.291
-152.647	-200.000	0.044	-0.325
-151.633	-110.347	0.623	-0.128
-150.618	477.028	-0.177	-0.396
-149.604	229.256	-0.300	0.483
-148.589	-67.840	0.367	-0.142
-147.574	-200.000	0.050	0.501
-146.560	800.000	0.207	-0.583
-145.545	-125.567	-0.374	0.056
-144.531	268.068	-0.261	-0.451
-143.516	800.000	0.122	0.371
-142.502	-172.306	-0.304	0.010
-141.487	288.820	0.097	0.173
-140.472	39.584	0.556	-0.492
-139.458	-76.205	0.995	0.346
-138.443	-64.912	0.532	0.212
-137.429	-200.000	-0.011	-0.264
-136.414	382.069	0.136	-0.276
-135.399	-200.000	-0.061	0.502
-134.385	-152.594	0.431	-0.030
-133.370	-125.199	0.838	0.127
-132.356	3.487	-0.689	-0.496
-131.341	-200.000	0.047	0.898
-130.326	-50.845	0.724	-0.336
-129.312	512.532	0.342	0.787
-128.297	104.620	0.661	0.768
-127.283	209.923	-0.100	-0.155
-126.268	-82.219	0.883	0.284
-125.253	-33.351	0.611	0.334
-124.239	-33.198	-0.507	-0.277
-123.224	-136.511	-0.748	-0.086
-122.210	-4.221	-0.412	-0.281
-121.195	-94.523	-0.736	-0.198
