DTS Sentinel unit serial number:	SN413079Multiplexer serial number:	ORYXHardware model number:	OX4-SRSoftware version number:	ORYX F/W v4.00 Oryx Data Collector v3.7.2.0data status	okinstallation	princeton_trtdifferential loss correction	single-endedforward channel	channel 1reverse channel	N/Adate	2019/09/17time	19:06:35forward acquisition time	60.00reverse acquisition time	0.00gamma	496.2192k internal	0.2296k external	0.2296temperature offset calibration	0.9978default loss term (dB/km)	0.3790temperature slope calibration	1.0000multiplexer offset coefficient	1.0000multiplexer slope coefficient	1.0000fibre end	0.00T internal ref (°C)	39.84T ext. ref 1 (°C)	0.28T ext. ref 2 (°C)	28.05length (m)	temperature (°C)	Stokes	anti-Stokes-747.200	-200.000	0.006	0.183
-746.185	60.634	0.094	0.095
-745.171	302.358	0.150	0.283
-744.156	88.554	0.344	0.391
-743.142	-34.442	-0.083	0.047
-742.127	187.218	-0.312	0.476
-741.112	104.055	-0.090	0.108
-740.098	100.714	-0.247	0.293
-739.083	-5.510	-0.307	0.215
-738.069	126.464	0.200	0.258
-737.054	-16.525	0.080	-0.052
-736.039	-24.966	0.199	0.121
-735.025	154.829	0.093	-0.131
-734.010	219.822	0.173	-0.283
-732.996	-62.747	0.393	-0.167
-731.981	56.476	-0.147	-0.146
-730.966	-82.065	-0.414	-0.138
-729.952	-71.950	-0.134	0.051
-728.937	-102.796	-0.089	-0.022
-727.923	188.288	-0.128	0.195
-726.908	-13.813	0.018	0.012
-725.894	281.436	-0.208	-0.380
-724.879	-89.613	-0.244	0.073
-723.864	430.300	-0.080	0.176
-722.850	-77.642	0.252	-0.089
-721.835	-34.212	0.186	0.105
-720.821	206.416	-0.121	0.192
-719.806	-142.012	-0.167	0.017
-718.791	-51.828	-0.041	0.019
-717.777	-129.716	-0.308	0.043
-716.762	672.322	0.074	-0.195
-715.748	504.075	-0.074	0.174
-714.733	-8.313	-0.026	-0.018
-713.718	-137.546	-0.145	0.017
-712.704	6.619	0.244	0.185
-711.689	-57.053	-0.063	0.028
-710.675	-200.000	-0.024	-0.228
-709.660	86.820	-0.123	-0.139
-708.645	521.027	0.090	-0.215
-707.631	-200.000	-0.028	-0.217
-706.616	-78.087	-0.062	0.022
-705.602	-142.221	-0.403	-0.041
-704.587	-3.542	-0.171	-0.122
-703.572	67.374	0.098	-0.102
-702.558	-36.820	0.209	-0.114
-701.543	-55.425	0.085	0.039
-700.529	-146.462	-0.167	0.015
-699.514	57.722	0.172	-0.172
-698.499	-200.000	-0.305	0.001
-697.485	101.724	-0.118	0.141
-696.470	800.000	0.087	-0.247
-695.456	29.245	0.193	-0.167
-694.441	-85.599	-0.056	0.018
-693.426	110.359	0.235	-0.288
-692.412	-54.974	-0.037	-0.017
-691.397	-82.905	0.026	0.009
-690.383	275.376	-0.099	0.179
-689.368	-1.144	-0.115	0.083
-688.354	-200.000	-0.024	0.253
-687.339	560.312	-0.044	-0.109
-686.324	227.447	-0.037	0.062
-685.310	-104.464	0.474	-0.112
-684.295	-200.000	-0.011	-0.185
-683.281	-200.000	-0.025	0.143
-682.266	-200.000	0.013	-0.159
-681.251	-50.745	0.206	-0.099
-680.237	-3.192	-0.176	0.125
-679.222	462.805	0.097	-0.221
-678.208	-82.386	0.176	-0.058
-677.193	76.118	-0.134	0.145
-676.178	800.000	-0.044	0.145
-675.164	97.464	-0.392	-0.459
-674.149	800.000	-0.055	-0.177
-673.135	-91.024	-0.311	0.091
-672.120	25.641	-0.193	-0.164
-671.105	738.340	0.071	0.195
-670.091	-156.858	-0.245	0.015
-669.076	464.093	-0.057	0.130
-668.062	-200.000	-0.029	-0.145
-667.047	351.431	0.031	-0.063
-666.032	-56.777	-0.160	0.072
-665.018	-200.000	0.031	-0.248
-664.003	-132.184	-0.407	0.054
-662.989	-200.000	0.012	0.124
-661.974	114.851	-0.139	0.172
-660.959	800.000	-0.030	-0.110
-659.945	-129.340	-0.170	-0.024
-658.930	800.000	0.079	-0.346
-657.916	-44.000	-0.143	-0.073
-656.901	-77.708	0.148	0.052
-655.886	-117.229	0.100	0.018
-654.872	39.562	0.262	-0.239
-653.857	45.621	0.165	-0.155
-652.843	787.167	-0.183	0.510
-651.828	604.340	0.012	0.031
-650.814	329.760	0.038	0.075
-649.799	-103.132	0.161	-0.039
-648.784	-22.370	0.105	0.064
-647.770	-155.143	0.119	0.008
-646.755	-200.000	0.037	-0.319
-645.741	-96.673	0.294	0.079
-644.726	-24.811	0.170	0.103
-643.711	-68.211	0.236	-0.093
-642.697	79.660	0.228	-0.249
-641.682	-77.236	-0.174	-0.062
-640.668	-75.730	-0.317	0.114
-639.653	124.392	0.181	-0.232
-638.638	473.969	0.126	-0.288
-637.624	-2.996	-0.075	0.053
-636.609	359.231	-0.177	-0.361
-635.595	-200.000	0.033	0.259
-634.580	89.424	0.105	-0.119
-633.565	-200.000	0.001	-0.133
-632.551	180.878	0.122	-0.183
-631.536	-80.370	0.297	-0.101
-630.522	800.000	0.024	-0.092
-629.507	-101.924	-0.101	-0.025
-628.492	124.882	0.370	-0.474
-627.478	-83.480	0.125	0.041
-626.463	204.113	-0.047	-0.074
-625.449	-200.000	0.016	0.083
-624.434	681.693	0.070	-0.185
-623.419	474.613	-0.024	0.056
-622.405	489.375	0.115	-0.266
-621.390	603.408	0.100	0.253
-620.376	800.000	0.077	-0.241
-619.361	-27.517	0.207	-0.122
-618.346	-200.000	-0.001	-0.317
-617.332	-89.206	-0.231	-0.069
-616.317	116.445	-0.138	0.172
-615.303	-200.000	-0.033	-0.319
-614.288	305.858	0.158	-0.298
-613.273	-31.551	-0.031	-0.018
-612.259	800.000	-0.084	0.335
-611.244	-200.000	0.031	-0.141
-610.230	261.699	-0.196	-0.345
-609.215	-132.674	-0.165	0.022
-608.201	65.571	-0.025	0.026
-607.186	800.000	0.054	-0.195
-606.171	30.108	0.266	0.230
-605.157	579.965	-0.018	-0.044
-604.142	-65.826	-0.042	0.017
-603.128	-25.161	0.198	0.119
-602.113	-143.441	0.161	-0.016
-601.098	-40.941	0.195	-0.103
-600.084	-8.916	-0.264	-0.180
-599.069	159.792	-0.135	-0.191
-598.055	800.000	0.050	-0.165
-597.040	185.439	-0.329	-0.496
-596.025	200.064	0.081	-0.127
-595.011	-53.044	-0.143	-0.067
-593.996	-96.127	-0.274	0.074
-592.982	-119.820	0.461	-0.081
-591.967	-32.040	0.130	-0.074
-590.952	-48.514	-0.114	-0.056
-589.938	-200.000	-0.011	-0.161
-588.923	-106.070	-0.370	-0.085
-587.909	-34.326	-0.252	-0.140
-586.894	-29.443	-0.128	-0.074
-585.879	-110.911	-0.275	-0.057
-584.865	-138.505	-0.212	0.024
-583.850	-79.464	-0.086	-0.030
-582.836	-69.009	-0.227	0.089
-581.821	156.358	0.112	-0.157
-580.806	-200.000	-0.021	0.213
-579.792	-200.000	0.020	-0.188
-578.777	-97.851	0.096	0.025
-577.763	66.425	-0.451	0.465
-576.748	-200.000	-0.067	-0.595
-575.733	10.800	-0.121	0.093
-574.719	-200.000	-0.021	0.218
-573.704	-59.490	0.159	-0.069
-572.690	-122.760	0.028	0.005
-571.675	340.665	-0.161	-0.319
-570.661	800.000	-0.045	0.126
-569.646	-84.042	-0.318	0.102
-568.631	800.000	0.116	0.468
-567.617	135.172	0.037	0.049
-566.602	-3.584	0.146	0.103
-565.588	-200.000	0.023	-0.271
-564.573	11.615	0.064	0.050
-563.558	245.400	0.096	0.163
-562.544	-8.808	0.123	-0.084
-561.529	-146.375	0.036	0.003
-560.515	-70.027	-0.158	0.061
-559.500	33.824	-0.250	-0.221
-558.485	-123.103	-0.501	-0.082
-557.471	201.002	-0.160	-0.250
-556.456	137.237	-0.189	0.250
-555.442	-89.999	0.154	-0.046
-554.427	800.000	-0.063	0.226
-553.412	-35.119	0.130	0.072
-552.398	-107.763	-0.223	-0.049
-551.383	-9.034	-0.150	-0.102
-550.369	14.462	0.227	0.179
-549.354	31.145	-0.064	0.056
-548.339	124.445	-0.038	-0.049
-547.325	229.966	-0.045	0.075
-546.310	-55.843	0.399	0.181
-545.296	177.449	-0.058	-0.086
-544.281	-90.289	-0.094	-0.028
-543.266	-154.986	0.072	0.005
-542.252	475.141	-0.064	0.146
-541.237	800.000	-0.056	0.201
-540.223	-28.054	-0.066	-0.039
-539.208	-94.225	-0.352	-0.098
-538.193	59.248	-0.388	-0.387
-537.179	-73.967	-0.244	-0.090
-536.164	-176.536	0.166	0.004
-535.150	0.186	-0.305	-0.220
-534.135	-57.479	0.220	0.098
-533.121	-39.727	-0.377	0.200
-532.106	-66.864	-0.090	0.036
-531.091	717.963	-0.088	-0.236
-530.077	-200.000	0.011	-0.104
-529.062	-56.893	0.090	0.040
-528.048	-200.000	-0.030	0.228
-527.033	-50.397	0.125	-0.060
-526.018	-35.074	-0.116	0.064
-525.004	800.000	0.035	0.148
-523.989	165.181	0.110	-0.157
-522.975	-20.776	0.107	0.066
-521.960	25.391	-0.121	-0.102
-520.945	-4.342	0.223	-0.156
-519.931	-55.443	-0.216	-0.098
-518.916	403.184	-0.069	0.147
-517.902	-200.000	-0.002	-0.203
-516.887	679.670	0.046	-0.121
-515.872	800.000	-0.060	-0.194
-514.858	460.046	0.040	-0.090
-513.843	-200.000	0.016	-0.328
-512.829	92.115	0.147	-0.168
-511.814	-26.240	-0.287	0.170
-510.799	22.771	-0.149	-0.123
-509.785	-134.381	-0.283	0.035
-508.770	464.431	-0.072	-0.163
-507.756	-200.000	-0.022	0.278
-506.741	480.918	-0.115	0.265
-505.726	-60.284	-0.163	0.070
-504.712	-106.958	-0.104	0.023
-503.697	-63.197	-0.154	0.064
-502.683	800.000	-0.109	-0.435
-501.668	191.649	-0.212	-0.322
-500.653	-52.413	-0.214	-0.100
-499.639	-158.826	0.386	0.022
-498.624	-4.065	-0.069	0.048
-497.610	800.000	-0.037	0.118
-496.595	749.569	0.119	0.323
-495.581	102.130	0.250	-0.295
-494.566	-76.683	-0.048	0.017
-493.551	-200.000	-0.036	-0.222
-492.537	-77.639	-0.583	0.204
-491.522	-143.788	0.225	-0.021
-490.508	-200.000	-0.022	0.205
-489.493	98.301	0.242	0.282
-488.478	-69.718	-0.104	-0.040
-487.464	111.274	-0.160	-0.196
-486.449	-200.000	0.007	-0.289
-485.435	-200.000	0.029	0.185
-484.420	800.000	0.092	-0.326
-483.405	296.649	-0.120	0.222
-482.391	-170.163	0.201	-0.007
-481.376	800.000	0.024	0.075
-480.362	107.698	0.162	0.195
-479.347	321.827	0.076	0.146
-478.332	-177.828	0.247	0.006
-477.318	182.131	0.058	-0.087
-476.303	-200.000	0.013	-0.163
-475.289	-68.357	0.040	-0.016
-474.274	-85.371	-0.154	0.049
-473.259	-200.000	0.012	0.164
-472.245	-200.000	-0.034	0.161
-471.230	79.503	0.051	-0.055
-470.216	-159.206	-0.161	-0.009
-469.201	-130.684	-0.057	-0.008
-468.186	-6.619	-0.208	0.143
-467.172	-113.580	-0.121	-0.024
-466.157	800.000	-0.086	-0.334
-465.143	98.485	-0.143	0.167
-464.128	-200.000	0.008	-0.204
-463.113	-158.958	0.414	0.024
-462.099	-127.534	-0.099	-0.014
-461.084	-71.325	-0.184	-0.070
-460.070	-41.422	0.123	0.064
-459.055	55.671	-0.098	0.096
-458.040	21.430	0.135	0.111
-457.026	-200.000	0.007	-0.255
-456.011	87.025	-0.115	0.128
-454.997	-46.827	0.105	-0.052
-453.982	-129.204	0.255	0.036
-452.968	-200.000	-0.003	0.205
-451.953	29.774	0.348	0.300
-450.938	281.195	-0.160	-0.288
-449.924	-34.231	0.168	0.093
-448.909	-136.644	-0.118	0.014
-447.895	-200.000	-0.005	0.478
-446.880	-102.099	-0.161	0.039
-445.865	-200.000	-0.028	0.177
-444.851	180.493	0.162	0.240
-443.836	-48.260	0.140	-0.068
-442.822	-200.000	-0.061	0.311
-441.807	-12.255	-0.312	0.206
-440.792	28.207	-0.120	0.102
-439.778	-96.792	-0.146	0.039
-438.763	-76.594	-0.254	0.090
-437.749	45.426	-0.161	0.150
-436.734	161.754	-0.043	0.061
-435.719	800.000	-0.053	-0.178
-434.705	-186.376	-0.090	-0.001
-433.690	26.331	-0.171	0.144
-432.676	-155.591	0.071	0.005
-431.661	-112.531	0.345	0.069
-430.646	-99.211	-0.231	0.059
-429.632	800.000	0.090	0.258
-428.617	800.000	-0.121	0.364
-427.603	429.308	0.116	-0.252
-426.588	-17.342	-0.182	0.116
-425.573	-200.000	0.006	-0.031
-424.559	-145.642	-0.186	0.017
-423.544	199.790	0.182	-0.282
-422.530	800.000	0.039	0.125
-421.515	-47.717	0.223	-0.109
-420.500	-22.814	-0.207	0.126
-419.486	-24.422	-0.192	0.116
-418.471	-200.000	-0.032	0.158
-417.457	-200.000	-0.024	0.324
-416.442	242.549	-0.064	0.108
-415.428	242.808	-0.129	0.218
-414.413	-112.618	-0.265	0.053
-413.398	52.399	-0.044	0.042
-412.384	132.611	0.192	0.250
-411.369	-200.000	-0.011	0.339
-410.355	42.174	-0.076	-0.070
-409.340	-134.243	-0.292	-0.036
-408.325	329.075	0.077	-0.149
-407.311	-9.219	-0.205	-0.138
-406.296	62.598	0.043	0.043
-405.282	342.628	0.204	-0.403
-404.267	450.999	-0.113	-0.252
-403.252	48.609	0.057	0.054
-402.238	607.108	0.059	-0.148
-401.223	-160.008	-0.212	-0.012
-400.209	-200.000	0.070	-0.479
-399.194	230.035	0.028	-0.047
-398.179	53.648	0.163	0.158
-397.165	98.408	0.281	0.326
-396.150	-110.937	0.426	-0.088
-395.136	-123.257	-0.063	-0.010
-394.121	-60.980	0.118	-0.050
-393.106	-119.243	-0.381	-0.067
-392.092	-79.038	-0.088	-0.030
-391.077	-92.772	0.302	0.085
-390.063	24.957	0.141	0.118
-389.048	800.000	0.050	-0.199
-388.033	37.541	-0.109	0.097
-387.019	308.278	0.059	0.111
-386.004	-9.856	-0.291	0.195
-384.990	-94.166	0.269	0.074
-383.975	94.235	0.134	-0.154
-382.960	-52.145	-0.110	-0.051
-381.946	-200.000	-0.014	-0.070
-380.931	442.637	0.091	0.200
-379.917	-32.511	0.136	-0.077
-378.902	10.523	0.155	0.119
-377.888	800.000	-0.053	0.173
-376.873	-200.000	0.012	0.462
-375.858	-68.198	0.253	-0.099
-374.844	59.266	-0.070	-0.069
-373.829	-14.682	-0.097	0.063
-372.815	-26.252	0.179	0.106
-371.800	-44.707	0.346	0.174
-370.785	76.180	0.144	0.153
-369.771	124.076	0.176	0.223
-368.756	6.046	0.137	0.102
-367.742	303.132	0.024	-0.045
-366.727	-58.090	0.208	0.091
-365.712	146.176	0.101	-0.137
-364.698	17.284	0.120	-0.096
-363.683	-43.717	0.045	0.023
-362.669	257.400	-0.022	0.039
-361.654	-200.000	-0.011	-0.346
-360.639	-133.809	-0.205	0.026
-359.625	84.001	0.307	-0.337
-358.610	169.007	-0.163	-0.233
-357.596	-200.000	-0.043	-0.325
-356.581	734.608	0.109	-0.295
-355.566	5.899	0.314	-0.234
-354.552	-71.866	-0.238	-0.089
-353.537	340.545	0.061	0.120
-352.523	101.760	0.050	0.058
-351.508	55.465	0.220	0.214
-350.493	-200.000	0.062	0.301
-349.479	14.336	-0.197	-0.154
-348.464	-200.000	0.020	0.197
-347.450	17.775	-0.240	0.193
-346.435	800.000	0.078	0.249
-345.420	46.293	-0.139	-0.129
-344.406	-39.474	0.203	0.107
-343.391	-128.279	-0.195	0.028
-342.377	296.187	-0.055	-0.102
-341.362	-200.000	-0.036	-0.186
-340.348	-80.570	-0.231	0.077
-339.333	-200.000	0.023	-0.122
-338.318	-30.094	-0.254	-0.145
-337.304	5.151	-0.296	0.219
-336.289	-200.000	-0.024	0.155
-335.275	56.546	0.332	-0.325
-334.260	-175.740	-0.108	-0.003
-333.245	-181.503	-0.395	0.008
-332.231	65.735	0.031	0.031
-331.216	345.896	-0.008	-0.016
-330.202	116.993	-0.053	-0.066
-329.187	-95.827	0.275	-0.074
-328.172	-37.958	-0.319	0.170
-327.158	136.780	-0.186	-0.245
-326.143	-38.352	0.265	-0.141
-325.129	800.000	-0.087	-0.264
-324.114	66.282	0.156	0.160
-323.099	34.984	0.071	0.063
-322.085	-35.354	0.227	0.124
-321.070	-93.762	-0.229	-0.063
-320.056	23.153	-0.189	-0.156
-319.041	-100.037	0.448	-0.112
-318.026	-85.414	0.100	-0.031
-317.012	147.653	0.137	-0.185
-315.997	26.141	-0.106	-0.089
-314.983	-119.996	-0.133	-0.023
-313.968	-200.000	0.026	-0.274
-312.953	-7.909	-0.072	0.049
-311.939	-61.347	-0.248	0.105
-310.924	-200.000	-0.020	-0.134
-309.910	174.020	-0.073	0.106
-308.895	543.965	0.090	0.217
-307.880	35.255	-0.097	0.085
-306.866	-200.000	0.009	-0.097
-305.851	-115.389	0.221	-0.042
-304.837	-69.821	0.170	0.065
-303.822	18.177	0.287	-0.230
-302.807	-28.583	0.190	0.110
-301.793	-39.592	-0.171	0.090
-300.778	-200.000	0.023	-0.138
-299.764	-200.000	-0.001	-0.084
-298.749	-82.246	0.159	-0.052
-297.735	-65.148	0.206	-0.083
-296.720	800.000	-0.154	-0.481
-295.705	113.185	0.119	-0.144
-294.691	36.357	0.134	0.119
-293.676	-141.798	0.078	-0.008
-292.662	800.000	0.027	0.081
-291.647	214.425	0.104	-0.165
-290.632	800.000	-0.083	0.286
-289.618	152.898	0.109	-0.149
-288.603	800.000	0.085	0.370
-287.589	800.000	-0.048	0.192
-286.574	248.757	0.176	0.298
-285.559	800.000	-0.027	0.102
-284.545	14.088	0.185	0.145
-283.530	379.587	-0.204	0.418
-282.516	185.422	-0.095	0.141
-281.501	-35.537	0.192	-0.105
-280.486	-118.424	0.371	-0.066
-279.472	-200.000	0.018	0.173
-278.457	-200.000	-0.082	-0.393
-277.443	-109.946	-0.081	0.017
-276.428	-119.832	-0.085	0.015
-275.413	-149.917	-0.164	-0.013
-274.399	800.000	0.100	-0.323
-273.384	-139.768	-0.123	0.013
-272.370	-200.000	0.033	0.227
-271.355	89.861	-0.269	0.302
-270.340	-44.662	0.118	0.059
-269.326	78.633	-0.017	-0.018
-268.311	33.962	-0.117	-0.103
-267.297	268.079	0.120	-0.211
-266.282	-135.470	0.265	0.032
-265.267	-200.000	-0.013	-0.309
-264.253	138.428	-0.053	-0.070
-263.238	-167.449	0.128	-0.005
-262.224	-200.000	-0.039	0.248
-261.209	-132.310	-0.524	0.068
-260.195	-132.369	0.056	0.007
-259.180	-22.586	0.131	0.079
-258.165	63.546	0.216	-0.217
-257.151	12.734	-0.224	0.174
-256.136	-54.876	-0.390	-0.177
-255.122	800.000	0.022	-0.065
-254.107	553.998	-0.222	0.535
-253.092	-200.000	-0.010	0.249
-252.078	-56.247	-0.252	0.113
-251.063	325.293	0.185	-0.355
-250.049	303.711	0.070	0.129
-249.034	140.658	-0.191	0.253
-248.019	-200.000	0.027	-0.164
-247.005	800.000	-0.051	-0.144
-245.990	-200.000	-0.010	0.126
-244.976	-200.000	-0.061	-0.400
-243.961	148.350	0.099	-0.134
-242.946	-200.000	-0.010	-0.094
-241.932	186.240	0.081	0.121
-240.917	-200.000	-0.048	0.217
-239.903	-130.805	-0.141	-0.019
-238.888	-99.421	0.148	0.037
-237.873	227.526	0.157	0.255
-236.859	606.688	0.166	0.416
-235.844	800.000	-0.007	0.029
-234.830	316.098	-0.235	0.445
-233.815	800.000	-0.098	0.343
-232.800	-102.891	0.272	-0.065
-231.786	153.733	-0.007	-0.009
-230.771	-173.239	-0.076	-0.002
-229.757	-178.335	0.236	0.006
-228.742	28.197	-0.084	-0.071
-227.727	-109.905	0.149	0.031
-226.713	-88.811	-0.181	-0.054
-225.698	-200.000	-0.001	0.116
-224.684	27.008	0.210	0.177
-223.669	298.567	0.159	-0.293
-222.655	-200.000	-0.024	-0.255
-221.640	-200.000	-0.002	-0.033
-220.625	-78.394	0.162	-0.055
-219.611	-121.405	0.204	0.034
-218.596	-31.653	0.172	0.097
-217.582	26.661	-0.133	0.111
-216.567	74.688	0.022	0.023
-215.552	-140.005	-0.049	-0.005
-214.538	128.622	0.115	0.146
-213.523	88.666	0.058	-0.064
-212.509	60.979	0.045	0.045
-211.494	-200.000	-0.006	0.086
-210.479	-61.645	-0.128	0.054
-209.465	-200.000	0.001	0.017
-208.450	-200.000	-0.003	-0.115
-207.436	386.017	-0.060	0.123
-206.421	-200.000	-0.008	-0.067
-205.406	-49.672	-0.220	-0.104
-204.392	-94.175	0.352	0.096
-203.377	365.138	0.085	0.172
-202.363	-200.000	-0.025	0.262
-201.348	-63.627	0.320	0.131
-200.333	26.483	0.252	-0.210
-199.319	800.000	0.056	-0.161
-198.304	59.649	-0.199	0.197
-197.290	-24.903	0.377	0.224
-196.275	575.555	0.106	0.259
-195.260	124.648	0.164	0.206
-194.246	540.810	0.043	0.101
-193.231	-57.837	-0.207	-0.091
-192.217	-91.574	-0.104	-0.030
-191.202	-200.000	0.001	0.159
-190.187	92.907	0.194	0.219
-189.173	-104.490	0.072	-0.017
-188.158	-200.000	-0.011	-0.144
-187.144	6.252	-0.088	-0.065
-186.129	800.000	0.037	0.134
-185.114	-142.551	0.243	0.024
-184.100	-102.773	-0.095	0.023
-183.085	155.478	-0.067	-0.093
-182.071	800.000	0.075	-0.245
-181.056	-23.292	-0.136	0.082
-180.042	-170.039	0.194	-0.007
-179.027	47.341	-0.207	-0.193
-178.012	-200.000	0.018	0.216
-176.998	82.945	-0.091	0.099
-175.983	-106.780	0.050	0.011
-174.969	-69.924	0.168	-0.064
-173.954	-84.452	0.304	-0.096
-172.939	-162.882	-0.220	0.011
-171.925	605.545	0.112	0.278
-170.910	800.000	0.069	-0.235
-169.896	-70.482	0.350	0.133
-168.881	-170.123	-0.205	-0.007
-167.866	15.416	-0.322	-0.253
-166.852	-200.000	0.033	-0.346
-165.837	190.777	0.144	-0.217
-164.823	56.860	0.204	-0.198
-163.808	-47.272	-0.244	0.119
-162.793	22.297	-0.141	-0.115
-161.779	468.350	-0.056	-0.127
-160.764	114.099	-0.206	0.250
-159.750	129.832	0.378	0.483
-158.735	800.000	0.067	0.269
-157.720	10.877	-0.182	0.139
-156.706	161.424	0.086	0.120
-155.691	-113.529	0.235	-0.046
-154.677	-60.237	-0.261	-0.111
-153.662	147.410	0.194	0.261
-152.647	-52.219	-0.185	0.086
-151.633	155.041	0.196	-0.269
-150.618	247.578	0.108	-0.183
-149.604	-124.545	-0.139	-0.022
-148.589	100.681	-0.141	-0.164
-147.574	-200.000	-0.009	-0.225
-146.560	181.730	0.073	0.107
-145.545	-38.402	-0.096	0.051
-144.531	395.075	0.050	0.104
-143.516	-134.005	-0.197	0.024
-142.502	-50.921	0.097	0.045
-141.487	-27.156	-0.222	-0.129
-140.472	-36.871	-0.198	0.106
-139.458	-200.000	0.275	0.000
-138.443	20.046	-0.173	0.139
-137.429	-106.218	0.123	-0.028
-136.414	-64.820	-0.254	0.102
-135.399	-200.000	-0.095	0.481
-134.385	118.035	0.209	0.257
-133.370	104.666	0.030	0.036
-132.356	140.917	0.108	0.143
-131.341	-137.063	0.253	-0.029
-130.326	-200.000	0.081	-0.362
-129.312	394.901	0.102	-0.212
-128.297	220.906	-0.104	0.167
-127.283	-118.922	-0.127	-0.022
-126.268	-200.000	-0.064	0.316
-125.253	-110.946	-0.232	-0.048
-124.239	-129.061	0.123	-0.017
-123.224	-140.175	-0.077	-0.008
-122.210	-200.000	-0.063	-0.292
-121.195	-15.820	-0.068	-0.043
