DTS Sentinel unit serial number:	SN413079Multiplexer serial number:	ORYXHardware model number:	OX4-SRSoftware version number:	ORYX F/W v4.00 Oryx Data Collector v3.7.2.0data status	okinstallation	princeton_trtdifferential loss correction	single-endedforward channel	channel 1reverse channel	N/Adate	2019/09/15time	15:22:35forward acquisition time	60.00reverse acquisition time	0.00gamma	496.2192k internal	0.2292k external	0.2292temperature offset calibration	0.9948default loss term (dB/km)	0.3790temperature slope calibration	1.0000multiplexer offset coefficient	1.0000multiplexer slope coefficient	1.0000fibre end	0.00T internal ref (°C)	40.94T ext. ref 1 (°C)	5.05T ext. ref 2 (°C)	38.28length (m)	temperature (°C)	Stokes	anti-Stokes-747.200	-105.651	0.066	-0.015
-746.185	585.924	-0.077	0.195
-745.171	-7.581	-0.148	-0.102
-744.156	800.000	-0.076	0.319
-743.142	-154.557	0.190	0.013
-742.127	-141.142	-0.123	-0.013
-741.112	800.000	-0.065	0.291
-740.098	800.000	0.151	0.480
-739.083	252.242	-0.083	0.144
-738.069	800.000	-0.041	-0.145
-737.054	-200.000	-0.017	0.418
-736.039	-99.331	-0.377	-0.097
-735.025	229.593	0.117	0.195
-734.010	-200.000	-0.014	-0.171
-732.996	-30.233	-0.387	-0.225
-731.981	123.814	-0.059	0.075
-730.966	-65.432	0.086	0.036
-729.952	-200.000	-0.044	-0.374
-728.937	-98.523	-0.234	0.061
-727.923	800.000	-0.078	-0.270
-726.908	11.313	-0.209	-0.163
-725.894	-200.000	-0.018	0.242
-724.879	50.042	-0.251	-0.242
-723.864	-31.352	-0.187	-0.108
-722.850	19.402	-0.065	0.053
-721.835	119.929	-0.276	-0.350
-720.821	-107.847	-0.161	0.036
-719.806	-200.000	-0.014	-0.139
-718.791	-200.000	-0.015	-0.121
-717.777	44.936	-0.027	-0.026
-716.762	-200.000	0.003	-0.053
-715.748	-28.207	-0.095	-0.056
-714.733	-129.223	-0.113	-0.016
-713.718	-9.796	0.418	-0.284
-712.704	-23.978	-0.193	-0.118
-711.689	-9.597	0.186	-0.127
-710.675	74.637	-0.089	0.096
-709.660	800.000	0.079	0.275
-708.645	-75.343	-0.176	-0.064
-707.631	4.554	-0.082	-0.061
-706.616	-200.000	0.021	0.124
-705.602	137.903	0.300	0.401
-704.587	-200.000	-0.026	0.228
-703.572	487.581	-0.065	-0.151
-702.558	402.729	0.045	-0.096
-701.543	67.027	0.010	0.010
-700.529	500.992	0.052	-0.123
-699.514	-68.854	0.225	-0.089
-698.499	-128.008	0.426	-0.063
-697.485	800.000	0.103	0.329
-696.470	-164.563	-0.078	-0.004
-695.456	10.263	0.136	0.106
-694.441	214.100	-0.109	-0.176
-693.426	65.346	-0.118	0.122
-692.412	-58.744	0.407	-0.180
-691.397	-51.403	0.065	0.031
-690.383	73.056	-0.076	0.081
-689.368	260.607	0.143	0.253
-688.354	-38.725	-0.108	-0.058
-687.339	588.024	-0.066	-0.166
-686.324	-63.797	-0.207	0.086
-685.310	-200.000	0.010	0.094
-684.295	-126.992	0.090	-0.014
-683.281	-90.470	-0.084	-0.025
-682.266	617.715	0.138	-0.354
-681.251	800.000	-0.058	0.164
-680.237	144.391	-0.223	-0.304
-679.222	-81.839	0.495	-0.165
-678.208	-25.884	-0.073	-0.044
-677.193	141.154	-0.217	-0.293
-676.178	-92.469	-0.085	0.024
-675.164	-200.000	0.076	-0.587
-674.149	228.846	-0.111	-0.184
-673.135	-200.000	-0.000	0.254
-672.120	-161.714	-0.070	0.004
-671.105	262.509	0.087	0.154
-670.091	-200.000	-0.019	0.114
-669.076	191.325	0.069	-0.106
-668.062	205.470	-0.062	-0.098
-667.047	186.756	0.062	-0.095
-666.032	-200.000	-0.043	0.206
-665.018	40.254	0.160	-0.147
-664.003	-80.170	0.161	-0.055
-662.989	-8.043	0.087	-0.060
-661.974	-73.024	-0.186	0.070
-660.959	-96.418	0.206	0.056
-659.945	154.000	-0.162	-0.227
-658.930	115.317	-0.142	-0.177
-657.916	96.403	-0.129	-0.150
-656.901	800.000	-0.034	0.099
-655.886	800.000	0.022	0.086
-654.872	800.000	-0.037	0.137
-653.857	75.297	0.125	0.134
-652.843	84.807	-0.166	0.186
-651.828	-199.184	0.091	-0.000
-650.814	-102.354	-0.333	-0.081
-649.799	-200.000	0.015	-0.306
-648.784	-145.342	-0.157	0.014
-647.770	-6.879	-0.353	0.245
-646.755	192.616	0.035	-0.054
-645.741	-16.777	0.222	0.143
-644.726	-71.891	0.116	0.044
-643.711	69.834	-0.157	0.166
-642.697	223.431	0.114	0.187
-641.682	-95.020	0.271	0.075
-640.668	519.316	0.101	-0.242
-639.653	16.194	0.189	-0.152
-638.638	-181.780	0.142	0.003
-637.624	800.000	0.064	0.242
-636.609	297.020	-0.117	-0.218
-635.595	81.649	0.203	-0.224
-634.580	68.177	-0.193	0.201
-633.565	2.287	0.328	-0.242
-632.551	250.173	0.074	0.129
-631.536	11.180	-0.130	-0.101
-630.522	-200.000	0.017	0.108
-629.507	-53.449	-0.164	0.077
-628.492	169.954	0.123	-0.179
-627.478	785.543	-0.103	-0.288
-626.463	-98.278	-0.270	-0.071
-625.449	-43.005	-0.046	-0.024
-624.434	-49.730	-0.169	0.082
-623.419	35.709	-0.249	-0.223
-622.405	-32.502	0.320	-0.182
-621.390	114.737	0.089	0.110
-620.376	20.008	-0.149	-0.123
-619.361	-194.435	-0.066	0.001
-618.346	-23.262	0.330	0.202
-617.332	-64.757	-0.295	0.122
-616.317	-200.000	0.035	0.209
-615.303	10.625	0.192	0.149
-614.288	800.000	0.043	0.152
-613.273	800.000	-0.047	-0.151
-612.259	-76.567	0.064	-0.023
-611.244	-128.319	0.248	0.036
-610.230	40.088	-0.134	-0.123
-609.215	-29.724	0.178	0.104
-608.201	-104.235	0.107	0.025
-607.186	85.163	0.139	-0.155
-606.171	147.196	-0.210	0.288
-605.157	-5.109	-0.098	-0.068
-604.142	-124.592	0.157	0.025
-603.128	72.469	0.063	0.066
-602.113	180.333	0.104	0.155
-601.098	-150.943	0.522	0.040
-600.084	-200.000	0.024	-0.211
-599.069	192.002	0.095	-0.146
-598.055	639.492	-0.039	0.101
-597.040	43.237	0.193	0.179
-596.025	-200.000	0.015	0.210
-595.011	504.339	-0.101	-0.237
-593.996	-141.597	0.181	-0.019
-592.982	-200.000	-0.016	-0.138
-591.967	-200.000	0.014	0.245
-590.952	-91.007	-0.133	0.039
-589.938	-200.000	0.028	-0.293
-588.923	-90.897	-0.217	0.063
-587.909	119.795	0.106	0.133
-586.894	-200.000	-0.031	-0.214
-585.879	-72.888	-0.078	0.029
-584.865	39.754	-0.139	0.127
-583.850	26.258	-0.341	-0.290
-582.836	-141.776	-0.129	-0.013
-581.821	-74.695	0.216	0.079
-580.806	-200.000	0.020	0.143
-579.792	-59.066	-0.110	0.048
-578.777	-200.000	-0.023	0.183
-577.763	40.239	0.084	0.077
-576.748	31.366	-0.215	-0.188
-575.733	-200.000	-0.008	0.147
-574.719	523.128	-0.097	-0.232
-573.704	-98.043	-0.412	-0.108
-572.690	27.727	0.259	-0.222
-571.675	413.397	-0.114	0.246
-570.661	800.000	0.063	-0.218
-569.646	-123.773	0.217	0.035
-568.631	136.768	-0.187	0.248
-567.617	-51.605	0.188	-0.089
-566.602	-108.954	0.205	-0.045
-565.588	-200.000	0.090	0.498
-564.573	800.000	0.059	0.187
-563.558	-200.000	0.179	0.001
-562.544	800.000	0.072	0.240
-561.529	-93.031	0.245	0.069
-560.515	-106.107	0.047	0.011
-559.500	-155.285	0.071	0.005
-558.485	-200.000	0.005	0.142
-557.471	66.423	0.193	-0.199
-556.456	-200.000	0.042	-0.191
-555.442	34.327	0.154	-0.136
-554.427	118.952	-0.105	-0.132
-553.412	-200.000	0.041	0.299
-552.398	156.410	0.130	0.182
-551.383	-56.174	0.320	0.145
-550.369	-48.622	0.557	-0.272
-549.354	760.201	-0.060	-0.164
-548.339	267.336	-0.058	0.103
-547.325	-200.000	0.000	-0.120
-546.310	-18.995	-0.178	-0.113
-545.296	-35.282	-0.283	-0.156
-544.281	-86.064	-0.086	-0.027
-543.266	-116.274	0.048	-0.009
-542.252	-1.556	0.246	-0.176
-541.237	254.277	-0.056	-0.097
-540.223	-123.214	-0.068	0.011
-539.208	-200.000	0.003	-0.187
-538.193	-200.000	0.054	-0.313
-537.179	-200.000	-0.048	-0.232
-536.164	250.339	0.143	0.247
-535.150	-74.046	-0.070	-0.026
-534.135	-107.309	-0.063	-0.014
-533.121	-69.912	-0.227	0.088
-532.106	-50.236	-0.202	0.097
-531.091	76.328	0.097	-0.105
-530.077	-24.928	-0.128	0.077
-529.062	135.635	-0.118	-0.155
-528.048	-19.845	-0.073	0.046
-527.033	342.752	-0.073	0.145
-526.018	7.114	-0.132	0.100
-525.004	800.000	-0.082	-0.354
-523.989	800.000	-0.042	0.139
-522.975	48.837	0.233	0.222
-521.960	231.614	0.062	-0.104
-520.945	159.091	0.085	-0.119
-519.931	-200.000	-0.034	0.177
-518.916	519.021	0.058	-0.138
-517.902	279.848	0.108	-0.196
-516.887	-114.978	-0.132	-0.025
-515.872	28.865	-0.231	0.199
-514.858	-89.724	-0.160	-0.048
-513.843	32.205	-0.079	0.069
-512.829	202.576	0.023	0.036
-511.814	-78.375	0.229	0.080
-510.799	800.000	0.094	0.333
-509.785	-161.569	0.275	0.014
-508.770	-200.000	-0.021	0.206
-507.756	378.389	-0.085	-0.177
-506.741	246.636	-0.157	0.268
-505.726	-34.959	0.016	0.009
-504.712	41.828	0.272	-0.250
-503.697	-98.043	-0.130	0.034
-502.683	-90.789	0.014	-0.004
-501.668	-148.183	-0.375	0.031
-500.653	46.724	-0.250	0.236
-499.639	29.861	0.057	0.049
-498.624	324.352	0.135	0.261
-497.610	149.626	-0.153	-0.210
-496.595	181.764	-0.157	-0.234
-495.581	-109.557	-0.236	-0.050
-494.566	207.870	0.175	-0.277
-493.551	324.044	-0.077	-0.150
-492.537	-95.979	0.253	-0.068
-491.522	-170.091	0.022	-0.001
-490.508	-200.000	0.005	0.047
-489.493	-18.725	-0.127	-0.080
-488.478	-6.895	0.229	0.158
-487.464	-131.066	-0.190	-0.026
-486.449	-94.577	-0.157	-0.043
-485.435	53.676	0.109	0.106
-484.420	800.000	-0.116	-0.352
-483.405	-63.034	0.193	-0.081
-482.391	134.852	0.108	-0.142
-481.376	278.204	0.134	-0.242
-480.362	663.850	-0.041	-0.106
-479.347	19.169	0.176	-0.143
-478.332	-139.746	0.263	0.028
-477.318	-200.000	0.034	0.186
-476.303	-100.580	0.095	0.024
-475.289	-74.420	0.181	-0.066
-474.274	89.423	0.156	0.176
-473.259	-200.000	-0.022	-0.356
-472.245	-159.214	-0.431	-0.025
-471.230	-200.000	0.007	0.157
-470.216	246.824	0.011	-0.019
-469.201	800.000	0.080	-0.287
-468.186	52.370	-0.173	0.167
-467.172	-200.000	-0.007	0.048
-466.157	-41.408	-0.053	0.028
-465.143	-200.000	-0.019	-0.473
-464.128	114.232	-0.083	-0.103
-463.113	-120.680	-0.199	0.034
-462.099	-23.922	0.233	-0.141
-461.084	-160.404	0.222	-0.012
-460.070	-200.000	-0.009	0.191
-459.055	800.000	0.084	0.364
-458.040	-200.000	0.001	-0.166
-457.026	-70.085	-0.422	0.162
-456.011	800.000	0.087	-0.252
-454.997	-24.432	0.225	-0.136
-453.982	-200.000	-0.026	-0.227
-452.968	-167.929	-0.290	0.012
-451.953	-200.000	-0.072	-0.413
-450.938	800.000	0.080	-0.338
-449.924	800.000	0.113	0.331
-448.909	-200.000	0.028	0.175
-447.895	11.609	0.035	-0.027
-446.880	800.000	0.040	-0.170
-445.865	248.627	-0.091	0.156
-444.851	800.000	0.081	-0.268
-443.836	-85.578	-0.335	-0.105
-442.822	780.689	0.077	0.212
-441.807	800.000	0.087	0.250
-440.792	144.425	0.163	0.220
-439.778	-105.693	-0.071	0.016
-438.763	327.699	0.120	-0.233
-437.749	-15.100	-0.068	0.044
-436.734	350.960	-0.196	0.393
-435.719	-24.957	-0.174	-0.104
-434.705	316.454	0.138	0.264
-433.690	-200.000	-0.038	0.287
-432.676	125.095	0.154	-0.196
-431.661	-200.000	0.021	0.232
-430.646	-1.580	0.291	-0.207
-429.632	-82.410	-0.351	0.115
-428.617	94.939	0.304	0.350
-427.603	39.756	0.025	-0.023
-426.588	87.027	-0.073	0.081
-425.573	-200.000	-0.039	-0.405
-424.559	-200.000	0.022	-0.125
-423.544	194.447	-0.301	-0.462
-422.530	-111.562	-0.113	-0.023
-421.515	-35.197	-0.145	-0.080
-420.500	-76.020	0.322	0.115
-419.486	208.097	0.170	0.268
-418.471	-200.000	-0.017	0.200
-417.457	531.019	0.081	0.194
-416.442	800.000	0.116	-0.326
-415.428	-20.488	0.041	0.026
-414.413	-67.672	0.154	0.061
-413.398	-200.000	0.018	0.109
-412.384	-200.000	-0.048	0.379
-411.369	672.028	0.076	0.199
-410.355	-32.536	0.104	-0.058
-409.340	-200.000	-0.029	-0.346
-408.325	236.753	0.264	-0.442
-407.311	65.187	-0.157	-0.160
-406.296	-200.000	-0.008	-0.045
-405.282	-33.822	-0.074	0.041
-404.267	624.135	0.092	-0.234
-403.252	800.000	-0.070	0.304
-402.238	220.018	-0.125	0.202
-401.223	8.541	0.256	0.194
-400.209	-122.865	0.116	-0.019
-399.194	800.000	0.061	0.173
-398.179	83.865	0.107	0.118
-397.165	113.584	-0.081	0.099
-396.150	-102.066	-0.199	-0.048
-395.136	-91.937	-0.063	-0.018
-394.121	-92.541	0.369	0.105
-393.106	247.875	-0.085	0.145
-392.092	-94.130	-0.227	0.063
-391.077	800.000	-0.068	-0.240
-390.063	53.091	-0.095	0.092
-389.048	-200.000	0.025	0.167
-388.033	706.862	-0.076	-0.203
-387.019	-50.767	-0.273	-0.130
-386.004	-120.306	0.064	0.011
-384.990	34.972	0.113	-0.100
-383.975	70.653	0.059	-0.061
-382.960	99.648	-0.224	0.262
-381.946	206.961	0.076	0.120
-380.931	794.069	-0.143	0.397
-379.917	171.681	-0.117	0.170
-378.902	145.836	0.159	0.215
-377.888	115.263	-0.026	-0.032
-376.873	395.815	-0.137	0.289
-375.858	517.281	0.078	-0.184
-374.844	14.054	0.274	-0.215
-373.829	-200.000	-0.032	0.303
-372.815	-200.000	0.029	-0.211
-371.800	-200.000	0.016	-0.084
-370.785	-200.000	0.004	0.365
-369.771	36.483	-0.201	-0.179
-368.756	-44.580	0.247	-0.125
-367.742	28.176	-0.178	0.152
-366.727	733.067	-0.099	-0.268
-365.712	442.737	-0.074	-0.163
-364.698	-127.658	-0.087	0.013
-363.683	103.843	-0.119	0.141
-362.669	-23.183	0.387	0.235
-361.654	-115.591	0.066	0.013
-360.639	800.000	0.139	-0.442
-359.625	11.507	0.197	0.153
-358.610	-120.178	0.318	-0.055
-357.596	800.000	0.034	-0.100
-356.581	-125.563	-0.254	0.039
-355.566	371.898	0.149	0.306
-354.552	-52.476	0.257	-0.120
-353.537	-200.000	0.001	-0.101
-352.523	-170.065	-0.317	0.011
-351.508	253.880	0.064	-0.110
-350.493	78.684	0.106	0.114
-349.479	652.587	-0.082	-0.212
-348.464	-47.159	-0.248	0.122
-347.450	-90.734	-0.204	0.059
-346.435	-109.332	0.100	-0.021
-345.420	28.198	0.310	-0.264
-344.406	104.309	-0.070	-0.084
-343.391	-200.000	0.008	0.153
-342.377	147.355	0.066	0.090
-341.362	-166.200	0.350	0.015
-340.348	159.197	-0.039	-0.054
-339.333	-181.139	0.012	0.000
-338.318	163.760	0.067	-0.095
-337.304	-200.000	0.060	-0.320
-336.289	19.800	-0.088	-0.071
-335.275	-120.348	-0.497	0.085
-334.260	425.674	0.055	-0.118
-333.245	800.000	0.055	-0.206
-332.231	15.508	-0.340	0.269
-331.216	26.923	0.034	-0.029
-330.202	4.832	0.233	0.172
-329.187	266.164	0.048	-0.084
-328.172	-52.320	0.111	-0.052
-327.158	-200.000	0.055	-0.354
-326.143	-200.000	-0.003	-0.247
-325.129	-3.788	0.074	0.051
-324.114	-200.000	0.023	-0.213
-323.099	-10.705	0.037	-0.025
-322.085	-200.000	0.000	-0.098
-321.070	-89.547	0.068	-0.020
-320.056	-138.890	0.173	-0.019
-319.041	-158.303	0.206	-0.012
-318.026	-200.000	-0.055	-0.279
-317.012	63.615	-0.231	0.233
-315.997	-105.174	-0.101	-0.023
-314.983	194.339	0.191	-0.292
-313.968	39.927	-0.166	0.150
-312.953	-10.245	-0.298	0.199
-311.939	216.735	-0.018	0.028
-310.924	256.221	0.216	0.374
-309.910	-200.000	0.047	0.284
-308.895	-169.729	-0.295	-0.011
-307.880	-5.257	0.176	0.122
-306.866	-154.654	0.068	0.005
-305.851	26.508	0.396	0.333
-304.837	-24.715	-0.302	0.180
-303.822	-179.159	0.203	0.005
-302.807	-108.512	0.028	0.006
-301.793	34.269	0.103	0.091
-300.778	-200.000	-0.022	0.270
-299.764	54.495	-0.142	0.138
-298.749	-200.000	-0.086	-0.382
-297.735	-200.000	0.027	0.146
-296.720	15.773	0.057	0.045
-295.705	800.000	0.042	-0.127
-294.691	-26.636	-0.110	-0.065
-293.676	68.976	0.128	0.132
-292.662	-200.000	-0.023	0.125
-291.647	-200.000	-0.041	-0.254
-290.632	-64.510	0.276	0.113
-289.618	130.502	0.157	-0.202
-288.603	-14.976	-0.245	0.158
-287.589	113.962	-0.137	-0.167
-286.574	62.492	-0.250	0.251
-285.559	-200.000	0.003	-0.023
-284.545	-165.558	0.178	-0.008
-283.530	-200.000	-0.068	0.320
-282.516	-24.508	0.182	0.109
-281.501	-54.808	0.269	0.122
-280.486	303.033	0.256	0.476
-279.472	345.037	-0.104	0.204
-278.457	-200.000	0.041	0.258
-277.443	718.904	-0.123	-0.329
-276.428	-45.606	0.174	-0.087
-275.413	-84.351	0.112	-0.036
-274.399	800.000	-0.047	-0.177
-273.384	346.137	-0.005	-0.009
-272.370	559.668	0.111	0.268
-271.355	370.150	-0.076	-0.154
-270.340	0.317	0.112	-0.080
-269.326	158.889	-0.123	-0.172
-268.311	174.668	-0.239	-0.348
-267.297	92.484	0.112	0.127
-266.282	144.091	-0.213	0.286
-265.267	-9.706	0.194	-0.130
-264.253	800.000	-0.098	-0.306
-263.238	-8.769	0.184	-0.124
-262.224	-164.551	-0.108	-0.005
-261.209	-51.959	0.123	0.057
-260.195	800.000	-0.023	0.091
-259.180	-200.000	0.004	-0.108
-258.165	13.756	-0.106	0.083
-257.151	-138.264	0.243	-0.027
-256.136	800.000	-0.079	0.228
-255.122	337.793	0.092	0.180
-254.107	-43.651	-0.100	-0.051
-253.092	-6.226	0.100	0.068
-252.078	-125.051	0.029	-0.005
-251.063	118.705	-0.088	0.109
-250.049	800.000	0.063	0.249
-249.034	800.000	-0.051	0.179
-248.019	800.000	-0.033	0.120
-247.005	-164.162	-0.322	0.015
-245.990	-200.000	0.074	0.355
-244.976	-68.198	0.180	0.070
-243.961	221.202	-0.063	-0.102
-242.946	-200.000	0.057	-0.267
-241.932	-177.949	-0.343	-0.008
-240.917	513.283	-0.050	0.118
-239.903	-200.000	0.012	-0.094
-238.888	8.405	0.117	0.089
-237.873	-70.849	-0.203	0.077
-236.859	-125.706	-0.156	-0.024
-235.844	-40.310	0.125	-0.065
-234.830	24.342	0.120	-0.099
-233.815	-84.660	0.119	-0.038
-232.800	46.346	-0.101	-0.094
-231.786	-176.885	-0.061	-0.002
-230.771	48.937	0.031	0.029
-229.757	272.674	-0.109	0.192
-228.742	194.488	0.009	0.013
-227.727	40.988	0.035	0.032
-226.713	28.651	0.094	0.079
-225.698	-200.000	-0.011	0.394
-224.684	-130.256	-0.087	0.012
-223.669	-137.719	0.091	-0.010
-222.655	-32.932	0.200	0.111
-221.640	800.000	-0.063	0.202
-220.625	-200.000	0.039	0.370
-219.611	79.900	-0.201	-0.217
-218.596	-55.763	-0.223	-0.100
-217.582	7.832	-0.189	-0.142
-216.567	800.000	0.042	-0.121
-215.552	35.076	-0.097	0.085
-214.538	248.175	-0.154	-0.261
-213.523	-95.757	-0.032	0.009
-212.509	-84.208	0.137	0.043
-211.494	-200.000	-0.014	-0.160
-210.479	-100.553	-0.095	-0.024
-209.465	-5.742	0.040	0.028
-208.450	6.537	0.046	0.034
-207.436	-20.335	0.206	-0.127
-206.421	-200.000	-0.023	0.295
-205.406	-126.827	0.152	-0.022
-204.392	-107.337	-0.226	0.050
-203.377	-72.520	0.263	0.097
-202.363	-200.000	0.020	-0.110
-201.348	253.327	-0.006	-0.010
-200.333	-71.191	0.022	0.008
-199.319	-200.000	0.020	0.291
-198.304	79.397	-0.048	-0.052
-197.290	-116.904	-0.313	0.057
-196.275	198.265	0.071	-0.109
-195.260	800.000	-0.014	-0.053
-194.246	613.365	0.149	-0.374
-193.231	202.007	-0.264	-0.408
-192.217	-200.000	-0.034	-0.160
-191.202	-135.962	-0.303	0.036
-190.187	59.566	-0.298	-0.295
-189.173	428.527	-0.106	0.230
-188.158	355.799	0.060	-0.120
-187.144	207.427	-0.079	0.123
-186.129	800.000	0.088	0.337
-185.114	90.413	0.130	0.146
-184.100	800.000	-0.192	-0.592
-183.085	800.000	-0.045	-0.153
-182.071	-98.567	-0.196	-0.050
-181.056	56.756	-0.104	0.101
-180.042	-78.801	0.159	-0.054
-179.027	78.474	-0.352	-0.376
-178.012	-57.018	-0.118	0.052
-176.998	730.385	-0.134	-0.360
-175.983	149.806	0.122	0.165
-174.969	9.723	0.083	0.063
-173.954	-111.583	-0.272	-0.055
-172.939	-141.506	-0.143	0.014
-171.925	-42.309	0.240	-0.123
-170.910	-15.322	0.170	0.109
-169.896	109.588	0.059	0.071
-168.881	800.000	0.012	0.036
-167.866	-200.000	-0.032	-0.226
-166.852	688.436	0.132	-0.346
-165.837	765.445	0.059	-0.160
-164.823	-45.714	0.078	0.038
-163.808	-91.050	-0.553	-0.159
-162.793	-165.066	0.229	0.010
-161.779	800.000	-0.058	0.170
-160.764	102.836	-0.191	-0.223
-159.750	3.357	-0.149	0.109
-158.735	315.397	-0.065	0.123
-157.720	-40.271	-0.338	0.176
-156.706	-180.860	-0.200	-0.004
-155.691	-34.987	-0.276	-0.150
-154.677	155.023	-0.044	0.060
-153.662	-70.926	-0.065	0.024
-152.647	50.262	-0.174	0.164
-151.633	-140.298	-0.149	-0.016
-150.618	446.568	0.081	0.179
-149.604	197.189	0.179	-0.273
-148.589	-200.000	0.001	-0.097
-147.574	331.679	0.043	-0.083
-146.560	-200.000	0.011	-0.190
-145.545	293.702	-0.133	0.243
-144.531	-61.564	0.157	0.066
-143.516	4.518	0.314	0.230
-142.502	-38.397	-0.130	0.069
-141.487	227.109	0.059	-0.097
-140.472	371.677	-0.092	-0.186
-139.458	-200.000	0.025	0.128
-138.443	52.802	0.303	-0.289
-137.429	-52.678	0.192	-0.089
-136.414	-72.001	-0.133	0.049
-135.399	300.248	0.047	0.086
-134.385	-170.617	-0.144	0.005
-133.370	204.053	-0.168	-0.260
-132.356	-200.000	0.453	0.001
-131.341	-123.430	-0.109	-0.017
-130.326	510.613	0.084	0.194
-129.312	800.000	0.047	0.182
-128.297	-200.000	0.088	-0.403
-127.283	-45.835	0.154	0.076
-126.268	57.664	0.142	0.139
-125.253	-94.278	-0.215	0.059
-124.239	40.444	-0.344	-0.309
-123.224	-93.899	0.392	-0.108
-122.210	45.014	-0.254	-0.234
-121.195	800.000	-0.079	-0.283
-120.180	426.562	-0.056	0.121
