DTS Sentinel unit serial number:	SN413079Multiplexer serial number:	ORYXHardware model number:	OX4-SRSoftware version number:	ORYX F/W v4.00 Oryx Data Collector v3.7.2.0data status	okinstallation	princeton_trtdifferential loss correction	single-endedforward channel	channel 1reverse channel	N/Adate	2019/09/16time	03:42:35forward acquisition time	60.00reverse acquisition time	0.00gamma	496.2192k internal	0.2331k external	0.2331temperature offset calibration	0.9980default loss term (dB/km)	0.3790temperature slope calibration	1.0000multiplexer offset coefficient	1.0000multiplexer slope coefficient	1.0000fibre end	0.00T internal ref (°C)	27.56T ext. ref 1 (°C)	10.62T ext. ref 2 (°C)	21.71length (m)	temperature (°C)	Stokes	anti-Stokes-747.200	800.000	0.108	0.333
-746.185	131.967	-0.093	0.120
-745.171	-99.830	0.385	0.097
-744.156	229.531	-0.124	0.204
-743.142	-61.860	-0.218	-0.092
-742.127	384.259	0.015	0.031
-741.112	800.000	-0.075	-0.328
-740.098	597.030	0.018	0.045
-739.083	-36.409	0.145	0.079
-738.069	-126.194	0.197	-0.030
-737.054	542.015	0.068	-0.164
-736.039	8.746	-0.355	-0.269
-735.025	-157.673	0.172	-0.010
-734.010	800.000	-0.023	-0.103
-732.996	-64.792	0.041	-0.017
-731.981	-150.875	-0.149	-0.011
-730.966	-200.000	-0.157	0.000
-729.952	-200.000	0.003	-0.165
-728.937	-63.031	-0.151	0.063
-727.923	206.645	-0.195	-0.306
-726.908	45.313	-0.187	-0.174
-725.894	-77.558	-0.125	0.044
-724.879	-200.000	-0.009	-0.140
-723.864	203.006	-0.099	0.154
-722.850	-200.000	0.002	0.216
-721.835	128.879	-0.141	-0.180
-720.821	40.889	0.140	-0.127
-719.806	-104.769	-0.193	-0.045
-718.791	311.924	0.045	0.084
-717.777	-200.000	-0.008	-0.181
-716.762	77.202	-0.123	0.132
-715.748	800.000	0.065	0.206
-714.733	-200.000	-0.013	-0.138
-713.718	-66.719	-0.214	-0.085
-712.704	-135.617	0.294	-0.035
-711.689	-27.682	-0.176	0.103
-710.675	24.707	-0.138	-0.115
-709.660	399.968	0.031	0.065
-708.645	-63.874	-0.365	0.150
-707.631	101.741	-0.060	-0.070
-706.616	206.288	-0.068	-0.107
-705.602	290.217	0.035	0.063
-704.587	-200.000	0.023	-0.257
-703.572	-141.454	-0.274	-0.028
-702.558	-3.654	-0.166	0.116
-701.543	44.262	-0.115	-0.106
-700.529	281.844	-0.081	-0.146
-699.514	-152.969	-0.307	0.022
-698.499	-84.772	-0.143	0.045
-697.485	-200.000	-0.028	0.390
-696.470	-10.174	-0.109	-0.073
-695.456	-200.000	-0.012	0.400
-694.441	-127.880	-0.207	0.030
-693.426	102.412	0.103	0.120
-692.412	-171.701	0.434	0.014
-691.397	-120.238	-0.390	0.067
-690.383	-138.195	-0.265	0.029
-689.368	-102.474	0.139	0.034
-688.354	-69.195	-0.228	0.088
-687.339	-171.075	0.281	0.010
-686.324	-43.016	0.159	0.081
-685.310	800.000	-0.051	-0.207
-684.295	-35.267	0.149	-0.081
-683.281	-114.130	-0.285	-0.055
-682.266	800.000	-0.066	-0.254
-681.251	56.853	-0.146	-0.142
-680.237	149.981	0.100	-0.136
-679.222	-200.000	-0.038	0.315
-678.208	-113.894	-0.118	-0.023
-677.193	-88.248	-0.233	-0.070
-676.178	-145.122	-0.499	-0.046
-675.164	-46.489	0.184	-0.091
-674.149	42.018	0.251	0.229
-673.135	-200.000	-0.063	-0.284
-672.120	-200.000	0.045	-0.431
-671.105	-19.482	0.164	0.102
-670.091	-88.456	-0.048	-0.014
-669.076	-200.000	-0.002	0.066
-668.062	-127.281	0.137	0.020
-667.047	6.827	-0.321	0.240
-666.032	-200.000	-0.013	0.205
-665.018	-200.000	0.005	0.086
-664.003	-200.000	-0.056	-0.259
-662.989	-162.360	0.106	0.005
-661.974	800.000	0.032	-0.140
-660.959	-96.113	0.351	-0.094
-659.945	-124.892	-0.443	-0.069
-658.930	268.829	0.057	-0.101
-657.916	6.385	0.332	0.247
-656.901	600.826	0.023	-0.058
-655.886	58.702	0.298	-0.293
-654.872	485.377	0.084	-0.191
-653.857	-66.114	-0.175	-0.070
-652.843	225.914	0.070	-0.114
-651.828	-200.000	-0.045	-0.208
-650.814	800.000	-0.077	0.223
-649.799	800.000	0.097	0.344
-648.784	-96.427	-0.421	0.112
-647.770	-82.376	0.347	-0.113
-646.755	-16.962	0.037	0.023
-645.741	800.000	-0.053	-0.234
-644.726	538.923	0.055	0.130
-643.711	-92.150	0.128	-0.036
-642.697	-53.225	0.356	-0.164
-641.682	191.037	-0.180	-0.271
-640.668	-60.022	0.158	-0.068
-639.653	-42.037	0.289	0.148
-638.638	-78.294	0.199	0.068
-637.624	-119.064	-0.174	0.031
-636.609	-200.000	0.004	0.103
-635.595	-5.939	0.122	-0.084
-634.580	24.198	-0.149	-0.123
-633.565	-200.000	0.023	-0.149
-632.551	8.563	0.048	0.036
-631.536	-32.831	-0.307	0.171
-630.522	-200.000	-0.010	0.091
-629.507	-106.508	-0.123	0.027
-628.492	-200.000	-0.037	0.459
-627.478	-200.000	0.019	-0.319
-626.463	-124.063	-0.138	0.022
-625.449	-48.084	0.112	0.054
-624.434	-122.786	-0.264	0.043
-623.419	-200.000	-0.011	-0.246
-622.405	-105.301	0.207	0.047
-621.390	165.957	-0.102	0.145
-620.376	-53.488	-0.215	-0.098
-619.361	33.579	-0.179	-0.156
-618.346	90.929	0.082	0.093
-617.332	800.000	0.114	-0.363
-616.317	38.180	0.220	-0.196
-615.303	33.809	-0.180	0.157
-614.288	166.879	-0.123	-0.174
-613.273	142.237	0.207	0.275
-612.259	85.344	0.234	0.257
-611.244	86.216	0.210	0.232
-610.230	217.190	-0.178	0.284
-609.215	204.130	-0.145	0.225
-608.201	-83.642	-0.337	-0.108
-607.186	-96.301	-0.321	0.085
-606.171	-83.073	0.225	-0.073
-605.157	800.000	0.043	0.131
-604.142	-94.699	0.404	-0.110
-603.128	54.697	-0.171	-0.166
-602.113	-12.376	0.055	-0.036
-601.098	119.100	0.416	0.515
-600.084	754.729	0.057	0.153
-599.069	-67.096	0.254	-0.100
-598.055	-114.943	0.287	-0.055
-597.040	127.381	0.119	-0.151
-596.025	-43.354	-0.420	0.213
-595.011	-200.000	0.014	-0.101
-593.996	-200.000	0.003	-0.096
-592.982	-62.987	-0.040	-0.016
-591.967	189.106	-0.099	-0.149
-590.952	800.000	-0.022	0.065
-589.938	800.000	-0.070	0.222
-588.923	7.362	0.152	-0.114
-587.909	34.423	0.133	0.116
-586.894	48.126	0.222	0.208
-585.879	3.212	0.089	0.065
-584.865	-155.034	0.087	-0.006
-583.850	-2.863	-0.301	-0.211
-582.836	485.833	-0.125	0.286
-581.821	21.729	0.298	0.243
-580.806	-10.624	-0.413	-0.273
-579.792	385.473	0.069	-0.142
-578.777	-200.000	0.038	0.311
-577.763	-5.448	0.078	0.054
-576.748	497.564	-0.059	0.135
-575.733	-85.248	0.032	0.010
-574.719	-83.116	0.207	-0.067
-573.704	-113.779	-0.245	-0.048
-572.690	-158.463	-0.409	0.024
-571.675	436.598	0.074	-0.161
-570.661	98.724	0.211	-0.243
-569.646	291.790	0.184	-0.335
-568.631	-145.931	0.296	-0.026
-567.617	800.000	-0.134	0.465
-566.602	800.000	0.027	-0.103
-565.588	-29.018	-0.179	-0.103
-564.573	-200.000	0.028	0.571
-563.558	5.134	0.315	-0.232
-562.544	-70.059	-0.257	-0.098
-561.529	121.909	0.113	-0.141
-560.515	231.650	0.191	-0.313
-559.500	-17.552	-0.201	0.126
-558.485	79.293	0.106	0.113
-557.471	-17.324	-0.207	-0.130
-556.456	800.000	0.064	-0.207
-555.442	-5.280	0.146	-0.100
-554.427	-41.095	-0.134	-0.069
-553.412	375.265	0.106	-0.216
-552.398	52.216	0.192	0.183
-551.383	169.733	0.167	0.238
-550.369	0.250	0.146	-0.104
-549.354	430.114	0.101	-0.219
-548.339	52.732	0.185	0.176
-547.325	800.000	0.087	-0.265
-546.310	-200.000	-0.016	-0.106
-545.296	413.144	0.022	-0.046
-544.281	800.000	-0.050	0.217
-543.266	187.428	0.220	-0.328
-542.252	44.315	0.331	0.303
-541.237	39.175	-0.242	0.216
-540.223	-12.599	-0.232	-0.151
-539.208	-200.000	-0.003	0.227
-538.193	-200.000	0.045	0.333
-537.179	10.666	-0.246	0.188
-536.164	-95.000	-0.130	0.035
-535.150	-33.155	0.221	-0.122
-534.135	274.610	-0.117	-0.207
-533.121	42.310	-0.012	-0.011
-532.106	800.000	-0.114	0.368
-531.091	135.839	0.092	0.120
-530.077	160.468	-0.112	-0.156
-529.062	-200.000	0.044	-0.272
-528.048	117.839	0.077	0.095
-527.033	-34.260	-0.268	-0.147
-526.018	-112.150	-0.058	0.012
-525.004	-84.317	-0.058	-0.018
-523.989	-59.533	0.142	-0.061
-522.975	144.416	-0.170	0.227
-521.960	81.832	0.145	-0.157
-520.945	204.660	-0.091	-0.140
-519.931	-140.852	-0.092	-0.009
-518.916	37.154	-0.178	0.157
-517.902	-19.267	0.104	-0.065
-516.887	24.204	0.163	-0.135
-515.872	102.181	0.154	-0.180
-514.858	-54.373	-0.201	-0.091
-513.843	57.416	0.232	0.227
-512.829	305.494	0.060	-0.111
-511.814	-200.000	0.010	-0.229
-510.799	-78.807	0.229	0.078
-509.785	-49.192	-0.071	-0.034
-508.770	-200.000	-0.003	-0.048
-507.756	-200.000	0.003	-0.183
-506.741	540.015	-0.075	0.178
-505.726	-87.582	0.138	-0.042
-504.712	-200.000	0.000	0.020
-503.697	800.000	-0.050	-0.142
-502.683	32.465	-0.093	-0.080
-501.668	202.909	0.087	-0.135
-500.653	-88.748	-0.079	-0.024
-499.639	-10.123	-0.069	0.045
-498.624	800.000	-0.113	-0.318
-497.610	-200.000	0.268	0.001
-496.595	-200.000	0.038	-0.342
-495.581	77.533	0.029	-0.030
-494.566	-103.171	0.089	-0.021
-493.551	-142.023	-0.421	-0.042
-492.537	-38.599	-0.140	-0.074
-491.522	-200.000	0.014	-0.236
-490.508	-67.194	-0.254	0.100
-489.493	341.727	0.118	0.231
-488.478	-154.613	0.108	-0.007
-487.464	164.925	-0.294	-0.413
-486.449	-49.296	0.228	-0.108
-485.435	-13.828	-0.177	-0.114
-484.420	-200.000	-0.051	-0.000
-483.405	143.558	0.133	0.176
-482.391	-75.710	0.420	0.149
-481.376	-59.719	0.203	0.087
-480.362	41.937	-0.087	0.079
-479.347	6.381	0.235	-0.174
-478.332	-68.622	0.104	-0.040
-477.318	800.000	0.068	-0.263
-476.303	-47.698	0.221	-0.107
-475.289	37.742	0.121	-0.107
-474.274	51.505	-0.054	0.051
-473.259	28.583	-0.049	0.041
-472.245	-200.000	0.015	-0.415
-471.230	107.808	0.112	-0.133
-470.216	-38.457	0.238	-0.125
-469.201	-180.311	0.204	-0.004
-468.186	-133.466	-0.180	0.023
-467.172	-31.799	-0.145	-0.081
-466.157	11.732	0.303	-0.232
-465.143	109.120	-0.191	-0.228
-464.128	800.000	0.072	-0.200
-463.113	-200.000	0.000	0.288
-462.099	-157.839	0.193	0.011
-461.084	128.681	-0.139	0.177
-460.070	-200.000	0.010	0.069
-459.055	-21.291	-0.246	0.150
-458.040	-107.095	0.254	0.056
-457.026	185.761	0.137	0.203
-456.011	-53.143	0.214	-0.098
-454.997	2.646	-0.376	0.271
-453.982	541.715	0.070	0.166
-452.968	-135.065	0.159	-0.019
-451.953	35.571	0.271	-0.237
-450.938	-200.000	0.065	0.355
-449.924	-186.484	-0.308	-0.004
-448.909	-34.908	0.291	0.158
-447.895	-122.381	0.124	-0.020
-446.880	800.000	-0.009	-0.029
-445.865	69.275	0.154	0.158
-444.851	-45.764	-0.225	-0.111
-443.836	-50.974	0.299	0.139
-442.822	-100.138	-0.174	-0.043
-441.807	-56.152	0.154	0.068
-440.792	145.109	-0.226	-0.300
-439.778	-59.592	-0.184	-0.078
-438.763	-200.000	-0.022	-0.186
-437.749	186.599	-0.187	-0.277
-436.734	56.144	-0.263	-0.254
-435.719	-164.840	0.168	-0.007
-434.705	65.460	0.199	0.201
-433.690	86.280	0.161	0.176
-432.676	800.000	0.030	-0.126
-431.661	-35.655	0.248	-0.133
-430.646	-18.835	0.158	0.098
-429.632	-183.021	0.340	-0.006
-428.617	175.412	0.172	-0.248
-427.603	-126.246	0.180	-0.027
-426.588	-161.232	0.099	0.005
-425.573	-24.272	-0.053	-0.032
-424.559	-146.310	0.148	0.013
-423.544	800.000	0.072	-0.291
-422.530	800.000	0.023	-0.080
-421.515	103.705	0.166	0.194
-420.500	119.618	-0.129	0.159
-419.486	-101.977	0.143	0.034
-418.471	-200.000	0.116	0.574
-417.457	-195.528	-0.071	-0.001
-416.442	176.422	-0.166	-0.239
-415.428	-16.682	-0.180	0.113
-414.413	-25.970	-0.201	0.118
-413.398	3.074	-0.135	-0.098
-412.384	19.316	-0.192	0.153
-411.369	385.769	0.104	0.214
-410.355	-200.000	0.012	-0.301
-409.340	315.953	-0.048	0.090
-408.325	-45.457	0.223	-0.110
-407.311	800.000	-0.078	0.267
-406.296	-200.000	-0.046	0.337
-405.282	800.000	-0.084	0.255
-404.267	-61.772	0.249	0.103
-403.252	-108.481	-0.116	0.025
-402.238	25.286	-0.218	-0.180
-401.223	-131.744	-0.254	0.033
-400.209	-11.144	-0.168	0.110
-399.194	-200.000	-0.003	0.049
-398.179	-6.248	-0.223	0.151
-397.165	-161.058	0.438	-0.023
-396.150	-24.760	0.172	0.102
-395.136	111.361	0.075	-0.090
-394.121	800.000	-0.080	0.262
-393.106	800.000	-0.041	-0.136
-392.092	-200.000	0.050	0.277
-391.077	-42.362	0.232	-0.117
-390.063	-93.851	0.269	-0.073
-389.048	-200.000	-0.026	0.370
-388.033	-200.000	0.018	-0.125
-387.019	398.469	-0.143	0.297
-386.004	73.262	0.088	-0.092
-384.990	-113.675	-0.076	0.015
-383.975	-84.090	-0.166	0.052
-382.960	361.872	-0.101	-0.200
-381.946	-89.154	-0.206	-0.060
-380.931	-120.649	0.173	0.029
-379.917	185.733	-0.117	0.172
-378.902	-200.000	0.015	0.219
-377.888	-130.643	-0.076	0.010
-376.873	-40.376	0.169	-0.087
-375.858	-200.000	0.015	-0.361
-374.844	800.000	0.013	0.038
-373.829	173.660	0.188	-0.269
-372.815	-200.000	0.016	-0.304
-371.800	395.798	0.002	-0.005
-370.785	-200.000	0.012	0.148
-369.771	-200.000	0.060	0.285
-368.756	800.000	-0.116	0.395
-367.742	17.583	0.205	0.162
-366.727	-63.200	-0.136	0.056
-365.712	68.248	-0.208	-0.212
-364.698	42.895	-0.231	-0.209
-363.683	-177.926	0.486	0.012
-362.669	-200.000	-0.027	0.218
-361.654	-119.243	0.299	0.052
-360.639	800.000	0.028	-0.088
-359.625	-200.000	-0.037	-0.246
-358.610	5.625	0.143	-0.105
-357.596	-200.000	-0.003	0.388
-356.581	533.818	-0.147	0.346
-355.566	52.510	0.145	0.138
-354.552	-142.295	0.187	0.018
-353.537	-200.000	0.048	0.259
-352.523	800.000	-0.124	0.420
-351.508	-145.632	-0.137	-0.012
-350.493	-120.720	0.089	0.015
-349.479	-149.250	0.130	0.010
-348.464	-200.000	-0.034	-0.387
-347.450	0.425	-0.095	0.067
-346.435	167.843	0.040	0.056
-345.420	200.395	-0.190	-0.289
-344.406	-200.000	0.004	0.291
-343.391	-103.379	0.191	0.045
-342.377	10.976	-0.317	-0.240
-341.362	197.546	0.044	0.067
-340.348	-200.000	0.044	0.222
-339.333	304.918	-0.088	0.162
-338.318	5.227	-0.121	0.089
-337.304	-24.692	0.290	0.171
-336.289	-200.000	-0.013	0.070
-335.275	346.993	-0.164	0.320
-334.260	-159.887	-0.122	0.007
-333.245	75.030	-0.232	-0.242
-332.231	738.832	0.107	-0.284
-331.216	73.123	-0.294	-0.305
-330.202	15.994	0.154	0.120
-329.187	-200.000	-0.005	-0.197
-328.172	800.000	-0.066	-0.272
-327.158	800.000	-0.078	-0.228
-326.143	-132.000	0.060	0.008
-325.129	0.432	0.369	0.261
-324.114	-117.518	-0.376	-0.067
-323.099	306.804	0.161	0.297
-322.085	77.590	-0.169	0.178
-321.070	9.591	-0.107	-0.081
-320.056	-68.895	-0.367	-0.140
-319.041	-200.000	-0.004	0.080
-318.026	-91.979	0.417	0.117
-317.012	73.732	0.027	-0.028
-315.997	508.580	-0.160	-0.369
-314.983	-33.205	-0.043	-0.023
-313.968	-200.000	0.021	-0.145
-312.953	102.458	0.248	-0.287
-311.939	-147.380	-0.311	-0.026
-310.924	-147.966	-0.107	0.009
-309.910	237.213	0.131	0.214
-308.895	102.798	0.183	0.211
-307.880	379.898	0.091	0.185
-306.866	-200.000	0.002	-0.150
-305.851	-116.224	0.276	0.051
-304.837	-200.000	0.011	0.178
-303.822	-37.652	0.224	-0.118
-302.807	210.699	0.072	0.112
-301.793	467.547	0.034	0.076
-300.778	89.752	0.131	-0.144
-299.764	76.221	-0.008	0.009
-298.749	-148.278	-0.074	-0.006
-297.735	209.918	-0.153	0.237
-296.720	143.304	-0.264	0.348
-295.705	51.365	-0.047	0.045
-294.691	115.124	-0.124	0.150
-293.676	-76.698	0.385	0.134
-292.662	-85.565	-0.271	0.083
-291.647	8.600	0.156	-0.116
-290.632	592.076	-0.066	-0.160
-289.618	-78.755	0.076	-0.026
-288.603	143.878	0.117	0.154
-287.589	-200.000	-0.099	-0.432
-286.574	-200.000	-0.039	-0.509
-285.559	-200.000	0.005	-0.166
-284.545	456.024	0.087	0.192
-283.530	-200.000	-0.021	0.143
-282.516	-137.366	0.152	-0.017
-281.501	-129.408	-0.174	0.024
-280.486	87.464	0.271	-0.297
-279.472	-114.605	0.095	-0.018
-278.457	-54.837	-0.051	0.023
-277.443	29.583	0.044	-0.037
-276.428	-135.559	-0.298	-0.035
-275.413	687.975	-0.114	0.296
-274.399	221.465	0.149	-0.236
-273.384	800.000	0.078	0.244
-272.370	-154.168	-0.363	-0.024
-271.355	-47.480	-0.120	-0.058
-270.340	55.951	-0.300	-0.288
-269.326	721.056	-0.102	-0.267
-268.311	647.513	0.047	0.119
-267.297	15.182	-0.222	-0.172
-266.282	-1.853	-0.338	-0.235
-265.267	528.411	-0.031	0.073
-264.253	83.204	-0.059	0.064
-263.238	698.110	-0.068	-0.176
-262.224	-200.000	0.006	-0.105
-261.209	800.000	0.048	0.137
-260.195	-66.794	-0.133	0.052
-259.180	60.062	0.029	-0.028
-258.165	800.000	0.035	-0.131
-257.151	-200.000	-0.031	0.293
-256.136	-125.849	0.252	-0.038
-255.122	-200.000	-0.013	0.194
-254.107	-10.275	-0.100	0.065
-253.092	-200.000	-0.018	0.304
-252.078	2.985	-0.147	0.105
-251.063	-200.000	-0.011	0.344
-250.049	-53.377	0.086	0.039
-249.034	-200.000	-0.000	-0.364
-248.019	77.196	-0.067	0.070
-247.005	307.408	-0.109	-0.201
-245.990	-132.918	0.355	0.045
-244.976	-95.310	-0.043	0.012
-243.961	-111.836	0.229	0.046
-242.946	-23.664	-0.212	-0.125
-241.932	-77.530	0.276	0.095
-240.917	10.017	-0.075	0.056
-239.903	457.483	-0.013	-0.029
-238.888	-188.119	-0.170	-0.002
-237.873	254.432	-0.118	-0.199
-236.859	-43.221	-0.156	0.078
-235.844	59.376	-0.197	-0.191
-234.830	-200.000	0.026	0.331
-233.815	-200.000	-0.076	-0.342
-232.800	-73.834	0.254	0.091
-231.786	128.962	-0.102	0.129
-230.771	12.456	-0.219	0.167
-229.757	118.674	-0.249	0.304
-228.742	479.386	-0.062	-0.138
-227.727	-100.701	0.236	0.057
-226.713	-51.170	0.305	-0.141
-225.698	44.590	0.117	-0.106
-224.684	93.154	-0.226	-0.253
-223.669	-154.760	-0.178	-0.012
-222.655	173.899	0.113	-0.161
-221.640	-144.235	-0.054	-0.005
-220.625	623.823	0.063	0.157
-219.611	-71.874	0.194	0.071
-218.596	73.385	-0.142	-0.146
-217.582	191.834	-0.048	0.071
-216.567	-141.539	-0.380	-0.038
-215.552	385.317	0.097	0.198
-214.538	-45.337	-0.276	-0.135
-213.523	-200.000	-0.004	-0.151
-212.509	-120.402	-0.162	-0.027
-211.494	-115.970	0.083	-0.015
-210.479	-16.217	0.162	-0.102
-209.465	-200.000	0.072	0.468
-208.450	143.511	0.032	-0.041
-207.436	-200.000	-0.001	0.254
-206.421	-200.000	-0.042	-0.202
-205.406	-59.301	-0.154	0.065
-204.392	-200.000	0.007	0.044
-203.377	437.301	0.065	0.140
-202.363	-158.717	0.099	0.006
-201.348	63.949	-0.174	-0.172
-200.333	800.000	0.031	-0.110
-199.319	-105.057	-0.139	0.031
-198.304	262.079	-0.159	0.272
-197.290	800.000	-0.144	-0.511
-196.275	364.781	0.033	0.066
-195.260	800.000	0.037	0.105
-194.246	-151.588	-0.199	0.014
-193.231	-200.000	0.016	-0.375
-192.217	-11.044	-0.033	0.022
-191.202	10.762	-0.114	-0.086
-190.187	-140.477	-0.144	0.015
-189.173	-200.000	-0.018	-0.194
-188.158	-99.924	0.349	-0.086
-187.144	-35.839	-0.024	-0.013
-186.129	35.956	-0.163	-0.141
-185.114	251.740	0.088	0.147
-184.100	-0.224	-0.178	-0.125
-183.085	-60.524	0.117	0.049
-182.071	30.174	-0.142	-0.119
-181.056	84.164	-0.200	-0.215
-180.042	-200.000	0.017	0.214
-179.027	18.218	-0.326	0.257
-178.012	677.149	0.167	0.428
-176.998	-150.589	-0.062	0.005
-175.983	-191.152	-0.285	-0.003
-174.969	50.396	-0.100	0.093
-173.954	265.860	0.076	0.131
-172.939	-139.788	-0.233	0.024
-171.925	245.839	0.197	0.327
-170.910	30.092	-0.250	-0.210
-169.896	65.326	0.222	-0.221
-168.881	800.000	0.064	0.179
-167.866	-76.699	-0.105	-0.036
-166.852	800.000	0.013	0.050
-165.837	404.164	-0.092	0.190
-164.823	-200.000	0.008	-0.239
-163.808	496.953	-0.022	-0.049
-162.793	456.599	-0.046	-0.100
-161.779	111.612	-0.208	-0.247
-160.764	-116.751	0.282	-0.051
-159.750	-136.090	-0.178	-0.021
-158.735	-15.337	-0.221	-0.139
-157.720	-73.795	-0.395	-0.141
-156.706	-200.000	-0.011	-0.163
-155.691	131.933	-0.171	-0.216
-154.677	48.777	-0.063	0.058
-153.662	91.242	-0.119	-0.132
-152.647	52.018	0.093	0.087
-151.633	96.043	0.252	0.284
-150.618	56.200	-0.341	-0.325
-149.604	16.645	-0.041	0.032
-148.589	800.000	0.084	-0.271
-147.574	800.000	-0.051	-0.160
-146.560	-37.394	-0.174	0.091
-145.545	-75.442	0.239	-0.084
-144.531	-83.500	0.441	0.139
-143.516	321.539	0.167	0.312
-142.502	291.444	0.132	0.237
-141.487	-200.000	-0.002	-0.064
-140.472	57.129	-0.349	-0.335
-139.458	-28.931	-0.079	-0.045
-138.443	398.447	-0.059	-0.122
-137.429	-200.000	-0.040	-0.240
-136.414	800.000	0.063	0.196
-135.399	800.000	-0.038	0.165
-134.385	-29.639	0.159	-0.089
-133.370	24.553	0.129	-0.105
-132.356	-200.000	-0.007	0.126
-131.341	258.220	0.155	0.262
-130.326	-42.973	0.208	-0.104
-129.312	-10.109	0.145	0.095
-128.297	316.943	0.011	-0.021
-127.283	-96.862	0.218	-0.056
-126.268	-154.218	0.167	-0.011
-125.253	63.248	0.301	-0.296
-124.239	119.583	-0.181	0.220
-123.224	291.600	-0.025	0.045
-122.210	63.008	0.312	0.307
-121.195	-25.935	-0.287	-0.166
