DTS Sentinel unit serial number:	SN413079Multiplexer serial number:	ORYXHardware model number:	OX4-SRSoftware version number:	ORYX F/W v4.00 Oryx Data Collector v3.7.2.0data status	okinstallation	princeton_trtdifferential loss correction	single-endedforward channel	channel 1reverse channel	N/Adate	2019/09/13time	22:34:35forward acquisition time	60.00reverse acquisition time	0.00gamma	496.2192k internal	0.2332k external	0.2332temperature offset calibration	1.0088default loss term (dB/km)	0.3790temperature slope calibration	1.0000multiplexer offset coefficient	1.0000multiplexer slope coefficient	1.0000fibre end	0.00T internal ref (°C)	27.70T ext. ref 1 (°C)	3.23T ext. ref 2 (°C)	21.99length (m)	temperature (°C)	Stokes	anti-Stokes-747.200	-90.337	0.392	-0.114
-746.185	-38.586	-0.284	0.151
-745.171	-88.899	-0.391	-0.117
-744.156	-44.140	-0.265	0.134
-743.142	-112.757	0.256	0.051
-742.127	-200.000	0.008	-0.209
-741.112	-0.793	0.177	0.126
-740.098	162.787	0.034	-0.048
-739.083	-200.000	-0.010	-0.142
-738.069	199.870	-0.137	0.212
-737.054	-200.000	-0.005	-0.364
-736.039	-71.337	-0.166	-0.063
-735.025	145.171	-0.032	-0.043
-734.010	-119.426	-0.298	-0.052
-732.996	-122.086	-0.245	0.040
-731.981	-79.737	-0.260	-0.088
-730.966	-85.643	-0.253	-0.079
-729.952	57.407	0.259	0.255
-728.937	-200.000	0.044	-0.216
-727.923	330.873	-0.082	0.159
-726.908	24.241	-0.236	0.196
-725.894	-200.000	0.006	-0.423
-724.879	-200.000	-0.080	-0.489
-723.864	-200.000	-0.047	-0.281
-722.850	-58.386	-0.008	0.004
-721.835	129.172	-0.142	-0.182
-720.821	-200.000	0.069	-0.475
-719.806	336.092	0.042	0.081
-718.791	768.397	0.039	-0.106
-717.777	-130.784	0.076	0.010
-716.762	38.033	0.130	0.116
-715.748	5.544	0.188	-0.139
-714.733	-135.294	0.186	-0.022
-713.718	-20.246	-0.387	0.240
-712.704	-110.586	0.423	-0.088
-711.689	106.441	-0.337	-0.401
-710.675	-157.046	-0.262	0.016
-709.660	-12.914	-0.103	0.067
-708.645	-16.328	0.068	0.043
-707.631	-89.782	-0.032	0.010
-706.616	12.398	0.137	0.106
-705.602	800.000	-0.113	0.370
-704.587	800.000	-0.042	-0.148
-703.572	-200.000	-0.353	0.001
-702.558	-67.576	0.030	0.012
-701.543	143.528	-0.148	-0.198
-700.529	587.940	0.115	-0.285
-699.514	70.293	-0.119	-0.124
-698.499	107.487	0.131	-0.156
-697.485	-200.000	0.030	-0.152
-696.470	-112.595	0.148	-0.030
-695.456	-200.000	-0.048	-0.245
-694.441	-200.000	0.021	0.131
-693.426	-40.609	-0.155	0.081
-692.412	800.000	-0.088	-0.331
-691.397	85.981	0.063	0.069
-690.383	-200.000	-0.019	0.173
-689.368	238.139	-0.065	0.108
-688.354	60.431	-0.190	0.189
-687.339	432.514	0.113	-0.247
-686.324	229.378	0.109	0.179
-685.310	250.736	-0.068	0.117
-684.295	800.000	0.035	-0.108
-683.281	125.929	0.127	-0.161
-682.266	93.631	0.176	0.200
-681.251	800.000	0.088	0.330
-680.237	348.521	-0.137	-0.271
-679.222	352.632	-0.124	-0.246
-678.208	-143.080	0.425	0.041
-677.193	-22.600	0.169	-0.103
-676.178	-132.734	0.181	-0.023
-675.164	347.012	0.130	-0.256
-674.149	415.628	0.115	-0.245
-673.135	61.744	0.131	-0.131
-672.120	800.000	0.073	0.247
-671.105	33.974	-0.157	-0.137
-670.091	148.212	0.123	0.167
-669.076	-174.950	-0.090	0.003
-668.062	706.456	-0.156	-0.413
-667.047	-70.776	-0.151	0.057
-666.032	-74.442	-0.425	0.154
-665.018	84.031	-0.100	0.110
-664.003	13.317	0.194	0.151
-662.989	72.832	0.063	0.066
-661.974	90.343	0.074	-0.083
-660.959	105.595	-0.146	0.173
-659.945	180.469	-0.214	-0.315
-658.930	-200.000	0.043	-0.219
-657.916	20.966	0.104	-0.085
-656.901	-200.000	0.012	0.190
-655.886	678.497	0.033	-0.087
-654.872	174.045	-0.111	0.160
-653.857	-50.569	0.235	0.111
-652.843	-126.004	0.094	-0.014
-651.828	-11.572	-0.309	0.203
-650.814	-200.000	0.002	-0.011
-649.799	120.283	-0.307	-0.382
-648.784	800.000	0.089	-0.299
-647.770	-200.000	-0.001	-0.031
-646.755	3.632	0.215	-0.157
-645.741	-62.696	0.025	-0.010
-644.726	-60.972	-0.497	0.211
-643.711	-91.133	-0.327	0.094
-642.697	616.316	-0.076	-0.191
-641.682	800.000	-0.015	0.059
-640.668	-200.000	0.017	0.186
-639.653	800.000	-0.032	-0.103
-638.638	209.583	-0.132	-0.208
-637.624	410.755	-0.143	-0.303
-636.609	800.000	-0.082	0.256
-635.595	11.521	-0.156	-0.120
-634.580	-159.190	0.184	-0.010
-633.565	-200.000	0.043	-0.230
-632.551	-200.000	0.014	-0.068
-631.536	5.348	0.056	0.041
-630.522	565.246	0.098	0.237
-629.507	-200.000	0.073	-0.326
-628.492	-39.087	0.200	-0.106
-627.478	-200.000	-0.003	-0.108
-626.463	384.101	0.057	-0.118
-625.449	94.237	-0.122	-0.139
-624.434	70.017	-0.135	-0.139
-623.419	498.468	0.113	-0.260
-622.405	-100.454	-0.247	-0.061
-621.390	800.000	-0.111	-0.395
-620.376	-200.000	-0.008	0.201
-619.361	-200.000	0.006	0.077
-618.346	-185.203	-0.305	-0.005
-617.332	-67.918	0.169	-0.066
-616.317	-200.000	0.004	-0.130
-615.303	-149.353	-0.219	0.017
-614.288	-165.962	0.222	0.010
-613.273	489.672	-0.194	-0.443
-612.259	165.886	-0.310	-0.439
-611.244	-200.000	-0.044	-0.265
-610.230	158.939	0.173	0.240
-609.215	611.661	-0.156	-0.390
-608.201	101.451	0.092	0.108
-607.186	-59.765	0.371	0.159
-606.171	140.766	-0.080	0.106
-605.157	-200.000	0.029	-0.259
-604.142	-144.719	-0.158	0.015
-603.128	-200.000	-0.025	-0.110
-602.113	-152.328	-0.152	0.011
-601.098	800.000	0.049	0.152
-600.084	-200.000	0.019	-0.131
-599.069	-78.456	-0.332	0.114
-598.055	173.170	-0.057	-0.082
-597.040	800.000	-0.031	0.092
-596.025	60.597	0.143	0.142
-595.011	199.218	-0.013	-0.020
-593.996	800.000	0.085	0.274
-592.982	41.249	0.032	-0.029
-591.967	800.000	0.039	-0.132
-590.952	8.836	-0.077	-0.058
-589.938	-49.698	-0.315	-0.150
-588.923	99.531	-0.063	-0.072
-587.909	53.954	0.160	-0.154
-586.894	21.917	-0.155	0.126
-585.879	-153.124	-0.231	0.016
-584.865	-8.335	0.232	0.156
-583.850	-198.695	-0.158	-0.001
-582.836	-45.860	-0.251	0.124
-581.821	737.087	0.022	0.060
-580.806	80.447	-0.114	0.123
-579.792	-35.765	0.261	-0.142
-578.777	-56.242	0.148	0.066
-577.763	-91.936	-0.080	0.023
-576.748	-72.670	0.276	-0.102
-575.733	120.813	0.155	-0.192
-574.719	-200.000	-0.039	0.280
-573.704	-14.139	-0.009	-0.006
-572.690	149.417	0.041	0.056
-571.675	-200.000	0.034	-0.418
-570.661	-200.000	-0.001	-0.143
-569.646	-71.542	-0.296	0.111
-568.631	-200.000	0.029	0.245
-567.617	87.858	-0.312	0.345
-566.602	-200.000	0.031	0.182
-565.588	-94.072	0.245	0.067
-564.573	-200.000	-0.005	0.155
-563.558	-65.953	0.204	0.082
-562.544	-176.813	-0.312	0.008
-561.529	800.000	-0.024	-0.097
-560.515	366.384	-0.080	-0.160
-559.500	800.000	0.086	-0.244
-558.485	-109.538	0.273	0.058
-557.471	227.826	0.153	-0.249
-556.456	-102.421	-0.184	-0.044
-555.442	-58.317	-0.131	-0.057
-554.427	-200.000	-0.020	0.226
-553.412	650.213	0.108	0.275
-552.398	-200.000	-0.006	0.200
-551.383	-55.432	0.415	0.186
-550.369	-200.000	0.001	0.223
-549.354	52.976	0.129	-0.124
-548.339	-65.030	-0.178	0.072
-547.325	396.002	-0.162	0.338
-546.310	177.223	-0.081	-0.118
-545.296	800.000	-0.062	0.259
-544.281	-200.000	-0.036	0.386
-543.266	-131.289	-0.428	0.057
-542.252	-112.456	0.225	-0.045
-541.237	-48.424	0.234	-0.112
-540.223	346.123	0.176	-0.346
-539.208	409.013	0.034	-0.072
-538.193	84.315	0.090	-0.099
-537.179	285.817	-0.123	-0.221
-536.164	-79.646	-0.119	-0.040
-535.150	-96.911	0.080	0.021
-534.135	-145.633	0.442	-0.039
-533.121	296.371	-0.083	0.152
-532.106	-74.088	-0.168	0.061
-531.091	-138.966	-0.298	0.032
-530.077	127.347	0.130	-0.164
-529.062	-78.038	0.173	-0.060
-528.048	-86.767	0.302	-0.092
-527.033	-90.293	0.355	0.103
-526.018	179.454	0.172	-0.250
-525.004	40.948	0.161	-0.145
-523.989	-200.000	0.010	-0.379
-522.975	-78.754	0.294	0.100
-521.960	-200.000	0.025	0.137
-520.945	172.470	-0.080	-0.114
-519.931	-200.000	0.008	-0.250
-518.916	-12.729	0.271	-0.176
-517.902	-115.204	-0.613	-0.116
-516.887	-200.000	-0.021	-0.112
-515.872	-143.709	-0.209	0.020
-514.858	-200.000	0.025	-0.377
-513.843	-86.370	-0.210	0.064
-512.829	-155.848	0.260	0.016
-511.814	-147.651	-0.142	0.012
-510.799	-26.074	0.228	-0.133
-509.785	-132.366	-0.197	0.025
-508.770	1.841	-0.245	0.176
-507.756	-200.000	0.012	-0.138
-506.741	248.903	-0.071	0.120
-505.726	-24.576	0.098	0.058
-504.712	800.000	0.061	0.217
-503.697	800.000	-0.030	0.090
-502.683	-61.755	-0.241	-0.101
-501.668	512.875	0.139	-0.322
-500.653	21.233	-0.097	0.079
-499.639	-200.000	-0.053	-0.239
-498.624	-154.233	0.384	0.026
-497.610	-200.000	-0.013	-0.110
-496.595	-24.359	-0.125	0.074
-495.581	200.516	0.156	-0.239
-494.566	449.557	0.091	-0.201
-493.551	-78.903	-0.137	0.047
-492.537	480.620	-0.064	-0.145
-491.522	800.000	0.067	0.237
-490.508	-200.000	0.042	0.322
-489.493	-114.706	-0.270	-0.051
-488.478	-40.919	0.192	-0.099
-487.464	-92.180	0.265	-0.075
-486.449	800.000	0.073	-0.224
-485.435	-140.384	-0.356	0.037
-484.420	-200.000	0.029	-0.353
-483.405	800.000	-0.062	0.241
-482.391	540.803	0.115	0.273
-481.376	108.423	0.167	-0.198
-480.362	800.000	0.056	0.209
-479.347	-65.363	0.188	0.075
-478.332	-117.176	0.075	-0.014
-477.318	1.097	-0.228	0.163
-476.303	-80.382	0.383	-0.127
-475.289	434.933	-0.184	-0.399
-474.274	481.602	-0.064	0.145
-473.259	800.000	0.034	0.132
-472.245	-124.622	-0.277	0.043
-471.230	-22.360	0.056	-0.034
-470.216	5.853	-0.175	-0.129
-469.201	-16.207	-0.166	0.105
-468.186	30.487	0.223	-0.189
-467.172	187.248	-0.121	-0.179
-466.157	-81.462	0.188	-0.062
-465.143	166.665	0.133	-0.187
-464.128	-80.647	0.202	-0.067
-463.113	159.670	-0.037	-0.051
-462.099	36.155	0.166	-0.145
-461.084	92.378	0.111	0.125
-460.070	-200.000	0.007	-0.122
-459.055	-200.000	-0.002	0.107
-458.040	-69.154	-0.300	0.115
-457.026	296.113	-0.108	-0.196
-456.011	43.975	0.219	0.200
-454.997	-200.000	0.005	-0.185
-453.982	585.947	0.155	-0.378
-452.968	537.944	0.098	-0.232
-451.953	-83.852	-0.226	0.072
-450.938	-52.114	0.232	-0.107
-449.924	-101.470	-0.180	0.044
-448.909	126.151	-0.367	0.462
-447.895	24.692	-0.065	-0.053
-446.880	-133.009	-0.156	0.020
-445.865	303.386	0.131	0.241
-444.851	167.042	-0.137	-0.193
-443.836	22.924	-0.021	0.017
-442.822	10.057	-0.179	0.135
-441.807	25.635	0.088	0.073
-440.792	800.000	-0.058	0.160
-439.778	-161.411	0.283	-0.015
-438.763	294.467	0.095	0.173
-437.749	-200.000	-0.029	-0.233
-436.734	98.689	-0.270	0.310
-435.719	800.000	0.085	0.295
-434.705	553.519	0.101	0.240
-433.690	-71.831	0.126	-0.047
-432.676	364.426	0.097	0.194
-431.661	557.295	-0.156	0.373
-430.646	357.562	0.079	0.157
-429.632	-110.923	-0.173	0.035
-428.617	334.474	-0.085	-0.163
-427.603	-68.746	0.165	-0.064
-426.588	-173.708	0.237	0.007
-425.573	-111.803	-0.106	0.021
-424.559	182.281	0.205	0.301
-423.544	114.903	-0.147	0.179
-422.530	800.000	0.026	-0.083
-421.515	524.982	0.039	0.091
-420.500	716.567	-0.086	-0.227
-419.486	-200.000	-0.003	0.489
-418.471	800.000	-0.098	0.293
-417.457	2.467	0.083	-0.060
-416.442	194.016	-0.068	0.102
-415.428	800.000	0.063	0.255
-414.413	103.029	-0.087	-0.101
-413.398	-85.048	-0.258	-0.080
-412.384	103.130	-0.108	0.125
-411.369	-200.000	0.018	-0.232
-410.355	25.899	0.138	-0.115
-409.340	233.074	-0.107	0.174
-408.325	174.484	0.070	0.100
-407.311	17.750	0.079	-0.062
-406.296	-61.447	0.260	0.109
-405.282	-70.690	-0.139	-0.052
-404.267	572.110	0.189	0.458
-403.252	-200.000	0.017	-0.126
-402.238	-3.698	-0.190	-0.131
-401.223	235.206	0.054	0.089
-400.209	63.522	0.293	0.292
-399.194	800.000	-0.041	0.147
-398.179	-200.000	-0.036	-0.279
-397.165	412.174	0.132	-0.279
-396.150	-149.719	0.014	0.001
-395.136	-9.415	-0.342	0.227
-394.121	259.218	0.046	0.079
-393.106	-72.315	0.231	0.085
-392.092	-145.951	-0.223	-0.020
-391.077	5.370	0.213	-0.156
-390.063	-40.690	0.205	-0.105
-389.048	-89.301	0.202	-0.059
-388.033	800.000	-0.049	0.202
-387.019	-53.751	-0.089	0.040
-386.004	-200.000	0.035	0.476
-384.990	-39.681	-0.351	-0.182
-383.975	-3.588	0.262	0.180
-382.960	-44.753	0.218	-0.108
-381.946	-33.346	0.252	-0.138
-380.931	-90.796	-0.321	-0.092
-379.917	-21.221	0.152	0.092
-378.902	-3.456	-0.130	0.090
-377.888	-200.000	-0.009	-0.193
-376.873	170.705	-0.144	0.205
-375.858	-26.717	0.277	-0.160
-374.844	-200.000	0.012	0.297
-373.829	-66.472	0.336	0.132
-372.815	249.781	-0.079	-0.133
-371.800	12.041	-0.150	-0.114
-370.785	473.333	0.099	0.221
-369.771	92.084	-0.124	-0.139
-368.756	-200.000	0.012	0.262
-367.742	534.059	-0.172	0.404
-366.727	122.904	-0.132	0.163
-365.712	70.780	0.228	0.234
-364.698	608.682	-0.017	-0.041
-363.683	84.503	-0.352	0.382
-362.669	-166.714	-0.145	0.006
-361.654	231.492	0.135	-0.219
-360.639	-200.000	0.010	-0.127
-359.625	-200.000	0.001	0.025
-358.610	-91.046	-0.267	-0.076
-357.596	-185.323	0.143	-0.002
-356.581	3.530	-0.301	-0.217
-355.566	-28.409	-0.206	0.118
-354.552	-130.881	0.388	-0.052
-353.537	-200.000	0.046	0.380
-352.523	-200.000	0.034	-0.302
-351.508	70.937	-0.317	0.326
-350.493	274.078	-0.075	-0.131
-349.479	436.481	0.077	0.167
-348.464	800.000	-0.079	-0.321
-347.450	-200.000	0.015	0.139
-346.435	800.000	0.073	-0.279
-345.420	-123.126	0.256	-0.041
-344.406	-115.311	0.049	-0.009
-343.391	-53.322	-0.141	-0.064
-342.377	20.596	0.094	-0.075
-341.362	-81.060	-0.178	-0.058
-340.348	-170.293	-0.328	0.011
-339.333	-112.561	0.134	-0.027
-338.318	-142.768	-0.142	-0.014
-337.304	-146.129	-0.229	0.020
-336.289	298.039	0.107	0.195
-335.275	438.369	-0.110	-0.238
-334.260	800.000	-0.073	0.260
-333.245	267.544	0.135	0.234
-332.231	-200.000	-0.046	0.414
-331.216	8.940	-0.378	-0.282
-330.202	117.193	-0.174	0.212
-329.187	800.000	-0.051	0.147
-328.172	-77.110	-0.080	-0.028
-327.158	-200.000	0.003	-0.080
-326.143	-77.488	0.285	0.098
-325.129	800.000	0.034	-0.127
-324.114	-200.000	-0.023	0.191
-323.099	110.260	-0.153	0.182
-322.085	-185.664	-0.388	-0.006
-321.070	-200.000	0.000	-0.022
-320.056	-59.196	0.071	-0.030
-319.041	121.471	-0.184	-0.227
-318.026	90.617	-0.098	-0.108
-317.012	203.968	0.080	0.123
-315.997	500.117	-0.062	-0.141
-314.983	226.693	-0.119	0.191
-313.968	-200.000	-0.002	-0.056
-312.953	-62.268	0.110	0.045
-311.939	-45.835	-0.203	0.099
-310.924	-55.708	-0.243	0.108
-309.910	-101.439	-0.331	0.080
-308.895	-122.224	-0.092	-0.015
-307.880	75.459	0.193	-0.202
-306.866	-200.000	-0.011	0.064
-305.851	-27.343	0.289	0.166
-304.837	387.390	0.036	0.073
-303.822	357.958	0.067	0.132
-302.807	85.087	0.112	-0.121
-301.793	22.370	0.244	-0.197
-300.778	336.194	0.057	-0.109
-299.764	156.777	-0.086	-0.117
-298.749	-101.561	-0.029	-0.007
-297.735	576.531	-0.004	-0.010
-296.720	116.113	0.112	-0.135
-295.705	-189.953	0.161	0.002
-294.691	97.984	-0.373	-0.425
-293.676	310.853	-0.062	-0.115
-292.662	-71.609	0.320	0.118
-291.647	-23.531	0.338	-0.200
-290.632	-200.000	0.052	0.293
-289.618	-200.000	-0.000	0.384
-288.603	-36.084	0.112	0.060
-287.589	-159.119	-0.101	-0.006
-286.574	800.000	-0.103	0.363
-285.559	34.622	-0.186	0.160
-284.545	-200.000	0.054	0.271
-283.530	-111.904	-0.339	-0.068
-282.516	46.736	0.159	0.146
-281.501	-77.733	-0.163	0.056
-280.486	190.049	-0.270	0.400
-279.472	29.154	0.186	0.156
-278.457	-108.428	0.349	-0.074
-277.443	87.730	-0.517	-0.566
-276.428	231.116	-0.112	-0.181
-275.413	-145.223	-0.159	0.014
-274.399	-1.204	0.107	0.074
-273.384	-175.442	0.078	0.002
-272.370	-200.000	-0.007	0.076
-271.355	-154.953	-0.100	-0.007
-270.340	-27.780	-0.067	-0.039
-269.326	-47.274	0.135	0.065
-268.311	-59.108	0.102	0.043
-267.297	54.622	-0.074	-0.071
-266.282	-200.000	0.004	0.224
-265.267	258.448	-0.136	0.231
-264.253	-118.034	-0.365	-0.064
-263.238	93.697	0.079	0.089
-262.224	-200.000	0.057	-0.718
-261.209	-186.948	0.174	0.002
-260.195	-200.000	0.030	0.144
-259.180	101.725	-0.181	0.208
-258.165	145.118	0.116	-0.153
-257.151	6.997	0.276	-0.203
-256.136	-200.000	0.007	-0.127
-255.122	-42.089	0.303	-0.153
-254.107	-77.477	0.167	0.057
-253.092	290.545	0.041	0.073
-252.078	800.000	0.047	0.163
-251.063	-120.540	0.162	-0.027
-250.049	-101.954	0.341	-0.081
-249.034	107.294	-0.152	0.178
-248.019	-49.521	-0.297	-0.140
-247.005	-200.000	0.028	0.362
-245.990	79.988	-0.083	0.088
-244.976	-78.111	-0.132	0.045
-243.961	-132.575	0.167	0.021
-242.946	26.192	0.081	0.067
-241.932	-72.538	0.260	0.095
-240.917	121.264	-0.244	0.300
-239.903	271.874	0.070	0.122
-238.888	-83.104	-0.286	-0.091
-237.873	-12.634	-0.222	0.143
-236.859	-69.672	-0.077	-0.029
-235.844	132.718	-0.151	0.192
-234.830	-119.719	0.150	0.026
-233.815	235.851	0.016	0.026
-232.800	-200.000	0.000	0.351
-231.786	-128.610	-0.154	-0.021
-230.771	800.000	0.042	0.120
-229.757	185.668	0.026	0.039
-228.742	40.030	0.113	-0.100
-227.727	-60.263	0.333	-0.140
-226.713	-70.149	-0.108	0.040
-225.698	800.000	-0.032	0.123
-224.684	-64.894	0.408	-0.163
-223.669	-10.160	0.246	-0.161
-222.655	-74.839	0.108	0.038
-221.640	-77.190	0.280	-0.096
-220.625	-200.000	-0.024	0.215
-219.611	32.397	0.098	-0.084
-218.596	286.367	0.188	-0.334
-217.582	-89.777	0.319	0.092
-216.567	84.152	-0.142	-0.152
-215.552	-59.189	0.389	-0.165
-214.538	218.463	-0.152	0.240
-213.523	-200.000	-0.070	-0.449
-212.509	-86.439	0.295	-0.089
-211.494	-188.796	0.275	0.003
-210.479	-200.000	-0.011	-0.125
-209.465	-161.416	0.272	0.014
-208.450	800.000	0.022	0.086
-207.436	-32.133	0.295	0.162
-206.421	800.000	0.072	0.246
-205.406	-198.370	-0.086	0.000
-204.392	-65.151	-0.108	0.043
-203.377	270.636	-0.066	-0.115
-202.363	400.727	0.042	-0.087
-201.348	210.526	0.118	-0.183
-200.333	-200.000	0.033	-0.236
-199.319	-37.006	0.138	0.073
-198.304	800.000	-0.027	-0.076
-197.290	-158.364	-0.138	0.008
-196.275	124.196	-0.078	0.096
-195.260	-200.000	0.045	0.204
-194.246	506.905	0.078	-0.177
-193.231	66.787	0.100	-0.101
-192.217	23.392	-0.142	-0.115
-191.202	-200.000	0.025	0.120
-190.187	800.000	-0.053	0.180
-189.173	800.000	0.054	-0.149
-188.158	-200.000	-0.084	-0.421
-187.144	-108.506	-0.248	0.052
-186.129	-105.320	0.406	-0.091
-185.114	280.012	-0.084	-0.148
-184.100	28.978	0.106	-0.088
-183.085	-22.458	-0.124	-0.074
-182.071	247.576	0.059	0.098
-181.056	-30.818	0.128	0.071
-180.042	-181.024	0.142	-0.003
-179.027	-35.986	0.186	0.099
-178.012	278.092	-0.226	0.396
-176.998	-108.534	0.201	0.043
-175.983	460.843	-0.046	-0.100
-174.969	-28.271	-0.188	-0.107
-173.954	90.636	-0.274	-0.302
-172.939	-49.251	0.059	-0.028
-171.925	-4.489	-0.034	-0.023
-170.910	-62.599	-0.207	0.085
-169.896	321.655	-0.041	0.077
-168.881	800.000	-0.086	-0.255
-167.866	800.000	0.085	0.231
-166.852	-100.768	-0.193	0.047
-165.837	-66.871	0.167	0.065
-164.823	257.992	0.122	0.206
-163.808	39.346	-0.231	0.203
-162.793	79.563	-0.235	-0.248
-161.779	-38.315	-0.011	0.006
-160.764	145.271	-0.117	-0.154
-159.750	-9.248	0.218	-0.143
-158.735	126.603	-0.114	0.142
-157.720	797.414	-0.185	-0.501
-156.706	-200.000	0.040	-0.288
-155.691	103.017	0.072	0.082
-154.677	33.668	0.160	0.137
-153.662	1.453	0.208	-0.147
-152.647	800.000	0.030	0.123
-151.633	38.777	0.056	0.049
-150.618	268.367	-0.037	-0.063
-149.604	-71.599	-0.218	-0.080
-148.589	-80.745	-0.291	0.095
-147.574	315.686	-0.042	0.079
-146.560	640.419	-0.122	0.305
-145.545	-200.000	0.003	-0.262
-144.531	8.393	-0.245	-0.181
-143.516	-86.447	-0.322	-0.097
-142.502	-58.622	-0.055	0.024
-141.487	-74.659	0.185	-0.065
-140.472	-4.186	-0.079	0.054
-139.458	-150.461	-0.083	0.006
-138.443	-46.998	-0.142	0.068
-137.429	-200.000	0.005	-0.035
-136.414	-24.097	0.329	0.193
-135.399	-135.109	-0.176	0.021
-134.385	-200.000	-0.012	-0.219
-133.370	-126.319	0.345	0.050
-132.356	259.382	0.097	0.164
-131.341	148.117	-0.256	0.339
-130.326	-148.951	0.014	-0.001
-129.312	143.968	0.194	0.254
-128.297	-113.279	0.034	0.007
-127.283	-197.183	-0.476	0.003
-126.268	-135.679	0.367	-0.043
-125.253	166.298	-0.112	-0.156
-124.239	-21.900	-0.365	-0.218
-123.224	95.331	-0.072	-0.081
-122.210	-170.705	0.120	0.004
-121.195	628.047	-0.039	0.098
