DTS Sentinel unit serial number:	SN413079Multiplexer serial number:	ORYXHardware model number:	OX4-SRSoftware version number:	ORYX F/W v4.00 Oryx Data Collector v3.7.2.0data status	okinstallation	princeton_trtdifferential loss correction	single-endedforward channel	channel 1reverse channel	N/Adate	2019/09/14time	17:46:35forward acquisition time	60.00reverse acquisition time	0.00gamma	496.2192k internal	0.2298k external	0.2298temperature offset calibration	1.0047default loss term (dB/km)	0.3790temperature slope calibration	1.0000multiplexer offset coefficient	1.0000multiplexer slope coefficient	1.0000fibre end	0.00T internal ref (°C)	37.50T ext. ref 1 (°C)	5.01T ext. ref 2 (°C)	32.63length (m)	temperature (°C)	Stokes	anti-Stokes-747.200	211.176	0.014	0.022
-746.185	-133.087	0.392	-0.051
-745.171	-200.000	-0.041	-0.273
-744.156	-200.000	0.031	0.175
-743.142	-151.720	-0.223	-0.017
-742.127	-200.000	-0.063	0.295
-741.112	510.218	0.118	-0.279
-740.098	-95.797	0.182	0.050
-739.083	800.000	-0.044	0.151
-738.069	-12.466	0.150	0.100
-737.054	-45.881	-0.103	-0.052
-736.039	-137.282	-0.239	-0.028
-735.025	50.037	0.055	0.053
-734.010	71.354	-0.165	0.174
-732.996	85.922	-0.158	-0.177
-731.981	97.378	-0.186	-0.218
-730.966	-12.903	-0.287	0.191
-729.952	5.942	-0.250	-0.189
-728.937	-147.697	0.189	0.016
-727.923	381.342	-0.104	-0.219
-726.908	-200.000	-0.055	0.302
-725.894	800.000	0.048	-0.138
-724.879	-8.957	-0.296	-0.202
-723.864	-20.141	-0.175	0.110
-722.850	144.386	0.177	0.241
-721.835	231.180	0.103	-0.172
-720.821	-114.394	-0.348	0.068
-719.806	-200.000	-0.001	0.128
-718.791	559.234	-0.118	0.292
-717.777	-46.620	0.074	0.037
-716.762	39.510	-0.184	0.169
-715.748	339.729	-0.060	0.119
-714.733	-200.000	-0.041	0.184
-713.718	56.896	-0.212	-0.211
-712.704	218.698	-0.047	0.077
-711.689	88.209	0.092	-0.104
-710.675	167.854	-0.058	-0.084
-709.660	-89.076	0.299	0.090
-708.645	126.637	0.077	0.099
-707.631	109.840	-0.042	0.051
-706.616	-200.000	0.033	-0.198
-705.602	74.295	0.061	-0.066
-704.587	-200.000	-0.057	0.288
-703.572	-21.789	-0.257	0.160
-702.558	-200.000	0.025	-0.166
-701.543	117.877	-0.274	-0.344
-700.529	45.979	-0.193	0.182
-699.514	-200.000	0.017	0.217
-698.499	116.460	-0.289	-0.361
-697.485	-36.488	0.103	-0.056
-696.470	297.918	-0.110	-0.206
-695.456	305.303	-0.059	0.112
-694.441	26.750	-0.238	-0.203
-693.426	-200.000	-0.029	-0.231
-692.412	573.370	0.174	-0.432
-691.397	-23.951	-0.226	0.138
-690.383	242.915	0.092	0.158
-689.368	117.231	-0.147	-0.185
-688.354	-88.290	-0.171	-0.052
-687.339	42.050	-0.162	0.150
-686.324	-2.527	-0.123	0.088
-685.310	61.349	-0.246	-0.249
-684.295	-200.000	-0.028	-0.375
-683.281	-68.891	-0.419	0.165
-682.266	800.000	-0.045	-0.145
-681.251	-112.743	-0.253	0.051
-680.237	800.000	0.054	-0.166
-679.222	4.192	-0.061	-0.046
-678.208	-200.000	-0.019	0.180
-677.193	95.951	-0.034	-0.040
-676.178	137.293	-0.296	-0.394
-675.164	8.593	0.306	-0.235
-674.149	-157.251	0.188	0.012
-673.135	-147.348	0.197	0.017
-672.120	800.000	0.053	0.226
-671.105	-158.716	-0.178	-0.010
-670.091	70.830	-0.055	0.058
-669.076	548.220	-0.006	0.015
-668.062	-50.396	-0.199	-0.096
-667.047	-113.164	-0.153	0.031
-666.032	61.892	-0.194	-0.197
-665.018	-188.866	-0.181	-0.002
-664.003	-200.000	0.004	-0.204
-662.989	591.901	0.058	-0.146
-661.974	-130.638	-0.310	-0.043
-660.959	45.733	-0.278	-0.262
-659.945	70.154	0.164	0.173
-658.930	-93.710	-0.128	0.036
-657.916	133.431	-0.205	0.270
-656.901	204.708	-0.108	0.170
-655.886	49.796	0.106	-0.102
-654.872	144.339	-0.146	-0.198
-653.857	47.535	-0.272	0.258
-652.843	800.000	-0.040	-0.158
-651.828	-45.667	-0.282	-0.142
-650.814	-109.399	0.226	0.049
-649.799	-61.938	0.270	-0.115
-648.784	95.634	0.039	0.045
-647.770	-94.972	-0.066	-0.018
-646.755	-200.000	-0.016	0.136
-645.741	-200.000	-0.029	0.196
-644.726	226.900	-0.100	0.165
-643.711	-200.000	-0.019	0.101
-642.697	-150.102	0.104	-0.008
-641.682	-179.048	0.378	0.009
-640.668	273.409	-0.027	0.049
-639.653	56.622	-0.118	-0.117
-638.638	187.529	0.095	0.144
-637.624	713.090	0.050	-0.136
-636.609	-143.136	-0.213	0.021
-635.595	-74.442	-0.319	-0.117
-634.580	-1.029	-0.353	0.254
-633.565	-74.173	-0.263	0.097
-632.551	318.893	0.112	-0.216
-631.536	646.495	0.119	-0.310
-630.522	-9.021	0.099	-0.067
-629.507	-71.677	0.069	0.026
-628.492	75.842	-0.073	-0.079
-627.478	-200.000	-0.001	0.324
-626.463	22.927	0.155	0.129
-625.449	-42.686	-0.257	0.133
-624.434	62.450	0.197	0.200
-623.419	282.912	0.153	-0.279
-622.405	221.615	-0.398	-0.650
-621.390	70.990	-0.260	-0.273
-620.376	-200.000	0.134	0.660
-619.361	9.799	0.118	-0.091
-618.346	800.000	-0.085	0.346
-617.332	-100.220	0.363	-0.092
-616.317	-200.000	0.013	0.259
-615.303	-76.426	-0.188	-0.067
-614.288	34.764	0.184	-0.164
-613.273	-200.000	-0.035	-0.291
-612.259	-62.783	-0.487	0.205
-611.244	-193.145	-0.029	-0.000
-610.230	-200.000	0.050	-0.252
-609.215	-24.289	0.054	-0.033
-608.201	-33.096	0.181	-0.102
-607.186	-200.000	-0.067	-0.345
-606.171	-6.459	-0.235	-0.163
-605.157	800.000	-0.060	0.260
-604.142	37.454	-0.111	0.100
-603.128	76.936	-0.095	0.103
-602.113	800.000	-0.079	-0.290
-601.098	-22.166	0.151	-0.093
-600.084	-28.633	0.230	-0.134
-599.069	-200.000	0.062	0.335
-598.055	-200.000	-0.025	0.240
-597.040	138.090	0.145	0.193
-596.025	800.000	-0.012	0.050
-595.011	800.000	0.100	0.341
-593.996	800.000	-0.032	-0.115
-592.982	800.000	-0.095	-0.310
-591.967	59.735	-0.168	-0.169
-590.952	-184.084	-0.340	-0.006
-589.938	-200.000	-0.004	0.062
-588.923	448.030	0.055	0.122
-587.909	800.000	-0.076	-0.321
-586.894	-103.354	0.196	0.047
-585.879	-78.362	0.261	0.091
-584.865	-20.501	-0.259	0.161
-583.850	39.450	-0.217	-0.197
-582.836	-123.106	0.215	-0.035
-581.821	136.063	0.012	0.015
-580.806	161.485	0.038	0.054
-579.792	800.000	0.051	-0.193
-578.777	29.726	-0.344	-0.297
-577.763	-73.099	-0.314	-0.117
-576.748	-64.593	0.184	0.076
-575.733	511.040	-0.121	-0.286
-574.719	-200.000	0.048	0.323
-573.704	-0.506	0.311	0.224
-572.690	109.845	0.172	0.210
-571.675	-200.000	0.011	0.225
-570.661	-179.450	-0.288	0.006
-569.646	409.093	0.045	0.096
-568.631	115.503	-0.096	-0.120
-567.617	-200.000	-0.002	0.194
-566.602	-200.000	0.044	0.242
-565.588	-58.726	0.191	-0.084
-564.573	57.204	0.106	0.105
-563.558	-200.000	-0.026	-0.176
-562.544	-200.000	0.042	-0.356
-561.529	-109.053	-0.229	0.050
-560.515	800.000	-0.053	-0.160
-559.500	800.000	-0.089	-0.368
-558.485	528.859	0.011	0.027
-557.471	-200.000	0.028	0.320
-556.456	-200.000	-0.018	-0.090
-555.442	-200.000	-0.067	-0.387
-554.427	-121.567	-0.187	0.031
-553.412	268.281	0.174	0.309
-552.398	170.341	-0.205	0.297
-551.383	66.023	0.021	0.022
-550.369	-12.705	0.247	0.163
-549.354	280.093	0.067	-0.121
-548.339	17.516	-0.025	-0.020
-547.325	800.000	-0.101	-0.290
-546.310	-125.216	0.069	0.011
-545.296	800.000	0.090	0.291
-544.281	-126.726	0.379	-0.057
-543.266	-134.131	-0.248	-0.031
-542.252	-57.574	0.233	-0.104
-541.237	-200.000	0.058	-0.323
-540.223	156.358	0.171	-0.239
-539.208	-200.000	0.019	0.272
-538.193	7.616	0.169	0.128
-537.179	196.265	-0.046	0.071
-536.164	374.455	0.069	-0.141
-535.150	-175.558	0.060	-0.002
-534.135	-148.775	0.234	-0.019
-533.121	388.714	0.123	0.258
-532.106	-91.340	0.177	-0.051
-531.091	-27.494	-0.188	0.111
-530.077	-137.454	0.094	0.011
-529.062	-71.917	-0.280	0.106
-528.048	-143.716	-0.450	-0.043
-527.033	192.340	-0.063	-0.097
-526.018	-200.000	-0.007	0.046
-525.004	80.110	0.141	-0.153
-523.989	413.466	-0.110	-0.237
-522.975	-76.902	0.223	-0.079
-521.960	-38.657	-0.102	-0.055
-520.945	800.000	0.060	0.255
-519.931	-162.798	0.446	-0.022
-518.916	-28.423	0.147	0.086
-517.902	-200.000	-0.009	0.099
-516.887	-200.000	0.036	0.184
-515.872	231.987	0.109	0.180
-514.858	6.436	0.093	0.070
-513.843	65.493	0.100	0.102
-512.829	431.866	0.011	0.024
-511.814	-15.480	-0.144	0.093
-510.799	-176.239	-0.079	-0.002
-509.785	467.601	-0.081	-0.185
-508.770	-77.390	-0.145	-0.051
-507.756	-155.640	-0.165	0.011
-506.741	-200.000	0.063	-0.335
-505.726	2.869	0.127	-0.094
-504.712	-200.000	0.014	-0.221
-503.697	231.780	0.126	0.210
-502.683	-200.000	0.054	0.355
-501.668	280.428	-0.064	-0.115
-500.653	-45.654	0.093	-0.046
-499.639	-200.000	-0.005	0.035
-498.624	267.179	0.128	0.226
-497.610	268.075	-0.101	-0.179
-496.595	800.000	-0.071	-0.303
-495.581	-39.633	0.118	0.063
-494.566	-124.585	-0.436	-0.068
-493.551	-111.999	0.136	0.028
-492.537	-187.416	0.261	0.004
-491.522	-67.928	-0.177	-0.070
-490.508	614.366	0.041	-0.105
-489.493	-138.105	-0.430	0.048
-488.478	-51.276	-0.120	0.057
-487.464	-69.072	-0.055	0.022
-486.449	131.208	-0.142	-0.184
-485.435	-133.007	-0.431	0.055
-484.420	111.751	-0.179	-0.219
-483.405	471.026	-0.092	0.210
-482.391	245.431	-0.107	-0.182
-481.376	-200.000	0.046	-0.228
-480.362	783.236	-0.124	-0.343
-479.347	151.139	0.042	0.057
-478.332	37.931	-0.149	0.134
-477.318	-99.479	-0.547	0.139
-476.303	-200.000	0.021	-0.209
-475.289	-127.050	0.220	-0.033
-474.274	-111.633	0.362	0.074
-473.259	-70.821	0.219	0.083
-472.245	800.000	0.017	-0.059
-471.230	-51.946	0.070	0.033
-470.216	-62.813	0.300	-0.126
-469.201	-133.587	-0.243	-0.031
-468.186	55.483	0.100	0.098
-467.172	800.000	-0.052	-0.197
-466.157	230.639	0.077	-0.127
-465.143	-45.834	0.028	-0.014
-464.128	800.000	0.080	-0.231
-463.113	-133.888	-0.167	0.021
-462.099	11.188	-0.195	-0.150
-461.084	229.004	0.126	0.208
-460.070	569.996	-0.146	-0.358
-459.055	297.434	-0.133	0.247
-458.040	-151.550	-0.256	0.019
-457.026	-35.242	-0.032	-0.018
-456.011	-200.000	-0.004	0.069
-454.997	83.393	-0.084	-0.093
-453.982	599.255	0.043	0.108
-452.968	-63.396	-0.439	0.182
-451.953	379.047	0.061	0.125
-450.938	43.309	0.187	-0.172
-449.924	-3.741	0.314	-0.220
-448.909	146.309	0.136	-0.185
-447.895	-68.675	-0.133	0.052
-446.880	617.165	0.117	0.297
-445.865	427.932	-0.118	0.257
-444.851	-83.739	0.092	0.030
-443.836	-0.488	0.141	-0.101
-442.822	482.728	-0.079	0.181
-441.807	-106.180	0.057	-0.013
-440.792	-200.000	-0.004	0.098
-439.778	516.232	0.105	0.247
-438.763	152.265	0.100	0.137
-437.749	69.865	-0.124	-0.129
-436.734	-200.000	0.007	0.046
-435.719	18.149	-0.148	0.119
-434.705	18.314	-0.108	0.087
-433.690	637.733	-0.026	-0.067
-432.676	-200.000	-0.020	-0.374
-431.661	98.939	-0.148	-0.172
-430.646	333.083	-0.133	-0.259
-429.632	89.512	0.073	0.082
-428.617	800.000	0.122	0.498
-427.603	116.803	-0.195	-0.241
-426.588	-200.000	-0.013	0.142
-425.573	570.294	0.057	-0.140
-424.559	-182.084	0.205	0.004
-423.544	-84.966	0.277	-0.088
-422.530	-90.538	0.111	0.032
-421.515	-158.341	0.309	-0.018
-420.500	-71.368	-0.275	-0.104
-419.486	156.756	-0.112	0.156
-418.471	76.705	0.136	-0.146
-417.457	-200.000	0.036	-0.174
-416.442	220.660	0.206	-0.333
-415.428	72.893	-0.165	0.174
-414.413	413.086	-0.104	0.222
-413.398	-200.000	0.042	0.194
-412.384	-71.330	-0.177	-0.067
-411.369	-164.889	0.188	-0.008
-410.355	30.443	-0.132	0.114
-409.340	-16.633	-0.069	-0.044
-408.325	-101.918	-0.154	-0.037
-407.311	402.217	0.146	0.310
-406.296	229.128	-0.126	0.207
-405.282	-67.051	-0.127	-0.050
-404.267	-187.975	-0.248	-0.003
-403.252	-89.798	0.201	-0.059
-402.238	-35.786	0.452	-0.247
-401.223	-74.209	-0.229	-0.084
-400.209	81.521	-0.125	-0.137
-399.194	-122.260	0.199	-0.033
-398.179	-26.752	-0.195	-0.115
-397.165	-85.418	-0.274	0.086
-396.150	63.876	0.117	-0.119
-395.136	-132.160	0.258	-0.034
-394.121	-158.722	-0.021	0.001
-393.106	-200.000	-0.049	0.231
-392.092	-20.320	-0.217	0.135
-391.077	52.122	0.139	-0.133
-390.063	-32.509	-0.084	0.047
-389.048	-157.638	-0.013	-0.001
-388.033	-49.437	0.020	0.010
-387.019	-200.000	0.139	-0.000
-386.004	-200.000	0.076	0.348
-384.990	-22.961	-0.050	0.030
-383.975	800.000	-0.014	-0.039
-382.960	-200.000	0.044	-0.315
-381.946	18.663	-0.223	0.179
-380.931	54.244	0.243	0.236
-379.917	-16.398	-0.098	-0.063
-378.902	800.000	-0.082	-0.250
-377.888	-18.461	-0.092	-0.058
-376.873	800.000	0.082	-0.242
-375.858	-104.219	0.390	-0.091
-374.844	800.000	0.088	-0.349
-373.829	-147.496	0.157	-0.013
-372.815	800.000	0.085	0.248
-371.800	257.233	-0.144	-0.250
-370.785	-39.609	0.236	0.124
-369.771	319.123	0.086	0.164
-368.756	-200.000	-0.087	0.471
-367.742	800.000	-0.043	-0.167
-366.727	-24.503	-0.150	-0.090
-365.712	-162.056	0.226	0.011
-364.698	-103.650	0.220	-0.052
-363.683	38.934	-0.227	0.204
-362.669	25.290	-0.241	0.201
-361.654	-103.651	0.163	-0.039
-360.639	4.144	-0.065	0.048
-359.625	800.000	0.056	-0.174
-358.610	-200.000	0.053	0.288
-357.596	46.779	0.110	0.103
-356.581	652.965	-0.125	0.322
-355.566	41.587	-0.127	-0.116
-354.552	32.686	0.290	-0.253
-353.537	-41.953	0.321	-0.165
-352.523	-200.000	0.029	0.178
-351.508	455.967	-0.114	-0.253
-350.493	-98.906	-0.346	-0.088
-349.479	-200.000	-0.020	0.101
-348.464	25.758	0.142	0.119
-347.450	-9.873	0.169	0.113
-346.435	60.993	0.382	0.381
-345.420	33.750	-0.313	0.274
-344.406	8.298	0.170	0.129
-343.391	-200.000	0.029	-0.186
-342.377	-200.000	0.037	0.165
-341.362	57.917	0.318	0.313
-340.348	329.744	-0.081	-0.157
-339.333	800.000	0.073	0.256
-338.318	-161.445	-0.229	0.012
-337.304	-200.000	0.034	0.171
-336.289	557.472	0.062	-0.151
-335.275	142.598	-0.067	-0.089
-334.260	156.618	-0.181	0.251
-333.245	-66.642	0.189	-0.075
-332.231	189.032	0.045	-0.068
-331.216	104.979	-0.127	-0.151
-330.202	437.852	-0.104	0.228
-329.187	160.216	-0.045	-0.063
-328.172	91.570	-0.224	0.252
-327.158	800.000	-0.059	-0.234
-326.143	104.586	0.119	-0.141
-325.129	87.048	-0.281	0.312
-324.114	-126.861	-0.297	0.044
-323.099	-15.590	-0.125	-0.080
-322.085	799.295	-0.160	0.444
-321.070	-160.698	-0.033	-0.002
-320.056	461.436	0.031	0.068
-319.041	800.000	-0.084	0.313
-318.026	458.992	0.128	-0.287
-317.012	-8.498	-0.116	-0.079
-315.997	117.366	0.082	0.101
-314.983	-107.388	0.285	0.063
-313.968	-72.893	-0.225	0.083
-312.953	-200.000	0.089	0.493
-311.939	-112.026	0.064	-0.013
-310.924	797.340	-0.044	-0.121
-309.910	125.471	-0.101	-0.127
-308.895	-15.132	0.194	-0.125
-307.880	800.000	0.010	-0.034
-306.866	44.772	-0.229	-0.212
-305.851	43.581	-0.139	-0.128
-304.837	800.000	0.067	-0.214
-303.822	319.913	0.093	-0.177
-302.807	271.995	-0.078	-0.138
-301.793	-142.052	-0.238	0.024
-300.778	800.000	0.061	-0.258
-299.764	161.871	0.112	-0.158
-298.749	28.278	0.185	-0.157
-297.735	-122.073	0.369	0.061
-296.720	36.159	-0.120	-0.106
-295.705	800.000	0.038	0.123
-294.691	167.972	0.112	0.159
-293.676	129.517	-0.183	-0.235
-292.662	800.000	-0.033	0.118
-291.647	-62.509	-0.438	0.183
-290.632	17.069	-0.116	0.092
-289.618	800.000	-0.116	0.390
-288.603	183.636	-0.144	0.213
-287.589	-160.587	-0.102	0.005
-286.574	-171.021	0.262	0.009
-285.559	22.702	0.040	-0.033
-284.545	196.567	0.020	-0.031
-283.530	-62.619	-0.299	0.125
-282.516	-114.788	0.153	-0.029
-281.501	229.555	0.159	0.261
-280.486	-200.000	0.029	-0.181
-279.472	-80.961	0.207	-0.069
-278.457	140.427	0.070	0.092
-277.443	-142.590	-0.252	0.025
-276.428	-57.983	0.074	0.033
-275.413	222.147	-0.089	-0.144
-274.399	396.059	-0.230	-0.481
-273.384	27.895	0.073	0.061
-272.370	-95.454	-0.142	-0.038
-271.355	788.988	-0.111	0.305
-270.340	2.914	-0.308	0.224
-269.326	-117.717	-0.205	-0.037
-268.311	27.546	0.243	0.205
-267.297	147.550	0.113	-0.152
-266.282	-61.372	0.243	0.102
-265.267	178.978	0.083	0.121
-264.253	386.526	0.036	-0.075
-263.238	-200.000	0.051	-0.245
-262.224	40.889	0.200	-0.181
-261.209	186.967	0.144	-0.216
-260.195	-109.349	0.220	-0.047
-259.180	257.672	0.166	-0.286
-258.165	-2.282	0.195	-0.137
-257.151	205.575	0.143	-0.223
-256.136	-200.000	0.014	-0.181
-255.122	232.910	-0.064	0.106
-254.107	22.224	0.147	0.121
-253.092	313.577	-0.160	0.302
-252.078	-200.000	-0.013	0.229
-251.063	21.229	-0.231	-0.188
-250.049	-17.746	0.114	0.072
-249.034	-60.639	0.092	0.039
-248.019	-127.314	0.437	-0.064
-247.005	-91.718	0.148	-0.042
-245.990	95.693	0.078	-0.089
-244.976	158.842	0.178	0.247
-243.961	-53.862	-0.306	-0.140
-242.946	169.574	0.210	-0.300
-241.932	272.086	0.041	-0.073
-240.917	-200.000	-0.049	-0.336
-239.903	728.207	0.066	-0.176
-238.888	800.000	0.100	-0.413
-237.873	232.411	-0.164	-0.270
-236.859	109.126	-0.238	-0.285
-235.844	-91.338	0.171	-0.049
-234.830	-23.128	-0.096	0.058
-233.815	462.266	-0.076	-0.170
-232.800	545.324	-0.036	0.086
-231.786	64.303	-0.089	-0.089
-230.771	-63.309	0.333	0.137
-229.757	-113.428	0.067	0.013
-228.742	105.180	-0.151	0.179
-227.727	-81.318	0.077	0.025
-226.713	-138.853	-0.208	0.023
-225.698	-200.000	0.022	0.146
-224.684	13.347	0.029	0.023
-223.669	-69.579	-0.142	-0.055
-222.655	135.399	-0.123	0.161
-221.640	-36.537	0.311	0.167
-220.625	-146.134	0.347	-0.031
-219.611	800.000	-0.171	0.493
-218.596	-200.000	0.011	-0.125
-217.582	-122.980	-0.158	0.025
-216.567	-200.000	-0.018	-0.153
-215.552	283.858	0.177	0.318
-214.538	156.627	-0.213	-0.295
-213.523	-38.865	0.213	-0.112
-212.509	-161.231	0.216	0.011
-211.494	120.413	-0.203	-0.252
-210.479	548.686	-0.059	-0.141
-209.465	25.211	-0.181	-0.150
-208.450	-88.764	-0.369	-0.110
-207.436	45.890	0.263	-0.243
-206.421	-75.279	0.208	-0.074
-205.406	-163.871	-0.145	-0.007
-204.392	-200.000	-0.016	0.174
-203.377	800.000	-0.042	0.175
-202.363	-126.650	-0.374	0.055
-201.348	-200.000	-0.001	-0.083
-200.333	8.813	0.297	-0.224
-199.319	-122.986	-0.522	-0.084
-198.304	65.363	-0.102	0.104
-197.290	-165.362	0.102	0.004
-196.275	800.000	0.057	-0.244
-195.260	-68.154	0.327	0.127
-194.246	229.304	0.181	0.295
-193.231	214.813	-0.151	0.239
-192.217	-200.000	0.015	0.118
-191.202	72.749	-0.063	0.065
-190.187	-118.808	-0.123	-0.022
-189.173	410.450	0.065	-0.138
-188.158	268.754	-0.088	-0.153
-187.144	28.733	0.339	-0.287
-186.129	800.000	-0.068	-0.197
-185.114	-200.000	0.036	-0.188
-184.100	-200.000	-0.000	0.315
-183.085	-56.005	0.295	0.131
-182.071	-200.000	-0.024	0.208
-181.056	611.984	0.052	0.130
-180.042	-77.749	0.127	0.044
-179.027	355.864	-0.107	-0.213
-178.012	-29.049	0.050	0.028
-176.998	-200.000	-0.068	-0.428
-175.983	-141.200	0.175	-0.018
-174.969	-200.000	0.022	-0.133
-173.954	-51.736	-0.227	0.106
-172.939	-18.765	0.256	0.159
-171.925	-97.838	0.146	0.038
-170.910	-129.001	-0.387	0.054
-169.896	-66.044	0.527	0.210
-168.881	-200.000	0.068	0.361
-167.866	259.957	-0.090	-0.155
-166.852	-167.814	-0.189	0.007
-165.837	-90.278	0.096	0.028
-164.823	800.000	-0.046	-0.133
-163.808	634.038	0.002	0.004
-162.793	11.819	-0.338	-0.259
-161.779	-69.540	0.165	0.063
-160.764	217.435	-0.134	0.213
-159.750	-135.067	0.132	0.016
-158.735	-200.000	-0.019	0.289
-157.720	87.517	-0.186	-0.205
-156.706	-48.428	-0.288	-0.139
-155.691	800.000	-0.075	0.270
-154.677	513.024	0.162	0.376
-153.662	-157.053	0.124	0.008
-152.647	315.799	-0.111	0.209
-151.633	-56.421	0.266	0.118
-150.618	-200.000	-0.002	0.125
-149.604	43.699	0.208	0.190
-148.589	-200.000	-0.021	0.122
-147.574	-200.000	0.022	0.240
-146.560	-31.564	-0.224	0.126
-145.545	-64.373	0.087	-0.035
-144.531	40.519	-0.234	-0.210
-143.516	568.098	0.062	-0.151
-142.502	638.312	0.134	0.340
-141.487	800.000	0.077	0.231
-140.472	579.562	-0.103	0.252
-139.458	-50.193	0.143	0.067
-138.443	389.327	-0.174	0.359
-137.429	800.000	0.052	0.206
-136.414	268.773	0.181	0.316
-135.399	-152.415	0.079	-0.006
-134.385	-56.031	-0.249	-0.111
-133.370	-14.675	0.281	-0.180
-132.356	-48.042	0.371	0.179
-131.341	-53.297	0.105	-0.048
-130.326	142.606	-0.065	-0.086
-129.312	-94.743	-0.254	-0.069
-128.297	117.944	0.172	-0.211
-127.283	-200.000	0.015	0.090
-126.268	-200.000	-0.009	-0.324
-125.253	74.391	0.179	-0.188
-124.239	-200.000	0.012	-0.115
-123.224	5.186	-0.149	0.110
-122.210	244.394	0.137	0.230
-121.195	-33.476	0.281	-0.155
