DTS Sentinel unit serial number:	SN413079Multiplexer serial number:	ORYXHardware model number:	OX4-SRSoftware version number:	ORYX F/W v4.00 Oryx Data Collector v3.7.2.0data status	okinstallation	princeton_trtdifferential loss correction	single-endedforward channel	channel 1reverse channel	N/Adate	2019/09/17time	16:58:35forward acquisition time	60.00reverse acquisition time	0.00gamma	496.2192k internal	0.2292k external	0.2292temperature offset calibration	0.9955default loss term (dB/km)	0.3790temperature slope calibration	1.0000multiplexer offset coefficient	1.0000multiplexer slope coefficient	1.0000fibre end	0.00T internal ref (°C)	42.48T ext. ref 1 (°C)	0.36T ext. ref 2 (°C)	39.06length (m)	temperature (°C)	Stokes	anti-Stokes-747.200	180.811	0.123	0.185
-746.185	13.893	-0.148	-0.118
-745.171	57.337	0.108	-0.108
-744.156	-136.639	0.045	0.005
-743.142	29.334	-0.054	-0.047
-742.127	44.500	-0.123	0.116
-741.112	46.769	0.107	-0.102
-740.098	164.814	-0.164	0.236
-739.083	17.708	-0.267	-0.217
-738.069	-200.000	0.009	-0.204
-737.054	-155.888	0.232	0.015
-736.039	800.000	-0.046	-0.195
-735.025	-200.000	-0.062	-0.321
-734.010	800.000	-0.114	-0.485
-732.996	-58.246	-0.312	-0.139
-731.981	222.754	-0.243	-0.401
-730.966	23.220	-0.103	0.087
-729.952	-8.109	-0.286	-0.197
-728.937	800.000	-0.053	0.221
-727.923	-102.308	-0.288	0.071
-726.908	-38.798	-0.297	0.160
-725.894	800.000	0.041	0.133
-724.879	-109.579	0.213	-0.046
-723.864	-96.975	0.086	-0.023
-722.850	-200.000	0.013	0.117
-721.835	-96.284	-0.409	0.111
-720.821	-25.589	0.057	0.035
-719.806	-98.978	0.319	-0.083
-718.791	31.758	0.107	-0.094
-717.777	-94.519	-0.231	-0.064
-716.762	800.000	-0.040	0.177
-715.748	-200.000	0.030	-0.206
-714.733	-86.897	-0.137	-0.043
-713.718	-2.160	0.199	-0.143
-712.704	17.136	0.052	0.042
-711.689	-14.092	-0.212	0.140
-710.675	-41.431	-0.174	0.092
-709.660	-200.000	0.025	-0.214
-708.645	-25.348	-0.228	0.138
-707.631	13.995	-0.247	0.196
-706.616	800.000	-0.024	-0.071
-705.602	-154.651	0.019	0.001
-704.587	-72.337	0.216	-0.082
-703.572	-96.629	0.423	-0.114
-702.558	-200.000	-0.026	0.149
-701.543	-186.125	0.111	-0.002
-700.529	32.119	0.064	-0.057
-699.514	193.263	-0.166	0.257
-698.499	-200.000	0.079	-0.384
-697.485	-113.603	0.066	-0.013
-696.470	0.052	-0.211	0.154
-695.456	-150.035	-0.037	0.003
-694.441	-186.355	0.334	-0.005
-693.426	-12.719	0.245	0.163
-692.412	103.654	-0.152	0.183
-691.397	-94.960	-0.345	0.095
-690.383	-19.903	0.306	-0.193
-689.368	-200.000	-0.009	-0.241
-688.354	-200.000	-0.027	0.126
-687.339	-79.493	0.100	0.034
-686.324	-200.000	0.035	-0.352
-685.310	-72.078	0.205	0.078
-684.295	17.240	-0.257	-0.208
-683.281	135.480	-0.096	0.127
-682.266	-124.323	-0.111	0.018
-681.251	-47.877	-0.287	-0.142
-680.237	-74.782	0.084	-0.031
-679.222	779.164	-0.142	0.397
-678.208	233.945	-0.166	0.279
-677.193	-87.189	0.264	-0.082
-676.178	118.398	0.054	0.069
-675.164	-200.000	-0.006	0.279
-674.149	-111.086	-0.277	0.058
-673.135	-95.984	-0.132	-0.036
-672.120	-16.834	0.277	-0.179
-671.105	72.060	-0.230	0.244
-670.091	391.591	-0.053	-0.112
-669.076	223.985	-0.175	-0.288
-668.062	-97.555	-0.348	0.092
-667.047	5.956	0.400	-0.302
-666.032	-13.586	-0.285	0.188
-665.018	-8.175	-0.310	0.213
-664.003	-200.000	0.020	-0.207
-662.989	-140.718	-0.043	0.005
-661.974	78.277	0.046	-0.050
-660.959	54.042	-0.074	0.072
-659.945	800.000	0.018	0.063
-658.930	-151.719	-0.224	-0.017
-657.916	63.485	-0.327	-0.335
-656.901	-17.225	0.177	-0.114
-655.886	314.684	0.046	-0.088
-654.872	-2.762	-0.347	-0.247
-653.857	-157.934	-0.182	0.011
-652.843	800.000	0.015	0.047
-651.828	-174.799	0.381	0.011
-650.814	-24.755	-0.185	-0.112
-649.799	-200.000	-0.014	0.191
-648.784	-97.881	0.113	0.030
-647.770	173.324	0.141	0.207
-646.755	-131.028	0.296	0.040
-645.741	800.000	-0.071	-0.212
-644.726	-166.691	0.365	0.015
-643.711	-44.831	-0.151	-0.077
-642.697	40.125	0.121	0.110
-641.682	-66.684	0.280	-0.113
-640.668	-200.000	-0.006	-0.064
-639.653	-92.856	0.368	0.105
-638.638	-21.519	-0.250	-0.155
-637.624	281.368	-0.148	0.271
-636.609	-200.000	0.035	0.266
-635.595	451.304	-0.027	-0.061
-634.580	-66.466	0.016	0.007
-633.565	-200.000	-0.009	0.101
-632.551	-8.999	0.117	0.080
-631.536	130.685	0.114	0.149
-630.522	115.177	0.056	-0.070
-629.507	800.000	-0.054	0.216
-628.492	-20.388	-0.032	0.020
-627.478	-134.774	-0.307	0.038
-626.463	-200.000	-0.018	-0.120
-625.449	-157.113	-0.339	0.021
-624.434	-200.000	-0.063	0.356
-623.419	25.957	0.081	-0.069
-622.405	-182.710	-0.130	-0.002
-621.390	88.558	-0.149	-0.169
-620.376	339.381	0.163	-0.324
-619.361	-200.000	0.015	-0.386
-618.346	97.605	-0.186	-0.218
-617.332	-145.289	-0.202	-0.019
-616.317	-200.000	-0.007	-0.068
-615.303	-128.521	0.354	-0.051
-614.288	60.739	0.148	-0.149
-613.273	4.492	0.154	-0.115
-612.259	800.000	-0.013	-0.042
-611.244	131.577	0.068	-0.089
-610.230	-59.345	-0.104	-0.046
-609.215	800.000	-0.037	-0.112
-608.201	29.928	-0.403	-0.349
-607.186	395.565	0.089	0.189
-606.171	-200.000	-0.013	-0.108
-605.157	23.334	0.239	-0.200
-604.142	-66.149	-0.049	0.020
-603.128	10.875	0.259	-0.201
-602.113	137.504	0.218	-0.290
-601.098	103.387	-0.151	-0.181
-600.084	-200.000	-0.005	-0.128
-599.069	-200.000	0.028	-0.233
-598.055	-77.566	0.301	0.106
-597.040	-200.000	-0.019	-0.331
-596.025	-200.000	0.039	0.289
-595.011	459.743	-0.045	0.102
-593.996	-200.000	0.009	-0.131
-592.982	-133.069	0.253	0.033
-591.967	-73.822	-0.209	-0.077
-590.952	115.773	0.082	-0.101
-589.938	-153.157	-0.242	-0.017
-588.923	206.742	0.122	-0.194
-587.909	434.394	-0.093	-0.205
-586.894	-146.309	-0.088	-0.008
-585.879	-38.934	-0.069	-0.037
-584.865	-121.727	0.039	0.007
-583.850	69.955	-0.033	-0.034
-582.836	-98.573	0.349	0.091
-581.821	-144.222	-0.247	0.023
-580.806	3.949	-0.426	0.317
-579.792	158.272	0.052	-0.074
-578.777	-200.000	0.011	-0.134
-577.763	-63.520	-0.233	-0.097
-576.748	43.687	-0.187	0.174
-575.733	-54.103	-0.181	0.084
-574.719	160.492	-0.071	-0.100
-573.704	-45.519	-0.329	-0.166
-572.690	-35.895	-0.293	0.161
-571.675	334.360	0.026	0.052
-570.661	-200.000	0.056	0.314
-569.646	800.000	0.073	0.281
-568.631	-172.245	-0.283	-0.009
-567.617	386.398	0.090	-0.188
-566.602	-147.225	-0.545	-0.047
-565.588	414.051	-0.090	0.195
-564.573	-3.236	0.343	0.243
-563.558	-129.982	0.102	0.014
-562.544	-173.720	-0.332	0.010
-561.529	82.811	0.037	-0.041
-560.515	15.578	0.177	0.142
-559.500	103.142	0.253	0.302
-558.485	104.174	-0.019	-0.023
-557.471	800.000	-0.093	-0.269
-556.456	-152.859	-0.363	-0.026
-555.442	800.000	0.046	0.144
-554.427	-124.886	-0.292	0.046
-553.412	-8.410	0.091	-0.062
-552.398	800.000	0.062	-0.254
-551.383	-158.168	0.099	0.006
-550.369	-152.700	-0.256	0.019
-549.354	-200.000	0.035	0.334
-548.339	-99.373	0.239	-0.061
-547.325	93.739	0.123	-0.142
-546.310	-200.000	0.002	-0.033
-545.296	-159.653	0.296	-0.017
-544.281	-197.575	0.240	-0.002
-543.266	-200.000	-0.017	-0.145
-542.252	-200.000	0.032	-0.276
-541.237	800.000	-0.125	0.392
-540.223	-123.947	-0.174	-0.028
-539.208	358.735	0.071	-0.144
-538.193	-108.729	0.129	0.028
-537.179	139.688	-0.207	0.277
-536.164	-0.643	-0.225	0.162
-535.150	-150.757	0.186	0.014
-534.135	148.772	-0.053	-0.072
-533.121	-3.186	-0.177	0.125
-532.106	-146.689	0.211	-0.019
-531.091	14.120	-0.249	-0.197
-530.077	31.207	0.139	-0.121
-529.062	-151.654	0.264	-0.020
-528.048	-135.544	0.151	-0.018
-527.033	-200.000	-0.037	0.239
-526.018	159.619	0.248	0.350
-525.004	-200.000	-0.039	0.288
-523.989	800.000	-0.045	0.152
-522.975	-200.000	-0.030	-0.182
-521.960	793.460	-0.046	-0.129
-520.945	-31.414	-0.249	-0.142
-519.931	83.715	-0.040	-0.044
-518.916	-133.527	0.312	-0.040
-517.902	-200.000	-0.009	0.271
-516.887	-59.014	-0.037	-0.016
-515.872	43.891	0.226	0.210
-514.858	-200.000	0.031	-0.205
-513.843	378.521	0.170	-0.354
-512.829	-87.242	-0.187	0.058
-511.814	-12.816	0.139	0.092
-510.799	131.793	0.065	0.085
-509.785	-200.000	0.079	0.390
-508.770	170.988	0.052	0.076
-507.756	-64.210	-0.092	-0.038
-506.741	-33.985	-0.190	0.106
-505.726	800.000	-0.017	0.056
-504.712	-200.000	0.013	-0.217
-503.697	-200.000	0.012	-0.201
-502.683	16.298	-0.200	0.160
-501.668	-200.000	-0.024	-0.140
-500.653	77.676	-0.105	0.114
-499.639	-133.337	-0.154	0.020
-498.624	48.612	0.155	0.147
-497.610	4.694	0.347	0.259
-496.595	119.011	0.244	0.306
-495.581	-113.403	-0.127	0.025
-494.566	-200.000	-0.013	-0.237
-493.551	-200.000	-0.007	-0.264
-492.537	242.974	0.180	0.306
-491.522	9.313	0.314	0.240
-490.508	-200.000	-0.008	0.125
-489.493	59.630	-0.054	-0.054
-488.478	800.000	-0.053	0.197
-487.464	214.914	0.076	-0.122
-486.449	-13.914	-0.186	-0.122
-485.435	-164.219	-0.156	-0.007
-484.420	392.701	0.019	0.039
-483.405	-174.534	0.137	0.004
-482.391	-96.443	0.223	0.060
-481.376	57.777	-0.286	0.284
-480.362	26.170	0.191	-0.162
-479.347	-55.882	0.036	0.016
-478.332	-166.876	-0.092	0.004
-477.318	-39.058	0.260	0.138
-476.303	431.194	-0.072	0.158
-475.289	43.188	0.241	-0.223
-474.274	-200.000	-0.004	-0.217
-473.259	-110.643	-0.465	-0.097
-472.245	-132.139	0.211	-0.028
-471.230	800.000	-0.027	0.087
-470.216	4.872	-0.121	0.090
-469.201	-119.109	0.130	0.023
-468.186	53.613	0.192	-0.186
-467.172	-200.000	0.009	-0.176
-466.157	800.000	0.029	0.100
-465.143	-42.600	-0.272	-0.140
-464.128	39.644	-0.136	0.123
-463.113	800.000	-0.041	-0.176
-462.099	80.027	-0.411	-0.448
-461.084	-69.288	-0.317	-0.123
-460.070	-67.587	0.226	-0.090
-459.055	412.781	-0.011	-0.024
-458.040	-185.576	-0.224	-0.003
-457.026	347.102	-0.129	-0.256
-456.011	-105.349	-0.119	-0.027
-454.997	-42.676	0.231	-0.119
-453.982	-200.000	0.014	-0.144
-452.968	-151.848	-0.212	-0.016
-451.953	-200.000	-0.021	0.463
-450.938	-65.730	0.111	0.045
-449.924	294.283	-0.072	0.134
-448.909	208.156	0.040	0.063
-447.895	-124.315	-0.201	-0.032
-446.880	-161.967	-0.343	-0.018
-445.865	197.132	0.057	-0.088
-444.851	-200.000	0.032	-0.154
-443.836	82.803	0.271	0.298
-442.822	-199.961	0.025	0.000
-441.807	81.265	-0.063	0.069
-440.792	-200.000	0.033	-0.307
-439.778	-163.961	0.224	-0.011
-438.763	-5.108	-0.353	-0.246
-437.749	49.133	-0.293	-0.278
-436.734	469.880	0.042	0.095
-435.719	800.000	-0.067	-0.287
-434.705	-34.669	-0.087	0.048
-433.690	184.120	-0.268	-0.401
-432.676	-7.097	0.064	0.044
-431.661	60.896	0.054	0.054
-430.646	412.742	0.093	0.200
-429.632	-86.103	0.210	-0.065
-428.617	-65.101	0.190	-0.077
-427.603	103.888	0.065	-0.077
-426.588	-58.520	0.234	0.103
-425.573	27.519	0.172	0.147
-424.559	-124.769	-0.203	0.032
-423.544	800.000	0.069	0.248
-422.530	503.647	0.080	-0.188
-421.515	69.242	0.150	0.156
-420.500	316.119	-0.040	0.076
-419.486	-95.223	0.096	0.026
-418.471	192.249	0.109	-0.167
-417.457	-200.000	-0.051	0.255
-416.442	382.661	-0.188	0.390
-415.428	-174.303	0.295	-0.009
-414.413	29.779	-0.251	-0.216
-413.398	107.494	-0.281	-0.338
-412.384	800.000	-0.062	0.200
-411.369	557.276	0.083	-0.202
-410.355	-52.488	0.341	0.159
-409.340	-88.401	-0.245	-0.074
-408.325	-117.867	-0.277	0.050
-407.311	-150.068	0.371	-0.029
-406.296	75.303	-0.187	0.199
-405.282	-9.055	0.206	0.139
-404.267	488.511	0.068	-0.157
-403.252	-200.000	-0.018	-0.393
-402.238	211.436	0.062	0.098
-401.223	-183.655	0.384	0.007
-400.209	800.000	-0.058	-0.180
-399.194	-200.000	-0.013	-0.320
-398.179	-4.456	-0.240	0.168
-397.165	-18.001	-0.207	0.131
-396.150	-200.000	0.032	0.263
-395.136	-91.105	0.165	0.048
-394.121	367.708	0.063	-0.128
-393.106	800.000	0.069	-0.284
-392.092	-200.000	-0.254	0.001
-391.077	97.227	0.266	0.308
-390.063	28.807	-0.196	-0.167
-389.048	203.377	0.196	0.305
-388.033	-67.912	-0.326	0.129
-387.019	-200.000	-0.025	0.113
-386.004	-121.145	-0.218	-0.037
-384.990	-200.000	0.007	0.116
-383.975	-186.464	0.094	-0.001
-382.960	38.535	0.265	0.239
-381.946	-200.000	0.053	0.491
-380.931	174.388	-0.080	0.116
-379.917	448.356	0.120	0.267
-378.902	-111.379	-0.286	-0.059
-377.888	200.342	-0.136	0.210
-376.873	-65.470	0.080	-0.033
-375.858	124.781	-0.100	0.127
-374.844	148.708	-0.096	0.131
-373.829	-124.953	0.128	0.020
-372.815	317.994	-0.315	-0.601
-371.800	-200.000	-0.003	-0.180
-370.785	64.881	-0.110	0.112
-369.771	544.828	-0.056	0.134
-368.756	-1.352	-0.134	0.096
-367.742	-88.578	0.151	0.045
-366.727	-107.344	-0.084	0.019
-365.712	-200.000	0.002	0.294
-364.698	-116.899	-0.311	0.057
-363.683	3.131	0.163	-0.119
-362.669	42.762	-0.154	0.141
-361.654	800.000	0.082	0.260
-360.639	-26.213	0.138	0.082
-359.625	-122.333	-0.168	-0.028
-358.610	-137.289	-0.136	-0.016
-357.596	-145.905	-0.137	0.012
-356.581	4.701	0.062	0.046
-355.566	-200.000	0.014	-0.105
-354.552	283.514	-0.318	-0.576
-353.537	-34.954	-0.332	-0.183
-352.523	-189.443	-0.242	-0.003
-351.508	-200.000	0.016	-0.138
-350.493	-78.842	0.130	-0.045
-349.479	-19.902	-0.112	0.070
-348.464	784.538	0.087	-0.240
-347.450	-32.306	0.362	-0.204
-346.435	190.549	-0.091	-0.138
-345.420	-200.000	0.053	0.255
-344.406	800.000	-0.111	0.351
-343.391	-136.643	0.273	-0.032
-342.377	800.000	0.032	-0.119
-341.362	-200.000	-0.052	-0.282
-340.348	-200.000	-0.032	-0.258
-339.333	-148.837	0.068	-0.006
-338.318	311.730	0.046	-0.087
-337.304	-151.851	0.271	0.020
-336.289	-104.869	0.096	0.022
-335.275	-170.890	0.275	0.009
-334.260	-140.092	-0.124	0.013
-333.245	-35.392	0.253	-0.138
-332.231	233.855	0.114	0.190
-331.216	-200.000	-0.012	0.118
-330.202	-200.000	0.001	0.103
-329.187	41.960	-0.066	0.060
-328.172	-178.088	0.194	-0.005
-327.158	22.164	-0.104	-0.086
-326.143	-144.243	0.273	0.026
-325.129	38.757	-0.390	-0.351
-324.114	192.565	0.068	0.104
-323.099	-88.070	0.275	-0.083
-322.085	407.453	-0.113	-0.241
-321.070	-9.128	-0.414	-0.279
-320.056	-115.823	0.358	0.067
-319.041	-58.950	-0.410	-0.178
-318.026	5.487	-0.089	0.066
-317.012	85.094	0.076	0.084
-315.997	-81.231	-0.088	0.029
-314.983	-79.482	-0.154	0.052
-313.968	11.046	-0.151	-0.116
-312.953	800.000	-0.142	-0.410
-311.939	-178.255	-0.478	-0.011
-310.924	627.888	0.065	-0.165
-309.910	-36.638	0.230	0.124
-308.895	-46.200	0.247	0.122
-307.880	-200.000	0.024	0.143
-306.866	-200.000	-0.004	0.141
-305.851	101.941	-0.129	-0.151
-304.837	439.861	0.051	0.111
-303.822	-125.415	0.127	-0.019
-302.807	-75.877	0.118	-0.042
-301.793	162.579	-0.194	-0.273
-300.778	-200.000	0.010	0.155
-299.764	-170.110	0.377	0.013
-298.749	-150.211	0.115	-0.009
-297.735	65.373	0.238	0.242
-296.720	-200.000	0.023	0.122
-295.705	-200.000	0.037	0.218
-294.691	197.573	-0.136	-0.209
-293.676	-200.000	0.001	-0.015
-292.662	-200.000	0.009	-0.081
-291.647	-97.886	-0.276	0.072
-290.632	-200.000	0.000	-0.156
-289.618	744.905	0.080	0.216
-288.603	98.900	-0.089	-0.104
-287.589	133.834	0.117	-0.153
-286.574	-200.000	-0.025	0.232
-285.559	385.081	-0.137	0.285
-284.545	-124.147	-0.425	-0.067
-283.530	-124.528	-0.372	0.058
-282.516	341.842	-0.165	-0.325
-281.501	-200.000	-0.015	-0.104
-280.486	187.956	0.140	0.210
-279.472	-8.791	-0.094	0.064
-278.457	-171.472	0.212	0.007
-277.443	-101.265	0.193	0.047
-276.428	-73.145	0.162	-0.060
-275.413	-150.423	0.133	-0.010
-274.399	-200.000	-0.023	-0.277
-273.384	16.023	0.144	0.114
-272.370	-22.383	-0.253	0.154
-271.355	-110.167	0.124	0.026
-270.340	-37.969	-0.532	-0.284
-269.326	-200.000	0.013	0.173
-268.311	-200.000	-0.004	0.383
-267.297	-64.905	-0.373	-0.152
-266.282	-111.314	-0.064	0.013
-265.267	-200.000	0.018	0.274
-264.253	-54.056	0.260	-0.119
-263.238	-32.335	-0.173	0.097
-262.224	-75.524	-0.186	0.066
-261.209	-142.305	0.362	0.036
-260.195	103.645	-0.154	0.182
-259.180	-189.603	0.139	0.002
-258.165	-200.000	0.027	0.283
-257.151	-191.726	0.137	-0.001
-256.136	440.812	0.081	0.179
-255.122	-157.774	0.077	0.005
-254.107	-60.532	0.276	0.118
-253.092	-176.612	-0.174	-0.004
-252.078	-200.000	0.058	-0.258
-251.063	800.000	0.027	-0.106
-250.049	92.564	0.203	-0.230
-249.034	182.110	-0.132	-0.195
-248.019	-51.736	0.405	-0.190
-247.005	40.965	0.141	0.127
-245.990	-40.816	0.270	-0.141
-244.976	-18.897	-0.154	0.096
-243.961	-90.010	0.528	0.155
-242.946	-200.000	0.047	-0.520
-241.932	1.515	0.023	-0.017
-240.917	-82.777	-0.317	0.103
-239.903	181.221	0.091	0.135
-238.888	38.745	0.143	-0.128
-237.873	800.000	0.055	-0.201
-236.859	-130.999	-0.332	-0.045
-235.844	-40.833	-0.157	-0.082
-234.830	800.000	0.049	-0.140
-233.815	-200.000	-0.013	0.316
-232.800	-113.977	0.197	-0.038
-231.786	296.867	-0.107	-0.198
-230.771	-69.164	0.153	0.059
-229.757	-30.597	-0.139	-0.079
-228.742	800.000	-0.090	0.277
-227.727	-62.041	0.204	-0.086
-226.713	-73.924	0.287	-0.105
-225.698	-61.350	0.335	0.142
-224.684	-200.000	0.006	-0.147
-223.669	-200.000	-0.002	0.287
-222.655	-138.777	-0.038	0.004
-221.640	-74.663	0.215	-0.077
-220.625	-152.543	0.355	0.025
-219.611	77.295	-0.315	0.335
-218.596	19.994	-0.127	0.102
-217.582	14.610	-0.149	-0.117
-216.567	-128.290	-0.335	-0.048
-215.552	26.039	0.060	0.050
-214.538	-50.936	-0.221	0.104
-213.523	-22.719	0.067	-0.041
-212.509	62.449	0.127	0.127
-211.494	51.359	0.026	-0.025
-210.479	-49.894	0.245	0.117
-209.465	145.985	0.184	0.248
-208.450	165.539	-0.077	0.109
-207.436	800.000	-0.080	0.246
-206.421	614.489	-0.062	-0.156
-205.406	-84.166	-0.102	-0.032
-204.392	264.477	0.146	0.254
-203.377	-46.278	0.298	0.147
-202.363	-200.000	0.034	-0.344
-201.348	-52.968	-0.207	0.095
-200.333	345.601	0.030	-0.059
-199.319	-4.393	-0.164	0.114
-198.304	307.008	-0.106	0.198
-197.290	77.187	0.080	0.086
-196.275	-166.429	-0.261	0.011
-195.260	-118.776	0.220	0.039
-194.246	290.461	0.152	0.277
-193.231	800.000	0.057	0.211
-192.217	800.000	-0.039	-0.158
-191.202	-200.000	-0.016	-0.170
-190.187	253.062	0.269	0.459
-189.173	-20.896	-0.406	-0.249
-188.158	-200.000	-0.004	-0.182
-187.144	394.863	0.098	-0.204
-186.129	617.391	0.087	-0.218
-185.114	48.867	0.155	0.145
-184.100	42.538	0.065	0.059
-183.085	-154.405	0.029	-0.002
-182.071	-4.657	-0.057	-0.039
-181.056	-40.713	0.209	0.108
-180.042	-101.753	0.186	0.045
-179.027	-123.551	-0.254	0.040
-178.012	17.032	0.084	0.067
-176.998	-200.000	-0.066	-0.342
-175.983	800.000	-0.053	-0.167
-174.969	-68.669	-0.195	-0.076
-173.954	-164.281	-0.368	-0.017
-172.939	800.000	-0.106	0.439
-171.925	-119.257	-0.184	-0.032
-170.910	53.801	0.176	0.169
-169.896	800.000	0.054	0.212
-168.881	-200.000	0.080	-0.366
-167.866	127.130	0.318	-0.403
-166.852	30.718	-0.120	-0.103
-165.837	244.888	-0.058	-0.097
-164.823	-148.003	0.129	-0.011
-163.808	-12.863	0.166	0.108
-162.793	-125.118	0.326	-0.050
-161.779	124.264	-0.084	-0.106
-160.764	800.000	0.067	0.212
-159.750	-104.289	-0.228	-0.053
-158.735	137.179	0.098	-0.128
-157.720	-34.914	-0.164	0.089
-156.706	-200.000	-0.008	0.127
-155.691	-176.255	-0.086	-0.002
-154.677	766.043	0.128	-0.347
-153.662	800.000	0.050	-0.141
-152.647	464.237	0.107	0.238
-151.633	-126.198	-0.075	-0.011
-150.618	800.000	-0.035	-0.113
-149.604	800.000	0.133	-0.413
-148.589	-200.000	-0.091	0.549
-147.574	800.000	0.071	0.250
-146.560	-100.279	-0.102	-0.025
-145.545	-76.738	0.046	-0.016
-144.531	368.319	-0.142	0.288
-143.516	218.510	0.086	0.138
-142.502	-200.000	0.003	0.451
-141.487	763.225	0.024	-0.065
-140.472	800.000	0.032	-0.128
-139.458	-125.773	-0.073	0.011
-138.443	33.875	0.107	-0.093
-137.429	23.173	0.150	0.123
-136.414	234.170	0.151	0.249
-135.399	-75.335	0.135	-0.048
-134.385	-104.922	-0.045	0.010
-133.370	-119.163	0.171	-0.030
-132.356	-104.221	0.096	0.022
-131.341	-200.000	-0.035	-0.163
-130.326	-200.000	-0.012	0.078
-129.312	132.086	0.150	0.193
-128.297	-97.187	-0.146	0.038
-127.283	133.510	0.173	-0.224
-126.268	-200.000	0.064	0.301
-125.253	313.432	0.075	-0.141
-124.239	-200.000	0.054	-0.467
-123.224	443.271	-0.115	-0.251
-122.210	-114.125	0.107	0.021
