DTS Sentinel unit serial number:	SN413079Multiplexer serial number:	ORYXHardware model number:	OX4-SRSoftware version number:	ORYX F/W v4.00 Oryx Data Collector v3.7.2.0data status	okinstallation	princeton_trtdifferential loss correction	single-endedforward channel	channel 1reverse channel	N/Adate	2019/09/18time	17:26:35forward acquisition time	60.00reverse acquisition time	0.00gamma	496.2192k internal	0.2291k external	0.2291temperature offset calibration	0.9991default loss term (dB/km)	0.3790temperature slope calibration	1.0000multiplexer offset coefficient	1.0000multiplexer slope coefficient	1.0000fibre end	0.00T internal ref (°C)	40.05T ext. ref 1 (°C)	0.88T ext. ref 2 (°C)	36.67length (m)	temperature (°C)	Stokes	anti-Stokes-747.200	-200.000	-0.020	-0.097
-746.185	184.610	0.293	0.445
-745.171	-5.187	0.440	0.310
-744.156	466.930	-0.090	0.206
-743.142	-2.632	0.174	0.125
-742.127	143.134	0.154	0.210
-741.112	-200.000	-0.018	0.235
-740.098	137.058	0.029	0.039
-739.083	412.384	0.089	-0.195
-738.069	800.000	0.058	0.185
-737.054	-29.129	0.167	0.098
-736.039	-51.773	-0.235	0.112
-735.025	-133.526	0.252	-0.032
-734.010	-113.819	-0.183	-0.037
-732.996	195.012	-0.136	-0.212
-731.981	369.462	0.047	0.098
-730.966	-55.610	-0.118	-0.054
-729.952	-200.000	0.021	-0.152
-728.937	21.790	0.096	-0.080
-727.923	352.200	0.119	-0.241
-726.908	-87.945	-0.047	-0.014
-725.894	20.277	-0.098	0.081
-724.879	-31.206	-0.680	-0.392
-723.864	696.857	0.063	0.170
-722.850	136.384	-0.125	-0.166
-721.835	346.754	-0.108	0.217
-720.821	209.538	-0.106	0.170
-719.806	-2.407	-0.080	0.057
-718.791	124.870	-0.053	0.069
-717.777	-9.122	0.329	0.225
-716.762	-200.000	-0.024	-0.197
-715.748	-21.265	-0.116	-0.072
-714.733	-98.908	0.137	0.036
-713.718	42.006	-0.159	-0.147
-712.704	-89.258	-0.452	0.136
-711.689	-64.263	0.226	0.094
-710.675	52.610	0.333	0.326
-709.660	122.496	-0.184	0.236
-708.645	-142.496	-0.594	-0.060
-707.631	19.545	-0.073	-0.060
-706.616	-111.897	0.435	0.090
-705.602	-115.319	-0.105	-0.020
-704.587	-12.807	-0.420	-0.280
-703.572	362.749	0.035	-0.071
-702.558	482.554	-0.088	-0.204
-701.543	800.000	-0.051	-0.171
-700.529	3.752	0.136	0.102
-699.514	-180.156	-0.428	-0.009
-698.499	-14.267	-0.344	0.226
-697.485	-138.298	0.330	-0.037
-696.470	-43.868	-0.381	-0.196
-695.456	-200.000	0.004	0.311
-694.441	-200.000	-0.012	-0.068
-693.426	-71.588	-0.052	0.020
-692.412	206.826	-0.250	-0.399
-691.397	-151.773	-0.219	0.016
-690.383	252.591	0.100	-0.174
-689.368	-200.000	0.004	0.044
-688.354	-200.000	-0.014	0.197
-687.339	-159.175	0.104	-0.006
-686.324	-24.559	-0.091	0.056
-685.310	85.507	0.044	0.049
-684.295	246.275	0.077	-0.132
-683.281	-130.945	0.156	0.021
-682.266	-96.268	0.152	-0.041
-681.251	-107.430	0.410	-0.092
-680.237	65.481	-0.123	-0.127
-679.222	2.464	-0.204	0.151
-678.208	-39.426	0.133	-0.071
-677.193	364.940	-0.095	-0.196
-676.178	17.644	-0.216	0.175
-675.164	-98.036	0.205	0.054
-674.149	-120.184	0.099	0.017
-673.135	5.818	0.081	-0.061
-672.120	800.000	0.023	-0.089
-671.105	37.414	0.155	0.140
-670.091	-44.257	-0.340	-0.174
-669.076	-200.000	-0.005	-0.080
-668.062	552.679	0.148	-0.362
-667.047	-95.039	-0.297	0.082
-666.032	-58.820	-0.269	0.119
-665.018	-200.000	0.027	0.201
-664.003	-200.000	0.002	-0.040
-662.989	-200.000	-0.014	-0.103
-661.974	-77.816	-0.034	0.012
-660.959	-54.194	0.253	-0.117
-659.945	-63.716	-0.061	0.025
-658.930	-29.655	-0.202	0.118
-657.916	135.132	-0.122	0.161
-656.901	-73.955	-0.054	0.020
-655.886	-60.553	0.120	0.052
-654.872	0.421	0.264	0.193
-653.857	84.562	-0.115	0.129
-652.843	13.932	0.075	-0.060
-651.828	279.366	-0.141	-0.257
-650.814	-71.850	0.225	-0.086
-649.799	-115.595	-0.131	-0.025
-648.784	636.329	0.058	0.149
-647.770	800.000	0.044	0.173
-646.755	800.000	0.046	-0.181
-645.741	-100.003	0.110	-0.028
-644.726	800.000	0.103	-0.364
-643.711	-120.290	-0.310	0.054
-642.697	-71.395	0.084	-0.032
-641.682	74.461	-0.228	0.244
-640.668	800.000	-0.091	0.354
-639.653	800.000	-0.045	0.128
-638.638	-12.607	-0.131	0.087
-637.624	-54.720	-0.132	-0.061
-636.609	-200.000	-0.030	0.141
-635.595	-83.327	-0.176	0.058
-634.580	-12.163	0.200	0.133
-633.565	-200.000	-0.007	0.249
-632.551	6.038	-0.265	0.200
-631.536	-200.000	0.023	0.146
-630.522	800.000	-0.085	-0.293
-629.507	-47.283	0.152	-0.076
-628.492	41.474	0.165	0.152
-627.478	-200.000	-0.002	0.098
-626.463	-117.308	0.155	0.029
-625.449	14.693	-0.198	0.158
-624.434	-35.456	-0.331	0.183
-623.419	126.766	0.048	0.062
-622.405	3.623	0.158	-0.117
-621.390	126.618	-0.160	-0.207
-620.376	280.134	-0.235	-0.429
-619.361	-121.009	0.381	-0.065
-618.346	735.263	-0.111	-0.302
-617.332	800.000	0.067	-0.271
-616.317	-66.477	0.170	0.069
-615.303	426.400	-0.019	-0.041
-614.288	412.670	-0.069	0.149
-613.273	126.084	0.096	-0.123
-612.259	-8.344	-0.232	0.159
-611.244	178.195	0.100	-0.148
-610.230	-167.327	0.158	0.007
-609.215	-200.000	-0.048	-0.247
-608.201	800.000	0.086	-0.343
-607.186	61.670	0.155	-0.157
-606.171	-200.000	-0.000	-0.390
-605.157	732.130	-0.132	-0.359
-604.142	700.375	-0.032	-0.086
-603.128	277.527	-0.089	0.161
-602.113	-30.225	0.158	-0.091
-601.098	-200.000	0.027	-0.174
-600.084	130.819	0.106	0.139
-599.069	5.068	-0.058	0.043
-598.055	-200.000	-0.013	-0.241
-597.040	532.732	-0.019	-0.046
-596.025	-200.000	0.030	-0.366
-595.011	-199.936	0.241	-0.001
-593.996	-196.206	-0.130	-0.001
-592.982	-87.276	-0.185	0.057
-591.967	-106.397	-0.042	-0.010
-590.952	800.000	0.047	0.193
-589.938	-200.000	-0.003	-0.168
-588.923	-200.000	0.043	-0.247
-587.909	-200.000	0.062	-0.354
-586.894	-121.042	-0.224	-0.038
-585.879	-111.202	0.156	0.032
-584.865	161.298	-0.226	0.322
-583.850	198.461	-0.117	0.182
-582.836	800.000	-0.066	-0.277
-581.821	43.792	0.143	0.133
-580.806	44.781	-0.172	-0.161
-579.792	-56.833	0.148	0.066
-578.777	-200.000	-0.146	0.001
-577.763	252.859	-0.296	0.513
-576.748	13.872	0.307	0.243
-575.733	-51.630	0.161	0.076
-574.719	4.100	0.049	0.037
-573.704	-200.000	0.027	0.448
-572.690	-139.666	0.405	-0.044
-571.675	-200.000	0.050	-0.000
-570.661	-135.869	0.055	0.007
-569.646	61.598	-0.236	-0.239
-568.631	-1.329	-0.268	-0.193
-567.617	-53.064	0.137	0.064
-566.602	68.959	-0.249	-0.261
-565.588	43.019	-0.108	-0.100
-564.573	-7.660	0.260	0.179
-563.558	-200.000	-0.048	0.315
-562.544	-68.413	0.112	0.044
-561.529	-98.128	-0.240	-0.063
-560.515	462.097	-0.058	-0.132
-559.500	800.000	0.046	0.154
-558.485	-200.000	-0.023	-0.167
-557.471	-124.597	-0.134	-0.021
-556.456	387.597	0.082	-0.173
-555.442	800.000	-0.051	0.195
-554.427	800.000	0.065	-0.219
-553.412	-78.099	0.218	-0.076
-552.398	71.257	-0.096	-0.101
-551.383	-200.000	0.002	0.047
-550.369	-58.528	-0.103	0.045
-549.354	-107.994	-0.231	-0.051
-548.339	-150.178	0.136	-0.011
-547.325	20.033	0.448	-0.367
-546.310	-156.058	-0.253	0.016
-545.296	-67.253	0.173	-0.069
-544.281	20.496	0.134	0.110
-543.266	-68.024	-0.174	-0.069
-542.252	-130.623	0.196	-0.027
-541.237	-200.000	0.020	-0.110
-540.223	-200.000	0.009	0.092
-539.208	62.860	0.390	-0.397
-538.193	-23.466	-0.190	-0.116
-537.179	331.059	-0.187	0.366
-536.164	-200.000	0.019	0.115
-535.150	-70.837	0.148	-0.057
-534.135	-97.900	0.177	-0.046
-533.121	-200.000	0.008	-0.077
-532.106	-200.000	0.019	0.159
-531.091	-32.614	-0.217	0.123
-530.077	162.565	0.179	-0.255
-529.062	-28.971	-0.116	0.067
-528.048	438.312	0.090	0.200
-527.033	800.000	0.047	-0.198
-526.018	118.823	0.219	-0.275
-525.004	209.916	0.080	0.128
-523.989	35.711	0.114	-0.101
-522.975	454.753	0.145	-0.327
-521.960	-200.000	-0.024	0.273
-520.945	-87.598	0.142	-0.043
-519.931	-97.805	0.322	-0.084
-518.916	-83.566	0.048	-0.015
-517.902	-200.000	0.035	0.159
-516.887	116.958	0.172	-0.214
-515.872	-170.291	-0.184	-0.007
-514.858	148.997	-0.148	0.203
-513.843	-200.000	0.012	0.272
-512.829	-95.322	-0.260	0.071
-511.814	800.000	-0.047	-0.172
-510.799	189.029	0.067	-0.102
-509.785	583.136	-0.048	-0.120
-508.770	-85.043	-0.056	0.018
-507.756	-51.052	0.208	-0.099
-506.741	-99.086	0.240	-0.062
-505.726	322.716	-0.150	-0.291
-504.712	-200.000	0.036	-0.238
-503.697	-11.528	-0.074	-0.049
-502.683	-158.872	0.198	-0.011
-501.668	177.559	0.141	0.209
-500.653	290.303	-0.163	-0.301
-499.639	-107.317	0.059	-0.013
-498.624	372.003	-0.055	-0.113
-497.610	-22.309	0.125	-0.077
-496.595	-6.914	-0.281	-0.194
-495.581	-66.364	-0.258	-0.104
-494.566	-158.071	0.189	0.011
-493.551	-200.000	-0.016	-0.097
-492.537	744.807	0.074	0.203
-491.522	136.457	-0.013	-0.018
-490.508	276.581	0.124	-0.223
-489.493	222.653	-0.057	-0.093
-488.478	-49.573	0.306	0.148
-487.464	587.433	0.061	0.152
-486.449	269.302	-0.175	0.311
-485.435	-107.677	0.161	0.036
-484.420	-134.858	0.349	-0.043
-483.405	-49.508	0.114	-0.055
-482.391	-122.716	-0.189	0.031
-481.376	-21.271	-0.084	0.052
-480.362	-78.995	-0.314	-0.108
-479.347	-75.016	-0.066	-0.024
-478.332	-6.564	0.163	-0.112
-477.318	-28.170	0.186	-0.109
-476.303	-200.000	-0.035	-0.358
-475.289	610.079	0.140	-0.354
-474.274	115.765	0.042	-0.052
-473.259	-48.722	0.128	-0.062
-472.245	-137.636	-0.324	0.037
-471.230	-34.864	-0.268	0.148
-470.216	-155.334	-0.296	-0.019
-469.201	-200.000	0.040	0.442
-468.186	800.000	-0.080	0.236
-467.172	318.595	0.061	-0.117
-466.157	671.299	0.047	0.122
-465.143	800.000	-0.049	-0.169
-464.128	91.552	-0.137	-0.156
-463.113	-200.000	-0.069	-0.399
-462.099	-200.000	0.071	-0.371
-461.084	507.562	-0.097	-0.227
-460.070	-94.065	0.105	0.029
-459.055	800.000	0.044	0.147
-458.040	-87.116	0.185	0.057
-457.026	-188.227	0.407	-0.005
-456.011	-200.000	0.002	0.017
-454.997	800.000	-0.011	-0.042
-453.982	-200.000	-0.002	-0.111
-452.968	-47.142	-0.055	0.027
-451.953	800.000	0.043	0.191
-450.938	-134.687	0.142	0.017
-449.924	-200.000	0.017	-0.097
-448.909	676.747	-0.063	0.166
-447.895	-101.950	-0.058	0.014
-446.880	-7.913	-0.067	0.046
-445.865	341.166	-0.067	0.133
-444.851	-47.859	0.123	0.060
-443.836	272.199	0.088	0.156
-442.822	603.928	-0.011	0.028
-441.807	-200.000	0.028	-0.310
-440.792	-65.858	0.252	0.102
-439.778	60.940	0.161	-0.161
-438.763	-73.857	0.154	-0.057
-437.749	64.078	-0.159	-0.162
-436.734	-200.000	-0.001	-0.254
-435.719	-9.590	-0.391	-0.264
-434.705	417.916	0.080	0.172
-433.690	-116.345	-0.197	-0.037
-432.676	253.757	-0.086	-0.148
-431.661	-186.759	0.221	-0.003
-430.646	-18.430	0.372	-0.235
-429.632	-200.000	-0.008	0.209
-428.617	-67.106	-0.334	0.133
-427.603	-200.000	0.023	-0.578
-426.588	-67.201	-0.127	0.051
-425.573	13.794	0.230	-0.181
-424.559	800.000	-0.074	-0.212
-423.544	168.159	0.139	-0.199
-422.530	-79.610	0.435	-0.148
-421.515	540.008	-0.163	-0.392
-420.500	-156.641	-0.226	-0.014
-419.486	98.253	0.110	-0.128
-418.471	109.865	0.222	0.269
-417.457	102.491	0.205	0.243
-416.442	-200.000	-0.001	0.161
-415.428	-29.555	-0.355	-0.205
-414.413	-48.392	-0.328	0.160
-413.398	800.000	0.073	0.207
-412.384	79.340	-0.129	0.139
-411.369	124.842	0.186	0.237
-410.355	158.473	-0.172	0.241
-409.340	-31.187	0.280	0.159
-408.325	211.023	-0.118	-0.188
-407.311	636.172	-0.051	0.131
-406.296	-200.000	0.006	-0.124
-405.282	-54.338	0.331	0.152
-404.267	-36.952	-0.143	0.077
-403.252	-63.212	0.198	0.083
-402.238	-140.382	0.109	-0.011
-401.223	-200.000	-0.004	-0.221
-400.209	-97.794	-0.062	-0.016
-399.194	-121.636	0.142	-0.024
-398.179	-87.791	-0.194	-0.059
-397.165	778.001	-0.121	-0.334
-396.150	-79.303	-0.271	-0.093
-395.136	152.290	-0.126	0.173
-394.121	-81.360	0.124	-0.041
-393.106	-23.753	-0.200	-0.121
-392.092	-66.785	-0.240	-0.096
-391.077	-67.502	0.316	0.125
-390.063	-200.000	-0.045	0.269
-389.048	-87.148	0.248	0.076
-388.033	285.549	-0.063	0.115
-387.019	-109.121	0.158	-0.034
-386.004	800.000	0.027	0.078
-384.990	-97.678	0.022	-0.006
-383.975	-44.977	-0.391	0.196
-382.960	48.076	0.034	-0.032
-381.946	-29.892	-0.103	0.059
-380.931	800.000	-0.035	0.127
-379.917	-200.000	0.034	0.262
-378.902	19.748	-0.257	-0.209
-377.888	-200.000	0.040	0.205
-376.873	-116.524	-0.163	-0.030
-375.858	-200.000	0.017	0.098
-374.844	-200.000	-0.016	-0.166
-373.829	-151.755	0.282	-0.021
-372.815	-146.258	0.225	-0.020
-371.800	-200.000	0.228	0.000
-370.785	33.618	-0.118	-0.104
-369.771	-21.074	0.177	0.109
-368.756	-200.000	0.009	-0.159
-367.742	676.091	-0.163	0.428
-366.727	-200.000	-0.038	-0.176
-365.712	-63.265	0.101	0.042
-364.698	764.956	0.133	0.364
-363.683	97.389	-0.101	0.117
-362.669	329.084	0.170	-0.329
-361.654	106.675	0.131	-0.156
-360.639	19.676	0.151	-0.123
-359.625	-113.732	0.118	-0.023
-358.610	-78.559	-0.263	0.091
-357.596	214.384	-0.097	0.155
-356.581	676.340	0.031	0.081
-355.566	-59.527	0.196	-0.085
-354.552	81.522	-0.165	-0.180
-353.537	-200.000	-0.011	0.063
-352.523	-98.623	0.250	0.064
-351.508	660.136	0.045	-0.117
-350.493	-46.885	-0.260	-0.128
-349.479	-120.573	0.231	-0.039
-348.464	203.717	-0.096	0.150
-347.450	-61.756	-0.263	0.111
-346.435	162.035	0.107	0.151
-345.420	-191.077	0.124	0.001
-344.406	-138.772	-0.218	0.024
-343.391	310.677	0.030	0.057
-342.377	-110.051	0.190	-0.040
-341.362	800.000	-0.019	-0.077
-340.348	-136.510	-0.086	-0.010
-339.333	16.196	-0.250	0.198
-338.318	-44.376	0.512	-0.258
-337.304	-171.746	0.252	-0.008
-336.289	800.000	0.157	0.485
-335.275	-78.175	-0.530	0.184
-334.260	438.377	-0.084	0.184
-333.245	16.530	-0.200	0.160
-332.231	695.169	0.033	0.088
-331.216	38.990	-0.174	-0.157
-330.202	33.710	-0.199	-0.174
-329.187	800.000	0.005	-0.021
-328.172	34.467	0.101	0.089
-327.158	-127.040	0.266	-0.039
-326.143	-132.681	0.294	0.038
-325.129	-28.990	0.004	-0.003
-324.114	-200.000	-0.026	0.203
-323.099	-200.000	-0.027	0.290
-322.085	-200.000	0.061	0.379
-321.070	800.000	-0.069	-0.241
-320.056	-129.746	-0.529	-0.073
-319.041	800.000	0.028	0.090
-318.026	-98.731	-0.246	0.063
-317.012	-38.838	-0.083	0.044
-315.997	-200.000	-0.049	0.338
-314.983	149.748	0.131	0.178
-313.968	10.420	-0.129	0.099
-312.953	222.133	0.142	0.229
-311.939	33.555	0.103	0.090
-310.924	272.703	0.110	-0.196
-309.910	-19.561	-0.202	-0.126
-308.895	800.000	0.143	0.401
-307.880	-147.373	0.397	-0.034
-306.866	-29.223	-0.147	-0.085
-305.851	56.493	-0.297	0.290
-304.837	-167.627	-0.147	0.006
-303.822	800.000	-0.077	-0.315
-302.807	-2.901	-0.171	0.120
-301.793	-200.000	-0.304	0.001
-300.778	-200.000	-0.044	0.373
-299.764	241.652	-0.082	0.138
-298.749	-124.969	0.204	-0.032
-297.735	-200.000	-0.019	-0.210
-296.720	-64.382	-0.119	0.049
-295.705	107.075	0.048	0.057
-294.691	-47.567	-0.330	-0.161
-293.676	-200.000	-0.023	-0.172
-292.662	394.125	0.106	-0.223
-291.647	-168.016	-0.091	-0.004
-290.632	-142.071	-0.118	0.012
-289.618	-27.453	0.281	-0.164
-288.603	-200.000	-0.035	-0.295
-287.589	19.171	-0.301	-0.243
-286.574	59.958	0.290	-0.289
-285.559	150.422	0.159	-0.217
-284.545	-200.000	-0.055	0.368
-283.530	6.582	-0.062	0.047
-282.516	-72.634	0.190	-0.071
-281.501	202.095	-0.129	0.199
-280.486	308.179	-0.125	-0.234
-279.472	-72.973	0.316	0.117
-278.457	800.000	-0.007	-0.025
-277.443	31.552	0.100	0.086
-276.428	260.507	0.115	-0.200
-275.413	-24.917	-0.123	-0.073
-274.399	39.170	-0.317	-0.285
-273.384	-69.015	-0.073	0.028
-272.370	-10.566	-0.251	-0.167
-271.355	-131.130	-0.342	0.046
-270.340	366.488	-0.094	0.191
-269.326	-200.000	0.049	0.284
-268.311	-200.000	-0.001	-0.041
-267.297	-140.265	0.250	-0.026
-266.282	47.590	-0.206	-0.193
-265.267	-25.857	-0.139	-0.082
-264.253	-200.000	-0.020	0.173
-263.238	77.480	-0.102	0.109
-262.224	-200.000	-0.070	0.403
-261.209	800.000	0.035	0.123
-260.195	-50.746	0.127	0.060
-259.180	51.658	0.315	-0.301
-258.165	-118.037	-0.337	0.060
-257.151	-133.852	-0.284	0.035
-256.136	-200.000	-0.008	-0.187
-255.122	-200.000	-0.168	0.000
-254.107	-56.395	0.124	-0.055
-253.092	80.168	0.255	-0.275
-252.078	-200.000	0.011	0.054
-251.063	8.685	-0.036	-0.027
-250.049	560.762	0.101	-0.244
-249.034	800.000	-0.084	0.330
-248.019	-200.000	0.008	0.167
-247.005	-24.361	-0.051	0.031
-245.990	92.111	0.094	0.106
-244.976	466.686	-0.128	0.288
-243.961	-130.677	0.280	0.038
-242.946	-23.849	0.193	0.116
-241.932	136.196	-0.125	0.163
-240.917	-200.000	0.011	0.230
-239.903	-200.000	0.050	0.331
-238.888	87.849	0.076	0.085
-237.873	7.871	0.237	0.178
-236.859	23.207	0.250	0.206
-235.844	519.409	0.086	-0.202
-234.830	74.706	-0.185	-0.195
-233.815	100.892	0.452	-0.528
-232.800	29.639	-0.169	-0.144
-231.786	298.831	-0.072	0.133
-230.771	10.917	0.265	0.203
-229.757	305.173	0.119	-0.221
-228.742	-131.667	-0.129	0.017
-227.727	-116.808	-0.313	0.058
-226.713	-200.000	-0.005	0.038
-225.698	-52.814	-0.147	-0.068
-224.684	-83.839	-0.180	-0.057
-223.669	-200.000	-0.002	-0.301
-222.655	-123.361	-0.147	-0.023
-221.640	-61.143	-0.141	-0.060
-220.625	-116.481	-0.016	0.003
-219.611	-200.000	0.180	0.000
-218.596	38.609	-0.280	0.250
-217.582	4.561	0.194	-0.143
-216.567	310.254	0.052	0.098
-215.552	-69.941	0.302	0.116
-214.538	-68.441	-0.141	-0.055
-213.523	67.582	0.103	0.106
-212.509	57.505	-0.075	0.074
-211.494	-5.523	-0.166	0.114
-210.479	462.198	0.090	0.201
-209.465	-200.000	-0.027	-0.154
-208.450	-110.297	-0.201	-0.042
-207.436	-200.000	-0.009	-0.072
-206.421	-200.000	-0.004	0.271
-205.406	-146.660	-0.162	0.014
-204.392	171.167	0.250	-0.360
-203.377	19.070	0.136	0.109
-202.363	525.871	-0.165	0.390
-201.348	104.862	0.310	0.366
-200.333	800.000	-0.066	-0.267
-199.319	-107.611	-0.069	0.015
-198.304	-106.037	0.095	0.021
-197.290	781.444	-0.076	-0.210
-196.275	121.090	0.059	0.074
-195.260	40.656	0.058	-0.052
-194.246	504.137	0.185	0.428
-193.231	-68.286	-0.164	0.064
-192.217	800.000	0.056	0.160
-191.202	-131.308	0.089	-0.012
-190.187	-64.078	0.408	-0.167
-189.173	-132.364	-0.276	0.036
-188.158	-73.612	-0.248	-0.091
-187.144	-200.000	-0.045	-0.202
-186.129	-200.000	0.016	0.075
-185.114	366.399	0.113	-0.227
-184.100	64.080	0.081	-0.082
-183.085	-140.706	0.202	0.021
-182.071	-110.396	0.254	0.053
-181.056	-65.502	-0.601	-0.242
-180.042	225.187	0.136	0.220
-179.027	35.455	0.299	0.263
-178.012	-200.000	-0.001	-0.188
-176.998	800.000	-0.077	-0.227
-175.983	-28.904	-0.193	-0.111
-174.969	50.491	0.058	-0.055
-173.954	1.555	-0.069	-0.050
-172.939	800.000	-0.061	0.258
-171.925	198.696	-0.114	0.175
-170.910	-147.405	-0.049	0.004
-169.896	-105.315	-0.135	0.031
-168.881	-56.135	0.074	-0.033
-167.866	-59.548	-0.142	-0.061
-166.852	486.268	0.032	0.072
-165.837	-200.000	0.026	0.147
-164.823	-200.000	0.017	-0.115
-163.808	-158.425	0.337	0.020
-162.793	-200.000	-0.067	0.301
-161.779	-25.089	-0.430	0.255
-160.764	43.378	0.091	-0.083
-159.750	123.482	-0.161	0.202
-158.735	621.523	0.034	0.084
-157.720	-51.587	0.156	0.073
-156.706	-200.000	-0.032	0.298
-155.691	-200.000	-0.017	0.245
-154.677	145.407	-0.112	0.150
-153.662	363.213	-0.039	0.078
-152.647	800.000	0.045	-0.169
-151.633	-200.000	-0.047	0.268
-150.618	227.739	-0.053	0.086
-149.604	103.129	0.127	-0.149
-148.589	-200.000	0.029	0.254
-147.574	187.065	-0.206	0.307
-146.560	-45.724	-0.063	-0.031
-145.545	-200.000	-0.026	0.222
-144.531	65.969	-0.149	0.151
-143.516	-49.796	0.377	0.179
-142.502	-100.295	-0.156	0.039
-141.487	635.752	0.019	-0.048
-140.472	168.635	-0.135	-0.192
-139.458	247.461	-0.085	-0.144
-138.443	606.415	-0.042	-0.104
-137.429	-30.767	-0.222	-0.126
-136.414	69.090	0.194	-0.200
-135.399	349.004	0.209	-0.413
-134.385	-200.000	0.008	-0.249
-133.370	-182.523	0.201	0.004
-132.356	800.000	-0.034	-0.103
-131.341	-149.540	-0.212	-0.017
-130.326	-34.778	-0.390	0.213
-129.312	94.885	-0.089	0.102
-128.297	-31.440	-0.219	0.123
-127.283	74.985	-0.107	-0.112
-126.268	800.000	-0.059	0.223
-125.253	800.000	0.014	0.047
-124.239	-146.930	-0.284	-0.024
-123.224	-200.000	0.037	0.459
-122.210	134.948	-0.125	0.163
