DTS Sentinel unit serial number:	SN413079Multiplexer serial number:	ORYXHardware model number:	OX4-SRSoftware version number:	ORYX F/W v4.00 Oryx Data Collector v3.7.2.0data status	okinstallation	princeton_trtdifferential loss correction	single-endedforward channel	channel 1reverse channel	N/Adate	2019/09/19time	13:26:35forward acquisition time	60.00reverse acquisition time	0.00gamma	496.2192k internal	0.2327k external	0.2327temperature offset calibration	1.0013default loss term (dB/km)	0.3790temperature slope calibration	1.0000multiplexer offset coefficient	1.0000multiplexer slope coefficient	1.0000fibre end	0.00T internal ref (°C)	29.87T ext. ref 1 (°C)	0.96T ext. ref 2 (°C)	27.00length (m)	temperature (°C)	Stokes	anti-Stokes-747.200	115.164	0.055	0.067
-746.185	133.674	-0.233	0.304
-745.171	-42.675	0.245	0.126
-744.156	222.910	0.196	0.318
-743.142	-156.700	0.184	-0.011
-742.127	160.684	0.143	-0.201
-741.112	57.676	0.186	-0.184
-740.098	-134.372	-0.113	-0.014
-739.083	217.683	0.151	-0.243
-738.069	-98.233	0.108	0.028
-737.054	-71.111	-0.296	0.112
-736.039	232.867	-0.141	-0.234
-735.025	-64.977	0.284	0.116
-734.010	800.000	-0.089	-0.254
-732.996	-200.000	0.036	-0.261
-731.981	1.880	-0.180	0.131
-730.966	117.872	-0.157	-0.194
-729.952	-47.083	-0.135	-0.067
-728.937	-9.363	-0.245	-0.165
-727.923	800.000	0.031	-0.096
-726.908	-48.777	-0.140	0.068
-725.894	-45.334	-0.263	-0.131
-724.879	147.736	0.053	0.072
-723.864	420.675	0.181	-0.390
-722.850	132.694	-0.196	0.255
-721.835	627.091	-0.019	0.048
-720.821	-200.000	-0.031	0.287
-719.806	-93.991	-0.143	0.040
-718.791	278.866	-0.089	-0.160
-717.777	-177.916	0.153	0.004
-716.762	-153.978	-0.106	0.007
-715.748	140.279	0.157	0.208
-714.733	-11.663	-0.068	-0.045
-713.718	-41.057	0.085	0.044
-712.704	211.634	-0.230	0.364
-711.689	-73.257	-0.122	-0.045
-710.675	-66.894	0.128	0.051
-709.660	83.046	-0.288	-0.315
-708.645	-135.603	0.114	0.014
-707.631	-17.815	0.154	0.097
-706.616	-200.000	-0.012	-0.155
-705.602	800.000	0.109	0.365
-704.587	110.778	-0.175	-0.212
-703.572	-91.782	0.208	-0.059
-702.558	-18.260	0.104	-0.065
-701.543	-110.461	-0.055	-0.011
-700.529	-167.235	-0.194	-0.008
-699.514	233.721	0.205	0.340
-698.499	-104.106	0.207	0.048
-697.485	-32.589	0.161	0.090
-696.470	-200.000	-0.011	-0.114
-695.456	-77.596	0.272	0.095
-694.441	-79.613	0.185	-0.063
-693.426	-79.545	-0.069	0.023
-692.412	-58.051	-0.063	-0.028
-691.397	-27.032	-0.084	-0.050
-690.383	40.233	0.284	0.257
-689.368	800.000	-0.111	0.470
-688.354	-8.320	-0.189	0.128
-687.339	-5.441	-0.195	0.135
-686.324	794.288	-0.044	-0.123
-685.310	-183.821	0.071	-0.001
-684.295	800.000	0.055	-0.206
-683.281	-103.739	-0.169	-0.040
-682.266	-5.910	0.223	-0.154
-681.251	800.000	-0.071	0.246
-680.237	-200.000	-0.028	-0.192
-679.222	-34.368	-0.284	-0.157
-678.208	-200.000	0.015	0.075
-677.193	-7.706	-0.040	0.027
-676.178	-56.339	0.102	-0.045
-675.164	184.141	-0.077	0.115
-674.149	355.966	-0.223	0.446
-673.135	-49.805	-0.049	0.024
-672.120	250.372	0.168	0.287
-671.105	117.886	-0.424	-0.525
-670.091	134.968	0.041	0.054
-669.076	-10.509	-0.098	0.065
-668.062	307.075	0.064	0.120
-667.047	-193.648	0.378	0.003
-666.032	81.767	0.143	0.156
-665.018	181.817	0.172	-0.255
-664.003	-118.635	-0.124	-0.022
-662.989	-60.858	-0.312	-0.133
-661.974	2.099	-0.231	-0.168
-660.959	-200.000	-0.183	-0.000
-659.945	-12.167	-0.293	0.193
-658.930	-153.300	0.110	0.008
-657.916	-115.587	0.064	0.012
-656.901	69.160	0.317	-0.328
-655.886	94.851	0.183	0.209
-654.872	800.000	-0.090	-0.330
-653.857	-83.266	-0.167	0.054
-652.843	-200.000	-0.014	0.210
-651.828	-5.878	0.311	0.214
-650.814	-200.000	-0.010	0.131
-649.799	-200.000	-0.061	-0.283
-648.784	-25.761	-0.123	0.073
-647.770	-2.113	-0.208	-0.147
-646.755	378.193	0.135	-0.276
-645.741	-39.735	-0.320	-0.168
-644.726	-160.830	-0.128	0.007
-643.711	173.369	0.187	-0.270
-642.697	-132.855	-0.134	0.017
-641.682	117.762	-0.063	0.078
-640.668	-60.189	-0.055	-0.024
-639.653	-91.565	-0.323	0.092
-638.638	800.000	0.038	-0.117
-637.624	754.548	0.046	0.124
-636.609	49.086	0.253	0.238
-635.595	427.008	-0.048	-0.105
-634.580	-90.938	0.348	0.101
-633.565	215.923	-0.035	0.056
-632.551	-65.764	-0.090	-0.036
-631.536	800.000	0.046	0.130
-630.522	25.839	0.276	-0.231
-629.507	51.228	0.147	0.140
-628.492	647.146	0.102	0.262
-627.478	-21.214	0.271	-0.166
-626.463	-78.258	0.210	-0.072
-625.449	-200.000	0.045	0.372
-624.434	121.931	-0.116	-0.146
-623.419	800.000	-0.045	-0.144
-622.405	-200.000	0.005	-0.110
-621.390	-200.000	-0.013	-0.156
-620.376	-56.447	0.111	0.049
-619.361	800.000	-0.030	0.130
-618.346	119.539	-0.134	0.166
-617.332	-95.464	0.349	0.094
-616.317	-8.686	0.163	0.110
-615.303	396.503	-0.034	-0.072
-614.288	730.527	0.153	0.409
-613.273	188.099	-0.070	0.105
-612.259	17.297	-0.285	-0.227
-611.244	459.508	-0.026	0.058
-610.230	-158.913	-0.197	0.011
-609.215	100.288	0.211	-0.245
-608.201	800.000	-0.039	0.123
-607.186	-121.175	0.045	-0.008
-606.171	15.872	0.226	0.178
-605.157	186.339	-0.115	-0.171
-604.142	800.000	0.054	-0.150
-603.128	106.981	-0.017	0.020
-602.113	84.501	0.183	-0.201
-601.098	-21.470	-0.301	0.184
-600.084	212.210	0.061	0.097
-599.069	55.251	-0.204	0.198
-598.055	585.909	0.107	-0.263
-597.040	-200.000	-0.024	-0.193
-596.025	-118.457	0.049	-0.009
-595.011	-32.384	-0.233	0.130
-593.996	-184.512	0.081	0.001
-592.982	-19.293	-0.060	-0.037
-591.967	6.183	0.059	-0.044
-590.952	-200.000	-0.004	-0.138
-589.938	-29.991	-0.168	-0.096
-588.923	-18.619	0.257	0.161
-587.909	242.795	0.035	-0.059
-586.894	-71.100	-0.294	-0.111
-585.879	-73.773	-0.272	0.099
-584.865	800.000	-0.046	-0.130
-583.850	800.000	0.043	-0.127
-582.836	-98.812	-0.069	-0.018
-581.821	-200.000	0.048	-0.280
-580.806	800.000	0.032	0.093
-579.792	-2.433	0.051	0.036
-578.777	-43.600	-0.433	-0.219
-577.763	-117.525	-0.129	-0.023
-576.748	800.000	0.040	-0.149
-575.733	-38.945	-0.083	-0.044
-574.719	-184.049	0.133	-0.002
-573.704	-200.000	-0.052	0.464
-572.690	268.310	-0.244	0.428
-571.675	-99.660	-0.263	0.066
-570.661	-62.508	-0.109	0.045
-569.646	19.433	-0.218	0.176
-568.631	800.000	0.043	0.149
-567.617	417.255	-0.056	0.119
-566.602	-173.132	-0.068	-0.002
-565.588	800.000	0.075	0.271
-564.573	-200.000	-0.043	0.224
-563.558	-200.000	-0.003	0.238
-562.544	32.244	-0.239	0.207
-561.529	118.583	0.116	0.143
-560.515	9.596	-0.049	-0.037
-559.500	-64.521	-0.250	0.102
-558.485	-174.576	-0.338	-0.010
-557.471	87.340	0.068	-0.075
-556.456	-200.000	-0.026	-0.252
-555.442	246.699	-0.156	-0.263
-554.427	800.000	-0.063	-0.245
-553.412	779.649	-0.033	0.089
-552.398	-38.812	-0.116	-0.061
-551.383	-200.000	-0.010	-0.292
-550.369	-185.272	-0.211	0.003
-549.354	156.978	-0.212	0.294
-548.339	709.811	0.063	0.166
-547.325	325.423	-0.058	-0.111
-546.310	-30.670	0.170	-0.096
-545.296	800.000	0.025	0.106
-544.281	-31.769	0.108	0.061
-543.266	243.179	-0.146	-0.244
-542.252	-61.660	0.418	-0.176
-541.237	179.900	-0.284	0.417
-540.223	-91.041	0.186	0.054
-539.208	149.280	0.173	0.234
-538.193	-48.825	0.261	0.125
-537.179	33.608	-0.228	-0.198
-536.164	-87.887	-0.293	0.088
-535.150	118.901	-0.113	-0.139
-534.135	306.429	0.059	0.110
-533.121	-54.849	0.329	0.148
-532.106	-70.425	-0.052	-0.020
-531.091	366.463	-0.078	0.157
-530.077	30.995	0.145	-0.125
-529.062	-106.140	0.364	-0.082
-528.048	-7.007	0.215	0.146
-527.033	139.820	-0.211	-0.278
-526.018	-9.659	0.201	-0.134
-525.004	31.337	0.155	-0.133
-523.989	-200.000	0.012	0.218
-522.975	-200.000	0.014	-0.168
-521.960	-82.247	-0.398	-0.130
-520.945	-200.000	0.025	0.156
-519.931	177.189	0.054	-0.079
-518.916	288.521	-0.075	0.136
-517.902	140.595	0.083	-0.110
-516.887	-200.000	0.041	-0.244
-515.872	-200.000	-0.029	0.228
-514.858	22.073	-0.122	-0.099
-513.843	-91.354	0.392	-0.112
-512.829	-24.625	0.186	-0.110
-511.814	-103.216	0.432	-0.102
-510.799	31.731	-0.070	0.060
-509.785	-154.888	0.185	0.012
-508.770	-200.000	-0.006	-0.033
-507.756	21.887	0.109	0.089
-506.741	-72.420	0.247	0.091
-505.726	-145.677	-0.080	-0.007
-504.712	218.117	-0.127	0.202
-503.697	-83.944	-0.146	-0.047
-502.683	-2.994	-0.181	0.126
-501.668	-84.800	-0.149	0.047
-500.653	800.000	-0.078	0.234
-499.639	52.781	0.059	-0.056
-498.624	-200.000	0.023	0.295
-497.610	226.870	-0.114	-0.185
-496.595	-59.662	0.118	0.050
-495.581	-79.759	-0.309	-0.104
-494.566	800.000	-0.115	-0.362
-493.551	27.448	-0.116	0.097
-492.537	17.339	-0.092	0.073
-491.522	-59.149	-0.091	0.039
-490.508	800.000	-0.031	-0.105
-489.493	113.209	0.088	0.107
-488.478	-139.624	-0.081	0.009
-487.464	-99.588	-0.362	0.091
-486.449	-200.000	-0.097	-0.474
-485.435	321.308	-0.189	0.359
-484.420	106.899	-0.088	-0.104
-483.405	-99.753	-0.246	0.062
-482.391	170.038	0.116	-0.166
-481.376	-200.000	0.004	0.098
-480.362	-105.401	0.137	-0.031
-479.347	306.320	-0.224	-0.417
-478.332	-27.621	-0.227	-0.132
-477.318	-200.000	0.035	-0.284
-476.303	389.182	0.061	-0.125
-475.289	212.143	-0.153	-0.240
-474.274	211.763	-0.089	-0.139
-473.259	165.083	0.174	-0.245
-472.245	-63.076	0.088	-0.036
-471.230	-28.257	0.223	0.129
-470.216	42.740	-0.100	-0.091
-469.201	41.835	-0.187	-0.169
-468.186	-200.000	0.002	0.179
-467.172	-107.453	0.070	-0.015
-466.157	91.993	-0.141	0.158
-465.143	800.000	-0.023	-0.075
-464.128	800.000	-0.124	-0.366
-463.113	32.758	0.045	-0.039
-462.099	81.486	0.203	-0.218
-461.084	-200.000	-0.013	-0.140
-460.070	800.000	0.041	-0.131
-459.055	39.622	-0.213	-0.191
-458.040	-135.827	-0.226	0.027
-457.026	-200.000	0.062	-0.358
-456.011	-200.000	0.023	-0.299
-454.997	150.228	-0.210	0.284
-453.982	-112.814	-0.410	-0.081
-452.968	777.794	0.008	-0.022
-451.953	-151.595	-0.052	0.004
-450.938	262.202	0.108	-0.187
-449.924	-41.909	-0.240	-0.122
-448.909	800.000	-0.083	0.257
-447.895	-102.960	0.008	-0.002
-446.880	88.185	0.213	0.236
-445.865	68.194	0.143	-0.146
-444.851	-23.977	0.059	0.035
-443.836	-200.000	0.061	0.269
-442.822	-33.441	0.151	-0.083
-441.807	-155.653	0.351	-0.022
-440.792	-200.000	-0.017	-0.133
-439.778	800.000	-0.082	0.256
-438.763	36.156	-0.211	-0.185
-437.749	16.996	-0.117	-0.093
-436.734	-34.370	0.239	-0.131
-435.719	91.991	-0.093	0.105
-434.705	-10.595	0.109	0.072
-433.690	645.785	0.115	0.293
-432.676	11.689	-0.170	-0.130
-431.661	62.651	-0.219	-0.218
-430.646	22.392	-0.101	0.082
-429.632	-59.773	0.163	-0.069
-428.617	-200.000	-0.015	-0.193
-427.603	-27.013	-0.212	0.123
-426.588	-167.761	-0.034	-0.001
-425.573	64.339	-0.278	0.279
-424.559	101.058	0.198	0.229
-423.544	248.136	-0.020	-0.033
-422.530	61.968	0.115	-0.115
-421.515	76.416	0.131	0.138
-420.500	274.084	0.113	0.200
-419.486	-37.695	-0.142	-0.076
-418.471	179.269	0.097	0.142
-417.457	-77.292	-0.312	0.108
-416.442	4.229	0.360	-0.262
-415.428	221.020	-0.098	-0.156
-414.413	-162.701	0.298	0.015
-413.398	-200.000	0.010	0.043
-412.384	-151.109	-0.248	-0.019
-411.369	155.280	0.108	0.148
-410.355	-58.610	0.230	-0.099
-409.340	705.281	-0.110	-0.288
-408.325	-10.882	-0.234	-0.154
-407.311	31.470	0.094	0.080
-406.296	251.152	-0.074	-0.125
-405.282	-121.401	-0.695	-0.115
-404.267	54.469	0.111	0.107
-403.252	-170.715	-0.269	-0.009
-402.238	-64.498	0.402	-0.163
-401.223	-200.000	-0.027	0.124
-400.209	-200.000	0.010	0.122
-399.194	-47.540	-0.102	-0.050
-398.179	800.000	0.127	0.379
-397.165	-200.000	0.008	-0.176
-396.150	17.048	-0.329	-0.259
-395.136	107.671	-0.080	0.095
-394.121	-61.078	0.209	0.088
-393.106	-58.453	-0.452	-0.195
-392.092	-181.311	-0.167	-0.003
-391.077	765.470	-0.063	0.171
-390.063	-164.725	-0.030	-0.001
-389.048	800.000	-0.042	0.126
-388.033	-42.021	0.107	-0.055
-387.019	800.000	-0.089	-0.369
-386.004	41.602	-0.103	0.093
-384.990	-22.095	0.217	0.131
-383.975	214.914	0.039	0.062
-382.960	-136.926	-0.213	0.024
-381.946	-40.012	0.149	0.077
-380.931	11.128	-0.093	0.071
-379.917	135.376	0.193	-0.250
-378.902	535.284	-0.064	-0.150
-377.888	38.773	-0.203	0.180
-376.873	800.000	-0.045	-0.172
-375.858	-57.491	0.171	-0.075
-374.844	305.453	0.110	-0.204
-373.829	18.555	0.322	0.256
-372.815	115.819	0.228	-0.278
-371.800	-127.018	0.187	-0.027
-370.785	-25.230	0.186	0.110
-369.771	329.722	0.099	0.189
-368.756	16.779	0.292	-0.230
-367.742	68.332	-0.083	0.084
-366.727	122.494	0.159	-0.197
-365.712	800.000	0.046	0.163
-364.698	-200.000	0.026	-0.183
-363.683	-26.061	0.363	0.212
-362.669	-43.817	0.318	0.159
-361.654	27.492	-0.046	0.038
-360.639	800.000	-0.014	0.039
-359.625	21.039	-0.053	-0.043
-358.610	-10.324	0.357	-0.235
-357.596	586.917	-0.108	-0.265
-356.581	-133.996	0.400	0.049
-355.566	-70.852	-0.296	-0.111
-354.552	800.000	-0.083	0.321
-353.537	800.000	-0.093	-0.306
-352.523	-200.000	-0.005	0.267
-351.508	-200.000	-0.006	0.342
-350.493	12.740	0.205	0.157
-349.479	-29.919	-0.170	-0.096
-348.464	-68.046	-0.163	-0.063
-347.450	314.191	0.052	0.097
-346.435	-32.956	0.077	-0.042
-345.420	75.090	0.045	0.047
-344.406	-112.551	0.450	0.089
-343.391	15.313	-0.265	-0.206
-342.377	-148.523	-0.172	0.014
-341.362	-67.958	-0.282	-0.109
-340.348	71.209	-0.037	0.038
-339.333	331.988	-0.077	0.148
-338.318	-76.199	-0.300	0.105
-337.304	-130.099	0.146	-0.020
-336.289	294.171	-0.156	-0.282
-335.275	800.000	0.040	-0.144
-334.260	-200.000	0.006	0.128
-333.245	800.000	0.060	0.178
-332.231	-200.000	-0.016	0.099
-331.216	-49.250	-0.020	0.010
-330.202	-91.794	0.106	-0.030
-329.187	537.817	0.081	0.191
-328.172	-200.000	0.038	-0.257
-327.158	-62.051	-0.178	-0.074
-326.143	-45.146	-0.149	0.073
-325.129	-97.379	0.108	0.028
-324.114	800.000	0.177	0.495
-323.099	-14.885	0.086	0.055
-322.085	-90.361	0.148	-0.043
-321.070	-200.000	-0.012	0.076
-320.056	-32.970	0.152	-0.083
-319.041	230.112	0.076	0.123
-318.026	-24.049	0.172	0.102
-317.012	-200.000	-0.037	-0.234
-315.997	26.139	-0.183	0.151
-314.983	-65.067	-0.357	0.143
-313.968	-13.067	-0.127	-0.082
-312.953	-40.415	-0.108	-0.056
-311.939	800.000	0.040	-0.127
-310.924	25.683	0.153	0.126
-309.910	-9.646	0.325	0.215
-308.895	76.278	0.302	0.317
-307.880	800.000	-0.156	-0.450
-306.866	-142.614	-0.150	0.015
-305.851	-158.328	-0.154	0.009
-304.837	-130.147	0.093	0.013
-303.822	143.354	0.183	0.242
-302.807	800.000	-0.062	0.266
-301.793	-71.705	0.158	0.058
-300.778	-91.126	-0.207	0.059
-299.764	161.130	-0.035	-0.048
-298.749	17.540	-0.122	-0.096
-297.735	283.296	-0.064	0.113
-296.720	78.900	0.111	0.118
-295.705	-119.524	0.082	-0.014
-294.691	234.498	0.109	0.179
-293.676	46.341	-0.125	0.115
-292.662	800.000	-0.077	0.228
-291.647	-53.921	0.354	-0.160
-290.632	5.885	0.022	-0.016
-289.618	-106.289	0.282	-0.062
-288.603	-62.048	-0.395	0.163
-287.589	-0.166	-0.221	0.156
-286.574	-200.000	0.012	-0.181
-285.559	-200.000	-0.024	-0.174
-284.545	800.000	0.094	0.298
-283.530	800.000	0.095	0.398
-282.516	-153.858	0.314	0.021
-281.501	-18.878	-0.075	-0.046
-280.486	-200.000	0.064	0.355
-279.472	-44.877	-0.127	-0.062
-278.457	-200.000	-0.041	0.402
-277.443	223.936	-0.166	0.265
-276.428	-95.329	-0.148	-0.040
-275.413	-71.910	-0.110	0.041
-274.399	-192.018	0.202	0.002
-273.384	117.836	0.035	0.042
-272.370	350.224	0.092	0.180
-271.355	-93.672	-0.257	-0.070
-270.340	-200.000	0.029	-0.166
-269.326	-131.544	-0.097	0.013
-268.311	800.000	0.066	-0.196
-267.297	-142.360	-0.183	-0.018
-266.282	-191.581	0.286	-0.003
-265.267	-200.000	-0.003	0.019
-264.253	-89.542	0.191	-0.056
-263.238	-86.586	0.252	-0.077
-262.224	-110.380	-0.213	-0.044
-261.209	130.448	0.202	-0.256
-260.195	563.874	0.044	0.104
-259.180	-28.897	-0.065	0.037
-258.165	403.188	-0.027	0.057
-257.151	-167.858	-0.100	-0.004
-256.136	800.000	0.056	0.205
-255.122	62.542	-0.068	-0.067
-254.107	-200.000	0.078	-0.417
-253.092	-51.746	0.114	-0.052
-252.078	187.463	0.052	0.076
-251.063	233.458	0.134	0.218
-250.049	86.420	-0.310	-0.338
-249.034	461.692	0.053	0.118
-248.019	-81.829	0.606	-0.196
-247.005	-41.621	0.476	-0.242
-245.990	-158.930	-0.431	-0.024
-244.976	101.840	0.091	-0.105
-243.961	800.000	0.121	-0.340
-242.946	-191.551	0.313	0.003
-241.932	59.619	0.179	-0.174
-240.917	-2.354	-0.199	-0.138
-239.903	91.433	0.044	-0.049
-238.888	239.938	0.160	0.264
-237.873	224.679	0.052	-0.083
-236.859	-29.402	-0.373	-0.211
-235.844	-200.000	0.014	0.103
-234.830	800.000	-0.020	0.055
-233.815	17.142	0.210	0.164
-232.800	800.000	0.073	-0.215
-231.786	151.426	-0.077	-0.103
-230.771	-200.000	-0.021	0.171
-229.757	-200.000	-0.010	0.073
-228.742	800.000	0.055	0.164
-227.727	-200.000	-0.069	0.337
-226.713	-200.000	-0.006	-0.203
-225.698	175.026	-0.068	0.097
-224.684	800.000	-0.049	0.185
-223.669	277.553	0.075	0.132
-222.655	174.388	0.180	0.257
-221.640	-50.636	-0.193	-0.090
-220.625	76.475	-0.059	-0.062
-219.611	-200.000	0.011	0.131
-218.596	-2.915	0.216	0.149
-217.582	238.991	0.156	-0.257
-216.567	-149.316	0.276	-0.022
-215.552	-105.541	-0.194	-0.043
-214.538	-122.257	0.201	-0.032
-213.523	537.440	-0.027	0.062
-212.509	-159.885	0.171	-0.009
-211.494	-96.003	0.555	0.146
-210.479	-33.361	-0.299	-0.163
-209.465	-14.603	-0.338	-0.215
-208.450	-156.871	0.118	-0.007
-207.436	-200.000	0.016	-0.129
-206.421	52.172	-0.273	-0.257
-205.406	-55.796	0.188	0.083
-204.392	346.563	0.089	-0.173
-203.377	800.000	-0.056	-0.230
-202.363	-19.709	0.368	0.225
-201.348	-200.000	0.024	0.173
-200.333	71.068	-0.334	-0.341
-199.319	-200.000	0.012	0.064
-198.304	-49.934	0.103	-0.048
-197.290	-200.000	-0.032	0.343
-196.275	395.767	0.148	0.304
-195.260	24.312	0.039	0.032
-194.246	173.016	-0.155	0.220
-193.231	-11.419	-0.097	-0.063
-192.217	-166.523	-0.111	0.005
-191.202	-110.901	0.236	-0.048
-190.187	-200.000	-0.018	-0.254
-189.173	-148.989	-0.357	0.028
-188.158	523.338	0.049	0.114
-187.144	-200.000	-0.012	0.063
-186.129	-34.462	0.041	0.022
-185.114	180.030	0.058	0.083
-184.100	310.376	-0.030	0.056
-183.085	-132.582	-0.135	0.017
-182.071	800.000	-0.132	0.430
-181.056	-94.954	0.282	0.075
-180.042	-51.291	0.122	-0.056
-179.027	4.051	-0.156	-0.112
-178.012	-5.634	0.108	0.073
-176.998	269.356	-0.095	-0.164
-175.983	-110.995	-0.272	-0.055
-174.969	318.647	-0.123	0.229
-173.954	117.622	0.018	0.022
-172.939	-200.000	0.026	-0.207
-171.925	543.918	0.111	0.261
-170.910	-200.000	0.049	-0.237
-169.896	-200.000	-0.015	0.127
-168.881	488.219	-0.069	-0.156
-167.866	-200.000	0.006	-0.251
-166.852	-200.000	0.073	-0.438
-165.837	-115.905	0.276	-0.051
-164.823	-152.545	-0.348	-0.025
-163.808	23.739	0.187	0.152
-162.793	-60.565	0.158	0.066
-161.779	55.293	0.096	-0.092
-160.764	2.670	0.035	-0.025
-159.750	-141.705	-0.119	-0.012
-158.735	-65.120	0.130	0.052
-157.720	-29.744	0.118	-0.066
-156.706	800.000	-0.056	-0.231
-155.691	495.064	-0.094	0.212
-154.677	95.669	0.220	0.247
-153.662	-200.000	-0.023	-0.140
-152.647	243.329	-0.092	0.152
-151.633	34.144	0.138	0.119
-150.618	549.879	0.087	-0.206
-149.604	-28.362	-0.028	-0.016
-148.589	57.172	0.133	0.128
-147.574	569.718	0.102	-0.243
-146.560	-147.896	-0.297	-0.024
-145.545	-17.445	-0.232	-0.144
-144.531	40.049	0.196	-0.174
-143.516	10.664	0.294	-0.221
-142.502	-127.549	0.101	0.014
-141.487	294.523	-0.158	-0.285
-140.472	800.000	0.032	-0.118
-139.458	757.443	-0.089	0.237
-138.443	86.400	0.218	-0.237
-137.429	-200.000	-0.013	0.189
-136.414	93.726	-0.158	-0.177
-135.399	-89.969	0.043	-0.012
-134.385	46.804	0.106	0.097
-133.370	-200.000	0.003	0.261
-132.356	-88.947	-0.351	-0.102
-131.341	-8.760	0.218	0.144
-130.326	-69.879	-0.040	-0.015
-129.312	-200.000	-0.007	0.271
-128.297	174.039	-0.243	0.346
-127.283	-123.444	0.236	0.037
-126.268	-82.671	0.094	-0.030
-125.253	668.006	0.071	0.182
-124.239	-200.000	0.027	0.308
-123.224	48.553	0.188	0.173
-122.210	163.120	-0.094	0.129
-121.195	800.000	-0.085	0.315
-120.180	-200.000	-0.023	-0.104
