DTS Sentinel unit serial number:	SN413079Multiplexer serial number:	ORYXHardware model number:	OX4-SRSoftware version number:	ORYX F/W v4.00 Oryx Data Collector v3.7.2.0data status	okinstallation	princeton_trtdifferential loss correction	single-endedforward channel	channel 1reverse channel	N/Adate	2019/09/13time	01:10:35forward acquisition time	60.00reverse acquisition time	0.00gamma	496.2192k internal	0.2329k external	0.2329temperature offset calibration	1.0141default loss term (dB/km)	0.3790temperature slope calibration	1.0000multiplexer offset coefficient	1.0000multiplexer slope coefficient	1.0000fibre end	0.00T internal ref (°C)	27.94T ext. ref 1 (°C)	3.67T ext. ref 2 (°C)	22.58length (m)	temperature (°C)	Stokes	anti-Stokes-747.200	-112.854	0.288	0.057
-746.185	233.027	0.121	0.200
-745.171	-200.000	0.016	-0.153
-744.156	71.029	-0.191	-0.200
-743.142	48.778	0.212	0.200
-742.127	-200.000	-0.064	0.405
-741.112	279.348	0.108	0.194
-740.098	153.366	-0.060	0.083
-739.083	-200.000	-0.048	-0.284
-738.069	-36.470	0.056	0.031
-737.054	-66.611	-0.324	-0.130
-736.039	612.692	-0.048	0.120
-735.025	23.318	-0.173	0.143
-734.010	-79.055	-0.192	-0.066
-732.996	-200.000	0.025	-0.323
-731.981	-89.223	-0.276	0.082
-730.966	-200.000	0.006	-0.060
-729.952	3.957	-0.512	-0.377
-728.937	-73.258	-0.197	0.073
-727.923	800.000	-0.097	-0.295
-726.908	401.639	0.030	-0.064
-725.894	800.000	-0.070	0.234
-724.879	-13.144	0.163	0.106
-723.864	328.741	0.109	-0.211
-722.850	-200.000	-0.048	-0.596
-721.835	800.000	0.041	-0.142
-720.821	-94.787	0.395	0.108
-719.806	237.213	-0.145	-0.242
-718.791	-200.000	0.029	-0.369
-717.777	92.895	0.004	0.004
-716.762	-200.000	0.001	-0.556
-715.748	-87.453	0.199	0.061
-714.733	-200.000	-0.008	-0.140
-713.718	190.340	-0.048	-0.073
-712.704	-15.706	-0.213	0.137
-711.689	3.410	-0.219	0.161
-710.675	-151.904	-0.286	-0.021
-709.660	-200.000	0.029	0.332
-708.645	800.000	-0.027	0.088
-707.631	-48.194	-0.157	0.076
-706.616	380.063	-0.040	0.082
-705.602	-3.469	-0.075	-0.053
-704.587	-200.000	0.010	0.209
-703.572	172.985	-0.120	-0.174
-702.558	178.258	0.046	-0.068
-701.543	-52.024	-0.198	0.093
-700.529	-200.000	0.053	0.367
-699.514	-200.000	0.011	0.271
-698.499	11.572	-0.152	-0.117
-697.485	105.443	-0.220	-0.261
-696.470	-153.451	-0.088	0.006
-695.456	71.485	0.235	0.245
-694.441	-136.785	-0.434	-0.050
-693.426	116.620	-0.114	-0.140
-692.412	42.666	-0.135	-0.124
-691.397	29.227	-0.163	0.139
-690.383	269.880	0.203	0.359
-689.368	4.190	-0.169	0.125
-688.354	-200.000	-0.024	-0.145
-687.339	16.689	0.203	-0.161
-686.324	-153.758	-0.225	-0.016
-685.310	-163.566	0.170	0.008
-684.295	44.942	0.155	0.143
-683.281	-116.571	0.036	-0.007
-682.266	-24.942	-0.187	0.112
-681.251	82.259	-0.155	0.169
-680.237	402.889	0.113	0.238
-679.222	-200.000	-0.030	0.298
-678.208	-88.015	-0.097	0.029
-677.193	340.611	0.049	0.095
-676.178	-31.694	0.168	-0.095
-675.164	-200.000	-0.010	-0.173
-674.149	713.477	0.051	-0.136
-673.135	-200.000	-0.016	-0.235
-672.120	39.451	-0.227	-0.204
-671.105	488.989	0.110	-0.253
-670.091	-200.000	0.057	-0.312
-669.076	-200.000	-0.203	-0.001
-668.062	-85.094	0.238	-0.075
-667.047	-2.702	0.269	0.189
-666.032	800.000	0.053	-0.229
-665.018	236.853	-0.143	0.238
-664.003	-87.981	-0.057	-0.017
-662.989	-60.347	-0.106	-0.045
-661.974	11.654	-0.210	0.162
-660.959	-200.000	-0.013	0.262
-659.945	-36.193	0.261	0.142
-658.930	140.708	-0.235	0.312
-657.916	-72.557	0.249	0.092
-656.901	311.344	0.083	-0.156
-655.886	800.000	-0.077	0.214
-654.872	-105.043	0.157	-0.036
-653.857	-133.222	-0.128	0.016
-652.843	-200.000	0.002	0.284
-651.828	-40.203	0.225	-0.118
-650.814	-37.086	-0.042	0.023
-649.799	53.382	-0.170	0.164
-648.784	-128.865	-0.194	0.027
-647.770	800.000	0.090	-0.318
-646.755	-187.589	-0.273	-0.004
-645.741	800.000	0.053	0.151
-644.726	-89.779	-0.150	-0.044
-643.711	-200.000	0.003	0.112
-642.697	-200.000	-0.008	-0.038
-641.682	279.685	0.080	0.144
-640.668	61.856	0.166	-0.165
-639.653	800.000	-0.019	0.075
-638.638	1.041	-0.173	0.125
-637.624	-200.000	0.030	-0.368
-636.609	27.782	-0.175	0.147
-635.595	-200.000	0.025	0.328
-634.580	-200.000	-0.011	-0.068
-633.565	624.262	-0.038	0.096
-632.551	-91.162	0.218	-0.063
-631.536	-58.848	0.247	-0.107
-630.522	-200.000	-0.352	0.002
-629.507	246.724	0.193	0.326
-628.492	-200.000	-0.021	0.155
-627.478	-118.279	-0.128	-0.023
-626.463	-112.560	0.277	-0.055
-625.449	284.273	0.042	-0.076
-624.434	-81.931	0.441	0.145
-623.419	-200.000	-0.017	-0.260
-622.405	-55.636	0.336	-0.151
-621.390	35.335	-0.284	-0.250
-620.376	302.042	0.082	0.152
-619.361	-200.000	0.025	0.143
-618.346	-200.000	0.082	-0.393
-617.332	-52.935	-0.302	0.139
-616.317	-56.707	-0.046	-0.020
-615.303	55.246	-0.041	0.040
-614.288	-127.554	0.143	0.021
-613.273	-127.735	-0.274	-0.040
-612.259	130.600	-0.139	0.179
-611.244	363.778	-0.051	-0.103
-610.230	-85.536	-0.276	0.086
-609.215	-200.000	-0.048	0.288
-608.201	-200.000	-0.019	-0.117
-607.186	13.075	0.241	0.186
-606.171	800.000	-0.137	0.437
-605.157	-122.986	-0.176	0.028
-604.142	-131.471	-0.076	0.010
-603.128	545.667	0.044	-0.105
-602.113	-33.823	0.090	0.050
-601.098	-79.668	0.110	0.037
-600.084	-200.000	0.013	-0.159
-599.069	-54.290	-0.125	-0.057
-598.055	-125.012	0.185	-0.028
-597.040	248.886	-0.033	0.056
-596.025	-135.466	-0.280	0.033
-595.011	-148.077	-0.332	-0.028
-593.996	800.000	0.066	-0.194
-592.982	174.045	0.036	-0.052
-591.967	-200.000	-0.067	0.424
-590.952	67.922	0.044	0.045
-589.938	-200.000	-0.060	-0.278
-588.923	800.000	-0.102	0.336
-587.909	187.160	-0.167	0.249
-586.894	-139.356	0.340	0.037
-585.879	337.513	0.027	-0.053
-584.865	-65.633	-0.294	-0.118
-583.850	175.366	-0.081	-0.117
-582.836	-74.408	0.265	-0.096
-581.821	-95.258	0.355	-0.096
-580.806	-101.549	0.323	-0.079
-579.792	-200.000	0.072	-0.373
-578.777	29.660	-0.102	0.087
-577.763	-105.362	0.070	0.016
-576.748	-159.260	0.347	0.019
-575.733	23.167	0.107	-0.088
-574.719	199.014	-0.068	-0.104
-573.704	800.000	0.135	0.507
-572.690	-6.418	0.092	-0.063
-571.675	26.621	0.163	-0.137
-570.661	-200.000	0.014	-0.140
-569.646	1.426	0.164	0.118
-568.631	-127.160	0.462	-0.068
-567.617	25.489	-0.209	-0.174
-566.602	-41.131	-0.389	-0.201
-565.588	139.296	-0.116	0.153
-564.573	-200.000	0.038	0.313
-563.558	445.159	0.049	-0.108
-562.544	-15.885	0.356	0.226
-561.529	-141.401	0.154	-0.016
-560.515	-200.000	-0.021	-0.242
-559.500	23.630	-0.100	0.082
-558.485	-24.572	0.149	0.089
-557.471	15.218	-0.080	-0.063
-556.456	34.082	0.153	0.133
-555.442	115.916	-0.093	0.114
-554.427	56.798	-0.088	0.085
-553.412	-109.783	-0.141	0.030
-552.398	51.021	0.076	0.072
-551.383	-31.547	0.204	-0.115
-550.369	800.000	-0.141	0.433
-549.354	39.910	-0.146	-0.131
-548.339	323.034	-0.140	0.267
-547.325	-200.000	0.053	0.353
-546.310	-200.000	-0.017	0.179
-545.296	-147.444	0.075	-0.006
-544.281	231.627	0.170	0.279
-543.266	-200.000	-0.001	-0.395
-542.252	90.276	-0.094	0.105
-541.237	-50.995	0.125	-0.059
-540.223	-200.000	0.047	-0.437
-539.208	800.000	0.035	0.153
-538.193	800.000	-0.104	0.401
-537.179	-29.378	0.086	0.049
-536.164	-192.618	-0.076	-0.001
-535.150	408.665	-0.160	0.337
-534.135	256.826	0.131	-0.225
-533.121	800.000	0.047	0.164
-532.106	667.009	0.069	0.177
-531.091	-173.137	-0.181	-0.006
-530.077	-200.000	-0.033	-0.300
-529.062	-98.305	0.174	0.045
-528.048	-200.000	-0.015	0.112
-527.033	184.648	-0.293	-0.434
-526.018	-4.297	-0.174	-0.120
-525.004	-34.971	-0.047	0.025
-523.989	385.076	-0.122	0.252
-522.975	406.929	0.040	0.084
-521.960	800.000	-0.081	-0.313
-520.945	-123.250	-0.116	0.018
-519.931	-44.550	0.323	0.161
-518.916	229.306	-0.145	0.236
-517.902	-127.894	-0.058	-0.008
-516.887	-91.492	0.130	0.037
-515.872	62.706	-0.182	-0.181
-514.858	-200.000	0.012	-0.429
-513.843	-94.278	0.422	0.115
-512.829	-29.463	-0.465	-0.266
-511.814	214.052	0.236	0.374
-510.799	-25.722	-0.267	-0.157
-509.785	233.025	0.059	-0.096
-508.770	-67.828	-0.047	-0.018
-507.756	356.596	0.053	0.105
-506.741	120.763	-0.122	-0.151
-505.726	24.790	0.188	-0.156
-504.712	3.603	-0.072	-0.052
-503.697	-71.018	-0.374	0.140
-502.683	-200.000	-0.017	-0.086
-501.668	-39.132	0.062	0.032
-500.653	-173.421	0.106	0.003
-499.639	15.913	0.269	-0.211
-498.624	-49.014	-0.149	0.071
-497.610	643.985	-0.059	-0.149
-496.595	800.000	0.077	-0.236
-495.581	40.003	0.244	-0.218
-494.566	-62.278	0.074	0.031
-493.551	6.342	-0.067	0.050
-492.537	383.171	-0.039	-0.080
-491.522	-200.000	0.055	0.290
-490.508	-200.000	-0.031	0.229
-489.493	13.398	-0.121	-0.094
-488.478	5.062	0.266	0.195
-487.464	-125.929	-0.412	-0.062
-486.449	188.311	-0.150	-0.223
-485.435	332.405	0.099	-0.190
-484.420	85.910	-0.140	0.154
-483.405	84.059	-0.109	0.119
-482.391	-200.000	0.013	0.278
-481.376	-157.506	-0.091	-0.005
-480.362	63.661	-0.221	-0.221
-479.347	-10.762	0.154	0.101
-478.332	72.281	0.245	0.254
-477.318	-200.000	0.017	0.178
-476.303	-200.000	0.021	0.233
-475.289	491.224	0.159	-0.364
-474.274	67.430	-0.023	0.023
-473.259	61.078	-0.213	-0.211
-472.245	134.351	0.063	-0.081
-471.230	69.840	-0.268	-0.275
-470.216	47.228	-0.095	0.088
-469.201	-20.643	-0.383	-0.235
-468.186	123.672	0.146	-0.183
-467.172	56.835	-0.031	-0.030
-466.157	228.205	0.124	-0.201
-465.143	153.437	0.187	0.255
-464.128	-109.528	0.085	0.018
-463.113	-139.460	-0.194	-0.021
-462.099	800.000	-0.034	0.111
-461.084	-92.121	-0.171	-0.048
-460.070	185.899	0.047	0.070
-459.055	169.363	-0.175	-0.249
-458.040	-104.612	-0.277	-0.064
-457.026	-30.971	-0.104	-0.059
-456.011	41.360	-0.141	-0.127
-454.997	-107.621	-0.170	0.037
-453.982	30.740	0.112	-0.096
-452.968	-200.000	-0.241	0.001
-451.953	-53.091	-0.231	0.106
-450.938	-200.000	0.069	0.349
-449.924	61.188	0.144	-0.143
-448.909	-120.085	0.167	-0.028
-447.895	-90.359	-0.188	-0.054
-446.880	-75.317	-0.282	-0.100
-445.865	-200.000	0.011	0.079
-444.851	-23.397	-0.131	0.079
-443.836	-139.051	0.260	-0.028
-442.822	411.349	0.070	-0.149
-441.807	148.809	0.080	-0.108
-440.792	-16.252	0.291	0.184
-439.778	-200.000	0.030	0.227
-438.763	-73.636	0.283	0.103
-437.749	-139.693	0.016	-0.002
-436.734	234.035	-0.046	0.075
-435.719	800.000	-0.059	0.227
-434.705	46.331	0.126	0.116
-433.690	-200.000	0.017	0.173
-432.676	73.969	-0.230	-0.240
-431.661	-200.000	0.018	0.172
-430.646	-118.309	-0.401	-0.071
-429.632	-169.384	0.185	0.007
-428.617	-80.428	-0.077	0.025
-427.603	-113.247	0.232	0.046
-426.588	-200.000	0.004	-0.090
-425.573	-166.312	0.303	-0.013
-424.559	793.159	-0.151	-0.412
-423.544	328.286	-0.057	-0.108
-422.530	290.621	0.077	-0.139
-421.515	53.810	-0.038	0.036
-420.500	20.940	0.146	-0.118
-419.486	144.850	0.302	-0.401
-418.471	-200.000	-0.002	0.023
-417.457	800.000	0.047	-0.159
-416.442	-155.295	-0.213	-0.014
-415.428	34.092	-0.047	-0.041
-414.413	-33.500	-0.256	-0.141
-413.398	328.706	-0.088	0.168
-412.384	84.970	0.165	0.180
-411.369	622.161	-0.073	0.182
-410.355	146.149	-0.217	-0.289
-409.340	78.254	0.127	-0.135
-408.325	93.070	-0.012	-0.013
-407.311	-72.727	-0.239	0.087
-406.296	-171.621	-0.085	-0.003
-405.282	-200.000	0.064	-0.301
-404.267	-62.028	-0.039	-0.016
-403.252	28.562	-0.139	-0.117
-402.238	37.654	-0.212	-0.187
-401.223	-42.419	-0.032	-0.016
-400.209	-73.464	-0.026	-0.009
-399.194	660.870	-0.103	-0.263
-398.179	52.060	0.170	0.161
-397.165	-133.489	-0.256	-0.032
-396.150	7.470	0.060	-0.045
-395.136	-200.000	0.028	0.187
-394.121	800.000	0.063	0.275
-393.106	800.000	-0.142	-0.405
-392.092	-168.635	0.261	0.010
-391.077	318.371	-0.122	0.229
-390.063	-124.368	0.250	-0.039
-389.048	-200.000	-0.094	-0.427
-388.033	-114.513	0.485	-0.092
-387.019	112.671	0.161	-0.193
-386.004	440.699	-0.129	-0.280
-384.990	35.764	0.187	-0.163
-383.975	31.199	0.130	-0.111
-382.960	32.791	-0.224	-0.193
-381.946	-131.245	-0.257	0.034
-380.931	800.000	0.042	0.116
-379.917	-194.669	0.261	-0.002
-378.902	70.453	0.086	0.089
-377.888	33.324	0.281	0.242
-376.873	-83.445	-0.355	-0.113
-375.858	-200.000	-0.041	-0.296
-374.844	-200.000	-0.000	0.021
-373.829	8.080	0.183	0.136
-372.815	120.888	-0.069	-0.086
-371.800	85.336	0.217	0.237
-370.785	47.660	-0.218	0.202
-369.771	238.687	-0.076	0.126
-368.756	83.367	-0.124	0.134
-367.742	-55.855	0.041	0.018
-366.727	116.154	0.226	0.275
-365.712	-20.973	-0.186	0.113
-364.698	-200.000	0.077	0.415
-363.683	-200.000	0.013	0.100
-362.669	-200.000	0.027	0.240
-361.654	170.500	-0.064	-0.091
-360.639	-36.706	0.352	0.188
-359.625	23.377	-0.130	-0.106
-358.610	338.906	0.048	-0.093
-357.596	126.934	0.093	-0.116
-356.581	-106.881	-0.170	-0.037
-355.566	165.262	-0.084	0.118
-354.552	800.000	0.057	-0.164
-353.537	-104.539	-0.131	-0.030
-352.523	-200.000	0.029	0.161
-351.508	744.898	-0.042	-0.112
-350.493	16.641	-0.038	-0.030
-349.479	410.767	-0.074	0.155
-348.464	238.713	-0.092	-0.151
-347.450	800.000	0.069	-0.277
-346.435	20.936	-0.246	-0.198
-345.420	80.707	0.129	0.138
-344.406	-9.784	-0.243	-0.160
-343.391	91.301	-0.014	-0.016
-342.377	208.733	0.160	0.248
-341.362	-200.000	-0.015	0.135
-340.348	-51.603	-0.196	0.091
-339.333	-3.536	0.230	0.159
-338.318	362.620	-0.035	-0.070
-337.304	203.402	0.040	-0.061
-336.289	-200.000	-0.004	0.082
-335.275	-51.581	0.069	-0.032
-334.260	118.148	-0.123	0.151
-333.245	-50.997	-0.343	0.159
-332.231	-105.257	0.206	0.047
-331.216	-85.067	-0.506	0.157
-330.202	502.124	-0.090	0.206
-329.187	800.000	-0.057	0.177
-328.172	-63.012	0.221	-0.090
-327.158	253.509	-0.013	0.022
-326.143	22.075	-0.121	-0.097
-325.129	-200.000	-0.046	0.259
-324.114	204.951	-0.012	-0.019
-323.099	-91.427	-0.275	0.078
-322.085	-130.423	-0.361	-0.048
-321.070	-131.576	-0.177	-0.023
-320.056	85.052	0.013	0.014
-319.041	64.728	0.214	0.214
-318.026	800.000	0.027	0.091
-317.012	412.065	-0.085	0.179
-315.997	-1.352	0.295	-0.206
-314.983	-200.000	-0.015	-0.294
-313.968	122.167	-0.210	0.259
-312.953	307.073	-0.076	0.140
-311.939	151.485	-0.116	0.157
-310.924	-187.393	0.103	0.001
-309.910	51.282	-0.350	-0.329
-308.895	-65.444	0.086	0.034
-307.880	-174.397	-0.252	-0.007
-306.866	-138.980	0.209	0.022
-305.851	29.171	0.290	-0.244
-304.837	-32.088	0.096	-0.053
-303.822	-100.231	0.149	0.037
-302.807	-108.451	-0.271	0.058
-301.793	-161.398	0.509	-0.026
-300.778	54.535	-0.030	-0.028
-299.764	800.000	0.089	0.270
-298.749	-200.000	-0.014	0.123
-297.735	111.945	0.144	-0.173
-296.720	-200.000	-0.038	-0.396
-295.705	431.154	-0.087	0.185
-294.691	159.366	-0.156	-0.214
-293.676	-66.042	0.349	-0.138
-292.662	-143.280	0.010	0.001
-291.647	-57.742	0.115	-0.050
-290.632	68.461	0.156	0.158
-289.618	-200.000	0.068	0.315
-288.603	-200.000	0.040	0.211
-287.589	800.000	0.016	0.051
-286.574	-200.000	-0.001	0.040
-285.559	12.448	-0.192	-0.146
-284.545	-39.274	-0.125	-0.065
-283.530	-200.000	-0.023	0.294
-282.516	256.694	-0.085	0.144
-281.501	-200.000	-0.039	0.206
-280.486	-168.873	0.061	0.002
-279.472	-200.000	-0.010	-0.104
-278.457	-200.000	0.017	-0.219
-277.443	37.494	0.181	-0.159
-276.428	216.207	0.203	-0.319
-275.413	-200.000	-0.004	-0.149
-274.399	-200.000	0.017	0.175
-273.384	212.406	-0.098	0.153
-272.370	-115.441	-0.072	-0.013
-271.355	298.338	-0.119	0.216
-270.340	-42.986	0.197	0.099
-269.326	800.000	0.091	-0.320
-268.311	-145.074	0.114	0.010
-267.297	120.834	0.303	0.373
-266.282	185.200	-0.283	0.415
-265.267	116.232	0.154	-0.186
-264.253	-169.700	-0.122	0.004
-263.238	-4.327	-0.345	-0.236
-262.224	800.000	0.049	0.196
-261.209	184.271	0.090	0.132
-260.195	97.612	0.130	0.148
-259.180	800.000	-0.032	-0.116
-258.165	306.158	0.099	-0.182
-257.151	38.739	0.181	0.160
-256.136	117.125	0.104	-0.126
-255.122	668.977	0.084	-0.214
-254.107	257.870	0.093	0.159
-253.092	-34.279	-0.204	-0.110
-252.078	355.271	-0.060	-0.118
-251.063	-200.000	-0.003	-0.151
-250.049	17.972	0.226	-0.178
-249.034	-110.939	0.364	0.074
-248.019	80.908	-0.135	-0.144
-247.005	800.000	-0.088	0.254
-245.990	338.848	-0.120	0.230
-244.976	572.589	-0.138	-0.332
-243.961	800.000	0.091	-0.361
-242.946	56.457	0.100	-0.096
-241.932	800.000	0.104	-0.299
-240.917	-194.309	-0.177	0.001
-239.903	-200.000	-0.024	0.119
-238.888	323.404	-0.087	-0.164
-237.873	-129.767	-0.209	-0.028
-236.859	-85.405	-0.296	-0.091
-235.844	-200.000	0.076	-0.411
-234.830	-20.706	-0.277	-0.168
-233.815	800.000	-0.125	-0.350
-232.800	800.000	0.025	-0.073
-231.786	47.787	0.125	0.115
-230.771	-95.350	-0.072	-0.019
-229.757	-200.000	-0.029	-0.366
-228.742	-72.783	0.128	-0.047
-227.727	57.468	-0.164	0.158
-226.713	-117.415	0.167	0.030
-225.698	800.000	0.156	-0.488
-224.684	-116.278	0.124	0.023
-223.669	-200.000	0.015	-0.074
-222.655	-7.223	-0.171	-0.114
-221.640	-200.000	0.027	0.224
-220.625	80.397	0.148	-0.157
-219.611	333.172	0.105	-0.201
-218.596	-47.209	0.474	0.228
-217.582	-200.000	0.009	0.174
-216.567	364.130	0.208	0.412
-215.552	-200.000	0.016	-0.213
-214.538	66.025	0.230	0.231
-213.523	-90.838	-0.386	0.110
-212.509	800.000	0.018	-0.054
-211.494	-110.860	0.220	-0.045
-210.479	252.573	-0.108	0.182
-209.465	-3.075	-0.212	-0.146
-208.450	209.095	-0.159	0.246
-207.436	-200.000	0.037	0.464
-206.421	386.754	-0.158	-0.321
-205.406	165.529	-0.144	0.201
-204.392	-63.551	0.161	-0.065
-203.377	95.470	0.080	0.090
-202.363	-96.652	0.322	-0.084
-201.348	184.457	-0.129	0.188
-200.333	272.286	-0.051	-0.089
-199.319	-29.709	-0.423	0.238
-198.304	800.000	-0.046	0.126
-197.290	-103.102	0.265	-0.062
-196.275	24.239	-0.147	0.120
-195.260	800.000	-0.069	0.233
-194.246	-200.000	0.049	-0.425
-193.231	-51.956	-0.191	0.087
-192.217	114.281	-0.248	0.298
-191.202	-10.378	-0.372	0.243
-190.187	-39.529	0.399	-0.206
-189.173	-200.000	-0.003	-0.105
-188.158	145.661	-0.113	-0.150
-187.144	-66.805	0.076	0.030
-186.129	800.000	-0.048	-0.184
-185.114	149.925	0.059	-0.079
-184.100	55.612	0.338	0.322
-183.085	173.016	-0.059	0.084
-182.071	-123.317	-0.374	0.059
-181.056	-200.000	0.006	0.259
-180.042	-122.189	0.211	0.034
-179.027	-200.000	0.192	0.001
-178.012	120.064	-0.077	0.094
-176.998	-200.000	0.053	-0.298
-175.983	20.300	-0.232	0.185
-174.969	-118.417	0.318	0.056
-173.954	-166.268	0.091	-0.004
-172.939	243.949	-0.048	-0.079
-171.925	-64.296	-0.182	-0.073
-170.910	310.587	0.140	-0.258
-169.896	434.239	0.021	0.044
-168.881	-200.000	-0.019	0.121
-167.866	184.467	0.037	0.054
-166.852	4.582	0.185	0.133
-165.837	252.712	-0.064	0.107
-164.823	435.581	0.043	-0.093
-163.808	1.122	-0.225	0.159
-162.793	130.690	0.113	0.143
-161.779	150.594	0.166	0.223
-160.764	56.471	0.196	-0.188
-159.750	244.277	0.145	-0.241
-158.735	12.761	0.125	-0.095
-157.720	-200.000	-0.035	0.364
-156.706	800.000	0.070	-0.194
-155.691	-50.052	0.451	0.211
-154.677	187.649	0.195	-0.287
-153.662	-192.405	0.232	-0.002
-152.647	124.139	0.266	-0.329
-151.633	799.384	-0.149	-0.403
-150.618	-12.525	-0.373	0.240
-149.604	-118.569	0.208	-0.036
-148.589	229.394	-0.103	-0.165
-147.574	707.852	-0.087	-0.227
-146.560	-63.347	0.454	-0.184
-145.545	-200.000	0.012	-0.171
-144.531	-99.045	0.114	0.029
-143.516	-69.736	-0.175	-0.066
-142.502	-50.152	-0.072	0.034
-141.487	-90.134	0.138	0.039
-140.472	186.888	-0.082	0.121
-139.458	-120.568	-0.106	0.018
-138.443	-200.000	0.035	-0.201
-137.429	-81.497	0.335	-0.108
-136.414	-153.100	-0.211	0.015
-135.399	392.015	-0.178	-0.365
-134.385	302.709	-0.117	-0.214
-133.370	-41.548	0.013	0.006
-132.356	-121.169	0.130	-0.021
-131.341	-47.238	-0.244	0.117
-130.326	-200.000	-0.014	0.092
-129.312	-136.676	0.322	-0.037
-128.297	800.000	-0.054	0.212
-127.283	-70.100	0.257	-0.096
-126.268	40.669	-0.146	0.129
-125.253	153.849	0.076	-0.102
-124.239	-37.491	0.310	-0.162
-123.224	340.363	-0.204	0.392
-122.210	-80.611	-0.442	0.145
-121.195	-200.000	-0.020	0.403
