DTS Sentinel unit serial number:	SN413079Multiplexer serial number:	ORYXHardware model number:	OX4-SRSoftware version number:	ORYX F/W v4.00 Oryx Data Collector v3.7.2.0data status	okinstallation	princeton_trtdifferential loss correction	single-endedforward channel	channel 1reverse channel	N/Adate	2019/09/13time	04:42:35forward acquisition time	60.00reverse acquisition time	0.00gamma	496.2192k internal	0.2335k external	0.2335temperature offset calibration	1.0155default loss term (dB/km)	0.3790temperature slope calibration	1.0000multiplexer offset coefficient	1.0000multiplexer slope coefficient	1.0000fibre end	0.00T internal ref (°C)	26.62T ext. ref 1 (°C)	4.05T ext. ref 2 (°C)	21.22length (m)	temperature (°C)	Stokes	anti-Stokes-747.200	-129.531	0.357	-0.050
-746.185	800.000	-0.068	0.281
-745.171	50.722	-0.099	0.094
-744.156	96.502	-0.271	-0.311
-743.142	-111.335	0.108	-0.022
-742.127	800.000	0.154	0.565
-741.112	28.651	0.316	0.269
-740.098	597.179	-0.232	0.578
-739.083	305.664	-0.079	-0.147
-738.069	654.833	-0.063	0.162
-737.054	41.434	-0.122	-0.111
-736.039	414.325	-0.132	-0.283
-735.025	338.998	0.198	0.387
-734.010	46.725	-0.231	-0.216
-732.996	800.000	-0.041	0.171
-731.981	-94.147	0.165	0.045
-730.966	127.411	-0.052	-0.066
-729.952	-120.537	-0.352	0.060
-728.937	77.085	0.072	0.077
-727.923	277.602	-0.095	-0.170
-726.908	-200.000	-0.013	-0.275
-725.894	-50.140	-0.130	0.062
-724.879	249.961	0.131	0.223
-723.864	284.430	0.123	0.223
-722.850	401.996	0.099	0.210
-721.835	-200.000	-0.014	-0.170
-720.821	-200.000	-0.006	0.314
-719.806	100.408	-0.214	-0.250
-718.791	87.743	-0.111	0.123
-717.777	82.112	-0.161	0.175
-716.762	794.309	-0.024	-0.067
-715.748	210.644	-0.045	0.071
-714.733	73.954	0.145	-0.153
-713.718	668.938	0.117	-0.303
-712.704	681.686	-0.047	0.122
-711.689	559.939	-0.202	-0.490
-710.675	0.358	-0.162	-0.116
-709.660	-39.152	0.082	-0.043
-708.645	106.582	0.119	-0.142
-707.631	-200.000	-0.034	-0.302
-706.616	-200.000	0.003	0.098
-705.602	-139.990	-0.579	-0.061
-704.587	-69.753	-0.174	0.067
-703.572	409.560	0.085	0.180
-702.558	800.000	0.029	-0.115
-701.543	201.490	0.061	0.094
-700.529	-19.217	0.199	-0.124
-699.514	-3.090	-0.297	-0.208
-698.499	-200.000	0.018	0.158
-697.485	197.112	0.276	0.422
-696.470	-46.758	-0.143	0.070
-695.456	151.429	-0.112	0.153
-694.441	296.054	-0.175	-0.321
-693.426	-200.000	-0.042	-0.202
-692.412	204.003	-0.115	-0.179
-691.397	-200.000	-0.030	-0.180
-690.383	393.727	0.077	-0.160
-689.368	112.859	0.133	-0.162
-688.354	-14.988	-0.398	0.256
-687.339	-62.709	-0.083	-0.035
-686.324	9.610	0.274	0.208
-685.310	296.385	0.211	-0.388
-684.295	-46.130	-0.311	-0.154
-683.281	-200.000	-0.024	-0.163
-682.266	-0.949	-0.376	-0.267
-681.251	-106.015	0.121	-0.027
-680.237	0.841	-0.421	0.302
-679.222	240.528	0.120	0.201
-678.208	-200.000	-0.014	-0.144
-677.193	-83.242	0.110	-0.035
-676.178	5.082	-0.238	0.176
-675.164	-200.000	-0.066	-0.428
-674.149	800.000	-0.074	-0.318
-673.135	44.470	-0.096	0.089
-672.120	-77.871	-0.143	-0.050
-671.105	-200.000	-0.096	-0.466
-670.091	225.887	0.246	0.400
-669.076	265.678	-0.093	0.163
-668.062	-151.885	0.257	0.019
-667.047	216.428	0.118	-0.187
-666.032	82.255	-0.090	0.098
-665.018	373.335	-0.065	0.133
-664.003	7.949	0.089	-0.067
-662.989	-39.136	-0.504	-0.265
-661.974	800.000	-0.093	-0.263
-660.959	100.689	0.126	-0.146
-659.945	140.839	-0.178	-0.236
-658.930	-104.436	-0.154	-0.036
-657.916	-200.000	0.043	0.382
-656.901	-200.000	-0.007	-0.063
-655.886	-200.000	-0.039	-0.230
-654.872	446.460	-0.211	0.464
-653.857	-33.088	0.286	0.159
-652.843	84.672	-0.143	-0.157
-651.828	474.191	0.024	0.055
-650.814	-163.600	0.256	0.012
-649.799	116.807	0.240	-0.295
-648.784	63.297	-0.064	-0.064
-647.770	-153.817	-0.472	-0.032
-646.755	349.680	-0.166	-0.328
-645.741	-119.035	0.093	-0.016
-644.726	88.468	0.208	0.231
-643.711	202.501	0.168	0.260
-642.697	89.441	-0.177	-0.198
-641.682	-11.853	-0.263	-0.173
-640.668	216.910	0.158	0.252
-639.653	-105.522	-0.042	-0.009
-638.638	-41.556	-0.272	-0.140
-637.624	800.000	-0.032	0.116
-636.609	-200.000	-0.062	-0.280
-635.595	26.686	-0.152	0.128
-634.580	-87.394	-0.131	0.040
-633.565	-200.000	-0.090	0.484
-632.551	-200.000	0.043	0.261
-631.536	270.816	0.143	0.252
-630.522	-153.536	0.243	0.017
-629.507	-200.000	-0.008	0.331
-628.492	66.054	0.204	0.207
-627.478	606.165	0.051	-0.128
-626.463	-172.001	-0.098	0.003
-625.449	-122.546	0.016	-0.003
-624.434	129.463	-0.085	-0.108
-623.419	716.937	0.042	0.111
-622.405	2.823	0.453	-0.329
-621.390	-130.036	-0.186	-0.025
-620.376	-200.000	-0.012	0.203
-619.361	162.248	0.146	-0.204
-618.346	-38.542	-0.057	0.030
-617.332	269.760	0.140	-0.246
-616.317	45.509	0.049	-0.045
-615.303	-75.051	-0.136	-0.049
-614.288	-125.184	-0.281	0.043
-613.273	-200.000	0.015	-0.126
-612.259	-47.202	0.082	0.040
-611.244	-123.887	-0.272	0.043
-610.230	18.884	0.172	0.138
-609.215	-170.470	0.175	0.006
-608.201	-122.779	-0.094	0.015
-607.186	-200.000	0.010	-0.346
-606.171	-70.609	-0.242	-0.091
-605.157	-200.000	-0.051	0.349
-604.142	32.993	-0.209	0.181
-603.128	7.685	0.142	-0.106
-602.113	13.940	0.320	-0.249
-601.098	-90.977	-0.055	0.016
-600.084	214.098	-0.163	0.257
-599.069	12.978	0.164	0.127
-598.055	363.152	0.121	-0.242
-597.040	-23.853	0.418	0.250
-596.025	104.132	-0.152	-0.178
-595.011	-128.877	0.128	-0.018
-593.996	-157.064	0.359	0.022
-592.982	-105.999	0.201	-0.045
-591.967	-95.925	-0.247	0.066
-590.952	40.493	-0.116	0.104
-589.938	137.875	-0.110	-0.145
-588.923	-200.000	-0.013	0.093
-587.909	8.025	-0.212	0.159
-586.894	-42.533	-0.104	-0.053
-585.879	-9.133	-0.119	0.079
-584.865	324.606	0.197	0.376
-583.850	11.489	-0.298	-0.228
-582.836	139.709	-0.146	-0.192
-581.821	800.000	0.069	-0.286
-580.806	2.497	0.103	0.075
-579.792	548.348	-0.111	-0.266
-578.777	155.647	-0.105	-0.144
-577.763	-12.841	-0.326	0.212
-576.748	536.289	-0.202	0.479
-575.733	308.912	0.018	0.034
-574.719	283.012	-0.173	-0.310
-573.704	541.888	-0.071	0.170
-572.690	-155.873	0.280	0.018
-571.675	-129.196	-0.287	0.040
-570.661	-132.217	-0.044	-0.006
-569.646	-200.000	0.019	-0.248
-568.631	-200.000	-0.008	0.038
-567.617	800.000	0.109	0.334
-566.602	800.000	0.040	-0.162
-565.588	67.225	-0.156	0.159
-564.573	800.000	-0.097	0.275
-563.558	-77.445	0.116	0.040
-562.544	273.890	0.117	0.206
-561.529	-177.456	0.143	-0.004
-560.515	-49.991	0.029	-0.014
-559.500	-27.187	-0.105	-0.061
-558.485	-103.534	-0.462	-0.108
-557.471	74.755	0.118	-0.124
-556.456	-200.000	-0.040	0.199
-555.442	144.451	-0.030	0.040
-554.427	97.988	-0.110	-0.126
-553.412	800.000	-0.022	0.067
-552.398	193.117	-0.081	-0.122
-551.383	-7.265	0.276	-0.187
-550.369	-200.000	-0.018	-0.164
-549.354	144.726	0.101	0.134
-548.339	800.000	-0.149	-0.495
-547.325	-200.000	0.002	-0.054
-546.310	-200.000	0.051	-0.287
-545.296	-27.909	0.119	-0.069
-544.281	299.234	-0.132	0.242
-543.266	72.461	-0.232	0.241
-542.252	198.169	-0.139	-0.211
-541.237	-36.712	-0.284	-0.152
-540.223	-121.204	-0.421	0.070
-539.208	-173.589	-0.305	0.009
-538.193	-200.000	0.083	-0.369
-537.179	-200.000	0.007	-0.059
-536.164	-46.742	0.402	-0.196
-535.150	-67.240	0.130	0.051
-534.135	50.062	-0.176	0.166
-533.121	44.405	-0.036	0.033
-532.106	89.217	0.219	-0.243
-531.091	1.877	-0.131	-0.094
-530.077	-27.217	-0.199	0.115
-529.062	-26.752	0.070	-0.041
-528.048	44.808	-0.015	-0.014
-527.033	-200.000	-0.067	0.382
-526.018	6.857	0.268	-0.199
-525.004	-200.000	0.043	-0.194
-523.989	-32.614	-0.116	-0.064
-522.975	176.873	0.115	-0.166
-521.960	-111.555	-0.286	0.058
-520.945	-12.951	0.233	-0.151
-519.931	-126.363	0.159	-0.024
-518.916	278.156	0.183	0.325
-517.902	34.176	-0.378	0.328
-516.887	193.323	-0.146	-0.220
-515.872	800.000	-0.036	-0.144
-514.858	-178.697	0.381	-0.009
-513.843	241.546	-0.137	-0.228
-512.829	138.777	-0.164	0.215
-511.814	-94.516	-0.330	0.089
-510.799	60.457	0.212	-0.209
-509.785	-200.000	0.022	0.101
-508.770	-200.000	0.041	-0.229
-507.756	-52.761	-0.188	0.086
-506.741	-36.346	0.158	0.085
-505.726	-142.301	-0.364	-0.036
-504.712	-107.712	0.014	0.003
-503.697	800.000	-0.097	0.293
-502.683	800.000	-0.075	0.309
-501.668	44.410	0.432	0.395
-500.653	-200.000	0.057	0.271
-499.639	440.540	-0.025	-0.055
-498.624	46.075	-0.088	-0.081
-497.610	638.268	0.085	0.215
-496.595	47.059	0.121	-0.112
-495.581	-36.497	-0.190	-0.102
-494.566	-5.669	0.175	0.120
-493.551	-101.473	-0.075	-0.018
-492.537	-78.874	0.327	0.111
-491.522	92.639	0.162	-0.181
-490.508	-200.000	-0.057	-0.285
-489.493	274.083	-0.057	-0.101
-488.478	-200.000	-0.029	-0.131
-487.464	124.297	-0.135	0.169
-486.449	-93.725	0.091	0.025
-485.435	800.000	0.081	-0.237
-484.420	-158.920	-0.180	0.010
-483.405	-200.000	0.054	0.250
-482.391	-94.483	-0.232	0.063
-481.376	-200.000	-0.006	0.231
-480.362	70.823	-0.182	0.187
-479.347	-101.548	0.097	-0.023
-478.332	126.060	0.115	0.144
-477.318	579.967	0.029	0.070
-476.303	41.945	-0.057	0.051
-475.289	82.649	0.177	0.192
-474.274	-75.306	-0.318	0.113
-473.259	97.321	0.069	0.079
-472.245	386.296	0.044	0.090
-471.230	33.620	0.046	-0.040
-470.216	-89.776	-0.177	0.052
-469.201	636.968	0.069	0.173
-468.186	155.454	-0.283	-0.387
-467.172	201.329	-0.071	-0.109
-466.157	-73.374	0.132	-0.048
-465.143	92.528	-0.189	0.212
-464.128	-110.673	-0.276	0.057
-463.113	-57.320	0.247	-0.108
-462.099	74.597	-0.280	0.293
-461.084	-164.782	0.428	-0.019
-460.070	156.030	0.151	-0.206
-459.055	-200.000	-0.029	0.209
-458.040	125.651	-0.067	-0.085
-457.026	47.834	0.315	-0.293
-456.011	-94.544	0.433	-0.117
-454.997	561.992	0.038	-0.092
-453.982	94.023	0.155	-0.175
-452.968	370.729	-0.062	0.125
-451.953	800.000	0.091	0.274
-450.938	-65.337	-0.185	0.074
-449.924	32.915	-0.095	0.082
-448.909	165.319	-0.127	-0.178
-447.895	-200.000	-0.013	-0.135
-446.880	-86.498	0.173	-0.053
-445.865	360.185	0.116	0.230
-444.851	-143.289	-0.279	0.027
-443.836	-52.653	0.038	0.017
-442.822	101.948	-0.177	-0.205
-441.807	-18.208	0.267	-0.166
-440.792	-50.810	0.118	0.055
-439.778	89.595	-0.126	0.139
-438.763	-101.032	-0.127	0.031
-437.749	-13.019	0.273	0.177
-436.734	197.314	0.092	-0.140
-435.719	-84.017	-0.244	0.077
-434.705	540.276	0.045	-0.105
-433.690	-200.000	-0.055	0.342
-432.676	800.000	0.057	-0.159
-431.661	-46.247	-0.077	0.038
-430.646	-103.177	-0.159	-0.037
-429.632	-110.369	-0.128	0.026
-428.617	62.503	0.218	-0.216
-427.603	-80.809	-0.069	-0.023
-426.588	-123.262	-0.480	-0.076
-425.573	-200.000	0.059	0.557
-424.559	54.008	0.295	0.282
-423.544	-200.000	0.036	0.211
-422.530	-68.198	-0.236	0.091
-421.515	-143.036	0.168	-0.016
-420.500	-98.248	-0.311	0.079
-419.486	-103.681	0.124	0.029
-418.471	66.324	-0.219	0.221
-417.457	-200.000	-0.014	0.067
-416.442	228.942	0.240	0.388
-415.428	177.892	-0.049	0.071
-414.413	81.284	-0.212	-0.227
-413.398	90.465	-0.013	0.014
-412.384	-79.401	-0.228	-0.077
-411.369	117.457	0.052	-0.064
-410.355	-200.000	0.031	0.154
-409.340	-112.470	-0.140	-0.028
-408.325	309.389	0.140	0.259
-407.311	-200.000	-0.018	0.307
-406.296	800.000	-0.042	-0.138
-405.282	564.269	0.049	0.117
-404.267	-68.128	0.242	0.094
-403.252	-200.000	-0.002	-0.325
-402.238	58.101	-0.086	-0.083
-401.223	164.144	0.120	-0.167
-400.209	56.940	-0.221	0.214
-399.194	24.082	0.197	-0.161
-398.179	85.654	-0.115	-0.125
-397.165	-73.457	-0.258	0.093
-396.150	-169.895	0.192	-0.007
-395.136	-26.138	-0.303	0.176
-394.121	19.285	0.277	-0.221
-393.106	30.202	0.251	0.212
-392.092	340.235	0.069	0.133
-391.077	314.931	0.122	-0.229
-390.063	-200.000	-0.007	-0.258
-389.048	-200.000	0.003	0.173
-388.033	128.759	-0.167	0.211
-387.019	-200.000	0.043	0.190
-386.004	-200.000	0.027	0.260
-384.990	800.000	0.058	-0.178
-383.975	-55.189	0.228	0.102
-382.960	-52.984	-0.080	-0.037
-381.946	-110.491	-0.173	0.035
-380.931	-80.392	0.313	-0.103
-379.917	-200.000	-0.006	0.435
-378.902	-41.931	-0.146	0.074
-377.888	13.296	-0.066	0.051
-376.873	800.000	-0.074	-0.290
-375.858	-200.000	0.016	0.260
-374.844	-51.419	-0.242	-0.112
-373.829	800.000	0.066	-0.204
-372.815	-103.647	0.188	-0.044
-371.800	86.034	-0.131	0.143
-370.785	96.612	0.286	0.324
-369.771	19.582	-0.210	0.168
-368.756	451.342	-0.165	0.360
-367.742	800.000	0.052	0.174
-366.727	-145.938	0.275	0.024
-365.712	800.000	0.031	-0.100
-364.698	-14.052	0.167	-0.107
-363.683	-112.477	-0.125	-0.025
-362.669	800.000	0.105	-0.300
-361.654	-200.000	-0.041	-0.290
-360.639	-14.837	-0.196	-0.124
-359.625	-78.365	-0.099	-0.034
-358.610	55.469	-0.072	-0.069
-357.596	44.801	0.144	-0.131
-356.581	-127.535	-0.395	0.057
-355.566	274.413	0.111	-0.194
-354.552	-26.161	0.249	-0.145
-353.537	224.321	0.165	0.263
-352.523	-200.000	-0.013	0.068
-351.508	286.035	0.074	0.133
-350.493	9.212	-0.365	0.273
-349.479	65.206	-0.350	0.351
-348.464	-138.569	0.192	-0.021
-347.450	213.600	-0.210	0.329
-346.435	27.949	-0.137	0.115
-345.420	106.364	-0.056	0.066
-344.406	125.827	0.042	-0.052
-343.391	-102.355	0.224	0.053
-342.377	5.244	0.490	0.357
-341.362	231.230	0.032	0.052
-340.348	800.000	0.073	0.241
-339.333	38.879	0.085	0.075
-338.318	349.566	-0.024	-0.046
-337.304	257.220	0.077	0.131
-336.289	-200.000	-0.026	0.144
-335.275	-57.592	-0.122	0.053
-334.260	87.256	-0.112	-0.123
-333.245	-1.011	-0.500	-0.350
-332.231	800.000	-0.116	-0.345
-331.216	-151.852	0.219	-0.016
-330.202	-200.000	0.031	0.215
-329.187	-200.000	-0.095	-0.423
-328.172	307.459	-0.089	0.165
-327.158	-82.615	0.131	-0.042
-326.143	800.000	0.049	-0.145
-325.129	102.610	0.183	0.212
-324.114	-19.497	-0.237	0.145
-323.099	558.972	-0.073	0.174
-322.085	403.484	-0.025	-0.052
-321.070	-200.000	-0.006	-0.682
-320.056	-118.095	-0.117	-0.021
-319.041	-200.000	-0.037	0.243
-318.026	-200.000	0.003	-0.086
-317.012	2.414	-0.192	-0.137
-315.997	800.000	0.045	0.163
-314.983	-7.994	-0.142	0.094
-313.968	800.000	0.066	-0.217
-312.953	26.194	-0.174	0.144
-311.939	-78.306	0.076	-0.026
-310.924	261.975	-0.133	-0.227
-309.910	53.629	-0.290	-0.275
-308.895	-165.894	0.277	0.012
-307.880	-123.718	0.306	0.048
-306.866	58.104	0.098	-0.095
-305.851	-23.699	-0.250	-0.148
-304.837	72.751	0.166	0.171
-303.822	-69.368	0.187	-0.071
-302.807	-200.000	-0.028	0.127
-301.793	800.000	-0.083	0.330
-300.778	-99.072	-0.142	0.036
-299.764	46.678	-0.160	0.147
-298.749	-80.161	0.200	-0.066
-297.735	-94.837	0.388	-0.104
-296.720	-70.116	-0.230	-0.086
-295.705	260.912	-0.150	-0.257
-294.691	-120.951	-0.239	0.040
-293.676	275.143	-0.264	-0.462
-292.662	800.000	0.023	-0.087
-291.647	295.088	0.030	-0.054
-290.632	104.798	-0.172	-0.200
-289.618	490.326	0.056	0.127
-288.603	-105.941	0.176	-0.039
-287.589	-89.717	-0.160	0.046
-286.574	-62.591	0.139	0.057
-285.559	-56.195	0.191	-0.084
-284.545	380.110	-0.024	-0.049
-283.530	24.600	-0.143	-0.117
-282.516	0.849	0.120	0.085
-281.501	800.000	-0.018	-0.063
-280.486	7.396	-0.166	0.122
-279.472	800.000	-0.068	0.288
-278.457	273.378	-0.165	0.288
-277.443	251.306	-0.100	-0.168
-276.428	800.000	0.144	-0.397
-275.413	800.000	-0.038	-0.150
-274.399	203.792	0.093	0.141
-273.384	1.450	0.314	0.223
-272.370	-116.735	0.344	0.062
-271.355	-91.867	0.176	-0.049
-270.340	384.217	-0.093	-0.189
-269.326	429.821	-0.183	-0.391
-268.311	800.000	-0.042	0.123
-267.297	-15.293	-0.199	-0.125
-266.282	-52.385	0.381	0.174
-265.267	-155.449	-0.085	0.005
-264.253	-75.271	-0.115	-0.041
-263.238	-175.565	-0.270	-0.007
-262.224	-107.429	0.220	0.048
-261.209	-139.680	0.087	-0.009
-260.195	-17.940	0.274	0.169
-259.180	-200.000	-0.026	-0.155
-258.165	1.995	-0.059	0.042
-257.151	-106.718	-0.036	-0.008
-256.136	-85.069	-0.251	-0.077
-255.122	-65.085	0.280	-0.111
-254.107	-106.649	0.201	0.044
-253.092	198.503	0.112	-0.169
-252.078	-135.828	-0.268	-0.031
-251.063	-100.527	-0.513	-0.125
-250.049	5.626	-0.464	-0.338
-249.034	-51.865	-0.115	0.053
-248.019	-200.000	-0.014	-0.111
-247.005	-52.988	0.259	-0.117
-245.990	-168.017	-0.062	0.002
-244.976	-34.300	0.203	-0.110
-243.961	54.977	-0.072	-0.069
-242.946	106.785	-0.136	-0.159
-241.932	52.723	0.344	-0.324
-240.917	-2.941	0.173	-0.119
-239.903	180.126	0.215	0.311
-238.888	-83.961	0.226	-0.071
-237.873	-200.000	-0.001	0.190
-236.859	-9.094	-0.224	-0.148
-235.844	-90.166	0.226	-0.065
-234.830	-144.946	0.106	0.010
-233.815	800.000	-0.035	-0.120
-232.800	800.000	0.050	-0.215
-231.786	88.575	-0.057	0.063
-230.771	72.206	-0.112	0.115
-229.757	-80.000	0.537	0.177
-228.742	409.070	-0.034	0.071
-227.727	171.104	0.052	-0.073
-226.713	263.344	-0.097	0.167
-225.698	-200.000	-0.028	-0.163
-224.684	-200.000	0.000	0.124
-223.669	-113.636	0.368	0.071
-222.655	-36.654	-0.239	-0.127
-221.640	-24.540	0.060	0.035
-220.625	-200.000	0.003	-0.086
-219.611	800.000	0.048	-0.170
-218.596	27.654	0.096	0.079
-217.582	-200.000	-0.037	-0.260
-216.567	-200.000	-0.003	-0.304
-215.552	37.864	0.339	-0.297
-214.538	-166.636	0.383	0.016
-213.523	18.344	0.204	-0.160
-212.509	-166.323	0.235	-0.010
-211.494	-108.333	0.093	0.020
-210.479	-1.131	0.143	-0.100
-209.465	-200.000	0.048	-0.421
-208.450	-146.322	-0.213	-0.018
-207.436	0.598	-0.091	0.064
-206.421	87.462	-0.201	-0.219
-205.406	106.551	0.207	-0.242
-204.392	-200.000	0.020	0.322
-203.377	-80.399	-0.187	0.061
-202.363	-132.668	0.375	-0.047
-201.348	-200.000	-0.026	-0.132
-200.333	-200.000	0.028	0.220
-199.319	-92.014	0.007	0.002
-198.304	-200.000	-0.047	0.267
-197.290	13.951	0.084	-0.065
-196.275	-120.214	0.085	-0.014
-195.260	-200.000	-0.031	-0.191
-194.246	-200.000	0.009	0.315
-193.231	360.658	0.052	0.103
-192.217	22.814	-0.129	-0.104
-191.202	13.214	-0.332	-0.253
-190.187	-95.344	-0.181	-0.048
-189.173	-200.000	-0.085	-0.383
-188.158	191.088	0.025	0.037
-187.144	190.607	0.074	-0.109
-186.129	-179.545	-0.245	0.005
-185.114	45.041	0.394	-0.357
-184.100	-200.000	-0.028	0.192
-183.085	385.234	0.034	-0.068
-182.071	800.000	-0.034	0.130
-181.056	451.948	0.160	0.348
-180.042	-109.707	0.109	0.023
-179.027	-134.891	-0.056	0.007
-178.012	-121.355	-0.170	-0.028
-176.998	-200.000	-0.027	-0.184
-175.983	129.111	0.090	0.113
-174.969	527.697	-0.043	0.099
-173.954	-74.424	0.087	0.031
-172.939	-39.828	0.311	0.160
-171.925	34.689	0.201	-0.173
-170.910	-150.508	-0.247	0.019
-169.896	-101.684	0.213	0.051
-168.881	-200.000	-0.013	0.194
-167.866	52.158	0.115	-0.108
-166.852	-101.038	-0.030	0.007
-165.837	28.388	0.074	0.061
-164.823	-124.760	0.284	-0.043
-163.808	-200.000	-0.016	-0.140
-162.793	11.790	-0.185	-0.139
-161.779	-200.000	0.003	-0.068
-160.764	-200.000	0.002	0.488
-159.750	-200.000	-0.041	0.265
-158.735	64.294	0.218	0.215
-157.720	98.690	0.275	0.312
-156.706	218.735	0.126	-0.197
-155.691	1.896	0.087	-0.061
-154.677	47.745	-0.060	0.055
-153.662	-200.000	0.042	-0.259
-152.647	-200.000	-0.013	-0.385
-151.633	560.475	0.110	-0.261
-150.618	800.000	0.122	-0.365
-149.604	739.128	0.078	0.205
-148.589	-200.000	-0.008	0.150
-147.574	-164.712	-0.357	-0.016
-146.560	-148.860	-0.312	-0.025
-145.545	-32.056	0.227	-0.125
-144.531	-200.000	-0.029	0.213
-143.516	-11.822	-0.214	-0.138
-142.502	800.000	0.072	-0.264
-141.487	-131.916	-0.252	0.032
-140.472	84.690	0.266	0.286
-139.458	230.639	0.148	0.238
-138.443	-200.000	-0.010	-0.137
-137.429	-19.557	-0.148	-0.090
-136.414	-9.788	-0.079	-0.051
-135.399	-164.748	0.069	0.003
-134.385	279.297	0.139	0.244
-133.370	62.370	0.024	-0.024
-132.356	60.553	0.117	0.114
-131.341	37.000	0.287	0.249
-130.326	375.064	0.130	-0.260
-129.312	407.965	-0.087	-0.180
-128.297	163.526	0.085	0.117
-127.283	-200.000	-0.026	-0.279
-126.268	172.392	-0.083	-0.117
-125.253	-70.642	-0.251	-0.093
-124.239	-62.828	-0.366	0.149
-123.224	-120.223	0.200	0.033
-122.210	-200.000	0.028	0.126
-121.195	-101.619	-0.261	-0.062
