DTS Sentinel unit serial number:	SN413079Multiplexer serial number:	ORYXHardware model number:	OX4-SRSoftware version number:	ORYX F/W v4.00 Oryx Data Collector v3.7.2.0data status	okinstallation	princeton_trtdifferential loss correction	single-endedforward channel	channel 1reverse channel	N/Adate	2019/09/12time	18:22:34forward acquisition time	15.00reverse acquisition time	0.00gamma	496.2192k internal	0.2318k external	0.2318temperature offset calibration	1.0099default loss term (dB/km)	0.3790temperature slope calibration	1.0000multiplexer offset coefficient	1.0000multiplexer slope coefficient	1.0000fibre end	0.00T internal ref (°C)	33.37T ext. ref 1 (°C)	2.96T ext. ref 2 (°C)	28.02length (m)	temperature (°C)	Stokes	anti-Stokes-747.200	800.000	-0.112	-0.432
-746.185	800.000	-0.122	-0.506
-745.171	-67.258	-0.374	-0.149
-744.156	-141.254	0.793	-0.082
-743.142	800.000	0.053	-0.191
-742.127	536.676	0.130	-0.312
-741.112	197.636	-0.193	0.299
-740.098	-200.000	-0.006	-0.461
-739.083	373.849	0.216	-0.444
-738.069	-200.000	-0.143	-0.658
-737.054	-200.000	0.134	-0.647
-736.039	-200.000	-0.105	0.502
-735.025	800.000	-0.175	-0.510
-734.010	28.187	0.460	0.393
-732.996	-200.000	-0.070	0.394
-731.981	15.907	0.756	-0.602
-730.966	800.000	-0.254	-0.866
-729.952	-200.000	-0.032	-0.423
-728.937	237.549	0.126	0.211
-727.923	68.397	-0.305	0.316
-726.908	515.209	-0.024	-0.058
-725.894	45.616	0.475	0.444
-724.879	-200.000	0.141	-0.676
-723.864	-95.528	-0.336	0.091
-722.850	83.079	0.207	-0.228
-721.835	11.319	0.315	0.244
-720.821	-15.699	-0.019	-0.012
-719.806	800.000	-0.084	0.314
-718.791	38.468	-0.388	0.349
-717.777	-5.139	0.287	0.200
-716.762	800.000	-0.053	-0.151
-715.748	-200.000	0.123	0.594
-714.733	-82.312	0.220	-0.072
-713.718	-160.837	0.378	-0.020
-712.704	431.075	-0.351	-0.769
-711.689	43.623	0.395	-0.365
-710.675	199.812	-0.618	-0.959
-709.660	-200.000	0.049	-0.452
-708.645	800.000	-0.163	0.558
-707.631	-200.000	0.012	0.507
-706.616	106.682	0.530	-0.635
-705.602	-116.482	-1.004	0.187
-704.587	-200.000	0.088	0.524
-703.572	-200.000	-0.014	-0.182
-702.558	-57.743	-0.428	0.189
-701.543	-184.751	0.461	-0.007
-700.529	661.381	0.053	-0.138
-699.514	71.371	-0.408	-0.428
-698.499	705.258	-0.096	0.257
-697.485	-200.000	-0.127	-0.684
-696.470	-95.304	1.069	0.291
-695.456	-79.034	-1.277	-0.439
-694.441	-152.805	-0.767	0.055
-693.426	-200.000	0.072	0.354
-692.412	433.729	0.094	-0.207
-691.397	329.857	-0.346	0.672
-690.383	-200.000	0.019	0.317
-689.368	-200.000	0.117	1.275
-688.354	-200.000	0.071	0.648
-687.339	61.857	0.626	-0.630
-686.324	-19.626	-0.404	0.252
-685.310	608.688	0.238	0.601
-684.295	-36.684	0.345	0.187
-683.281	800.000	-0.056	0.245
-682.266	-141.324	-0.282	-0.029
-681.251	-84.481	-0.124	-0.039
-680.237	-200.000	0.052	0.798
-679.222	105.269	0.078	-0.092
-678.208	-66.515	-0.980	-0.393
-677.193	338.893	0.137	0.270
-676.178	-49.473	-0.531	0.256
-675.164	303.885	0.242	-0.452
-674.149	800.000	0.211	0.693
-673.135	-129.898	-0.535	-0.074
-672.120	-200.000	-0.081	-0.442
-671.105	-200.000	0.057	-0.372
-670.091	81.544	-0.340	0.371
-669.076	72.692	-0.114	0.120
-668.062	-96.461	0.539	-0.144
-667.047	241.818	-0.138	-0.234
-666.032	255.741	-0.228	0.394
-665.018	800.000	-0.221	-0.651
-664.003	-38.507	0.273	0.146
-662.989	58.505	-0.560	-0.554
-661.974	800.000	0.136	-0.421
-660.959	485.146	-0.152	-0.350
-659.945	51.877	0.122	-0.117
-658.930	800.000	-0.162	-0.708
-657.916	-92.561	-0.477	0.135
-656.901	-200.000	0.115	0.529
-655.886	-64.064	0.815	0.335
-654.872	20.130	0.554	-0.451
-653.857	-200.000	-0.121	-0.837
-652.843	800.000	-0.184	0.797
-651.828	800.000	0.110	0.461
-650.814	-141.457	-0.316	0.032
-649.799	-46.252	0.778	0.386
-648.784	-82.756	0.355	-0.116
-647.770	175.412	-0.363	0.531
-646.755	57.296	-0.671	-0.661
-645.741	-180.242	0.362	-0.008
-644.726	-19.027	-0.745	-0.467
-643.711	349.761	-0.313	0.624
-642.697	351.552	0.162	0.323
-641.682	72.204	0.861	0.904
-640.668	85.374	0.204	-0.226
-639.653	19.208	0.414	0.335
-638.638	-200.000	0.007	0.091
-637.624	-111.579	0.273	-0.056
-636.609	59.873	-0.213	-0.212
-635.595	-13.467	-0.105	0.068
-634.580	-74.145	-0.233	-0.085
-633.565	-200.000	-0.022	0.181
-632.551	-200.000	-0.004	0.182
-631.536	-77.038	0.414	0.146
-630.522	-200.000	-0.083	-0.391
-629.507	14.193	0.334	-0.263
-628.492	110.848	0.400	0.485
-627.478	-73.922	-0.352	0.129
-626.463	800.000	0.287	1.101
-625.449	-84.602	-0.462	0.147
-624.434	-156.231	0.584	-0.037
-623.419	725.306	0.145	-0.388
-622.405	-200.000	-0.004	-0.371
-621.390	8.954	0.537	0.408
-620.376	800.000	-0.164	-0.538
-619.361	-200.000	-0.017	0.986
-618.346	-200.000	-0.048	0.707
-617.332	121.134	0.613	0.768
-616.317	100.283	0.536	0.627
-615.303	-144.621	0.913	-0.085
-614.288	234.200	0.295	0.490
-613.273	-200.000	-0.043	0.791
-612.259	-185.559	-0.096	0.001
-611.244	-141.088	-0.553	-0.057
-610.230	162.293	-0.425	0.600
-609.215	464.902	-0.271	0.611
-608.201	800.000	0.082	-0.268
-607.186	-189.607	0.214	0.002
-606.171	35.646	0.456	-0.403
-605.157	-15.022	0.619	0.399
-604.142	-200.000	0.049	0.384
-603.128	119.905	0.388	0.484
-602.113	-42.971	0.315	0.161
-601.098	107.801	-0.401	-0.480
-600.084	1.284	0.339	0.245
-599.069	433.233	0.034	-0.075
-598.055	59.079	-0.249	0.246
-597.040	113.275	-0.260	-0.318
-596.025	-200.000	-0.050	-0.446
-595.011	-80.996	-0.412	0.137
-593.996	48.056	-0.254	-0.238
-592.982	800.000	-0.188	-0.825
-591.967	-51.751	0.848	0.397
-590.952	-151.023	0.604	0.046
-589.938	800.000	-0.267	1.081
-588.923	-150.473	1.025	0.079
-587.909	-173.990	0.237	-0.007
-586.894	39.327	-0.523	0.471
-585.879	-79.803	0.549	0.186
-584.865	127.462	-0.171	0.219
-583.850	64.813	-0.202	0.205
-582.836	85.389	-0.398	-0.440
-581.821	800.000	-0.194	-0.761
-580.806	283.553	0.275	0.497
-579.792	246.481	0.457	0.774
-578.777	-29.302	0.212	-0.122
-577.763	542.190	-0.275	-0.659
-576.748	-119.672	0.150	-0.026
-575.733	21.417	-0.385	0.314
-574.719	-200.000	0.073	-0.496
-573.704	-40.515	-0.983	0.513
-572.690	-42.730	0.220	0.112
-571.675	-69.391	-0.318	0.123
-570.661	88.079	-0.218	-0.243
-569.646	733.494	0.110	-0.297
-568.631	534.475	0.127	-0.303
-567.617	-113.140	0.328	0.065
-566.602	-200.000	0.015	0.397
-565.588	-126.516	0.031	-0.005
-564.573	746.635	-0.155	-0.420
-563.558	660.420	0.303	-0.784
-562.544	-137.062	0.904	0.104
-561.529	800.000	-0.213	0.732
-560.515	-200.000	0.003	0.485
-559.500	-119.877	0.178	0.031
-558.485	-185.820	-0.664	0.010
-557.471	-27.878	-0.306	-0.178
-556.456	-135.363	-0.443	0.053
-555.442	87.233	0.463	0.514
-554.427	193.853	-0.297	-0.452
-553.412	-23.128	-0.171	-0.103
-552.398	-133.171	1.038	-0.132
-551.383	-200.000	0.051	-0.728
-550.369	7.450	-0.563	-0.423
-549.354	-200.000	-0.040	-0.421
-548.339	-7.285	-0.810	-0.551
-547.325	800.000	0.227	0.689
-546.310	-69.467	-0.612	-0.235
-545.296	-200.000	-0.081	0.800
-544.281	-86.187	0.409	0.127
-543.266	-76.408	-0.409	0.145
-542.252	800.000	-0.172	-0.490
-541.237	-200.000	-0.034	0.267
-540.223	800.000	-0.034	-0.132
-539.208	212.946	0.122	-0.194
-538.193	-200.000	0.072	0.336
-537.179	-164.617	0.139	-0.006
-536.164	33.218	-0.146	-0.127
-535.150	-76.134	-0.634	0.225
-534.135	-70.037	-0.147	0.056
-533.121	16.529	-0.457	0.363
-532.106	-170.430	0.313	-0.011
-531.091	44.551	-0.145	-0.134
-530.077	800.000	0.144	-0.451
-529.062	2.451	-0.596	-0.433
-528.048	-105.412	-0.200	-0.046
-527.033	-90.277	0.307	0.090
-526.018	-5.520	-0.209	0.144
-525.004	784.307	-0.292	-0.803
-523.989	-200.000	-0.052	0.370
-522.975	12.784	-0.538	-0.417
-521.960	256.594	-0.203	-0.350
-520.945	429.172	-0.081	-0.176
-519.931	800.000	-0.075	-0.306
-518.916	-176.552	-0.146	-0.004
-517.902	-62.651	0.741	-0.308
-516.887	44.007	-0.241	-0.222
-515.872	33.318	0.106	0.093
-514.858	14.460	-0.023	-0.018
-513.843	-30.202	-0.174	0.099
-512.829	-55.093	-0.532	0.240
-511.814	-200.000	-0.112	-1.109
-510.799	-200.000	0.111	0.935
-509.785	47.333	-0.125	-0.117
-508.770	-1.862	-0.173	-0.122
-507.756	25.567	-0.466	0.389
-506.741	-94.898	-0.208	0.056
-505.726	-82.372	0.503	0.164
-504.712	83.393	0.577	0.631
-503.697	-99.628	0.522	-0.131
-502.683	172.828	-0.134	-0.194
-501.668	686.138	0.383	-1.003
-500.653	-100.812	-0.755	-0.186
-499.639	-178.653	0.923	-0.021
-498.624	201.357	-0.383	-0.591
-497.610	233.579	-0.461	-0.761
-496.595	-135.747	-0.680	0.081
-495.581	-140.537	0.549	-0.057
-494.566	-67.548	0.684	-0.269
-493.551	-67.060	-0.343	0.136
-492.537	-200.000	-0.007	-0.066
-491.522	800.000	0.423	-1.369
-490.508	-77.841	-0.602	0.208
-489.493	-35.864	0.614	0.333
-488.478	800.000	-0.178	0.646
-487.464	39.906	0.681	-0.613
-486.449	-17.090	-0.584	0.369
-485.435	-142.612	-0.407	0.040
-484.420	-200.000	0.063	0.709
-483.405	-94.785	0.704	0.191
-482.391	800.000	-0.083	-0.344
-481.376	57.493	0.449	0.439
-480.362	333.859	0.211	-0.408
-479.347	-113.647	0.507	-0.099
-478.332	-200.000	0.025	-0.391
-477.318	757.768	-0.094	-0.255
-476.303	20.310	0.339	0.275
-475.289	-200.000	-0.072	1.147
-474.274	70.023	0.534	0.552
-473.259	-104.556	-1.090	0.252
-472.245	194.635	-0.039	-0.060
-471.230	175.791	-0.580	-0.842
-470.216	674.983	0.165	-0.430
-469.201	-85.606	-0.224	-0.070
-468.186	-23.227	-0.419	0.252
-467.172	-88.720	0.332	-0.099
-466.157	-83.497	0.481	-0.154
-465.143	-200.000	-0.019	-0.418
-464.128	694.048	-0.091	-0.238
-463.113	-69.089	-0.379	0.146
-462.099	569.248	0.157	0.382
-461.084	172.002	-0.112	0.161
-460.070	91.708	0.389	-0.438
-459.055	-48.009	-0.230	-0.111
-458.040	-200.000	0.012	-0.155
-457.026	800.000	0.212	0.644
-456.011	-200.000	0.061	0.519
-454.997	800.000	0.264	0.838
-453.982	38.269	0.233	-0.208
-452.968	42.773	0.450	0.410
-451.953	16.774	0.641	-0.508
-450.938	8.868	-0.389	0.294
-449.924	51.536	0.427	-0.406
-448.909	32.778	0.350	0.303
-447.895	-118.999	0.916	0.161
-446.880	19.886	0.302	-0.244
-445.865	-37.218	-0.103	0.055
-444.851	-200.000	0.004	-0.628
-443.836	-44.756	-0.634	0.316
-442.822	27.070	0.189	0.159
-441.807	-69.212	0.512	-0.197
-440.792	800.000	-0.279	-1.077
-439.778	-127.273	0.682	0.100
-438.763	86.285	-0.615	0.678
-437.749	392.140	0.068	-0.142
-436.734	160.667	-0.142	0.198
-435.719	187.768	0.337	-0.504
-434.705	237.348	0.304	0.504
-433.690	174.489	0.175	-0.253
-432.676	184.977	-0.506	0.751
-431.661	-58.396	0.072	0.031
-430.646	-200.000	-0.082	0.613
-429.632	521.839	-0.114	-0.267
-428.617	-200.000	0.105	-0.497
-427.603	-36.167	-0.590	0.319
-426.588	12.564	-0.330	0.255
-425.573	99.628	-0.209	-0.242
-424.559	-118.257	-0.576	0.102
-423.544	-110.828	0.496	-0.102
-422.530	-183.425	-0.563	-0.010
-421.515	15.767	-0.419	0.329
-420.500	800.000	0.251	0.834
-419.486	-200.000	0.014	0.822
-418.471	-75.014	-0.369	-0.132
-417.457	161.987	0.198	-0.278
-416.442	-95.912	-0.382	0.102
-415.428	-13.062	0.350	0.227
-414.413	800.000	-0.193	-0.562
-413.398	-18.186	-0.553	-0.346
-412.384	437.379	0.306	-0.667
-411.369	-153.058	0.462	-0.032
-410.355	416.015	0.151	0.321
-409.340	-53.458	0.677	-0.310
-408.325	217.002	0.287	0.457
-407.311	-200.000	0.071	0.503
-406.296	-145.904	-0.653	-0.058
-405.282	134.696	0.479	0.622
-404.267	-12.089	0.105	-0.069
-403.252	-83.338	-0.707	-0.227
-402.238	41.177	-0.163	-0.147
-401.223	-133.220	0.667	-0.084
-400.209	85.493	0.450	-0.493
-399.194	93.466	0.262	0.297
-398.179	-67.287	-0.431	0.169
-397.165	34.568	0.656	-0.573
-396.150	-86.329	0.464	0.143
-395.136	-70.928	-0.503	-0.189
-394.121	-200.000	0.034	-0.242
-393.106	-200.000	-0.075	-0.608
-392.092	800.000	0.079	0.312
-391.077	-108.194	-0.636	-0.137
-390.063	-27.121	-0.656	-0.382
-389.048	-200.000	-0.070	-0.587
-388.033	800.000	0.102	-0.371
-387.019	-200.000	-0.003	-0.218
-386.004	268.140	0.166	-0.290
-384.990	-100.324	-0.467	0.116
-383.975	-137.208	0.653	0.074
-382.960	-114.168	1.414	0.273
-381.946	-75.111	0.612	0.218
-380.931	-200.000	-0.035	-0.312
-379.917	-52.124	-0.459	0.213
-378.902	663.101	-0.232	-0.597
-377.888	-147.973	-0.652	0.054
-376.873	-106.477	-0.702	-0.156
-375.858	-200.000	-0.029	0.185
-374.844	-145.897	-0.159	0.014
-373.829	-8.474	0.091	0.061
-372.815	-111.637	0.383	-0.077
-371.800	-134.803	-0.801	0.097
-370.785	-149.921	0.498	-0.039
-369.771	661.038	-0.156	0.401
-368.756	-42.871	0.542	-0.274
-367.742	-200.000	0.184	-0.954
-366.727	-200.000	0.240	-1.128
-365.712	219.618	0.183	-0.292
-364.698	-130.679	-0.587	0.079
-363.683	-200.000	0.088	-0.965
-362.669	-200.000	-0.059	-0.803
-361.654	-18.245	-0.547	-0.341
-360.639	-60.086	0.978	-0.416
-359.625	800.000	-0.268	0.862
-358.610	251.917	0.260	0.442
-357.596	-103.658	-0.099	-0.023
-356.581	-200.000	-0.046	-0.392
-355.566	-22.010	0.919	-0.556
-354.552	-96.942	-1.045	-0.273
-353.537	-90.521	0.117	-0.034
-352.523	196.047	0.341	0.518
-351.508	-57.896	-0.631	0.275
-350.493	-88.657	-0.576	0.171
-349.479	-64.448	-0.608	0.246
-348.464	-114.510	-0.345	-0.066
-347.450	196.272	0.354	0.537
-346.435	-200.000	-0.160	-0.754
-345.420	-154.137	0.125	-0.008
-344.406	-45.943	-0.668	0.329
-343.391	34.788	-0.458	0.399
-342.377	-138.251	0.692	-0.076
-341.362	800.000	0.181	-0.735
-340.348	13.079	0.531	0.409
-339.333	-14.275	0.609	0.391
-338.318	123.888	-0.111	-0.139
-337.304	543.470	-0.145	-0.344
-336.289	800.000	0.023	-0.064
-335.275	122.424	-0.326	-0.406
-334.260	-151.373	0.182	-0.013
-333.245	-57.721	0.640	-0.279
-332.231	-153.839	-0.188	0.013
-331.216	-167.216	0.878	-0.035
-330.202	-200.000	0.057	0.436
-329.187	800.000	0.220	0.774
-328.172	74.403	0.576	0.603
-327.158	646.631	-0.305	-0.777
-326.143	-17.869	-0.298	-0.186
-325.129	33.991	-0.600	0.521
-324.114	116.722	0.278	-0.340
-323.099	401.259	-0.221	-0.463
-322.085	416.152	-0.103	0.219
-321.070	47.766	-0.905	0.841
-320.056	111.752	0.333	0.400
-319.041	621.374	-0.333	0.834
-318.026	800.000	0.155	0.502
-317.012	-188.040	1.021	0.013
-315.997	1.456	-0.736	0.527
-314.983	107.090	-0.157	-0.185
-313.968	-13.546	0.200	-0.129
-312.953	-200.000	-0.008	0.123
-311.939	-120.872	-0.482	0.081
-310.924	800.000	-0.135	0.475
-309.910	71.753	0.440	0.455
-308.895	-61.859	-0.450	-0.187
-307.880	353.781	0.076	0.150
-306.866	69.096	0.403	0.412
-305.851	-34.694	0.373	-0.203
-304.837	0.471	-0.668	-0.475
-303.822	180.729	-0.237	0.346
-302.807	-200.000	0.004	0.408
-301.793	-121.403	0.430	-0.071
-300.778	-53.622	0.187	0.085
-299.764	800.000	0.040	-0.140
-298.749	-22.807	0.581	-0.349
-297.735	122.142	-0.543	0.674
-296.720	-77.140	-0.970	-0.336
-295.705	99.042	-0.396	-0.455
-294.691	-55.520	0.954	-0.425
-293.676	-113.369	0.601	-0.117
-292.662	6.831	-0.168	0.124
-291.647	98.448	-0.332	-0.381
-290.632	38.162	-0.262	0.232
-289.618	194.889	0.578	0.872
-288.603	-111.217	-0.686	0.140
-287.589	-200.000	0.110	0.734
-286.574	-8.917	0.113	0.076
-285.559	-200.000	-0.052	0.922
-284.545	-174.807	-0.713	0.020
-283.530	800.000	-0.050	-0.214
-282.516	-110.981	-0.687	-0.140
-281.501	800.000	-0.221	-0.684
-280.486	-200.000	-0.042	-0.232
-279.472	301.340	-0.545	-1.000
-278.457	-200.000	-0.040	-0.649
-277.443	-159.760	-0.481	0.026
-276.428	-14.868	0.633	0.403
-275.413	82.242	-0.491	-0.530
-274.399	-200.000	-0.031	-0.487
-273.384	295.548	-0.383	0.696
-272.370	-97.465	0.446	-0.115
-271.355	-67.422	-1.590	-0.620
-270.340	-157.736	-0.607	-0.036
-269.326	-99.609	-0.436	0.109
-268.311	-11.435	-0.489	-0.320
-267.297	-136.451	0.523	-0.060
-266.282	-131.185	-0.751	0.099
-265.267	-58.271	0.687	0.297
-264.253	-200.000	0.093	0.783
-263.238	26.888	-0.536	-0.446
-262.224	544.901	0.255	-0.606
-261.209	67.495	0.258	-0.262
-260.195	-70.892	-0.447	-0.167
-259.180	-137.879	1.011	-0.112
-258.165	-65.636	0.393	0.157
-257.151	572.363	-0.155	0.375
-256.136	800.000	-0.190	-0.629
-255.122	-87.877	0.644	-0.192
-254.107	-200.000	0.052	0.610
-253.092	-87.161	0.448	0.135
-252.078	128.620	0.615	-0.778
-251.063	800.000	-0.192	0.555
-250.049	-32.083	-0.275	-0.153
-249.034	-198.477	0.299	0.002
-248.019	800.000	0.202	-0.774
-247.005	-60.898	-0.399	-0.167
-245.990	800.000	-0.139	0.519
-244.976	-200.000	0.004	-0.195
-243.961	-55.254	0.713	-0.318
-242.946	-108.558	0.318	0.068
-241.932	183.889	0.401	0.588
-240.917	-200.000	0.054	0.330
-239.903	-79.641	-0.318	0.107
-238.888	-145.246	-0.520	-0.047
-237.873	-94.601	-0.066	0.018
-236.859	-11.395	-0.601	0.392
-235.844	-200.000	0.115	0.877
-234.830	528.239	0.024	-0.055
-233.815	266.659	0.209	-0.363
-232.800	800.000	0.054	0.196
-231.786	538.465	-0.181	-0.427
-230.771	224.838	-0.160	0.256
-229.757	1.375	0.308	-0.220
-228.742	-74.565	-0.731	-0.261
-227.727	-30.822	0.916	0.514
-226.713	-200.000	0.147	-0.753
-225.698	-130.303	0.465	-0.063
-224.684	419.233	0.172	0.365
-223.669	135.885	0.592	0.765
-222.655	241.692	-0.393	0.651
-221.640	237.740	0.474	0.780
-220.625	-152.494	0.279	0.020
-219.611	116.486	-0.279	0.340
-218.596	-200.000	-0.010	0.148
-217.582	213.977	-0.143	0.224
-216.567	47.275	0.581	-0.537
-215.552	-20.263	-0.334	-0.204
-214.538	-147.257	-0.419	0.035
-213.523	-28.200	0.310	-0.178
-212.509	-164.938	-0.572	0.025
-211.494	-200.000	0.054	0.360
-210.479	168.890	-0.097	-0.137
-209.465	-182.897	0.368	-0.007
-208.450	769.628	-0.160	-0.432
-207.436	-90.368	0.423	0.122
-206.421	183.595	-0.069	0.101
-205.406	-33.373	-0.725	0.397
-204.392	-200.000	-0.035	-0.546
-203.377	-163.125	-0.809	-0.039
-202.363	800.000	0.127	-0.406
-201.348	800.000	-0.046	-0.154
-200.333	220.486	-0.117	0.186
-199.319	-33.838	-0.526	0.287
-198.304	-79.509	-0.153	-0.051
-197.290	800.000	0.071	0.281
-196.275	10.598	0.173	0.130
-195.260	-200.000	0.020	0.129
-194.246	-113.402	0.745	0.145
-193.231	-200.000	-0.060	-0.548
-192.217	-200.000	-0.018	-0.488
-191.202	-200.000	-0.069	0.689
-190.187	-151.450	0.326	0.024
-189.173	8.963	0.320	0.239
-188.158	196.452	-0.307	0.464
-187.144	-200.000	-0.600	0.000
-186.129	-158.243	1.034	0.060
-185.114	-58.075	-0.674	-0.291
-184.100	-200.000	-0.049	-0.373
-183.085	22.956	-0.804	-0.653
-182.071	-200.000	0.063	-0.306
-181.056	-170.483	1.060	0.037
-180.042	-129.895	-0.405	0.055
-179.027	-53.311	-0.478	0.217
-178.012	-200.000	0.019	-0.405
-176.998	-65.638	0.150	-0.059
-175.983	800.000	0.134	0.474
-174.969	-71.170	-0.981	0.365
-173.954	-181.476	0.541	-0.010
-172.939	800.000	-0.129	0.388
-171.925	26.296	-0.522	-0.432
-170.910	-76.946	0.183	0.063
-169.896	800.000	-0.077	0.283
-168.881	105.997	-0.771	-0.903
-167.866	-200.000	-0.074	-0.509
-166.852	338.117	-0.410	-0.789
-165.837	-8.729	0.637	-0.423
-164.823	-200.000	0.133	-0.924
-163.808	-200.000	0.098	0.477
-162.793	-106.028	0.272	0.061
-161.779	-57.922	-0.497	0.215
-160.764	592.559	0.494	-1.207
-159.750	-83.322	-0.472	-0.150
-158.735	-200.000	0.000	0.308
-157.720	-200.000	-0.230	1.005
-156.706	246.188	0.224	-0.374
-155.691	800.000	-0.041	-0.117
-154.677	117.119	0.375	-0.456
-153.662	99.748	-0.045	-0.051
-152.647	742.283	-0.015	-0.041
-151.633	721.541	0.202	-0.532
-150.618	151.140	0.305	-0.411
-149.604	-200.000	0.006	0.699
-148.589	-97.979	-0.794	-0.203
-147.574	116.286	0.435	-0.528
-146.560	-80.194	0.552	-0.183
-145.545	-99.706	-0.462	0.114
-144.531	-160.897	0.855	-0.045
-143.516	-97.687	0.137	-0.035
-142.502	129.800	-0.550	0.695
-141.487	-200.000	0.088	-0.833
-140.472	647.714	-0.143	-0.360
-139.458	800.000	0.123	0.411
-138.443	12.912	-0.159	0.122
-137.429	800.000	-0.179	-0.511
-136.414	-8.654	-0.189	0.125
-135.399	743.460	0.508	1.350
-134.385	800.000	-0.154	0.492
-133.370	8.940	-0.571	0.426
-132.356	530.624	-0.256	0.599
-131.341	300.891	0.376	-0.686
-130.326	-200.000	-0.077	-0.346
-129.312	220.297	0.263	0.416
-128.297	800.000	-0.125	0.462
-127.283	634.848	0.305	-0.765
-126.268	-25.570	0.686	0.400
-125.253	305.573	-0.035	-0.063
-124.239	22.866	-0.691	-0.559
-123.224	240.327	-0.239	-0.393
-122.210	231.509	-0.208	-0.337
