DTS Sentinel unit serial number:	SN413079Multiplexer serial number:	ORYXHardware model number:	OX4-SRSoftware version number:	ORYX F/W v4.00 Oryx Data Collector v3.7.2.0data status	okinstallation	princeton_trtdifferential loss correction	single-endedforward channel	channel 1reverse channel	N/Adate	2019/09/19time	15:06:35forward acquisition time	60.00reverse acquisition time	0.00gamma	496.2192k internal	0.2316k external	0.2316temperature offset calibration	1.0020default loss term (dB/km)	0.3790temperature slope calibration	1.0000multiplexer offset coefficient	1.0000multiplexer slope coefficient	1.0000fibre end	0.00T internal ref (°C)	33.31T ext. ref 1 (°C)	1.14T ext. ref 2 (°C)	30.27length (m)	temperature (°C)	Stokes	anti-Stokes-747.200	-200.000	-0.052	0.268
-746.185	13.671	-0.103	0.081
-745.171	177.870	0.079	-0.117
-744.156	89.155	0.179	0.202
-743.142	-114.560	-0.213	-0.041
-742.127	-63.383	-0.209	0.087
-741.112	28.634	-0.020	0.017
-740.098	77.966	0.253	0.273
-739.083	112.366	0.340	0.417
-738.069	184.251	-0.073	0.109
-737.054	-200.000	-0.014	0.106
-736.039	319.546	-0.034	0.065
-735.025	-36.309	0.223	0.122
-734.010	-120.567	-0.215	0.037
-732.996	-28.733	-0.210	0.122
-731.981	-122.677	-0.219	0.036
-730.966	29.820	-0.186	0.160
-729.952	-200.000	0.024	0.202
-728.937	-17.898	-0.125	-0.079
-727.923	503.626	-0.114	-0.266
-726.908	365.045	0.033	0.068
-725.894	358.883	-0.142	0.286
-724.879	-93.070	0.127	-0.036
-723.864	-200.000	0.022	-0.251
-722.850	-187.994	-0.356	-0.005
-721.835	-106.654	-0.063	-0.014
-720.821	-64.259	-0.222	0.091
-719.806	11.936	-0.230	-0.179
-718.791	144.668	0.100	-0.135
-717.777	-200.000	-0.001	-0.424
-716.762	800.000	-0.058	-0.209
-715.748	-132.685	0.159	0.021
-714.733	-96.583	-0.307	-0.082
-713.718	359.150	-0.039	0.079
-712.704	-56.980	-0.107	0.048
-711.689	-129.597	0.078	-0.011
-710.675	-50.307	-0.236	-0.113
-709.660	-97.362	-0.254	0.067
-708.645	-200.000	0.046	-0.235
-707.631	-200.000	-0.012	0.125
-706.616	94.929	-0.046	0.053
-705.602	-200.000	-0.024	-0.129
-704.587	-200.000	-0.061	0.297
-703.572	-46.326	0.239	0.119
-702.558	800.000	-0.071	0.201
-701.543	-7.261	0.027	0.018
-700.529	-122.674	-0.364	-0.060
-699.514	104.442	0.065	-0.077
-698.499	-200.000	0.003	-0.092
-697.485	178.065	0.155	0.229
-696.470	-44.061	0.087	0.044
-695.456	800.000	-0.022	-0.095
-694.441	187.379	0.056	0.084
-693.426	75.835	-0.055	-0.059
-692.412	800.000	0.092	0.317
-691.397	-46.726	0.125	-0.062
-690.383	86.701	0.241	-0.268
-689.368	800.000	0.007	0.026
-688.354	130.816	-0.169	-0.219
-687.339	355.036	0.059	0.118
-686.324	158.229	0.166	0.233
-685.310	7.402	0.194	-0.147
-684.295	-36.974	0.055	0.030
-683.281	-34.100	-0.125	0.069
-682.266	-18.167	0.197	0.125
-681.251	-81.080	0.215	0.072
-680.237	-109.503	-0.046	-0.010
-679.222	-200.000	-0.021	-0.196
-678.208	800.000	-0.164	-0.467
-677.193	-200.000	0.026	-0.125
-676.178	800.000	-0.061	-0.194
-675.164	800.000	-0.076	-0.332
-674.149	-48.826	-0.091	0.044
-673.135	83.249	0.242	0.266
-672.120	-200.000	0.031	0.265
-671.105	133.791	-0.108	0.142
-670.091	300.325	-0.118	-0.219
-669.076	141.539	0.118	-0.158
-668.062	-200.000	-0.009	0.613
-667.047	-200.000	0.001	-0.040
-666.032	-200.000	-0.019	-0.265
-665.018	637.598	-0.020	-0.052
-664.003	-92.721	-0.226	0.064
-662.989	10.106	0.182	-0.140
-661.974	770.840	-0.135	-0.371
-660.959	-36.450	0.208	-0.113
-659.945	21.242	-0.299	-0.245
-658.930	800.000	-0.053	0.170
-657.916	800.000	-0.012	0.037
-656.901	110.338	-0.367	-0.445
-655.886	-200.000	0.010	-0.247
-654.872	-153.671	-0.093	0.006
-653.857	-200.000	0.003	0.227
-652.843	-92.549	-0.324	-0.092
-651.828	-136.800	-0.209	0.024
-650.814	158.185	-0.047	-0.066
-649.799	45.314	-0.072	-0.067
-648.784	-64.763	-0.295	-0.121
-647.770	-200.000	-0.005	0.028
-646.755	409.980	0.135	-0.288
-645.741	-74.499	0.189	-0.069
-644.726	-70.649	-0.122	-0.047
-643.711	800.000	0.061	-0.268
-642.697	371.467	-0.137	0.281
-641.682	-200.000	0.023	-0.251
-640.668	-200.000	-0.001	0.029
-639.653	-114.141	-0.200	-0.039
-638.638	-108.425	0.144	0.031
-637.624	192.079	-0.063	0.095
-636.609	84.556	-0.126	-0.140
-635.595	-52.878	0.145	-0.067
-634.580	-60.685	-0.151	-0.064
-633.565	24.319	-0.146	0.121
-632.551	-63.036	0.305	-0.127
-631.536	13.074	0.032	-0.025
-630.522	-75.303	-0.275	-0.099
-629.507	-200.000	-0.000	-0.207
-628.492	800.000	0.080	0.227
-627.478	-200.000	0.024	-0.363
-626.463	23.201	-0.011	-0.009
-625.449	-10.891	-0.110	0.074
-624.434	-200.000	-0.023	0.148
-623.419	-200.000	0.007	0.171
-622.405	46.070	-0.086	-0.080
-621.390	-137.755	-0.201	-0.023
-620.376	87.792	-0.174	0.195
-619.361	-200.000	-0.019	0.153
-618.346	-28.201	-0.209	0.122
-617.332	-105.243	-0.201	0.046
-616.317	-156.462	0.318	0.020
-615.303	140.124	-0.141	0.187
-614.288	-200.000	-0.013	0.112
-613.273	-200.000	0.000	0.029
-612.259	800.000	0.034	0.098
-611.244	35.395	-0.234	-0.207
-610.230	461.578	0.128	-0.287
-609.215	-47.908	0.177	-0.087
-608.201	800.000	-0.085	0.250
-607.186	382.377	0.095	-0.196
-606.171	-33.011	0.195	-0.109
-605.157	-200.000	-0.060	-0.264
-604.142	132.999	-0.112	-0.145
-603.128	209.859	0.207	0.328
-602.113	-103.760	-0.258	0.061
-601.098	622.507	0.052	-0.133
-600.084	800.000	0.067	0.232
-599.069	232.264	0.236	0.390
-598.055	-200.000	0.029	0.336
-597.040	-160.371	0.133	0.007
-596.025	62.995	0.180	0.182
-595.011	97.772	0.202	-0.234
-593.996	-179.841	0.251	0.005
-592.982	172.975	0.122	0.177
-591.967	-75.303	-0.339	0.122
-590.952	800.000	-0.054	0.166
-589.938	-121.516	0.213	-0.036
-588.923	-200.000	0.035	-0.198
-587.909	-89.292	-0.169	-0.050
-586.894	60.838	0.062	-0.062
-585.879	-84.833	0.159	0.050
-584.865	800.000	0.050	0.164
-583.850	-200.000	0.019	0.349
-582.836	-200.000	0.019	0.088
-581.821	-200.000	0.000	0.053
-580.806	3.250	-0.105	-0.077
-579.792	-200.000	-0.027	0.222
-578.777	-132.215	-0.120	-0.016
-577.763	-174.067	0.144	0.004
-576.748	-200.000	0.024	0.140
-575.733	29.584	-0.215	-0.184
-574.719	62.717	0.356	-0.358
-573.704	-71.948	0.064	0.024
-572.690	-122.979	0.264	-0.043
-571.675	-131.245	0.167	-0.022
-570.661	469.877	0.089	-0.202
-569.646	-71.138	-0.105	-0.040
-568.631	-163.223	0.044	-0.002
-567.617	102.009	0.198	0.232
-566.602	-200.000	0.088	0.446
-565.588	107.311	0.108	0.130
-564.573	800.000	0.018	-0.056
-563.558	514.746	-0.048	0.113
-562.544	9.599	0.396	0.302
-561.529	-48.352	-0.058	-0.028
-560.515	800.000	-0.070	-0.308
-559.500	-115.042	-0.297	-0.057
-558.485	-14.033	-0.280	0.182
-557.471	58.900	-0.110	-0.109
-556.456	800.000	-0.147	-0.445
-555.442	87.038	-0.070	-0.078
-554.427	8.438	-0.310	-0.234
-553.412	-127.073	-0.129	-0.019
-552.398	-7.378	-0.399	-0.272
-551.383	800.000	0.097	0.316
-550.369	800.000	0.072	-0.232
-549.354	16.320	0.080	-0.064
-548.339	207.179	0.138	-0.216
-547.325	-12.603	-0.229	0.150
-546.310	-200.000	0.024	0.111
-545.296	192.982	0.242	0.368
-544.281	-200.000	-0.013	-0.190
-543.266	-136.487	-0.250	0.029
-542.252	-7.949	-0.264	0.179
-541.237	470.432	0.097	0.220
-540.223	-200.000	-0.016	0.108
-539.208	145.910	-0.155	0.209
-538.193	-150.108	-0.113	-0.009
-537.179	-95.031	0.128	-0.035
-536.164	605.957	-0.107	-0.269
-535.150	-15.375	0.373	0.239
-534.135	-68.295	-0.067	-0.026
-533.121	-110.592	0.281	0.059
-532.106	176.242	-0.093	-0.136
-531.091	-200.000	0.009	-0.243
-530.077	29.416	0.102	0.087
-529.062	-200.000	-0.012	0.069
-528.048	-194.352	0.377	0.003
-527.033	60.148	-0.094	-0.094
-526.018	3.630	-0.253	0.186
-525.004	-200.000	0.076	0.351
-523.989	-200.000	0.018	-0.134
-522.975	431.524	0.104	0.225
-521.960	-7.931	-0.126	0.085
-520.945	-78.892	-0.404	-0.138
-519.931	272.282	0.049	-0.087
-518.916	-200.000	-0.004	-0.167
-517.902	800.000	-0.042	0.130
-516.887	800.000	0.055	-0.211
-515.872	-34.092	-0.300	0.166
-514.858	37.119	0.301	0.268
-513.843	-117.830	-0.257	-0.046
-512.829	-200.000	-0.048	-0.226
-511.814	-37.940	0.269	0.143
-510.799	351.023	-0.012	-0.024
-509.785	242.704	0.022	-0.036
-508.770	17.369	-0.114	0.091
-507.756	-132.387	0.042	-0.005
-506.741	-57.904	0.180	-0.079
-505.726	-200.000	-0.039	-0.203
-504.712	58.536	-0.222	0.218
-503.697	-177.814	-0.015	-0.000
-502.683	49.203	-0.218	0.205
-501.668	-88.191	0.359	0.108
-500.653	4.505	0.075	-0.055
-499.639	154.254	-0.289	0.398
-498.624	41.350	-0.054	-0.049
-497.610	-200.000	0.061	0.289
-496.595	232.954	-0.092	-0.152
-495.581	-200.000	0.013	0.247
-494.566	520.767	-0.129	0.305
-493.551	-200.000	0.025	0.151
-492.537	39.728	-0.368	0.331
-491.522	-37.910	-0.161	0.086
-490.508	644.150	0.007	-0.018
-489.493	-72.648	-0.206	0.076
-488.478	134.922	0.047	0.062
-487.464	-131.727	-0.133	0.017
-486.449	119.156	-0.063	-0.078
-485.435	532.543	-0.120	0.284
-484.420	58.689	-0.132	-0.130
-483.405	800.000	-0.035	-0.104
-482.391	800.000	-0.058	0.188
-481.376	39.689	-0.284	0.255
-480.362	-200.000	-0.024	0.304
-479.347	101.278	0.046	-0.053
-478.332	433.528	0.108	-0.236
-477.318	46.913	0.191	0.178
-476.303	-22.343	-0.162	0.098
-475.289	-200.000	-0.004	-0.329
-474.274	79.155	0.361	0.388
-473.259	-200.000	0.001	-0.062
-472.245	-133.334	0.251	0.032
-471.230	-81.611	-0.087	0.029
-470.216	-7.802	0.035	0.024
-469.201	-200.000	-0.010	0.059
-468.186	-110.426	0.164	0.034
-467.172	27.114	0.091	0.077
-466.157	-43.923	0.368	0.186
-465.143	675.749	0.096	-0.249
-464.128	288.689	0.123	0.223
-463.113	165.092	-0.120	-0.170
-462.099	423.075	-0.083	-0.180
-461.084	239.864	-0.093	-0.156
-460.070	-110.277	0.255	-0.053
-459.055	-70.223	-0.361	-0.137
-458.040	800.000	-0.018	0.051
-457.026	800.000	0.178	-0.561
-456.011	609.998	-0.263	-0.657
-454.997	453.261	0.160	-0.354
-453.982	1.953	0.202	-0.146
-452.968	330.190	0.067	0.129
-451.953	-34.737	0.474	-0.259
-450.938	55.282	-0.107	-0.104
-449.924	-152.956	-0.068	0.005
-448.909	624.246	-0.196	0.495
-447.895	-61.575	-0.227	0.095
-446.880	87.568	-0.189	-0.209
-445.865	79.734	0.061	-0.066
-444.851	38.660	0.075	-0.067
-443.836	-132.454	-0.265	0.034
-442.822	-200.000	0.003	0.071
-441.807	69.011	0.244	0.251
-440.792	-118.311	0.150	-0.027
-439.778	144.287	0.110	-0.147
-438.763	800.000	-0.105	-0.296
-437.749	632.008	-0.089	-0.225
-436.734	-25.617	-0.317	0.187
-435.719	60.761	0.129	0.128
-434.705	800.000	-0.058	-0.227
-433.690	-138.850	0.352	-0.038
-432.676	800.000	-0.031	-0.118
-431.661	-92.426	-0.129	-0.036
-430.646	21.559	0.080	-0.065
-429.632	2.527	0.118	0.086
-428.617	-5.292	-0.237	0.163
-427.603	-22.677	-0.422	0.255
-426.588	-200.000	0.042	0.190
-425.573	-72.092	0.417	-0.155
-424.559	-117.312	0.084	-0.015
-423.544	-8.539	0.376	0.253
-422.530	-65.223	0.223	0.090
-421.515	104.381	0.227	-0.267
-420.500	-45.926	0.292	-0.144
-419.486	-143.726	-0.100	0.009
-418.471	-200.000	-0.014	0.137
-417.457	-59.864	0.085	-0.036
-416.442	139.120	-0.151	0.198
-415.428	113.484	0.033	-0.040
-414.413	224.544	-0.079	0.127
-413.398	-23.485	-0.176	-0.106
-412.384	317.099	-0.079	-0.150
-411.369	-47.749	-0.096	0.046
-410.355	29.995	0.154	-0.131
-409.340	40.134	-0.071	0.064
-408.325	-37.870	0.131	-0.069
-407.311	-57.340	-0.328	0.144
-406.296	498.327	0.037	0.085
-405.282	108.242	-0.214	-0.255
-404.267	-12.557	0.173	-0.113
-403.252	-63.549	0.171	-0.070
-402.238	-200.000	0.028	0.358
-401.223	-15.181	-0.179	-0.115
-400.209	-200.000	0.143	-0.000
-399.194	-85.133	-0.203	-0.064
-398.179	-200.000	0.031	0.184
-397.165	19.268	0.207	-0.166
-396.150	800.000	-0.088	0.342
-395.136	800.000	-0.084	-0.330
-394.121	42.450	0.231	-0.210
-393.106	102.784	0.217	0.254
-392.092	442.232	-0.018	0.039
-391.077	-188.806	0.139	-0.002
-390.063	-22.510	0.136	0.082
-389.048	396.504	0.149	0.311
-388.033	-141.778	-0.239	0.024
-387.019	411.531	-0.149	-0.315
-386.004	-200.000	0.004	0.187
-384.990	-119.314	-0.187	-0.033
-383.975	-200.000	-0.015	0.305
-382.960	-96.602	-0.197	-0.052
-381.946	-37.367	0.163	-0.087
-380.931	109.113	-0.224	0.267
-379.917	-144.598	-0.070	0.006
-378.902	-200.000	-0.044	0.213
-377.888	3.329	0.145	-0.105
-376.873	-9.551	0.062	0.041
-375.858	-143.039	-0.207	-0.020
-374.844	12.440	0.179	-0.138
-373.829	44.092	0.268	0.245
-372.815	-25.493	-0.031	0.018
-371.800	51.581	0.180	-0.171
-370.785	-58.596	-0.279	-0.121
-369.771	800.000	-0.065	-0.188
-368.756	-95.997	-0.111	-0.029
-367.742	-200.000	-0.034	-0.158
-366.727	-200.000	-0.012	-0.085
-365.712	-110.240	-0.268	0.056
-364.698	-167.182	0.226	0.009
-363.683	83.514	-0.134	0.146
-362.669	571.131	-0.126	-0.305
-361.654	-148.379	0.263	-0.022
-360.639	-81.941	0.132	0.043
-359.625	-158.066	-0.077	0.005
-358.610	136.939	0.083	0.108
-357.596	607.414	-0.119	0.295
-356.581	755.119	0.083	-0.224
-355.566	800.000	0.094	0.273
-354.552	-137.496	-0.411	0.046
-353.537	800.000	0.061	0.169
-352.523	-39.083	-0.270	-0.142
-351.508	318.756	-0.048	-0.091
-350.493	18.993	-0.096	-0.077
-349.479	472.504	-0.091	0.205
-348.464	319.740	-0.073	0.139
-347.450	-200.000	0.014	0.075
-346.435	393.148	0.088	-0.184
-345.420	800.000	-0.087	-0.276
-344.406	386.934	0.105	-0.216
-343.391	800.000	-0.033	-0.129
-342.377	-110.912	0.089	0.018
-341.362	-143.552	0.204	-0.019
-340.348	258.203	-0.186	-0.319
-339.333	-172.186	0.600	0.019
-338.318	800.000	0.109	0.383
-337.304	30.023	-0.283	0.240
-336.289	-200.000	-0.041	0.192
-335.275	222.931	-0.079	0.128
-334.260	19.314	0.164	0.132
-333.245	-110.055	0.278	-0.058
-332.231	-200.000	0.005	-0.085
-331.216	-113.701	0.111	0.022
-330.202	-62.334	0.124	-0.052
-329.187	-72.927	-0.215	0.079
-328.172	146.352	-0.146	-0.195
-327.158	-23.668	0.196	0.117
-326.143	-99.383	-0.342	-0.086
-325.129	-87.500	-0.180	-0.054
-324.114	321.465	0.033	0.062
-323.099	-200.000	0.010	0.090
-322.085	-200.000	0.014	-0.241
-321.070	-113.696	0.304	0.059
-320.056	81.885	0.117	0.126
-319.041	800.000	0.019	0.076
-318.026	800.000	-0.072	0.281
-317.012	-63.850	-0.069	0.028
-315.997	-127.636	-0.113	-0.016
-314.983	202.417	0.077	-0.118
-313.968	-200.000	0.023	0.237
-312.953	-122.965	0.049	-0.008
-311.939	-81.302	-0.084	0.028
-310.924	98.866	0.131	0.151
-309.910	-200.000	0.031	-0.210
-308.895	748.295	0.088	-0.236
-307.880	-183.297	-0.344	-0.006
-306.866	420.954	-0.145	0.309
-305.851	86.315	0.134	-0.148
-304.837	552.133	-0.036	0.087
-303.822	-32.700	-0.253	-0.140
-302.807	325.520	0.118	-0.224
-301.793	-160.854	0.362	-0.019
-300.778	-28.491	0.219	-0.126
-299.764	186.645	-0.156	-0.231
-298.749	294.716	0.112	-0.204
-297.735	30.600	-0.067	0.057
-296.720	36.089	-0.127	-0.111
-295.705	-167.111	0.145	0.006
-294.691	150.842	-0.114	-0.155
-293.676	-200.000	0.029	0.167
-292.662	-57.262	0.052	-0.023
-291.647	800.000	0.074	-0.220
-290.632	384.389	0.049	0.100
-289.618	-10.321	0.202	0.134
-288.603	317.190	0.050	-0.093
-287.589	324.469	-0.117	0.222
-286.574	-59.159	-0.163	0.070
-285.559	-200.000	0.003	-0.303
-284.545	58.605	-0.107	-0.105
-283.530	-200.000	-0.098	-0.453
-282.516	-5.465	-0.146	-0.100
-281.501	-17.862	0.227	-0.142
-280.486	800.000	0.082	0.229
-279.472	9.904	-0.082	-0.062
-278.457	385.624	-0.035	-0.072
-277.443	-200.000	0.008	-0.096
-276.428	154.385	0.223	-0.305
-275.413	677.799	0.050	-0.130
-274.399	21.993	0.259	-0.210
-273.384	-200.000	0.002	0.101
-272.370	-156.560	0.023	-0.001
-271.355	30.922	-0.114	0.097
-270.340	12.418	-0.128	-0.098
-269.326	205.289	0.105	-0.163
-268.311	200.869	0.083	0.128
-267.297	-44.683	-0.162	0.081
-266.282	90.539	-0.099	0.110
-265.267	14.565	0.071	0.055
-264.253	324.918	0.090	0.171
-263.238	80.638	0.083	-0.089
-262.224	401.252	-0.067	0.141
-261.209	-200.000	0.140	-0.744
-260.195	454.483	-0.120	-0.264
-259.180	23.589	0.164	0.134
-258.165	122.189	0.115	0.142
-257.151	19.812	0.095	0.076
-256.136	-0.423	0.035	0.025
-255.122	800.000	0.045	-0.144
-254.107	47.232	-0.109	-0.101
-253.092	18.066	0.106	0.084
-252.078	-112.935	0.180	0.035
-251.063	7.396	-0.128	-0.095
-250.049	-54.216	0.127	-0.057
-249.034	-20.540	-0.343	-0.210
-248.019	-200.000	-0.014	-0.238
-247.005	800.000	0.102	-0.291
-245.990	7.546	-0.160	-0.119
-244.976	215.162	0.031	-0.050
-243.961	62.239	0.165	-0.164
-242.946	317.942	0.087	0.163
-241.932	93.587	-0.104	0.117
-240.917	-200.000	-0.007	-0.107
-239.903	29.464	0.284	0.240
-238.888	-135.837	0.372	-0.044
-237.873	-200.000	-0.045	-0.320
-236.859	87.268	-0.064	-0.071
-235.844	-97.082	-0.387	-0.101
-234.830	-54.723	-0.111	0.050
-233.815	222.119	-0.182	0.291
-232.800	-70.658	-0.087	0.033
-231.786	1.544	-0.148	0.106
-230.771	-200.000	0.015	0.080
-229.757	-200.000	0.035	0.321
-228.742	-138.552	0.220	0.024
-227.727	-66.625	0.212	0.084
-226.713	800.000	-0.033	-0.091
-225.698	249.017	-0.061	0.103
-224.684	-200.000	0.045	0.000
-223.669	800.000	-0.110	0.325
-222.655	25.796	0.146	0.120
-221.640	403.553	0.139	0.291
-220.625	-37.951	-0.117	0.062
-219.611	-108.987	0.191	0.040
-218.596	539.352	-0.144	-0.339
-217.582	800.000	-0.100	-0.287
-216.567	800.000	0.024	-0.098
-215.552	-66.022	-0.371	0.147
-214.538	-200.000	0.038	0.303
-213.523	-14.785	-0.171	0.109
-212.509	-47.348	0.145	-0.070
-211.494	286.874	-0.051	0.091
-210.479	-76.952	-0.121	-0.042
-209.465	800.000	0.130	-0.478
-208.450	-200.000	-0.014	0.229
-207.436	568.671	0.050	0.120
-206.421	-83.918	0.160	-0.051
-205.406	-133.441	0.392	-0.049
-204.392	18.464	-0.119	0.094
-203.377	800.000	0.084	-0.274
-202.363	-173.547	-0.107	-0.003
-201.348	-25.726	0.189	-0.110
-200.333	-200.000	0.003	0.085
-199.319	-200.000	-0.001	-0.008
-198.304	-200.000	0.010	0.151
-197.290	-200.000	0.020	0.124
-196.275	-22.910	0.093	0.056
-195.260	-47.839	-0.172	0.083
-194.246	47.572	0.088	-0.082
-193.231	-155.208	0.219	-0.014
-192.217	-31.730	-0.370	0.206
-191.202	-200.000	-0.008	0.376
-190.187	41.777	0.070	0.063
-189.173	-200.000	-0.220	0.000
-188.158	25.593	0.041	-0.033
-187.144	-67.588	0.047	-0.018
-186.129	507.712	0.062	0.142
-185.114	263.244	0.052	-0.090
-184.100	-74.986	-0.316	-0.112
-183.085	-22.342	0.122	0.073
-182.071	800.000	-0.075	-0.218
-181.056	749.319	0.097	0.260
-180.042	84.540	0.283	-0.307
-179.027	8.167	-0.116	-0.087
-178.012	-200.000	-0.014	-0.076
-176.998	206.167	-0.109	-0.169
-175.983	-94.660	-0.386	-0.104
-174.969	-76.009	0.248	-0.087
-173.954	-61.932	-0.259	-0.107
-172.939	37.129	0.098	0.086
-171.925	-38.106	0.112	0.059
-170.910	542.711	0.107	-0.252
-169.896	-51.858	-0.231	0.107
-168.881	-200.000	-0.013	-0.115
-167.866	221.789	-0.124	0.198
-166.852	-93.709	-0.118	-0.032
-165.837	-88.871	-0.193	-0.057
-164.823	-113.551	-0.255	0.049
-163.808	-69.455	0.164	-0.062
-162.793	-27.270	-0.113	0.065
-161.779	274.741	-0.170	0.297
-160.764	147.427	0.094	-0.125
-159.750	-24.746	0.326	-0.192
-158.735	-14.115	-0.305	-0.195
-157.720	-69.408	0.126	-0.048
-156.706	-58.034	-0.222	0.096
-155.691	-76.783	0.418	-0.145
-154.677	-160.231	-0.284	0.015
-153.662	-200.000	-0.015	-0.138
-152.647	-128.313	0.159	0.022
-151.633	-57.083	0.276	0.121
-150.618	800.000	-0.124	0.454
-149.604	79.000	-0.014	-0.015
-148.589	235.962	0.080	0.131
-147.574	-35.608	0.303	0.163
-146.560	-18.985	0.086	0.053
-145.545	-179.007	0.496	0.011
-144.531	-40.844	-0.196	0.100
-143.516	-134.734	-0.154	0.018
-142.502	-200.000	-0.014	-0.158
-141.487	583.036	0.034	-0.082
-140.472	-19.544	-0.035	-0.021
-139.458	-72.645	0.149	0.055
-138.443	-124.565	0.131	-0.020
-137.429	-200.000	0.040	0.310
-136.414	-200.000	-0.034	0.156
-135.399	356.110	0.075	-0.147
-134.385	-200.000	-0.018	0.100
-133.370	-114.856	-0.134	-0.025
-132.356	-42.239	-0.162	-0.082
-131.341	800.000	0.029	-0.118
-130.326	800.000	-0.090	-0.351
-129.312	51.840	-0.028	0.027
-128.297	4.539	0.373	0.271
-127.283	-176.469	0.340	0.009
-126.268	12.786	0.197	-0.151
-125.253	-53.496	-0.092	0.041
-124.239	431.257	0.088	0.189
-123.224	-83.276	0.362	-0.115
-122.210	-91.043	0.195	0.055
-121.195	-16.893	-0.125	-0.078
