DTS Sentinel unit serial number:	SN413079Multiplexer serial number:	ORYXHardware model number:	OX4-SRSoftware version number:	ORYX F/W v4.00 Oryx Data Collector v3.7.2.0data status	okinstallation	princeton_trtdifferential loss correction	single-endedforward channel	channel 1reverse channel	N/Adate	2019/09/14time	09:54:35forward acquisition time	60.00reverse acquisition time	0.00gamma	496.2192k internal	0.2315k external	0.2315temperature offset calibration	1.0067default loss term (dB/km)	0.3790temperature slope calibration	1.0000multiplexer offset coefficient	1.0000multiplexer slope coefficient	1.0000fibre end	0.00T internal ref (°C)	32.72T ext. ref 1 (°C)	3.97T ext. ref 2 (°C)	31.16length (m)	temperature (°C)	Stokes	anti-Stokes-747.200	-47.785	-0.146	-0.072
-746.185	-37.524	-0.241	0.130
-745.171	274.523	0.174	0.312
-744.156	0.765	-0.195	0.141
-743.142	407.731	-0.009	-0.019
-742.127	-45.776	-0.265	0.132
-741.112	-10.420	0.032	-0.022
-740.098	-25.668	-0.214	0.128
-739.083	162.298	-0.111	0.157
-738.069	-200.000	0.172	-0.000
-737.054	790.477	-0.030	0.083
-736.039	-200.000	0.011	0.072
-735.025	-200.000	-0.028	-0.137
-734.010	-17.662	0.114	-0.073
-732.996	2.319	-0.088	0.065
-731.981	-75.478	0.285	-0.103
-730.966	118.942	-0.355	0.445
-729.952	80.985	-0.204	-0.223
-728.937	14.730	-0.219	0.174
-727.923	800.000	0.054	-0.184
-726.908	176.539	-0.077	-0.113
-725.894	-31.016	-0.165	-0.094
-724.879	247.027	-0.168	0.287
-723.864	82.152	0.174	0.191
-722.850	-26.967	0.286	-0.169
-721.835	136.895	0.141	0.187
-720.821	-163.670	0.184	-0.009
-719.806	-200.000	-0.104	0.480
-718.791	-200.000	0.028	-0.215
-717.777	-200.000	0.018	-0.095
-716.762	-200.000	0.002	0.084
-715.748	-179.151	0.312	-0.007
-714.733	-200.000	-0.037	0.415
-713.718	364.688	0.132	0.270
-712.704	187.569	-0.071	-0.107
-711.689	-162.983	-0.237	0.012
-710.675	-149.021	0.076	0.006
-709.660	-56.687	-0.072	-0.032
-708.645	-59.341	0.208	0.090
-707.631	-200.000	0.010	0.058
-706.616	-63.491	-0.164	-0.068
-705.602	-25.702	0.218	-0.130
-704.587	-92.337	-0.187	0.053
-703.572	132.841	-0.229	-0.299
-702.558	15.351	-0.054	0.043
-701.543	-27.456	0.151	0.089
-700.529	800.000	-0.020	0.067
-699.514	24.749	-0.039	-0.033
-698.499	800.000	-0.058	0.214
-697.485	230.427	-0.083	-0.137
-696.470	-200.000	-0.013	0.090
-695.456	-200.000	-0.256	-0.001
-694.441	-133.331	0.169	0.021
-693.426	203.633	0.065	-0.102
-692.412	42.895	-0.155	-0.143
-691.397	-200.000	-0.049	-0.220
-690.383	-200.000	-0.028	-0.171
-689.368	-68.878	-0.048	0.019
-688.354	-1.923	0.249	-0.177
-687.339	167.742	-0.045	0.065
-686.324	-200.000	-0.042	0.215
-685.310	100.638	-0.182	0.214
-684.295	-113.751	-0.213	-0.042
-683.281	242.732	0.070	-0.119
-682.266	512.668	0.108	-0.255
-681.251	11.580	-0.177	0.137
-680.237	-200.000	0.014	0.119
-679.222	25.754	0.189	0.159
-678.208	-156.073	0.120	0.008
-677.193	122.175	-0.212	0.267
-676.178	-200.000	-0.002	-0.034
-675.164	-200.000	0.056	-0.326
-674.149	463.768	-0.027	0.061
-673.135	389.872	-0.022	-0.045
-672.120	13.621	0.301	-0.236
-671.105	-104.916	0.097	-0.022
-670.091	-43.219	-0.371	0.190
-669.076	-29.235	0.084	0.049
-668.062	-200.000	-0.058	0.263
-667.047	547.734	0.127	-0.307
-666.032	-160.455	0.116	-0.006
-665.018	209.932	-0.064	0.101
-664.003	-58.496	-0.420	-0.184
-662.989	2.381	-0.084	0.062
-661.974	104.166	-0.079	-0.094
-660.959	-200.000	0.017	0.101
-659.945	485.397	-0.090	-0.206
-658.930	-56.615	-0.368	0.165
-657.916	6.445	0.262	0.196
-656.901	-200.000	-0.028	-0.177
-655.886	598.467	-0.062	-0.155
-654.872	471.498	-0.067	-0.153
-653.857	800.000	-0.103	-0.325
-652.843	315.194	0.112	-0.213
-651.828	-48.684	-0.105	0.051
-650.814	12.169	0.120	0.093
-649.799	800.000	0.054	-0.157
-648.784	-80.175	-0.044	-0.015
-647.770	-47.834	0.242	-0.118
-646.755	-49.530	-0.289	0.139
-645.741	-92.582	0.194	0.055
-644.726	57.092	0.105	-0.104
-643.711	226.250	0.098	-0.160
-642.697	-200.000	0.020	-0.115
-641.682	-5.107	-0.462	-0.321
-640.668	115.548	-0.114	0.141
-639.653	31.237	0.052	0.045
-638.638	-132.779	0.212	0.027
-637.624	-176.309	-0.044	0.001
-636.609	379.907	-0.104	0.215
-635.595	-200.000	0.033	-0.163
-634.580	10.108	-0.112	-0.086
-633.565	348.050	-0.058	-0.116
-632.551	-123.467	0.145	-0.023
-631.536	-200.000	-0.019	-0.193
-630.522	-166.952	-0.278	0.011
-629.507	-200.000	-0.043	0.377
-628.492	-200.000	-0.030	0.304
-627.478	313.491	0.107	-0.203
-626.463	-69.420	0.528	-0.204
-625.449	-26.283	0.074	-0.044
-624.434	-200.000	-0.018	0.337
-623.419	-200.000	-0.072	0.340
-622.405	389.695	0.097	0.203
-621.390	258.056	0.126	0.220
-620.376	-64.377	-0.221	0.091
-619.361	-61.813	0.132	-0.056
-618.346	16.050	0.303	-0.241
-617.332	800.000	0.048	0.180
-616.317	349.674	-0.095	0.189
-615.303	39.977	0.419	0.380
-614.288	-163.542	-0.297	-0.014
-613.273	-200.000	-0.014	-0.075
-612.259	-200.000	-0.003	-0.022
-611.244	800.000	-0.113	-0.393
-610.230	-200.000	0.028	0.300
-609.215	13.156	-0.214	-0.167
-608.201	-27.939	-0.052	-0.030
-607.186	115.664	0.075	-0.093
-606.171	-101.730	0.090	0.022
-605.157	19.197	-0.150	-0.121
-604.142	-200.000	0.003	0.059
-603.128	223.923	0.114	0.186
-602.113	363.666	0.088	-0.178
-601.098	188.972	-0.211	0.318
-600.084	37.515	0.102	0.091
-599.069	-200.000	0.077	-0.353
-598.055	-71.416	0.055	0.021
-597.040	49.650	0.073	-0.069
-596.025	-115.804	-0.249	-0.047
-595.011	48.206	0.125	0.118
-593.996	-1.941	-0.115	-0.081
-592.982	-200.000	0.059	-0.448
-591.967	-47.635	-0.316	-0.155
-590.952	-200.000	0.037	-0.226
-589.938	-159.041	0.352	0.020
-588.923	201.267	-0.160	0.248
-587.909	-44.495	-0.111	-0.056
-586.894	-152.965	0.325	0.023
-585.879	-113.516	0.154	-0.030
-584.865	196.950	-0.221	0.340
-583.850	-127.498	-0.209	-0.031
-582.836	39.139	0.238	0.215
-581.821	-200.000	-0.005	-0.111
-580.806	213.450	0.257	-0.408
-579.792	-200.000	-0.013	-0.189
-578.777	-200.000	-0.018	0.153
-577.763	-96.446	-0.246	0.065
-576.748	-41.510	0.425	0.220
-575.733	547.612	-0.013	-0.031
-574.719	152.392	-0.138	0.189
-573.704	87.795	-0.017	0.019
-572.690	-200.000	0.011	-0.148
-571.675	73.733	-0.138	-0.146
-570.661	96.583	-0.143	-0.164
-569.646	-200.000	-0.003	-0.079
-568.631	192.890	-0.094	0.143
-567.617	-25.260	-0.131	0.078
-566.602	226.618	0.160	-0.262
-565.588	353.334	-0.061	-0.121
-564.573	-200.000	0.017	-0.144
-563.558	-68.461	-0.205	0.080
-562.544	286.111	-0.148	-0.268
-561.529	-200.000	0.032	-0.160
-560.515	-134.643	0.233	-0.029
-559.500	-3.425	-0.260	-0.182
-558.485	-53.378	0.309	0.143
-557.471	771.958	0.051	0.139
-556.456	-111.021	-0.224	-0.046
-555.442	-72.925	-0.196	0.072
-554.427	-102.237	0.167	-0.040
-553.412	105.528	-0.071	0.084
-552.398	-181.072	-0.131	0.003
-551.383	-107.032	0.320	-0.071
-550.369	24.681	-0.268	-0.223
-549.354	39.867	-0.165	-0.149
-548.339	-108.519	0.227	-0.049
-547.325	-200.000	0.030	0.136
-546.310	-152.787	-0.414	-0.030
-545.296	-112.788	-0.354	-0.071
-544.281	-8.452	0.302	-0.204
-543.266	-200.000	-0.003	-0.094
-542.252	200.925	0.060	-0.093
-541.237	800.000	0.059	-0.244
-540.223	-121.626	-0.034	0.006
-539.208	-47.852	0.060	-0.029
-538.193	-104.673	-0.318	0.074
-537.179	-31.888	-0.216	-0.121
-536.164	800.000	0.055	0.193
-535.150	403.271	-0.187	0.396
-534.135	147.567	-0.104	-0.141
-533.121	-19.398	0.015	0.009
-532.106	-116.759	0.366	-0.068
-531.091	-163.894	-0.432	-0.020
-530.077	4.691	0.228	-0.168
-529.062	-200.000	-0.002	0.290
-528.048	272.719	-0.007	-0.012
-527.033	-71.661	0.369	-0.139
-526.018	152.382	0.075	0.103
-525.004	41.599	0.058	-0.053
-523.989	-200.000	-0.052	-0.414
-522.975	199.759	0.097	-0.149
-521.960	-200.000	0.032	0.307
-520.945	38.272	0.028	-0.025
-519.931	-18.501	-0.194	-0.121
-518.916	-10.984	-0.292	-0.194
-517.902	152.325	-0.281	-0.385
-516.887	221.885	-0.046	0.074
-515.872	-200.000	0.064	0.419
-514.858	2.682	0.163	-0.119
-513.843	56.972	-0.165	-0.162
-512.829	-33.746	-0.174	-0.096
-511.814	-59.512	-0.104	0.045
-510.799	98.337	-0.160	-0.185
-509.785	-174.610	-0.344	-0.010
-508.770	-36.005	0.299	-0.162
-507.756	27.752	0.005	0.004
-506.741	-200.000	-0.014	0.284
-505.726	145.712	-0.267	-0.360
-504.712	-6.782	-0.207	0.142
-503.697	109.840	-0.068	0.081
-502.683	-200.000	-0.041	-0.255
-501.668	800.000	-0.053	0.153
-500.653	4.344	-0.124	-0.091
-499.639	-48.614	-0.107	-0.052
-498.624	-49.388	-0.596	-0.285
-497.610	-40.360	-0.303	0.158
-496.595	-77.374	-0.184	0.064
-495.581	-137.958	0.225	0.025
-494.566	235.005	-0.099	-0.165
-493.551	85.331	-0.150	-0.165
-492.537	169.331	-0.056	0.081
-491.522	-40.462	-0.251	-0.131
-490.508	-162.403	0.016	0.001
-489.493	167.067	0.223	-0.318
-488.478	-101.982	-0.333	0.081
-487.464	800.000	0.080	0.263
-486.449	800.000	0.033	-0.099
-485.435	-92.371	0.408	0.115
-484.420	45.251	0.066	-0.061
-483.405	-92.767	-0.089	-0.025
-482.391	44.389	-0.197	-0.182
-481.376	361.135	0.160	-0.321
-480.362	0.128	-0.092	0.066
-479.347	132.752	-0.169	0.219
-478.332	49.945	0.187	-0.177
-477.318	-86.815	-0.336	0.103
-476.303	131.250	-0.108	-0.139
-475.289	800.000	-0.076	-0.243
-474.274	-76.922	-0.195	-0.068
-473.259	16.762	-0.282	-0.224
-472.245	-89.725	0.154	0.045
-471.230	472.735	-0.068	-0.152
-470.216	16.424	0.304	0.241
-469.201	114.015	-0.083	0.101
-468.186	-99.077	-0.429	0.109
-467.172	78.911	0.053	-0.057
-466.157	-51.011	0.128	0.060
-465.143	86.604	-0.128	0.141
-464.128	-168.573	-0.072	0.003
-463.113	-200.000	0.021	0.125
-462.099	36.175	0.245	-0.216
-461.084	-200.000	0.093	0.410
-460.070	-140.721	0.211	0.022
-459.055	39.709	-0.042	-0.038
-458.040	359.932	-0.021	0.042
-457.026	800.000	-0.078	0.325
-456.011	37.508	-0.242	0.215
-454.997	-110.942	-0.228	-0.047
-453.982	-95.877	0.402	0.107
-452.968	-14.066	-0.159	0.103
-451.953	66.562	0.181	-0.184
-450.938	-200.000	0.019	-0.182
-449.924	12.665	0.222	-0.172
-448.909	-115.469	0.134	-0.025
-447.895	543.677	-0.100	-0.239
-446.880	-148.597	0.388	0.032
-445.865	-36.380	-0.104	0.056
-444.851	76.058	-0.200	-0.212
-443.836	-68.819	0.197	-0.076
-442.822	-191.864	0.482	0.005
-441.807	-104.624	0.133	-0.031
-440.792	554.071	-0.055	-0.132
-439.778	-170.768	0.075	0.003
-438.763	273.607	-0.102	-0.181
-437.749	-85.643	0.162	-0.051
-436.734	800.000	-0.086	0.311
-435.719	175.119	-0.055	0.080
-434.705	138.965	0.177	-0.233
-433.690	-18.463	-0.290	-0.181
-432.676	-21.439	-0.144	-0.088
-431.661	-1.016	-0.133	0.094
-430.646	-135.338	-0.252	-0.030
-429.632	6.541	-0.174	0.130
-428.617	800.000	-0.042	0.163
-427.603	283.905	0.228	-0.410
-426.588	-10.014	-0.119	0.079
-425.573	49.997	0.064	-0.061
-424.559	-93.869	0.269	0.074
-423.544	138.052	-0.092	0.121
-422.530	-117.205	0.244	-0.044
-421.515	-200.000	-0.006	0.267
-420.500	-162.972	-0.076	0.004
-419.486	-59.192	0.266	-0.115
-418.471	71.111	-0.100	0.103
-417.457	-108.999	0.167	-0.036
-416.442	77.039	0.021	-0.023
-415.428	36.139	0.150	-0.132
-414.413	-95.947	0.035	-0.009
-413.398	-200.000	-0.031	0.277
-412.384	-65.081	-0.277	0.112
-411.369	-200.000	-0.013	0.164
-410.355	43.728	-0.096	-0.088
-409.340	-12.063	0.217	-0.142
-408.325	478.818	0.162	-0.367
-407.311	-130.997	0.335	-0.045
-406.296	800.000	-0.022	0.088
-405.282	-112.396	0.098	-0.020
-404.267	-200.000	-0.034	0.322
-403.252	61.470	0.218	-0.217
-402.238	800.000	-0.032	0.129
-401.223	301.827	-0.094	-0.174
-400.209	592.495	-0.123	-0.304
-399.194	490.011	-0.051	-0.116
-398.179	-28.714	0.173	0.099
-397.165	-200.000	0.012	-0.146
-396.150	-124.876	-0.312	0.048
-395.136	-153.157	0.304	-0.021
-394.121	-21.829	0.023	-0.014
-393.106	-200.000	0.022	-0.112
-392.092	-200.000	0.008	-0.292
-391.077	-200.000	0.024	-0.119
-390.063	-145.248	-0.126	0.011
-389.048	-85.664	-0.300	0.093
-388.033	150.343	-0.073	-0.099
-387.019	205.858	0.043	-0.067
-386.004	-126.406	-0.289	0.043
-384.990	-46.219	-0.120	0.059
-383.975	-50.534	0.262	0.124
-382.960	337.733	-0.142	-0.275
-381.946	-106.069	-0.210	0.047
-380.931	-165.390	-0.374	0.016
-379.917	234.339	0.196	0.323
-378.902	205.077	0.204	0.317
-377.888	-29.655	-0.251	0.143
-376.873	494.043	-0.081	0.186
-375.858	-67.188	0.124	0.049
-374.844	38.522	-0.191	0.170
-373.829	-167.638	0.182	0.007
-372.815	800.000	-0.089	-0.280
-371.800	135.140	-0.096	-0.124
-370.785	189.646	0.218	-0.326
-369.771	95.421	-0.285	0.324
-368.756	-155.725	0.159	0.010
-367.742	68.816	-0.094	0.096
-366.727	-95.947	-0.342	0.091
-365.712	16.816	-0.361	-0.285
-364.698	-200.000	-0.015	0.224
-363.683	-200.000	-0.029	-0.186
-362.669	1.186	-0.102	-0.073
-361.654	404.692	0.065	-0.138
-360.639	-200.000	-0.010	-0.309
-359.625	800.000	0.089	0.364
-358.610	-200.000	0.011	-0.082
-357.596	-200.000	0.078	0.469
-356.581	-67.986	-0.192	0.075
-355.566	-200.000	0.016	-0.298
-354.552	-30.637	0.369	0.209
-353.537	-6.037	0.294	0.200
-352.523	800.000	-0.064	0.189
-351.508	-72.339	0.055	0.020
-350.493	-161.210	0.147	0.008
-349.479	-119.453	0.145	0.025
-348.464	430.735	0.095	-0.204
-347.450	-200.000	0.062	-0.296
-346.435	24.310	0.123	-0.101
-345.420	-20.516	0.340	0.208
-344.406	-120.469	-0.266	0.045
-343.391	265.095	0.149	0.259
-342.377	-200.000	-0.057	0.000
-341.362	244.375	-0.014	0.023
-340.348	39.067	0.426	-0.380
-339.333	778.614	-0.045	0.124
-338.318	-128.945	0.324	-0.045
-337.304	-65.822	-0.021	0.008
-336.289	172.945	0.257	0.369
-335.275	160.032	0.096	0.133
-334.260	800.000	-0.120	0.337
-333.245	-200.000	-0.028	0.221
-332.231	96.281	-0.125	-0.142
-331.216	800.000	-0.105	-0.407
-330.202	-200.000	0.038	0.267
-329.187	498.523	-0.035	-0.080
-328.172	195.494	-0.068	-0.103
-327.158	43.037	-0.161	0.146
-326.143	-200.000	-0.028	0.180
-325.129	19.195	-0.260	0.208
-324.114	234.323	-0.276	0.454
-323.099	-200.000	0.004	0.222
-322.085	-56.704	-0.028	-0.012
-321.070	40.590	0.173	-0.156
-320.056	-98.182	0.196	-0.050
-319.041	-200.000	0.011	-0.112
-318.026	531.327	-0.059	0.139
-317.012	-169.455	-0.015	0.001
-315.997	-200.000	0.008	0.091
-314.983	-93.741	0.232	-0.064
-313.968	-55.780	0.195	0.087
-312.953	75.484	-0.206	0.217
-311.939	-200.000	0.036	0.175
-310.924	-200.000	-0.001	-0.157
-309.910	289.912	0.108	0.195
-308.895	145.466	-0.030	-0.040
-307.880	-2.866	0.130	-0.090
-306.866	-42.622	-0.131	-0.066
-305.851	35.916	0.186	-0.163
-304.837	315.021	0.135	-0.253
-303.822	286.954	-0.200	-0.360
-302.807	-200.000	-0.001	0.291
-301.793	69.785	0.077	0.079
-300.778	280.837	0.178	-0.318
-299.764	431.550	-0.095	0.204
-298.749	150.775	0.073	-0.098
-297.735	-61.231	-0.143	0.060
-296.720	-61.379	0.078	-0.033
-295.705	104.707	0.176	0.207
-294.691	800.000	-0.032	-0.093
-293.676	-34.379	0.270	0.147
-292.662	-48.582	0.062	0.030
-291.647	-117.632	-0.177	-0.032
-290.632	-200.000	-0.043	-0.200
-289.618	100.212	-0.191	0.220
-288.603	17.550	0.198	0.157
-287.589	-159.401	0.111	0.006
-286.574	-200.000	-0.013	-0.285
-285.559	800.000	-0.049	-0.212
-284.545	-136.107	0.099	-0.012
-283.530	-17.823	-0.220	-0.137
-282.516	-82.436	-0.094	-0.030
-281.501	-200.000	0.011	-0.302
-280.486	65.669	-0.100	-0.101
-279.472	195.267	0.057	0.087
-278.457	800.000	-0.047	0.138
-277.443	-25.981	-0.317	0.186
-276.428	-1.683	0.170	-0.119
-275.413	-100.493	-0.103	0.025
-274.399	-74.122	-0.337	-0.122
-273.384	44.938	0.150	-0.138
-272.370	800.000	0.066	0.234
-271.355	-66.681	0.151	0.060
-270.340	-146.548	0.365	0.032
-269.326	-181.525	-0.126	0.002
-268.311	-117.364	0.371	0.067
-267.297	-36.010	0.174	-0.094
-266.282	-119.967	0.453	0.077
-265.267	490.250	0.083	0.189
-264.253	-22.727	-0.101	0.061
-263.238	216.749	0.086	-0.135
-262.224	-163.097	0.123	0.006
-261.209	800.000	-0.031	0.089
-260.195	238.381	0.114	0.188
-259.180	-20.119	-0.189	0.116
-258.165	-192.250	-0.452	0.004
-257.151	410.122	0.141	0.298
-256.136	-104.862	0.283	0.065
-255.122	-200.000	-0.015	-0.129
-254.107	-60.925	-0.209	-0.088
-253.092	800.000	0.080	0.251
-252.078	-84.995	0.086	-0.027
-251.063	-164.403	-0.335	0.015
-250.049	-61.347	-0.238	0.100
-249.034	668.224	0.063	-0.161
-248.019	-163.055	-0.234	0.011
-247.005	-14.957	-0.358	-0.228
-245.990	-181.965	0.332	-0.006
-244.976	-86.075	0.316	-0.097
-243.961	-200.000	-0.019	-0.114
-242.946	800.000	-0.126	0.396
-241.932	7.014	-0.218	0.161
-240.917	-200.000	0.097	-0.439
-239.903	-18.490	-0.064	-0.040
-238.888	-200.000	-0.011	-0.220
-237.873	240.296	-0.058	-0.095
-236.859	-200.000	0.024	0.394
-235.844	-200.000	0.081	0.431
-234.830	195.567	0.214	0.324
-233.815	-102.110	-0.137	-0.033
-232.800	-15.599	-0.196	-0.124
-231.786	-76.379	-0.051	-0.018
-230.771	800.000	-0.005	-0.019
-229.757	-85.740	0.245	-0.075
-228.742	800.000	-0.029	-0.110
-227.727	643.736	-0.017	0.044
-226.713	8.068	0.125	0.093
-225.698	45.739	0.148	-0.136
-224.684	-166.455	-0.216	-0.009
-223.669	-39.856	-0.066	-0.034
-222.655	9.086	0.239	-0.179
-221.640	-90.526	0.139	0.040
-220.625	-45.800	-0.338	-0.166
-219.611	-169.116	-0.063	0.002
-218.596	-65.165	-0.233	-0.093
-217.582	-134.202	-0.170	0.021
-216.567	-59.532	0.302	0.129
-215.552	236.512	0.222	0.364
-214.538	-200.000	0.314	-0.001
-213.523	-48.387	0.037	-0.018
-212.509	326.034	-0.147	0.280
-211.494	-98.496	0.146	0.037
-210.479	-85.062	0.174	-0.054
-209.465	-65.350	-0.220	-0.088
-208.450	-88.492	0.204	0.060
-207.436	-106.901	0.357	-0.078
-206.421	296.855	-0.139	-0.253
-205.406	-38.956	-0.154	0.081
-204.392	-200.000	-0.021	0.131
-203.377	-130.462	0.263	0.035
-202.363	-92.147	-0.230	-0.064
-201.348	-58.426	0.058	-0.025
-200.333	-140.731	0.088	-0.009
-199.319	613.167	-0.072	0.179
-198.304	-120.953	0.116	-0.019
-197.290	187.152	0.113	0.167
-196.275	278.740	0.027	-0.048
-195.260	-108.688	-0.062	-0.013
-194.246	663.611	-0.009	0.023
-193.231	-98.451	0.175	0.044
-192.217	7.064	0.196	0.145
-191.202	-115.998	-0.168	0.031
-190.187	800.000	-0.011	0.039
-189.173	-200.000	0.037	0.179
-188.158	-85.882	-0.442	0.136
-187.144	-92.031	-0.274	0.077
-186.129	-94.706	0.481	0.129
-185.114	-65.953	0.232	-0.092
-184.100	603.563	-0.066	0.164
-183.085	-9.840	0.027	-0.018
-182.071	-91.745	-0.134	-0.038
-181.056	-1.149	0.147	0.103
-180.042	-18.972	0.259	0.159
-179.027	-126.825	0.304	-0.044
-178.012	-1.480	0.212	0.148
-176.998	-10.758	-0.259	0.170
-175.983	-200.000	-0.013	-0.168
-174.969	85.560	-0.097	0.105
-173.954	-17.156	0.155	-0.097
-172.939	-200.000	-0.032	0.324
-171.925	97.861	-0.215	0.245
-170.910	-200.000	0.014	0.116
-169.896	-122.016	0.396	-0.064
-168.881	800.000	0.036	0.145
-167.866	256.428	0.198	-0.337
-166.852	-73.258	-0.117	0.043
-165.837	-70.213	0.181	0.068
-164.823	-54.551	-0.217	-0.097
-163.808	800.000	-0.030	0.120
-162.793	296.615	-0.129	-0.235
-161.779	45.401	-0.231	0.212
-160.764	8.436	-0.249	0.185
-159.750	-200.000	-0.039	-0.204
-158.735	-58.987	-0.207	0.088
-157.720	61.808	0.187	-0.185
-156.706	92.405	0.116	-0.129
-155.691	145.831	0.286	0.379
-154.677	-200.000	0.006	-0.442
-153.662	-96.354	0.265	0.069
-152.647	-29.165	0.092	-0.052
-151.633	800.000	0.027	0.100
-150.618	501.180	-0.104	-0.237
-149.604	-103.811	-0.112	0.026
-148.589	33.861	-0.181	-0.156
-147.574	214.222	-0.075	-0.118
-146.560	-39.639	-0.167	-0.087
-145.545	294.989	0.075	-0.136
-144.531	9.138	-0.146	-0.109
-143.516	134.556	0.133	0.171
-142.502	-145.848	-0.296	-0.026
-141.487	-80.801	0.216	0.071
-140.472	15.431	0.127	0.099
-139.458	-200.000	-0.004	0.217
-138.443	-110.554	-0.371	-0.076
-137.429	248.887	0.106	0.178
-136.414	-36.806	-0.154	-0.082
-135.399	42.339	0.152	-0.137
-134.385	-140.957	0.184	0.019
-133.370	59.679	-0.043	0.042
-132.356	423.820	-0.119	-0.252
-131.341	221.185	-0.156	-0.248
-130.326	113.343	0.080	0.096
-129.312	181.703	0.088	0.128
-128.297	800.000	-0.182	0.642
-127.283	-56.626	-0.122	0.053
-126.268	275.082	-0.028	-0.049
-125.253	43.512	0.193	0.174
-124.239	-20.346	-0.209	0.127
-123.224	-200.000	-0.019	0.129
-122.210	-200.000	-0.012	-0.170
