DTS Sentinel unit serial number:	SN413079Multiplexer serial number:	ORYXHardware model number:	OX4-SRSoftware version number:	ORYX F/W v4.00 Oryx Data Collector v3.7.2.0data status	okinstallation	princeton_trtdifferential loss correction	single-endedforward channel	channel 1reverse channel	N/Adate	2019/09/17time	11:26:35forward acquisition time	60.00reverse acquisition time	0.00gamma	496.2192k internal	0.2323k external	0.2323temperature offset calibration	0.9969default loss term (dB/km)	0.3790temperature slope calibration	1.0000multiplexer offset coefficient	1.0000multiplexer slope coefficient	1.0000fibre end	0.00T internal ref (°C)	30.62T ext. ref 1 (°C)	0.34T ext. ref 2 (°C)	26.36length (m)	temperature (°C)	Stokes	anti-Stokes-747.200	46.175	-0.046	0.043
-746.185	-144.680	-0.221	-0.021
-745.171	-200.000	0.002	-0.158
-744.156	450.478	0.034	0.076
-743.142	800.000	0.037	0.131
-742.127	-17.921	-0.382	-0.242
-741.112	-90.248	0.382	0.112
-740.098	-200.000	-0.015	-0.169
-739.083	124.492	0.211	-0.269
-738.069	800.000	0.120	0.356
-737.054	163.444	0.112	0.159
-736.039	-112.449	-0.312	0.063
-735.025	-115.462	0.516	0.098
-734.010	51.133	-0.176	0.169
-732.996	-51.688	-0.487	0.229
-731.981	38.156	0.321	-0.288
-730.966	62.519	-0.288	-0.290
-729.952	-200.000	-0.086	-0.523
-728.937	454.991	-0.035	-0.077
-727.923	-110.049	-0.101	-0.021
-726.908	-3.926	-0.300	0.210
-725.894	332.048	-0.215	-0.419
-724.879	-159.725	-0.343	-0.019
-723.864	-91.204	0.120	-0.035
-722.850	402.130	-0.106	-0.225
-721.835	610.476	-0.056	-0.141
-720.821	-148.287	-0.449	0.037
-719.806	-72.452	0.295	-0.110
-718.791	542.473	-0.160	-0.385
-717.777	-61.044	-0.222	0.094
-716.762	-200.000	0.037	-0.375
-715.748	-200.000	0.042	-0.235
-714.733	-44.826	-0.174	0.087
-713.718	-23.611	-0.101	-0.061
-712.704	-200.000	-0.072	-0.323
-711.689	-130.693	-0.059	0.008
-710.675	-2.967	0.188	0.132
-709.660	-88.232	-0.218	0.066
-708.645	545.155	0.079	-0.191
-707.631	-200.000	-0.008	-0.068
-706.616	-77.861	-0.411	0.143
-705.602	213.586	-0.091	0.146
-704.587	-96.297	-0.159	0.042
-703.572	78.802	-0.224	-0.242
-702.558	87.485	-0.236	-0.264
-701.543	-115.672	0.198	0.037
-700.529	-76.385	-0.247	0.088
-699.514	-200.000	0.000	-0.320
-698.499	-173.463	-0.433	-0.013
-697.485	76.410	-0.324	-0.347
-696.470	-200.000	-0.008	0.058
-695.456	-45.939	0.296	0.147
-694.441	280.046	0.066	-0.119
-693.426	19.210	-0.124	-0.101
-692.412	70.085	-0.201	-0.209
-691.397	-14.650	-0.262	-0.169
-690.383	-82.284	0.424	0.139
-689.368	-200.000	-0.019	0.594
-688.354	466.893	-0.077	0.175
-687.339	-200.000	0.041	-0.303
-686.324	-148.866	0.152	0.012
-685.310	800.000	0.056	0.194
-684.295	-70.292	-0.144	-0.055
-683.281	-110.044	-0.073	0.015
-682.266	-114.755	0.195	-0.038
-681.251	800.000	0.042	0.154
-680.237	-47.716	-0.366	-0.179
-679.222	23.244	-0.252	0.209
-678.208	65.503	-0.354	0.361
-677.193	-117.332	-0.270	-0.049
-676.178	-106.641	0.093	0.021
-675.164	-200.000	0.010	-0.189
-674.149	-136.071	0.332	0.039
-673.135	-92.492	0.074	-0.021
-672.120	131.442	-0.204	-0.264
-671.105	35.228	-0.099	0.087
-670.091	-69.425	0.472	0.182
-669.076	-200.000	-0.033	-0.298
-668.062	134.215	0.281	-0.366
-667.047	78.375	0.117	-0.125
-666.032	-200.000	-0.014	-0.192
-665.018	310.556	-0.122	0.229
-664.003	413.120	0.123	-0.263
-662.989	-96.561	0.155	0.041
-661.974	-117.512	0.224	-0.041
-660.959	-164.215	0.395	0.018
-659.945	-84.601	0.202	0.064
-658.930	-200.000	0.063	0.303
-657.916	-118.329	0.051	-0.009
-656.901	800.000	0.021	0.064
-655.886	-136.057	-0.183	-0.022
-654.872	-46.192	0.193	-0.095
-653.857	201.912	0.009	0.014
-652.843	-5.364	-0.358	0.248
-651.828	-163.968	0.253	-0.012
-650.814	800.000	0.037	0.112
-649.799	23.545	0.132	0.109
-648.784	160.427	-0.140	0.197
-647.770	-25.859	-0.061	0.036
-646.755	45.823	0.486	-0.452
-645.741	-119.233	-0.425	0.075
-644.726	32.816	-0.261	0.227
-643.711	-35.913	0.167	-0.091
-642.697	469.340	-0.056	0.127
-641.682	9.876	0.103	0.079
-640.668	-5.535	-0.055	0.038
-639.653	-30.405	-0.226	-0.129
-638.638	257.956	-0.045	-0.078
-637.624	-113.747	0.225	-0.044
-636.609	-200.000	-0.013	-0.226
-635.595	-200.000	0.024	-0.137
-634.580	16.606	-0.230	-0.183
-633.565	800.000	0.093	-0.267
-632.551	-5.699	-0.183	0.126
-631.536	-200.000	0.022	0.223
-630.522	-70.391	0.215	0.082
-629.507	293.102	-0.112	-0.206
-628.492	358.372	-0.046	-0.093
-627.478	68.618	0.109	-0.113
-626.463	218.567	-0.161	0.258
-625.449	-200.000	-0.002	-0.341
-624.434	349.246	0.078	-0.156
-623.419	-141.605	0.260	0.026
-622.405	156.292	0.181	0.252
-621.390	800.000	-0.016	-0.054
-620.376	38.029	0.093	-0.084
-619.361	502.282	-0.068	-0.158
-618.346	43.921	-0.155	-0.143
-617.332	196.072	-0.113	0.172
-616.317	-83.901	0.230	-0.074
-615.303	-19.236	-0.270	0.168
-614.288	-200.000	0.013	-0.065
-613.273	138.073	-0.118	0.156
-612.259	-200.000	-0.031	-0.139
-611.244	-83.138	-0.165	-0.053
-610.230	-99.695	0.100	-0.025
-609.215	-136.362	-0.177	-0.021
-608.201	69.170	-0.021	0.022
-607.186	-85.251	0.166	0.052
-606.171	154.685	0.230	0.318
-605.157	800.000	0.041	-0.122
-604.142	290.004	-0.067	-0.122
-603.128	-172.081	0.347	-0.011
-602.113	-200.000	0.018	-0.161
-601.098	-200.000	-0.024	0.108
-600.084	-200.000	-0.017	-0.080
-599.069	58.545	0.110	0.109
-598.055	-13.300	-0.197	-0.129
-597.040	-121.024	0.248	0.042
-596.025	77.958	-0.105	0.112
-595.011	242.138	0.134	0.224
-593.996	39.647	-0.087	0.078
-592.982	56.678	-0.198	-0.194
-591.967	699.485	0.029	0.077
-590.952	110.693	-0.078	-0.094
-589.938	-135.640	0.115	-0.014
-588.923	800.000	0.091	0.354
-587.909	11.452	-0.107	-0.083
-586.894	-113.165	-0.055	-0.011
-585.879	1.629	-0.162	0.117
-584.865	298.622	-0.129	-0.238
-583.850	422.304	-0.063	-0.135
-582.836	-22.029	0.067	0.041
-581.821	101.101	-0.217	-0.253
-580.806	800.000	-0.156	-0.477
-579.792	-25.395	0.184	-0.109
-578.777	-62.856	0.125	0.052
-577.763	800.000	-0.040	0.126
-576.748	-31.352	0.291	0.164
-575.733	-200.000	-0.039	-0.394
-574.719	175.476	0.039	0.057
-573.704	23.156	-0.103	-0.085
-572.690	800.000	-0.122	0.476
-571.675	-131.704	-0.116	-0.015
-570.661	-116.066	-0.092	0.017
-569.646	53.629	-0.212	0.204
-568.631	-113.147	-0.118	-0.023
-567.617	-200.000	-0.039	0.382
-566.602	59.171	-0.028	-0.028
-565.588	-27.005	0.249	-0.146
-564.573	-122.427	-0.358	-0.058
-563.558	15.011	0.261	0.205
-562.544	-200.000	-0.015	0.107
-561.529	7.578	-0.317	0.238
-560.515	-200.000	0.012	0.188
-559.500	94.489	-0.243	-0.277
-558.485	179.360	-0.030	-0.044
-557.471	44.862	-0.058	0.054
-556.456	-54.409	-0.204	0.093
-555.442	80.433	0.186	0.201
-554.427	-95.854	0.125	-0.033
-553.412	800.000	-0.077	0.258
-552.398	76.625	0.290	0.309
-551.383	-20.505	-0.084	-0.051
-550.369	-48.153	-0.292	0.141
-549.354	-200.000	-0.015	0.312
-548.339	26.923	-0.091	-0.077
-547.325	-200.000	0.016	-0.085
-546.310	-81.243	-0.292	-0.097
-545.296	35.094	-0.128	0.112
-544.281	146.144	-0.165	0.222
-543.266	-75.334	-0.141	-0.050
-542.252	781.560	-0.093	0.254
-541.237	230.612	0.151	0.247
-540.223	490.510	-0.061	-0.139
-539.208	-147.168	-0.029	-0.002
-538.193	-125.565	0.297	-0.045
-537.179	302.539	0.272	0.504
-536.164	203.363	0.296	0.459
-535.150	-109.206	0.106	-0.023
-534.135	-200.000	0.028	-0.275
-533.121	18.818	-0.192	-0.154
-532.106	800.000	-0.009	-0.028
-531.091	800.000	0.052	0.171
-530.077	78.922	0.190	-0.203
-529.062	144.519	-0.123	-0.164
-528.048	80.432	0.027	0.029
-527.033	-8.843	0.240	0.161
-526.018	28.341	0.203	-0.172
-525.004	-89.526	-0.134	-0.039
-523.989	-200.000	-0.009	-0.224
-522.975	-49.429	-0.141	0.067
-521.960	-50.464	0.205	-0.097
-520.945	800.000	0.082	0.234
-519.931	55.149	0.215	-0.208
-518.916	800.000	0.054	-0.189
-517.902	137.365	0.068	0.089
-516.887	-176.856	0.283	0.007
-515.872	-200.000	0.022	0.172
-514.858	555.163	0.095	-0.228
-513.843	-21.645	0.150	0.092
-512.829	177.189	0.117	0.170
-511.814	-200.000	-0.035	0.215
-510.799	-5.833	0.241	0.165
-509.785	-7.864	-0.163	-0.110
-508.770	424.018	0.036	-0.077
-507.756	-200.000	0.025	0.272
-506.741	800.000	0.035	0.144
-505.726	-142.048	0.113	-0.011
-504.712	85.570	0.023	-0.025
-503.697	-7.488	-0.080	0.054
-502.683	800.000	0.036	0.142
-501.668	12.094	-0.241	0.186
-500.653	-67.176	-0.062	0.024
-499.639	-200.000	0.038	0.206
-498.624	543.141	0.163	0.389
-497.610	-168.102	0.176	0.007
-496.595	-60.223	-0.156	-0.067
-495.581	-179.185	0.147	0.003
-494.566	-200.000	0.005	-0.224
-493.551	-185.900	0.441	0.007
-492.537	-33.556	-0.114	-0.063
-491.522	39.936	-0.294	0.264
-490.508	-200.000	-0.083	-0.428
-489.493	-103.108	-0.211	0.050
-488.478	118.134	0.127	-0.157
-487.464	-39.081	-0.408	-0.215
-486.449	-139.903	0.021	-0.002
-485.435	228.944	-0.074	0.120
-484.420	-200.000	-0.014	-0.218
-483.405	-200.000	0.006	-0.127
-482.391	162.480	-0.206	-0.289
-481.376	52.550	-0.067	-0.064
-480.362	800.000	-0.065	0.270
-479.347	800.000	0.040	-0.116
-478.332	800.000	-0.053	-0.164
-477.318	-68.983	0.081	0.031
-476.303	-37.157	-0.138	-0.074
-475.289	-57.927	0.129	-0.056
-474.274	-95.528	0.159	-0.043
-473.259	-119.748	-0.315	-0.054
-472.245	36.639	0.176	0.155
-471.230	-200.000	0.008	0.069
-470.216	-91.506	0.194	-0.055
-469.201	91.865	0.165	0.186
-468.186	-142.780	0.195	-0.019
-467.172	192.603	-0.087	-0.131
-466.157	-4.262	0.051	0.035
-465.143	127.817	-0.066	-0.084
-464.128	74.551	-0.090	0.095
-463.113	-8.242	0.274	-0.184
-462.099	-31.241	0.225	-0.126
-461.084	-54.610	-0.066	-0.030
-460.070	741.173	-0.042	-0.113
-459.055	754.379	0.072	-0.194
-458.040	-23.373	0.149	-0.089
-457.026	622.290	-0.121	0.304
-456.011	612.482	0.072	0.181
-454.997	17.094	-0.202	-0.160
-453.982	-0.027	0.221	-0.157
-452.968	-200.000	-0.017	0.150
-451.953	-123.887	0.041	0.006
-450.938	247.074	0.110	0.186
-449.924	547.448	-0.092	0.220
-448.909	-136.280	0.215	0.025
-447.895	193.851	0.182	0.275
-446.880	-166.857	0.040	0.002
-445.865	-91.072	0.042	0.012
-444.851	88.669	0.138	0.154
-443.836	800.000	-0.128	0.424
-442.822	800.000	-0.061	0.238
-441.807	-91.246	-0.077	0.022
-440.792	297.823	0.088	0.161
-439.778	-155.463	-0.225	-0.014
-438.763	545.511	-0.027	-0.066
-437.749	-200.000	-0.017	0.120
-436.734	-4.872	0.157	-0.108
-435.719	-157.659	0.253	-0.015
-434.705	-200.000	0.012	-0.166
-433.690	46.371	0.133	0.123
-432.676	288.106	-0.173	-0.312
-431.661	-200.000	0.040	-0.450
-430.646	-200.000	-0.046	0.297
-429.632	800.000	0.074	0.289
-428.617	207.707	0.105	-0.164
-427.603	-79.813	0.312	0.105
-426.588	-74.695	0.089	0.032
-425.573	8.806	-0.220	-0.165
-424.559	-200.000	0.101	-0.453
-423.544	136.842	-0.143	-0.187
-422.530	-200.000	-0.015	-0.169
-421.515	-42.968	-0.331	0.167
-420.500	-26.891	0.241	0.140
-419.486	-93.036	0.404	-0.112
-418.471	-143.502	0.243	-0.023
-417.457	-136.146	-0.279	-0.033
-416.442	-200.000	0.018	-0.118
-415.428	-172.754	0.416	0.013
-414.413	-182.963	-0.265	-0.005
-413.398	127.574	-0.179	-0.227
-412.384	138.136	-0.366	-0.478
-411.369	-111.081	-0.084	-0.017
-410.355	23.312	-0.101	-0.083
-409.340	1.560	0.111	-0.080
-408.325	-31.689	-0.125	-0.070
-407.311	410.505	-0.105	0.222
-406.296	-121.260	0.232	-0.039
-405.282	66.013	-0.054	-0.055
-404.267	-114.341	0.168	-0.032
-403.252	58.498	0.277	0.271
-402.238	277.644	-0.078	0.139
-401.223	137.585	-0.035	-0.046
-400.209	79.735	0.077	0.083
-399.194	5.029	0.150	0.110
-398.179	54.700	-0.179	0.172
-397.165	52.485	-0.015	-0.014
-396.150	-167.760	0.253	0.010
-395.136	170.703	-0.098	0.140
-394.121	-37.485	0.096	-0.051
-393.106	777.708	0.081	-0.220
-392.092	-43.098	-0.244	0.123
-391.077	-38.137	-0.291	0.154
-390.063	667.568	-0.121	-0.310
-389.048	-200.000	-0.016	-0.334
-388.033	-133.551	-0.297	-0.037
-387.019	-167.606	0.245	0.010
-386.004	-25.253	-0.233	0.137
-384.990	-49.245	0.327	-0.156
-383.975	79.705	0.283	-0.303
-382.960	0.962	-0.219	0.156
-381.946	-114.984	-0.104	0.020
-380.931	142.985	-0.215	-0.285
-379.917	-140.686	0.171	-0.018
-378.902	221.552	0.041	-0.065
-377.888	-66.198	-0.077	0.030
-376.873	-125.770	-0.181	0.027
-375.858	-47.710	-0.232	0.112
-374.844	-98.978	-0.376	0.095
-373.829	800.000	0.099	0.309
-372.815	-93.306	0.079	0.022
-371.800	-54.171	0.133	-0.060
-370.785	-54.421	-0.279	0.126
-369.771	-136.521	-0.227	0.026
-368.756	-200.000	0.023	-0.127
-367.742	-45.087	-0.177	0.088
-366.727	2.939	-0.251	0.181
-365.712	119.081	-0.119	0.147
-364.698	75.487	0.313	-0.329
-363.683	103.511	-0.053	0.062
-362.669	-200.000	-0.002	0.260
-361.654	62.026	0.397	0.394
-360.639	-75.242	-0.132	0.047
-359.625	256.347	-0.118	0.202
-358.610	-200.000	-0.014	0.101
-357.596	45.064	0.265	-0.243
-356.581	-190.427	-0.417	0.005
-355.566	-90.403	0.267	0.077
-354.552	-66.619	-0.128	0.050
-353.537	156.392	-0.183	-0.251
-352.523	-69.333	-0.154	-0.059
-351.508	-12.487	0.181	0.117
-350.493	331.517	0.040	-0.077
-349.479	-15.564	-0.338	-0.214
-348.464	-200.000	0.011	0.129
-347.450	126.466	0.209	0.262
-346.435	-200.000	-0.026	-0.247
-345.420	89.176	-0.170	0.188
-344.406	330.142	0.096	0.183
-343.391	-200.000	-0.013	0.148
-342.377	-140.318	-0.159	0.017
-341.362	-117.955	0.266	0.047
-340.348	-200.000	0.011	-0.134
-339.333	-10.874	-0.199	0.131
-338.318	139.207	-0.020	0.026
-337.304	337.896	0.088	0.170
-336.289	71.179	0.035	-0.036
-335.275	-23.882	-0.207	-0.123
-334.260	260.284	0.225	0.387
-333.245	800.000	0.094	-0.408
-332.231	-200.000	0.021	-0.367
-331.216	-97.533	-0.364	0.094
-330.202	29.718	-0.088	-0.074
-329.187	4.071	-0.098	0.072
-328.172	-200.000	-0.016	-0.123
-327.158	-200.000	0.001	-0.122
-326.143	800.000	-0.046	-0.154
-325.129	-200.000	-0.034	-0.228
-324.114	-60.875	0.218	0.091
-323.099	-108.284	0.268	0.058
-322.085	-107.565	0.108	0.024
-321.070	74.678	0.264	0.276
-320.056	10.851	0.067	-0.051
-319.041	112.399	0.079	0.095
-318.026	158.669	-0.221	0.304
-317.012	-149.817	-0.616	0.048
-315.997	-110.582	-0.250	0.051
-314.983	800.000	0.114	-0.363
-313.968	-116.421	0.373	0.068
-312.953	-200.000	-0.025	0.195
-311.939	9.249	0.222	0.166
-310.924	-43.034	0.053	0.027
-309.910	352.224	-0.169	0.333
-308.895	-11.638	-0.076	0.050
-307.880	87.532	-0.283	-0.311
-306.866	-140.240	0.458	0.048
-305.851	-133.093	-0.366	-0.046
-304.837	800.000	-0.062	-0.200
-303.822	-84.149	0.197	0.062
-302.807	155.646	-0.128	-0.174
-301.793	800.000	0.030	-0.091
-300.778	-55.089	0.275	-0.123
-299.764	229.377	-0.151	-0.245
-298.749	-0.544	-0.274	-0.193
-297.735	401.903	-0.018	0.037
-296.720	4.766	0.208	-0.152
-295.705	72.172	-0.094	-0.097
-294.691	290.503	0.077	-0.138
-293.676	150.401	-0.084	0.113
-292.662	-185.347	0.241	-0.004
-291.647	-63.053	0.305	0.125
-290.632	-200.000	0.024	0.196
-289.618	-10.408	-0.253	0.167
-288.603	-200.000	0.088	0.594
-287.589	-49.451	-0.216	0.102
-286.574	-52.268	0.149	-0.069
-285.559	-184.945	0.354	0.006
-284.545	-87.868	0.140	0.042
-283.530	-200.000	-0.006	0.108
-282.516	278.175	-0.204	0.360
-281.501	-200.000	0.021	-0.129
-280.486	-200.000	0.013	0.292
-279.472	800.000	0.060	0.178
-278.457	-148.640	0.293	0.024
-277.443	73.240	-0.176	-0.182
-276.428	-47.903	-0.106	-0.051
-275.413	589.617	-0.124	-0.303
-274.399	-21.279	-0.115	-0.069
-273.384	-109.825	-0.178	0.037
-272.370	703.344	-0.022	-0.057
-271.355	-23.712	0.130	0.077
-270.340	275.138	0.201	0.353
-269.326	98.838	-0.041	0.047
-268.311	129.428	0.054	0.069
-267.297	-200.000	-0.030	-0.152
-266.282	-27.637	0.150	-0.087
-265.267	436.773	0.130	-0.280
-264.253	800.000	0.071	-0.246
-263.238	553.949	-0.085	-0.202
-262.224	-27.610	0.335	-0.193
-261.209	367.018	-0.082	0.165
-260.195	-200.000	0.015	0.092
-259.180	314.224	-0.072	-0.135
-258.165	128.404	0.072	0.090
-257.151	800.000	0.076	0.292
-256.136	-51.993	-0.253	-0.116
-255.122	-139.990	0.243	0.025
-254.107	446.812	-0.115	-0.250
-253.092	800.000	-0.085	0.253
-252.078	-120.541	-0.193	-0.032
-251.063	114.313	-0.076	-0.092
-250.049	220.423	0.114	0.182
-249.034	-70.797	0.176	0.066
-248.019	-86.640	-0.233	-0.071
-247.005	171.203	0.044	0.063
-245.990	-153.608	-0.354	0.024
-244.976	7.633	-0.153	-0.113
-243.961	-73.438	0.223	-0.081
-242.946	55.116	0.072	-0.069
-241.932	-154.620	-0.301	-0.020
-240.917	-83.179	-0.175	-0.056
-239.903	161.422	0.114	0.158
-238.888	-119.207	0.517	-0.089
-237.873	-155.877	-0.171	-0.011
-236.859	31.968	0.085	-0.072
-235.844	800.000	0.059	-0.179
-234.830	45.808	0.142	0.130
-233.815	-200.000	0.025	0.114
-232.800	-123.852	0.195	0.030
-231.786	176.794	-0.142	-0.204
-230.771	-20.202	0.146	0.089
-229.757	-122.548	-0.174	0.028
-228.742	-200.000	0.009	-0.078
-227.727	-200.000	-0.013	-0.065
-226.713	13.667	-0.203	-0.156
-225.698	32.235	-0.244	0.208
-224.684	46.151	-0.278	0.255
-223.669	153.806	-0.085	-0.116
-222.655	341.999	0.150	-0.289
-221.640	103.957	-0.250	-0.291
-220.625	-19.239	-0.067	0.041
-219.611	-72.862	0.303	-0.110
-218.596	-200.000	0.009	-0.161
-217.582	800.000	-0.057	-0.209
-216.567	-37.155	0.164	-0.087
-215.552	800.000	-0.112	0.407
-214.538	-200.000	0.024	0.237
-213.523	-94.344	-0.184	-0.050
-212.509	-63.503	-0.162	-0.066
-211.494	-72.173	-0.231	0.085
-210.479	-25.442	0.130	0.076
-209.465	800.000	-0.032	-0.100
-208.450	-200.000	0.006	0.073
-207.436	800.000	-0.045	0.140
-206.421	-158.756	0.337	0.019
-205.406	121.536	-0.129	-0.159
-204.392	58.951	0.219	-0.213
-203.377	55.236	-0.115	0.110
-202.363	-77.230	0.081	0.028
-201.348	-43.510	0.317	0.158
-200.333	202.032	0.104	0.158
-199.319	-83.154	0.172	-0.055
-198.304	252.779	-0.162	-0.273
-197.290	-63.387	-0.205	0.083
-196.275	166.208	0.038	0.053
-195.260	-32.468	0.068	0.037
-194.246	-200.000	-0.029	0.171
-193.231	-200.000	0.033	0.180
-192.217	236.523	-0.189	-0.310
-191.202	171.263	0.023	0.032
-190.187	168.093	-0.221	-0.311
-189.173	218.324	-0.059	0.093
-188.158	-200.000	0.016	0.296
-187.144	-200.000	0.132	-0.588
-186.129	800.000	0.049	-0.164
-185.114	-200.000	0.018	-0.352
-184.100	800.000	-0.083	-0.315
-183.085	38.963	-0.082	-0.072
-182.071	260.290	-0.111	-0.189
-181.056	800.000	-0.036	0.107
-180.042	57.720	0.184	0.178
-179.027	237.499	0.145	-0.238
-178.012	318.516	0.222	0.414
-176.998	1.185	-0.315	0.224
-175.983	43.242	0.118	0.106
-174.969	-142.480	0.112	0.011
-173.954	-200.000	-0.011	-0.181
-172.939	-119.883	-0.129	-0.022
-171.925	-179.336	0.276	-0.006
-170.910	-50.589	0.308	0.144
-169.896	-200.000	-0.039	0.220
-168.881	-53.357	-0.119	0.054
-167.866	-29.387	-0.285	-0.161
-166.852	-68.385	0.112	0.043
-165.837	-70.430	0.224	0.084
-164.823	181.668	0.148	-0.215
-163.808	-121.502	0.106	0.017
-162.793	-99.024	-0.149	-0.037
-161.779	800.000	0.050	0.195
-160.764	-200.000	0.047	-0.442
-159.750	-198.619	-0.151	-0.001
-158.735	-40.319	0.122	-0.063
-157.720	608.151	-0.107	0.262
-156.706	-200.000	0.065	-0.323
-155.691	-200.000	-0.013	-0.114
-154.677	800.000	0.023	0.065
-153.662	800.000	-0.136	-0.577
-152.647	-74.507	0.221	0.079
-151.633	29.219	-0.253	-0.212
-150.618	-0.838	-0.046	0.032
-149.604	-56.765	0.214	0.094
-148.589	-200.000	0.013	-0.076
-147.574	-200.000	-0.028	0.223
-146.560	45.172	0.247	-0.225
-145.545	181.818	0.067	-0.097
-144.531	800.000	0.082	-0.270
-143.516	800.000	-0.046	-0.182
-142.502	-112.197	-0.129	0.026
-141.487	-200.000	0.024	-0.345
-140.472	-200.000	0.465	-0.000
-139.458	-44.447	-0.108	-0.053
-138.443	-200.000	-0.010	-0.122
-137.429	-62.067	-0.286	0.118
-136.414	-2.996	-0.156	0.108
-135.399	800.000	-0.044	-0.142
-134.385	-24.773	0.438	-0.257
-133.370	-200.000	-0.004	0.155
-132.356	120.831	-0.124	0.152
-131.341	-124.539	0.316	-0.048
-130.326	-200.000	0.024	-0.222
-129.312	-200.000	0.046	0.214
-128.297	315.766	0.079	-0.147
-127.283	800.000	-0.064	-0.261
-126.268	-42.141	-0.449	0.226
-125.253	-200.000	0.009	0.164
-124.239	761.000	-0.019	-0.052
-123.224	-76.518	-0.059	0.021
-122.210	-27.911	-0.145	-0.083
-121.195	334.508	-0.065	0.123
