DTS Sentinel unit serial number:	SN413079Multiplexer serial number:	ORYXHardware model number:	OX4-SRSoftware version number:	ORYX F/W v4.00 Oryx Data Collector v3.7.2.0data status	okinstallation	princeton_trtdifferential loss correction	single-endedforward channel	channel 1reverse channel	N/Adate	2019/09/15time	02:26:35forward acquisition time	60.00reverse acquisition time	0.00gamma	496.2192k internal	0.2323k external	0.2323temperature offset calibration	0.9983default loss term (dB/km)	0.3790temperature slope calibration	1.0000multiplexer offset coefficient	1.0000multiplexer slope coefficient	1.0000fibre end	0.00T internal ref (°C)	31.56T ext. ref 1 (°C)	4.55T ext. ref 2 (°C)	26.00length (m)	temperature (°C)	Stokes	anti-Stokes-747.200	-200.000	-0.000	-0.173
-746.185	-200.000	-0.009	0.230
-745.171	800.000	0.029	-0.122
-744.156	289.383	-0.119	-0.219
-743.142	-105.000	0.129	0.030
-742.127	161.340	0.207	0.292
-741.112	-75.162	-0.206	-0.074
-740.098	-200.000	-0.002	-0.066
-739.083	291.192	-0.143	0.263
-738.069	-200.000	-0.010	-0.241
-737.054	289.613	0.055	-0.101
-736.039	-200.000	-0.006	-0.122
-735.025	-153.690	0.031	-0.002
-734.010	-1.007	0.170	0.122
-732.996	800.000	-0.038	0.120
-731.981	-200.000	-0.025	-0.138
-730.966	-153.249	-0.182	0.013
-729.952	-53.917	-0.144	-0.066
-728.937	-69.735	-0.370	-0.143
-727.923	3.726	-0.056	-0.042
-726.908	-138.342	-0.438	0.049
-725.894	-193.527	0.128	0.001
-724.879	24.699	-0.034	-0.029
-723.864	706.592	0.135	-0.361
-722.850	-56.189	-0.263	-0.118
-721.835	37.197	0.070	-0.063
-720.821	-200.000	-0.013	-0.077
-719.806	-70.018	0.343	0.132
-718.791	-71.811	0.082	0.031
-717.777	-200.000	-0.005	0.231
-716.762	-200.000	-0.002	-0.102
-715.748	-116.408	-0.404	0.075
-714.733	-200.000	0.064	0.344
-713.718	-200.000	-0.019	-0.148
-712.704	751.069	0.069	-0.187
-711.689	63.737	0.233	-0.236
-710.675	-38.874	-0.164	0.087
-709.660	242.038	0.050	-0.084
-708.645	64.577	0.053	0.053
-707.631	-1.240	0.215	-0.153
-706.616	36.963	0.087	-0.077
-705.602	-102.834	-0.149	0.036
-704.587	67.009	0.124	-0.127
-703.572	-45.870	-0.366	0.182
-702.558	-73.754	-0.131	-0.048
-701.543	-81.864	0.142	0.047
-700.529	-86.707	0.130	-0.040
-699.514	458.010	-0.167	-0.375
-698.499	-45.342	0.110	-0.055
-697.485	-200.000	-0.000	-0.049
-696.470	126.167	-0.023	0.030
-695.456	-111.662	-0.042	-0.009
-694.441	225.526	0.061	0.099
-693.426	-14.625	0.124	0.080
-692.412	-200.000	0.022	0.185
-691.397	-144.174	-0.141	0.013
-690.383	-144.269	-0.407	0.038
-689.368	293.616	0.070	-0.129
-688.354	-200.000	0.015	0.169
-687.339	153.162	0.075	0.103
-686.324	-200.000	-0.053	-0.238
-685.310	-200.000	-0.047	-0.285
-684.295	144.416	-0.136	-0.183
-683.281	800.000	0.062	0.229
-682.266	800.000	0.095	-0.402
-681.251	98.839	0.087	0.102
-680.237	-110.927	-0.049	-0.010
-679.222	228.616	-0.027	0.044
-678.208	441.247	0.085	-0.188
-677.193	184.557	0.103	-0.154
-676.178	38.549	-0.170	-0.152
-675.164	-200.000	-0.010	-0.050
-674.149	-94.260	0.174	-0.048
-673.135	365.799	0.011	0.022
-672.120	115.379	-0.211	-0.260
-671.105	800.000	-0.054	-0.157
-670.091	-200.000	-0.003	0.120
-669.076	800.000	0.022	0.073
-668.062	-107.816	0.168	-0.037
-667.047	-124.909	-0.252	0.039
-666.032	26.350	-0.261	-0.219
-665.018	-200.000	-0.002	-0.257
-664.003	-64.072	-0.206	0.085
-662.989	800.000	0.062	-0.178
-661.974	-87.275	0.315	-0.096
-660.959	-200.000	-0.024	-0.157
-659.945	148.458	-0.135	-0.183
-658.930	-200.000	0.011	0.226
-657.916	-8.008	0.185	0.126
-656.901	307.745	-0.112	-0.209
-655.886	-200.000	0.009	-0.052
-654.872	-110.561	0.316	-0.066
-653.857	360.599	0.108	-0.218
-652.843	-200.000	0.030	-0.324
-651.828	-153.816	-0.264	-0.018
-650.814	27.950	-0.170	-0.144
-649.799	40.642	0.150	-0.136
-648.784	-0.973	-0.041	-0.029
-647.770	647.667	-0.041	-0.104
-646.755	-165.167	-0.099	-0.004
-645.741	22.771	-0.080	0.066
-644.726	-81.878	-0.111	0.036
-643.711	-18.269	-0.215	-0.135
-642.697	64.920	0.120	0.122
-641.682	254.820	-0.136	-0.233
-640.668	800.000	-0.061	0.224
-639.653	70.517	0.129	0.134
-638.638	182.419	-0.141	-0.208
-637.624	-19.860	-0.219	-0.136
-636.609	-59.687	-0.391	0.168
-635.595	81.162	-0.191	0.208
-634.580	104.193	-0.179	0.212
-633.565	-171.565	-0.296	-0.010
-632.551	59.964	0.164	0.163
-631.536	-73.696	-0.178	0.065
-630.522	-200.000	0.001	-0.121
-629.507	85.676	0.124	-0.137
-628.492	800.000	-0.027	0.110
-627.478	261.570	-0.074	0.129
-626.463	96.830	-0.017	0.019
-625.449	-182.772	-0.143	0.003
-624.434	-200.000	-0.024	0.268
-623.419	164.213	0.052	0.074
-622.405	-39.151	0.171	-0.090
-621.390	-111.075	-0.361	0.074
-620.376	-200.000	-0.032	-0.333
-619.361	227.049	-0.194	0.316
-618.346	200.971	-0.093	-0.143
-617.332	-126.981	-0.109	0.016
-616.317	-33.713	0.137	0.076
-615.303	8.344	0.199	0.150
-614.288	98.945	0.091	0.105
-613.273	-200.000	0.018	0.145
-612.259	800.000	0.085	0.244
-611.244	-114.346	0.343	-0.066
-610.230	86.644	-0.070	-0.078
-609.215	800.000	0.050	0.159
-608.201	69.272	-0.266	0.275
-607.186	114.848	0.105	-0.128
-606.171	270.159	-0.117	-0.207
-605.157	-200.000	-0.014	0.228
-604.142	-68.284	0.222	-0.087
-603.128	255.152	-0.136	-0.234
-602.113	-120.994	-0.124	0.021
-601.098	-200.000	-0.075	-0.333
-600.084	41.820	-0.359	-0.327
-599.069	275.223	-0.076	-0.136
-598.055	16.181	0.139	-0.110
-597.040	33.572	-0.218	0.190
-596.025	-37.976	0.061	-0.032
-595.011	131.921	0.049	0.064
-593.996	-129.035	0.290	0.041
-592.982	-24.835	-0.125	-0.075
-591.967	10.319	-0.383	-0.293
-590.952	648.822	0.082	0.210
-589.938	53.888	-0.079	-0.077
-588.923	800.000	0.079	0.301
-587.909	-200.000	0.003	-0.400
-586.894	305.793	0.147	-0.274
-585.879	-73.262	-0.218	-0.080
-584.865	-10.849	0.139	0.092
-583.850	672.501	0.052	-0.136
-582.836	-200.000	0.011	0.185
-581.821	472.998	-0.105	-0.237
-580.806	-200.000	0.054	0.489
-579.792	469.753	-0.133	0.301
-578.777	744.630	-0.083	0.224
-577.763	-113.449	-0.506	-0.100
-576.748	158.252	-0.099	0.137
-575.733	384.663	0.073	-0.150
-574.719	192.217	-0.090	-0.136
-573.704	-200.000	-0.204	-0.001
-572.690	-131.333	0.366	0.049
-571.675	-200.000	0.025	-0.132
-570.661	464.980	0.084	-0.189
-569.646	-200.000	-0.001	0.165
-568.631	-165.157	-0.182	0.008
-567.617	279.232	0.060	-0.107
-566.602	-136.968	-0.141	-0.016
-565.588	-49.107	-0.266	-0.128
-564.573	656.182	0.086	0.221
-563.558	90.539	0.187	0.210
-562.544	800.000	0.046	0.144
-561.529	170.943	0.087	0.125
-560.515	-200.000	0.045	-0.235
-559.500	800.000	0.050	0.158
-558.485	-183.304	0.156	-0.003
-557.471	-127.919	0.113	-0.016
-556.456	-89.390	-0.287	0.085
-555.442	73.532	0.169	-0.178
-554.427	249.756	0.094	-0.160
-553.412	-129.560	-0.177	0.025
-552.398	158.929	0.328	-0.457
-551.383	105.385	0.141	-0.167
-550.369	116.794	0.166	-0.205
-549.354	-90.732	0.289	-0.084
-548.339	312.512	-0.085	0.160
-547.325	-70.832	0.083	-0.031
-546.310	-200.000	0.040	-0.230
-545.296	23.023	-0.236	0.194
-544.281	201.919	0.060	0.093
-543.266	-132.539	-0.284	0.037
-542.252	800.000	0.098	-0.307
-541.237	21.241	-0.383	0.311
-540.223	-68.958	0.072	-0.028
-539.208	-112.908	-0.051	-0.010
-538.193	-74.330	0.135	0.049
-537.179	302.671	-0.137	-0.254
-536.164	-119.051	-0.311	0.055
-535.150	100.833	0.196	0.229
-534.135	-140.492	0.259	-0.027
-533.121	-6.321	0.189	-0.129
-532.106	-123.948	0.141	-0.022
-531.091	117.316	-0.280	-0.344
-530.077	800.000	-0.081	-0.314
-529.062	94.653	-0.099	-0.112
-528.048	-200.000	-0.036	-0.282
-527.033	-122.353	-0.125	0.020
-526.018	-3.038	-0.047	0.033
-525.004	10.543	0.082	-0.063
-523.989	-200.000	-0.003	-0.247
-522.975	-200.000	0.009	0.227
-521.960	-89.637	-0.044	-0.013
-520.945	20.940	-0.076	-0.062
-519.931	800.000	0.047	-0.133
-518.916	47.108	0.209	-0.195
-517.902	13.610	-0.075	0.059
-516.887	78.420	0.297	0.317
-515.872	-200.000	0.026	-0.157
-514.858	-200.000	0.002	0.079
-513.843	-31.195	-0.197	-0.111
-512.829	-157.131	-0.282	-0.017
-511.814	-75.939	0.078	0.028
-510.799	-200.000	-0.011	0.226
-509.785	514.248	0.076	0.176
-508.770	-50.532	-0.110	0.052
-507.756	-165.055	0.065	0.003
-506.741	353.773	0.101	-0.200
-505.726	-169.454	-0.241	-0.009
-504.712	800.000	0.067	-0.269
-503.697	-136.084	-0.284	0.033
-502.683	150.889	-0.201	-0.274
-501.668	523.240	0.133	0.313
-500.653	754.615	-0.099	0.266
-499.639	-87.310	-0.194	-0.059
-498.624	-77.732	0.273	0.095
-497.610	256.375	-0.012	-0.020
-496.595	6.763	0.353	-0.263
-495.581	-83.796	0.241	-0.077
-494.566	800.000	0.044	0.130
-493.551	15.659	0.081	-0.064
-492.537	133.423	-0.196	-0.254
-491.522	184.945	0.070	0.103
-490.508	-85.245	0.245	0.077
-489.493	-166.677	0.356	-0.015
-488.478	-116.982	-0.427	0.078
-487.464	-200.000	-0.012	0.394
-486.449	-189.845	0.112	-0.001
-485.435	760.039	0.024	-0.065
-484.420	437.345	-0.113	-0.245
-483.405	-55.425	-0.311	-0.139
-482.391	-200.000	-0.041	0.253
-481.376	800.000	-0.127	0.551
-480.362	763.726	-0.178	0.482
-479.347	-64.532	0.271	0.110
-478.332	-97.134	0.178	0.047
-477.318	-200.000	0.007	0.286
-476.303	-5.861	-0.233	0.160
-475.289	-200.000	0.023	-0.109
-474.274	-200.000	0.023	0.239
-473.259	800.000	0.060	-0.193
-472.245	-116.261	-0.214	0.040
-471.230	-93.747	-0.288	0.079
-470.216	-200.000	-0.028	-0.176
-469.201	-63.471	-0.306	0.126
-468.186	797.938	-0.129	-0.355
-467.172	800.000	-0.102	0.312
-466.157	-136.312	-0.352	-0.041
-465.143	-40.068	0.266	0.138
-464.128	-47.273	0.259	0.126
-463.113	800.000	0.102	-0.339
-462.099	279.236	-0.135	0.242
-461.084	800.000	-0.025	-0.097
-460.070	800.000	0.078	0.299
-459.055	157.378	-0.010	0.013
-458.040	-103.725	0.143	0.033
-457.026	-200.000	0.027	-0.121
-456.011	69.695	0.202	0.208
-454.997	283.212	-0.187	0.335
-453.982	-200.000	0.023	-0.160
-452.968	67.692	-0.255	0.260
-451.953	467.111	0.025	0.056
-450.938	-200.000	0.012	0.237
-449.924	-30.660	-0.205	0.116
-448.909	534.512	-0.048	0.113
-447.895	800.000	0.088	0.326
-446.880	332.355	0.065	-0.125
-445.865	800.000	0.125	-0.528
-444.851	-200.000	0.030	-0.170
-443.836	-200.000	0.043	0.394
-442.822	-156.960	0.232	-0.014
-441.807	121.089	-0.352	0.438
-440.792	800.000	-0.019	0.068
-439.778	-91.588	0.545	-0.155
-438.763	-200.000	0.034	-0.355
-437.749	3.046	0.245	-0.178
-436.734	-42.846	0.364	0.185
-435.719	-109.151	0.178	-0.038
-434.705	-145.415	-0.145	-0.013
-433.690	92.669	-0.031	-0.035
-432.676	-200.000	-0.013	-0.302
-431.661	-44.535	0.039	-0.020
-430.646	-180.878	-0.438	-0.009
-429.632	-200.000	0.043	0.190
-428.617	306.341	-0.156	-0.290
-427.603	-5.275	0.167	0.114
-426.588	28.501	0.244	-0.206
-425.573	-122.801	-0.413	-0.067
-424.559	-200.000	0.035	-0.166
-423.544	252.670	0.098	0.167
-422.530	-160.838	-0.238	-0.013
-421.515	-200.000	0.002	-0.110
-420.500	-120.331	0.412	0.070
-419.486	56.533	0.219	-0.212
-418.471	37.509	0.151	-0.133
-417.457	800.000	0.106	-0.366
-416.442	-100.660	0.193	0.048
-415.428	-135.768	-0.446	-0.053
-414.413	-1.014	0.104	0.073
-413.398	-200.000	-0.004	-0.047
-412.384	-200.000	-0.035	0.205
-411.369	179.493	0.254	-0.370
-410.355	-200.000	-0.074	0.353
-409.340	26.698	0.175	0.146
-408.325	212.567	0.086	-0.136
-407.311	-200.000	0.043	0.224
-406.296	467.170	-0.120	-0.268
-405.282	-13.950	0.180	-0.116
-404.267	800.000	-0.029	-0.082
-403.252	188.700	0.172	-0.256
-402.238	-120.169	0.275	0.047
-401.223	-69.657	0.268	-0.102
-400.209	-163.327	0.195	0.009
-399.194	424.855	0.134	0.288
-398.179	-118.658	0.136	-0.024
-397.165	-200.000	-0.008	-0.199
-396.150	13.536	0.117	-0.090
-395.136	138.312	-0.125	0.163
-394.121	-65.442	-0.113	0.045
-393.106	800.000	-0.031	0.116
-392.092	800.000	0.025	0.093
-391.077	800.000	-0.086	0.340
-390.063	-59.424	-0.111	0.048
-389.048	131.030	-0.090	-0.115
-388.033	354.759	-0.094	0.186
-387.019	800.000	0.110	0.318
-386.004	113.207	-0.024	0.029
-384.990	307.407	0.051	-0.096
-383.975	116.452	-0.153	0.187
-382.960	-200.000	-0.026	0.195
-381.946	67.859	0.032	-0.033
-380.931	114.403	0.160	0.194
-379.917	-200.000	0.051	0.261
-378.902	93.675	-0.167	-0.189
-377.888	-200.000	0.014	-0.075
-376.873	-127.625	0.309	-0.044
-375.858	-200.000	-0.049	-0.293
-374.844	-97.687	-0.058	0.015
-373.829	56.482	-0.177	0.171
-372.815	-200.000	0.010	-0.476
-371.800	-16.506	0.077	0.048
-370.785	-27.372	0.159	-0.092
-369.771	-200.000	0.011	-0.122
-368.756	800.000	0.027	0.096
-367.742	443.268	-0.154	-0.336
-366.727	-39.710	-0.187	-0.098
-365.712	-48.697	-0.258	-0.123
-364.698	20.386	-0.177	-0.142
-363.683	-46.739	-0.165	-0.081
-362.669	-81.494	0.226	-0.074
-361.654	419.071	0.102	-0.217
-360.639	407.378	-0.041	0.087
-359.625	342.040	-0.125	-0.244
-358.610	10.845	-0.146	-0.111
-357.596	-200.000	0.030	-0.192
-356.581	-19.326	0.253	-0.156
-355.566	800.000	0.066	0.267
-354.552	735.187	0.065	-0.174
-353.537	-43.336	0.180	-0.091
-352.523	-134.871	-0.019	0.002
-351.508	-116.519	0.274	0.050
-350.493	-107.725	-0.139	0.030
-349.479	190.370	0.094	0.141
-348.464	-55.480	-0.221	-0.099
-347.450	800.000	-0.048	0.155
-346.435	800.000	0.075	0.263
-345.420	78.964	0.299	0.318
-344.406	-60.322	-0.250	-0.106
-343.391	-124.713	-0.540	0.083
-342.377	-200.000	-0.048	-0.558
-341.362	89.543	0.181	-0.201
-340.348	34.607	0.112	0.097
-339.333	-132.106	-0.194	0.025
-338.318	800.000	-0.079	0.284
-337.304	-200.000	0.048	0.235
-336.289	-200.000	0.046	-0.378
-335.275	-55.834	-0.238	0.106
-334.260	-200.000	0.026	-0.239
-333.245	85.604	0.085	0.093
-332.231	-28.148	-0.154	-0.088
-331.216	-200.000	-0.004	0.076
-330.202	-31.697	0.133	-0.074
-329.187	-16.664	0.146	-0.092
-328.172	800.000	0.092	-0.347
-327.158	66.704	-0.121	0.122
-326.143	800.000	0.111	0.307
-325.129	73.460	0.066	-0.069
-324.114	800.000	-0.097	0.274
-323.099	-135.184	-0.314	-0.037
-322.085	437.632	-0.094	0.203
-321.070	800.000	0.032	0.115
-320.056	378.241	0.080	-0.162
-319.041	103.549	-0.088	-0.102
-318.026	-45.554	-0.298	0.147
-317.012	800.000	0.080	-0.226
-315.997	800.000	0.035	-0.105
-314.983	800.000	-0.067	-0.193
-313.968	-94.023	0.179	-0.049
-312.953	-94.751	-0.236	-0.064
-311.939	43.961	-0.018	-0.016
-310.924	-89.862	-0.270	0.078
-309.910	-159.726	0.213	-0.012
-308.895	1.108	-0.258	0.184
-307.880	-99.816	-0.159	0.040
-306.866	25.073	0.060	0.049
-305.851	121.262	-0.065	0.081
-304.837	78.055	0.231	0.245
-303.822	560.471	0.087	0.208
-302.807	-129.824	-0.085	0.012
-301.793	57.779	-0.117	-0.114
-300.778	42.060	0.215	-0.194
-299.764	-142.642	0.235	0.023
-298.749	284.259	-0.120	0.215
-297.735	-49.506	-0.127	-0.060
-296.720	800.000	0.136	-0.446
-295.705	150.116	-0.240	-0.323
-294.691	-155.682	0.358	-0.023
-293.676	652.038	-0.106	0.270
-292.662	-200.000	0.050	-0.237
-291.647	142.999	-0.091	0.120
-290.632	85.103	-0.271	0.295
-289.618	-200.000	-0.031	0.229
-288.603	-87.898	0.094	0.028
-287.589	-142.098	0.200	0.020
-286.574	-143.479	0.357	-0.034
-285.559	-28.235	-0.161	-0.092
-284.545	123.137	-0.073	0.091
-283.530	229.258	0.134	0.216
-282.516	-200.000	0.015	-0.179
-281.501	311.732	0.080	-0.148
-280.486	628.804	0.035	-0.087
-279.472	-100.168	0.273	0.067
-278.457	-97.429	-0.127	-0.033
-277.443	0.354	-0.118	-0.084
-276.428	-104.659	-0.119	0.027
-275.413	62.926	0.186	0.184
-274.399	-151.162	0.125	0.009
-273.384	93.057	-0.108	0.121
-272.370	13.758	-0.256	0.198
-271.355	800.000	-0.090	-0.337
-270.340	197.082	0.123	-0.185
-269.326	-51.691	0.249	-0.115
-268.311	638.594	-0.038	0.095
-267.297	106.997	0.078	0.091
-266.282	-200.000	-0.018	0.094
-265.267	337.692	-0.060	0.116
-264.253	-192.592	-0.170	0.002
-263.238	31.447	0.279	0.237
-262.224	-58.230	0.349	0.151
-261.209	-194.427	-0.122	-0.001
-260.195	-32.856	-0.198	-0.109
-259.180	599.855	0.091	-0.223
-258.165	-60.442	-0.341	0.144
-257.151	-156.569	0.283	0.017
-256.136	-200.000	-0.057	0.386
-255.122	800.000	-0.119	0.325
-254.107	80.712	-0.189	0.202
-253.092	181.178	0.149	0.216
-252.078	-94.360	0.208	-0.056
-251.063	-200.000	-0.003	-0.344
-250.049	-47.874	-0.305	0.147
-249.034	-55.875	-0.145	-0.064
-248.019	800.000	-0.029	0.091
-247.005	298.173	0.096	0.175
-245.990	154.502	0.117	-0.159
-244.976	-40.936	0.045	-0.023
-243.961	-60.335	0.239	0.101
-242.946	-61.443	0.355	-0.148
-241.932	-134.059	-0.254	0.031
-240.917	35.422	0.344	0.299
-239.903	-46.039	-0.272	0.133
-238.888	108.615	-0.124	-0.146
-237.873	-175.982	0.381	-0.010
-236.859	-118.681	0.127	0.022
-235.844	-34.556	0.191	0.104
-234.830	38.795	0.132	-0.117
-233.815	-62.371	0.271	-0.111
-232.800	-148.422	-0.253	0.021
-231.786	90.110	-0.081	-0.089
-230.771	800.000	-0.013	-0.050
-229.757	-11.725	-0.052	0.034
-228.742	-120.214	0.200	-0.034
-227.727	16.043	0.076	-0.059
-226.713	-42.060	-0.200	-0.101
-225.698	-168.199	0.467	-0.018
-224.684	64.102	0.254	0.253
-223.669	-11.580	-0.112	0.073
-222.655	150.550	-0.116	0.157
-221.640	-112.154	0.389	0.077
-220.625	97.040	0.240	0.272
-219.611	-38.616	0.139	-0.073
-218.596	-165.158	0.253	-0.011
-217.582	336.281	0.057	0.110
-216.567	-11.711	-0.179	0.117
-215.552	-200.000	0.003	-0.242
-214.538	800.000	-0.043	0.185
-213.523	192.507	0.097	-0.145
-212.509	-100.330	-0.257	0.063
-211.494	-200.000	-0.015	-0.264
-210.479	-75.948	0.331	0.116
-209.465	178.799	0.128	0.185
-208.450	-145.506	0.252	-0.022
-207.436	-83.448	-0.252	-0.080
-206.421	231.420	-0.152	-0.246
-205.406	-200.000	0.007	0.086
-204.392	-100.665	0.115	-0.028
-203.377	286.255	-0.078	-0.138
-202.363	-147.162	-0.177	-0.015
-201.348	21.723	0.177	-0.142
-200.333	800.000	0.078	-0.329
-199.319	-49.901	0.200	-0.094
-198.304	670.072	-0.126	-0.324
-197.290	-90.652	0.237	-0.068
-196.275	800.000	0.025	0.071
-195.260	13.174	-0.324	-0.248
-194.246	-40.471	-0.159	-0.082
-193.231	319.373	-0.209	-0.392
-192.217	466.276	0.081	0.180
-191.202	-79.976	-0.414	-0.137
-190.187	96.088	-0.188	-0.212
-189.173	-3.759	0.249	0.171
-188.158	-200.000	-0.011	-0.207
-187.144	-200.000	-0.067	-0.620
-186.129	-133.561	-0.239	0.030
-185.114	95.746	-0.140	0.158
-184.100	-138.997	-0.181	0.019
-183.085	800.000	0.097	-0.314
-182.071	25.103	-0.238	-0.195
-181.056	145.691	0.142	-0.188
-180.042	103.425	-0.064	-0.074
-179.027	119.783	0.181	-0.222
-178.012	246.547	0.073	0.122
-176.998	-200.000	0.012	0.119
-175.983	215.966	0.212	0.332
-174.969	-200.000	-0.006	0.325
-173.954	-200.000	-0.002	0.335
-172.939	294.974	0.121	-0.219
-171.925	137.986	-0.047	-0.061
-170.910	800.000	-0.060	0.217
-169.896	-200.000	-0.037	0.187
-168.881	-106.428	0.097	0.021
-167.866	114.909	0.041	0.050
-166.852	135.374	0.092	0.119
-165.837	800.000	0.109	-0.334
-164.823	-200.000	0.047	0.546
-163.808	800.000	0.052	0.172
-162.793	68.147	-0.301	0.304
-161.779	23.462	0.198	0.160
-160.764	-131.983	0.174	-0.022
-159.750	-200.000	-0.016	0.199
-158.735	-200.000	-0.014	-0.137
-157.720	800.000	-0.018	-0.058
-156.706	441.359	0.085	0.184
-155.691	222.935	-0.029	-0.047
-154.677	145.926	-0.104	-0.137
-153.662	392.408	0.032	-0.066
-152.647	-200.000	-0.003	-0.162
-151.633	-34.100	-0.094	-0.051
-150.618	288.259	0.152	0.272
-149.604	193.616	0.068	0.102
-148.589	-200.000	0.051	0.227
-147.574	334.514	-0.034	-0.064
-146.560	-26.190	0.259	-0.150
-145.545	-200.000	0.010	-0.129
-144.531	-16.832	0.316	0.197
-143.516	-101.055	0.336	0.081
-142.502	-119.732	0.148	-0.025
-141.487	-16.653	0.274	0.171
-140.472	800.000	-0.022	0.064
-139.458	-2.315	0.328	0.227
-138.443	-35.556	0.087	-0.047
-137.429	-84.398	0.270	0.084
-136.414	186.343	-0.149	0.218
-135.399	800.000	-0.031	-0.099
-134.385	-51.508	-0.031	-0.014
-133.370	-126.189	0.404	-0.060
-132.356	-15.852	0.151	-0.095
-131.341	800.000	-0.037	0.121
-130.326	172.218	0.117	-0.165
-129.312	4.332	-0.290	-0.210
-128.297	104.672	0.055	-0.064
-127.283	276.927	0.122	0.214
-126.268	-82.660	0.187	0.060
-125.253	800.000	-0.058	0.225
-124.239	-200.000	0.037	-0.339
-123.224	-105.550	0.267	-0.060
-122.210	503.262	-0.077	0.176
