DTS Sentinel unit serial number:	SN413079Multiplexer serial number:	ORYXHardware model number:	OX4-SRSoftware version number:	ORYX F/W v4.00 Oryx Data Collector v3.7.2.0data status	okinstallation	princeton_trtdifferential loss correction	single-endedforward channel	channel 1reverse channel	N/Adate	2019/09/12time	18:14:34forward acquisition time	15.00reverse acquisition time	0.00gamma	496.2192k internal	0.2317k external	0.2317temperature offset calibration	1.0093default loss term (dB/km)	0.3790temperature slope calibration	1.0000multiplexer offset coefficient	1.0000multiplexer slope coefficient	1.0000fibre end	0.00T internal ref (°C)	33.50T ext. ref 1 (°C)	2.88T ext. ref 2 (°C)	28.08length (m)	temperature (°C)	Stokes	anti-Stokes-747.200	-11.672	0.331	-0.220
-746.185	800.000	0.046	-0.148
-745.171	61.273	0.588	-0.592
-744.156	49.449	0.521	-0.496
-743.142	-71.003	1.127	-0.429
-742.127	800.000	0.082	-0.362
-741.112	-19.978	0.983	-0.614
-740.098	47.175	-0.370	-0.348
-739.083	72.136	0.159	-0.168
-738.069	4.691	0.213	-0.158
-737.054	800.000	0.410	-1.516
-736.039	29.503	-0.561	-0.482
-735.025	51.309	0.327	0.314
-734.010	559.514	0.261	0.637
-732.996	-83.040	0.325	-0.106
-731.981	-36.991	-0.590	-0.320
-730.966	-79.150	-0.044	0.015
-729.952	217.945	-0.256	0.414
-728.937	514.095	-0.118	-0.278
-727.923	133.071	-0.274	-0.358
-726.908	-98.301	-0.986	0.256
-725.894	800.000	-0.187	-0.694
-724.879	-200.000	-0.020	0.301
-723.864	362.000	0.080	-0.162
-722.850	182.181	-0.427	-0.637
-721.835	-142.406	-0.244	0.024
-720.821	161.586	-0.249	-0.353
-719.806	-200.000	-0.133	-0.699
-718.791	800.000	0.076	0.225
-717.777	-200.000	0.023	-0.717
-716.762	33.928	-0.729	0.642
-715.748	-200.000	-1.158	-0.001
-714.733	539.106	-0.483	-1.163
-713.718	-19.110	-0.201	0.126
-712.704	-72.417	-0.227	-0.085
-711.689	800.000	0.146	0.478
-710.675	137.042	0.395	-0.522
-709.660	-200.000	0.026	0.226
-708.645	-112.533	-0.324	0.065
-707.631	-136.154	-0.371	-0.044
-706.616	-187.852	-0.220	-0.003
-705.602	38.816	0.452	-0.408
-704.587	315.790	-0.450	-0.858
-703.572	-200.000	0.215	-1.032
-702.558	800.000	-0.134	-0.432
-701.543	102.502	0.406	-0.480
-700.529	164.352	-0.289	0.412
-699.514	-56.964	0.822	0.367
-698.499	-200.000	-0.005	0.069
-697.485	-200.000	0.242	-1.224
-696.470	-33.241	-0.321	0.180
-695.456	-71.444	0.406	0.153
-694.441	-48.148	0.972	-0.474
-693.426	192.052	0.287	-0.437
-692.412	97.256	-0.184	-0.214
-691.397	-49.548	0.782	-0.376
-690.383	38.195	0.364	-0.328
-689.368	800.000	-0.194	-0.857
-688.354	12.734	-0.376	-0.294
-687.339	24.733	0.341	0.285
-686.324	208.203	-0.293	0.463
-685.310	-54.789	0.733	0.334
-684.295	776.786	0.135	0.372
-683.281	-190.344	0.648	0.007
-682.266	92.738	-0.488	-0.556
-681.251	-76.767	0.720	-0.254
-680.237	446.012	-0.169	0.375
-679.222	-46.125	-0.125	0.062
-678.208	-103.239	-0.544	-0.130
-677.193	-107.818	0.547	0.120
-676.178	-140.628	-0.068	-0.007
-675.164	-28.268	0.313	0.183
-674.149	-138.732	-0.510	-0.056
-673.135	-8.979	0.483	0.326
-672.120	300.395	-0.393	-0.732
-671.105	10.607	-0.258	-0.199
-670.091	146.819	-0.226	0.307
-669.076	514.360	0.301	-0.710
-668.062	800.000	0.380	-1.137
-667.047	-200.000	-0.009	-0.106
-666.032	-78.993	0.449	-0.154
-665.018	180.769	-0.386	-0.572
-664.003	-8.903	0.256	0.173
-662.989	744.476	-0.326	0.887
-661.974	-200.000	-0.038	0.229
-660.959	28.507	0.653	-0.558
-659.945	252.254	0.146	0.252
-658.930	-9.437	-0.766	0.516
-657.916	28.363	-0.433	-0.369
-656.901	92.795	-0.792	-0.902
-655.886	-200.000	-0.099	-0.635
-654.872	-125.851	-0.758	-0.115
-653.857	-200.000	-0.078	-0.699
-652.843	191.174	0.030	-0.046
-651.828	-109.705	0.595	0.126
-650.814	-18.714	0.154	0.097
-649.799	544.052	0.371	-0.894
-648.784	-95.403	0.382	-0.104
-647.770	-73.195	0.350	0.129
-646.755	328.527	0.382	0.739
-645.741	471.584	-0.221	-0.502
-644.726	-73.444	-0.404	-0.149
-643.711	800.000	-0.287	-0.970
-642.697	56.877	0.141	0.138
-641.682	88.397	0.614	-0.688
-640.668	46.752	0.548	-0.513
-639.653	-76.003	0.285	-0.102
-638.638	52.931	0.703	-0.678
-637.624	-200.000	0.070	-1.152
-636.609	-116.792	0.582	-0.108
-635.595	-200.000	-0.021	0.350
-634.580	581.205	0.067	-0.164
-633.565	-200.000	-0.200	-0.990
-632.551	-99.187	0.512	0.130
-631.536	8.395	0.608	0.461
-630.522	-35.587	0.274	0.150
-629.507	-152.101	-0.684	0.050
-628.492	-65.211	-0.831	0.337
-627.478	243.155	-0.136	-0.231
-626.463	98.386	-0.436	-0.507
-625.449	14.362	-0.350	0.275
-624.434	130.627	0.336	0.435
-623.419	-200.000	-0.041	0.749
-622.405	-72.141	0.404	-0.151
-621.390	-200.000	-0.082	-0.809
-620.376	-200.000	0.005	0.415
-619.361	-165.723	-0.322	0.014
-618.346	800.000	-0.221	0.641
-617.332	-181.337	-0.598	-0.012
-616.317	-88.868	0.130	0.039
-615.303	491.885	-0.218	0.502
-614.288	-200.000	-0.504	-0.002
-613.273	-109.483	0.637	-0.136
-612.259	-200.000	0.019	0.403
-611.244	-200.000	-0.016	0.973
-610.230	308.401	0.248	0.467
-609.215	186.729	-0.182	0.273
-608.201	250.285	-0.353	-0.603
-607.186	-89.733	-0.228	0.067
-606.171	-200.000	-0.010	0.095
-605.157	-23.733	-0.501	0.302
-604.142	-62.991	0.515	0.214
-603.128	-200.000	0.090	1.151
-602.113	-69.901	-0.702	0.269
-601.098	7.355	0.174	-0.131
-600.084	-112.413	-0.306	-0.062
-599.069	-186.236	0.099	-0.001
-598.055	337.216	0.147	0.287
-597.040	800.000	-0.178	0.700
-596.025	-200.000	0.025	0.460
-595.011	-200.000	0.021	0.218
-593.996	-114.597	-0.537	0.103
-592.982	-97.921	-0.623	0.162
-591.967	255.154	0.235	-0.405
-590.952	35.220	0.342	-0.301
-589.938	119.096	-0.251	0.313
-588.923	800.000	-0.053	0.150
-587.909	49.210	-0.584	-0.553
-586.894	96.377	-0.311	-0.358
-585.879	-200.000	0.027	0.319
-584.865	-124.657	-0.547	0.085
-583.850	388.235	-0.442	-0.920
-582.836	-14.548	-0.044	-0.029
-581.821	-28.293	0.893	-0.519
-580.806	246.421	-0.261	0.442
-579.792	3.059	-0.471	-0.344
-578.777	-15.014	0.894	-0.576
-577.763	-8.963	-0.619	-0.417
-576.748	-85.014	0.694	-0.219
-575.733	119.681	0.055	0.069
-574.719	146.323	0.272	-0.367
-573.704	381.719	0.195	-0.403
-572.690	23.279	0.640	-0.529
-571.675	-38.027	-0.477	-0.255
-570.661	-119.763	-0.113	-0.020
-569.646	-200.000	-0.026	0.688
-568.631	15.823	0.593	0.469
-567.617	15.948	-0.084	-0.066
-566.602	-29.588	0.060	0.035
-565.588	-113.086	1.169	-0.232
-564.573	-200.000	-0.164	0.759
-563.558	-200.000	0.048	-0.767
-562.544	-133.923	-0.247	-0.031
-561.529	-200.000	0.072	-0.542
-560.515	-37.067	0.926	-0.499
-559.500	-64.950	0.776	-0.315
-558.485	98.248	-0.422	-0.488
-557.471	17.154	0.667	-0.531
-556.456	365.762	-0.270	-0.546
-555.442	-12.808	-0.734	-0.480
-554.427	-105.773	-0.307	0.070
-553.412	60.553	0.332	-0.330
-552.398	-73.206	-0.457	-0.168
-551.383	-154.124	-0.408	0.028
-550.369	-200.000	-0.014	-0.368
-549.354	-105.339	-0.130	-0.030
-548.339	151.264	-0.601	0.822
-547.325	380.804	-0.433	0.893
-546.310	-200.000	-0.060	-0.358
-545.296	800.000	-0.165	-0.553
-544.281	800.000	-0.140	-0.500
-543.266	-3.976	-0.930	-0.648
-542.252	-113.619	1.036	-0.203
-541.237	800.000	-0.184	-0.600
-540.223	-200.000	-0.065	-0.588
-539.208	209.831	0.058	-0.091
-538.193	-200.000	0.089	1.507
-537.179	94.500	0.551	-0.629
-536.164	-18.155	0.346	-0.217
-535.150	800.000	0.079	0.259
-534.135	-37.987	0.081	-0.043
-533.121	113.466	0.852	1.039
-532.106	-80.384	0.553	0.185
-531.091	245.776	-0.226	0.382
-530.077	203.124	0.169	0.263
-529.062	-200.000	0.155	-0.850
-528.048	800.000	0.146	-0.456
-527.033	-111.387	-0.640	-0.131
-526.018	-169.948	-0.369	0.013
-525.004	595.685	-0.187	-0.465
-523.989	431.227	0.196	0.425
-522.975	-200.000	0.033	-0.319
-521.960	134.588	-0.582	0.757
-520.945	-115.360	-0.466	0.088
-519.931	579.586	-0.442	-1.086
-518.916	-42.994	0.786	0.400
-517.902	2.454	0.537	-0.390
-516.887	-170.194	-0.919	0.033
-515.872	133.396	0.126	0.163
-514.858	-122.557	-0.664	-0.108
-513.843	-112.802	0.423	0.084
-512.829	-112.309	-0.176	0.035
-511.814	-91.057	-0.772	0.222
-510.799	135.557	0.243	-0.317
-509.785	800.000	-0.073	-0.257
-508.770	786.479	0.157	0.431
-507.756	-38.328	0.679	0.361
-506.741	229.530	0.190	-0.311
-505.726	-68.296	0.114	-0.045
-504.712	71.056	0.346	-0.360
-503.697	-50.382	0.758	0.359
-502.683	-83.644	-0.443	-0.142
-501.668	-33.094	-0.545	-0.303
-500.653	-158.246	-0.800	-0.047
-499.639	47.010	0.400	0.373
-498.624	68.660	0.187	-0.192
-497.610	122.623	-0.714	-0.896
-496.595	-118.243	-0.520	0.093
-495.581	-200.000	0.140	0.850
-494.566	-112.023	-0.641	0.129
-493.551	391.567	0.120	0.250
-492.537	38.340	-0.301	0.269
-491.522	-200.000	-0.003	0.168
-490.508	-98.114	0.229	0.059
-489.493	-10.885	0.217	-0.144
-488.478	-121.525	-1.712	0.285
-487.464	102.090	-0.094	0.110
-486.449	-56.419	0.365	-0.162
-485.435	-79.121	-0.091	-0.031
-484.420	85.483	0.191	-0.211
-483.405	800.000	0.154	0.426
-482.391	800.000	-0.199	-0.563
-481.376	196.798	-0.251	0.384
-480.362	800.000	0.323	1.019
-479.347	-200.000	-0.025	-0.153
-478.332	-108.053	0.185	-0.040
-477.318	-78.239	-0.786	-0.270
-476.303	-40.527	-0.473	0.246
-475.289	106.455	0.403	0.478
-474.274	27.914	0.240	0.203
-473.259	-60.568	0.347	-0.147
-472.245	73.089	0.317	0.332
-471.230	-1.704	0.425	-0.300
-470.216	188.788	0.288	-0.432
-469.201	-200.000	0.030	-0.427
-468.186	33.587	0.685	0.596
-467.172	292.170	-0.293	-0.535
-466.157	22.577	-0.283	0.232
-465.143	800.000	0.136	-0.396
-464.128	91.855	0.312	-0.352
-463.113	-136.532	-0.269	0.031
-462.099	92.003	-0.365	-0.411
-461.084	-200.000	0.200	1.041
-460.070	-51.260	-0.720	0.337
-459.055	-16.949	-0.339	-0.214
-458.040	-200.000	0.104	0.484
-457.026	194.827	-0.112	-0.170
-456.011	68.129	-0.639	-0.655
-454.997	110.629	-0.507	-0.610
-453.982	211.283	-0.153	-0.240
-452.968	576.136	0.126	-0.308
-451.953	3.800	-0.328	-0.240
-450.938	-200.000	0.105	0.590
-449.924	664.857	0.083	0.215
-448.909	-55.698	0.504	-0.226
-447.895	44.802	0.632	0.582
-446.880	-200.000	-0.066	0.921
-445.865	69.912	0.527	-0.543
-444.851	5.916	0.830	0.615
-443.836	-200.000	0.115	-0.508
-442.822	-106.764	-0.516	-0.115
-441.807	-69.353	0.682	-0.262
-440.792	800.000	0.164	-0.497
-439.778	800.000	0.147	0.417
-438.763	-200.000	-0.038	-0.907
-437.749	683.752	-0.304	-0.792
-436.734	800.000	-0.124	-0.475
-435.719	-36.674	0.610	-0.328
-434.705	61.191	0.610	-0.606
-433.690	-128.370	0.275	0.039
-432.676	444.012	0.226	0.495
-431.661	800.000	-0.212	0.673
-430.646	800.000	0.044	0.165
-429.632	-48.003	0.174	-0.084
-428.617	800.000	-0.138	-0.455
-427.603	800.000	0.209	0.586
-426.588	800.000	0.094	0.370
-425.573	-200.000	-0.035	-0.588
-424.559	-85.197	0.604	-0.189
-423.544	-103.242	-0.144	0.034
-422.530	143.404	0.069	-0.092
-421.515	-131.850	-0.482	-0.063
-420.500	800.000	0.151	0.518
-419.486	-27.463	0.634	0.368
-418.471	-200.000	0.023	1.056
-417.457	60.076	0.399	0.394
-416.442	685.750	-0.031	0.082
-415.428	155.343	0.359	0.494
-414.413	7.698	0.381	0.285
-413.398	109.776	-0.207	0.248
-412.384	-143.449	-1.076	-0.103
-411.369	297.994	-0.064	0.117
-410.355	800.000	0.165	0.620
-409.340	800.000	-0.141	0.537
-408.325	-132.283	-0.101	0.013
-407.311	-135.506	0.366	0.044
-406.296	299.784	-0.298	-0.548
-405.282	-9.998	-0.583	0.387
-404.267	120.818	0.029	-0.036
-403.252	508.464	-0.398	0.923
-402.238	-79.254	-0.742	-0.251
-401.223	164.032	0.146	0.206
-400.209	349.896	0.334	0.659
-399.194	-200.000	-0.018	-0.382
-398.179	-170.164	-0.624	-0.022
-397.165	230.540	-0.483	0.789
-396.150	-96.448	0.582	0.153
-395.136	-96.003	-0.590	-0.157
-394.121	134.522	0.067	0.086
-393.106	-200.000	0.062	-0.506
-392.092	-200.000	0.022	0.145
-391.077	800.000	-0.151	0.639
-390.063	-71.337	0.752	0.281
-389.048	-200.000	0.026	-0.190
-388.033	97.291	-0.284	-0.326
-387.019	-200.000	-0.067	0.651
-386.004	190.220	-0.584	0.876
-384.990	-59.604	0.796	-0.341
-383.975	-75.526	-0.290	-0.103
-382.960	-47.005	-0.683	-0.333
-381.946	86.644	-0.320	-0.353
-380.931	-172.507	0.620	0.020
-379.917	284.262	0.289	0.519
-378.902	71.662	0.611	-0.634
-377.888	-200.000	0.131	0.739
-376.873	-43.777	0.409	0.206
-375.858	595.911	0.326	0.806
-374.844	45.038	-0.206	-0.190
-373.829	-200.000	-0.032	0.757
-372.815	40.120	0.100	0.090
-371.800	-200.000	-0.059	-0.661
-370.785	-185.950	0.532	-0.008
-369.771	-108.829	-0.645	-0.138
-368.756	-18.955	0.299	0.185
-367.742	-102.524	0.264	-0.063
-366.727	-200.000	0.004	-0.466
-365.712	-102.721	-0.522	-0.124
-364.698	321.425	0.387	-0.735
-363.683	-64.805	-0.062	-0.025
-362.669	-200.000	-0.054	0.415
-361.654	114.496	-0.321	-0.390
-360.639	-200.000	-0.461	-0.001
-359.625	66.313	-0.426	-0.432
-358.610	-200.000	0.138	0.930
-357.596	86.664	-0.159	0.175
-356.581	-100.508	-0.669	-0.165
-355.566	-84.351	-0.768	-0.242
-354.552	-81.937	1.015	0.331
-353.537	32.685	-0.223	0.193
-352.523	-8.366	0.631	0.423
-351.508	65.789	0.252	-0.255
-350.493	76.298	-0.408	-0.431
-349.479	-143.362	0.753	0.072
-348.464	-200.000	-0.079	0.359
-347.450	44.090	-0.752	0.687
-346.435	-200.000	-0.131	0.604
-345.420	-101.573	0.844	0.204
-344.406	270.781	-0.151	0.265
-343.391	-39.999	-0.255	-0.133
-342.377	114.758	0.126	-0.153
-341.362	-200.000	0.019	-0.159
-340.348	-3.412	0.420	-0.291
-339.333	-144.772	0.623	-0.057
-338.318	-6.528	0.713	0.484
-337.304	27.618	-0.134	-0.113
-336.289	-70.775	0.846	0.318
-335.275	65.874	0.303	-0.307
-334.260	-200.000	0.015	-0.354
-333.245	104.690	-0.087	-0.102
-332.231	-118.588	0.922	-0.162
-331.216	74.145	-0.041	0.043
-330.202	372.050	0.162	-0.328
-329.187	-200.000	0.036	0.423
-328.172	208.681	-0.234	0.364
-327.158	114.436	-0.109	-0.132
-326.143	-190.103	-0.605	0.007
-325.129	200.624	0.279	0.427
-324.114	-200.000	0.079	-0.391
-323.099	-96.101	-0.454	-0.120
-322.085	-57.325	-0.383	-0.167
-321.070	-90.754	0.105	-0.030
-320.056	190.717	-0.247	0.369
-319.041	-200.000	0.012	-0.787
-318.026	-76.125	-0.672	-0.236
-317.012	-137.973	-0.234	0.026
-315.997	157.168	-0.237	0.326
-314.983	800.000	0.209	-0.827
-313.968	-75.475	0.713	-0.253
-312.953	-200.000	0.040	0.321
-311.939	293.934	-0.438	0.796
-310.924	1.291	0.627	-0.449
-309.910	-64.451	0.428	-0.173
-308.895	-82.742	-0.173	-0.056
-307.880	800.000	-0.134	0.444
-306.866	8.667	-0.671	-0.503
-305.851	426.464	-0.403	-0.865
-304.837	-108.430	0.495	0.106
-303.822	-141.107	0.231	-0.024
-302.807	-40.171	0.409	0.212
-301.793	-24.364	0.249	-0.148
-300.778	-72.918	-0.605	-0.221
-299.764	-75.849	0.470	-0.166
-298.749	-45.670	0.367	-0.180
-297.735	-110.841	-0.425	0.087
-296.720	800.000	-0.081	0.283
-295.705	-40.722	0.276	-0.142
-294.691	-43.940	0.527	0.264
-293.676	97.324	0.431	0.492
-292.662	-200.000	-0.065	0.401
-291.647	23.999	0.521	0.427
-290.632	305.581	-0.060	-0.111
-289.618	45.163	-0.294	-0.270
-288.603	-200.000	-0.033	-0.564
-287.589	-100.971	-0.153	0.037
-286.574	-66.176	0.639	-0.253
-285.559	404.397	-0.452	0.947
-284.545	-53.951	-0.192	-0.087
-283.530	-55.280	0.657	-0.293
-282.516	337.439	-0.112	-0.216
-281.501	-168.163	-1.117	0.043
-280.486	74.009	0.095	0.099
-279.472	-120.824	0.596	-0.100
-278.457	-101.581	0.195	-0.047
-277.443	66.061	-0.806	0.813
-276.428	-20.080	-0.928	-0.569
-275.413	-59.094	0.314	0.135
-274.399	-145.381	0.319	-0.029
-273.384	800.000	0.087	0.329
-272.370	52.214	-0.512	-0.485
-271.355	571.796	0.268	-0.648
-270.340	-148.731	-0.329	-0.027
-269.326	110.731	-0.518	-0.620
-268.311	27.719	-0.345	-0.289
-267.297	-167.136	0.100	0.004
-266.282	-96.129	-0.384	-0.101
-265.267	800.000	0.014	0.055
-264.253	-19.521	0.305	-0.187
-263.238	-129.031	-0.770	-0.107
-262.224	-108.336	0.547	-0.117
-261.209	82.117	-0.239	0.257
-260.195	-200.000	-0.041	-0.754
-259.180	-200.000	0.009	0.215
-258.165	403.945	-0.027	-0.056
-257.151	800.000	0.143	0.598
-256.136	-132.508	0.267	0.034
-255.122	800.000	-0.114	-0.490
-254.107	-24.262	-0.419	-0.248
-253.092	-200.000	-0.111	-0.532
-252.078	-157.972	-0.934	0.055
-251.063	800.000	-0.053	-0.225
-250.049	-84.798	-0.281	-0.088
-249.034	251.731	-0.100	-0.170
-248.019	800.000	-0.086	-0.365
-247.005	-54.715	-0.402	-0.181
-245.990	800.000	0.141	-0.607
-244.976	800.000	0.153	-0.649
-243.961	435.148	0.037	-0.079
-242.946	800.000	-0.140	-0.476
-241.932	601.253	0.149	-0.368
-240.917	-89.377	-0.622	0.182
-239.903	82.404	-0.173	-0.187
-238.888	545.220	-0.283	0.671
-237.873	-72.260	0.394	0.145
-236.859	-102.566	0.393	0.093
-235.844	-137.645	0.673	-0.075
-234.830	800.000	-0.082	0.318
-233.815	144.849	0.274	-0.363
-232.800	-200.000	0.027	-0.202
-231.786	-200.000	0.002	-0.676
-230.771	88.453	-0.458	-0.505
-229.757	-104.407	0.457	-0.105
-228.742	-72.019	-0.595	0.220
-227.727	26.563	0.143	-0.119
-226.713	800.000	0.173	-0.490
-225.698	800.000	-0.172	0.658
-224.684	-80.379	-0.698	0.231
-223.669	713.609	0.258	0.678
-222.655	-27.606	1.216	-0.701
-221.640	-200.000	0.007	0.759
-220.625	-200.000	0.022	0.205
-219.611	216.993	0.529	0.835
-218.596	-126.548	-0.947	0.139
-217.582	43.433	-0.734	-0.665
-216.567	161.927	-0.222	0.308
-215.552	-200.000	0.061	0.330
-214.538	-18.312	-0.321	0.199
-213.523	800.000	-0.045	0.135
-212.509	59.762	0.566	-0.554
-211.494	508.175	0.200	0.461
-210.479	-77.602	0.657	0.225
-209.465	-169.615	0.448	0.016
-208.450	-181.143	0.278	-0.005
-207.436	-200.000	-0.039	-0.193
-206.421	-200.000	0.012	-0.157
-205.406	-73.112	0.243	-0.088
-204.392	-200.000	0.025	0.295
-203.377	403.115	0.146	-0.304
-202.363	-168.535	0.148	0.006
-201.348	103.831	-0.249	0.290
-200.333	174.351	0.217	-0.312
-199.319	22.289	-0.272	0.220
-198.304	19.816	0.223	-0.178
-197.290	336.316	-0.221	-0.425
-196.275	-52.461	0.934	0.428
-195.260	21.994	-0.440	0.356
-194.246	114.019	0.715	0.862
-193.231	52.829	-0.091	-0.086
-192.217	-18.536	0.240	0.149
-191.202	-200.000	-0.011	-0.380
-190.187	-132.720	-0.205	-0.026
-189.173	-29.934	-0.368	0.208
-188.158	-200.000	0.076	-0.439
-187.144	-200.000	-0.019	0.502
-186.129	-102.073	-0.655	0.156
-185.114	800.000	-0.183	0.612
-184.100	-56.315	0.794	-0.350
-183.085	800.000	-0.100	0.332
-182.071	412.464	0.258	0.542
-181.056	-103.975	0.399	0.092
-180.042	800.000	-0.060	-0.244
-179.027	-200.000	-0.077	0.371
-178.012	800.000	-0.227	-0.659
-176.998	355.937	-0.430	0.847
-175.983	-200.000	-0.025	-0.270
-174.969	85.140	0.420	0.456
-173.954	-200.000	-0.162	0.855
-172.939	-21.792	0.176	0.106
-171.925	126.909	0.414	-0.520
-170.910	592.458	-0.298	-0.728
-169.896	5.254	-0.636	0.464
-168.881	28.552	-0.379	0.317
-167.866	445.026	-0.238	-0.517
-166.852	-200.000	-0.048	0.343
-165.837	122.628	0.183	0.226
-164.823	-200.000	-0.130	-0.606
-163.808	-121.774	-0.353	0.058
-162.793	387.106	0.252	0.514
-161.779	-40.918	0.441	-0.226
-160.764	297.248	0.134	-0.243
-159.750	-81.673	-0.316	-0.103
-158.735	214.818	0.296	0.465
-157.720	229.845	-0.229	0.371
-156.706	178.276	0.417	-0.602
-155.691	-104.586	-0.528	-0.121
-154.677	-78.469	-0.420	0.142
-153.662	254.309	-0.283	0.480
-152.647	-200.000	-0.057	0.840
-151.633	-58.116	0.307	0.133
-150.618	10.542	-0.712	0.537
-149.604	-153.519	0.270	0.018
-148.589	130.429	0.289	0.366
-147.574	14.661	-0.334	-0.258
-146.560	-9.919	0.167	-0.110
-145.545	48.063	0.079	0.073
-144.531	-57.090	0.543	0.236
-143.516	-21.823	0.710	0.427
-142.502	1.383	-0.766	0.544
-141.487	-145.043	0.434	-0.039
-140.472	-61.590	-0.294	-0.122
-139.458	-200.000	0.037	0.398
-138.443	800.000	0.138	0.455
-137.429	175.471	0.124	0.177
-136.414	800.000	0.067	-0.218
-135.399	-86.070	-0.491	-0.150
-134.385	158.520	-0.198	0.272
-133.370	-46.619	0.581	-0.281
-132.356	4.579	0.753	0.546
-131.341	-103.700	1.135	-0.263
-130.326	-82.901	0.667	0.213
-129.312	15.257	0.167	-0.129
-128.297	-113.276	-0.351	0.068
-127.283	-34.395	-0.509	-0.276
-126.268	256.177	-0.334	-0.566
-125.253	-200.000	-0.131	0.640
-124.239	-85.915	0.378	-0.116
-123.224	36.868	0.590	-0.515
-122.210	5.126	0.143	-0.104
-121.195	-200.000	0.017	0.277
