DTS Sentinel unit serial number:	SN413079Multiplexer serial number:	ORYXHardware model number:	OX4-SRSoftware version number:	ORYX F/W v4.00 Oryx Data Collector v3.7.2.0data status	okinstallation	princeton_trtdifferential loss correction	single-endedforward channel	channel 1reverse channel	N/Adate	2019/09/17time	10:22:36forward acquisition time	60.00reverse acquisition time	0.00gamma	496.2192k internal	0.2323k external	0.2323temperature offset calibration	0.9962default loss term (dB/km)	0.3790temperature slope calibration	1.0000multiplexer offset coefficient	1.0000multiplexer slope coefficient	1.0000fibre end	0.00T internal ref (°C)	29.89T ext. ref 1 (°C)	0.17T ext. ref 2 (°C)	25.51length (m)	temperature (°C)	Stokes	anti-Stokes-747.200	-20.321	-0.104	0.065
-746.185	-28.720	-0.201	-0.117
-745.171	-54.487	0.147	0.067
-744.156	-200.000	-0.066	0.397
-743.142	-61.239	-0.170	-0.072
-742.127	-102.210	0.254	0.062
-741.112	-200.000	0.021	0.196
-740.098	800.000	-0.016	-0.066
-739.083	-176.271	0.257	-0.007
-738.069	338.261	-0.054	0.107
-737.054	606.048	0.105	-0.263
-736.039	-81.069	-0.372	0.124
-735.025	152.913	0.127	-0.175
-734.010	800.000	-0.168	0.471
-732.996	-200.000	-0.031	0.319
-731.981	131.389	-0.194	-0.252
-730.966	-34.919	-0.292	-0.161
-729.952	-32.838	0.052	-0.029
-728.937	314.662	0.070	-0.134
-727.923	48.037	-0.119	-0.112
-726.908	-200.000	0.000	-0.219
-725.894	550.258	0.056	-0.136
-724.879	123.359	-0.089	-0.113
-723.864	-157.542	0.184	0.011
-722.850	485.684	-0.033	0.076
-721.835	-68.339	0.046	-0.018
-720.821	-200.000	-0.009	0.235
-719.806	45.058	-0.188	-0.175
-718.791	-86.545	0.110	0.034
-717.777	-63.268	0.191	-0.080
-716.762	-66.089	-0.152	-0.061
-715.748	800.000	0.064	0.254
-714.733	-41.104	0.009	0.005
-713.718	-93.020	0.264	0.074
-712.704	10.401	-0.302	0.232
-711.689	83.826	-0.303	-0.333
-710.675	-89.920	-0.112	0.033
-709.660	398.167	-0.090	-0.191
-708.645	293.556	0.177	-0.326
-707.631	-53.170	-0.121	-0.056
-706.616	800.000	0.055	0.167
-705.602	74.114	0.290	0.307
-704.587	-103.193	0.152	0.036
-703.572	-200.000	0.013	0.180
-702.558	51.207	0.022	-0.021
-701.543	-111.906	-0.079	-0.016
-700.529	-32.885	0.113	-0.063
-699.514	-200.000	-0.050	-0.243
-698.499	296.022	-0.136	0.252
-697.485	-130.179	-0.217	-0.030
-696.470	115.864	-0.110	-0.135
-695.456	-42.462	0.135	0.069
-694.441	36.119	-0.315	0.280
-693.426	32.127	0.220	0.191
-692.412	-200.000	0.017	0.099
-691.397	-139.705	0.237	0.025
-690.383	13.581	-0.276	0.216
-689.368	-64.101	-0.045	0.019
-688.354	174.195	-0.105	0.153
-687.339	2.792	-0.059	0.043
-686.324	510.681	0.131	0.306
-685.310	262.464	-0.140	-0.245
-684.295	-146.083	-0.161	-0.014
-683.281	36.293	0.302	-0.268
-682.266	148.860	-0.016	-0.022
-681.251	-3.193	-0.175	-0.123
-680.237	-200.000	0.001	-0.071
-679.222	-200.000	-0.004	-0.062
-678.208	-84.128	-0.112	-0.036
-677.193	-123.163	0.187	0.030
-676.178	-127.728	0.204	0.030
-675.164	361.148	0.039	-0.078
-674.149	8.167	-0.118	-0.089
-673.135	-200.000	0.052	0.283
-672.120	44.239	-0.221	-0.205
-671.105	117.485	0.090	0.111
-670.091	622.906	0.089	-0.226
-669.076	28.440	0.097	-0.083
-668.062	-146.633	-0.177	0.015
-667.047	-200.000	-0.009	-0.255
-666.032	-98.145	0.101	0.026
-665.018	-90.693	-0.111	-0.032
-664.003	25.644	0.248	0.208
-662.989	51.977	-0.095	0.091
-661.974	24.740	-0.340	-0.283
-660.959	-200.000	-0.012	0.183
-659.945	800.000	-0.034	0.147
-658.930	800.000	-0.036	0.143
-657.916	481.056	0.012	0.028
-656.901	-55.881	-0.150	0.067
-655.886	57.734	-0.061	0.060
-654.872	319.461	-0.079	-0.152
-653.857	136.552	-0.043	-0.057
-652.843	-121.798	0.325	-0.054
-651.828	-61.872	-0.096	0.040
-650.814	212.047	0.177	-0.281
-649.799	-200.000	0.014	0.206
-648.784	-140.936	-0.047	0.005
-647.770	-93.989	-0.315	-0.087
-646.755	-200.000	0.037	-0.354
-645.741	800.000	0.107	-0.373
-644.726	-23.723	-0.152	0.092
-643.711	685.102	-0.077	0.202
-642.697	-20.093	0.084	-0.052
-641.682	406.414	-0.139	0.295
-640.668	-110.167	-0.336	-0.071
-639.653	223.038	-0.216	-0.350
-638.638	800.000	0.059	-0.250
-637.624	800.000	-0.038	-0.127
-636.609	-151.422	0.183	0.014
-635.595	-95.295	-0.185	0.050
-634.580	214.114	-0.098	0.156
-633.565	-87.013	-0.216	0.066
-632.551	42.279	0.173	-0.158
-631.536	226.799	-0.021	-0.034
-630.522	-149.064	0.265	-0.021
-629.507	-45.889	-0.231	-0.115
-628.492	-200.000	-0.052	0.280
-627.478	-8.747	0.036	-0.024
-626.463	-200.000	-0.073	0.441
-625.449	-143.561	-0.144	-0.014
-624.434	-200.000	0.001	-0.038
-623.419	-91.881	0.165	0.047
-622.405	-184.576	-0.137	-0.002
-621.390	356.730	0.250	-0.500
-620.376	-98.006	0.280	-0.073
-619.361	220.935	-0.101	-0.163
-618.346	-19.013	-0.173	0.108
-617.332	800.000	-0.022	0.064
-616.317	82.232	-0.122	0.133
-615.303	-200.000	-0.010	-0.076
-614.288	-60.251	0.117	-0.050
-613.273	505.533	-0.073	-0.170
-612.259	-18.735	0.134	-0.084
-611.244	-125.888	-0.266	0.040
-610.230	-200.000	0.048	0.243
-609.215	325.901	0.109	0.210
-608.201	-144.768	-0.145	-0.013
-607.186	800.000	0.091	0.294
-606.171	800.000	0.078	-0.260
-605.157	-200.000	0.013	0.264
-604.142	-36.890	0.215	0.116
-603.128	800.000	-0.066	0.226
-602.113	304.356	-0.183	0.340
-601.098	-70.971	0.111	-0.042
-600.084	31.041	-0.085	0.073
-599.069	-103.535	0.283	-0.067
-598.055	-146.657	-0.477	-0.042
-597.040	34.950	0.046	0.041
-596.025	800.000	0.074	-0.299
-595.011	-137.992	-0.051	0.006
-593.996	-132.218	-0.017	0.002
-592.982	-200.000	-0.053	0.341
-591.967	-200.000	0.031	0.231
-590.952	800.000	0.065	0.188
-589.938	-110.743	-0.226	0.047
-588.923	-60.775	-0.188	-0.080
-587.909	-200.000	0.302	-0.001
-586.894	47.427	-0.190	0.177
-585.879	101.112	-0.100	0.116
-584.865	-158.770	-0.183	-0.010
-583.850	267.511	-0.251	-0.441
-582.836	-200.000	-0.043	0.450
-581.821	-200.000	-0.037	-0.228
-580.806	29.658	-0.127	-0.109
-579.792	-51.707	-0.107	-0.050
-578.777	19.591	0.044	-0.035
-577.763	-132.025	0.048	0.006
-576.748	44.881	0.259	-0.240
-575.733	52.297	-0.426	-0.407
-574.719	27.377	0.070	-0.059
-573.704	-81.943	0.438	0.144
-572.690	-85.565	-0.316	-0.099
-571.675	800.000	0.056	-0.172
-570.661	-200.000	0.006	-0.050
-569.646	-11.130	0.258	0.170
-568.631	-200.000	0.011	-0.071
-567.617	721.432	0.059	-0.159
-566.602	-63.640	0.155	0.064
-565.588	-200.000	-0.005	0.419
-564.573	78.117	0.232	-0.248
-563.558	800.000	-0.071	-0.279
-562.544	800.000	0.116	0.378
-561.529	800.000	-0.016	0.068
-560.515	7.091	0.207	-0.155
-559.500	-43.449	0.028	0.014
-558.485	7.021	-0.132	-0.099
-557.471	-163.404	-0.190	0.009
-556.456	-16.169	0.226	-0.144
-555.442	-158.371	0.331	0.019
-554.427	268.946	0.174	-0.306
-553.412	-186.841	-0.297	0.004
-552.398	-200.000	-0.013	-0.181
-551.383	-142.060	-0.164	0.016
-550.369	-46.811	0.092	-0.045
-549.354	-200.000	-0.105	-0.000
-548.339	-200.000	-0.073	-0.515
-547.325	-162.816	0.121	-0.006
-546.310	-29.201	0.275	-0.158
-545.296	-36.438	-0.139	-0.075
-544.281	-200.000	0.044	-0.261
-543.266	-20.899	-0.332	0.204
-542.252	-8.643	0.238	-0.160
-541.237	-71.778	0.345	0.129
-540.223	-57.297	0.136	0.060
-539.208	629.067	0.070	-0.178
-538.193	-173.507	0.135	0.004
-537.179	248.871	0.147	0.249
-536.164	-148.602	-0.279	-0.023
-535.150	-72.534	-0.259	0.096
-534.135	475.050	0.027	-0.061
-533.121	-200.000	0.011	0.262
-532.106	1.880	0.348	0.251
-531.091	-46.950	0.296	-0.145
-530.077	-200.000	-0.015	-0.222
-529.062	129.182	0.237	-0.303
-528.048	-33.304	-0.157	0.087
-527.033	187.312	0.241	-0.360
-526.018	800.000	0.055	0.202
-525.004	20.543	0.164	0.133
-523.989	800.000	0.064	-0.263
-522.975	153.948	-0.061	0.083
-521.960	-16.020	0.218	0.139
-520.945	145.817	-0.082	0.110
-519.931	-48.891	-0.056	0.027
-518.916	800.000	0.039	-0.167
-517.902	-82.887	0.376	-0.122
-516.887	380.935	-0.132	-0.272
-515.872	24.894	0.085	-0.071
-514.858	141.944	-0.200	0.265
-513.843	800.000	-0.039	0.121
-512.829	91.654	0.043	0.049
-511.814	-200.000	0.057	0.400
-510.799	-59.072	0.047	0.020
-509.785	800.000	0.055	0.169
-508.770	243.543	-0.128	-0.215
-507.756	800.000	0.026	-0.105
-506.741	-75.732	-0.168	-0.060
-505.726	800.000	-0.027	-0.114
-504.712	218.772	0.137	0.219
-503.697	-55.898	0.262	0.117
-502.683	-91.345	0.173	0.050
-501.668	-95.116	-0.165	0.044
-500.653	-200.000	0.015	-0.129
-499.639	800.000	-0.067	0.229
-498.624	-200.000	0.006	0.088
-497.610	-200.000	0.007	0.163
-496.595	-28.089	0.085	0.049
-495.581	31.618	0.088	0.076
-494.566	-200.000	-0.023	0.174
-493.551	94.014	0.159	-0.180
-492.537	-52.650	-0.247	-0.114
-491.522	54.648	-0.225	-0.217
-490.508	272.466	-0.079	0.140
-489.493	-200.000	-0.006	-0.130
-488.478	258.210	-0.169	-0.291
-487.464	169.799	0.174	0.249
-486.449	800.000	0.044	-0.124
-485.435	-200.000	-0.073	0.326
-484.420	800.000	-0.021	-0.076
-483.405	-200.000	0.054	0.295
-482.391	-136.927	-0.234	0.027
-481.376	201.404	-0.121	0.186
-480.362	-200.000	-0.016	-0.104
-479.347	-154.800	0.335	0.022
-478.332	-200.000	0.028	-0.222
-477.318	2.158	-0.352	0.254
-476.303	65.137	-0.216	0.218
-475.289	-200.000	-0.049	0.234
-474.274	-57.037	-0.274	-0.121
-473.259	-78.208	0.400	-0.137
-472.245	-200.000	0.024	-0.297
-471.230	-166.911	-0.027	0.001
-470.216	749.548	-0.035	0.093
-469.201	-118.444	-0.105	0.019
-468.186	40.311	0.152	-0.137
-467.172	-200.000	0.036	-0.222
-466.157	-200.000	-0.011	-0.343
-465.143	-23.207	-0.171	-0.103
-464.128	221.795	0.157	-0.252
-463.113	-68.586	-0.325	-0.126
-462.099	-108.862	0.076	0.016
-461.084	79.253	0.354	0.379
-460.070	-29.128	0.072	-0.041
-459.055	313.201	-0.126	-0.237
-458.040	-20.250	-0.053	-0.032
-457.026	800.000	-0.032	0.092
-456.011	795.088	-0.066	0.181
-454.997	71.755	-0.076	0.079
-453.982	-92.031	-0.229	0.065
-452.968	66.968	-0.109	0.111
-451.953	48.430	-0.170	-0.159
-450.938	-6.408	0.199	0.135
-449.924	800.000	0.050	-0.217
-448.909	431.267	-0.140	0.303
-447.895	-158.142	0.089	0.005
-446.880	77.774	0.071	0.075
-445.865	800.000	0.107	-0.421
-444.851	70.341	0.148	-0.153
-443.836	-21.715	-0.271	0.165
-442.822	141.642	-0.072	0.095
-441.807	-200.000	0.008	0.142
-440.792	14.403	-0.052	-0.040
-439.778	101.406	-0.059	-0.069
-438.763	307.206	-0.038	-0.071
-437.749	263.182	-0.101	-0.175
-436.734	239.368	0.037	0.062
-435.719	-200.000	-0.007	-0.050
-434.705	-200.000	0.013	-0.157
-433.690	135.214	-0.059	0.077
-432.676	800.000	0.067	-0.225
-431.661	760.079	-0.052	-0.141
-430.646	-184.239	-0.132	-0.002
-429.632	-200.000	0.025	0.487
-428.617	148.348	0.263	0.355
-427.603	-183.640	-0.252	-0.004
-426.588	38.535	0.187	-0.167
-425.573	-200.000	-0.023	-0.488
-424.559	-200.000	-0.028	0.158
-423.544	-4.751	0.065	-0.044
-422.530	-37.701	-0.107	0.057
-421.515	-99.381	-0.211	0.053
-420.500	103.305	0.180	0.210
-419.486	199.525	0.069	-0.105
-418.471	800.000	0.069	0.256
-417.457	-200.000	-0.064	0.350
-416.442	800.000	-0.120	-0.344
-415.428	341.551	-0.060	-0.118
-414.413	800.000	0.059	-0.221
-413.398	329.399	-0.114	-0.219
-412.384	146.445	0.096	0.129
-411.369	-200.000	-0.023	-0.118
-410.355	-150.045	-0.089	0.007
-409.340	340.995	0.059	-0.115
-408.325	222.071	0.204	-0.328
-407.311	-46.350	0.106	-0.052
-406.296	-82.141	-0.500	0.163
-405.282	-142.913	-0.060	0.006
-404.267	-83.228	0.114	-0.037
-403.252	30.871	-0.100	0.085
-402.238	-62.376	0.296	-0.123
-401.223	-50.029	-0.065	0.031
-400.209	47.080	0.185	0.171
-399.194	681.765	0.127	0.329
-398.179	59.171	-0.272	-0.267
-397.165	-50.545	0.110	0.052
-396.150	-95.971	0.045	-0.012
-395.136	-200.000	0.019	0.197
-394.121	-136.531	-0.240	-0.028
-393.106	244.310	-0.070	0.118
-392.092	118.851	-0.063	0.078
-391.077	63.652	0.328	0.328
-390.063	-26.001	-0.102	0.060
-389.048	-200.000	-0.021	0.177
-388.033	800.000	0.075	0.285
-387.019	-83.857	0.140	-0.045
-386.004	-13.379	-0.229	0.148
-384.990	339.160	0.070	0.136
-383.975	376.709	-0.039	0.079
-382.960	21.397	0.258	-0.209
-381.946	800.000	0.085	-0.314
-380.931	363.816	-0.174	-0.349
-379.917	-117.077	-0.310	0.056
-378.902	322.517	-0.195	0.369
-377.888	-200.000	-0.069	0.437
-376.873	-143.952	0.453	-0.042
-375.858	-97.946	0.241	-0.062
-374.844	-102.451	-0.192	0.046
-373.829	106.545	0.009	0.011
-372.815	800.000	0.033	-0.127
-371.800	800.000	-0.024	0.084
-370.785	-200.000	-0.037	-0.260
-369.771	244.604	-0.152	-0.254
-368.756	-174.884	0.181	0.005
-367.742	-108.210	-0.126	0.027
-366.727	-132.635	-0.247	-0.031
-365.712	224.051	0.139	0.223
-364.698	-85.054	-0.129	0.040
-363.683	312.724	0.033	-0.061
-362.669	181.518	-0.058	-0.085
-361.654	63.765	-0.148	0.148
-360.639	11.545	0.151	0.115
-359.625	800.000	0.192	0.526
-358.610	83.180	-0.128	-0.139
-357.596	293.293	-0.103	-0.187
-356.581	-121.945	0.425	-0.070
-355.566	210.141	-0.098	-0.153
-354.552	800.000	0.078	-0.242
-353.537	-146.014	-0.058	0.005
-352.523	-200.000	0.001	-0.049
-351.508	800.000	-0.035	-0.107
-350.493	-149.407	0.162	0.013
-349.479	58.928	0.186	0.182
-348.464	24.165	0.050	0.041
-347.450	-200.000	0.058	-0.422
-346.435	-121.661	-0.191	-0.031
-345.420	81.355	-0.173	-0.186
-344.406	-99.067	-0.289	0.073
-343.391	86.728	-0.215	-0.236
-342.377	-141.579	0.181	-0.018
-341.362	75.479	-0.165	-0.173
-340.348	249.101	0.095	-0.160
-339.333	250.296	0.127	0.214
-338.318	800.000	-0.037	-0.140
-337.304	-50.116	0.139	-0.066
-336.289	-200.000	-0.036	-0.291
-335.275	-200.000	0.010	0.384
-334.260	227.559	-0.164	0.265
-333.245	-5.735	0.267	0.182
-332.231	-174.535	0.397	0.011
-331.216	-100.479	0.382	-0.094
-330.202	-78.689	-0.136	-0.046
-329.187	50.590	0.210	-0.197
-328.172	33.479	-0.166	-0.144
-327.158	-11.485	-0.368	-0.241
-326.143	-49.090	-0.137	-0.065
-325.129	-37.470	0.037	-0.020
-324.114	-3.212	-0.157	-0.109
-323.099	59.989	0.261	-0.256
-322.085	800.000	0.084	-0.261
-321.070	126.097	0.048	0.061
-320.056	55.603	-0.072	-0.069
-319.041	137.943	-0.112	-0.145
-318.026	-60.900	0.050	-0.021
-317.012	-81.973	-0.085	-0.028
-315.997	800.000	0.065	0.222
-314.983	-38.918	-0.123	-0.065
-313.968	-62.468	0.064	-0.027
-312.953	151.318	-0.133	-0.180
-311.939	201.591	0.150	0.229
-310.924	20.261	-0.220	-0.177
-309.910	800.000	0.043	0.148
-308.895	98.659	-0.076	0.087
-307.880	52.418	0.228	0.216
-306.866	-200.000	-0.014	-0.146
-305.851	-200.000	-0.099	-0.461
-304.837	-35.916	0.270	-0.145
-303.822	-116.005	0.137	0.025
-302.807	-200.000	-0.028	-0.305
-301.793	-104.379	0.167	-0.038
-300.778	800.000	0.062	-0.171
-299.764	-42.277	0.250	-0.127
-298.749	-200.000	-0.057	0.270
-297.735	3.918	-0.365	0.264
-296.720	-200.000	0.012	-0.346
-295.705	54.191	-0.179	0.171
-294.691	-200.000	0.034	0.544
-293.676	24.633	0.321	0.263
-292.662	-200.000	0.042	-0.344
-291.647	800.000	-0.124	-0.352
-290.632	143.106	0.072	-0.095
-289.618	-80.210	-0.134	0.045
-288.603	800.000	-0.065	0.229
-287.589	-57.295	0.157	0.068
-286.574	-93.219	0.148	0.041
-285.559	-200.000	0.013	0.248
-284.545	46.238	0.124	-0.114
-283.530	229.043	0.124	0.201
-282.516	278.375	0.048	-0.084
-281.501	366.340	-0.140	0.280
-280.486	161.917	-0.176	0.245
-279.472	-200.000	-0.018	0.397
-278.457	-115.240	-0.257	0.048
-277.443	-200.000	-0.070	0.358
-276.428	-8.806	0.150	-0.100
-275.413	-78.902	-0.074	-0.025
-274.399	21.626	-0.083	0.067
-273.384	233.282	0.145	0.236
-272.370	12.797	0.356	0.273
-271.355	43.864	-0.217	0.197
-270.340	-112.314	-0.142	-0.028
-269.326	640.129	-0.104	-0.262
-268.311	-200.000	0.003	-0.015
-267.297	800.000	0.036	0.112
-266.282	13.745	0.060	-0.047
-265.267	93.266	-0.061	-0.068
-264.253	323.948	-0.106	-0.200
-263.238	237.572	0.069	-0.113
-262.224	-76.573	-0.217	-0.076
-261.209	-100.094	-0.240	0.059
-260.195	19.711	0.280	-0.223
-259.180	-171.871	-0.211	0.007
-258.165	-66.003	0.309	-0.122
-257.151	-11.787	0.218	-0.142
-256.136	-200.000	0.022	0.250
-255.122	130.339	-0.089	0.113
-254.107	-101.956	-0.235	-0.056
-253.092	7.152	-0.049	0.036
-252.078	-200.000	0.018	-0.173
-251.063	-112.810	0.516	-0.101
-250.049	-84.369	-0.316	-0.099
-249.034	735.297	0.086	-0.228
-248.019	800.000	0.035	-0.129
-247.005	-43.573	-0.146	-0.073
-245.990	80.990	-0.208	0.222
-244.976	482.536	0.125	0.281
-243.961	116.099	0.251	-0.304
-242.946	111.125	0.103	-0.123
-241.932	-5.240	0.212	-0.145
-240.917	-81.194	-0.234	0.076
-239.903	122.096	-0.224	-0.277
-238.888	800.000	0.033	0.127
-237.873	120.025	-0.094	-0.116
-236.859	20.605	-0.039	0.031
-235.844	-200.000	0.078	-0.347
-234.830	-18.335	-0.156	-0.096
-233.815	24.977	0.283	-0.233
-232.800	-81.517	0.375	-0.122
-231.786	-200.000	-0.017	0.272
-230.771	-200.000	0.003	-0.261
-229.757	800.000	0.069	0.247
-228.742	40.924	-0.300	0.268
-227.727	-107.510	0.266	0.058
-226.713	176.224	-0.087	0.125
-225.698	-20.689	-0.246	-0.149
-224.684	-100.643	0.328	-0.080
-223.669	-152.245	-0.277	0.020
-222.655	41.301	-0.041	0.037
-221.640	-99.142	-0.370	-0.093
-220.625	45.518	-0.262	0.239
-219.611	-200.000	0.010	0.228
-218.596	-39.494	0.006	0.003
-217.582	402.641	-0.092	0.191
-216.567	37.929	0.041	0.036
-215.552	164.872	0.175	0.244
-214.538	-160.099	-0.063	-0.003
-213.523	11.903	-0.088	0.067
-212.509	-77.023	-0.269	-0.093
-211.494	31.246	-0.192	-0.163
-210.479	800.000	-0.075	0.281
-209.465	-200.000	-0.031	-0.167
-208.450	-17.776	0.163	0.101
-207.436	-55.038	-0.186	0.083
-206.421	461.808	-0.090	0.198
-205.406	-99.347	-0.197	0.049
-204.392	-94.441	0.274	0.074
-203.377	-133.078	-0.204	0.026
-202.363	231.055	-0.146	-0.237
-201.348	800.000	-0.023	0.078
-200.333	59.761	0.182	-0.177
-199.319	-72.615	-0.115	0.042
-198.304	-200.000	0.009	-0.198
-197.290	-200.000	0.008	-0.168
-196.275	-195.239	0.420	0.003
-195.260	-200.000	-0.052	0.299
-194.246	800.000	0.093	0.318
-193.231	-108.043	-0.045	0.010
-192.217	240.941	-0.014	0.024
-191.202	-64.385	-0.329	-0.132
-190.187	-200.000	0.060	-0.299
-189.173	-97.923	-0.056	0.014
-188.158	-200.000	-0.075	-0.433
-187.144	-120.438	-0.204	-0.034
-186.129	343.421	-0.051	-0.098
-185.114	-200.000	0.039	0.257
-184.100	800.000	-0.073	0.203
-183.085	201.888	-0.078	0.118
-182.071	-200.000	-0.010	0.251
-181.056	-12.763	0.264	0.170
-180.042	34.651	0.195	0.168
-179.027	-168.321	0.244	-0.009
-178.012	-69.461	-0.244	-0.092
-176.998	434.088	0.053	0.114
-175.983	410.232	0.052	-0.109
-174.969	182.181	0.276	0.401
-173.954	800.000	0.073	0.225
-172.939	68.870	0.347	0.352
-171.925	-83.637	0.027	-0.008
-170.910	-91.104	-0.232	-0.066
-169.896	-200.000	-0.057	0.291
-168.881	-200.000	0.005	0.074
-167.866	-158.217	0.196	0.011
-166.852	-30.317	-0.111	0.062
-165.837	800.000	0.078	-0.218
-164.823	141.875	-0.206	-0.269
-163.808	208.184	-0.095	0.146
-162.793	307.597	-0.138	0.254
-161.779	800.000	0.074	0.294
-160.764	800.000	0.054	-0.159
-159.750	-200.000	0.024	-0.277
-158.735	54.133	0.158	0.150
-157.720	28.658	0.232	-0.194
-156.706	-80.840	0.313	-0.103
-155.691	442.491	0.070	-0.150
-154.677	-27.176	0.220	-0.127
-153.662	-200.000	-0.051	0.519
-152.647	-36.423	-0.173	-0.092
-151.633	3.661	0.315	0.227
-150.618	-159.796	-0.436	0.024
-149.604	334.310	0.032	0.061
-148.589	411.241	0.120	0.252
-147.574	-140.183	0.119	-0.012
-146.560	27.367	-0.327	-0.271
-145.545	-72.066	0.454	0.167
-144.531	472.473	-0.156	-0.346
-143.516	-71.460	0.270	0.100
-142.502	800.000	-0.077	-0.312
-141.487	-130.533	0.140	-0.019
-140.472	-200.000	-0.007	0.080
-139.458	800.000	-0.115	0.421
-138.443	-200.000	0.062	0.558
-137.429	67.108	-0.216	0.217
-136.414	800.000	0.128	0.485
-135.399	-136.995	0.531	0.060
-134.385	250.933	0.194	-0.326
-133.370	-101.735	0.439	0.105
-132.356	217.026	-0.068	0.107
-131.341	43.185	-0.158	0.142
-130.326	-200.000	0.026	0.154
-129.312	100.548	0.131	0.151
-128.297	-69.571	-0.079	-0.030
-127.283	-200.000	0.020	-0.270
-126.268	-184.111	-0.148	0.002
-125.253	-200.000	0.001	0.066
-124.239	6.069	0.302	0.220
-123.224	150.061	0.061	0.081
-122.210	-115.607	-0.271	0.050
-121.195	800.000	-0.026	-0.090
