DTS Sentinel unit serial number:	SN413079Multiplexer serial number:	ORYXHardware model number:	OX4-SRSoftware version number:	ORYX F/W v4.00 Oryx Data Collector v3.7.2.0data status	okinstallation	princeton_trtdifferential loss correction	single-endedforward channel	channel 1reverse channel	N/Adate	2019/09/13time	07:46:35forward acquisition time	60.00reverse acquisition time	0.00gamma	496.2192k internal	0.2333k external	0.2333temperature offset calibration	1.0162default loss term (dB/km)	0.3790temperature slope calibration	1.0000multiplexer offset coefficient	1.0000multiplexer slope coefficient	1.0000fibre end	0.00T internal ref (°C)	26.50T ext. ref 1 (°C)	4.21T ext. ref 2 (°C)	22.86length (m)	temperature (°C)	Stokes	anti-Stokes-747.200	391.730	0.061	-0.128
-746.185	549.473	0.125	0.300
-745.171	-200.000	0.002	-0.076
-744.156	-56.986	-0.175	0.078
-743.142	280.854	0.050	0.089
-742.127	-51.693	-0.140	-0.066
-741.112	-200.000	0.144	-0.000
-740.098	411.535	0.025	0.053
-739.083	800.000	0.043	0.138
-738.069	-167.635	0.251	-0.010
-737.054	122.453	-0.027	0.034
-736.039	277.332	-0.035	0.063
-735.025	-36.476	0.052	0.028
-734.010	547.694	-0.080	-0.193
-732.996	523.787	-0.012	0.027
-731.981	-38.864	-0.259	0.137
-730.966	-24.296	-0.139	-0.083
-729.952	566.164	0.057	0.139
-728.937	-89.020	0.205	-0.061
-727.923	-116.732	0.406	-0.075
-726.908	-127.343	-0.112	0.016
-725.894	321.357	0.033	0.063
-724.879	-37.434	0.139	-0.075
-723.864	-200.000	-0.028	0.140
-722.850	-200.000	-0.066	0.538
-721.835	-35.543	-0.064	0.035
-720.821	-67.781	-0.082	-0.032
-719.806	800.000	-0.045	-0.187
-718.791	459.668	-0.105	-0.235
-717.777	190.595	0.108	-0.162
-716.762	-3.103	-0.260	0.182
-715.748	65.266	0.123	0.125
-714.733	-200.000	-0.022	-0.119
-713.718	-92.942	0.139	-0.039
-712.704	19.066	0.076	-0.061
-711.689	571.602	-0.045	0.111
-710.675	196.463	-0.173	-0.265
-709.660	48.624	-0.058	0.055
-708.645	149.220	0.168	0.229
-707.631	-200.000	-0.012	-0.084
-706.616	-114.858	0.038	-0.007
-705.602	98.197	-0.136	-0.157
-704.587	-76.454	0.154	-0.054
-703.572	800.000	0.072	0.216
-702.558	-200.000	0.023	-0.157
-701.543	568.571	-0.099	-0.241
-700.529	800.000	-0.090	0.266
-699.514	194.148	0.024	-0.036
-698.499	-66.619	-0.275	-0.109
-697.485	409.849	-0.056	-0.119
-696.470	278.440	-0.263	-0.470
-695.456	-122.372	-0.200	-0.033
-694.441	-98.411	-0.295	-0.076
-693.426	746.246	-0.056	0.152
-692.412	29.438	0.069	0.059
-691.397	76.204	-0.327	-0.348
-690.383	800.000	-0.067	-0.256
-689.368	800.000	0.070	0.201
-688.354	31.148	0.201	0.173
-687.339	-200.000	0.032	-0.243
-686.324	26.342	-0.196	-0.165
-685.310	-200.000	-0.022	0.156
-684.295	-66.186	0.199	0.080
-683.281	277.476	0.045	0.080
-682.266	-200.000	0.001	-0.147
-681.251	800.000	-0.047	-0.156
-680.237	105.347	-0.218	0.258
-679.222	-87.542	0.297	-0.090
-678.208	-200.000	-0.004	-0.163
-677.193	-200.000	-0.004	0.119
-676.178	-93.624	0.139	0.038
-675.164	634.107	0.079	0.200
-674.149	-59.361	0.216	0.093
-673.135	22.139	0.004	0.003
-672.120	-139.993	0.206	-0.022
-671.105	211.299	0.061	-0.097
-670.091	-26.614	0.132	-0.078
-669.076	-13.937	-0.254	0.165
-668.062	-24.177	-0.383	0.229
-667.047	-200.000	-0.066	-0.340
-666.032	800.000	0.046	0.150
-665.018	-200.000	-0.005	0.159
-664.003	800.000	0.055	0.190
-662.989	198.942	0.030	0.046
-661.974	-200.000	0.027	-0.189
-660.959	-200.000	-0.021	-0.165
-659.945	263.402	0.111	-0.193
-658.930	341.825	-0.271	-0.530
-657.916	800.000	0.098	-0.397
-656.901	26.480	-0.200	0.167
-655.886	-44.557	0.163	-0.082
-654.872	28.350	-0.167	0.142
-653.857	-35.777	0.184	-0.100
-652.843	88.808	-0.218	-0.243
-651.828	-200.000	-0.005	-0.260
-650.814	-3.546	0.132	-0.092
-649.799	800.000	-0.054	0.175
-648.784	172.119	0.182	-0.262
-647.770	311.851	0.133	-0.250
-646.755	-131.714	0.282	0.037
-645.741	-123.976	0.413	-0.065
-644.726	15.551	0.128	0.101
-643.711	-200.000	0.010	-0.464
-642.697	-200.000	0.014	-0.265
-641.682	144.728	-0.077	-0.103
-640.668	-76.914	0.332	-0.116
-639.653	-200.000	-0.073	-0.326
-638.638	-96.147	-0.105	0.028
-637.624	-64.220	0.036	-0.015
-636.609	682.845	-0.082	0.213
-635.595	-191.299	0.189	0.002
-634.580	55.107	0.209	-0.202
-633.565	349.933	-0.059	-0.117
-632.551	-200.000	-0.022	-0.152
-631.536	84.514	-0.112	0.123
-630.522	350.807	-0.012	0.023
-629.507	-200.000	0.040	0.223
-628.492	164.532	-0.160	-0.226
-627.478	-4.584	-0.306	-0.212
-626.463	-172.207	-0.303	-0.010
-625.449	-153.909	0.152	0.010
-624.434	-200.000	0.036	0.269
-623.419	205.251	0.185	-0.288
-622.405	-97.795	-0.229	-0.059
-621.390	108.580	0.180	0.215
-620.376	428.167	0.065	0.140
-619.361	-47.227	-0.272	0.133
-618.346	-84.485	0.257	-0.081
-617.332	-134.352	-0.317	-0.039
-616.317	76.903	-0.103	-0.110
-615.303	175.671	0.156	-0.226
-614.288	261.438	0.074	-0.128
-613.273	800.000	0.094	-0.268
-612.259	-116.675	-0.119	0.022
-611.244	-151.214	-0.060	-0.004
-610.230	-43.909	0.262	-0.132
-609.215	174.056	-0.264	0.381
-608.201	-82.844	-0.247	0.080
-607.186	161.892	0.076	-0.107
-606.171	-45.174	0.202	-0.100
-605.157	800.000	-0.012	0.035
-604.142	-125.679	0.192	0.029
-603.128	291.328	0.252	0.458
-602.113	-18.951	-0.488	0.304
-601.098	121.089	-0.093	0.116
-600.084	-5.907	-0.122	-0.084
-599.069	800.000	-0.045	-0.168
-598.055	-58.120	-0.130	-0.056
-597.040	29.848	-0.116	0.099
-596.025	800.000	0.050	-0.161
-595.011	328.479	0.122	0.235
-593.996	-200.000	-0.004	-0.126
-592.982	588.277	0.028	-0.069
-591.967	221.182	-0.071	-0.113
-590.952	231.099	0.054	0.088
-589.938	-19.893	0.396	0.244
-588.923	145.866	-0.119	0.160
-587.909	-130.688	-0.530	0.071
-586.894	-200.000	0.009	-0.078
-585.879	-116.877	-0.172	0.031
-584.865	800.000	0.090	0.309
-583.850	-166.920	0.244	0.010
-582.836	-200.000	0.004	-0.049
-581.821	-54.155	0.047	-0.021
-580.806	371.528	0.075	-0.152
-579.792	92.428	-0.049	0.055
-578.777	800.000	-0.049	0.185
-577.763	-200.000	0.023	-0.163
-576.748	-26.354	-0.173	0.102
-575.733	-86.959	-0.267	-0.081
-574.719	687.097	-0.098	0.256
-573.704	-1.364	-0.328	-0.231
-572.690	-23.478	0.111	-0.066
-571.675	800.000	-0.098	-0.332
-570.661	561.978	-0.048	-0.115
-569.646	800.000	-0.126	-0.360
-568.631	-70.859	-0.256	-0.096
-567.617	-200.000	-0.082	0.376
-566.602	142.218	-0.147	0.194
-565.588	-16.711	-0.371	0.235
-564.573	64.989	-0.163	-0.165
-563.558	-5.623	0.130	-0.089
-562.544	99.150	-0.206	0.238
-561.529	-21.983	-0.302	0.183
-560.515	-91.334	0.290	0.083
-559.500	-53.540	-0.098	-0.045
-558.485	-25.488	0.143	0.084
-557.471	-74.402	0.160	0.057
-556.456	-5.962	0.139	-0.095
-555.442	40.737	0.332	0.299
-554.427	800.000	-0.077	-0.319
-553.412	-200.000	-0.016	-0.104
-552.398	-152.254	-0.344	0.025
-551.383	467.213	-0.063	-0.141
-550.369	800.000	0.193	-0.545
-549.354	-33.790	0.110	0.061
-548.339	193.868	0.246	0.371
-547.325	800.000	-0.083	-0.297
-546.310	-200.000	-0.007	-0.062
-545.296	-8.929	0.091	0.061
-544.281	800.000	-0.029	0.104
-543.266	64.234	0.111	-0.111
-542.252	222.068	0.175	-0.281
-541.237	141.936	0.113	-0.150
-540.223	-19.427	0.203	-0.126
-539.208	-200.000	0.026	-0.368
-538.193	-50.222	-0.105	0.050
-537.179	61.713	-0.204	-0.203
-536.164	757.355	0.151	0.409
-535.150	-200.000	0.035	-0.241
-534.135	800.000	0.052	0.202
-533.121	-81.009	-0.260	0.086
-532.106	25.999	0.239	0.199
-531.091	-126.216	-0.057	-0.009
-530.077	800.000	-0.027	-0.095
-529.062	411.836	-0.020	-0.042
-528.048	-110.900	0.252	0.052
-527.033	-193.504	0.213	0.002
-526.018	-143.722	-0.270	0.026
-525.004	-119.152	-0.128	-0.022
-523.989	68.281	-0.128	-0.131
-522.975	21.427	0.068	0.055
-521.960	-66.480	-0.243	-0.096
-520.945	480.960	-0.030	0.067
-519.931	800.000	0.057	-0.176
-518.916	-200.000	-0.022	0.257
-517.902	342.641	0.052	0.101
-516.887	-37.134	0.007	0.004
-515.872	-200.000	0.007	0.116
-514.858	-103.129	-0.157	0.037
-513.843	141.692	-0.128	0.169
-512.829	276.047	0.224	0.397
-511.814	-108.960	-0.454	0.096
-510.799	169.658	0.151	0.215
-509.785	205.482	-0.108	-0.167
-508.770	-91.756	-0.197	0.056
-507.756	-200.000	0.011	0.302
-506.741	-34.413	-0.295	-0.161
-505.726	72.410	0.248	0.258
-504.712	220.815	0.147	-0.235
-503.697	51.577	0.324	-0.306
-502.683	153.915	0.055	-0.075
-501.668	46.059	-0.045	-0.042
-500.653	42.646	-0.246	-0.223
-499.639	-153.750	0.085	0.006
-498.624	-197.018	-0.077	0.000
-497.610	65.045	0.073	-0.073
-496.595	-166.481	-0.177	-0.007
-495.581	485.629	0.123	-0.278
-494.566	-44.882	-0.139	-0.069
-493.551	-137.360	0.371	-0.042
-492.537	396.213	0.054	0.111
-491.522	800.000	-0.030	0.111
-490.508	-200.000	0.002	0.156
-489.493	-119.496	-0.270	0.047
-488.478	44.036	0.129	-0.117
-487.464	-127.455	0.334	-0.048
-486.449	-80.114	-0.306	-0.102
-485.435	64.922	-0.337	0.339
-484.420	12.154	-0.189	-0.145
-483.405	-54.654	0.306	0.138
-482.391	-200.000	-0.033	0.171
-481.376	331.450	0.158	0.303
-480.362	-36.649	-0.102	-0.054
-479.347	-200.000	0.010	0.270
-478.332	70.704	-0.011	-0.011
-477.318	320.227	0.067	0.127
-476.303	-113.316	0.351	-0.069
-475.289	38.028	-0.179	0.158
-474.274	-59.684	-0.127	0.054
-473.259	-143.120	0.051	-0.005
-472.245	-141.308	-0.068	0.007
-471.230	619.724	0.182	-0.455
-470.216	-191.127	-0.409	0.004
-469.201	-95.112	-0.338	-0.091
-468.186	-26.736	-0.288	-0.167
-467.172	-100.811	0.342	-0.084
-466.157	-152.349	0.111	0.008
-465.143	-200.000	0.038	0.343
-464.128	766.007	0.057	0.154
-463.113	-22.425	0.265	-0.160
-462.099	800.000	0.040	0.139
-461.084	-159.104	0.243	-0.014
-460.070	151.624	0.116	0.158
-459.055	31.420	0.148	-0.126
-458.040	1.743	-0.103	0.074
-457.026	-200.000	-0.003	-0.064
-456.011	-200.000	-0.003	0.110
-454.997	800.000	-0.072	0.294
-453.982	-26.244	-0.108	-0.063
-452.968	-21.934	-0.195	-0.118
-451.953	312.700	-0.142	0.266
-450.938	381.608	0.209	-0.427
-449.924	293.211	0.095	-0.172
-448.909	800.000	-0.091	-0.305
-447.895	96.979	0.179	0.204
-446.880	-153.561	0.086	0.006
-445.865	-52.088	-0.277	-0.128
-444.851	-200.000	-0.276	-0.001
-443.836	2.078	-0.047	-0.033
-442.822	-73.154	-0.422	-0.154
-441.807	-200.000	0.001	-0.208
-440.792	146.096	-0.152	-0.203
-439.778	-200.000	0.205	-0.000
-438.763	34.406	-0.140	0.121
-437.749	-200.000	-0.021	0.267
-436.734	-200.000	0.034	-0.205
-435.719	-200.000	-0.026	-0.217
-434.705	126.943	-0.198	-0.249
-433.690	-8.662	0.253	-0.169
-432.676	-19.898	0.257	0.157
-431.661	-92.247	0.250	0.070
-430.646	-200.000	-0.015	-0.316
-429.632	800.000	0.063	-0.221
-428.617	34.599	0.199	-0.172
-427.603	77.081	-0.224	-0.237
-426.588	-200.000	0.018	-0.081
-425.573	-200.000	0.008	-0.124
-424.559	800.000	0.105	0.339
-423.544	-179.212	-0.284	0.006
-422.530	14.754	-0.188	-0.146
-421.515	-92.621	0.357	-0.100
-420.500	80.133	-0.123	-0.131
-419.486	53.447	0.143	0.136
-418.471	-48.091	-0.167	-0.080
-417.457	-200.000	-0.032	0.158
-416.442	-106.418	-0.234	-0.052
-415.428	-23.782	0.368	0.219
-414.413	-94.222	-0.174	-0.047
-413.398	-12.698	-0.282	-0.183
-412.384	-200.000	-0.006	0.237
-411.369	37.099	0.270	-0.237
-410.355	21.528	-0.056	-0.045
-409.340	-18.123	0.206	0.128
-408.325	-0.551	-0.009	0.007
-407.311	-200.000	-0.001	0.391
-406.296	-165.822	-0.233	-0.010
-405.282	-49.943	-0.257	0.121
-404.267	80.492	0.160	0.171
-403.252	-139.429	-0.256	-0.027
-402.238	130.463	-0.298	0.379
-401.223	-36.509	0.176	0.094
-400.209	-26.700	0.011	-0.006
-399.194	-200.000	0.066	0.303
-398.179	-28.801	0.339	-0.193
-397.165	-4.549	0.220	0.151
-396.150	-110.697	-0.232	0.047
-395.136	-38.803	-0.189	0.099
-394.121	-114.330	-0.380	-0.073
-393.106	-97.426	-0.191	-0.049
-392.092	220.137	0.030	0.047
-391.077	387.748	0.046	-0.094
-390.063	10.032	-0.188	-0.141
-389.048	800.000	-0.081	0.244
-388.033	-200.000	0.012	-0.131
-387.019	800.000	-0.039	0.162
-386.004	447.432	0.040	0.087
-384.990	-97.454	0.095	-0.025
-383.975	185.724	-0.046	0.068
-382.960	3.507	0.110	0.079
-381.946	141.603	-0.062	0.081
-380.931	77.166	-0.214	-0.226
-379.917	-161.033	-0.314	0.016
-378.902	101.292	0.142	0.164
-377.888	135.039	-0.033	0.043
-376.873	-200.000	-0.001	-0.342
-375.858	154.626	0.129	0.175
-374.844	-141.017	-0.200	-0.020
-373.829	252.535	0.045	-0.075
-372.815	-139.623	0.161	-0.017
-371.800	-58.641	0.149	-0.064
-370.785	359.188	-0.041	-0.080
-369.771	463.369	0.092	0.203
-368.756	-43.126	0.250	-0.126
-367.742	-103.303	0.389	0.091
-366.727	800.000	-0.058	0.198
-365.712	351.116	0.109	0.214
-364.698	800.000	-0.017	-0.052
-363.683	33.737	-0.120	-0.103
-362.669	-79.353	-0.263	0.088
-361.654	340.040	-0.067	0.130
-360.639	186.899	-0.013	-0.019
-359.625	408.733	0.131	-0.275
-358.610	-200.000	-0.012	0.192
-357.596	219.373	-0.076	0.120
-356.581	414.649	0.097	0.205
-355.566	-133.980	-0.129	0.016
-354.552	-121.598	-0.316	-0.052
-353.537	21.910	-0.011	-0.009
-352.523	42.410	-0.320	-0.288
-351.508	-200.000	-0.019	-0.152
-350.493	-38.990	0.038	-0.020
-349.479	349.050	-0.118	-0.231
-348.464	-65.927	0.060	-0.024
-347.450	-200.000	-0.058	-0.329
-346.435	-58.803	0.304	-0.130
-345.420	607.931	-0.074	-0.182
-344.406	-194.585	0.082	0.001
-343.391	362.409	-0.052	-0.103
-342.377	237.995	-0.144	0.237
-341.362	-123.741	0.111	0.017
-340.348	-200.000	-0.031	0.177
-339.333	-42.766	-0.288	0.145
-338.318	42.052	-0.079	0.071
-337.304	800.000	0.045	0.167
-336.289	258.224	0.171	0.292
-335.275	21.314	-0.275	0.221
-334.260	112.638	-0.103	-0.123
-333.245	-54.955	0.047	0.021
-332.231	800.000	0.125	-0.416
-331.216	-143.882	0.412	0.038
-330.202	-139.905	-0.374	0.039
-329.187	800.000	-0.049	0.144
-328.172	-92.161	0.132	0.037
-327.158	-33.003	0.369	0.202
-326.143	13.897	-0.120	-0.092
-325.129	800.000	0.025	-0.076
-324.114	-200.000	-0.021	0.108
-323.099	-21.424	-0.153	0.093
-322.085	-200.000	0.053	-0.282
-321.070	-200.000	-0.042	0.350
-320.056	800.000	-0.128	0.350
-319.041	800.000	0.103	-0.285
-318.026	-107.387	0.164	0.036
-317.012	-200.000	0.034	0.259
-315.997	327.775	0.142	0.270
-314.983	-129.777	-0.533	0.072
-313.968	106.407	-0.074	-0.087
-312.953	128.953	0.161	-0.203
-311.939	-182.366	0.181	0.003
-310.924	102.106	0.126	0.145
-309.910	-63.604	0.064	-0.026
-308.895	-200.000	0.045	0.389
-307.880	-149.947	0.201	0.015
-306.866	140.881	0.063	-0.082
-305.851	498.259	-0.019	-0.044
-304.837	139.567	0.166	0.215
-303.822	-5.022	0.097	-0.066
-302.807	383.728	0.138	0.280
-301.793	-200.000	-0.077	0.396
-300.778	800.000	-0.062	0.211
-299.764	800.000	0.045	-0.148
-298.749	-5.516	0.201	-0.137
-297.735	84.939	-0.180	-0.194
-296.720	-200.000	-0.051	-0.376
-295.705	-104.215	0.345	0.079
-294.691	800.000	0.136	0.475
-293.676	-138.727	0.090	0.010
-292.662	361.061	-0.184	-0.364
-291.647	-200.000	-0.239	0.001
-290.632	-200.000	-0.019	-0.301
-289.618	-200.000	-0.002	-0.284
-288.603	-51.402	0.128	0.059
-287.589	262.116	-0.111	0.190
-286.574	-124.273	-0.236	-0.036
-285.559	-129.392	0.310	-0.043
-284.545	28.049	0.128	-0.107
-283.530	800.000	-0.062	-0.216
-282.516	-33.655	-0.354	0.193
-281.501	380.406	0.056	0.113
-280.486	303.535	0.147	-0.268
-279.472	-86.293	0.159	0.048
-278.457	-181.131	0.271	0.005
-277.443	56.882	-0.271	-0.260
-276.428	-22.193	-0.117	0.070
-275.413	74.280	0.170	-0.176
-274.399	22.421	-0.252	0.203
-273.384	-149.131	-0.203	0.016
-272.370	-114.258	0.152	0.029
-271.355	9.317	0.177	-0.132
-270.340	73.941	-0.157	-0.162
-269.326	-136.451	-0.520	0.060
-268.311	178.353	0.162	0.233
-267.297	-15.435	0.049	-0.031
-266.282	570.966	-0.119	0.286
-265.267	-25.469	-0.257	0.150
-264.253	-58.538	-0.202	-0.087
-263.238	35.531	0.224	-0.194
-262.224	191.082	0.059	0.088
-261.209	-29.428	-0.198	-0.112
-260.195	52.795	0.363	-0.342
-259.180	800.000	-0.037	-0.137
-258.165	258.115	0.088	-0.149
-257.151	-200.000	0.026	0.354
-256.136	140.671	-0.069	0.090
-255.122	251.879	0.032	-0.053
-254.107	227.573	-0.255	0.410
-253.092	-28.439	0.054	0.031
-252.078	-26.164	0.347	0.201
-251.063	-200.000	-0.012	-0.117
-250.049	-83.339	-0.099	0.031
-249.034	-151.601	0.062	0.005
-248.019	-94.377	-0.273	-0.073
-247.005	28.434	0.047	0.039
-245.990	-137.850	0.572	-0.063
-244.976	-9.407	0.048	-0.031
-243.961	25.710	-0.285	0.234
-242.946	-200.000	-0.006	0.184
-241.932	-73.722	-0.165	0.059
-240.917	-200.000	-0.021	0.118
-239.903	273.578	0.172	-0.300
-238.888	-195.541	-0.192	0.001
-237.873	20.127	0.276	-0.219
-236.859	-200.000	0.041	-0.236
-235.844	351.439	-0.172	-0.336
-234.830	-30.608	-0.331	0.185
-233.815	300.136	-0.106	-0.193
-232.800	-32.981	0.466	0.255
-231.786	103.683	-0.280	-0.324
-230.771	-62.192	0.180	0.074
-229.757	-131.881	0.401	-0.052
-228.742	107.206	0.072	-0.084
-227.727	-200.000	-0.004	-0.024
-226.713	-200.000	-0.027	0.274
-225.698	183.969	-0.160	-0.233
-224.684	-200.000	0.006	-0.068
-223.669	-13.783	0.041	-0.026
-222.655	-119.095	0.497	0.086
-221.640	-98.847	-0.100	-0.025
-220.625	800.000	0.102	0.282
-219.611	-163.215	-0.304	0.014
-218.596	-99.986	0.227	-0.056
-217.582	360.848	-0.141	0.278
-216.567	379.174	-0.030	0.062
-215.552	-200.000	-0.052	-0.338
-214.538	291.618	-0.030	-0.054
-213.523	156.731	0.140	-0.191
-212.509	-200.000	0.034	0.149
-211.494	800.000	-0.078	-0.224
-210.479	54.058	-0.195	-0.185
-209.465	-200.000	0.052	-0.315
-208.450	640.620	-0.159	0.399
-207.436	800.000	-0.004	-0.012
-206.421	427.094	0.096	0.205
-205.406	-58.334	0.331	0.142
-204.392	-200.000	0.026	-0.241
-203.377	490.410	-0.123	-0.278
-202.363	-200.000	-0.025	0.189
-201.348	463.528	0.039	0.085
-200.333	800.000	0.066	0.224
-199.319	800.000	0.024	0.090
-198.304	128.860	0.135	-0.169
-197.290	-200.000	0.003	0.130
-196.275	25.758	0.087	0.071
-195.260	-109.969	-0.206	0.042
-194.246	166.808	-0.024	0.033
-193.231	-8.566	0.172	-0.113
-192.217	231.939	0.146	-0.235
-191.202	-66.508	0.359	-0.140
-190.187	110.069	0.209	-0.247
-189.173	-92.928	0.123	0.034
-188.158	223.664	-0.162	-0.257
-187.144	-200.000	-0.039	0.205
-186.129	-172.340	0.162	0.005
-185.114	-162.230	-0.380	0.019
-184.100	-200.000	-0.016	0.143
-183.085	-88.650	0.353	-0.103
-182.071	22.100	-0.181	0.145
-181.056	800.000	0.022	-0.085
-180.042	318.852	0.153	-0.285
-179.027	-48.482	0.217	0.103
-178.012	-14.296	0.023	-0.014
-176.998	216.263	0.062	-0.097
-175.983	800.000	0.049	0.190
-174.969	235.940	-0.253	0.411
-173.954	-200.000	0.041	0.208
-172.939	-105.915	0.224	-0.050
-171.925	-188.648	-0.216	-0.003
-170.910	-200.000	0.081	0.494
-169.896	-200.000	0.002	-0.176
-168.881	-120.868	-0.251	0.042
-167.866	-17.266	0.325	0.201
-166.852	392.836	0.150	-0.306
-165.837	94.370	0.189	0.211
-164.823	-50.824	0.145	0.067
-163.808	-142.091	0.275	-0.027
-162.793	190.440	0.146	0.216
-161.779	-45.535	-0.066	0.032
-160.764	-160.035	-0.502	0.027
-159.750	48.620	-0.288	0.265
-158.735	261.061	0.143	-0.244
-157.720	122.643	0.262	-0.322
-156.706	-49.877	-0.234	-0.109
-155.691	-159.667	0.300	-0.016
-154.677	800.000	0.151	0.413
-153.662	-135.377	-0.111	-0.013
-152.647	682.553	-0.057	-0.145
-151.633	-102.905	0.219	-0.051
-150.618	-98.898	-0.306	-0.076
-149.604	29.834	0.351	-0.294
-148.589	-54.090	-0.104	-0.047
-147.574	800.000	0.027	-0.104
-146.560	800.000	0.101	-0.370
-145.545	663.712	-0.094	-0.239
-144.531	182.357	0.254	-0.368
-143.516	-200.000	-0.053	-0.234
-142.502	36.511	0.084	0.072
-141.487	10.230	0.131	-0.098
-140.472	16.934	0.122	-0.095
-139.458	24.341	-0.113	0.092
-138.443	-200.000	-0.024	-0.255
-137.429	-4.996	0.158	0.107
-136.414	-200.000	0.024	0.227
-135.399	28.723	0.149	0.124
-134.385	-200.000	0.012	-0.090
-133.370	800.000	0.067	-0.197
-132.356	319.295	-0.151	0.280
-131.341	180.076	0.179	-0.258
-130.326	362.225	0.011	0.022
-129.312	-200.000	0.003	-0.022
-128.297	417.702	0.185	0.388
-127.283	-55.399	-0.069	-0.030
-126.268	-200.000	0.068	-0.494
-125.253	241.295	-0.145	-0.237
-124.239	-87.986	0.406	0.120
-123.224	-200.000	-0.032	0.155
-122.210	-200.000	0.085	-0.388
