DTS Sentinel unit serial number:	SN413079Multiplexer serial number:	ORYXHardware model number:	OX4-SRSoftware version number:	ORYX F/W v4.00 Oryx Data Collector v3.7.2.0data status	okinstallation	princeton_trtdifferential loss correction	single-endedforward channel	channel 1reverse channel	N/Adate	2019/09/16time	02:02:35forward acquisition time	60.00reverse acquisition time	0.00gamma	496.2192k internal	0.2332k external	0.2332temperature offset calibration	0.9975default loss term (dB/km)	0.3790temperature slope calibration	1.0000multiplexer offset coefficient	1.0000multiplexer slope coefficient	1.0000fibre end	0.00T internal ref (°C)	27.47T ext. ref 1 (°C)	10.11T ext. ref 2 (°C)	22.39length (m)	temperature (°C)	Stokes	anti-Stokes-747.200	-57.729	0.193	-0.085
-746.185	-36.268	-0.258	-0.140
-745.171	-53.192	0.274	-0.126
-744.156	-52.331	0.283	0.132
-743.142	276.454	-0.132	-0.236
-742.127	-98.426	0.140	-0.036
-741.112	-109.586	-0.204	0.043
-740.098	163.812	-0.216	0.306
-739.083	220.485	0.071	-0.114
-738.069	683.342	0.109	0.286
-737.054	-200.000	-0.015	0.071
-736.039	167.763	0.071	-0.101
-735.025	-161.392	0.175	-0.009
-734.010	-29.087	-0.442	-0.255
-732.996	-56.279	-0.302	0.135
-731.981	800.000	-0.019	-0.076
-730.966	38.786	-0.213	-0.191
-729.952	-1.743	-0.407	0.288
-728.937	41.287	-0.184	-0.167
-727.923	-12.161	-0.280	-0.184
-726.908	800.000	-0.092	-0.264
-725.894	-18.780	-0.237	0.148
-724.879	152.667	0.136	0.187
-723.864	-71.939	0.061	0.023
-722.850	765.844	-0.067	0.183
-721.835	-200.000	0.019	0.218
-720.821	386.336	-0.130	0.270
-719.806	800.000	0.104	-0.339
-718.791	404.261	-0.040	-0.085
-717.777	108.226	0.129	-0.154
-716.762	-200.000	-0.016	-0.362
-715.748	-200.000	0.036	0.238
-714.733	800.000	0.127	-0.395
-713.718	280.743	-0.053	0.095
-712.704	17.674	-0.070	-0.056
-711.689	-161.321	-0.294	0.015
-710.675	-81.882	-0.174	0.057
-709.660	-200.000	0.043	-0.248
-708.645	-53.647	-0.182	-0.083
-707.631	-99.836	0.110	0.028
-706.616	14.049	0.151	-0.118
-705.602	-95.963	-0.079	-0.021
-704.587	-65.420	-0.241	0.097
-703.572	-200.000	-0.023	0.190
-702.558	-90.473	-0.225	-0.066
-701.543	49.331	0.378	0.357
-700.529	-146.101	-0.147	0.013
-699.514	-8.267	0.130	-0.088
-698.499	-174.831	0.340	0.010
-697.485	114.825	-0.050	-0.061
-696.470	-200.000	-0.041	-0.317
-695.456	-40.878	-0.088	-0.046
-694.441	-200.000	0.047	-0.232
-693.426	113.741	-0.155	0.189
-692.412	-200.000	-0.066	-0.301
-691.397	-200.000	-0.002	-0.075
-690.383	-134.874	0.170	-0.021
-689.368	262.567	-0.136	0.237
-688.354	586.193	-0.050	0.124
-687.339	-122.949	-0.090	0.015
-686.324	245.028	-0.053	0.089
-685.310	-17.624	-0.175	0.111
-684.295	84.337	-0.033	0.036
-683.281	8.469	-0.185	-0.140
-682.266	-3.764	0.099	0.069
-681.251	57.810	-0.220	-0.216
-680.237	-200.000	-0.025	-0.140
-679.222	182.470	0.167	-0.247
-678.208	-122.310	-0.332	0.054
-677.193	75.421	0.106	0.112
-676.178	39.622	-0.165	0.148
-675.164	695.376	-0.132	-0.348
-674.149	598.803	0.015	0.038
-673.135	-200.000	0.008	-0.096
-672.120	-200.000	-0.088	0.000
-671.105	741.280	0.055	-0.148
-670.091	-169.007	0.241	0.009
-669.076	209.656	-0.155	0.244
-668.062	-200.000	0.004	-0.018
-667.047	-71.253	-0.234	-0.088
-666.032	-105.864	0.072	-0.016
-665.018	-200.000	0.026	0.236
-664.003	313.500	-0.115	0.216
-662.989	167.119	0.106	0.151
-661.974	484.462	0.152	0.346
-660.959	-144.427	0.131	-0.012
-659.945	-148.366	-0.217	-0.018
-658.930	-95.327	-0.405	0.109
-657.916	-200.000	-0.022	-0.274
-656.901	272.388	0.116	-0.206
-655.886	-200.000	0.009	0.226
-654.872	800.000	-0.058	0.215
-653.857	365.126	0.122	0.247
-652.843	-9.692	-0.289	-0.193
-651.828	174.201	0.153	-0.221
-650.814	6.273	0.293	-0.218
-649.799	-200.000	0.019	-0.108
-648.784	-130.667	-0.143	0.019
-647.770	-64.579	0.215	0.087
-646.755	-103.155	-0.255	-0.060
-645.741	-200.000	-0.009	0.166
-644.726	-200.000	-0.059	-0.300
-643.711	132.948	0.095	-0.122
-642.697	498.033	-0.173	0.398
-641.682	0.717	0.245	0.176
-640.668	257.862	0.079	-0.137
-639.653	234.457	-0.202	0.333
-638.638	362.213	-0.029	-0.057
-637.624	48.025	0.105	-0.098
-636.609	-89.280	-0.159	-0.047
-635.595	-111.247	-0.319	0.065
-634.580	-104.733	0.229	-0.053
-633.565	243.085	0.148	-0.249
-632.551	-200.000	-0.019	-0.274
-631.536	800.000	0.054	0.168
-630.522	296.779	-0.080	-0.148
-629.507	-76.701	-0.315	-0.110
-628.492	-119.745	0.083	-0.014
-627.478	538.990	0.030	-0.070
-626.463	-17.258	-0.096	0.061
-625.449	-28.376	0.407	-0.235
-624.434	253.362	-0.122	0.208
-623.419	800.000	0.057	-0.192
-622.405	-8.092	0.172	0.116
-621.390	800.000	0.118	0.383
-620.376	-34.349	-0.396	0.217
-619.361	512.168	0.102	0.238
-618.346	55.796	0.055	-0.053
-617.332	101.070	-0.161	0.188
-616.317	730.566	0.030	0.079
-615.303	-99.403	0.094	0.024
-614.288	11.500	-0.289	-0.221
-613.273	-95.145	-0.184	0.050
-612.259	-200.000	-0.005	0.052
-611.244	19.153	-0.069	0.055
-610.230	157.268	0.069	0.095
-609.215	5.937	-0.189	-0.140
-608.201	-200.000	-0.015	0.150
-607.186	-11.927	0.290	-0.190
-606.171	121.974	0.231	-0.288
-605.157	230.550	-0.102	-0.167
-604.142	-200.000	-0.016	0.225
-603.128	70.724	0.118	-0.122
-602.113	-92.212	0.123	-0.035
-601.098	-200.000	0.081	0.496
-600.084	229.669	-0.148	-0.241
-599.069	491.623	0.079	-0.181
-598.055	-19.126	0.423	0.263
-597.040	152.673	0.018	0.025
-596.025	-200.000	0.031	0.264
-595.011	600.045	-0.115	0.285
-593.996	-126.499	0.193	0.029
-592.982	24.895	-0.271	0.224
-591.967	-61.241	-0.179	-0.076
-590.952	383.036	0.082	0.168
-589.938	-186.869	-0.319	0.004
-588.923	60.440	0.159	-0.157
-587.909	253.185	0.072	0.123
-586.894	-200.000	0.009	0.147
-585.879	300.802	0.081	0.149
-584.865	-78.975	-0.110	0.037
-583.850	-65.859	0.036	0.015
-582.836	-200.000	-0.342	0.002
-581.821	-200.000	-0.005	-0.098
-580.806	85.819	-0.215	-0.236
-579.792	306.014	-0.156	-0.291
-578.777	641.677	0.035	-0.090
-577.763	31.261	0.222	-0.190
-576.748	-200.000	0.010	-0.142
-575.733	64.390	-0.309	-0.311
-574.719	-51.436	-0.157	0.073
-573.704	796.990	0.002	0.005
-572.690	-69.605	-0.157	-0.060
-571.675	800.000	0.075	0.224
-570.661	110.998	-0.169	-0.204
-569.646	117.874	0.133	0.163
-568.631	35.691	-0.084	0.074
-567.617	-200.000	-0.013	-0.349
-566.602	-200.000	0.011	-0.084
-565.588	24.546	-0.064	0.053
-564.573	26.025	-0.262	-0.218
-563.558	-200.000	0.056	-0.473
-562.544	-80.726	0.275	0.091
-561.529	-12.077	-0.131	0.086
-560.515	56.338	-0.190	-0.184
-559.500	-200.000	-0.070	0.321
-558.485	-141.449	-0.024	0.002
-557.471	-200.000	0.018	0.134
-556.456	-90.101	-0.056	-0.016
-555.442	-75.530	0.115	0.041
-554.427	-190.052	-0.351	-0.004
-553.412	-200.000	-0.040	0.319
-552.398	800.000	-0.043	0.121
-551.383	-162.325	0.101	0.005
-550.369	98.819	0.251	-0.289
-549.354	800.000	-0.072	-0.287
-548.339	109.528	-0.132	-0.158
-547.325	-88.948	0.307	-0.091
-546.310	420.545	0.077	-0.165
-545.296	-51.797	-0.232	-0.108
-544.281	55.764	-0.284	0.275
-543.266	800.000	-0.012	-0.042
-542.252	26.248	-0.183	0.153
-541.237	64.343	0.143	0.144
-540.223	197.639	0.139	-0.212
-539.208	-135.932	-0.273	0.032
-538.193	-8.260	0.155	0.104
-537.179	-11.969	-0.060	0.039
-536.164	171.716	-0.098	-0.140
-535.150	-200.000	0.033	0.169
-534.135	-80.587	-0.136	0.045
-533.121	14.249	0.235	-0.183
-532.106	152.753	-0.152	-0.208
-531.091	-84.022	-0.140	-0.044
-530.077	181.646	0.159	0.233
-529.062	-200.000	0.012	-0.221
-528.048	-200.000	0.000	-0.016
-527.033	-1.621	-0.306	0.215
-526.018	-165.419	-0.028	-0.001
-525.004	-104.523	-0.351	0.081
-523.989	111.924	-0.325	-0.391
-522.975	-1.191	-0.171	0.121
-521.960	217.477	-0.045	-0.072
-520.945	-48.415	-0.313	-0.150
-519.931	-150.147	0.308	-0.024
-518.916	428.648	0.090	-0.193
-517.902	800.000	0.041	0.176
-516.887	745.344	0.046	0.124
-515.872	294.445	0.098	-0.178
-514.858	-36.656	-0.052	-0.028
-513.843	-64.364	-0.335	0.136
-512.829	-92.170	0.145	-0.041
-511.814	93.861	0.044	0.050
-510.799	-200.000	0.024	0.479
-509.785	-98.341	0.198	0.051
-508.770	-101.120	0.161	-0.039
-507.756	800.000	0.026	-0.104
-506.741	154.603	0.111	0.152
-505.726	-103.743	-0.302	0.071
-504.712	644.411	0.023	0.058
-503.697	-80.200	0.318	0.106
-502.683	-147.982	0.070	0.006
-501.668	-149.526	0.150	0.012
-500.653	756.330	-0.090	-0.243
-499.639	359.355	-0.176	0.350
-498.624	289.225	-0.085	-0.154
-497.610	-88.739	0.228	0.067
-496.595	103.275	-0.112	-0.131
-495.581	175.148	0.036	-0.052
-494.566	35.681	-0.212	-0.186
-493.551	-78.843	0.230	0.078
-492.537	-73.773	0.276	-0.100
-491.522	-200.000	0.022	-0.257
-490.508	800.000	-0.087	0.320
-489.493	-44.011	-0.217	0.109
-488.478	-16.001	-0.177	0.112
-487.464	-133.684	0.110	0.014
-486.449	-198.291	0.130	-0.001
-485.435	145.207	0.118	-0.157
-484.420	481.832	-0.133	-0.301
-483.405	-154.403	-0.190	0.013
-482.391	-118.156	-0.206	0.037
-481.376	-91.554	-0.079	0.022
-480.362	111.415	0.142	-0.170
-479.347	-200.000	0.024	-0.378
-478.332	-19.303	-0.324	0.200
-477.318	-36.273	-0.303	0.162
-476.303	-114.973	-0.045	0.009
-475.289	273.075	-0.155	-0.273
-474.274	-5.811	-0.080	-0.054
-473.259	-200.000	0.008	0.046
-472.245	-200.000	-0.058	0.358
-471.230	800.000	0.008	0.033
-470.216	-57.344	-0.325	0.142
-469.201	-85.496	0.317	-0.098
-468.186	5.344	-0.343	0.252
-467.172	409.567	0.106	-0.223
-466.157	383.586	0.084	-0.171
-465.143	19.012	0.083	0.067
-464.128	48.481	-0.204	0.190
-463.113	136.271	-0.114	0.148
-462.099	-47.953	0.055	-0.027
-461.084	-200.000	0.017	0.257
-460.070	-9.498	-0.313	0.208
-459.055	77.573	-0.130	0.138
-458.040	-26.584	0.294	-0.171
-457.026	-70.601	0.129	-0.049
-456.011	193.232	-0.033	0.049
-454.997	-54.982	-0.145	-0.065
-453.982	255.603	-0.241	-0.411
-452.968	-80.549	0.339	-0.113
-451.953	327.208	0.159	-0.304
-450.938	466.219	0.036	0.079
-449.924	-102.946	-0.241	0.057
-448.909	496.534	-0.053	-0.122
-447.895	800.000	0.066	-0.279
-446.880	-6.787	-0.115	-0.078
-445.865	-95.708	0.489	0.130
-444.851	-132.456	-0.088	0.011
-443.836	29.012	0.286	0.241
-442.822	537.005	0.189	0.446
-441.807	288.091	0.139	0.250
-440.792	-200.000	0.058	-0.386
-439.778	118.013	0.113	0.138
-438.763	-137.701	-0.062	-0.007
-437.749	689.089	0.114	0.296
-436.734	64.047	-0.127	0.127
-435.719	132.197	0.069	-0.088
-434.705	-200.000	0.011	0.223
-433.690	-135.561	0.343	0.041
-432.676	87.840	-0.195	-0.215
-431.661	-80.045	-0.156	-0.052
-430.646	800.000	-0.093	0.399
-429.632	-22.572	-0.096	-0.058
-428.617	-16.794	0.202	-0.127
-427.603	277.406	-0.088	-0.155
-426.588	185.091	0.186	-0.275
-425.573	217.610	0.170	-0.268
-424.559	-49.438	-0.072	0.034
-423.544	-66.137	0.043	-0.017
-422.530	-200.000	0.013	-0.296
-421.515	-200.000	0.033	-0.327
-420.500	86.668	-0.051	0.056
-419.486	-97.515	0.038	-0.010
-418.471	-77.655	-0.421	-0.145
-417.457	-106.824	0.081	-0.018
-416.442	-70.558	-0.162	0.061
-415.428	175.280	-0.104	0.149
-414.413	-16.603	-0.181	-0.114
-413.398	-154.910	0.204	0.013
-412.384	254.056	0.106	-0.180
-411.369	-200.000	0.033	0.225
-410.355	-89.385	0.384	0.112
-409.340	-9.338	0.126	-0.084
-408.325	-96.928	0.274	0.071
-407.311	-200.000	-0.019	-0.204
-406.296	299.647	-0.068	-0.125
-405.282	-81.143	0.391	-0.128
-404.267	-200.000	0.016	0.150
-403.252	-14.721	-0.145	0.093
-402.238	9.190	-0.282	0.212
-401.223	-200.000	0.030	-0.382
-400.209	-200.000	0.024	0.224
-399.194	-81.449	0.144	0.047
-398.179	13.390	-0.119	-0.092
-397.165	260.979	0.101	-0.173
-396.150	-197.262	0.220	-0.001
-395.136	169.869	0.064	0.091
-394.121	117.280	0.182	-0.222
-393.106	-200.000	-0.175	0.000
-392.092	-88.797	0.027	0.008
-391.077	116.617	-0.029	0.035
-390.063	-77.110	0.205	-0.071
-389.048	0.503	0.100	-0.071
-388.033	-21.530	-0.287	0.174
-387.019	-20.189	-0.181	0.111
-386.004	-90.263	-0.182	0.053
-384.990	-26.371	0.143	0.083
-383.975	-163.584	0.150	-0.007
-382.960	200.022	-0.198	0.301
-381.946	-200.000	-0.001	0.044
-380.931	-93.515	0.329	-0.090
-379.917	-125.231	-0.071	0.011
-378.902	-200.000	-0.008	-0.083
-377.888	-139.485	0.149	-0.016
-376.873	-65.315	0.188	-0.075
-375.858	139.971	0.062	0.081
-374.844	-200.000	-0.015	0.259
-373.829	-43.269	0.221	0.111
-372.815	-115.168	0.210	-0.039
-371.800	800.000	0.065	-0.276
-370.785	6.386	0.236	0.174
-369.771	-56.646	-0.144	0.063
-368.756	800.000	0.054	-0.167
-367.742	83.692	-0.118	-0.128
-366.727	246.550	0.099	0.166
-365.712	118.820	0.180	0.221
-364.698	231.871	0.119	0.193
-363.683	-5.166	-0.152	-0.104
-362.669	800.000	0.057	0.208
-361.654	-200.000	-0.001	0.086
-360.639	-24.150	-0.032	-0.019
-359.625	-118.855	-0.096	0.017
-358.610	-200.000	0.007	0.381
-357.596	129.409	0.245	-0.310
-356.581	-138.069	-0.121	0.013
-355.566	-155.159	0.093	0.006
-354.552	-44.036	-0.031	-0.015
-353.537	-32.549	-0.148	0.082
-352.523	-171.106	-0.146	0.005
-351.508	800.000	-0.087	-0.245
-350.493	-200.000	-0.006	-0.173
-349.479	-138.258	0.024	0.003
-348.464	-72.076	-0.219	-0.081
-347.450	800.000	0.090	-0.292
-346.435	-56.792	-0.144	0.063
-345.420	800.000	-0.026	0.107
-344.406	-26.154	0.171	-0.100
-343.391	94.920	0.240	0.271
-342.377	800.000	0.159	0.497
-341.362	-140.861	-0.167	0.017
-340.348	-123.421	-0.157	0.025
-339.333	-105.974	-0.181	-0.040
-338.318	-36.489	0.270	-0.144
-337.304	151.042	0.138	-0.186
-336.289	-200.000	0.067	0.310
-335.275	376.214	-0.151	-0.305
-334.260	553.016	0.100	0.237
-333.245	5.367	0.090	0.066
-332.231	665.715	-0.113	0.290
-331.216	-200.000	-0.030	-0.297
-330.202	495.256	0.110	-0.251
-329.187	-200.000	0.056	0.369
-328.172	57.877	-0.147	-0.142
-327.158	-83.337	0.060	-0.019
-326.143	558.779	0.063	0.151
-325.129	-137.587	-0.045	0.005
-324.114	153.148	-0.048	-0.065
-323.099	-43.575	-0.271	0.135
-322.085	800.000	-0.098	-0.298
-321.070	-200.000	-0.037	-0.250
-320.056	-98.303	-0.242	0.061
-319.041	-45.338	-0.259	0.127
-318.026	-200.000	0.053	-0.505
-317.012	-60.537	-0.304	0.128
-315.997	82.928	0.221	0.238
-314.983	262.871	-0.034	-0.058
-313.968	-200.000	0.040	-0.387
-312.953	-91.272	0.361	0.102
-311.939	-69.904	0.080	-0.030
-310.924	91.852	-0.218	-0.242
-309.910	154.240	0.058	0.079
-308.895	69.901	0.085	0.087
-307.880	87.093	0.184	0.201
-306.866	76.439	0.072	-0.075
-305.851	-147.553	0.341	-0.028
-304.837	109.155	0.070	0.083
-303.822	-160.273	0.153	0.008
-302.807	622.821	0.160	0.399
-301.793	65.186	-0.269	-0.269
-300.778	-200.000	-0.037	-0.388
-299.764	374.615	-0.162	-0.327
-298.749	34.186	-0.121	-0.104
-297.735	-19.217	-0.080	-0.049
-296.720	443.970	0.122	-0.264
-295.705	130.165	-0.219	0.277
-294.691	148.935	0.198	0.265
-293.676	57.475	0.112	-0.108
-292.662	-42.465	-0.217	0.109
-291.647	109.217	-0.193	-0.228
-290.632	216.027	0.208	0.327
-289.618	-72.963	-0.161	0.059
-288.603	341.811	-0.213	0.411
-287.589	203.869	0.042	0.064
-286.574	15.870	0.278	0.216
-285.559	-102.810	0.298	0.070
-284.545	-200.000	0.003	0.034
-283.530	-200.000	-0.001	0.390
-282.516	-200.000	-0.039	0.392
-281.501	59.495	-0.177	0.172
-280.486	-200.000	0.072	0.389
-279.472	405.979	-0.158	-0.330
-278.457	800.000	0.065	-0.203
-277.443	-132.717	-0.391	-0.049
-276.428	-200.000	0.007	0.095
-275.413	-18.744	-0.097	-0.059
-274.399	-67.215	-0.214	0.083
-273.384	800.000	-0.082	-0.326
-272.370	-49.181	0.185	-0.087
-271.355	290.058	0.080	0.143
-270.340	722.326	-0.096	-0.251
-269.326	286.942	-0.010	0.019
-268.311	401.715	0.130	-0.271
-267.297	-200.000	0.033	0.378
-266.282	800.000	0.054	0.225
-265.267	31.926	0.211	-0.179
-264.253	-55.321	0.236	0.105
-263.238	75.691	-0.231	-0.241
-262.224	33.978	0.126	-0.108
-261.209	-200.000	0.041	0.334
-260.195	-0.789	-0.118	0.083
-259.180	800.000	0.055	0.182
-258.165	242.867	-0.130	-0.216
-257.151	179.859	0.146	-0.211
-256.136	-120.580	-0.409	-0.068
-255.122	-47.312	0.160	0.077
-254.107	-13.282	0.345	-0.221
-253.092	-200.000	0.011	-0.150
-252.078	-96.114	-0.102	-0.027
-251.063	-106.958	-0.381	-0.083
-250.049	-34.730	0.134	0.072
-249.034	34.839	-0.053	-0.046
-248.019	-200.000	-0.040	0.572
-247.005	-133.496	0.341	0.042
-245.990	113.019	-0.174	0.208
-244.976	-124.266	0.235	-0.036
-243.961	-137.557	0.088	0.010
-242.946	395.334	-0.088	0.180
-241.932	-61.123	-0.243	0.101
-240.917	-117.648	-0.121	-0.022
-239.903	91.076	0.126	0.140
-238.888	4.371	-0.119	0.086
-237.873	-54.544	0.470	-0.210
-236.859	-162.376	0.088	-0.004
-235.844	529.486	0.064	0.149
-234.830	800.000	-0.175	-0.486
-233.815	-94.510	-0.162	-0.044
-232.800	522.804	0.054	-0.125
-231.786	552.077	0.104	-0.247
-230.771	-200.000	-0.007	0.302
-229.757	-200.000	-0.016	-0.180
-228.742	305.151	0.126	0.231
-227.727	7.411	-0.203	-0.150
-226.713	-200.000	-0.002	-0.193
-225.698	11.389	0.095	0.072
-224.684	83.546	0.092	-0.099
-223.669	-200.000	0.014	0.264
-222.655	265.629	-0.116	0.200
-221.640	188.344	0.219	-0.323
-220.625	-142.147	-0.340	0.033
-219.611	-39.090	-0.189	0.098
-218.596	-200.000	0.015	0.239
-217.582	800.000	-0.047	0.184
-216.567	-200.000	-0.002	0.291
-215.552	-200.000	-0.031	-0.202
-214.538	-200.000	-0.009	0.182
-213.523	31.144	-0.089	0.075
-212.509	37.278	-0.170	-0.148
-211.494	-200.000	-0.016	-0.253
-210.479	800.000	-0.118	-0.409
-209.465	269.134	-0.031	-0.053
-208.450	166.655	-0.065	-0.090
-207.436	-64.690	0.217	0.087
-206.421	-80.906	0.296	-0.097
-205.406	-189.160	0.283	-0.003
-204.392	30.266	0.396	0.333
-203.377	119.755	0.214	-0.261
-202.363	-94.131	0.151	0.041
-201.348	-24.859	0.145	-0.085
-200.333	142.492	-0.114	-0.149
-199.319	20.629	-0.068	0.054
-198.304	-43.922	-0.143	0.071
-197.290	-1.121	0.159	-0.111
-196.275	-36.623	0.298	0.158
-195.260	58.948	0.158	-0.153
-194.246	-200.000	-0.045	0.485
-193.231	-22.481	0.179	-0.106
-192.217	-92.798	-0.363	-0.100
-191.202	800.000	0.097	0.292
-190.187	-34.088	0.191	-0.104
-189.173	800.000	-0.049	-0.170
-188.158	-200.000	-0.018	-0.270
-187.144	-102.329	0.130	0.031
-186.129	-133.329	0.141	-0.018
-185.114	136.118	0.175	0.225
-184.100	800.000	-0.060	0.201
-183.085	24.743	-0.032	-0.026
-182.071	-53.827	0.164	-0.074
-181.056	69.187	0.106	0.107
-180.042	-123.758	0.318	-0.049
-179.027	-170.724	0.073	0.002
-178.012	-88.994	0.138	-0.040
-176.998	-61.428	0.143	0.059
-175.983	-32.564	-0.301	0.165
-174.969	-17.770	-0.098	0.060
-173.954	-42.448	0.139	-0.070
-172.939	-200.000	0.011	-0.222
-171.925	-200.000	-0.021	-0.226
-170.910	-32.212	-0.115	0.063
-169.896	84.154	-0.091	-0.098
-168.881	-147.652	-0.398	0.033
-167.866	68.336	-0.115	-0.116
-166.852	-38.357	-0.354	0.184
-165.837	510.539	-0.038	-0.087
-164.823	6.726	0.114	0.083
-163.808	33.584	0.200	-0.171
-162.793	-135.119	0.116	0.014
-161.779	52.683	0.019	-0.018
-160.764	-200.000	-0.001	0.056
-159.750	-92.690	0.238	-0.066
-158.735	16.614	-0.312	-0.242
-157.720	-200.000	0.043	0.335
-156.706	-98.032	0.386	-0.098
-155.691	-95.158	0.351	-0.093
-154.677	-110.943	-0.067	-0.014
-153.662	-147.072	-0.399	0.034
-152.647	-159.475	-0.234	-0.013
-151.633	800.000	-0.075	-0.258
-150.618	-84.624	-0.170	-0.053
-149.604	66.714	0.143	-0.143
-148.589	-126.373	0.160	0.023
-147.574	-101.732	-0.299	0.071
-146.560	363.899	0.173	-0.343
-145.545	-40.896	0.161	-0.082
-144.531	-200.000	0.024	0.156
-143.516	-153.612	0.239	0.016
-142.502	102.416	-0.080	0.092
-141.487	-118.636	0.146	-0.025
-140.472	100.625	-0.230	-0.262
-139.458	99.742	0.194	0.221
-138.443	258.135	-0.148	-0.251
-137.429	26.319	-0.276	0.227
-136.414	-200.000	-0.044	-0.410
-135.399	-58.956	-0.416	-0.176
-134.385	-4.448	-0.033	0.023
-133.370	134.815	0.157	0.200
-132.356	-200.000	0.003	0.280
-131.341	-106.255	0.257	-0.056
-130.326	-56.553	-0.462	-0.201
-129.312	-112.253	0.575	-0.113
-128.297	-200.000	-0.031	-0.144
-127.283	-52.054	-0.206	-0.094
-126.268	239.370	0.092	-0.151
-125.253	44.409	-0.077	0.070
-124.239	298.031	0.110	-0.198
-123.224	-42.708	0.287	0.143
-122.210	-77.672	0.175	0.060
-121.195	-200.000	0.051	0.260
