DTS Sentinel unit serial number:	SN413079Multiplexer serial number:	ORYXHardware model number:	OX4-SRSoftware version number:	ORYX F/W v4.00 Oryx Data Collector v3.7.2.0data status	okinstallation	princeton_trtdifferential loss correction	single-endedforward channel	channel 1reverse channel	N/Adate	2019/09/17time	07:22:35forward acquisition time	60.00reverse acquisition time	0.00gamma	496.2192k internal	0.2332k external	0.2332temperature offset calibration	0.9963default loss term (dB/km)	0.3790temperature slope calibration	1.0000multiplexer offset coefficient	1.0000multiplexer slope coefficient	1.0000fibre end	0.00T internal ref (°C)	27.25T ext. ref 1 (°C)	0.10T ext. ref 2 (°C)	21.47length (m)	temperature (°C)	Stokes	anti-Stokes-747.200	153.079	-0.181	0.249
-746.185	-133.659	0.267	-0.034
-745.171	38.193	-0.104	-0.093
-744.156	-44.453	0.333	-0.167
-743.142	10.937	-0.168	0.129
-742.127	-96.706	-0.301	0.080
-741.112	-104.969	-0.352	0.081
-740.098	240.069	-0.206	0.346
-739.083	-200.000	0.001	0.212
-738.069	800.000	0.124	0.371
-737.054	-92.575	-0.208	0.059
-736.039	61.838	0.112	-0.112
-735.025	-93.462	0.252	0.070
-734.010	-83.461	0.206	-0.066
-732.996	-200.000	-0.034	0.155
-731.981	800.000	-0.134	0.384
-730.966	-200.000	0.049	-0.218
-729.952	276.896	0.076	0.135
-728.937	-55.820	-0.211	-0.095
-727.923	56.774	0.033	-0.032
-726.908	-200.000	-0.020	-0.408
-725.894	-200.000	0.065	-0.330
-724.879	-200.000	-0.019	0.133
-723.864	94.557	0.095	-0.109
-722.850	-200.000	0.004	-0.469
-721.835	-3.143	0.328	-0.230
-720.821	236.567	-0.035	0.058
-719.806	764.773	0.040	0.109
-718.791	790.903	0.049	0.135
-717.777	-114.542	-0.155	-0.030
-716.762	-97.724	0.243	-0.063
-715.748	-200.000	0.020	0.107
-714.733	500.476	-0.124	0.287
-713.718	218.437	0.232	0.372
-712.704	-178.283	-0.096	-0.002
-711.689	68.093	0.060	-0.061
-710.675	-200.000	0.028	0.129
-709.660	435.696	0.134	0.293
-708.645	285.513	-0.076	-0.138
-707.631	15.490	-0.344	0.271
-706.616	800.000	-0.055	-0.204
-705.602	-200.000	-0.012	0.147
-704.587	-70.712	0.115	-0.044
-703.572	271.747	0.091	-0.161
-702.558	696.670	-0.039	0.104
-701.543	-200.000	0.008	-0.074
-700.529	-57.593	-0.302	-0.133
-699.514	-200.000	0.015	0.158
-698.499	-141.789	-0.087	0.009
-697.485	14.812	-0.166	-0.131
-696.470	247.574	-0.030	0.050
-695.456	-2.408	0.233	-0.164
-694.441	477.685	0.055	-0.126
-693.426	396.136	-0.023	-0.049
-692.412	52.561	0.047	0.045
-691.397	-49.754	0.441	0.211
-690.383	-121.762	-0.136	0.023
-689.368	23.752	0.144	-0.119
-688.354	-200.000	-0.012	0.290
-687.339	155.033	0.239	0.330
-686.324	186.750	-0.118	0.176
-685.310	-74.028	0.054	0.020
-684.295	30.112	0.223	-0.191
-683.281	622.086	-0.123	-0.312
-682.266	-104.041	-0.110	0.026
-681.251	-98.849	0.247	-0.063
-680.237	-8.192	-0.056	-0.038
-679.222	322.071	0.143	-0.273
-678.208	350.230	-0.081	-0.161
-677.193	46.529	-0.050	0.047
-676.178	58.269	-0.066	0.065
-675.164	-134.984	0.178	-0.022
-674.149	-23.146	-0.152	-0.092
-673.135	800.000	0.021	-0.066
-672.120	-142.360	-0.264	0.026
-671.105	-200.000	-0.005	-0.342
-670.091	-32.627	-0.108	-0.061
-669.076	-1.462	0.287	0.203
-668.062	-89.475	0.182	0.054
-667.047	-200.000	0.005	-0.057
-666.032	2.072	-0.113	0.082
-665.018	-55.714	-0.229	0.103
-664.003	-73.492	0.266	0.097
-662.989	511.170	0.059	-0.137
-661.974	-86.796	-0.104	-0.032
-660.959	188.582	0.210	-0.315
-659.945	-143.527	0.117	-0.011
-658.930	-126.996	-0.395	-0.058
-657.916	-48.652	-0.226	0.109
-656.901	-121.949	0.190	-0.031
-655.886	-200.000	-0.005	-0.243
-654.872	-1.283	0.145	0.103
-653.857	-134.236	0.227	-0.028
-652.843	271.823	-0.039	0.070
-651.828	-115.977	-0.077	-0.014
-650.814	-88.943	0.283	-0.084
-649.799	-35.179	-0.080	0.044
-648.784	222.580	0.022	-0.035
-647.770	321.088	-0.104	0.198
-646.755	-113.476	-0.220	0.043
-645.741	800.000	-0.054	-0.197
-644.726	-74.093	0.414	-0.150
-643.711	-200.000	-0.029	0.161
-642.697	155.128	-0.172	0.237
-641.682	-145.332	0.520	0.047
-640.668	800.000	0.048	0.147
-639.653	-112.870	0.102	0.020
-638.638	-130.033	0.191	-0.026
-637.624	-200.000	0.061	0.418
-636.609	2.708	0.066	-0.048
-635.595	55.064	0.121	0.117
-634.580	-102.343	-0.028	0.007
-633.565	-200.000	0.048	0.335
-632.551	-106.294	-0.236	0.053
-631.536	-101.141	-0.103	-0.025
-630.522	133.986	-0.250	0.325
-629.507	-78.082	-0.071	0.024
-628.492	45.853	-0.289	-0.268
-627.478	109.379	0.249	0.299
-626.463	-146.027	-0.151	-0.013
-625.449	293.222	0.097	-0.177
-624.434	209.984	0.006	0.009
-623.419	-200.000	0.056	-0.277
-622.405	800.000	-0.024	-0.098
-621.390	-108.499	0.102	-0.022
-620.376	-4.555	0.261	0.180
-619.361	-72.496	0.297	-0.110
-618.346	-200.000	0.002	0.166
-617.332	-200.000	0.079	0.506
-616.317	477.413	0.058	-0.132
-615.303	381.383	0.043	0.089
-614.288	-86.255	-0.090	0.028
-613.273	437.285	-0.133	-0.290
-612.259	42.313	0.230	0.209
-611.244	800.000	-0.038	0.110
-610.230	-114.228	0.095	-0.018
-609.215	-111.884	-0.180	-0.036
-608.201	151.177	-0.156	-0.212
-607.186	800.000	0.064	0.221
-606.171	-200.000	0.059	0.273
-605.157	29.292	-0.137	0.116
-604.142	14.070	0.212	0.165
-603.128	334.741	-0.073	0.141
-602.113	-83.836	-0.345	0.110
-601.098	-95.262	0.338	0.091
-600.084	61.339	-0.064	-0.064
-599.069	-89.589	0.209	-0.061
-598.055	10.466	0.231	0.176
-597.040	83.657	-0.031	-0.034
-596.025	-51.903	0.095	0.044
-595.011	800.000	-0.088	-0.338
-593.996	237.906	-0.092	0.153
-592.982	-200.000	-0.003	0.175
-591.967	-200.000	-0.006	-0.117
-590.952	-23.146	0.061	-0.037
-589.938	-57.949	-0.091	0.040
-588.923	256.455	-0.255	0.438
-587.909	-200.000	0.007	-0.181
-586.894	-200.000	0.016	0.476
-585.879	444.896	0.187	0.410
-584.865	-96.992	0.275	0.072
-583.850	34.381	-0.091	-0.080
-582.836	800.000	-0.052	-0.182
-581.821	-165.431	0.275	0.012
-580.806	-16.617	0.030	0.019
-579.792	295.602	-0.064	0.117
-578.777	-10.469	0.025	-0.017
-577.763	164.132	0.133	-0.187
-576.748	444.258	0.192	-0.421
-575.733	-105.003	-0.376	0.086
-574.719	-200.000	-0.004	0.207
-573.704	-57.939	0.099	-0.043
-572.690	50.114	-0.299	-0.282
-571.675	-200.000	0.071	0.560
-570.661	198.046	-0.114	-0.174
-569.646	-200.000	-0.011	0.244
-568.631	337.404	-0.201	-0.390
-567.617	355.497	0.027	-0.055
-566.602	5.548	0.096	0.071
-565.588	800.000	0.048	-0.150
-564.573	-160.858	0.270	0.014
-563.558	-101.957	-0.233	0.056
-562.544	-36.461	-0.062	0.033
-561.529	-68.343	-0.146	0.057
-560.515	-200.000	-0.033	0.164
-559.500	-96.974	0.308	-0.081
-558.485	-200.000	0.012	-0.138
-557.471	-60.761	0.255	-0.108
-556.456	-200.000	0.004	0.092
-555.442	-200.000	0.017	0.392
-554.427	51.618	0.212	0.201
-553.412	317.591	-0.084	0.159
-552.398	690.782	-0.072	0.188
-551.383	-105.787	-0.384	0.087
-550.369	-200.000	0.053	-0.368
-549.354	-200.000	0.049	0.291
-548.339	-200.000	-0.016	0.083
-547.325	-200.000	-0.037	0.204
-546.310	-132.736	0.274	0.035
-545.296	-200.000	-0.022	-0.158
-544.281	199.193	0.065	0.099
-543.266	-200.000	-0.012	-0.121
-542.252	6.616	-0.250	-0.186
-541.237	51.106	0.121	-0.115
-540.223	-61.657	-0.191	0.080
-539.208	119.136	0.180	-0.222
-538.193	126.068	-0.128	-0.162
-537.179	-200.000	-0.003	-0.019
-536.164	794.628	0.150	-0.411
-535.150	33.301	0.159	0.138
-534.135	-200.000	0.015	0.166
-533.121	-109.037	0.157	-0.033
-532.106	-91.926	0.266	-0.075
-531.091	-200.000	0.065	0.492
-530.077	-1.053	-0.079	-0.056
-529.062	334.570	0.114	-0.220
-528.048	-143.109	-0.230	0.022
-527.033	61.975	0.092	0.092
-526.018	-74.828	0.088	-0.031
-525.004	768.463	-0.050	-0.134
-523.989	-200.000	0.010	-0.243
-522.975	119.266	0.169	0.209
-521.960	297.149	-0.094	0.172
-520.945	51.017	-0.203	-0.192
-519.931	193.894	-0.075	0.114
-518.916	376.598	-0.179	-0.363
-517.902	-200.000	0.023	-0.137
-516.887	61.317	0.274	-0.272
-515.872	-200.000	0.086	-0.475
-514.858	249.006	0.036	0.061
-513.843	-200.000	0.015	-0.245
-512.829	800.000	0.099	-0.419
-511.814	310.867	0.066	-0.123
-510.799	-44.012	0.265	-0.133
-509.785	-60.792	-0.122	-0.051
-508.770	800.000	-0.057	0.156
-507.756	-56.602	0.304	-0.134
-506.741	630.245	-0.051	-0.129
-505.726	75.739	-0.185	-0.194
-504.712	800.000	0.026	-0.076
-503.697	-136.045	-0.398	0.047
-502.683	31.545	0.100	-0.086
-501.668	-78.434	0.076	0.026
-500.653	-101.807	-0.086	0.021
-499.639	-200.000	0.010	0.144
-498.624	-30.761	0.125	0.071
-497.610	5.482	0.248	0.183
-496.595	-44.535	-0.302	0.150
-495.581	207.628	-0.081	-0.126
-494.566	239.219	0.053	-0.088
-493.551	-102.249	-0.254	0.061
-492.537	800.000	-0.106	-0.297
-491.522	800.000	-0.042	-0.166
-490.508	-18.485	-0.394	0.245
-489.493	423.119	0.051	0.109
-488.478	226.963	-0.037	-0.060
-487.464	106.152	0.186	-0.219
-486.449	-176.338	-0.303	-0.008
-485.435	-52.075	0.179	0.083
-484.420	-139.845	0.154	0.016
-483.405	89.153	0.152	0.169
-482.391	589.261	-0.038	-0.092
-481.376	32.834	0.054	0.046
-480.362	-89.316	-0.297	-0.087
-479.347	84.086	0.108	0.118
-478.332	360.812	0.137	-0.273
-477.318	36.617	-0.058	0.051
-476.303	-18.105	0.272	-0.170
-475.289	-100.176	0.127	-0.032
-474.274	-54.042	-0.181	-0.082
-473.259	83.182	-0.192	-0.208
-472.245	113.119	0.208	-0.252
-471.230	800.000	0.034	0.098
-470.216	275.258	0.107	0.189
-469.201	283.108	-0.129	0.231
-468.186	800.000	0.062	0.192
-467.172	-188.502	-0.093	0.001
-466.157	-119.313	0.253	-0.044
-465.143	800.000	0.110	0.330
-464.128	-135.497	0.061	0.007
-463.113	363.712	0.198	-0.396
-462.099	-17.029	0.350	-0.220
-461.084	-200.000	0.001	-0.037
-460.070	-200.000	-0.009	-0.224
-459.055	-200.000	0.013	0.257
-458.040	-200.000	-0.021	0.122
-457.026	-43.129	-0.152	-0.076
-456.011	148.736	0.159	0.214
-454.997	-21.591	0.272	0.165
-453.982	-73.720	0.099	0.036
-452.968	288.835	-0.154	0.277
-451.953	-200.000	-0.053	-0.383
-450.938	-56.740	-0.041	0.018
-449.924	96.117	-0.203	-0.230
-448.909	464.025	-0.021	-0.046
-447.895	107.511	-0.047	-0.056
-446.880	7.465	-0.141	0.105
-445.865	490.151	-0.057	0.130
-444.851	800.000	0.054	-0.213
-443.836	272.013	-0.184	0.322
-442.822	-200.000	-0.011	0.219
-441.807	80.690	-0.128	-0.137
-440.792	90.817	-0.100	0.111
-439.778	-200.000	-0.013	0.187
-438.763	-144.915	-0.180	0.016
-437.749	800.000	0.091	0.395
-436.734	56.271	0.189	-0.183
-435.719	800.000	-0.109	0.300
-434.705	-159.495	-0.124	-0.007
-433.690	-144.473	-0.174	-0.016
-432.676	800.000	0.111	-0.469
-431.661	33.081	-0.051	-0.044
-430.646	118.917	-0.191	0.235
-429.632	-200.000	-0.020	0.269
-428.617	56.315	-0.151	-0.145
-427.603	-117.241	0.038	-0.007
-426.588	444.784	-0.093	0.203
-425.573	201.352	-0.126	-0.192
-424.559	800.000	0.157	-0.443
-423.544	68.656	0.126	-0.128
-422.530	-200.000	-0.046	-0.392
-421.515	4.920	-0.273	-0.199
-420.500	-138.210	0.211	-0.023
-419.486	90.089	-0.285	-0.316
-418.471	303.034	0.041	-0.076
-417.457	-200.000	-0.008	-0.071
-416.442	800.000	0.109	0.303
-415.428	306.351	0.215	-0.397
-414.413	132.726	-0.087	-0.111
-413.398	-200.000	0.013	0.107
-412.384	-200.000	-0.054	-0.322
-411.369	800.000	-0.093	0.306
-410.355	-200.000	-0.007	0.245
-409.340	-200.000	0.031	0.282
-408.325	80.652	0.174	0.186
-407.311	-200.000	-0.006	-0.262
-406.296	-77.172	-0.290	0.100
-405.282	-9.434	0.225	0.149
-404.267	461.533	-0.010	-0.023
-403.252	-200.000	-0.037	0.538
-402.238	-65.549	-0.330	-0.131
-401.223	509.294	-0.127	0.292
-400.209	-200.000	0.020	-0.374
-399.194	26.634	-0.053	-0.044
-398.179	-96.406	-0.178	-0.047
-397.165	-21.440	-0.135	-0.082
-396.150	65.336	0.127	-0.128
-395.136	-197.722	0.098	-0.001
-394.121	28.403	-0.128	0.108
-393.106	800.000	-0.024	-0.094
-392.092	-115.241	0.252	0.047
-391.077	-36.575	-0.305	0.163
-390.063	800.000	-0.027	-0.085
-389.048	114.453	-0.083	0.100
-388.033	-109.115	-0.392	-0.083
-387.019	509.783	-0.107	-0.246
-386.004	9.508	-0.204	-0.153
-384.990	56.046	-0.053	0.051
-383.975	312.154	0.248	0.463
-382.960	-200.000	0.016	0.195
-381.946	293.663	0.024	0.044
-380.931	120.578	-0.121	-0.149
-379.917	-200.000	-0.052	0.394
-378.902	-127.423	-0.191	0.027
-377.888	-75.306	-0.260	-0.092
-376.873	-200.000	0.036	-0.261
-375.858	-98.089	0.360	-0.092
-374.844	-138.999	0.046	-0.005
-373.829	27.782	0.122	-0.102
-372.815	-63.861	0.067	0.027
-371.800	-147.047	-0.287	0.024
-370.785	-102.762	-0.328	-0.077
-369.771	151.066	0.162	-0.219
-368.756	-24.246	-0.214	0.126
-367.742	-15.855	-0.199	-0.125
-366.727	-200.000	-0.016	-0.091
-365.712	16.802	0.413	-0.324
-364.698	-66.237	0.259	0.102
-363.683	442.858	-0.139	0.302
-362.669	-96.797	0.240	0.062
-361.654	-32.884	0.448	0.246
-360.639	-79.719	-0.042	-0.014
-359.625	-36.189	0.208	-0.111
-358.610	-86.978	0.259	0.078
-357.596	-200.000	-0.020	-0.521
-356.581	197.875	0.191	-0.289
-355.566	-165.781	0.062	0.003
-354.552	387.973	-0.031	0.063
-353.537	-105.303	-0.121	0.027
-352.523	22.638	-0.266	0.216
-351.508	86.533	-0.100	-0.109
-350.493	-97.966	0.179	0.046
-349.479	-200.000	0.069	-0.329
-348.464	-200.000	-0.035	-0.230
-347.450	-156.437	0.351	0.022
-346.435	486.978	-0.112	0.254
-345.420	-180.233	-0.156	0.003
-344.406	800.000	-0.075	-0.232
-343.391	67.682	-0.195	0.198
-342.377	61.074	0.137	0.135
-341.362	179.455	0.070	-0.101
-340.348	-2.936	-0.167	-0.115
-339.333	-94.696	-0.040	-0.011
-338.318	-200.000	-0.008	0.222
-337.304	170.493	-0.096	0.137
-336.289	-99.780	-0.165	0.041
-335.275	-19.437	0.225	0.138
-334.260	-175.941	0.288	0.008
-333.245	-151.254	-0.435	0.032
-332.231	-51.832	-0.205	0.095
-331.216	113.999	-0.094	-0.113
-330.202	252.703	0.044	-0.074
-329.187	255.048	-0.155	-0.263
-328.172	61.520	0.150	-0.148
-327.158	800.000	-0.042	-0.141
-326.143	-200.000	-0.039	-0.420
-325.129	413.680	0.126	-0.265
-324.114	800.000	-0.028	-0.111
-323.099	-39.968	-0.065	-0.034
-322.085	5.299	-0.280	0.204
-321.070	48.048	-0.208	-0.192
-320.056	-199.072	0.112	0.001
-319.041	382.533	-0.169	0.343
-318.026	800.000	-0.036	-0.142
-317.012	800.000	0.065	-0.203
-315.997	316.641	-0.171	0.319
-314.983	187.237	0.105	0.155
-313.968	-133.158	0.070	0.009
-312.953	14.526	-0.179	-0.138
-311.939	-200.000	-0.039	-0.221
-310.924	179.778	-0.080	-0.116
-309.910	-64.390	0.167	0.067
-308.895	87.600	0.052	-0.057
-307.880	-200.000	0.008	0.231
-306.866	-8.909	0.127	0.084
-305.851	82.066	0.162	-0.174
-304.837	-200.000	0.030	-0.191
-303.822	-200.000	0.032	0.164
-302.807	-40.710	0.123	-0.063
-301.793	130.916	0.039	-0.050
-300.778	-112.536	-0.280	-0.055
-299.764	271.243	-0.155	0.270
-298.749	-200.000	-0.033	-0.204
-297.735	-187.045	-0.316	-0.004
-296.720	-11.274	-0.115	0.075
-295.705	188.360	-0.146	0.216
-294.691	-38.311	0.046	-0.024
-293.676	-200.000	0.031	-0.197
-292.662	-83.427	-0.280	0.089
-291.647	-102.318	-0.065	0.015
-290.632	-15.378	-0.063	0.040
-289.618	332.619	0.216	-0.411
-288.603	142.723	-0.110	0.145
-287.589	-200.000	0.034	-0.188
-286.574	-108.801	-0.109	0.023
-285.559	378.949	-0.059	0.120
-284.545	-186.272	-0.293	-0.004
-283.530	72.072	-0.129	0.132
-282.516	55.493	0.140	0.134
-281.501	-0.928	0.113	-0.079
-280.486	35.090	-0.249	0.215
-279.472	-131.347	0.151	-0.020
-278.457	606.540	-0.067	0.165
-277.443	-200.000	0.006	-0.097
-276.428	800.000	-0.057	-0.210
-275.413	-114.147	-0.132	0.025
-274.399	-76.356	0.126	0.044
-273.384	211.284	-0.200	-0.310
-272.370	637.965	-0.079	-0.199
-271.355	800.000	0.070	-0.250
-270.340	103.335	0.144	-0.167
-269.326	-119.114	0.213	-0.037
-268.311	800.000	-0.058	-0.243
-267.297	-200.000	0.020	-0.322
-266.282	-25.106	-0.059	0.034
-265.267	-200.000	-0.030	-0.308
-264.253	-200.000	0.018	-0.193
-263.238	800.000	0.064	0.207
-262.224	245.962	-0.071	0.118
-261.209	-200.000	-0.008	-0.231
-260.195	-80.047	0.030	-0.010
-259.180	-128.067	-0.252	-0.036
-258.165	83.493	-0.153	-0.165
-257.151	-34.712	0.032	-0.018
-256.136	-105.886	-0.339	0.075
-255.122	800.000	0.056	0.167
-254.107	-200.000	-0.043	0.328
-253.092	486.424	-0.048	-0.108
-252.078	654.106	0.065	0.165
-251.063	90.202	-0.041	0.045
-250.049	697.314	-0.048	-0.124
-249.034	800.000	-0.110	-0.399
-248.019	310.958	0.115	-0.212
-247.005	60.861	-0.121	0.118
-245.990	97.149	0.092	0.104
-244.976	-9.630	0.324	0.213
-243.961	-200.000	0.025	-0.167
-242.946	-11.569	-0.236	-0.153
-241.932	800.000	0.030	-0.119
-240.917	6.013	0.134	-0.098
-239.903	-200.000	0.045	0.247
-238.888	-38.037	-0.074	-0.039
-237.873	-200.000	-0.040	0.193
-236.859	26.095	-0.234	-0.193
-235.844	55.443	0.160	0.153
-234.830	67.409	0.124	-0.125
-233.815	-106.081	0.146	-0.032
-232.800	-74.818	-0.160	0.057
-231.786	-162.901	0.464	0.022
-230.771	-102.170	0.207	0.049
-229.757	24.130	-0.204	0.166
-228.742	-200.000	-0.039	0.361
-227.727	-69.368	0.316	-0.120
-226.713	562.511	-0.031	0.073
-225.698	-40.816	-0.212	0.108
-224.684	109.002	-0.280	0.330
-223.669	-30.086	0.104	0.058
-222.655	-90.653	0.169	-0.048
-221.640	-200.000	0.001	0.082
-220.625	103.006	-0.221	-0.255
-219.611	101.129	0.353	0.405
-218.596	-155.655	-0.110	0.007
-217.582	256.855	-0.138	-0.234
-216.567	-9.768	0.162	0.106
-215.552	-6.421	0.149	-0.100
-214.538	361.082	-0.057	0.113
-213.523	-123.388	-0.123	0.019
-212.509	-200.000	-0.002	-0.283
-211.494	-200.000	0.007	0.275
-210.479	1.860	0.090	-0.064
-209.465	-54.230	0.123	0.055
-208.450	-117.511	0.346	0.062
-207.436	800.000	0.112	0.398
-206.421	-83.601	0.265	0.083
-205.406	0.364	-0.288	0.202
-204.392	800.000	0.013	0.041
-203.377	-139.819	-0.128	0.013
-202.363	210.486	0.119	0.185
-201.348	209.340	-0.128	0.198
-200.333	-200.000	-0.008	-0.204
-199.319	65.781	0.131	-0.130
-198.304	-77.267	0.194	-0.066
-197.290	-88.467	0.148	-0.044
-196.275	353.072	-0.054	0.105
-195.260	-55.599	-0.105	-0.046
-194.246	-51.714	0.433	-0.199
-193.231	114.982	0.128	0.153
-192.217	-57.252	-0.057	-0.025
-191.202	-27.016	-0.103	-0.059
-190.187	38.757	-0.202	-0.177
-189.173	162.468	-0.163	-0.225
-188.158	-185.681	0.231	0.003
-187.144	-41.698	-0.211	0.107
-186.129	25.990	0.162	0.133
-185.114	-200.000	-0.024	0.312
-184.100	743.994	-0.022	0.057
-183.085	-79.502	-0.232	0.077
-182.071	18.073	0.040	-0.031
-181.056	658.148	0.146	-0.370
-180.042	800.000	0.057	0.179
-179.027	-200.000	-0.014	-0.069
-178.012	169.514	-0.049	-0.069
-176.998	366.865	0.165	0.328
-175.983	20.161	0.244	-0.193
-174.969	363.759	0.146	-0.288
-173.954	-200.000	-0.013	0.121
-172.939	-91.454	0.102	-0.029
-171.925	800.000	-0.075	0.222
-170.910	-102.619	-0.118	-0.028
-169.896	800.000	0.062	-0.187
-168.881	800.000	0.035	-0.116
-167.866	-73.591	0.290	0.104
-166.852	-55.814	0.188	0.083
-165.837	-89.386	0.153	-0.044
-164.823	22.934	0.206	0.166
-163.808	111.935	0.094	0.111
-162.793	202.209	0.056	0.085
-161.779	800.000	-0.060	0.197
-160.764	-200.000	-0.010	0.207
-159.750	-104.531	-0.400	-0.091
-158.735	-159.436	0.063	-0.003
-157.720	-200.000	0.029	0.451
-156.706	-84.666	-0.156	-0.048
-155.691	176.588	-0.169	-0.242
-154.677	800.000	0.018	-0.070
-153.662	-200.000	-0.029	-0.235
-152.647	800.000	-0.051	0.200
-151.633	-126.573	0.051	-0.007
-150.618	-200.000	0.022	-0.391
-149.604	800.000	-0.011	-0.034
-148.589	-135.498	-0.519	0.061
-147.574	11.617	-0.196	0.148
-146.560	-64.051	-0.134	0.054
-145.545	279.677	0.142	-0.249
-144.531	71.594	-0.076	0.078
-143.516	19.435	-0.231	0.182
-142.502	-200.000	0.033	-0.204
-141.487	466.417	0.143	0.315
-140.472	114.148	-0.130	0.156
-139.458	51.178	0.163	0.152
-138.443	-62.705	-0.199	-0.081
-137.429	800.000	0.042	-0.179
-136.414	-130.066	0.060	0.008
-135.399	10.177	0.080	0.060
-134.385	184.365	-0.077	-0.113
-133.370	-129.733	0.149	0.020
-132.356	-160.285	0.216	-0.011
-131.341	-97.507	0.232	0.059
-130.326	-169.052	0.093	0.003
-129.312	10.147	0.285	-0.213
-128.297	91.020	-0.345	-0.380
-127.283	-200.000	-0.048	0.263
-126.268	800.000	0.107	-0.303
-125.253	90.867	0.114	-0.126
-124.239	-3.799	-0.093	0.063
-123.224	-200.000	0.014	0.126
-122.210	-50.825	0.216	0.100
-121.195	-36.168	-0.182	0.097
