DTS Sentinel unit serial number:	SN413079Multiplexer serial number:	ORYXHardware model number:	OX4-SRSoftware version number:	ORYX F/W v4.00 Oryx Data Collector v3.7.2.0data status	okinstallation	princeton_trtdifferential loss correction	single-endedforward channel	channel 1reverse channel	N/Adate	2019/09/16time	07:18:35forward acquisition time	60.00reverse acquisition time	0.00gamma	496.2192k internal	0.2331k external	0.2331temperature offset calibration	0.9982default loss term (dB/km)	0.3790temperature slope calibration	1.0000multiplexer offset coefficient	1.0000multiplexer slope coefficient	1.0000fibre end	0.00T internal ref (°C)	27.41T ext. ref 1 (°C)	11.57T ext. ref 2 (°C)	22.54length (m)	temperature (°C)	Stokes	anti-Stokes-747.200	-71.791	0.048	0.018
-746.185	6.309	-0.246	-0.184
-745.171	-200.000	-0.004	-0.046
-744.156	34.632	-0.031	-0.027
-743.142	-14.004	0.138	-0.090
-742.127	-119.159	0.154	-0.027
-741.112	219.182	-0.264	0.425
-740.098	136.466	0.042	-0.056
-739.083	-200.000	-0.009	-0.108
-738.069	-184.024	-0.281	-0.005
-737.054	800.000	0.104	0.331
-736.039	-104.108	-0.255	0.060
-735.025	252.871	-0.162	0.279
-734.010	13.731	-0.096	0.075
-732.996	-105.534	-0.450	-0.103
-731.981	-107.076	-0.480	-0.107
-730.966	414.323	-0.106	0.228
-729.952	-86.440	-0.224	-0.069
-728.937	139.704	0.112	-0.148
-727.923	800.000	-0.033	0.123
-726.908	-200.000	0.062	0.414
-725.894	21.819	0.106	-0.087
-724.879	-49.665	-0.263	-0.126
-723.864	22.844	0.184	-0.152
-722.850	397.690	0.110	-0.232
-721.835	-180.844	-0.079	-0.002
-720.821	-200.000	-0.010	-0.372
-719.806	-200.000	-0.020	-0.303
-718.791	-19.000	0.160	0.100
-717.777	-187.148	-0.207	0.003
-716.762	-148.473	0.081	-0.007
-715.748	-132.566	-0.197	-0.026
-714.733	51.094	0.189	-0.180
-713.718	507.445	-0.050	-0.116
-712.704	-67.159	0.084	-0.033
-711.689	-200.000	-0.001	0.067
-710.675	213.247	-0.096	-0.153
-709.660	54.489	0.052	0.051
-708.645	127.945	0.092	0.117
-707.631	-39.918	-0.229	-0.120
-706.616	-106.521	0.199	-0.045
-705.602	-200.000	0.251	0.000
-704.587	65.930	0.285	-0.291
-703.572	327.628	0.044	0.084
-702.558	354.763	-0.039	0.078
-701.543	4.520	-0.136	-0.100
-700.529	-55.213	0.156	-0.070
-699.514	132.272	-0.173	-0.224
-698.499	80.099	-0.215	0.232
-697.485	160.100	-0.138	0.194
-696.470	282.979	-0.073	-0.132
-695.456	-37.078	-0.115	-0.062
-694.441	8.111	-0.170	-0.128
-693.426	-200.000	-0.024	0.142
-692.412	800.000	0.025	-0.105
-691.397	329.032	0.055	-0.106
-690.383	-200.000	0.015	0.205
-689.368	36.256	0.212	0.188
-688.354	-200.000	-0.023	-0.178
-687.339	-200.000	0.079	0.427
-686.324	138.556	-0.162	-0.214
-685.310	104.563	-0.280	0.331
-684.295	0.788	-0.072	0.052
-683.281	-200.000	-0.027	0.246
-682.266	-96.092	-0.472	-0.126
-681.251	-145.161	-0.164	-0.015
-680.237	95.726	0.097	-0.112
-679.222	310.338	0.101	0.190
-678.208	-48.102	0.121	-0.059
-677.193	-82.712	0.045	0.015
-676.178	-200.000	-0.004	-0.341
-675.164	480.644	-0.086	-0.196
-674.149	-89.159	-0.062	-0.019
-673.135	38.134	-0.126	-0.113
-672.120	356.443	0.116	-0.233
-671.105	4.963	-0.066	0.049
-670.091	30.788	-0.109	-0.093
-669.076	-51.752	-0.430	0.201
-668.062	-200.000	0.001	0.299
-667.047	-200.000	-0.015	0.094
-666.032	-147.934	-0.236	-0.020
-665.018	121.169	0.138	0.172
-664.003	44.562	-0.299	-0.276
-662.989	-105.237	0.339	-0.078
-661.974	-137.045	-0.219	0.025
-660.959	-140.888	-0.153	0.016
-659.945	70.189	-0.057	-0.059
-658.930	258.843	0.066	-0.114
-657.916	-46.477	0.082	-0.040
-656.901	185.419	-0.193	-0.287
-655.886	-57.150	0.153	0.067
-654.872	315.583	0.144	-0.272
-653.857	39.571	0.194	0.174
-652.843	-122.916	0.089	0.014
-651.828	-131.195	0.327	0.044
-650.814	-81.016	0.299	-0.099
-649.799	-200.000	-0.039	0.309
-648.784	-38.971	-0.233	0.123
-647.770	-200.000	-0.006	-0.194
-646.755	800.000	-0.034	-0.118
-645.741	-136.059	-0.416	-0.049
-644.726	39.086	-0.201	-0.180
-643.711	62.817	0.157	0.157
-642.697	246.101	0.058	-0.097
-641.682	-83.095	0.064	-0.021
-640.668	-80.579	-0.253	-0.084
-639.653	-119.562	-0.234	0.041
-638.638	262.954	0.099	-0.172
-637.624	-37.772	-0.059	-0.032
-636.609	800.000	-0.059	0.207
-635.595	102.373	-0.038	-0.044
-634.580	202.261	-0.104	0.161
-633.565	-105.488	-0.141	0.032
-632.551	-200.000	-0.030	0.134
-631.536	549.575	0.056	-0.134
-630.522	-162.936	0.150	0.007
-629.507	575.587	0.045	0.109
-628.492	58.070	0.479	0.470
-627.478	-200.000	-0.027	0.179
-626.463	-14.865	-0.251	0.161
-625.449	-2.566	0.226	0.158
-624.434	-152.956	-0.124	0.009
-623.419	-10.659	0.164	-0.109
-622.405	-200.000	0.004	-0.105
-621.390	-82.224	0.195	-0.064
-620.376	598.724	0.116	0.288
-619.361	636.717	-0.031	-0.078
-618.346	-81.372	-0.380	-0.125
-617.332	800.000	-0.102	0.320
-616.317	20.327	0.134	0.109
-615.303	12.840	0.179	0.139
-614.288	-130.815	-0.231	-0.031
-613.273	-200.000	-0.010	0.401
-612.259	-23.114	-0.279	-0.168
-611.244	800.000	-0.088	-0.301
-610.230	782.956	0.068	0.186
-609.215	-200.000	0.020	0.173
-608.201	-173.676	0.039	-0.001
-607.186	13.127	-0.261	-0.203
-606.171	15.825	-0.238	-0.187
-605.157	-200.000	0.019	-0.267
-604.142	-200.000	0.005	0.033
-603.128	-22.446	-0.271	0.164
-602.113	-200.000	0.002	0.193
-601.098	-58.698	0.224	-0.097
-600.084	-56.983	-0.237	0.105
-599.069	-26.166	0.269	0.158
-598.055	-45.541	0.296	-0.147
-597.040	672.651	-0.139	-0.362
-596.025	-200.000	0.035	-0.277
-595.011	-1.220	-0.171	-0.121
-593.996	285.149	0.053	0.095
-592.982	293.012	-0.081	0.148
-591.967	800.000	0.016	-0.052
-590.952	-14.871	0.137	-0.088
-589.938	-146.696	-0.212	-0.018
-588.923	800.000	0.093	0.304
-587.909	-200.000	0.016	-0.402
-586.894	800.000	0.123	-0.380
-585.879	-200.000	-0.021	0.191
-584.865	-54.021	0.315	0.143
-583.850	317.482	0.031	0.058
-582.836	-151.487	0.256	0.019
-581.821	800.000	0.069	-0.292
-580.806	-6.571	0.305	0.208
-579.792	-24.194	0.161	0.096
-578.777	-143.402	-0.098	0.009
-577.763	-192.070	0.203	0.002
-576.748	419.983	-0.126	0.271
-575.733	163.811	0.167	0.235
-574.719	131.708	-0.201	0.258
-573.704	414.612	0.180	0.383
-572.690	-93.861	-0.191	-0.053
-571.675	-200.000	-0.010	-0.113
-570.661	-16.020	0.194	-0.123
-569.646	-36.477	-0.122	0.065
-568.631	-47.216	-0.267	0.130
-567.617	494.622	0.067	-0.154
-566.602	-139.090	0.270	-0.029
-565.588	475.751	-0.072	-0.162
-564.573	-141.014	-0.091	-0.009
-563.558	176.438	0.022	-0.032
-562.544	-200.000	-0.016	0.226
-561.529	55.634	-0.197	0.191
-560.515	131.968	-0.141	0.182
-559.500	87.822	0.092	-0.102
-558.485	800.000	0.084	-0.242
-557.471	113.273	-0.162	-0.197
-556.456	-42.414	-0.252	-0.128
-555.442	-71.399	0.121	0.045
-554.427	348.200	0.024	0.048
-553.412	-25.909	-0.211	0.124
-552.398	-200.000	0.027	-0.157
-551.383	157.806	0.213	-0.295
-550.369	86.392	-0.097	0.107
-549.354	-83.545	-0.091	0.029
-548.339	-117.519	0.198	0.036
-547.325	256.906	-0.060	-0.103
-546.310	-56.347	0.348	-0.155
-545.296	-73.805	-0.149	0.054
-544.281	-200.000	0.023	-0.166
-543.266	-200.000	-0.007	0.061
-542.252	183.533	0.164	0.242
-541.237	-200.000	0.000	-0.207
-540.223	-200.000	-0.023	-0.157
-539.208	-155.824	-0.090	-0.006
-538.193	-200.000	0.092	-0.479
-537.179	-85.265	-0.072	0.022
-536.164	218.074	-0.182	-0.290
-535.150	-200.000	-0.054	0.480
-534.135	800.000	0.070	0.229
-533.121	-127.298	-0.596	0.087
-532.106	-56.768	0.084	-0.037
-531.091	122.046	0.275	-0.343
-530.077	-52.646	-0.097	0.045
-529.062	-127.914	0.334	-0.048
-528.048	9.950	0.334	-0.253
-527.033	111.378	0.225	-0.271
-526.018	20.545	0.197	-0.159
-525.004	-21.227	-0.126	-0.077
-523.989	65.711	-0.107	-0.108
-522.975	-200.000	0.003	-0.127
-521.960	-107.254	0.145	-0.032
-520.945	-200.000	0.045	0.201
-519.931	293.545	-0.123	0.225
-518.916	219.155	-0.031	-0.049
-517.902	-18.237	-0.210	-0.131
-516.887	-55.330	0.083	0.037
-515.872	-88.197	-0.474	0.142
-514.858	95.661	-0.131	0.150
-513.843	-37.086	-0.202	-0.108
-512.829	153.938	-0.330	0.451
-511.814	800.000	0.086	0.299
-510.799	-73.449	-0.176	-0.064
-509.785	201.548	0.234	-0.359
-508.770	-61.981	-0.128	0.053
-507.756	-103.539	0.064	-0.015
-506.741	800.000	-0.045	-0.139
-505.726	39.267	0.214	-0.191
-504.712	115.580	-0.109	-0.133
-503.697	20.479	-0.099	0.079
-502.683	678.441	0.164	0.425
-501.668	-200.000	-0.029	0.174
-500.653	-200.000	-0.015	0.112
-499.639	720.536	-0.136	-0.360
-498.624	309.157	-0.079	-0.146
-497.610	-4.194	0.101	-0.070
-496.595	290.728	0.221	-0.400
-495.581	3.758	0.237	0.172
-494.566	44.329	0.157	0.144
-493.551	17.630	-0.231	0.183
-492.537	-154.121	0.116	-0.008
-491.522	-144.277	-0.306	-0.028
-490.508	-31.166	0.123	0.069
-489.493	-200.000	0.035	0.341
-488.478	-93.355	0.293	0.081
-487.464	800.000	0.081	0.286
-486.449	37.921	0.156	-0.138
-485.435	-141.405	0.207	-0.021
-484.420	333.830	0.075	-0.145
-483.405	800.000	0.044	0.136
-482.391	-138.443	0.066	-0.007
-481.376	800.000	0.014	0.049
-480.362	800.000	-0.104	-0.350
-479.347	-61.982	0.127	0.053
-478.332	-41.072	-0.113	-0.058
-477.318	-141.961	-0.094	-0.009
-476.303	-164.317	0.097	-0.004
-475.289	-152.130	-0.074	0.005
-474.274	15.382	-0.308	-0.241
-473.259	-96.232	0.100	0.026
-472.245	-48.994	0.114	-0.054
-471.230	228.419	-0.154	0.250
-470.216	128.020	0.210	0.267
-469.201	-154.179	0.117	0.008
-468.186	-200.000	0.030	0.195
-467.172	-200.000	0.017	-0.095
-466.157	172.610	-0.049	-0.071
-465.143	-133.757	-0.133	-0.016
-464.128	-0.276	-0.232	-0.164
-463.113	800.000	-0.037	-0.108
-462.099	800.000	0.041	0.175
-461.084	53.927	-0.226	-0.217
-460.070	-121.113	-0.042	0.007
-459.055	48.555	0.154	0.144
-458.040	-124.829	0.166	0.026
-457.026	58.400	-0.126	-0.123
-456.011	776.091	-0.068	0.184
-454.997	689.287	-0.103	0.268
-453.982	-46.418	-0.304	0.149
-452.968	-68.960	0.443	0.170
-451.953	-200.000	-0.005	0.280
-450.938	-57.872	-0.193	-0.084
-449.924	-76.589	0.063	-0.022
-448.909	-100.423	0.115	-0.028
-447.895	-70.907	-0.210	0.079
-446.880	-132.786	-0.240	0.030
-445.865	-91.005	-0.269	-0.077
-444.851	170.200	0.148	0.210
-443.836	700.163	-0.076	-0.200
-442.822	65.652	0.034	-0.034
-441.807	357.504	-0.128	-0.254
-440.792	233.341	0.297	-0.487
-439.778	24.121	0.061	0.050
-438.763	800.000	0.016	0.060
-437.749	-14.611	-0.177	-0.113
-436.734	-77.310	-0.070	0.024
-435.719	268.135	-0.063	0.111
-434.705	227.108	-0.122	0.196
-433.690	11.265	-0.041	0.031
-432.676	-155.216	0.153	-0.010
-431.661	-85.663	0.133	-0.041
-430.646	45.766	-0.123	-0.113
-429.632	-200.000	-0.030	-0.167
-428.617	25.383	-0.153	-0.127
-427.603	-200.000	0.017	-0.176
-426.588	-200.000	0.007	0.081
-425.573	-200.000	-0.020	0.177
-424.559	-128.578	-0.084	0.012
-423.544	27.328	0.117	-0.098
-422.530	-92.858	-0.145	-0.040
-421.515	-120.840	-0.123	0.021
-420.500	800.000	0.056	-0.186
-419.486	-63.922	0.222	-0.090
-418.471	-151.199	0.148	0.011
-417.457	800.000	-0.069	-0.202
-416.442	661.518	-0.034	-0.088
-415.428	800.000	0.014	-0.059
-414.413	-100.842	0.168	0.041
-413.398	-200.000	0.289	0.001
-412.384	50.236	-0.158	0.149
-411.369	-194.567	0.204	-0.002
-410.355	705.153	0.010	0.026
-409.340	299.978	0.067	0.123
-408.325	173.856	-0.169	-0.243
-407.311	-81.684	0.052	-0.017
-406.296	-200.000	-0.006	-0.223
-405.282	800.000	0.073	-0.228
-404.267	129.153	-0.041	0.052
-403.252	-200.000	0.019	-0.411
-402.238	83.160	0.013	0.014
-401.223	54.326	-0.091	-0.087
-400.209	-157.194	0.256	-0.015
-399.194	220.735	0.191	-0.305
-398.179	-43.741	0.115	0.057
-397.165	-200.000	-0.041	0.203
-396.150	-200.000	0.034	-0.350
-395.136	55.841	0.276	-0.265
-394.121	800.000	0.038	-0.157
-393.106	-13.445	-0.286	-0.184
-392.092	-58.516	-0.323	-0.139
-391.077	95.351	-0.100	0.113
-390.063	-93.541	-0.300	0.082
-389.048	-196.948	-0.065	-0.000
-388.033	800.000	0.008	0.031
-387.019	13.464	0.180	0.139
-386.004	-41.841	-0.170	0.087
-384.990	32.979	0.077	-0.066
-383.975	-19.848	0.215	0.132
-382.960	-83.653	-0.243	0.077
-381.946	-8.647	-0.100	0.067
-380.931	131.660	0.192	-0.245
-379.917	-12.003	0.026	-0.017
-378.902	89.830	0.345	0.382
-377.888	800.000	-0.018	0.063
-376.873	-30.441	-0.302	-0.170
-375.858	-67.209	0.209	-0.082
-374.844	28.150	-0.076	-0.063
-373.829	338.930	-0.155	0.299
-372.815	-177.978	0.164	0.004
-371.800	235.014	-0.276	-0.452
-370.785	240.138	-0.073	-0.120
-369.771	-186.922	-0.412	0.006
-368.756	107.692	0.222	-0.262
-367.742	-94.278	0.268	0.073
-366.727	108.878	-0.036	0.043
-365.712	18.591	-0.089	-0.071
-364.698	-2.064	-0.229	0.160
-363.683	233.588	0.109	0.178
-362.669	-200.000	0.014	-0.065
-361.654	58.007	0.083	-0.081
-360.639	335.174	0.063	0.121
-359.625	-54.253	-0.096	-0.043
-358.610	-8.008	0.245	-0.164
-357.596	360.237	-0.120	0.238
-356.581	99.009	0.141	-0.161
-355.566	-17.041	0.060	0.037
-354.552	-126.861	0.246	-0.036
-353.537	-100.090	0.047	-0.012
-352.523	-107.580	-0.259	0.056
-351.508	-110.049	0.238	0.049
-350.493	0.841	0.191	-0.136
-349.479	-106.586	-0.346	0.076
-348.464	199.146	-0.098	-0.149
-347.450	53.410	0.119	0.113
-346.435	800.000	0.033	-0.135
-345.420	-200.000	0.029	-0.232
-344.406	-93.066	-0.295	-0.081
-343.391	-200.000	-0.004	0.065
-342.377	43.043	0.191	0.173
-341.362	-43.569	-0.336	-0.168
-340.348	-30.065	0.372	0.210
-339.333	-14.388	0.097	0.062
-338.318	-131.741	-0.112	0.015
-337.304	-91.905	-0.242	-0.068
-336.289	53.386	0.136	0.129
-335.275	-200.000	0.038	-0.322
-334.260	147.923	0.274	0.366
-333.245	-200.000	0.000	-0.142
-332.231	-13.963	0.138	0.088
-331.216	-20.179	0.274	-0.167
-330.202	6.694	-0.184	-0.136
-329.187	-111.882	-0.285	0.057
-328.172	121.190	-0.121	-0.149
-327.158	65.907	0.188	0.189
-326.143	-161.402	-0.151	0.008
-325.129	-104.190	-0.063	0.015
-324.114	-200.000	-0.009	-0.090
-323.099	-200.000	-0.006	0.162
-322.085	-52.985	0.098	0.045
-321.070	240.028	0.148	0.244
-320.056	-31.978	-0.136	0.076
-319.041	800.000	-0.086	-0.314
-318.026	-33.918	0.314	-0.171
-317.012	-177.271	-0.120	-0.003
-315.997	800.000	-0.020	0.063
-314.983	-181.528	0.133	0.003
-313.968	75.531	0.075	-0.078
-312.953	236.820	0.104	0.171
-311.939	-115.686	0.102	0.019
-310.924	724.152	0.013	0.034
-309.910	703.428	0.049	-0.127
-308.895	-100.202	0.093	-0.023
-307.880	800.000	0.068	-0.263
-306.866	800.000	0.128	-0.469
-305.851	-200.000	0.051	-0.559
-304.837	800.000	0.045	-0.126
-303.822	440.773	0.059	-0.127
-302.807	-81.423	0.136	-0.044
-301.793	800.000	0.073	-0.282
-300.778	-109.223	0.130	-0.027
-299.764	-200.000	-0.032	0.517
-298.749	42.286	0.158	0.142
-297.735	-15.937	0.238	0.150
-296.720	-200.000	-0.051	-0.330
-295.705	70.857	-0.160	-0.164
-294.691	800.000	-0.080	0.237
-293.676	-77.100	-0.098	0.034
-292.662	-200.000	-0.008	0.048
-291.647	70.846	-0.071	0.072
-290.632	-86.496	-0.057	0.017
-289.618	-200.000	0.004	-0.282
-288.603	-35.191	-0.247	0.133
-287.589	83.505	-0.156	0.168
-286.574	79.922	0.087	-0.093
-285.559	-105.169	-0.354	0.080
-284.545	-200.000	0.012	0.111
-283.530	-163.580	0.184	-0.009
-282.516	618.371	-0.060	0.148
-281.501	231.006	-0.117	-0.190
-280.486	530.401	0.041	-0.097
-279.472	168.597	-0.074	0.104
-278.457	-200.000	-0.011	-0.288
-277.443	-163.249	0.491	-0.023
-276.428	-74.028	-0.202	0.072
-275.413	-200.000	-0.073	0.000
-274.399	94.311	-0.236	0.265
-273.384	800.000	0.095	0.328
-272.370	-200.000	-0.039	-0.292
-271.355	9.701	-0.100	0.075
-270.340	-83.822	-0.062	0.020
-269.326	-200.000	0.052	0.336
-268.311	3.875	-0.236	-0.171
-267.297	91.437	0.238	0.264
-266.282	-143.160	0.328	0.031
-265.267	-200.000	0.050	0.221
-264.253	193.931	0.102	-0.153
-263.238	-58.697	0.118	0.051
-262.224	61.947	0.103	0.101
-261.209	76.631	0.175	0.183
-260.195	27.258	0.157	0.131
-259.180	-55.857	0.489	0.216
-258.165	-200.000	0.105	-0.460
-257.151	46.866	-0.250	0.230
-256.136	800.000	0.064	0.248
-255.122	800.000	-0.017	-0.068
-254.107	137.113	0.169	0.218
-253.092	33.076	0.238	-0.204
-252.078	-99.981	-0.213	-0.052
-251.063	-39.125	-0.164	-0.085
-250.049	185.476	-0.110	0.161
-249.034	-61.949	-0.149	-0.061
-248.019	6.961	-0.252	0.186
-247.005	-200.000	-0.002	0.111
-245.990	-167.156	0.225	-0.009
-244.976	433.287	-0.049	0.104
-243.961	72.622	-0.200	-0.206
-242.946	354.207	-0.020	0.040
-241.932	-35.509	0.175	0.094
-240.917	-68.372	-0.099	0.038
-239.903	-200.000	0.036	-0.418
-238.888	31.982	-0.104	0.088
-237.873	-200.000	0.004	0.217
-236.859	287.906	-0.175	-0.312
-235.844	-200.000	0.022	0.198
-234.830	-200.000	0.003	0.108
-233.815	-139.429	0.101	0.011
-232.800	156.867	-0.263	0.359
-231.786	-45.996	0.205	-0.100
-230.771	201.349	0.092	0.140
-229.757	-84.487	-0.127	0.040
-228.742	373.658	-0.058	0.117
-227.727	176.295	-0.134	0.192
-226.713	140.995	-0.073	0.096
-225.698	800.000	0.091	-0.328
-224.684	-107.872	-0.237	0.051
-223.669	800.000	-0.077	-0.215
-222.655	554.876	0.053	0.126
-221.640	-109.100	-0.064	0.013
-220.625	-115.097	-0.106	0.020
-219.611	66.013	-0.160	0.160
-218.596	-145.443	0.080	-0.007
-217.582	-18.665	0.207	-0.127
-216.567	373.669	-0.034	-0.069
-215.552	-200.000	0.003	-0.139
-214.538	73.386	0.121	0.125
-213.523	-18.762	-0.194	-0.119
-212.509	-200.000	-0.010	-0.275
-211.494	-200.000	0.048	0.268
-210.479	-200.000	-0.023	0.176
-209.465	25.512	-0.064	-0.053
-208.450	-200.000	0.003	-0.129
-207.436	24.083	0.179	-0.146
-206.421	-200.000	-0.022	0.217
-205.406	-8.406	-0.165	-0.109
-204.392	-32.393	0.181	0.099
-203.377	-58.699	-0.080	-0.034
-202.363	154.679	-0.206	-0.278
-201.348	309.729	-0.127	-0.233
-200.333	23.933	0.127	-0.103
-199.319	110.218	0.295	0.349
-198.304	568.144	0.108	0.258
-197.290	-96.461	0.140	0.036
-196.275	603.264	0.089	-0.218
-195.260	244.757	0.231	0.382
-194.246	-35.001	-0.115	-0.062
-193.231	294.700	0.200	-0.361
-192.217	800.000	-0.054	0.178
-191.202	-100.563	-0.083	-0.020
-190.187	11.500	0.027	-0.020
-189.173	-18.362	0.109	-0.067
-188.158	-200.000	0.001	-0.264
-187.144	-34.497	-0.191	-0.103
-186.129	694.766	0.068	0.176
-185.114	216.230	0.039	-0.061
-184.100	-162.474	-0.325	-0.016
-183.085	161.410	-0.049	0.067
-182.071	-156.255	0.322	0.020
-181.056	125.476	-0.246	0.306
-180.042	712.525	0.076	-0.197
-179.027	-143.917	-0.241	-0.022
-178.012	-97.646	-0.069	-0.017
-176.998	250.256	-0.149	0.250
-175.983	-171.340	-0.374	0.012
-174.969	-46.566	0.092	-0.044
-173.954	-51.027	-0.144	-0.067
-172.939	-200.000	-0.041	0.195
-171.925	54.358	0.228	-0.217
-170.910	401.490	-0.098	-0.202
-169.896	-32.289	0.108	0.059
-168.881	-69.989	0.086	0.032
-167.866	-78.578	-0.181	-0.061
-166.852	800.000	0.071	0.280
-165.837	-200.000	0.108	0.530
-164.823	62.174	-0.118	0.116
-163.808	-23.966	0.135	-0.080
-162.793	347.936	0.104	0.203
-161.779	-36.874	0.382	0.202
-160.764	-184.881	0.192	0.003
-159.750	-56.926	-0.231	0.100
-158.735	-161.789	0.244	0.012
-157.720	-132.530	-0.178	-0.023
-156.706	207.100	-0.059	-0.091
-155.691	-47.727	-0.456	-0.218
-154.677	445.206	-0.075	0.161
-153.662	-57.325	0.251	0.109
-152.647	-190.067	0.105	-0.001
-151.633	-200.000	-0.004	0.239
-150.618	800.000	-0.028	0.080
-149.604	108.908	0.169	0.199
-148.589	-88.862	0.306	-0.089
-147.574	-200.000	0.027	0.381
-146.560	60.616	-0.078	0.076
-145.545	795.829	0.085	-0.231
-144.531	106.293	-0.072	0.084
-143.516	-85.772	-0.348	0.106
-142.502	-200.000	0.025	0.225
-141.487	95.797	-0.164	0.185
-140.472	-200.000	0.026	-0.207
-139.458	88.459	-0.036	0.040
-138.443	-98.434	0.095	-0.024
-137.429	-99.353	-0.036	0.009
-136.414	3.072	-0.253	0.181
-135.399	46.016	-0.221	0.201
-134.385	14.027	0.072	-0.055
-133.370	-110.125	0.352	0.072
-132.356	43.982	0.115	-0.104
-131.341	629.438	0.075	-0.187
-130.326	308.351	0.157	0.289
-129.312	-116.116	-0.116	0.021
-128.297	51.461	0.102	0.095
-127.283	-29.425	0.312	0.176
-126.268	689.820	-0.116	-0.297
-125.253	-200.000	0.008	-0.173
-124.239	-1.564	0.152	0.106
-123.224	-56.928	0.282	0.122
-122.210	4.432	0.234	-0.168
-121.195	-200.000	-0.018	0.272
