DTS Sentinel unit serial number:	SN413079Multiplexer serial number:	ORYXHardware model number:	OX4-SRSoftware version number:	ORYX F/W v4.00 Oryx Data Collector v3.7.2.0data status	okinstallation	princeton_trtdifferential loss correction	single-endedforward channel	channel 1reverse channel	N/Adate	2019/09/19time	14:38:35forward acquisition time	60.00reverse acquisition time	0.00gamma	496.2192k internal	0.2319k external	0.2319temperature offset calibration	1.0020default loss term (dB/km)	0.3790temperature slope calibration	1.0000multiplexer offset coefficient	1.0000multiplexer slope coefficient	1.0000fibre end	0.00T internal ref (°C)	32.44T ext. ref 1 (°C)	1.08T ext. ref 2 (°C)	29.47length (m)	temperature (°C)	Stokes	anti-Stokes-747.200	-200.000	0.029	0.311
-746.185	-200.000	-0.049	0.441
-745.171	-4.651	0.213	0.149
-744.156	-14.690	0.325	-0.211
-743.142	511.110	-0.066	0.156
-742.127	-55.221	0.133	0.060
-741.112	-79.694	0.416	-0.142
-740.098	140.326	0.164	0.219
-739.083	-200.000	-0.023	-0.138
-738.069	-13.255	0.125	0.082
-737.054	-200.000	-0.031	0.141
-736.039	-195.580	-0.356	0.003
-735.025	-68.452	-0.166	0.065
-734.010	800.000	0.050	0.157
-732.996	-8.382	-0.442	-0.301
-731.981	-200.000	-0.020	-0.128
-730.966	800.000	-0.054	-0.193
-729.952	184.548	-0.117	0.176
-728.937	652.279	0.072	0.187
-727.923	-200.000	-0.014	-0.250
-726.908	-120.927	-0.392	0.067
-725.894	-200.000	-0.001	-0.137
-724.879	75.555	-0.193	0.206
-723.864	-200.000	-0.020	0.198
-722.850	-93.196	-0.178	0.050
-721.835	800.000	-0.125	0.455
-720.821	-72.550	0.073	0.027
-719.806	-178.970	0.337	0.008
-718.791	-122.031	-0.181	-0.030
-717.777	427.796	0.041	-0.089
-716.762	800.000	-0.080	0.233
-715.748	-200.000	-0.026	0.146
-714.733	-96.815	-0.107	0.029
-713.718	-183.311	0.331	-0.006
-712.704	169.857	0.086	0.124
-711.689	5.032	0.213	-0.159
-710.675	-58.291	0.063	0.028
-709.660	-200.000	0.014	-0.086
-708.645	-200.000	-0.013	0.234
-707.631	120.767	-0.178	0.223
-706.616	-109.313	0.249	-0.053
-705.602	-200.000	-0.016	-0.330
-704.587	-200.000	-0.004	-0.177
-703.572	189.127	-0.140	0.212
-702.558	76.887	0.044	0.048
-701.543	33.371	0.214	-0.188
-700.529	-29.879	0.259	0.149
-699.514	-149.979	-0.245	0.019
-698.499	-76.474	0.142	0.050
-697.485	-114.704	-0.206	-0.040
-696.470	104.477	-0.088	-0.105
-695.456	208.900	-0.053	0.083
-694.441	-200.000	-0.045	-0.204
-693.426	-34.901	0.192	0.106
-692.412	-190.965	0.282	0.003
-691.397	10.658	0.194	-0.149
-690.383	209.224	-0.101	0.160
-689.368	-59.739	-0.066	-0.029
-688.354	-194.372	0.038	0.000
-687.339	139.042	0.014	0.018
-686.324	125.704	-0.138	0.176
-685.310	226.384	0.096	-0.156
-684.295	-200.000	-0.324	-0.001
-683.281	-200.000	0.012	0.210
-682.266	-47.699	0.173	-0.085
-681.251	-200.000	0.074	-0.396
-680.237	-200.000	-0.007	0.169
-679.222	46.376	0.299	-0.280
-678.208	271.071	-0.203	-0.360
-677.193	-91.123	0.119	-0.034
-676.178	-200.000	0.030	-0.211
-675.164	-58.452	0.225	0.098
-674.149	-141.708	-0.044	0.004
-673.135	-144.992	-0.411	0.038
-672.120	-200.000	-0.009	0.198
-671.105	-200.000	-0.006	-0.211
-670.091	800.000	-0.048	-0.153
-669.076	263.131	0.077	-0.135
-668.062	60.066	-0.345	-0.344
-667.047	-80.747	0.104	0.035
-666.032	8.367	-0.269	-0.204
-665.018	-114.361	-0.215	0.042
-664.003	-10.750	-0.092	0.061
-662.989	-134.706	-0.182	-0.022
-661.974	-113.901	0.459	-0.090
-660.959	15.598	0.171	0.135
-659.945	241.129	0.061	0.103
-658.930	215.743	0.118	0.189
-657.916	-5.374	0.233	0.161
-656.901	-64.122	-0.389	-0.160
-655.886	-84.601	-0.199	0.063
-654.872	-154.677	-0.365	0.024
-653.857	-101.116	-0.073	0.018
-652.843	-130.184	0.126	-0.017
-651.828	39.835	-0.247	0.223
-650.814	-74.672	0.333	-0.121
-649.799	113.963	0.084	0.103
-648.784	720.441	-0.115	0.309
-647.770	-118.529	-0.347	-0.062
-646.755	218.811	0.055	-0.088
-645.741	-200.000	-0.019	0.195
-644.726	324.769	0.043	0.083
-643.711	263.739	0.202	0.355
-642.697	-83.199	-0.145	0.047
-641.682	-149.800	-0.316	0.025
-640.668	-57.156	-0.329	0.146
-639.653	238.855	-0.152	0.255
-638.638	-27.520	-0.138	-0.081
-637.624	720.921	-0.066	-0.178
-636.609	-34.612	0.303	0.167
-635.595	-46.587	-0.067	-0.033
-634.580	-125.657	-0.060	-0.009
-633.565	-200.000	-0.024	0.217
-632.551	607.056	0.070	-0.176
-631.536	194.644	-0.058	0.089
-630.522	283.999	0.053	0.096
-629.507	-200.000	-0.009	0.163
-628.492	800.000	-0.104	0.344
-627.478	800.000	-0.044	0.174
-626.463	333.305	0.084	-0.163
-625.449	-24.174	0.211	0.127
-624.434	-133.211	0.151	0.019
-623.419	22.653	0.222	-0.183
-622.405	-53.342	0.063	0.029
-621.390	-151.468	0.390	0.029
-620.376	51.593	-0.057	-0.054
-619.361	-89.190	0.169	0.050
-618.346	246.051	0.008	-0.014
-617.332	800.000	0.101	-0.355
-616.317	600.506	0.031	-0.078
-615.303	800.000	0.088	-0.262
-614.288	224.886	-0.006	0.010
-613.273	-17.298	0.093	-0.059
-612.259	-162.653	0.260	0.013
-611.244	472.999	0.114	0.258
-610.230	-115.046	-0.312	0.060
-609.215	-102.036	0.258	0.063
-608.201	-200.000	-0.041	0.214
-607.186	-200.000	0.002	0.226
-606.171	-200.000	-0.504	0.002
-605.157	134.525	0.172	0.224
-604.142	1.849	-0.180	-0.130
-603.128	-149.347	-0.202	-0.016
-602.113	183.993	0.185	0.275
-601.098	605.111	0.049	-0.122
-600.084	-47.913	0.106	0.052
-599.069	71.447	0.170	-0.177
-598.055	-133.561	0.255	-0.032
-597.040	483.596	0.080	-0.182
-596.025	-200.000	-0.059	0.271
-595.011	182.521	0.159	0.237
-593.996	800.000	-0.009	0.037
-592.982	31.057	-0.147	0.127
-591.967	-14.564	-0.273	0.176
-590.952	-151.321	0.250	0.019
-589.938	-163.690	-0.592	0.028
-588.923	-127.666	-0.174	-0.025
-587.909	800.000	0.100	-0.337
-586.894	-40.712	-0.062	0.033
-585.879	-33.978	-0.169	-0.093
-584.865	359.924	-0.117	-0.235
-583.850	-145.958	-0.226	0.020
-582.836	122.254	-0.085	0.106
-581.821	-98.096	0.070	0.018
-580.806	336.316	-0.109	0.212
-579.792	27.666	-0.138	-0.116
-578.777	252.616	0.164	0.281
-577.763	-40.168	-0.127	-0.066
-576.748	800.000	-0.094	0.331
-575.733	17.350	0.251	-0.200
-574.719	118.146	-0.067	0.083
-573.704	586.803	-0.091	0.224
-572.690	201.362	-0.125	-0.193
-571.675	306.157	-0.156	0.291
-570.661	121.170	0.172	-0.215
-569.646	800.000	0.098	0.355
-568.631	800.000	-0.045	-0.144
-567.617	-200.000	-0.017	-0.377
-566.602	-68.824	-0.053	-0.020
-565.588	800.000	-0.045	-0.172
-564.573	-3.511	-0.204	0.142
-563.558	-200.000	-0.002	0.138
-562.544	-42.207	-0.227	0.116
-561.529	-104.093	-0.089	0.021
-560.515	800.000	-0.087	-0.305
-559.500	-133.929	-0.066	0.008
-558.485	-200.000	0.000	-0.193
-557.471	347.877	0.019	0.038
-556.456	505.805	-0.186	0.433
-555.442	-127.125	0.223	0.033
-554.427	-8.992	0.147	-0.099
-553.412	-65.029	0.296	0.120
-552.398	-28.595	-0.160	-0.092
-551.383	192.217	0.106	0.161
-550.369	800.000	0.050	-0.144
-549.354	-21.825	-0.094	0.058
-548.339	-30.199	0.126	-0.072
-547.325	-200.000	-0.002	-0.014
-546.310	-200.000	0.024	-0.177
-545.296	49.955	0.138	0.131
-544.281	26.026	-0.111	0.093
-543.266	800.000	-0.094	0.338
-542.252	800.000	-0.093	0.382
-541.237	-200.000	-0.045	0.429
-540.223	147.268	0.222	-0.299
-539.208	-20.808	-0.326	-0.200
-538.193	506.128	0.023	0.053
-537.179	76.451	0.085	-0.090
-536.164	-122.743	0.462	-0.075
-535.150	-44.182	0.136	0.069
-534.135	-108.355	-0.147	-0.032
-533.121	495.895	0.053	-0.122
-532.106	-49.991	-0.194	-0.092
-531.091	95.193	-0.089	0.102
-530.077	-137.454	0.302	-0.034
-529.062	-27.211	-0.409	-0.239
-528.048	270.971	-0.125	-0.220
-527.033	174.507	-0.148	-0.215
-526.018	-178.950	0.197	0.004
-525.004	-200.000	0.025	0.251
-523.989	-19.877	-0.387	-0.240
-522.975	-113.909	-0.133	0.026
-521.960	5.688	0.241	-0.179
-520.945	22.044	0.154	0.126
-519.931	36.381	-0.040	-0.036
-518.916	80.232	-0.191	-0.206
-517.902	-68.613	0.117	-0.046
-516.887	-51.036	0.203	-0.095
-515.872	165.975	0.042	0.059
-514.858	-125.562	0.244	-0.037
-513.843	-181.688	-0.369	0.007
-512.829	230.407	-0.018	-0.030
-511.814	-182.266	-0.056	0.001
-510.799	-22.259	0.173	-0.105
-509.785	-111.074	-0.111	0.023
-508.770	800.000	-0.127	-0.367
-507.756	162.548	-0.222	0.313
-506.741	8.237	0.169	0.127
-505.726	-166.865	0.494	-0.020
-504.712	-98.230	-0.191	0.049
-503.697	-200.000	0.024	0.198
-502.683	-200.000	0.003	-0.209
-501.668	-104.559	0.443	-0.102
-500.653	-200.000	-0.004	0.094
-499.639	144.817	0.157	-0.210
-498.624	-79.251	-0.072	0.025
-497.610	2.406	0.101	-0.073
-496.595	38.667	0.156	0.140
-495.581	-19.772	0.310	-0.192
-494.566	15.888	-0.138	-0.109
-493.551	-200.000	-0.007	0.068
-492.537	433.296	-0.101	-0.220
-491.522	-200.000	-0.001	-0.121
-490.508	-148.179	0.379	-0.031
-489.493	-96.133	-0.084	-0.022
-488.478	670.356	0.050	-0.129
-487.464	20.814	-0.211	-0.171
-486.449	18.466	-0.267	-0.213
-485.435	-79.129	0.198	0.067
-484.420	800.000	-0.082	0.229
-483.405	-2.259	-0.114	0.080
-482.391	-20.167	0.148	-0.091
-481.376	150.018	-0.173	0.235
-480.362	706.222	0.062	0.164
-479.347	291.025	-0.173	0.314
-478.332	-200.000	0.018	0.093
-477.318	-200.000	-0.014	0.000
-476.303	94.705	-0.092	-0.105
-475.289	800.000	0.039	-0.149
-474.274	644.042	-0.050	-0.127
-473.259	-60.148	-0.219	-0.093
-472.245	-69.614	-0.182	-0.070
-471.230	-200.000	0.037	0.359
-470.216	-46.214	0.106	0.052
-469.201	800.000	0.093	0.268
-468.186	216.464	0.036	0.057
-467.172	-15.266	-0.095	0.061
-466.157	155.915	-0.060	0.083
-465.143	-97.655	-0.404	0.105
-464.128	58.642	0.107	0.105
-463.113	1.306	-0.103	-0.074
-462.099	475.237	0.032	-0.071
-461.084	-128.921	-0.240	-0.034
-460.070	118.566	-0.143	0.177
-459.055	-84.665	0.045	-0.014
-458.040	-200.000	-0.046	-0.270
-457.026	495.525	0.101	-0.232
-456.011	-62.565	-0.225	0.093
-454.997	-88.109	-0.464	-0.139
-453.982	-200.000	-0.005	0.121
-452.968	-48.752	0.262	0.126
-451.953	-143.854	-0.111	0.010
-450.938	-37.524	0.384	0.205
-449.924	21.174	-0.492	-0.399
-448.909	-47.697	0.116	0.056
-447.895	-69.788	0.116	0.044
-446.880	343.863	0.093	0.183
-445.865	-200.000	0.032	0.165
-444.851	-200.000	0.033	-0.157
-443.836	-200.000	0.011	0.114
-442.822	-200.000	-0.056	0.357
-441.807	-132.953	0.323	-0.041
-440.792	-200.000	-0.010	0.386
-439.778	-200.000	0.024	0.321
-438.763	-200.000	-0.007	0.051
-437.749	122.661	-0.107	-0.133
-436.734	-80.154	-0.183	-0.061
-435.719	800.000	0.102	0.291
-434.705	126.728	-0.201	0.255
-433.690	-44.815	0.129	0.064
-432.676	342.926	0.192	-0.377
-431.661	236.686	-0.080	0.132
-430.646	800.000	-0.066	0.221
-429.632	-98.486	-0.171	-0.044
-428.617	-67.384	0.233	-0.092
-427.603	-75.415	-0.198	-0.070
-426.588	-200.000	-0.047	-0.262
-425.573	-103.400	0.202	-0.048
-424.559	132.674	-0.150	-0.193
-423.544	-118.304	-0.304	-0.054
-422.530	320.993	0.101	-0.192
-421.515	107.812	0.138	-0.164
-420.500	207.268	-0.033	0.051
-419.486	549.963	-0.036	0.086
-418.471	-200.000	0.001	-0.257
-417.457	51.355	-0.020	0.019
-416.442	-64.951	-0.077	0.031
-415.428	-200.000	-0.065	0.396
-414.413	528.293	0.099	0.232
-413.398	37.428	-0.165	0.146
-412.384	-74.303	-0.152	-0.055
-411.369	16.312	0.187	-0.147
-410.355	-56.551	-0.226	-0.100
-409.340	537.567	-0.090	0.214
-408.325	-43.775	-0.277	-0.139
-407.311	291.314	-0.205	0.372
-406.296	-84.157	-0.144	0.045
-405.282	-200.000	0.021	0.393
-404.267	103.538	-0.195	0.228
-403.252	-37.123	-0.089	-0.047
-402.238	-113.721	-0.242	0.047
-401.223	364.784	0.180	-0.362
-400.209	97.478	0.336	0.385
-399.194	-156.315	-0.187	0.012
-398.179	-167.281	0.100	0.004
-397.165	116.263	-0.013	0.015
-396.150	177.027	-0.028	0.041
-395.136	-57.900	-0.165	-0.072
-394.121	-115.638	-0.318	0.060
-393.106	40.195	0.115	-0.104
-392.092	800.000	-0.034	-0.138
-391.077	-75.768	0.178	-0.063
-390.063	-4.311	-0.187	-0.129
-389.048	-89.655	0.334	-0.098
-388.033	-200.000	-0.038	-0.185
-387.019	25.420	0.075	0.062
-386.004	731.278	0.019	0.052
-384.990	-141.824	0.333	0.033
-383.975	90.201	-0.191	-0.213
-382.960	558.066	-0.010	0.024
-381.946	800.000	-0.056	0.166
-380.931	-200.000	0.013	0.125
-379.917	-6.772	0.136	-0.092
-378.902	-77.169	0.158	-0.055
-377.888	-52.408	-0.452	-0.209
-376.873	-18.280	-0.461	-0.287
-375.858	-200.000	0.040	0.189
-374.844	189.430	-0.040	0.060
-373.829	-200.000	0.006	0.108
-372.815	60.269	-0.260	0.256
-371.800	-200.000	0.020	0.160
-370.785	-61.617	-0.272	0.114
-369.771	-8.571	-0.051	-0.034
-368.756	-126.876	-0.142	0.021
-367.742	-150.342	0.218	-0.017
-366.727	-17.398	-0.332	-0.208
-365.712	800.000	-0.024	0.080
-364.698	-54.053	0.146	-0.066
-363.683	-32.281	0.281	0.156
-362.669	-70.914	-0.304	0.114
-361.654	-200.000	-0.011	-0.127
-360.639	50.253	0.073	-0.069
-359.625	-148.674	0.260	0.021
-358.610	-156.607	-0.079	0.005
-357.596	301.775	0.128	-0.235
-356.581	258.322	0.113	-0.194
-355.566	15.700	0.232	-0.182
-354.552	800.000	-0.202	0.583
-353.537	97.998	0.217	0.248
-352.523	-119.839	0.280	0.048
-351.508	-109.970	0.234	0.049
-350.493	106.882	0.108	0.127
-349.479	-67.741	0.170	0.066
-348.464	-13.703	0.178	0.115
-347.450	48.539	0.001	-0.001
-346.435	-88.654	0.073	0.021
-345.420	-130.878	-0.164	0.022
-344.406	-200.000	0.012	0.140
-343.391	-59.388	0.171	-0.073
-342.377	211.923	-0.015	0.024
-341.362	212.917	0.235	0.370
-340.348	-200.000	-0.073	0.322
-339.333	93.446	0.087	-0.098
-338.318	-200.000	-0.018	-0.155
-337.304	-104.331	-0.160	-0.037
-336.289	50.647	-0.242	0.228
-335.275	63.280	0.114	-0.113
-334.260	-200.000	0.003	0.065
-333.245	-50.269	-0.265	0.125
-332.231	762.057	-0.141	-0.382
-331.216	800.000	-0.065	-0.260
-330.202	-37.736	-0.266	-0.141
-329.187	428.146	0.130	-0.280
-328.172	201.563	-0.019	-0.028
-327.158	-200.000	0.045	0.318
-326.143	39.104	0.196	0.175
-325.129	-18.485	-0.198	-0.123
-324.114	-27.935	-0.229	0.132
-323.099	-200.000	-0.014	0.128
-322.085	-63.384	-0.152	0.062
-321.070	136.251	0.243	0.315
-320.056	11.765	-0.052	0.039
-319.041	74.571	0.249	-0.260
-318.026	-115.110	0.338	-0.064
-317.012	-101.713	-0.285	-0.069
-315.997	-5.864	0.197	0.134
-314.983	-57.516	-0.407	0.178
-313.968	263.794	0.192	-0.332
-312.953	220.260	0.075	0.120
-311.939	-137.103	-0.143	0.016
-310.924	-81.196	-0.038	-0.012
-309.910	-65.366	-0.061	-0.024
-308.895	-78.930	0.072	0.025
-307.880	27.878	0.160	0.134
-306.866	628.891	-0.052	-0.131
-305.851	-200.000	0.011	-0.287
-304.837	26.715	0.457	-0.380
-303.822	229.659	0.177	0.287
-302.807	180.357	-0.268	-0.391
-301.793	302.842	0.016	-0.029
-300.778	-20.208	-0.258	-0.158
-299.764	-46.581	-0.089	-0.044
-298.749	-90.329	0.276	0.080
-297.735	252.706	-0.144	0.244
-296.720	-51.423	0.217	-0.101
-295.705	-154.113	0.270	-0.018
-294.691	263.712	-0.169	-0.292
-293.676	28.158	0.075	-0.063
-292.662	-105.928	0.324	-0.072
-291.647	112.329	0.177	-0.212
-290.632	-200.000	0.013	-0.191
-289.618	188.452	-0.116	-0.172
-288.603	-41.294	-0.089	0.046
-287.589	-157.968	0.102	-0.006
-286.574	125.983	0.104	-0.131
-285.559	84.630	-0.025	0.027
-284.545	800.000	-0.067	0.241
-283.530	-200.000	0.045	-0.280
-282.516	66.219	0.266	0.268
-281.501	156.522	0.031	0.043
-280.486	-29.400	-0.239	0.136
-279.472	-200.000	0.328	0.001
-278.457	800.000	0.075	0.226
-277.443	63.658	-0.194	-0.193
-276.428	191.186	0.020	0.030
-275.413	-200.000	0.022	0.207
-274.399	800.000	0.090	0.253
-273.384	-200.000	-0.046	0.522
-272.370	-36.621	0.275	0.147
-271.355	122.817	0.149	-0.186
-270.340	-200.000	-0.036	-0.159
-269.326	800.000	0.053	-0.158
-268.311	136.548	0.036	-0.046
-267.297	-60.116	0.285	-0.121
-266.282	48.351	-0.132	-0.122
-265.267	171.657	0.162	-0.230
-264.253	131.708	0.164	-0.210
-263.238	-200.000	0.003	-0.085
-262.224	800.000	-0.025	-0.083
-261.209	208.689	0.038	-0.059
-260.195	491.695	0.020	0.046
-259.180	44.151	-0.269	-0.245
-258.165	126.244	0.121	0.152
-257.151	226.297	0.117	-0.189
-256.136	371.253	0.122	-0.246
-255.122	76.119	-0.232	-0.244
-254.107	-106.823	0.167	-0.037
-253.092	-49.215	0.303	-0.144
-252.078	-200.000	-0.447	-0.001
-251.063	-200.000	-0.057	-0.483
-250.049	-124.500	-0.296	0.046
-249.034	592.807	0.092	-0.224
-248.019	-200.000	-0.046	0.276
-247.005	800.000	0.062	-0.258
-245.990	800.000	0.051	-0.146
-244.976	28.940	-0.215	-0.181
-243.961	800.000	0.063	0.193
-242.946	508.252	-0.079	0.183
-241.932	-200.000	-0.015	0.113
-240.917	-200.000	-0.076	-0.453
-239.903	341.028	0.109	-0.211
-238.888	-200.000	-0.026	-0.122
-237.873	-30.939	0.058	0.032
-236.859	221.996	0.113	-0.181
-235.844	-60.547	0.297	0.125
-234.830	328.405	-0.087	0.165
-233.815	128.837	0.196	0.248
-232.800	-200.000	0.014	-0.158
-231.786	186.529	0.135	0.199
-230.771	800.000	0.030	0.112
-229.757	-175.697	-0.178	0.005
-228.742	-73.801	-0.293	-0.106
-227.727	94.001	0.028	-0.031
-226.713	-90.695	0.142	0.041
-225.698	-124.085	-0.361	-0.056
-224.684	224.838	0.111	0.178
-223.669	272.308	-0.147	-0.256
-222.655	-105.126	0.208	0.047
-221.640	-54.739	0.122	-0.055
-220.625	-150.452	-0.179	0.014
-219.611	236.405	0.108	-0.177
-218.596	800.000	-0.087	0.275
-217.582	800.000	0.088	-0.357
-216.567	142.971	-0.107	0.141
-215.552	-200.000	-0.013	0.215
-214.538	478.329	0.132	-0.296
-213.523	-87.175	-0.215	-0.065
-212.509	-99.661	0.329	-0.082
-211.494	800.000	0.050	-0.152
-210.479	-200.000	-0.001	-0.272
-209.465	637.312	-0.047	0.119
-208.450	800.000	-0.053	-0.178
-207.436	220.326	0.136	0.216
-206.421	-104.976	0.389	0.088
-205.406	-200.000	-0.055	-0.289
-204.392	-20.218	-0.164	0.100
-203.377	-75.284	0.108	0.038
-202.363	-124.354	0.231	0.036
-201.348	-166.130	-0.431	-0.018
-200.333	85.657	-0.027	0.029
-199.319	-76.421	0.197	-0.068
-198.304	-64.218	0.254	-0.102
-197.290	-10.632	0.283	-0.185
-196.275	174.897	-0.079	-0.113
-195.260	6.838	0.078	-0.057
-194.246	586.616	-0.087	0.213
-193.231	29.485	0.123	0.104
-192.217	-76.128	0.330	-0.115
-191.202	20.633	0.185	-0.148
-190.187	-200.000	0.022	-0.184
-189.173	-132.478	0.138	0.018
-188.158	-111.525	0.143	0.029
-187.144	47.157	0.057	0.053
-186.129	-41.206	-0.060	0.031
-185.114	213.464	0.138	-0.216
-184.100	-116.280	0.227	0.042
-183.085	-110.506	-0.206	0.042
-182.071	174.455	0.244	0.350
-181.056	160.341	0.083	0.114
-180.042	-200.000	0.044	0.538
-179.027	53.288	-0.124	0.118
-178.012	800.000	0.102	-0.370
-176.998	159.056	0.070	0.096
-175.983	187.365	-0.122	0.181
-174.969	-200.000	0.012	0.084
-173.954	800.000	0.055	-0.192
-172.939	-200.000	-0.004	-0.203
-171.925	150.130	0.126	-0.169
-170.910	119.732	-0.103	-0.126
-169.896	-108.371	-0.227	-0.048
-168.881	-54.849	-0.435	-0.194
-167.866	-62.440	0.111	0.046
-166.852	35.703	-0.165	-0.143
-165.837	53.726	0.116	0.110
-164.823	2.742	-0.240	-0.172
-163.808	-200.000	0.027	-0.178
-162.793	-62.892	-0.304	-0.124
-161.779	102.671	0.153	-0.178
-160.764	-92.791	0.157	-0.043
-159.750	-118.892	-0.040	-0.007
-158.735	-44.446	-0.189	0.094
-157.720	3.042	0.132	0.095
-156.706	-124.483	-0.292	0.045
-155.691	-200.000	-0.000	-0.002
-154.677	-38.050	-0.104	0.055
-153.662	-141.975	0.227	-0.022
-152.647	-91.776	-0.092	-0.026
-151.633	-200.000	-0.004	-0.252
-150.618	-65.415	-0.229	0.091
-149.604	-154.293	0.131	0.009
-148.589	-27.632	0.111	0.064
-147.574	592.681	0.106	0.258
-146.560	481.475	-0.145	0.325
-145.545	-200.000	0.003	0.273
-144.531	48.292	-0.145	-0.134
-143.516	-200.000	-0.033	-0.281
-142.502	-48.172	0.480	-0.229
-141.487	-200.000	0.018	-0.140
-140.472	93.609	-0.051	-0.057
-139.458	-108.278	-0.134	0.029
-138.443	-127.249	0.160	0.023
-137.429	-58.688	-0.136	0.058
-136.414	-200.000	-0.003	0.236
-135.399	-17.520	0.175	0.109
-134.385	-63.935	-0.321	0.130
-133.370	-72.257	0.428	0.157
-132.356	-200.000	0.024	-0.173
-131.341	726.238	-0.053	-0.140
-130.326	-49.157	-0.078	0.037
-129.312	23.636	0.070	0.057
-128.297	-63.649	-0.167	0.068
-127.283	161.923	0.134	-0.185
-126.268	29.300	0.117	-0.098
-125.253	-168.925	-0.159	0.006
-124.239	205.419	0.089	-0.136
-123.224	256.414	-0.056	0.096
-122.210	-69.751	-0.241	-0.091
-121.195	-132.135	0.254	-0.033
