DTS Sentinel unit serial number:	SN413079Multiplexer serial number:	ORYXHardware model number:	OX4-SRSoftware version number:	ORYX F/W v4.00 Oryx Data Collector v3.7.2.0data status	okinstallation	princeton_trtdifferential loss correction	single-endedforward channel	channel 1reverse channel	N/Adate	2019/09/17time	15:34:35forward acquisition time	60.00reverse acquisition time	0.00gamma	496.2192k internal	0.2294k external	0.2294temperature offset calibration	0.9967default loss term (dB/km)	0.3790temperature slope calibration	1.0000multiplexer offset coefficient	1.0000multiplexer slope coefficient	1.0000fibre end	0.00T internal ref (°C)	38.45T ext. ref 1 (°C)	0.39T ext. ref 2 (°C)	35.84length (m)	temperature (°C)	Stokes	anti-Stokes-747.200	800.000	-0.012	-0.047
-746.185	800.000	0.126	0.391
-745.171	195.592	0.181	-0.282
-744.156	287.139	0.143	0.265
-743.142	800.000	-0.062	0.255
-742.127	47.558	0.316	0.301
-741.112	-58.547	0.451	0.200
-740.098	-200.000	0.054	0.494
-739.083	-83.327	0.149	-0.049
-738.069	120.944	-0.029	-0.037
-737.054	-184.318	-0.284	-0.005
-736.039	-57.225	0.081	-0.037
-735.025	42.387	-0.182	0.169
-734.010	-62.949	0.251	0.106
-732.996	-113.584	0.146	0.029
-731.981	-31.514	-0.466	-0.268
-730.966	-200.000	-0.046	0.239
-729.952	102.487	-0.063	0.075
-728.937	-39.298	-0.099	0.053
-727.923	281.272	-0.119	-0.217
-726.908	-80.148	-0.260	0.089
-725.894	263.040	-0.072	-0.129
-724.879	800.000	-0.081	-0.257
-723.864	-200.000	0.010	-0.079
-722.850	235.038	-0.101	-0.171
-721.835	40.788	-0.180	-0.165
-720.821	71.999	-0.097	-0.103
-719.806	-200.000	0.039	-0.199
-718.791	230.629	0.093	-0.155
-717.777	-200.000	-0.004	-0.086
-716.762	442.550	0.103	0.231
-715.748	-200.000	-0.017	0.229
-714.733	-6.039	0.309	0.216
-713.718	411.008	-0.104	-0.225
-712.704	-134.788	-0.198	-0.025
-711.689	-31.522	-0.284	-0.163
-710.675	338.631	-0.050	-0.099
-709.660	-117.656	-0.246	-0.045
-708.645	-75.526	0.202	0.073
-707.631	-200.000	-0.049	-0.328
-706.616	100.904	-0.151	-0.179
-705.602	800.000	-0.080	-0.245
-704.587	256.920	0.094	-0.165
-703.572	-174.850	0.054	0.002
-702.558	192.147	0.144	-0.222
-701.543	154.484	-0.150	-0.210
-700.529	-64.358	0.018	-0.008
-699.514	-200.000	-0.101	-0.584
-698.499	63.182	0.166	0.170
-697.485	131.692	0.236	0.310
-696.470	-145.580	-0.203	0.019
-695.456	-47.541	-0.201	-0.100
-694.441	555.783	0.141	-0.346
-693.426	166.331	0.128	0.185
-692.412	-34.140	-0.183	-0.103
-691.397	-33.943	-0.408	-0.229
-690.383	82.745	0.175	-0.195
-689.368	149.396	0.129	-0.178
-688.354	111.024	0.222	0.273
-687.339	507.454	0.074	-0.175
-686.324	-27.343	-0.080	0.048
-685.310	202.599	0.144	-0.227
-684.295	-200.000	-0.045	0.258
-683.281	800.000	-0.039	0.134
-682.266	13.667	0.210	-0.166
-681.251	-118.815	0.444	0.080
-680.237	771.043	0.095	-0.264
-679.222	-200.000	0.007	-0.129
-678.208	-200.000	0.011	-0.074
-677.193	-174.146	-0.347	0.010
-676.178	-200.000	0.001	-0.204
-675.164	-166.268	-0.343	0.015
-674.149	28.539	-0.054	-0.046
-673.135	19.820	-0.272	0.223
-672.120	275.906	0.186	0.336
-671.105	800.000	0.071	0.234
-670.091	800.000	-0.084	-0.257
-669.076	-44.646	0.184	-0.094
-668.062	-200.000	-0.008	-0.160
-667.047	587.604	-0.071	0.177
-666.032	-200.000	0.012	-0.155
-665.018	241.358	-0.040	-0.069
-664.003	-200.000	0.009	-0.167
-662.989	137.971	-0.217	0.290
-661.974	180.882	0.030	-0.045
-660.959	800.000	-0.049	0.196
-659.945	396.220	0.127	0.270
-658.930	-116.206	-0.115	0.022
-657.916	47.033	-0.026	0.025
-656.901	239.586	0.084	0.142
-655.886	800.000	-0.059	-0.222
-654.872	152.364	-0.127	-0.176
-653.857	-200.000	-0.007	-0.286
-652.843	388.923	0.051	-0.107
-651.828	40.776	0.052	0.048
-650.814	-28.622	-0.067	-0.040
-649.799	-200.000	-0.019	-0.200
-648.784	-200.000	0.015	-0.296
-647.770	800.000	0.091	0.337
-646.755	132.451	-0.101	-0.132
-645.741	7.943	0.120	0.091
-644.726	-11.154	-0.100	-0.067
-643.711	-200.000	-0.049	-0.310
-642.697	198.193	0.181	-0.281
-641.682	-138.782	0.108	-0.012
-640.668	-149.305	-0.143	0.012
-639.653	688.874	0.032	-0.085
-638.638	51.627	-0.154	-0.149
-637.624	167.136	-0.094	0.135
-636.609	-143.319	0.440	0.043
-635.595	220.779	-0.079	-0.130
-634.580	-200.000	0.000	-0.431
-633.565	-200.000	0.065	-0.347
-632.551	624.243	-0.056	0.143
-631.536	109.772	-0.155	-0.190
-630.522	351.542	0.062	0.126
-629.507	147.202	0.241	0.331
-628.492	-94.208	0.024	-0.007
-627.478	8.314	-0.119	-0.091
-626.463	-96.406	0.048	0.013
-625.449	159.424	0.197	-0.280
-624.434	-193.158	-0.238	0.002
-623.419	-200.000	0.040	-0.223
-622.405	-200.000	0.005	0.158
-621.390	-200.000	-0.028	-0.125
-620.376	800.000	0.029	-0.093
-619.361	12.357	0.231	0.182
-618.346	-165.048	-0.258	-0.012
-617.332	-47.874	-0.192	-0.095
-616.317	22.700	-0.199	-0.166
-615.303	-200.000	0.001	0.126
-614.288	-200.000	-0.023	0.212
-613.273	12.548	0.145	0.114
-612.259	-82.646	-0.169	0.056
-611.244	658.690	-0.059	0.155
-610.230	-200.000	-0.089	0.470
-609.215	-115.782	0.291	0.055
-608.201	-25.095	0.246	-0.148
-607.186	-200.000	-0.016	0.153
-606.171	42.512	0.214	0.198
-605.157	-77.793	-0.344	-0.121
-604.142	7.254	-0.044	0.034
-603.128	175.557	0.102	0.151
-602.113	800.000	-0.087	-0.250
-601.098	-65.521	0.172	-0.070
-600.084	800.000	-0.046	0.199
-599.069	-200.000	-0.027	-0.210
-598.055	-157.765	0.195	0.012
-597.040	379.950	-0.154	-0.320
-596.025	-66.389	-0.161	0.065
-595.011	-200.000	-0.051	-0.285
-593.996	-200.000	-0.023	0.397
-592.982	-90.748	0.180	0.053
-591.967	98.071	0.093	0.109
-590.952	-13.522	-0.079	-0.052
-589.938	-66.453	-0.173	-0.070
-588.923	-200.000	0.017	0.116
-587.909	70.723	0.204	0.214
-586.894	94.453	0.052	-0.060
-585.879	-200.000	-0.033	0.332
-584.865	346.656	-0.078	0.156
-583.850	51.818	0.224	0.217
-582.836	111.624	-0.080	-0.098
-581.821	338.081	0.021	0.042
-580.806	-153.434	-0.255	-0.018
-579.792	-53.009	-0.182	-0.085
-578.777	713.629	0.084	0.227
-577.763	-156.263	0.169	-0.011
-576.748	404.253	-0.079	0.170
-575.733	324.766	-0.076	-0.147
-574.719	-200.000	-0.048	-0.436
-573.704	-200.000	-0.047	0.227
-572.690	300.003	0.122	0.228
-571.675	324.115	0.008	0.015
-570.661	800.000	-0.038	-0.168
-569.646	-134.305	0.137	0.017
-568.631	123.649	-0.251	-0.320
-567.617	0.479	0.257	-0.187
-566.602	-200.000	0.008	-0.169
-565.588	89.586	-0.052	-0.059
-564.573	-200.000	0.062	-0.278
-563.558	-125.112	0.169	0.026
-562.544	32.299	0.128	0.112
-561.529	132.103	-0.267	0.349
-560.515	-113.006	0.130	0.026
-559.500	-51.914	-0.263	0.124
-558.485	45.817	-0.323	-0.303
-557.471	-200.000	0.034	-0.196
-556.456	-200.000	-0.010	-0.068
-555.442	800.000	-0.034	-0.104
-554.427	800.000	-0.020	0.069
-553.412	-73.646	-0.223	-0.082
-552.398	687.795	-0.146	-0.387
-551.383	-48.810	-0.218	-0.106
-550.369	-200.000	0.059	-0.265
-549.354	776.082	0.034	0.094
-548.339	28.052	-0.191	0.164
-547.325	-105.574	-0.169	0.039
-546.310	664.123	0.046	-0.121
-545.296	-90.627	-0.063	-0.018
-544.281	800.000	-0.058	-0.190
-543.266	-9.314	0.280	-0.190
-542.252	499.107	-0.077	0.179
-541.237	800.000	0.084	-0.239
-540.223	800.000	0.068	-0.226
-539.208	-62.400	-0.091	-0.038
-538.193	24.763	-0.316	-0.266
-537.179	-14.854	-0.269	0.175
-536.164	-126.239	-0.259	0.039
-535.150	800.000	-0.076	-0.255
-534.135	-200.000	-0.027	-0.227
-533.121	111.822	0.186	0.228
-532.106	21.218	-0.124	0.102
-531.091	-3.711	0.183	0.129
-530.077	-200.000	0.001	0.016
-529.062	-69.822	-0.197	0.076
-528.048	800.000	0.087	0.309
-527.033	39.931	-0.058	0.053
-526.018	540.539	-0.043	0.103
-525.004	55.132	0.189	0.185
-523.989	-80.696	-0.351	0.118
-522.975	800.000	-0.012	0.049
-521.960	46.128	0.266	0.250
-520.945	116.443	-0.186	-0.231
-519.931	-200.000	0.024	-0.237
-518.916	-200.000	-0.047	0.212
-517.902	183.973	0.147	0.220
-516.887	-200.000	0.008	0.230
-515.872	1.045	0.102	-0.074
-514.858	-200.000	-0.011	-0.159
-513.843	163.412	-0.109	0.156
-512.829	-92.685	-0.244	-0.069
-511.814	-181.374	0.267	0.005
-510.799	524.958	0.026	-0.062
-509.785	-200.000	0.031	0.153
-508.770	69.316	0.260	-0.271
-507.756	480.326	0.171	0.393
-506.741	-200.000	-0.197	0.000
-505.726	-85.642	0.285	-0.090
-504.712	-96.681	0.447	0.119
-503.697	-173.059	-0.162	-0.005
-502.683	-95.414	0.230	-0.063
-501.668	-60.297	-0.296	-0.128
-500.653	88.370	0.148	-0.167
-499.639	-126.096	0.067	0.010
-498.624	213.175	0.046	-0.074
-497.610	-200.000	-0.039	-0.196
-496.595	-153.946	0.403	-0.028
-495.581	-200.000	0.041	-0.306
-494.566	-200.000	-0.429	0.002
-493.551	-200.000	-0.026	-0.264
-492.537	-200.000	0.006	-0.152
-491.522	155.140	-0.176	0.246
-490.508	-132.849	0.101	-0.013
-489.493	800.000	-0.045	0.128
-488.478	268.207	-0.120	0.213
-487.464	13.904	0.351	0.277
-486.449	301.037	0.034	-0.064
-485.435	-21.885	-0.344	-0.212
-484.420	-24.683	0.164	0.099
-483.405	110.073	0.039	-0.048
-482.391	-135.337	0.175	-0.021
-481.376	253.450	-0.135	0.233
-480.362	-200.000	-0.001	-0.372
-479.347	-18.371	0.336	-0.213
-478.332	147.872	-0.134	-0.182
-477.318	-200.000	0.012	-0.225
-476.303	54.608	-0.145	-0.142
-475.289	-58.663	-0.131	0.057
-474.274	-200.000	-0.015	-0.226
-473.259	-200.000	-0.017	0.129
-472.245	-50.968	-0.180	-0.085
-471.230	57.168	0.118	0.117
-470.216	43.499	0.189	-0.175
-469.201	-76.354	0.356	0.127
-468.186	-200.000	0.007	-0.115
-467.172	-12.109	0.245	-0.163
-466.157	800.000	0.054	-0.188
-465.143	-25.165	-0.230	-0.138
-464.128	-200.000	0.023	0.247
-463.113	-200.000	-0.013	-0.061
-462.099	-200.000	-0.014	-0.328
-461.084	-59.607	-0.288	-0.125
-460.070	238.338	-0.196	0.330
-459.055	62.219	0.173	0.174
-458.040	66.576	-0.147	-0.152
-457.026	-200.000	-0.001	-0.088
-456.011	-193.467	0.162	-0.001
-454.997	522.556	0.061	-0.146
-453.982	89.257	-0.068	-0.077
-452.968	58.718	-0.040	-0.040
-451.953	11.896	-0.052	-0.040
-450.938	-200.000	0.032	0.155
-449.924	-200.000	0.020	-0.248
-448.909	-200.000	-0.024	0.114
-447.895	-56.814	-0.193	-0.086
-446.880	-170.957	0.233	-0.008
-445.865	638.079	-0.028	-0.072
-444.851	-200.000	-0.010	0.268
-443.836	800.000	-0.113	-0.433
-442.822	-64.745	-0.061	0.025
-441.807	-69.200	-0.361	0.140
-440.792	800.000	-0.055	0.192
-439.778	-104.780	-0.351	-0.082
-438.763	180.841	0.038	-0.056
-437.749	55.995	-0.028	-0.027
-436.734	800.000	0.039	0.150
-435.719	800.000	-0.065	0.268
-434.705	-177.770	0.196	-0.005
-433.690	-137.651	0.186	-0.021
-432.676	-99.743	-0.349	-0.088
-431.661	-120.719	-0.031	-0.005
-430.646	-14.948	0.096	0.062
-429.632	137.263	0.147	-0.194
-428.617	182.537	-0.136	-0.202
-427.603	2.667	-0.110	-0.081
-426.588	-119.049	-0.109	-0.019
-425.573	69.430	-0.150	0.156
-424.559	-93.403	-0.334	0.094
-423.544	-115.697	0.138	0.026
-422.530	551.239	-0.153	-0.371
-421.515	-39.145	-0.209	-0.111
-420.500	-108.099	0.233	-0.051
-419.486	88.230	-0.146	0.164
-418.471	-60.631	0.159	0.068
-417.457	800.000	-0.038	-0.121
-416.442	-99.212	0.303	-0.077
-415.428	84.312	0.082	-0.091
-414.413	-88.002	0.342	-0.104
-413.398	433.250	0.031	0.068
-412.384	-200.000	0.003	0.059
-411.369	-70.474	0.169	0.065
-410.355	502.801	-0.142	-0.332
-409.340	-153.563	0.086	0.006
-408.325	-115.777	0.464	0.088
-407.311	800.000	-0.089	-0.272
-406.296	-180.174	-0.522	0.011
-405.282	-133.759	-0.217	-0.027
-404.267	800.000	-0.067	-0.227
-403.252	-74.221	-0.314	0.115
-402.238	210.021	-0.079	0.125
-401.223	-123.928	0.076	-0.012
-400.209	-12.125	-0.118	0.078
-399.194	-9.363	-0.095	0.064
-398.179	800.000	0.033	-0.114
-397.165	-200.000	0.012	-0.240
-396.150	116.278	0.166	0.205
-395.136	-78.950	-0.178	0.061
-394.121	125.714	0.043	0.055
-393.106	24.038	0.234	-0.195
-392.092	184.587	0.104	-0.156
-391.077	-200.000	0.021	0.208
-390.063	119.833	-0.190	-0.238
-389.048	800.000	-0.070	-0.243
-388.033	487.658	0.136	0.314
-387.019	-113.155	-0.097	0.019
-386.004	433.903	-0.093	-0.204
-384.990	51.523	-0.138	-0.132
-383.975	465.013	-0.092	-0.207
-382.960	-107.557	-0.161	-0.036
-381.946	-104.111	0.436	0.102
-380.931	800.000	0.041	0.170
-379.917	-200.000	-0.025	-0.128
-378.902	-185.076	0.174	0.003
-377.888	49.052	-0.187	-0.177
-376.873	-200.000	-0.004	-0.201
-375.858	-35.133	-0.495	-0.272
-374.844	-84.288	0.086	0.027
-373.829	308.482	0.057	0.107
-372.815	-80.329	0.248	-0.084
-371.800	44.731	-0.224	-0.208
-370.785	-200.000	-0.018	-0.273
-369.771	58.048	-0.044	-0.043
-368.756	347.010	-0.018	0.035
-367.742	133.104	0.215	0.280
-366.727	92.524	-0.215	0.245
-365.712	-151.249	0.321	0.024
-364.698	98.431	0.108	-0.126
-363.683	800.000	-0.052	0.152
-362.669	-60.679	0.043	-0.018
-361.654	-157.027	0.133	-0.008
-360.639	-89.314	-0.184	-0.055
-359.625	-24.159	0.163	-0.098
-358.610	293.920	0.091	-0.168
-357.596	-200.000	0.000	0.128
-356.581	-107.987	-0.104	-0.023
-355.566	451.443	0.102	0.227
-354.552	800.000	0.022	0.097
-353.537	-47.528	0.114	0.056
-352.523	-120.251	0.388	-0.067
-351.508	73.732	0.128	-0.135
-350.493	2.852	-0.052	0.038
-349.479	-31.546	-0.057	-0.032
-348.464	-130.830	0.243	0.033
-347.450	-70.684	0.346	0.132
-346.435	-18.736	-0.139	0.087
-345.420	-99.572	-0.242	0.061
-344.406	-9.470	-0.112	0.075
-343.391	-4.259	-0.387	0.270
-342.377	348.740	-0.064	-0.127
-341.362	50.563	0.248	0.236
-340.348	56.426	-0.144	-0.141
-339.333	117.458	0.296	0.367
-338.318	-65.620	0.116	0.047
-337.304	-27.580	-0.311	-0.182
-336.289	-13.767	0.412	0.268
-335.275	-141.311	-0.293	-0.030
-334.260	-53.858	-0.074	-0.034
-333.245	-118.651	0.281	0.050
-332.231	-200.000	-0.009	-0.055
-331.216	-57.213	0.227	0.101
-330.202	536.584	-0.080	0.191
-329.187	-53.521	-0.179	0.082
-328.172	-130.418	-0.405	0.055
-327.158	100.943	-0.134	-0.156
-326.143	-7.101	0.143	0.098
-325.129	1.301	-0.261	0.189
-324.114	-70.706	0.134	0.051
-323.099	-101.878	-0.419	-0.102
-322.085	-200.000	0.056	0.338
-321.070	-73.571	-0.160	-0.059
-320.056	13.281	-0.229	0.178
-319.041	-105.475	0.067	0.015
-318.026	74.050	0.071	0.075
-317.012	390.544	0.080	0.167
-315.997	58.022	-0.215	0.212
-314.983	21.162	-0.137	0.112
-313.968	-55.558	-0.147	0.066
-312.953	-164.318	0.099	0.005
-311.939	159.986	0.194	-0.273
-310.924	-96.027	0.041	0.011
-309.910	-140.472	-0.374	0.039
-308.895	-200.000	-0.008	0.208
-307.880	-148.647	-0.242	0.020
-306.866	39.614	-0.108	-0.098
-305.851	292.047	0.128	-0.235
-304.837	85.134	0.261	0.288
-303.822	118.516	0.228	-0.283
-302.807	-78.883	0.164	-0.056
-301.793	-63.398	-0.261	0.108
-300.778	149.816	-0.018	-0.025
-299.764	-81.162	0.226	-0.075
-298.749	529.226	-0.205	0.486
-297.735	-116.656	0.037	-0.007
-296.720	148.286	-0.012	-0.016
-295.705	292.443	-0.009	-0.016
-294.691	10.424	-0.062	-0.048
-293.676	-200.000	0.000	0.006
-292.662	284.394	-0.154	-0.278
-291.647	0.655	0.074	0.053
-290.632	59.587	0.152	0.150
-289.618	-21.024	0.119	0.073
-288.603	123.679	0.152	0.191
-287.589	800.000	-0.061	-0.215
-286.574	-105.394	0.164	-0.037
-285.559	55.142	-0.331	-0.321
-284.545	170.797	-0.107	0.154
-283.530	-60.563	0.195	0.083
-282.516	-200.000	-0.003	-0.308
-281.501	800.000	-0.027	-0.105
-280.486	-68.574	-0.206	-0.080
-279.472	800.000	0.142	0.456
-278.457	800.000	0.044	0.133
-277.443	-27.726	-0.088	0.051
-276.428	380.713	-0.151	0.310
-275.413	56.109	0.191	0.187
-274.399	233.833	0.112	0.184
-273.384	37.117	0.266	0.237
-272.370	181.696	0.100	-0.148
-271.355	-200.000	0.003	-0.110
-270.340	-43.816	-0.399	-0.202
-269.326	-46.049	0.182	-0.090
-268.311	-2.428	-0.178	-0.125
-267.297	-84.121	0.096	0.031
-266.282	18.917	-0.278	-0.224
-265.267	161.347	0.197	0.277
-264.253	96.174	0.124	0.142
-263.238	41.903	-0.094	0.086
-262.224	-113.721	-0.244	0.048
-261.209	126.380	0.039	-0.049
-260.195	13.128	-0.103	0.080
-259.180	-14.570	-0.274	0.177
-258.165	-129.124	0.342	-0.048
-257.151	800.000	0.082	0.302
-256.136	-102.377	0.226	-0.054
-255.122	405.241	0.187	0.396
-254.107	222.960	0.031	0.050
-253.092	-76.044	0.190	-0.067
-252.078	1.107	-0.350	0.252
-251.063	-65.412	-0.159	0.064
-250.049	66.677	-0.143	0.146
-249.034	339.839	0.117	0.228
-248.019	85.937	-0.029	-0.032
-247.005	6.987	0.068	-0.051
-245.990	-10.063	-0.191	-0.128
-244.976	800.000	-0.042	0.159
-243.961	28.682	-0.096	-0.082
-242.946	-32.869	-0.148	-0.082
-241.932	-167.153	0.153	0.006
-240.917	-107.086	-0.285	0.063
-239.903	58.844	-0.042	0.042
-238.888	237.677	-0.018	-0.031
-237.873	-53.029	0.446	-0.206
-236.859	-30.973	0.180	-0.102
-235.844	337.022	0.190	0.370
-234.830	-75.745	0.176	0.063
-233.815	-27.568	0.545	-0.317
-232.800	476.913	0.069	0.156
-231.786	299.602	-0.075	-0.139
-230.771	-184.966	0.202	-0.003
-229.757	-147.340	-0.324	0.028
-228.742	-76.507	0.259	-0.091
-227.727	-200.000	0.006	-0.169
-226.713	-134.526	0.156	0.019
-225.698	-55.059	-0.076	-0.034
-224.684	276.077	-0.080	-0.142
-223.669	217.594	-0.178	-0.285
-222.655	-94.994	0.065	0.018
-221.640	145.642	0.118	0.158
-220.625	63.229	0.090	0.090
-219.611	249.284	-0.108	0.183
-218.596	-13.235	0.026	0.017
-217.582	-144.090	-0.259	-0.024
-216.567	8.292	0.211	-0.159
-215.552	-200.000	-0.009	-0.149
-214.538	-200.000	-0.007	-0.236
-213.523	231.596	0.189	-0.311
-212.509	-27.016	0.373	-0.218
-211.494	158.031	0.214	-0.297
-210.479	-11.930	0.249	-0.163
-209.465	800.000	-0.119	-0.333
-208.450	-115.369	0.173	-0.033
-207.436	40.334	-0.129	0.117
-206.421	161.882	-0.086	-0.121
-205.406	9.841	-0.059	0.045
-204.392	348.717	-0.122	0.240
-203.377	-86.304	-0.119	0.037
-202.363	-200.000	0.024	-0.140
-201.348	800.000	0.136	0.385
-200.333	-94.592	0.120	-0.033
-199.319	53.798	0.159	-0.153
-198.304	-101.771	0.316	0.077
-197.290	800.000	-0.051	-0.205
-196.275	-100.147	-0.234	0.058
-195.260	-97.094	0.183	-0.048
-194.246	-200.000	0.069	0.569
-193.231	93.142	0.180	0.204
-192.217	-38.487	-0.261	-0.138
-191.202	-200.000	0.053	0.482
-190.187	-22.761	0.142	-0.086
-189.173	-200.000	0.017	0.317
-188.158	196.846	-0.094	0.143
-187.144	5.543	-0.182	0.134
-186.129	800.000	-0.067	-0.188
-185.114	269.419	0.209	0.367
-184.100	75.704	0.061	0.065
-183.085	16.541	0.088	-0.070
-182.071	800.000	-0.075	0.256
-181.056	220.273	0.215	0.345
-180.042	173.242	-0.114	0.165
-179.027	20.868	0.103	-0.084
-178.012	-145.013	0.382	0.035
-176.998	-92.822	-0.385	0.108
-175.983	-62.561	-0.339	-0.141
-174.969	114.848	0.164	-0.200
-173.954	-65.455	-0.245	0.099
-172.939	-22.158	0.185	0.112
-171.925	383.113	-0.080	0.165
-170.910	9.601	0.317	0.240
-169.896	799.023	0.135	-0.371
-168.881	200.145	0.193	-0.296
-167.866	800.000	-0.085	-0.317
-166.852	29.492	0.254	0.216
-165.837	290.172	0.124	0.226
-164.823	10.292	-0.188	-0.143
-163.808	-39.657	-0.237	0.124
-162.793	772.205	0.067	0.182
-161.779	154.719	0.037	-0.051
-160.764	-50.016	-0.702	-0.333
-159.750	27.486	-0.038	-0.032
-158.735	552.048	-0.097	0.233
-157.720	416.074	0.152	0.323
-156.706	62.640	0.241	0.240
-155.691	800.000	-0.044	-0.134
-154.677	-200.000	-0.043	0.228
-153.662	-168.199	0.351	-0.014
-152.647	24.510	0.178	0.148
-151.633	28.123	-0.308	0.260
-150.618	229.312	-0.081	-0.132
-149.604	376.329	0.079	-0.160
-148.589	295.392	-0.096	0.177
-147.574	-17.347	-0.103	0.065
-146.560	621.846	-0.091	0.229
-145.545	-148.612	0.322	-0.026
-144.531	-1.146	0.102	-0.072
-143.516	331.312	0.182	0.350
-142.502	64.090	-0.145	0.146
-141.487	-200.000	0.030	0.289
-140.472	-147.933	0.132	-0.011
-139.458	739.394	-0.147	-0.395
-138.443	-172.138	0.161	0.005
-137.429	800.000	0.065	0.255
-136.414	800.000	-0.008	-0.027
-135.399	30.914	0.149	0.127
-134.385	-70.644	-0.399	0.151
-133.370	800.000	0.115	-0.405
-132.356	341.400	-0.046	0.090
-131.341	105.980	-0.149	-0.176
-130.326	518.699	0.019	-0.045
-129.312	57.219	-0.217	-0.211
-128.297	307.397	0.064	-0.119
-127.283	-123.859	0.296	0.047
-126.268	-200.000	0.028	-0.151
-125.253	3.825	0.183	0.134
-124.239	-6.354	0.318	-0.217
-123.224	-200.000	0.005	0.217
-122.210	16.302	-0.357	0.281
-121.195	-52.334	-0.060	0.028
