DTS Sentinel unit serial number:	SN413079Multiplexer serial number:	ORYXHardware model number:	OX4-SRSoftware version number:	ORYX F/W v4.00 Oryx Data Collector v3.7.2.0data status	okinstallation	princeton_trtdifferential loss correction	single-endedforward channel	channel 1reverse channel	N/Adate	2019/09/11time	03:08:11forward acquisition time	60.00reverse acquisition time	0.00gamma	496.2192k internal	0.2331k external	0.2331temperature offset calibration	0.9927default loss term (dB/km)	0.3790temperature slope calibration	1.0000multiplexer offset coefficient	1.0000multiplexer slope coefficient	1.0000fibre end	0.00T internal ref (°C)	29.31T ext. ref 1 (°C)	-0.30T ext. ref 2 (°C)	23.95length (m)	temperature (°C)	Stokes	anti-Stokes-747.200	-200.000	-0.004	-0.105
-746.185	-106.265	-0.212	-0.048
-745.171	-137.998	0.376	-0.042
-744.156	260.318	-0.057	0.099
-743.142	169.842	0.079	-0.114
-742.127	-178.128	-0.292	-0.007
-741.112	800.000	-0.038	0.153
-740.098	-200.000	-0.004	0.177
-739.083	-65.576	-0.159	0.064
-738.069	488.547	-0.055	0.126
-737.054	-28.522	-0.046	-0.026
-736.039	32.901	0.169	0.147
-735.025	-200.000	0.043	0.293
-734.010	93.460	-0.134	-0.152
-732.996	169.315	0.116	0.167
-731.981	-200.000	0.018	-0.345
-730.966	-200.000	0.006	-0.158
-729.952	353.347	0.147	0.294
-728.937	-79.357	-0.200	-0.068
-727.923	46.648	-0.078	0.072
-726.908	50.847	0.126	-0.120
-725.894	142.436	0.146	0.195
-724.879	-192.934	-0.149	0.001
-723.864	43.713	0.173	0.159
-722.850	366.665	-0.138	0.280
-721.835	135.986	-0.234	0.307
-720.821	273.443	-0.132	-0.234
-719.806	-200.000	-0.038	-0.370
-718.791	-95.054	-0.297	-0.081
-717.777	73.728	-0.136	-0.143
-716.762	-177.437	-0.252	-0.006
-715.748	-112.116	-0.255	-0.051
-714.733	-75.984	0.145	0.052
-713.718	128.430	0.147	0.189
-712.704	-73.220	-0.362	-0.133
-711.689	-200.000	0.001	-0.534
-710.675	-200.000	0.007	-0.104
-709.660	800.000	0.069	0.240
-708.645	86.223	-0.186	0.206
-707.631	-28.719	-0.197	0.114
-706.616	220.614	0.015	-0.025
-705.602	-15.532	0.325	0.209
-704.587	-44.203	0.075	0.038
-703.572	-85.048	-0.196	-0.062
-702.558	12.655	-0.186	0.144
-701.543	41.690	0.247	-0.225
-700.529	-200.000	0.015	-0.145
-699.514	56.237	-0.233	-0.227
-698.499	376.947	-0.124	-0.255
-697.485	-116.715	-0.097	-0.018
-696.470	211.976	-0.107	-0.169
-695.456	800.000	0.007	0.028
-694.441	-81.848	0.369	-0.121
-693.426	382.487	-0.095	-0.195
-692.412	-101.526	0.281	0.069
-691.397	-132.578	-0.012	-0.002
-690.383	291.474	-0.049	0.090
-689.368	-94.636	-0.200	0.054
-688.354	10.301	-0.172	0.131
-687.339	-138.240	-0.127	-0.014
-686.324	-72.287	0.035	0.013
-685.310	-124.189	-0.410	0.064
-684.295	179.167	-0.060	0.088
-683.281	-80.069	0.511	-0.172
-682.266	522.730	0.075	0.176
-681.251	800.000	-0.025	0.093
-680.237	47.643	0.152	-0.143
-679.222	-200.000	-0.007	0.146
-678.208	-121.940	-0.139	0.023
-677.193	164.451	0.141	0.199
-676.178	688.998	0.116	-0.305
-675.164	-27.469	-0.216	0.126
-674.149	791.801	-0.093	-0.258
-673.135	-104.373	-0.096	-0.022
-672.120	-14.007	0.108	0.070
-671.105	43.812	0.183	-0.168
-670.091	-50.468	-0.198	0.094
-669.076	420.729	-0.044	0.094
-668.062	-200.000	-0.021	-0.111
-667.047	-53.350	-0.204	0.094
-666.032	-82.005	0.124	0.041
-665.018	-91.021	-0.151	-0.043
-664.003	0.797	-0.097	0.070
-662.989	-150.712	-0.046	-0.004
-661.974	-82.753	-0.236	0.076
-660.959	49.372	0.187	-0.177
-659.945	-177.794	0.141	-0.003
-658.930	418.202	-0.082	-0.175
-657.916	-200.000	-0.001	-0.063
-656.901	237.682	-0.042	0.069
-655.886	800.000	0.057	0.232
-654.872	800.000	0.049	-0.173
-653.857	-46.013	-0.302	-0.149
-652.843	-116.900	0.234	-0.043
-651.828	-45.997	0.105	0.052
-650.814	59.333	0.136	-0.134
-649.799	-75.367	0.148	0.053
-648.784	77.625	0.042	0.045
-647.770	273.702	-0.088	-0.156
-646.755	-200.000	-0.024	-0.264
-645.741	-30.446	-0.077	0.044
-644.726	-200.000	0.009	0.057
-643.711	179.685	0.039	-0.057
-642.697	-200.000	-0.003	0.090
-641.682	-200.000	-0.027	0.167
-640.668	-30.869	0.231	-0.131
-639.653	-200.000	-0.008	0.100
-638.638	-128.224	0.306	0.044
-637.624	-100.373	-0.125	-0.031
-636.609	-200.000	0.005	-0.253
-635.595	273.032	0.159	0.281
-634.580	416.431	-0.058	0.123
-633.565	42.451	-0.185	-0.169
-632.551	345.218	0.039	-0.077
-631.536	-97.004	-0.097	0.026
-630.522	-118.498	-0.286	-0.051
-629.507	-182.914	0.305	-0.005
-628.492	192.474	0.160	0.242
-627.478	-200.000	0.020	0.131
-626.463	800.000	0.097	-0.311
-625.449	-200.000	0.009	-0.221
-624.434	97.157	-0.128	-0.147
-623.419	-38.252	-0.076	0.040
-622.405	-178.146	0.363	-0.009
-621.390	-67.588	0.649	-0.255
-620.376	-30.803	-0.327	-0.185
-619.361	42.251	-0.360	0.327
-618.346	-92.353	-0.051	-0.015
-617.332	-200.000	-0.004	-0.158
-616.317	-54.770	0.346	0.156
-615.303	-200.000	-0.015	0.286
-614.288	108.065	0.174	-0.207
-613.273	101.215	0.052	0.061
-612.259	800.000	0.087	-0.275
-611.244	-135.539	0.187	-0.022
-610.230	-4.905	-0.237	-0.164
-609.215	-200.000	-0.064	-0.300
-608.201	-100.644	0.351	-0.087
-607.186	800.000	0.024	-0.103
-606.171	800.000	0.092	0.265
-605.157	-99.730	0.159	-0.040
-604.142	6.107	0.059	-0.044
-603.128	311.806	0.040	0.076
-602.113	-17.469	-0.234	0.147
-601.098	-127.859	0.163	0.023
-600.084	402.352	0.145	-0.304
-599.069	800.000	0.135	0.433
-598.055	459.573	0.008	-0.018
-597.040	90.549	0.101	0.113
-596.025	800.000	-0.033	0.108
-595.011	-52.541	0.223	-0.103
-593.996	-200.000	0.015	-0.228
-592.982	-105.807	-0.264	-0.060
-591.967	102.249	-0.026	0.030
-590.952	631.251	0.025	-0.064
-589.938	-108.967	0.082	-0.017
-588.923	-170.334	-0.009	0.000
-587.909	800.000	-0.053	-0.195
-586.894	-133.373	-0.137	-0.017
-585.879	18.682	-0.217	-0.174
-584.865	-69.383	-0.150	-0.058
-583.850	-35.048	0.142	-0.077
-582.836	6.759	-0.295	-0.219
-581.821	-172.403	-0.251	-0.008
-580.806	66.143	0.167	-0.169
-579.792	800.000	-0.102	-0.299
-578.777	-69.838	0.462	-0.176
-577.763	-200.000	-0.005	-0.103
-576.748	800.000	-0.085	-0.270
-575.733	-113.093	-0.085	-0.017
-574.719	-39.180	0.028	-0.015
-573.704	2.513	0.271	-0.196
-572.690	134.499	0.161	0.208
-571.675	-200.000	-0.014	0.078
-570.661	26.167	-0.140	0.116
-569.646	67.967	-0.053	-0.054
-568.631	800.000	-0.088	-0.383
-567.617	-174.202	0.149	0.004
-566.602	-93.746	-0.203	0.056
-565.588	36.861	-0.089	-0.079
-564.573	-98.273	-0.270	-0.069
-563.558	-108.012	0.109	-0.024
-562.544	-53.571	0.487	0.223
-561.529	-200.000	0.019	0.133
-560.515	-84.571	0.320	0.101
-559.500	-135.348	-0.116	0.014
-558.485	-98.092	-0.285	-0.073
-557.471	59.931	-0.045	-0.044
-556.456	209.750	0.175	-0.274
-555.442	-5.678	0.271	0.186
-554.427	56.946	-0.205	0.199
-553.412	-200.000	-0.055	-0.266
-552.398	7.605	-0.234	-0.175
-551.383	24.542	0.214	0.177
-550.369	-60.624	-0.034	0.014
-549.354	0.296	-0.229	-0.163
-548.339	-200.000	0.004	0.062
-547.325	415.506	0.011	-0.023
-546.310	645.321	-0.062	0.159
-545.296	-76.578	0.073	0.026
-544.281	-99.391	0.075	0.019
-543.266	75.042	0.142	-0.149
-542.252	231.530	0.182	-0.298
-541.237	-50.275	-0.295	-0.139
-540.223	58.032	-0.152	-0.149
-539.208	129.893	-0.092	-0.118
-538.193	-100.802	-0.254	-0.062
-537.179	-17.738	-0.184	-0.115
-536.164	-50.850	-0.173	0.081
-535.150	800.000	0.037	0.108
-534.135	800.000	0.103	0.446
-533.121	-200.000	0.005	0.078
-532.106	-145.475	-0.255	0.023
-531.091	58.032	-0.102	0.100
-530.077	-96.355	-0.207	-0.055
-529.062	341.261	-0.113	0.221
-528.048	103.486	-0.075	-0.088
-527.033	122.449	-0.175	0.218
-526.018	134.361	-0.184	-0.238
-525.004	-38.406	0.317	0.167
-523.989	103.311	-0.269	-0.315
-522.975	-13.795	-0.081	-0.052
-521.960	4.154	-0.197	0.144
-520.945	-98.967	-0.290	-0.073
-519.931	-36.249	-0.264	0.142
-518.916	143.063	-0.140	-0.186
-517.902	-115.740	-0.318	-0.059
-516.887	-6.133	0.138	-0.094
-515.872	-65.750	-0.201	-0.080
-514.858	-200.000	0.041	-0.316
-513.843	-60.975	0.444	-0.187
-512.829	38.143	0.190	-0.169
-511.814	-167.986	-0.134	0.005
-510.799	-8.872	-0.147	-0.098
-509.785	628.246	-0.031	0.078
-508.770	125.753	-0.082	0.103
-507.756	-125.522	0.194	0.029
-506.741	286.186	-0.114	0.205
-505.726	-200.000	-0.033	-0.169
-504.712	800.000	0.005	-0.016
-503.697	77.787	-0.122	-0.130
-502.683	-56.169	-0.311	0.138
-501.668	-90.213	-0.184	0.053
-500.653	-9.274	0.146	0.097
-499.639	-200.000	-0.018	-0.102
-498.624	242.594	0.206	-0.344
-497.610	19.140	-0.346	0.277
-496.595	620.686	-0.074	-0.184
-495.581	613.156	0.077	0.191
-494.566	-99.586	-0.169	-0.042
-493.551	38.913	0.176	-0.157
-492.537	206.396	0.236	0.366
-491.522	386.523	0.169	-0.347
-490.508	-200.000	-0.000	0.013
-489.493	-109.586	-0.178	-0.037
-488.478	-200.000	0.035	0.208
-487.464	94.211	0.021	-0.024
-486.449	97.538	-0.201	0.230
-485.435	-33.647	-0.057	0.031
-484.420	-200.000	-0.006	0.150
-483.405	342.613	-0.037	0.072
-482.391	-200.000	-0.005	0.023
-481.376	-70.784	-0.131	-0.049
-480.362	-200.000	-0.022	-0.373
-479.347	26.551	-0.219	0.182
-478.332	-148.598	-0.137	0.011
-477.318	-200.000	0.010	0.341
-476.303	-200.000	0.014	-0.167
-475.289	39.584	-0.037	-0.033
-474.274	54.761	0.054	-0.052
-473.259	100.261	-0.200	-0.231
-472.245	20.915	-0.061	0.049
-471.230	2.258	0.158	-0.114
-470.216	800.000	-0.123	0.456
-469.201	236.273	0.196	0.323
-468.186	-159.111	0.179	-0.010
-467.172	-157.320	0.387	-0.023
-466.157	196.880	-0.029	0.044
-465.143	-94.011	0.106	-0.029
-464.128	-98.300	-0.170	-0.043
-463.113	-78.575	-0.129	0.044
-462.099	148.932	-0.139	0.187
-461.084	31.577	0.216	0.185
-460.070	499.832	0.108	0.248
-459.055	-169.950	0.221	0.008
-458.040	194.920	-0.013	0.019
-457.026	-102.069	-0.146	-0.035
-456.011	293.674	0.034	-0.061
-454.997	464.612	0.114	-0.255
-453.982	-175.112	0.182	-0.005
-452.968	679.850	-0.036	0.092
-451.953	57.384	0.069	-0.067
-450.938	51.694	-0.076	0.072
-449.924	-186.648	0.255	0.004
-448.909	-200.000	0.330	-0.001
-447.895	242.163	0.180	0.299
-446.880	97.562	-0.158	-0.181
-445.865	331.935	-0.173	-0.331
-444.851	800.000	0.062	0.259
-443.836	-174.483	-0.108	-0.003
-442.822	-1.505	-0.220	-0.154
-441.807	116.946	0.187	0.228
-440.792	-27.816	-0.073	0.042
-439.778	-200.000	-0.001	-0.274
-438.763	-187.082	-0.110	0.001
-437.749	151.336	0.159	-0.215
-436.734	-91.592	-0.371	-0.105
-435.719	-200.000	0.007	-0.103
-434.705	800.000	-0.039	-0.144
-433.690	-44.993	0.022	-0.011
-432.676	-50.844	-0.281	0.131
-431.661	54.815	-0.115	0.111
-430.646	-114.976	0.143	-0.027
-429.632	80.581	0.220	0.235
-428.617	432.100	0.174	-0.375
-427.603	-200.000	-0.022	0.202
-426.588	95.585	-0.207	0.234
-425.573	224.424	0.116	0.187
-424.559	-186.970	-0.185	0.003
-423.544	-200.000	-0.060	0.314
-422.530	-130.319	-0.136	0.018
-421.515	110.274	0.123	0.146
-420.500	-200.000	0.029	0.331
-419.486	-200.000	0.034	-0.385
-418.471	4.261	-0.217	0.158
-417.457	215.904	-0.129	0.203
-416.442	-200.000	-0.045	0.354
-415.428	800.000	0.061	-0.233
-414.413	800.000	0.033	0.099
-413.398	800.000	-0.036	0.123
-412.384	-58.279	-0.365	-0.158
-411.369	49.552	-0.194	0.181
-410.355	59.268	-0.121	-0.119
-409.340	10.564	0.020	-0.015
-408.325	-200.000	0.039	-0.199
-407.311	-56.896	0.090	0.040
-406.296	-125.781	0.440	0.066
-405.282	-200.000	0.041	0.233
-404.267	-47.997	-0.220	0.106
-403.252	-1.880	0.285	-0.199
-402.238	154.975	-0.041	-0.056
-401.223	-84.711	0.087	-0.027
-400.209	-200.000	-0.012	-0.061
-399.194	-34.512	-0.196	-0.107
-398.179	-96.161	0.181	0.048
-397.165	-200.000	0.062	0.499
-396.150	371.732	-0.074	0.149
-395.136	102.341	0.203	0.236
-394.121	176.095	-0.073	0.106
-393.106	177.088	-0.062	0.089
-392.092	-159.029	-0.187	-0.011
-391.077	191.704	-0.031	-0.047
-390.063	800.000	-0.031	0.127
-389.048	-149.934	-0.388	-0.030
-388.033	148.628	0.143	0.192
-387.019	121.217	-0.272	0.336
-386.004	102.869	0.220	-0.255
-384.990	-65.690	0.240	-0.096
-383.975	-4.696	-0.077	-0.053
-382.960	-95.076	0.049	0.013
-381.946	258.118	0.203	0.346
-380.931	-57.199	-0.139	0.061
-379.917	93.194	-0.105	-0.118
-378.902	-30.600	0.247	0.139
-377.888	332.461	0.106	0.203
-376.873	-56.543	-0.041	0.018
-375.858	125.182	0.130	-0.163
-374.844	-76.746	0.321	-0.112
-373.829	-200.000	0.015	-0.108
-372.815	17.484	0.188	0.148
-371.800	-200.000	-0.001	-0.248
-370.785	-27.577	-0.174	0.100
-369.771	-92.211	-0.145	0.041
-368.756	-49.617	-0.189	0.089
-367.742	-32.817	-0.143	0.079
-366.727	-91.633	-0.430	0.121
-365.712	99.807	-0.069	0.080
-364.698	788.854	-0.077	-0.211
-363.683	145.563	-0.074	0.099
-362.669	195.327	-0.179	0.270
-361.654	-39.552	0.184	-0.096
-360.639	-92.200	0.043	0.012
-359.625	799.896	-0.037	0.100
-358.610	-82.688	-0.251	-0.081
-357.596	235.464	-0.134	0.219
-356.581	751.674	-0.089	0.237
-355.566	21.459	0.085	-0.069
-354.552	-174.830	-0.339	-0.009
-353.537	28.852	-0.239	0.200
-352.523	-200.000	0.030	0.159
-351.508	-141.021	0.219	0.022
-350.493	-111.636	-0.166	0.033
-349.479	-100.654	-0.502	-0.123
-348.464	-200.000	0.009	0.245
-347.450	-112.335	-0.376	0.075
-346.435	-130.481	0.286	-0.038
-345.420	-200.000	0.024	-0.197
-344.406	800.000	0.042	-0.118
-343.391	285.954	-0.117	-0.210
-342.377	587.637	0.106	0.258
-341.362	-87.964	-0.178	-0.053
-340.348	-186.375	0.300	-0.004
-339.333	88.216	0.125	0.138
-338.318	-122.747	-0.488	-0.078
-337.304	154.279	0.222	0.302
-336.289	106.551	0.293	0.345
-335.275	21.291	0.172	0.139
-334.260	-3.878	0.157	-0.108
-333.245	373.867	0.214	0.430
-332.231	509.198	-0.019	0.044
-331.216	-17.802	-0.259	0.161
-330.202	148.336	0.208	0.277
-329.187	-9.883	0.017	-0.011
-328.172	-42.755	-0.213	-0.107
-327.158	-81.671	0.232	-0.076
-326.143	-133.088	-0.137	0.017
-325.129	-23.394	-0.348	-0.207
-324.114	115.956	0.023	0.028
-323.099	-41.285	-0.271	0.138
-322.085	391.786	0.327	0.672
-321.070	-200.000	-0.038	-0.196
-320.056	11.862	-0.246	-0.187
-319.041	-200.000	0.007	-0.161
-318.026	-141.899	0.111	0.011
-317.012	800.000	-0.059	-0.174
-315.997	5.195	-0.232	-0.169
-314.983	-179.988	0.261	0.006
-313.968	-200.000	-0.032	0.292
-312.953	33.844	-0.246	0.212
-311.939	197.441	-0.188	-0.283
-310.924	-65.094	0.180	-0.072
-309.910	272.108	0.048	-0.084
-308.895	61.494	0.093	0.092
-307.880	-200.000	-0.025	0.262
-306.866	-145.473	-0.285	-0.025
-305.851	593.786	-0.077	0.189
-304.837	-200.000	-0.042	0.210
-303.822	119.814	0.099	0.121
-302.807	140.861	0.113	-0.148
-301.793	-37.437	0.234	0.124
-300.778	800.000	0.117	0.343
-299.764	-84.783	0.065	0.020
-298.749	274.080	-0.198	0.346
-297.735	800.000	0.051	0.150
-296.720	67.952	-0.107	0.108
-295.705	-200.000	-0.011	0.146
-294.691	-81.406	0.200	0.065
-293.676	408.194	-0.131	0.274
-292.662	159.394	0.147	0.203
-291.647	155.894	0.228	-0.310
-290.632	125.394	0.147	-0.183
-289.618	-61.575	-0.097	0.040
-288.603	42.397	0.191	-0.172
-287.589	-12.975	-0.276	-0.177
-286.574	-200.000	0.027	-0.143
-285.559	-200.000	0.054	-0.272
-284.545	-120.305	0.206	-0.035
-283.530	327.223	0.154	-0.293
-282.516	-170.516	0.250	0.009
-281.501	-134.062	0.110	-0.013
-280.486	25.586	0.087	-0.072
-279.472	-101.246	-0.495	0.119
-278.457	23.907	0.194	-0.158
-277.443	-104.673	-0.188	0.043
-276.428	49.197	0.150	-0.140
-275.413	-25.604	0.172	0.100
-274.399	800.000	0.065	-0.210
-273.384	-132.313	-0.389	0.050
-272.370	188.582	-0.056	-0.082
-271.355	-200.000	-0.014	-0.268
-270.340	337.930	0.122	-0.234
-269.326	-24.083	0.324	0.191
-268.311	-19.361	0.239	0.147
-267.297	-144.881	-0.284	0.026
-266.282	-100.658	0.074	-0.018
-265.267	-84.252	0.132	0.041
-264.253	490.270	0.128	-0.289
-263.238	-109.228	-0.071	-0.015
-262.224	-148.705	0.268	0.022
-261.209	-33.481	0.157	-0.085
-260.195	-80.763	0.093	0.030
-259.180	800.000	-0.090	-0.296
-258.165	-200.000	-0.007	0.192
-257.151	-34.363	-0.119	0.064
-256.136	41.640	-0.389	-0.347
-255.122	-63.664	-0.118	-0.048
-254.107	-0.864	-0.115	0.081
-253.092	-47.214	-0.100	0.048
-252.078	167.853	0.071	0.100
-251.063	309.487	0.076	-0.141
-250.049	-122.565	0.219	-0.035
-249.034	54.578	0.071	-0.068
-248.019	96.431	0.110	-0.124
-247.005	159.771	-0.029	-0.040
-245.990	474.876	0.107	0.238
-244.976	112.145	0.310	-0.370
-243.961	25.501	0.165	0.135
-242.946	-108.329	0.437	-0.093
-241.932	224.739	0.035	-0.056
-240.917	13.330	-0.322	-0.247
-239.903	-176.084	-0.097	0.003
-238.888	-200.000	-0.023	-0.135
-237.873	-200.000	-0.018	0.362
-236.859	-200.000	0.002	-0.017
-235.844	800.000	-0.054	0.161
-234.830	21.218	-0.078	0.062
-233.815	-73.160	0.440	-0.159
-232.800	-200.000	-0.039	0.227
-231.786	29.576	0.229	-0.192
-230.771	800.000	0.016	-0.054
-229.757	-68.721	-0.179	0.068
-228.742	224.957	-0.123	-0.196
-227.727	174.512	0.090	0.128
-226.713	-85.767	0.062	0.019
-225.698	-200.000	0.008	0.197
-224.684	-138.467	0.514	0.056
-223.669	98.808	-0.131	-0.149
-222.655	-200.000	0.003	-0.098
-221.640	-200.000	-0.034	0.152
-220.625	93.669	0.193	0.216
-219.611	-18.223	0.295	-0.182
-218.596	-200.000	0.021	-0.136
-217.582	-118.293	-0.217	-0.038
-216.567	-73.821	0.135	-0.048
-215.552	-104.201	0.236	-0.054
-214.538	236.352	0.183	0.299
-213.523	-102.537	-0.161	-0.038
-212.509	-58.401	0.107	0.046
-211.494	-173.130	0.122	-0.004
-210.479	113.581	0.178	0.213
-209.465	800.000	0.019	-0.054
-208.450	30.693	-0.180	-0.152
-207.436	-14.872	0.075	0.047
-206.421	-200.000	-0.051	-0.283
-205.406	-44.652	-0.203	0.100
-204.392	-142.283	0.363	0.035
-203.377	-200.000	0.020	0.347
-202.363	64.556	-0.325	-0.323
-201.348	-109.326	0.180	-0.038
-200.333	34.755	0.168	-0.145
-199.319	-200.000	0.137	-0.001
-198.304	-29.161	-0.161	0.091
-197.290	-6.768	-0.235	0.157
-196.275	-101.189	-0.194	-0.047
-195.260	-24.599	0.163	-0.095
-194.246	-118.496	0.169	0.030
-193.231	-14.187	0.261	-0.166
-192.217	211.272	-0.113	-0.175
-191.202	800.000	-0.031	-0.125
-190.187	138.599	-0.373	0.482
-189.173	570.703	0.069	-0.166
-188.158	-200.000	-0.015	-0.546
-187.144	-91.654	0.398	-0.112
-186.129	439.635	0.166	-0.357
-185.114	-84.287	-0.094	-0.029
-184.100	-64.118	0.243	0.098
-183.085	-183.537	-0.244	-0.004
-182.071	282.528	0.027	0.048
-181.056	-38.554	-0.027	0.014
-180.042	-108.366	-0.294	0.062
-179.027	800.000	0.077	-0.247
-178.012	-63.743	-0.128	0.052
-176.998	-34.366	0.211	0.114
-175.983	-200.000	-0.044	-0.281
-174.969	-79.117	-0.162	-0.054
-173.954	-200.000	-0.025	-0.238
-172.939	-110.888	0.202	0.041
-171.925	165.088	0.108	0.150
-170.910	106.971	0.065	-0.076
-169.896	143.666	0.046	0.061
-168.881	450.334	-0.134	-0.290
-167.866	263.983	0.149	0.255
-166.852	215.612	-0.065	0.101
-165.837	99.481	-0.185	-0.210
-164.823	52.851	0.260	0.245
-163.808	-41.431	-0.227	0.115
-162.793	-200.000	0.018	-0.188
-161.779	-43.796	-0.239	-0.118
-160.764	-200.000	-0.036	-0.172
-159.750	560.970	-0.095	0.227
-158.735	-200.000	-0.016	0.261
-157.720	-155.259	0.454	-0.029
-156.706	-7.326	0.139	0.092
-155.691	-75.088	0.073	0.026
-154.677	17.491	-0.148	0.115
-153.662	483.689	0.080	-0.179
-152.647	139.991	-0.297	-0.384
-151.633	-80.487	-0.157	0.052
-150.618	372.029	-0.145	0.290
-149.604	800.000	0.075	-0.213
-148.589	-21.684	-0.117	0.070
-147.574	-200.000	0.032	0.353
-146.560	-83.004	0.245	0.078
-145.545	457.284	-0.126	-0.276
-144.531	-62.573	-0.201	-0.082
-143.516	295.614	-0.219	0.394
-142.502	-1.908	-0.410	0.284
-141.487	-51.260	-0.120	0.055
-140.472	-200.000	0.039	0.307
-139.458	310.953	0.014	0.026
-138.443	-173.991	-0.237	0.007
-137.429	247.253	0.055	0.091
-136.414	-13.302	-0.117	0.075
-135.399	165.613	0.085	0.118
-134.385	30.733	-0.075	0.063
-133.370	331.272	0.038	0.072
-132.356	-109.592	0.431	-0.089
-131.341	204.001	-0.086	-0.131
-130.326	-124.036	0.147	-0.023
-129.312	-18.246	-0.182	-0.112
-128.297	-200.000	0.015	-0.108
-127.283	-113.178	0.115	-0.022
-126.268	-72.404	0.428	-0.155
-125.253	-200.000	-0.019	0.146
-124.239	-171.378	0.100	0.003
-123.224	-17.931	-0.230	0.142
-122.210	800.000	-0.076	-0.313
