DTS Sentinel unit serial number:	SN413079Multiplexer serial number:	ORYXHardware model number:	OX4-SRSoftware version number:	ORYX F/W v4.00 Oryx Data Collector v3.7.2.0data status	okinstallation	princeton_trtdifferential loss correction	single-endedforward channel	channel 1reverse channel	N/Adate	2019/09/19time	02:30:35forward acquisition time	60.00reverse acquisition time	0.00gamma	496.2192k internal	0.2344k external	0.2344temperature offset calibration	1.0022default loss term (dB/km)	0.3790temperature slope calibration	1.0000multiplexer offset coefficient	1.0000multiplexer slope coefficient	1.0000fibre end	0.00T internal ref (°C)	21.00T ext. ref 1 (°C)	0.68T ext. ref 2 (°C)	14.75length (m)	temperature (°C)	Stokes	anti-Stokes-747.200	85.914	0.086	-0.095
-746.185	-200.000	-0.067	0.308
-745.171	35.590	0.222	0.195
-744.156	226.669	0.183	-0.298
-743.142	357.807	0.040	-0.080
-742.127	-200.000	0.003	0.082
-741.112	-62.188	-0.203	0.085
-740.098	-109.503	-0.394	0.083
-739.083	3.804	0.087	-0.063
-738.069	-71.028	-0.316	0.119
-737.054	157.326	0.003	-0.004
-736.039	-133.868	-0.456	0.057
-735.025	-131.750	-0.172	0.023
-734.010	-175.238	-0.241	-0.007
-732.996	-200.000	0.002	0.219
-731.981	-150.836	-0.212	0.016
-730.966	180.977	-0.207	-0.304
-729.952	-165.345	-0.242	-0.011
-728.937	-139.302	-0.417	-0.045
-727.923	-18.793	-0.047	0.029
-726.908	-200.000	0.042	-0.392
-725.894	-98.227	0.158	0.041
-724.879	1.856	-0.103	-0.074
-723.864	675.199	0.149	0.387
-722.850	245.731	0.175	-0.295
-721.835	-200.000	0.022	-0.155
-720.821	-200.000	-0.056	0.281
-719.806	51.656	-0.271	-0.258
-718.791	281.746	-0.077	-0.138
-717.777	800.000	0.073	-0.209
-716.762	800.000	-0.075	-0.291
-715.748	334.548	0.038	-0.073
-714.733	-91.656	-0.363	-0.103
-713.718	800.000	0.042	-0.174
-712.704	106.062	-0.359	0.425
-711.689	360.736	-0.118	-0.237
-710.675	-122.502	-0.285	0.046
-709.660	390.992	0.138	-0.287
-708.645	583.143	0.113	0.278
-707.631	-34.472	-0.050	0.027
-706.616	-146.829	-0.053	-0.005
-705.602	258.196	0.014	0.024
-704.587	103.065	-0.141	-0.165
-703.572	-200.000	0.036	0.186
-702.558	-200.000	-0.057	-0.416
-701.543	-65.578	-0.402	-0.161
-700.529	800.000	0.126	-0.417
-699.514	-200.000	0.002	-0.118
-698.499	-188.698	-0.176	-0.002
-697.485	-160.633	0.270	-0.014
-696.470	800.000	-0.056	-0.185
-695.456	-74.498	-0.427	-0.154
-694.441	738.999	-0.089	-0.238
-693.426	800.000	-0.080	-0.319
-692.412	-200.000	-0.014	-0.112
-691.397	-18.348	0.252	0.158
-690.383	-153.427	-0.281	0.019
-689.368	35.011	-0.338	-0.295
-688.354	-72.109	-0.097	-0.036
-687.339	-200.000	0.006	-0.216
-686.324	536.165	-0.099	0.234
-685.310	502.470	0.073	0.169
-684.295	256.439	0.134	-0.230
-683.281	-31.322	0.316	-0.178
-682.266	443.101	0.046	-0.100
-681.251	15.505	-0.069	-0.054
-680.237	2.959	-0.124	-0.090
-679.222	-200.000	0.031	-0.153
-678.208	-79.992	-0.499	-0.167
-677.193	800.000	0.036	0.107
-676.178	-26.294	-0.139	-0.081
-675.164	-5.323	0.154	0.105
-674.149	-184.612	-0.069	-0.001
-673.135	73.849	-0.351	-0.367
-672.120	35.915	0.146	0.128
-671.105	800.000	-0.117	-0.379
-670.091	605.379	-0.163	0.406
-669.076	-1.248	-0.105	0.074
-668.062	-150.093	-0.068	-0.005
-667.047	-200.000	-0.007	-0.076
-666.032	-111.755	-0.454	-0.092
-665.018	800.000	-0.083	-0.307
-664.003	800.000	0.067	-0.202
-662.989	266.810	-0.114	-0.198
-661.974	48.450	0.256	0.239
-660.959	-200.000	0.031	-0.135
-659.945	705.504	0.137	-0.362
-658.930	244.253	0.069	-0.115
-657.916	126.321	-0.288	-0.364
-656.901	-155.294	0.234	0.015
-655.886	-200.000	-0.005	0.269
-654.872	-56.858	-0.315	0.139
-653.857	36.471	0.063	-0.056
-652.843	538.002	-0.100	0.238
-651.828	-200.000	0.012	0.145
-650.814	-35.483	-0.176	0.095
-649.799	-82.019	0.209	-0.068
-648.784	-72.137	-0.429	-0.159
-647.770	46.284	-0.137	0.126
-646.755	5.702	0.242	0.178
-645.741	-16.438	-0.117	0.074
-644.726	22.274	0.068	-0.055
-643.711	462.140	0.048	0.106
-642.697	20.927	-0.160	-0.129
-641.682	-136.034	0.311	-0.036
-640.668	-111.366	-0.359	-0.073
-639.653	-200.000	-0.042	0.188
-638.638	-81.273	0.100	0.033
-637.624	-43.182	-0.103	-0.052
-636.609	302.091	-0.041	0.076
-635.595	86.655	-0.366	-0.403
-634.580	473.737	-0.044	-0.100
-633.565	374.863	0.084	-0.171
-632.551	725.053	0.054	0.142
-631.536	-200.000	-0.051	-0.362
-630.522	121.080	0.174	-0.215
-629.507	800.000	-0.036	-0.125
-628.492	-29.823	-0.161	-0.092
-627.478	-77.545	-0.156	0.054
-626.463	-90.588	-0.056	0.016
-625.449	800.000	-0.039	0.156
-624.434	340.737	-0.032	0.062
-623.419	216.366	0.016	0.025
-622.405	800.000	0.040	0.112
-621.390	262.071	0.043	0.074
-620.376	224.172	-0.126	-0.202
-619.361	800.000	-0.169	-0.578
-618.346	-118.633	-0.100	-0.018
-617.332	-7.093	0.093	-0.063
-616.317	-200.000	0.039	-0.188
-615.303	102.464	0.012	-0.014
-614.288	-140.223	-0.103	-0.011
-613.273	100.821	0.194	-0.224
-612.259	6.182	0.026	-0.020
-611.244	658.188	0.086	0.221
-610.230	-200.000	0.017	0.090
-609.215	-94.834	0.151	0.041
-608.201	-109.494	-0.154	-0.032
-607.186	-105.534	0.383	-0.087
-606.171	-200.000	0.061	-0.539
-605.157	275.382	-0.137	-0.242
-604.142	143.189	-0.114	0.151
-603.128	81.706	-0.301	0.325
-602.113	-142.172	0.118	-0.012
-601.098	46.969	-0.363	0.336
-600.084	366.738	0.087	-0.174
-599.069	484.758	0.012	0.028
-598.055	157.246	-0.064	0.089
-597.040	-90.677	-0.192	0.055
-596.025	-200.000	-0.011	-0.366
-595.011	-141.047	-0.267	0.027
-593.996	-15.916	-0.230	-0.146
-592.982	-96.685	-0.266	-0.070
-591.967	298.730	0.139	-0.254
-590.952	22.404	-0.175	0.142
-589.938	101.710	0.200	0.232
-588.923	800.000	-0.024	0.103
-587.909	-117.884	0.197	0.035
-586.894	142.015	-0.132	-0.174
-585.879	476.581	0.071	0.160
-584.865	235.932	-0.112	-0.184
-583.850	800.000	0.021	-0.067
-582.836	-200.000	-0.061	-0.422
-581.821	-128.437	-0.123	0.017
-580.806	30.714	0.214	0.182
-579.792	32.037	0.259	0.222
-578.777	-200.000	0.013	-0.132
-577.763	800.000	0.079	0.242
-576.748	-134.932	-0.435	0.052
-575.733	-0.801	0.202	-0.142
-574.719	5.741	-0.157	0.115
-573.704	-20.537	0.460	-0.281
-572.690	-94.303	-0.248	0.067
-571.675	467.222	0.037	-0.082
-570.661	-200.000	0.005	0.154
-569.646	316.926	0.159	-0.299
-568.631	-56.247	-0.115	0.051
-567.617	170.222	0.196	-0.279
-566.602	-200.000	0.093	0.412
-565.588	50.048	-0.246	-0.231
-564.573	-82.227	-0.438	-0.142
-563.558	268.121	0.157	0.274
-562.544	133.573	0.051	0.065
-561.529	-97.345	-0.214	0.055
-560.515	66.487	-0.220	-0.223
-559.500	-63.163	-0.063	-0.026
-558.485	-200.000	0.044	-0.241
-557.471	-103.338	-0.113	0.026
-556.456	584.749	0.048	-0.118
-555.442	-200.000	0.012	-0.406
-554.427	49.545	0.319	0.299
-553.412	55.430	-0.057	-0.054
-552.398	-25.620	0.144	-0.084
-551.383	74.700	-0.051	0.054
-550.369	4.691	-0.205	0.149
-549.354	-200.000	0.042	-0.272
-548.339	-12.915	-0.052	-0.034
-547.325	-75.179	-0.201	-0.071
-546.310	-200.000	0.017	-0.174
-545.296	-200.000	0.026	-0.246
-544.281	-147.042	-0.072	0.006
-543.266	10.909	-0.138	-0.105
-542.252	177.385	0.025	-0.036
-541.237	227.726	-0.237	0.383
-540.223	145.550	0.275	0.366
-539.208	-200.000	-0.027	0.477
-538.193	-200.000	0.059	0.427
-537.179	-200.000	-0.021	-0.152
-536.164	189.809	0.026	-0.039
-535.150	-200.000	-0.010	0.170
-534.135	-22.898	0.108	-0.064
-533.121	-23.090	0.093	0.056
-532.106	350.291	-0.162	-0.319
-531.091	-73.272	0.032	0.011
-530.077	800.000	0.065	-0.218
-529.062	39.813	0.389	0.347
-528.048	-200.000	0.017	-0.226
-527.033	-108.979	0.301	-0.064
-526.018	-90.267	0.310	0.090
-525.004	-34.795	0.097	-0.052
-523.989	-29.560	0.095	-0.054
-522.975	-41.891	0.010	-0.005
-521.960	-140.284	0.271	-0.028
-520.945	800.000	-0.049	0.195
-519.931	56.432	-0.037	0.036
-518.916	-38.988	0.263	0.137
-517.902	3.953	-0.121	-0.088
-516.887	-200.000	-0.002	0.296
-515.872	202.016	-0.042	0.064
-514.858	-200.000	-0.021	-0.132
-513.843	-200.000	0.005	-0.229
-512.829	3.352	0.114	-0.082
-511.814	46.984	0.109	0.101
-510.799	171.489	0.006	-0.008
-509.785	106.082	0.166	0.195
-508.770	-134.524	-0.307	-0.037
-507.756	150.233	-0.110	-0.148
-506.741	-20.227	0.378	0.231
-505.726	31.731	-0.153	0.130
-504.712	-81.765	0.376	-0.122
-503.697	27.070	-0.079	0.065
-502.683	72.490	0.157	0.162
-501.668	-163.043	0.060	-0.003
-500.653	-78.666	-0.157	0.053
-499.639	-40.476	-0.197	0.102
-498.624	277.384	-0.076	0.135
-497.610	781.732	-0.056	-0.153
-496.595	74.086	0.142	0.148
-495.581	-31.400	0.286	-0.160
-494.566	800.000	-0.144	0.436
-493.551	-175.374	-0.221	0.006
-492.537	-92.164	0.188	-0.053
-491.522	56.434	-0.105	-0.101
-490.508	-109.242	-0.294	-0.062
-489.493	800.000	-0.020	0.054
-488.478	124.286	0.278	-0.347
-487.464	-200.000	-0.029	-0.166
-486.449	-176.513	0.103	-0.003
-485.435	-159.127	0.224	-0.013
-484.420	-48.069	0.126	0.061
-483.405	800.000	-0.048	-0.203
-482.391	-49.031	0.202	0.096
-481.376	-40.102	-0.258	0.133
-480.362	-134.991	-0.158	0.019
-479.347	-151.709	-0.457	-0.033
-478.332	540.314	-0.024	-0.055
-477.318	55.391	0.054	0.052
-476.303	800.000	-0.055	-0.158
-475.289	-200.000	0.005	-0.202
-474.274	-150.935	-0.339	0.025
-473.259	235.027	-0.153	0.250
-472.245	398.907	-0.044	-0.091
-471.230	-165.106	-0.440	0.019
-470.216	-200.000	-0.008	-0.104
-469.201	-99.054	-0.399	-0.100
-468.186	31.244	0.210	0.178
-467.172	-92.295	0.136	-0.038
-466.157	-12.760	-0.241	0.155
-465.143	-200.000	0.002	-0.097
-464.128	-19.678	0.270	-0.166
-463.113	-141.420	0.245	0.025
-462.099	-200.000	0.058	-0.262
-461.084	-110.845	-0.283	-0.058
-460.070	-125.869	-0.271	-0.040
-459.055	800.000	0.062	0.194
-458.040	-200.000	0.019	-0.159
-457.026	-115.452	-0.088	0.016
-456.011	-31.969	0.089	0.049
-454.997	-200.000	-0.000	-0.309
-453.982	387.834	-0.085	-0.174
-452.968	-119.157	-0.398	0.069
-451.953	800.000	-0.053	-0.193
-450.938	-168.321	-0.127	-0.005
-449.924	566.728	-0.153	0.368
-448.909	-90.164	0.167	-0.048
-447.895	509.051	-0.153	-0.352
-446.880	-20.351	-0.124	0.076
-445.865	-114.289	0.200	0.038
-444.851	6.015	0.188	0.138
-443.836	-106.442	0.344	0.076
-442.822	161.103	0.027	0.037
-441.807	-55.739	0.069	0.031
-440.792	673.772	0.116	-0.299
-439.778	800.000	-0.102	-0.415
-438.763	-200.000	0.024	-0.176
-437.749	-200.000	0.006	0.214
-436.734	117.764	0.159	-0.194
-435.719	189.594	0.073	-0.108
-434.705	-94.105	0.299	0.081
-433.690	-97.152	-0.142	0.037
-432.676	-196.723	0.101	0.001
-431.661	-157.564	-0.192	-0.011
-430.646	16.163	0.149	0.117
-429.632	331.150	0.122	-0.232
-428.617	150.568	-0.169	-0.227
-427.603	-200.000	-0.009	0.175
-426.588	289.437	0.171	0.307
-425.573	62.946	0.052	-0.052
-424.559	56.462	-0.042	0.040
-423.544	9.414	-0.051	0.038
-422.530	26.887	0.149	-0.123
-421.515	-69.212	-0.187	0.071
-420.500	-30.356	0.189	0.106
-419.486	126.030	0.087	0.108
-418.471	-183.471	0.438	-0.007
-417.457	-55.857	-0.288	0.127
-416.442	190.824	0.200	0.297
-415.428	-174.111	0.220	-0.006
-414.413	-25.739	-0.093	-0.054
-413.398	800.000	0.125	0.438
-412.384	-117.878	0.299	-0.053
-411.369	274.195	-0.105	-0.184
-410.355	91.798	0.244	0.271
-409.340	51.993	-0.047	-0.044
-408.325	-200.000	-0.016	-0.188
-407.311	-20.343	-0.196	0.119
-406.296	-200.000	-0.025	0.304
-405.282	-142.855	0.284	-0.027
-404.267	800.000	-0.009	0.025
-403.252	-3.967	-0.239	-0.164
-402.238	-61.649	0.278	0.115
-401.223	-129.277	-0.428	0.059
-400.209	-134.758	0.150	0.018
-399.194	-200.000	-0.194	-0.000
-398.179	102.302	-0.176	0.204
-397.165	712.586	0.065	-0.170
-396.150	516.942	0.084	0.194
-395.136	31.241	0.338	-0.287
-394.121	-200.000	-0.027	-0.195
-393.106	-128.737	0.246	-0.034
-392.092	279.136	-0.036	0.064
-391.077	-102.745	-0.161	-0.038
-390.063	70.651	0.207	0.211
-389.048	-90.583	0.247	0.070
-388.033	-200.000	0.001	0.234
-387.019	250.974	0.178	-0.299
-386.004	38.712	-0.163	0.144
-384.990	-200.000	-0.024	0.203
-383.975	312.046	-0.188	0.348
-382.960	106.442	-0.159	-0.186
-381.946	343.839	-0.089	-0.172
-380.931	-106.133	-0.372	0.082
-379.917	-122.867	0.128	0.020
-378.902	40.175	0.231	0.205
-377.888	492.463	0.068	-0.154
-376.873	-107.872	0.100	0.021
-375.858	-200.000	0.034	0.319
-374.844	220.968	0.139	-0.219
-373.829	800.000	-0.011	0.042
-372.815	800.000	0.019	-0.074
-371.800	-146.083	0.256	0.022
-370.785	298.653	0.102	-0.185
-369.771	55.006	0.022	-0.021
-368.756	-100.920	0.567	-0.137
-367.742	-200.000	-0.036	-0.269
-366.727	175.009	-0.031	0.044
-365.712	-65.595	-0.402	-0.159
-364.698	800.000	0.058	-0.213
-363.683	-105.300	-0.342	-0.077
-362.669	415.252	0.069	0.145
-361.654	116.050	-0.170	0.205
-360.639	-200.000	-0.021	0.273
-359.625	100.105	0.016	0.019
-358.610	-13.366	-0.286	0.183
-357.596	-57.245	0.100	-0.044
-356.581	522.027	-0.031	0.072
-355.566	374.299	-0.078	-0.156
-354.552	-87.466	-0.239	0.071
-353.537	244.790	-0.078	-0.130
-352.523	800.000	-0.019	0.063
-351.508	-10.361	0.206	-0.135
-350.493	-37.637	-0.507	-0.266
-349.479	687.396	0.088	-0.226
-348.464	33.549	-0.174	-0.149
-347.450	-113.936	0.252	-0.048
-346.435	-200.000	0.001	-0.216
-345.420	-20.336	0.039	0.023
-344.406	78.834	-0.167	-0.176
-343.391	-63.674	-0.197	-0.079
-342.377	800.000	0.047	-0.132
-341.362	-68.496	-0.299	0.114
-340.348	113.071	-0.065	0.078
-339.333	187.322	-0.173	-0.254
-338.318	-55.555	0.499	-0.220
-337.304	800.000	-0.057	-0.205
-336.289	-200.000	-0.008	-0.245
-335.275	187.515	-0.010	0.015
-334.260	-95.752	-0.210	-0.055
-333.245	-122.053	0.247	-0.040
-332.231	53.128	-0.067	-0.063
-331.216	-200.000	0.035	0.193
-330.202	450.998	0.097	0.211
-329.187	93.690	-0.037	0.042
-328.172	676.091	-0.080	0.205
-327.158	-200.000	0.032	-0.160
-326.143	-186.102	-0.136	0.002
-325.129	-200.000	0.323	-0.001
-324.114	297.746	-0.095	0.171
-323.099	47.422	-0.127	-0.117
-322.085	800.000	-0.039	0.119
-321.070	800.000	0.041	-0.115
-320.056	-200.000	0.016	0.121
-319.041	-1.100	-0.369	-0.257
-318.026	85.958	-0.061	-0.066
-317.012	-33.666	0.331	-0.180
-315.997	239.076	0.048	0.079
-314.983	-51.906	-0.240	0.110
-313.968	-200.000	-0.012	0.073
-312.953	703.695	0.124	0.320
-311.939	58.204	0.045	-0.043
-310.924	-200.000	-0.027	-0.268
-309.910	-77.385	0.354	-0.121
-308.895	-200.000	0.042	0.371
-307.880	-139.200	0.232	-0.025
-306.866	800.000	0.027	0.074
-305.851	671.445	0.017	-0.043
-304.837	-200.000	-0.010	-0.045
-303.822	-52.656	-0.153	-0.070
-302.807	-15.071	0.252	-0.159
-301.793	800.000	0.069	0.202
-300.778	-200.000	0.001	0.228
-299.764	-144.442	0.227	-0.021
-298.749	-160.122	0.273	0.015
-297.735	158.832	-0.205	-0.281
-296.720	283.254	0.102	0.180
-295.705	706.450	-0.005	0.014
-294.691	363.430	-0.127	-0.251
-293.676	800.000	0.008	-0.025
-292.662	556.118	-0.183	-0.434
-291.647	69.139	-0.085	-0.086
-290.632	278.656	-0.099	0.174
-289.618	-120.413	-0.141	-0.024
-288.603	703.726	-0.181	0.470
-287.589	53.509	-0.209	0.197
-286.574	113.169	0.111	0.132
-285.559	-129.483	0.233	0.032
-284.545	83.139	-0.125	-0.134
-283.530	532.596	0.023	-0.054
-282.516	25.725	0.059	-0.048
-281.501	504.645	-0.052	-0.117
-280.486	658.216	-0.079	0.201
-279.472	62.999	0.106	0.104
-278.457	-200.000	-0.013	0.316
-277.443	148.723	0.181	-0.240
-276.428	-27.888	0.310	-0.177
-275.413	-68.612	0.289	0.110
-274.399	245.007	0.072	-0.118
-273.384	-136.531	-0.045	-0.005
-272.370	-200.000	-0.001	0.057
-271.355	31.989	0.154	0.131
-270.340	-82.897	-0.278	0.088
-269.326	-88.284	0.143	0.042
-268.311	-106.249	-0.287	-0.063
-267.297	-100.345	-0.448	-0.109
-266.282	-31.453	0.091	-0.050
-265.267	-48.780	-0.470	0.222
-264.253	126.662	0.052	0.065
-263.238	-18.698	-0.129	0.079
-262.224	800.000	0.068	-0.268
-261.209	-147.745	0.026	0.002
-260.195	-50.765	0.201	0.093
-259.180	-131.163	-0.238	0.031
-258.165	-128.588	0.225	-0.031
-257.151	-200.000	0.009	0.109
-256.136	253.008	0.234	0.393
-255.122	-100.618	-0.144	-0.035
-254.107	196.412	-0.166	0.249
-253.092	-200.000	-0.012	0.000
-252.078	800.000	-0.134	0.414
-251.063	43.967	-0.115	-0.103
-250.049	-123.720	-0.287	0.045
-249.034	-200.000	0.059	-0.000
-248.019	-160.634	-0.090	-0.005
-247.005	272.063	0.124	-0.215
-245.990	-200.000	0.012	-0.156
-244.976	-184.188	-0.062	-0.001
-243.961	-118.475	-0.027	-0.005
-242.946	-62.928	-0.146	-0.059
-241.932	800.000	0.105	-0.349
-240.917	-200.000	0.052	0.253
-239.903	800.000	-0.052	-0.159
-238.888	-200.000	0.068	0.382
-237.873	-28.863	-0.070	-0.040
-236.859	671.852	-0.072	-0.184
-235.844	800.000	-0.083	-0.330
-234.830	0.427	0.304	0.213
-233.815	65.241	0.319	0.316
-232.800	-200.000	0.024	0.387
-231.786	-200.000	0.036	0.169
-230.771	-53.139	-0.129	-0.058
-229.757	52.526	-0.105	0.099
-228.742	-200.000	-0.008	0.037
-227.727	-25.074	-0.076	-0.044
-226.713	800.000	-0.038	0.161
-225.698	-90.663	0.146	-0.041
-224.684	-84.744	-0.134	0.041
-223.669	-181.275	-0.157	-0.003
-222.655	58.749	0.278	0.268
-221.640	-76.295	-0.106	0.037
-220.625	800.000	0.083	0.239
-219.611	406.697	0.105	-0.218
-218.596	-31.575	-0.242	-0.133
-217.582	52.980	0.137	-0.129
-216.567	800.000	0.041	0.130
-215.552	-131.172	-0.163	0.021
-214.538	80.436	-0.129	-0.136
-213.523	-200.000	-0.000	-0.193
-212.509	-200.000	-0.007	-0.124
-211.494	-200.000	0.062	-0.467
-210.479	499.348	-0.117	-0.263
-209.465	197.073	0.193	0.289
-208.450	176.240	-0.155	-0.221
-207.436	-200.000	0.022	0.219
-206.421	-200.000	0.018	-0.120
-205.406	-16.010	0.188	-0.117
-204.392	-166.650	0.117	0.005
-203.377	-167.070	0.180	-0.007
-202.363	593.654	-0.100	-0.242
-201.348	800.000	-0.052	0.220
-200.333	-200.000	0.003	0.065
-199.319	-128.905	0.211	-0.029
-198.304	-200.000	-0.054	0.483
-197.290	-45.589	-0.056	-0.027
-196.275	393.341	0.039	0.079
-195.260	8.482	0.138	0.102
-194.246	39.941	0.081	-0.071
-193.231	-200.000	0.010	-0.072
-192.217	-32.474	-0.106	-0.058
-191.202	800.000	-0.063	0.248
-190.187	394.131	-0.104	0.212
-189.173	404.499	-0.163	0.336
-188.158	-142.281	-0.086	-0.008
-187.144	81.516	0.193	0.204
-186.129	204.750	-0.092	0.140
-185.114	62.302	0.139	0.136
-184.100	800.000	0.014	0.054
-183.085	-173.696	0.094	-0.003
-182.071	200.672	0.216	0.325
-181.056	148.207	0.128	0.169
-180.042	-73.952	-0.372	0.132
-179.027	367.550	0.208	0.411
-178.012	174.292	-0.198	0.279
-176.998	74.107	-0.194	0.199
-175.983	800.000	-0.015	-0.042
-174.969	621.658	0.108	0.265
-173.954	21.023	0.044	-0.035
-172.939	-200.000	0.004	0.124
-171.925	-59.536	-0.137	-0.057
-170.910	-200.000	-0.050	-0.310
-169.896	-5.629	0.189	0.127
-168.881	-200.000	0.007	-0.037
-167.866	-200.000	0.035	0.249
-166.852	-200.000	-0.005	-0.198
-165.837	8.852	-0.173	-0.128
-164.823	454.267	0.077	-0.168
-163.808	-159.636	0.290	-0.016
-162.793	-10.959	0.322	-0.208
-161.779	431.391	0.197	0.418
-160.764	-200.000	0.031	-0.165
-159.750	-81.607	0.091	-0.029
-158.735	-43.816	0.134	-0.066
-157.720	412.996	-0.057	-0.119
-156.706	371.500	-0.101	-0.201
-155.691	800.000	-0.035	0.134
-154.677	-0.871	-0.045	0.031
-153.662	-159.966	0.353	0.019
-152.647	-200.000	0.002	-0.093
-151.633	132.953	0.021	0.027
-150.618	-200.000	-0.004	0.146
-149.604	-200.000	0.000	-0.187
-148.589	-147.681	0.321	0.026
-147.574	-200.000	0.024	-0.543
-146.560	800.000	0.036	-0.133
-145.545	-49.320	-0.225	0.105
-144.531	612.275	-0.027	0.067
-143.516	800.000	0.087	0.320
-142.502	-127.132	0.383	-0.055
-141.487	-98.367	0.242	0.061
-140.472	-1.826	-0.279	-0.192
-139.458	-25.260	0.198	0.115
-138.443	-200.000	-0.059	-0.268
-137.429	-146.275	0.256	0.022
-136.414	800.000	0.049	0.184
-135.399	335.377	-0.041	-0.078
-134.385	27.714	0.327	-0.269
-133.370	-200.000	0.000	-0.303
-132.356	76.442	-0.225	0.233
-131.341	187.275	-0.038	0.056
-130.326	-85.963	0.191	-0.058
-129.312	-111.170	0.286	-0.057
-128.297	351.116	0.091	-0.176
-127.283	7.183	0.208	-0.152
-126.268	-200.000	0.044	0.190
-125.253	591.483	-0.028	-0.068
-124.239	39.282	-0.117	-0.102
-123.224	-50.679	0.087	0.040
-122.210	86.469	-0.251	0.270
