DTS Sentinel unit serial number:	SN413079Multiplexer serial number:	ORYXHardware model number:	OX4-SRSoftware version number:	ORYX F/W v4.00 Oryx Data Collector v3.7.2.0data status	okinstallation	princeton_trtdifferential loss correction	single-endedforward channel	channel 1reverse channel	N/Adate	2019/09/17time	19:18:35forward acquisition time	60.00reverse acquisition time	0.00gamma	496.2192k internal	0.2302k external	0.2302temperature offset calibration	0.9974default loss term (dB/km)	0.3790temperature slope calibration	1.0000multiplexer offset coefficient	1.0000multiplexer slope coefficient	1.0000fibre end	0.00T internal ref (°C)	38.20T ext. ref 1 (°C)	0.27T ext. ref 2 (°C)	26.43length (m)	temperature (°C)	Stokes	anti-Stokes-747.200	36.179	0.137	0.123
-746.185	692.666	0.063	0.169
-745.171	-100.053	0.133	0.034
-744.156	-119.969	-0.094	0.016
-743.142	-200.000	-0.046	0.379
-742.127	-200.000	-0.027	0.132
-741.112	63.947	0.115	0.118
-740.098	800.000	0.118	0.355
-739.083	800.000	0.016	0.060
-738.069	217.390	0.191	0.309
-737.054	-175.505	-0.536	0.015
-736.039	-73.410	-0.214	0.080
-735.025	-200.000	-0.023	0.185
-734.010	14.320	-0.149	-0.118
-732.996	800.000	-0.086	-0.284
-731.981	755.131	0.156	0.429
-730.966	-82.547	-0.408	-0.135
-729.952	213.106	-0.106	-0.171
-728.937	-161.709	0.080	-0.004
-727.923	-150.831	-0.256	0.020
-726.908	714.576	0.184	0.497
-725.894	91.023	-0.080	-0.092
-724.879	143.767	-0.173	-0.235
-723.864	800.000	0.095	-0.318
-722.850	298.477	0.220	-0.412
-721.835	238.877	-0.050	-0.084
-720.821	672.327	0.051	0.135
-719.806	119.464	0.135	-0.170
-718.791	17.642	-0.157	0.128
-717.777	90.647	0.199	-0.227
-716.762	31.402	0.197	-0.172
-715.748	-173.112	-0.108	-0.003
-714.733	212.764	0.253	0.407
-713.718	-53.651	-0.211	-0.098
-712.704	248.883	-0.086	0.148
-711.689	-200.000	0.003	0.041
-710.675	426.512	-0.070	-0.154
-709.660	-62.904	0.010	-0.004
-708.645	21.245	0.274	0.226
-707.631	-18.643	0.003	0.002
-706.616	-159.711	0.450	0.025
-705.602	-153.175	-0.534	-0.038
-704.587	140.101	0.078	-0.104
-703.572	-15.979	0.041	0.026
-702.558	317.413	-0.072	0.139
-701.543	20.971	0.146	0.120
-700.529	157.951	0.101	0.143
-699.514	2.705	0.124	0.091
-698.499	505.620	0.121	0.285
-697.485	601.787	0.140	-0.355
-696.470	134.611	0.113	-0.149
-695.456	-200.000	-0.036	0.265
-694.441	-99.176	0.341	-0.088
-693.426	-200.000	0.040	-0.213
-692.412	-86.929	0.331	-0.103
-691.397	-92.692	-0.238	-0.068
-690.383	426.046	-0.061	-0.134
-689.368	-53.842	0.215	0.099
-688.354	4.310	0.172	-0.129
-687.339	645.348	0.059	0.154
-686.324	800.000	0.081	-0.337
-685.310	-165.866	0.253	0.011
-684.295	48.023	0.395	-0.375
-683.281	104.055	0.078	0.093
-682.266	207.193	-0.143	-0.227
-681.251	-74.572	0.132	0.048
-680.237	-23.886	0.155	-0.094
-679.222	-85.158	-0.460	0.146
-678.208	-138.287	-0.181	0.020
-677.193	444.661	0.052	-0.116
-676.178	-121.668	0.335	-0.056
-675.164	-200.000	0.055	0.312
-674.149	-84.461	-0.207	-0.066
-673.135	152.010	0.141	-0.195
-672.120	-97.536	0.244	0.064
-671.105	-173.078	0.106	0.003
-670.091	800.000	-0.119	0.338
-669.076	-53.990	-0.132	-0.061
-668.062	800.000	0.062	-0.242
-667.047	166.852	-0.061	0.088
-666.032	-108.319	0.291	0.064
-665.018	280.058	-0.049	-0.088
-664.003	683.309	-0.057	0.150
-662.989	-148.921	0.300	-0.025
-661.974	-137.585	-0.176	0.020
-660.959	145.186	-0.197	-0.268
-659.945	141.229	-0.082	-0.111
-658.930	134.047	-0.153	0.201
-657.916	443.972	-0.053	-0.117
-656.901	-4.317	-0.097	-0.068
-655.886	375.299	-0.131	-0.270
-654.872	-31.604	-0.012	-0.007
-653.857	-121.518	-0.533	0.090
-652.843	-152.494	-0.139	0.010
-651.828	-87.469	0.228	-0.070
-650.814	127.371	0.082	-0.106
-649.799	397.928	0.152	0.323
-648.784	-200.000	0.012	-0.130
-647.770	-112.246	0.245	-0.050
-646.755	142.248	0.115	-0.154
-645.741	85.486	-0.133	-0.148
-644.726	-49.862	0.198	-0.096
-643.711	146.886	-0.175	0.238
-642.697	-200.000	-0.029	-0.144
-641.682	425.318	0.071	-0.155
-640.668	-88.025	-0.410	0.125
-639.653	-156.188	-0.137	-0.009
-638.638	-200.000	0.001	0.049
-637.624	-200.000	-0.042	0.275
-636.609	-200.000	0.015	0.380
-635.595	-3.566	-0.136	0.096
-634.580	-115.452	-0.553	-0.106
-633.565	177.330	0.039	0.058
-632.551	-200.000	-0.055	0.329
-631.536	33.835	0.210	0.186
-630.522	-0.040	-0.184	-0.133
-629.507	-63.122	-0.098	0.041
-628.492	-99.777	0.137	0.035
-627.478	-184.129	0.089	0.002
-626.463	21.056	-0.126	0.104
-625.449	-200.000	0.036	0.214
-624.434	17.549	-0.349	0.281
-623.419	108.771	-0.124	0.150
-622.405	581.042	0.091	-0.225
-621.390	-86.641	0.171	-0.053
-620.376	43.536	0.102	0.095
-619.361	139.089	0.129	-0.172
-618.346	-47.104	0.194	0.096
-617.332	312.968	-0.102	-0.195
-616.317	39.275	-0.117	-0.106
-615.303	-84.042	0.109	0.035
-614.288	137.260	-0.166	-0.220
-613.273	234.768	0.104	0.174
-612.259	-12.703	0.095	-0.063
-611.244	151.270	-0.057	-0.079
-610.230	-200.000	-0.006	0.157
-609.215	9.663	-0.288	0.221
-608.201	128.283	-0.190	0.246
-607.186	-53.243	0.130	-0.061
-606.171	22.071	-0.186	0.154
-605.157	800.000	0.043	-0.159
-604.142	-21.759	-0.153	-0.095
-603.128	-200.000	-0.008	0.061
-602.113	-170.249	-0.192	0.007
-601.098	-20.161	-0.037	0.023
-600.084	262.651	-0.091	-0.161
-599.069	176.049	-0.109	-0.160
-598.055	-25.994	0.077	0.046
-597.040	120.193	-0.201	-0.253
-596.025	800.000	-0.042	-0.184
-595.011	-91.187	0.185	-0.054
-593.996	800.000	-0.036	0.161
-592.982	110.811	-0.205	0.250
-591.967	800.000	-0.015	-0.050
-590.952	46.396	0.221	-0.208
-589.938	152.555	-0.164	0.227
-588.923	-22.223	0.202	0.124
-587.909	383.987	-0.104	0.217
-586.894	-91.351	-0.349	-0.101
-585.879	-144.738	-0.106	0.010
-584.865	-42.722	-0.031	0.016
-583.850	-200.000	0.030	-0.383
-582.836	1.243	0.172	-0.125
-581.821	800.000	0.040	0.162
-580.806	369.379	0.084	0.172
-579.792	637.950	0.042	-0.109
-578.777	-28.658	-0.298	0.174
-577.763	567.182	-0.044	0.109
-576.748	-7.214	-0.186	-0.127
-575.733	-94.093	-0.161	-0.045
-574.719	673.373	-0.164	-0.431
-573.704	-89.843	-0.180	-0.053
-572.690	519.164	-0.091	0.215
-571.675	-26.986	0.070	0.042
-570.661	211.108	0.231	-0.367
-569.646	-91.478	-0.312	0.090
-568.631	-200.000	0.014	-0.217
-567.617	-50.017	0.092	-0.044
-566.602	-95.705	-0.479	-0.130
-565.588	-200.000	0.001	-0.034
-564.573	18.936	-0.166	-0.134
-563.558	73.218	0.173	0.183
-562.544	547.437	0.108	0.262
-561.529	-11.862	0.286	-0.190
-560.515	44.466	0.266	-0.247
-559.500	-18.188	-0.149	-0.094
-558.485	800.000	-0.098	0.332
-557.471	-106.965	0.145	0.032
-556.456	-111.006	0.220	0.046
-555.442	-200.000	0.004	0.080
-554.427	56.609	-0.143	-0.141
-553.412	-95.183	0.183	-0.050
-552.398	219.030	0.151	0.244
-551.383	296.640	-0.192	-0.356
-550.369	-200.000	0.000	-0.167
-549.354	37.745	0.073	0.066
-548.339	25.628	0.325	0.273
-547.325	-152.734	-0.292	-0.021
-546.310	537.139	0.168	-0.402
-545.296	800.000	-0.065	-0.230
-544.281	-140.543	-0.400	-0.042
-543.266	-200.000	-0.017	0.150
-542.252	81.533	0.071	-0.078
-541.237	20.092	-0.227	-0.185
-540.223	-97.144	-0.155	-0.041
-539.208	-200.000	0.010	-0.209
-538.193	-200.000	0.013	0.438
-537.179	754.189	-0.042	0.116
-536.164	138.872	0.174	-0.230
-535.150	266.219	-0.062	0.110
-534.135	35.162	-0.218	-0.194
-533.121	141.402	0.088	0.117
-532.106	-128.876	0.332	0.047
-531.091	776.027	-0.070	0.193
-530.077	800.000	0.185	0.587
-529.062	800.000	0.147	-0.470
-528.048	255.920	0.155	-0.269
-527.033	23.102	-0.068	-0.056
-526.018	-81.574	0.058	-0.019
-525.004	192.175	-0.108	0.164
-523.989	-198.481	-0.236	0.001
-522.975	-5.127	0.054	0.038
-521.960	-43.218	0.301	-0.154
-520.945	-75.447	0.072	-0.026
-519.931	123.337	-0.038	0.048
-518.916	-6.435	0.153	0.105
-517.902	40.859	-0.278	0.253
-516.887	64.368	-0.171	-0.174
-515.872	-28.991	0.374	0.217
-514.858	-100.001	-0.146	0.037
-513.843	-49.854	0.208	-0.100
-512.829	-70.718	0.020	-0.008
-511.814	800.000	0.058	-0.219
-510.799	-200.000	-0.037	0.190
-509.785	2.642	-0.122	-0.090
-508.770	-156.767	0.111	-0.007
-507.756	-187.932	-0.044	-0.001
-506.741	-143.507	0.252	0.024
-505.726	208.505	-0.067	-0.106
-504.712	-37.525	0.079	-0.042
-503.697	-200.000	-0.057	-0.270
-502.683	-12.055	0.146	0.097
-501.668	100.920	0.050	0.058
-500.653	-200.000	-0.010	0.266
-499.639	432.263	0.061	0.133
-498.624	-52.027	-0.457	-0.214
-497.610	-52.943	0.349	0.162
-496.595	-99.977	0.082	-0.021
-495.581	122.864	0.105	-0.132
-494.566	800.000	-0.087	-0.338
-493.551	180.006	0.075	0.110
-492.537	-200.000	-0.051	-0.473
-491.522	-200.000	0.017	-0.107
-490.508	-183.152	0.269	0.005
-489.493	45.015	-0.212	0.197
-488.478	102.032	0.253	0.299
-487.464	152.644	-0.109	0.150
-486.449	307.357	0.141	-0.264
-485.435	-42.013	-0.124	-0.064
-484.420	40.734	-0.217	-0.197
-483.405	30.612	-0.128	-0.110
-482.391	-177.343	-0.111	-0.003
-481.376	800.000	-0.053	0.155
-480.362	159.254	0.089	0.125
-479.347	-173.714	-0.202	-0.006
-478.332	800.000	-0.069	0.251
-477.318	-200.000	0.005	0.083
-476.303	800.000	-0.065	-0.209
-475.289	62.108	-0.183	0.184
-474.274	800.000	-0.035	-0.149
-473.259	113.888	0.148	-0.181
-472.245	800.000	-0.062	-0.218
-471.230	82.347	-0.128	0.140
-470.216	-102.847	0.138	0.033
-469.201	-61.746	0.307	0.130
-468.186	68.563	-0.096	-0.100
-467.172	134.286	-0.122	-0.160
-466.157	27.178	-0.095	0.080
-465.143	-13.580	0.027	-0.018
-464.128	-50.589	-0.222	-0.105
-463.113	19.266	-0.090	-0.073
-462.099	-200.000	0.032	0.196
-461.084	800.000	-0.056	0.227
-460.070	-133.298	-0.024	-0.003
-459.055	-133.385	-0.156	0.020
-458.040	-15.032	0.062	-0.040
-457.026	-62.618	-0.192	0.080
-456.011	800.000	0.113	-0.340
-454.997	576.536	0.064	-0.157
-453.982	45.489	-0.132	0.123
-452.968	94.807	0.120	-0.137
-451.953	254.307	-0.130	0.223
-450.938	-31.214	0.311	0.177
-449.924	-100.639	-0.338	-0.084
-448.909	84.811	0.176	-0.194
-447.895	328.442	0.055	-0.107
-446.880	235.335	0.089	0.147
-445.865	-30.366	-0.165	0.094
-444.851	-200.000	-0.005	-0.175
-443.836	160.004	-0.105	0.147
-442.822	800.000	-0.074	0.237
-441.807	800.000	-0.078	0.281
-440.792	792.272	0.032	0.089
-439.778	448.155	-0.072	0.160
-438.763	-41.733	-0.190	0.098
-437.749	800.000	-0.074	-0.307
-436.734	-200.000	0.016	0.087
-435.719	-168.980	0.210	0.008
-434.705	614.637	0.038	-0.095
-433.690	4.435	-0.172	-0.127
-432.676	-25.037	-0.194	0.116
-431.661	338.105	0.024	0.046
-430.646	82.137	0.110	-0.120
-429.632	-200.000	0.009	-0.203
-428.617	-200.000	-0.031	-0.186
-427.603	-49.317	-0.171	0.082
-426.588	568.262	0.050	-0.121
-425.573	-140.873	0.257	0.027
-424.559	151.835	-0.022	0.031
-423.544	800.000	-0.148	0.462
-422.530	-31.487	-0.191	-0.108
-421.515	-47.812	-0.264	-0.129
-420.500	2.999	-0.160	-0.117
-419.486	20.267	-0.153	-0.124
-418.471	-200.000	-0.089	-0.435
-417.457	417.393	-0.069	-0.149
-416.442	800.000	-0.057	-0.205
-415.428	31.383	-0.055	-0.047
-414.413	-42.812	-0.182	-0.093
-413.398	99.069	0.090	0.104
-412.384	87.125	0.191	-0.212
-411.369	-200.000	-0.021	-0.212
-410.355	-121.100	-0.308	-0.052
-409.340	800.000	-0.022	0.079
-408.325	229.986	0.157	0.259
-407.311	128.838	0.196	0.252
-406.296	-200.000	0.011	0.159
-405.282	-143.530	0.117	-0.011
-404.267	-80.010	-0.113	-0.038
-403.252	367.202	-0.027	-0.055
-402.238	289.711	0.148	0.270
-401.223	132.245	0.203	0.263
-400.209	-79.112	-0.342	-0.117
-399.194	-22.350	0.192	0.117
-398.179	-11.807	-0.083	0.055
-397.165	-177.739	-0.118	0.003
-396.150	-200.000	0.029	0.213
-395.136	800.000	-0.092	0.308
-394.121	-9.507	-0.082	-0.055
-393.106	800.000	-0.123	0.482
-392.092	800.000	0.051	0.190
-391.077	112.288	0.120	0.146
-390.063	143.744	-0.086	-0.115
-389.048	-200.000	-0.000	-0.047
-388.033	60.254	0.277	0.275
-387.019	-69.097	-0.085	0.033
-386.004	58.445	-0.221	0.218
-384.990	131.431	0.171	0.221
-383.975	-92.487	0.013	-0.004
-382.960	14.251	0.081	-0.063
-381.946	-96.724	0.061	0.016
-380.931	307.190	0.064	-0.120
-379.917	-9.845	-0.161	-0.108
-378.902	331.201	-0.077	0.149
-377.888	-200.000	-0.046	-0.293
-376.873	37.801	-0.154	-0.138
-375.858	70.909	0.095	-0.098
-374.844	-88.069	-0.274	-0.083
-373.829	-200.000	-0.004	0.291
-372.815	22.298	0.289	0.237
-371.800	-61.436	-0.115	0.049
-370.785	-148.105	0.235	-0.020
-369.771	314.444	0.049	-0.093
-368.756	198.103	-0.017	0.026
-367.742	-18.615	0.024	-0.015
-366.727	202.777	-0.055	0.086
-365.712	-12.864	0.188	0.123
-364.698	788.378	0.047	-0.129
-363.683	800.000	-0.027	-0.086
-362.669	-2.619	0.235	-0.165
-361.654	-44.124	0.284	0.143
-360.639	-95.625	-0.273	-0.073
-359.625	-200.000	-0.037	0.188
-358.610	-75.307	0.370	-0.132
-357.596	-34.055	0.404	0.223
-356.581	-200.000	0.010	-0.401
-355.566	-200.000	0.000	-0.159
-354.552	-200.000	-0.002	0.305
-353.537	654.391	0.090	0.232
-352.523	-200.000	-0.067	0.418
-351.508	-44.894	-0.189	0.095
-350.493	-200.000	-0.036	0.299
-349.479	-200.000	-0.014	-0.162
-348.464	375.525	-0.084	0.173
-347.450	79.341	0.123	-0.132
-346.435	736.004	-0.150	-0.404
-345.420	-97.265	0.362	0.095
-344.406	211.774	0.056	-0.088
-343.391	-200.000	-0.013	-0.159
-342.377	-140.488	-0.058	-0.006
-341.362	-35.982	0.152	0.083
-340.348	-96.817	0.142	0.037
-339.333	-200.000	0.021	-0.217
-338.318	119.279	0.197	0.244
-337.304	-183.057	0.357	-0.006
-336.289	800.000	0.018	-0.063
-335.275	-200.000	0.025	0.309
-334.260	-138.871	-0.121	0.013
-333.245	190.813	-0.031	0.047
-332.231	214.354	0.034	0.054
-331.216	-163.025	-0.149	-0.007
-330.202	-73.545	-0.236	-0.086
-329.187	-46.651	-0.233	-0.115
-328.172	302.422	-0.183	-0.339
-327.158	18.452	-0.131	-0.105
-326.143	54.449	-0.127	0.123
-325.129	-109.413	0.250	-0.053
-324.114	-123.179	0.251	-0.040
-323.099	-57.941	0.123	0.054
-322.085	120.056	-0.287	0.357
-321.070	31.112	-0.191	0.165
-320.056	154.971	0.125	-0.172
-319.041	-87.994	0.165	-0.050
-318.026	-200.000	0.029	-0.164
-317.012	45.642	0.118	0.109
-315.997	-95.975	-0.158	0.042
-314.983	-18.925	-0.118	-0.073
-313.968	-200.000	0.012	0.148
-312.953	-113.039	0.369	0.073
-311.939	-200.000	0.025	-0.173
-310.924	800.000	0.027	-0.076
-309.910	222.629	0.109	0.175
-308.895	-200.000	0.014	0.238
-307.880	155.335	0.021	-0.029
-306.866	-200.000	0.015	0.108
-305.851	445.607	0.121	0.267
-304.837	136.357	-0.203	-0.265
-303.822	-13.624	0.154	-0.100
-302.807	94.308	-0.170	0.193
-301.793	60.913	-0.100	0.099
-300.778	349.814	0.140	0.277
-299.764	-5.367	-0.174	-0.120
-298.749	8.153	-0.140	-0.105
-297.735	-133.625	-0.290	-0.036
-296.720	-61.708	0.075	-0.032
-295.705	-44.319	0.079	-0.040
-294.691	-200.000	0.047	-0.402
-293.676	-7.403	-0.021	0.014
-292.662	-200.000	0.027	-0.250
-291.647	-103.175	-0.057	0.013
-290.632	-44.958	0.149	0.074
-289.618	-200.000	0.036	-0.424
-288.603	800.000	-0.050	0.198
-287.589	-188.314	-0.066	-0.001
-286.574	-68.391	-0.198	0.077
-285.559	-200.000	0.012	-0.167
-284.545	340.550	-0.091	-0.177
-283.530	800.000	0.060	-0.181
-282.516	-101.718	0.159	0.038
-281.501	39.698	0.077	-0.069
-280.486	-39.843	-0.148	0.077
-279.472	-200.000	0.038	-0.248
-278.457	-200.000	0.038	0.220
-277.443	800.000	-0.111	-0.349
-276.428	-111.075	-0.126	-0.026
-275.413	8.675	0.207	0.156
-274.399	70.130	-0.211	-0.218
-273.384	11.948	0.268	0.206
-272.370	165.163	-0.148	0.210
-271.355	800.000	0.109	0.334
-270.340	-8.178	-0.212	0.143
-269.326	-31.379	-0.032	0.018
-268.311	202.068	0.219	0.338
-267.297	-9.988	-0.065	0.043
-266.282	-41.212	0.329	-0.170
-265.267	800.000	0.050	0.193
-264.253	-200.000	-0.005	-0.269
-263.238	800.000	-0.058	0.169
-262.224	9.654	0.062	-0.047
-261.209	-200.000	-0.066	-0.311
-260.195	-200.000	0.040	-0.324
-259.180	230.903	-0.087	-0.142
-258.165	-19.548	-0.333	0.206
-257.151	220.885	-0.116	0.185
-256.136	34.212	0.083	0.073
-255.122	-15.678	0.310	-0.198
-254.107	-39.742	0.239	0.125
-253.092	-24.124	-0.128	0.077
-252.078	29.082	-0.132	0.112
-251.063	32.686	-0.192	-0.166
-250.049	167.433	0.057	0.080
-249.034	406.037	0.124	0.262
-248.019	89.043	-0.102	-0.114
-247.005	494.482	-0.055	-0.126
-245.990	-200.000	0.011	0.412
-244.976	612.334	0.067	0.169
-243.961	-65.719	-0.434	-0.174
-242.946	-74.533	-0.303	-0.109
-241.932	-171.402	-0.174	0.006
-240.917	-154.614	0.436	0.029
-239.903	-5.123	0.447	0.308
-238.888	-18.048	0.142	-0.089
-237.873	800.000	-0.031	0.126
-236.859	-200.000	0.017	-0.156
-235.844	32.349	0.111	-0.096
-234.830	-176.974	0.275	-0.007
-233.815	280.480	-0.088	-0.156
-232.800	-121.087	0.410	0.069
-231.786	800.000	-0.063	-0.267
-230.771	49.599	0.070	-0.065
-229.757	-99.260	0.023	-0.006
-228.742	-75.349	0.348	-0.124
-227.727	55.311	0.078	0.076
-226.713	-200.000	-0.009	0.254
-225.698	48.218	-0.208	-0.194
-224.684	50.007	-0.223	-0.211
-223.669	-65.032	0.269	-0.109
-222.655	800.000	0.125	0.373
-221.640	119.143	-0.299	0.370
-220.625	-132.086	-0.300	-0.039
-219.611	-70.250	-0.146	-0.055
-218.596	-40.304	0.062	0.032
-217.582	-148.380	0.427	-0.035
-216.567	-200.000	0.060	0.371
-215.552	49.178	-0.134	0.126
-214.538	552.813	0.157	-0.378
-213.523	-125.604	0.449	0.068
-212.509	13.413	0.168	0.130
-211.494	-60.325	0.149	0.063
-210.479	-7.102	0.223	-0.151
-209.465	-200.000	0.078	0.373
-208.450	-149.957	0.251	-0.020
-207.436	-139.463	-0.231	0.025
-206.421	198.391	0.072	-0.111
-205.406	800.000	-0.069	-0.213
-204.392	230.411	0.128	0.208
-203.377	29.964	0.179	0.152
-202.363	-126.220	-0.126	-0.019
-201.348	-74.817	-0.201	-0.072
-200.333	-200.000	-0.012	0.212
-199.319	113.554	0.060	-0.072
-198.304	55.267	-0.202	-0.195
-197.290	-16.667	0.074	-0.047
-196.275	800.000	-0.065	-0.282
-195.260	-25.278	-0.072	0.042
-194.246	-102.654	0.133	0.032
-193.231	-41.928	-0.353	-0.180
-192.217	-200.000	0.029	0.432
-191.202	-200.000	-0.005	-0.173
-190.187	800.000	0.155	-0.428
-189.173	800.000	0.036	-0.116
-188.158	800.000	-0.050	0.137
-187.144	-123.919	0.099	0.016
-186.129	-34.119	0.328	0.180
-185.114	-200.000	-0.185	-0.001
-184.100	-54.755	-0.072	0.032
-183.085	800.000	0.044	-0.124
-182.071	-48.222	0.181	-0.087
-181.056	375.449	-0.063	-0.129
-180.042	138.346	0.140	-0.183
-179.027	161.152	-0.195	-0.272
-178.012	800.000	-0.079	0.252
-176.998	800.000	0.048	-0.205
-175.983	3.053	0.162	-0.117
-174.969	665.415	-0.097	-0.250
-173.954	-165.215	0.238	-0.010
-172.939	-200.000	-0.021	-0.117
-171.925	-200.000	-0.023	-0.150
-170.910	-200.000	0.264	0.001
-169.896	-88.935	0.198	-0.059
-168.881	191.872	0.097	-0.145
-167.866	-133.012	0.546	-0.069
-166.852	-20.998	-0.133	-0.081
-165.837	-128.211	-0.119	0.017
-164.823	287.864	-0.068	0.122
-163.808	502.167	0.069	-0.159
-162.793	800.000	-0.014	0.057
-161.779	529.579	-0.070	-0.165
-160.764	-200.000	-0.032	-0.154
-159.750	800.000	-0.016	0.059
-158.735	194.305	0.032	0.048
-157.720	76.800	-0.073	-0.077
-156.706	-69.488	0.091	-0.035
-155.691	45.438	0.161	-0.148
-154.677	-66.279	-0.236	-0.093
-153.662	45.366	-0.308	0.283
-152.647	-148.671	0.061	0.005
-151.633	-59.227	0.384	0.165
-150.618	179.386	-0.042	-0.061
-149.604	21.325	-0.058	0.047
-148.589	149.456	0.123	-0.166
-147.574	-85.983	-0.088	0.027
-146.560	346.627	0.021	0.042
-145.545	-66.186	-0.329	-0.131
-144.531	124.239	0.038	0.047
-143.516	-148.144	-0.237	-0.020
-142.502	572.436	0.059	0.142
-141.487	-78.279	0.109	0.037
-140.472	-6.911	0.211	0.143
-139.458	-120.946	-0.327	0.055
-138.443	800.000	0.127	-0.368
-137.429	-123.431	-0.438	-0.069
-136.414	188.063	-0.117	0.175
-135.399	-117.230	-0.257	-0.046
-134.385	232.791	0.081	0.133
-133.370	-73.009	-0.160	0.058
-132.356	414.547	-0.170	-0.359
-131.341	113.060	-0.105	0.126
-130.326	-121.614	0.117	0.019
-129.312	-21.032	-0.056	0.034
-128.297	-70.345	-0.389	0.147
-127.283	800.000	-0.064	0.252
-126.268	122.878	-0.147	0.183
-125.253	-77.417	-0.149	0.052
-124.239	-79.682	-0.316	-0.106
-123.224	116.641	0.193	0.236
-122.210	-200.000	-0.078	0.369
-121.195	-200.000	0.002	0.145
-120.180	-200.000	0.045	-0.246
