DTS Sentinel unit serial number:	SN413079Multiplexer serial number:	ORYXHardware model number:	OX4-SRSoftware version number:	ORYX F/W v4.00 Oryx Data Collector v3.7.2.0data status	okinstallation	princeton_trtdifferential loss correction	single-endedforward channel	channel 1reverse channel	N/Adate	2019/09/13time	13:10:35forward acquisition time	60.00reverse acquisition time	0.00gamma	496.2192k internal	0.2305k external	0.2305temperature offset calibration	1.0161default loss term (dB/km)	0.3790temperature slope calibration	1.0000multiplexer offset coefficient	1.0000multiplexer slope coefficient	1.0000fibre end	0.00T internal ref (°C)	34.87T ext. ref 1 (°C)	4.57T ext. ref 2 (°C)	31.21length (m)	temperature (°C)	Stokes	anti-Stokes-747.200	800.000	0.091	0.275
-746.185	564.041	0.209	-0.515
-745.171	273.891	-0.152	0.273
-744.156	-34.001	0.312	0.175
-743.142	-84.371	-0.380	0.122
-742.127	243.294	-0.115	0.196
-741.112	633.873	0.074	-0.190
-740.098	-51.792	0.128	-0.061
-739.083	508.488	-0.052	-0.122
-738.069	800.000	0.064	0.210
-737.054	-121.613	0.108	0.018
-736.039	-162.032	-0.571	0.029
-735.025	-142.718	-0.209	-0.021
-734.010	-200.000	-0.033	-0.176
-732.996	76.202	0.152	-0.163
-731.981	-11.271	-0.148	-0.099
-730.966	-83.224	0.225	-0.074
-729.952	74.973	-0.253	-0.271
-728.937	171.821	-0.097	-0.142
-727.923	-95.014	0.348	0.096
-726.908	447.583	0.107	-0.239
-725.894	205.595	-0.035	0.056
-724.879	46.288	0.159	-0.149
-723.864	-79.372	-0.137	-0.047
-722.850	-26.284	-0.276	-0.165
-721.835	-200.000	0.020	0.119
-720.821	-200.000	0.020	-0.141
-719.806	-104.124	0.224	0.053
-718.791	-200.000	-0.036	0.170
-717.777	-66.525	-0.185	0.075
-716.762	-27.964	-0.394	-0.232
-715.748	-161.048	0.214	-0.011
-714.733	-200.000	0.001	0.180
-713.718	800.000	0.028	0.118
-712.704	300.805	-0.183	-0.344
-711.689	327.510	0.125	0.244
-710.675	-200.000	-0.011	0.310
-709.660	-103.520	0.144	0.034
-708.645	34.736	0.191	0.170
-707.631	-88.726	0.150	0.045
-706.616	1.514	0.200	-0.146
-705.602	146.865	0.169	0.230
-704.587	-87.332	0.170	0.052
-703.572	6.039	0.107	0.081
-702.558	-100.756	-0.441	0.110
-701.543	-114.749	0.177	-0.034
-700.529	27.972	0.261	0.223
-699.514	-200.000	-0.014	0.220
-698.499	-120.838	0.128	0.022
-697.485	701.482	-0.030	-0.080
-696.470	167.775	0.175	0.253
-695.456	-26.767	0.213	-0.127
-694.441	800.000	0.090	-0.323
-693.426	125.356	0.129	-0.165
-692.412	-10.571	-0.230	-0.155
-691.397	-200.000	-0.027	-0.301
-690.383	-8.519	-0.265	0.181
-689.368	-5.985	0.241	0.167
-688.354	-144.062	0.182	0.017
-687.339	13.842	-0.274	0.216
-686.324	6.816	0.220	-0.166
-685.310	-200.000	0.013	-0.126
-684.295	120.366	-0.235	0.296
-683.281	-105.786	-0.166	-0.038
-682.266	-42.450	0.162	0.084
-681.251	-200.000	-0.005	0.094
-680.237	44.881	-0.070	0.065
-679.222	186.351	-0.097	-0.147
-678.208	-200.000	-0.044	-0.303
-677.193	-36.316	0.304	-0.166
-676.178	-16.812	-0.259	0.166
-675.164	-200.000	-0.008	-0.092
-674.149	-77.396	0.144	0.051
-673.135	14.035	0.120	0.094
-672.120	800.000	0.134	-0.419
-671.105	153.079	-0.105	-0.146
-670.091	-136.704	-0.348	-0.041
-669.076	-200.000	0.006	-0.087
-668.062	35.996	0.335	0.299
-667.047	800.000	0.108	0.329
-666.032	593.416	-0.056	0.141
-665.018	175.892	-0.228	0.336
-664.003	800.000	0.022	-0.090
-662.989	106.273	-0.070	-0.084
-661.974	-175.694	0.359	0.010
-660.959	125.905	0.076	0.098
-659.945	160.455	-0.128	0.181
-658.930	79.807	-0.122	0.133
-657.916	-200.000	0.021	-0.181
-656.901	103.185	0.079	0.094
-655.886	569.772	0.128	0.316
-654.872	-93.635	-0.200	-0.056
-653.857	800.000	-0.097	0.356
-652.843	42.808	-0.205	-0.190
-651.828	-94.288	0.197	-0.055
-650.814	72.878	-0.216	-0.229
-649.799	125.449	0.086	-0.111
-648.784	-16.801	0.097	-0.062
-647.770	164.977	0.048	-0.069
-646.755	229.864	-0.052	-0.086
-645.741	-94.486	-0.167	0.046
-644.726	215.560	0.079	0.127
-643.711	136.727	0.261	0.345
-642.697	-200.000	0.031	0.190
-641.682	800.000	-0.093	-0.331
-640.668	11.840	-0.379	-0.295
-639.653	-193.228	0.316	0.003
-638.638	-94.368	-0.062	0.017
-637.624	225.537	-0.118	0.194
-636.609	800.000	0.008	0.030
-635.595	228.473	-0.029	0.048
-634.580	-50.141	0.150	0.072
-633.565	42.044	0.102	-0.094
-632.551	-168.487	0.216	0.008
-631.536	-143.416	0.187	0.018
-630.522	526.115	-0.132	0.315
-629.507	-168.248	0.231	0.009
-628.492	-184.859	-0.298	0.005
-627.478	135.347	0.047	0.061
-626.463	-30.042	-0.397	-0.229
-625.449	800.000	-0.070	-0.231
-624.434	800.000	0.127	-0.435
-623.419	-196.292	-0.128	0.001
-622.405	261.472	0.050	0.088
-621.390	-46.562	0.143	0.071
-620.376	235.309	-0.213	0.356
-619.361	754.427	-0.069	0.190
-618.346	-20.808	0.327	-0.203
-617.332	-69.985	0.083	0.032
-616.317	-200.000	0.007	-0.275
-615.303	-61.331	0.413	-0.176
-614.288	-130.919	-0.208	-0.028
-613.273	-81.293	-0.279	0.093
-612.259	195.319	-0.160	0.245
-611.244	-183.476	0.178	-0.003
-610.230	389.052	-0.062	-0.129
-609.215	-19.390	0.214	-0.134
-608.201	-200.000	0.009	-0.143
-607.186	-182.816	-0.358	0.007
-606.171	-140.325	0.259	-0.027
-605.157	180.279	0.126	0.187
-604.142	52.866	0.214	0.207
-603.128	-96.440	-0.055	0.015
-602.113	-106.858	-0.188	-0.042
-601.098	-40.304	-0.043	-0.022
-600.084	800.000	0.014	0.058
-599.069	-21.918	0.179	0.110
-598.055	-121.182	-0.169	0.029
-597.040	175.734	-0.096	0.141
-596.025	-100.682	-0.133	0.033
-595.011	79.717	-0.108	0.118
-593.996	53.095	0.043	0.041
-592.982	110.573	-0.070	-0.085
-591.967	7.155	0.372	-0.281
-590.952	-186.712	0.125	0.002
-589.938	-146.047	-0.302	-0.027
-588.923	-51.777	-0.154	0.073
-587.909	-36.727	0.191	-0.104
-586.894	-58.174	0.246	-0.108
-585.879	286.400	-0.161	0.295
-584.865	800.000	0.043	-0.187
-583.850	125.472	0.096	-0.122
-582.836	-40.727	0.221	0.116
-581.821	60.901	0.193	-0.194
-580.806	-45.624	-0.185	0.093
-579.792	161.461	0.177	-0.251
-578.777	40.306	-0.110	-0.100
-577.763	-200.000	-0.019	0.237
-576.748	-102.312	-0.156	0.038
-575.733	-2.483	-0.126	0.090
-574.719	342.719	0.053	-0.106
-573.704	800.000	0.046	0.146
-572.690	21.626	-0.177	0.146
-571.675	800.000	-0.062	0.207
-570.661	-200.000	0.007	0.086
-569.646	-200.000	0.013	0.229
-568.631	26.076	-0.233	-0.197
-567.617	-200.000	0.040	-0.303
-566.602	-200.000	-0.015	0.145
-565.588	180.180	-0.052	0.077
-564.573	-200.000	0.025	-0.138
-563.558	124.176	-0.153	-0.194
-562.544	106.738	-0.239	-0.287
-561.529	456.775	-0.066	0.147
-560.515	610.644	-0.156	0.395
-559.500	257.444	0.086	0.149
-558.485	-135.832	-0.245	0.029
-557.471	66.312	-0.219	-0.225
-556.456	72.137	0.048	0.050
-555.442	-131.042	0.242	0.033
-554.427	-92.459	-0.176	0.050
-553.412	63.700	0.155	-0.158
-552.398	81.995	-0.099	-0.109
-551.383	800.000	-0.115	-0.320
-550.369	1.530	0.099	-0.072
-549.354	-133.813	0.183	-0.023
-548.339	478.002	-0.060	0.138
-547.325	-181.860	-0.144	-0.003
-546.310	-153.092	-0.149	0.011
-545.296	47.422	0.212	0.200
-544.281	279.133	0.081	0.146
-543.266	-96.971	0.294	0.078
-542.252	202.996	-0.175	-0.272
-541.237	-80.383	0.161	-0.054
-540.223	-32.719	-0.152	-0.085
-539.208	-59.690	0.244	0.105
-538.193	608.216	-0.080	0.201
-537.179	7.865	-0.366	0.277
-536.164	95.255	0.086	-0.099
-535.150	247.368	0.030	-0.051
-534.135	-200.000	-0.026	0.272
-533.121	-90.840	-0.082	0.024
-532.106	204.276	-0.104	0.163
-531.091	-200.000	-0.009	-0.067
-530.077	278.130	-0.162	0.291
-529.062	450.724	-0.082	0.182
-528.048	3.714	0.138	0.102
-527.033	267.146	0.121	-0.214
-526.018	-167.005	-0.363	-0.015
-525.004	800.000	0.200	-0.580
-523.989	-200.000	0.007	0.076
-522.975	-62.437	0.209	-0.088
-521.960	-81.411	0.365	0.121
-520.945	-84.435	-0.207	0.066
-519.931	364.123	0.023	-0.047
-518.916	-49.717	-0.184	-0.088
-517.902	480.088	0.075	0.172
-516.887	-19.988	-0.071	-0.044
-515.872	-69.449	0.321	-0.124
-514.858	124.436	0.078	0.100
-513.843	155.008	0.049	0.068
-512.829	-143.545	-0.191	0.018
-511.814	-200.000	0.007	0.045
-510.799	-5.805	0.353	0.244
-509.785	-200.000	-0.060	-0.424
-508.770	-103.032	0.284	-0.068
-507.756	-127.512	0.070	-0.010
-506.741	766.457	-0.148	0.404
-505.726	800.000	-0.026	-0.108
-504.712	-124.239	0.087	-0.014
-503.697	104.662	-0.206	0.245
-502.683	-80.145	-0.447	-0.151
-501.668	31.780	-0.044	-0.038
-500.653	161.416	0.096	-0.136
-499.639	177.669	0.062	-0.091
-498.624	800.000	0.035	-0.116
-497.610	135.695	0.160	0.209
-496.595	-122.315	0.395	0.065
-495.581	-139.846	-0.110	-0.012
-494.566	108.007	-0.135	0.163
-493.551	410.258	-0.051	-0.110
-492.537	800.000	0.017	-0.073
-491.522	56.224	0.164	-0.160
-490.508	800.000	0.014	-0.059
-489.493	-173.274	-0.314	0.010
-488.478	-200.000	0.012	0.104
-487.464	84.787	0.093	0.102
-486.449	-68.267	-0.377	0.148
-485.435	800.000	-0.039	0.142
-484.420	-134.906	-0.162	0.020
-483.405	-51.027	-0.256	-0.121
-482.391	-32.535	-0.294	0.165
-481.376	-126.764	0.156	0.023
-480.362	-112.713	-0.180	-0.036
-479.347	-124.343	-0.236	0.037
-478.332	-81.259	-0.213	-0.071
-477.318	800.000	-0.033	-0.104
-476.303	-170.283	0.361	0.013
-475.289	-106.669	0.299	0.067
-474.274	4.584	0.241	0.178
-473.259	222.962	-0.110	0.179
-472.245	-21.972	-0.108	0.066
-471.230	-200.000	0.004	-0.220
-470.216	13.744	0.210	0.165
-469.201	-79.072	0.083	0.028
-468.186	-57.303	-0.343	-0.152
-467.172	294.883	-0.118	0.217
-466.157	-107.320	-0.268	0.059
-465.143	409.014	0.067	-0.143
-464.128	-33.951	0.242	0.134
-463.113	25.758	-0.223	0.187
-462.099	157.887	-0.132	0.184
-461.084	-101.949	0.312	-0.076
-460.070	-132.147	-0.123	-0.016
-459.055	800.000	-0.039	0.141
-458.040	-200.000	0.003	0.112
-457.026	26.970	0.202	-0.171
-456.011	715.878	0.022	0.058
-454.997	725.545	0.043	0.116
-453.982	-37.789	-0.175	-0.094
-452.968	-83.212	-0.199	0.064
-451.953	-5.717	0.172	-0.119
-450.938	-26.009	-0.274	-0.162
-449.924	800.000	-0.171	-0.479
-448.909	-145.071	0.039	0.004
-447.895	-32.244	-0.216	-0.122
-446.880	-24.306	-0.129	0.077
-445.865	-63.411	-0.006	-0.003
-444.851	39.221	-0.198	0.178
-443.836	-128.265	0.170	0.024
-442.822	149.276	0.060	0.081
-441.807	267.462	0.135	0.238
-440.792	9.957	0.176	-0.134
-439.778	228.611	0.160	0.263
-438.763	11.949	-0.275	-0.213
-437.749	9.774	0.094	0.072
-436.734	280.083	0.101	-0.182
-435.719	-200.000	0.036	-0.250
-434.705	800.000	0.031	-0.134
-433.690	800.000	0.029	-0.128
-432.676	-134.864	-0.369	0.045
-431.661	-116.634	0.041	-0.008
-430.646	526.796	0.077	0.182
-429.632	-14.645	0.124	-0.080
-428.617	-8.480	-0.261	0.176
-427.603	-139.368	0.306	-0.033
-426.588	-43.989	-0.298	0.151
-425.573	-66.488	-0.106	-0.042
-424.559	211.096	0.131	-0.207
-423.544	59.711	0.121	-0.120
-422.530	-200.000	-0.011	-0.133
-421.515	-20.075	-0.093	0.058
-420.500	325.607	-0.120	0.231
-419.486	-141.023	0.305	-0.031
-418.471	427.026	0.143	0.310
-417.457	340.268	0.118	-0.231
-416.442	199.081	-0.158	-0.244
-415.428	-100.091	-0.317	0.079
-414.413	-72.142	-0.218	-0.081
-413.398	-82.909	0.346	0.112
-412.384	800.000	0.077	-0.258
-411.369	213.824	-0.185	-0.294
-410.355	800.000	0.011	0.038
-409.340	-200.000	0.009	-0.077
-408.325	0.503	0.172	0.124
-407.311	-76.471	-0.086	0.030
-406.296	-25.682	0.046	0.027
-405.282	-34.866	0.053	0.029
-404.267	-108.427	-0.313	0.068
-403.252	-161.892	-0.421	0.021
-402.238	-34.901	-0.126	0.069
-401.223	7.463	0.341	0.256
-400.209	367.647	0.138	0.281
-399.194	-200.000	-0.005	-0.127
-398.179	277.492	-0.181	0.323
-397.165	18.377	-0.200	0.160
-396.150	-102.713	0.150	0.036
-395.136	33.318	0.174	-0.152
-394.121	-79.652	-0.040	0.014
-393.106	489.766	-0.086	0.198
-392.092	-200.000	0.018	0.158
-391.077	206.002	0.176	-0.275
-390.063	-60.018	0.180	-0.077
-389.048	-200.000	-0.002	0.218
-388.033	-89.658	0.048	0.014
-387.019	-149.140	0.164	-0.013
-386.004	226.286	-0.097	-0.158
-384.990	58.599	-0.194	-0.191
-383.975	262.390	-0.126	0.220
-382.960	-200.000	0.040	0.336
-381.946	-17.953	-0.100	-0.063
-380.931	733.284	0.180	-0.482
-379.917	102.453	-0.100	0.117
-378.902	252.749	-0.095	0.162
-377.888	-141.683	-0.102	-0.010
-376.873	13.219	-0.147	-0.114
-375.858	182.601	-0.153	-0.226
-374.844	-169.277	0.548	-0.020
-373.829	63.604	-0.129	0.130
-372.815	23.761	-0.313	-0.259
-371.800	-84.778	-0.296	-0.093
-370.785	-1.463	0.414	-0.293
-369.771	-65.398	-0.335	0.135
-368.756	194.789	0.198	0.302
-367.742	-200.000	0.022	-0.173
-366.727	-0.990	-0.108	0.076
-365.712	263.100	0.112	-0.196
-364.698	80.877	-0.116	-0.126
-363.683	-103.126	0.133	-0.031
-362.669	-26.033	-0.151	0.089
-361.654	74.846	0.098	0.103
-360.639	800.000	0.116	0.406
-359.625	353.017	0.087	-0.172
-358.610	180.409	-0.091	0.134
-357.596	-152.875	0.182	0.013
-356.581	304.277	0.070	-0.130
-355.566	368.363	-0.063	0.128
-354.552	230.236	-0.143	-0.234
-353.537	23.250	0.157	-0.130
-352.523	22.840	-0.034	0.028
-351.508	-31.041	0.033	-0.018
-350.493	-200.000	-0.017	-0.191
-349.479	-200.000	0.008	0.079
-348.464	-55.541	-0.328	0.147
-347.450	156.660	-0.121	-0.168
-346.435	14.348	-0.143	-0.112
-345.420	-83.925	0.196	-0.063
-344.406	196.616	0.113	0.172
-343.391	93.988	0.091	-0.104
-342.377	-200.000	-0.005	0.109
-341.362	359.988	-0.042	-0.083
-340.348	-101.757	0.304	-0.074
-339.333	114.193	0.051	0.062
-338.318	-161.704	0.170	-0.009
-337.304	800.000	-0.013	0.038
-336.289	-86.001	-0.411	-0.127
-335.275	39.078	0.190	0.170
-334.260	-15.380	-0.145	-0.093
-333.245	-72.506	0.262	-0.097
-332.231	800.000	-0.063	-0.200
-331.216	424.198	0.108	-0.233
-330.202	-53.320	-0.253	-0.116
-329.187	-200.000	0.023	0.346
-328.172	800.000	-0.053	-0.199
-327.158	-67.161	-0.230	0.091
-326.143	159.013	0.153	0.213
-325.129	-24.516	0.149	0.089
-324.114	57.485	0.041	0.040
-323.099	-200.000	-0.002	-0.112
-322.085	-90.645	-0.292	-0.084
-321.070	308.289	0.069	-0.130
-320.056	-72.291	-0.192	-0.071
-319.041	-117.998	0.425	0.076
-318.026	80.266	-0.092	0.099
-317.012	-137.642	0.235	0.026
-315.997	138.824	-0.097	-0.128
-314.983	-103.770	-0.191	-0.045
-313.968	800.000	-0.072	0.260
-312.953	-131.580	0.189	0.025
-311.939	800.000	0.067	0.193
-310.924	91.975	0.157	-0.177
-309.910	-76.166	-0.148	-0.052
-308.895	-154.650	0.120	0.008
-307.880	-151.066	-0.239	0.018
-306.866	-79.886	0.046	0.015
-305.851	800.000	-0.077	-0.267
-304.837	-37.600	-0.125	-0.067
-303.822	-200.000	0.048	-0.224
-302.807	37.453	0.179	-0.159
-301.793	-200.000	0.009	-0.266
-300.778	-153.049	0.074	-0.005
-299.764	-200.000	-0.015	0.158
-298.749	-63.909	0.358	0.146
-297.735	364.100	0.064	-0.129
-296.720	656.388	-0.117	0.301
-295.705	316.948	-0.101	0.192
-294.691	-95.686	-0.267	-0.072
-293.676	25.907	-0.185	-0.154
-292.662	-152.058	-0.239	0.017
-291.647	121.172	0.262	0.326
-290.632	-111.423	-0.262	-0.053
-289.618	-200.000	-0.040	-0.185
-288.603	-200.000	0.017	-0.139
-287.589	59.327	-0.108	-0.107
-286.574	123.531	0.242	-0.304
-285.559	-97.164	0.299	-0.078
-284.545	-114.708	-0.070	-0.013
-283.530	-175.443	-0.089	0.002
-282.516	496.423	0.079	0.181
-281.501	-93.882	0.088	0.024
-280.486	-200.000	-0.060	-0.277
-279.472	-200.000	-0.074	0.367
-278.457	4.597	0.072	-0.053
-277.443	-200.000	0.002	0.119
-276.428	800.000	0.024	-0.069
-275.413	-107.371	0.233	-0.051
-274.399	-15.041	-0.182	0.116
-273.384	-89.492	-0.507	-0.149
-272.370	125.131	-0.128	-0.161
-271.355	800.000	-0.136	0.400
-270.340	-72.464	0.088	-0.032
-269.326	-24.620	0.174	0.103
-268.311	34.291	-0.078	-0.068
-267.297	800.000	0.105	0.378
-266.282	-200.000	-0.031	0.200
-265.267	-92.412	0.261	-0.073
-264.253	219.008	0.183	0.293
-263.238	191.744	-0.117	-0.176
-262.224	1.540	0.207	-0.148
-261.209	-200.000	0.001	0.150
-260.195	-71.311	0.160	-0.060
-259.180	-71.955	-0.087	0.032
-258.165	-54.926	0.141	0.063
-257.151	86.238	-0.188	0.207
-256.136	188.018	-0.104	0.155
-255.122	-60.567	-0.148	-0.063
-254.107	800.000	0.050	-0.213
-253.092	-25.971	-0.220	0.129
-252.078	800.000	0.030	0.104
-251.063	-49.717	0.264	-0.125
-250.049	800.000	0.014	-0.050
-249.034	-200.000	0.015	-0.360
-248.019	-128.362	0.409	-0.058
-247.005	18.720	0.197	-0.157
-245.990	-199.629	0.174	-0.001
-244.976	133.382	-0.121	0.156
-243.961	-22.491	0.186	0.112
-242.946	-200.000	-0.015	0.088
-241.932	780.610	-0.046	-0.126
-240.917	-200.000	0.027	-0.416
-239.903	21.095	0.207	-0.168
-238.888	128.441	0.184	0.234
-237.873	-146.236	-0.176	0.015
-236.859	180.019	0.047	-0.069
-235.844	338.272	0.052	0.101
-234.830	6.485	0.369	-0.274
-233.815	-64.763	-0.277	-0.112
-232.800	-117.251	0.315	0.057
-231.786	-200.000	-0.007	0.347
-230.771	-91.638	0.153	0.043
-229.757	60.287	0.286	-0.282
-228.742	-200.000	-0.012	-0.139
-227.727	-67.291	-0.127	0.050
-226.713	800.000	-0.112	0.381
-225.698	116.905	-0.075	-0.092
-224.684	-81.457	-0.233	0.077
-223.669	-200.000	-0.001	0.050
-222.655	-113.700	0.295	0.057
-221.640	46.736	0.220	-0.204
-220.625	268.512	0.116	0.203
-219.611	-137.708	0.179	0.020
-218.596	70.541	0.181	0.186
-217.582	27.623	0.302	0.254
-216.567	400.326	0.083	-0.174
-215.552	-200.000	0.022	0.165
-214.538	501.048	-0.185	0.426
-213.523	167.155	0.042	0.059
-212.509	40.367	0.170	0.153
-211.494	-200.000	-0.033	-0.179
-210.479	800.000	-0.028	0.114
-209.465	102.636	0.331	0.386
-208.450	282.537	-0.160	0.286
-207.436	-200.000	-0.030	0.138
-206.421	800.000	0.059	-0.169
-205.406	-200.000	0.048	0.243
-204.392	-41.263	-0.215	0.110
-203.377	-28.896	0.367	-0.210
-202.363	65.491	-0.034	-0.034
-201.348	-51.204	-0.268	0.125
-200.333	-35.727	0.180	-0.097
-199.319	800.000	0.100	-0.357
-198.304	598.531	0.028	-0.070
-197.290	105.579	-0.154	-0.181
-196.275	-124.053	-0.158	-0.025
-195.260	-0.191	-0.138	-0.098
-194.246	-200.000	-0.005	-0.171
-193.231	74.985	-0.187	-0.196
-192.217	235.593	0.122	0.200
-191.202	-73.159	-0.226	0.083
-190.187	-100.856	0.421	0.103
-189.173	-200.000	-0.101	-0.462
-188.158	65.608	0.000	0.000
-187.144	-2.195	0.071	-0.050
-186.129	116.045	-0.073	0.089
-185.114	-3.245	0.363	-0.252
-184.100	-23.137	0.086	0.052
-183.085	-76.233	-0.098	-0.034
-182.071	800.000	-0.074	0.276
-181.056	131.587	-0.130	-0.166
-180.042	18.782	-0.106	0.084
-179.027	-63.082	-0.155	0.064
-178.012	-200.000	-0.007	-0.191
-176.998	-10.882	-0.020	-0.013
-175.983	174.578	-0.088	0.127
-174.969	-95.085	0.173	-0.047
-173.954	-47.773	0.189	0.091
-172.939	140.145	0.060	0.078
-171.925	-179.622	-0.107	-0.002
-170.910	-104.157	-0.263	-0.061
-169.896	-17.481	-0.129	-0.081
-168.881	344.701	0.052	-0.102
-167.866	359.211	0.070	-0.139
-166.852	800.000	-0.048	0.154
-165.837	-12.964	0.190	0.123
-164.823	-45.518	-0.134	0.066
-163.808	-200.000	-0.005	-0.182
-162.793	-48.974	-0.218	-0.104
-161.779	800.000	-0.100	-0.419
-160.764	-200.000	0.008	-0.160
-159.750	55.987	0.024	-0.023
-158.735	-16.668	0.137	-0.086
-157.720	-23.473	0.186	-0.111
-156.706	-51.741	-0.014	0.006
-155.691	-200.000	0.018	0.246
-154.677	250.435	-0.022	-0.037
-153.662	-89.898	-0.196	-0.057
-152.647	-100.320	-0.149	0.037
-151.633	459.622	-0.104	-0.229
-150.618	800.000	0.043	-0.170
-149.604	-93.652	0.242	0.066
-148.589	-66.592	0.081	0.032
-147.574	4.495	-0.038	0.027
-146.560	418.238	-0.048	0.102
-145.545	-60.607	-0.034	0.014
-144.531	267.361	-0.045	-0.078
-143.516	800.000	-0.125	0.397
-142.502	226.101	-0.055	0.088
-141.487	68.686	0.017	-0.018
-140.472	-200.000	0.014	0.141
-139.458	-200.000	0.000	-0.028
-138.443	-200.000	0.011	0.137
-137.429	800.000	-0.033	0.096
-136.414	-200.000	0.019	0.105
-135.399	-21.088	-0.077	-0.047
-134.385	231.088	0.172	-0.279
-133.370	-48.934	0.264	0.126
-132.356	-47.545	0.272	0.131
-131.341	800.000	0.014	-0.056
-130.326	-156.414	0.112	-0.007
-129.312	94.769	0.179	0.202
-128.297	93.760	0.142	0.160
-127.283	-200.000	-0.003	-0.148
-126.268	244.443	-0.041	-0.069
-125.253	41.795	0.044	-0.040
-124.239	800.000	0.087	0.270
-123.224	340.750	0.158	0.307
-122.210	-55.022	-0.270	0.121
-121.195	52.036	-0.124	-0.118
-120.180	-12.209	0.040	0.026
