DTS Sentinel unit serial number:	SN413079Multiplexer serial number:	ORYXHardware model number:	OX4-SRSoftware version number:	ORYX F/W v4.00 Oryx Data Collector v3.7.2.0data status	okinstallation	princeton_trtdifferential loss correction	single-endedforward channel	channel 1reverse channel	N/Adate	2019/09/15time	06:14:35forward acquisition time	60.00reverse acquisition time	0.00gamma	496.2192k internal	0.2324k external	0.2324temperature offset calibration	0.9998default loss term (dB/km)	0.3790temperature slope calibration	1.0000multiplexer offset coefficient	1.0000multiplexer slope coefficient	1.0000fibre end	0.00T internal ref (°C)	30.55T ext. ref 1 (°C)	4.84T ext. ref 2 (°C)	25.05length (m)	temperature (°C)	Stokes	anti-Stokes-747.200	-200.000	-0.022	-0.190
-746.185	-126.416	-0.358	-0.054
-745.171	148.928	-0.154	0.210
-744.156	-79.315	-0.257	0.088
-743.142	362.454	0.168	-0.340
-742.127	-200.000	0.063	0.321
-741.112	225.854	0.157	0.257
-740.098	102.800	-0.168	0.198
-739.083	-154.250	-0.102	-0.007
-738.069	-200.000	-0.072	0.398
-737.054	-67.754	-0.230	0.091
-736.039	-64.857	-0.251	-0.103
-735.025	41.079	0.284	-0.259
-734.010	458.105	-0.030	-0.068
-732.996	79.152	-0.380	-0.411
-731.981	-200.000	0.017	0.288
-730.966	633.896	0.195	0.500
-729.952	800.000	-0.070	-0.231
-728.937	209.529	0.190	-0.301
-727.923	-19.098	0.026	0.017
-726.908	263.456	-0.079	-0.139
-725.894	-53.676	-0.176	-0.081
-724.879	52.608	-0.401	0.386
-723.864	38.908	-0.067	-0.060
-722.850	-50.659	0.267	-0.127
-721.835	41.175	0.202	0.184
-720.821	-97.093	0.180	0.047
-719.806	-42.922	-0.278	-0.142
-718.791	191.565	-0.130	-0.198
-717.777	-96.632	-0.185	0.049
-716.762	-89.445	0.309	0.092
-715.748	-115.502	0.037	0.007
-714.733	11.920	0.099	0.077
-713.718	86.771	0.183	-0.204
-712.704	-107.159	0.174	-0.039
-711.689	-200.000	-0.021	0.339
-710.675	-113.832	0.391	-0.077
-709.660	-200.000	-0.011	-0.147
-708.645	-80.388	-0.523	-0.176
-707.631	108.653	0.301	-0.362
-706.616	-200.000	0.064	-0.521
-705.602	-34.294	-0.130	0.072
-704.587	2.900	-0.237	0.173
-703.572	-105.545	0.187	0.043
-702.558	-83.901	-0.109	-0.035
-701.543	-169.237	0.143	0.005
-700.529	662.162	-0.024	0.062
-699.514	-200.000	0.007	-0.378
-698.499	-58.177	0.036	-0.016
-697.485	-186.986	-0.216	-0.003
-696.470	-9.354	-0.191	0.129
-695.456	108.910	-0.170	-0.204
-694.441	79.782	-0.243	0.263
-693.426	9.421	0.313	-0.238
-692.412	-200.000	0.028	0.167
-691.397	-46.445	0.159	-0.079
-690.383	-41.387	0.033	0.017
-689.368	-62.330	0.261	-0.110
-688.354	800.000	0.035	-0.110
-687.339	46.775	0.062	-0.058
-686.324	800.000	-0.086	-0.246
-685.310	-200.000	-0.010	-0.247
-684.295	-29.682	-0.059	0.034
-683.281	104.634	0.234	-0.277
-682.266	-84.117	-0.121	-0.039
-681.251	14.587	-0.166	-0.130
-680.237	155.215	0.253	-0.351
-679.222	249.928	0.178	-0.305
-678.208	-200.000	-0.044	0.510
-677.193	-174.360	0.162	0.005
-676.178	-200.000	-0.019	0.169
-675.164	706.641	0.126	0.336
-674.149	-5.311	-0.147	0.102
-673.135	-155.626	-0.143	-0.009
-672.120	184.930	-0.071	-0.106
-671.105	60.730	-0.421	-0.420
-670.091	-26.173	0.058	-0.034
-669.076	186.716	0.236	-0.353
-668.062	80.878	-0.113	-0.122
-667.047	-200.000	0.020	0.093
-666.032	73.705	0.140	-0.148
-665.018	185.393	0.141	-0.210
-664.003	-200.000	-0.008	-0.245
-662.989	36.443	0.175	0.156
-661.974	-77.350	0.300	-0.105
-660.959	800.000	0.050	0.170
-659.945	-200.000	-0.045	-0.403
-658.930	-157.089	-0.258	-0.016
-657.916	-200.000	0.025	0.228
-656.901	156.922	-0.200	-0.279
-655.886	454.013	0.051	0.115
-654.872	-43.591	0.093	-0.047
-653.857	800.000	-0.111	0.349
-652.843	-91.497	-0.355	0.102
-651.828	-90.822	0.078	0.023
-650.814	170.590	-0.162	0.233
-649.799	-44.987	-0.284	0.142
-648.784	131.893	-0.216	-0.279
-647.770	-63.047	-0.205	-0.085
-646.755	618.066	0.168	-0.425
-645.741	-90.191	0.190	-0.056
-644.726	35.315	0.192	-0.170
-643.711	-105.856	0.229	0.052
-642.697	128.934	-0.182	0.233
-641.682	205.691	-0.232	-0.363
-640.668	79.801	-0.171	0.185
-639.653	18.105	0.158	-0.126
-638.638	407.449	0.038	-0.081
-637.624	-200.000	-0.020	0.366
-636.609	-148.859	0.124	0.010
-635.595	-82.333	0.162	-0.053
-634.580	586.823	0.085	-0.210
-633.565	-76.713	-0.100	0.035
-632.551	800.000	0.048	0.185
-631.536	800.000	0.026	-0.089
-630.522	180.798	-0.104	0.153
-629.507	-15.877	0.085	0.054
-628.492	-133.826	-0.097	0.012
-627.478	263.311	0.040	-0.069
-626.463	-73.311	-0.135	-0.050
-625.449	350.049	-0.080	-0.159
-624.434	62.536	-0.134	-0.135
-623.419	303.430	0.152	0.282
-622.405	-45.823	0.130	-0.065
-621.390	-200.000	-0.003	-0.166
-620.376	800.000	0.025	-0.092
-619.361	-51.600	0.153	-0.072
-618.346	217.192	0.081	-0.130
-617.332	-70.094	-0.111	-0.042
-616.317	-200.000	0.013	-0.069
-615.303	63.731	-0.017	-0.017
-614.288	-44.365	-0.245	-0.123
-613.273	-200.000	0.029	-0.163
-612.259	-84.776	0.239	-0.075
-611.244	52.194	0.082	-0.078
-610.230	-200.000	0.008	0.127
-609.215	-200.000	-0.014	-0.264
-608.201	338.166	0.036	-0.070
-607.186	-200.000	-0.008	-0.284
-606.171	9.618	-0.231	-0.176
-605.157	196.780	0.071	-0.109
-604.142	49.992	-0.205	0.194
-603.128	-177.565	-0.460	-0.011
-602.113	-151.472	0.207	0.015
-601.098	-200.000	0.002	-0.463
-600.084	-126.954	0.123	-0.018
-599.069	-97.745	0.060	0.015
-598.055	-34.403	0.083	0.046
-597.040	-42.646	-0.437	0.223
-596.025	45.599	0.150	0.139
-595.011	-200.000	0.028	0.369
-593.996	-200.000	-0.017	0.111
-592.982	-77.771	-0.117	0.041
-591.967	-77.413	-0.156	0.054
-590.952	800.000	-0.068	0.240
-589.938	-19.685	0.027	0.017
-588.923	352.726	0.130	0.258
-587.909	-46.608	-0.111	0.055
-586.894	29.369	0.219	0.187
-585.879	28.875	0.095	0.080
-584.865	3.773	-0.058	-0.042
-583.850	-126.789	-0.159	0.024
-582.836	234.269	-0.042	-0.069
-581.821	-6.413	0.251	-0.171
-580.806	-30.651	0.205	-0.116
-579.792	-115.490	-0.202	0.038
-578.777	73.873	0.079	-0.083
-577.763	800.000	-0.077	0.294
-576.748	800.000	-0.045	0.167
-575.733	-53.463	-0.162	-0.074
-574.719	-75.601	0.154	0.055
-573.704	53.428	-0.098	-0.094
-572.690	70.462	-0.154	-0.160
-571.675	50.776	-0.181	-0.172
-570.661	-147.038	-0.194	0.017
-569.646	69.742	0.229	0.237
-568.631	-141.506	-0.190	-0.019
-567.617	72.660	-0.129	0.135
-566.602	-33.816	0.125	0.069
-565.588	238.831	-0.121	-0.201
-564.573	-79.233	-0.067	0.023
-563.558	148.891	-0.073	0.099
-562.544	11.289	0.125	-0.096
-561.529	-27.405	0.348	0.203
-560.515	-35.814	-0.325	0.176
-559.500	-33.466	-0.376	-0.208
-558.485	-115.888	-0.372	-0.070
-557.471	800.000	0.042	-0.157
-556.456	309.782	0.121	-0.227
-555.442	492.727	-0.106	0.243
-554.427	-116.824	-0.187	-0.034
-553.412	-50.540	-0.114	-0.054
-552.398	233.167	-0.068	0.111
-551.383	-64.455	0.150	0.061
-550.369	-200.000	-0.003	0.091
-549.354	788.988	0.119	0.327
-548.339	-70.088	-0.138	-0.053
-547.325	-200.000	-0.060	0.442
-546.310	800.000	0.105	0.322
-545.296	-137.549	-0.331	0.037
-544.281	800.000	-0.118	-0.433
-543.266	-82.353	-0.204	0.067
-542.252	41.917	0.050	0.046
-541.237	-22.363	0.262	-0.159
-540.223	-142.406	0.095	0.009
-539.208	26.035	-0.128	-0.107
-538.193	-59.046	0.259	0.112
-537.179	800.000	-0.054	-0.155
-536.164	-131.734	-0.112	0.015
-535.150	-147.576	-0.285	0.024
-534.135	-200.000	-0.001	0.283
-533.121	-200.000	-0.063	0.286
-532.106	41.645	-0.031	0.028
-531.091	-139.371	-0.374	0.040
-530.077	-178.285	0.381	0.009
-529.062	-130.876	-0.154	0.021
-528.048	-141.958	-0.148	0.015
-527.033	-47.632	0.312	0.151
-526.018	-200.000	0.007	0.150
-525.004	43.195	-0.375	0.342
-523.989	737.378	0.037	-0.099
-522.975	-149.888	-0.236	-0.018
-521.960	-200.000	-0.032	-0.267
-520.945	-200.000	-0.034	-0.170
-519.931	-100.872	-0.186	0.046
-518.916	-12.791	0.098	0.064
-517.902	185.102	0.116	0.172
-516.887	380.715	-0.013	-0.028
-515.872	-49.152	-0.165	-0.079
-514.858	800.000	-0.035	0.121
-513.843	800.000	0.042	0.151
-512.829	337.518	0.087	-0.169
-511.814	169.570	0.275	-0.392
-510.799	85.853	-0.096	0.106
-509.785	-200.000	-0.003	-0.122
-508.770	-170.892	0.084	-0.003
-507.756	-73.458	0.137	-0.050
-506.741	148.192	-0.119	0.161
-505.726	-91.692	-0.308	-0.087
-504.712	266.060	-0.097	-0.169
-503.697	-200.000	-0.054	-0.265
-502.683	43.196	0.204	0.186
-501.668	-91.505	0.204	0.058
-500.653	-115.880	-0.174	-0.032
-499.639	-14.562	-0.126	-0.081
-498.624	-146.878	0.177	-0.015
-497.610	-111.551	-0.347	0.070
-496.595	800.000	-0.047	-0.135
-495.581	-37.887	-0.287	0.153
-494.566	-42.245	-0.067	0.034
-493.551	-103.356	-0.206	-0.049
-492.537	500.801	-0.110	-0.255
-491.522	-200.000	0.002	0.186
-490.508	165.007	-0.310	0.437
-489.493	-200.000	-0.020	0.166
-488.478	39.652	0.164	0.147
-487.464	-82.842	-0.461	0.149
-486.449	-3.297	-0.179	0.125
-485.435	83.323	-0.109	-0.119
-484.420	-137.105	0.341	0.039
-483.405	236.247	0.144	0.238
-482.391	176.036	0.107	0.155
-481.376	138.338	-0.033	-0.043
-480.362	484.386	-0.122	0.278
-479.347	800.000	-0.019	-0.080
-478.332	-200.000	-0.001	0.250
-477.318	800.000	-0.003	-0.011
-476.303	-200.000	-0.009	-0.071
-475.289	800.000	-0.132	0.373
-474.274	-135.341	0.076	0.009
-473.259	-61.782	0.154	0.064
-472.245	-75.925	-0.261	0.092
-471.230	-174.341	0.308	-0.009
-470.216	16.099	0.194	-0.153
-469.201	88.984	0.072	0.080
-468.186	-25.278	0.282	-0.167
-467.172	169.653	0.118	-0.168
-466.157	-110.404	-0.332	-0.069
-465.143	800.000	0.107	-0.316
-464.128	188.801	-0.191	-0.286
-463.113	-1.620	0.123	0.086
-462.099	14.188	-0.217	-0.169
-461.084	114.384	0.136	-0.165
-460.070	231.749	-0.050	-0.082
-459.055	-102.448	0.359	0.086
-458.040	34.449	0.103	0.090
-457.026	-200.000	-0.016	-0.126
-456.011	44.447	-0.119	-0.109
-454.997	-200.000	0.018	0.094
-453.982	-62.141	0.470	-0.196
-452.968	319.947	-0.043	-0.082
-451.953	-21.555	-0.050	-0.030
-450.938	402.333	0.110	0.230
-449.924	800.000	0.091	0.274
-448.909	644.501	-0.139	-0.353
-447.895	51.695	-0.080	-0.076
-446.880	-107.524	0.104	0.023
-445.865	-70.119	-0.139	0.053
-444.851	-200.000	-0.011	0.232
-443.836	141.876	0.044	0.058
-442.822	800.000	-0.037	0.105
-441.807	-97.667	-0.067	-0.017
-440.792	-132.054	0.039	-0.005
-439.778	-91.411	0.042	-0.012
-438.763	90.308	-0.103	0.115
-437.749	-85.183	-0.228	0.071
-436.734	88.989	0.109	-0.121
-435.719	-147.879	0.190	-0.016
-434.705	-77.146	-0.213	0.074
-433.690	-200.000	-0.001	-0.204
-432.676	316.747	0.155	-0.291
-431.661	285.895	-0.165	-0.296
-430.646	118.331	0.187	-0.230
-429.632	800.000	0.128	-0.426
-428.617	800.000	-0.086	0.288
-427.603	-200.000	-0.001	0.045
-426.588	-126.375	0.252	-0.037
-425.573	0.914	0.139	0.099
-424.559	-98.350	-0.467	-0.119
-423.544	-200.000	-0.003	-0.316
-422.530	-138.065	-0.294	-0.033
-421.515	-73.664	0.171	-0.062
-420.500	-139.031	-0.296	-0.032
-419.486	138.559	0.183	-0.240
-418.471	-69.610	0.054	-0.020
-417.457	800.000	-0.033	-0.124
-416.442	139.212	0.158	0.207
-415.428	175.963	0.090	-0.130
-414.413	800.000	0.155	-0.464
-413.398	167.583	0.129	0.182
-412.384	-200.000	-0.028	-0.210
-411.369	-137.771	-0.313	0.035
-410.355	-21.483	-0.225	-0.137
-409.340	-138.012	-0.188	-0.021
-408.325	11.316	0.128	0.098
-407.311	-200.000	0.035	-0.201
-406.296	-200.000	-0.008	-0.186
-405.282	-58.999	0.260	0.112
-404.267	-200.000	-0.004	-0.127
-403.252	135.441	-0.082	-0.106
-402.238	800.000	-0.004	0.011
-401.223	-113.013	0.232	0.046
-400.209	-116.081	0.168	-0.031
-399.194	-117.897	-0.035	-0.006
-398.179	116.472	-0.169	-0.206
-397.165	3.544	0.311	-0.226
-396.150	-200.000	0.029	-0.165
-395.136	-48.473	0.175	-0.084
-394.121	-85.683	-0.279	0.086
-393.106	97.731	-0.107	0.122
-392.092	110.475	0.198	-0.237
-391.077	-66.125	-0.165	0.065
-390.063	465.807	-0.213	0.474
-389.048	-38.987	0.273	-0.143
-388.033	44.576	0.173	0.158
-387.019	-200.000	0.018	-0.155
-386.004	-200.000	-0.015	0.070
-384.990	347.944	-0.016	-0.032
-383.975	-185.319	0.240	-0.004
-382.960	800.000	-0.013	-0.048
-381.946	-200.000	0.002	0.088
-380.931	800.000	-0.081	-0.240
-379.917	48.787	0.217	0.202
-378.902	-80.219	0.173	0.058
-377.888	275.545	-0.169	-0.298
-376.873	800.000	-0.077	-0.221
-375.858	-105.151	-0.341	0.077
-374.844	-7.905	0.173	-0.116
-373.829	800.000	-0.106	-0.375
-372.815	-72.892	-0.280	0.102
-371.800	-28.128	-0.242	-0.139
-370.785	-67.215	-0.252	0.099
-369.771	-200.000	0.041	-0.208
-368.756	510.901	-0.108	0.251
-367.742	7.420	0.178	0.132
-366.727	566.114	-0.050	-0.120
-365.712	618.933	0.085	0.212
-364.698	800.000	0.055	0.205
-363.683	-34.328	0.310	-0.169
-362.669	197.463	0.114	0.173
-361.654	800.000	0.075	0.217
-360.639	800.000	0.046	0.185
-359.625	-163.464	0.469	0.022
-358.610	-84.778	-0.042	0.013
-357.596	570.198	0.050	0.121
-356.581	-76.713	0.407	-0.142
-355.566	800.000	0.022	0.084
-354.552	-27.616	0.254	-0.147
-353.537	-66.302	0.169	0.067
-352.523	-107.507	0.067	-0.015
-351.508	-200.000	0.011	-0.220
-350.493	800.000	0.100	0.283
-349.479	-200.000	-0.013	0.233
-348.464	145.259	0.097	-0.129
-347.450	101.967	-0.127	0.147
-346.435	-144.919	-0.181	0.016
-345.420	733.252	-0.100	0.266
-344.406	154.250	-0.113	0.154
-343.391	-200.000	-0.016	0.096
-342.377	66.563	0.250	0.252
-341.362	35.963	0.302	0.264
-340.348	800.000	0.102	-0.320
-339.333	221.932	0.108	-0.172
-338.318	33.225	-0.053	0.045
-337.304	-146.186	-0.216	-0.019
-336.289	282.093	0.114	0.204
-335.275	-200.000	-0.003	0.019
-334.260	-200.000	0.019	-0.196
-333.245	-107.888	-0.078	-0.017
-332.231	106.586	0.201	-0.237
-331.216	-98.825	-0.146	-0.037
-330.202	-200.000	-0.005	0.091
-329.187	-200.000	0.011	-0.253
-328.172	-22.008	-0.064	-0.039
-327.158	-200.000	-0.004	-0.318
-326.143	98.659	-0.169	-0.194
-325.129	87.170	-0.259	-0.284
-324.114	-113.422	-0.187	-0.036
-323.099	-137.239	0.223	0.025
-322.085	18.050	0.234	-0.185
-321.070	326.357	0.102	-0.194
-320.056	-130.484	-0.049	-0.007
-319.041	23.079	-0.225	0.183
-318.026	4.685	0.176	0.128
-317.012	-4.686	-0.270	0.185
-315.997	20.912	0.219	0.176
-314.983	255.739	0.082	0.140
-313.968	545.704	-0.117	0.278
-312.953	-191.776	-0.247	0.002
-311.939	-145.012	0.164	0.015
-310.924	-23.641	0.268	-0.160
-309.910	800.000	0.054	-0.170
-308.895	124.937	-0.047	-0.059
-307.880	-200.000	-0.027	0.151
-306.866	31.537	-0.006	0.005
-305.851	-163.042	-0.177	-0.009
-304.837	-200.000	-0.052	0.349
-303.822	-48.325	0.095	0.045
-302.807	-38.319	-0.116	0.061
-301.793	-109.455	0.081	0.017
-300.778	-138.861	0.413	0.045
-299.764	8.659	0.050	0.038
-298.749	303.705	0.055	-0.101
-297.735	477.300	0.035	-0.079
-296.720	800.000	0.025	0.094
-295.705	62.814	-0.240	-0.238
-294.691	-200.000	0.005	0.163
-293.676	110.070	-0.202	-0.240
-292.662	-200.000	0.005	0.083
-291.647	-72.279	0.547	-0.201
-290.632	113.641	-0.033	-0.040
-289.618	-63.182	-0.160	-0.065
-288.603	-200.000	0.014	-0.159
-287.589	-76.158	-0.418	-0.146
-286.574	-50.490	-0.386	-0.180
-285.559	-35.417	0.066	0.035
-284.545	152.409	0.096	-0.131
-283.530	-200.000	-0.004	0.309
-282.516	-200.000	0.026	-0.199
-281.501	-200.000	0.031	0.182
-280.486	800.000	-0.086	-0.247
-279.472	-200.000	0.006	-0.145
-278.457	800.000	-0.035	0.122
-277.443	-109.576	-0.284	-0.059
-276.428	-64.572	-0.280	0.113
-275.413	40.078	0.172	0.153
-274.399	-88.084	-0.215	-0.064
-273.384	65.153	-0.048	-0.048
-272.370	-167.385	-0.131	0.005
-271.355	244.953	-0.095	-0.158
-270.340	148.592	-0.254	-0.340
-269.326	-162.691	0.386	-0.019
-268.311	142.047	0.210	0.276
-267.297	-191.488	0.138	-0.001
-266.282	-41.642	0.143	-0.073
-265.267	-200.000	0.010	-0.203
-264.253	800.000	-0.104	0.376
-263.238	-25.035	-0.306	0.180
-262.224	38.636	0.319	-0.282
-261.209	-50.641	0.140	-0.065
-260.195	45.250	-0.256	-0.233
-259.180	731.297	0.065	0.173
-258.165	-200.000	0.057	0.259
-257.151	-52.564	-0.193	-0.088
-256.136	-163.779	0.257	0.012
-255.122	-51.186	-0.306	-0.142
-254.107	176.065	0.076	0.110
-253.092	-132.250	0.174	-0.022
-252.078	345.394	0.022	0.043
-251.063	-112.139	-0.213	0.042
-250.049	-26.268	0.217	0.126
-249.034	61.728	0.182	0.180
-248.019	-200.000	-0.062	0.326
-247.005	-200.000	-0.034	-0.343
-245.990	800.000	-0.051	0.154
-244.976	192.614	-0.024	-0.036
-243.961	302.691	-0.087	0.159
-242.946	57.622	0.231	0.224
-241.932	28.900	0.113	0.095
-240.917	-145.033	-0.141	0.013
-239.903	4.419	-0.199	-0.144
-238.888	-185.286	0.337	0.005
-237.873	-107.131	-0.049	-0.011
-236.859	-113.822	-0.268	-0.052
-235.844	-148.286	0.094	-0.008
-234.830	126.198	0.097	0.122
-233.815	800.000	0.075	0.252
-232.800	-83.708	0.130	0.041
-231.786	-157.802	-0.354	-0.021
-230.771	-115.768	0.265	-0.049
-229.757	-200.000	0.027	0.225
-228.742	5.480	-0.040	-0.029
-227.727	800.000	0.066	0.286
-226.713	229.075	-0.134	0.216
-225.698	84.525	0.084	-0.091
-224.684	800.000	0.078	0.328
-223.669	43.801	-0.043	0.039
-222.655	422.825	0.135	-0.287
-221.640	-129.333	0.142	-0.020
-220.625	-200.000	0.029	0.394
-219.611	83.604	0.165	0.178
-218.596	-20.183	0.059	-0.036
-217.582	-132.334	0.356	0.046
-216.567	-54.644	-0.179	0.080
-215.552	-92.236	0.097	-0.027
-214.538	-200.000	-0.017	-0.142
-213.523	-51.279	0.043	0.020
-212.509	-114.481	0.284	-0.054
-211.494	-44.972	0.074	0.037
-210.479	28.647	-0.026	0.022
-209.465	-16.073	-0.122	-0.077
-208.450	208.868	0.109	-0.168
-207.436	446.838	-0.096	-0.208
-206.421	-200.000	-0.016	-0.242
-205.406	128.547	0.118	-0.149
-204.392	263.689	0.133	-0.229
-203.377	-79.134	0.136	-0.046
-202.363	92.778	0.047	0.052
-201.348	-87.846	-0.153	-0.045
-200.333	-188.408	0.093	0.001
-199.319	90.221	-0.192	0.212
-198.304	-200.000	0.032	0.382
-197.290	-200.000	-0.005	0.183
-196.275	-200.000	-0.014	0.198
-195.260	-189.940	0.170	-0.002
-194.246	-60.310	0.092	-0.039
-193.231	78.829	-0.196	-0.207
-192.217	800.000	0.102	0.427
-191.202	-200.000	-0.010	-0.103
-190.187	55.120	-0.103	-0.098
-189.173	-200.000	0.006	0.137
-188.158	-149.812	-0.215	-0.017
-187.144	-200.000	0.001	-0.323
-186.129	6.186	-0.117	0.085
-185.114	-26.893	-0.174	0.100
-184.100	800.000	0.026	0.105
-183.085	126.871	0.223	-0.279
-182.071	800.000	-0.023	-0.074
-181.056	-200.000	-0.002	0.450
-180.042	9.966	-0.339	-0.254
-179.027	-155.667	-0.141	0.009
-178.012	-111.908	0.244	0.049
-176.998	61.442	0.231	-0.227
-175.983	557.491	-0.092	0.219
-174.969	450.358	-0.063	0.137
-173.954	493.491	-0.082	-0.186
-172.939	-70.567	0.198	0.074
-171.925	-139.263	0.163	-0.017
-170.910	-63.556	0.250	-0.101
-169.896	800.000	0.069	-0.252
-168.881	225.224	0.077	-0.124
-167.866	-145.680	-0.146	0.013
-166.852	41.139	0.097	-0.086
-165.837	-29.765	0.059	0.033
-164.823	93.944	0.226	0.253
-163.808	-200.000	-0.017	-0.181
-162.793	398.580	-0.037	-0.076
-161.779	462.859	0.051	0.112
-160.764	-165.236	0.187	-0.008
-159.750	-76.721	0.305	0.105
-158.735	436.532	0.111	-0.238
-157.720	523.585	-0.116	0.268
-156.706	-200.000	0.027	0.127
-155.691	-100.920	0.108	0.026
-154.677	22.286	-0.312	0.251
-153.662	-50.602	-0.301	-0.140
-152.647	7.327	0.265	0.195
-151.633	169.095	0.321	0.452
-150.618	-44.162	-0.235	-0.116
-149.604	-200.000	-0.014	0.070
-148.589	-200.000	0.032	0.300
-147.574	21.363	0.211	0.169
-146.560	800.000	-0.046	0.165
-145.545	-9.500	-0.401	0.264
-144.531	800.000	0.032	-0.130
-143.516	169.502	0.109	-0.153
-142.502	-167.084	-0.160	0.006
-141.487	764.804	0.090	-0.242
-140.472	-200.000	-0.039	-0.228
-139.458	219.899	-0.068	0.107
-138.443	-200.000	0.029	0.178
-137.429	-146.514	0.184	-0.016
-136.414	-66.622	0.085	-0.033
-135.399	-200.000	-0.026	0.128
-134.385	-16.044	-0.217	-0.136
-133.370	-48.763	0.355	-0.168
-132.356	80.954	0.150	0.159
-131.341	179.121	-0.045	0.065
-130.326	0.868	-0.048	-0.034
-129.312	68.439	-0.147	0.148
-128.297	-142.720	0.081	0.008
-127.283	257.159	0.010	-0.017
-126.268	-166.819	0.286	0.012
-125.253	-104.220	0.100	-0.023
-124.239	166.711	-0.198	0.276
-123.224	-159.594	0.188	-0.010
-122.210	368.261	-0.177	0.353
