DTS Sentinel unit serial number:	SN413079Multiplexer serial number:	ORYXHardware model number:	OX4-SRSoftware version number:	ORYX F/W v4.00 Oryx Data Collector v3.7.2.0data status	okinstallation	princeton_trtdifferential loss correction	single-endedforward channel	channel 1reverse channel	N/Adate	2019/09/16time	23:26:35forward acquisition time	60.00reverse acquisition time	0.00gamma	496.2192k internal	0.2326k external	0.2326temperature offset calibration	0.9958default loss term (dB/km)	0.3790temperature slope calibration	1.0000multiplexer offset coefficient	1.0000multiplexer slope coefficient	1.0000fibre end	0.00T internal ref (°C)	29.94T ext. ref 1 (°C)	0.09T ext. ref 2 (°C)	23.56length (m)	temperature (°C)	Stokes	anti-Stokes-747.200	-101.803	0.198	0.048
-746.185	167.187	-0.126	0.181
-745.171	-79.306	-0.213	-0.073
-744.156	-200.000	-0.004	0.289
-743.142	-141.216	0.363	-0.037
-742.127	800.000	-0.082	0.334
-741.112	99.853	0.327	0.382
-740.098	-64.139	-0.161	-0.066
-739.083	8.149	0.165	0.125
-738.069	-65.413	-0.059	0.024
-737.054	-72.257	0.315	-0.118
-736.039	303.258	-0.171	-0.320
-735.025	-109.956	-0.167	-0.035
-734.010	-200.000	-0.032	-0.293
-732.996	800.000	-0.073	0.296
-731.981	32.132	0.301	-0.262
-730.966	-200.000	-0.011	0.171
-729.952	96.962	-0.117	0.136
-728.937	16.705	0.252	0.201
-727.923	-116.813	-0.281	0.052
-726.908	63.287	0.202	-0.204
-725.894	561.801	0.092	-0.225
-724.879	-51.390	-0.258	-0.122
-723.864	800.000	0.127	-0.390
-722.850	58.995	-0.148	-0.147
-721.835	-3.851	-0.095	-0.066
-720.821	-67.830	0.270	0.107
-719.806	-107.894	-0.150	-0.033
-718.791	-200.000	-0.545	-0.001
-717.777	-200.000	-0.034	-0.227
-716.762	-200.000	0.027	-0.245
-715.748	-126.041	0.127	-0.019
-714.733	-70.565	0.146	0.056
-713.718	-61.784	-0.224	-0.095
-712.704	749.958	-0.074	-0.201
-711.689	-60.902	-0.176	0.075
-710.675	-200.000	-0.052	0.297
-709.660	-200.000	0.048	-0.421
-708.645	800.000	-0.139	-0.456
-707.631	-200.000	0.013	-0.173
-706.616	-100.847	0.183	-0.045
-705.602	-200.000	-0.051	-0.292
-704.587	214.422	-0.156	-0.249
-703.572	407.674	0.081	-0.172
-702.558	-113.224	0.154	-0.031
-701.543	-200.000	0.014	-0.112
-700.529	-200.000	0.015	0.152
-699.514	-181.617	-0.400	-0.008
-698.499	246.041	-0.060	0.101
-697.485	800.000	-0.028	0.114
-696.470	-176.219	0.153	0.004
-695.456	83.011	0.157	0.172
-694.441	95.536	-0.099	-0.113
-693.426	-9.784	0.084	-0.056
-692.412	-197.740	-0.142	-0.001
-691.397	800.000	-0.053	0.189
-690.383	-151.178	-0.266	-0.020
-689.368	800.000	0.056	0.193
-688.354	800.000	-0.044	-0.126
-687.339	-82.901	0.106	0.035
-686.324	-88.710	-0.189	-0.056
-685.310	60.986	-0.214	0.214
-684.295	-32.688	-0.360	0.202
-683.281	-200.000	0.061	0.347
-682.266	800.000	-0.025	0.094
-681.251	52.838	-0.294	-0.283
-680.237	84.448	-0.170	-0.187
-679.222	-164.606	-0.321	0.015
-678.208	-149.044	0.090	0.007
-677.193	-101.380	0.312	0.077
-676.178	-36.853	-0.176	-0.095
-675.164	426.027	0.095	0.206
-674.149	448.217	0.027	0.060
-673.135	-172.165	-0.039	0.001
-672.120	-139.090	0.396	0.043
-671.105	-200.000	-0.010	0.426
-670.091	54.869	-0.175	0.170
-669.076	352.996	-0.065	0.130
-668.062	-50.937	0.369	0.174
-667.047	478.851	0.060	-0.137
-666.032	-41.279	0.116	0.060
-665.018	-136.799	-0.157	-0.018
-664.003	163.958	0.047	0.067
-662.989	58.934	0.226	-0.224
-661.974	174.960	-0.150	0.218
-660.959	280.905	-0.133	-0.240
-659.945	21.508	-0.348	-0.284
-658.930	-125.362	0.096	0.015
-657.916	-38.707	0.299	0.158
-656.901	19.423	-0.141	-0.114
-655.886	389.287	-0.059	-0.123
-654.872	-53.374	0.128	-0.059
-653.857	-57.351	0.199	0.088
-652.843	-119.420	0.207	0.036
-651.828	-200.000	-0.025	-0.232
-650.814	571.220	-0.072	0.176
-649.799	-200.000	-0.012	-0.183
-648.784	140.636	0.158	0.210
-647.770	321.527	0.159	0.305
-646.755	-78.640	0.092	0.032
-645.741	-6.129	-0.138	0.095
-644.726	-59.485	-0.114	0.049
-643.711	196.677	0.201	-0.308
-642.697	-115.522	-0.262	0.050
-641.682	175.672	0.115	0.167
-640.668	360.070	0.030	0.061
-639.653	-56.236	0.329	0.147
-638.638	-168.569	-0.173	0.007
-637.624	210.988	0.090	-0.142
-636.609	-8.053	-0.232	0.157
-635.595	-61.235	-0.174	0.074
-634.580	-91.320	-0.105	-0.030
-633.565	261.052	-0.073	-0.126
-632.551	-53.372	0.098	-0.045
-631.536	-10.458	0.108	0.072
-630.522	-200.000	-0.045	-0.524
-629.507	-59.757	-0.147	-0.063
-628.492	-120.637	-0.080	-0.014
-627.478	58.587	0.119	0.118
-626.463	800.000	0.063	-0.229
-625.449	800.000	-0.061	-0.206
-624.434	11.503	-0.193	0.148
-623.419	210.507	-0.211	-0.333
-622.405	441.301	0.252	-0.554
-621.390	-104.025	-0.328	-0.077
-620.376	-200.000	0.016	-0.136
-619.361	-200.000	-0.041	-0.311
-618.346	-200.000	0.039	-0.258
-617.332	-70.173	-0.181	0.069
-616.317	-145.531	-0.365	-0.033
-615.303	-100.293	0.357	0.089
-614.288	752.115	0.085	-0.231
-613.273	-38.340	-0.162	-0.086
-612.259	-200.000	-0.012	-0.343
-611.244	-19.254	-0.225	-0.140
-610.230	-103.665	0.264	-0.062
-609.215	-99.314	-0.211	0.053
-608.201	-51.213	-0.421	0.198
-607.186	-10.415	0.170	0.113
-606.171	-13.361	-0.321	0.209
-605.157	-71.267	-0.231	0.087
-604.142	43.887	0.079	0.073
-603.128	308.044	0.174	-0.325
-602.113	-54.817	0.166	0.075
-601.098	-200.000	0.011	-0.202
-600.084	157.863	0.194	-0.269
-599.069	19.344	-0.279	-0.225
-598.055	-200.000	-0.042	0.221
-597.040	-200.000	0.018	0.177
-596.025	38.871	-0.326	0.292
-595.011	210.967	0.169	0.267
-593.996	800.000	-0.145	0.419
-592.982	-137.932	0.064	-0.007
-591.967	-15.230	-0.186	-0.119
-590.952	403.611	-0.013	-0.028
-589.938	71.879	-0.129	-0.135
-588.923	800.000	-0.028	-0.108
-587.909	169.256	0.262	0.374
-586.894	291.745	-0.092	-0.167
-585.879	-124.662	-0.334	0.052
-584.865	153.776	-0.237	-0.326
-583.850	10.138	-0.080	0.061
-582.836	800.000	0.049	0.146
-581.821	-84.638	0.108	-0.034
-580.806	-143.841	0.185	-0.018
-579.792	-200.000	-0.012	-0.207
-578.777	138.660	-0.081	-0.107
-577.763	-200.000	-0.022	0.179
-576.748	-124.104	-0.051	-0.008
-575.733	-150.989	-0.313	-0.024
-574.719	8.168	-0.092	0.069
-573.704	84.895	0.094	-0.103
-572.690	800.000	-0.070	0.302
-571.675	-135.795	-0.154	-0.018
-570.661	-112.313	-0.008	0.002
-569.646	613.028	0.104	0.260
-568.631	800.000	0.088	0.293
-567.617	-56.007	0.293	-0.131
-566.602	158.238	-0.211	-0.293
-565.588	115.778	-0.099	-0.121
-564.573	-123.660	0.170	-0.027
-563.558	-57.493	0.245	0.108
-562.544	800.000	-0.028	0.089
-561.529	-200.000	-0.010	0.333
-560.515	-200.000	-0.006	-0.120
-559.500	-127.000	0.187	0.028
-558.485	-140.019	-0.251	0.026
-557.471	-26.987	-0.252	0.147
-556.456	-200.000	0.009	-0.081
-555.442	189.583	0.108	0.163
-554.427	800.000	0.087	-0.271
-553.412	-200.000	0.026	0.146
-552.398	753.502	-0.027	0.074
-551.383	57.450	-0.160	-0.156
-550.369	-153.208	-0.210	-0.015
-549.354	45.960	0.079	-0.073
-548.339	-116.448	0.367	-0.068
-547.325	-43.863	-0.255	-0.128
-546.310	-17.748	0.165	0.104
-545.296	-103.325	-0.473	0.112
-544.281	479.013	-0.022	-0.049
-543.266	677.979	0.008	0.020
-542.252	800.000	-0.075	-0.301
-541.237	-48.669	-0.106	-0.051
-540.223	399.658	0.021	-0.044
-539.208	-116.046	-0.331	0.062
-538.193	47.473	-0.134	-0.125
-537.179	64.499	-0.162	-0.163
-536.164	-200.000	0.006	-0.030
-535.150	-30.066	-0.232	-0.132
-534.135	476.531	-0.101	-0.229
-533.121	277.167	-0.143	0.255
-532.106	-83.848	-0.278	0.089
-531.091	-96.939	0.179	-0.047
-530.077	-84.301	-0.276	-0.087
-529.062	171.396	-0.087	0.125
-528.048	-15.143	-0.077	0.049
-527.033	-153.595	-0.283	0.020
-526.018	-142.354	-0.129	-0.013
-525.004	-109.859	0.527	-0.111
-523.989	655.049	0.074	-0.190
-522.975	69.715	-0.122	0.126
-521.960	394.973	0.070	-0.145
-520.945	197.116	0.170	0.260
-519.931	800.000	-0.055	0.175
-518.916	164.962	0.242	0.341
-517.902	-200.000	0.007	-0.168
-516.887	800.000	-0.080	0.346
-515.872	-107.801	-0.262	-0.057
-514.858	-84.676	-0.227	0.072
-513.843	-110.452	0.164	0.034
-512.829	800.000	-0.091	0.289
-511.814	238.901	-0.287	-0.477
-510.799	-26.913	0.288	-0.168
-509.785	-188.657	-0.131	-0.002
-508.770	-200.000	0.029	-0.272
-507.756	-4.341	0.250	-0.173
-506.741	-7.152	-0.188	-0.128
-505.726	15.009	-0.174	0.136
-504.712	800.000	-0.066	-0.237
-503.697	-184.295	-0.460	-0.008
-502.683	61.657	0.142	0.141
-501.668	800.000	0.073	0.259
-500.653	-119.024	0.111	0.019
-499.639	-21.908	-0.193	0.117
-498.624	28.608	-0.046	-0.039
-497.610	-200.000	0.039	-0.233
-496.595	-200.000	0.001	0.127
-495.581	-200.000	0.040	0.331
-494.566	-200.000	-0.002	0.194
-493.551	649.386	0.092	-0.235
-492.537	-175.319	0.084	0.002
-491.522	-68.943	-0.403	-0.155
-490.508	169.793	-0.168	-0.240
-489.493	259.795	0.059	0.101
-488.478	107.896	-0.151	0.180
-487.464	-181.988	0.164	-0.003
-486.449	-163.230	-0.271	-0.013
-485.435	-200.000	0.021	0.341
-484.420	323.982	0.036	-0.069
-483.405	-127.229	-0.107	0.016
-482.391	-14.413	-0.446	0.286
-481.376	-57.720	0.177	0.078
-480.362	-97.579	-0.439	-0.114
-479.347	-200.000	0.044	0.226
-478.332	-149.816	0.339	0.027
-477.318	-15.530	-0.259	-0.165
-476.303	-116.933	0.308	-0.056
-475.289	-163.973	0.167	0.008
-474.274	-105.194	-0.101	0.023
-473.259	-18.479	0.066	-0.041
-472.245	47.121	-0.216	-0.201
-471.230	670.992	-0.064	0.166
-470.216	-110.885	0.460	-0.094
-469.201	18.578	-0.185	0.148
-468.186	-83.147	0.181	-0.058
-467.172	242.769	0.192	-0.322
-466.157	-124.811	0.211	-0.032
-465.143	-7.311	-0.102	0.069
-464.128	-116.054	0.254	-0.047
-463.113	-84.556	-0.195	0.061
-462.099	-44.368	0.339	0.169
-461.084	122.191	-0.145	-0.181
-460.070	106.187	0.073	-0.087
-459.055	280.604	0.010	-0.017
-458.040	-77.462	0.189	-0.065
-457.026	106.568	0.202	0.239
-456.011	76.689	-0.180	-0.190
-454.997	23.495	-0.258	0.211
-453.982	-200.000	-0.014	-0.134
-452.968	58.961	-0.090	-0.088
-451.953	45.393	-0.098	-0.091
-450.938	-55.711	0.623	0.278
-449.924	-4.705	-0.227	0.156
-448.909	-200.000	0.159	0.000
-447.895	5.035	0.153	-0.112
-446.880	-5.166	-0.165	-0.113
-445.865	-117.285	-0.137	0.025
-444.851	38.929	0.006	-0.006
-443.836	136.464	0.108	-0.141
-442.822	800.000	0.032	-0.101
-441.807	-141.523	0.408	0.041
-440.792	-119.150	-0.396	0.069
-439.778	-74.617	0.165	0.059
-438.763	-25.367	-0.127	0.075
-437.749	-200.000	0.023	-0.458
-436.734	-200.000	-0.011	0.223
-435.719	-10.959	0.016	-0.011
-434.705	200.644	0.147	0.226
-433.690	800.000	0.024	-0.102
-432.676	-200.000	-0.038	-0.248
-431.661	-5.657	-0.238	-0.163
-430.646	81.255	0.022	-0.024
-429.632	176.691	-0.162	-0.235
-428.617	772.320	-0.088	-0.239
-427.603	800.000	-0.063	-0.265
-426.588	129.015	-0.113	-0.144
-425.573	-200.000	-0.023	-0.136
-424.559	-92.189	0.281	0.079
-423.544	196.461	-0.172	-0.262
-422.530	144.329	0.127	-0.169
-421.515	800.000	-0.038	-0.153
-420.500	103.418	0.214	-0.250
-419.486	32.184	-0.005	0.004
-418.471	68.496	-0.082	0.084
-417.457	311.134	0.063	-0.118
-416.442	-59.731	0.192	-0.082
-415.428	183.794	-0.110	0.162
-414.413	55.028	-0.220	0.211
-413.398	800.000	0.060	0.231
-412.384	103.402	0.120	-0.140
-411.369	429.083	0.028	-0.061
-410.355	201.142	-0.085	-0.131
-409.340	-98.286	0.364	-0.093
-408.325	-18.967	0.182	0.113
-407.311	-152.304	-0.117	0.008
-406.296	-88.585	0.256	0.076
-405.282	-200.000	-0.018	0.100
-404.267	-3.210	0.161	0.112
-403.252	243.198	0.035	0.059
-402.238	386.872	0.087	-0.178
-401.223	21.351	0.084	0.068
-400.209	-35.080	0.070	0.038
-399.194	352.648	-0.195	0.385
-398.179	-30.139	-0.393	0.223
-397.165	-24.566	0.239	0.142
-396.150	-200.000	0.087	0.381
-395.136	502.719	-0.106	-0.245
-394.121	120.988	0.190	0.235
-393.106	227.926	-0.050	-0.082
-392.092	-119.834	-0.398	-0.068
-391.077	-200.000	0.023	-0.142
-390.063	-18.515	-0.135	0.084
-389.048	-70.143	0.243	0.092
-388.033	800.000	0.090	0.303
-387.019	201.277	-0.088	-0.134
-386.004	180.875	-0.144	-0.211
-384.990	16.903	0.387	-0.305
-383.975	-99.259	-0.350	0.088
-382.960	-200.000	-0.040	0.312
-381.946	105.171	-0.149	0.175
-380.931	141.227	0.152	-0.200
-379.917	-133.811	0.234	-0.029
-378.902	-112.781	0.083	0.016
-377.888	334.116	0.025	0.049
-376.873	800.000	-0.033	-0.138
-375.858	40.463	0.118	0.106
-374.844	-148.613	-0.164	0.013
-373.829	255.832	-0.189	-0.322
-372.815	800.000	-0.070	-0.227
-371.800	177.015	-0.200	-0.289
-370.785	-200.000	0.172	-0.001
-369.771	-101.926	0.353	0.085
-368.756	144.385	0.144	0.191
-367.742	-47.593	0.278	0.134
-366.727	800.000	-0.132	-0.411
-365.712	-99.145	-0.177	-0.044
-364.698	280.158	-0.076	-0.136
-363.683	800.000	-0.067	-0.262
-362.669	-18.702	-0.128	-0.079
-361.654	800.000	0.079	0.251
-360.639	-21.026	-0.227	0.138
-359.625	800.000	0.079	0.229
-358.610	-39.139	-0.248	0.130
-357.596	-152.441	0.115	0.008
-356.581	-200.000	0.086	0.469
-355.566	-29.935	0.119	0.067
-354.552	-30.657	-0.356	0.200
-353.537	22.233	-0.279	-0.227
-352.523	-121.403	0.092	-0.015
-351.508	141.878	0.120	-0.158
-350.493	-10.116	-0.196	0.129
-349.479	-131.913	0.098	0.013
-348.464	-49.009	0.206	-0.098
-347.450	-132.540	0.136	-0.017
-346.435	203.320	-0.008	-0.013
-345.420	115.372	0.108	-0.131
-344.406	211.415	-0.222	0.346
-343.391	-200.000	0.016	-0.140
-342.377	166.994	-0.088	0.124
-341.362	536.442	0.139	0.329
-340.348	-197.619	0.207	-0.001
-339.333	121.868	0.191	0.236
-338.318	16.639	0.089	-0.070
-337.304	6.507	0.254	-0.187
-336.289	800.000	-0.102	-0.310
-335.275	18.910	0.191	-0.152
-334.260	-200.000	0.057	0.411
-333.245	-200.000	-0.013	-0.091
-332.231	75.402	0.112	-0.118
-331.216	147.971	0.259	-0.347
-330.202	2.166	-0.346	-0.248
-329.187	708.839	-0.017	0.044
-328.172	-200.000	-0.014	0.140
-327.158	511.786	-0.112	0.260
-326.143	-109.036	-0.307	-0.065
-325.129	71.824	-0.189	-0.195
-324.114	355.090	-0.107	0.212
-323.099	-200.000	-0.059	0.316
-322.085	-14.771	0.312	0.199
-321.070	77.264	-0.102	0.107
-320.056	-166.972	0.342	0.014
-319.041	111.710	0.188	-0.226
-318.026	28.183	-0.310	0.259
-317.012	-155.159	0.415	0.027
-315.997	522.918	0.103	0.241
-314.983	82.867	0.088	0.095
-313.968	-52.870	-0.223	-0.102
-312.953	-200.000	0.026	-0.290
-311.939	562.349	0.105	0.251
-310.924	283.038	0.033	-0.058
-309.910	-200.000	0.029	-0.217
-308.895	-109.831	-0.193	0.040
-307.880	-151.511	0.165	0.012
-306.866	-168.441	0.126	0.005
-305.851	-200.000	-0.032	-0.235
-304.837	800.000	0.045	-0.163
-303.822	-181.952	0.122	0.002
-302.807	-200.000	0.012	0.101
-301.793	-5.012	-0.142	0.097
-300.778	11.863	-0.179	-0.136
-299.764	588.897	0.206	-0.504
-298.749	-200.000	0.062	-0.337
-297.735	-89.261	0.077	-0.023
-296.720	202.400	0.024	0.037
-295.705	-60.594	0.285	0.120
-294.691	297.487	0.233	0.424
-293.676	-162.951	-0.446	-0.021
-292.662	-200.000	0.025	-0.158
-291.647	2.299	0.167	0.120
-290.632	259.543	-0.086	0.146
-289.618	-56.593	0.207	0.091
-288.603	-200.000	0.040	0.202
-287.589	41.474	0.180	-0.162
-286.574	-200.000	0.021	-0.130
-285.559	-200.000	-0.058	-0.337
-284.545	130.493	-0.153	0.194
-283.530	-200.000	-0.002	-0.302
-282.516	800.000	-0.103	0.375
-281.501	291.815	0.152	-0.274
-280.486	-107.008	0.213	0.047
-279.472	-136.340	0.252	0.029
-278.457	674.303	0.080	-0.206
-277.443	-147.503	-0.163	-0.014
-276.428	-122.348	0.140	0.023
-275.413	252.639	-0.103	0.173
-274.399	-200.000	0.040	-0.265
-273.384	-200.000	0.042	0.192
-272.370	25.718	0.210	0.173
-271.355	800.000	-0.048	-0.174
-270.340	-71.629	-0.251	0.093
-269.326	-28.403	0.248	0.142
-268.311	401.125	0.124	0.257
-267.297	-139.557	0.120	0.013
-266.282	800.000	-0.062	0.238
-265.267	-78.732	0.182	-0.062
-264.253	62.888	0.026	-0.026
-263.238	13.837	0.168	0.129
-262.224	-200.000	-0.025	-0.251
-261.209	-200.000	0.009	0.299
-260.195	63.539	0.171	-0.170
-259.180	-79.744	-0.532	-0.177
-258.165	6.875	0.188	0.138
-257.151	55.868	0.178	0.170
-256.136	800.000	-0.028	-0.096
-255.122	-120.299	0.353	-0.059
-254.107	271.228	-0.025	0.043
-253.092	-26.055	-0.312	-0.182
-252.078	800.000	0.056	-0.176
-251.063	477.784	0.057	-0.128
-250.049	159.859	0.251	0.346
-249.034	-200.000	0.258	0.000
-248.019	-11.749	0.137	0.089
-247.005	800.000	-0.029	0.082
-245.990	120.922	0.133	0.164
-244.976	-200.000	0.011	-0.225
-243.961	-22.615	0.104	0.062
-242.946	0.535	0.191	0.135
-241.932	554.679	-0.041	-0.097
-240.917	-87.329	0.174	0.052
-239.903	305.844	-0.115	0.212
-238.888	800.000	0.150	-0.474
-237.873	-140.240	-0.223	-0.023
-236.859	-118.017	-0.145	0.026
-235.844	-109.553	-0.374	0.078
-234.830	113.197	0.167	0.200
-233.815	366.754	0.057	0.113
-232.800	-103.232	0.286	0.067
-231.786	-128.890	-0.182	0.025
-230.771	-157.132	0.219	-0.013
-229.757	-182.088	-0.111	-0.002
-228.742	175.595	0.127	-0.183
-227.727	-200.000	-0.017	-0.233
-226.713	45.329	-0.040	-0.037
-225.698	-31.996	0.097	0.054
-224.684	-152.338	-0.483	-0.034
-223.669	112.234	0.070	-0.083
-222.655	38.189	0.177	0.156
-221.640	87.968	-0.010	-0.011
-220.625	156.271	0.193	0.263
-219.611	57.015	-0.163	0.157
-218.596	86.736	-0.189	0.206
-217.582	-40.170	0.146	0.075
-216.567	-116.165	0.112	0.021
-215.552	346.702	-0.070	-0.135
-214.538	800.000	-0.117	0.337
-213.523	295.946	-0.029	-0.053
-212.509	34.103	-0.232	-0.199
-211.494	99.518	0.187	-0.214
-210.479	-31.733	-0.149	0.083
-209.465	-87.010	-0.267	0.080
-208.450	-102.680	-0.225	0.053
-207.436	-200.000	-0.020	-0.184
-206.421	-106.729	0.177	-0.039
-205.406	-107.018	0.506	-0.110
-204.392	-98.261	0.215	0.054
-203.377	-172.124	-0.298	-0.009
-202.363	162.828	-0.098	0.136
-201.348	-200.000	0.024	0.186
-200.333	-65.804	0.216	0.085
-199.319	540.695	-0.027	0.064
-198.304	-28.502	-0.103	0.058
-197.290	-65.941	0.252	0.099
-196.275	800.000	0.017	-0.047
-195.260	221.470	-0.164	-0.260
-194.246	246.887	0.058	-0.096
-193.231	70.342	0.071	0.073
-192.217	-42.272	-0.365	0.184
-191.202	-200.000	0.034	0.202
-190.187	90.761	0.133	-0.147
-189.173	-200.000	-0.038	0.167
-188.158	800.000	0.099	0.383
-187.144	766.199	-0.026	0.070
-186.129	-200.000	0.007	-0.227
-185.114	326.563	-0.116	0.220
-184.100	241.011	-0.087	-0.143
-183.085	57.474	0.073	-0.070
-182.071	800.000	0.074	0.265
-181.056	-166.716	0.368	0.015
-180.042	-200.000	0.023	-0.372
-179.027	-200.000	0.047	0.356
-178.012	21.953	0.185	-0.149
-176.998	-19.559	-0.175	0.107
-175.983	-167.104	-0.102	-0.004
-174.969	134.606	0.084	-0.108
-173.954	122.404	0.193	0.238
-172.939	800.000	-0.020	-0.069
-171.925	-97.087	0.312	-0.080
-170.910	800.000	0.109	-0.420
-169.896	128.022	-0.152	0.191
-168.881	-85.868	-0.286	0.087
-167.866	249.705	-0.160	0.268
-166.852	120.853	0.238	-0.292
-165.837	800.000	0.036	-0.145
-164.823	195.822	-0.080	0.119
-163.808	-141.851	-0.139	0.014
-162.793	-43.999	-0.087	0.043
-161.779	-162.365	0.408	-0.020
-160.764	-110.407	0.080	-0.016
-159.750	-38.357	-0.077	0.040
-158.735	52.290	-0.332	0.312
-157.720	-149.726	-0.237	-0.018
-156.706	-129.567	-0.290	-0.039
-155.691	-78.817	0.446	-0.150
-154.677	36.536	0.205	0.178
-153.662	-152.885	-0.191	0.013
-152.647	-18.523	0.347	0.213
-151.633	182.471	0.110	0.159
-150.618	-200.000	0.017	0.159
-149.604	-90.843	0.639	0.181
-148.589	-170.265	0.197	0.007
-147.574	800.000	0.096	0.294
-146.560	-93.250	0.160	0.044
-145.545	0.995	-0.261	0.184
-144.531	800.000	-0.044	0.154
-143.516	213.820	-0.065	0.101
-142.502	-200.000	0.011	0.340
-141.487	165.181	-0.106	0.147
-140.472	31.901	0.104	0.089
-139.458	-200.000	0.000	0.035
-138.443	34.359	0.283	-0.243
-137.429	-41.993	0.139	0.070
-136.414	27.850	-0.225	0.187
-135.399	800.000	0.026	-0.096
-134.385	-167.138	0.063	-0.003
-133.370	225.153	-0.134	-0.214
-132.356	-19.740	-0.268	-0.163
-131.341	-3.896	-0.160	-0.110
-130.326	-69.057	-0.155	-0.059
-129.312	557.479	-0.160	0.381
-128.297	-200.000	-0.084	0.384
-127.283	-49.763	-0.133	-0.062
-126.268	-68.278	0.402	0.154
-125.253	182.204	-0.024	-0.035
-124.239	800.000	-0.111	0.331
-123.224	-139.088	-0.175	0.019
-122.210	208.573	0.176	-0.270
