DTS Sentinel unit serial number:	SN413079Multiplexer serial number:	ORYXHardware model number:	OX4-SRSoftware version number:	ORYX F/W v4.00 Oryx Data Collector v3.7.2.0data status	okinstallation	princeton_trtdifferential loss correction	single-endedforward channel	channel 1reverse channel	N/Adate	2019/09/19time	14:50:36forward acquisition time	60.00reverse acquisition time	0.00gamma	496.2192k internal	0.2317k external	0.2317temperature offset calibration	1.0019default loss term (dB/km)	0.3790temperature slope calibration	1.0000multiplexer offset coefficient	1.0000multiplexer slope coefficient	1.0000fibre end	0.00T internal ref (°C)	32.81T ext. ref 1 (°C)	1.11T ext. ref 2 (°C)	29.79length (m)	temperature (°C)	Stokes	anti-Stokes-747.200	-43.679	0.223	0.114
-746.185	-80.515	-0.237	0.080
-745.171	14.995	-0.066	0.052
-744.156	420.901	0.193	0.419
-743.142	-58.015	0.241	0.106
-742.127	67.092	-0.157	0.162
-741.112	146.979	0.124	-0.168
-740.098	-86.874	-0.084	-0.026
-739.083	38.157	0.184	0.166
-738.069	-122.817	0.345	0.056
-737.054	-200.000	-0.003	-0.185
-736.039	-8.608	-0.205	0.139
-735.025	-31.058	0.180	0.103
-734.010	32.907	-0.153	0.134
-732.996	48.312	-0.321	-0.304
-731.981	-89.104	0.136	-0.041
-730.966	139.312	-0.087	0.116
-729.952	-4.627	-0.349	-0.244
-728.937	227.700	-0.202	0.332
-727.923	-97.959	-0.214	-0.056
-726.908	800.000	0.011	-0.043
-725.894	-82.007	-0.168	-0.056
-724.879	-6.324	-0.095	-0.066
-723.864	-200.000	0.097	0.000
-722.850	800.000	0.115	0.342
-721.835	-10.755	0.278	-0.186
-720.821	-34.479	-0.217	0.120
-719.806	-42.123	-0.299	0.155
-718.791	223.904	-0.193	0.315
-717.777	-86.419	0.091	0.028
-716.762	154.226	-0.181	-0.251
-715.748	24.482	-0.058	0.049
-714.733	-103.700	0.170	-0.040
-713.718	-42.649	0.293	-0.151
-712.704	-163.620	0.528	-0.025
-711.689	-137.500	-0.132	-0.015
-710.675	-164.516	0.107	0.005
-709.660	-177.516	-0.383	-0.009
-708.645	144.700	0.152	-0.205
-707.631	187.323	0.059	-0.088
-706.616	800.000	0.042	0.169
-705.602	82.394	-0.165	-0.181
-704.587	-116.217	0.258	0.048
-703.572	-147.892	-0.224	0.019
-702.558	-185.943	0.260	0.004
-701.543	263.216	-0.129	-0.226
-700.529	-89.217	0.266	-0.079
-699.514	800.000	0.007	-0.030
-698.499	101.736	0.061	-0.072
-697.485	396.124	0.096	-0.203
-696.470	632.317	0.083	0.213
-695.456	-71.034	0.137	0.052
-694.441	800.000	0.068	0.201
-693.426	-200.000	-0.007	0.235
-692.412	109.332	0.029	0.035
-691.397	-154.477	0.343	0.023
-690.383	16.395	0.106	0.085
-689.368	191.396	-0.104	-0.158
-688.354	-148.192	0.103	-0.009
-687.339	57.045	-0.383	-0.377
-686.324	99.381	-0.140	0.163
-685.310	159.665	-0.320	0.450
-684.295	484.382	0.017	0.039
-683.281	61.329	-0.101	0.101
-682.266	17.633	-0.222	-0.178
-681.251	-13.491	-0.269	0.176
-680.237	453.748	0.074	-0.166
-679.222	-51.537	0.224	-0.106
-678.208	800.000	-0.065	0.218
-677.193	-97.146	0.146	-0.038
-676.178	-200.000	-0.009	0.219
-675.164	-111.232	-0.214	0.044
-674.149	-96.592	-0.121	0.032
-673.135	145.252	0.109	-0.148
-672.120	17.678	-0.079	-0.063
-671.105	-200.000	-0.036	-0.387
-670.091	104.642	-0.151	0.180
-669.076	544.778	-0.091	0.219
-668.062	32.303	-0.059	0.051
-667.047	78.708	0.105	-0.114
-666.032	-106.848	0.342	0.077
-665.018	-166.732	-0.319	-0.013
-664.003	583.074	-0.069	-0.171
-662.989	800.000	-0.031	-0.119
-661.974	137.757	-0.221	-0.291
-660.959	800.000	0.028	0.097
-659.945	568.149	-0.136	0.332
-658.930	-130.565	0.014	0.002
-657.916	582.463	0.056	-0.140
-656.901	-92.639	0.060	0.017
-655.886	-92.876	-0.173	-0.049
-654.872	-32.175	0.094	-0.053
-653.857	800.000	0.079	-0.317
-652.843	-137.665	-0.146	0.017
-651.828	-176.314	-0.232	0.006
-650.814	88.051	-0.244	-0.273
-649.799	-37.415	0.418	0.225
-648.784	-112.372	-0.189	0.038
-647.770	-78.864	-0.356	0.122
-646.755	-29.305	-0.189	0.109
-645.741	-64.122	0.357	-0.147
-644.726	14.239	-0.118	0.092
-643.711	44.728	0.165	-0.153
-642.697	-9.623	0.039	-0.026
-641.682	222.923	-0.088	-0.144
-640.668	-105.250	-0.140	0.032
-639.653	-85.028	0.142	0.045
-638.638	-200.000	-0.018	-0.270
-637.624	-200.000	-0.025	-0.274
-636.609	-200.000	0.042	-0.224
-635.595	-47.511	-0.171	-0.084
-634.580	65.537	0.334	-0.340
-633.565	-200.000	-0.062	-0.339
-632.551	-24.601	-0.328	-0.197
-631.536	800.000	0.036	-0.130
-630.522	800.000	-0.051	0.221
-629.507	800.000	-0.045	0.187
-628.492	-69.902	0.071	0.027
-627.478	-28.370	-0.150	0.087
-626.463	-141.813	-0.366	-0.037
-625.449	-200.000	0.016	0.222
-624.434	-131.124	0.050	0.007
-623.419	156.582	-0.166	-0.232
-622.405	800.000	-0.103	-0.309
-621.390	54.584	-0.123	0.120
-620.376	-111.082	0.170	0.035
-619.361	-200.000	-0.058	-0.303
-618.346	117.874	0.082	-0.102
-617.332	-110.460	-0.116	-0.024
-616.317	-200.000	0.066	-0.314
-615.303	-200.000	-0.024	0.230
-614.288	-200.000	-0.036	0.172
-613.273	38.139	0.231	-0.207
-612.259	800.000	-0.110	0.411
-611.244	306.325	0.008	0.015
-610.230	76.054	-0.036	-0.039
-609.215	281.641	0.116	0.209
-608.201	-48.897	0.133	-0.064
-607.186	-138.550	-0.286	-0.032
-606.171	-200.000	0.021	-0.469
-605.157	89.657	0.209	0.235
-604.142	167.952	0.148	-0.212
-603.128	-200.000	0.056	-0.346
-602.113	-200.000	-0.007	-0.076
-601.098	-200.000	-0.052	0.262
-600.084	-95.647	0.318	-0.086
-599.069	-69.647	-0.211	-0.081
-598.055	77.005	0.094	0.101
-597.040	-200.000	-0.004	-0.107
-596.025	160.349	-0.157	-0.221
-595.011	137.512	0.049	-0.064
-593.996	-200.000	-0.033	0.153
-592.982	-200.000	0.026	-0.254
-591.967	-10.121	0.145	-0.097
-590.952	-43.916	-0.220	0.112
-589.938	-200.000	0.009	0.101
-588.923	221.100	-0.136	0.220
-587.909	-42.968	0.259	0.132
-586.894	-134.215	0.048	0.006
-585.879	637.939	0.084	0.214
-584.865	15.342	0.278	-0.219
-583.850	-13.429	0.120	-0.079
-582.836	-98.943	0.327	0.084
-581.821	102.560	-0.151	0.178
-580.806	-0.004	0.101	0.072
-579.792	-138.099	-0.440	0.049
-578.777	800.000	-0.010	0.029
-577.763	-29.731	-0.368	-0.211
-576.748	118.054	0.057	-0.071
-575.733	-200.000	-0.016	-0.171
-574.719	800.000	-0.078	0.231
-573.704	-155.660	0.156	-0.010
-572.690	122.068	-0.178	-0.223
-571.675	-7.140	-0.233	0.159
-570.661	-80.574	0.285	0.096
-569.646	-44.738	-0.077	0.039
-568.631	-56.974	-0.056	-0.025
-567.617	-4.005	0.262	-0.183
-566.602	-109.651	0.262	-0.056
-565.588	-25.204	0.205	-0.122
-564.573	-147.429	0.283	0.024
-563.558	-200.000	-0.006	0.217
-562.544	-200.000	-0.046	0.241
-561.529	69.643	-0.177	0.184
-560.515	2.480	0.199	0.145
-559.500	-18.205	0.172	0.108
-558.485	-10.095	0.153	-0.102
-557.471	-90.256	-0.355	-0.104
-556.456	69.438	0.091	0.094
-555.442	100.364	0.112	0.131
-554.427	-100.186	0.278	0.070
-553.412	-49.366	0.271	-0.130
-552.398	107.301	-0.255	0.304
-551.383	269.428	0.063	0.112
-550.369	-200.000	-0.015	-0.309
-549.354	-115.046	0.178	0.034
-548.339	471.956	0.066	-0.148
-547.325	800.000	-0.072	0.231
-546.310	-125.664	0.290	-0.044
-545.296	666.414	-0.090	0.234
-544.281	-200.000	0.007	-0.034
-543.266	800.000	0.068	0.265
-542.252	800.000	-0.059	-0.185
-541.237	-200.000	0.004	0.247
-540.223	-200.000	0.040	0.269
-539.208	-19.389	-0.091	-0.057
-538.193	262.188	0.163	0.284
-537.179	-42.609	0.223	0.114
-536.164	151.031	-0.195	-0.267
-535.150	95.957	-0.269	-0.308
-534.135	-200.000	-0.020	-0.132
-533.121	-135.748	0.143	0.017
-532.106	-93.797	-0.118	0.033
-531.091	303.413	-0.178	-0.332
-530.077	-80.680	0.270	-0.090
-529.062	-67.906	0.627	-0.246
-528.048	632.268	0.053	-0.134
-527.033	727.371	-0.083	-0.222
-526.018	-41.690	-0.123	-0.063
-525.004	43.398	0.091	-0.083
-523.989	-200.000	0.003	-0.116
-522.975	15.637	0.150	-0.118
-521.960	-6.310	0.229	-0.157
-520.945	-200.000	0.010	-0.303
-519.931	253.872	0.083	-0.142
-518.916	200.555	-0.203	0.314
-517.902	-51.920	-0.492	-0.229
-516.887	-103.992	-0.319	0.075
-515.872	475.556	0.114	-0.259
-514.858	155.422	0.215	0.297
-513.843	-80.708	-0.255	0.085
-512.829	-78.986	-0.375	-0.128
-511.814	-41.328	0.128	0.066
-510.799	68.762	0.076	-0.079
-509.785	389.704	0.108	-0.225
-508.770	88.283	-0.067	-0.074
-507.756	800.000	0.106	0.307
-506.741	-89.066	-0.294	-0.087
-505.726	-40.033	-0.154	-0.080
-504.712	-73.310	-0.064	0.023
-503.697	389.250	-0.172	-0.357
-502.683	444.218	0.134	0.294
-501.668	120.228	-0.186	-0.232
-500.653	-118.778	-0.288	0.051
-499.639	34.336	0.293	0.257
-498.624	-94.783	0.259	-0.070
-497.610	-79.157	-0.215	-0.073
-496.595	242.431	-0.197	0.331
-495.581	39.624	0.106	0.095
-494.566	-94.357	0.423	-0.116
-493.551	109.015	-0.201	0.241
-492.537	100.750	-0.108	0.126
-491.522	-95.332	0.290	0.078
-490.508	-85.204	-0.243	0.076
-489.493	-200.000	0.052	0.360
-488.478	800.000	0.072	0.254
-487.464	366.378	-0.077	0.156
-486.449	-105.725	-0.274	-0.062
-485.435	157.188	0.050	-0.069
-484.420	566.757	0.059	-0.143
-483.405	-200.000	0.001	0.173
-482.391	-72.069	-0.181	0.067
-481.376	-88.846	-0.108	0.032
-480.362	-68.075	-0.168	-0.066
-479.347	-200.000	0.243	0.000
-478.332	435.821	-0.055	0.120
-477.318	-52.975	-0.231	-0.106
-476.303	-23.097	0.131	0.079
-475.289	208.420	-0.076	0.120
-474.274	-3.807	0.258	-0.179
-473.259	291.920	0.057	0.105
-472.245	800.000	0.011	0.037
-471.230	-2.586	0.086	0.061
-470.216	180.703	-0.130	0.191
-469.201	13.133	0.187	0.145
-468.186	800.000	0.075	0.242
-467.172	15.853	-0.320	0.252
-466.157	-107.526	0.030	-0.006
-465.143	588.703	0.031	-0.076
-464.128	-100.364	-0.126	-0.031
-463.113	90.635	0.108	-0.122
-462.099	-76.620	-0.225	-0.079
-461.084	-61.896	-0.553	0.232
-460.070	-86.390	-0.210	-0.065
-459.055	-81.004	0.272	0.090
-458.040	59.499	0.156	-0.154
-457.026	77.626	-0.078	-0.084
-456.011	110.633	-0.174	-0.210
-454.997	306.210	-0.043	-0.081
-453.982	159.730	0.045	-0.062
-452.968	800.000	-0.028	0.104
-451.953	-159.497	0.047	-0.003
-450.938	-43.061	-0.192	0.097
-449.924	76.228	0.052	0.055
-448.909	800.000	-0.010	0.036
-447.895	311.630	0.141	0.264
-446.880	-200.000	0.046	-0.264
-445.865	123.531	-0.151	-0.190
-444.851	-0.552	0.085	-0.060
-443.836	800.000	0.086	-0.272
-442.822	800.000	-0.164	-0.463
-441.807	-96.360	0.288	0.076
-440.792	-100.342	0.234	0.058
-439.778	-200.000	-0.049	-0.243
-438.763	-200.000	-0.021	-0.143
-437.749	-63.730	0.162	0.067
-436.734	-2.983	-0.200	0.140
-435.719	-200.000	-0.015	0.137
-434.705	-44.839	-0.133	-0.066
-433.690	-95.678	-0.377	-0.101
-432.676	-83.683	0.222	0.071
-431.661	-99.827	0.089	-0.022
-430.646	-133.666	-0.186	0.023
-429.632	177.215	-0.168	-0.244
-428.617	173.761	-0.040	-0.057
-427.603	120.081	0.105	0.131
-426.588	4.908	-0.086	-0.063
-425.573	-89.910	-0.063	-0.018
-424.559	286.301	-0.136	0.245
-423.544	-162.671	-0.250	-0.012
-422.530	-200.000	-0.034	-0.193
-421.515	-200.000	-0.011	-0.108
-420.500	-26.172	0.256	0.150
-419.486	17.514	-0.114	0.090
-418.471	227.711	0.132	0.215
-417.457	-26.169	-0.321	0.189
-416.442	-34.433	0.092	0.050
-415.428	-200.000	0.075	0.386
-414.413	-200.000	0.002	0.097
-413.398	-168.031	0.199	0.008
-412.384	68.845	-0.180	-0.185
-411.369	-200.000	0.008	-0.122
-410.355	-200.000	-0.055	-0.248
-409.340	-200.000	0.026	0.170
-408.325	568.530	-0.078	-0.189
-407.311	-167.216	-0.170	0.007
-406.296	84.321	0.164	0.179
-405.282	25.529	0.054	-0.045
-404.267	-146.345	-0.097	-0.008
-403.252	-89.149	-0.211	0.062
-402.238	-15.394	-0.310	0.198
-401.223	55.818	-0.237	0.230
-400.209	-71.621	-0.227	-0.085
-399.194	800.000	-0.106	0.427
-398.179	-200.000	0.026	-0.192
-397.165	-200.000	0.010	0.082
-396.150	20.973	-0.134	-0.108
-395.136	-151.569	0.496	-0.037
-394.121	28.328	0.129	-0.109
-393.106	-200.000	0.041	-0.316
-392.092	49.371	0.117	0.110
-391.077	-176.858	-0.266	0.007
-390.063	-7.867	-0.457	-0.308
-389.048	723.698	0.023	0.061
-388.033	-127.597	-0.198	-0.029
-387.019	266.876	0.078	0.136
-386.004	800.000	0.056	-0.230
-384.990	671.458	-0.093	-0.242
-383.975	487.667	-0.063	-0.144
-382.960	-94.254	-0.094	-0.026
-381.946	99.313	0.215	-0.248
-380.931	424.198	-0.083	-0.179
-379.917	-200.000	-0.018	0.204
-378.902	-200.000	0.002	0.029
-377.888	-151.928	0.095	-0.007
-376.873	-74.797	-0.032	0.011
-375.858	-200.000	0.026	-0.119
-374.844	-200.000	0.017	-0.199
-373.829	-95.821	0.266	-0.071
-372.815	-55.811	-0.219	-0.098
-371.800	-94.691	0.131	-0.035
-370.785	800.000	0.047	-0.200
-369.771	489.893	-0.136	-0.310
-368.756	-59.153	0.218	-0.094
-367.742	-141.469	-0.074	0.007
-366.727	173.639	-0.179	0.258
-365.712	-10.217	-0.104	-0.069
-364.698	428.984	0.062	-0.133
-363.683	-44.976	0.061	0.030
-362.669	-160.844	0.101	-0.005
-361.654	-165.787	0.165	-0.007
-360.639	-200.000	0.008	-0.039
-359.625	-107.114	-0.255	-0.056
-358.610	-164.442	0.110	-0.005
-357.596	-200.000	-0.013	-0.367
-356.581	-200.000	-0.026	0.223
-355.566	-28.034	0.354	0.204
-354.552	650.080	0.059	0.150
-353.537	473.944	-0.066	-0.148
-352.523	186.073	0.137	-0.203
-351.508	-95.916	0.525	-0.140
-350.493	-200.000	-0.076	-0.547
-349.479	-53.659	-0.315	0.143
-348.464	-58.751	-0.234	0.101
-347.450	-38.398	-0.198	0.104
-346.435	206.919	-0.142	0.221
-345.420	147.397	-0.060	0.080
-344.406	800.000	0.054	0.168
-343.391	-113.551	0.146	-0.028
-342.377	-113.372	0.188	-0.037
-341.362	474.454	0.127	0.286
-340.348	7.406	0.094	-0.070
-339.333	605.670	0.081	0.201
-338.318	26.614	-0.208	-0.174
-337.304	564.905	-0.165	-0.398
-336.289	403.714	-0.110	-0.232
-335.275	800.000	-0.040	-0.116
-334.260	319.537	0.011	0.022
-333.245	18.406	0.249	-0.198
-332.231	181.463	-0.054	0.080
-331.216	210.199	0.099	0.155
-330.202	-200.000	0.027	-0.365
-329.187	800.000	-0.084	0.277
-328.172	-200.000	-0.027	0.129
-327.158	-104.023	-0.306	0.071
-326.143	-76.805	0.139	-0.048
-325.129	-97.153	-0.194	0.051
-324.114	800.000	0.131	-0.534
-323.099	-29.423	0.103	-0.059
-322.085	-162.572	-0.153	-0.008
-321.070	-126.983	-0.110	0.016
-320.056	320.989	-0.127	0.241
-319.041	-200.000	0.004	0.033
-318.026	800.000	-0.058	-0.171
-317.012	126.940	-0.114	-0.144
-315.997	180.515	0.108	0.158
-314.983	-106.362	-0.137	-0.030
-313.968	-50.165	0.227	0.107
-312.953	800.000	-0.059	0.163
-311.939	304.630	-0.132	0.244
-310.924	-54.193	0.038	0.017
-309.910	-200.000	0.016	-0.127
-308.895	-4.052	0.348	-0.240
-307.880	-200.000	0.037	0.170
-306.866	-200.000	0.025	-0.110
-305.851	-200.000	-0.041	0.242
-304.837	426.647	-0.136	-0.293
-303.822	-200.000	0.062	0.388
-302.807	234.832	-0.129	-0.212
-301.793	-130.911	0.172	0.023
-300.778	-200.000	0.031	-0.218
-299.764	-103.582	-0.010	0.002
-298.749	219.304	-0.102	0.163
-297.735	193.604	0.044	0.066
-296.720	225.043	0.025	0.040
-295.705	-200.000	-0.009	-0.381
-294.691	88.736	0.113	0.125
-293.676	80.025	0.199	-0.213
-292.662	-200.000	0.071	-0.323
-291.647	-111.712	0.112	0.023
-290.632	-35.743	0.195	0.105
-289.618	-89.771	0.322	-0.094
-288.603	113.224	0.110	-0.133
-287.589	216.576	-0.164	0.260
-286.574	264.252	0.155	0.269
-285.559	-144.451	-0.214	-0.020
-284.545	213.856	0.035	-0.055
-283.530	-10.165	0.225	0.149
-282.516	-193.864	0.341	0.003
-281.501	50.826	-0.157	0.148
-280.486	-132.757	-0.272	-0.035
-279.472	-169.943	0.214	0.008
-278.457	23.734	-0.041	0.033
-277.443	222.204	-0.222	-0.356
-276.428	102.416	-0.124	-0.145
-275.413	-200.000	0.238	-0.000
-274.399	-156.511	0.152	0.009
-273.384	-52.107	0.240	0.111
-272.370	-151.864	0.094	0.007
-271.355	-40.925	0.313	0.161
-270.340	-200.000	0.058	-0.315
-269.326	-200.000	-0.015	-0.306
-268.311	362.251	0.101	0.200
-267.297	21.323	0.157	-0.127
-266.282	-48.908	0.248	-0.118
-265.267	76.561	-0.085	0.090
-264.253	-103.107	0.148	-0.035
-263.238	-102.460	0.212	0.050
-262.224	66.641	0.266	0.269
-261.209	800.000	-0.038	0.129
-260.195	-15.019	-0.182	-0.116
-259.180	-81.192	0.198	0.065
-258.165	-45.069	-0.119	-0.059
-257.151	120.741	0.277	0.343
-256.136	-107.854	0.062	-0.013
-255.122	800.000	-0.014	0.053
-254.107	-200.000	0.049	0.259
-253.092	304.320	-0.080	0.148
-252.078	18.700	-0.069	0.055
-251.063	-200.000	0.068	-0.445
-250.049	-127.751	-0.254	0.036
-249.034	-44.548	-0.255	0.126
-248.019	176.436	-0.143	-0.207
-247.005	70.518	-0.114	0.117
-245.990	-26.072	0.168	-0.098
-244.976	-200.000	0.028	-0.282
-243.961	496.472	-0.057	0.131
-242.946	-76.874	-0.117	-0.041
-241.932	261.320	0.069	-0.119
-240.917	-29.887	-0.043	0.024
-239.903	-122.384	-0.296	-0.048
-238.888	800.000	-0.024	0.075
-237.873	800.000	-0.071	-0.289
-236.859	-200.000	-0.011	0.158
-235.844	189.339	0.087	0.129
-234.830	-103.045	-0.112	0.026
-233.815	-32.346	-0.150	-0.083
-232.800	760.164	-0.121	-0.325
-231.786	-200.000	0.005	-0.044
-230.771	41.819	0.088	0.079
-229.757	-32.063	0.375	0.208
-228.742	-156.994	0.143	0.009
-227.727	-200.000	0.034	0.169
-226.713	41.025	0.378	0.339
-225.698	-54.522	-0.095	0.042
-224.684	-200.000	0.043	0.245
-223.669	-200.000	0.007	0.108
-222.655	87.185	0.113	-0.124
-221.640	-200.000	-0.007	0.071
-220.625	58.906	0.250	-0.244
-219.611	254.524	0.098	-0.167
-218.596	-63.480	-0.278	-0.113
-217.582	150.756	-0.029	0.039
-216.567	-138.117	-0.089	-0.010
-215.552	-200.000	-0.041	0.278
-214.538	19.920	0.130	0.104
-213.523	121.252	0.123	0.152
-212.509	-200.000	0.015	-0.274
-211.494	29.865	-0.142	0.120
-210.479	-105.860	0.126	0.028
-209.465	-51.780	0.091	0.042
-208.450	198.161	0.137	0.208
-207.436	-200.000	0.007	0.083
-206.421	-170.634	0.265	0.009
-205.406	725.547	0.075	-0.197
-204.392	279.748	-0.148	-0.263
-203.377	696.592	0.100	-0.260
-202.363	-118.903	0.349	-0.061
-201.348	258.238	0.031	-0.053
-200.333	-136.274	-0.237	0.027
-199.319	-200.000	-0.003	0.277
-198.304	800.000	-0.112	0.386
-197.290	41.455	0.174	0.156
-196.275	33.112	0.235	-0.202
-195.260	-197.752	0.152	0.001
-194.246	-200.000	0.009	-0.175
-193.231	180.680	0.277	0.403
-192.217	693.214	-0.053	0.139
-191.202	28.635	-0.257	0.216
-190.187	40.403	-0.316	0.282
-189.173	800.000	0.096	0.267
-188.158	-200.000	0.021	-0.222
-187.144	-200.000	0.008	0.166
-186.129	229.866	-0.068	0.110
-185.114	16.780	0.322	0.252
-184.100	-200.000	-0.016	0.128
-183.085	-76.386	-0.106	-0.037
-182.071	-66.897	0.104	-0.041
-181.056	653.556	-0.084	0.212
-180.042	-147.146	0.281	0.024
-179.027	-146.645	-0.190	-0.016
-178.012	-99.269	-0.278	-0.069
-176.998	207.570	-0.048	0.074
-175.983	800.000	0.134	-0.547
-174.969	-74.473	-0.104	0.037
-173.954	301.227	0.137	0.250
-172.939	446.797	-0.191	0.416
-171.925	450.650	-0.034	0.074
-170.910	-79.732	-0.162	0.054
-169.896	411.974	0.007	-0.015
-168.881	800.000	-0.133	0.398
-167.866	67.856	-0.300	0.304
-166.852	-70.315	0.138	-0.052
-165.837	39.393	-0.237	0.210
-164.823	3.112	-0.129	0.093
-163.808	-121.903	-0.178	0.029
-162.793	-8.967	-0.186	0.123
-161.779	13.859	0.112	0.086
-160.764	800.000	-0.049	0.148
-159.750	-137.128	0.137	0.015
-158.735	259.924	-0.125	-0.214
-157.720	-200.000	-0.006	-0.217
-156.706	-55.916	-0.146	0.064
-155.691	-200.000	-0.093	0.424
-154.677	-128.102	-0.228	0.032
-153.662	222.130	0.075	0.119
-152.647	-111.647	-0.256	-0.051
-151.633	-200.000	0.033	-0.244
-150.618	423.319	-0.147	0.312
-149.604	171.213	0.020	0.028
-148.589	75.832	-0.134	0.140
-147.574	233.535	-0.113	0.184
-146.560	-106.996	0.279	0.061
-145.545	140.758	-0.287	-0.375
-144.531	-148.633	0.223	-0.018
-143.516	597.790	-0.115	0.282
-142.502	-200.000	-0.027	0.241
-141.487	-200.000	0.050	-0.648
-140.472	-200.000	0.042	-0.423
-139.458	197.955	-0.118	-0.178
-138.443	-200.000	-0.008	-0.197
-137.429	-47.537	-0.283	0.136
-136.414	-133.370	-0.252	0.031
-135.399	-100.077	0.075	-0.019
-134.385	-103.604	-0.189	0.044
-133.370	800.000	-0.054	0.177
-132.356	-162.117	-0.153	0.008
-131.341	800.000	-0.060	0.183
-130.326	-192.290	0.441	-0.004
-129.312	-200.000	0.021	0.163
-128.297	171.944	0.063	-0.089
-127.283	-200.000	-0.069	0.404
-126.268	-200.000	-0.021	0.510
-125.253	-122.692	-0.265	-0.042
-124.239	-47.838	-0.178	-0.085
-123.224	270.085	0.045	-0.077
-122.210	-108.186	-0.239	-0.051
