DTS Sentinel unit serial number:	SN413079Multiplexer serial number:	ORYXHardware model number:	OX4-SRSoftware version number:	ORYX F/W v4.00 Oryx Data Collector v3.7.2.0data status	okinstallation	princeton_trtdifferential loss correction	single-endedforward channel	channel 1reverse channel	N/Adate	2019/09/11time	04:24:11forward acquisition time	60.00reverse acquisition time	0.00gamma	496.2192k internal	0.2331k external	0.2331temperature offset calibration	0.9923default loss term (dB/km)	0.3790temperature slope calibration	1.0000multiplexer offset coefficient	1.0000multiplexer slope coefficient	1.0000fibre end	0.00T internal ref (°C)	29.56T ext. ref 1 (°C)	-0.30T ext. ref 2 (°C)	23.39length (m)	temperature (°C)	Stokes	anti-Stokes-747.200	288.855	0.021	-0.038
-746.185	-140.033	0.338	-0.036
-745.171	-200.000	0.023	0.132
-744.156	-151.621	0.305	-0.023
-743.142	27.430	0.228	0.193
-742.127	-99.155	-0.086	-0.022
-741.112	-92.115	-0.120	-0.034
-740.098	178.082	-0.184	0.271
-739.083	-112.073	-0.193	0.039
-738.069	205.362	-0.211	0.329
-737.054	800.000	0.117	0.378
-736.039	800.000	-0.061	-0.263
-735.025	-178.721	0.175	0.004
-734.010	0.327	-0.188	0.135
-732.996	2.787	-0.200	-0.146
-731.981	-72.161	0.376	-0.140
-730.966	118.359	0.115	-0.142
-729.952	-200.000	0.031	-0.264
-728.937	260.378	-0.110	0.191
-727.923	38.965	-0.122	0.110
-726.908	-200.000	-0.037	-0.377
-725.894	159.628	0.167	0.234
-724.879	800.000	-0.124	-0.526
-723.864	379.857	-0.195	0.402
-722.850	235.433	-0.089	-0.148
-721.835	99.507	-0.331	0.385
-720.821	-33.510	-0.035	0.019
-719.806	12.313	-0.064	-0.050
-718.791	-179.618	-0.191	0.004
-717.777	-12.655	0.364	0.239
-716.762	-200.000	0.018	-0.281
-715.748	-172.946	0.269	0.008
-714.733	-200.000	-0.036	-0.244
-713.718	318.151	0.108	0.206
-712.704	-131.875	-0.104	0.014
-711.689	-110.661	-0.166	0.035
-710.675	289.254	-0.077	0.141
-709.660	152.548	0.134	-0.184
-708.645	-54.790	0.159	0.072
-707.631	-200.000	0.021	0.412
-706.616	262.836	-0.020	0.035
-705.602	-30.941	0.232	0.132
-704.587	-200.000	-0.020	0.128
-703.572	-46.618	0.075	0.037
-702.558	800.000	0.148	-0.428
-701.543	99.131	0.087	-0.101
-700.529	-44.113	-0.227	-0.115
-699.514	-106.902	-0.148	-0.033
-698.499	504.014	-0.063	0.147
-697.485	259.010	0.047	0.082
-696.470	36.131	-0.209	-0.185
-695.456	81.960	0.279	-0.304
-694.441	200.654	0.114	-0.176
-693.426	-48.659	-0.182	-0.088
-692.412	414.342	0.045	-0.097
-691.397	-59.938	0.263	-0.113
-690.383	-42.861	-0.124	0.063
-689.368	11.174	-0.183	-0.140
-688.354	104.088	0.179	-0.211
-687.339	57.582	-0.177	-0.174
-686.324	-45.432	-0.207	0.103
-685.310	-200.000	0.003	0.044
-684.295	-33.462	-0.331	-0.184
-683.281	-118.916	-0.521	0.092
-682.266	2.120	-0.156	-0.113
-681.251	-200.000	-0.009	-0.251
-680.237	-200.000	0.001	-0.166
-679.222	800.000	0.052	-0.221
-678.208	-200.000	-0.048	0.219
-677.193	-192.540	-0.055	0.001
-676.178	74.988	0.220	0.233
-675.164	-58.307	0.036	-0.016
-674.149	800.000	0.028	-0.084
-673.135	-200.000	0.037	0.203
-672.120	-2.571	-0.141	0.099
-671.105	-119.756	0.142	-0.025
-670.091	-36.993	-0.254	-0.137
-669.076	-147.145	0.262	0.022
-668.062	-159.169	0.134	0.008
-667.047	-200.000	0.019	0.396
-666.032	-53.796	0.292	-0.134
-665.018	-40.727	0.129	0.067
-664.003	-54.612	-0.176	-0.080
-662.989	-200.000	0.039	-0.274
-661.974	370.101	0.101	-0.206
-660.959	-147.571	-0.387	-0.033
-659.945	800.000	-0.049	0.196
-658.930	800.000	-0.091	0.315
-657.916	-46.151	-0.218	0.108
-656.901	-200.000	-0.006	-0.071
-655.886	492.711	0.127	0.291
-654.872	-71.015	0.280	-0.106
-653.857	-155.027	-0.246	0.016
-652.843	-200.000	-0.048	0.221
-651.828	-105.352	-0.099	0.023
-650.814	26.824	-0.160	-0.134
-649.799	133.190	0.109	0.141
-648.784	-193.638	-0.478	-0.004
-647.770	-34.617	0.250	-0.137
-646.755	-200.000	-0.000	-0.050
-645.741	-54.821	-0.029	-0.013
-644.726	660.435	-0.201	-0.520
-643.711	-200.000	-0.029	-0.316
-642.697	583.809	-0.093	-0.229
-641.682	-200.000	-0.061	-0.288
-640.668	405.058	-0.084	0.178
-639.653	-20.532	-0.250	-0.154
-638.638	30.697	-0.253	0.217
-637.624	223.472	0.022	-0.036
-636.609	-90.714	-0.323	-0.093
-635.595	-15.727	-0.100	0.064
-634.580	13.305	0.064	0.050
-633.565	44.724	0.163	0.150
-632.551	178.008	0.145	0.211
-631.536	-67.738	-0.127	0.050
-630.522	110.950	-0.156	-0.188
-629.507	-124.603	0.212	-0.033
-628.492	244.319	0.032	-0.055
-627.478	199.615	0.087	-0.134
-626.463	-82.850	-0.330	-0.107
-625.449	-149.541	0.347	0.027
-624.434	-91.199	-0.151	-0.043
-623.419	-106.888	0.215	-0.048
-622.405	-118.335	0.094	-0.017
-621.390	243.080	-0.002	0.003
-620.376	-200.000	0.039	-0.471
-619.361	-178.458	-0.114	-0.003
-618.346	-59.774	-0.285	0.122
-617.332	-184.032	-0.114	-0.002
-616.317	146.039	0.336	-0.451
-615.303	42.490	0.170	0.155
-614.288	-177.133	-0.075	-0.002
-613.273	800.000	0.049	-0.170
-612.259	380.247	-0.213	0.438
-611.244	64.582	-0.183	-0.185
-610.230	524.649	-0.061	0.144
-609.215	40.721	-0.084	0.076
-608.201	-186.919	0.229	0.003
-607.186	226.016	-0.049	0.079
-606.171	2.366	0.053	0.038
-605.157	-10.840	0.144	-0.095
-604.142	205.493	-0.131	0.205
-603.128	800.000	0.048	0.155
-602.113	-25.393	-0.057	0.034
-601.098	73.927	-0.280	0.294
-600.084	93.708	-0.096	0.109
-599.069	251.584	0.048	-0.082
-598.055	-77.348	0.191	0.066
-597.040	-61.551	-0.044	-0.019
-596.025	-22.547	0.081	-0.049
-595.011	-51.865	0.068	0.032
-593.996	237.929	-0.066	-0.110
-592.982	345.684	0.060	0.117
-591.967	800.000	-0.062	-0.180
-590.952	127.701	0.022	0.027
-589.938	89.683	-0.136	-0.152
-588.923	-200.000	0.040	0.330
-587.909	261.242	0.089	0.154
-586.894	271.959	-0.127	-0.224
-585.879	-200.000	0.017	0.275
-584.865	29.815	-0.191	0.162
-583.850	723.064	0.068	-0.182
-582.836	77.829	0.228	-0.243
-581.821	-3.296	-0.127	-0.089
-580.806	-142.813	-0.311	0.030
-579.792	-14.537	-0.143	0.092
-578.777	-12.245	-0.304	0.199
-577.763	-187.024	0.296	0.004
-576.748	-200.000	0.038	0.276
-575.733	-200.000	-0.030	-0.164
-574.719	800.000	0.021	-0.082
-573.704	37.559	-0.211	0.187
-572.690	170.093	0.114	-0.163
-571.675	-0.788	0.102	-0.072
-570.661	-54.396	-0.167	0.076
-569.646	231.483	-0.213	-0.349
-568.631	163.235	-0.099	0.140
-567.617	-67.006	0.112	0.044
-566.602	-107.128	0.245	0.054
-565.588	-131.301	0.166	0.022
-564.573	268.331	0.040	0.071
-563.558	800.000	0.097	-0.291
-562.544	-127.826	-0.337	0.049
-561.529	-172.603	-0.229	-0.007
-560.515	155.358	-0.096	0.132
-559.500	164.609	-0.187	0.263
-558.485	-52.577	-0.067	-0.031
-557.471	800.000	0.030	0.084
-556.456	-12.375	-0.195	0.127
-555.442	-48.442	0.265	0.127
-554.427	28.548	0.303	0.256
-553.412	800.000	-0.074	0.209
-552.398	-200.000	0.008	-0.100
-551.383	147.066	-0.162	-0.218
-550.369	706.802	-0.103	-0.271
-549.354	-121.858	0.124	0.020
-548.339	352.260	0.020	-0.040
-547.325	-43.085	-0.345	0.175
-546.310	135.574	0.279	-0.363
-545.296	-87.318	0.225	0.068
-544.281	265.927	0.044	0.077
-543.266	-193.528	-0.215	0.002
-542.252	-135.536	-0.242	0.029
-541.237	800.000	-0.039	-0.130
-540.223	-200.000	-0.007	0.187
-539.208	-200.000	0.023	0.107
-538.193	38.317	-0.363	-0.322
-537.179	-200.000	0.019	-0.107
-536.164	-36.718	-0.106	0.057
-535.150	-131.693	0.301	0.039
-534.135	739.237	0.085	0.227
-533.121	208.824	-0.091	0.142
-532.106	-113.987	-0.345	0.067
-531.091	-41.504	0.362	-0.186
-530.077	-118.050	-0.294	-0.052
-529.062	93.939	-0.059	-0.066
-528.048	-43.325	0.124	-0.062
-527.033	98.959	-0.091	0.105
-526.018	-64.401	0.075	0.031
-525.004	38.641	-0.357	-0.318
-523.989	800.000	-0.094	-0.361
-522.975	-200.000	0.027	-0.200
-521.960	505.604	0.104	-0.240
-520.945	-200.000	0.006	-0.481
-519.931	23.056	0.123	-0.100
-518.916	-125.404	-0.335	0.051
-517.902	-200.000	0.011	-0.129
-516.887	53.975	0.148	-0.142
-515.872	-132.564	0.095	0.012
-514.858	800.000	0.023	-0.099
-513.843	-200.000	0.064	0.611
-512.829	-200.000	-0.010	0.258
-511.814	216.341	-0.075	0.119
-510.799	-109.855	-0.106	-0.022
-509.785	151.791	-0.058	0.079
-508.770	-4.198	-0.335	-0.231
-507.756	-103.375	0.256	-0.060
-506.741	303.359	-0.102	-0.188
-505.726	-141.108	0.156	0.016
-504.712	-61.003	-0.307	0.129
-503.697	-74.115	0.208	0.075
-502.683	-200.000	-0.046	0.224
-501.668	-139.667	0.378	-0.040
-500.653	-200.000	0.016	0.102
-499.639	-200.000	0.015	0.123
-498.624	298.025	-0.164	-0.301
-497.610	39.528	0.242	-0.216
-496.595	-112.799	-0.238	0.047
-495.581	-26.119	0.353	0.207
-494.566	-92.027	0.117	-0.033
-493.551	800.000	0.089	-0.296
-492.537	339.487	-0.046	-0.089
-491.522	177.580	-0.172	-0.250
-490.508	267.990	-0.084	0.147
-489.493	-148.390	0.198	0.016
-488.478	295.597	-0.158	0.289
-487.464	-80.346	0.146	-0.049
-486.449	-91.255	-0.159	0.045
-485.435	-61.825	0.168	-0.070
-484.420	-41.947	-0.395	-0.202
-483.405	105.286	0.136	-0.159
-482.391	800.000	-0.045	-0.158
-481.376	58.686	-0.050	-0.049
-480.362	330.329	0.099	0.189
-479.347	-56.266	-0.127	-0.056
-478.332	77.442	-0.124	0.131
-477.318	-200.000	-0.019	-0.168
-476.303	-102.127	-0.123	0.029
-475.289	-80.110	-0.117	0.039
-474.274	49.631	-0.274	0.257
-473.259	165.054	-0.158	0.222
-472.245	347.149	-0.044	-0.086
-471.230	-31.623	-0.263	0.147
-470.216	800.000	-0.089	-0.307
-469.201	126.949	0.219	-0.276
-468.186	78.357	0.169	-0.180
-467.172	-5.576	-0.262	0.179
-466.157	-51.618	-0.285	-0.132
-465.143	-200.000	-0.015	-0.177
-464.128	-200.000	-0.028	0.137
-463.113	-63.897	0.110	-0.045
-462.099	-77.624	0.316	0.109
-461.084	335.434	-0.113	-0.219
-460.070	86.559	0.176	-0.194
-459.055	-39.813	-0.074	0.039
-458.040	386.088	-0.156	-0.321
-457.026	280.392	0.050	0.089
-456.011	494.856	0.124	-0.284
-454.997	-33.100	0.385	-0.213
-453.982	-200.000	0.006	0.201
-452.968	-9.744	-0.200	-0.132
-451.953	282.530	-0.089	-0.159
-450.938	102.555	0.228	-0.266
-449.924	157.054	-0.029	0.040
-448.909	-193.541	0.054	0.000
-447.895	60.791	0.340	0.336
-446.880	79.071	0.152	0.162
-445.865	-200.000	0.018	0.195
-444.851	187.310	-0.125	0.185
-443.836	-156.531	0.282	-0.017
-442.822	187.387	-0.153	0.228
-441.807	389.401	0.116	-0.240
-440.792	-63.205	0.207	0.085
-439.778	56.027	0.102	-0.098
-438.763	62.654	0.103	-0.102
-437.749	800.000	-0.142	-0.465
-436.734	-31.331	-0.163	0.091
-435.719	46.002	-0.024	-0.022
-434.705	120.632	0.049	0.060
-433.690	-200.000	0.014	0.160
-432.676	-200.000	0.007	-0.100
-431.661	800.000	0.040	-0.171
-430.646	-200.000	0.015	0.204
-429.632	-5.769	-0.220	-0.150
-428.617	-102.228	0.413	-0.099
-427.603	-35.839	0.337	-0.182
-426.588	491.406	0.004	-0.010
-425.573	183.996	0.090	-0.133
-424.559	-200.000	-0.031	0.274
-423.544	-200.000	-0.013	-0.161
-422.530	-200.000	0.035	-0.165
-421.515	-105.023	-0.193	-0.044
-420.500	74.116	0.118	0.123
-419.486	46.482	-0.038	-0.035
-418.471	149.811	-0.190	-0.256
-417.457	266.397	-0.107	-0.185
-416.442	11.975	-0.165	-0.126
-415.428	-200.000	0.033	-0.144
-414.413	-140.733	-0.195	0.020
-413.398	800.000	0.042	0.165
-412.384	130.090	-0.184	-0.234
-411.369	196.648	0.037	-0.056
-410.355	62.165	-0.051	0.050
-409.340	-68.711	0.081	0.031
-408.325	-200.000	0.038	-0.329
-407.311	438.161	-0.045	-0.097
-406.296	79.340	-0.150	-0.160
-405.282	98.384	0.175	-0.200
-404.267	158.645	-0.182	-0.250
-403.252	-51.145	-0.180	-0.084
-402.238	299.561	-0.131	-0.240
-401.223	-111.834	-0.329	0.066
-400.209	-200.000	0.051	-0.242
-399.194	-150.246	0.196	0.015
-398.179	-200.000	0.036	-0.385
-397.165	16.489	0.200	0.157
-396.150	336.975	0.075	-0.144
-395.136	95.584	0.077	0.088
-394.121	122.901	0.239	0.297
-393.106	-10.820	0.392	0.258
-392.092	-200.000	0.007	0.393
-391.077	136.116	-0.168	0.218
-390.063	-63.006	0.328	0.134
-389.048	-36.318	-0.010	-0.005
-388.033	330.380	-0.118	0.225
-387.019	151.533	-0.150	-0.203
-386.004	348.954	0.150	-0.294
-384.990	-83.142	-0.236	-0.075
-383.975	166.099	0.033	-0.046
-382.960	-200.000	0.005	-0.195
-381.946	-76.982	-0.098	0.034
-380.931	402.828	-0.141	0.294
-379.917	361.886	0.100	0.199
-378.902	288.653	0.312	0.561
-377.888	-60.953	0.056	-0.024
-376.873	43.004	0.183	0.165
-375.858	-138.228	-0.084	-0.009
-374.844	697.533	-0.026	-0.067
-373.829	-200.000	-0.018	0.191
-372.815	-200.000	-0.029	0.192
-371.800	800.000	-0.053	0.163
-370.785	-14.617	0.086	0.055
-369.771	48.167	0.270	0.251
-368.756	-200.000	-0.011	0.104
-367.742	-80.692	0.272	-0.090
-366.727	239.168	0.062	-0.103
-365.712	75.942	0.101	0.106
-364.698	800.000	0.061	-0.246
-363.683	-200.000	-0.008	-0.137
-362.669	-67.996	0.140	-0.054
-361.654	375.826	-0.143	0.290
-360.639	-200.000	-0.017	0.187
-359.625	800.000	0.047	0.130
-358.610	-200.000	0.005	-0.102
-357.596	139.632	0.091	0.119
-356.581	-157.606	0.365	-0.022
-355.566	-175.474	-0.226	0.006
-354.552	118.809	-0.098	-0.120
-353.537	-200.000	0.013	0.069
-352.523	-97.185	0.307	0.079
-351.508	341.057	-0.056	0.109
-350.493	-84.872	-0.252	0.078
-349.479	384.434	-0.126	-0.257
-348.464	-38.230	0.064	-0.033
-347.450	-200.000	0.061	-0.303
-346.435	26.318	-0.332	0.275
-345.420	799.192	0.159	0.435
-344.406	725.338	0.101	-0.268
-343.391	87.073	0.213	-0.233
-342.377	78.113	0.112	-0.119
-341.362	-141.857	0.290	-0.029
-340.348	115.821	0.172	-0.208
-339.333	67.749	0.178	-0.180
-338.318	-101.826	0.235	-0.056
-337.304	-13.776	0.029	0.019
-336.289	58.475	-0.027	-0.026
-335.275	-200.000	-0.015	0.139
-334.260	302.757	-0.132	0.242
-333.245	45.790	-0.198	-0.181
-332.231	-92.197	0.259	0.072
-331.216	-88.472	-0.123	0.036
-330.202	47.747	0.196	0.181
-329.187	800.000	-0.025	0.088
-328.172	106.873	0.166	0.195
-327.158	-24.843	-0.248	0.146
-326.143	88.769	0.216	-0.237
-325.129	800.000	-0.060	-0.182
-324.114	-38.196	0.067	0.035
-323.099	-48.863	0.077	-0.036
-322.085	208.373	-0.073	-0.114
-321.070	-174.273	-0.135	0.004
-320.056	727.254	0.114	0.301
-319.041	-200.000	-0.002	0.333
-318.026	-27.987	0.175	0.100
-317.012	717.347	-0.112	-0.295
-315.997	126.731	-0.317	-0.397
-314.983	2.072	-0.373	0.266
-313.968	-200.000	-0.008	0.134
-312.953	-5.709	0.391	0.265
-311.939	161.554	-0.023	0.032
-310.924	484.700	0.130	-0.294
-309.910	-200.000	0.027	0.170
-308.895	29.608	0.152	0.128
-307.880	-200.000	-0.039	0.190
-306.866	-1.331	0.296	0.207
-305.851	-69.292	-0.105	-0.040
-304.837	-66.549	0.093	-0.036
-303.822	20.040	0.195	-0.156
-302.807	274.166	-0.064	0.113
-301.793	-113.682	0.277	0.053
-300.778	-200.000	-0.033	0.198
-299.764	-200.000	-0.018	-0.133
-298.749	1.276	-0.336	0.239
-297.735	141.645	0.051	-0.067
-296.720	-76.158	0.175	0.061
-295.705	110.414	-0.113	-0.134
-294.691	-66.742	-0.115	-0.045
-293.676	-12.851	-0.235	-0.151
-292.662	350.568	-0.098	-0.193
-291.647	-19.957	0.041	-0.025
-290.632	800.000	-0.085	-0.303
-289.618	-200.000	0.041	0.275
-288.603	-96.198	0.059	-0.016
-287.589	-200.000	0.002	0.254
-286.574	800.000	-0.068	0.294
-285.559	153.975	-0.170	-0.230
-284.545	-200.000	0.038	-0.189
-283.530	54.248	-0.046	-0.044
-282.516	-65.833	-0.216	-0.086
-281.501	210.511	0.069	-0.107
-280.486	-33.589	-0.365	0.199
-279.472	-66.457	-0.216	0.085
-278.457	112.815	-0.136	0.163
-277.443	-116.348	-0.204	-0.037
-276.428	-143.716	0.152	-0.014
-275.413	98.152	-0.305	0.347
-274.399	147.272	0.025	-0.034
-273.384	630.368	0.066	-0.166
-272.370	800.000	0.127	-0.387
-271.355	160.351	-0.036	-0.049
-270.340	-160.351	-0.120	-0.006
-269.326	-21.517	0.148	-0.089
-268.311	30.733	-0.274	0.232
-267.297	38.608	-0.058	0.051
-266.282	-200.000	0.049	0.239
-265.267	309.810	0.257	0.475
-264.253	800.000	-0.081	-0.223
-263.238	605.009	0.026	-0.063
-262.224	-127.637	0.243	-0.035
-261.209	200.411	-0.059	0.090
-260.195	-7.211	-0.244	0.163
-259.180	-141.765	0.077	-0.008
-258.165	-41.591	0.331	-0.168
-257.151	800.000	-0.009	-0.037
-256.136	53.910	0.133	0.126
-255.122	-200.000	-0.023	0.454
-254.107	-200.000	-0.011	-0.187
-253.092	-135.248	-0.349	-0.041
-252.078	-200.000	-0.013	0.114
-251.063	5.481	0.186	-0.136
-250.049	371.697	0.047	-0.095
-249.034	121.498	0.306	0.377
-248.019	139.856	-0.078	-0.101
-247.005	-48.291	0.131	-0.062
-245.990	-155.144	0.248	-0.016
-244.976	800.000	-0.030	0.122
-243.961	147.860	0.145	-0.192
-242.946	-200.000	0.018	0.347
-241.932	-35.819	0.159	-0.085
-240.917	1.295	-0.189	0.134
-239.903	-200.000	0.028	0.208
-238.888	-200.000	0.063	0.275
-237.873	-200.000	0.002	0.148
-236.859	8.114	0.194	0.143
-235.844	800.000	0.028	0.094
-234.830	800.000	-0.062	-0.197
-233.815	24.754	-0.098	0.080
-232.800	-200.000	0.033	0.366
-231.786	138.815	0.144	-0.187
-230.771	-200.000	-0.067	-0.554
-229.757	-64.973	0.130	-0.052
-228.742	800.000	0.021	0.086
-227.727	356.313	0.028	0.054
-226.713	115.875	-0.095	-0.114
-225.698	-32.938	-0.121	-0.066
-224.684	800.000	-0.073	0.250
-223.669	-149.917	-0.108	-0.008
-222.655	20.239	0.036	0.028
-221.640	-137.220	0.177	0.020
-220.625	-129.932	-0.067	0.009
-219.611	-36.072	-0.224	0.120
-218.596	81.818	0.318	0.340
-217.582	-39.234	-0.233	0.121
-216.567	342.803	0.109	0.211
-215.552	-121.390	0.072	0.012
-214.538	-2.996	0.249	-0.172
-213.523	-200.000	-0.028	0.149
-212.509	-200.000	-0.006	-0.046
-211.494	-200.000	0.041	0.336
-210.479	-200.000	0.011	-0.087
-209.465	-58.813	-0.137	-0.058
-208.450	40.950	-0.144	0.128
-207.436	-200.000	0.001	0.083
-206.421	-200.000	0.085	-0.377
-205.406	121.651	-0.046	-0.056
-204.392	-129.576	0.241	0.033
-203.377	-126.217	-0.188	0.028
-202.363	-182.502	-0.210	-0.004
-201.348	92.727	-0.222	-0.247
-200.333	367.103	0.180	0.359
-199.319	257.111	-0.119	0.201
-198.304	443.039	0.059	-0.128
-197.290	279.012	-0.011	0.020
-196.275	36.165	0.162	-0.140
-195.260	173.978	0.165	0.234
-194.246	-79.250	-0.375	0.125
-193.231	431.130	-0.130	0.277
-192.217	309.501	0.091	-0.168
-191.202	-200.000	0.034	-0.245
-190.187	-142.516	0.322	-0.031
-189.173	54.936	-0.086	-0.081
-188.158	-34.309	-0.172	-0.093
-187.144	-200.000	0.048	0.288
-186.129	155.617	-0.093	-0.127
-185.114	195.540	0.178	-0.266
-184.100	-200.000	-0.002	0.243
-183.085	152.034	0.125	-0.167
-182.071	800.000	-0.044	0.138
-181.056	-53.079	0.200	0.090
-180.042	133.679	0.175	0.222
-179.027	-200.000	-0.075	-0.385
-178.012	63.710	0.066	0.065
-176.998	54.180	-0.175	-0.166
-175.983	-42.907	0.225	0.113
-174.969	10.726	-0.150	-0.113
-173.954	-43.150	-0.093	0.047
-172.939	-128.195	0.067	0.009
-171.925	-74.418	0.248	0.088
-170.910	-200.000	0.032	-0.164
-169.896	-13.776	-0.216	-0.138
-168.881	800.000	-0.088	0.322
-167.866	800.000	-0.043	0.148
-166.852	124.533	-0.110	0.137
-165.837	296.428	0.086	-0.155
-164.823	-116.222	0.106	0.019
-163.808	82.289	0.243	0.259
-162.793	-200.000	-0.003	0.016
-161.779	57.405	0.163	0.156
-160.764	-89.603	-0.203	0.059
-159.750	101.021	0.203	0.232
-158.735	-62.721	-0.403	-0.164
-157.720	4.585	0.462	-0.334
-156.706	-59.421	-0.139	0.059
-155.691	0.296	0.262	-0.184
-154.677	65.121	-0.105	-0.105
-153.662	-200.000	0.008	0.047
-152.647	-200.000	0.020	0.111
-151.633	266.265	-0.094	-0.162
-150.618	376.872	0.075	-0.151
-149.604	88.634	0.061	-0.066
-148.589	800.000	0.083	0.244
-147.574	-33.588	-0.357	0.194
-146.560	-200.000	-0.032	0.339
-145.545	-200.000	-0.010	-0.058
-144.531	317.758	0.031	-0.057
-143.516	-52.379	0.213	0.097
-142.502	339.653	-0.184	0.353
-141.487	800.000	0.109	0.415
-140.472	-73.937	-0.070	0.025
-139.458	294.776	0.118	-0.212
-138.443	-57.266	-0.298	0.129
-137.429	-83.884	0.114	-0.036
-136.414	135.890	-0.211	0.270
-135.399	93.291	-0.182	-0.202
-134.385	-124.240	0.185	0.028
-133.370	107.887	-0.215	0.252
-132.356	99.390	-0.076	0.086
-131.341	-23.058	-0.181	0.107
-130.326	-1.246	0.106	0.073
-129.312	744.937	-0.103	0.273
-128.297	-51.569	-0.145	0.067
-127.283	-132.690	0.117	0.015
-126.268	-64.064	-0.461	0.185
-125.253	-200.000	-0.049	0.435
-124.239	-15.669	0.120	-0.075
-123.224	-134.785	0.257	-0.031
-122.210	800.000	0.173	-0.531
-121.195	21.480	0.095	-0.076
