DTS Sentinel unit serial number:	SN413079Multiplexer serial number:	ORYXHardware model number:	OX4-SRSoftware version number:	ORYX F/W v4.00 Oryx Data Collector v3.7.2.0data status	okinstallation	princeton_trtdifferential loss correction	single-endedforward channel	channel 1reverse channel	N/Adate	2019/09/15time	02:42:35forward acquisition time	60.00reverse acquisition time	0.00gamma	496.2192k internal	0.2323k external	0.2323temperature offset calibration	0.9985default loss term (dB/km)	0.3790temperature slope calibration	1.0000multiplexer offset coefficient	1.0000multiplexer slope coefficient	1.0000fibre end	0.00T internal ref (°C)	31.39T ext. ref 1 (°C)	4.56T ext. ref 2 (°C)	25.80length (m)	temperature (°C)	Stokes	anti-Stokes-747.200	-22.664	0.186	0.114
-746.185	800.000	0.015	-0.058
-745.171	405.743	0.117	-0.249
-744.156	233.094	0.100	0.165
-743.142	-200.000	-0.030	-0.179
-742.127	-83.664	-0.328	-0.106
-741.112	168.664	-0.203	-0.293
-740.098	-48.121	-0.337	-0.164
-739.083	-200.000	0.026	-0.189
-738.069	88.372	0.105	0.118
-737.054	-126.768	-0.315	0.047
-736.039	-153.012	-0.448	0.032
-735.025	-34.018	0.081	-0.045
-734.010	-45.520	-0.273	-0.136
-732.996	6.587	-0.319	-0.239
-731.981	-200.000	-0.001	-0.316
-730.966	-139.899	0.141	0.015
-729.952	-47.787	0.081	-0.039
-728.937	800.000	-0.077	-0.297
-727.923	-13.505	0.149	0.097
-726.908	-178.649	-0.387	-0.009
-725.894	-69.951	0.100	0.039
-724.879	-68.672	0.073	-0.028
-723.864	800.000	-0.082	-0.246
-722.850	800.000	-0.012	-0.048
-721.835	-200.000	-0.061	-0.315
-720.821	800.000	-0.013	-0.052
-719.806	-146.695	0.300	0.026
-718.791	-60.514	0.302	0.129
-717.777	519.619	0.004	0.009
-716.762	-55.140	-0.107	0.049
-715.748	199.765	0.168	0.260
-714.733	347.048	0.082	0.164
-713.718	-200.000	-0.020	-0.123
-712.704	546.103	-0.050	-0.121
-711.689	-112.946	-0.209	-0.042
-710.675	-200.000	0.002	0.211
-709.660	-200.000	-0.055	-0.403
-708.645	-15.851	-0.192	0.123
-707.631	-147.991	-0.088	0.007
-706.616	800.000	-0.006	-0.018
-705.602	252.737	0.135	-0.232
-704.587	46.763	-0.237	0.222
-703.572	617.220	0.033	-0.083
-702.558	-200.000	-0.013	0.103
-701.543	-200.000	0.001	-0.507
-700.529	800.000	-0.036	-0.113
-699.514	364.879	-0.136	-0.276
-698.499	355.038	0.096	0.192
-697.485	-200.000	-0.160	0.001
-696.470	800.000	0.052	0.152
-695.456	-111.868	0.222	-0.045
-694.441	456.292	-0.082	0.182
-693.426	-78.397	-0.183	-0.063
-692.412	18.480	-0.204	-0.164
-691.397	-61.989	-0.355	-0.150
-690.383	-56.192	0.316	0.142
-689.368	-60.260	-0.155	0.067
-688.354	298.047	0.166	-0.308
-687.339	-53.806	0.175	0.080
-686.324	-118.364	-0.127	-0.023
-685.310	28.847	0.239	-0.204
-684.295	112.094	-0.226	0.275
-683.281	561.939	-0.107	-0.260
-682.266	-112.708	0.051	0.010
-681.251	-20.540	-0.243	0.150
-680.237	-200.000	0.016	0.201
-679.222	-99.341	0.229	0.058
-678.208	-2.915	0.221	-0.155
-677.193	-38.263	-0.251	-0.134
-676.178	-200.000	0.007	-0.266
-675.164	21.083	-0.225	-0.184
-674.149	-200.000	0.000	-0.075
-673.135	-200.000	-0.014	0.093
-672.120	3.218	0.113	-0.083
-671.105	71.276	0.097	0.101
-670.091	275.871	-0.211	-0.377
-669.076	-99.257	0.181	0.046
-668.062	373.401	0.140	-0.286
-667.047	-63.793	-0.267	0.110
-666.032	-200.000	-0.035	0.277
-665.018	-53.947	-0.138	-0.063
-664.003	-148.190	0.206	-0.017
-662.989	-81.258	0.398	-0.132
-661.974	36.166	-0.282	-0.250
-660.959	-92.043	0.130	-0.037
-659.945	6.803	-0.212	0.159
-658.930	-136.786	-0.232	-0.027
-657.916	81.584	0.007	0.008
-656.901	29.312	-0.186	-0.159
-655.886	43.218	0.277	-0.255
-654.872	-99.741	-0.259	0.065
-653.857	-35.660	0.097	0.053
-652.843	274.969	-0.066	0.117
-651.828	35.293	0.075	-0.067
-650.814	-81.643	-0.182	-0.060
-649.799	-200.000	0.003	0.048
-648.784	-145.028	-0.165	-0.015
-647.770	214.773	-0.055	-0.087
-646.755	800.000	0.054	-0.209
-645.741	800.000	0.046	-0.134
-644.726	-83.235	-0.084	0.027
-643.711	-54.361	0.102	0.047
-642.697	162.570	-0.128	-0.180
-641.682	99.816	0.017	-0.020
-640.668	-200.000	-0.017	-0.086
-639.653	424.732	0.059	-0.127
-638.638	-169.298	0.376	-0.014
-637.624	210.138	0.155	-0.244
-636.609	65.330	0.200	0.203
-635.595	-112.686	0.089	-0.018
-634.580	-49.664	0.264	0.126
-633.565	-134.825	-0.014	0.002
-632.551	248.770	0.137	0.233
-631.536	-200.000	-0.016	-0.334
-630.522	275.821	-0.132	-0.235
-629.507	-200.000	0.012	-0.088
-628.492	-200.000	-0.022	-0.118
-627.478	296.101	0.081	-0.149
-626.463	259.548	0.022	0.038
-625.449	-170.582	0.444	-0.015
-624.434	-1.167	0.136	0.096
-623.419	-27.410	-0.024	0.014
-622.405	69.806	0.053	0.055
-621.390	65.654	-0.138	-0.141
-620.376	302.573	0.183	0.340
-619.361	-200.000	0.038	-0.191
-618.346	579.584	-0.109	-0.269
-617.332	69.261	-0.308	-0.318
-616.317	-113.966	-0.099	-0.019
-615.303	800.000	0.052	0.153
-614.288	-127.610	0.526	-0.077
-613.273	116.955	0.152	-0.187
-612.259	-8.286	0.032	0.021
-611.244	-200.000	0.151	-0.000
-610.230	214.405	0.180	-0.286
-609.215	256.113	-0.042	-0.073
-608.201	800.000	0.100	-0.291
-607.186	-129.519	-0.166	0.023
-606.171	-200.000	-0.019	0.135
-605.157	-165.711	-0.121	0.005
-604.142	-62.371	-0.154	0.064
-603.128	-35.058	-0.294	0.161
-602.113	-82.123	-0.146	-0.048
-601.098	187.095	-0.129	-0.192
-600.084	-157.663	-0.656	0.039
-599.069	-143.182	-0.317	0.031
-598.055	-159.594	0.035	0.002
-597.040	-200.000	-0.018	0.190
-596.025	-100.882	0.257	0.063
-595.011	-200.000	0.024	0.138
-593.996	-200.000	0.013	-0.105
-592.982	-200.000	0.051	0.345
-591.967	-200.000	0.016	0.400
-590.952	800.000	-0.066	-0.279
-589.938	-200.000	-0.012	-0.134
-588.923	-65.169	-0.312	-0.126
-587.909	-35.247	0.175	0.096
-586.894	-139.240	-0.257	0.028
-585.879	-200.000	0.023	-0.103
-584.865	-96.870	0.388	-0.102
-583.850	72.654	0.192	0.202
-582.836	-59.531	0.188	0.081
-581.821	187.304	-0.091	0.136
-580.806	123.840	-0.136	0.172
-579.792	800.000	-0.051	-0.142
-578.777	560.426	-0.155	-0.376
-577.763	-105.691	0.139	0.032
-576.748	-154.913	-0.311	-0.021
-575.733	-38.466	-0.242	0.129
-574.719	189.360	-0.128	-0.192
-573.704	800.000	0.062	-0.248
-572.690	-65.081	0.197	-0.080
-571.675	-16.482	0.143	0.091
-570.661	113.867	-0.056	0.068
-569.646	-134.500	0.412	-0.051
-568.631	8.939	0.223	0.169
-567.617	-9.325	0.121	0.081
-566.602	-200.000	-0.003	0.128
-565.588	18.655	-0.335	0.269
-564.573	51.761	0.109	-0.104
-563.558	-200.000	0.007	0.119
-562.544	800.000	-0.042	0.168
-561.529	-55.634	-0.277	0.124
-560.515	245.826	0.045	-0.076
-559.500	-200.000	0.037	0.206
-558.485	-153.786	0.344	-0.024
-557.471	-43.391	-0.299	-0.152
-556.456	-179.049	-0.122	0.003
-555.442	61.461	-0.191	0.191
-554.427	-200.000	0.047	0.265
-553.412	645.449	0.151	-0.385
-552.398	-200.000	-0.024	-0.225
-551.383	-200.000	0.013	-0.149
-550.369	-190.512	0.035	0.000
-549.354	610.654	0.101	0.253
-548.339	-15.464	-0.202	0.130
-547.325	-46.750	0.351	-0.172
-546.310	-73.776	0.049	-0.018
-545.296	-144.613	-0.257	-0.024
-544.281	8.611	-0.213	-0.161
-543.266	56.383	0.181	0.177
-542.252	-46.796	0.192	-0.094
-541.237	-200.000	-0.018	-0.223
-540.223	-105.306	-0.299	-0.068
-539.208	-135.234	-0.533	-0.064
-538.193	44.834	0.276	0.255
-537.179	52.017	-0.055	-0.053
-536.164	800.000	0.020	-0.066
-535.150	-155.270	0.137	-0.009
-534.135	-200.000	0.017	-0.198
-533.121	-0.498	0.188	0.134
-532.106	-200.000	0.009	0.050
-531.091	-26.589	-0.048	-0.028
-530.077	360.564	-0.140	-0.282
-529.062	-129.543	-0.168	0.023
-528.048	-200.000	-0.036	0.208
-527.033	-33.497	0.131	0.072
-526.018	87.159	-0.172	-0.190
-525.004	432.384	0.062	0.136
-523.989	-76.436	-0.598	-0.211
-522.975	-94.148	0.248	-0.068
-521.960	-200.000	-0.054	-0.239
-520.945	107.795	0.063	-0.075
-519.931	3.556	-0.219	0.160
-518.916	58.558	-0.137	0.135
-517.902	-177.914	0.233	0.006
-516.887	-147.485	-0.230	0.019
-515.872	-200.000	-0.044	0.441
-514.858	800.000	-0.084	0.301
-513.843	65.785	-0.082	0.083
-512.829	665.669	-0.103	-0.267
-511.814	49.896	0.213	0.201
-510.799	-27.863	-0.196	-0.114
-509.785	104.992	-0.269	0.317
-508.770	768.376	-0.124	0.336
-507.756	-84.912	0.351	-0.110
-506.741	311.046	-0.045	-0.085
-505.726	247.948	0.216	0.365
-504.712	800.000	-0.099	0.428
-503.697	20.372	-0.306	0.247
-502.683	-73.128	-0.087	-0.032
-501.668	79.200	0.042	0.045
-500.653	95.355	0.208	-0.237
-499.639	800.000	-0.015	0.058
-498.624	-92.151	0.074	0.021
-497.610	-145.563	0.403	-0.036
-496.595	-126.954	0.440	0.065
-495.581	-121.123	0.354	-0.059
-494.566	800.000	0.045	-0.193
-493.551	800.000	0.054	0.188
-492.537	235.283	0.138	0.228
-491.522	93.437	-0.181	-0.205
-490.508	-28.255	-0.160	-0.092
-489.493	-145.887	0.033	0.003
-488.478	251.892	0.110	-0.187
-487.464	-122.384	-0.391	0.064
-486.449	800.000	-0.107	-0.364
-485.435	550.741	-0.045	-0.108
-484.420	-80.352	0.155	0.052
-483.405	-37.195	-0.086	-0.046
-482.391	-169.399	0.150	-0.005
-481.376	-166.745	-0.149	0.006
-480.362	-200.000	0.031	0.177
-479.347	6.263	-0.322	0.239
-478.332	675.667	0.081	-0.210
-477.318	-200.000	0.074	-0.347
-476.303	-179.963	-0.271	0.006
-475.289	-94.507	-0.426	0.116
-474.274	-152.319	-0.484	-0.035
-473.259	666.187	-0.095	0.246
-472.245	800.000	0.043	-0.162
-471.230	-200.000	0.027	-0.324
-470.216	267.822	-0.277	0.484
-469.201	-200.000	0.020	0.269
-468.186	-93.126	-0.173	-0.048
-467.172	-85.839	0.392	-0.121
-466.157	-200.000	-0.026	0.124
-465.143	-142.435	-0.088	-0.009
-464.128	-0.445	0.256	-0.182
-463.113	282.485	0.107	-0.191
-462.099	-53.630	-0.196	0.089
-461.084	-200.000	0.000	0.398
-460.070	-46.848	0.230	0.112
-459.055	800.000	-0.045	0.133
-458.040	37.103	-0.027	-0.024
-457.026	800.000	0.086	0.325
-456.011	800.000	0.066	0.229
-454.997	-75.625	0.176	0.063
-453.982	-200.000	0.186	0.000
-452.968	-200.000	0.057	-0.252
-451.953	72.506	0.185	0.192
-450.938	211.106	-0.100	0.156
-449.924	440.353	-0.050	0.110
-448.909	-200.000	0.027	-0.203
-447.895	14.709	0.011	-0.009
-446.880	-45.884	-0.262	-0.129
-445.865	106.980	-0.093	0.110
-444.851	349.915	0.148	0.293
-443.836	-76.859	0.368	0.128
-442.822	474.257	-0.109	0.246
-441.807	-169.864	0.273	-0.010
-440.792	-121.232	0.304	-0.051
-439.778	28.630	0.218	-0.184
-438.763	800.000	0.009	0.031
-437.749	469.003	0.074	-0.165
-436.734	7.362	-0.113	0.084
-435.719	800.000	-0.144	0.433
-434.705	345.992	0.061	0.120
-433.690	-200.000	0.033	-0.296
-432.676	-88.829	0.205	0.061
-431.661	-29.639	-0.104	-0.059
-430.646	-92.973	0.030	-0.008
-429.632	-200.000	-0.001	0.256
-428.617	90.680	0.201	0.225
-427.603	-94.507	-0.375	0.102
-426.588	-23.882	-0.116	-0.069
-425.573	234.804	0.236	-0.388
-424.559	42.498	0.076	0.069
-423.544	800.000	-0.076	-0.326
-422.530	-200.000	-0.027	-0.161
-421.515	800.000	-0.055	0.225
-420.500	-7.286	-0.050	0.034
-419.486	-102.506	0.180	-0.043
-418.471	800.000	0.079	-0.310
-417.457	-120.222	-0.406	-0.069
-416.442	176.227	-0.040	0.058
-415.428	-200.000	-0.032	0.309
-414.413	-151.181	-0.015	-0.001
-413.398	-64.897	0.145	-0.059
-412.384	149.678	-0.159	0.214
-411.369	-7.079	0.051	-0.035
-410.355	-200.000	0.007	0.118
-409.340	800.000	0.061	-0.237
-408.325	71.897	-0.052	-0.053
-407.311	53.991	-0.262	0.251
-406.296	-154.462	-0.197	0.013
-405.282	341.781	0.181	0.352
-404.267	363.288	0.071	0.142
-403.252	74.690	0.175	0.183
-402.238	227.098	-0.129	0.209
-401.223	800.000	-0.027	0.086
-400.209	480.106	0.038	-0.087
-399.194	800.000	0.041	-0.131
-398.179	-200.000	-0.027	-0.178
-397.165	-75.895	0.277	0.098
-396.150	-149.541	-0.088	0.007
-395.136	800.000	0.016	0.048
-394.121	24.178	-0.074	0.061
-393.106	-200.000	0.071	-0.343
-392.092	-95.669	0.196	0.052
-391.077	-106.663	-0.323	0.072
-390.063	9.131	-0.285	0.214
-389.048	79.175	0.175	0.187
-388.033	-200.000	0.012	-0.232
-387.019	-73.152	0.116	-0.042
-386.004	-200.000	-0.020	-0.153
-384.990	-87.296	-0.609	0.184
-383.975	204.923	0.268	-0.414
-382.960	681.273	-0.036	-0.094
-381.946	-87.564	-0.253	-0.076
-380.931	-40.089	-0.158	-0.082
-379.917	5.471	-0.206	0.151
-378.902	-61.413	-0.243	0.102
-377.888	72.262	-0.076	0.078
-376.873	-1.683	-0.188	-0.132
-375.858	-39.459	0.197	0.103
-374.844	800.000	-0.037	-0.103
-373.829	-200.000	-0.027	-0.187
-372.815	-2.118	-0.233	0.163
-371.800	238.801	-0.183	0.303
-370.785	86.885	-0.085	-0.094
-369.771	-20.194	0.174	0.106
-368.756	-190.082	0.548	-0.006
-367.742	307.686	-0.186	0.344
-366.727	18.729	-0.197	-0.157
-365.712	13.168	0.176	0.136
-364.698	128.236	-0.234	-0.297
-363.683	303.371	0.038	0.070
-362.669	748.501	0.143	0.384
-361.654	-200.000	0.004	-0.041
-360.639	141.372	-0.164	0.216
-359.625	71.117	-0.189	0.195
-358.610	342.879	-0.062	-0.122
-357.596	800.000	-0.035	-0.139
-356.581	-121.308	0.203	-0.034
-355.566	-142.795	-0.133	0.013
-354.552	-109.213	-0.225	-0.048
-353.537	128.368	0.132	0.167
-352.523	-128.743	0.087	-0.012
-351.508	800.000	0.083	0.245
-350.493	25.803	0.282	-0.234
-349.479	-51.372	-0.127	-0.059
-348.464	41.583	0.225	-0.202
-347.450	-52.228	-0.146	-0.067
-346.435	386.077	0.026	0.053
-345.420	-200.000	0.050	-0.444
-344.406	5.718	0.012	0.009
-343.391	2.618	-0.098	-0.071
-342.377	-116.623	0.169	0.031
-341.362	13.773	0.161	-0.124
-340.348	443.896	0.108	0.235
-339.333	6.658	0.349	-0.258
-338.318	252.898	0.139	-0.236
-337.304	209.440	0.003	-0.004
-336.289	-62.252	-0.158	-0.065
-335.275	-69.564	-0.253	-0.096
-334.260	191.111	-0.051	0.076
-333.245	-39.185	0.180	0.094
-332.231	-144.747	0.325	0.030
-331.216	-6.868	-0.062	-0.042
-330.202	-126.246	-0.137	0.020
-329.187	-131.472	-0.114	0.015
-328.172	-200.000	0.021	-0.376
-327.158	141.771	0.069	0.090
-326.143	-59.014	-0.185	-0.079
-325.129	-40.184	-0.315	0.163
-324.114	110.831	-0.093	0.111
-323.099	-71.898	0.086	0.032
-322.085	82.986	-0.101	0.109
-321.070	-13.918	-0.190	0.122
-320.056	-200.000	0.069	0.339
-319.041	138.048	0.120	-0.157
-318.026	113.254	0.310	0.373
-317.012	-33.666	-0.160	-0.087
-315.997	-127.425	0.149	-0.022
-314.983	356.114	-0.243	0.481
-313.968	-82.622	0.196	0.063
-312.953	82.697	0.100	0.108
-311.939	-172.667	-0.129	-0.004
-310.924	-9.373	0.201	0.133
-309.910	-98.987	0.206	-0.052
-308.895	550.339	-0.165	0.393
-307.880	780.860	-0.061	-0.166
-306.866	-134.157	0.290	0.036
-305.851	205.297	-0.139	-0.214
-304.837	48.524	-0.121	-0.113
-303.822	-14.728	0.157	0.100
-302.807	-35.018	0.156	-0.084
-301.793	800.000	-0.069	0.263
-300.778	800.000	0.159	-0.510
-299.764	-200.000	-0.021	0.142
-298.749	800.000	0.058	-0.208
-297.735	7.783	0.100	0.074
-296.720	-99.404	0.403	0.101
-295.705	232.998	-0.037	0.060
-294.691	456.818	-0.191	-0.420
-293.676	-36.271	0.260	0.139
-292.662	-130.723	0.131	0.017
-291.647	260.904	-0.169	0.290
-290.632	524.896	-0.075	-0.175
-289.618	43.008	-0.117	0.106
-288.603	180.003	-0.118	-0.172
-287.589	-70.513	-0.151	-0.057
-286.574	-93.043	0.249	-0.069
-285.559	15.140	-0.185	-0.144
-284.545	-56.358	-0.131	-0.058
-283.530	107.202	-0.124	-0.146
-282.516	-149.960	0.195	0.015
-281.501	-72.000	0.144	0.053
-280.486	-200.000	-0.006	-0.262
-279.472	-68.130	0.204	-0.079
-278.457	191.566	0.158	0.236
-277.443	236.720	0.063	0.103
-276.428	800.000	0.035	-0.120
-275.413	800.000	-0.042	0.122
-274.399	14.415	0.256	0.198
-273.384	-200.000	0.002	0.322
-272.370	-86.492	0.377	0.115
-271.355	475.121	-0.059	-0.132
-270.340	624.465	0.028	-0.070
-269.326	62.777	0.069	0.069
-268.311	800.000	-0.058	0.163
-267.297	-69.567	0.181	0.069
-266.282	124.803	-0.195	0.244
-265.267	800.000	0.012	-0.045
-264.253	-200.000	0.010	-0.060
-263.238	-164.968	0.215	-0.009
-262.224	-200.000	-0.042	0.405
-261.209	-200.000	-0.059	-0.344
-260.195	734.847	0.083	-0.221
-259.180	-200.000	-0.001	-0.270
-258.165	-30.996	-0.110	0.062
-257.151	-200.000	0.002	0.130
-256.136	63.720	0.292	0.291
-255.122	-50.692	-0.091	0.042
-254.107	205.897	-0.056	0.087
-253.092	93.145	0.151	-0.169
-252.078	325.888	0.159	-0.302
-251.063	-200.000	-0.014	0.069
-250.049	-66.301	-0.132	-0.052
-249.034	-67.973	0.318	0.123
-248.019	800.000	0.079	-0.228
-247.005	123.844	0.031	-0.039
-245.990	323.356	-0.125	0.236
-244.976	-19.972	0.481	0.294
-243.961	330.670	0.188	-0.358
-242.946	-48.938	0.131	0.062
-241.932	800.000	0.024	-0.101
-240.917	-87.939	-0.272	0.081
-239.903	684.802	-0.037	0.096
-238.888	-45.641	-0.182	-0.089
-237.873	-200.000	-0.002	0.187
-236.859	-21.418	0.277	0.167
-235.844	-52.432	-0.268	0.123
-234.830	-150.066	-0.318	-0.024
-233.815	231.316	0.140	-0.227
-232.800	-40.106	-0.758	-0.391
-231.786	-112.099	-0.097	0.019
-230.771	74.171	0.292	0.303
-229.757	445.668	-0.145	-0.316
-228.742	-120.167	-0.176	-0.030
-227.727	-92.239	0.174	0.049
-226.713	-200.000	-0.043	-0.197
-225.698	-5.027	-0.108	-0.074
-224.684	800.000	-0.048	0.131
-223.669	-200.000	0.010	-0.082
-222.655	60.788	-0.187	-0.184
-221.640	-38.554	0.223	-0.116
-220.625	-8.979	0.200	-0.133
-219.611	-103.731	0.053	0.012
-218.596	777.268	-0.045	-0.121
-217.582	-45.104	-0.126	0.062
-216.567	-200.000	-0.040	0.379
-215.552	37.561	0.060	0.053
-214.538	16.715	-0.341	-0.267
-213.523	-114.075	0.193	0.037
-212.509	361.977	0.046	0.090
-211.494	238.731	-0.101	0.166
-210.479	-115.863	-0.074	-0.014
-209.465	8.767	0.148	0.111
-208.450	-158.190	-0.198	-0.011
-207.436	51.105	-0.253	0.238
-206.421	-48.282	0.423	0.202
-205.406	-4.195	0.115	-0.079
-204.392	131.561	-0.071	0.090
-203.377	-122.008	-0.208	-0.034
-202.363	281.768	0.056	-0.100
-201.348	-2.957	0.112	-0.078
-200.333	412.567	0.077	-0.161
-199.319	800.000	0.020	-0.083
-198.304	-133.015	-0.356	-0.045
-197.290	26.965	-0.234	-0.194
-196.275	213.485	-0.169	-0.265
-195.260	14.294	0.215	0.166
-194.246	-30.404	-0.443	-0.249
-193.231	-139.022	0.186	0.020
-192.217	-114.479	-0.195	-0.037
-191.202	157.434	-0.047	-0.064
-190.187	33.152	0.163	-0.139
-189.173	-100.191	0.218	0.053
-188.158	45.112	0.167	-0.152
-187.144	-200.000	-0.027	0.253
-186.129	-18.443	0.021	0.013
-185.114	-200.000	0.032	-0.151
-184.100	102.988	-0.110	-0.128
-183.085	614.334	-0.089	0.221
-182.071	189.849	-0.216	0.320
-181.056	-200.000	0.024	0.144
-180.042	245.909	-0.107	-0.178
-179.027	375.825	0.111	0.224
-178.012	52.954	0.140	-0.132
-176.998	151.080	-0.123	-0.166
-175.983	-200.000	0.031	-0.176
-174.969	-78.637	-0.114	-0.038
-173.954	-99.927	0.212	0.052
-172.939	-83.981	0.158	-0.050
-171.925	-16.535	0.096	-0.060
-170.910	158.912	0.040	0.055
-169.896	-119.642	-0.354	0.060
-168.881	23.212	0.129	-0.105
-167.866	68.758	0.111	0.112
-166.852	382.720	-0.139	0.282
-165.837	-130.079	0.051	0.007
-164.823	315.623	0.195	-0.363
-163.808	-66.351	-0.303	-0.119
-162.793	60.867	0.161	0.157
-161.779	459.799	-0.242	-0.533
-160.764	593.888	-0.038	-0.093
-159.750	-6.687	-0.184	0.124
-158.735	-11.323	0.177	-0.115
-157.720	-12.246	-0.182	-0.118
-156.706	-200.000	0.071	-0.329
-155.691	51.561	0.356	-0.334
-154.677	-111.036	-0.152	0.031
-153.662	-121.014	0.375	-0.062
-152.647	189.678	-0.181	-0.267
-151.633	232.860	-0.092	-0.149
-150.618	-84.717	-0.248	-0.077
-149.604	153.171	-0.041	0.055
-148.589	800.000	-0.037	-0.107
-147.574	18.522	-0.225	-0.177
-146.560	-200.000	-0.010	0.199
-145.545	-200.000	0.064	-0.332
-144.531	-51.857	-0.007	-0.003
-143.516	800.000	-0.028	-0.078
-142.502	21.747	0.114	0.092
-141.487	571.519	0.140	0.336
-140.472	231.814	0.126	-0.203
-139.458	46.454	-0.216	-0.197
-138.443	445.048	-0.094	0.204
-137.429	136.520	0.033	-0.042
-136.414	-39.721	0.360	0.186
-135.399	-30.765	-0.200	0.112
-134.385	-73.164	-0.023	0.008
-133.370	302.145	0.112	0.204
-132.356	225.910	-0.045	-0.072
-131.341	800.000	0.053	0.192
-130.326	-200.000	0.022	0.097
-129.312	189.440	-0.090	-0.133
-128.297	-58.136	0.234	0.101
-127.283	438.802	-0.031	-0.067
-126.268	292.933	0.032	0.058
-125.253	-112.484	-0.132	0.026
-124.239	565.387	-0.109	0.261
-123.224	154.247	0.141	-0.191
-122.210	558.038	0.030	0.072
-121.195	-200.000	-0.050	0.279
