DTS Sentinel unit serial number:	SN413079Multiplexer serial number:	ORYXHardware model number:	OX4-SRSoftware version number:	ORYX F/W v4.00 Oryx Data Collector v3.7.2.0data status	okinstallation	princeton_trtdifferential loss correction	single-endedforward channel	channel 1reverse channel	N/Adate	2019/09/15time	16:54:35forward acquisition time	60.00reverse acquisition time	0.00gamma	496.2192k internal	0.2293k external	0.2293temperature offset calibration	0.9931default loss term (dB/km)	0.3790temperature slope calibration	1.0000multiplexer offset coefficient	1.0000multiplexer slope coefficient	1.0000fibre end	0.00T internal ref (°C)	44.42T ext. ref 1 (°C)	5.80T ext. ref 2 (°C)	40.47length (m)	temperature (°C)	Stokes	anti-Stokes-747.200	-21.424	-0.060	0.037
-746.185	185.391	-0.096	0.146
-745.171	-200.000	-0.017	0.093
-744.156	206.674	-0.119	-0.189
-743.142	137.390	0.097	0.129
-742.127	89.103	-0.312	0.355
-741.112	800.000	-0.078	0.237
-740.098	198.625	-0.210	-0.328
-739.083	268.954	0.058	0.104
-738.069	-54.461	-0.242	-0.112
-737.054	-55.023	0.111	0.051
-736.039	-171.096	0.167	0.006
-735.025	800.000	-0.061	-0.243
-734.010	194.695	-0.189	0.294
-732.996	-40.802	-0.280	-0.148
-731.981	399.053	-0.046	-0.099
-730.966	417.728	-0.091	-0.199
-729.952	-166.616	-0.349	-0.015
-728.937	110.220	-0.157	-0.193
-727.923	-155.086	-0.332	0.022
-726.908	-200.000	0.030	0.315
-725.894	800.000	-0.123	-0.455
-724.879	800.000	0.005	-0.022
-723.864	-139.848	-0.244	0.026
-722.850	800.000	0.041	-0.161
-721.835	800.000	-0.071	0.212
-720.821	-200.000	0.005	-0.215
-719.806	409.770	-0.113	0.244
-718.791	218.159	-0.150	0.245
-717.777	-87.702	-0.105	0.032
-716.762	-200.000	-0.017	0.213
-715.748	-8.777	-0.310	0.212
-714.733	-127.180	0.265	0.040
-713.718	-158.785	-0.282	0.016
-712.704	68.686	0.164	0.172
-711.689	763.969	0.042	-0.118
-710.675	-21.869	-0.183	0.114
-709.660	663.821	0.006	-0.016
-708.645	-105.972	0.119	0.027
-707.631	490.196	0.036	0.085
-706.616	136.327	0.246	-0.327
-705.602	800.000	-0.042	0.149
-704.587	-77.875	-0.136	0.048
-703.572	108.305	0.148	0.181
-702.558	52.204	-0.324	0.316
-701.543	800.000	0.017	0.054
-700.529	-200.000	-0.008	0.171
-699.514	69.810	0.170	-0.179
-698.499	-102.343	-0.195	-0.048
-697.485	-200.000	0.030	-0.254
-696.470	-105.229	0.181	-0.042
-695.456	1.922	0.157	0.116
-694.441	-112.469	-0.136	-0.028
-693.426	109.264	0.120	0.147
-692.412	213.316	-0.146	0.235
-691.397	6.898	0.145	-0.110
-690.383	335.107	0.112	0.222
-689.368	-29.132	-0.099	-0.058
-688.354	-0.470	0.222	0.161
-687.339	-12.867	-0.149	-0.099
-686.324	800.000	-0.073	-0.211
-685.310	449.558	0.188	-0.422
-684.295	-113.034	-0.249	-0.050
-683.281	710.093	-0.106	-0.286
-682.266	-200.000	0.022	-0.240
-681.251	-89.094	0.152	-0.046
-680.237	-58.242	-0.256	0.114
-679.222	53.822	0.168	-0.165
-678.208	-161.074	-0.151	0.008
-677.193	77.678	0.146	0.159
-676.178	762.219	-0.050	-0.139
-675.164	45.883	0.151	-0.143
-674.149	-178.413	-0.322	0.008
-673.135	669.454	0.171	-0.451
-672.120	343.196	-0.131	-0.262
-671.105	37.494	-0.328	0.297
-670.091	800.000	0.056	0.217
-669.076	-177.736	-0.271	-0.007
-668.062	293.575	0.092	0.171
-667.047	-200.000	-0.001	0.406
-666.032	-102.840	-0.137	-0.033
-665.018	424.858	0.012	0.026
-664.003	697.608	0.061	0.164
-662.989	158.585	-0.070	-0.100
-661.974	155.189	-0.051	0.072
-660.959	-200.000	0.018	-0.164
-659.945	-151.874	0.225	-0.017
-658.930	-200.000	-0.027	-0.300
-657.916	-27.440	-0.070	-0.041
-656.901	360.134	-0.073	0.149
-655.886	334.896	0.055	-0.108
-654.872	265.864	-0.031	0.055
-653.857	-21.841	-0.115	0.071
-652.843	40.701	0.302	0.277
-651.828	-87.614	0.319	0.098
-650.814	-200.000	0.000	-0.127
-649.799	-137.747	0.364	0.042
-648.784	140.202	0.104	0.140
-647.770	260.464	-0.130	0.229
-646.755	800.000	-0.055	0.164
-645.741	52.514	-0.104	-0.101
-644.726	-158.532	0.196	0.012
-643.711	800.000	0.066	-0.232
-642.697	800.000	-0.054	-0.234
-641.682	58.028	-0.219	-0.218
-640.668	547.954	-0.092	-0.225
-639.653	-144.209	0.107	0.010
-638.638	615.159	-0.161	-0.412
-637.624	165.379	0.165	-0.238
-636.609	-85.503	-0.264	0.084
-635.595	800.000	-0.079	-0.245
-634.580	-200.000	0.026	-0.120
-633.565	22.450	0.087	0.073
-632.551	-48.459	0.281	-0.138
-631.536	-106.927	-0.064	-0.014
-630.522	504.921	0.021	0.049
-629.507	-44.881	0.195	-0.099
-628.492	-69.254	0.174	-0.068
-627.478	-123.541	0.128	0.021
-626.463	49.507	0.061	-0.059
-625.449	-200.000	-0.004	-0.102
-624.434	248.385	0.217	-0.375
-623.419	798.725	0.064	0.180
-622.405	-41.687	0.215	0.112
-621.390	-200.000	0.036	0.164
-620.376	-65.517	0.141	0.058
-619.361	122.446	-0.108	0.138
-618.346	-160.249	-0.116	0.006
-617.332	-106.195	-0.333	0.076
-616.317	499.309	-0.086	0.203
-615.303	-114.422	-0.174	0.034
-614.288	168.584	0.115	0.167
-613.273	-55.625	0.283	-0.129
-612.259	-148.747	-0.343	0.028
-611.244	800.000	-0.036	0.130
-610.230	127.653	-0.148	0.191
-609.215	144.790	-0.099	-0.134
-608.201	32.349	-0.224	-0.197
-607.186	276.421	0.130	-0.236
-606.171	-200.000	-0.012	0.214
-605.157	-87.837	-0.217	-0.066
-604.142	-141.091	-0.107	0.011
-603.128	476.000	0.208	-0.479
-602.113	-4.774	-0.090	0.063
-601.098	-88.379	-0.252	0.077
-600.084	-200.000	0.003	0.223
-599.069	286.925	0.030	-0.056
-598.055	800.000	-0.074	-0.246
-597.040	378.781	0.076	-0.157
-596.025	-86.067	-0.201	-0.063
-595.011	-29.129	0.157	0.091
-593.996	344.843	0.157	-0.313
-592.982	-200.000	0.030	0.168
-591.967	20.182	0.012	-0.010
-590.952	-68.666	-0.315	0.124
-589.938	-12.481	0.049	0.033
-588.923	743.528	-0.074	-0.203
-587.909	-200.000	-0.048	0.232
-586.894	205.810	0.086	-0.137
-585.879	203.886	0.221	0.348
-584.865	-96.341	0.217	0.058
-583.850	-186.844	0.262	-0.004
-582.836	96.669	0.192	-0.223
-581.821	-126.302	-0.174	-0.026
-580.806	-80.622	-0.281	0.095
-579.792	389.599	-0.057	-0.121
-578.777	18.187	0.301	-0.244
-577.763	-200.000	-0.029	-0.222
-576.748	-171.237	0.176	0.006
-575.733	120.255	0.123	0.155
-574.719	11.242	-0.175	-0.136
-573.704	315.934	-0.134	-0.257
-572.690	-200.000	0.021	0.202
-571.675	8.590	0.185	-0.141
-570.661	57.760	-0.121	-0.120
-569.646	-114.964	-0.301	-0.058
-568.631	-78.213	0.061	0.021
-567.617	800.000	-0.054	-0.237
-566.602	17.806	-0.258	-0.209
-565.588	-102.729	-0.135	-0.033
-564.573	-120.036	0.178	0.031
-563.558	-101.027	0.433	0.108
-562.544	468.555	0.112	-0.255
-561.529	60.303	0.193	0.194
-560.515	186.299	-0.096	-0.145
-559.500	11.152	0.065	0.050
-558.485	800.000	-0.091	0.277
-557.471	89.128	-0.132	0.149
-556.456	-19.340	0.119	0.075
-555.442	4.592	-0.206	-0.154
-554.427	-92.763	-0.192	-0.055
-553.412	800.000	0.123	0.422
-552.398	-200.000	-0.058	-0.301
-551.383	-1.002	-0.128	0.092
-550.369	529.387	0.072	0.173
-549.354	-200.000	-0.001	-0.173
-548.339	167.380	-0.232	0.335
-547.325	173.108	-0.156	0.228
-546.310	-124.586	0.213	0.034
-545.296	-200.000	0.012	-0.057
-544.281	167.471	0.163	0.235
-543.266	136.291	-0.155	-0.206
-542.252	-149.577	-0.410	-0.033
-541.237	253.258	-0.130	0.225
-540.223	35.574	-0.058	0.052
-539.208	800.000	-0.065	-0.245
-538.193	-115.831	0.274	-0.052
-537.179	-42.605	-0.396	0.205
-536.164	-77.553	0.195	-0.068
-535.150	30.661	0.475	-0.412
-534.135	-12.991	0.123	0.081
-533.121	-200.000	0.041	0.199
-532.106	-120.012	0.311	-0.054
-531.091	48.530	-0.139	0.132
-530.077	40.347	-0.191	0.175
-529.062	670.659	-0.106	-0.279
-528.048	-200.000	0.017	0.213
-527.033	20.794	-0.308	0.253
-526.018	-60.144	-0.198	0.086
-525.004	245.276	0.107	-0.183
-523.989	-44.440	-0.074	0.038
-522.975	-183.707	0.275	-0.005
-521.960	-200.000	0.023	0.321
-520.945	-200.000	0.029	-0.180
-519.931	-5.492	-0.057	0.040
-518.916	445.089	-0.148	-0.329
-517.902	-200.000	0.022	0.101
-516.887	63.791	-0.180	0.183
-515.872	90.252	0.158	-0.179
-514.858	-113.302	-0.186	0.037
-513.843	-200.000	-0.021	0.278
-512.829	296.185	0.098	-0.182
-511.814	-80.770	-0.364	0.123
-510.799	9.103	-0.248	0.190
-509.785	-86.665	0.141	-0.044
-508.770	-12.519	0.233	0.154
-507.756	-186.456	-0.118	-0.002
-506.741	294.443	-0.037	-0.069
-505.726	35.601	-0.205	0.183
-504.712	362.722	0.132	0.270
-503.697	-163.039	-0.328	-0.016
-502.683	17.255	0.087	-0.070
-501.668	-109.927	-0.096	-0.020
-500.653	-3.722	-0.244	-0.171
-499.639	-25.552	0.055	-0.033
-498.624	-200.000	-0.015	-0.115
-497.610	44.547	0.029	0.027
-496.595	33.753	0.288	-0.254
-495.581	-13.954	-0.189	-0.124
-494.566	-53.939	0.242	0.112
-493.551	800.000	-0.026	0.103
-492.537	55.306	0.023	-0.022
-491.522	-200.000	0.011	0.291
-490.508	-91.741	-0.286	0.082
-489.493	595.277	-0.017	-0.043
-488.478	13.677	-0.130	-0.102
-487.464	-200.000	-0.002	-0.172
-486.449	65.793	0.199	0.204
-485.435	30.518	-0.215	-0.186
-484.420	-69.285	-0.137	0.053
-483.405	-200.000	0.009	-0.080
-482.391	215.903	0.205	0.329
-481.376	210.210	0.085	0.135
-480.362	227.090	0.074	-0.122
-479.347	-114.774	0.055	0.011
-478.332	-200.000	-0.012	0.204
-477.318	-200.000	0.038	-0.383
-476.303	18.072	-0.208	-0.168
-475.289	-150.934	0.119	-0.009
-474.274	117.690	-0.146	-0.182
-473.259	-60.164	0.150	-0.065
-472.245	-79.173	0.290	-0.100
-471.230	-200.000	0.013	-0.115
-470.216	-200.000	-0.002	-0.113
-469.201	-73.807	-0.356	-0.131
-468.186	-34.713	0.099	0.055
-467.172	-200.000	0.052	-0.373
-466.157	800.000	0.078	-0.290
-465.143	-200.000	-0.022	-0.135
-464.128	-200.000	0.004	0.034
-463.113	4.514	-0.208	-0.155
-462.099	-134.719	0.347	-0.043
-461.084	308.316	0.105	-0.199
-460.070	35.393	0.093	0.082
-459.055	261.010	0.114	-0.199
-458.040	800.000	0.021	-0.070
-457.026	800.000	0.032	0.139
-456.011	-137.730	-0.136	0.015
-454.997	-30.557	0.164	-0.094
-453.982	-7.178	-0.157	0.108
-452.968	-88.310	-0.339	-0.102
-451.953	-200.000	0.014	-0.106
-450.938	-200.000	0.041	-0.189
-449.924	-44.140	0.318	-0.161
-448.909	292.652	-0.103	-0.189
-447.895	-200.000	0.031	0.276
-446.880	140.458	-0.245	0.327
-445.865	151.561	0.062	0.085
-444.851	-97.717	0.069	-0.018
-443.836	175.730	-0.174	-0.256
-442.822	-14.315	-0.105	-0.068
-441.807	20.811	-0.103	-0.085
-440.792	52.691	0.133	-0.129
-439.778	557.476	-0.078	0.191
-438.763	174.222	-0.283	-0.414
-437.749	-138.920	-0.030	-0.003
-436.734	67.603	-0.173	0.179
-435.719	-21.547	0.277	0.171
-434.705	185.891	0.255	-0.383
-433.690	330.194	-0.046	-0.089
-432.676	-79.126	0.049	-0.017
-431.661	-118.342	-0.367	-0.066
-430.646	27.758	0.210	0.179
-429.632	-39.034	0.354	-0.188
-428.617	-58.626	-0.227	-0.100
-427.603	-200.000	0.024	-0.263
-426.588	-96.907	-0.056	0.015
-425.573	295.724	0.059	0.109
-424.559	-7.907	-0.262	0.179
-423.544	-126.266	0.279	-0.042
-422.530	-5.426	0.523	-0.363
-421.515	-200.000	-0.012	0.121
-420.500	-109.821	-0.139	-0.030
-419.486	-91.085	-0.263	-0.076
-418.471	208.993	0.069	-0.109
-417.457	83.601	0.140	0.154
-416.442	34.833	0.107	0.095
-415.428	-76.148	-0.117	0.042
-414.413	-29.656	-0.201	-0.116
-413.398	-37.405	-0.024	0.013
-412.384	57.019	-0.075	0.074
-411.369	-140.012	0.109	-0.012
-410.355	122.868	0.177	-0.223
-409.340	361.562	0.051	0.104
-408.325	-61.297	-0.151	0.064
-407.311	-135.639	0.202	0.024
-406.296	-200.000	0.006	0.104
-405.282	-24.280	-0.048	0.029
-404.267	178.906	-0.031	0.045
-403.252	679.411	-0.013	0.034
-402.238	-200.000	-0.061	0.312
-401.223	545.900	0.041	0.099
-400.209	74.966	-0.068	-0.073
-399.194	-200.000	0.002	0.223
-398.179	-200.000	-0.004	-0.216
-397.165	-82.099	0.176	-0.058
-396.150	-40.281	0.175	-0.092
-395.136	48.774	-0.281	-0.266
-394.121	159.342	0.175	0.246
-393.106	-200.000	-0.014	-0.089
-392.092	100.588	-0.132	0.155
-391.077	-31.567	-0.120	-0.068
-390.063	-152.143	-0.287	0.021
-389.048	-123.791	-0.301	-0.048
-388.033	-104.201	0.116	-0.027
-387.019	-103.518	0.251	0.059
-386.004	-200.000	-0.032	0.224
-384.990	43.352	-0.376	0.346
-383.975	109.670	0.095	0.115
-382.960	-30.037	0.107	-0.061
-381.946	-122.131	0.379	0.063
-380.931	-24.752	-0.188	-0.113
-379.917	-200.000	-0.024	0.313
-378.902	332.991	0.203	0.396
-377.888	83.461	0.143	-0.157
-376.873	-33.899	-0.127	-0.071
-375.858	-8.998	-0.317	0.214
-374.844	3.692	0.355	-0.261
-373.829	14.627	-0.348	-0.274
-372.815	-46.234	-0.188	-0.093
-371.800	251.234	-0.085	0.147
-370.785	90.836	0.156	0.176
-369.771	-73.298	-0.024	-0.009
-368.756	-144.646	0.252	0.023
-367.742	12.264	-0.170	-0.132
-366.727	-67.009	-0.177	-0.070
-365.712	-34.159	0.312	0.173
-364.698	800.000	0.119	-0.381
-363.683	-58.220	-0.145	-0.064
-362.669	-52.000	0.361	0.169
-361.654	-33.217	0.051	0.029
-360.639	-200.000	-0.002	0.156
-359.625	289.702	-0.052	-0.095
-358.610	800.000	-0.041	-0.118
-357.596	35.663	-0.153	-0.135
-356.581	-200.000	-0.047	-0.269
-355.566	-200.000	0.008	0.042
-354.552	-147.138	-0.191	0.016
-353.537	800.000	0.056	-0.161
-352.523	-200.000	0.007	0.071
-351.508	60.680	-0.086	0.086
-350.493	-7.528	-0.210	0.143
-349.479	-200.000	-0.056	0.292
-348.464	763.394	-0.016	-0.044
-347.450	-157.638	0.327	0.020
-346.435	301.414	-0.098	0.183
-345.420	-38.775	0.221	0.117
-344.406	37.026	0.167	0.149
-343.391	-200.000	-0.003	-0.322
-342.377	-200.000	0.020	0.146
-341.362	-95.782	-0.132	0.036
-340.348	-98.535	0.384	0.099
-339.333	14.970	0.019	-0.015
-338.318	132.453	-0.174	0.226
-337.304	-200.000	-0.042	0.425
-336.289	-139.365	-0.177	-0.019
-335.275	800.000	-0.041	-0.164
-334.260	71.078	-0.176	0.184
-333.245	-48.040	-0.215	0.104
-332.231	351.779	-0.148	-0.296
-331.216	-49.614	0.095	0.046
-330.202	-200.000	0.035	0.286
-329.187	247.805	0.118	0.201
-328.172	51.161	0.186	0.178
-327.158	173.115	-0.269	-0.390
-326.143	-200.000	-0.041	0.223
-325.129	-200.000	0.008	-0.061
-324.114	148.757	-0.128	-0.175
-323.099	-8.988	-0.255	-0.172
-322.085	800.000	0.026	0.088
-321.070	-145.713	-0.320	-0.029
-320.056	-200.000	0.021	-0.326
-319.041	166.499	-0.238	-0.339
-318.026	-32.266	0.257	-0.144
-317.012	800.000	-0.058	-0.168
-315.997	-200.000	0.001	-0.123
-314.983	-200.000	-0.100	0.661
-313.968	-13.290	0.042	0.027
-312.953	105.451	-0.093	0.110
-311.939	218.504	-0.267	0.430
-310.924	-92.124	0.397	0.113
-309.910	-59.122	0.096	-0.042
-308.895	-34.331	0.078	0.043
-307.880	234.781	0.078	-0.129
-306.866	148.899	-0.205	0.279
-305.851	38.294	0.114	0.102
-304.837	145.431	0.152	0.204
-303.822	-108.966	-0.160	0.034
-302.807	131.439	0.234	-0.303
-301.793	673.706	-0.086	-0.224
-300.778	-150.500	0.313	-0.024
-299.764	-200.000	-0.040	0.313
-298.749	-54.437	-0.156	-0.071
-297.735	147.317	-0.159	0.215
-296.720	472.556	0.146	-0.330
-295.705	798.306	0.069	-0.190
-294.691	2.447	-0.167	0.122
-293.676	-200.000	0.074	0.425
-292.662	102.376	0.206	0.243
-291.647	51.591	-0.271	-0.259
-290.632	800.000	-0.057	-0.166
-289.618	-200.000	0.028	0.269
-288.603	-168.048	-0.422	-0.017
-287.589	-46.372	0.169	-0.083
-286.574	-200.000	-0.008	-0.139
-285.559	-126.419	-0.049	-0.007
-284.545	-200.000	-0.003	-0.059
-283.530	544.809	-0.044	0.107
-282.516	190.582	0.092	0.139
-281.501	-77.299	-0.139	-0.049
-280.486	-46.936	-0.283	0.139
-279.472	37.469	-0.099	-0.088
-278.457	499.565	-0.101	-0.234
-277.443	-200.000	-0.042	0.232
-276.428	129.859	-0.187	0.241
-275.413	-16.742	0.122	0.077
-274.399	-78.322	-0.200	0.069
-273.384	29.341	-0.063	0.054
-272.370	-82.357	0.269	0.088
-271.355	-78.388	0.156	-0.054
-270.340	-40.827	0.220	0.114
-269.326	166.700	-0.047	-0.066
-268.311	-36.760	-0.178	-0.096
-267.297	-200.000	0.030	-0.248
-266.282	800.000	0.112	0.449
-265.267	-124.491	-0.167	0.026
-264.253	-23.234	0.306	0.185
-263.238	-134.648	0.426	-0.052
-262.224	104.051	0.281	0.331
-261.209	173.942	0.037	0.053
-260.195	-97.660	-0.180	-0.047
-259.180	-200.000	-0.005	-0.450
-258.165	-151.037	0.393	-0.030
-257.151	75.727	-0.195	-0.207
-256.136	800.000	-0.048	-0.163
-255.122	-41.317	0.183	0.095
-254.107	800.000	0.051	0.175
-253.092	-13.354	-0.092	-0.060
-252.078	594.112	0.138	0.343
-251.063	-200.000	0.005	0.153
-250.049	678.266	0.112	0.293
-249.034	-108.673	-0.069	-0.015
-248.019	800.000	-0.031	-0.126
-247.005	79.630	-0.162	-0.174
-245.990	-200.000	0.018	-0.228
-244.976	186.986	-0.142	-0.213
-243.961	-0.269	0.224	0.160
-242.946	-6.692	-0.142	-0.097
-241.932	-200.000	-0.037	-0.350
-240.917	110.324	-0.019	0.023
-239.903	-200.000	0.034	0.324
-238.888	-200.000	0.035	0.165
-237.873	-182.382	-0.148	-0.003
-236.859	247.464	-0.047	-0.080
-235.844	699.048	-0.138	-0.363
-234.830	-73.369	0.260	0.096
-233.815	-82.202	0.063	0.021
-232.800	282.668	0.123	-0.222
-231.786	184.166	0.246	0.366
-230.771	-161.848	-0.105	0.005
-229.757	-46.961	0.226	-0.111
-228.742	3.033	-0.252	-0.184
-227.727	-98.150	0.288	-0.074
-226.713	69.302	-0.230	0.237
-225.698	-200.000	0.000	-0.137
-224.684	-52.804	-0.274	-0.127
-223.669	800.000	0.095	0.332
-222.655	520.112	-0.107	0.252
-221.640	800.000	-0.152	0.441
-220.625	222.012	0.056	0.090
-219.611	-0.059	0.054	0.038
-218.596	-132.947	-0.364	-0.046
-217.582	800.000	-0.045	0.186
-216.567	-7.684	-0.135	-0.092
-215.552	-177.208	-0.098	0.002
-214.538	-188.216	0.395	0.005
-213.523	-97.797	0.166	0.043
-212.509	219.404	0.172	0.276
-211.494	44.944	-0.030	-0.028
-210.479	-35.193	0.193	-0.105
-209.465	87.306	-0.255	0.282
-208.450	800.000	0.077	0.216
-207.436	30.349	-0.110	-0.094
-206.421	-2.559	0.219	0.154
-205.406	-45.869	-0.115	0.057
-204.392	-28.602	-0.150	0.087
-203.377	-135.379	-0.501	0.060
-202.363	-77.524	0.189	0.066
-201.348	-88.504	0.132	-0.039
-200.333	248.501	0.154	-0.261
-199.319	-67.323	0.145	-0.057
-198.304	-69.200	0.138	-0.053
-197.290	630.064	-0.061	0.154
-196.275	-20.825	-0.199	-0.122
-195.260	-46.673	0.544	0.267
-194.246	31.618	-0.232	0.200
-193.231	-119.417	0.312	0.054
-192.217	-200.000	-0.045	0.231
-191.202	-200.000	-0.050	0.242
-190.187	709.585	0.127	-0.337
-189.173	-200.000	-0.055	-0.272
-188.158	-115.005	-0.179	-0.034
-187.144	-200.000	-0.034	-0.294
-186.129	-200.000	-0.026	0.239
-185.114	90.312	0.139	0.156
-184.100	-97.684	0.236	0.061
-183.085	-44.959	-0.218	0.108
-182.071	228.910	-0.065	0.105
-181.056	82.528	-0.089	0.097
-180.042	485.814	0.126	-0.288
-179.027	360.047	0.099	-0.198
-178.012	341.547	0.143	-0.280
-176.998	-112.123	0.140	0.028
-175.983	800.000	-0.009	0.027
-174.969	-59.681	0.122	-0.052
-173.954	-83.059	0.145	0.047
-172.939	39.838	0.216	-0.194
-171.925	-76.050	0.179	0.063
-170.910	198.449	-0.087	-0.133
-169.896	-200.000	-0.021	0.113
-168.881	-200.000	0.005	-0.161
-167.866	451.769	0.065	-0.144
-166.852	123.726	0.170	-0.213
-165.837	279.739	-0.036	0.064
-164.823	-38.562	-0.176	0.093
-163.808	-175.320	0.265	-0.007
-162.793	-200.000	-0.026	0.120
-161.779	35.693	-0.034	0.030
-160.764	-166.983	0.096	-0.004
-159.750	-51.668	-0.154	0.072
-158.735	-200.000	-0.039	-0.291
-157.720	-200.000	0.006	0.041
-156.706	-200.000	0.019	0.138
-155.691	-114.252	0.058	-0.011
-154.677	-82.746	0.251	-0.081
-153.662	-126.017	-0.259	0.039
-152.647	-137.154	0.192	-0.022
-151.633	-57.114	0.166	-0.073
-150.618	-200.000	-0.021	-0.188
-149.604	-31.670	0.178	0.100
-148.589	200.151	-0.225	-0.346
-147.574	-200.000	0.049	-0.235
-146.560	206.450	-0.172	-0.268
-145.545	372.950	-0.080	0.162
-144.531	122.957	0.275	0.344
-143.516	128.144	0.150	0.191
-142.502	800.000	0.124	0.455
-141.487	-200.000	-0.037	0.188
-140.472	139.609	-0.136	0.179
-139.458	-200.000	-0.042	0.263
-138.443	-102.554	-0.230	0.055
-137.429	-200.000	0.033	-0.163
-136.414	-84.058	0.168	-0.053
-135.399	-94.860	0.215	-0.058
-134.385	800.000	0.048	0.198
-133.370	-200.000	-0.020	0.207
-132.356	-165.807	-0.191	0.008
-131.341	181.555	0.185	-0.272
-130.326	119.411	0.152	0.187
-129.312	41.723	0.198	0.179
-128.297	-39.748	0.345	0.180
-127.283	30.057	0.070	-0.060
-126.268	204.343	-0.119	0.184
-125.253	-164.183	0.071	-0.003
-124.239	-66.694	0.271	0.107
-123.224	237.955	0.029	-0.048
-122.210	447.479	-0.095	0.209
-121.195	-64.831	-0.184	0.074
