DTS Sentinel unit serial number:	SN413079Multiplexer serial number:	ORYXHardware model number:	OX4-SRSoftware version number:	ORYX F/W v4.00 Oryx Data Collector v3.7.2.0data status	okinstallation	princeton_trtdifferential loss correction	single-endedforward channel	channel 1reverse channel	N/Adate	2019/09/12time	21:22:35forward acquisition time	60.00reverse acquisition time	0.00gamma	496.2192k internal	0.2326k external	0.2326temperature offset calibration	1.0141default loss term (dB/km)	0.3790temperature slope calibration	1.0000multiplexer offset coefficient	1.0000multiplexer slope coefficient	1.0000fibre end	0.00T internal ref (°C)	30.56T ext. ref 1 (°C)	3.62T ext. ref 2 (°C)	25.21length (m)	temperature (°C)	Stokes	anti-Stokes-747.200	800.000	-0.076	0.315
-746.185	-200.000	-0.054	0.321
-745.171	-87.390	0.492	-0.151
-744.156	-43.830	-0.383	0.194
-743.142	61.907	0.064	-0.065
-742.127	198.614	-0.218	0.336
-741.112	55.397	-0.140	-0.137
-740.098	288.097	0.085	0.156
-739.083	475.806	-0.141	-0.322
-738.069	-158.913	0.102	-0.006
-737.054	800.000	-0.244	0.694
-736.039	-79.281	0.107	0.037
-735.025	29.474	0.162	0.139
-734.010	124.887	-0.265	0.337
-732.996	27.521	-0.103	-0.088
-731.981	800.000	-0.034	0.108
-730.966	194.109	-0.122	-0.186
-729.952	259.623	-0.077	-0.134
-728.937	25.001	-0.301	-0.252
-727.923	800.000	0.084	-0.318
-726.908	-10.422	-0.037	0.025
-725.894	516.941	-0.142	0.334
-724.879	36.019	-0.307	-0.273
-723.864	13.310	-0.188	0.147
-722.850	800.000	-0.080	0.268
-721.835	-10.495	0.123	-0.082
-720.821	800.000	0.164	-0.488
-719.806	285.918	0.164	0.298
-718.791	120.256	-0.126	-0.157
-717.777	-5.340	-0.060	0.041
-716.762	49.297	-0.206	0.196
-715.748	-200.000	0.039	-0.317
-714.733	-200.000	-0.074	0.330
-713.718	-128.406	-0.145	0.021
-712.704	454.986	-0.118	-0.264
-711.689	800.000	0.091	0.399
-710.675	-114.360	-0.318	-0.062
-709.660	21.042	0.376	-0.307
-708.645	169.764	0.048	0.068
-707.631	-200.000	-0.046	-0.352
-706.616	-48.428	0.446	-0.216
-705.602	-3.959	0.206	0.144
-704.587	-148.494	0.110	0.009
-703.572	-180.259	0.467	-0.010
-702.558	-200.000	-0.033	-0.150
-701.543	800.000	0.087	-0.348
-700.529	-82.039	-0.170	-0.056
-699.514	48.884	0.137	0.130
-698.499	-200.000	-0.029	0.304
-697.485	351.630	-0.192	0.382
-696.470	800.000	-0.048	-0.163
-695.456	141.870	0.152	-0.202
-694.441	446.838	-0.182	0.403
-693.426	-57.804	-0.214	0.094
-692.412	800.000	-0.019	-0.062
-691.397	-200.000	-0.033	-0.225
-690.383	-200.000	0.007	-0.088
-689.368	-200.000	-0.114	0.000
-688.354	101.306	-0.078	-0.091
-687.339	800.000	0.083	-0.306
-686.324	-40.725	-0.259	-0.135
-685.310	800.000	0.096	-0.277
-684.295	31.220	-0.101	-0.087
-683.281	-50.725	-0.257	-0.122
-682.266	-200.000	-0.021	0.180
-681.251	-200.000	0.023	0.241
-680.237	-200.000	0.024	0.234
-679.222	800.000	0.024	-0.101
-678.208	283.893	-0.092	-0.166
-677.193	424.780	0.039	-0.084
-676.178	371.958	-0.050	0.103
-675.164	-200.000	0.037	-0.205
-674.149	-200.000	0.006	-0.074
-673.135	-200.000	-0.003	-0.222
-672.120	116.964	0.077	-0.095
-671.105	-164.584	-0.236	-0.011
-670.091	3.401	0.081	0.059
-669.076	592.016	-0.040	0.098
-668.062	-56.235	-0.194	0.087
-667.047	62.603	-0.356	0.358
-666.032	-55.948	-0.195	-0.087
-665.018	-56.951	-0.048	0.021
-664.003	800.000	-0.072	0.219
-662.989	-149.591	-0.270	0.021
-661.974	-13.643	-0.216	0.141
-660.959	-42.832	0.299	0.153
-659.945	-19.471	0.348	0.217
-658.930	-200.000	-0.026	-0.217
-657.916	34.205	0.003	0.002
-656.901	800.000	-0.052	0.174
-655.886	-85.424	-0.176	-0.055
-654.872	800.000	-0.026	-0.101
-653.857	-17.284	0.229	-0.145
-652.843	100.709	-0.247	0.288
-651.828	-3.790	0.141	0.099
-650.814	-142.004	0.232	0.023
-649.799	-136.224	-0.371	0.044
-648.784	116.871	0.055	-0.067
-647.770	418.602	0.015	-0.031
-646.755	243.214	0.130	0.219
-645.741	-200.000	-0.004	-0.159
-644.726	121.858	0.075	-0.095
-643.711	-46.700	0.150	-0.074
-642.697	-57.320	-0.353	-0.156
-641.682	236.215	0.171	0.284
-640.668	-24.088	-0.055	0.033
-639.653	-200.000	0.006	0.050
-638.638	-12.330	0.346	0.228
-637.624	-178.483	-0.208	-0.005
-636.609	50.095	-0.148	-0.141
-635.595	-67.887	-0.226	-0.089
-634.580	92.758	0.195	-0.221
-633.565	-200.000	0.032	0.281
-632.551	4.283	-0.120	-0.088
-631.536	63.434	-0.084	-0.085
-630.522	533.208	-0.200	-0.475
-629.507	121.334	0.072	-0.090
-628.492	800.000	0.069	-0.196
-627.478	-37.509	-0.471	-0.252
-626.463	139.264	-0.170	-0.224
-625.449	-21.863	0.297	-0.181
-624.434	-200.000	-0.004	-0.093
-623.419	-197.043	0.175	-0.001
-622.405	96.942	0.136	-0.156
-621.390	-76.186	0.203	-0.072
-620.376	-121.143	0.160	-0.027
-619.361	-200.000	0.020	0.098
-618.346	-200.000	-0.014	0.246
-617.332	450.930	-0.021	0.046
-616.317	-200.000	0.081	-0.383
-615.303	560.681	-0.112	-0.271
-614.288	-107.358	-0.212	0.047
-613.273	223.868	-0.117	-0.190
-612.259	-200.000	-0.072	0.366
-611.244	-58.695	-0.070	-0.030
-610.230	332.308	-0.182	-0.353
-609.215	-58.450	-0.348	-0.152
-608.201	-143.569	-0.270	0.026
-607.186	316.485	0.104	0.197
-606.171	558.307	0.113	-0.274
-605.157	199.982	0.041	0.063
-604.142	-200.000	-0.002	0.157
-603.128	106.454	-0.155	-0.185
-602.113	-149.103	0.065	-0.005
-601.098	-5.625	0.236	-0.162
-600.084	221.507	0.137	0.220
-599.069	225.363	-0.147	0.238
-598.055	-200.000	-0.010	-0.128
-597.040	387.157	0.064	0.133
-596.025	-44.277	-0.217	0.109
-595.011	506.431	0.026	-0.061
-593.996	800.000	-0.095	0.269
-592.982	-78.018	0.231	0.080
-591.967	-200.000	-0.011	0.153
-590.952	-200.000	-0.003	0.339
-589.938	-80.135	0.174	0.059
-588.923	-147.925	0.161	-0.013
-587.909	-200.000	0.022	-0.150
-586.894	27.265	-0.138	0.116
-585.879	-200.000	0.001	-0.095
-584.865	-14.691	-0.204	-0.132
-583.850	62.166	0.125	-0.125
-582.836	6.242	-0.187	-0.139
-581.821	143.323	0.026	0.034
-580.806	-200.000	0.006	0.071
-579.792	800.000	0.104	-0.288
-578.777	150.705	0.132	-0.180
-577.763	-110.584	-0.440	0.091
-576.748	800.000	-0.009	0.028
-575.733	181.718	0.163	0.241
-574.719	-97.252	0.022	0.006
-573.704	291.780	0.039	0.072
-572.690	-37.901	-0.396	-0.211
-571.675	154.508	-0.029	-0.040
-570.661	-200.000	-0.052	0.000
-569.646	68.372	-0.173	-0.178
-568.631	-190.959	0.066	-0.001
-567.617	-124.176	0.157	-0.025
-566.602	-59.577	-0.151	0.065
-565.588	-97.142	0.057	-0.015
-564.573	-83.376	0.327	0.105
-563.558	-109.073	0.244	-0.052
-562.544	-142.621	0.171	-0.017
-561.529	-104.828	-0.038	0.009
-560.515	-63.934	0.262	-0.107
-559.500	-200.000	0.047	-0.217
-558.485	-125.768	-0.020	-0.003
-557.471	24.175	-0.341	0.282
-556.456	-200.000	-0.025	0.177
-555.442	-200.000	-0.071	0.324
-554.427	-169.786	-0.336	-0.012
-553.412	309.572	0.078	-0.147
-552.398	-13.944	0.341	0.221
-551.383	40.015	-0.231	-0.208
-550.369	-35.485	-0.234	-0.127
-549.354	36.545	-0.195	-0.172
-548.339	286.627	0.193	-0.348
-547.325	-55.009	-0.212	0.096
-546.310	56.058	0.167	0.162
-545.296	-145.409	0.045	-0.004
-544.281	-200.000	0.009	-0.231
-543.266	86.095	0.300	0.331
-542.252	-107.096	0.122	-0.027
-541.237	42.931	-0.334	0.305
-540.223	-200.000	0.000	-0.048
-539.208	-92.632	-0.273	0.076
-538.193	13.714	-0.089	0.069
-537.179	67.199	-0.289	0.294
-536.164	-200.000	0.003	0.059
-535.150	-192.100	0.223	-0.002
-534.135	800.000	0.053	-0.184
-533.121	800.000	-0.068	0.200
-532.106	-95.333	-0.389	0.105
-531.091	-178.788	-0.166	0.004
-530.077	-200.000	-0.043	0.281
-529.062	545.233	-0.096	-0.229
-528.048	-157.228	0.079	0.005
-527.033	211.500	-0.183	0.288
-526.018	308.152	0.174	-0.325
-525.004	-110.126	0.232	-0.048
-523.989	72.672	0.137	-0.143
-522.975	245.427	0.238	-0.400
-521.960	-200.000	-0.013	-0.228
-520.945	-123.827	0.073	-0.011
-519.931	278.611	-0.097	0.172
-518.916	138.364	0.068	-0.090
-517.902	-83.513	-0.394	0.126
-516.887	-63.150	0.128	-0.053
-515.872	800.000	-0.102	0.302
-514.858	-200.000	0.043	0.276
-513.843	-181.616	-0.110	0.002
-512.829	159.602	0.166	0.230
-511.814	107.276	-0.130	0.154
-510.799	-200.000	0.037	-0.288
-509.785	-200.000	-0.062	-0.438
-508.770	-200.000	0.008	-0.485
-507.756	-200.000	0.051	0.358
-506.741	181.844	0.082	0.120
-505.726	179.271	-0.135	-0.198
-504.712	12.010	0.291	-0.224
-503.697	-35.292	0.179	0.097
-502.683	800.000	-0.100	-0.374
-501.668	-67.372	0.021	0.008
-500.653	604.606	0.086	-0.215
-499.639	213.194	-0.216	-0.341
-498.624	379.253	-0.064	0.131
-497.610	-9.596	-0.146	0.097
-496.595	89.740	0.026	0.029
-495.581	800.000	-0.025	0.105
-494.566	-152.616	-0.099	-0.007
-493.551	-42.862	-0.144	0.073
-492.537	-200.000	-0.001	0.208
-491.522	5.324	0.132	-0.097
-490.508	75.282	0.086	-0.091
-489.493	161.138	0.147	-0.206
-488.478	16.314	0.099	-0.078
-487.464	-167.145	-0.515	-0.021
-486.449	800.000	-0.130	-0.485
-485.435	-136.717	-0.322	-0.037
-484.420	577.422	-0.050	0.123
-483.405	-53.184	0.389	-0.178
-482.391	425.997	0.114	-0.246
-481.376	-38.950	-0.284	0.149
-480.362	59.691	0.119	-0.117
-479.347	-42.671	-0.095	0.048
-478.332	147.381	-0.087	-0.117
-477.318	-7.950	-0.365	-0.246
-476.303	-20.014	0.037	0.023
-475.289	-200.000	0.029	0.324
-474.274	-8.465	-0.247	-0.166
-473.259	563.292	0.054	-0.131
-472.245	95.178	-0.112	0.127
-471.230	-200.000	0.024	0.321
-470.216	-14.443	0.232	-0.149
-469.201	-92.489	-0.254	-0.071
-468.186	800.000	0.042	0.174
-467.172	304.943	0.127	0.235
-466.157	800.000	-0.081	-0.253
-465.143	-172.991	0.305	0.009
-464.128	-200.000	-0.043	0.240
-463.113	-200.000	0.030	-0.206
-462.099	135.074	-0.073	0.095
-461.084	-200.000	0.001	0.035
-460.070	-17.553	0.098	0.062
-459.055	-48.620	-0.392	0.188
-458.040	800.000	0.072	-0.211
-457.026	-200.000	0.010	0.107
-456.011	335.141	-0.173	0.334
-454.997	-17.228	0.223	0.140
-453.982	-149.197	0.350	-0.028
-452.968	379.814	-0.036	-0.074
-451.953	-14.931	0.223	-0.143
-450.938	-145.590	0.142	0.013
-449.924	-169.289	-0.163	-0.006
-448.909	-26.417	-0.051	-0.030
-447.895	-200.000	0.032	-0.244
-446.880	1.800	0.245	-0.176
-445.865	-63.895	-0.070	-0.029
-444.851	2.703	0.099	-0.072
-443.836	-151.212	-0.226	0.017
-442.822	126.385	-0.216	-0.272
-441.807	-167.346	0.187	-0.007
-440.792	791.671	-0.101	0.276
-439.778	7.053	-0.257	-0.191
-438.763	-47.662	-0.249	-0.120
-437.749	97.813	0.186	0.213
-436.734	337.584	-0.092	0.178
-435.719	-200.000	-0.032	0.145
-434.705	-200.000	-0.168	0.000
-433.690	217.111	0.060	0.095
-432.676	-82.402	0.195	-0.063
-431.661	-106.614	-0.152	-0.034
-430.646	800.000	0.084	0.260
-429.632	28.044	0.074	0.063
-428.617	348.915	0.062	-0.123
-427.603	-118.208	-0.154	-0.027
-426.588	25.492	0.097	-0.080
-425.573	-114.923	-0.247	-0.047
-424.559	-127.484	-0.137	0.020
-423.544	138.511	0.070	-0.092
-422.530	-100.972	0.100	-0.024
-421.515	-97.051	0.162	0.042
-420.500	-200.000	0.002	-0.345
-419.486	15.897	0.180	0.141
-418.471	-138.868	0.232	0.025
-417.457	60.146	0.144	0.142
-416.442	-99.055	-0.078	0.020
-415.428	-200.000	-0.023	-0.191
-414.413	51.379	-0.215	-0.203
-413.398	-181.486	-0.080	0.002
-412.384	-56.730	0.167	-0.074
-411.369	-45.821	-0.264	-0.130
-410.355	-142.068	-0.176	-0.017
-409.340	-77.754	0.439	0.151
-408.325	-43.452	-0.135	0.068
-407.311	-165.481	0.370	-0.016
-406.296	800.000	0.086	-0.282
-405.282	-106.681	-0.106	-0.023
-404.267	-27.084	0.092	0.054
-403.252	-200.000	0.016	0.339
-402.238	-137.089	-0.319	0.036
-401.223	59.342	0.151	0.148
-400.209	76.156	0.293	-0.308
-399.194	-37.305	0.024	-0.013
-398.179	-131.595	0.252	-0.033
-397.165	-182.094	-0.114	-0.002
-396.150	-144.063	-0.158	0.015
-395.136	322.980	-0.095	-0.180
-394.121	514.599	-0.092	0.214
-393.106	800.000	0.103	0.301
-392.092	800.000	-0.083	0.237
-391.077	-200.000	0.015	-0.148
-390.063	-23.813	-0.116	0.069
-389.048	-150.469	-0.122	0.009
-388.033	-118.743	0.368	-0.064
-387.019	-200.000	0.024	0.185
-386.004	14.787	-0.142	-0.110
-384.990	800.000	-0.031	0.128
-383.975	800.000	-0.071	0.232
-382.960	103.308	-0.132	0.154
-381.946	800.000	0.047	0.197
-380.931	-52.998	0.304	0.139
-379.917	800.000	-0.033	0.103
-378.902	240.307	0.115	-0.191
-377.888	128.953	0.112	-0.143
-376.873	800.000	-0.017	-0.053
-375.858	240.603	-0.044	-0.072
-374.844	-166.775	0.407	0.017
-373.829	-149.907	0.218	0.017
-372.815	-136.146	0.153	-0.018
-371.800	42.125	0.352	0.318
-370.785	753.341	0.117	0.313
-369.771	-22.330	-0.089	-0.054
-368.756	66.369	0.166	0.168
-367.742	-200.000	0.059	0.342
-366.727	-108.074	0.110	-0.024
-365.712	-20.562	-0.373	-0.228
-364.698	-32.020	0.202	0.112
-363.683	800.000	-0.067	-0.215
-362.669	-200.000	0.000	0.012
-361.654	135.042	0.129	0.167
-360.639	-17.686	0.113	0.071
-359.625	457.168	0.088	-0.194
-358.610	122.575	0.143	0.177
-357.596	-56.088	-0.156	-0.069
-356.581	-105.702	-0.304	-0.068
-355.566	313.615	-0.079	-0.148
-354.552	-1.201	-0.050	0.035
-353.537	-200.000	0.025	0.169
-352.523	800.000	-0.083	0.232
-351.508	800.000	-0.132	0.406
-350.493	422.762	0.048	-0.103
-349.479	-200.000	-0.039	-0.194
-348.464	-142.053	-0.122	-0.012
-347.450	144.821	0.101	0.133
-346.435	75.194	0.246	0.258
-345.420	476.829	-0.141	-0.318
-344.406	-133.303	0.078	0.010
-343.391	-77.417	0.244	-0.084
-342.377	393.279	-0.057	-0.119
-341.362	134.600	0.162	-0.209
-340.348	-200.000	-0.004	-0.381
-339.333	-44.622	0.096	-0.047
-338.318	-141.711	-0.222	-0.022
-337.304	800.000	0.050	0.153
-336.289	-200.000	0.020	-0.094
-335.275	-96.565	-0.332	0.087
-334.260	306.200	-0.090	-0.167
-333.245	-124.220	0.117	-0.018
-332.231	800.000	0.029	-0.092
-331.216	11.697	-0.241	0.184
-330.202	-48.713	0.189	-0.090
-329.187	-200.000	-0.028	-0.210
-328.172	795.929	0.024	-0.064
-327.158	98.528	-0.064	-0.073
-326.143	21.999	0.065	0.053
-325.129	-200.000	-0.041	0.204
-324.114	-103.839	0.159	0.037
-323.099	64.276	0.157	0.157
-322.085	-200.000	0.012	-0.080
-321.070	800.000	0.055	-0.181
-320.056	-162.653	-0.014	-0.001
-319.041	119.447	-0.010	-0.012
-318.026	-63.357	0.331	0.135
-317.012	-129.694	0.335	-0.046
-315.997	-50.448	-0.092	-0.043
-314.983	302.033	0.020	0.037
-313.968	353.197	-0.048	-0.094
-312.953	23.596	-0.148	0.121
-311.939	800.000	-0.066	0.250
-310.924	22.521	0.185	0.150
-309.910	-139.628	-0.110	-0.012
-308.895	-200.000	-0.025	-0.250
-307.880	800.000	0.070	0.197
-306.866	-84.400	-0.078	-0.025
-305.851	-200.000	-0.011	0.200
-304.837	-157.508	0.264	-0.016
-303.822	52.892	0.123	0.117
-302.807	-200.000	-0.011	-0.143
-301.793	-200.000	-0.009	-0.264
-300.778	-200.000	0.021	-0.132
-299.764	558.119	-0.139	-0.332
-298.749	-200.000	-0.031	0.202
-297.735	-200.000	-0.012	0.148
-296.720	121.965	0.167	0.207
-295.705	800.000	-0.030	-0.128
-294.691	257.018	0.111	0.189
-293.676	-117.803	-0.240	-0.043
-292.662	-172.763	0.059	0.002
-291.647	36.019	-0.135	-0.117
-290.632	111.265	-0.072	0.086
-289.618	-200.000	0.001	0.316
-288.603	-65.918	0.113	0.045
-287.589	-97.309	-0.020	-0.005
-286.574	-27.356	-0.307	-0.177
-285.559	134.722	-0.055	-0.070
-284.545	800.000	-0.002	0.006
-283.530	73.239	-0.235	-0.243
-282.516	412.324	-0.140	-0.295
-281.501	-200.000	0.014	-0.074
-280.486	800.000	0.075	0.315
-279.472	110.492	0.055	0.066
-278.457	-46.188	0.070	0.034
-277.443	-91.961	-0.089	-0.025
-276.428	317.252	0.111	0.208
-275.413	-143.065	0.123	-0.012
-274.399	6.981	-0.349	-0.258
-273.384	159.674	-0.133	-0.183
-272.370	55.223	-0.122	0.117
-271.355	20.484	0.316	-0.253
-270.340	-200.000	-0.017	-0.520
-269.326	-8.263	-0.196	0.131
-268.311	58.020	0.312	0.302
-267.297	-23.633	-0.258	-0.153
-266.282	-2.905	0.183	0.127
-265.267	-76.232	-0.348	0.121
-264.253	800.000	-0.063	0.223
-263.238	36.958	-0.171	0.150
-262.224	362.953	0.057	0.113
-261.209	-96.312	-0.093	-0.024
-260.195	204.645	-0.079	0.121
-259.180	18.199	0.406	0.320
-258.165	-111.883	-0.293	-0.059
-257.151	88.701	0.200	0.220
-256.136	-191.985	-0.242	-0.002
-255.122	-200.000	-0.029	0.199
-254.107	-122.320	-0.065	0.010
-253.092	800.000	0.033	-0.140
-252.078	800.000	0.012	-0.048
-251.063	-191.083	0.138	0.001
-250.049	-143.257	0.096	0.009
-249.034	-71.074	0.184	0.069
-248.019	-200.000	-0.027	0.310
-247.005	-58.188	-0.114	0.049
-245.990	-77.354	0.159	-0.055
-244.976	64.934	-0.226	-0.225
-243.961	250.878	-0.138	-0.233
-242.946	-119.050	0.269	-0.047
-241.932	207.837	-0.035	0.055
-240.917	800.000	0.050	-0.164
-239.903	16.049	-0.153	-0.119
-238.888	100.416	-0.236	0.271
-237.873	74.941	0.193	0.201
-236.859	-104.584	-0.410	0.094
-235.844	-82.503	0.236	0.076
-234.830	71.947	-0.385	-0.396
-233.815	-97.848	0.331	0.085
-232.800	800.000	0.134	0.423
-231.786	-200.000	-0.039	0.358
-230.771	-200.000	-0.007	0.075
-229.757	-9.880	0.122	-0.080
-228.742	-142.816	0.443	-0.043
-227.727	-200.000	0.009	0.153
-226.713	800.000	0.093	0.315
-225.698	1.804	-0.172	-0.122
-224.684	-50.008	0.046	-0.022
-223.669	-14.253	0.255	0.162
-222.655	258.161	-0.037	0.064
-221.640	52.058	-0.098	-0.093
-220.625	-58.026	-0.088	-0.038
-219.611	797.238	0.037	-0.102
-218.596	800.000	-0.073	-0.227
-217.582	-50.338	-0.262	-0.122
-216.567	-200.000	0.056	-0.243
-215.552	371.240	0.083	0.166
-214.538	176.849	0.028	0.040
-213.523	210.080	-0.106	-0.165
-212.509	-52.227	-0.302	0.138
-211.494	-48.703	-0.209	-0.099
-210.479	680.317	-0.149	-0.384
-209.465	800.000	-0.032	0.132
-208.450	250.207	0.038	0.064
-207.436	103.998	0.072	-0.084
-206.421	-200.000	0.026	-0.180
-205.406	800.000	0.062	0.251
-204.392	800.000	-0.041	-0.166
-203.377	-32.822	0.303	-0.167
-202.363	-200.000	0.022	-0.107
-201.348	-49.568	0.211	0.099
-200.333	-66.770	0.181	0.071
-199.319	176.704	-0.113	0.162
-198.304	-200.000	-0.049	-0.400
-197.290	98.887	0.280	-0.320
-196.275	70.572	-0.205	0.209
-195.260	7.216	0.417	0.307
-194.246	-29.123	0.030	0.017
-193.231	-200.000	-0.075	0.532
-192.217	763.225	-0.118	0.316
-191.202	490.816	-0.118	0.267
-190.187	37.322	-0.317	0.277
-189.173	10.190	0.226	0.170
-188.158	70.290	0.136	0.139
-187.144	-33.491	0.095	-0.052
-186.129	87.234	-0.168	0.183
-185.114	-200.000	-0.037	0.277
-184.100	-122.956	0.226	0.036
-183.085	72.239	-0.258	-0.265
-182.071	152.092	-0.063	0.084
-181.056	-200.000	0.013	0.277
-180.042	-200.000	-0.035	0.233
-179.027	148.725	0.037	-0.049
-178.012	261.961	0.130	0.222
-176.998	149.518	0.036	0.048
-175.983	-200.000	0.000	0.216
-174.969	-200.000	-0.078	-0.525
-173.954	-15.384	-0.090	0.057
-172.939	271.162	0.161	-0.280
-171.925	-50.699	-0.209	0.097
-170.910	128.924	0.174	0.219
-169.896	-134.076	-0.184	-0.022
-168.881	672.761	0.016	0.040
-167.866	-152.195	-0.192	-0.014
-166.852	800.000	0.127	-0.436
-165.837	104.400	0.197	-0.228
-164.823	-200.000	-0.009	-0.223
-163.808	-39.406	-0.102	-0.053
-162.793	-142.594	-0.065	0.006
-161.779	-49.336	0.313	0.147
-160.764	117.637	0.117	0.142
-159.750	800.000	0.081	0.224
-158.735	-200.000	0.002	0.078
-157.720	-88.138	0.090	0.027
-156.706	205.193	0.063	-0.096
-155.691	-147.818	0.303	-0.025
-154.677	408.659	0.250	-0.522
-153.662	273.802	-0.075	-0.131
-152.647	-71.082	0.187	-0.069
-151.633	-45.931	0.019	0.009
-150.618	-78.675	-0.023	0.008
-149.604	-38.639	0.224	0.117
-148.589	-130.380	-0.197	0.026
-147.574	-6.797	0.134	-0.090
-146.560	457.587	0.087	0.191
-145.545	109.622	0.162	0.191
-144.531	-60.188	0.343	0.144
-143.516	-200.000	-0.018	0.220
-142.502	71.110	0.132	0.134
-141.487	-158.689	0.036	0.002
-140.472	67.185	0.268	0.269
-139.458	17.366	-0.133	-0.104
-138.443	-200.000	-0.030	-0.213
-137.429	205.225	0.142	0.217
-136.414	432.884	0.093	-0.198
-135.399	18.193	-0.095	-0.075
-134.385	-61.135	0.301	0.125
-133.370	208.970	0.056	-0.086
-132.356	246.393	-0.171	0.285
-131.341	-92.992	0.387	0.106
-130.326	343.197	0.078	0.151
-129.312	-65.983	-0.169	-0.067
-128.297	-145.939	-0.175	-0.015
-127.283	66.862	-0.063	-0.063
-126.268	-159.045	-0.103	-0.006
-125.253	59.034	-0.390	-0.378
-124.239	-200.000	-0.035	-0.192
-123.224	-115.433	-0.183	-0.034
-122.210	-132.895	0.179	-0.022
