DTS Sentinel unit serial number:	SN413079Multiplexer serial number:	ORYXHardware model number:	OX4-SRSoftware version number:	ORYX F/W v4.00 Oryx Data Collector v3.7.2.0data status	okinstallation	princeton_trtdifferential loss correction	single-endedforward channel	channel 1reverse channel	N/Adate	2019/09/11time	12:40:11forward acquisition time	60.00reverse acquisition time	0.00gamma	496.2192k internal	0.2295k external	0.2295temperature offset calibration	0.9946default loss term (dB/km)	0.3790temperature slope calibration	1.0000multiplexer offset coefficient	1.0000multiplexer slope coefficient	1.0000fibre end	0.00T internal ref (°C)	40.84T ext. ref 1 (°C)	0.22T ext. ref 2 (°C)	38.65length (m)	temperature (°C)	Stokes	anti-Stokes-747.200	352.834	0.171	-0.346
-746.185	800.000	0.070	0.284
-745.171	186.687	-0.055	-0.084
-744.156	66.423	-0.097	0.101
-743.142	128.616	-0.165	-0.215
-742.127	233.268	-0.010	0.017
-741.112	147.683	0.195	-0.269
-740.098	-43.826	-0.226	-0.116
-739.083	26.523	0.257	-0.219
-738.069	337.058	-0.141	0.280
-737.054	197.883	0.106	0.165
-736.039	224.727	0.015	0.024
-735.025	800.000	0.109	0.413
-734.010	-192.258	0.234	0.002
-732.996	35.780	-0.190	0.171
-731.981	-200.000	-0.070	0.383
-730.966	-200.000	-0.011	-0.100
-729.952	-200.000	-0.009	-0.111
-728.937	-109.849	-0.286	-0.061
-727.923	800.000	0.059	-0.202
-726.908	-87.215	0.210	-0.065
-725.894	-200.000	0.034	0.317
-724.879	-152.019	-0.086	0.006
-723.864	800.000	-0.037	-0.159
-722.850	-45.399	0.219	0.111
-721.835	-200.000	0.015	-0.091
-720.821	800.000	0.088	0.300
-719.806	-200.000	0.004	-0.107
-718.791	-81.359	0.028	0.010
-717.777	71.244	-0.129	0.136
-716.762	-167.380	-0.320	-0.013
-715.748	-200.000	-0.003	-0.141
-714.733	727.262	0.014	-0.037
-713.718	-33.380	0.198	0.112
-712.704	800.000	0.045	-0.148
-711.689	-88.400	-0.270	-0.082
-710.675	-51.559	0.233	0.111
-709.660	220.943	-0.124	-0.203
-708.645	63.623	-0.035	-0.036
-707.631	-122.199	0.152	-0.025
-706.616	-58.410	-0.141	0.062
-705.602	-200.000	-0.015	0.275
-704.587	-200.000	0.036	-0.321
-703.572	71.925	-0.278	-0.295
-702.558	800.000	0.026	0.083
-701.543	-80.351	0.249	-0.085
-700.529	222.274	-0.129	0.211
-699.514	-55.379	0.303	0.139
-698.499	-94.313	0.313	0.087
-697.485	-146.883	-0.502	0.044
-696.470	90.383	-0.219	0.250
-695.456	7.752	0.312	-0.238
-694.441	-59.810	-0.291	-0.127
-693.426	-3.034	0.116	0.082
-692.412	69.852	-0.218	-0.230
-691.397	-200.000	-0.055	-0.407
-690.383	709.942	-0.046	-0.124
-689.368	-159.708	-0.059	0.003
-688.354	645.971	0.033	0.085
-687.339	92.472	0.205	-0.236
-686.324	168.578	0.065	-0.094
-685.310	446.702	0.014	0.031
-684.295	61.208	-0.153	0.155
-683.281	-16.339	-0.205	-0.133
-682.266	-32.885	-0.139	-0.079
-681.251	196.263	0.023	0.035
-680.237	-1.883	-0.176	-0.126
-679.222	-114.678	0.336	0.066
-678.208	-0.946	0.304	0.220
-677.193	176.094	0.152	0.225
-676.178	60.797	-0.343	0.347
-675.164	43.413	-0.137	-0.128
-674.149	-56.775	0.345	0.156
-673.135	82.190	0.211	-0.234
-672.120	-200.000	0.019	0.125
-671.105	-103.448	-0.159	-0.038
-670.091	75.981	0.252	0.272
-669.076	-51.199	-0.154	-0.073
-668.062	-121.832	0.148	0.025
-667.047	-39.766	0.256	-0.136
-666.032	800.000	0.025	-0.078
-665.018	363.934	-0.098	0.201
-664.003	-57.700	0.225	-0.100
-662.989	-200.000	0.000	0.112
-661.974	-53.675	-0.198	0.092
-660.959	90.668	-0.081	0.093
-659.945	313.177	0.086	-0.164
-658.930	-73.287	0.042	0.016
-657.916	269.182	0.073	-0.131
-656.901	211.221	0.039	-0.062
-655.886	274.377	-0.088	0.160
-654.872	254.150	0.019	0.033
-653.857	800.000	-0.151	-0.511
-652.843	-200.000	-0.081	-0.376
-651.828	-109.051	0.230	0.050
-650.814	34.238	-0.203	-0.181
-649.799	-68.878	-0.160	-0.063
-648.784	55.479	-0.121	0.119
-647.770	296.320	-0.053	-0.100
-646.755	-0.998	-0.097	0.070
-645.741	-200.000	-0.001	0.134
-644.726	16.302	0.131	0.105
-643.711	134.624	0.034	-0.045
-642.697	141.317	-0.137	-0.185
-641.682	242.552	-0.216	0.369
-640.668	-111.831	0.232	-0.048
-639.653	23.160	0.104	0.087
-638.638	-171.724	-0.334	0.011
-637.624	-158.453	0.340	0.020
-636.609	48.145	-0.171	-0.163
-635.595	7.589	-0.283	-0.215
-634.580	366.839	-0.087	0.178
-633.565	-158.134	0.128	0.008
-632.551	-200.000	0.033	0.310
-631.536	25.527	0.053	0.045
-630.522	77.579	-0.077	0.084
-629.507	-53.279	-0.302	0.141
-628.492	-200.000	0.053	0.275
-627.478	-141.974	0.109	-0.011
-626.463	134.400	0.217	0.287
-625.449	-141.494	-0.223	-0.023
-624.434	-136.049	-0.083	-0.010
-623.419	-88.410	0.185	0.056
-622.405	552.439	-0.243	-0.595
-621.390	-32.852	0.185	-0.104
-620.376	45.961	0.139	0.131
-619.361	-6.929	-0.250	-0.173
-618.346	-200.000	-0.028	0.215
-617.332	14.099	0.276	0.219
-616.317	800.000	0.042	0.145
-615.303	-110.026	-0.042	0.009
-614.288	432.534	0.133	0.293
-613.273	-107.764	-0.371	0.082
-612.259	392.732	-0.070	-0.147
-611.244	-77.927	-0.108	0.038
-610.230	-78.349	-0.124	-0.043
-609.215	-200.000	-0.074	0.430
-608.201	-106.386	0.327	-0.074
-607.186	-95.852	-0.221	-0.060
-606.171	119.721	0.046	-0.059
-605.157	242.325	0.219	-0.373
-604.142	-86.338	-0.074	-0.023
-603.128	39.543	-0.266	-0.243
-602.113	-108.428	-0.128	-0.028
-601.098	-200.000	-0.226	-0.001
-600.084	-200.000	0.029	0.352
-599.069	-200.000	0.015	-0.112
-598.055	48.175	0.125	-0.119
-597.040	-67.177	-0.119	-0.048
-596.025	-117.901	0.352	-0.064
-595.011	800.000	-0.042	0.150
-593.996	328.692	0.090	-0.176
-592.982	93.058	0.151	0.173
-591.967	-57.538	0.155	-0.069
-590.952	-169.706	-0.297	-0.011
-589.938	-190.814	0.019	0.000
-588.923	-200.000	-0.013	0.061
-587.909	-37.818	-0.048	-0.026
-586.894	-200.000	-0.008	0.093
-585.879	-22.091	-0.256	0.158
-584.865	54.694	-0.282	-0.277
-583.850	293.509	-0.134	-0.249
-582.836	800.000	-0.064	0.219
-581.821	28.531	0.108	0.093
-580.806	800.000	-0.058	0.178
-579.792	12.673	-0.193	-0.151
-578.777	123.606	-0.152	-0.193
-577.763	-111.908	0.076	-0.016
-576.748	110.430	-0.125	0.153
-575.733	454.318	0.095	-0.214
-574.719	221.133	0.177	-0.288
-573.704	-2.960	-0.035	0.025
-572.690	6.719	-0.060	-0.045
-571.675	800.000	0.117	0.399
-570.661	-38.828	-0.132	0.071
-569.646	-122.949	-0.201	0.033
-568.631	211.209	0.084	0.134
-567.617	110.369	-0.077	0.094
-566.602	-10.818	0.279	0.187
-565.588	-200.000	0.011	0.131
-564.573	-13.689	-0.244	0.161
-563.558	63.766	-0.079	0.080
-562.544	-85.399	-0.254	0.080
-561.529	90.132	-0.122	0.138
-560.515	-65.718	0.181	-0.074
-559.500	-3.692	-0.135	0.095
-558.485	800.000	0.020	-0.080
-557.471	-200.000	0.010	-0.201
-556.456	-119.529	-0.296	0.052
-555.442	573.348	0.114	0.282
-554.427	-96.672	0.362	0.097
-553.412	270.452	-0.163	-0.291
-552.398	125.220	0.199	0.255
-551.383	-79.687	0.073	0.025
-550.369	-107.903	0.076	-0.017
-549.354	-140.531	0.290	0.031
-548.339	-130.547	-0.302	-0.041
-547.325	228.224	-0.155	-0.256
-546.310	15.393	0.124	-0.099
-545.296	-170.202	0.193	-0.007
-544.281	24.952	0.062	0.053
-543.266	2.648	0.093	-0.069
-542.252	153.772	-0.088	0.122
-541.237	-101.356	0.267	0.066
-540.223	205.492	-0.130	-0.204
-539.208	151.057	0.074	0.102
-538.193	145.400	-0.110	-0.150
-537.179	256.152	0.046	0.080
-536.164	218.981	0.083	-0.134
-535.150	-74.449	0.657	-0.240
-534.135	310.331	-0.061	-0.116
-533.121	-43.387	0.243	-0.124
-532.106	136.134	-0.098	-0.130
-531.091	-173.959	-0.162	-0.005
-530.077	56.449	0.163	-0.161
-529.062	-44.721	-0.141	-0.072
-528.048	800.000	-0.005	0.023
-527.033	36.667	0.392	-0.351
-526.018	662.017	0.099	0.258
-525.004	96.108	0.172	0.199
-523.989	800.000	-0.036	-0.102
-522.975	71.514	0.156	0.164
-521.960	136.703	-0.277	0.366
-520.945	781.678	-0.062	-0.173
-519.931	127.260	0.186	0.239
-518.916	800.000	0.065	0.209
-517.902	-53.501	0.250	0.116
-516.887	800.000	0.016	0.047
-515.872	-0.235	-0.068	-0.049
-514.858	-30.972	0.081	-0.047
-513.843	-89.278	0.034	0.010
-512.829	-200.000	0.018	0.116
-511.814	574.619	0.071	0.175
-510.799	800.000	0.050	0.155
-509.785	800.000	-0.108	-0.306
-508.770	-118.104	0.190	0.034
-507.756	15.707	0.278	-0.221
-506.741	87.030	-0.290	-0.324
-505.726	-200.000	0.017	0.264
-504.712	733.639	0.135	-0.366
-503.697	-11.503	0.138	-0.092
-502.683	25.560	-0.317	-0.267
-501.668	-84.931	0.148	-0.047
-500.653	22.585	0.183	0.151
-499.639	158.558	-0.126	0.178
-498.624	38.909	-0.260	0.236
-497.610	-116.053	-0.121	0.023
-496.595	-167.442	0.528	-0.021
-495.581	-128.538	0.239	-0.034
-494.566	-42.536	0.057	-0.029
-493.551	800.000	0.148	0.445
-492.537	56.775	0.183	-0.181
-491.522	800.000	-0.037	0.164
-490.508	800.000	0.060	0.209
-489.493	162.762	-0.125	-0.177
-488.478	-7.315	0.079	0.054
-487.464	297.235	-0.103	0.191
-486.449	-59.965	0.413	0.178
-485.435	-135.848	0.252	0.030
-484.420	-87.082	-0.072	0.022
-483.405	-66.173	0.041	-0.017
-482.391	376.185	0.166	0.343
-481.376	-23.513	-0.055	-0.033
-480.362	2.447	-0.299	0.219
-479.347	-64.798	-0.266	-0.109
-478.332	-92.946	-0.109	0.031
-477.318	-49.237	-0.138	0.067
-476.303	163.118	0.127	-0.180
-475.289	641.317	0.043	0.111
-474.274	-191.230	-0.248	0.003
-473.259	490.275	-0.035	-0.080
-472.245	248.502	0.162	-0.278
-471.230	53.230	0.215	0.208
-470.216	-200.000	0.026	0.214
-469.201	-61.729	-0.204	-0.087
-468.186	269.509	-0.118	-0.210
-467.172	49.254	0.243	-0.231
-466.157	-141.107	0.211	0.022
-465.143	262.446	-0.190	-0.334
-464.128	519.607	0.077	-0.183
-463.113	148.026	0.099	0.135
-462.099	143.315	0.217	-0.292
-461.084	-58.925	0.215	-0.094
-460.070	2.311	-0.022	0.016
-459.055	-200.000	0.040	0.213
-458.040	104.171	-0.193	-0.230
-457.026	-55.710	-0.251	0.113
-456.011	-200.000	0.007	0.054
-454.997	-52.951	0.144	0.067
-453.982	190.882	-0.157	-0.239
-452.968	800.000	0.029	-0.083
-451.953	800.000	0.041	-0.144
-450.938	262.507	0.118	0.207
-449.924	82.907	0.135	0.148
-448.909	-200.000	0.011	0.183
-447.895	592.861	-0.061	-0.151
-446.880	151.438	-0.145	-0.200
-445.865	-200.000	0.016	0.082
-444.851	-140.248	-0.288	-0.030
-443.836	-9.114	-0.087	-0.059
-442.822	35.206	-0.069	0.061
-441.807	3.449	0.105	-0.077
-440.792	-29.840	-0.423	-0.244
-439.778	-30.874	-0.204	0.116
-438.763	800.000	-0.086	0.241
-437.749	198.617	-0.105	0.162
-436.734	459.702	-0.047	-0.106
-435.719	-42.244	0.208	-0.107
-434.705	-142.732	0.055	0.005
-433.690	-52.975	-0.185	0.086
-432.676	-69.675	0.302	-0.117
-431.661	202.463	-0.067	-0.104
-430.646	-0.917	-0.248	-0.177
-429.632	94.005	-0.036	-0.041
-428.617	-200.000	-0.021	0.254
-427.603	590.873	-0.081	0.201
-426.588	211.981	-0.059	-0.093
-425.573	-200.000	0.033	0.186
-424.559	96.433	0.084	0.097
-423.544	47.145	0.282	-0.265
-422.530	-11.396	0.241	-0.160
-421.515	800.000	0.039	-0.166
-420.500	800.000	-0.072	-0.228
-419.486	15.144	-0.099	-0.079
-418.471	-200.000	-0.033	-0.161
-417.457	800.000	0.020	-0.085
-416.442	-146.860	-0.235	-0.020
-415.428	15.796	-0.321	0.255
-414.413	9.874	0.166	-0.127
-413.398	-200.000	-0.017	-0.310
-412.384	-33.444	-0.164	-0.092
-411.369	-157.683	-0.218	0.013
-410.355	3.579	-0.202	-0.149
-409.340	-12.966	-0.199	0.131
-408.325	-68.989	0.348	0.135
-407.311	372.455	0.142	0.292
-406.296	-34.060	-0.100	0.056
-405.282	95.928	0.115	-0.133
-404.267	283.065	-0.101	0.183
-403.252	719.820	0.138	0.369
-402.238	-110.962	0.028	-0.006
-401.223	-130.329	-0.083	-0.011
-400.209	-120.140	-0.226	-0.039
-399.194	-78.018	0.125	0.043
-398.179	-63.156	-0.064	0.026
-397.165	472.759	0.081	-0.185
-396.150	-47.155	-0.095	-0.047
-395.136	-37.410	0.011	0.006
-394.121	221.918	-0.164	-0.266
-393.106	-150.718	-0.020	0.002
-392.092	-94.542	-0.162	-0.045
-391.077	0.137	0.098	-0.070
-390.063	-200.000	-0.046	-0.246
-389.048	665.641	0.174	-0.453
-388.033	800.000	-0.094	0.389
-387.019	-32.385	-0.260	0.146
-386.004	-125.800	0.309	0.047
-384.990	-200.000	-0.024	0.225
-383.975	-200.000	0.030	-0.393
-382.960	66.592	-0.127	0.130
-381.946	-200.000	-0.022	0.167
-380.931	800.000	0.041	0.172
-379.917	800.000	0.039	-0.159
-378.902	-131.050	-0.250	0.034
-377.888	800.000	-0.061	-0.256
-376.873	-200.000	0.045	0.371
-375.858	800.000	-0.024	0.088
-374.844	25.596	-0.376	0.316
-373.829	-78.869	0.201	-0.069
-372.815	186.097	0.159	0.238
-371.800	665.092	-0.059	-0.153
-370.785	-12.155	0.031	-0.020
-369.771	-200.000	0.008	-0.113
-368.756	64.637	-0.091	-0.093
-367.742	-109.981	-0.283	0.060
-366.727	-91.888	0.152	0.043
-365.712	80.696	0.011	-0.012
-364.698	-200.000	0.000	0.267
-363.683	-200.000	-0.013	-0.147
-362.669	235.540	-0.161	-0.269
-361.654	-117.663	0.413	0.075
-360.639	345.665	0.043	0.086
-359.625	-200.000	-0.007	0.458
-358.610	14.103	-0.228	-0.179
-357.596	24.419	0.332	0.277
-356.581	-124.635	0.182	0.028
-355.566	-200.000	0.027	0.184
-354.552	38.742	-0.032	-0.029
-353.537	27.635	0.438	-0.371
-352.523	716.562	-0.042	-0.112
-351.508	-94.202	-0.147	-0.041
-350.493	-110.566	-0.236	-0.049
-349.479	-95.970	-0.174	0.047
-348.464	800.000	0.016	0.047
-347.450	-200.000	-0.045	-0.414
-346.435	70.289	0.132	-0.137
-345.420	-119.448	0.283	-0.049
-344.406	209.095	0.119	-0.187
-343.391	-111.894	0.154	-0.031
-342.377	27.027	0.042	-0.036
-341.362	555.064	-0.019	-0.045
-340.348	-80.419	0.148	-0.050
-339.333	-14.830	0.295	0.191
-338.318	800.000	-0.098	-0.286
-337.304	-92.751	-0.043	-0.012
-336.289	225.175	-0.002	0.004
-335.275	-200.000	0.016	0.070
-334.260	48.952	-0.086	-0.081
-333.245	-48.269	0.229	0.111
-332.231	-87.148	0.087	-0.027
-331.216	-200.000	0.030	-0.132
-330.202	174.038	0.178	-0.258
-329.187	409.785	0.129	0.274
-328.172	318.122	-0.062	-0.118
-327.158	-114.552	0.261	0.050
-326.143	-135.672	0.152	-0.018
-325.129	-102.473	0.242	-0.058
-324.114	-2.168	-0.066	0.046
-323.099	-13.523	-0.104	0.068
-322.085	172.985	0.196	-0.284
-321.070	84.012	0.145	-0.160
-320.056	-200.000	0.006	0.284
-319.041	-59.129	-0.278	-0.120
-318.026	33.905	0.153	-0.134
-317.012	474.124	-0.066	0.149
-315.997	-154.602	-0.187	0.013
-314.983	366.329	0.129	0.261
-313.968	51.934	0.214	-0.204
-312.953	535.803	-0.044	-0.106
-311.939	-158.406	-0.067	0.004
-310.924	598.989	0.079	-0.196
-309.910	-200.000	-0.030	-0.326
-308.895	651.488	-0.069	0.178
-307.880	-187.075	-0.275	-0.004
-306.866	107.541	-0.160	-0.192
-305.851	285.122	-0.125	-0.227
-304.837	-66.359	0.124	0.050
-303.822	-200.000	0.013	-0.133
-302.807	-174.574	0.317	0.009
-301.793	-97.906	0.214	-0.056
-300.778	-200.000	0.098	-0.525
-299.764	283.585	-0.104	0.188
-298.749	-97.893	-0.403	-0.105
-297.735	449.535	0.106	0.235
-296.720	139.169	0.139	0.183
-295.705	12.814	0.107	-0.083
-294.691	-19.605	-0.277	0.172
-293.676	46.625	-0.203	0.190
-292.662	-200.000	0.007	-0.127
-291.647	-120.047	0.156	-0.027
-290.632	-200.000	0.013	-0.156
-289.618	224.554	-0.086	0.140
-288.603	800.000	0.130	-0.518
-287.589	-92.150	0.306	0.087
-286.574	-200.000	0.052	0.311
-285.559	-37.502	0.058	-0.031
-284.545	169.086	0.196	-0.282
-283.530	489.540	0.050	-0.115
-282.516	112.767	-0.190	-0.231
-281.501	12.056	0.035	-0.027
-280.486	-25.276	0.132	-0.079
-279.472	624.784	-0.143	0.363
-278.457	716.546	0.154	-0.410
-277.443	800.000	-0.028	0.093
-276.428	17.020	0.314	-0.249
-275.413	-50.430	0.091	-0.043
-274.399	6.214	-0.099	0.074
-273.384	21.131	-0.322	0.262
-272.370	242.482	-0.064	0.108
-271.355	31.938	0.217	0.187
-270.340	-154.872	0.355	-0.024
-269.326	596.619	0.035	-0.086
-268.311	68.633	0.156	0.161
-267.297	800.000	0.069	0.227
-266.282	-102.900	0.242	0.058
-265.267	-200.000	-0.223	0.001
-264.253	250.126	-0.129	0.220
-263.238	-2.209	0.350	0.246
-262.224	484.703	0.041	0.093
-261.209	-153.626	-0.263	-0.018
-260.195	-130.160	-0.288	0.039
-259.180	-200.000	-0.006	-0.081
-258.165	-15.910	-0.089	0.057
-257.151	48.233	-0.109	-0.102
-256.136	116.581	-0.147	-0.181
-255.122	432.202	-0.069	-0.150
-254.107	-200.000	-0.006	0.040
-253.092	86.658	-0.260	-0.288
-252.078	20.516	0.142	0.115
-251.063	62.733	0.310	0.311
-250.049	550.689	-0.125	0.300
-249.034	-34.271	-0.285	0.157
-248.019	-65.200	-0.221	-0.089
-247.005	785.106	0.070	0.194
-245.990	-104.299	0.125	-0.029
-244.976	205.696	-0.088	0.137
-243.961	-140.129	0.182	-0.019
-242.946	83.562	-0.044	-0.049
-241.932	260.442	0.076	-0.131
-240.917	222.047	-0.025	0.040
-239.903	242.782	0.027	-0.046
-238.888	627.591	-0.130	0.330
-237.873	88.480	-0.045	0.050
-236.859	-67.555	0.086	-0.034
-235.844	-200.000	0.007	0.324
-234.830	-200.000	-0.003	-0.313
-233.815	-200.000	-0.055	0.344
-232.800	63.069	-0.183	0.183
-231.786	94.693	0.268	0.306
-230.771	393.166	-0.069	0.145
-229.757	117.786	-0.276	0.341
-228.742	33.017	-0.122	0.106
-227.727	320.345	0.074	-0.142
-226.713	800.000	-0.116	-0.363
-225.698	-101.574	0.089	-0.022
-224.684	56.468	0.068	0.066
-223.669	717.203	-0.111	0.295
-222.655	-200.000	0.006	-0.232
-221.640	800.000	-0.094	-0.367
-220.625	800.000	0.067	0.217
-219.611	-128.668	-0.268	0.038
-218.596	758.826	-0.164	-0.444
-217.582	220.509	-0.097	0.155
-216.567	57.407	-0.091	0.089
-215.552	-50.885	0.255	-0.120
-214.538	-140.911	0.097	0.010
-213.523	15.451	0.161	-0.126
-212.509	143.177	0.038	0.050
-211.494	800.000	-0.039	0.127
-210.479	-200.000	0.008	0.117
-209.465	-24.350	-0.301	-0.180
-208.450	325.532	-0.089	-0.170
-207.436	30.663	0.120	0.103
-206.421	800.000	0.065	0.209
-205.406	800.000	0.004	-0.013
-204.392	-91.850	0.127	-0.036
-203.377	-133.470	0.134	0.017
-202.363	-200.000	0.018	-0.219
-201.348	-5.393	0.178	-0.122
-200.333	800.000	0.018	-0.056
-199.319	-128.853	-0.214	0.030
-198.304	-80.163	-0.113	0.038
-197.290	-200.000	0.057	-0.335
-196.275	-150.721	-0.361	-0.028
-195.260	56.588	0.048	-0.047
-194.246	27.109	-0.103	-0.086
-193.231	-200.000	0.051	0.419
-192.217	-106.510	0.185	0.041
-191.202	-75.586	0.054	-0.019
-190.187	-121.484	-0.130	-0.022
-189.173	8.194	0.350	0.263
-188.158	-21.545	0.114	0.069
-187.144	-138.274	0.281	-0.031
-186.129	-200.000	-0.002	-0.163
-185.114	-35.354	-0.092	-0.050
-184.100	56.086	0.117	0.113
-183.085	686.769	-0.090	0.236
-182.071	-31.269	0.199	-0.112
-181.056	23.961	0.164	-0.135
-180.042	129.461	-0.219	0.280
-179.027	74.723	-0.141	0.148
-178.012	142.606	-0.070	0.093
-176.998	682.983	0.051	-0.133
-175.983	-45.895	-0.051	-0.025
-174.969	64.954	0.430	0.434
-173.954	42.748	-0.070	-0.064
-172.939	-200.000	0.009	0.049
-171.925	-80.427	-0.170	-0.057
-170.910	770.275	-0.063	-0.173
-169.896	19.352	-0.099	-0.079
-168.881	715.790	-0.038	-0.100
-167.866	800.000	-0.022	0.096
-166.852	-35.762	-0.103	-0.056
-165.837	-200.000	-0.044	-0.212
-164.823	150.220	-0.113	-0.153
-163.808	204.380	0.080	0.124
-162.793	13.059	-0.170	0.131
-161.779	-78.598	-0.225	-0.077
-160.764	-49.960	-0.060	0.028
-159.750	800.000	0.100	-0.359
-158.735	800.000	-0.064	-0.209
-157.720	170.711	-0.100	0.143
-156.706	329.926	0.040	-0.077
-155.691	-140.776	-0.123	-0.013
-154.677	-141.524	-0.280	-0.028
-153.662	-121.025	-0.264	0.044
-152.647	641.370	-0.152	-0.385
-151.633	-200.000	0.026	-0.136
-150.618	-87.575	-0.251	0.076
-149.604	-178.473	-0.107	-0.002
-148.589	-2.949	-0.055	-0.038
-147.574	104.980	-0.339	0.400
-146.560	375.957	-0.130	0.265
-145.545	-105.950	0.277	0.062
-144.531	26.091	0.082	-0.069
-143.516	-56.245	0.152	-0.068
-142.502	-200.000	-0.005	-0.298
-141.487	440.561	0.115	0.251
-140.472	662.666	-0.057	-0.147
-139.458	259.599	0.244	0.421
-138.443	-126.343	0.199	-0.030
-137.429	64.351	0.145	-0.145
-136.414	-195.644	0.217	-0.002
-135.399	18.672	0.210	-0.168
-134.385	328.116	0.129	-0.248
-133.370	-114.122	0.383	0.074
-132.356	179.441	0.211	-0.308
-131.341	-15.040	-0.049	-0.031
-130.326	-175.109	-0.233	-0.006
-129.312	36.647	0.167	-0.147
-128.297	33.394	0.233	0.202
-127.283	121.985	0.166	0.207
-126.268	-200.000	-0.022	-0.102
-125.253	154.441	-0.109	0.149
-124.239	-112.690	-0.190	0.038
-123.224	16.889	0.225	0.178
-122.210	-25.220	0.174	0.103
-121.195	800.000	-0.051	-0.221
-120.180	800.000	0.035	0.107
