DTS Sentinel unit serial number:	SN413079Multiplexer serial number:	ORYXHardware model number:	OX4-SRSoftware version number:	ORYX F/W v4.00 Oryx Data Collector v3.7.2.0data status	okinstallation	princeton_trtdifferential loss correction	single-endedforward channel	channel 1reverse channel	N/Adate	2019/09/15time	23:46:35forward acquisition time	60.00reverse acquisition time	0.00gamma	496.2192k internal	0.2332k external	0.2332temperature offset calibration	0.9974default loss term (dB/km)	0.3790temperature slope calibration	1.0000multiplexer offset coefficient	1.0000multiplexer slope coefficient	1.0000fibre end	0.00T internal ref (°C)	28.00T ext. ref 1 (°C)	9.29T ext. ref 2 (°C)	21.64length (m)	temperature (°C)	Stokes	anti-Stokes-747.200	388.743	0.017	0.036
-746.185	-132.742	0.275	0.035
-745.171	69.924	-0.097	0.101
-744.156	201.854	-0.095	0.147
-743.142	229.740	0.070	0.115
-742.127	-153.278	-0.341	-0.024
-741.112	-114.839	0.278	-0.053
-740.098	-97.663	-0.143	0.037
-739.083	-123.950	-0.600	0.095
-738.069	-141.138	-0.253	-0.026
-737.054	800.000	-0.030	0.120
-736.039	-200.000	-0.071	0.392
-735.025	-200.000	0.010	0.206
-734.010	-83.762	-0.239	-0.077
-732.996	-112.944	-0.276	-0.055
-731.981	30.920	-0.175	-0.150
-730.966	-200.000	0.054	-0.242
-729.952	43.545	-0.126	0.116
-728.937	800.000	0.091	-0.263
-727.923	-147.430	-0.229	0.019
-726.908	71.341	-0.119	0.124
-725.894	800.000	0.092	-0.273
-724.879	800.000	0.087	0.318
-723.864	99.300	-0.021	0.024
-722.850	-121.406	0.340	-0.057
-721.835	800.000	-0.083	-0.252
-720.821	-200.000	-0.350	-0.001
-719.806	-134.632	-0.354	-0.043
-718.791	-100.813	-0.303	0.075
-717.777	-39.161	-0.274	0.145
-716.762	37.150	0.102	-0.090
-715.748	-155.672	-0.321	0.021
-714.733	113.558	0.229	0.279
-713.718	-200.000	0.062	-0.378
-712.704	213.309	0.015	-0.023
-711.689	800.000	0.023	-0.092
-710.675	-70.372	-0.425	-0.162
-709.660	800.000	-0.047	0.170
-708.645	-149.512	0.282	-0.022
-707.631	800.000	-0.052	-0.176
-706.616	-15.400	-0.072	-0.046
-705.602	642.062	0.112	0.287
-704.587	-7.591	0.175	-0.119
-703.572	-159.651	-0.093	-0.005
-702.558	-200.000	0.036	0.209
-701.543	233.294	0.049	-0.082
-700.529	260.531	-0.202	0.351
-699.514	-200.000	-0.018	0.221
-698.499	343.410	0.164	-0.322
-697.485	-200.000	-0.024	-0.300
-696.470	120.882	-0.083	-0.104
-695.456	-200.000	-0.031	-0.236
-694.441	-5.272	0.347	0.240
-693.426	-200.000	0.034	0.294
-692.412	-18.895	-0.162	-0.101
-691.397	800.000	0.045	-0.157
-690.383	800.000	-0.011	0.036
-689.368	-200.000	-0.005	-0.219
-688.354	-80.408	0.084	0.028
-687.339	-104.936	-0.216	0.050
-686.324	-51.684	-0.229	-0.107
-685.310	584.327	-0.091	-0.223
-684.295	605.154	0.040	0.100
-683.281	-61.928	0.168	-0.070
-682.266	95.807	-0.176	-0.202
-681.251	-200.000	0.041	0.214
-680.237	-148.806	-0.075	-0.006
-679.222	-45.598	-0.400	0.199
-678.208	66.431	0.116	0.118
-677.193	-200.000	-0.098	-0.519
-676.178	-88.274	-0.365	0.110
-675.164	-116.483	-0.400	-0.074
-674.149	780.572	-0.088	-0.241
-673.135	-200.000	-0.048	0.530
-672.120	800.000	-0.049	-0.137
-671.105	-200.000	0.029	0.153
-670.091	134.488	-0.210	-0.274
-669.076	99.526	-0.164	-0.190
-668.062	-106.784	-0.122	-0.027
-667.047	23.553	-0.077	0.063
-666.032	-118.354	0.230	-0.041
-665.018	717.993	-0.108	0.289
-664.003	-200.000	-0.044	0.213
-662.989	800.000	0.087	0.264
-661.974	192.150	-0.117	-0.178
-660.959	-70.804	0.099	0.038
-659.945	-101.755	-0.187	0.045
-658.930	-187.160	0.370	0.005
-657.916	89.109	-0.034	-0.038
-656.901	106.168	0.141	-0.167
-655.886	-94.432	-0.310	-0.085
-654.872	-200.000	-0.007	0.178
-653.857	-36.704	0.142	-0.077
-652.843	122.499	-0.105	-0.131
-651.828	-200.000	-0.030	0.183
-650.814	-37.644	-0.110	-0.059
-649.799	646.122	0.026	0.066
-648.784	-18.674	0.165	-0.103
-647.770	-200.000	0.024	0.189
-646.755	74.769	-0.120	-0.127
-645.741	-145.028	-0.246	0.022
-644.726	300.805	-0.061	-0.112
-643.711	40.249	-0.132	0.119
-642.697	22.004	-0.222	0.182
-641.682	203.322	-0.144	0.224
-640.668	-158.872	0.188	0.011
-639.653	-56.236	-0.121	-0.054
-638.638	800.000	-0.120	0.346
-637.624	396.484	0.043	-0.091
-636.609	-133.099	0.208	-0.026
-635.595	800.000	0.085	0.306
-634.580	1.354	-0.025	0.018
-633.565	800.000	-0.019	0.070
-632.551	-134.215	-0.120	-0.015
-631.536	340.234	0.168	-0.328
-630.522	27.656	0.239	-0.201
-629.507	101.760	-0.220	-0.257
-628.492	-32.556	-0.122	-0.068
-627.478	442.121	0.034	0.074
-626.463	-105.601	-0.382	-0.087
-625.449	-3.994	-0.374	-0.260
-624.434	-200.000	0.011	0.374
-623.419	17.432	0.258	-0.205
-622.405	-62.229	0.157	-0.065
-621.390	4.443	-0.101	-0.074
-620.376	-0.612	0.044	0.031
-619.361	21.008	0.227	0.184
-618.346	184.214	0.093	0.138
-617.332	-23.116	-0.140	-0.085
-616.317	241.193	0.133	0.222
-615.303	-126.190	-0.158	-0.024
-614.288	-200.000	0.050	0.260
-613.273	-200.000	-0.002	0.285
-612.259	-74.745	-0.151	-0.054
-611.244	89.534	-0.113	0.126
-610.230	158.682	0.083	0.115
-609.215	-148.167	-0.311	-0.026
-608.201	91.269	0.254	-0.285
-607.186	-21.683	0.047	-0.029
-606.171	-200.000	0.021	-0.356
-605.157	372.329	0.088	-0.178
-604.142	-200.000	-0.053	-0.395
-603.128	572.559	-0.026	0.064
-602.113	-200.000	-0.016	0.142
-601.098	311.551	0.033	0.061
-600.084	253.761	-0.183	-0.314
-599.069	-200.000	-0.023	-0.430
-598.055	251.740	-0.049	-0.083
-597.040	-97.628	0.358	-0.093
-596.025	-200.000	-0.048	-0.393
-595.011	-200.000	-0.023	-0.167
-593.996	-47.538	0.201	-0.098
-592.982	33.933	-0.120	0.104
-591.967	431.648	-0.098	0.212
-590.952	800.000	-0.025	0.102
-589.938	2.525	0.120	0.087
-588.923	800.000	0.018	-0.071
-587.909	37.727	-0.074	0.065
-586.894	-39.865	0.152	0.079
-585.879	487.840	-0.063	-0.143
-584.865	356.686	-0.084	-0.168
-583.850	196.638	-0.183	-0.279
-582.836	76.069	-0.074	-0.079
-581.821	110.949	-0.125	-0.151
-580.806	800.000	-0.092	-0.314
-579.792	-23.346	-0.365	0.219
-578.777	-158.503	-0.360	0.021
-577.763	133.157	0.250	-0.323
-576.748	419.984	-0.117	0.250
-575.733	800.000	0.040	-0.128
-574.719	2.912	0.155	-0.113
-573.704	-123.230	0.124	-0.020
-572.690	34.243	-0.091	-0.080
-571.675	-128.018	-0.290	-0.042
-570.661	-167.060	0.263	-0.011
-569.646	-122.174	-0.076	-0.012
-568.631	800.000	0.062	-0.207
-567.617	160.393	0.129	0.179
-566.602	-200.000	0.032	-0.309
-565.588	-200.000	-0.011	0.106
-564.573	-200.000	0.009	-0.099
-563.558	50.657	0.145	-0.137
-562.544	-66.773	-0.344	0.136
-561.529	218.823	-0.181	-0.289
-560.515	800.000	0.111	0.310
-559.500	-200.000	0.004	-0.122
-558.485	-77.193	-0.214	0.074
-557.471	800.000	-0.065	-0.200
-556.456	22.454	0.198	0.162
-555.442	-76.080	0.147	-0.052
-554.427	-41.201	0.258	0.133
-553.412	-1.631	-0.244	-0.172
-552.398	-200.000	0.024	0.169
-551.383	11.818	-0.201	-0.154
-550.369	-200.000	0.034	0.194
-549.354	800.000	-0.080	-0.235
-548.339	800.000	0.073	-0.224
-547.325	-84.301	-0.272	0.086
-546.310	-137.003	-0.215	-0.025
-545.296	-200.000	0.007	0.106
-544.281	20.994	-0.232	-0.187
-543.266	-176.537	-0.076	0.002
-542.252	69.624	-0.116	-0.119
-541.237	3.861	-0.235	-0.171
-540.223	-60.188	-0.151	-0.064
-539.208	337.658	0.140	0.273
-538.193	800.000	-0.022	0.075
-537.179	37.445	-0.104	-0.092
-536.164	692.074	0.039	0.103
-535.150	164.069	0.035	-0.050
-534.135	-84.158	-0.129	-0.041
-533.121	-27.213	-0.155	0.090
-532.106	-1.189	0.254	-0.179
-531.091	-90.337	-0.171	-0.049
-530.077	800.000	0.045	-0.126
-529.062	145.481	-0.015	0.020
-528.048	800.000	-0.066	-0.201
-527.033	-200.000	-0.012	-0.160
-526.018	150.154	-0.105	0.143
-525.004	16.916	-0.143	-0.113
-523.989	411.440	0.133	0.282
-522.975	800.000	-0.075	-0.321
-521.960	-122.888	0.044	0.007
-520.945	-136.525	0.266	-0.031
-519.931	-141.707	0.307	-0.031
-518.916	423.147	-0.203	0.434
-517.902	43.297	0.046	0.042
-516.887	800.000	0.056	0.157
-515.872	85.064	-0.255	-0.279
-514.858	-74.127	0.295	-0.106
-513.843	-200.000	0.036	0.215
-512.829	-86.123	-0.235	-0.072
-511.814	62.744	-0.196	-0.195
-510.799	-69.997	-0.280	0.106
-509.785	-200.000	0.012	0.058
-508.770	-200.000	0.068	0.361
-507.756	208.000	0.096	-0.149
-506.741	800.000	-0.052	-0.211
-505.726	241.308	0.175	-0.291
-504.712	-200.000	-0.011	-0.105
-503.697	-35.707	-0.152	-0.082
-502.683	-57.916	-0.154	0.067
-501.668	-168.647	0.141	0.005
-500.653	723.513	-0.081	0.216
-499.639	-200.000	0.007	-0.131
-498.624	800.000	0.132	0.428
-497.610	-200.000	0.039	0.214
-496.595	92.110	0.136	-0.153
-495.581	58.667	0.183	0.179
-494.566	-2.296	-0.037	0.026
-493.551	-135.919	-0.368	0.043
-492.537	124.712	0.216	0.271
-491.522	-17.035	0.307	0.193
-490.508	-16.663	0.063	0.040
-489.493	111.518	-0.070	-0.084
-488.478	-55.489	-0.359	-0.160
-487.464	-1.869	-0.253	0.177
-486.449	-11.169	0.156	0.102
-485.435	-185.945	0.200	0.003
-484.420	277.060	-0.204	-0.361
-483.405	63.766	0.167	0.167
-482.391	-149.864	-0.314	-0.024
-481.376	-98.785	0.066	-0.017
-480.362	83.091	-0.151	0.163
-479.347	50.626	-0.382	-0.360
-478.332	-132.327	0.224	-0.029
-477.318	800.000	-0.079	0.244
-476.303	-63.832	-0.072	-0.029
-475.289	-200.000	-0.013	0.163
-474.274	800.000	0.023	0.094
-473.259	-157.388	-0.054	0.003
-472.245	-73.414	-0.021	-0.008
-471.230	433.250	0.145	-0.313
-470.216	398.244	-0.023	0.048
-469.201	-165.500	-0.175	-0.008
-468.186	-7.802	-0.107	-0.072
-467.172	613.741	0.112	-0.280
-466.157	47.765	-0.294	-0.273
-465.143	50.390	-0.337	-0.317
-464.128	800.000	0.011	0.042
-463.113	2.499	-0.161	-0.116
-462.099	-30.748	-0.407	-0.229
-461.084	445.263	0.161	0.353
-460.070	-69.485	0.042	-0.016
-459.055	706.171	0.170	-0.447
-458.040	-49.962	-0.297	-0.140
-457.026	-118.894	0.239	-0.042
-456.011	-59.491	-0.289	-0.123
-454.997	6.100	-0.077	0.056
-453.982	29.929	-0.339	0.287
-452.968	50.938	0.058	-0.055
-451.953	56.021	-0.320	0.309
-450.938	346.862	0.050	0.098
-449.924	63.408	-0.320	-0.319
-448.909	472.726	-0.078	-0.176
-447.895	-64.032	0.235	-0.095
-446.880	318.146	-0.148	0.279
-445.865	-200.000	0.004	0.287
-444.851	-200.000	0.016	0.177
-443.836	64.204	0.219	0.219
-442.822	-131.588	-0.223	-0.029
-441.807	72.446	0.088	-0.092
-440.792	-40.957	-0.128	-0.066
-439.778	12.590	0.207	-0.159
-438.763	265.970	0.213	-0.370
-437.749	-18.505	-0.145	0.090
-436.734	197.447	-0.103	0.157
-435.719	68.955	0.105	0.108
-434.705	40.935	0.262	0.235
-433.690	206.211	-0.031	0.048
-432.676	401.081	-0.105	-0.219
-431.661	800.000	-0.048	0.144
-430.646	176.177	-0.202	-0.292
-429.632	16.235	-0.173	-0.135
-428.617	-98.661	0.110	-0.028
-427.603	-91.835	-0.115	-0.032
-426.588	-4.551	-0.244	0.167
-425.573	-43.183	0.301	-0.152
-424.559	217.469	-0.081	0.129
-423.544	131.111	-0.043	-0.055
-422.530	9.024	0.265	-0.199
-421.515	-200.000	0.039	-0.230
-420.500	-200.000	0.059	0.300
-419.486	-200.000	-0.016	-0.133
-418.471	-70.876	0.383	-0.143
-417.457	-63.449	0.105	0.043
-416.442	-61.982	0.170	0.071
-415.428	-200.000	0.009	0.044
-414.413	-31.896	-0.068	0.038
-413.398	800.000	0.031	-0.111
-412.384	31.227	0.248	-0.211
-411.369	-11.450	0.166	0.108
-410.355	621.950	0.111	-0.278
-409.340	-200.000	0.047	-0.229
-408.325	512.447	0.065	-0.150
-407.311	674.412	-0.148	0.381
-406.296	-106.260	0.515	-0.115
-405.282	-200.000	-0.015	-0.190
-404.267	-61.401	-0.214	-0.089
-403.252	638.181	0.145	0.367
-402.238	55.126	-0.035	0.033
-401.223	-65.531	-0.182	0.072
-400.209	72.845	-0.166	0.172
-399.194	55.607	0.104	0.100
-398.179	56.148	0.059	-0.057
-397.165	800.000	-0.059	0.207
-396.150	-85.532	0.168	-0.052
-395.136	-200.000	-0.007	-0.248
-394.121	379.850	-0.139	0.283
-393.106	-200.000	-0.023	-0.123
-392.092	800.000	0.053	-0.153
-391.077	110.181	0.266	0.317
-390.063	385.359	0.149	-0.304
-389.048	-117.118	-0.142	-0.026
-388.033	-102.444	0.206	0.049
-387.019	124.605	0.309	-0.385
-386.004	125.511	0.137	0.172
-384.990	-130.767	0.255	-0.034
-383.975	35.674	0.252	-0.220
-382.960	3.360	0.233	-0.168
-381.946	-200.000	-0.008	0.065
-380.931	64.186	0.164	0.163
-379.917	800.000	0.062	0.191
-378.902	-200.000	0.010	0.186
-377.888	-162.975	0.299	0.014
-376.873	19.537	-0.349	0.278
-375.858	-22.945	-0.196	-0.117
-374.844	-56.132	-0.250	-0.110
-373.829	-90.072	-0.357	-0.103
-372.815	131.528	-0.252	0.321
-371.800	-102.342	0.298	-0.071
-370.785	-89.855	-0.072	-0.021
-369.771	314.296	0.032	-0.060
-368.756	-158.999	0.212	0.012
-367.742	-35.593	0.265	-0.143
-366.727	-41.621	-0.265	-0.135
-365.712	-200.000	-0.023	-0.185
-364.698	-63.476	0.172	0.070
-363.683	800.000	0.099	-0.289
-362.669	-89.547	0.049	0.014
-361.654	-200.000	-0.012	0.180
-360.639	800.000	-0.034	0.105
-359.625	800.000	0.106	0.361
-358.610	10.034	0.288	0.217
-357.596	-51.359	-0.318	-0.148
-356.581	-200.000	0.024	-0.115
-355.566	563.211	0.048	-0.115
-354.552	800.000	0.075	0.271
-353.537	37.251	0.193	-0.170
-352.523	50.311	0.260	0.244
-351.508	27.862	-0.238	0.198
-350.493	45.945	-0.201	-0.184
-349.479	-49.186	0.205	-0.097
-348.464	-98.451	0.100	0.025
-347.450	-25.206	0.108	-0.063
-346.435	-56.695	-0.476	-0.208
-345.420	255.472	-0.190	-0.323
-344.406	15.443	0.169	-0.131
-343.391	116.826	0.113	-0.138
-342.377	-44.941	-0.075	-0.037
-341.362	-200.000	-0.001	0.283
-340.348	-200.000	-0.034	0.303
-339.333	-164.623	-0.259	-0.012
-338.318	-84.334	0.310	-0.097
-337.304	503.018	0.041	-0.094
-336.289	800.000	0.022	-0.092
-335.275	223.752	0.130	0.207
-334.260	-142.336	-0.497	-0.049
-333.245	371.104	0.037	-0.074
-332.231	410.512	-0.057	-0.119
-331.216	356.832	-0.090	-0.177
-330.202	2.393	0.265	0.190
-329.187	-200.000	0.033	0.151
-328.172	212.760	0.107	-0.167
-327.158	800.000	0.167	0.548
-326.143	-8.452	0.255	-0.170
-325.129	78.563	0.158	0.167
-324.114	334.927	-0.101	0.193
-323.099	-200.000	-0.018	-0.290
-322.085	88.416	-0.205	-0.225
-321.070	105.036	-0.087	0.101
-320.056	-51.228	0.256	-0.119
-319.041	-200.000	-0.009	0.176
-318.026	-52.881	0.255	-0.116
-317.012	-200.000	-0.015	-0.281
-315.997	-140.202	0.123	0.013
-314.983	-200.000	0.001	-0.340
-313.968	322.869	0.047	-0.089
-312.953	-200.000	0.009	0.041
-311.939	-87.723	0.216	-0.064
-310.924	-200.000	0.112	0.510
-309.910	800.000	0.058	0.191
-308.895	-200.000	0.017	-0.305
-307.880	-200.000	0.044	-0.362
-306.866	79.761	-0.110	-0.117
-305.851	330.034	-0.181	0.344
-304.837	301.096	-0.105	0.191
-303.822	157.490	-0.320	-0.438
-302.807	4.273	0.195	0.141
-301.793	800.000	-0.011	0.035
-300.778	104.192	-0.163	-0.190
-299.764	800.000	-0.023	-0.083
-298.749	131.484	-0.164	0.208
-297.735	683.308	-0.036	0.093
-296.720	26.123	0.158	0.130
-295.705	38.313	-0.167	0.147
-294.691	-128.350	0.220	-0.031
-293.676	208.929	0.233	0.361
-292.662	3.250	-0.146	0.105
-291.647	-72.234	0.295	-0.108
-290.632	42.585	-0.340	0.306
-289.618	29.920	-0.307	0.259
-288.603	-104.055	-0.297	0.068
-287.589	-122.975	-0.225	0.036
-286.574	-102.188	-0.153	0.036
-285.559	-200.000	-0.019	0.230
-284.545	-200.000	0.087	0.400
-283.530	365.761	-0.052	0.103
-282.516	248.997	0.025	0.041
-281.501	401.002	-0.190	-0.394
-280.486	800.000	0.075	0.258
-279.472	-200.000	-0.026	0.177
-278.457	-200.000	0.027	0.334
-277.443	-43.046	0.131	-0.066
-276.428	-200.000	0.041	-0.241
-275.413	-200.000	-0.046	-0.238
-274.399	-80.442	-0.180	-0.059
-273.384	-153.850	0.216	0.015
-272.370	-151.314	0.196	-0.014
-271.355	197.855	0.167	0.252
-270.340	-57.195	-0.073	-0.032
-269.326	800.000	-0.005	0.019
-268.311	18.193	-0.219	-0.173
-267.297	127.165	-0.148	-0.185
-266.282	117.981	0.094	-0.115
-265.267	-200.000	0.016	-0.070
-264.253	520.162	0.058	0.135
-263.238	-67.071	0.426	0.166
-262.224	-11.911	-0.267	0.173
-261.209	-79.915	0.205	0.068
-260.195	800.000	0.045	0.141
-259.180	163.017	0.167	0.231
-258.165	800.000	-0.087	0.267
-257.151	199.520	0.091	0.137
-256.136	-16.939	0.185	0.115
-255.122	-18.418	-0.087	0.053
-254.107	-70.836	-0.417	-0.155
-253.092	-180.015	0.254	-0.005
-252.078	-57.746	-0.208	-0.090
-251.063	264.671	-0.119	0.205
-250.049	286.829	0.052	0.093
-249.034	-43.726	0.153	0.076
-248.019	-13.865	0.119	-0.076
-247.005	-153.983	0.090	-0.006
-245.990	800.000	0.050	0.196
-244.976	572.907	0.107	0.258
-243.961	-57.110	-0.221	-0.096
-242.946	800.000	-0.017	-0.060
-241.932	170.402	0.255	0.360
-240.917	64.221	0.147	0.145
-239.903	54.108	0.222	0.210
-238.888	47.665	-0.077	0.071
-237.873	-200.000	0.051	0.345
-236.859	-157.794	-0.203	-0.012
-235.844	-110.612	-0.266	0.054
-234.830	-200.000	0.072	-0.451
-233.815	49.962	0.082	0.077
-232.800	800.000	0.074	0.312
-231.786	-174.026	-0.129	-0.004
-230.771	64.220	0.100	0.100
-229.757	800.000	-0.101	-0.295
-228.742	142.569	-0.318	0.417
-227.727	580.860	-0.118	0.285
-226.713	-174.579	0.264	-0.007
-225.698	-20.925	-0.160	-0.097
-224.684	-140.878	0.215	-0.022
-223.669	-200.000	0.057	-0.266
-222.655	-44.756	-0.120	0.059
-221.640	32.026	0.095	-0.081
-220.625	103.564	0.065	0.076
-219.611	14.344	-0.192	-0.148
-218.596	1.234	0.057	0.040
-217.582	308.905	0.058	0.107
-216.567	-52.957	-0.126	-0.057
-215.552	-200.000	0.054	0.531
-214.538	39.778	-0.138	-0.122
-213.523	-152.662	-0.190	0.013
-212.509	197.119	-0.105	-0.158
-211.494	63.562	0.037	0.036
-210.479	-118.680	0.139	-0.024
-209.465	288.106	-0.133	0.236
-208.450	263.093	0.105	-0.179
-207.436	800.000	0.061	0.239
-206.421	-163.387	0.297	-0.014
-205.406	94.835	-0.190	0.212
-204.392	140.979	-0.073	0.095
-203.377	-200.000	0.084	0.414
-202.363	61.685	0.152	0.149
-201.348	-143.208	0.167	-0.016
-200.333	-200.000	0.045	-0.277
-199.319	5.980	0.358	0.261
-198.304	-79.891	0.082	0.027
-197.290	-200.000	0.027	-0.140
-196.275	-200.000	-0.006	0.066
-195.260	21.719	0.131	-0.105
-194.246	124.389	0.244	0.302
-193.231	-200.000	-0.025	0.253
-192.217	29.054	0.125	0.105
-191.202	-125.190	0.620	0.093
-190.187	-64.896	-0.161	0.064
-189.173	143.978	-0.244	0.320
-188.158	225.007	-0.047	0.074
-187.144	-200.000	0.068	0.495
-186.129	12.722	-0.232	-0.176
-185.114	97.739	0.364	-0.411
-184.100	-200.000	0.009	0.060
-183.085	800.000	0.131	-0.405
-182.071	-45.677	0.178	0.087
-181.056	-0.879	0.055	0.038
-180.042	-200.000	0.314	0.000
-179.027	90.561	-0.144	-0.159
-178.012	119.471	-0.313	-0.381
-176.998	513.739	0.161	-0.369
-175.983	-13.378	0.172	-0.110
-174.969	-75.899	0.188	-0.066
-173.954	156.709	0.151	-0.205
-172.939	-37.513	-0.352	-0.185
-171.925	-79.853	0.270	0.089
-170.910	-116.639	-0.180	-0.033
-169.896	-161.961	-0.048	0.002
-168.881	77.855	-0.194	-0.203
-167.866	800.000	-0.056	-0.156
-166.852	-87.457	-0.172	0.051
-165.837	-62.084	-0.322	0.132
-164.823	800.000	-0.048	-0.168
-163.808	672.835	0.144	-0.367
-162.793	157.906	0.206	-0.280
-161.779	-91.326	0.069	0.019
-160.764	11.422	-0.176	0.132
-159.750	179.908	0.255	0.367
-158.735	-80.872	-0.041	-0.013
-157.720	-98.193	0.218	0.055
-156.706	-200.000	-0.022	-0.274
-155.691	9.311	0.310	-0.230
-154.677	120.082	-0.179	0.219
-153.662	800.000	0.111	0.444
-152.647	-32.504	0.301	-0.165
-151.633	126.733	-0.065	0.081
-150.618	-63.021	0.035	0.014
-149.604	35.081	0.236	-0.203
-148.589	-19.355	0.357	-0.218
-147.574	66.953	0.096	-0.096
-146.560	-53.627	-0.080	0.036
-145.545	546.000	0.086	-0.202
-144.531	-39.716	-0.223	0.115
-143.516	452.173	0.134	-0.292
-142.502	210.463	-0.058	-0.089
-141.487	-200.000	0.025	0.127
-140.472	524.082	-0.067	-0.156
-139.458	-100.997	0.107	0.026
-138.443	-131.795	-0.172	0.022
-137.429	800.000	-0.036	0.151
-136.414	-200.000	-0.001	-0.123
-135.399	45.660	0.074	0.067
-134.385	-73.859	-0.237	-0.084
-133.370	800.000	-0.017	0.074
-132.356	69.933	0.231	0.234
-131.341	445.674	-0.079	-0.170
-130.326	-16.853	-0.106	-0.066
-129.312	611.590	0.057	0.141
-128.297	222.370	-0.087	0.138
-127.283	-24.638	0.100	-0.059
-126.268	134.991	-0.156	0.199
-125.253	-150.289	0.251	-0.019
-124.239	156.626	0.258	-0.350
-123.224	-111.911	0.032	-0.006
-122.210	709.761	0.009	0.023
-121.195	575.100	-0.026	0.062
-120.180	73.307	0.368	-0.378
