DTS Sentinel unit serial number:	SN413079Multiplexer serial number:	ORYXHardware model number:	OX4-SRSoftware version number:	ORYX F/W v4.00 Oryx Data Collector v3.7.2.0data status	okinstallation	princeton_trtdifferential loss correction	single-endedforward channel	channel 1reverse channel	N/Adate	2019/09/13time	10:14:35forward acquisition time	60.00reverse acquisition time	0.00gamma	496.2192k internal	0.2324k external	0.2324temperature offset calibration	1.0163default loss term (dB/km)	0.3790temperature slope calibration	1.0000multiplexer offset coefficient	1.0000multiplexer slope coefficient	1.0000fibre end	0.00T internal ref (°C)	30.69T ext. ref 1 (°C)	4.53T ext. ref 2 (°C)	27.86length (m)	temperature (°C)	Stokes	anti-Stokes-747.200	800.000	-0.051	0.180
-746.185	-105.136	-0.255	-0.059
-745.171	-200.000	0.030	0.292
-744.156	320.678	-0.024	0.046
-743.142	-8.963	0.070	-0.047
-742.127	49.104	0.068	-0.064
-741.112	309.702	-0.058	0.109
-740.098	-200.000	-0.014	-0.152
-739.083	-122.762	0.120	-0.020
-738.069	800.000	-0.068	0.197
-737.054	-33.938	-0.194	0.108
-736.039	-14.015	-0.348	0.227
-735.025	296.583	0.186	0.345
-734.010	82.965	-0.210	-0.230
-732.996	103.936	-0.220	0.261
-731.981	-200.000	-0.032	0.311
-730.966	770.105	-0.026	-0.071
-729.952	-9.646	0.055	0.037
-728.937	-200.000	0.016	-0.314
-727.923	-152.236	-0.263	0.019
-726.908	45.221	0.113	0.105
-725.894	142.504	0.275	-0.368
-724.879	800.000	-0.027	-0.077
-723.864	-190.124	-0.393	-0.004
-722.850	155.563	-0.177	-0.246
-721.835	-78.116	0.435	-0.151
-720.821	18.519	0.089	-0.072
-719.806	-70.535	0.182	-0.069
-718.791	-111.318	-0.042	-0.009
-717.777	4.353	-0.122	-0.090
-716.762	-200.000	-0.064	-0.413
-715.748	-27.832	-0.515	-0.301
-714.733	180.416	-0.073	-0.108
-713.718	637.894	-0.091	0.232
-712.704	42.618	-0.079	0.073
-711.689	693.878	0.060	-0.159
-710.675	-11.901	-0.173	-0.114
-709.660	-68.095	-0.146	-0.057
-708.645	202.442	0.082	0.128
-707.631	-200.000	-0.032	-0.166
-706.616	-200.000	-0.075	-0.395
-705.602	30.164	-0.283	0.243
-704.587	-200.000	-0.024	-0.208
-703.572	498.499	-0.088	0.203
-702.558	66.261	-0.159	0.162
-701.543	230.002	0.158	-0.260
-700.529	401.791	-0.131	-0.277
-699.514	800.000	0.125	-0.525
-698.499	-200.000	-0.007	-0.039
-697.485	568.712	0.105	-0.256
-696.470	800.000	0.078	-0.343
-695.456	-83.447	-0.271	-0.088
-694.441	22.095	-0.236	-0.194
-693.426	114.190	-0.095	-0.117
-692.412	-117.717	0.153	0.028
-691.397	-200.000	0.035	-0.640
-690.383	-48.538	0.173	0.084
-689.368	-77.898	0.429	-0.149
-688.354	-200.000	-0.024	-0.209
-687.339	-98.279	-0.271	-0.070
-686.324	-106.860	0.058	-0.013
-685.310	-169.136	-0.165	-0.006
-684.295	-200.000	-0.004	-0.032
-683.281	-200.000	0.025	-0.273
-682.266	-38.167	-0.138	0.074
-681.251	800.000	-0.038	0.123
-680.237	800.000	-0.062	-0.177
-679.222	70.307	-0.257	-0.267
-678.208	203.373	-0.218	-0.340
-677.193	262.921	0.064	-0.111
-676.178	46.117	0.138	0.129
-675.164	-82.437	-0.045	-0.015
-674.149	102.848	-0.399	0.470
-673.135	17.301	-0.053	0.042
-672.120	85.429	0.182	0.201
-671.105	5.971	-0.141	0.105
-670.091	87.433	0.238	-0.265
-669.076	139.081	0.110	-0.145
-668.062	110.979	0.094	-0.114
-667.047	224.718	-0.153	-0.249
-666.032	-134.619	-0.144	-0.018
-665.018	330.275	-0.145	-0.281
-664.003	-54.047	0.189	0.086
-662.989	363.396	0.052	0.106
-661.974	-110.646	0.280	-0.058
-660.959	186.130	-0.084	0.126
-659.945	692.942	0.111	0.293
-658.930	800.000	-0.045	-0.179
-657.916	-127.585	0.284	0.041
-656.901	608.633	0.146	-0.367
-655.886	416.812	0.121	0.259
-654.872	13.101	-0.188	0.147
-653.857	125.317	-0.171	-0.217
-652.843	-200.000	0.037	-0.242
-651.828	120.466	-0.068	0.085
-650.814	137.284	0.195	-0.256
-649.799	-130.769	0.300	-0.041
-648.784	242.237	-0.041	-0.068
-647.770	242.438	-0.152	-0.256
-646.755	-200.000	0.054	-0.258
-645.741	-94.843	0.170	0.046
-644.726	-200.000	-0.033	-0.173
-643.711	-22.878	-0.290	-0.176
-642.697	-200.000	0.036	0.308
-641.682	431.619	-0.097	-0.212
-640.668	800.000	-0.045	0.137
-639.653	158.801	0.089	0.124
-638.638	-80.287	0.272	0.091
-637.624	-200.000	0.027	-0.599
-636.609	-200.000	-0.043	-0.415
-635.595	-200.000	-0.026	-0.118
-634.580	-29.599	-0.402	-0.231
-633.565	449.841	-0.128	0.284
-632.551	-191.387	-0.092	0.001
-631.536	-92.489	0.263	-0.074
-630.522	-107.071	0.307	-0.068
-629.507	-41.239	-0.200	0.104
-628.492	-29.894	0.090	0.052
-627.478	306.480	0.173	0.324
-626.463	-109.678	-0.304	-0.064
-625.449	-2.373	-0.172	-0.121
-624.434	-43.105	0.073	-0.037
-623.419	-47.385	0.179	0.087
-622.405	-5.177	-0.407	-0.281
-621.390	75.736	0.385	0.409
-620.376	67.998	0.236	-0.243
-619.361	90.459	0.113	0.127
-618.346	193.864	-0.161	-0.245
-617.332	163.185	0.232	0.327
-616.317	21.374	-0.126	0.103
-615.303	200.817	-0.073	-0.112
-614.288	25.415	0.158	0.132
-613.273	111.379	-0.111	-0.135
-612.259	1.969	0.149	-0.108
-611.244	800.000	-0.085	-0.369
-610.230	800.000	-0.100	0.348
-609.215	-18.893	-0.302	-0.189
-608.201	800.000	-0.032	-0.119
-607.186	221.455	-0.072	0.116
-606.171	-186.207	-0.129	-0.002
-605.157	115.487	0.041	0.050
-604.142	-200.000	-0.018	-0.251
-603.128	-44.102	0.248	-0.125
-602.113	363.965	-0.171	0.345
-601.098	356.870	-0.038	0.076
-600.084	-200.000	0.012	-0.192
-599.069	343.402	-0.043	0.086
-598.055	-68.360	-0.233	0.091
-597.040	-200.000	0.011	-0.289
-596.025	-148.075	0.181	0.015
-595.011	-51.140	0.242	-0.114
-593.996	132.754	-0.194	-0.251
-592.982	318.357	-0.107	0.203
-591.967	-200.000	0.014	0.100
-590.952	-162.392	-0.143	0.007
-589.938	-5.447	-0.150	0.103
-588.923	800.000	0.039	-0.157
-587.909	82.043	-0.244	0.265
-586.894	-110.602	-0.049	0.010
-585.879	-11.172	0.173	-0.115
-584.865	21.265	-0.110	0.089
-583.850	-100.592	-0.044	0.011
-582.836	-64.663	0.246	-0.100
-581.821	143.390	0.113	0.151
-580.806	-16.446	0.098	0.063
-579.792	143.453	-0.230	0.307
-578.777	-65.048	0.093	0.038
-577.763	-200.000	0.078	0.495
-576.748	70.294	-0.397	-0.412
-575.733	146.705	-0.133	0.179
-574.719	195.554	-0.050	0.076
-573.704	34.284	-0.087	0.076
-572.690	384.725	-0.100	-0.207
-571.675	800.000	0.110	-0.397
-570.661	43.889	0.144	0.132
-569.646	-11.949	0.229	-0.150
-568.631	107.863	0.044	-0.053
-567.617	551.542	-0.125	-0.300
-566.602	-122.397	0.381	0.062
-565.588	-16.013	0.037	0.023
-564.573	-74.009	0.140	0.051
-563.558	-44.569	-0.110	-0.055
-562.544	189.739	-0.073	0.110
-561.529	-47.697	0.257	-0.125
-560.515	-94.933	-0.322	0.087
-559.500	173.263	0.099	0.143
-558.485	-91.965	-0.246	-0.070
-557.471	-120.314	0.071	-0.012
-556.456	-5.402	-0.201	0.139
-555.442	-1.989	0.153	-0.108
-554.427	244.371	0.150	-0.253
-553.412	162.175	-0.102	0.143
-552.398	-25.294	-0.123	0.073
-551.383	-128.142	0.385	-0.055
-550.369	-144.342	-0.250	0.023
-549.354	348.173	-0.133	0.264
-548.339	124.468	-0.123	0.155
-547.325	-38.448	0.036	0.019
-546.310	800.000	0.028	0.081
-545.296	800.000	-0.060	-0.239
-544.281	-200.000	0.032	-0.166
-543.266	773.197	-0.073	0.199
-542.252	2.405	-0.015	-0.011
-541.237	-200.000	0.004	0.171
-540.223	-97.252	-0.054	-0.014
-539.208	-151.740	-0.038	-0.003
-538.193	-48.823	0.100	-0.048
-537.179	122.387	-0.084	0.105
-536.164	138.483	-0.040	0.052
-535.150	-59.423	-0.123	0.053
-534.135	-200.000	0.032	0.155
-533.121	-145.980	-0.245	0.022
-532.106	741.623	0.039	-0.106
-531.091	-162.006	-0.184	-0.009
-530.077	-121.225	-0.353	0.059
-529.062	191.029	0.206	0.311
-528.048	258.369	-0.182	-0.313
-527.033	191.635	-0.083	-0.126
-526.018	-166.936	-0.340	-0.014
-525.004	-31.524	0.022	-0.012
-523.989	-46.655	-0.024	-0.012
-522.975	-100.797	-0.212	0.052
-521.960	269.036	-0.081	-0.142
-520.945	-147.114	-0.206	-0.018
-519.931	-200.000	-0.002	-0.153
-518.916	-82.029	-0.288	-0.094
-517.902	-200.000	-0.027	0.188
-516.887	-200.000	-0.054	0.288
-515.872	95.512	0.181	-0.206
-514.858	-200.000	-0.004	-0.057
-513.843	316.409	0.164	-0.310
-512.829	-0.821	-0.189	-0.134
-511.814	-32.569	0.081	-0.045
-510.799	-41.068	0.024	0.012
-509.785	800.000	0.073	0.321
-508.770	-140.229	-0.114	-0.012
-507.756	-41.538	0.274	0.141
-506.741	322.069	0.057	0.109
-505.726	35.246	0.053	-0.047
-504.712	-200.000	-0.031	0.182
-503.697	-200.000	-0.100	0.523
-502.683	-130.229	-0.341	-0.046
-501.668	538.868	-0.066	0.157
-500.653	400.746	0.072	0.152
-499.639	316.651	0.041	-0.077
-498.624	-56.150	0.222	-0.099
-497.610	-112.384	0.257	-0.051
-496.595	-200.000	-0.023	-0.123
-495.581	486.272	-0.096	-0.218
-494.566	19.664	-0.172	-0.138
-493.551	226.119	0.087	0.142
-492.537	262.281	-0.116	-0.202
-491.522	-69.695	0.108	-0.041
-490.508	-200.000	0.021	0.170
-489.493	417.491	0.063	-0.135
-488.478	-80.626	0.169	-0.056
-487.464	-57.851	0.297	-0.130
-486.449	-127.212	-0.364	-0.053
-485.435	-20.822	-0.185	-0.113
-484.420	800.000	-0.051	-0.148
-483.405	40.709	-0.046	0.042
-482.391	134.081	-0.050	-0.065
-481.376	131.189	-0.188	0.242
-480.362	451.538	-0.105	-0.232
-479.347	-200.000	0.011	-0.140
-478.332	800.000	0.019	0.053
-477.318	-200.000	0.031	-0.176
-476.303	-200.000	-0.029	0.161
-475.289	14.801	0.181	-0.141
-474.274	202.922	-0.131	-0.203
-473.259	-59.087	-0.110	-0.047
-472.245	113.797	-0.171	-0.208
-471.230	-59.279	-0.107	-0.046
-470.216	103.142	0.208	0.243
-469.201	-132.022	0.302	0.039
-468.186	-200.000	-0.090	0.412
-467.172	9.317	-0.166	-0.125
-466.157	-153.962	-0.082	-0.006
-465.143	-10.213	-0.358	0.237
-464.128	800.000	0.073	0.224
-463.113	-200.000	0.051	-0.312
-462.099	800.000	0.007	0.025
-461.084	-127.910	-0.147	-0.021
-460.070	-130.985	-0.208	-0.028
-459.055	-200.000	0.029	-0.280
-458.040	-200.000	-0.010	0.336
-457.026	-17.151	0.091	0.057
-456.011	-30.732	0.125	-0.071
-454.997	-200.000	0.011	-0.055
-453.982	-200.000	-0.001	0.433
-452.968	800.000	-0.059	0.208
-451.953	-108.128	-0.153	0.033
-450.938	77.811	0.147	0.157
-449.924	-39.402	-0.116	-0.061
-448.909	224.175	-0.078	0.126
-447.895	148.656	-0.144	-0.194
-446.880	551.187	0.079	0.190
-445.865	800.000	-0.127	0.379
-444.851	-104.545	-0.276	-0.064
-443.836	196.299	-0.232	-0.353
-442.822	-200.000	-0.017	-0.146
-441.807	177.390	0.149	0.217
-440.792	-139.289	-0.282	0.030
-439.778	-15.249	-0.194	-0.124
-438.763	-200.000	-0.025	0.148
-437.749	42.509	0.154	0.140
-436.734	172.816	-0.196	0.281
-435.719	-99.311	0.255	-0.064
-434.705	-65.526	-0.308	0.123
-433.690	-98.531	0.550	-0.140
-432.676	51.855	-0.178	0.169
-431.661	191.960	-0.172	0.258
-430.646	85.817	0.133	-0.146
-429.632	800.000	0.033	-0.093
-428.617	277.272	-0.085	-0.150
-427.603	374.531	-0.110	0.223
-426.588	-132.623	0.173	-0.022
-425.573	800.000	0.041	-0.152
-424.559	-35.500	-0.318	0.172
-423.544	76.410	0.169	0.178
-422.530	-95.423	0.149	0.040
-421.515	103.975	-0.055	0.064
-420.500	-57.514	0.357	-0.156
-419.486	-48.578	0.257	0.123
-418.471	-78.908	-0.222	0.075
-417.457	-200.000	-0.007	-0.329
-416.442	-200.000	-0.034	-0.158
-415.428	112.822	0.045	-0.054
-414.413	202.961	-0.145	0.224
-413.398	-125.330	0.077	-0.012
-412.384	-107.882	-0.140	0.030
-411.369	800.000	-0.055	-0.165
-410.355	16.863	-0.166	0.131
-409.340	56.899	0.227	-0.220
-408.325	84.812	0.076	-0.083
-407.311	-86.759	-0.335	-0.102
-406.296	-89.088	0.219	0.065
-405.282	474.402	0.052	-0.118
-404.267	-90.930	0.205	-0.059
-403.252	15.341	0.133	-0.104
-402.238	215.935	-0.055	0.088
-401.223	-138.512	-0.091	0.010
-400.209	-97.458	-0.085	-0.022
-399.194	-200.000	0.019	-0.412
-398.179	-200.000	-0.015	0.110
-397.165	-18.709	-0.128	-0.079
-396.150	800.000	0.072	-0.258
-395.136	-17.725	0.269	0.168
-394.121	-200.000	0.010	-0.131
-393.106	-105.009	-0.151	-0.034
-392.092	-105.313	-0.358	-0.081
-391.077	191.343	0.102	-0.153
-390.063	-78.810	0.147	0.050
-389.048	81.395	-0.098	0.106
-388.033	261.368	0.067	-0.116
-387.019	-110.200	0.111	-0.023
-386.004	-200.000	0.077	0.365
-384.990	-133.064	0.413	0.052
-383.975	-200.000	0.021	0.171
-382.960	422.794	-0.028	0.059
-381.946	-57.889	-0.354	-0.154
-380.931	-200.000	0.136	-0.001
-379.917	-114.383	-0.079	-0.015
-378.902	440.841	0.064	-0.140
-377.888	-3.930	0.237	-0.164
-376.873	-65.676	0.234	0.093
-375.858	800.000	-0.104	-0.438
-374.844	-149.705	0.073	0.006
-373.829	800.000	-0.106	0.349
-372.815	-142.381	0.216	-0.021
-371.800	-200.000	0.040	-0.541
-370.785	-200.000	-0.024	-0.136
-369.771	185.122	0.064	-0.095
-368.756	-99.087	0.133	0.034
-367.742	-155.418	0.258	-0.017
-366.727	65.835	-0.122	-0.123
-365.712	-200.000	-0.007	0.177
-364.698	800.000	0.095	0.279
-363.683	-66.567	-0.324	0.128
-362.669	-200.000	0.033	0.233
-361.654	-200.000	-0.004	0.508
-360.639	-200.000	-0.038	-0.172
-359.625	-52.251	-0.257	-0.118
-358.610	-200.000	0.003	-0.278
-357.596	-106.259	0.399	0.089
-356.581	111.593	0.075	0.090
-355.566	-50.084	0.384	0.181
-354.552	-200.000	-0.004	0.104
-353.537	-200.000	-0.018	0.338
-352.523	-200.000	0.014	-0.075
-351.508	183.532	-0.089	0.131
-350.493	-56.590	-0.205	-0.090
-349.479	-50.184	0.264	0.124
-348.464	-200.000	0.030	0.202
-347.450	-200.000	-0.027	0.237
-346.435	-59.512	0.084	-0.036
-345.420	-173.112	-0.194	-0.006
-344.406	81.749	-0.257	0.277
-343.391	800.000	0.020	-0.080
-342.377	-200.000	-0.003	0.094
-341.362	-200.000	0.089	0.400
-340.348	8.658	-0.176	0.132
-339.333	-200.000	0.003	-0.020
-338.318	-200.000	-0.050	0.306
-337.304	271.879	-0.068	-0.118
-336.289	22.782	-0.079	0.065
-335.275	-96.861	0.392	0.102
-334.260	-98.400	-0.201	-0.051
-333.245	-51.470	0.319	-0.148
-332.231	-115.720	0.323	0.060
-331.216	-200.000	0.006	-0.030
-330.202	-200.000	0.007	-0.085
-329.187	78.973	0.323	0.344
-328.172	800.000	-0.069	-0.214
-327.158	-159.597	-0.461	0.025
-326.143	225.794	0.036	-0.057
-325.129	133.486	0.218	0.280
-324.114	777.983	-0.082	-0.224
-323.099	162.342	-0.120	0.168
-322.085	-200.000	0.117	-0.569
-321.070	461.215	-0.070	0.156
-320.056	0.044	-0.128	0.090
-319.041	265.220	-0.106	-0.184
-318.026	357.565	0.099	-0.196
-317.012	-200.000	-0.000	-0.058
-315.997	-73.809	0.150	-0.054
-314.983	145.176	-0.120	-0.160
-313.968	258.740	-0.077	0.131
-312.953	231.545	0.106	-0.173
-311.939	109.699	-0.039	-0.046
-310.924	463.005	0.161	0.357
-309.910	-28.994	0.106	-0.061
-308.895	800.000	0.065	-0.187
-307.880	98.686	-0.127	-0.145
-306.866	-200.000	-0.053	-0.298
-305.851	-94.291	0.239	0.065
-304.837	800.000	0.048	0.144
-303.822	738.632	0.057	-0.151
-302.807	-200.000	0.017	-0.219
-301.793	-44.395	-0.287	-0.143
-300.778	158.938	0.163	-0.224
-299.764	-2.160	-0.163	-0.114
-298.749	-200.000	-0.002	0.083
-297.735	-10.682	0.065	0.043
-296.720	45.014	-0.177	0.162
-295.705	18.571	-0.223	-0.177
-294.691	7.561	0.129	0.096
-293.676	480.990	0.031	-0.070
-292.662	101.421	-0.053	-0.062
-291.647	800.000	-0.141	-0.398
-290.632	-200.000	-0.011	-0.444
-289.618	800.000	0.035	0.112
-288.603	-200.000	0.003	-0.216
-287.589	324.029	0.028	0.053
-286.574	-157.634	0.113	0.007
-285.559	-57.625	0.075	-0.032
-284.545	243.493	0.036	-0.060
-283.530	-200.000	-0.074	0.612
-282.516	-148.173	-0.049	-0.004
-281.501	181.642	-0.172	0.250
-280.486	800.000	-0.059	0.198
-279.472	24.470	0.081	-0.067
-278.457	-200.000	-0.015	0.162
-277.443	60.649	-0.260	-0.256
-276.428	573.375	-0.124	-0.300
-275.413	-16.176	0.297	-0.187
-274.399	587.988	0.132	0.322
-273.384	418.705	0.111	0.236
-272.370	-173.230	-0.349	0.011
-271.355	70.027	-0.071	-0.073
-270.340	-177.712	0.080	-0.002
-269.326	292.400	0.101	-0.182
-268.311	729.025	0.108	-0.285
-267.297	32.699	-0.240	-0.206
-266.282	124.018	-0.049	-0.061
-265.267	-158.337	0.168	0.010
-264.253	-115.970	-0.137	0.025
-263.238	-200.000	0.007	-0.162
-262.224	-200.000	0.033	0.234
-261.209	-42.561	0.083	-0.042
-260.195	341.129	-0.134	0.260
-259.180	241.722	-0.076	0.127
-258.165	205.401	0.149	0.229
-257.151	26.086	0.218	-0.180
-256.136	66.789	-0.181	-0.183
-255.122	-129.133	0.488	0.068
-254.107	-42.072	-0.271	-0.137
-253.092	-107.096	0.269	-0.059
-252.078	191.852	-0.116	0.174
-251.063	-42.309	-0.024	0.012
-250.049	-195.306	0.098	-0.001
-249.034	-102.515	-0.194	-0.046
-248.019	38.948	-0.187	-0.165
-247.005	-200.000	0.020	0.271
-245.990	-114.653	0.151	0.029
-244.976	-149.661	-0.170	0.013
-243.961	106.639	-0.084	0.098
-242.946	230.826	0.159	0.257
-241.932	-104.716	-0.206	-0.047
-240.917	-1.228	0.154	-0.108
-239.903	-200.000	0.055	0.377
-238.888	30.642	0.026	-0.022
-237.873	772.353	0.085	0.228
-236.859	800.000	0.087	0.368
-235.844	-55.734	0.062	0.027
-234.830	-110.706	-0.194	-0.040
-233.815	45.525	0.213	0.195
-232.800	-81.053	0.453	0.148
-231.786	51.603	-0.152	0.143
-230.771	-10.942	0.329	-0.215
-229.757	482.248	0.071	0.160
-228.742	-200.000	-0.065	0.473
-227.727	353.864	0.128	-0.251
-226.713	-5.574	0.281	-0.191
-225.698	-104.275	-0.235	-0.054
-224.684	-67.187	-0.151	0.059
-223.669	-116.172	-0.229	-0.042
-222.655	-200.000	-0.087	0.442
-221.640	-200.000	-0.033	-0.331
-220.625	0.248	0.136	0.096
-219.611	-126.126	0.085	0.013
-218.596	800.000	-0.046	-0.158
-217.582	-71.353	0.191	-0.071
-216.567	-52.595	-0.258	-0.118
-215.552	385.867	0.062	0.126
-214.538	800.000	-0.060	0.172
-213.523	-72.923	0.152	0.055
-212.509	-200.000	0.002	-0.312
-211.494	-124.074	-0.267	-0.041
-210.479	-200.000	-0.017	0.088
-209.465	-125.068	0.409	-0.062
-208.450	-15.634	0.148	0.093
-207.436	19.898	-0.124	0.099
-206.421	7.326	-0.280	-0.207
-205.406	-200.000	0.003	-0.265
-204.392	-73.138	0.356	0.129
-203.377	59.079	0.120	-0.117
-202.363	781.255	-0.078	-0.212
-201.348	188.867	0.154	-0.228
-200.333	27.436	0.223	0.185
-199.319	309.675	0.025	0.045
-198.304	349.200	0.124	0.242
-197.290	-3.032	0.177	0.122
-196.275	-129.923	-0.200	0.027
-195.260	505.035	0.087	-0.199
-194.246	369.286	0.098	0.195
-193.231	84.256	0.191	0.206
-192.217	167.771	0.097	-0.136
-191.202	70.138	0.110	-0.112
-190.187	91.990	0.238	-0.264
-189.173	-153.937	0.191	-0.013
-188.158	133.960	0.142	0.182
-187.144	48.989	0.096	0.089
-186.129	36.337	0.032	-0.028
-185.114	117.740	0.046	-0.056
-184.100	292.641	0.038	0.068
-183.085	800.000	-0.016	-0.045
-182.071	-41.276	0.180	-0.092
-181.056	-97.140	0.125	-0.032
-180.042	800.000	-0.042	0.172
-179.027	22.049	0.042	-0.034
-178.012	-78.321	0.097	-0.033
-176.998	180.999	-0.091	0.132
-175.983	-37.938	0.193	-0.101
-174.969	386.336	-0.144	0.293
-173.954	123.470	-0.219	0.271
-172.939	-200.000	0.095	0.416
-171.925	-37.957	-0.248	0.130
-170.910	-200.000	-0.007	0.215
-169.896	12.175	0.247	0.188
-168.881	-138.573	-0.204	0.022
-167.866	-88.567	-0.214	-0.063
-166.852	33.961	0.158	-0.136
-165.837	-110.502	-0.024	-0.005
-164.823	-2.537	0.140	0.097
-163.808	-82.056	-0.280	0.090
-162.793	645.880	-0.082	-0.207
-161.779	-136.332	-0.222	-0.025
-160.764	800.000	-0.066	-0.279
-159.750	-72.006	0.080	-0.029
-158.735	-200.000	-0.049	-0.400
-157.720	50.640	-0.260	-0.243
-156.706	84.273	0.127	0.137
-155.691	-69.693	0.262	-0.099
-154.677	800.000	-0.156	-0.581
-153.662	-74.141	0.178	0.064
-152.647	-8.291	0.067	0.044
-151.633	-77.701	0.374	-0.127
-150.618	-200.000	-0.077	-0.449
-149.604	103.760	-0.145	0.168
-148.589	9.415	-0.075	-0.056
-147.574	-149.915	0.132	0.010
-146.560	182.870	0.114	0.166
-145.545	-179.611	-0.150	-0.003
-144.531	68.366	0.113	0.114
-143.516	102.384	-0.153	0.177
-142.502	481.353	0.004	-0.009
-141.487	-90.618	-0.200	0.057
-140.472	800.000	0.068	-0.292
-139.458	129.636	0.179	-0.226
-138.443	-40.614	0.220	-0.113
-137.429	402.281	0.162	0.337
-136.414	285.285	0.171	0.304
-135.399	-33.293	-0.146	0.080
-134.385	-200.000	-0.018	-0.120
-133.370	242.670	0.043	0.072
-132.356	24.360	-0.183	0.149
-131.341	-200.000	0.029	-0.162
-130.326	-200.000	-0.017	0.126
-129.312	40.428	0.312	-0.277
-128.297	-47.991	0.198	-0.094
-127.283	110.211	0.064	-0.076
-126.268	-200.000	-0.001	0.157
-125.253	-200.000	0.005	0.042
-124.239	-120.378	-0.182	0.031
-123.224	4.704	0.175	-0.127
-122.210	529.627	-0.061	0.141
