DTS Sentinel unit serial number:	SN413079Multiplexer serial number:	ORYXHardware model number:	OX4-SRSoftware version number:	ORYX F/W v4.00 Oryx Data Collector v3.7.2.0data status	okinstallation	princeton_trtdifferential loss correction	single-endedforward channel	channel 1reverse channel	N/Adate	2019/09/12time	16:12:11forward acquisition time	60.00reverse acquisition time	0.00gamma	496.2192k internal	0.2300k external	0.2300temperature offset calibration	1.0085default loss term (dB/km)	0.3790temperature slope calibration	1.0000multiplexer offset coefficient	1.0000multiplexer slope coefficient	1.0000fibre end	0.00T internal ref (°C)	38.36T ext. ref 1 (°C)	2.54T ext. ref 2 (°C)	31.20length (m)	temperature (°C)	Stokes	anti-Stokes-747.200	35.724	-0.090	0.081
-746.185	-200.000	-0.047	0.433
-745.171	79.638	-0.128	0.140
-744.156	-56.846	0.032	-0.014
-743.142	246.625	-0.037	0.063
-742.127	-119.831	-0.098	0.017
-741.112	-128.909	0.293	-0.042
-740.098	292.176	-0.123	0.228
-739.083	-7.367	-0.150	-0.104
-738.069	275.784	-0.078	0.141
-737.054	-62.760	-0.294	0.124
-736.039	-200.000	0.037	0.449
-735.025	116.902	-0.188	0.236
-734.010	-200.000	0.031	-0.168
-732.996	-38.496	0.197	0.106
-731.981	-57.721	-0.134	-0.060
-730.966	-14.961	-0.429	-0.280
-729.952	-85.049	0.082	0.026
-728.937	800.000	-0.076	0.294
-727.923	-35.842	-0.279	-0.154
-726.908	800.000	-0.026	-0.097
-725.894	-200.000	0.030	-0.252
-724.879	-200.000	0.017	-0.086
-723.864	-200.000	0.025	0.181
-722.850	1.063	0.045	0.033
-721.835	-136.708	-0.168	-0.020
-720.821	-17.255	0.105	-0.067
-719.806	-81.569	0.150	-0.050
-718.791	-155.516	-0.029	-0.002
-717.777	-22.806	-0.082	-0.050
-716.762	-104.753	-0.333	-0.078
-715.748	-200.000	0.028	-0.235
-714.733	470.532	0.151	0.347
-713.718	-200.000	-0.180	-0.001
-712.704	-1.838	0.171	-0.122
-711.689	150.674	0.066	-0.092
-710.675	-100.492	0.423	0.107
-709.660	100.609	-0.114	-0.135
-708.645	-200.000	0.002	-0.059
-707.631	-31.294	0.250	-0.143
-706.616	-191.349	-0.124	-0.001
-705.602	800.000	-0.110	0.371
-704.587	800.000	0.063	-0.246
-703.572	268.991	0.110	-0.197
-702.558	800.000	0.026	-0.094
-701.543	100.997	-0.106	-0.126
-700.529	-52.857	-0.118	-0.055
-699.514	-4.542	-0.117	0.082
-698.499	-137.902	-0.062	0.007
-697.485	106.312	-0.125	-0.150
-696.470	-136.591	-0.226	-0.027
-695.456	58.800	0.167	0.167
-694.441	241.139	0.083	0.140
-693.426	-200.000	-0.079	0.567
-692.412	334.860	0.092	0.180
-691.397	491.729	0.065	0.152
-690.383	0.805	0.127	-0.092
-689.368	-89.432	0.321	0.096
-688.354	84.172	0.202	-0.225
-687.339	-8.979	-0.065	-0.044
-686.324	-200.000	-0.004	0.034
-685.310	-45.107	-0.209	-0.106
-684.295	17.093	0.071	-0.057
-683.281	-200.000	-0.064	0.347
-682.266	24.853	0.192	0.162
-681.251	-100.063	0.187	0.048
-680.237	-200.000	0.057	-0.364
-679.222	-200.000	0.032	0.237
-678.208	66.711	-0.127	0.131
-677.193	-69.045	0.394	0.154
-676.178	-67.863	0.104	0.041
-675.164	52.103	-0.144	-0.139
-674.149	43.365	-0.085	-0.079
-673.135	40.635	0.076	0.069
-672.120	-70.410	0.182	0.070
-671.105	-40.628	-0.067	0.035
-670.091	-160.186	-0.502	0.028
-669.076	-87.113	0.201	0.062
-668.062	65.171	0.111	-0.114
-667.047	800.000	-0.103	-0.396
-666.032	-79.586	-0.458	-0.157
-665.018	-89.425	-0.220	-0.066
-664.003	254.167	0.101	-0.176
-662.989	373.103	-0.073	-0.150
-661.974	39.521	-0.280	-0.255
-660.959	39.482	-0.130	0.119
-659.945	302.787	0.053	0.100
-658.930	-112.472	0.373	0.076
-657.916	-80.599	-0.283	-0.096
-656.901	102.335	0.083	-0.099
-655.886	410.295	-0.030	0.064
-654.872	-8.206	-0.435	-0.298
-653.857	-200.000	0.044	-0.462
-652.843	-200.000	-0.001	0.261
-651.828	778.017	-0.052	-0.145
-650.814	-36.366	0.093	-0.051
-649.799	79.416	0.147	-0.160
-648.784	609.075	-0.146	0.369
-647.770	142.894	0.090	0.121
-646.755	446.089	-0.107	-0.238
-645.741	-200.000	0.009	-0.072
-644.726	-200.000	0.012	0.070
-643.711	800.000	-0.026	0.095
-642.697	-114.999	0.588	0.114
-641.682	-200.000	-0.157	0.000
-640.668	72.763	0.055	0.059
-639.653	-132.849	0.228	0.030
-638.638	-35.056	-0.213	-0.118
-637.624	175.893	0.027	0.040
-636.609	800.000	-0.107	0.396
-635.595	707.137	-0.055	-0.148
-634.580	29.582	0.216	-0.186
-633.565	-60.501	-0.195	0.084
-632.551	-115.825	-0.317	0.060
-631.536	-200.000	0.000	-0.094
-630.522	135.093	0.072	-0.094
-629.507	-145.120	-0.067	-0.006
-628.492	-25.857	-0.155	0.093
-627.478	316.657	-0.103	-0.198
-626.463	97.677	0.153	-0.178
-625.449	800.000	0.042	-0.184
-624.434	479.319	-0.103	0.238
-623.419	237.732	-0.186	0.313
-622.405	150.159	-0.210	0.289
-621.390	-200.000	0.007	-0.093
-620.376	-149.374	0.155	0.012
-619.361	-2.252	-0.277	-0.197
-618.346	83.480	-0.124	0.137
-617.332	-200.000	0.007	0.089
-616.317	103.053	0.089	-0.106
-615.303	385.951	-0.215	0.449
-614.288	226.592	0.073	0.121
-613.273	42.883	-0.134	-0.124
-612.259	-200.000	-0.015	0.292
-611.244	-128.236	0.158	0.023
-610.230	800.000	-0.069	-0.231
-609.215	318.466	0.120	0.230
-608.201	-31.206	-0.300	-0.171
-607.186	-14.666	-0.240	0.156
-606.171	-200.000	-0.010	0.055
-605.157	-98.394	0.262	0.068
-604.142	-169.609	0.378	-0.014
-603.128	52.170	-0.232	-0.224
-602.113	37.693	-0.144	-0.130
-601.098	-123.508	-0.358	-0.058
-600.084	90.874	-0.084	-0.095
-599.069	-200.000	-0.009	0.122
-598.055	-200.000	0.029	-0.176
-597.040	-98.501	-0.228	-0.059
-596.025	744.897	0.118	0.323
-595.011	416.065	0.125	0.271
-593.996	120.221	0.133	0.168
-592.982	160.268	0.247	0.350
-591.967	-200.000	0.042	0.378
-590.952	-50.236	0.082	-0.039
-589.938	800.000	-0.097	-0.354
-588.923	800.000	-0.037	-0.108
-587.909	-200.000	-0.045	0.000
-586.894	-173.102	-0.041	-0.001
-585.879	25.819	0.114	-0.097
-584.865	557.942	0.207	0.507
-583.850	-200.000	0.005	-0.182
-582.836	800.000	0.030	-0.088
-581.821	5.519	0.049	0.037
-580.806	294.381	-0.081	-0.151
-579.792	357.624	-0.187	-0.378
-578.777	335.351	0.102	0.200
-577.763	800.000	0.085	0.255
-576.748	-90.890	-0.207	0.060
-575.733	227.683	0.124	0.205
-574.719	-24.836	0.062	-0.037
-573.704	-99.341	0.426	-0.109
-572.690	-13.959	0.149	-0.097
-571.675	-100.866	0.056	-0.014
-570.661	-200.000	0.002	0.131
-569.646	-200.000	-0.017	-0.086
-568.631	50.256	0.084	0.081
-567.617	-122.598	0.221	0.036
-566.602	-200.000	0.015	0.180
-565.588	-76.314	0.179	-0.064
-564.573	-200.000	0.010	0.136
-563.558	-58.802	0.226	-0.099
-562.544	-200.000	0.037	0.359
-561.529	76.179	0.086	0.092
-560.515	-200.000	0.082	-0.459
-559.500	45.819	-0.092	-0.087
-558.485	-88.240	-0.174	0.053
-557.471	-68.800	0.229	-0.089
-556.456	-143.919	-0.093	-0.009
-555.442	-74.752	-0.133	-0.048
-554.427	-128.781	-0.076	0.011
-553.412	-74.722	0.042	-0.015
-552.398	-44.296	-0.085	0.043
-551.383	227.262	0.050	-0.083
-550.369	48.077	0.217	0.206
-549.354	-33.272	-0.255	-0.143
-548.339	-125.475	0.229	-0.035
-547.325	-64.946	-0.211	0.087
-546.310	-107.255	0.440	0.098
-545.296	-53.620	-0.314	0.145
-544.281	-70.683	0.208	0.080
-543.266	-200.000	-0.073	-0.349
-542.252	-78.457	0.308	-0.107
-541.237	-200.000	0.034	0.156
-540.223	-54.883	0.412	-0.188
-539.208	-103.691	0.208	0.049
-538.193	-21.113	-0.432	-0.268
-537.179	-160.711	-0.230	0.012
-536.164	800.000	0.053	0.176
-535.150	144.969	0.224	0.303
-534.135	-75.980	0.138	0.049
-533.121	-44.076	0.302	0.153
-532.106	176.164	0.091	-0.134
-531.091	-48.727	0.339	0.165
-530.077	112.851	0.084	0.103
-529.062	-155.026	-0.268	-0.018
-528.048	-54.852	-0.112	-0.051
-527.033	78.719	0.088	0.095
-526.018	77.436	-0.044	-0.047
-525.004	-101.887	0.122	-0.030
-523.989	7.667	-0.104	0.079
-522.975	-200.000	0.018	0.281
-521.960	-128.476	0.121	0.017
-520.945	48.946	-0.217	0.206
-519.931	20.581	0.270	-0.221
-518.916	-57.317	0.126	-0.056
-517.902	492.531	-0.226	-0.525
-516.887	800.000	-0.140	-0.428
-515.872	-125.477	0.179	-0.028
-514.858	162.499	0.215	0.305
-513.843	145.860	-0.169	0.229
-512.829	800.000	0.042	0.172
-511.814	372.558	0.148	0.305
-510.799	176.794	0.216	-0.317
-509.785	157.991	0.104	0.145
-508.770	763.807	0.079	-0.218
-507.756	173.821	-0.269	0.392
-506.741	6.416	-0.138	-0.103
-505.726	57.903	0.165	-0.163
-504.712	-200.000	0.003	0.060
-503.697	-200.000	-0.031	-0.215
-502.683	426.152	-0.082	0.179
-501.668	-156.625	0.385	0.024
-500.653	-85.285	-0.158	-0.050
-499.639	260.313	-0.073	-0.128
-498.624	114.616	-0.267	0.329
-497.610	-89.482	0.241	-0.071
-496.595	-88.733	0.176	0.053
-495.581	-165.190	0.547	-0.024
-494.566	-119.676	0.209	-0.036
-493.551	191.370	-0.036	0.054
-492.537	17.474	-0.215	-0.173
-491.522	374.971	0.131	-0.269
-490.508	-158.279	-0.290	0.017
-489.493	-40.676	0.312	0.163
-488.478	14.045	0.403	-0.317
-487.464	800.000	0.007	-0.024
-486.449	72.576	-0.110	-0.116
-485.435	-15.856	-0.484	-0.311
-484.420	268.917	-0.077	-0.137
-483.405	111.620	0.162	-0.197
-482.391	573.911	0.084	-0.207
-481.376	129.106	-0.174	-0.224
-480.362	148.241	-0.084	0.115
-479.347	-200.000	0.008	-0.222
-478.332	-143.139	0.355	-0.035
-477.318	-106.077	-0.187	-0.043
-476.303	-80.148	0.317	0.107
-475.289	-200.000	0.052	0.278
-474.274	-56.311	0.024	-0.011
-473.259	72.463	0.274	0.289
-472.245	-172.400	-0.292	0.009
-471.230	613.204	0.093	0.234
-470.216	171.808	0.087	-0.126
-469.201	-73.696	0.310	-0.114
-468.186	-100.812	-0.176	0.044
-467.172	71.964	0.070	0.074
-466.157	-123.568	0.230	0.037
-465.143	100.639	-0.110	0.129
-464.128	-87.494	-0.203	0.062
-463.113	-200.000	-0.070	0.545
-462.099	-65.381	0.279	-0.113
-461.084	434.212	0.094	-0.207
-460.070	-200.000	0.009	-0.426
-459.055	65.359	-0.052	0.053
-458.040	-74.900	-0.223	0.081
-457.026	800.000	0.036	-0.156
-456.011	-181.421	-0.009	0.000
-454.997	-58.153	-0.096	0.042
-453.982	96.143	0.097	0.111
-452.968	190.519	0.141	0.214
-451.953	-89.263	-0.172	-0.051
-450.938	-200.000	0.057	-0.517
-449.924	-166.745	0.268	0.011
-448.909	-43.302	0.205	0.105
-447.895	-129.662	-0.120	0.017
-446.880	524.964	-0.049	0.115
-445.865	-34.981	-0.215	0.118
-444.851	-61.459	0.323	0.137
-443.836	-200.000	0.011	-0.104
-442.822	-80.851	-0.269	-0.090
-441.807	-160.651	-0.208	0.011
-440.792	152.987	0.192	-0.264
-439.778	425.700	0.109	0.237
-438.763	800.000	-0.069	-0.193
-437.749	-200.000	-0.019	0.186
-436.734	344.400	-0.086	0.170
-435.719	257.966	-0.062	0.107
-434.705	245.852	-0.236	-0.401
-433.690	41.326	0.165	-0.151
-432.676	-46.346	-0.194	0.096
-431.661	31.763	0.258	0.223
-430.646	284.041	0.181	-0.327
-429.632	178.473	-0.168	-0.247
-428.617	800.000	0.073	-0.245
-427.603	275.625	-0.048	-0.086
-426.588	-123.004	0.338	0.055
-425.573	250.094	-0.051	-0.087
-424.559	128.811	-0.027	-0.035
-423.544	86.219	0.117	0.130
-422.530	166.305	0.107	-0.152
-421.515	311.675	0.080	0.152
-420.500	390.242	-0.143	0.299
-419.486	-200.000	0.032	0.222
-418.471	-146.132	0.302	-0.027
-417.457	-200.000	-0.017	-0.350
-416.442	-115.845	0.219	0.041
-415.428	-25.492	-0.328	0.195
-414.413	49.327	0.074	0.070
-413.398	-54.355	-0.317	-0.145
-412.384	-200.000	0.011	0.207
-411.369	50.790	0.082	-0.078
-410.355	-200.000	-0.015	0.277
-409.340	96.396	0.126	0.145
-408.325	-200.000	0.057	0.348
-407.311	156.476	-0.187	-0.260
-406.296	778.314	-0.072	-0.199
-405.282	-70.888	0.434	0.165
-404.267	-154.974	-0.362	0.024
-403.252	401.335	-0.010	-0.022
-402.238	-89.271	0.128	0.038
-401.223	-200.000	0.027	-0.241
-400.209	-61.476	-0.183	-0.077
-399.194	15.650	0.233	0.184
-398.179	223.159	-0.082	0.133
-397.165	-200.000	-0.003	-0.294
-396.150	216.620	0.040	-0.065
-395.136	800.000	0.044	0.145
-394.121	-200.000	0.002	-0.060
-393.106	-78.980	-0.320	0.110
-392.092	-17.547	-0.075	-0.047
-391.077	243.050	-0.177	-0.299
-390.063	-115.552	-0.115	-0.022
-389.048	90.500	0.111	0.125
-388.033	-200.000	-0.003	0.099
-387.019	233.961	-0.092	-0.152
-386.004	-74.482	0.274	-0.099
-384.990	255.259	0.125	0.215
-383.975	-123.178	0.168	0.027
-382.960	-146.656	-0.284	-0.025
-381.946	-200.000	0.013	-0.144
-380.931	294.455	-0.081	0.150
-379.917	760.388	0.076	-0.208
-378.902	-200.000	0.019	-0.135
-377.888	-177.966	-0.299	0.007
-376.873	-200.000	0.087	0.391
-375.858	-99.312	-0.093	-0.024
-374.844	-23.267	-0.143	-0.087
-373.829	178.239	-0.085	-0.125
-372.815	-49.748	-0.304	-0.145
-371.800	0.794	0.090	-0.064
-370.785	800.000	-0.072	-0.290
-369.771	-29.594	0.095	0.055
-368.756	-111.184	0.189	-0.039
-367.742	-121.150	-0.227	0.038
-366.727	-200.000	-0.029	0.210
-365.712	-59.412	0.098	-0.042
-364.698	-14.558	-0.147	-0.095
-363.683	-133.276	-0.100	0.013
-362.669	-178.488	0.279	-0.007
-361.654	-200.000	0.037	-0.256
-360.639	308.352	0.056	-0.106
-359.625	800.000	-0.014	0.042
-358.610	-14.908	-0.097	-0.062
-357.596	-27.222	-0.296	-0.174
-356.581	4.879	-0.052	0.038
-355.566	800.000	-0.042	-0.136
-354.552	-76.074	-0.161	0.057
-353.537	-103.001	-0.173	-0.041
-352.523	-0.159	-0.353	-0.252
-351.508	199.753	0.065	-0.100
-350.493	255.345	-0.168	0.290
-349.479	-45.914	-0.282	0.140
-348.464	-200.000	0.007	-0.197
-347.450	36.866	-0.177	-0.157
-346.435	747.193	-0.066	-0.178
-345.420	63.221	-0.254	0.256
-344.406	94.464	0.182	-0.208
-343.391	800.000	-0.040	-0.155
-342.377	155.205	0.124	0.171
-341.362	617.866	0.066	-0.165
-340.348	33.714	-0.162	0.141
-339.333	78.653	0.235	0.253
-338.318	-65.729	0.120	0.048
-337.304	-89.225	-0.119	0.035
-336.289	-10.965	-0.157	0.104
-335.275	-87.196	0.071	0.022
-334.260	-200.000	-0.019	0.185
-333.245	38.263	-0.209	-0.187
-332.231	800.000	0.133	0.439
-331.216	415.444	-0.013	-0.028
-330.202	8.481	0.238	0.180
-329.187	68.460	-0.274	-0.282
-328.172	-134.158	-0.105	-0.013
-327.158	-53.005	-0.281	0.130
-326.143	-200.000	0.031	0.169
-325.129	-131.711	0.190	-0.025
-324.114	-200.000	0.016	0.125
-323.099	-151.555	-0.123	0.009
-322.085	-200.000	0.037	-0.184
-321.070	800.000	-0.157	-0.553
-320.056	42.920	-0.178	-0.163
-319.041	117.885	-0.210	-0.259
-318.026	11.603	-0.168	0.129
-317.012	-155.095	-0.374	-0.025
-315.997	49.265	0.198	-0.186
-314.983	96.131	-0.359	-0.411
-313.968	180.348	-0.124	-0.182
-312.953	-200.000	0.060	0.304
-311.939	57.932	-0.135	-0.133
-310.924	-200.000	-0.007	-0.240
-309.910	800.000	0.049	-0.145
-308.895	-38.822	-0.148	-0.078
-307.880	550.828	0.107	0.258
-306.866	422.144	0.070	-0.151
-305.851	511.924	0.040	0.094
-304.837	-113.562	0.083	0.016
-303.822	-10.450	-0.140	-0.093
-302.807	-50.808	0.191	-0.090
-301.793	-7.720	0.283	-0.192
-300.778	-83.591	-0.241	-0.077
-299.764	12.218	0.268	0.207
-298.749	-49.308	-0.128	-0.061
-297.735	467.726	-0.134	0.300
-296.720	48.380	-0.103	-0.096
-295.705	-24.368	0.143	-0.085
-294.691	-79.468	-0.035	0.012
-293.676	119.264	-0.089	-0.110
-292.662	262.107	0.210	-0.365
-291.647	-70.664	-0.242	0.092
-290.632	199.371	0.010	-0.016
-289.618	-20.686	-0.293	-0.180
-288.603	-113.694	-0.100	0.020
-287.589	5.144	-0.283	0.209
-286.574	-200.000	0.028	0.131
-285.559	800.000	-0.063	0.269
-284.545	111.011	-0.250	-0.302
-283.530	-200.000	0.015	0.226
-282.516	649.577	-0.145	0.372
-281.501	800.000	-0.031	0.103
-280.486	-122.912	0.088	0.014
-279.472	-48.248	0.098	0.048
-278.457	800.000	-0.017	-0.064
-277.443	-200.000	0.020	-0.119
-276.428	24.004	-0.097	0.080
-275.413	-121.780	0.291	-0.048
-274.399	407.738	-0.113	-0.239
-273.384	18.229	-0.172	-0.137
-272.370	43.109	-0.106	-0.097
-271.355	43.381	0.169	-0.154
-270.340	209.670	-0.126	-0.198
-269.326	450.448	0.107	-0.237
-268.311	-9.250	0.066	-0.044
-267.297	198.373	-0.029	-0.045
-266.282	-144.429	-0.135	0.013
-265.267	-100.575	0.140	0.035
-264.253	-200.000	0.012	0.288
-263.238	252.973	0.051	-0.087
-262.224	800.000	-0.052	-0.224
-261.209	269.071	-0.039	0.069
-260.195	-200.000	-0.000	-0.029
-259.180	275.791	0.239	-0.424
-258.165	-200.000	0.049	-0.268
-257.151	-186.874	-0.225	0.003
-256.136	-69.191	0.250	-0.096
-255.122	-140.403	-0.105	-0.011
-254.107	800.000	-0.070	-0.214
-253.092	800.000	0.060	0.210
-252.078	-182.739	-0.306	0.006
-251.063	-35.661	0.207	-0.113
-250.049	-8.810	0.221	0.148
-249.034	454.089	-0.069	-0.152
-248.019	-22.886	0.141	-0.085
-247.005	-65.175	-0.289	0.117
-245.990	-137.386	-0.052	0.006
-244.976	2.949	-0.077	-0.056
-243.961	-35.593	0.252	0.137
-242.946	-200.000	-0.021	0.145
-241.932	-200.000	-0.005	0.693
-240.917	800.000	0.061	-0.178
-239.903	-157.405	0.125	-0.008
-238.888	-114.462	-0.093	0.018
-237.873	256.366	-0.078	0.134
-236.859	47.221	-0.193	-0.179
-235.844	-200.000	0.009	0.060
-234.830	-17.326	0.334	-0.210
-233.815	-60.380	0.202	-0.086
-232.800	141.184	-0.107	0.142
-231.786	673.596	0.060	-0.157
-230.771	604.502	0.134	-0.334
-229.757	-73.868	-0.319	-0.116
-228.742	800.000	-0.040	-0.152
-227.727	405.105	0.089	-0.187
-226.713	345.353	0.057	0.112
-225.698	800.000	-0.077	0.228
-224.684	-56.409	0.041	0.018
-223.669	31.603	0.131	0.113
-222.655	-14.072	-0.081	0.052
-221.640	76.141	0.048	0.050
-220.625	159.648	-0.076	0.105
-219.611	-200.000	0.004	-0.120
-218.596	60.724	-0.072	-0.071
-217.582	339.025	0.172	-0.335
-216.567	-110.521	0.173	0.036
-215.552	-39.965	-0.171	-0.089
-214.538	-100.178	-0.244	0.061
-213.523	27.840	0.203	0.171
-212.509	-2.908	-0.099	0.069
-211.494	372.999	-0.153	0.311
-210.479	800.000	0.026	0.097
-209.465	544.323	-0.079	0.189
-208.450	-36.620	0.216	0.116
-207.436	282.151	-0.072	0.130
-206.421	800.000	0.009	-0.034
-205.406	-200.000	0.017	-0.359
-204.392	-200.000	-0.031	-0.179
-203.377	314.495	0.066	-0.124
-202.363	800.000	-0.086	0.252
-201.348	-200.000	-0.023	0.232
-200.333	252.870	0.053	-0.091
-199.319	-159.438	-0.134	0.007
-198.304	-200.000	-0.007	-0.094
-197.290	800.000	-0.046	-0.158
-196.275	-29.566	-0.164	0.094
-195.260	-117.533	-0.233	0.042
-194.246	302.310	0.131	-0.242
-193.231	-200.000	0.080	0.425
-192.217	32.208	0.137	0.118
-191.202	800.000	-0.042	0.172
-190.187	7.185	-0.019	0.014
-189.173	-200.000	0.035	-0.287
-188.158	-96.583	-0.217	0.057
-187.144	800.000	-0.096	0.381
-186.129	-7.368	0.209	0.141
-185.114	-46.083	-0.022	0.011
-184.100	-17.200	-0.202	-0.127
-183.085	-200.000	0.075	0.333
-182.071	417.161	0.125	0.266
-181.056	470.773	-0.096	0.215
-180.042	671.394	0.056	0.145
-179.027	-174.205	0.177	-0.005
-178.012	-20.444	-0.113	0.069
-176.998	219.120	0.075	-0.120
-175.983	13.956	-0.059	-0.046
-174.969	17.377	-0.160	0.127
-173.954	-189.241	0.166	0.002
-172.939	-200.000	-0.003	0.267
-171.925	-133.994	-0.258	0.032
-170.910	-200.000	0.069	0.343
-169.896	4.082	0.288	-0.210
-168.881	390.118	-0.096	-0.199
-167.866	-3.591	0.154	0.107
-166.852	-121.670	0.286	-0.047
-165.837	377.354	-0.055	-0.112
-164.823	289.295	-0.149	0.270
-163.808	199.072	-0.143	-0.218
-162.793	-143.384	0.258	-0.025
-161.779	-92.067	-0.313	0.088
-160.764	-131.652	0.222	0.029
-159.750	-83.294	-0.089	0.029
-158.735	-49.461	0.162	0.077
-157.720	-200.000	0.074	-0.340
-156.706	-103.766	-0.075	0.018
-155.691	38.353	0.103	-0.092
-154.677	342.410	-0.054	0.106
-153.662	-60.218	0.170	0.072
-152.647	800.000	0.098	0.314
-151.633	63.827	0.057	0.057
-150.618	-200.000	0.014	0.159
-149.604	800.000	-0.033	0.093
-148.589	-71.246	0.106	-0.040
-147.574	-124.128	0.125	0.020
-146.560	-49.468	0.388	0.184
-145.545	130.428	0.251	0.320
-144.531	49.896	0.156	0.146
-143.516	193.467	0.198	0.299
-142.502	5.730	0.315	0.232
-141.487	28.421	0.335	0.282
-140.472	-70.166	0.242	0.092
-139.458	371.604	-0.122	-0.247
-138.443	8.612	0.057	0.043
-137.429	-40.236	0.096	0.050
-136.414	-28.481	-0.137	-0.079
-135.399	-115.214	0.364	0.069
-134.385	-32.326	-0.023	-0.013
-133.370	-95.071	0.334	-0.090
-132.356	713.896	0.046	-0.121
-131.341	-161.177	-0.206	0.011
-130.326	147.885	-0.053	0.072
-129.312	-189.885	0.116	-0.001
-128.297	580.296	-0.079	0.193
-127.283	-79.770	0.488	-0.163
-126.268	359.074	-0.047	0.094
-125.253	-200.000	0.035	-0.235
-124.239	-93.980	0.367	0.100
-123.224	-200.000	-0.042	0.207
-122.210	103.632	-0.259	-0.302
-121.195	193.278	-0.042	0.064
