DTS Sentinel unit serial number:	SN413079Multiplexer serial number:	ORYXHardware model number:	OX4-SRSoftware version number:	ORYX F/W v4.00 Oryx Data Collector v3.7.2.0data status	okinstallation	princeton_trtdifferential loss correction	single-endedforward channel	channel 1reverse channel	N/Adate	2019/09/14time	21:14:35forward acquisition time	60.00reverse acquisition time	0.00gamma	496.2192k internal	0.2317k external	0.2317temperature offset calibration	1.0015default loss term (dB/km)	0.3790temperature slope calibration	1.0000multiplexer offset coefficient	1.0000multiplexer slope coefficient	1.0000fibre end	0.00T internal ref (°C)	33.00T ext. ref 1 (°C)	4.77T ext. ref 2 (°C)	27.82length (m)	temperature (°C)	Stokes	anti-Stokes-747.200	625.791	-0.170	0.435
-746.185	800.000	-0.183	0.639
-745.171	-200.000	-0.064	0.294
-744.156	170.414	0.148	0.214
-743.142	494.302	-0.139	-0.324
-742.127	9.402	-0.128	0.098
-741.112	800.000	-0.082	-0.305
-740.098	24.899	0.027	-0.022
-739.083	74.615	-0.153	-0.163
-738.069	-103.873	-0.141	-0.033
-737.054	800.000	-0.045	-0.191
-736.039	-15.952	0.141	0.091
-735.025	-81.760	-0.204	0.068
-734.010	-117.459	-0.326	0.060
-732.996	-0.504	-0.207	-0.149
-731.981	260.286	-0.147	-0.257
-730.966	-56.933	-0.248	-0.111
-729.952	-200.000	-0.036	-0.208
-728.937	800.000	0.030	0.134
-727.923	-30.376	-0.218	0.125
-726.908	-115.108	-0.286	0.055
-725.894	-150.654	-0.331	0.026
-724.879	-158.312	0.298	-0.018
-723.864	-77.681	-0.304	-0.106
-722.850	-0.694	-0.105	0.075
-721.835	-79.314	-0.120	-0.041
-720.821	77.485	0.123	-0.132
-719.806	67.274	-0.311	-0.321
-718.791	800.000	0.034	0.134
-717.777	-40.869	0.276	-0.144
-716.762	505.290	-0.102	0.240
-715.748	-25.229	0.232	-0.139
-714.733	-47.753	-0.093	-0.045
-713.718	-25.883	0.243	0.145
-712.704	-70.130	-0.044	0.017
-711.689	504.084	0.094	0.219
-710.675	-24.565	-0.146	-0.088
-709.660	-81.486	0.247	-0.082
-708.645	403.279	-0.079	0.167
-707.631	-184.784	0.195	-0.003
-706.616	129.012	-0.118	-0.152
-705.602	109.825	-0.094	-0.114
-704.587	131.069	0.211	-0.273
-703.572	-200.000	0.044	0.457
-702.558	173.745	-0.110	0.161
-701.543	44.041	0.094	-0.088
-700.529	-200.000	0.001	0.073
-699.514	-200.000	-0.033	-0.173
-698.499	-114.863	-0.117	0.023
-697.485	-105.549	-0.193	0.044
-696.470	-90.909	0.353	0.103
-695.456	85.239	0.055	-0.061
-694.441	45.200	-0.140	-0.130
-693.426	-104.862	-0.088	0.020
-692.412	-42.604	-0.179	0.092
-691.397	800.000	-0.112	-0.372
-690.383	-55.080	0.241	0.110
-689.368	-148.471	-0.275	-0.023
-688.354	184.255	0.107	0.159
-687.339	-40.401	0.117	-0.062
-686.324	82.504	0.214	-0.235
-685.310	800.000	-0.017	0.074
-684.295	-138.682	-0.039	-0.004
-683.281	-96.443	0.271	0.072
-682.266	800.000	-0.026	-0.079
-681.251	-200.000	0.002	-0.190
-680.237	202.200	0.204	-0.318
-679.222	-54.921	0.175	0.080
-678.208	-57.732	-0.301	0.133
-677.193	800.000	0.014	-0.055
-676.178	-52.968	0.110	-0.051
-675.164	349.730	0.125	-0.249
-674.149	3.092	-0.059	0.043
-673.135	15.635	-0.186	-0.148
-672.120	220.519	0.112	0.182
-671.105	-74.710	-0.224	-0.081
-670.091	149.519	-0.140	-0.191
-669.076	143.612	0.131	-0.176
-668.062	-38.648	-0.056	0.030
-667.047	-200.000	0.005	-0.059
-666.032	-200.000	0.003	0.107
-665.018	-73.348	0.205	0.076
-664.003	58.069	-0.219	0.217
-662.989	-113.666	-0.173	0.034
-661.974	15.074	0.107	-0.085
-660.959	-166.183	-0.220	-0.009
-659.945	747.598	-0.107	-0.292
-658.930	115.099	0.107	-0.131
-657.916	-136.290	-0.456	-0.054
-656.901	-200.000	0.019	-0.384
-655.886	-14.422	0.132	0.086
-654.872	390.823	0.083	-0.174
-653.857	-25.861	0.279	-0.166
-652.843	-200.000	0.006	0.103
-651.828	-125.335	0.025	0.004
-650.814	-27.421	-0.040	0.023
-649.799	185.291	-0.102	-0.153
-648.784	-200.000	0.010	0.065
-647.770	-112.050	-0.375	-0.076
-646.755	2.376	-0.361	-0.263
-645.741	328.537	0.164	0.318
-644.726	-34.213	-0.146	0.081
-643.711	287.769	0.098	-0.179
-642.697	310.921	-0.130	0.246
-641.682	230.632	0.108	0.178
-640.668	-200.000	-0.062	0.371
-639.653	800.000	0.079	-0.332
-638.638	575.408	-0.072	0.178
-637.624	180.020	-0.030	-0.044
-636.609	-6.318	-0.106	0.073
-635.595	-42.319	0.113	-0.058
-634.580	-200.000	-0.025	0.132
-633.565	153.033	0.105	-0.145
-632.551	800.000	-0.022	0.081
-631.536	58.203	-0.244	0.241
-630.522	-200.000	0.024	-0.372
-629.507	-180.289	-0.354	-0.007
-628.492	168.496	0.034	0.048
-627.478	1.690	-0.253	0.184
-626.463	-200.000	0.074	0.408
-625.449	59.958	0.094	-0.094
-624.434	-200.000	-0.001	-0.433
-623.419	-73.470	-0.182	-0.067
-622.405	73.993	-0.018	0.019
-621.390	681.958	0.058	-0.151
-620.376	-200.000	-0.029	-0.297
-619.361	-200.000	0.002	-0.165
-618.346	5.564	0.188	-0.140
-617.332	800.000	0.104	0.436
-616.317	346.611	0.164	0.325
-615.303	-200.000	-0.005	-0.342
-614.288	197.048	0.174	-0.267
-613.273	44.067	0.220	0.203
-612.259	-47.920	0.228	-0.111
-611.244	168.076	-0.116	-0.167
-610.230	-61.671	0.167	0.070
-609.215	-10.019	-0.306	0.205
-608.201	-104.732	0.198	-0.046
-607.186	-116.665	0.096	-0.018
-606.171	-200.000	0.023	0.182
-605.157	68.969	-0.173	0.178
-604.142	-49.403	0.059	-0.028
-603.128	-78.293	-0.094	0.033
-602.113	-200.000	-0.007	0.068
-601.098	37.844	-0.112	-0.100
-600.084	-117.940	0.171	-0.031
-599.069	118.335	-0.134	0.166
-598.055	-31.211	-0.077	0.044
-597.040	800.000	0.052	-0.157
-596.025	-200.000	-0.396	-0.001
-595.011	-32.072	0.103	-0.058
-593.996	46.227	-0.182	-0.170
-592.982	76.250	0.187	0.199
-591.967	-200.000	0.012	-0.145
-590.952	-19.591	-0.081	0.050
-589.938	88.671	-0.182	0.204
-588.923	70.783	0.020	0.021
-587.909	96.046	0.163	-0.187
-586.894	-150.681	-0.111	-0.009
-585.879	438.035	-0.031	0.068
-584.865	-188.638	0.260	0.003
-583.850	-51.670	-0.272	0.128
-582.836	201.237	0.041	-0.064
-581.821	-183.965	0.157	0.003
-580.806	-62.175	-0.102	-0.043
-579.792	-200.000	0.038	-0.173
-578.777	800.000	0.070	-0.199
-577.763	2.313	-0.415	-0.302
-576.748	-200.000	0.021	-0.271
-575.733	-45.025	-0.339	-0.169
-574.719	-200.000	-0.058	-0.346
-573.704	-69.902	-0.126	0.048
-572.690	-120.394	-0.467	-0.080
-571.675	-200.000	-0.010	0.472
-570.661	214.887	0.035	-0.055
-569.646	800.000	0.158	-0.441
-568.631	800.000	-0.004	0.012
-567.617	133.875	0.352	0.458
-566.602	-200.000	0.010	-0.069
-565.588	-7.884	-0.448	-0.304
-564.573	36.113	-0.100	-0.089
-563.558	-6.593	0.201	-0.138
-562.544	800.000	-0.036	-0.110
-561.529	800.000	0.021	-0.078
-560.515	-200.000	0.016	-0.081
-559.500	-57.504	0.316	-0.139
-558.485	199.000	-0.042	0.064
-557.471	20.492	-0.122	-0.099
-556.456	129.413	0.207	0.265
-555.442	68.464	0.208	-0.214
-554.427	-46.912	0.348	0.171
-553.412	800.000	0.100	0.313
-552.398	-200.000	-0.002	0.015
-551.383	-18.689	0.084	0.053
-550.369	800.000	0.078	0.217
-549.354	-96.682	0.294	-0.078
-548.339	37.279	-0.104	0.093
-547.325	52.195	-0.057	0.054
-546.310	800.000	-0.105	0.419
-545.296	428.291	-0.031	0.068
-544.281	-200.000	-0.014	0.105
-543.266	4.407	-0.065	0.048
-542.252	23.641	-0.427	-0.353
-541.237	-48.074	-0.265	0.129
-540.223	14.195	-0.355	0.277
-539.208	-6.669	0.207	0.142
-538.193	69.410	-0.101	0.105
-537.179	-186.866	-0.274	0.004
-536.164	47.756	-0.122	-0.114
-535.150	1.129	0.165	0.119
-534.135	136.321	0.191	-0.250
-533.121	-200.000	-0.048	0.259
-532.106	669.604	0.158	0.410
-531.091	-200.000	-0.001	-0.136
-530.077	342.767	-0.068	0.133
-529.062	24.434	-0.359	0.298
-528.048	-86.389	0.213	-0.066
-527.033	-200.000	0.033	0.204
-526.018	-200.000	-0.007	-0.059
-525.004	453.846	0.057	0.126
-523.989	-98.954	0.250	-0.064
-522.975	-57.804	0.265	0.116
-521.960	90.370	-0.234	-0.262
-520.945	178.711	-0.219	0.322
-519.931	262.184	0.099	0.173
-518.916	-50.343	0.117	-0.055
-517.902	-200.000	0.027	-0.173
-516.887	298.841	0.052	-0.096
-515.872	-91.341	-0.432	-0.124
-514.858	-123.958	0.045	-0.007
-513.843	187.381	-0.191	-0.286
-512.829	-37.742	-0.160	-0.085
-511.814	-152.695	0.374	0.027
-510.799	-129.079	0.250	-0.035
-509.785	-64.063	-0.149	-0.061
-508.770	-152.075	0.143	-0.010
-507.756	753.600	0.100	-0.270
-506.741	262.749	0.059	0.103
-505.726	700.770	-0.059	-0.156
-504.712	-177.623	0.486	0.012
-503.697	171.175	0.065	-0.094
-502.683	-156.328	0.295	0.019
-501.668	-54.073	0.221	-0.101
-500.653	-171.946	0.332	0.011
-499.639	-1.098	0.152	0.108
-498.624	-174.998	0.043	-0.001
-497.610	-65.827	-0.278	-0.112
-496.595	100.374	-0.122	-0.142
-495.581	-141.900	0.113	-0.011
-494.566	571.841	-0.095	0.231
-493.551	0.486	-0.222	-0.159
-492.537	-200.000	-0.010	0.114
-491.522	-131.308	0.286	0.038
-490.508	89.226	0.050	-0.056
-489.493	-57.616	0.173	0.076
-488.478	571.301	0.181	0.442
-487.464	16.833	0.177	0.140
-486.449	-105.937	0.195	-0.044
-485.435	2.539	0.296	-0.215
-484.420	-60.509	0.154	0.066
-483.405	-157.164	-0.079	-0.005
-482.391	173.865	-0.057	-0.082
-481.376	-73.463	0.303	-0.111
-480.362	558.698	0.144	0.347
-479.347	-200.000	-0.009	0.380
-478.332	800.000	-0.109	0.321
-477.318	6.248	-0.079	0.058
-476.303	-200.000	-0.007	-0.113
-475.289	-110.015	0.174	-0.036
-474.274	-122.007	-0.219	-0.036
-473.259	10.755	0.133	0.102
-472.245	-4.967	0.072	-0.049
-471.230	-57.217	0.212	0.093
-470.216	-200.000	0.018	0.202
-469.201	170.856	-0.127	-0.182
-468.186	800.000	-0.051	-0.144
-467.172	-163.734	-0.166	0.008
-466.157	-56.122	0.040	0.018
-465.143	-132.244	0.450	0.058
-464.128	-170.324	-0.393	-0.014
-463.113	-64.388	-0.184	0.075
-462.099	20.754	0.314	-0.254
-461.084	-59.832	0.060	0.026
-460.070	89.949	-0.037	-0.041
-459.055	-200.000	-0.043	-0.211
-458.040	136.651	-0.180	0.236
-457.026	76.078	-0.160	0.170
-456.011	-200.000	0.013	-0.081
-454.997	270.221	-0.036	-0.063
-453.982	800.000	-0.077	-0.239
-452.968	-81.495	-0.074	-0.024
-451.953	-131.243	0.067	-0.009
-450.938	-82.939	-0.073	0.024
-449.924	136.612	-0.105	-0.138
-448.909	-24.865	-0.138	0.082
-447.895	-152.767	0.104	0.007
-446.880	346.922	-0.123	-0.243
-445.865	-88.045	0.136	0.041
-444.851	-200.000	-0.011	-0.196
-443.836	-26.164	0.499	-0.293
-442.822	149.338	-0.073	0.099
-441.807	72.641	0.123	-0.128
-440.792	185.084	-0.146	0.216
-439.778	269.994	0.131	-0.230
-438.763	-154.455	-0.173	-0.012
-437.749	78.776	-0.113	-0.121
-436.734	-150.359	0.156	0.012
-435.719	-144.993	-0.248	-0.023
-434.705	-177.262	0.112	0.003
-433.690	-200.000	0.022	0.188
-432.676	222.039	-0.238	0.383
-431.661	-200.000	-0.049	-0.260
-430.646	460.554	0.161	0.359
-429.632	51.812	-0.113	-0.108
-428.617	19.412	-0.166	0.134
-427.603	-131.751	-0.390	-0.051
-426.588	307.992	-0.084	0.156
-425.573	338.550	0.132	-0.258
-424.559	-200.000	-0.007	-0.346
-423.544	15.735	0.090	-0.071
-422.530	-48.450	-0.156	0.075
-421.515	5.739	-0.068	0.050
-420.500	-126.499	-0.293	-0.044
-419.486	127.819	-0.101	-0.128
-418.471	-200.000	0.024	-0.140
-417.457	114.177	-0.137	0.167
-416.442	94.069	-0.228	-0.259
-415.428	107.005	0.199	0.236
-414.413	10.076	-0.264	-0.200
-413.398	-200.000	-0.022	-0.534
-412.384	320.834	-0.106	0.200
-411.369	4.061	0.221	-0.161
-410.355	-200.000	0.040	-0.230
-409.340	83.197	-0.144	0.156
-408.325	418.335	0.045	0.097
-407.311	-200.000	0.051	-0.338
-406.296	800.000	0.068	-0.223
-405.282	149.055	-0.218	-0.295
-404.267	-104.011	-0.112	0.026
-403.252	-140.421	-0.336	0.035
-402.238	18.553	-0.197	-0.158
-401.223	20.996	0.065	-0.053
-400.209	-23.562	-0.075	0.045
-399.194	-179.891	0.540	0.012
-398.179	-200.000	-0.008	-0.209
-397.165	689.412	0.059	-0.155
-396.150	-39.876	0.164	-0.085
-395.136	12.349	0.260	0.200
-394.121	54.135	-0.251	-0.241
-393.106	-184.034	0.331	-0.006
-392.092	302.762	0.032	0.059
-391.077	32.388	-0.295	0.254
-390.063	-101.496	0.494	0.120
-389.048	206.292	-0.141	0.219
-388.033	22.777	0.098	0.080
-387.019	-42.335	0.158	-0.081
-386.004	-110.553	-0.197	0.041
-384.990	310.458	-0.179	0.335
-383.975	12.075	0.092	0.071
-382.960	21.865	-0.086	0.070
-381.946	-101.829	0.346	0.083
-380.931	800.000	0.037	-0.133
-379.917	800.000	-0.066	-0.259
-378.902	311.128	0.105	0.197
-377.888	-21.099	-0.125	0.076
-376.873	800.000	-0.117	-0.353
-375.858	265.478	0.088	0.154
-374.844	-26.709	0.133	0.078
-373.829	-200.000	0.025	0.136
-372.815	-17.820	0.330	0.206
-371.800	-145.793	0.058	0.005
-370.785	34.303	0.033	-0.029
-369.771	34.285	0.240	-0.209
-368.756	104.528	-0.246	-0.289
-367.742	34.196	0.100	0.087
-366.727	-43.723	-0.246	0.124
-365.712	175.382	0.255	0.369
-364.698	-71.091	0.141	-0.053
-363.683	-144.912	0.234	0.021
-362.669	160.416	-0.069	0.095
-361.654	-81.618	0.072	-0.024
-360.639	139.529	0.146	0.192
-359.625	46.302	0.047	-0.043
-358.610	-102.774	0.214	0.051
-357.596	-200.000	-0.041	0.222
-356.581	1.912	-0.269	-0.193
-355.566	44.373	0.126	0.115
-354.552	151.452	0.176	0.240
-353.537	42.469	0.311	0.282
-352.523	800.000	-0.062	0.228
-351.508	-200.000	-0.002	-0.057
-350.493	574.291	-0.116	-0.281
-349.479	199.655	0.257	0.393
-348.464	-92.290	-0.033	0.009
-347.450	185.877	-0.088	-0.131
-346.435	-15.937	-0.286	0.181
-345.420	800.000	0.036	0.108
-344.406	-200.000	-0.034	-0.191
-343.391	-200.000	0.011	-0.277
-342.377	-144.941	-0.294	-0.027
-341.362	-45.893	-0.121	-0.059
-340.348	-69.175	-0.061	-0.023
-339.333	208.940	-0.017	0.027
-338.318	115.321	-0.073	0.089
-337.304	28.676	-0.139	-0.117
-336.289	17.339	-0.112	0.088
-335.275	89.206	-0.243	0.270
-334.260	-71.557	-0.259	-0.097
-333.245	-43.727	0.089	0.045
-332.231	-200.000	-0.011	-0.205
-331.216	-200.000	0.053	-0.244
-330.202	-38.884	0.043	-0.023
-329.187	-200.000	-0.002	-0.234
-328.172	-124.973	-0.220	-0.034
-327.158	-200.000	-0.017	0.174
-326.143	-153.932	-0.398	-0.027
-325.129	-102.517	0.176	-0.042
-324.114	-26.698	-0.089	-0.052
-323.099	-200.000	0.039	0.401
-322.085	-43.458	-0.233	-0.117
-321.070	-71.996	-0.087	0.032
-320.056	-187.983	-0.148	0.002
-319.041	-86.769	0.448	-0.136
-318.026	208.997	0.043	0.067
-317.012	-200.000	0.053	-0.443
-315.997	800.000	-0.025	-0.094
-314.983	68.046	-0.123	-0.125
-313.968	378.405	0.195	0.397
-312.953	-200.000	0.007	-0.062
-311.939	800.000	0.049	-0.148
-310.924	-45.832	-0.152	-0.075
-309.910	271.309	-0.141	0.248
-308.895	-197.569	0.163	0.001
-307.880	800.000	0.088	-0.305
-306.866	-137.490	0.154	0.017
-305.851	-200.000	-0.020	-0.408
-304.837	-17.295	-0.098	0.061
-303.822	52.728	0.094	0.090
-302.807	-91.927	-0.223	-0.063
-301.793	332.686	-0.057	0.110
-300.778	325.571	0.032	0.060
-299.764	-200.000	-0.016	-0.197
-298.749	-200.000	-0.036	-0.233
-297.735	-27.729	0.183	0.105
-296.720	-88.777	-0.396	0.117
-295.705	-65.274	0.237	0.095
-294.691	580.581	-0.070	0.172
-293.676	-95.811	0.518	0.138
-292.662	-200.000	0.014	-0.384
-291.647	800.000	-0.039	-0.129
-290.632	73.366	0.038	0.040
-289.618	-87.587	-0.306	-0.092
-288.603	-18.085	-0.140	0.087
-287.589	-200.000	-0.138	-0.000
-286.574	-52.158	-0.079	-0.037
-285.559	64.234	0.138	0.138
-284.545	96.913	0.228	-0.259
-283.530	-164.651	0.417	-0.019
-282.516	800.000	-0.065	0.202
-281.501	216.195	0.156	0.247
-280.486	-8.929	-0.167	0.111
-279.472	-5.302	0.189	-0.129
-278.457	202.105	0.130	0.199
-277.443	39.436	0.290	-0.258
-276.428	-200.000	0.086	-0.399
-275.413	165.634	0.129	-0.182
-274.399	-70.605	0.485	-0.182
-273.384	42.056	-0.300	-0.271
-272.370	-77.212	-0.164	-0.057
-271.355	226.554	0.098	-0.158
-270.340	1.460	0.211	0.151
-269.326	315.296	0.209	0.392
-268.311	-138.689	0.125	0.014
-267.297	800.000	-0.083	0.276
-266.282	159.565	0.171	-0.236
-265.267	-68.670	-0.144	0.055
-264.253	-200.000	-0.050	-0.317
-263.238	73.491	-0.315	-0.328
-262.224	-37.905	-0.145	0.076
-261.209	-71.917	-0.159	0.059
-260.195	-200.000	-0.009	-0.165
-259.180	-200.000	-0.036	-0.218
-258.165	-200.000	-0.069	0.301
-257.151	-133.338	0.248	-0.031
-256.136	-196.925	0.602	-0.004
-255.122	-200.000	0.013	-0.069
-254.107	800.000	-0.058	0.175
-253.092	800.000	-0.055	0.202
-252.078	-44.118	0.230	0.115
-251.063	255.937	0.067	-0.115
-250.049	222.661	0.085	-0.135
-249.034	-95.002	-0.070	-0.019
-248.019	-115.463	-0.179	0.033
-247.005	-139.762	-0.120	-0.013
-245.990	-200.000	-0.037	0.410
-244.976	-53.247	0.236	0.107
-243.961	-53.381	-0.101	0.046
-242.946	-107.518	-0.284	-0.062
-241.932	179.950	0.127	0.184
-240.917	-200.000	0.048	0.315
-239.903	25.172	-0.329	0.271
-238.888	-145.103	-0.280	-0.025
-237.873	-200.000	0.005	0.106
-236.859	6.944	0.140	0.103
-235.844	21.567	-0.253	-0.205
-234.830	-200.000	0.014	-0.237
-233.815	234.785	-0.098	-0.161
-232.800	102.195	0.117	0.135
-231.786	381.387	-0.077	0.156
-230.771	-200.000	-0.052	0.320
-229.757	-80.974	0.332	0.109
-228.742	345.206	-0.191	0.372
-227.727	296.049	-0.084	0.153
-226.713	-140.597	0.146	0.015
-225.698	-104.802	0.230	0.053
-224.684	-93.939	-0.346	0.094
-223.669	-134.772	0.290	0.035
-222.655	308.570	0.134	0.247
-221.640	-150.762	-0.112	0.008
-220.625	231.241	0.080	0.129
-219.611	-93.027	0.282	0.078
-218.596	68.146	-0.254	-0.258
-217.582	178.960	-0.087	-0.127
-216.567	120.618	0.158	0.195
-215.552	31.597	-0.408	-0.348
-214.538	7.906	0.352	-0.261
-213.523	-66.566	0.248	0.097
-212.509	-14.529	-0.237	0.151
-211.494	15.457	-0.167	0.130
-210.479	-83.672	0.197	-0.062
-209.465	300.240	-0.083	-0.152
-208.450	-95.902	0.226	-0.060
-207.436	411.661	0.111	0.234
-206.421	103.627	-0.202	-0.236
-205.406	637.311	0.145	-0.364
-204.392	-83.510	-0.432	-0.137
-203.377	427.253	0.097	0.207
-202.363	-35.333	0.329	-0.177
-201.348	69.139	-0.125	0.128
-200.333	800.000	-0.038	-0.144
-199.319	-200.000	0.049	-0.219
-198.304	-154.231	0.100	0.007
-197.290	800.000	-0.028	0.121
-196.275	800.000	-0.038	0.108
-195.260	-40.764	-0.128	0.066
-194.246	-200.000	-0.014	-0.085
-193.231	172.896	-0.138	0.198
-192.217	-60.813	-0.300	0.126
-191.202	-200.000	-0.055	0.468
-190.187	-200.000	-0.003	-0.120
-189.173	-71.470	-0.271	0.101
-188.158	105.577	0.332	-0.389
-187.144	-70.832	-0.081	0.030
-186.129	-131.284	-0.356	0.047
-185.114	-108.252	0.250	0.054
-184.100	195.617	-0.127	0.191
-183.085	-200.000	0.022	-0.118
-182.071	-95.855	-0.125	-0.033
-181.056	-23.273	0.140	0.083
-180.042	-200.000	0.085	0.404
-179.027	-77.479	-0.157	0.054
-178.012	-74.893	0.197	0.070
-176.998	174.977	0.102	-0.146
-175.983	526.410	-0.119	-0.279
-174.969	-146.790	-0.262	0.022
-173.954	-15.229	0.142	0.090
-172.939	535.518	0.048	-0.112
-171.925	-21.175	-0.117	-0.071
-170.910	-81.757	0.025	-0.008
-169.896	-200.000	-0.014	0.099
-168.881	-178.181	0.081	0.002
-167.866	326.733	-0.133	-0.252
-166.852	-71.240	-0.253	0.094
-165.837	-112.282	0.202	-0.040
-164.823	-115.083	0.222	-0.042
-163.808	44.935	-0.111	0.101
-162.793	733.715	-0.097	0.257
-161.779	800.000	0.054	-0.214
-160.764	800.000	0.130	-0.394
-159.750	-200.000	0.050	-0.319
-158.735	-46.624	0.126	0.061
-157.720	-200.000	-0.050	0.230
-156.706	-86.900	-0.388	-0.117
-155.691	296.593	-0.041	-0.074
-154.677	-132.757	0.165	-0.021
-153.662	130.546	-0.214	0.271
-152.647	114.784	-0.036	-0.044
-151.633	800.000	0.050	0.184
-150.618	800.000	-0.097	-0.400
-149.604	16.655	0.398	0.311
-148.589	20.684	0.355	0.284
-147.574	-200.000	0.012	0.067
-146.560	31.875	-0.086	-0.073
-145.545	-59.556	-0.133	-0.057
-144.531	136.932	-0.227	-0.293
-143.516	118.799	0.352	0.430
-142.502	0.440	-0.412	0.291
-141.487	2.550	-0.088	-0.063
-140.472	-200.000	0.041	-0.419
-139.458	648.580	-0.045	0.115
-138.443	402.157	-0.144	0.299
-137.429	-200.000	0.013	0.266
-136.414	595.846	-0.046	0.112
-135.399	-70.504	-0.262	-0.098
-134.385	-46.085	-0.076	0.037
-133.370	238.689	0.225	0.369
-132.356	527.533	-0.078	-0.182
-131.341	352.612	0.165	0.324
-130.326	98.325	-0.217	0.248
-129.312	323.050	0.055	0.104
-128.297	212.984	0.089	0.138
-127.283	331.830	0.102	0.194
-126.268	-1.659	-0.092	0.064
-125.253	-48.675	-0.222	-0.105
-124.239	14.863	-0.099	0.077
-123.224	-139.337	0.228	0.024
-122.210	-200.000	-0.068	0.321
-121.195	-5.484	0.155	-0.105
