DTS Sentinel unit serial number:	SN413079Multiplexer serial number:	ORYXHardware model number:	OX4-SRSoftware version number:	ORYX F/W v4.00 Oryx Data Collector v3.7.2.0data status	okinstallation	princeton_trtdifferential loss correction	single-endedforward channel	channel 1reverse channel	N/Adate	2019/09/11time	20:32:11forward acquisition time	60.00reverse acquisition time	0.00gamma	496.2192k internal	0.2304k external	0.2304temperature offset calibration	1.0043default loss term (dB/km)	0.3790temperature slope calibration	1.0000multiplexer offset coefficient	1.0000multiplexer slope coefficient	1.0000fibre end	0.00T internal ref (°C)	37.56T ext. ref 1 (°C)	1.51T ext. ref 2 (°C)	30.82length (m)	temperature (°C)	Stokes	anti-Stokes-747.200	369.712	-0.091	-0.188
-746.185	-111.705	-0.574	-0.118
-745.171	-95.430	-0.262	-0.072
-744.156	-200.000	0.074	0.406
-743.142	190.148	0.088	0.135
-742.127	-200.000	0.013	0.352
-741.112	3.901	0.103	-0.076
-740.098	800.000	-0.081	0.236
-739.083	65.381	0.164	0.169
-738.069	301.056	0.143	-0.269
-737.054	-45.909	0.343	-0.172
-736.039	93.356	-0.241	-0.277
-735.025	-200.000	-0.071	0.327
-734.010	119.621	-0.159	-0.201
-732.996	-155.375	-0.220	-0.014
-731.981	-51.082	-0.219	0.104
-730.966	800.000	0.086	0.259
-729.952	-117.993	-0.223	0.041
-728.937	-18.269	-0.210	-0.134
-727.923	-200.000	-0.014	-0.142
-726.908	-97.848	0.155	-0.041
-725.894	66.822	0.178	-0.184
-724.879	-200.000	-0.091	0.444
-723.864	383.532	0.109	0.229
-722.850	-200.000	0.350	0.001
-721.835	206.521	-0.127	-0.201
-720.821	-119.994	0.138	-0.024
-719.806	458.706	-0.115	-0.261
-718.791	124.994	0.299	-0.383
-717.777	76.780	0.215	0.233
-716.762	800.000	-0.058	-0.202
-715.748	399.515	0.128	-0.272
-714.733	108.102	0.296	-0.359
-713.718	213.768	0.097	-0.156
-712.704	-27.100	-0.296	-0.176
-711.689	-74.649	0.286	-0.105
-710.675	-200.000	-0.015	-0.237
-709.660	189.340	-0.125	0.191
-708.645	72.206	0.066	0.070
-707.631	776.372	0.004	0.011
-706.616	800.000	0.089	-0.340
-705.602	333.520	-0.162	0.318
-704.587	476.916	0.193	0.444
-703.572	723.531	-0.169	0.457
-702.558	800.000	0.118	0.429
-701.543	541.763	0.102	-0.248
-700.529	32.576	-0.101	0.089
-699.514	-22.467	-0.199	-0.122
-698.499	-200.000	-0.028	-0.315
-697.485	83.424	-0.074	-0.082
-696.470	-141.856	0.280	0.028
-695.456	448.636	0.074	-0.165
-694.441	-44.666	-0.251	-0.128
-693.426	-17.749	0.298	0.190
-692.412	51.219	0.174	-0.168
-691.397	-55.877	-0.052	0.024
-690.383	172.679	0.202	0.295
-689.368	106.551	0.197	-0.237
-688.354	26.575	-0.097	0.082
-687.339	409.394	0.101	0.217
-686.324	-39.585	0.153	0.081
-685.310	-63.340	0.073	0.031
-684.295	-200.000	-0.005	-0.269
-683.281	800.000	0.034	0.128
-682.266	-29.367	-0.069	-0.040
-681.251	-200.000	-0.007	0.138
-680.237	-40.050	0.183	-0.097
-679.222	207.213	0.110	0.174
-678.208	-105.363	-0.388	-0.090
-677.193	-158.770	-0.115	0.007
-676.178	0.439	0.105	-0.076
-675.164	35.864	-0.140	0.125
-674.149	189.305	-0.186	-0.282
-673.135	4.596	-0.164	0.123
-672.120	-200.000	-0.058	0.303
-671.105	-200.000	-0.029	0.197
-670.091	-114.802	0.145	-0.028
-669.076	-65.851	-0.198	0.081
-668.062	-115.419	-0.158	-0.030
-667.047	366.047	-0.041	-0.084
-666.032	800.000	0.092	-0.343
-665.018	-121.076	0.034	0.006
-664.003	-66.972	0.059	0.024
-662.989	-118.934	0.232	-0.041
-661.974	800.000	-0.044	-0.159
-660.959	783.450	0.104	-0.290
-659.945	6.670	0.222	-0.168
-658.930	233.217	-0.135	0.226
-657.916	800.000	0.084	0.240
-656.901	-128.801	0.384	-0.055
-655.886	82.275	-0.265	0.292
-654.872	-200.000	0.014	0.131
-653.857	-108.624	-0.117	-0.025
-652.843	-200.000	0.011	-0.088
-651.828	-175.742	0.248	-0.007
-650.814	152.376	0.113	0.157
-649.799	800.000	-0.090	-0.255
-648.784	-141.604	0.083	0.008
-647.770	-200.000	0.048	0.295
-646.755	-200.000	-0.012	-0.063
-645.741	244.760	-0.172	-0.293
-644.726	116.381	-0.234	0.291
-643.711	-200.000	-0.001	0.162
-642.697	-116.080	0.075	-0.014
-641.682	800.000	-0.020	-0.058
-640.668	-64.015	0.093	0.039
-639.653	420.557	0.031	-0.067
-638.638	-143.049	-0.235	-0.023
-637.624	-120.927	0.102	-0.017
-636.609	273.307	0.048	0.085
-635.595	11.619	0.150	-0.117
-634.580	105.611	0.301	-0.361
-633.565	800.000	0.134	0.376
-632.551	-200.000	0.020	0.132
-631.536	409.572	-0.157	0.337
-630.522	560.920	-0.085	0.207
-629.507	-95.538	-0.304	0.083
-628.492	768.182	0.007	-0.020
-627.478	3.659	-0.224	-0.165
-626.463	-200.000	0.014	0.093
-625.449	-73.280	0.247	0.091
-624.434	98.910	0.094	-0.110
-623.419	-97.512	0.462	0.122
-622.405	135.574	0.117	0.154
-621.390	-200.000	-0.076	-0.438
-620.376	12.541	0.283	-0.221
-619.361	52.980	0.018	-0.017
-618.346	-33.555	0.176	0.099
-617.332	-90.321	-0.455	-0.134
-616.317	-200.000	0.060	-0.300
-615.303	-200.000	0.041	0.210
-614.288	59.951	-0.168	-0.168
-613.273	182.142	0.070	0.104
-612.259	-136.097	0.254	0.030
-611.244	-44.952	-0.084	0.043
-610.230	-171.753	-0.032	0.001
-609.215	14.469	-0.219	0.173
-608.201	262.453	-0.147	0.258
-607.186	800.000	0.083	-0.288
-606.171	-95.052	-0.082	-0.023
-605.157	82.264	0.242	-0.266
-604.142	-200.000	-0.002	0.173
-603.128	800.000	-0.049	-0.164
-602.113	-61.239	-0.148	-0.063
-601.098	-16.364	0.066	0.042
-600.084	-200.000	0.022	-0.106
-599.069	800.000	0.112	-0.408
-598.055	-159.580	-0.275	-0.015
-597.040	-200.000	0.026	0.183
-596.025	800.000	0.042	-0.138
-595.011	-200.000	0.004	0.102
-593.996	-131.462	-0.277	-0.037
-592.982	-50.008	-0.018	0.009
-591.967	353.808	-0.117	-0.236
-590.952	-9.590	-0.258	0.174
-589.938	238.459	-0.063	-0.105
-588.923	-29.931	0.121	-0.070
-587.909	476.224	-0.065	0.148
-586.894	-131.081	-0.276	0.037
-585.879	-172.997	0.291	0.009
-584.865	63.892	0.148	0.151
-583.850	29.900	0.166	0.143
-582.836	-200.000	-0.024	0.338
-581.821	11.589	-0.339	0.263
-580.806	-200.000	-0.032	0.194
-579.792	-17.285	-0.091	-0.058
-578.777	-136.050	0.262	-0.031
-577.763	41.016	-0.117	-0.107
-576.748	122.533	0.169	-0.213
-575.733	-200.000	0.016	-0.330
-574.719	158.348	-0.140	0.197
-573.704	-200.000	-0.050	-0.342
-572.690	0.927	0.325	-0.236
-571.675	-47.921	-0.393	0.193
-570.661	-200.000	0.015	-0.223
-569.646	-150.577	-0.253	-0.020
-568.631	-61.983	0.289	0.122
-567.617	-9.350	-0.269	0.181
-566.602	-200.000	-0.009	0.204
-565.588	-49.830	-0.354	-0.170
-564.573	-112.393	-0.124	0.025
-563.558	-140.358	0.156	-0.016
-562.544	12.467	0.308	-0.240
-561.529	-200.000	-0.003	-0.097
-560.515	37.398	-0.078	-0.069
-559.500	-97.123	-0.214	-0.057
-558.485	51.555	-0.342	-0.328
-557.471	-200.000	-0.032	0.259
-556.456	-122.135	0.169	-0.028
-555.442	-80.574	0.201	-0.068
-554.427	312.654	0.088	-0.166
-553.412	29.201	-0.073	0.063
-552.398	229.311	0.137	-0.226
-551.383	189.730	0.130	-0.198
-550.369	630.686	-0.081	0.207
-549.354	-200.000	-0.028	0.200
-548.339	161.519	-0.222	-0.314
-547.325	-68.869	0.166	0.065
-546.310	36.548	-0.186	0.166
-545.296	76.312	0.136	0.145
-544.281	800.000	0.010	-0.032
-543.266	-2.959	0.113	-0.080
-542.252	126.613	0.054	-0.070
-541.237	-15.920	-0.154	0.099
-540.223	-112.659	-0.360	0.072
-539.208	-122.706	-0.376	-0.061
-538.193	-200.000	0.013	-0.313
-537.179	68.487	-0.158	-0.164
-536.164	-113.907	-0.076	-0.015
-535.150	-88.430	0.243	-0.073
-534.135	364.381	-0.089	-0.181
-533.121	-22.841	0.316	0.193
-532.106	-43.973	-0.443	-0.225
-531.091	108.781	-0.111	-0.133
-530.077	800.000	0.018	-0.054
-529.062	-200.000	0.003	0.177
-528.048	-143.265	0.324	0.031
-527.033	-108.304	0.213	-0.046
-526.018	-123.488	0.089	-0.014
-525.004	-64.315	-0.255	-0.105
-523.989	800.000	0.071	-0.200
-522.975	-58.173	0.202	0.089
-521.960	-27.717	-0.301	-0.176
-520.945	-50.807	-0.131	0.062
-519.931	-130.323	0.252	-0.035
-518.916	599.428	0.031	-0.077
-517.902	-64.684	-0.073	0.030
-516.887	-64.908	0.051	0.021
-515.872	-50.565	-0.027	0.013
-514.858	-3.053	0.346	-0.244
-513.843	75.520	0.112	-0.119
-512.829	148.141	0.161	0.219
-511.814	265.769	-0.114	0.201
-510.799	580.707	0.074	-0.182
-509.785	800.000	-0.124	-0.401
-508.770	-200.000	-0.042	0.211
-507.756	-86.158	0.165	0.051
-506.741	-200.000	-0.031	0.428
-505.726	800.000	0.025	0.102
-504.712	-200.000	0.037	-0.174
-503.697	620.464	-0.038	-0.096
-502.683	800.000	-0.075	-0.314
-501.668	-139.971	0.119	0.013
-500.653	-70.408	0.286	0.109
-499.639	800.000	0.125	0.373
-498.624	800.000	-0.105	-0.317
-497.610	-158.150	0.315	0.019
-496.595	-200.000	-0.018	0.153
-495.581	800.000	-0.070	0.260
-494.566	29.008	0.137	-0.117
-493.551	-200.000	-0.027	0.196
-492.537	19.131	0.143	0.116
-491.522	-44.870	0.134	0.067
-490.508	-121.805	0.202	-0.034
-489.493	-97.807	0.042	-0.011
-488.478	-200.000	-0.012	0.145
-487.464	270.142	-0.078	-0.138
-486.449	295.091	0.197	-0.363
-485.435	-200.000	0.016	0.137
-484.420	-103.913	-0.318	0.075
-483.405	-39.940	-0.129	0.068
-482.391	136.698	-0.109	-0.144
-481.376	463.169	0.137	0.309
-480.362	800.000	-0.130	0.398
-479.347	30.946	-0.156	0.135
-478.332	-33.878	-0.268	0.149
-477.318	136.039	-0.145	-0.190
-476.303	-38.343	0.302	0.161
-475.289	31.037	0.230	0.199
-474.274	-200.000	0.035	0.248
-473.259	-200.000	-0.005	-0.023
-472.245	-140.731	0.154	0.016
-471.230	-59.739	0.229	-0.099
-470.216	61.751	-0.198	0.198
-469.201	694.511	-0.063	-0.167
-468.186	-200.000	0.003	-0.050
-467.172	-200.000	0.016	0.111
-466.157	251.322	-0.157	-0.269
-465.143	-36.045	0.085	-0.046
-464.128	800.000	-0.039	-0.117
-463.113	-200.000	0.061	0.296
-462.099	69.244	0.154	0.160
-461.084	75.596	0.138	0.147
-460.070	513.728	-0.178	-0.417
-459.055	-7.466	-0.194	-0.132
-458.040	140.818	-0.082	-0.109
-457.026	-200.000	0.033	-0.290
-456.011	-137.400	-0.261	0.030
-454.997	-52.257	0.040	-0.019
-453.982	-47.109	0.228	-0.112
-452.968	-199.880	0.395	0.002
-451.953	340.787	0.051	0.100
-450.938	-67.011	-0.212	-0.084
-449.924	469.847	0.040	-0.090
-448.909	752.344	-0.057	-0.156
-447.895	-95.078	-0.330	-0.090
-446.880	15.155	0.103	0.081
-445.865	-200.000	0.026	-0.138
-444.851	-200.000	0.019	-0.186
-443.836	449.940	0.075	-0.166
-442.822	70.318	0.094	0.098
-441.807	186.017	0.225	-0.337
-440.792	149.099	0.144	-0.197
-439.778	-200.000	-0.005	0.483
-438.763	-66.360	0.171	0.069
-437.749	-27.110	0.052	0.030
-436.734	-197.078	-0.399	0.003
-435.719	53.999	-0.104	0.100
-434.705	-39.719	0.173	0.091
-433.690	800.000	0.040	0.120
-432.676	73.093	0.102	-0.107
-431.661	159.092	0.126	0.176
-430.646	-99.488	0.102	0.026
-429.632	259.938	-0.070	-0.121
-428.617	783.711	0.101	-0.278
-427.603	-60.154	0.138	-0.059
-426.588	-131.970	-0.070	-0.009
-425.573	528.678	0.018	-0.043
-424.559	-126.123	-0.108	0.016
-423.544	-59.073	-0.435	-0.189
-422.530	420.656	-0.094	0.203
-421.515	-200.000	-0.045	0.218
-420.500	-93.673	0.024	-0.007
-419.486	-122.976	0.345	0.056
-418.471	46.468	-0.122	0.114
-417.457	-160.453	0.323	0.017
-416.442	-200.000	0.021	-0.217
-415.428	33.650	-0.162	-0.141
-414.413	143.389	-0.126	0.169
-413.398	97.554	-0.244	0.282
-412.384	-0.390	0.057	0.041
-411.369	-46.451	-0.173	-0.085
-410.355	62.567	-0.363	0.365
-409.340	499.592	-0.056	-0.130
-408.325	147.483	-0.120	-0.163
-407.311	-66.081	-0.624	0.250
-406.296	800.000	-0.063	-0.187
-405.282	-200.000	-0.034	0.272
-404.267	48.237	-0.221	0.208
-403.252	435.703	0.205	-0.448
-402.238	192.064	-0.084	-0.127
-401.223	249.931	0.290	-0.495
-400.209	-8.569	0.112	-0.075
-399.194	-85.175	-0.190	0.060
-398.179	102.825	-0.215	-0.253
-397.165	-200.000	-0.001	-0.094
-396.150	-57.222	0.237	0.105
-395.136	158.092	0.119	-0.166
-394.121	-41.002	0.150	0.078
-393.106	800.000	0.057	0.163
-392.092	191.484	0.097	-0.147
-391.077	125.472	-0.141	-0.178
-390.063	800.000	0.088	0.273
-389.048	-200.000	-0.027	-0.191
-388.033	-146.629	-0.122	0.011
-387.019	-143.195	0.187	-0.018
-386.004	25.492	-0.145	0.121
-384.990	800.000	-0.035	-0.097
-383.975	-200.000	-0.006	-0.232
-382.960	-200.000	-0.075	0.387
-381.946	800.000	0.045	0.197
-380.931	153.517	0.211	0.290
-379.917	136.754	-0.124	-0.162
-378.902	800.000	0.023	-0.093
-377.888	144.108	-0.264	0.354
-376.873	-200.000	0.005	0.453
-375.858	-200.000	-0.026	-0.201
-374.844	-108.413	0.249	-0.054
-373.829	11.402	-0.214	0.164
-372.815	800.000	0.040	-0.149
-371.800	-141.753	0.018	0.002
-370.785	140.472	-0.026	-0.034
-369.771	-58.800	0.065	-0.028
-368.756	27.096	0.151	-0.127
-367.742	-87.254	-0.092	0.028
-366.727	-200.000	-0.012	0.151
-365.712	-1.432	0.288	-0.204
-364.698	183.540	0.205	0.303
-363.683	-99.200	0.280	-0.071
-362.669	267.513	0.065	0.114
-361.654	-13.387	-0.080	-0.052
-360.639	-79.251	-0.195	0.066
-359.625	124.293	-0.211	-0.266
-358.610	-200.000	-0.033	-0.445
-357.596	-200.000	0.002	0.028
-356.581	800.000	-0.039	0.145
-355.566	91.194	-0.120	-0.136
-354.552	449.917	-0.039	-0.086
-353.537	-200.000	0.001	0.121
-352.523	-106.114	0.209	0.047
-351.508	730.310	-0.113	0.304
-350.493	-156.375	-0.203	-0.013
-349.479	-113.214	0.255	-0.050
-348.464	800.000	-0.051	-0.154
-347.450	-109.459	-0.359	0.076
-346.435	-200.000	0.018	-0.155
-345.420	-200.000	0.004	-0.124
-344.406	78.727	0.327	-0.351
-343.391	317.670	-0.114	-0.217
-342.377	563.956	0.112	-0.273
-341.362	-83.561	0.132	0.042
-340.348	800.000	0.078	0.324
-339.333	-151.386	-0.248	0.018
-338.318	-200.000	-0.036	0.378
-337.304	-124.930	-0.103	0.016
-336.289	759.976	0.036	-0.097
-335.275	687.453	0.043	-0.114
-334.260	283.161	-0.078	0.140
-333.245	414.952	-0.100	0.214
-332.231	253.238	-0.104	0.177
-331.216	-62.567	0.383	0.159
-330.202	-152.365	-0.060	0.004
-329.187	-35.932	-0.096	-0.052
-328.172	34.926	0.065	0.057
-327.158	-118.536	0.192	-0.034
-326.143	-110.808	0.207	-0.043
-325.129	131.260	-0.118	-0.152
-324.114	-200.000	-0.011	-0.079
-323.099	-200.000	0.031	0.212
-322.085	263.270	0.062	-0.108
-321.070	-47.189	0.122	0.060
-320.056	-50.243	0.259	0.123
-319.041	800.000	0.089	0.289
-318.026	-162.982	-0.209	0.010
-317.012	-200.000	0.263	0.000
-315.997	33.650	-0.208	0.181
-314.983	644.913	-0.041	-0.105
-313.968	-144.118	0.120	-0.011
-312.953	800.000	0.076	-0.234
-311.939	18.703	0.106	-0.085
-310.924	154.898	-0.028	-0.038
-309.910	77.497	-0.214	0.228
-308.895	165.113	-0.158	-0.223
-307.880	-95.208	-0.108	-0.029
-306.866	-200.000	0.007	-0.136
-305.851	-200.000	-0.053	-0.259
-304.837	-177.108	-0.246	0.006
-303.822	-195.635	0.105	0.001
-302.807	-200.000	-0.023	-0.186
-301.793	-69.821	0.154	0.059
-300.778	84.564	0.063	-0.069
-299.764	415.831	0.060	0.128
-298.749	-200.000	0.011	0.167
-297.735	-200.000	-0.002	0.216
-296.720	800.000	0.028	-0.090
-295.705	84.744	0.160	-0.175
-294.691	-200.000	0.025	0.155
-293.676	-118.795	0.119	-0.021
-292.662	-46.094	0.263	0.130
-291.647	4.850	-0.391	0.288
-290.632	-200.000	0.001	-0.117
-289.618	147.004	0.101	0.136
-288.603	-200.000	-0.018	0.363
-287.589	38.267	0.109	-0.097
-286.574	36.833	0.200	-0.176
-285.559	-54.854	0.277	0.125
-284.545	309.823	0.194	-0.363
-283.530	-4.565	0.405	-0.280
-282.516	800.000	0.017	0.056
-281.501	13.956	0.100	-0.078
-280.486	-28.957	0.384	0.220
-279.472	99.378	-0.183	0.212
-278.457	-200.000	-0.021	-0.170
-277.443	66.255	0.379	0.385
-276.428	-146.077	-0.157	0.014
-275.413	61.369	-0.172	-0.171
-274.399	-173.156	0.497	0.015
-273.384	520.546	0.044	0.103
-272.370	71.871	-0.164	0.170
-271.355	37.060	-0.133	-0.117
-270.340	-200.000	0.041	0.222
-269.326	-200.000	0.015	0.220
-268.311	26.315	0.204	0.171
-267.297	13.692	0.206	-0.160
-266.282	-87.576	-0.145	0.044
-265.267	-200.000	0.014	-0.109
-264.253	104.050	0.194	0.228
-263.238	283.779	0.072	0.129
-262.224	549.188	0.084	0.202
-261.209	206.808	-0.037	0.057
-260.195	-18.105	-0.485	0.303
-259.180	-145.572	-0.076	-0.007
-258.165	-200.000	0.083	-0.569
-257.151	-146.593	0.266	0.023
-256.136	-67.548	-0.276	-0.108
-255.122	-47.599	-0.278	-0.135
-254.107	36.415	-0.210	-0.185
-253.092	48.243	-0.116	-0.109
-252.078	-93.436	-0.203	0.056
-251.063	480.763	-0.119	-0.269
-250.049	-200.000	-0.037	-0.186
-249.034	-200.000	0.037	-0.381
-248.019	-55.209	-0.105	0.047
-247.005	444.667	-0.150	-0.329
-245.990	75.287	0.308	-0.324
-244.976	-118.394	0.092	0.016
-243.961	-117.655	-0.142	-0.025
-242.946	-200.000	-0.015	-0.145
-241.932	-2.625	0.325	0.227
-240.917	800.000	0.048	0.193
-239.903	37.779	0.177	0.157
-238.888	90.533	-0.115	0.129
-237.873	234.092	0.244	0.401
-236.859	656.562	-0.073	-0.187
-235.844	-79.391	0.195	-0.066
-234.830	146.169	-0.127	0.170
-233.815	181.851	-0.051	-0.075
-232.800	36.773	0.074	-0.066
-231.786	-200.000	-0.023	0.152
-230.771	-140.362	-0.197	-0.020
-229.757	97.414	0.066	-0.076
-228.742	-14.542	-0.316	-0.203
-227.727	-138.957	-0.131	0.014
-226.713	-113.830	-0.105	-0.020
-225.698	-200.000	-0.019	-0.148
-224.684	-99.248	0.247	-0.062
-223.669	295.453	-0.200	0.365
-222.655	387.788	-0.054	0.112
-221.640	179.456	0.116	-0.169
-220.625	800.000	0.066	0.209
-219.611	-200.000	-0.027	0.214
-218.596	-200.000	-0.017	0.460
-217.582	189.283	-0.196	0.293
-216.567	-104.754	-0.260	-0.060
-215.552	90.595	0.083	-0.093
-214.538	-48.347	0.176	0.084
-213.523	194.015	-0.014	-0.021
-212.509	-45.332	0.237	-0.117
-211.494	-200.000	-0.006	-0.222
-210.479	526.699	0.057	0.133
-209.465	-163.208	0.299	0.014
-208.450	800.000	-0.021	0.076
-207.436	-31.096	-0.386	0.217
-206.421	-142.843	-0.178	-0.017
-205.406	136.382	-0.042	-0.055
-204.392	-200.000	0.018	-0.084
-203.377	800.000	-0.092	0.388
-202.363	107.067	-0.071	0.084
-201.348	-200.000	-0.049	-0.236
-200.333	353.181	-0.041	-0.082
-199.319	74.100	-0.205	0.214
-198.304	-1.010	0.110	-0.078
-197.290	-5.179	0.072	-0.049
-196.275	19.966	0.196	0.158
-195.260	285.875	0.089	-0.159
-194.246	-103.474	-0.357	0.084
-193.231	-153.440	0.138	0.010
-192.217	361.306	0.116	-0.232
-191.202	-101.218	0.369	0.090
-190.187	800.000	0.049	0.151
-189.173	155.766	0.100	0.138
-188.158	-130.139	0.146	0.020
-187.144	-97.167	-0.141	0.037
-186.129	-19.279	-0.243	0.150
-185.114	-174.080	-0.333	0.010
-184.100	800.000	0.040	-0.113
-183.085	162.395	-0.201	0.280
-182.071	-56.547	0.015	0.007
-181.056	174.667	-0.153	-0.220
-180.042	596.026	-0.140	-0.345
-179.027	800.000	0.045	0.143
-178.012	147.096	0.261	0.350
-176.998	800.000	-0.148	-0.418
-175.983	-102.683	0.262	0.062
-174.969	-71.862	-0.359	-0.133
-173.954	296.210	0.211	-0.385
-172.939	97.205	-0.075	0.085
-171.925	-31.047	-0.171	0.096
-170.910	194.320	0.156	-0.236
-169.896	684.247	-0.162	-0.421
-168.881	-74.392	-0.126	-0.045
-167.866	126.528	-0.263	0.332
-166.852	800.000	0.032	-0.131
-165.837	-105.709	-0.080	-0.018
-164.823	-163.123	-0.132	-0.006
-163.808	-200.000	-0.036	0.156
-162.793	-200.000	0.002	0.193
-161.779	18.240	0.077	-0.061
-160.764	-200.000	0.026	-0.122
-159.750	27.406	0.247	0.207
-158.735	800.000	0.066	0.229
-157.720	-172.612	0.271	0.008
-156.706	-56.085	0.365	0.162
-155.691	-12.178	-0.235	-0.153
-154.677	-117.804	-0.057	-0.010
-153.662	-85.309	-0.304	0.094
-152.647	750.398	-0.084	0.225
-151.633	800.000	-0.060	0.169
-150.618	73.009	-0.149	0.155
-149.604	-89.022	-0.039	-0.011
-148.589	-63.877	-0.095	-0.039
-147.574	613.990	0.048	0.120
-146.560	-42.500	-0.097	0.049
-145.545	-24.704	-0.187	-0.110
-144.531	-200.000	-0.007	-0.119
-143.516	-104.563	-0.197	0.045
-142.502	69.047	0.096	-0.098
-141.487	-96.798	-0.031	0.008
-140.472	206.799	0.219	0.339
-139.458	337.344	-0.053	0.102
-138.443	-200.000	0.069	0.327
-137.429	52.669	0.143	-0.136
-136.414	39.813	0.279	0.249
-135.399	800.000	0.047	-0.184
-134.385	-107.676	0.053	-0.012
-133.370	497.718	-0.204	-0.466
-132.356	-130.420	-0.273	-0.037
-131.341	-16.823	-0.224	-0.141
-130.326	-200.000	0.012	0.134
-129.312	-85.721	-0.242	-0.075
-128.297	453.690	-0.164	-0.360
-127.283	561.012	0.083	0.201
-126.268	-84.907	-0.399	-0.125
-125.253	-200.000	0.040	0.208
-124.239	-200.000	-0.050	0.276
-123.224	119.589	0.137	-0.169
-122.210	141.845	0.160	-0.211
