DTS Sentinel unit serial number:	SN413079Multiplexer serial number:	ORYXHardware model number:	OX4-SRSoftware version number:	ORYX F/W v4.00 Oryx Data Collector v3.7.2.0data status	okinstallation	princeton_trtdifferential loss correction	single-endedforward channel	channel 1reverse channel	N/Adate	2019/09/13time	01:42:35forward acquisition time	60.00reverse acquisition time	0.00gamma	496.2192k internal	0.2331k external	0.2331temperature offset calibration	1.0148default loss term (dB/km)	0.3790temperature slope calibration	1.0000multiplexer offset coefficient	1.0000multiplexer slope coefficient	1.0000fibre end	0.00T internal ref (°C)	27.75T ext. ref 1 (°C)	3.79T ext. ref 2 (°C)	22.36length (m)	temperature (°C)	Stokes	anti-Stokes-747.200	-134.083	0.193	0.024
-746.185	-67.193	-0.233	0.092
-745.171	-106.825	-0.327	0.073
-744.156	-88.866	0.096	-0.029
-743.142	-200.000	0.030	0.261
-742.127	60.257	-0.209	0.208
-741.112	-8.708	-0.354	0.239
-740.098	-28.181	-0.204	-0.119
-739.083	-67.418	0.072	0.028
-738.069	-105.202	-0.101	0.023
-737.054	338.878	-0.050	0.097
-736.039	-80.491	0.109	-0.037
-735.025	-200.000	-0.005	0.107
-734.010	-174.076	0.145	0.004
-732.996	-110.162	-0.580	-0.122
-731.981	131.744	-0.106	0.137
-730.966	-140.285	0.361	-0.038
-729.952	-200.000	0.004	0.024
-728.937	-66.707	-0.445	-0.177
-727.923	-160.334	-0.127	-0.007
-726.908	-200.000	0.056	0.264
-725.894	133.143	0.110	-0.143
-724.879	452.131	-0.188	0.419
-723.864	-29.204	-0.038	0.022
-722.850	800.000	-0.135	-0.384
-721.835	-79.057	-0.171	0.058
-720.821	325.850	-0.039	-0.076
-719.806	273.049	0.010	-0.017
-718.791	104.522	0.189	0.223
-717.777	-200.000	-0.001	-0.324
-716.762	175.651	-0.261	-0.380
-715.748	-59.056	0.115	0.050
-714.733	203.656	-0.132	0.205
-713.718	-200.000	-0.023	-0.203
-712.704	-200.000	0.030	-0.292
-711.689	-200.000	-0.096	-0.454
-710.675	53.560	0.153	-0.147
-709.660	-200.000	0.055	-0.246
-708.645	67.392	0.220	0.225
-707.631	-20.757	0.126	-0.078
-706.616	-18.046	0.269	-0.170
-705.602	800.000	0.054	0.201
-704.587	-200.000	0.025	0.267
-703.572	-111.857	0.109	-0.022
-702.558	34.634	-0.322	-0.283
-701.543	-108.311	0.299	0.065
-700.529	-200.000	-0.019	-0.155
-699.514	-102.707	0.053	-0.013
-698.499	800.000	0.043	-0.143
-697.485	227.826	-0.176	0.288
-696.470	65.454	-0.264	0.268
-695.456	800.000	0.124	0.366
-694.441	97.426	-0.244	-0.282
-693.426	-122.377	-0.158	0.026
-692.412	-96.054	0.229	0.061
-691.397	418.711	0.041	0.088
-690.383	324.439	-0.026	0.050
-689.368	7.550	-0.290	-0.218
-688.354	36.246	0.018	0.016
-687.339	650.096	-0.145	0.372
-686.324	-200.000	-0.001	0.075
-685.310	-52.541	0.283	0.132
-684.295	-138.578	-0.512	-0.056
-683.281	131.591	-0.175	0.225
-682.266	-200.000	-0.011	-0.102
-681.251	13.062	-0.373	-0.290
-680.237	160.996	-0.030	-0.042
-679.222	44.905	-0.178	-0.164
-678.208	115.451	0.179	-0.220
-677.193	179.819	0.056	0.082
-676.178	267.212	0.088	-0.155
-675.164	-10.750	-0.110	-0.073
-674.149	45.066	-0.091	-0.084
-673.135	-149.897	0.279	0.022
-672.120	-200.000	0.016	0.137
-671.105	-31.747	0.375	-0.211
-670.091	52.490	0.349	-0.334
-669.076	-200.000	0.008	-0.272
-668.062	-200.000	-0.014	0.207
-667.047	192.503	-0.127	-0.192
-666.032	-200.000	0.011	-0.326
-665.018	-39.069	-0.033	-0.017
-664.003	93.902	-0.151	-0.172
-662.989	1.462	-0.180	-0.130
-661.974	40.469	0.139	-0.126
-660.959	133.840	-0.209	0.271
-659.945	412.395	-0.127	-0.272
-658.930	-69.279	0.337	-0.130
-657.916	-82.603	-0.148	0.048
-656.901	-132.237	0.156	0.020
-655.886	86.159	0.097	-0.107
-654.872	167.666	-0.180	0.256
-653.857	128.609	0.096	-0.123
-652.843	208.520	-0.228	-0.357
-651.828	-45.491	0.171	0.085
-650.814	97.825	-0.182	-0.210
-649.799	800.000	-0.092	-0.325
-648.784	-200.000	-0.026	-0.176
-647.770	800.000	0.158	0.448
-646.755	-111.601	0.265	-0.054
-645.741	-138.284	0.166	0.018
-644.726	-94.628	-0.277	-0.075
-643.711	-69.228	-0.105	-0.040
-642.697	-200.000	-0.004	0.367
-641.682	-51.083	0.101	-0.047
-640.668	-79.617	-0.169	-0.057
-639.653	133.893	0.025	0.032
-638.638	122.754	0.098	0.123
-637.624	-53.751	0.082	0.038
-636.609	-173.622	0.347	-0.010
-635.595	369.648	-0.043	0.088
-634.580	-200.000	-0.014	-0.123
-633.565	-200.000	-0.014	0.119
-632.551	800.000	-0.034	-0.121
-631.536	-83.678	0.205	-0.066
-630.522	-170.037	-0.130	-0.005
-629.507	800.000	-0.020	0.072
-628.492	129.179	0.042	0.054
-627.478	142.545	-0.074	0.098
-626.463	-48.757	0.296	0.143
-625.449	-131.434	0.143	0.019
-624.434	-46.774	0.255	-0.125
-623.419	-200.000	-0.022	-0.183
-622.405	-20.204	0.135	0.083
-621.390	-34.732	0.358	-0.196
-620.376	-108.938	-0.129	-0.028
-619.361	128.150	-0.191	-0.244
-618.346	-94.355	-0.189	0.052
-617.332	-200.000	0.027	0.363
-616.317	28.889	-0.243	0.206
-615.303	800.000	0.048	0.177
-614.288	252.761	0.159	-0.271
-613.273	59.993	-0.236	-0.233
-612.259	-200.000	0.040	0.364
-611.244	462.183	0.107	-0.240
-610.230	138.280	-0.239	-0.314
-609.215	-123.653	0.292	-0.046
-608.201	-32.870	0.215	0.119
-607.186	19.350	0.132	-0.106
-606.171	-110.331	0.095	-0.020
-605.157	3.624	-0.251	-0.183
-604.142	-157.015	-0.240	0.015
-603.128	-200.000	0.012	0.069
-602.113	-113.803	0.052	0.010
-601.098	10.060	-0.195	0.148
-600.084	497.441	0.052	-0.119
-599.069	-200.000	-0.011	0.210
-598.055	-200.000	0.007	-0.132
-597.040	800.000	-0.016	-0.057
-596.025	-168.890	-0.169	0.006
-595.011	-60.638	-0.270	0.115
-593.996	275.132	-0.046	-0.081
-592.982	-36.556	0.170	-0.091
-591.967	60.182	0.057	0.056
-590.952	318.614	0.122	-0.232
-589.938	-68.407	0.150	0.058
-588.923	140.410	-0.157	0.208
-587.909	-106.245	-0.108	-0.024
-586.894	-131.313	0.053	-0.007
-585.879	54.193	0.177	-0.170
-584.865	800.000	0.032	-0.125
-583.850	414.875	0.116	-0.248
-582.836	219.684	-0.184	0.294
-581.821	55.666	-0.133	-0.129
-580.806	-200.000	0.032	0.157
-579.792	-50.345	0.195	0.092
-578.777	777.366	0.031	0.084
-577.763	-130.781	0.095	0.013
-576.748	800.000	0.140	-0.407
-575.733	-152.451	-0.076	0.005
-574.719	701.180	0.093	0.245
-573.704	71.186	-0.303	-0.314
-572.690	-200.000	0.045	-0.600
-571.675	204.577	-0.158	0.245
-570.661	-46.271	-0.155	0.076
-569.646	-20.816	0.244	-0.150
-568.631	-187.498	0.232	0.003
-567.617	-158.045	-0.210	-0.012
-566.602	9.484	-0.238	-0.180
-565.588	16.309	-0.109	0.086
-564.573	-44.352	0.310	-0.155
-563.558	-200.000	0.034	0.205
-562.544	-175.974	0.213	-0.006
-561.529	-200.000	0.034	0.154
-560.515	-93.895	-0.269	-0.074
-559.500	-200.000	-0.009	-0.095
-558.485	-200.000	-0.031	-0.215
-557.471	-114.335	-0.056	0.011
-556.456	800.000	-0.072	-0.296
-555.442	35.328	0.149	0.130
-554.427	800.000	0.080	-0.296
-553.412	-200.000	0.011	-0.124
-552.398	-13.142	-0.076	-0.049
-551.383	300.564	-0.102	-0.188
-550.369	80.227	-0.148	0.159
-549.354	-200.000	-0.001	0.146
-548.339	242.870	0.199	-0.333
-547.325	-16.301	-0.423	0.268
-546.310	-158.626	-0.251	-0.014
-545.296	-133.320	-0.146	-0.018
-544.281	-200.000	0.002	-0.217
-543.266	336.588	0.114	0.222
-542.252	-200.000	-0.009	-0.195
-541.237	-200.000	0.049	0.316
-540.223	-55.877	0.163	0.073
-539.208	-61.741	0.368	-0.154
-538.193	505.155	-0.030	0.069
-537.179	-200.000	-0.032	-0.178
-536.164	-81.133	-0.130	-0.043
-535.150	119.997	-0.132	0.163
-534.135	359.325	0.127	-0.254
-533.121	-97.882	-0.290	0.075
-532.106	-87.994	-0.127	0.038
-531.091	11.890	-0.091	0.070
-530.077	-62.702	0.399	0.165
-529.062	-65.595	0.312	0.125
-528.048	-29.281	0.209	0.120
-527.033	27.966	-0.087	-0.073
-526.018	-87.391	-0.270	0.082
-525.004	34.377	0.175	0.152
-523.989	800.000	0.074	0.313
-522.975	-83.386	0.267	0.086
-521.960	-114.791	-0.051	-0.010
-520.945	-135.826	0.313	0.037
-519.931	321.127	-0.078	-0.147
-518.916	800.000	-0.144	-0.440
-517.902	153.825	0.064	0.088
-516.887	109.176	0.067	-0.080
-515.872	-58.269	0.143	-0.062
-514.858	-200.000	0.005	-0.030
-513.843	102.924	-0.100	0.117
-512.829	72.513	-0.121	0.126
-511.814	-79.843	-0.193	0.065
-510.799	-200.000	-0.046	-0.299
-509.785	-122.236	0.200	0.033
-508.770	267.619	0.101	-0.177
-507.756	-3.958	0.283	-0.196
-506.741	-200.000	0.254	-0.001
-505.726	44.980	0.036	0.033
-504.712	154.329	0.068	-0.093
-503.697	-112.117	0.323	0.065
-502.683	176.498	-0.088	0.128
-501.668	-200.000	-0.006	0.321
-500.653	180.896	-0.160	0.235
-499.639	800.000	0.081	0.236
-498.624	22.608	-0.177	-0.145
-497.610	-200.000	-0.023	-0.285
-496.595	-20.873	0.254	-0.155
-495.581	-119.632	0.318	-0.055
-494.566	267.312	0.175	0.306
-493.551	33.140	-0.178	0.154
-492.537	37.527	-0.240	-0.213
-491.522	-53.451	0.372	0.170
-490.508	-39.959	0.207	0.108
-489.493	-200.000	-0.027	0.157
-488.478	-150.654	0.184	-0.014
-487.464	673.135	-0.040	-0.104
-486.449	-1.181	0.079	-0.056
-485.435	178.623	0.100	-0.146
-484.420	-18.329	-0.218	0.136
-483.405	-106.352	0.181	0.040
-482.391	-52.637	-0.220	-0.101
-481.376	-138.754	-0.278	0.030
-480.362	-38.843	0.132	-0.069
-479.347	-200.000	0.033	0.149
-478.332	157.771	-0.171	-0.237
-477.318	201.767	0.063	-0.097
-476.303	-200.000	-0.016	0.314
-475.289	-200.000	-0.007	-0.136
-474.274	-119.643	0.276	-0.048
-473.259	154.503	-0.016	-0.022
-472.245	-200.000	0.029	0.150
-471.230	-200.000	0.021	0.110
-470.216	-10.682	0.194	-0.128
-469.201	426.684	0.116	-0.248
-468.186	464.680	0.140	-0.312
-467.172	-198.746	-0.192	-0.001
-466.157	-200.000	0.002	-0.160
-465.143	-1.408	0.313	-0.220
-464.128	-67.757	0.275	0.107
-463.113	97.456	0.200	-0.229
-462.099	-34.018	-0.107	-0.058
-461.084	800.000	0.042	-0.182
-460.070	-164.483	0.169	0.008
-459.055	800.000	0.033	-0.095
-458.040	-94.947	-0.378	-0.102
-457.026	44.225	0.099	0.090
-456.011	117.733	0.062	0.076
-454.997	-61.277	0.296	-0.124
-453.982	145.961	0.223	-0.297
-452.968	124.246	-0.158	0.198
-451.953	-5.070	0.359	-0.246
-450.938	-98.890	0.157	-0.040
-449.924	82.592	0.190	-0.206
-448.909	31.243	-0.192	-0.164
-447.895	77.367	-0.064	-0.068
-446.880	275.293	0.087	0.154
-445.865	-200.000	-0.034	0.287
-444.851	61.698	-0.030	-0.030
-443.836	-122.195	-0.108	-0.018
-442.822	-12.281	-0.103	-0.067
-441.807	800.000	0.049	-0.183
-440.792	-105.113	-0.080	0.018
-439.778	-47.265	-0.108	-0.052
-438.763	-103.226	0.085	0.020
-437.749	147.064	-0.165	0.220
-436.734	-64.134	-0.332	-0.135
-435.719	-200.000	-0.015	-0.339
-434.705	-84.888	0.326	-0.102
-433.690	-108.262	-0.449	-0.096
-432.676	-138.010	0.217	-0.024
-431.661	-73.219	-0.113	0.041
-430.646	-33.142	0.293	-0.161
-429.632	-100.047	-0.140	-0.035
-428.617	186.484	0.074	-0.110
-427.603	-103.690	-0.347	0.081
-426.588	-12.339	-0.043	0.028
-425.573	-112.822	0.176	-0.035
-424.559	800.000	-0.044	0.129
-423.544	599.762	-0.027	0.066
-422.530	-200.000	0.224	0.001
-421.515	61.788	-0.179	0.178
-420.500	-28.214	0.079	0.045
-419.486	24.280	0.257	-0.211
-418.471	-58.119	-0.043	0.019
-417.457	501.740	0.069	0.159
-416.442	452.808	-0.123	0.271
-415.428	-183.437	0.337	-0.006
-414.413	-200.000	0.043	-0.225
-413.398	-23.098	-0.535	-0.320
-412.384	663.016	0.055	0.142
-411.369	800.000	0.033	0.139
-410.355	136.444	-0.138	0.179
-409.340	-124.081	0.274	0.043
-408.325	65.948	-0.113	0.114
-407.311	-75.298	-0.067	-0.024
-406.296	-48.929	0.150	-0.071
-405.282	-40.381	0.035	0.018
-404.267	-200.000	0.051	0.282
-403.252	1.839	-0.080	0.057
-402.238	268.854	-0.162	-0.282
-401.223	461.810	0.099	0.218
-400.209	-153.431	-0.036	0.002
-399.194	-200.000	0.012	0.225
-398.179	22.284	-0.335	-0.272
-397.165	-149.240	0.220	0.017
-396.150	-51.690	-0.159	0.073
-395.136	130.234	-0.277	0.352
-394.121	-98.060	-0.178	0.046
-393.106	-88.991	-0.178	0.052
-392.092	800.000	-0.037	-0.148
-391.077	-94.476	-0.194	0.053
-390.063	-64.815	-0.075	-0.030
-389.048	800.000	-0.097	-0.302
-388.033	-72.922	0.224	0.082
-387.019	101.635	-0.096	0.111
-386.004	800.000	-0.018	0.059
-384.990	-80.891	0.423	0.139
-383.975	-155.653	-0.250	-0.016
-382.960	-200.000	0.010	0.053
-381.946	-200.000	-0.041	0.212
-380.931	599.310	-0.119	0.292
-379.917	800.000	-0.107	0.361
-378.902	-155.158	0.395	0.026
-377.888	-97.651	0.137	0.035
-376.873	-68.129	0.137	-0.053
-375.858	51.272	-0.062	0.058
-374.844	85.573	-0.014	0.016
-373.829	-198.122	0.233	-0.001
-372.815	181.773	0.142	-0.207
-371.800	289.247	-0.067	0.120
-370.785	155.227	0.336	0.458
-369.771	73.894	0.174	0.180
-368.756	252.689	0.086	0.145
-367.742	800.000	-0.081	-0.251
-366.727	-142.153	-0.132	0.013
-365.712	-67.397	-0.115	-0.045
-364.698	249.122	-0.032	0.053
-363.683	-4.701	0.197	-0.135
-362.669	9.185	0.199	-0.149
-361.654	-45.659	-0.186	-0.091
-360.639	303.837	-0.100	0.185
-359.625	-73.452	0.406	0.147
-358.610	767.340	0.078	-0.210
-357.596	-113.278	0.094	-0.018
-356.581	-73.805	0.138	0.050
-355.566	-154.893	0.381	-0.025
-354.552	-140.171	-0.171	0.018
-353.537	791.890	0.130	-0.354
-352.523	313.022	-0.210	0.391
-351.508	-159.659	-0.168	-0.009
-350.493	764.361	-0.110	-0.296
-349.479	800.000	-0.134	0.415
-348.464	20.036	-0.178	0.143
-347.450	-22.038	-0.149	-0.090
-346.435	-200.000	-0.010	-0.487
-345.420	169.862	-0.045	0.064
-344.406	-40.788	-0.291	-0.149
-343.391	6.886	0.315	-0.233
-342.377	-95.116	-0.027	-0.007
-341.362	-85.283	-0.321	0.099
-340.348	-200.000	-0.041	-0.197
-339.333	-200.000	-0.007	0.121
-338.318	-64.213	0.178	-0.072
-337.304	20.066	0.247	0.198
-336.289	-200.000	-0.036	-0.302
-335.275	-33.704	-0.108	0.059
-334.260	2.898	-0.295	-0.212
-333.245	-57.468	-0.398	-0.173
-332.231	36.715	0.186	0.163
-331.216	800.000	-0.065	0.185
-330.202	667.165	-0.054	-0.139
-329.187	35.226	-0.245	-0.213
-328.172	-100.658	-0.263	0.064
-327.158	233.387	-0.147	-0.240
-326.143	592.082	0.027	-0.066
-325.129	-132.800	-0.340	-0.043
-324.114	-9.572	-0.168	0.111
-323.099	34.207	-0.241	-0.208
-322.085	-89.879	-0.249	-0.072
-321.070	18.013	-0.064	0.050
-320.056	-108.493	-0.244	-0.052
-319.041	-200.000	-0.033	0.188
-318.026	800.000	-0.013	0.037
-317.012	80.906	-0.126	0.135
-315.997	-200.000	-0.010	0.185
-314.983	-23.816	-0.244	0.145
-313.968	-24.407	0.184	0.108
-312.953	166.482	-0.036	0.050
-311.939	800.000	-0.011	-0.041
-310.924	-200.000	-0.051	-0.288
-309.910	94.925	0.189	-0.212
-308.895	-200.000	-0.057	0.261
-307.880	-105.558	0.001	0.000
-306.866	-200.000	-0.023	0.131
-305.851	1.413	0.216	-0.153
-304.837	198.725	-0.081	-0.123
-303.822	-65.782	0.335	0.133
-302.807	-91.761	-0.092	-0.026
-301.793	-104.230	-0.046	-0.011
-300.778	-59.964	0.158	0.067
-299.764	56.634	-0.253	-0.243
-298.749	-200.000	0.049	-0.294
-297.735	145.087	-0.155	0.205
-296.720	122.936	0.164	0.204
-295.705	93.324	0.069	0.077
-294.691	58.439	-0.125	-0.121
-293.676	-54.581	-0.309	0.138
-292.662	-135.761	-0.110	0.013
-291.647	338.637	-0.031	0.059
-290.632	81.141	0.066	0.070
-289.618	-86.229	-0.227	-0.069
-288.603	-45.560	-0.557	0.273
-287.589	171.986	-0.255	0.362
-286.574	-156.739	0.153	0.009
-285.559	12.918	-0.203	0.155
-284.545	-48.569	0.191	-0.091
-283.530	-185.829	-0.621	0.009
-282.516	-125.253	0.100	-0.015
-281.501	110.228	-0.163	-0.194
-280.486	-44.154	-0.237	-0.118
-279.472	29.827	0.127	-0.107
-278.457	-18.957	-0.135	-0.083
-277.443	18.201	0.090	0.071
-276.428	-200.000	0.010	0.075
-275.413	320.163	0.081	-0.152
-274.399	-200.000	-0.006	-0.108
-273.384	-126.296	0.197	-0.029
-272.370	-158.291	-0.356	-0.020
-271.355	0.193	-0.055	-0.039
-270.340	4.895	0.284	0.207
-269.326	-12.202	-0.265	-0.171
-268.311	175.543	0.104	-0.150
-267.297	207.494	-0.006	0.009
-266.282	356.651	0.145	0.286
-265.267	-26.972	0.081	0.047
-264.253	-200.000	0.022	-0.196
-263.238	80.372	-0.290	0.308
-262.224	800.000	0.096	0.302
-261.209	-45.221	-0.124	-0.061
-260.195	-90.596	0.367	-0.105
-259.180	-77.855	0.232	-0.079
-258.165	800.000	-0.108	-0.315
-257.151	800.000	0.034	0.117
-256.136	-200.000	-0.008	0.044
-255.122	766.021	0.025	-0.067
-254.107	800.000	0.043	0.163
-253.092	-200.000	-0.039	0.277
-252.078	-117.006	0.126	0.023
-251.063	246.997	0.134	0.223
-250.049	357.347	-0.130	-0.256
-249.034	502.190	-0.023	-0.052
-248.019	249.254	-0.076	0.128
-247.005	-101.079	-0.115	-0.028
-245.990	-109.768	0.073	0.015
-244.976	791.503	0.153	0.416
-243.961	-200.000	0.023	0.364
-242.946	-146.516	0.109	-0.009
-241.932	-145.117	0.121	-0.011
-240.917	553.011	0.037	-0.088
-239.903	-111.710	-0.422	-0.084
-238.888	-200.000	0.015	0.202
-237.873	-110.424	0.154	0.032
-236.859	-17.758	0.282	-0.174
-235.844	112.809	-0.155	-0.185
-234.830	-11.652	0.318	-0.206
-233.815	-90.289	0.036	-0.010
-232.800	-84.252	-0.334	-0.104
-231.786	161.793	0.093	-0.129
-230.771	-61.142	-0.077	0.032
-229.757	-68.204	-0.151	0.058
-228.742	-74.115	-0.092	-0.033
-227.727	24.477	-0.256	0.209
-226.713	-153.303	0.125	0.009
-225.698	-116.979	-0.250	-0.045
-224.684	-10.827	-0.219	0.143
-223.669	-116.264	0.238	-0.043
-222.655	800.000	-0.057	-0.205
-221.640	97.973	0.082	-0.093
-220.625	-200.000	0.007	0.340
-219.611	-18.853	0.074	0.046
-218.596	-11.922	0.039	-0.025
-217.582	241.237	0.085	0.139
-216.567	-64.817	-0.258	-0.103
-215.552	-200.000	-0.064	-0.309
-214.538	800.000	0.094	0.285
-213.523	218.637	-0.156	-0.245
-212.509	-91.860	-0.239	0.067
-211.494	711.676	-0.044	0.115
-210.479	-69.386	-0.210	-0.079
-209.465	269.353	0.117	-0.202
-208.450	244.070	-0.148	0.245
-207.436	-200.000	0.039	-0.226
-206.421	-107.254	0.353	0.077
-205.406	-36.028	-0.157	-0.084
-204.392	158.345	0.066	-0.090
-203.377	161.241	-0.062	0.086
-202.363	-200.000	-0.065	0.297
-201.348	-200.000	0.010	0.145
-200.333	-109.542	-0.153	-0.032
-199.319	-93.284	-0.175	0.048
-198.304	83.987	-0.100	-0.108
-197.290	-70.627	0.352	0.131
-196.275	-68.185	0.277	-0.106
-195.260	138.660	-0.039	0.050
-194.246	800.000	-0.019	0.070
-193.231	315.162	-0.138	0.257
-192.217	-153.145	0.415	-0.029
-191.202	185.975	-0.039	0.057
-190.187	-36.118	0.206	0.110
-189.173	196.415	-0.100	-0.150
-188.158	119.236	-0.049	0.059
-187.144	528.970	0.195	-0.453
-186.129	83.737	0.186	0.199
-185.114	-194.461	0.512	-0.004
-184.100	-200.000	0.040	-0.206
-183.085	800.000	0.041	-0.139
-182.071	-5.664	0.150	-0.101
-181.056	197.782	-0.059	0.088
-180.042	-200.000	-0.023	-0.169
-179.027	-27.724	-0.186	-0.106
-178.012	446.576	-0.099	0.214
-176.998	584.545	0.066	0.160
-175.983	59.092	0.150	-0.145
-174.969	-200.000	-0.073	0.465
-173.954	-71.328	0.171	-0.063
-172.939	158.514	-0.249	0.340
-171.925	800.000	-0.119	-0.376
-170.910	800.000	-0.019	-0.062
-169.896	352.100	0.040	-0.078
-168.881	-182.003	-0.429	0.008
-167.866	453.761	0.149	-0.325
-166.852	36.833	-0.147	0.128
-165.837	-200.000	0.010	0.056
-164.823	-135.182	-0.215	-0.025
-163.808	236.571	0.156	-0.255
-162.793	-53.585	0.129	0.058
-161.779	92.577	-0.156	0.173
-160.764	-200.000	0.055	0.522
-159.750	-72.580	0.105	0.038
-158.735	-95.282	-0.284	0.075
-157.720	-26.535	-0.136	-0.079
-156.706	306.950	0.088	0.162
-155.691	211.612	-0.158	0.245
-154.677	169.595	-0.072	0.101
-153.662	-69.127	0.053	-0.020
-152.647	145.441	0.210	0.277
-151.633	-79.200	0.444	0.148
-150.618	302.459	-0.168	-0.305
-149.604	-42.345	-0.366	0.184
-148.589	-14.841	0.338	0.214
-147.574	644.809	0.065	-0.163
-146.560	-128.924	0.259	-0.036
-145.545	212.173	0.054	0.083
-144.531	116.017	0.116	0.139
-143.516	800.000	-0.121	-0.342
-142.502	-72.743	0.185	-0.067
-141.487	144.880	-0.127	0.167
-140.472	800.000	-0.094	-0.376
-139.458	207.521	0.126	-0.194
-138.443	800.000	0.074	-0.248
-137.429	263.246	-0.056	-0.095
-136.414	-116.749	-0.124	0.022
-135.399	-38.090	0.164	-0.085
-134.385	-159.140	0.206	-0.011
-133.370	62.755	0.183	0.180
-132.356	-48.765	-0.170	-0.080
-131.341	-200.000	0.001	-0.237
-130.326	-105.111	0.444	-0.100
-129.312	-111.741	0.730	-0.145
-128.297	800.000	-0.037	-0.138
-127.283	-16.254	0.057	-0.035
-126.268	-10.556	-0.104	-0.067
-125.253	170.768	0.165	-0.233
-124.239	47.122	0.228	0.209
-123.224	-200.000	-0.068	0.370
-122.210	200.399	0.094	-0.142
