DTS Sentinel unit serial number:	SN413079Multiplexer serial number:	ORYXHardware model number:	OX4-SRSoftware version number:	ORYX F/W v4.00 Oryx Data Collector v3.7.2.0data status	okinstallation	princeton_trtdifferential loss correction	single-endedforward channel	channel 1reverse channel	N/Adate	2019/09/14time	07:06:35forward acquisition time	60.00reverse acquisition time	0.00gamma	496.2192k internal	0.2337k external	0.2337temperature offset calibration	1.0079default loss term (dB/km)	0.3790temperature slope calibration	1.0000multiplexer offset coefficient	1.0000multiplexer slope coefficient	1.0000fibre end	0.00T internal ref (°C)	26.19T ext. ref 1 (°C)	3.42T ext. ref 2 (°C)	20.93length (m)	temperature (°C)	Stokes	anti-Stokes-747.200	-200.000	-0.049	-0.580
-746.185	383.195	-0.034	-0.069
-745.171	342.678	-0.063	-0.124
-744.156	800.000	-0.127	0.400
-743.142	-200.000	0.162	0.000
-742.127	-149.573	-0.398	-0.032
-741.112	-123.038	0.235	-0.038
-740.098	-77.028	0.027	0.010
-739.083	-19.756	-0.180	0.111
-738.069	800.000	-0.081	-0.246
-737.054	-200.000	-0.030	0.496
-736.039	70.877	-0.159	-0.166
-735.025	455.940	0.119	0.264
-734.010	25.798	-0.103	0.086
-732.996	800.000	-0.093	0.290
-731.981	399.056	-0.237	-0.498
-730.966	96.518	-0.156	-0.180
-729.952	-10.979	0.252	-0.167
-728.937	181.413	-0.120	-0.177
-727.923	240.089	-0.046	0.078
-726.908	-99.677	0.178	-0.045
-725.894	800.000	0.058	0.173
-724.879	208.074	0.169	-0.264
-723.864	-11.909	-0.110	-0.072
-722.850	-174.344	0.356	0.010
-721.835	-200.000	-0.011	0.217
-720.821	135.944	-0.069	-0.090
-719.806	-98.524	-0.225	-0.058
-718.791	800.000	0.049	-0.204
-717.777	5.066	-0.107	-0.079
-716.762	-66.680	0.150	0.060
-715.748	800.000	0.061	-0.179
-714.733	58.923	-0.419	-0.413
-713.718	-128.655	-0.208	0.029
-712.704	437.386	0.160	-0.349
-711.689	-113.585	-0.169	0.033
-710.675	-97.497	0.358	-0.093
-709.660	-99.509	0.247	-0.062
-708.645	-200.000	-0.003	-0.185
-707.631	-200.000	-0.028	-0.140
-706.616	44.166	-0.173	-0.159
-705.602	-59.795	-0.060	-0.026
-704.587	-87.922	0.138	0.042
-703.572	79.439	-0.147	-0.158
-702.558	149.223	-0.030	0.041
-701.543	-108.611	-0.110	-0.024
-700.529	-109.177	0.173	-0.037
-699.514	-200.000	0.002	-0.044
-698.499	-7.493	0.199	-0.135
-697.485	15.211	0.113	-0.089
-696.470	-161.542	-0.123	-0.006
-695.456	278.866	0.054	0.096
-694.441	381.939	-0.016	-0.032
-693.426	-105.663	-0.142	0.032
-692.412	577.831	0.132	0.322
-691.397	-200.000	0.009	0.213
-690.383	181.300	-0.129	0.190
-689.368	-200.000	-0.072	-0.320
-688.354	-200.000	-0.071	-0.311
-687.339	-143.521	-0.205	-0.020
-686.324	-112.771	0.339	-0.067
-685.310	-200.000	-0.000	0.018
-684.295	800.000	-0.074	0.243
-683.281	800.000	0.025	0.085
-682.266	-200.000	0.038	-0.186
-681.251	5.468	-0.043	-0.032
-680.237	-139.044	0.405	-0.044
-679.222	-128.108	0.108	0.015
-678.208	-45.865	0.112	-0.055
-677.193	329.584	0.107	-0.206
-676.178	-200.000	-0.019	0.152
-675.164	77.974	-0.093	-0.099
-674.149	466.450	-0.184	-0.412
-673.135	51.423	0.252	0.240
-672.120	-96.262	0.212	0.056
-671.105	-66.952	-0.161	-0.064
-670.091	62.460	0.162	-0.162
-669.076	-30.175	0.071	0.040
-668.062	-33.626	0.062	0.034
-667.047	88.960	-0.166	-0.185
-666.032	-19.991	-0.093	-0.058
-665.018	149.339	0.077	0.105
-664.003	-36.338	-0.313	-0.169
-662.989	800.000	-0.062	-0.248
-661.974	-147.840	0.280	-0.023
-660.959	800.000	-0.023	-0.090
-659.945	249.106	0.123	0.208
-658.930	-88.715	0.068	-0.020
-657.916	-63.306	0.321	-0.132
-656.901	-200.000	-0.037	-0.162
-655.886	800.000	-0.054	0.177
-654.872	-70.391	0.252	-0.095
-653.857	800.000	-0.023	-0.092
-652.843	-90.454	0.203	-0.059
-651.828	-116.094	-0.194	-0.036
-650.814	328.165	-0.120	-0.229
-649.799	26.900	-0.198	0.166
-648.784	109.959	0.102	-0.122
-647.770	535.511	-0.059	-0.139
-646.755	-22.744	0.294	-0.178
-645.741	-34.241	-0.111	0.061
-644.726	-81.360	0.274	0.090
-643.711	214.572	-0.044	-0.069
-642.697	-200.000	0.005	-0.032
-641.682	-138.766	0.262	0.029
-640.668	-200.000	-0.036	0.192
-639.653	67.206	0.111	0.113
-638.638	85.679	-0.078	0.086
-637.624	-200.000	0.001	-0.066
-636.609	32.595	-0.182	-0.158
-635.595	-200.000	0.059	0.000
-634.580	124.061	0.109	-0.136
-633.565	68.200	-0.222	0.227
-632.551	127.295	-0.181	-0.229
-631.536	-200.000	0.028	0.133
-630.522	71.869	-0.076	-0.079
-629.507	238.250	0.123	0.204
-628.492	-200.000	0.046	0.214
-627.478	-200.000	-0.003	-0.143
-626.463	-200.000	0.010	0.105
-625.449	-200.000	-0.029	-0.140
-624.434	90.604	0.164	-0.183
-623.419	330.822	-0.137	-0.263
-622.405	-137.925	-0.151	0.017
-621.390	48.292	-0.223	-0.209
-620.376	155.567	0.075	0.104
-619.361	-200.000	-0.014	0.315
-618.346	-200.000	0.022	-0.272
-617.332	66.083	0.064	-0.064
-616.317	-89.982	0.040	-0.012
-615.303	-200.000	-0.016	-0.304
-614.288	141.003	0.187	-0.247
-613.273	-130.800	0.070	0.009
-612.259	-140.643	-0.102	-0.011
-611.244	-200.000	0.016	-0.354
-610.230	61.800	0.190	-0.189
-609.215	140.896	0.071	-0.094
-608.201	-200.000	0.012	-0.501
-607.186	550.899	0.041	0.098
-606.171	800.000	-0.049	-0.183
-605.157	-69.150	-0.221	-0.085
-604.142	-58.103	-0.068	-0.030
-603.128	156.166	-0.175	-0.242
-602.113	80.756	0.091	0.098
-601.098	-200.000	-0.025	-0.281
-600.084	138.051	0.072	-0.095
-599.069	-200.000	-0.008	-0.268
-598.055	550.113	0.191	-0.457
-597.040	68.616	-0.139	-0.143
-596.025	-171.794	-0.365	0.012
-595.011	162.454	-0.107	0.150
-593.996	-11.384	0.081	-0.053
-592.982	800.000	-0.054	0.172
-591.967	-200.000	0.005	0.091
-590.952	-200.000	0.009	-0.143
-589.938	-200.000	0.000	0.071
-588.923	159.511	-0.114	-0.158
-587.909	-200.000	0.020	0.181
-586.894	-6.415	-0.110	-0.075
-585.879	-117.244	-0.292	0.053
-584.865	118.738	-0.028	-0.035
-583.850	-119.112	-0.107	0.019
-582.836	60.780	0.114	0.113
-581.821	-124.231	-0.323	0.050
-580.806	-124.462	0.115	-0.018
-579.792	-32.354	0.152	0.085
-578.777	-71.134	-0.194	-0.073
-577.763	800.000	0.042	-0.153
-576.748	-12.542	0.245	-0.159
-575.733	-130.337	-0.258	0.035
-574.719	-110.238	-0.140	0.029
-573.704	-168.469	0.172	0.007
-572.690	-3.737	-0.214	-0.148
-571.675	-200.000	0.015	0.070
-570.661	226.775	-0.118	-0.191
-569.646	147.806	0.221	-0.297
-568.631	-76.755	0.226	0.079
-567.617	136.583	0.102	-0.133
-566.602	-200.000	-0.028	0.237
-565.588	424.426	0.172	0.368
-564.573	-143.131	0.281	-0.027
-563.558	-11.706	-0.225	0.148
-562.544	-200.000	-0.041	0.255
-561.529	-67.169	0.019	0.007
-560.515	66.653	-0.098	0.099
-559.500	800.000	0.074	-0.237
-558.485	89.651	0.117	0.130
-557.471	800.000	-0.059	-0.172
-556.456	403.655	-0.095	-0.199
-555.442	109.334	-0.277	-0.331
-554.427	564.269	0.073	-0.177
-553.412	-149.760	-0.415	-0.032
-552.398	-200.000	-0.035	0.390
-551.383	8.702	-0.138	-0.104
-550.369	-95.969	0.128	0.034
-549.354	254.686	0.142	-0.243
-548.339	20.340	-0.032	-0.026
-547.325	800.000	-0.088	0.289
-546.310	-200.000	-0.004	-0.026
-545.296	346.021	0.114	0.222
-544.281	-20.937	0.302	-0.184
-543.266	-54.016	0.177	-0.080
-542.252	172.323	0.156	0.224
-541.237	-67.566	-0.258	0.101
-540.223	112.793	0.152	-0.183
-539.208	94.584	-0.117	0.132
-538.193	651.269	0.123	-0.314
-537.179	660.941	0.148	-0.379
-536.164	-133.254	0.057	0.007
-535.150	496.098	0.127	0.291
-534.135	-25.169	0.237	-0.140
-533.121	-127.111	-0.360	0.052
-532.106	474.894	0.033	-0.073
-531.091	-183.068	0.124	-0.002
-530.077	76.434	-0.212	-0.224
-529.062	-59.209	0.519	-0.223
-528.048	-200.000	-0.008	-0.196
-527.033	-22.828	-0.194	0.117
-526.018	-200.000	0.011	-0.174
-525.004	-143.030	0.430	-0.041
-523.989	331.434	-0.022	-0.042
-522.975	326.131	0.093	-0.178
-521.960	2.325	0.052	-0.037
-520.945	-138.943	-0.108	0.012
-519.931	11.873	0.128	0.098
-518.916	-200.000	-0.005	-0.091
-517.902	68.220	0.340	0.347
-516.887	103.987	-0.099	0.116
-515.872	-4.290	-0.210	0.145
-514.858	-200.000	0.019	-0.124
-513.843	-149.914	0.242	-0.019
-512.829	-200.000	-0.002	-0.185
-511.814	385.813	0.078	0.161
-510.799	82.810	-0.275	-0.297
-509.785	-9.136	-0.170	0.113
-508.770	431.300	-0.140	0.301
-507.756	-27.958	0.143	0.082
-506.741	-200.000	-0.044	-0.200
-505.726	-50.525	0.090	-0.042
-504.712	-18.582	-0.366	0.227
-503.697	-200.000	-0.005	0.031
-502.683	-157.440	0.165	0.010
-501.668	-4.079	0.316	-0.218
-500.653	-200.000	-0.014	-0.326
-499.639	-11.958	0.348	-0.227
-498.624	-73.625	0.167	-0.060
-497.610	800.000	-0.047	0.144
-496.595	-200.000	0.002	0.326
-495.581	43.889	0.078	-0.071
-494.566	11.418	0.410	-0.312
-493.551	542.888	-0.085	-0.202
-492.537	800.000	0.090	0.314
-491.522	-78.555	0.112	0.038
-490.508	427.056	-0.161	-0.344
-489.493	-131.221	-0.089	0.012
-488.478	-200.000	-0.030	-0.263
-487.464	-84.271	-0.156	-0.049
-486.449	97.389	-0.105	0.120
-485.435	-200.000	0.024	-0.166
-484.420	234.173	-0.202	-0.331
-483.405	-200.000	-0.008	-0.071
-482.391	21.963	-0.069	-0.056
-481.376	800.000	-0.049	0.213
-480.362	192.298	0.025	-0.038
-479.347	21.303	0.213	-0.172
-478.332	-193.139	0.106	0.001
-477.318	-159.589	0.042	-0.002
-476.303	-3.553	-0.397	-0.274
-475.289	-94.867	-0.067	-0.018
-474.274	-14.561	-0.222	-0.142
-473.259	-200.000	-0.012	-0.151
-472.245	744.983	0.110	-0.293
-471.230	800.000	0.060	-0.242
-470.216	1.635	0.293	-0.210
-469.201	800.000	0.069	-0.193
-468.186	-64.685	-0.271	0.109
-467.172	-110.428	-0.192	-0.040
-466.157	368.926	-0.097	-0.195
-465.143	-63.834	0.293	-0.119
-464.128	800.000	-0.114	-0.478
-463.113	222.782	0.029	0.047
-462.099	-200.000	-0.009	-0.041
-461.084	130.856	-0.101	-0.128
-460.070	-200.000	0.026	0.442
-459.055	182.231	0.110	0.160
-458.040	-153.648	0.068	0.005
-457.026	194.744	-0.098	0.147
-456.011	63.571	-0.087	0.087
-454.997	-18.032	-0.237	0.147
-453.982	247.964	0.185	0.310
-452.968	297.680	-0.119	0.216
-451.953	36.370	0.136	0.119
-450.938	-200.000	0.023	-0.135
-449.924	93.739	0.120	-0.134
-448.909	-115.282	-0.219	0.041
-447.895	416.017	-0.107	-0.226
-446.880	-76.543	-0.192	-0.067
-445.865	-28.291	0.504	0.289
-444.851	-76.377	0.345	0.120
-443.836	169.339	0.104	0.147
-442.822	51.558	0.332	0.313
-441.807	251.679	0.175	-0.296
-440.792	800.000	-0.084	0.291
-439.778	-114.160	0.036	-0.007
-438.763	-200.000	0.009	0.189
-437.749	58.529	-0.117	-0.114
-436.734	112.514	-0.123	0.148
-435.719	800.000	-0.024	0.086
-434.705	-85.279	-0.204	-0.063
-433.690	10.348	-0.042	-0.031
-432.676	800.000	-0.070	-0.219
-431.661	40.510	0.127	0.113
-430.646	488.496	-0.074	-0.167
-429.632	85.126	-0.207	-0.225
-428.617	800.000	-0.130	0.398
-427.603	-17.036	-0.315	0.197
-426.588	-194.215	-0.227	0.002
-425.573	-135.408	0.287	-0.034
-424.559	-133.463	-0.083	0.010
-423.544	800.000	0.114	-0.330
-422.530	-124.810	-0.674	0.103
-421.515	800.000	0.047	0.170
-420.500	607.428	-0.107	-0.264
-419.486	-200.000	-0.003	-0.121
-418.471	-200.000	-0.006	0.031
-417.457	380.867	-0.119	-0.241
-416.442	78.946	-0.159	-0.169
-415.428	-49.133	0.209	-0.099
-414.413	609.733	-0.123	-0.304
-413.398	654.660	0.066	0.168
-412.384	16.621	0.095	-0.074
-411.369	63.591	-0.133	-0.132
-410.355	225.414	0.225	-0.362
-409.340	-200.000	-0.049	-0.212
-408.325	-35.090	-0.375	0.202
-407.311	-77.576	0.062	-0.021
-406.296	-32.851	0.156	0.086
-405.282	-98.159	0.254	-0.065
-404.267	-79.934	-0.123	-0.041
-403.252	74.356	0.195	0.203
-402.238	-200.000	0.005	-0.051
-401.223	344.025	0.086	-0.167
-400.209	-35.026	0.173	-0.094
-399.194	242.530	-0.046	-0.076
-398.179	-200.000	0.019	-0.385
-397.165	-200.000	0.007	0.115
-396.150	-19.524	0.198	-0.121
-395.136	8.771	-0.022	0.016
-394.121	-200.000	-0.006	-0.026
-393.106	-102.728	0.078	0.018
-392.092	-200.000	-0.004	0.237
-391.077	321.769	0.062	-0.117
-390.063	16.972	-0.271	0.213
-389.048	191.043	0.121	0.180
-388.033	800.000	0.062	-0.198
-387.019	-155.933	-0.166	0.010
-386.004	16.900	0.206	-0.162
-384.990	364.482	-0.028	0.057
-383.975	-94.279	-0.270	-0.073
-382.960	-71.075	0.263	0.098
-381.946	77.893	0.182	0.192
-380.931	130.301	-0.234	0.296
-379.917	-66.594	-0.191	-0.075
-378.902	231.238	0.105	0.170
-377.888	34.854	0.169	0.146
-376.873	625.665	0.025	0.064
-375.858	70.772	-0.050	0.051
-374.844	-70.319	-0.092	-0.035
-373.829	278.782	-0.156	-0.274
-372.815	-200.000	-0.042	0.241
-371.800	-38.867	0.247	0.129
-370.785	-37.089	0.242	0.128
-369.771	-200.000	-0.066	-0.459
-368.756	169.649	-0.101	0.143
-367.742	-85.910	0.176	0.054
-366.727	46.264	0.186	0.170
-365.712	800.000	-0.085	0.312
-364.698	-138.761	-0.046	0.005
-363.683	-67.889	0.099	0.038
-362.669	-109.623	0.193	0.040
-361.654	88.662	-0.145	0.159
-360.639	-16.097	-0.098	-0.061
-359.625	120.275	-0.226	-0.277
-358.610	375.355	0.067	0.135
-357.596	800.000	-0.031	-0.129
-356.581	-55.801	0.206	-0.091
-355.566	-160.485	0.198	-0.010
-354.552	449.872	-0.043	-0.093
-353.537	800.000	0.052	-0.164
-352.523	214.715	0.135	0.211
-351.508	71.884	-0.085	0.088
-350.493	10.920	0.098	0.074
-349.479	-145.828	-0.361	0.032
-348.464	39.719	-0.148	-0.131
-347.450	102.728	-0.019	-0.022
-346.435	28.424	0.067	0.056
-345.420	-142.190	0.246	0.024
-344.406	-69.085	-0.137	-0.052
-343.391	-67.179	0.067	-0.026
-342.377	368.232	-0.035	0.069
-341.362	87.968	-0.185	-0.203
-340.348	800.000	-0.016	-0.058
-339.333	-54.552	0.223	-0.100
-338.318	417.574	-0.127	-0.269
-337.304	145.831	0.214	0.283
-336.289	-60.768	0.229	0.096
-335.275	-122.787	-0.149	-0.024
-334.260	-34.083	0.229	0.124
-333.245	201.912	0.051	-0.078
-332.231	-200.000	0.061	0.300
-331.216	-200.000	0.023	0.449
-330.202	56.074	-0.181	0.173
-329.187	-169.566	-0.262	0.009
-328.172	682.352	0.105	0.271
-327.158	-200.000	-0.061	0.330
-326.143	-200.000	0.051	-0.261
-325.129	-29.903	0.372	0.209
-324.114	-2.225	-0.096	0.066
-323.099	-156.091	-0.306	0.019
-322.085	800.000	-0.093	0.305
-321.070	-200.000	0.048	-0.373
-320.056	-200.000	-0.007	-0.205
-319.041	-3.576	0.056	0.039
-318.026	-126.038	0.021	-0.003
-317.012	217.949	0.252	0.397
-315.997	48.641	0.190	0.176
-314.983	373.047	0.039	0.077
-313.968	242.774	0.058	-0.095
-312.953	46.412	0.201	0.184
-311.939	-200.000	0.001	0.364
-310.924	-63.369	-0.432	0.176
-309.910	-97.645	-0.226	0.058
-308.895	-69.985	0.419	0.158
-307.880	-123.058	-0.174	-0.028
-306.866	-200.000	-0.031	0.272
-305.851	-22.295	0.162	0.097
-304.837	249.087	0.135	0.226
-303.822	-17.223	-0.239	0.149
-302.807	-12.080	0.098	-0.064
-301.793	800.000	-0.078	-0.229
-300.778	800.000	-0.107	0.378
-299.764	-143.192	-0.113	0.011
-298.749	-200.000	0.006	-0.207
-297.735	-128.219	-0.290	0.041
-296.720	800.000	0.039	0.151
-295.705	-40.827	0.203	0.104
-294.691	225.704	0.083	0.132
-293.676	96.075	0.180	0.202
-292.662	-137.543	0.177	-0.020
-291.647	-200.000	-0.005	-0.036
-290.632	-58.807	-0.402	0.172
-289.618	-90.697	0.414	0.118
-288.603	-65.459	0.354	0.140
-287.589	-200.000	0.038	-0.173
-286.574	-82.968	-0.253	-0.080
-285.559	195.433	-0.079	0.118
-284.545	57.710	-0.139	-0.134
-283.530	27.437	0.051	0.043
-282.516	-200.000	-0.034	0.459
-281.501	800.000	0.039	0.111
-280.486	-106.858	-0.253	-0.055
-279.472	108.790	-0.212	-0.250
-278.457	-200.000	-0.031	0.203
-277.443	-200.000	-0.017	0.138
-276.428	800.000	0.142	-0.427
-275.413	-113.263	-0.198	-0.038
-274.399	800.000	0.078	-0.216
-273.384	-26.123	0.289	0.168
-272.370	-200.000	-0.001	-0.019
-271.355	686.503	0.051	0.133
-270.340	-127.490	0.281	0.040
-269.326	800.000	0.044	-0.156
-268.311	35.010	-0.229	-0.198
-267.297	-128.738	-0.133	0.018
-266.282	515.870	0.054	0.124
-265.267	56.749	-0.212	0.203
-264.253	494.563	0.039	0.088
-263.238	-107.381	-0.329	-0.071
-262.224	-200.000	-0.013	-0.091
-261.209	-200.000	-0.015	-0.307
-260.195	785.531	0.115	0.310
-259.180	800.000	-0.078	0.230
-258.165	107.007	-0.218	-0.255
-257.151	-120.645	-0.240	0.040
-256.136	-77.373	0.130	0.045
-255.122	-200.000	-0.016	-0.117
-254.107	800.000	0.071	0.258
-253.092	0.921	-0.180	0.127
-252.078	258.070	0.159	0.269
-251.063	537.362	0.163	-0.381
-250.049	66.198	0.075	-0.075
-249.034	-152.174	-0.407	0.029
-248.019	-132.694	-0.208	-0.026
-247.005	800.000	-0.063	-0.196
-245.990	-103.447	-0.103	-0.024
-244.976	-127.742	-0.313	0.044
-243.961	-43.970	0.167	-0.083
-242.946	800.000	-0.141	0.552
-241.932	-200.000	0.050	0.371
-240.917	-119.065	0.269	-0.046
-239.903	438.271	0.157	0.338
-238.888	109.563	-0.117	0.138
-237.873	280.262	0.251	-0.442
-236.859	-138.052	-0.289	0.032
-235.844	-106.432	-0.169	-0.037
-234.830	-200.000	-0.004	0.143
-233.815	800.000	0.027	0.100
-232.800	800.000	-0.048	0.193
-231.786	38.233	0.294	-0.257
-230.771	-39.102	-0.133	0.069
-229.757	-89.707	0.057	-0.016
-228.742	-200.000	0.028	-0.433
-227.727	176.344	0.112	-0.161
-226.713	-171.730	-0.185	0.006
-225.698	800.000	-0.030	0.122
-224.684	93.003	-0.234	0.260
-223.669	213.076	0.271	0.421
-222.655	-8.164	-0.166	0.110
-221.640	800.000	0.025	0.108
-220.625	-200.000	0.004	-0.089
-219.611	-171.284	0.349	-0.012
-218.596	-103.467	-0.084	0.020
-217.582	-200.000	-0.007	-0.090
-216.567	-107.856	0.240	0.051
-215.552	-22.895	-0.168	-0.100
-214.538	80.792	0.123	-0.131
-213.523	-157.924	0.411	-0.024
-212.509	-200.000	-0.032	-0.173
-211.494	-147.869	-0.173	0.014
-210.479	22.258	-0.144	-0.116
-209.465	208.668	-0.123	0.189
-208.450	130.323	0.118	0.149
-207.436	-145.440	0.159	-0.014
-206.421	-200.000	0.033	0.156
-205.406	800.000	-0.134	-0.386
-204.392	22.050	-0.012	-0.009
-203.377	32.139	-0.141	-0.120
-202.363	-34.624	-0.267	0.144
-201.348	-66.808	0.555	0.216
-200.333	-107.097	0.079	0.017
-199.319	-200.000	-0.047	0.207
-198.304	-200.000	-0.002	-0.145
-197.290	-79.697	-0.368	0.122
-196.275	-110.244	0.359	0.074
-195.260	-122.156	0.159	0.026
-194.246	-78.427	-0.110	0.037
-193.231	-200.000	0.017	-0.148
-192.217	-42.801	0.440	0.220
-191.202	364.733	0.008	0.016
-190.187	-48.519	-0.133	-0.063
-189.173	-200.000	-0.019	-0.124
-188.158	218.556	0.043	0.067
-187.144	-149.084	-0.340	0.027
-186.129	195.754	0.095	0.141
-185.114	153.241	-0.154	0.207
-184.100	217.198	0.134	0.210
-183.085	-82.026	-0.356	0.114
-182.071	-101.033	0.349	0.084
-181.056	-88.271	-0.382	-0.112
-180.042	-200.000	0.059	0.255
-179.027	99.916	0.163	-0.185
-178.012	-200.000	-0.005	0.092
-176.998	-200.000	0.001	0.053
-175.983	-200.000	-0.014	-0.076
-174.969	-23.059	0.197	0.117
-173.954	-23.854	0.066	-0.039
-172.939	258.151	-0.142	0.239
-171.925	-55.916	-0.091	0.040
-170.910	-160.425	-0.198	0.010
-169.896	140.871	0.135	0.175
-168.881	-37.888	-0.283	-0.147
-167.866	-200.000	-0.003	0.284
-166.852	800.000	0.115	0.363
-165.837	-105.745	-0.269	0.060
-164.823	-144.640	-0.099	0.009
-163.808	-73.066	0.112	-0.040
-162.793	-22.974	-0.147	-0.087
-161.779	-200.000	-0.073	-0.363
-160.764	-77.700	-0.135	-0.046
-159.750	-200.000	0.010	0.339
-158.735	-61.221	0.250	-0.103
-157.720	185.948	0.185	0.270
-156.706	-200.000	-0.016	-0.093
-155.691	-73.046	0.179	-0.064
-154.677	-187.502	-0.064	-0.001
-153.662	649.568	-0.109	-0.274
-152.647	548.554	-0.037	-0.088
-151.633	80.230	-0.150	0.158
-150.618	484.331	-0.137	0.305
-149.604	-129.007	0.191	-0.026
-148.589	112.304	-0.080	0.095
-147.574	133.986	0.081	-0.103
-146.560	765.257	0.008	-0.022
-145.545	-200.000	0.013	0.096
-144.531	51.314	-0.201	-0.188
-143.516	-60.131	0.292	-0.122
-142.502	800.000	0.116	-0.403
-141.487	-200.000	0.040	0.316
-140.472	-36.940	0.181	-0.095
-139.458	93.118	-0.184	-0.204
-138.443	-200.000	0.004	0.312
-137.429	-29.340	0.328	0.184
-136.414	-15.524	-0.189	-0.118
-135.399	-35.350	-0.090	0.048
-134.385	-14.462	-0.057	0.036
-133.370	-200.000	-0.012	0.466
-132.356	463.294	-0.085	0.185
-131.341	1.573	-0.027	-0.019
-130.326	-46.365	0.095	-0.046
-129.312	568.258	0.036	0.087
-128.297	800.000	-0.091	0.337
-127.283	-128.259	-0.073	-0.010
-126.268	-149.855	0.291	0.022
-125.253	43.063	0.180	-0.161
-124.239	285.985	0.125	-0.221
-123.224	-200.000	0.016	0.151
