DTS Sentinel unit serial number:	SN413079Multiplexer serial number:	ORYXHardware model number:	OX4-SRSoftware version number:	ORYX F/W v4.00 Oryx Data Collector v3.7.2.0data status	okinstallation	princeton_trtdifferential loss correction	single-endedforward channel	channel 1reverse channel	N/Adate	2019/09/13time	20:26:35forward acquisition time	60.00reverse acquisition time	0.00gamma	496.2192k internal	0.2330k external	0.2330temperature offset calibration	1.0089default loss term (dB/km)	0.3790temperature slope calibration	1.0000multiplexer offset coefficient	1.0000multiplexer slope coefficient	1.0000fibre end	0.00T internal ref (°C)	29.19T ext. ref 1 (°C)	3.20T ext. ref 2 (°C)	23.86length (m)	temperature (°C)	Stokes	anti-Stokes-747.200	23.086	-0.125	0.103
-746.185	187.703	0.049	-0.074
-745.171	-111.833	0.198	0.040
-744.156	-40.235	-0.113	-0.059
-743.142	245.697	0.008	0.014
-742.127	-200.000	0.072	0.418
-741.112	-200.000	-0.041	-0.239
-740.098	-50.466	-0.159	-0.075
-739.083	-70.957	0.106	0.040
-738.069	800.000	-0.082	0.288
-737.054	222.158	-0.102	0.165
-736.039	-103.418	-0.134	-0.032
-735.025	-26.612	0.222	-0.131
-734.010	800.000	-0.031	-0.114
-732.996	800.000	-0.035	-0.126
-731.981	-129.279	-0.371	0.052
-730.966	-114.967	-0.504	0.097
-729.952	-200.000	0.009	-0.067
-728.937	306.159	-0.141	0.263
-727.923	800.000	-0.025	0.075
-726.908	-141.523	-0.122	-0.012
-725.894	192.316	0.033	-0.051
-724.879	33.958	0.113	0.099
-723.864	-174.166	0.186	0.005
-722.850	693.928	0.021	0.054
-721.835	264.591	-0.046	-0.080
-720.821	36.869	-0.289	-0.257
-719.806	-95.469	-0.272	-0.073
-718.791	288.806	0.146	-0.265
-717.777	-60.799	-0.069	0.029
-716.762	800.000	0.054	0.225
-715.748	-37.644	0.367	-0.197
-714.733	-200.000	-0.057	-0.385
-713.718	-88.387	0.168	0.051
-712.704	-124.147	-0.174	-0.027
-711.689	788.681	0.130	-0.359
-710.675	-196.681	0.052	0.000
-709.660	-60.999	-0.236	0.100
-708.645	29.655	-0.173	0.148
-707.631	396.129	-0.168	0.353
-706.616	346.089	0.117	0.232
-705.602	0.902	-0.175	-0.126
-704.587	60.413	-0.137	-0.136
-703.572	-48.200	-0.182	-0.088
-702.558	-200.000	-0.044	-0.207
-701.543	11.372	0.241	-0.186
-700.529	-81.280	-0.272	0.090
-699.514	-91.229	0.220	-0.063
-698.499	288.750	-0.056	-0.102
-697.485	350.773	-0.080	-0.158
-696.470	-200.000	0.004	0.324
-695.456	-200.000	-0.037	-0.168
-694.441	-200.000	-0.014	-0.150
-693.426	87.115	0.038	0.043
-692.412	293.912	0.127	-0.233
-691.397	-36.434	-0.050	-0.027
-690.383	-109.873	0.136	-0.029
-689.368	199.978	-0.214	-0.329
-688.354	-155.315	0.235	0.015
-687.339	-104.820	-0.062	0.014
-686.324	-13.168	-0.232	0.151
-685.310	-105.535	-0.116	0.027
-684.295	-94.245	0.305	-0.084
-683.281	-129.130	0.112	0.016
-682.266	7.384	0.268	0.201
-681.251	76.496	0.140	-0.149
-680.237	-86.983	-0.404	0.124
-679.222	234.853	-0.082	0.135
-678.208	13.610	0.125	-0.097
-677.193	64.354	-0.057	-0.058
-676.178	-115.309	-0.176	-0.033
-675.164	29.357	-0.054	-0.046
-674.149	-17.354	-0.326	0.206
-673.135	-5.852	0.138	0.095
-672.120	56.704	0.305	0.298
-671.105	-129.413	-0.476	0.066
-670.091	-200.000	0.014	0.133
-669.076	-40.292	-0.236	0.123
-668.062	52.443	-0.375	0.360
-667.047	21.223	-0.163	0.133
-666.032	-105.717	0.293	-0.067
-665.018	236.659	0.118	-0.197
-664.003	304.445	0.204	0.379
-662.989	-52.804	-0.183	0.085
-661.974	-33.391	-0.144	-0.080
-660.959	-154.226	0.111	0.008
-659.945	22.256	0.247	0.203
-658.930	121.648	0.100	0.125
-657.916	-107.610	-0.275	-0.060
-656.901	-52.865	-0.132	-0.061
-655.886	-62.488	-0.422	0.176
-654.872	-92.216	-0.296	0.084
-653.857	800.000	-0.205	0.597
-652.843	-83.513	-0.259	-0.083
-651.828	42.281	-0.139	-0.126
-650.814	-200.000	-0.002	0.034
-649.799	13.523	-0.149	0.116
-648.784	-124.891	0.048	-0.007
-647.770	113.790	0.131	-0.160
-646.755	112.169	0.132	0.161
-645.741	776.763	-0.059	0.163
-644.726	-142.766	-0.012	0.001
-643.711	392.350	-0.066	0.138
-642.697	-200.000	-0.033	0.189
-641.682	-200.000	-0.029	0.568
-640.668	-200.000	-0.088	0.000
-639.653	-200.000	-0.026	-0.269
-638.638	98.999	-0.151	-0.174
-637.624	-89.624	0.453	-0.133
-636.609	289.790	0.061	-0.111
-635.595	-200.000	-0.007	-0.130
-634.580	340.225	0.107	0.209
-633.565	310.154	0.122	-0.229
-632.551	167.895	-0.230	0.327
-631.536	-200.000	-0.018	-0.171
-630.522	181.016	0.139	-0.205
-629.507	6.370	-0.168	0.125
-628.492	332.091	0.074	0.143
-627.478	-46.512	0.410	-0.201
-626.463	373.388	-0.141	-0.288
-625.449	572.099	-0.136	0.332
-624.434	800.000	-0.083	-0.234
-623.419	168.070	0.219	0.312
-622.405	-42.952	0.159	-0.081
-621.390	-135.553	0.206	0.025
-620.376	-93.298	0.166	-0.046
-619.361	-200.000	-0.005	-0.081
-618.346	-43.930	0.258	-0.130
-617.332	-45.509	0.125	0.062
-616.317	-81.672	-0.074	0.024
-615.303	206.874	-0.082	-0.128
-614.288	276.732	0.084	0.150
-613.273	-200.000	-0.448	-0.001
-612.259	-103.757	-0.237	0.056
-611.244	-51.249	0.321	0.151
-610.230	-200.000	0.063	-0.436
-609.215	70.913	0.324	-0.336
-608.201	614.406	-0.052	-0.131
-607.186	-200.000	-0.054	0.384
-606.171	63.207	0.064	0.064
-605.157	800.000	0.060	0.231
-604.142	473.241	-0.153	-0.346
-603.128	39.387	0.093	0.083
-602.113	-16.584	-0.260	0.165
-601.098	-200.000	-0.035	-0.193
-600.084	-67.528	0.330	-0.130
-599.069	-200.000	0.011	-0.188
-598.055	536.895	0.046	0.110
-597.040	191.385	-0.191	-0.288
-596.025	-55.674	-0.164	-0.074
-595.011	-87.701	0.080	0.024
-593.996	127.749	0.038	-0.048
-592.982	-39.264	0.100	-0.053
-591.967	329.490	0.074	0.143
-590.952	141.957	-0.037	-0.048
-589.938	25.553	0.043	-0.036
-588.923	148.934	-0.226	-0.306
-587.909	83.123	-0.245	0.266
-586.894	-122.137	-0.216	-0.035
-585.879	-81.332	0.161	0.053
-584.865	18.577	-0.314	0.251
-583.850	14.329	-0.135	-0.106
-582.836	387.106	-0.064	-0.133
-581.821	-109.515	-0.144	0.030
-580.806	-200.000	0.012	-0.085
-579.792	-100.810	-0.138	0.034
-578.777	-57.274	0.137	-0.060
-577.763	42.377	-0.220	0.200
-576.748	800.000	0.057	0.212
-575.733	57.727	-0.192	0.188
-574.719	75.543	0.161	-0.170
-573.704	-89.293	0.220	-0.065
-572.690	-200.000	-0.018	-0.115
-571.675	714.478	-0.101	-0.267
-570.661	-200.000	-0.048	-0.336
-569.646	-200.000	-0.018	0.195
-568.631	610.593	0.143	-0.357
-567.617	-16.389	-0.112	0.071
-566.602	-143.447	0.292	-0.028
-565.588	-100.555	-0.170	0.042
-564.573	586.358	-0.019	0.046
-563.558	12.500	0.179	-0.138
-562.544	-200.000	-0.004	0.099
-561.529	-64.584	-0.097	-0.039
-560.515	-102.702	0.254	-0.061
-559.500	87.113	-0.239	0.264
-558.485	-12.137	0.252	-0.165
-557.471	175.687	-0.161	0.234
-556.456	111.342	-0.185	-0.223
-555.442	-200.000	-0.044	-0.367
-554.427	-200.000	-0.001	0.166
-553.412	-69.623	0.170	-0.065
-552.398	800.000	0.114	-0.477
-551.383	-115.518	0.183	-0.034
-550.369	-120.391	-0.211	0.036
-549.354	-85.090	0.114	0.036
-548.339	-106.191	0.115	-0.026
-547.325	-84.280	0.284	0.090
-546.310	-190.167	-0.210	-0.002
-545.296	800.000	0.058	0.171
-544.281	38.451	0.413	0.367
-543.266	100.620	-0.184	-0.214
-542.252	-93.316	0.387	-0.107
-541.237	85.443	0.218	0.239
-540.223	490.371	-0.085	0.195
-539.208	-63.199	-0.558	0.230
-538.193	-164.293	0.099	-0.005
-537.179	800.000	0.096	-0.377
-536.164	358.938	0.035	-0.070
-535.150	-200.000	0.057	0.288
-534.135	-103.438	0.077	-0.018
-533.121	-200.000	0.007	-0.216
-532.106	-200.000	-0.055	-0.431
-531.091	800.000	0.076	-0.286
-530.077	-95.021	-0.137	0.037
-529.062	-200.000	0.007	0.264
-528.048	33.489	-0.112	-0.097
-527.033	161.421	0.096	0.134
-526.018	-200.000	-0.017	0.143
-525.004	-164.229	-0.412	0.019
-523.989	79.349	0.102	0.110
-522.975	800.000	0.023	0.100
-521.960	-112.562	-0.494	0.098
-520.945	-9.485	-0.269	0.179
-519.931	84.721	0.231	0.252
-518.916	158.896	-0.187	-0.259
-517.902	593.613	-0.074	0.183
-516.887	-176.859	0.204	0.005
-515.872	-94.413	0.278	-0.076
-514.858	22.582	0.238	-0.194
-513.843	800.000	0.068	-0.288
-512.829	-64.088	-0.126	-0.051
-511.814	96.280	-0.130	-0.148
-510.799	-53.662	0.169	0.077
-509.785	-120.142	0.291	0.050
-508.770	-200.000	0.016	-0.161
-507.756	393.312	0.134	0.278
-506.741	-21.072	-0.235	-0.143
-505.726	178.011	-0.112	0.163
-504.712	140.523	-0.083	0.109
-503.697	-200.000	0.028	0.313
-502.683	-79.520	0.302	0.102
-501.668	160.058	-0.053	-0.074
-500.653	-33.186	-0.199	-0.110
-499.639	-200.000	-0.005	-0.284
-498.624	-81.133	0.113	-0.037
-497.610	186.722	-0.105	0.156
-496.595	-72.723	0.194	-0.071
-495.581	611.366	-0.046	0.115
-494.566	-200.000	-0.037	-0.240
-493.551	-72.668	0.310	-0.114
-492.537	-95.734	0.355	0.095
-491.522	7.563	0.210	-0.156
-490.508	1.871	0.250	-0.180
-489.493	163.675	0.078	0.109
-488.478	-161.862	0.199	0.010
-487.464	136.187	0.074	0.096
-486.449	9.418	0.254	-0.191
-485.435	181.419	-0.089	0.131
-484.420	58.521	0.272	-0.266
-483.405	-183.652	-0.319	-0.005
-482.391	-200.000	0.050	-0.259
-481.376	-101.037	0.089	0.022
-480.362	-61.856	0.209	0.087
-479.347	-200.000	0.017	0.189
-478.332	-57.441	-0.362	-0.158
-477.318	-155.883	-0.258	0.016
-476.303	-200.000	0.010	0.173
-475.289	-87.788	-0.332	0.100
-474.274	-67.032	-0.147	0.058
-473.259	800.000	-0.088	-0.259
-472.245	-200.000	-0.022	-0.149
-471.230	-161.756	0.118	0.006
-470.216	800.000	-0.078	0.257
-469.201	-81.044	0.339	-0.112
-468.186	221.398	0.050	-0.081
-467.172	56.637	-0.142	-0.138
-466.157	-79.049	-0.294	-0.100
-465.143	800.000	-0.042	-0.174
-464.128	800.000	-0.080	0.265
-463.113	41.748	0.150	0.135
-462.099	-107.788	0.109	0.024
-461.084	659.504	-0.049	-0.125
-460.070	186.104	0.144	-0.213
-459.055	531.173	0.096	-0.225
-458.040	-75.001	0.111	0.039
-457.026	426.230	0.148	0.318
-456.011	-200.000	-0.279	-0.001
-454.997	397.940	-0.022	0.045
-453.982	-27.661	0.196	0.113
-452.968	182.140	-0.156	-0.229
-451.953	-101.426	-0.246	-0.060
-450.938	-39.267	0.238	-0.124
-449.924	42.573	0.203	-0.184
-448.909	-45.405	-0.121	0.060
-447.895	-200.000	-0.013	-0.073
-446.880	235.272	-0.331	-0.544
-445.865	-54.503	0.039	0.017
-444.851	-62.408	0.390	0.161
-443.836	109.808	-0.178	-0.212
-442.822	707.224	0.101	-0.266
-441.807	28.529	0.080	-0.068
-440.792	48.943	0.019	0.018
-439.778	-148.283	0.293	0.024
-438.763	-103.173	-0.173	-0.041
-437.749	-29.451	-0.090	-0.051
-436.734	-78.210	-0.224	-0.077
-435.719	800.000	-0.090	-0.304
-434.705	-116.209	0.330	-0.061
-433.690	26.261	-0.146	0.121
-432.676	-3.805	-0.314	0.217
-431.661	122.552	-0.088	-0.109
-430.646	-182.907	0.363	-0.006
-429.632	339.356	0.107	0.208
-428.617	61.494	-0.130	-0.129
-427.603	-30.285	-0.129	-0.073
-426.588	-59.436	-0.179	-0.076
-425.573	179.680	0.060	0.087
-424.559	-157.328	-0.337	0.020
-423.544	-200.000	0.016	-0.206
-422.530	-200.000	0.003	0.193
-421.515	90.486	0.043	0.048
-420.500	6.434	0.291	-0.215
-419.486	180.312	0.265	0.387
-418.471	-121.549	-0.138	-0.023
-417.457	404.568	0.041	-0.086
-416.442	-200.000	-0.051	0.265
-415.428	-14.767	-0.132	-0.084
-414.413	200.499	-0.091	-0.139
-413.398	800.000	0.019	0.076
-412.384	-75.553	0.074	-0.026
-411.369	-43.317	0.366	0.184
-410.355	-200.000	-0.056	0.338
-409.340	-200.000	-0.024	-0.224
-408.325	-70.646	-0.153	-0.058
-407.311	-200.000	0.008	-0.154
-406.296	582.490	-0.068	-0.165
-405.282	433.841	0.102	-0.221
-404.267	800.000	0.066	-0.229
-403.252	-200.000	-0.004	0.136
-402.238	800.000	-0.065	-0.248
-401.223	-123.939	0.056	0.009
-400.209	199.720	-0.144	-0.219
-399.194	-200.000	0.450	-0.002
-398.179	125.912	-0.049	-0.061
-397.165	123.145	0.043	-0.053
-396.150	-89.008	-0.122	0.036
-395.136	-162.291	-0.194	0.010
-394.121	362.734	0.135	0.270
-393.106	771.633	-0.014	0.038
-392.092	295.229	0.102	-0.185
-391.077	-45.237	-0.312	0.154
-390.063	-113.155	0.149	-0.029
-389.048	-63.335	0.096	0.039
-388.033	-77.049	0.125	-0.043
-387.019	-200.000	0.047	0.378
-386.004	-149.076	0.185	0.015
-384.990	-32.788	0.121	-0.067
-383.975	210.131	0.090	0.140
-382.960	800.000	0.023	0.090
-381.946	-79.333	-0.328	0.110
-380.931	-111.792	-0.196	-0.039
-379.917	23.550	0.270	0.221
-378.902	-200.000	-0.029	-0.187
-377.888	-7.298	0.136	0.091
-376.873	-26.920	0.079	-0.046
-375.858	-200.000	0.095	-0.487
-374.844	800.000	-0.072	-0.307
-373.829	800.000	0.095	0.320
-372.815	-120.077	-0.307	0.052
-371.800	209.998	0.146	0.228
-370.785	-113.368	-0.297	0.058
-369.771	-13.091	-0.239	-0.154
-368.756	76.845	0.094	0.099
-367.742	-200.000	0.008	-0.071
-366.727	-61.284	0.029	0.012
-365.712	-26.975	0.031	-0.018
-364.698	-31.295	-0.201	-0.112
-363.683	84.086	-0.065	-0.070
-362.669	-121.259	-0.246	0.041
-361.654	5.769	-0.242	-0.178
-360.639	90.707	-0.187	0.207
-359.625	-63.005	-0.404	0.165
-358.610	800.000	0.100	0.362
-357.596	70.388	-0.226	0.232
-356.581	-1.799	0.270	0.188
-355.566	311.100	-0.175	0.326
-354.552	145.744	-0.121	-0.161
-353.537	-85.551	0.043	0.013
-352.523	48.541	-0.085	-0.079
-351.508	-14.465	-0.106	0.068
-350.493	5.214	0.193	-0.141
-349.479	800.000	0.100	-0.299
-348.464	587.190	-0.043	0.105
-347.450	800.000	-0.069	-0.288
-346.435	350.455	0.298	-0.583
-345.420	4.092	-0.109	0.079
-344.406	671.849	-0.094	0.241
-343.391	-144.522	0.302	0.028
-342.377	800.000	-0.034	-0.126
-341.362	16.685	-0.043	-0.034
-340.348	-22.983	0.163	-0.098
-339.333	-116.824	0.071	0.013
-338.318	-200.000	-0.015	0.321
-337.304	-200.000	-0.023	0.342
-336.289	-130.316	-0.209	0.028
-335.275	-103.385	-0.499	-0.117
-334.260	305.795	-0.010	0.019
-333.245	-21.122	-0.122	0.074
-332.231	-169.609	-0.232	-0.008
-331.216	-149.458	0.192	-0.015
-330.202	159.308	0.240	0.330
-329.187	78.361	0.035	-0.037
-328.172	-184.924	0.154	-0.002
-327.158	-89.654	-0.211	-0.061
-326.143	-46.613	-0.073	-0.036
-325.129	20.320	0.081	0.065
-324.114	28.889	-0.108	-0.090
-323.099	-200.000	0.022	-0.148
-322.085	800.000	-0.039	0.169
-321.070	-135.567	0.184	-0.022
-320.056	-200.000	0.015	-0.099
-319.041	-200.000	-0.030	0.342
-318.026	-200.000	0.043	0.207
-317.012	-200.000	0.012	0.143
-315.997	-200.000	0.049	0.258
-314.983	-129.321	-0.266	-0.037
-313.968	-200.000	0.014	-0.221
-312.953	76.688	-0.246	0.258
-311.939	-109.642	-0.044	0.009
-310.924	-143.158	0.172	0.016
-309.910	18.777	-0.119	0.094
-308.895	-84.096	-0.164	0.052
-307.880	-89.036	0.126	0.037
-306.866	-118.296	0.109	0.019
-305.851	-193.501	-0.203	0.002
-304.837	-142.743	0.300	0.029
-303.822	-110.343	-0.054	-0.011
-302.807	800.000	-0.055	-0.232
-301.793	800.000	0.019	0.065
-300.778	-200.000	-0.012	-0.082
-299.764	450.808	-0.060	-0.131
-298.749	-7.542	0.079	0.053
-297.735	231.054	0.022	-0.036
-296.720	216.873	-0.143	-0.225
-295.705	122.998	-0.038	0.047
-294.691	-16.831	-0.225	0.141
-293.676	-200.000	-0.004	0.056
-292.662	172.516	0.122	-0.173
-291.647	800.000	-0.032	0.097
-290.632	800.000	-0.058	-0.166
-289.618	122.854	0.119	0.148
-288.603	-62.089	-0.551	-0.227
-287.589	-104.846	-0.330	0.075
-286.574	424.297	0.252	0.537
-285.559	222.216	-0.170	-0.271
-284.545	-200.000	-0.010	-0.178
-283.530	800.000	-0.080	0.300
-282.516	800.000	-0.040	0.157
-281.501	101.205	0.163	-0.188
-280.486	-135.011	-0.153	-0.018
-279.472	-62.557	0.332	-0.136
-278.457	155.296	-0.179	0.243
-277.443	9.585	0.155	-0.116
-276.428	800.000	-0.039	0.110
-275.413	-164.157	-0.160	-0.007
-274.399	-168.308	-0.258	0.010
-273.384	490.750	0.106	0.240
-272.370	146.336	-0.200	0.266
-271.355	-116.617	-0.330	0.060
-270.340	687.806	-0.007	0.018
-269.326	-7.498	0.179	0.120
-268.311	41.493	0.187	-0.168
-267.297	-200.000	-0.015	0.234
-266.282	-200.000	-0.020	-0.215
-265.267	-33.717	0.114	-0.062
-264.253	-200.000	-0.025	0.289
-263.238	-58.342	-0.119	-0.051
-262.224	75.430	0.120	0.125
-261.209	-121.513	-0.231	0.038
-260.195	-200.000	-0.005	0.222
-259.180	71.815	0.123	0.126
-258.165	-90.830	-0.156	-0.044
-257.151	243.369	0.121	0.201
-256.136	800.000	-0.045	0.180
-255.122	-35.898	0.461	0.246
-254.107	-196.537	-0.475	0.003
-253.092	257.671	-0.104	0.177
-252.078	-39.454	0.313	0.162
-251.063	-200.000	-0.026	0.148
-250.049	-24.139	0.049	0.029
-249.034	800.000	-0.085	0.249
-248.019	-85.124	-0.326	-0.101
-247.005	160.236	0.219	-0.302
-245.990	-200.000	0.009	-0.117
-244.976	-35.616	-0.218	0.117
-243.961	577.899	0.095	0.230
-242.946	-1.615	-0.313	-0.218
-241.932	80.608	0.153	-0.163
-240.917	-169.485	0.133	-0.005
-239.903	634.320	0.066	-0.166
-238.888	-109.593	-0.122	0.025
-237.873	-59.436	0.176	-0.075
-236.859	-200.000	-0.014	0.260
-235.844	-56.969	0.281	-0.122
-234.830	-200.000	-0.002	0.017
-233.815	-105.761	-0.428	-0.096
-232.800	375.566	0.143	-0.288
-231.786	-84.303	0.175	-0.055
-230.771	368.314	-0.147	0.294
-229.757	-200.000	0.061	0.525
-228.742	-121.631	0.321	0.052
-227.727	164.062	-0.034	0.047
-226.713	800.000	0.030	0.114
-225.698	-175.555	0.135	0.004
-224.684	1.993	0.065	-0.046
-223.669	177.465	-0.046	-0.067
-222.655	3.524	0.053	-0.038
-221.640	104.042	-0.106	0.123
-220.625	-200.000	0.010	-0.096
-219.611	-200.000	0.071	0.405
-218.596	135.177	0.031	-0.039
-217.582	-36.749	0.139	0.074
-216.567	-148.102	0.043	0.004
-215.552	800.000	-0.055	-0.189
-214.538	199.198	-0.071	0.107
-213.523	366.110	-0.047	-0.093
-212.509	164.420	-0.056	-0.078
-211.494	-67.079	-0.297	0.116
-210.479	-20.088	0.206	0.125
-209.465	5.959	-0.128	0.093
-208.450	-97.340	0.081	-0.021
-207.436	-15.261	0.245	0.154
-206.421	-94.141	-0.023	-0.006
-205.406	-19.248	0.299	-0.183
-204.392	-64.496	0.190	0.076
-203.377	-200.000	0.033	0.220
-202.363	-121.818	-0.013	-0.002
-201.348	-200.000	0.009	0.300
-200.333	221.124	-0.147	0.233
-199.319	168.959	0.070	-0.099
-198.304	536.249	-0.074	-0.172
-197.290	-130.948	-0.211	-0.028
-196.275	-200.000	0.048	-0.267
-195.260	-122.680	-0.092	-0.015
-194.246	172.560	-0.238	-0.337
-193.231	-27.622	-0.158	0.090
-192.217	-86.044	0.238	0.072
-191.202	73.497	-0.099	0.102
-190.187	-44.010	-0.280	0.139
-189.173	-90.568	0.360	-0.103
-188.158	-200.000	0.034	0.215
-187.144	-74.679	0.175	-0.062
-186.129	-38.173	-0.108	0.056
-185.114	-100.519	0.038	0.009
-184.100	800.000	-0.115	0.328
-183.085	-200.000	-0.031	0.300
-182.071	-200.000	-0.006	-0.072
-181.056	36.104	-0.227	0.197
-180.042	342.802	0.152	0.293
-179.027	-200.000	0.022	0.274
-178.012	-22.905	0.124	0.074
-176.998	-200.000	0.056	0.273
-175.983	-200.000	0.010	0.147
-174.969	51.035	-0.266	0.248
-173.954	10.332	-0.213	-0.160
-172.939	800.000	0.038	-0.145
-171.925	24.062	-0.098	-0.079
-170.910	-50.916	0.258	-0.120
-169.896	-200.000	-0.066	-0.362
-168.881	171.019	-0.120	-0.169
-167.866	-84.913	0.316	-0.098
-166.852	-114.682	-0.116	-0.022
-165.837	70.417	-0.139	-0.142
-164.823	439.815	0.137	-0.295
-163.808	184.535	0.389	-0.568
-162.793	39.670	0.213	-0.188
-161.779	-55.660	-0.049	0.022
-160.764	12.859	0.257	-0.196
-159.750	-6.414	-0.070	-0.047
-158.735	56.389	0.079	-0.076
-157.720	-37.328	-0.206	0.108
-156.706	633.577	0.050	-0.124
-155.691	180.043	-0.142	-0.204
-154.677	-18.729	-0.070	-0.043
-153.662	-56.484	0.219	0.096
-152.647	800.000	-0.082	-0.285
-151.633	-200.000	0.044	-0.191
-150.618	-200.000	-0.010	0.108
-149.604	179.448	-0.051	0.073
-148.589	-200.000	-0.018	0.183
-147.574	390.778	-0.119	0.243
-146.560	261.314	0.073	0.125
-145.545	145.598	-0.068	-0.090
-144.531	-124.660	0.076	0.012
-143.516	-77.003	-0.165	0.056
-142.502	11.610	-0.331	-0.250
-141.487	-16.985	0.093	0.058
-140.472	-104.194	-0.220	0.050
-139.458	7.432	0.245	-0.180
-138.443	-147.331	-0.362	-0.030
-137.429	157.893	0.121	-0.165
-136.414	-131.819	0.353	0.045
-135.399	-200.000	0.015	-0.092
-134.385	83.153	-0.142	0.152
-133.370	-200.000	0.058	0.347
-132.356	24.997	-0.084	0.069
-131.341	-2.078	0.107	-0.074
-130.326	-114.173	0.281	0.053
-129.312	-130.965	0.205	0.027
-128.297	-43.415	0.235	-0.117
-127.283	455.122	-0.069	-0.149
-126.268	-174.018	-0.141	0.004
-125.253	-200.000	-0.017	-0.109
-124.239	-100.917	0.319	0.077
-123.224	72.377	0.108	0.111
-122.210	-75.300	-0.163	-0.057
