DTS Sentinel unit serial number:	SN413079Multiplexer serial number:	ORYXHardware model number:	OX4-SRSoftware version number:	ORYX F/W v4.00 Oryx Data Collector v3.7.2.0data status	okinstallation	princeton_trtdifferential loss correction	single-endedforward channel	channel 1reverse channel	N/Adate	2019/09/17time	00:22:35forward acquisition time	60.00reverse acquisition time	0.00gamma	496.2192k internal	0.2325k external	0.2325temperature offset calibration	0.9961default loss term (dB/km)	0.3790temperature slope calibration	1.0000multiplexer offset coefficient	1.0000multiplexer slope coefficient	1.0000fibre end	0.00T internal ref (°C)	29.50T ext. ref 1 (°C)	0.10T ext. ref 2 (°C)	23.55length (m)	temperature (°C)	Stokes	anti-Stokes-747.200	-200.000	0.028	0.393
-746.185	540.513	-0.141	0.338
-745.171	-200.000	0.056	0.279
-744.156	261.878	-0.095	0.167
-743.142	-200.000	0.055	-0.356
-742.127	37.659	-0.282	0.252
-741.112	-77.369	0.084	0.030
-740.098	-94.695	-0.365	0.100
-739.083	118.013	0.134	-0.167
-738.069	328.911	-0.123	-0.239
-737.054	-27.786	0.164	-0.096
-736.039	-160.154	-0.155	0.008
-735.025	387.462	0.128	0.267
-734.010	800.000	-0.089	-0.254
-732.996	-86.092	0.489	-0.152
-731.981	-145.318	0.156	-0.014
-730.966	-64.920	-0.180	-0.073
-729.952	465.715	-0.058	0.131
-728.937	-33.031	-0.362	-0.203
-727.923	68.273	-0.173	-0.179
-726.908	96.107	0.145	0.167
-725.894	800.000	-0.022	0.076
-724.879	526.788	-0.047	-0.111
-723.864	32.400	0.128	0.112
-722.850	-25.099	-0.166	-0.099
-721.835	-20.227	0.114	0.071
-720.821	554.400	-0.071	-0.171
-719.806	349.440	-0.060	-0.119
-718.791	-71.492	-0.103	0.039
-717.777	-49.328	-0.330	-0.159
-716.762	-78.721	-0.126	-0.043
-715.748	-200.000	0.061	0.435
-714.733	284.425	0.089	0.161
-713.718	-127.105	-0.233	0.034
-712.704	252.575	0.092	-0.159
-711.689	-100.283	-0.121	0.030
-710.675	-47.994	-0.167	0.081
-709.660	233.436	-0.122	0.203
-708.645	23.608	-0.089	-0.074
-707.631	10.683	-0.140	-0.108
-706.616	390.880	-0.106	-0.222
-705.602	-200.000	-0.107	0.544
-704.587	399.077	-0.082	0.174
-703.572	-200.000	0.059	-0.264
-702.558	319.651	-0.139	-0.265
-701.543	-104.138	-0.277	-0.065
-700.529	742.735	-0.106	-0.288
-699.514	-50.106	-0.226	-0.108
-698.499	-198.822	-0.187	0.001
-697.485	800.000	-0.091	0.387
-696.470	-200.000	0.022	-0.127
-695.456	549.088	0.035	-0.084
-694.441	-191.987	0.167	0.002
-693.426	-200.000	-0.014	0.083
-692.412	179.392	-0.100	0.148
-691.397	-34.206	-0.286	0.158
-690.383	153.956	0.167	-0.231
-689.368	20.126	0.235	-0.191
-688.354	-200.000	-0.003	-0.110
-687.339	190.747	0.086	-0.130
-686.324	-168.455	0.358	0.014
-685.310	657.315	-0.040	-0.103
-684.295	-146.247	-0.205	0.018
-683.281	722.374	0.105	-0.281
-682.266	-44.059	0.293	-0.148
-681.251	-200.000	0.017	0.157
-680.237	-110.897	-0.305	0.063
-679.222	-17.505	-0.082	0.052
-678.208	-88.423	-0.023	-0.007
-677.193	25.921	-0.254	0.213
-676.178	193.967	0.289	0.441
-675.164	-200.000	-0.004	-0.093
-674.149	-166.311	0.217	0.009
-673.135	-200.000	0.020	-0.115
-672.120	-10.992	-0.117	0.078
-671.105	198.338	0.135	0.207
-670.091	60.238	0.020	-0.020
-669.076	-200.000	-0.024	0.439
-668.062	-200.000	-0.006	-0.030
-667.047	-114.480	-0.332	-0.064
-666.032	-137.841	0.213	0.024
-665.018	-90.137	0.226	-0.066
-664.003	-200.000	-0.005	-0.056
-662.989	224.095	-0.089	0.145
-661.974	32.476	0.181	0.157
-660.959	-200.000	-0.003	-0.021
-659.945	186.201	-0.083	-0.124
-658.930	153.676	0.199	0.274
-657.916	800.000	-0.076	-0.306
-656.901	497.258	0.135	-0.313
-655.886	-140.538	0.293	-0.031
-654.872	800.000	-0.030	0.087
-653.857	14.552	0.019	0.015
-652.843	-75.273	0.305	-0.109
-651.828	-143.042	0.284	0.028
-650.814	263.614	0.100	0.175
-649.799	800.000	-0.035	-0.120
-648.784	-139.456	0.259	-0.028
-647.770	-95.724	-0.417	0.112
-646.755	259.258	0.078	-0.136
-645.741	-79.262	0.322	-0.110
-644.726	-200.000	0.022	0.145
-643.711	-200.000	0.043	-0.280
-642.697	25.365	0.052	0.043
-641.682	-200.000	-0.026	-0.175
-640.668	71.833	0.141	-0.148
-639.653	19.671	0.072	-0.058
-638.638	-131.922	0.196	0.026
-637.624	5.234	-0.425	0.315
-636.609	212.232	-0.197	0.312
-635.595	348.020	0.164	-0.324
-634.580	-23.457	-0.126	0.076
-633.565	444.126	0.042	0.092
-632.551	800.000	0.051	-0.183
-631.536	-51.130	0.119	-0.056
-630.522	249.430	0.217	0.370
-629.507	-36.730	-0.310	0.167
-628.492	19.888	0.067	-0.054
-627.478	371.172	-0.178	-0.362
-626.463	800.000	0.009	-0.027
-625.449	-45.159	-0.352	-0.176
-624.434	-162.522	-0.292	-0.015
-623.419	-48.844	-0.188	-0.091
-622.405	39.468	-0.243	0.219
-621.390	-13.025	-0.260	0.170
-620.376	496.193	-0.017	-0.038
-619.361	-38.794	0.179	-0.095
-618.346	115.358	-0.139	-0.171
-617.332	-81.799	-0.038	0.013
-616.317	-45.661	0.347	-0.172
-615.303	258.916	-0.057	0.098
-614.288	-19.053	0.232	0.145
-613.273	-200.000	-0.007	0.275
-612.259	-84.614	0.433	-0.137
-611.244	196.550	-0.194	0.297
-610.230	800.000	0.051	-0.194
-609.215	-200.000	0.012	-0.137
-608.201	484.663	-0.077	-0.176
-607.186	143.253	-0.253	0.338
-606.171	-200.000	-0.031	0.237
-605.157	-96.813	-0.199	-0.053
-604.142	207.389	-0.135	0.212
-603.128	-43.805	0.187	-0.094
-602.113	-59.634	-0.397	0.171
-601.098	-147.582	0.191	-0.016
-600.084	800.000	-0.070	0.211
-599.069	-83.539	-0.050	-0.016
-598.055	-117.488	-0.044	-0.008
-597.040	800.000	-0.031	-0.103
-596.025	-28.707	0.169	0.098
-595.011	-149.729	0.427	-0.034
-593.996	-169.865	-0.407	-0.015
-592.982	738.509	-0.064	0.171
-591.967	340.593	-0.018	0.036
-590.952	-9.776	0.218	-0.146
-589.938	-200.000	-0.012	0.107
-588.923	-200.000	-0.077	0.357
-587.909	-129.771	-0.124	0.017
-586.894	142.978	0.073	0.098
-585.879	800.000	-0.025	-0.090
-584.865	-138.881	-0.317	-0.035
-583.850	647.829	0.042	-0.109
-582.836	-200.000	-0.009	-0.464
-581.821	-124.154	0.197	0.031
-580.806	47.538	0.225	0.211
-579.792	29.195	0.078	0.067
-578.777	-37.012	0.162	0.087
-577.763	-200.000	-0.050	0.315
-576.748	-200.000	0.013	0.236
-575.733	-175.284	0.200	0.006
-574.719	-92.184	0.106	-0.030
-573.704	800.000	-0.069	-0.234
-572.690	-85.639	0.426	0.133
-571.675	-158.519	0.060	0.003
-570.661	800.000	0.015	-0.053
-569.646	-105.775	0.230	0.052
-568.631	-200.000	-0.031	-0.217
-567.617	180.132	0.061	0.089
-566.602	-151.192	0.079	-0.006
-565.588	-142.101	-0.268	-0.027
-564.573	-134.610	-0.292	0.036
-563.558	-3.612	0.114	0.080
-562.544	-200.000	-0.015	-0.409
-561.529	-77.727	0.330	0.114
-560.515	-154.739	0.172	-0.011
-559.500	800.000	0.103	0.339
-558.485	-104.907	-0.183	0.042
-557.471	77.535	0.093	0.099
-556.456	418.617	0.135	0.290
-555.442	-132.611	0.332	-0.043
-554.427	281.854	-0.177	-0.318
-553.412	-126.467	-0.106	0.016
-552.398	35.182	0.274	0.241
-551.383	-112.635	0.458	-0.091
-550.369	-200.000	-0.046	0.342
-549.354	800.000	-0.050	-0.165
-548.339	68.763	0.050	-0.051
-547.325	-160.022	-0.323	-0.018
-546.310	-104.211	-0.250	0.058
-545.296	136.803	0.088	0.115
-544.281	-112.436	0.085	-0.017
-543.266	211.594	0.086	-0.135
-542.252	-200.000	0.012	-0.108
-541.237	-152.823	-0.178	0.013
-540.223	800.000	0.052	0.154
-539.208	-29.480	-0.066	0.038
-538.193	-200.000	0.001	0.263
-537.179	-103.960	-0.269	-0.063
-536.164	-179.030	0.020	0.000
-535.150	-47.455	-0.154	-0.075
-534.135	-200.000	-0.003	0.111
-533.121	800.000	0.018	0.071
-532.106	212.405	-0.153	-0.241
-531.091	-200.000	0.003	-0.219
-530.077	-87.746	0.233	-0.070
-529.062	-200.000	-0.000	0.110
-528.048	-200.000	-0.004	-0.197
-527.033	-49.732	0.022	-0.011
-526.018	690.565	-0.042	0.111
-525.004	-125.924	-0.224	-0.034
-523.989	209.007	0.143	-0.224
-522.975	115.519	0.093	0.114
-521.960	-88.026	-0.143	0.043
-520.945	-89.471	-0.313	0.092
-519.931	800.000	0.039	0.125
-518.916	-73.300	-0.221	0.081
-517.902	-29.266	0.145	-0.083
-516.887	-135.261	-0.078	-0.009
-515.872	800.000	-0.032	0.122
-514.858	-93.232	0.075	-0.021
-513.843	-200.000	0.015	-0.164
-512.829	-65.007	-0.128	0.052
-511.814	800.000	-0.033	0.132
-510.799	52.047	-0.273	0.260
-509.785	-111.923	0.186	0.038
-508.770	-134.672	-0.296	-0.036
-507.756	387.590	0.109	-0.226
-506.741	544.008	0.048	-0.114
-505.726	759.580	0.022	-0.059
-504.712	-27.688	0.039	-0.022
-503.697	800.000	-0.031	0.111
-502.683	-5.378	-0.292	0.200
-501.668	35.930	0.304	0.267
-500.653	800.000	0.060	0.168
-499.639	-200.000	0.011	0.098
-498.624	1.251	0.093	0.067
-497.610	-154.901	-0.684	-0.045
-496.595	88.576	0.279	0.310
-495.581	158.612	-0.130	0.180
-494.566	32.269	-0.234	-0.201
-493.551	581.362	-0.093	-0.228
-492.537	191.384	0.066	-0.100
-491.522	-200.000	0.012	0.187
-490.508	137.278	0.106	-0.139
-489.493	-30.494	-0.130	-0.074
-488.478	-99.791	0.394	0.098
-487.464	339.900	-0.221	0.431
-486.449	800.000	-0.058	-0.170
-485.435	-113.749	0.214	-0.042
-484.420	733.861	-0.103	-0.276
-483.405	633.415	-0.107	0.271
-482.391	800.000	-0.071	0.271
-481.376	-23.176	0.077	0.046
-480.362	566.897	0.037	-0.089
-479.347	-200.000	-0.002	-0.253
-478.332	-200.000	0.023	0.205
-477.318	-198.259	-0.051	-0.000
-476.303	-0.102	0.038	0.027
-475.289	52.337	-0.333	0.318
-474.274	-39.340	-0.147	0.077
-473.259	-36.984	-0.060	0.032
-472.245	12.528	-0.223	0.172
-471.230	-72.044	0.291	0.108
-470.216	-62.135	0.454	-0.189
-469.201	-200.000	0.002	0.032
-468.186	-96.740	-0.252	-0.066
-467.172	800.000	0.032	-0.133
-466.157	-200.000	0.034	0.399
-465.143	-56.793	0.393	0.173
-464.128	-200.000	-0.007	0.169
-463.113	-59.105	0.175	0.075
-462.099	-163.723	-0.292	0.014
-461.084	115.120	0.151	-0.184
-460.070	800.000	-0.133	-0.436
-459.055	-200.000	-0.009	-0.296
-458.040	6.238	0.109	-0.080
-457.026	-62.394	-0.587	0.244
-456.011	607.756	0.128	-0.318
-454.997	19.191	0.282	0.226
-453.982	144.322	0.167	-0.223
-452.968	173.838	-0.151	0.218
-451.953	26.400	0.085	0.071
-450.938	326.756	-0.050	-0.095
-449.924	-87.595	-0.187	0.056
-448.909	-50.923	0.371	0.174
-447.895	-111.597	-0.277	0.056
-446.880	-70.393	-0.035	0.013
-445.865	-19.525	0.105	0.065
-444.851	-61.518	0.248	-0.104
-443.836	-96.755	-0.332	0.087
-442.822	-94.320	0.127	-0.035
-441.807	-46.027	0.206	0.101
-440.792	-130.006	-0.282	0.038
-439.778	-73.950	-0.121	-0.044
-438.763	-106.849	-0.184	-0.041
-437.749	587.596	-0.075	-0.184
-436.734	800.000	-0.088	-0.313
-435.719	287.931	-0.092	-0.166
-434.705	73.109	0.082	0.086
-433.690	175.233	0.111	0.160
-432.676	61.932	0.289	-0.287
-431.661	18.726	-0.072	-0.058
-430.646	32.250	0.145	0.125
-429.632	238.012	0.159	0.263
-428.617	-99.716	0.153	-0.038
-427.603	121.936	0.265	-0.329
-426.588	-0.814	-0.415	0.293
-425.573	-128.271	0.087	0.012
-424.559	-4.105	-0.065	0.045
-423.544	800.000	0.028	-0.083
-422.530	-200.000	-0.023	0.123
-421.515	-49.509	-0.520	0.247
-420.500	23.347	0.319	0.261
-419.486	141.747	0.189	-0.250
-418.471	-200.000	0.097	-0.545
-417.457	236.929	-0.046	0.076
-416.442	435.710	-0.069	-0.150
-415.428	100.104	0.048	-0.055
-414.413	-200.000	-0.009	0.302
-413.398	-96.810	0.266	-0.070
-412.384	800.000	0.063	-0.186
-411.369	-59.651	-0.138	-0.059
-410.355	-40.824	0.187	0.096
-409.340	143.111	-0.068	-0.090
-408.325	-75.514	-0.131	-0.046
-407.311	89.425	-0.187	-0.208
-406.296	92.666	0.405	0.455
-405.282	377.569	-0.123	-0.250
-404.267	-200.000	-0.043	0.294
-403.252	800.000	0.119	0.351
-402.238	-200.000	-0.064	-0.292
-401.223	-78.320	-0.124	-0.042
-400.209	287.652	0.223	0.402
-399.194	-11.861	-0.135	-0.088
-398.179	6.350	-0.116	0.085
-397.165	-200.000	0.001	0.045
-396.150	-122.767	-0.295	-0.047
-395.136	-179.245	0.250	0.006
-394.121	-66.284	-0.185	-0.073
-393.106	-110.480	-0.232	-0.048
-392.092	-143.177	-0.194	0.019
-391.077	-28.820	0.156	-0.089
-390.063	215.186	0.124	-0.195
-389.048	-86.351	-0.126	0.039
-388.033	-25.485	0.238	-0.140
-387.019	-200.000	0.019	0.144
-386.004	182.746	-0.066	-0.097
-384.990	119.613	-0.143	-0.176
-383.975	800.000	-0.127	0.364
-382.960	689.795	-0.048	0.125
-381.946	-139.480	0.045	0.005
-380.931	-102.726	0.528	0.125
-379.917	-135.158	-0.221	-0.026
-378.902	-188.386	0.068	-0.001
-377.888	566.681	-0.118	0.286
-376.873	800.000	0.029	0.118
-375.858	-59.260	-0.297	-0.127
-374.844	653.814	-0.065	-0.166
-373.829	-200.000	0.043	-0.264
-372.815	800.000	0.190	-0.630
-371.800	800.000	0.039	-0.139
-370.785	-19.543	0.118	-0.073
-369.771	-98.637	0.333	-0.084
-368.756	-132.942	0.174	0.022
-367.742	52.206	0.062	-0.059
-366.727	25.924	-0.156	-0.129
-365.712	-200.000	0.067	-0.461
-364.698	662.712	0.051	-0.130
-363.683	7.415	0.122	0.091
-362.669	-200.000	-0.007	-0.049
-361.654	408.616	0.144	0.303
-360.639	-92.746	0.059	0.017
-359.625	-72.203	0.160	0.059
-358.610	800.000	0.070	0.291
-357.596	-195.060	-0.196	0.001
-356.581	-45.946	-0.106	-0.052
-355.566	264.999	0.075	0.130
-354.552	104.375	-0.094	0.109
-353.537	800.000	0.100	-0.302
-352.523	186.515	0.087	-0.128
-351.508	18.715	-0.137	-0.109
-350.493	-76.852	-0.311	0.108
-349.479	153.039	0.084	0.114
-348.464	-88.961	-0.252	0.074
-347.450	800.000	-0.085	0.282
-346.435	-198.481	0.334	-0.002
-345.420	-57.865	-0.081	-0.035
-344.406	171.385	0.219	-0.312
-343.391	-129.715	-0.224	0.031
-342.377	-200.000	0.024	0.133
-341.362	110.306	0.079	0.094
-340.348	55.585	-0.179	0.173
-339.333	412.278	-0.068	0.143
-338.318	219.954	-0.070	0.111
-337.304	-149.644	-0.461	0.036
-336.289	-200.000	0.042	0.371
-335.275	787.367	-0.047	-0.128
-334.260	-78.927	0.114	0.038
-333.245	47.599	0.166	0.154
-332.231	-49.257	-0.115	0.054
-331.216	-28.407	-0.111	-0.063
-330.202	-200.000	0.007	-0.227
-329.187	36.186	0.177	-0.155
-328.172	34.453	-0.139	0.121
-327.158	-30.910	-0.053	0.030
-326.143	800.000	0.041	-0.124
-325.129	-200.000	0.004	-0.034
-324.114	331.020	-0.045	0.086
-323.099	470.327	0.061	-0.137
-322.085	-200.000	-0.245	0.000
-321.070	21.521	-0.296	-0.239
-320.056	-11.402	0.441	0.288
-319.041	74.721	0.061	0.064
-318.026	-200.000	-0.025	-0.421
-317.012	-119.679	0.198	-0.034
-315.997	98.550	0.153	0.175
-314.983	-200.000	0.003	-0.126
-313.968	-151.593	-0.284	0.021
-312.953	737.344	-0.016	0.043
-311.939	353.979	-0.026	0.051
-310.924	800.000	-0.009	-0.034
-309.910	-14.201	0.262	0.168
-308.895	359.418	0.058	0.114
-307.880	525.342	-0.167	-0.389
-306.866	434.003	0.095	0.204
-305.851	500.350	0.049	-0.112
-304.837	-200.000	0.059	-0.402
-303.822	528.162	0.058	-0.136
-302.807	-53.791	-0.257	-0.116
-301.793	533.039	0.064	-0.151
-300.778	7.617	-0.181	-0.134
-299.764	111.976	0.048	-0.057
-298.749	437.545	0.071	-0.154
-297.735	-57.307	0.157	-0.069
-296.720	750.033	0.114	0.306
-295.705	-165.905	0.092	0.004
-294.691	800.000	0.015	-0.053
-293.676	554.224	-0.049	-0.116
-292.662	-200.000	-0.037	-0.260
-291.647	-22.654	-0.011	0.006
-290.632	137.901	-0.208	0.271
-289.618	-200.000	-0.056	0.481
-288.603	44.345	0.234	-0.213
-287.589	-86.326	0.109	-0.033
-286.574	96.002	0.166	-0.188
-285.559	-70.071	-0.170	0.064
-284.545	-89.701	-0.424	0.123
-283.530	-53.205	-0.031	0.014
-282.516	-200.000	-0.018	-0.345
-281.501	-29.638	0.117	0.066
-280.486	-200.000	-0.006	0.037
-279.472	-200.000	0.028	0.321
-278.457	-182.526	-0.302	-0.005
-277.443	255.652	-0.106	0.180
-276.428	-112.323	0.206	-0.041
-275.413	68.383	0.076	-0.078
-274.399	36.204	-0.141	0.123
-273.384	-178.363	0.107	-0.002
-272.370	-55.959	0.037	-0.016
-271.355	-24.287	0.195	0.115
-270.340	-200.000	0.005	-0.224
-269.326	21.586	-0.214	0.173
-268.311	-36.211	0.237	-0.127
-267.297	-126.887	-0.118	-0.017
-266.282	-160.912	0.165	-0.009
-265.267	-65.485	-0.202	-0.081
-264.253	-98.306	0.344	0.087
-263.238	2.131	-0.168	-0.120
-262.224	-44.042	-0.307	-0.153
-261.209	-200.000	0.371	-0.001
-260.195	800.000	0.063	0.177
-259.180	198.040	0.110	0.167
-258.165	-177.669	-0.216	0.005
-257.151	-2.940	-0.127	-0.088
-256.136	800.000	0.035	0.144
-255.122	201.022	-0.285	-0.435
-254.107	-18.685	0.059	0.037
-253.092	-0.811	0.128	-0.090
-252.078	-28.968	-0.201	0.114
-251.063	-101.985	-0.204	0.049
-250.049	800.000	0.007	-0.028
-249.034	0.026	-0.098	0.069
-248.019	770.827	0.062	-0.167
-247.005	-200.000	-0.007	-0.081
-245.990	195.639	-0.078	-0.118
-244.976	-54.300	-0.324	0.145
-243.961	-200.000	0.047	-0.512
-242.946	93.100	0.177	0.198
-241.932	165.167	-0.045	0.063
-240.917	394.013	-0.132	0.271
-239.903	-200.000	0.001	0.084
-238.888	-200.000	0.037	0.250
-237.873	-51.364	-0.132	-0.061
-236.859	-72.867	0.046	-0.017
-235.844	786.248	0.031	-0.083
-234.830	273.009	0.091	-0.159
-233.815	88.315	-0.196	-0.215
-232.800	79.904	0.077	0.081
-231.786	-8.416	0.099	0.066
-230.771	800.000	0.044	-0.174
-229.757	30.756	-0.196	-0.166
-228.742	-97.233	0.156	-0.040
-227.727	-56.616	-0.204	-0.089
-226.713	800.000	0.057	0.208
-225.698	38.619	-0.123	0.108
-224.684	-25.336	0.300	-0.176
-223.669	-149.458	-0.127	0.010
-222.655	36.995	0.055	-0.048
-221.640	-19.146	0.046	0.028
-220.625	-125.911	-0.308	0.046
-219.611	-102.372	0.133	-0.032
-218.596	-152.132	0.270	-0.019
-217.582	32.265	-0.167	-0.143
-216.567	-97.044	-0.151	-0.039
-215.552	800.000	-0.092	-0.279
-214.538	800.000	0.098	-0.274
-213.523	507.023	0.060	0.138
-212.509	-200.000	-0.013	-0.434
-211.494	-200.000	0.044	0.402
-210.479	-200.000	-0.023	-0.173
-209.465	508.993	-0.017	0.038
-208.450	16.932	0.219	-0.171
-207.436	-130.111	0.084	0.011
-206.421	114.390	-0.082	0.098
-205.406	-171.002	0.296	0.010
-204.392	543.547	-0.071	0.167
-203.377	-64.922	0.228	0.091
-202.363	-93.030	0.054	-0.015
-201.348	-141.535	0.173	-0.017
-200.333	494.996	0.017	-0.039
-199.319	110.529	0.140	0.167
-198.304	-200.000	-0.045	0.259
-197.290	-93.251	0.347	-0.095
-196.275	37.432	0.209	-0.183
-195.260	51.923	0.271	0.255
-194.246	-139.105	0.012	-0.001
-193.231	85.322	-0.137	0.149
-192.217	-23.332	-0.245	-0.145
-191.202	-124.982	0.166	-0.025
-190.187	-77.055	-0.301	-0.104
-189.173	42.258	-0.045	-0.041
-188.158	175.570	-0.106	-0.151
-187.144	207.648	-0.107	-0.165
-186.129	-32.753	0.244	-0.134
-185.114	-117.238	0.181	0.033
-184.100	-11.263	-0.198	-0.129
-183.085	800.000	-0.003	0.012
-182.071	800.000	0.031	-0.098
-181.056	92.467	-0.064	0.071
-180.042	540.678	0.058	-0.137
-179.027	-77.247	-0.353	-0.121
-178.012	328.279	0.036	0.068
-176.998	213.063	-0.238	-0.371
-175.983	691.905	0.123	-0.318
-174.969	-96.944	0.345	0.089
-173.954	-200.000	-0.011	0.119
-172.939	-150.062	0.232	0.018
-171.925	-200.000	0.036	-0.248
-170.910	59.498	-0.073	-0.071
-169.896	-70.958	0.179	-0.067
-168.881	344.395	-0.175	-0.339
-167.866	107.366	-0.033	-0.039
-166.852	7.213	-0.148	0.109
-165.837	264.060	0.133	0.228
-164.823	176.945	0.165	0.237
-163.808	260.499	-0.066	0.112
-162.793	404.260	0.169	0.352
-161.779	-48.792	0.070	-0.033
-160.764	35.707	-0.194	0.168
-159.750	-124.207	0.286	-0.044
-158.735	-68.830	0.171	-0.065
-157.720	-133.919	-0.552	0.068
-156.706	-29.403	0.138	-0.078
-155.691	-18.928	-0.130	0.080
-154.677	595.124	0.118	-0.287
-153.662	37.401	0.202	0.177
-152.647	-200.000	0.031	0.150
-151.633	-200.000	-0.018	0.102
-150.618	289.155	-0.137	0.244
-149.604	-200.000	0.040	0.230
-148.589	800.000	-0.109	0.440
-147.574	800.000	0.104	-0.287
-146.560	-39.614	0.071	0.037
-145.545	-77.211	-0.180	-0.062
-144.531	-184.285	-0.357	-0.006
-143.516	-30.237	0.024	-0.014
-142.502	245.980	0.122	0.203
-141.487	313.698	0.148	-0.275
-140.472	120.300	0.203	-0.249
-139.458	-200.000	0.052	0.373
-138.443	56.528	-0.123	0.118
-137.429	-200.000	0.056	0.245
-136.414	-111.073	-0.175	-0.035
-135.399	-110.851	0.239	-0.048
-134.385	66.925	-0.235	-0.236
-133.370	-200.000	-0.051	0.290
-132.356	-151.110	-0.198	-0.015
-131.341	16.055	0.100	-0.077
-130.326	-5.277	-0.096	-0.065
-129.312	-3.308	0.315	0.216
-128.297	288.078	0.196	0.350
-127.283	119.713	-0.156	-0.191
-126.268	-103.446	-0.103	-0.024
-125.253	206.217	-0.088	0.134
-124.239	690.286	0.038	0.097
-123.224	-200.000	0.003	0.149
-122.210	64.452	0.247	0.245
-121.195	48.403	0.115	-0.106
