DTS Sentinel unit serial number:	SN413079Multiplexer serial number:	ORYXHardware model number:	OX4-SRSoftware version number:	ORYX F/W v4.00 Oryx Data Collector v3.7.2.0data status	okinstallation	princeton_trtdifferential loss correction	single-endedforward channel	channel 1reverse channel	N/Adate	2019/09/19time	10:30:35forward acquisition time	60.00reverse acquisition time	0.00gamma	496.2192k internal	0.2339k external	0.2339temperature offset calibration	1.0008default loss term (dB/km)	0.3790temperature slope calibration	1.0000multiplexer offset coefficient	1.0000multiplexer slope coefficient	1.0000fibre end	0.00T internal ref (°C)	24.37T ext. ref 1 (°C)	0.71T ext. ref 2 (°C)	19.74length (m)	temperature (°C)	Stokes	anti-Stokes-747.200	448.427	0.164	-0.361
-746.185	108.007	0.034	0.041
-745.171	-4.031	-0.073	0.051
-744.156	800.000	-0.028	-0.111
-743.142	-70.698	0.216	-0.082
-742.127	13.620	0.373	0.291
-741.112	-12.873	-0.182	-0.119
-740.098	-200.000	-0.078	0.522
-739.083	64.346	-0.282	0.285
-738.069	-200.000	0.009	-0.093
-737.054	-58.202	0.210	0.092
-736.039	-81.868	-0.313	0.103
-735.025	-175.009	-0.074	0.002
-734.010	13.806	-0.096	-0.075
-732.996	-200.000	0.003	-0.270
-731.981	84.039	0.249	-0.273
-730.966	35.276	0.096	-0.084
-729.952	-81.652	0.092	-0.030
-728.937	-200.000	-0.017	0.087
-727.923	800.000	0.024	0.073
-726.908	-97.026	-0.400	0.105
-725.894	10.123	0.051	-0.039
-724.879	241.824	0.118	0.197
-723.864	560.455	-0.050	0.122
-722.850	-102.986	-0.240	-0.057
-721.835	70.176	-0.245	0.253
-720.821	107.804	-0.199	0.238
-719.806	58.361	-0.206	-0.203
-718.791	478.040	-0.095	-0.215
-717.777	23.445	-0.387	-0.319
-716.762	61.307	0.174	0.173
-715.748	324.064	0.119	-0.227
-714.733	-200.000	-0.013	-0.243
-713.718	-120.921	0.113	0.019
-712.704	8.652	-0.163	-0.123
-711.689	800.000	0.114	0.339
-710.675	67.564	0.181	0.185
-709.660	663.310	-0.115	-0.296
-708.645	89.665	0.067	0.075
-707.631	164.664	-0.055	0.078
-706.616	111.274	-0.051	0.062
-705.602	-142.165	-0.045	0.004
-704.587	-103.001	0.169	0.040
-703.572	148.511	-0.294	0.398
-702.558	87.278	0.135	0.150
-701.543	800.000	-0.123	-0.453
-700.529	11.746	-0.265	-0.204
-699.514	-152.841	0.322	-0.023
-698.499	-200.000	0.063	-0.380
-697.485	800.000	0.075	-0.209
-696.470	208.212	-0.134	-0.210
-695.456	-200.000	-0.048	-0.357
-694.441	-100.009	0.369	0.092
-693.426	-102.413	-0.209	-0.050
-692.412	-145.061	-0.114	-0.010
-691.397	169.764	0.077	0.110
-690.383	123.634	-0.013	0.017
-689.368	-177.608	-0.109	-0.003
-688.354	-200.000	0.014	-0.065
-687.339	-74.507	0.100	-0.036
-686.324	410.603	0.073	0.155
-685.310	-138.057	0.216	-0.024
-684.295	800.000	0.082	-0.279
-683.281	-200.000	0.045	-0.259
-682.266	-82.906	-0.062	0.020
-681.251	135.729	0.109	-0.142
-680.237	-99.301	0.179	0.045
-679.222	-124.041	-0.228	0.036
-678.208	481.307	0.002	-0.004
-677.193	426.035	0.093	-0.200
-676.178	-200.000	-0.021	-0.290
-675.164	241.147	0.057	-0.095
-674.149	371.478	0.109	-0.222
-673.135	-46.079	0.134	0.066
-672.120	90.796	-0.130	-0.146
-671.105	-44.283	0.173	0.086
-670.091	-4.582	-0.247	-0.171
-669.076	-28.982	0.379	-0.217
-668.062	171.273	-0.152	-0.219
-667.047	-127.563	0.058	0.008
-666.032	319.666	-0.056	0.107
-665.018	-81.550	-0.153	-0.050
-664.003	-124.753	0.221	-0.034
-662.989	-82.585	0.128	0.041
-661.974	7.117	0.489	-0.365
-660.959	490.287	0.101	-0.231
-659.945	-68.487	-0.373	0.145
-658.930	-101.757	0.251	-0.061
-657.916	87.698	0.138	0.153
-656.901	13.248	0.198	-0.153
-655.886	251.466	-0.065	-0.111
-654.872	341.022	-0.123	-0.241
-653.857	-200.000	0.042	-0.511
-652.843	-120.180	0.200	-0.034
-651.828	61.592	0.216	-0.214
-650.814	164.461	0.079	-0.112
-649.799	131.929	-0.218	0.280
-648.784	-200.000	0.018	-0.156
-647.770	454.949	0.116	-0.257
-646.755	-102.885	-0.157	0.037
-645.741	389.107	0.094	0.195
-644.726	67.163	0.222	0.226
-643.711	324.057	0.219	0.418
-642.697	-122.463	0.087	-0.014
-641.682	-22.443	-0.223	0.135
-640.668	-113.165	0.090	0.018
-639.653	800.000	0.051	-0.160
-638.638	-35.864	-0.230	-0.124
-637.624	-200.000	-0.018	-0.396
-636.609	149.835	0.067	0.091
-635.595	-20.766	-0.250	-0.153
-634.580	-58.703	0.051	-0.022
-633.565	-200.000	0.026	0.211
-632.551	-10.400	-0.127	0.084
-631.536	66.296	-0.135	0.137
-630.522	-147.628	-0.200	-0.017
-629.507	-200.000	-0.037	-0.165
-628.492	-83.129	0.221	-0.071
-627.478	-164.129	0.245	0.011
-626.463	-200.000	-0.008	0.077
-625.449	-47.028	0.336	-0.164
-624.434	800.000	0.125	-0.415
-623.419	-153.166	0.304	-0.021
-622.405	-77.716	-0.173	0.060
-621.390	130.022	-0.191	-0.243
-620.376	72.721	0.261	-0.272
-619.361	-200.000	0.024	-0.176
-618.346	-138.778	0.238	0.026
-617.332	-46.361	0.318	-0.156
-616.317	138.375	0.230	-0.301
-615.303	-0.803	-0.168	0.119
-614.288	-50.923	-0.179	-0.084
-613.273	-152.198	-0.041	0.003
-612.259	47.605	0.030	0.028
-611.244	66.797	-0.303	0.308
-610.230	-167.884	-0.217	0.008
-609.215	38.456	0.176	-0.156
-608.201	-131.287	0.324	-0.043
-607.186	223.953	0.076	0.122
-606.171	-122.418	0.139	0.023
-605.157	-200.000	-0.044	0.396
-604.142	800.000	0.082	0.270
-603.128	166.934	-0.317	-0.448
-602.113	800.000	0.072	-0.284
-601.098	30.447	-0.127	0.108
-600.084	-36.125	0.110	-0.059
-599.069	29.004	0.086	0.072
-598.055	534.150	0.081	-0.192
-597.040	86.191	-0.109	-0.119
-596.025	-14.337	-0.220	-0.141
-595.011	-0.763	-0.087	0.061
-593.996	-35.626	-0.071	-0.038
-592.982	-111.516	-0.138	0.028
-591.967	-67.071	0.194	-0.076
-590.952	-38.726	-0.253	-0.133
-589.938	75.095	-0.075	0.078
-588.923	565.196	-0.146	-0.352
-587.909	141.127	-0.209	-0.276
-586.894	-21.508	-0.239	0.145
-585.879	3.956	0.322	-0.235
-584.865	-80.690	-0.108	0.036
-583.850	82.199	-0.145	-0.157
-582.836	249.441	0.054	0.091
-581.821	381.594	-0.127	0.259
-580.806	86.385	-0.113	0.124
-579.792	-200.000	0.031	0.302
-578.777	540.482	-0.043	0.101
-577.763	-200.000	-0.038	-0.302
-576.748	-121.225	-0.315	-0.052
-575.733	-16.153	-0.041	-0.026
-574.719	764.578	-0.052	-0.141
-573.704	-60.854	0.166	-0.070
-572.690	229.989	0.142	-0.231
-571.675	-200.000	0.054	-0.484
-570.661	-200.000	0.032	0.308
-569.646	-101.490	-0.245	0.059
-568.631	30.024	0.063	0.054
-567.617	481.788	0.070	-0.158
-566.602	105.603	-0.110	-0.129
-565.588	-70.538	-0.202	0.076
-564.573	46.155	-0.207	0.191
-563.558	-126.076	0.219	-0.033
-562.544	-4.247	-0.133	-0.092
-561.529	113.405	0.221	-0.267
-560.515	-200.000	0.002	0.308
-559.500	800.000	-0.042	0.140
-558.485	383.008	-0.059	-0.120
-557.471	-61.243	-0.177	-0.074
-556.456	-179.568	0.184	-0.004
-555.442	209.705	0.149	-0.233
-554.427	23.232	0.235	0.192
-553.412	-154.055	-0.448	-0.030
-552.398	-200.000	-0.001	0.248
-551.383	-44.384	-0.311	0.155
-550.369	-23.522	0.241	-0.144
-549.354	-0.963	0.188	-0.133
-548.339	-59.613	-0.363	-0.155
-547.325	-93.769	-0.113	-0.031
-546.310	-200.000	-0.008	0.089
-545.296	-115.451	-0.370	-0.069
-544.281	38.304	0.239	-0.212
-543.266	210.669	0.007	-0.011
-542.252	559.744	0.084	-0.201
-541.237	431.450	-0.077	0.166
-540.223	3.574	-0.142	-0.103
-539.208	-155.444	-0.133	-0.009
-538.193	800.000	-0.026	-0.113
-537.179	-200.000	0.051	-0.259
-536.164	36.942	0.135	-0.119
-535.150	81.601	0.147	-0.158
-534.135	511.033	0.155	-0.359
-533.121	-90.383	-0.279	-0.080
-532.106	-23.576	0.178	0.106
-531.091	414.945	-0.171	0.362
-530.077	327.028	-0.081	-0.155
-529.062	30.528	-0.089	0.076
-528.048	205.921	-0.076	-0.118
-527.033	-61.480	-0.090	0.038
-526.018	-200.000	-0.079	-0.474
-525.004	-74.991	0.161	0.057
-523.989	-179.682	-0.351	-0.008
-522.975	-200.000	0.067	-0.328
-521.960	306.481	0.038	-0.070
-520.945	336.580	0.160	-0.310
-519.931	81.478	0.146	-0.157
-518.916	674.394	-0.015	-0.039
-517.902	-200.000	-0.008	-0.066
-516.887	241.706	0.029	-0.049
-515.872	-61.367	0.085	0.035
-514.858	-55.004	0.160	0.071
-513.843	-200.000	-0.028	0.189
-512.829	149.187	-0.066	0.089
-511.814	6.434	0.113	0.084
-510.799	-168.053	-0.234	0.009
-509.785	520.688	0.076	0.178
-508.770	-17.040	0.062	0.039
-507.756	-71.356	-0.283	0.105
-506.741	-94.460	0.252	0.068
-505.726	-200.000	0.030	-0.229
-504.712	44.165	0.279	0.254
-503.697	127.627	0.155	0.195
-502.683	800.000	-0.038	-0.125
-501.668	25.109	-0.326	0.269
-500.653	214.668	-0.105	0.166
-499.639	567.851	0.096	0.233
-498.624	800.000	-0.022	-0.094
-497.610	-85.374	-0.023	0.007
-496.595	5.586	-0.137	-0.101
-495.581	61.647	0.157	-0.156
-494.566	-49.035	0.106	0.050
-493.551	-200.000	-0.006	-0.043
-492.537	-129.725	0.299	0.041
-491.522	800.000	0.102	-0.317
-490.508	31.093	-0.311	0.265
-489.493	-34.634	0.265	0.144
-488.478	-158.394	-0.176	0.010
-487.464	-43.626	-0.280	0.140
-486.449	32.808	0.065	-0.056
-485.435	442.417	0.142	-0.309
-484.420	74.099	-0.044	0.046
-483.405	-57.070	-0.147	0.064
-482.391	234.390	-0.121	-0.198
-481.376	-39.354	-0.107	-0.056
-480.362	-100.394	-0.310	0.076
-479.347	51.171	0.115	-0.108
-478.332	-93.837	0.032	-0.009
-477.318	-90.466	-0.104	0.030
-476.303	-76.523	-0.177	-0.062
-475.289	441.692	-0.022	-0.047
-474.274	-66.101	-0.195	-0.077
-473.259	-11.934	0.213	-0.139
-472.245	-200.000	0.009	0.299
-471.230	-41.319	0.202	-0.103
-470.216	304.426	0.135	-0.248
-469.201	92.093	-0.233	0.260
-468.186	800.000	-0.087	-0.286
-467.172	-139.664	0.076	-0.008
-466.157	-200.000	-0.209	-0.000
-465.143	-53.397	0.093	-0.042
-464.128	-0.029	-0.070	0.049
-463.113	-58.830	-0.244	0.105
-462.099	800.000	0.134	0.368
-461.084	414.636	-0.058	0.123
-460.070	231.097	0.219	0.356
-459.055	-200.000	-0.014	0.254
-458.040	608.671	-0.028	0.069
-457.026	563.787	-0.059	0.142
-456.011	-34.655	0.089	0.048
-454.997	-87.363	0.452	0.136
-453.982	-185.974	-0.154	0.002
-452.968	800.000	-0.041	-0.127
-451.953	800.000	-0.054	-0.195
-450.938	800.000	-0.039	0.141
-449.924	-200.000	-0.053	0.308
-448.909	5.078	0.188	0.137
-447.895	-200.000	-0.013	-0.073
-446.880	-86.097	-0.172	0.053
-445.865	511.661	0.070	-0.163
-444.851	-200.000	0.014	-0.195
-443.836	-65.294	-0.371	0.148
-442.822	25.280	-0.297	-0.245
-441.807	-136.820	0.170	-0.019
-440.792	113.115	0.168	-0.202
-439.778	800.000	0.132	-0.549
-438.763	-108.383	0.418	0.089
-437.749	-117.868	0.260	-0.046
-436.734	159.203	0.019	0.026
-435.719	-200.000	0.007	-0.243
-434.705	24.458	-0.137	-0.112
-433.690	-94.733	-0.405	-0.109
-432.676	174.098	0.055	-0.079
-431.661	-200.000	-0.009	-0.158
-430.646	141.645	0.057	-0.075
-429.632	81.717	-0.087	-0.093
-428.617	-200.000	0.025	-0.344
-427.603	-173.709	-0.095	-0.003
-426.588	-177.391	-0.073	0.002
-425.573	28.863	0.055	0.046
-424.559	-200.000	0.003	-0.185
-423.544	-166.201	-0.029	0.001
-422.530	3.142	-0.054	0.039
-421.515	101.104	0.229	-0.264
-420.500	460.024	-0.033	0.072
-419.486	800.000	0.043	-0.132
-418.471	-140.112	-0.347	0.036
-417.457	-8.698	0.299	0.199
-416.442	92.384	-0.209	0.234
-415.428	-18.273	0.067	-0.041
-414.413	-129.173	-0.188	-0.026
-413.398	235.984	-0.147	0.241
-412.384	800.000	-0.038	0.145
-411.369	-120.494	-0.229	-0.038
-410.355	800.000	-0.097	0.335
-409.340	-200.000	0.001	0.274
-408.325	-200.000	-0.010	0.079
-407.311	12.158	0.152	0.116
-406.296	-200.000	0.185	-0.000
-405.282	74.284	0.302	0.314
-404.267	-200.000	-0.048	-0.220
-403.252	800.000	-0.066	-0.187
-402.238	-144.013	-0.182	-0.017
-401.223	-76.868	-0.092	0.032
-400.209	800.000	0.056	-0.169
-399.194	-200.000	-0.004	-0.263
-398.179	388.790	-0.112	-0.230
-397.165	-200.000	-0.007	-0.327
-396.150	-6.276	0.154	-0.104
-395.136	244.211	0.132	0.220
-394.121	158.238	0.211	0.290
-393.106	-200.000	0.021	0.107
-392.092	-62.283	-0.046	-0.019
-391.077	740.796	0.078	-0.206
-390.063	-19.541	-0.234	0.143
-389.048	75.397	-0.191	0.200
-388.033	-100.221	-0.188	0.046
-387.019	-90.103	0.190	0.055
-386.004	-200.000	-0.046	0.234
-384.990	-127.430	-0.178	0.026
-383.975	72.676	0.116	-0.120
-382.960	800.000	-0.086	-0.304
-381.946	-151.326	-0.044	-0.003
-380.931	-200.000	0.030	-0.399
-379.917	517.143	0.093	-0.214
-378.902	-71.402	-0.108	-0.040
-377.888	158.511	-0.130	-0.179
-376.873	112.917	-0.143	-0.172
-375.858	534.265	-0.096	-0.225
-374.844	-200.000	-0.012	0.092
-373.829	-21.665	-0.257	-0.154
-372.815	328.690	-0.070	-0.133
-371.800	49.526	0.203	-0.189
-370.785	15.602	0.107	0.083
-369.771	-176.379	-0.202	-0.005
-368.756	242.457	0.040	0.066
-367.742	272.054	0.153	-0.267
-366.727	150.047	-0.181	0.243
-365.712	202.107	0.064	-0.098
-364.698	248.196	-0.030	0.050
-363.683	-12.662	0.201	-0.129
-362.669	-200.000	0.044	0.283
-361.654	266.242	0.156	-0.270
-360.639	-89.644	0.102	0.030
-359.625	800.000	0.088	0.322
-358.610	398.938	-0.103	0.213
-357.596	30.475	0.128	-0.108
-356.581	800.000	-0.022	0.086
-355.566	800.000	0.126	0.349
-354.552	30.026	-0.051	-0.043
-353.537	-79.657	-0.189	0.063
-352.523	-200.000	-0.041	-0.179
-351.508	-36.036	0.083	0.045
-350.493	1.678	-0.115	-0.082
-349.479	-97.718	0.291	0.074
-348.464	92.669	0.068	-0.076
-347.450	-42.674	-0.060	0.030
-346.435	-200.000	-0.005	0.069
-345.420	344.241	0.196	-0.379
-344.406	118.539	0.153	-0.187
-343.391	-38.551	0.031	0.016
-342.377	75.283	0.092	-0.095
-341.362	522.806	-0.074	0.172
-340.348	-11.932	0.271	-0.175
-339.333	-4.433	-0.035	0.024
-338.318	800.000	-0.082	0.226
-337.304	-200.000	-0.002	-0.081
-336.289	-200.000	0.012	0.076
-335.275	-88.201	0.177	0.052
-334.260	-73.545	-0.181	-0.065
-333.245	-24.972	-0.139	-0.081
-332.231	-122.153	-0.108	-0.018
-331.216	-200.000	0.034	0.249
-330.202	280.786	-0.136	0.240
-329.187	800.000	-0.129	0.461
-328.172	800.000	-0.036	0.113
-327.158	227.978	-0.085	0.137
-326.143	800.000	0.048	0.141
-325.129	44.891	-0.202	0.184
-324.114	131.115	0.029	0.037
-323.099	148.542	0.263	-0.350
-322.085	-200.000	0.077	0.333
-321.070	-52.294	-0.220	0.100
-320.056	407.172	-0.077	0.161
-319.041	66.337	-0.205	-0.206
-318.026	80.948	0.191	0.203
-317.012	-200.000	0.006	0.063
-315.997	12.809	-0.426	0.324
-314.983	181.145	0.241	0.349
-313.968	-200.000	-0.042	0.214
-312.953	12.405	0.178	0.136
-311.939	15.503	-0.067	-0.052
-310.924	1.976	-0.124	-0.088
-309.910	-200.000	-0.050	-0.243
-308.895	524.034	0.172	-0.398
-307.880	-78.427	0.056	-0.019
-306.866	137.311	-0.112	0.145
-305.851	-200.000	0.041	0.361
-304.837	117.165	0.251	0.305
-303.822	-50.266	-0.181	0.084
-302.807	-62.984	0.144	0.059
-301.793	33.430	0.137	-0.117
-300.778	-91.592	-0.183	-0.051
-299.764	27.663	-0.195	-0.161
-298.749	800.000	0.061	-0.261
-297.735	30.728	0.434	0.366
-296.720	-1.284	0.291	0.203
-295.705	800.000	-0.122	-0.382
-294.691	95.303	-0.100	-0.112
-293.676	317.911	0.062	0.116
-292.662	-106.336	-0.265	0.059
-291.647	-122.250	-0.231	0.037
-290.632	-200.000	0.045	0.219
-289.618	-5.532	0.121	0.082
-288.603	419.966	0.034	-0.071
-287.589	-110.229	0.122	-0.025
-286.574	488.280	-0.019	-0.043
-285.559	-193.104	0.285	-0.003
-284.545	-138.782	0.122	0.013
-283.530	35.702	-0.158	-0.137
-282.516	-152.708	-0.277	-0.019
-281.501	-0.879	-0.239	0.167
-280.486	167.792	0.181	0.253
-279.472	55.505	-0.094	0.090
-278.457	191.614	0.077	0.115
-277.443	-138.858	0.521	0.056
-276.428	-200.000	0.001	0.296
-275.413	-20.298	0.428	0.260
-274.399	800.000	-0.035	0.131
-273.384	33.876	-0.034	0.029
-272.370	237.697	0.135	-0.221
-271.355	7.495	0.045	-0.033
-270.340	-70.324	0.234	0.087
-269.326	-93.108	-0.605	0.166
-268.311	-167.194	0.145	0.006
-267.297	75.727	0.166	0.172
-266.282	-50.562	-0.209	-0.097
-265.267	255.280	0.102	0.172
-264.253	16.210	-0.110	0.086
-263.238	272.769	-0.127	0.220
-262.224	800.000	0.077	-0.301
-261.209	-130.158	-0.275	0.037
-260.195	104.349	0.311	-0.361
-259.180	-82.229	0.260	0.083
-258.165	136.319	0.132	0.169
-257.151	-57.986	-0.322	0.138
-256.136	800.000	-0.113	-0.330
-255.122	144.652	0.159	0.209
-254.107	689.438	0.137	-0.353
-253.092	-127.174	-0.140	0.020
-252.078	-158.531	-0.319	0.018
-251.063	125.993	0.057	0.070
-250.049	800.000	-0.056	-0.239
-249.034	433.915	0.037	-0.079
-248.019	31.700	0.321	0.272
-247.005	-200.000	-0.082	0.390
-245.990	-175.465	0.382	0.010
-244.976	130.856	-0.050	0.063
-243.961	165.607	-0.108	-0.150
-242.946	-19.191	-0.104	0.064
-241.932	-200.000	0.020	0.175
-240.917	800.000	0.050	-0.168
-239.903	-82.950	0.163	0.052
-238.888	-82.348	-0.048	0.015
-237.873	-200.000	0.033	0.198
-236.859	-200.000	0.004	-0.115
-235.844	-191.812	-0.108	0.001
-234.830	127.305	0.201	0.251
-233.815	168.775	-0.112	0.157
-232.800	-29.827	-0.163	-0.091
-231.786	-200.000	-0.080	0.345
-230.771	-19.020	0.281	-0.172
-229.757	343.948	0.133	0.257
-228.742	-13.074	0.059	-0.038
-227.727	800.000	0.056	0.235
-226.713	-8.673	-0.169	0.112
-225.698	-200.000	-0.058	0.255
-224.684	-141.256	0.422	0.042
-223.669	414.416	-0.088	-0.185
-222.655	-56.489	0.135	-0.059
-221.640	368.461	0.034	-0.068
-220.625	800.000	-0.058	0.186
-219.611	-95.428	-0.080	-0.021
-218.596	-36.027	0.353	0.188
-217.582	495.610	-0.057	-0.129
-216.567	10.929	-0.106	0.080
-215.552	-200.000	0.014	0.224
-214.538	72.014	0.139	0.142
-213.523	300.217	-0.048	-0.087
-212.509	-87.942	0.197	-0.058
-211.494	-103.117	-0.119	0.028
-210.479	-200.000	0.049	-0.229
-209.465	165.265	0.032	-0.044
-208.450	68.428	-0.200	-0.201
-207.436	189.950	-0.134	0.197
-206.421	-20.804	0.042	-0.026
-205.406	-140.890	0.187	-0.019
-204.392	-53.448	-0.471	-0.212
-203.377	247.941	0.094	0.155
-202.363	-102.856	0.123	0.029
-201.348	-200.000	-0.039	0.283
-200.333	-44.447	0.204	-0.100
-199.319	-137.901	0.145	-0.016
-198.304	-85.105	0.593	0.182
-197.290	-200.000	0.032	0.349
-196.275	-200.000	-0.031	-0.171
-195.260	249.180	-0.049	-0.082
-194.246	267.376	0.081	0.139
-193.231	-200.000	-0.006	-0.164
-192.217	254.359	-0.052	0.088
-191.202	15.256	0.088	-0.068
-190.187	668.493	-0.093	0.236
-189.173	-40.367	-0.022	-0.011
-188.158	59.882	0.300	0.290
-187.144	194.288	-0.113	-0.168
-186.129	-93.699	-0.111	0.030
-185.114	-37.993	-0.143	-0.075
-184.100	-0.625	-0.135	-0.094
-183.085	800.000	-0.075	-0.262
-182.071	-119.409	-0.073	0.013
-181.056	-200.000	0.079	0.414
-180.042	192.540	-0.124	-0.183
-179.027	-99.157	-0.487	0.121
-178.012	-200.000	0.007	-0.141
-176.998	333.526	0.269	-0.510
-175.983	-200.000	0.062	-0.312
-174.969	363.715	-0.175	0.344
-173.954	146.976	-0.141	-0.186
-172.939	-200.000	0.004	-0.166
-171.925	44.492	0.035	-0.032
-170.910	132.215	0.101	-0.128
-169.896	72.736	-0.152	-0.155
-168.881	124.993	0.101	0.125
-167.866	-69.892	0.184	0.069
-166.852	181.667	-0.144	-0.208
-165.837	1.457	-0.050	0.035
-164.823	-97.624	-0.293	-0.075
-163.808	45.574	0.331	0.299
-162.793	153.891	-0.120	0.161
-161.779	-200.000	-0.004	-0.169
-160.764	-0.508	0.159	0.111
-159.750	-200.000	-0.017	-0.089
-158.735	165.491	0.189	-0.261
-157.720	174.113	-0.098	0.139
-156.706	-7.061	0.268	0.178
-155.691	-139.568	-0.029	0.003
-154.677	-65.044	0.235	0.093
-153.662	-133.342	0.192	0.024
-152.647	-90.350	0.048	0.014
-151.633	-139.062	-0.129	0.014
-150.618	800.000	0.072	-0.240
-149.604	16.760	0.181	-0.140
-148.589	-200.000	-0.068	0.387
-147.574	186.936	0.111	-0.161
-146.560	-96.413	0.175	-0.045
-145.545	-173.312	-0.189	-0.006
-144.531	611.330	0.063	0.155
-143.516	589.978	-0.078	0.188
-142.502	-116.209	0.103	-0.019
-141.487	126.632	-0.218	0.271
-140.472	-84.540	0.307	-0.095
-139.458	-200.000	-0.007	0.047
-138.443	-134.465	0.123	0.015
-137.429	-144.736	-0.076	0.007
-136.414	-200.000	0.001	0.073
-135.399	569.281	0.039	-0.092
-134.385	-79.610	-0.050	0.017
-133.370	-134.760	0.253	-0.030
-132.356	-107.194	0.177	-0.038
-131.341	800.000	0.121	0.422
-130.326	-200.000	0.007	-0.092
-129.312	800.000	-0.072	0.258
-128.297	-120.925	0.216	0.036
-127.283	800.000	-0.032	0.133
-126.268	-180.514	-0.139	-0.003
-125.253	18.772	-0.150	-0.117
-124.239	761.589	0.080	-0.213
-123.224	-166.565	0.157	0.006
-122.210	78.836	-0.103	0.108
-121.195	800.000	-0.033	0.136
-120.180	-200.000	0.030	-0.139
