DTS Sentinel unit serial number:	SN413079Multiplexer serial number:	ORYXHardware model number:	OX4-SRSoftware version number:	ORYX F/W v4.00 Oryx Data Collector v3.7.2.0data status	okinstallation	princeton_trtdifferential loss correction	single-endedforward channel	channel 1reverse channel	N/Adate	2019/09/16time	12:46:35forward acquisition time	60.00reverse acquisition time	0.00gamma	496.2192k internal	0.2294k external	0.2294temperature offset calibration	0.9953default loss term (dB/km)	0.3790temperature slope calibration	1.0000multiplexer offset coefficient	1.0000multiplexer slope coefficient	1.0000fibre end	0.00T internal ref (°C)	40.19T ext. ref 1 (°C)	13.48T ext. ref 2 (°C)	37.13length (m)	temperature (°C)	Stokes	anti-Stokes-747.200	-134.158	-0.109	-0.014
-746.185	800.000	0.107	0.395
-745.171	353.790	0.076	-0.154
-744.156	-200.000	-0.005	-0.068
-743.142	-27.292	-0.156	-0.093
-742.127	53.284	0.152	0.149
-741.112	538.824	0.050	0.121
-740.098	680.505	-0.049	0.130
-739.083	-98.447	0.227	-0.059
-738.069	112.538	-0.240	0.296
-737.054	-200.000	-0.013	0.174
-736.039	-144.469	0.254	0.024
-735.025	-140.798	0.549	0.058
-734.010	-84.284	-0.103	-0.033
-732.996	-200.000	-0.006	0.089
-731.981	-44.131	-0.317	-0.163
-730.966	43.190	0.117	-0.109
-729.952	36.706	-0.225	-0.203
-728.937	-200.000	-0.006	0.231
-727.923	335.132	0.062	0.122
-726.908	16.873	0.159	0.128
-725.894	53.737	0.187	0.184
-724.879	-22.438	-0.114	0.071
-723.864	-49.165	-0.254	-0.124
-722.850	-200.000	0.033	-0.152
-721.835	-129.718	-0.197	-0.028
-720.821	174.776	-0.212	-0.314
-719.806	-145.095	-0.619	0.058
-718.791	-38.566	0.210	-0.113
-717.777	84.164	-0.059	-0.066
-716.762	-200.000	-0.002	0.132
-715.748	-134.592	-0.438	-0.055
-714.733	-165.195	0.136	0.006
-713.718	-80.810	-0.355	-0.121
-712.704	722.734	0.071	0.193
-711.689	231.063	0.085	-0.142
-710.675	304.770	0.136	-0.258
-709.660	100.612	0.093	-0.110
-708.645	-200.000	-0.035	0.292
-707.631	144.984	-0.158	0.216
-706.616	-49.140	-0.071	-0.035
-705.602	-70.458	0.108	-0.042
-704.587	-200.000	0.010	0.169
-703.572	10.213	0.075	-0.058
-702.558	-188.124	-0.220	0.003
-701.543	-40.354	-0.174	0.092
-700.529	156.380	-0.207	-0.292
-699.514	-200.000	0.015	-0.312
-698.499	800.000	0.049	0.213
-697.485	123.050	0.275	-0.352
-696.470	800.000	0.018	0.052
-695.456	800.000	-0.023	-0.100
-694.441	-112.415	0.211	-0.043
-693.426	764.763	-0.108	-0.299
-692.412	199.752	-0.047	-0.074
-691.397	-104.375	-0.101	-0.024
-690.383	-176.489	0.088	-0.002
-689.368	-64.073	0.177	-0.074
-688.354	17.458	-0.151	0.123
-687.339	542.184	0.084	0.205
-686.324	-200.000	0.000	0.070
-685.310	69.446	-0.048	0.050
-684.295	134.434	-0.117	-0.155
-683.281	-179.502	0.320	-0.007
-682.266	9.169	0.151	0.116
-681.251	43.087	0.382	-0.356
-680.237	-43.215	-0.271	0.140
-679.222	-39.932	0.238	-0.127
-678.208	58.079	0.024	0.024
-677.193	-2.472	-0.156	-0.112
-676.178	-90.503	0.072	-0.021
-675.164	-96.489	-0.201	0.054
-674.149	42.352	0.354	0.329
-673.135	31.933	0.390	-0.343
-672.120	586.489	-0.077	0.193
-671.105	800.000	-0.075	0.316
-670.091	-45.684	-0.226	0.114
-669.076	27.577	-0.196	-0.168
-668.062	-66.686	0.185	-0.075
-667.047	-64.965	0.168	-0.069
-666.032	-113.662	0.228	0.045
-665.018	-27.718	0.112	0.066
-664.003	22.220	-0.140	-0.116
-662.989	-59.576	-0.108	0.047
-661.974	73.249	0.182	-0.194
-660.959	-200.000	-0.009	-0.115
-659.945	-17.260	0.177	-0.113
-658.930	-200.000	-0.005	0.385
-657.916	-120.777	-0.118	0.020
-656.901	-184.354	0.318	0.005
-655.886	241.990	0.080	-0.136
-654.872	-52.694	-0.212	-0.100
-653.857	-74.494	0.194	0.071
-652.843	800.000	0.032	-0.122
-651.828	405.572	-0.013	-0.027
-650.814	134.451	-0.174	0.230
-649.799	-50.250	-0.221	0.106
-648.784	85.741	-0.140	-0.157
-647.770	37.244	-0.108	-0.097
-646.755	-23.191	-0.134	-0.082
-645.741	800.000	0.062	-0.203
-644.726	12.483	-0.335	-0.263
-643.711	153.590	0.100	-0.139
-642.697	800.000	-0.055	-0.191
-641.682	-46.688	0.189	0.094
-640.668	167.507	-0.165	0.238
-639.653	-200.000	0.029	0.306
-638.638	800.000	0.087	-0.269
-637.624	101.038	-0.219	0.260
-636.609	-121.219	-0.278	-0.047
-635.595	-59.896	0.044	-0.019
-634.580	-200.000	0.007	0.033
-633.565	-88.665	0.118	-0.036
-632.551	267.274	-0.037	-0.065
-631.536	497.112	0.150	-0.352
-630.522	-9.330	-0.211	-0.144
-629.507	7.882	0.455	0.348
-628.492	551.887	-0.027	-0.067
-627.478	-155.307	-0.167	-0.011
-626.463	77.555	0.179	-0.194
-625.449	-57.652	-0.128	-0.057
-624.434	-59.891	-0.184	-0.080
-623.419	-131.723	-0.388	-0.052
-622.405	-57.543	-0.100	-0.045
-621.390	-118.052	-0.064	-0.012
-620.376	-64.872	-0.240	-0.099
-619.361	800.000	-0.024	-0.069
-618.346	50.251	0.262	-0.252
-617.332	362.753	0.044	-0.089
-616.317	671.308	-0.114	-0.302
-615.303	704.973	-0.100	-0.267
-614.288	-95.982	0.340	-0.092
-613.273	79.979	-0.154	-0.168
-612.259	-200.000	-0.039	-0.391
-611.244	-129.121	0.319	0.045
-610.230	765.806	-0.016	0.043
-609.215	9.101	0.145	0.112
-608.201	800.000	0.065	0.184
-607.186	14.597	0.061	0.048
-606.171	253.400	-0.159	0.275
-605.157	441.840	0.058	0.129
-604.142	-85.319	-0.293	-0.093
-603.128	41.005	-0.129	0.119
-602.113	-38.468	-0.226	0.121
-601.098	-96.746	0.236	-0.063
-600.084	-200.000	0.450	-0.002
-599.069	-200.000	-0.081	0.462
-598.055	-56.383	0.076	0.034
-597.040	800.000	0.013	0.052
-596.025	-162.282	-0.185	-0.009
-595.011	-1.083	-0.284	-0.204
-593.996	800.000	0.061	-0.196
-592.982	-57.530	-0.180	-0.080
-591.967	121.465	-0.101	0.128
-590.952	-91.337	-0.313	-0.091
-589.938	101.748	-0.071	-0.084
-588.923	128.632	-0.144	-0.187
-587.909	230.140	0.084	0.140
-586.894	-79.992	0.255	-0.087
-585.879	230.277	-0.065	-0.109
-584.865	-4.096	-0.101	0.071
-583.850	-86.636	0.186	0.058
-582.836	800.000	-0.077	-0.222
-581.821	-200.000	-0.027	-0.129
-580.806	355.885	-0.185	-0.374
-579.792	223.953	-0.136	-0.224
-578.777	-142.108	0.109	0.011
-577.763	-80.111	-0.343	-0.117
-576.748	-200.000	-0.009	0.122
-575.733	-0.413	-0.144	-0.104
-574.719	475.468	0.018	-0.041
-573.704	114.813	-0.123	-0.152
-572.690	28.447	0.174	-0.150
-571.675	28.601	0.075	-0.065
-570.661	165.316	-0.116	-0.166
-569.646	49.933	-0.246	0.236
-568.631	800.000	0.043	-0.138
-567.617	181.855	0.080	-0.119
-566.602	633.458	0.044	0.114
-565.588	129.619	-0.190	-0.247
-564.573	11.917	0.098	-0.076
-563.558	267.128	0.085	-0.151
-562.544	125.565	0.087	-0.112
-561.529	574.491	-0.038	-0.094
-560.515	169.356	-0.249	-0.361
-559.500	9.548	-0.070	-0.054
-558.485	-200.000	0.007	-0.075
-557.471	314.336	0.164	0.314
-556.456	-8.257	-0.053	-0.036
-555.442	800.000	0.020	0.066
-554.427	-200.000	0.044	0.269
-553.412	-200.000	0.022	-0.227
-552.398	-1.721	-0.050	-0.036
-551.383	-171.488	0.237	0.008
-550.369	18.001	-0.144	-0.117
-549.354	800.000	-0.109	-0.318
-548.339	43.068	0.038	-0.035
-547.325	159.210	0.213	0.300
-546.310	367.465	-0.175	0.360
-545.296	241.698	0.051	0.087
-544.281	8.680	0.468	-0.358
-543.266	-66.637	0.395	-0.159
-542.252	800.000	-0.034	0.130
-541.237	-101.674	-0.363	-0.089
-540.223	217.964	0.250	0.404
-539.208	-108.732	0.117	-0.025
-538.193	-29.901	-0.377	-0.218
-537.179	-94.851	-0.602	-0.165
-536.164	-85.851	0.244	-0.077
-535.150	-26.167	-0.093	0.055
-534.135	-200.000	-0.007	0.037
-533.121	99.340	0.097	0.113
-532.106	258.887	-0.232	0.406
-531.091	-200.000	-0.009	0.061
-530.077	202.661	0.059	0.092
-529.062	-178.057	0.260	-0.006
-528.048	800.000	-0.029	-0.108
-527.033	-6.152	-0.181	0.126
-526.018	-37.984	-0.086	-0.046
-525.004	-167.341	0.265	0.011
-523.989	436.785	-0.027	-0.059
-522.975	-200.000	-0.013	-0.280
-521.960	-200.000	-0.025	-0.430
-520.945	-52.076	-0.213	-0.100
-519.931	800.000	0.045	0.135
-518.916	45.072	0.131	-0.122
-517.902	265.676	-0.167	0.295
-516.887	199.738	0.036	-0.056
-515.872	165.128	-0.110	0.158
-514.858	698.760	-0.066	0.177
-513.843	675.663	0.094	0.249
-512.829	-92.484	-0.125	0.036
-511.814	430.857	0.061	0.133
-510.799	342.245	0.094	0.185
-509.785	30.532	-0.178	0.154
-508.770	800.000	0.054	0.210
-507.756	-159.593	0.151	0.009
-506.741	-110.587	-0.297	-0.062
-505.726	-3.732	-0.184	0.129
-504.712	-200.000	0.015	0.249
-503.697	762.837	-0.011	-0.029
-502.683	800.000	0.069	0.235
-501.668	-40.221	-0.092	-0.048
-500.653	-123.895	-0.113	-0.018
-499.639	-53.133	-0.278	0.129
-498.624	-0.033	0.204	-0.147
-497.610	800.000	0.095	-0.381
-496.595	-107.407	-0.300	-0.067
-495.581	-200.000	-0.038	0.238
-494.566	-200.000	-0.059	-0.369
-493.551	-103.576	0.037	0.009
-492.537	-2.526	-0.266	0.188
-491.522	-200.000	0.067	-0.465
-490.508	49.148	0.068	-0.065
-489.493	-152.325	-0.119	-0.009
-488.478	-62.188	-0.032	0.014
-487.464	432.765	-0.126	0.278
-486.449	-45.467	-0.161	-0.081
-485.435	-9.860	0.155	-0.105
-484.420	-24.972	0.259	-0.155
-483.405	195.269	0.069	-0.106
-482.391	236.090	0.180	-0.301
-481.376	-105.376	-0.357	-0.082
-480.362	-77.475	-0.213	-0.075
-479.347	-200.000	0.020	-0.168
-478.332	-29.395	0.117	-0.068
-477.318	20.094	0.241	-0.197
-476.303	470.362	0.102	-0.232
-475.289	-72.697	-0.453	0.169
-474.274	-124.110	0.303	0.048
-473.259	800.000	0.110	-0.320
-472.245	-85.043	-0.194	0.062
-471.230	11.600	-0.191	-0.148
-470.216	258.082	-0.021	0.036
-469.201	-17.378	0.396	-0.253
-468.186	-184.763	0.439	0.007
-467.172	-137.079	0.175	-0.020
-466.157	-200.000	0.037	-0.219
-465.143	109.094	-0.088	-0.107
-464.128	793.009	-0.035	0.099
-463.113	-200.000	0.006	0.058
-462.099	-11.513	0.043	0.028
-461.084	-200.000	-0.013	-0.109
-460.070	-123.718	0.130	-0.021
-459.055	-138.777	0.204	0.022
-458.040	-162.066	-0.243	-0.012
-457.026	-41.652	-0.323	-0.168
-456.011	-46.447	0.190	-0.094
-454.997	-71.547	-0.209	-0.079
-453.982	800.000	-0.089	0.263
-452.968	-112.758	0.177	-0.036
-451.953	-32.122	-0.087	-0.049
-450.938	-12.753	0.284	-0.187
-449.924	-155.835	0.235	-0.015
-448.909	137.811	0.211	-0.279
-447.895	-200.000	-0.048	0.244
-446.880	-200.000	0.054	-0.252
-445.865	-200.000	-0.042	-0.242
-444.851	-40.367	-0.204	-0.107
-443.836	-35.768	0.136	-0.074
-442.822	77.101	-0.271	0.291
-441.807	800.000	0.030	0.097
-440.792	-93.119	-0.069	-0.019
-439.778	-126.882	0.188	0.028
-438.763	89.334	0.177	0.200
-437.749	-200.000	0.060	-0.489
-436.734	-81.139	-0.246	0.082
-435.719	72.215	0.398	0.419
-434.705	0.924	-0.272	-0.197
-433.690	-5.782	0.338	-0.234
-432.676	78.485	-0.121	0.131
-431.661	-200.000	-0.006	0.090
-430.646	-103.022	0.049	-0.012
-429.632	25.807	-0.175	0.147
-428.617	314.251	0.126	-0.239
-427.603	-103.114	-0.194	-0.046
-426.588	-23.123	-0.062	0.038
-425.573	800.000	0.056	0.222
-424.559	-109.886	0.329	0.070
-423.544	-132.897	0.182	-0.023
-422.530	-98.207	0.345	0.090
-421.515	-95.583	-0.175	0.047
-420.500	-45.172	-0.073	-0.036
-419.486	-200.000	0.057	-0.379
-418.471	800.000	0.071	0.278
-417.457	-31.374	0.050	-0.028
-416.442	144.614	-0.121	-0.164
-415.428	171.646	-0.026	-0.037
-414.413	109.396	0.089	0.107
-413.398	-121.213	0.147	0.025
-412.384	93.623	-0.120	-0.138
-411.369	-200.000	0.001	-0.195
-410.355	-200.000	0.002	0.176
-409.340	-141.965	0.177	0.018
-408.325	-71.831	-0.149	0.056
-407.311	-9.025	0.207	-0.140
-406.296	125.698	0.178	0.227
-405.282	147.008	0.123	0.167
-404.267	-110.226	0.256	-0.054
-403.252	-149.349	-0.445	0.036
-402.238	-200.000	0.018	-0.101
-401.223	518.636	-0.133	-0.315
-400.209	282.883	0.156	0.283
-399.194	118.681	0.137	0.170
-398.179	-200.000	0.008	0.344
-397.165	779.145	-0.132	0.364
-396.150	-46.517	-0.408	0.202
-395.136	-27.015	0.158	0.093
-394.121	-6.203	0.270	0.186
-393.106	127.295	0.154	0.198
-392.092	800.000	0.076	0.226
-391.077	-200.000	0.058	0.346
-390.063	800.000	0.093	-0.300
-389.048	-78.579	-0.328	-0.113
-388.033	-200.000	-0.023	0.245
-387.019	-91.052	0.180	-0.052
-386.004	-169.084	0.228	-0.009
-384.990	-30.172	-0.243	0.139
-383.975	-200.000	0.052	-0.262
-382.960	-56.182	-0.190	-0.085
-381.946	-90.133	0.156	-0.046
-380.931	511.394	0.100	0.234
-379.917	-154.352	-0.288	-0.020
-378.902	-200.000	0.069	-0.332
-377.888	-103.914	-0.312	0.074
-376.873	10.525	0.325	0.250
-375.858	-90.430	-0.200	0.059
-374.844	5.651	-0.251	0.187
-373.829	736.115	-0.071	-0.193
-372.815	-133.284	-0.376	0.048
-371.800	206.029	0.068	-0.106
-370.785	-170.299	0.284	0.010
-369.771	-171.029	0.110	0.004
-368.756	-200.000	-0.012	-0.084
-367.742	76.651	-0.133	0.143
-366.727	-200.000	-0.010	-0.049
-365.712	800.000	0.067	0.246
-364.698	-114.554	-0.192	-0.037
-363.683	386.957	-0.080	0.167
-362.669	41.059	0.145	-0.132
-361.654	-144.118	0.276	0.026
-360.639	-7.966	-0.133	0.090
-359.625	-200.000	0.001	0.027
-358.610	-182.806	-0.325	0.006
-357.596	800.000	-0.039	-0.156
-356.581	-54.703	-0.222	0.101
-355.566	38.939	-0.056	-0.051
-354.552	359.549	-0.070	0.140
-353.537	93.778	-0.048	-0.055
-352.523	78.583	-0.158	0.170
-351.508	406.878	-0.130	0.276
-350.493	492.057	0.054	0.124
-349.479	48.780	0.061	-0.058
-348.464	800.000	0.039	-0.133
-347.450	-91.444	0.376	0.108
-346.435	-192.849	0.100	-0.001
-345.420	350.983	-0.026	-0.052
-344.406	71.460	0.324	-0.338
-343.391	-40.092	0.436	-0.229
-342.377	69.748	-0.143	0.148
-341.362	-57.902	-0.231	-0.102
-340.348	-200.000	0.024	0.212
-339.333	-200.000	-0.044	0.234
-338.318	-200.000	-0.023	0.134
-337.304	-200.000	-0.001	-0.056
-336.289	40.669	0.167	0.152
-335.275	53.141	0.212	-0.204
-334.260	99.586	0.130	-0.152
-333.245	310.795	0.018	0.033
-332.231	-200.000	0.052	0.273
-331.216	166.429	0.032	-0.046
-330.202	30.479	-0.075	0.065
-329.187	800.000	-0.075	-0.288
-328.172	194.332	0.248	-0.378
-327.158	-200.000	0.037	0.208
-326.143	379.068	0.174	-0.359
-325.129	314.465	-0.152	-0.289
-324.114	170.609	0.220	0.317
-323.099	-178.381	-0.325	0.008
-322.085	-130.661	0.196	0.027
-321.070	-102.089	-0.160	0.039
-320.056	0.715	0.144	-0.103
-319.041	-192.950	0.437	-0.004
-318.026	-131.020	-0.292	0.039
-317.012	800.000	0.036	0.111
-315.997	-3.083	-0.122	0.086
-314.983	181.926	0.051	-0.075
-313.968	-50.274	0.100	-0.048
-312.953	-86.868	-0.503	0.154
-311.939	42.573	-0.132	-0.121
-310.924	-200.000	-0.035	0.266
-309.910	-200.000	0.029	-0.267
-308.895	-169.158	-0.377	-0.014
-307.880	10.100	0.254	-0.194
-306.866	-71.751	-0.147	0.055
-305.851	-200.000	-0.006	0.116
-304.837	-200.000	-0.033	-0.513
-303.822	414.670	-0.165	0.354
-302.807	491.574	-0.137	0.316
-301.793	-112.188	0.337	0.068
-300.778	800.000	-0.033	0.144
-299.764	35.209	0.087	0.076
-298.749	-126.093	0.276	-0.042
-297.735	-102.684	0.365	-0.087
-296.720	-30.449	-0.132	-0.075
-295.705	44.837	-0.118	0.109
-294.691	-200.000	-0.039	-0.464
-293.676	-84.827	0.217	0.068
-292.662	-111.803	-0.394	0.080
-291.647	237.407	-0.249	0.415
-290.632	-106.286	0.329	-0.074
-289.618	115.937	0.198	-0.243
-288.603	-8.090	0.321	-0.218
-287.589	-115.936	0.108	-0.020
-286.574	-200.000	-0.018	0.149
-285.559	-200.000	-0.001	0.051
-284.545	-3.759	-0.173	0.121
-283.530	479.125	0.021	0.048
-282.516	330.785	-0.098	0.189
-281.501	214.356	0.101	0.160
-280.486	-200.000	-0.058	0.290
-279.472	-158.311	-0.319	0.019
-278.457	88.884	0.075	-0.084
-277.443	338.269	0.065	0.127
-276.428	62.406	0.065	-0.065
-275.413	-200.000	-0.040	0.279
-274.399	520.280	0.089	0.209
-273.384	-108.216	-0.193	0.042
-272.370	24.740	0.303	0.252
-271.355	-48.142	0.111	0.054
-270.340	-51.480	-0.062	0.029
-269.326	-200.000	-0.052	0.270
-268.311	-60.435	0.128	0.055
-267.297	743.224	0.079	0.214
-266.282	35.696	0.184	0.162
-265.267	-200.000	0.014	0.160
-264.253	97.786	-0.119	0.138
-263.238	-2.356	-0.193	-0.136
-262.224	-152.365	0.112	-0.008
-261.209	-200.000	0.027	-0.142
-260.195	-38.870	0.135	0.071
-259.180	-15.269	0.180	-0.116
-258.165	-200.000	0.002	-0.121
-257.151	-200.000	0.062	0.327
-256.136	-142.443	-0.310	0.031
-255.122	-83.961	0.212	0.068
-254.107	800.000	0.129	-0.427
-253.092	697.658	0.034	0.091
-252.078	-200.000	0.021	0.137
-251.063	-95.137	0.139	-0.038
-250.049	-72.158	-0.160	-0.059
-249.034	142.714	-0.143	-0.190
-248.019	631.613	0.064	0.164
-247.005	-31.587	0.081	0.046
-245.990	696.300	-0.121	-0.319
-244.976	737.449	0.111	-0.299
-243.961	-70.554	0.204	-0.078
-242.946	51.351	-0.122	-0.117
-241.932	-200.000	0.016	-0.097
-240.917	-139.583	0.304	0.032
-239.903	-21.386	0.201	-0.123
-238.888	-52.014	-0.063	0.029
-237.873	135.851	0.086	0.112
-236.859	-76.116	-0.158	0.056
-235.844	-200.000	0.012	-0.082
-234.830	8.226	-0.045	0.034
-233.815	15.374	-0.230	0.181
-232.800	164.266	-0.163	-0.230
-231.786	-200.000	-0.048	0.305
-230.771	532.658	-0.127	-0.302
-229.757	-69.422	-0.083	0.032
-228.742	187.490	-0.097	0.145
-227.727	17.542	0.205	-0.163
-226.713	-157.307	-0.144	0.009
-225.698	800.000	0.030	0.111
-224.684	800.000	-0.027	-0.115
-223.669	26.725	0.125	0.105
-222.655	-24.037	-0.055	-0.033
-221.640	-119.097	-0.343	-0.060
-220.625	-77.139	0.263	-0.092
-219.611	800.000	0.016	-0.066
-218.596	-74.379	0.154	-0.056
-217.582	222.325	-0.030	0.048
-216.567	279.557	-0.079	0.142
-215.552	1.923	0.015	0.011
-214.538	-72.228	-0.099	-0.037
-213.523	49.893	-0.069	-0.065
-212.509	-200.000	0.019	0.178
-211.494	-200.000	-0.002	-0.016
-210.479	-200.000	-0.048	0.276
-209.465	-200.000	0.020	0.287
-208.450	-27.443	-0.075	-0.044
-207.436	-128.941	-0.057	0.008
-206.421	-200.000	-0.014	-0.138
-205.406	29.092	0.105	0.089
-204.392	341.665	-0.057	0.111
-203.377	-106.923	0.209	-0.046
-202.363	79.055	0.114	-0.123
-201.348	91.969	0.020	-0.023
-200.333	115.481	0.127	0.155
-199.319	800.000	-0.071	0.245
-198.304	240.121	0.046	0.076
-197.290	800.000	0.087	-0.283
-196.275	-11.837	-0.166	0.109
-195.260	-61.403	-0.163	0.069
-194.246	134.871	-0.144	0.187
-193.231	452.741	0.076	-0.169
-192.217	-9.138	0.083	0.055
-191.202	800.000	0.083	-0.239
-190.187	159.406	-0.215	0.299
-189.173	-200.000	0.020	0.145
-188.158	-25.944	0.056	-0.033
-187.144	-152.221	-0.182	-0.013
-186.129	-200.000	-0.003	-0.019
-185.114	2.804	-0.099	0.072
-184.100	-142.486	-0.497	-0.049
-183.085	-137.503	0.274	0.031
-182.071	-200.000	0.017	-0.418
-181.056	-200.000	0.032	0.274
-180.042	-65.436	-0.170	-0.068
-179.027	-200.000	0.032	0.214
-178.012	168.435	0.220	-0.313
-176.998	146.786	0.143	-0.192
-175.983	-105.999	0.065	-0.015
-174.969	-147.144	-0.291	0.025
-173.954	302.256	-0.121	0.224
-172.939	-200.000	-0.013	0.057
-171.925	800.000	0.061	0.179
-170.910	-71.260	0.173	0.065
-169.896	800.000	0.091	0.283
-168.881	16.734	0.073	0.058
-167.866	-33.218	-0.375	0.208
-166.852	-190.961	-0.076	0.001
-165.837	-63.374	-0.114	-0.047
-164.823	8.031	0.208	-0.156
-163.808	800.000	0.033	0.116
-162.793	-102.008	0.101	0.024
-161.779	37.748	-0.100	0.089
-160.764	-113.464	0.222	-0.043
-159.750	210.284	0.154	-0.241
-158.735	3.602	-0.040	-0.029
-157.720	121.328	0.404	0.503
-156.706	-111.995	0.163	-0.033
-155.691	800.000	0.044	0.125
-154.677	-200.000	-0.023	-0.103
-153.662	-166.719	0.388	-0.016
-152.647	491.886	0.201	0.459
-151.633	-200.000	0.016	0.330
-150.618	800.000	0.089	-0.320
-149.604	147.259	-0.140	0.188
-148.589	179.662	-0.068	0.100
-147.574	105.967	0.285	0.337
-146.560	291.282	0.282	0.513
-145.545	-41.728	0.155	-0.080
-144.531	-149.886	0.303	-0.024
-143.516	-83.834	0.286	0.091
-142.502	-116.487	0.210	0.039
-141.487	-146.272	-0.180	-0.016
-140.472	-200.000	-0.004	0.178
-139.458	800.000	-0.038	-0.115
-138.443	-86.996	0.081	0.025
-137.429	1.169	-0.149	-0.107
-136.414	-100.666	-0.156	0.038
-135.399	-97.248	0.162	0.042
-134.385	385.615	0.075	0.155
-133.370	66.361	-0.232	-0.235
-132.356	800.000	0.160	-0.582
-131.341	800.000	0.088	-0.282
-130.326	230.308	-0.151	0.246
-129.312	355.257	-0.042	-0.083
-128.297	-121.091	0.091	-0.015
-127.283	194.884	-0.108	0.164
-126.268	214.027	-0.128	0.202
-125.253	-200.000	0.306	-0.000
-124.239	17.588	-0.226	-0.179
-123.224	-94.533	-0.418	-0.114
-122.210	-6.670	-0.265	0.180
-121.195	117.524	0.142	0.175
