DTS Sentinel unit serial number:	SN413079Multiplexer serial number:	ORYXHardware model number:	OX4-SRSoftware version number:	ORYX F/W v4.00 Oryx Data Collector v3.7.2.0data status	okinstallation	princeton_trtdifferential loss correction	single-endedforward channel	channel 1reverse channel	N/Adate	2019/09/15time	00:02:35forward acquisition time	60.00reverse acquisition time	0.00gamma	496.2192k internal	0.2320k external	0.2320temperature offset calibration	0.9995default loss term (dB/km)	0.3790temperature slope calibration	1.0000multiplexer offset coefficient	1.0000multiplexer slope coefficient	1.0000fibre end	0.00T internal ref (°C)	32.20T ext. ref 1 (°C)	4.60T ext. ref 2 (°C)	27.19length (m)	temperature (°C)	Stokes	anti-Stokes-747.200	800.000	0.051	0.172
-746.185	425.993	0.114	0.248
-745.171	-83.551	0.232	-0.075
-744.156	-139.688	-0.267	0.029
-743.142	-48.809	0.069	-0.033
-742.127	-127.616	-0.255	0.037
-741.112	-25.240	-0.287	0.172
-740.098	194.888	0.168	0.257
-739.083	342.574	0.066	0.130
-738.069	-74.636	0.132	0.048
-737.054	114.040	0.201	-0.247
-736.039	-200.000	-0.017	-0.186
-735.025	800.000	0.014	-0.040
-734.010	448.146	-0.090	0.201
-732.996	75.394	-0.232	-0.248
-731.981	-200.000	-0.026	0.271
-730.966	561.414	-0.052	0.127
-729.952	-200.000	-0.042	-0.240
-728.937	44.834	-0.148	-0.138
-727.923	51.818	-0.172	-0.166
-726.908	29.236	-0.195	0.167
-725.894	427.974	-0.136	0.297
-724.879	19.740	-0.363	-0.296
-723.864	-109.536	-0.192	-0.041
-722.850	346.059	-0.088	0.174
-721.835	-80.683	0.379	-0.127
-720.821	-49.063	0.520	-0.251
-719.806	-77.878	-0.270	-0.094
-718.791	154.606	0.167	0.231
-717.777	-52.815	0.400	0.186
-716.762	-200.000	-0.043	0.283
-715.748	301.471	-0.169	-0.315
-714.733	288.832	-0.044	-0.081
-713.718	800.000	-0.063	0.200
-712.704	228.846	-0.045	-0.074
-711.689	121.052	0.252	-0.316
-710.675	93.416	-0.144	-0.165
-709.660	-85.945	0.091	0.029
-708.645	292.427	0.231	-0.425
-707.631	-85.000	0.085	0.027
-706.616	-200.000	-0.027	0.195
-705.602	320.410	-0.098	0.188
-704.587	59.725	-0.196	-0.196
-703.572	-126.470	0.296	-0.044
-702.558	2.093	-0.330	-0.241
-701.543	-126.916	-0.066	0.010
-700.529	-50.364	0.288	0.137
-699.514	-200.000	0.006	0.070
-698.499	44.456	-0.180	0.167
-697.485	84.282	-0.044	0.048
-696.470	-45.120	-0.075	0.037
-695.456	-12.452	-0.173	-0.114
-694.441	-52.856	0.126	0.059
-693.426	131.186	0.163	0.211
-692.412	-117.195	-0.356	0.065
-691.397	800.000	-0.032	-0.101
-690.383	800.000	0.050	0.200
-689.368	-63.753	-0.328	0.136
-688.354	-9.515	-0.007	-0.005
-687.339	-31.741	-0.261	-0.148
-686.324	-126.054	-0.227	-0.034
-685.310	-82.255	0.126	-0.041
-684.295	-55.132	-0.044	-0.020
-683.281	-13.126	0.153	-0.100
-682.266	-200.000	-0.008	-0.089
-681.251	800.000	0.101	-0.428
-680.237	115.227	-0.051	0.063
-679.222	-40.425	-0.092	0.048
-678.208	-24.493	-0.348	0.209
-677.193	2.932	-0.176	0.129
-676.178	-83.127	0.448	-0.146
-675.164	800.000	0.065	0.195
-674.149	56.298	0.203	-0.199
-673.135	-104.983	0.201	-0.047
-672.120	-200.000	-0.014	0.120
-671.105	106.078	-0.183	0.219
-670.091	-121.724	-0.305	0.051
-669.076	-79.731	0.215	0.073
-668.062	-137.913	0.080	-0.009
-667.047	260.730	-0.044	0.077
-666.032	87.194	-0.053	0.059
-665.018	156.264	-0.107	-0.149
-664.003	9.341	-0.271	0.206
-662.989	-92.491	-0.200	-0.057
-661.974	188.108	-0.262	0.395
-660.959	-77.403	-0.049	-0.017
-659.945	33.509	-0.216	-0.189
-658.930	-2.721	0.421	0.297
-657.916	96.721	-0.099	0.114
-656.901	54.354	-0.103	0.100
-655.886	-17.746	-0.181	-0.114
-654.872	705.694	0.164	-0.437
-653.857	494.187	0.054	0.125
-652.843	-200.000	0.037	-0.190
-651.828	25.615	-0.183	-0.153
-650.814	-5.271	0.060	0.042
-649.799	-104.971	0.487	0.112
-648.784	36.568	-0.206	0.183
-647.770	144.549	0.137	-0.185
-646.755	800.000	-0.039	-0.128
-645.741	449.462	-0.109	0.241
-644.726	209.630	-0.203	-0.320
-643.711	-120.832	0.270	0.046
-642.697	66.112	0.091	-0.093
-641.682	23.573	-0.107	0.089
-640.668	-81.253	0.198	0.066
-639.653	8.342	-0.386	-0.292
-638.638	176.052	0.085	-0.125
-637.624	362.458	-0.119	0.240
-636.609	-135.919	-0.212	0.025
-635.595	-132.824	-0.278	-0.036
-634.580	-26.894	0.010	-0.006
-633.565	66.769	-0.193	-0.198
-632.551	38.076	-0.156	0.140
-631.536	5.467	-0.048	0.036
-630.522	-60.906	0.324	0.138
-629.507	-200.000	-0.037	-0.362
-628.492	-200.000	0.021	0.272
-627.478	248.051	-0.221	-0.377
-626.463	-200.000	0.011	-0.232
-625.449	-129.499	-0.315	-0.044
-624.434	-24.681	0.369	-0.221
-623.419	800.000	-0.064	-0.228
-622.405	288.282	0.142	0.259
-621.390	534.344	-0.070	-0.166
-620.376	264.864	-0.098	-0.171
-619.361	800.000	-0.074	0.325
-618.346	800.000	0.058	0.217
-617.332	-131.996	0.148	-0.019
-616.317	-99.871	-0.247	-0.062
-615.303	67.175	-0.110	-0.113
-614.288	-170.108	-0.322	-0.012
-613.273	-18.814	-0.196	0.123
-612.259	456.200	-0.067	-0.149
-611.244	800.000	0.063	-0.183
-610.230	-200.000	0.026	-0.352
-609.215	-162.438	0.108	0.005
-608.201	366.412	-0.065	-0.132
-607.186	-1.411	-0.162	-0.115
-606.171	-7.439	-0.263	-0.179
-605.157	282.195	-0.051	0.091
-604.142	-200.000	-0.051	-0.423
-603.128	4.365	0.302	-0.222
-602.113	213.485	-0.059	-0.094
-601.098	20.403	-0.102	0.083
-600.084	-51.203	-0.051	-0.024
-599.069	357.627	-0.035	-0.071
-598.055	34.673	0.243	-0.213
-597.040	423.840	0.073	-0.159
-596.025	134.696	0.176	-0.229
-595.011	477.886	-0.063	0.142
-593.996	426.082	-0.051	-0.111
-592.982	71.838	-0.151	-0.158
-591.967	314.945	0.109	0.206
-590.952	800.000	-0.052	0.174
-589.938	-200.000	0.014	0.072
-588.923	-88.313	0.146	-0.044
-587.909	-89.121	0.259	-0.077
-586.894	116.315	0.130	-0.160
-585.879	-110.411	0.222	0.046
-584.865	-132.901	-0.319	0.041
-583.850	-54.970	0.431	-0.195
-582.836	-200.000	-0.021	-0.221
-581.821	14.407	-0.101	0.079
-580.806	-48.906	-0.222	0.107
-579.792	60.807	-0.142	0.141
-578.777	26.227	0.325	-0.273
-577.763	-200.000	-0.052	0.293
-576.748	238.402	-0.092	0.154
-575.733	-200.000	0.031	-0.201
-574.719	-200.000	0.066	-0.455
-573.704	-172.982	0.184	-0.006
-572.690	-95.273	0.516	-0.139
-571.675	41.048	-0.093	-0.085
-570.661	-119.143	-0.275	0.048
-569.646	34.814	0.185	0.163
-568.631	-125.129	-0.135	0.021
-567.617	440.421	-0.031	0.067
-566.602	800.000	-0.054	0.192
-565.588	114.031	0.108	0.131
-564.573	97.014	-0.342	0.393
-563.558	-200.000	-0.005	-0.376
-562.544	439.218	0.092	0.202
-561.529	-62.095	-0.192	0.080
-560.515	-12.142	-0.026	-0.017
-559.500	-200.000	0.014	-0.246
-558.485	-176.469	-0.424	0.011
-557.471	-91.058	0.034	0.010
-556.456	-92.927	-0.108	-0.030
-555.442	-200.000	-0.041	-0.227
-554.427	800.000	0.071	-0.239
-553.412	-86.346	-0.202	-0.062
-552.398	61.654	0.084	-0.083
-551.383	350.416	0.069	-0.138
-550.369	479.578	-0.069	0.156
-549.354	-168.162	-0.185	-0.007
-548.339	-39.932	0.376	0.197
-547.325	-1.467	-0.134	0.095
-546.310	387.514	0.085	0.176
-545.296	800.000	0.018	-0.076
-544.281	-169.299	-0.324	-0.012
-543.266	-95.127	-0.300	-0.081
-542.252	800.000	-0.056	0.178
-541.237	-200.000	-0.024	-0.270
-540.223	-110.202	0.298	0.062
-539.208	-56.636	-0.111	0.049
-538.193	-200.000	-0.027	-0.177
-537.179	-50.866	-0.085	-0.040
-536.164	-200.000	-0.009	0.424
-535.150	-83.516	0.213	-0.068
-534.135	418.895	0.013	0.027
-533.121	9.754	0.436	0.332
-532.106	540.441	-0.113	-0.271
-531.091	-138.726	-0.201	-0.022
-530.077	800.000	0.049	-0.181
-529.062	-200.000	0.025	0.222
-528.048	74.081	0.129	-0.135
-527.033	-58.135	0.171	0.075
-526.018	-200.000	0.028	-0.130
-525.004	24.540	0.337	0.280
-523.989	-200.000	0.000	-0.283
-522.975	-200.000	-0.006	-0.218
-521.960	-83.046	0.366	-0.118
-520.945	20.722	0.233	-0.189
-519.931	-200.000	0.009	0.068
-518.916	-200.000	0.021	0.179
-517.902	167.228	0.276	-0.392
-516.887	-42.054	0.137	0.070
-515.872	-200.000	0.027	-0.168
-514.858	-200.000	-0.026	0.215
-513.843	12.643	0.079	0.061
-512.829	61.394	-0.253	-0.252
-511.814	22.963	0.114	-0.093
-510.799	34.083	-0.220	0.193
-509.785	32.980	-0.213	0.185
-508.770	126.194	0.284	0.359
-507.756	-102.257	-0.261	-0.063
-506.741	-76.812	-0.256	0.090
-505.726	-43.591	0.126	-0.063
-504.712	10.528	-0.092	-0.071
-503.697	-37.164	-0.381	0.204
-502.683	66.744	0.180	0.183
-501.668	-57.493	-0.082	0.036
-500.653	26.329	0.260	-0.217
-499.639	-200.000	0.067	0.356
-498.624	151.421	0.020	0.028
-497.610	-145.988	0.036	-0.003
-496.595	-121.940	0.062	-0.010
-495.581	-104.124	0.375	-0.087
-494.566	58.317	-0.120	0.117
-493.551	-24.940	0.084	-0.050
-492.537	224.663	0.134	0.217
-491.522	24.449	0.075	0.062
-490.508	15.163	0.048	0.038
-489.493	-17.823	0.146	-0.092
-488.478	55.483	-0.161	0.156
-487.464	293.678	-0.056	-0.102
-486.449	-200.000	-0.027	-0.155
-485.435	-43.334	-0.260	-0.132
-484.420	332.730	0.169	0.326
-483.405	9.521	-0.252	0.191
-482.391	527.805	0.112	-0.264
-481.376	-200.000	0.069	-0.328
-480.362	-125.078	0.224	-0.034
-479.347	-27.273	-0.159	0.093
-478.332	220.300	0.147	-0.236
-477.318	594.408	0.133	-0.329
-476.303	89.241	-0.229	0.255
-475.289	-97.853	0.124	-0.032
-474.274	-158.923	-0.153	-0.009
-473.259	-200.000	0.023	-0.402
-472.245	0.667	0.195	-0.140
-471.230	-168.176	0.183	-0.007
-470.216	800.000	-0.051	-0.159
-469.201	-62.632	-0.117	-0.049
-468.186	254.441	-0.188	0.321
-467.172	-28.512	0.140	-0.081
-466.157	-66.764	-0.073	-0.029
-465.143	131.497	0.122	-0.156
-464.128	261.154	-0.144	-0.250
-463.113	800.000	0.056	-0.220
-462.099	-112.263	0.326	-0.065
-461.084	54.573	-0.028	-0.027
-460.070	86.713	-0.257	0.284
-459.055	-137.156	-0.134	0.015
-458.040	800.000	-0.082	0.246
-457.026	800.000	0.071	-0.204
-456.011	-200.000	-0.015	-0.115
-454.997	57.857	-0.359	0.351
-453.982	105.907	0.126	-0.149
-452.968	-121.639	-0.337	0.056
-451.953	182.474	0.215	0.316
-450.938	33.224	-0.166	0.144
-449.924	9.443	-0.240	0.182
-448.909	-200.000	-0.000	0.245
-447.895	-200.000	0.055	-0.351
-446.880	-144.312	0.307	-0.029
-445.865	800.000	-0.032	0.119
-444.851	-148.709	0.426	0.035
-443.836	-200.000	0.026	-0.212
-442.822	-96.472	0.193	-0.051
-441.807	-136.847	-0.157	0.018
-440.792	186.873	-0.136	0.202
-439.778	-200.000	0.044	-0.228
-438.763	420.984	-0.021	0.045
-437.749	-109.283	-0.182	0.039
-436.734	-84.923	0.185	-0.058
-435.719	-200.000	-0.018	-0.141
-434.705	0.371	-0.346	-0.247
-433.690	800.000	0.042	0.122
-432.676	-200.000	-0.039	0.183
-431.661	5.946	-0.212	0.157
-430.646	314.792	-0.119	0.225
-429.632	-62.925	0.126	0.052
-428.617	130.587	0.075	-0.096
-427.603	421.542	0.092	-0.198
-426.588	-97.323	-0.063	0.016
-425.573	-160.213	0.087	-0.005
-424.559	800.000	0.103	-0.420
-423.544	84.450	0.152	-0.166
-422.530	53.767	0.152	0.146
-421.515	-178.663	-0.282	-0.006
-420.500	-139.169	0.128	0.014
-419.486	800.000	-0.024	0.101
-418.471	-70.523	-0.180	0.068
-417.457	800.000	0.025	0.102
-416.442	-80.008	0.243	0.081
-415.428	-51.909	0.056	-0.026
-414.413	-177.668	-0.271	0.007
-413.398	-156.647	0.253	-0.016
-412.384	800.000	-0.062	-0.213
-411.369	-89.930	0.239	0.070
-410.355	-200.000	0.020	0.246
-409.340	129.073	-0.090	-0.115
-408.325	-150.529	-0.239	0.018
-407.311	-97.263	-0.278	-0.072
-406.296	-139.515	-0.093	-0.010
-405.282	13.727	0.020	0.016
-404.267	-200.000	0.001	0.008
-403.252	-200.000	0.032	-0.163
-402.238	32.178	-0.152	-0.131
-401.223	-165.986	-0.054	0.002
-400.209	-9.657	-0.180	0.120
-399.194	-15.180	-0.397	-0.253
-398.179	74.071	-0.062	0.065
-397.165	-77.757	0.152	0.052
-396.150	0.873	0.058	0.041
-395.136	-0.898	-0.116	0.082
-394.121	-72.907	-0.390	0.143
-393.106	-200.000	0.011	-0.413
-392.092	128.223	0.095	0.120
-391.077	-114.091	0.148	0.029
-390.063	-171.692	0.329	-0.011
-389.048	-200.000	-0.001	0.456
-388.033	77.226	-0.227	-0.241
-387.019	789.427	-0.075	0.206
-386.004	71.399	-0.177	0.183
-384.990	27.087	0.269	0.225
-383.975	682.541	-0.044	0.113
-382.960	-173.567	0.374	-0.011
-381.946	35.573	-0.132	0.115
-380.931	-154.450	-0.188	0.013
-379.917	305.800	-0.130	-0.242
-378.902	-200.000	0.052	0.265
-377.888	537.809	-0.175	0.416
-376.873	-105.782	-0.176	-0.040
-375.858	-200.000	0.035	-0.154
-374.844	752.853	-0.066	-0.179
-373.829	-200.000	-0.010	0.196
-372.815	-155.307	-0.301	0.020
-371.800	-152.057	-0.259	-0.019
-370.785	188.464	0.168	0.251
-369.771	-152.019	-0.106	-0.008
-368.756	-119.644	0.082	0.014
-367.742	-200.000	-0.029	-0.228
-366.727	-72.606	-0.332	-0.122
-365.712	220.482	0.080	0.128
-364.698	96.698	0.071	-0.081
-363.683	248.042	-0.073	0.123
-362.669	-200.000	-0.052	-0.359
-361.654	-129.948	-0.204	-0.028
-360.639	-107.195	-0.121	0.026
-359.625	-200.000	-0.059	-0.278
-358.610	425.753	0.145	-0.312
-357.596	-200.000	0.000	0.309
-356.581	-111.820	0.103	-0.021
-355.566	794.147	0.067	0.184
-354.552	-52.950	0.128	0.059
-353.537	91.064	0.190	-0.213
-352.523	-69.063	-0.572	-0.219
-351.508	300.510	0.091	0.166
-350.493	-170.203	0.192	-0.007
-349.479	-115.159	0.220	0.042
-348.464	800.000	-0.021	-0.066
-347.450	-149.297	0.214	0.017
-346.435	-111.643	0.417	0.084
-345.420	-81.157	0.202	0.066
-344.406	-200.000	0.043	0.387
-343.391	45.096	0.107	-0.098
-342.377	-67.487	-0.130	0.051
-341.362	156.530	0.124	-0.171
-340.348	676.283	0.094	0.243
-339.333	-77.392	0.058	0.020
-338.318	100.779	0.125	0.145
-337.304	141.123	0.144	0.190
-336.289	47.959	-0.183	0.170
-335.275	787.843	-0.014	0.039
-334.260	-200.000	0.009	0.175
-333.245	-105.931	0.274	0.061
-332.231	-133.360	0.173	0.022
-331.216	175.661	-0.277	-0.399
-330.202	175.109	0.017	-0.025
-329.187	75.816	0.017	0.018
-328.172	-1.673	-0.218	0.153
-327.158	385.413	-0.071	0.147
-326.143	38.854	-0.051	0.046
-325.129	-52.978	-0.063	0.029
-324.114	192.528	0.138	0.207
-323.099	286.354	0.056	0.101
-322.085	-100.254	-0.060	-0.015
-321.070	353.121	-0.210	0.415
-320.056	-8.850	-0.317	-0.211
-319.041	-200.000	-0.006	-0.043
-318.026	-72.057	0.419	-0.155
-317.012	329.299	-0.140	0.268
-315.997	-176.958	-0.128	-0.003
-314.983	-12.488	-0.101	0.065
-313.968	459.559	-0.017	-0.038
-312.953	-156.524	-0.110	-0.007
-311.939	800.000	0.069	-0.231
-310.924	96.361	0.153	0.174
-309.910	-76.054	-0.178	-0.063
-308.895	-60.961	-0.126	-0.053
-307.880	-70.293	-0.245	-0.092
-306.866	18.611	-0.251	-0.200
-305.851	-49.248	-0.394	-0.187
-304.837	-200.000	-0.021	-0.267
-303.822	54.870	0.089	-0.086
-302.807	784.179	0.079	-0.214
-301.793	-4.787	0.279	0.191
-300.778	-5.019	0.217	0.149
-299.764	626.905	-0.182	0.457
-298.749	65.978	0.120	-0.121
-297.735	-79.398	0.185	-0.062
-296.720	163.670	-0.018	0.026
-295.705	-120.727	-0.214	-0.036
-294.691	260.783	-0.131	-0.225
-293.676	282.493	0.053	0.094
-292.662	111.893	0.052	-0.063
-291.647	372.007	-0.064	0.129
-290.632	800.000	-0.114	-0.484
-289.618	62.255	0.229	-0.227
-288.603	-200.000	0.015	0.402
-287.589	-10.781	-0.302	-0.198
-286.574	137.048	0.152	-0.197
-285.559	800.000	0.127	0.418
-284.545	800.000	0.118	0.381
-283.530	800.000	-0.099	-0.316
-282.516	29.096	0.240	0.203
-281.501	-200.000	-0.075	-0.449
-280.486	62.582	0.051	-0.051
-279.472	186.066	-0.239	0.353
-278.457	800.000	-0.073	-0.263
-277.443	-1.386	-0.217	-0.152
-276.428	25.795	-0.161	0.133
-275.413	295.974	0.116	0.211
-274.399	800.000	-0.082	-0.340
-273.384	440.133	0.015	-0.033
-272.370	-81.910	0.298	0.097
-271.355	98.751	-0.348	0.399
-270.340	-200.000	0.081	0.360
-269.326	-56.009	0.359	0.159
-268.311	13.328	-0.332	-0.255
-267.297	800.000	0.005	-0.015
-266.282	-200.000	0.001	0.171
-265.267	382.080	0.063	0.128
-264.253	106.967	0.141	0.166
-263.238	106.080	-0.052	0.061
-262.224	-147.451	0.101	0.008
-261.209	-90.299	-0.308	-0.089
-260.195	26.058	0.371	0.307
-259.180	45.692	0.128	0.117
-258.165	-143.795	0.340	-0.032
-257.151	125.897	0.161	-0.202
-256.136	110.992	-0.038	-0.046
-255.122	108.586	-0.200	-0.237
-254.107	-93.076	0.101	0.028
-253.092	61.803	-0.265	0.262
-252.078	-200.000	0.028	-0.135
-251.063	-100.136	-0.194	0.048
-250.049	738.908	-0.013	0.036
-249.034	-101.403	0.399	0.096
-248.019	-200.000	-0.072	-0.488
-247.005	-200.000	-0.058	-0.385
-245.990	-200.000	-0.021	0.348
-244.976	-71.795	-0.275	-0.102
-243.961	72.053	-0.065	-0.067
-242.946	104.526	0.112	0.131
-241.932	800.000	0.089	0.245
-240.917	260.489	-0.090	0.154
-239.903	-200.000	-0.057	0.338
-238.888	7.267	0.115	0.085
-237.873	68.365	0.177	0.180
-236.859	-114.140	-0.267	0.051
-235.844	110.120	-0.081	-0.096
-234.830	-153.282	0.183	0.013
-233.815	118.654	0.037	-0.045
-232.800	-36.218	0.164	-0.088
-231.786	-64.671	0.081	-0.032
-230.771	46.632	0.207	-0.190
-229.757	515.979	-0.074	0.171
-228.742	-127.397	0.136	-0.020
-227.727	-48.380	0.085	0.041
-226.713	670.050	-0.172	0.440
-225.698	134.598	0.153	0.197
-224.684	800.000	0.052	-0.177
-223.669	800.000	-0.024	0.088
-222.655	800.000	-0.068	-0.261
-221.640	187.927	0.035	-0.052
-220.625	87.175	0.047	0.052
-219.611	40.229	0.193	0.172
-218.596	-42.915	0.149	0.075
-217.582	366.909	-0.083	-0.167
-216.567	264.081	-0.110	0.190
-215.552	-185.611	-0.265	-0.004
-214.538	800.000	-0.051	-0.167
-213.523	-123.437	0.280	-0.044
-212.509	182.833	-0.154	-0.225
-211.494	-200.000	-0.045	-0.242
-210.479	-13.390	-0.247	-0.158
-209.465	-200.000	-0.017	-0.212
-208.450	-200.000	-0.017	0.108
-207.436	-10.648	0.306	0.200
-206.421	-93.578	0.127	0.035
-205.406	69.036	-0.094	-0.096
-204.392	-147.606	0.092	-0.008
-203.377	578.952	0.124	0.300
-202.363	166.440	-0.049	-0.068
-201.348	198.703	-0.109	0.165
-200.333	284.864	0.135	-0.241
-199.319	397.746	0.053	-0.110
-198.304	-63.086	-0.184	0.075
-197.290	-141.119	0.183	-0.019
-196.275	-123.464	0.211	-0.033
-195.260	44.881	0.052	0.047
-194.246	-79.722	0.193	0.064
-193.231	-151.761	0.316	-0.023
-192.217	318.297	0.034	0.063
-191.202	-56.201	0.125	-0.055
-190.187	141.828	-0.053	-0.069
-189.173	-200.000	-0.025	-0.277
-188.158	-8.241	0.180	-0.120
-187.144	-6.042	0.387	0.262
-186.129	-92.897	0.165	0.045
-185.114	424.738	0.024	0.050
-184.100	-42.524	-0.038	-0.019
-183.085	368.978	0.174	0.348
-182.071	13.179	-0.239	0.183
-181.056	170.859	0.232	0.328
-180.042	149.032	0.128	-0.171
-179.027	454.599	-0.057	-0.125
-178.012	-165.571	-0.333	-0.014
-176.998	-93.684	-0.297	0.081
-175.983	-79.182	0.194	-0.065
-174.969	800.000	-0.016	-0.066
-173.954	-167.010	0.197	-0.008
-172.939	-98.031	-0.197	-0.050
-171.925	-200.000	0.002	0.352
-170.910	-88.397	-0.106	-0.031
-169.896	402.011	-0.079	0.165
-168.881	-200.000	0.011	0.319
-167.866	429.166	0.109	0.232
-166.852	-175.968	-0.196	-0.005
-165.837	-66.753	-0.072	-0.028
-164.823	-70.614	0.194	-0.073
-163.808	-45.176	-0.177	-0.087
-162.793	-138.548	-0.038	-0.004
-161.779	31.804	0.112	-0.095
-160.764	100.445	0.185	-0.212
-159.750	800.000	0.073	0.243
-158.735	-17.354	-0.071	0.044
-157.720	-200.000	-0.006	0.095
-156.706	-200.000	-0.404	-0.000
-155.691	-200.000	-0.028	0.230
-154.677	-53.361	0.060	-0.027
-153.662	-34.939	0.258	-0.139
-152.647	121.994	0.013	0.016
-151.633	217.320	0.043	0.068
-150.618	800.000	0.071	0.231
-149.604	-2.448	0.403	0.279
-148.589	800.000	-0.053	-0.156
-147.574	314.029	0.046	-0.085
-146.560	299.697	0.074	0.134
-145.545	-75.916	-0.431	0.151
-144.531	-42.742	0.004	-0.002
-143.516	-200.000	-0.018	0.173
-142.502	32.393	-0.137	0.117
-141.487	93.900	0.151	-0.169
-140.472	-54.306	0.299	0.134
-139.458	-45.993	0.039	-0.019
-138.443	3.010	0.269	-0.193
-137.429	251.756	0.286	0.481
-136.414	-200.000	0.001	-0.096
-135.399	203.971	-0.178	0.272
-134.385	800.000	0.038	-0.141
-133.370	-55.727	-0.284	0.125
-132.356	-141.573	-0.259	-0.026
-131.341	118.121	0.174	0.212
-130.326	484.397	0.070	0.157
-129.312	522.692	0.173	0.401
-128.297	-200.000	-0.016	-0.074
-127.283	-62.427	-0.168	0.069
-126.268	800.000	0.093	-0.350
-125.253	-192.577	-0.153	0.001
-124.239	207.494	0.086	-0.132
-123.224	-89.663	0.041	0.012
-122.210	-67.381	-0.214	0.083
-121.195	148.287	-0.030	0.040
-120.180	-200.000	0.007	-0.288
