DTS Sentinel unit serial number:	SN413079Multiplexer serial number:	ORYXHardware model number:	OX4-SRSoftware version number:	ORYX F/W v4.00 Oryx Data Collector v3.7.2.0data status	okinstallation	princeton_trtdifferential loss correction	single-endedforward channel	channel 1reverse channel	N/Adate	2019/09/19time	00:42:35forward acquisition time	60.00reverse acquisition time	0.00gamma	496.2192k internal	0.2343k external	0.2343temperature offset calibration	1.0020default loss term (dB/km)	0.3790temperature slope calibration	1.0000multiplexer offset coefficient	1.0000multiplexer slope coefficient	1.0000fibre end	0.00T internal ref (°C)	22.25T ext. ref 1 (°C)	0.72T ext. ref 2 (°C)	15.45length (m)	temperature (°C)	Stokes	anti-Stokes-747.200	-60.895	0.143	0.061
-746.185	-159.440	-0.183	0.010
-745.171	212.663	-0.129	-0.204
-744.156	785.433	-0.050	0.137
-743.142	142.038	-0.122	-0.162
-742.127	-200.000	-0.003	-0.298
-741.112	185.071	0.068	0.101
-740.098	161.397	0.265	-0.372
-739.083	-18.516	-0.154	0.096
-738.069	-200.000	-0.310	0.001
-737.054	22.371	0.131	0.107
-736.039	-161.372	-0.106	0.005
-735.025	-57.147	0.376	0.166
-734.010	-200.000	0.008	0.178
-732.996	-200.000	0.049	-0.235
-731.981	66.643	-0.256	-0.261
-730.966	468.641	-0.099	0.222
-729.952	-42.894	-0.178	0.091
-728.937	-79.574	-0.298	-0.101
-727.923	-137.538	0.374	0.042
-726.908	92.660	-0.182	-0.206
-725.894	-160.232	-0.297	-0.016
-724.879	-200.000	0.020	0.182
-723.864	-109.456	-0.265	-0.056
-722.850	151.146	-0.077	-0.104
-721.835	-105.525	0.130	0.030
-720.821	5.459	-0.151	-0.111
-719.806	-4.420	0.097	-0.067
-718.791	800.000	-0.035	-0.120
-717.777	-56.699	-0.199	-0.088
-716.762	-200.000	-0.029	-0.277
-715.748	-200.000	-0.002	-0.158
-714.733	170.149	-0.058	0.083
-713.718	38.902	0.072	-0.064
-712.704	-1.131	-0.227	0.160
-711.689	800.000	-0.071	0.267
-710.675	87.009	-0.244	0.270
-709.660	20.862	-0.346	-0.281
-708.645	-200.000	-0.008	-0.270
-707.631	-120.997	0.298	0.050
-706.616	29.192	0.328	0.278
-705.602	-200.000	0.031	0.192
-704.587	89.583	-0.284	-0.317
-703.572	-200.000	-0.012	0.204
-702.558	-63.467	-0.165	-0.068
-701.543	-200.000	0.004	-0.022
-700.529	-76.664	-0.032	0.011
-699.514	-200.000	-0.014	-0.197
-698.499	378.138	0.119	-0.243
-697.485	51.456	-0.171	0.163
-696.470	-73.258	0.032	0.012
-695.456	730.773	0.043	-0.116
-694.441	70.139	0.078	-0.081
-693.426	462.059	0.090	-0.200
-692.412	-10.653	-0.506	0.334
-691.397	493.718	-0.136	0.313
-690.383	-200.000	-0.020	0.148
-689.368	-200.000	0.012	0.124
-688.354	-200.000	0.012	-0.172
-687.339	-200.000	-0.069	0.403
-686.324	55.493	-0.047	-0.046
-685.310	-200.000	-0.019	0.368
-684.295	-108.625	0.313	-0.067
-683.281	-200.000	0.042	0.304
-682.266	-127.719	0.248	0.036
-681.251	-68.300	-0.411	0.159
-680.237	255.383	0.162	0.278
-679.222	800.000	0.117	-0.445
-678.208	258.335	0.063	0.108
-677.193	-200.000	-0.025	0.118
-676.178	-200.000	0.005	0.142
-675.164	-200.000	0.043	-0.207
-674.149	13.012	0.152	-0.118
-673.135	196.761	0.112	-0.170
-672.120	133.238	-0.079	-0.102
-671.105	157.353	-0.194	-0.268
-670.091	-99.990	-0.568	0.142
-669.076	-35.965	0.069	0.037
-668.062	-13.318	0.193	-0.125
-667.047	6.671	0.050	0.037
-666.032	-150.572	-0.276	-0.021
-665.018	800.000	0.086	0.345
-664.003	-34.541	0.203	0.111
-662.989	800.000	-0.070	-0.244
-661.974	28.766	-0.045	0.038
-660.959	-200.000	-0.019	0.121
-659.945	800.000	-0.112	0.398
-658.930	-54.985	-0.112	-0.050
-657.916	58.236	-0.173	-0.169
-656.901	-44.995	-0.224	-0.111
-655.886	-200.000	0.049	0.297
-654.872	24.340	-0.112	0.092
-653.857	264.705	-0.115	0.200
-652.843	135.994	0.118	-0.153
-651.828	-91.375	-0.158	-0.045
-650.814	-95.442	-0.011	0.003
-649.799	-200.000	0.007	-0.285
-648.784	-200.000	-0.005	-0.235
-647.770	-151.137	-0.345	-0.026
-646.755	-39.951	0.105	0.055
-645.741	-74.765	-0.294	0.105
-644.726	-200.000	0.022	0.127
-643.711	-93.299	-0.188	0.052
-642.697	-20.012	-0.184	0.113
-641.682	-34.198	-0.239	-0.131
-640.668	-200.000	-0.175	0.000
-639.653	-105.748	-0.133	0.030
-638.638	281.481	-0.092	0.164
-637.624	-41.601	0.199	0.102
-636.609	800.000	0.122	0.496
-635.595	800.000	0.063	-0.212
-634.580	-29.263	0.241	-0.137
-633.565	-101.849	-0.271	0.065
-632.551	299.822	-0.158	0.290
-631.536	800.000	0.091	0.362
-630.522	-200.000	-0.004	-0.594
-629.507	234.630	0.079	-0.130
-628.492	-86.576	0.117	-0.036
-627.478	-200.000	-0.010	-0.191
-626.463	89.549	-0.240	-0.267
-625.449	-200.000	-0.030	-0.313
-624.434	12.790	-0.263	-0.202
-623.419	503.348	-0.112	0.258
-622.405	-200.000	0.002	-0.332
-621.390	-200.000	0.015	-0.226
-620.376	800.000	0.084	0.235
-619.361	-21.037	-0.168	0.102
-618.346	142.728	-0.182	0.241
-617.332	9.854	-0.085	-0.064
-616.317	-85.640	-0.238	-0.074
-615.303	45.008	0.125	-0.114
-614.288	41.988	0.111	-0.100
-613.273	-200.000	-0.020	0.098
-612.259	20.672	0.078	-0.063
-611.244	75.070	-0.148	-0.156
-610.230	-41.429	-0.129	-0.066
-609.215	29.624	-0.254	-0.216
-608.201	-200.000	-0.023	-0.343
-607.186	159.661	-0.175	0.242
-606.171	10.718	0.119	0.090
-605.157	-61.113	-0.211	0.089
-604.142	-100.472	-0.311	-0.077
-603.128	800.000	-0.032	0.117
-602.113	100.373	0.062	-0.072
-601.098	-190.173	0.214	0.002
-600.084	98.262	-0.215	0.247
-599.069	800.000	-0.056	0.213
-598.055	270.096	0.185	-0.323
-597.040	389.209	-0.029	-0.059
-596.025	31.086	0.122	0.104
-595.011	-200.000	0.049	-0.302
-593.996	63.879	-0.250	0.250
-592.982	302.794	-0.187	-0.344
-591.967	240.509	0.103	0.171
-590.952	-5.249	0.135	-0.092
-589.938	796.360	0.062	0.170
-588.923	-139.838	0.144	-0.015
-587.909	-58.242	-0.353	0.153
-586.894	-110.651	-0.155	0.032
-585.879	-108.316	0.173	0.037
-584.865	-45.847	0.270	0.133
-583.850	-70.311	0.185	-0.070
-582.836	182.829	0.185	-0.271
-581.821	-200.000	-0.010	0.097
-580.806	800.000	0.033	0.094
-579.792	-48.982	-0.371	-0.177
-578.777	282.751	0.061	-0.108
-577.763	299.219	-0.097	-0.178
-576.748	-186.489	-0.323	0.005
-575.733	-98.891	-0.115	-0.029
-574.719	130.139	0.245	-0.312
-573.704	145.156	0.144	0.192
-572.690	191.713	-0.046	0.069
-571.675	-200.000	-0.047	-0.282
-570.661	-200.000	0.005	-0.212
-569.646	-200.000	0.020	-0.288
-568.631	494.259	0.091	-0.207
-567.617	800.000	-0.120	-0.402
-566.602	58.552	0.262	-0.255
-565.588	-183.626	0.216	0.004
-564.573	-200.000	-0.044	0.196
-563.558	-155.414	0.189	0.012
-562.544	-143.278	0.083	-0.008
-561.529	800.000	0.055	-0.230
-560.515	-143.395	-0.102	-0.010
-559.500	129.577	0.012	0.015
-558.485	-200.000	-0.026	-0.193
-557.471	-200.000	0.002	-0.045
-556.456	-24.517	-0.117	0.069
-555.442	-38.000	0.285	0.150
-554.427	-109.293	-0.445	-0.094
-553.412	-200.000	0.091	-0.445
-552.398	24.630	0.163	-0.134
-551.383	800.000	0.123	-0.364
-550.369	-16.808	0.122	-0.077
-549.354	115.802	-0.190	-0.231
-548.339	-77.685	0.299	0.103
-547.325	-103.042	0.364	0.086
-546.310	-21.340	0.134	-0.081
-545.296	516.352	0.049	-0.113
-544.281	52.073	-0.040	-0.038
-543.266	-200.000	0.024	0.127
-542.252	-113.818	-0.393	0.076
-541.237	129.650	0.067	-0.085
-540.223	-51.211	-0.295	-0.137
-539.208	-95.381	-0.238	-0.063
-538.193	800.000	0.020	0.078
-537.179	-6.321	-0.195	0.132
-536.164	-127.298	-0.205	0.030
-535.150	312.659	0.158	-0.295
-534.135	141.075	-0.112	0.147
-533.121	127.750	-0.162	-0.204
-532.106	-120.590	0.315	-0.053
-531.091	432.559	-0.175	-0.376
-530.077	622.845	-0.071	-0.177
-529.062	-105.120	0.402	-0.091
-528.048	87.455	0.040	-0.044
-527.033	157.611	0.149	0.205
-526.018	-50.392	-0.135	0.063
-525.004	133.522	-0.118	0.152
-523.989	-132.296	0.198	0.025
-522.975	739.913	0.055	0.147
-521.960	-81.604	0.293	-0.096
-520.945	237.604	0.196	-0.322
-519.931	-35.451	0.318	-0.171
-518.916	190.297	-0.107	0.160
-517.902	40.070	-0.080	-0.072
-516.887	-21.423	-0.057	0.035
-515.872	-162.929	0.142	-0.007
-514.858	254.483	-0.171	0.290
-513.843	-200.000	-0.045	0.322
-512.829	-54.213	-0.227	0.102
-511.814	-200.000	0.034	0.283
-510.799	-200.000	0.009	-0.097
-509.785	391.707	0.084	-0.172
-508.770	-104.642	-0.285	-0.065
-507.756	-200.000	0.006	-0.162
-506.741	-200.000	-0.023	-0.234
-505.726	-42.675	-0.151	-0.076
-504.712	-145.703	-0.129	-0.011
-503.697	-92.510	0.086	0.024
-502.683	315.320	-0.117	-0.218
-501.668	-101.781	-0.158	0.038
-500.653	-32.921	0.145	0.080
-499.639	-8.381	0.175	0.117
-498.624	-123.084	0.139	-0.022
-497.610	-36.618	0.109	-0.058
-496.595	-149.491	0.034	-0.003
-495.581	-200.000	-0.039	0.268
-494.566	-200.000	-0.007	0.224
-493.551	26.489	0.077	0.064
-492.537	-200.000	-0.032	-0.479
-491.522	-61.027	0.095	0.040
-490.508	136.637	0.187	0.242
-489.493	59.306	-0.023	0.023
-488.478	-200.000	0.039	0.223
-487.464	69.741	-0.182	-0.186
-486.449	7.447	-0.188	0.139
-485.435	259.311	0.136	0.233
-484.420	-200.000	0.037	0.167
-483.405	-2.062	-0.253	-0.176
-482.391	-200.000	-0.072	-0.485
-481.376	-200.000	0.101	-0.448
-480.362	-100.969	-0.229	-0.056
-479.347	-200.000	0.053	-0.272
-478.332	253.094	0.078	-0.132
-477.318	-116.855	-0.227	-0.041
-476.303	-200.000	0.056	-0.247
-475.289	16.751	0.079	-0.062
-474.274	729.679	-0.078	0.206
-473.259	-100.108	-0.474	-0.117
-472.245	-64.917	-0.116	0.046
-471.230	-76.004	0.170	0.060
-470.216	-25.744	-0.042	-0.025
-469.201	-200.000	0.092	0.000
-468.186	800.000	0.032	-0.125
-467.172	102.609	0.108	-0.125
-466.157	-200.000	0.034	0.208
-465.143	381.465	-0.053	-0.108
-464.128	323.598	-0.058	0.110
-463.113	64.567	-0.232	0.232
-462.099	800.000	0.068	0.242
-461.084	800.000	-0.050	0.173
-460.070	-50.367	0.290	0.136
-459.055	-58.431	-0.396	-0.170
-458.040	-124.186	0.106	0.016
-457.026	119.543	-0.226	0.277
-456.011	128.996	-0.080	-0.101
-454.997	800.000	0.033	0.114
-453.982	-133.837	-0.080	-0.010
-452.968	800.000	-0.091	-0.338
-451.953	52.872	-0.131	-0.124
-450.938	129.208	-0.054	0.069
-449.924	-200.000	-0.023	0.129
-448.909	-56.047	-0.231	-0.102
-447.895	496.063	0.055	0.126
-446.880	-78.780	-0.270	0.091
-445.865	-31.874	-0.358	0.198
-444.851	81.022	0.248	-0.265
-443.836	135.201	-0.198	0.255
-442.822	-48.745	-0.082	0.039
-441.807	317.668	0.113	0.212
-440.792	49.426	0.254	-0.237
-439.778	-39.038	0.211	-0.110
-438.763	41.281	-0.163	0.146
-437.749	-85.816	-0.088	0.027
-436.734	-200.000	-0.028	0.290
-435.719	-8.029	0.203	0.136
-434.705	614.352	-0.150	-0.371
-433.690	98.740	-0.098	0.112
-432.676	-188.240	0.484	0.006
-431.661	633.027	0.054	0.136
-430.646	-122.108	-0.393	-0.064
-429.632	429.299	0.068	0.145
-428.617	-200.000	-0.000	0.120
-427.603	164.525	0.070	-0.097
-426.588	297.065	-0.069	-0.125
-425.573	105.867	0.156	0.182
-424.559	-200.000	0.002	-0.116
-423.544	-8.393	-0.190	-0.127
-422.530	38.865	-0.144	-0.127
-421.515	-175.976	-0.306	-0.008
-420.500	-115.075	0.195	0.037
-419.486	-128.003	-0.156	-0.022
-418.471	131.830	0.051	-0.065
-417.457	138.514	0.309	0.401
-416.442	80.386	0.188	0.201
-415.428	-105.856	-0.210	0.047
-414.413	75.538	0.186	0.194
-413.398	278.788	-0.067	0.118
-412.384	25.077	-0.100	0.082
-411.369	159.827	-0.088	0.121
-410.355	-11.990	0.309	0.200
-409.340	97.321	-0.208	0.236
-408.325	-200.000	-0.007	0.258
-407.311	-4.790	0.221	-0.151
-406.296	-32.423	-0.047	-0.026
-405.282	-200.000	-0.007	-0.129
-404.267	4.032	-0.007	-0.005
-403.252	-84.895	-0.051	-0.016
-402.238	-93.635	-0.227	-0.062
-401.223	735.596	-0.177	0.469
-400.209	-132.468	0.207	-0.026
-399.194	185.481	0.109	0.160
-398.179	187.721	0.218	0.321
-397.165	-88.592	0.280	-0.082
-396.150	-3.182	-0.235	-0.162
-395.136	289.263	0.109	-0.195
-394.121	519.161	-0.094	0.218
-393.106	525.742	-0.148	-0.345
-392.092	-200.000	0.061	0.476
-391.077	311.423	-0.063	0.117
-390.063	-200.000	-0.017	-0.246
-389.048	-146.159	-0.398	0.035
-388.033	118.924	-0.279	0.340
-387.019	-71.486	0.406	-0.150
-386.004	196.962	-0.102	-0.154
-384.990	85.904	-0.079	-0.086
-383.975	33.694	0.135	-0.116
-382.960	-59.304	0.100	0.042
-381.946	-126.863	0.325	-0.047
-380.931	-140.431	0.244	0.025
-379.917	-11.779	0.229	0.148
-378.902	145.237	0.293	0.387
-377.888	231.410	-0.092	-0.149
-376.873	800.000	-0.058	-0.185
-375.858	-200.000	-0.000	-0.176
-374.844	-22.353	0.039	-0.023
-373.829	163.459	-0.270	0.375
-372.815	-200.000	-0.033	0.162
-371.800	-27.981	-0.230	0.132
-370.785	-41.569	-0.159	0.081
-369.771	-200.000	0.008	0.138
-368.756	326.243	0.138	-0.262
-367.742	239.071	0.085	0.139
-366.727	-179.311	-0.087	0.002
-365.712	80.833	0.078	0.083
-364.698	-200.000	-0.050	0.403
-363.683	-200.000	-0.001	0.084
-362.669	677.646	-0.111	0.286
-361.654	-200.000	0.125	0.603
-360.639	-200.000	-0.001	-0.068
-359.625	800.000	0.065	0.235
-358.610	164.126	0.069	-0.096
-357.596	-137.149	-0.202	0.023
-356.581	-61.695	0.172	0.071
-355.566	-95.519	-0.111	0.029
-354.552	-124.571	0.394	0.060
-353.537	-131.312	-0.084	0.011
-352.523	-98.570	-0.108	0.027
-351.508	680.182	-0.109	-0.280
-350.493	-200.000	0.000	-0.146
-349.479	-116.912	0.275	0.050
-348.464	-200.000	-0.021	0.171
-347.450	-70.942	0.224	-0.083
-346.435	392.714	0.096	-0.198
-345.420	-200.000	0.018	0.152
-344.406	690.329	0.090	0.232
-343.391	-28.429	-0.405	0.231
-342.377	-124.816	0.147	-0.022
-341.362	117.243	0.083	0.101
-340.348	-56.910	-0.126	0.055
-339.333	-22.296	-0.167	0.100
-338.318	-4.952	0.114	0.077
-337.304	-49.676	0.158	0.074
-336.289	-104.432	0.262	-0.060
-335.275	-115.492	-0.194	0.036
-334.260	-200.000	0.008	-0.286
-333.245	-108.908	0.174	-0.037
-332.231	-200.000	-0.005	0.117
-331.216	98.670	-0.188	-0.213
-330.202	3.380	0.359	0.258
-329.187	-200.000	-0.029	-0.172
-328.172	81.648	0.073	-0.078
-327.158	226.903	-0.054	-0.086
-326.143	56.144	-0.153	-0.146
-325.129	9.902	0.150	0.112
-324.114	162.229	-0.027	0.038
-323.099	0.169	-0.270	0.190
-322.085	404.168	0.131	-0.272
-321.070	-32.894	0.187	0.102
-320.056	-200.000	0.001	0.153
-319.041	24.049	0.292	-0.238
-318.026	-142.921	-0.346	0.033
-317.012	-91.087	0.234	-0.066
-315.997	522.314	-0.094	0.216
-314.983	-22.335	-0.079	0.047
-313.968	800.000	0.040	0.166
-312.953	800.000	-0.124	0.357
-311.939	-107.980	0.263	0.056
-310.924	419.576	-0.074	0.157
-309.910	178.447	-0.126	-0.181
-308.895	-99.136	0.153	0.038
-307.880	800.000	-0.061	-0.167
-306.866	800.000	-0.049	0.190
-305.851	50.395	-0.277	-0.258
-304.837	-138.050	0.306	0.034
-303.822	800.000	-0.024	-0.088
-302.807	-2.744	-0.132	-0.091
-301.793	749.436	-0.097	-0.258
-300.778	-200.000	-0.009	0.174
-299.764	800.000	-0.120	-0.337
-298.749	-200.000	0.008	-0.103
-297.735	-25.917	-0.173	-0.100
-296.720	40.317	-0.337	0.298
-295.705	-200.000	-0.004	0.134
-294.691	32.448	0.086	-0.073
-293.676	-200.000	0.060	0.294
-292.662	285.033	0.100	0.177
-291.647	3.898	0.075	0.054
-290.632	161.797	-0.138	0.190
-289.618	800.000	0.017	-0.050
-288.603	-85.093	0.174	-0.053
-287.589	-42.387	0.227	-0.114
-286.574	-32.372	-0.198	-0.108
-285.559	-15.260	-0.159	0.100
-284.545	-200.000	-0.027	0.293
-283.530	-200.000	0.007	-0.150
-282.516	-86.175	0.003	-0.001
-281.501	-200.000	0.011	-0.307
-280.486	-200.000	-0.015	-0.239
-279.472	165.020	-0.074	-0.102
-278.457	-128.830	0.246	0.034
-277.443	-200.000	-0.030	0.133
-276.428	-153.020	0.197	-0.014
-275.413	52.327	-0.146	0.137
-274.399	-200.000	0.035	0.187
-273.384	-200.000	-0.023	0.256
-272.370	-33.565	0.374	-0.203
-271.355	-138.930	-0.129	-0.014
-270.340	103.321	0.203	0.234
-269.326	-200.000	-0.045	0.555
-268.311	783.286	0.131	-0.352
-267.297	171.907	-0.046	-0.065
-266.282	-32.440	0.122	-0.067
-265.267	-200.000	0.026	0.186
-264.253	164.317	-0.239	0.331
-263.238	85.805	-0.236	-0.255
-262.224	800.000	0.127	0.402
-261.209	77.770	-0.139	0.145
-260.195	-200.000	-0.016	-0.076
-259.180	-38.638	-0.069	0.036
-258.165	-7.351	0.452	0.301
-257.151	47.797	0.073	-0.067
-256.136	478.362	0.077	-0.171
-255.122	113.816	0.251	-0.299
-254.107	448.939	0.131	-0.284
-253.092	11.158	0.085	0.064
-252.078	800.000	-0.025	-0.105
-251.063	500.072	-0.116	0.263
-250.049	-200.000	0.010	-0.213
-249.034	-71.704	0.314	0.115
-248.019	39.276	-0.034	0.030
-247.005	800.000	-0.016	0.052
-245.990	-87.607	-0.078	0.023
-244.976	360.873	-0.108	-0.213
-243.961	453.126	0.048	-0.105
-242.946	-200.000	-0.042	0.288
-241.932	17.541	-0.033	0.026
-240.917	-79.877	-0.204	0.067
-239.903	104.636	0.135	0.156
-238.888	-200.000	0.345	-0.002
-237.873	63.933	-0.107	-0.105
-236.859	-115.176	0.114	-0.021
-235.844	117.325	0.181	-0.218
-234.830	345.727	-0.028	0.054
-233.815	-5.973	0.128	0.086
-232.800	800.000	-0.084	-0.273
-231.786	119.349	0.185	-0.224
-230.771	-126.647	0.027	0.004
-229.757	-200.000	0.070	-0.351
-228.742	-108.710	0.279	-0.059
-227.727	185.769	-0.148	-0.216
-226.713	64.030	0.131	-0.130
-225.698	-116.901	0.287	0.051
-224.684	-200.000	-0.041	0.185
-223.669	14.980	-0.309	0.237
-222.655	428.681	0.165	0.351
-221.640	-79.887	-0.335	-0.111
-220.625	-159.208	-0.287	0.016
-219.611	54.334	0.151	0.143
-218.596	800.000	0.068	-0.232
-217.582	259.349	-0.087	-0.148
-216.567	-200.000	0.002	-0.155
-215.552	-200.000	-0.018	0.107
-214.538	800.000	0.029	0.090
-213.523	-200.000	-0.003	-0.100
-212.509	278.693	-0.035	-0.061
-211.494	34.312	0.085	-0.072
-210.479	402.693	0.061	0.125
-209.465	116.346	0.144	-0.173
-208.450	270.419	0.120	-0.206
-207.436	-139.117	0.277	-0.029
-206.421	-200.000	0.026	0.182
-205.406	-200.000	0.057	-0.321
-204.392	-72.199	0.260	0.095
-203.377	-200.000	-0.015	-0.070
-202.363	-43.292	0.119	-0.059
-201.348	-200.000	0.079	-0.343
-200.333	-200.000	-0.062	-0.350
-199.319	800.000	-0.056	-0.198
-198.304	-200.000	0.000	0.097
-197.290	800.000	0.128	0.407
-196.275	-130.626	-0.276	-0.036
-195.260	-115.465	0.498	-0.092
-194.246	-143.437	-0.299	0.028
-193.231	440.536	0.054	0.117
-192.217	-102.418	-0.111	-0.026
-191.202	98.085	-0.141	-0.159
-190.187	187.137	0.089	-0.130
-189.173	800.000	-0.048	-0.202
-188.158	79.527	0.155	-0.163
-187.144	-93.717	-0.088	-0.024
-186.129	16.063	0.054	-0.042
-185.114	-3.340	-0.261	-0.178
-184.100	-142.397	-0.027	0.003
-183.085	-200.000	-0.031	0.345
-182.071	-70.929	0.239	0.088
-181.056	62.809	0.046	-0.045
-180.042	5.494	0.211	0.152
-179.027	53.165	0.082	0.077
-178.012	800.000	-0.050	0.141
-176.998	5.388	0.046	-0.033
-175.983	222.806	-0.178	-0.281
-174.969	-84.784	-0.190	0.059
-173.954	-35.061	0.185	0.099
-172.939	228.353	-0.059	0.094
-171.925	800.000	0.011	0.036
-170.910	-120.762	-0.375	-0.062
-169.896	-21.627	0.091	-0.054
-168.881	114.103	-0.124	-0.148
-167.866	114.899	-0.125	-0.150
-166.852	-85.576	0.053	-0.016
-165.837	629.718	0.016	0.040
-164.823	-178.482	0.274	0.006
-163.808	-200.000	-0.008	0.456
-162.793	800.000	-0.136	0.552
-161.779	-1.630	0.236	0.163
-160.764	-44.083	-0.193	-0.095
-159.750	371.394	0.097	-0.194
-158.735	74.976	0.147	0.152
-157.720	-200.000	0.034	-0.173
-156.706	-86.557	0.151	0.045
-155.691	284.283	0.083	0.146
-154.677	-200.000	0.005	0.042
-153.662	-7.081	-0.110	-0.073
-152.647	74.977	0.284	0.293
-151.633	-25.571	-0.166	0.096
-150.618	155.606	0.196	0.264
-149.604	-200.000	-0.006	0.239
-148.589	-38.251	-0.131	0.068
-147.574	-20.339	-0.363	-0.218
-146.560	800.000	0.108	-0.313
-145.545	-99.066	0.387	-0.096
-144.531	-200.000	-0.019	0.291
-143.516	-43.930	-0.212	0.104
-142.502	-127.909	0.296	-0.042
-141.487	-1.654	0.202	-0.139
-140.472	252.474	-0.114	-0.190
-139.458	318.618	-0.166	0.308
-138.443	10.396	-0.101	0.075
-137.429	-93.201	0.219	-0.060
-136.414	88.863	-0.034	0.037
-135.399	15.461	0.195	-0.149
-134.385	-87.424	-0.113	-0.034
-133.370	-116.239	-0.047	-0.008
-132.356	358.095	0.125	-0.243
-131.341	-102.761	0.259	0.060
-130.326	-41.048	-0.130	-0.066
-129.312	-200.000	-0.021	0.201
-128.297	1.486	-0.131	-0.092
-127.283	-200.000	0.066	-0.304
-126.268	-22.225	-0.305	0.180
-125.253	-144.179	-0.164	-0.015
-124.239	262.498	-0.157	-0.266
-123.224	-108.203	0.199	0.042
-122.210	23.812	-0.191	-0.154
