DTS Sentinel unit serial number:	SN413079Multiplexer serial number:	ORYXHardware model number:	OX4-SRSoftware version number:	ORYX F/W v4.00 Oryx Data Collector v3.7.2.0data status	okinstallation	princeton_trtdifferential loss correction	single-endedforward channel	channel 1reverse channel	N/Adate	2019/09/16time	07:38:35forward acquisition time	60.00reverse acquisition time	0.00gamma	496.2192k internal	0.2329k external	0.2329temperature offset calibration	0.9982default loss term (dB/km)	0.3790temperature slope calibration	1.0000multiplexer offset coefficient	1.0000multiplexer slope coefficient	1.0000fibre end	0.00T internal ref (°C)	27.81T ext. ref 1 (°C)	11.67T ext. ref 2 (°C)	24.49length (m)	temperature (°C)	Stokes	anti-Stokes-747.200	-76.066	0.310	0.110
-746.185	683.763	-0.087	0.228
-745.171	-91.865	-0.179	0.051
-744.156	-104.106	-0.282	0.066
-743.142	329.402	0.079	0.153
-742.127	468.272	-0.133	0.301
-741.112	129.993	0.209	0.269
-740.098	319.074	0.169	0.323
-739.083	-48.880	0.026	-0.012
-738.069	-127.533	-0.252	-0.037
-737.054	-74.509	-0.097	-0.035
-736.039	800.000	-0.036	-0.159
-735.025	127.714	0.214	0.274
-734.010	-11.088	-0.272	-0.180
-732.996	261.783	-0.096	-0.168
-731.981	-73.356	-0.194	0.071
-730.966	800.000	0.038	-0.167
-729.952	-123.586	-0.296	-0.047
-728.937	-131.640	-0.237	-0.031
-727.923	800.000	-0.037	-0.131
-726.908	115.024	-0.076	-0.093
-725.894	116.319	0.242	-0.299
-724.879	-200.000	-0.010	0.049
-723.864	-62.555	-0.105	0.044
-722.850	448.346	-0.056	0.125
-721.835	-28.404	0.378	-0.220
-720.821	800.000	-0.055	-0.165
-719.806	800.000	-0.063	0.181
-718.791	-64.828	-0.153	-0.062
-717.777	-91.067	-0.227	0.066
-716.762	-103.620	-0.241	-0.057
-715.748	204.106	0.019	0.029
-714.733	-42.557	-0.142	0.073
-713.718	-162.736	0.284	0.014
-712.704	32.241	-0.069	0.060
-711.689	-26.585	-0.105	0.062
-710.675	392.497	0.071	0.148
-709.660	-200.000	0.004	-0.058
-708.645	-200.000	-0.107	-0.598
-707.631	-63.210	0.160	-0.066
-706.616	-157.664	-0.284	0.017
-705.602	52.690	0.090	0.087
-704.587	41.761	-0.310	-0.282
-703.572	2.177	-0.200	-0.145
-702.558	786.686	-0.059	-0.163
-701.543	-200.000	-0.070	0.332
-700.529	-42.766	0.153	-0.078
-699.514	-200.000	-0.020	0.374
-698.499	87.375	-0.130	-0.145
-697.485	703.227	-0.167	-0.443
-696.470	-1.189	-0.176	0.125
-695.456	255.815	0.060	-0.103
-694.441	-33.547	-0.302	-0.168
-693.426	-200.000	0.005	-0.127
-692.412	-168.153	0.237	-0.009
-691.397	-44.412	0.291	-0.146
-690.383	31.105	0.228	0.196
-689.368	-55.429	-0.111	-0.050
-688.354	112.614	-0.080	0.097
-687.339	147.188	-0.112	-0.151
-686.324	177.692	-0.054	0.079
-685.310	-200.000	-0.021	0.133
-684.295	190.578	-0.087	-0.132
-683.281	-140.246	-0.081	-0.009
-682.266	-200.000	-0.024	-0.217
-681.251	-106.558	0.224	0.050
-680.237	53.616	-0.376	-0.363
-679.222	-124.686	0.038	-0.006
-678.208	339.270	-0.041	0.080
-677.193	-200.000	-0.001	-0.195
-676.178	33.587	-0.220	-0.192
-675.164	-132.996	-0.230	0.029
-674.149	-26.103	-0.090	-0.053
-673.135	-2.776	-0.103	-0.072
-672.120	-175.683	-0.143	-0.004
-671.105	-83.400	0.239	0.077
-670.091	105.164	-0.150	-0.178
-669.076	274.673	0.180	-0.320
-668.062	224.519	-0.181	0.294
-667.047	-32.581	0.046	-0.026
-666.032	-99.301	0.275	0.070
-665.018	52.614	-0.093	0.090
-664.003	-49.147	0.177	0.085
-662.989	36.642	-0.191	0.169
-661.974	13.736	0.246	0.192
-660.959	18.221	-0.058	-0.046
-659.945	88.259	0.117	-0.130
-658.930	111.766	0.055	0.067
-657.916	800.000	-0.044	0.149
-656.901	-147.109	-0.110	0.009
-655.886	-200.000	0.004	0.094
-654.872	305.023	0.095	0.177
-653.857	-200.000	0.004	-0.321
-652.843	700.424	-0.014	0.038
-651.828	-12.668	0.238	0.156
-650.814	-139.085	-0.149	-0.016
-649.799	-27.392	0.282	-0.165
-648.784	-168.743	-0.167	-0.006
-647.770	547.167	0.140	-0.337
-646.755	-200.000	0.011	0.068
-645.741	-200.000	0.029	-0.238
-644.726	131.902	-0.177	-0.228
-643.711	-14.462	-0.176	0.114
-642.697	-200.000	-0.009	-0.332
-641.682	366.764	-0.088	0.178
-640.668	-97.174	-0.267	-0.070
-639.653	-154.724	-0.185	0.012
-638.638	-28.333	0.254	-0.147
-637.624	-95.263	0.077	-0.021
-636.609	132.844	-0.216	0.280
-635.595	164.128	-0.107	-0.152
-634.580	-200.000	0.029	-0.228
-633.565	-90.645	0.029	0.008
-632.551	-125.520	0.228	-0.035
-631.536	-200.000	-0.032	-0.219
-630.522	-128.817	0.234	0.033
-629.507	-119.109	0.271	-0.048
-628.492	-113.518	-0.169	0.033
-627.478	-149.536	-0.159	0.013
-626.463	-200.000	-0.009	-0.315
-625.449	410.161	-0.158	-0.335
-624.434	-48.757	-0.274	0.132
-623.419	800.000	0.074	-0.218
-622.405	-27.645	-0.260	-0.151
-621.390	56.457	-0.226	-0.221
-620.376	-36.925	-0.122	-0.065
-619.361	71.695	-0.108	-0.113
-618.346	8.388	0.162	-0.122
-617.332	-136.534	-0.067	-0.008
-616.317	-112.177	0.125	-0.025
-615.303	-90.486	-0.320	-0.093
-614.288	-200.000	-0.007	-0.223
-613.273	272.641	-0.079	0.139
-612.259	269.932	0.142	-0.250
-611.244	800.000	-0.060	0.168
-610.230	-53.308	-0.223	-0.102
-609.215	800.000	-0.068	0.288
-608.201	-80.989	0.132	-0.044
-607.186	-146.476	0.195	0.017
-606.171	-26.518	-0.193	0.113
-605.157	407.002	-0.137	0.290
-604.142	209.470	0.252	0.396
-603.128	-92.088	0.140	-0.040
-602.113	-194.234	-0.249	-0.002
-601.098	84.995	0.242	0.266
-600.084	-97.295	-0.246	-0.064
-599.069	-200.000	-0.010	-0.194
-598.055	-123.802	0.208	-0.033
-597.040	363.012	-0.225	0.454
-596.025	-200.000	0.015	-0.341
-595.011	129.680	0.098	0.125
-593.996	24.615	-0.182	-0.151
-592.982	-63.062	0.137	0.057
-591.967	-200.000	0.018	0.355
-590.952	-95.771	-0.283	0.076
-589.938	49.518	0.105	0.099
-588.923	-118.732	-0.108	0.019
-587.909	-102.313	-0.199	-0.048
-586.894	-155.537	0.451	0.029
-585.879	-53.163	-0.085	0.039
-584.865	-71.483	-0.115	-0.043
-583.850	-95.981	0.154	0.041
-582.836	-70.559	-0.085	-0.032
-581.821	-143.141	-0.220	-0.021
-580.806	-30.807	-0.211	0.119
-579.792	-6.998	-0.084	0.057
-578.777	-97.432	0.101	0.026
-577.763	-109.905	-0.280	-0.059
-576.748	312.598	0.132	0.249
-575.733	72.050	0.109	0.114
-574.719	248.450	-0.111	0.188
-573.704	29.400	-0.284	0.242
-572.690	-129.180	-0.045	0.006
-571.675	175.779	0.068	-0.099
-570.661	331.184	-0.098	-0.190
-569.646	-71.549	-0.490	0.183
-568.631	-12.563	-0.058	-0.038
-567.617	107.875	0.176	-0.210
-566.602	-200.000	-0.015	0.179
-565.588	-200.000	-0.044	0.368
-564.573	95.886	-0.134	0.153
-563.558	-54.188	0.159	0.072
-562.544	-144.230	-0.277	-0.026
-561.529	252.440	0.182	-0.310
-560.515	-200.000	-0.015	-0.195
-559.500	-80.431	-0.128	-0.043
-558.485	-89.303	0.256	0.075
-557.471	-7.826	0.100	0.068
-556.456	-163.937	0.160	-0.007
-555.442	238.169	0.079	-0.131
-554.427	800.000	0.050	-0.213
-553.412	-181.990	0.112	0.002
-552.398	197.553	-0.083	0.126
-551.383	765.455	-0.088	0.240
-550.369	-132.292	-0.226	0.029
-549.354	-187.356	-0.415	-0.006
-548.339	-175.318	-0.216	0.006
-547.325	-200.000	-0.037	0.384
-546.310	54.916	0.150	0.145
-545.296	32.783	0.313	-0.270
-544.281	-130.614	-0.059	0.008
-543.266	800.000	0.106	0.353
-542.252	250.013	-0.032	0.054
-541.237	67.292	0.180	0.184
-540.223	240.565	-0.071	0.119
-539.208	-200.000	-0.002	-0.201
-538.193	800.000	-0.094	0.307
-537.179	107.338	-0.183	0.218
-536.164	220.206	-0.057	0.091
-535.150	-86.391	0.155	-0.047
-534.135	78.504	-0.216	0.231
-533.121	196.306	0.034	-0.051
-532.106	-158.599	0.207	-0.012
-531.091	64.988	0.040	0.040
-530.077	-46.701	-0.277	-0.136
-529.062	-101.179	-0.201	0.049
-528.048	374.686	0.025	-0.050
-527.033	800.000	-0.059	0.195
-526.018	-200.000	0.015	0.106
-525.004	-36.542	0.222	0.119
-523.989	-112.054	0.072	-0.014
-522.975	742.222	0.085	-0.227
-521.960	-76.276	0.156	0.055
-520.945	-1.667	-0.375	0.264
-519.931	-200.000	0.002	0.106
-518.916	25.178	0.038	-0.032
-517.902	-35.183	-0.260	-0.141
-516.887	-116.047	0.083	0.015
-515.872	-200.000	-0.006	-0.370
-514.858	-109.057	0.247	0.052
-513.843	-64.993	0.169	-0.068
-512.829	-200.000	0.001	0.167
-511.814	-45.974	-0.321	-0.158
-510.799	382.389	-0.200	0.411
-509.785	-128.231	-0.202	0.029
-508.770	-200.000	-0.001	0.088
-507.756	-14.682	-0.093	-0.060
-506.741	-61.848	-0.095	0.040
-505.726	616.804	-0.113	-0.284
-504.712	9.585	0.392	0.297
-503.697	-80.232	-0.058	-0.019
-502.683	-112.611	0.341	-0.068
-501.668	-200.000	0.025	-0.166
-500.653	238.320	-0.061	0.102
-499.639	800.000	0.030	0.089
-498.624	-200.000	-0.033	-0.388
-497.610	274.162	-0.197	-0.348
-496.595	-200.000	0.036	0.227
-495.581	-125.048	0.108	-0.017
-494.566	-200.000	0.020	-0.000
-493.551	-200.000	0.028	-0.242
-492.537	336.613	0.163	0.316
-491.522	-63.867	0.347	-0.142
-490.508	-200.000	-0.047	-0.341
-489.493	-184.298	-0.524	0.009
-488.478	-95.326	0.211	-0.057
-487.464	-200.000	0.002	0.049
-486.449	787.490	0.105	0.288
-485.435	75.478	-0.198	0.209
-484.420	-8.824	-0.225	0.150
-483.405	146.743	0.109	-0.146
-482.391	-200.000	-0.015	0.246
-481.376	-67.421	0.266	-0.104
-480.362	-100.218	-0.207	-0.051
-479.347	230.746	0.127	-0.208
-478.332	-200.000	0.039	0.266
-477.318	245.641	-0.137	0.230
-476.303	30.462	0.183	-0.156
-475.289	-113.894	0.175	-0.034
-474.274	-200.000	0.002	-0.108
-473.259	-65.364	-0.279	-0.112
-472.245	-143.854	0.273	-0.026
-471.230	-173.678	0.071	-0.002
-470.216	-200.000	0.024	-0.205
-469.201	-200.000	0.049	-0.239
-468.186	-200.000	-0.015	0.320
-467.172	-193.390	0.255	0.002
-466.157	553.947	0.125	-0.300
-465.143	119.172	-0.185	-0.228
-464.128	206.596	0.149	-0.231
-463.113	800.000	-0.057	-0.240
-462.099	166.384	0.093	0.132
-461.084	800.000	0.044	-0.135
-460.070	-38.099	0.303	-0.160
-459.055	-200.000	-0.028	-0.229
-458.040	800.000	0.066	-0.248
-457.026	-124.589	-0.112	0.017
-456.011	-200.000	0.062	0.508
-454.997	259.057	-0.159	0.273
-453.982	-80.325	0.376	-0.125
-452.968	-79.833	-0.228	-0.077
-451.953	-119.658	0.219	0.038
-450.938	-122.612	-0.272	0.044
-449.924	-74.115	-0.007	0.003
-448.909	-134.744	0.097	-0.012
-447.895	-200.000	0.005	0.360
-446.880	-200.000	-0.049	0.239
-445.865	-80.184	-0.038	-0.013
-444.851	-47.302	0.077	-0.037
-443.836	93.163	-0.199	0.224
-442.822	-20.309	-0.263	0.161
-441.807	-153.023	0.383	-0.027
-440.792	-200.000	0.002	-0.060
-439.778	1.163	0.199	0.142
-438.763	-78.773	0.283	0.096
-437.749	126.575	-0.162	0.204
-436.734	800.000	-0.084	0.306
-435.719	-52.859	-0.205	-0.094
-434.705	-5.613	-0.088	-0.060
-433.690	542.673	-0.110	0.262
-432.676	163.002	0.062	0.087
-431.661	-150.863	0.352	-0.027
-430.646	152.419	-0.151	-0.205
-429.632	-119.701	0.299	0.051
-428.617	800.000	-0.054	-0.209
-427.603	188.619	0.122	0.181
-426.588	371.163	-0.063	-0.127
-425.573	800.000	-0.168	0.466
-424.559	-200.000	-0.008	-0.175
-423.544	-69.504	0.062	-0.024
-422.530	125.818	0.251	0.316
-421.515	800.000	-0.105	0.434
-420.500	-71.748	-0.271	-0.101
-419.486	250.687	-0.017	0.028
-418.471	-45.519	-0.476	-0.235
-417.457	-200.000	-0.009	0.266
-416.442	-200.000	0.026	0.134
-415.428	-200.000	0.055	-0.250
-414.413	-50.742	-0.184	-0.086
-413.398	79.575	-0.079	-0.084
-412.384	-21.840	0.372	0.225
-411.369	4.651	0.263	-0.192
-410.355	-6.386	-0.213	-0.145
-409.340	199.252	-0.208	-0.318
-408.325	335.012	0.039	-0.075
-407.311	416.418	-0.050	-0.106
-406.296	-80.617	-0.414	-0.137
-405.282	800.000	0.118	-0.405
-404.267	8.584	0.279	-0.209
-403.252	76.210	0.115	0.121
-402.238	-4.936	-0.130	0.089
-401.223	-54.246	0.213	-0.096
-400.209	370.917	-0.045	-0.090
-399.194	12.594	-0.259	0.198
-398.179	179.050	0.066	-0.095
-397.165	-200.000	0.034	-0.341
-396.150	-26.748	-0.105	0.061
-395.136	15.127	0.077	-0.060
-394.121	800.000	0.085	-0.273
-393.106	-8.903	-0.199	0.132
-392.092	12.401	0.033	0.025
-391.077	765.772	-0.068	-0.185
-390.063	162.162	0.204	0.285
-389.048	574.546	0.094	0.227
-388.033	-135.356	0.356	0.042
-387.019	-200.000	0.043	-0.278
-386.004	800.000	0.109	-0.318
-384.990	90.741	0.275	-0.306
-383.975	-200.000	0.030	0.361
-382.960	534.354	0.128	-0.300
-381.946	-200.000	-0.165	-0.001
-380.931	-94.425	-0.063	-0.017
-379.917	-50.729	0.274	0.128
-378.902	767.334	-0.085	0.229
-377.888	-200.000	0.030	0.232
-376.873	27.247	-0.127	-0.106
-375.858	51.074	0.199	0.187
-374.844	280.114	-0.091	0.162
-373.829	341.974	0.127	-0.248
-372.815	-11.170	-0.145	-0.095
-371.800	74.920	0.136	0.142
-370.785	-129.677	-0.195	0.027
-369.771	321.533	0.149	0.282
-368.756	-200.000	0.064	-0.292
-367.742	252.767	-0.016	-0.027
-366.727	-161.417	-0.225	-0.012
-365.712	42.068	-0.132	0.119
-364.698	-110.996	-0.221	0.045
-363.683	-62.165	0.232	-0.096
-362.669	-200.000	0.045	-0.277
-361.654	63.901	0.061	-0.061
-360.639	-12.978	0.126	-0.082
-359.625	354.943	0.100	-0.198
-358.610	365.149	-0.099	-0.199
-357.596	562.442	0.010	-0.025
-356.581	-200.000	0.038	0.287
-355.566	172.258	0.078	-0.112
-354.552	-200.000	0.001	0.012
-353.537	-1.917	-0.188	0.131
-352.523	299.762	-0.286	-0.523
-351.508	-22.388	0.246	-0.148
-350.493	-159.364	-0.294	-0.016
-349.479	-200.000	-0.013	-0.090
-348.464	-134.539	0.194	0.024
-347.450	338.378	-0.082	0.159
-346.435	-106.245	-0.063	-0.014
-345.420	-200.000	-0.012	-0.296
-344.406	-47.137	0.161	-0.078
-343.391	253.625	0.164	-0.277
-342.377	457.641	-0.048	-0.106
-341.362	463.574	-0.116	0.256
-340.348	-200.000	-0.004	0.023
-339.333	800.000	-0.104	-0.308
-338.318	188.971	-0.049	0.073
-337.304	44.309	0.088	0.080
-336.289	118.168	-0.300	-0.367
-335.275	359.232	0.158	0.314
-334.260	-52.755	-0.120	0.055
-333.245	122.770	0.359	0.445
-332.231	46.609	-0.109	0.100
-331.216	-200.000	-0.019	-0.183
-330.202	-30.998	0.102	0.057
-329.187	-200.000	-0.004	0.051
-328.172	-92.612	0.146	-0.041
-327.158	800.000	0.095	-0.319
-326.143	-157.506	0.177	-0.011
-325.129	36.985	-0.401	-0.352
-324.114	62.610	0.117	0.116
-323.099	512.952	-0.127	-0.294
-322.085	800.000	0.044	0.163
-321.070	-200.000	0.014	0.171
-320.056	-34.471	0.225	0.122
-319.041	152.034	-0.227	-0.307
-318.026	-53.570	0.242	0.110
-317.012	357.731	-0.161	-0.318
-315.997	-37.995	0.173	0.091
-314.983	112.501	-0.101	-0.121
-313.968	800.000	-0.064	0.226
-312.953	156.021	0.112	0.153
-311.939	5.740	-0.262	0.192
-310.924	-173.032	0.097	0.003
-309.910	9.467	-0.135	-0.102
-308.895	-200.000	-0.039	0.180
-307.880	-179.536	-0.174	0.004
-306.866	-73.147	0.119	-0.043
-305.851	800.000	-0.032	-0.134
-304.837	-113.867	0.187	-0.036
-303.822	-116.229	0.348	-0.064
-302.807	110.655	-0.175	0.208
-301.793	93.935	0.117	0.131
-300.778	580.862	0.125	0.302
-299.764	97.358	0.205	-0.233
-298.749	104.577	0.021	-0.024
-297.735	-38.230	-0.325	0.171
-296.720	-108.594	0.154	0.033
-295.705	-134.045	-0.207	-0.025
-294.691	40.523	0.111	0.099
-293.676	-200.000	0.015	-0.141
-292.662	18.693	-0.078	-0.062
-291.647	46.963	-0.198	0.183
-290.632	-64.478	0.105	-0.042
-289.618	-85.877	-0.254	0.078
-288.603	-54.843	0.158	0.070
-287.589	2.275	0.152	-0.108
-286.574	-200.000	0.056	0.332
-285.559	-134.045	-0.097	-0.012
-284.545	-200.000	0.028	-0.330
-283.530	800.000	-0.014	-0.040
-282.516	-24.186	0.285	-0.168
-281.501	-68.717	0.082	0.032
-280.486	-200.000	0.037	-0.204
-279.472	-48.223	-0.126	-0.060
-278.457	-145.923	-0.212	0.019
-277.443	0.699	-0.076	-0.054
-276.428	800.000	0.125	0.406
-275.413	-45.443	-0.261	0.128
-274.399	-200.000	0.010	0.137
-273.384	-129.698	0.091	-0.012
-272.370	-200.000	0.022	0.179
-271.355	-70.422	0.461	0.173
-270.340	-200.000	-0.025	-0.346
-269.326	-147.362	0.274	-0.023
-268.311	312.808	-0.104	0.193
-267.297	34.890	-0.196	0.169
-266.282	800.000	0.050	0.204
-265.267	-132.502	-0.183	-0.023
-264.253	-119.494	0.395	0.068
-263.238	800.000	-0.084	-0.357
-262.224	-128.048	0.169	0.024
-261.209	395.342	0.119	0.246
-260.195	288.807	-0.131	0.235
-259.180	-101.294	0.159	-0.038
-258.165	-200.000	-0.031	0.209
-257.151	138.723	-0.055	-0.071
-256.136	-200.000	0.007	0.348
-255.122	-61.065	-0.220	-0.092
-254.107	-66.908	0.087	0.034
-253.092	-200.000	-0.016	-0.272
-252.078	-101.970	-0.149	-0.036
-251.063	-146.368	-0.044	0.004
-250.049	135.389	-0.026	0.034
-249.034	800.000	0.075	-0.282
-248.019	-182.495	0.130	0.002
-247.005	800.000	0.005	0.015
-245.990	800.000	-0.075	0.226
-244.976	85.556	-0.115	-0.124
-243.961	800.000	0.092	-0.367
-242.946	-40.488	0.066	-0.034
-241.932	-76.185	-0.338	0.118
-240.917	-200.000	-0.003	-0.088
-239.903	493.830	-0.089	-0.201
-238.888	12.079	0.176	-0.134
-237.873	38.682	-0.206	0.182
-236.859	-104.117	0.546	-0.125
-235.844	-86.417	0.160	-0.049
-234.830	343.217	-0.235	-0.455
-233.815	77.680	-0.220	-0.232
-232.800	-200.000	-0.001	-0.010
-231.786	527.314	0.119	0.277
-230.771	-133.147	0.202	-0.025
-229.757	-200.000	0.014	0.120
-228.742	601.909	-0.080	0.196
-227.727	-86.635	0.412	0.125
-226.713	276.932	-0.100	-0.175
-225.698	535.095	0.070	0.163
-224.684	292.973	0.120	-0.217
-223.669	232.016	-0.097	-0.156
-222.655	111.928	0.174	0.207
-221.640	-111.866	0.072	-0.014
-220.625	-200.000	-0.095	-0.428
-219.611	-74.690	-0.089	-0.032
-218.596	-110.907	-0.193	0.039
-217.582	-149.332	0.267	-0.021
-216.567	-65.549	0.323	0.128
-215.552	-71.813	-0.154	-0.057
-214.538	-200.000	-0.037	0.241
-213.523	-82.577	0.208	0.066
-212.509	228.795	-0.122	-0.195
-211.494	-163.938	0.211	-0.010
-210.479	-200.000	0.036	0.302
-209.465	-200.000	0.024	-0.198
-208.450	-162.779	0.106	0.005
-207.436	800.000	0.059	0.213
-206.421	-71.719	-0.251	-0.092
-205.406	-200.000	0.022	0.126
-204.392	-80.119	-0.226	-0.075
-203.377	-12.213	0.097	-0.062
-202.363	-44.156	0.076	0.038
-201.348	-46.243	0.029	-0.014
-200.333	85.806	0.108	0.117
-199.319	163.439	-0.076	-0.105
-198.304	-200.000	0.047	0.296
-197.290	691.627	0.053	0.136
-196.275	-200.000	-0.008	-0.249
-195.260	-200.000	-0.003	-0.114
-194.246	-73.122	-0.152	-0.055
-193.231	-43.222	-0.081	0.040
-192.217	-154.706	0.123	0.008
-191.202	-125.935	0.186	-0.028
-190.187	-83.842	-0.328	-0.103
-189.173	-200.000	-0.002	-0.098
-188.158	-81.596	-0.093	-0.030
-187.144	497.801	0.039	0.088
-186.129	-6.357	0.152	0.102
-185.114	-200.000	-0.000	0.037
-184.100	-154.873	-0.091	-0.006
-183.085	800.000	0.052	0.180
-182.071	-198.527	-0.248	0.001
-181.056	34.822	-0.078	-0.067
-180.042	-200.000	0.048	-0.211
-179.027	352.026	-0.064	0.125
-178.012	-200.000	0.064	-0.293
-176.998	-9.295	-0.165	-0.108
-175.983	-22.244	0.047	0.028
-174.969	-200.000	0.039	0.172
-173.954	391.371	0.064	0.130
-172.939	27.255	-0.143	0.118
-171.925	71.270	0.169	-0.173
-170.910	-72.264	0.110	-0.040
-169.896	416.929	0.127	0.267
-168.881	800.000	-0.011	-0.040
-167.866	315.077	-0.124	0.229
-166.852	-60.159	-0.260	-0.109
-165.837	-200.000	-0.017	0.267
-164.823	-92.166	0.096	-0.027
-163.808	148.387	-0.140	-0.186
-162.793	-150.159	0.179	-0.014
-161.779	494.312	-0.042	0.095
-160.764	-170.130	0.167	-0.006
-159.750	-59.396	-0.112	0.047
-158.735	-68.084	0.492	0.189
-157.720	-200.000	-0.049	0.216
-156.706	800.000	-0.096	0.291
-155.691	-134.081	-0.158	0.019
-154.677	196.320	0.051	0.076
-153.662	33.575	0.184	-0.157
-152.647	422.872	0.109	-0.231
-151.633	6.708	-0.198	0.145
-150.618	-200.000	0.020	0.125
-149.604	-111.926	0.113	0.022
-148.589	-115.710	0.130	0.024
-147.574	615.861	-0.015	-0.038
-146.560	478.592	-0.041	-0.092
-145.545	800.000	-0.132	0.490
-144.531	-68.582	0.116	-0.044
-143.516	191.432	0.145	0.215
-142.502	-200.000	-0.007	0.259
-141.487	-19.831	0.283	-0.172
-140.472	41.457	-0.100	-0.089
-139.458	714.383	0.152	0.396
-138.443	800.000	-0.058	0.240
-137.429	119.877	0.232	0.283
-136.414	-140.636	-0.140	0.014
-135.399	12.098	-0.007	0.005
-134.385	-176.427	-0.327	-0.008
-133.370	71.161	-0.153	0.156
-132.356	258.598	0.103	-0.175
-131.341	49.256	-0.115	-0.106
-130.326	257.785	-0.163	0.276
-129.312	-200.000	0.006	-0.209
-128.297	196.780	0.074	-0.111
-127.283	130.466	0.101	-0.127
-126.268	231.516	0.312	0.503
-125.253	800.000	0.031	-0.120
-124.239	-87.877	-0.100	-0.029
-123.224	-63.204	-0.043	0.017
