DTS Sentinel unit serial number:	SN413079Multiplexer serial number:	ORYXHardware model number:	OX4-SRSoftware version number:	ORYX F/W v4.00 Oryx Data Collector v3.7.2.0data status	okinstallation	princeton_trtdifferential loss correction	single-endedforward channel	channel 1reverse channel	N/Adate	2019/09/17time	12:50:35forward acquisition time	60.00reverse acquisition time	0.00gamma	496.2192k internal	0.2314k external	0.2314temperature offset calibration	0.9968default loss term (dB/km)	0.3790temperature slope calibration	1.0000multiplexer offset coefficient	1.0000multiplexer slope coefficient	1.0000fibre end	0.00T internal ref (°C)	32.83T ext. ref 1 (°C)	0.43T ext. ref 2 (°C)	31.09length (m)	temperature (°C)	Stokes	anti-Stokes-747.200	12.610	0.235	0.184
-746.185	-34.984	0.139	0.077
-745.171	-200.000	0.059	0.509
-744.156	-200.000	0.013	0.139
-743.142	504.810	0.101	-0.237
-742.127	38.297	-0.283	-0.256
-741.112	12.215	-0.035	0.027
-740.098	280.428	-0.071	0.129
-739.083	800.000	-0.039	-0.133
-738.069	800.000	-0.050	0.209
-737.054	395.903	0.131	0.276
-736.039	456.425	-0.149	-0.335
-735.025	24.956	0.301	-0.253
-734.010	494.683	-0.055	-0.129
-732.996	-81.662	0.286	0.095
-731.981	310.855	-0.181	-0.344
-730.966	-122.715	0.235	0.039
-729.952	44.889	-0.228	-0.213
-728.937	-64.304	-0.184	-0.076
-727.923	20.655	-0.220	0.181
-726.908	-56.519	-0.286	-0.128
-725.894	-45.876	0.186	-0.093
-724.879	633.785	0.064	0.165
-723.864	43.496	-0.123	0.114
-722.850	-200.000	0.033	-0.351
-721.835	451.654	0.023	-0.051
-720.821	-70.644	0.300	0.115
-719.806	-200.000	0.056	0.266
-718.791	800.000	-0.054	0.193
-717.777	100.509	0.068	0.080
-716.762	481.317	-0.074	-0.170
-715.748	32.353	0.246	0.215
-714.733	-102.554	0.398	-0.096
-713.718	-97.890	0.291	-0.076
-712.704	-39.936	-0.330	-0.174
-711.689	134.493	0.171	0.224
-710.675	-96.075	-0.427	-0.115
-709.660	-123.438	-0.146	-0.024
-708.645	462.139	0.028	-0.064
-707.631	275.229	0.076	0.136
-706.616	476.945	0.161	-0.369
-705.602	39.148	-0.247	-0.224
-704.587	113.407	-0.122	-0.150
-703.572	-200.000	0.013	0.085
-702.558	148.833	-0.188	0.257
-701.543	91.054	-0.077	-0.088
-700.529	-14.823	-0.018	0.012
-699.514	800.000	0.032	-0.106
-698.499	438.483	0.159	0.350
-697.485	-200.000	0.006	-0.229
-696.470	800.000	-0.064	0.187
-695.456	-133.831	-0.424	-0.053
-694.441	-182.864	0.118	-0.002
-693.426	46.397	0.163	-0.153
-692.412	-200.000	-0.033	-0.339
-691.397	-200.000	-0.103	-0.474
-690.383	158.692	-0.180	0.252
-689.368	-155.576	-0.155	0.010
-688.354	-200.000	-0.046	0.285
-687.339	-167.647	-0.085	-0.003
-686.324	-38.723	-0.212	-0.113
-685.310	-65.717	-0.135	-0.055
-684.295	-121.955	0.181	-0.030
-683.281	723.479	-0.079	0.212
-682.266	130.379	0.151	0.195
-681.251	340.826	-0.082	-0.162
-680.237	257.995	0.159	-0.277
-679.222	-97.652	0.620	0.163
-678.208	314.933	-0.070	0.133
-677.193	-110.097	0.520	0.110
-676.178	-50.579	-0.281	-0.134
-675.164	-9.932	-0.241	0.162
-674.149	800.000	-0.075	-0.236
-673.135	-200.000	0.005	0.055
-672.120	-200.000	-0.020	-0.250
-671.105	-151.099	-0.221	0.017
-670.091	23.747	-0.188	0.156
-669.076	-142.648	-0.407	0.040
-668.062	190.617	0.129	0.196
-667.047	-200.000	0.018	0.173
-666.032	800.000	0.060	-0.236
-665.018	-200.000	-0.017	-0.221
-664.003	288.408	0.114	0.209
-662.989	79.752	0.024	0.026
-661.974	-19.181	0.385	-0.242
-660.959	-200.000	-0.064	-0.348
-659.945	432.772	-0.082	-0.179
-658.930	800.000	-0.079	-0.224
-657.916	76.286	-0.093	0.100
-656.901	50.143	-0.104	0.099
-655.886	96.215	0.159	0.183
-654.872	800.000	0.067	-0.224
-653.857	44.231	-0.246	-0.228
-652.843	35.550	-0.282	0.250
-651.828	202.383	0.091	0.142
-650.814	-44.898	-0.150	0.075
-649.799	800.000	-0.060	-0.249
-648.784	-4.046	0.170	0.119
-647.770	39.348	0.200	-0.181
-646.755	-102.084	-0.298	-0.073
-645.741	-200.000	-0.017	0.288
-644.726	-14.503	0.410	0.267
-643.711	-98.181	-0.208	-0.054
-642.697	-200.000	0.044	-0.271
-641.682	27.865	-0.218	-0.186
-640.668	-200.000	0.015	0.266
-639.653	-117.367	-0.232	-0.043
-638.638	-42.265	-0.158	-0.081
-637.624	114.066	0.060	0.074
-636.609	-200.000	-0.017	0.267
-635.595	332.789	-0.129	0.252
-634.580	-18.476	0.181	-0.114
-633.565	457.897	-0.120	-0.269
-632.551	-200.000	-0.025	0.161
-631.536	-15.449	0.193	0.125
-630.522	282.013	-0.102	0.184
-629.507	303.538	0.013	0.025
-628.492	-65.933	-0.213	-0.086
-627.478	800.000	0.040	0.155
-626.463	800.000	0.022	-0.082
-625.449	432.329	-0.086	0.189
-624.434	-145.488	0.195	-0.018
-623.419	176.226	0.169	0.248
-622.405	38.646	0.252	0.227
-621.390	-55.909	-0.114	-0.051
-620.376	-84.133	-0.297	0.095
-619.361	-200.000	-0.007	-0.075
-618.346	-48.812	0.182	0.088
-617.332	-200.000	-0.014	-0.301
-616.317	-51.425	-0.059	-0.028
-615.303	-91.420	-0.247	0.071
-614.288	-101.768	0.340	0.083
-613.273	800.000	-0.120	-0.337
-612.259	4.430	0.274	-0.203
-611.244	190.277	-0.089	-0.135
-610.230	-200.000	0.071	-0.418
-609.215	413.179	0.100	0.215
-608.201	-59.943	-0.191	-0.082
-607.186	-100.760	-0.171	0.042
-606.171	113.586	-0.030	-0.037
-605.157	26.519	-0.369	-0.311
-604.142	193.345	-0.058	-0.089
-603.128	-85.195	-0.298	-0.094
-602.113	-200.000	-0.018	-0.120
-601.098	276.232	0.223	-0.398
-600.084	-136.946	-0.299	0.035
-599.069	-112.461	-0.345	-0.070
-598.055	-200.000	-0.039	-0.185
-597.040	77.944	-0.266	0.286
-596.025	170.289	0.081	-0.117
-595.011	331.421	0.115	0.223
-593.996	-200.000	-0.006	-0.145
-592.982	68.308	0.219	0.226
-591.967	180.816	0.274	0.406
-590.952	-45.318	-0.267	-0.134
-589.938	109.169	0.209	-0.252
-588.923	194.373	-0.040	0.061
-587.909	-100.969	-0.347	-0.086
-586.894	800.000	-0.034	0.113
-585.879	-98.933	0.280	0.072
-584.865	17.265	-0.434	0.347
-583.850	-145.450	0.264	-0.024
-582.836	-178.877	0.198	-0.005
-581.821	137.402	0.132	0.174
-580.806	-142.715	-0.019	0.002
-579.792	-59.764	-0.235	0.101
-578.777	-143.735	-0.306	-0.029
-577.763	467.307	-0.096	-0.217
-576.748	-200.000	-0.002	-0.166
-575.733	-36.642	-0.120	0.065
-574.719	-82.068	0.479	-0.158
-573.704	64.836	-0.313	0.318
-572.690	338.074	0.046	0.090
-571.675	-200.000	-0.003	0.032
-570.661	-200.000	-0.036	-0.296
-569.646	-23.365	0.138	-0.083
-568.631	-41.467	0.296	-0.154
-567.617	3.233	0.058	-0.042
-566.602	33.279	0.041	-0.036
-565.588	109.533	-0.129	-0.156
-564.573	419.326	-0.137	-0.295
-563.558	-200.000	-0.031	-0.184
-562.544	346.590	0.027	0.054
-561.529	-119.747	-0.160	-0.028
-560.515	527.648	0.061	0.146
-559.500	-71.507	0.255	0.096
-558.485	395.704	0.073	0.154
-557.471	71.118	-0.152	-0.159
-556.456	-48.082	-0.127	-0.062
-555.442	-103.687	0.021	-0.005
-554.427	-163.575	0.270	-0.013
-553.412	106.935	-0.148	-0.177
-552.398	32.183	-0.259	-0.224
-551.383	-146.208	-0.297	-0.026
-550.369	-112.180	0.230	0.047
-549.354	76.088	-0.444	-0.473
-548.339	108.892	-0.202	-0.243
-547.325	-11.150	0.277	0.184
-546.310	299.394	-0.080	-0.148
-545.296	256.815	0.089	-0.153
-544.281	-167.271	-0.060	-0.002
-543.266	286.238	0.124	0.225
-542.252	-102.191	-0.312	0.075
-541.237	-143.733	-0.355	-0.034
-540.223	451.212	0.114	-0.254
-539.208	800.000	-0.124	0.401
-538.193	177.992	0.188	-0.276
-537.179	-160.963	-0.171	-0.009
-536.164	194.396	-0.123	0.188
-535.150	19.233	-0.217	0.175
-534.135	-15.908	0.259	-0.166
-533.121	-70.175	0.286	-0.109
-532.106	-200.000	-0.006	0.033
-531.091	800.000	0.002	-0.005
-530.077	174.186	-0.101	0.147
-529.062	227.834	0.132	-0.216
-528.048	800.000	-0.088	0.365
-527.033	-196.606	0.285	-0.002
-526.018	-131.876	0.275	-0.036
-525.004	138.215	-0.056	-0.073
-523.989	173.886	0.192	0.278
-522.975	-200.000	0.075	0.507
-521.960	23.946	-0.212	0.176
-520.945	-121.523	-0.101	0.017
-519.931	144.729	0.202	0.271
-518.916	-79.454	0.179	-0.061
-517.902	11.261	0.154	0.118
-516.887	-11.214	0.198	0.131
-515.872	-69.688	-0.162	0.062
-514.858	5.209	0.179	-0.132
-513.843	-200.000	0.016	-0.101
-512.829	-149.251	-0.217	0.017
-511.814	13.228	0.147	-0.115
-510.799	800.000	-0.071	0.290
-509.785	-9.183	-0.221	0.149
-508.770	-120.662	-0.286	-0.049
-507.756	97.793	-0.146	-0.168
-506.741	800.000	0.069	-0.229
-505.726	45.075	0.030	0.028
-504.712	800.000	0.074	-0.281
-503.697	760.335	0.040	-0.108
-502.683	-53.700	-0.376	-0.172
-501.668	800.000	0.090	0.249
-500.653	-185.030	-0.170	0.003
-499.639	13.715	-0.290	-0.226
-498.624	-128.790	0.152	-0.022
-497.610	-66.560	-0.134	-0.053
-496.595	-200.000	-0.054	-0.637
-495.581	28.559	0.025	-0.021
-494.566	-48.072	0.482	0.234
-493.551	-40.353	0.170	-0.089
-492.537	517.494	-0.062	-0.145
-491.522	-95.287	-0.282	-0.076
-490.508	74.073	0.279	0.294
-489.493	800.000	-0.057	0.172
-488.478	800.000	0.044	0.154
-487.464	-101.497	-0.202	-0.049
-486.449	219.679	0.102	0.164
-485.435	-75.415	0.206	-0.074
-484.420	407.079	-0.225	0.477
-483.405	313.230	0.124	-0.233
-482.391	-200.000	0.020	0.304
-481.376	309.374	-0.091	0.171
-480.362	141.767	-0.224	-0.298
-479.347	800.000	0.041	-0.167
-478.332	3.430	0.156	-0.114
-477.318	-127.445	-0.338	0.049
-476.303	-13.641	0.156	0.101
-475.289	62.006	-0.258	0.258
-474.274	800.000	0.028	-0.078
-473.259	319.586	-0.170	0.324
-472.245	-42.541	0.246	0.126
-471.230	-65.416	0.198	0.080
-470.216	800.000	0.061	-0.252
-469.201	800.000	-0.107	-0.365
-468.186	-200.000	0.021	-0.168
-467.172	-12.596	-0.122	-0.080
-466.157	621.991	-0.076	-0.191
-465.143	624.999	0.057	0.145
-464.128	45.694	-0.169	-0.157
-463.113	12.022	0.062	0.048
-462.099	8.055	0.203	-0.153
-461.084	-78.320	0.068	-0.024
-460.070	30.368	0.100	-0.086
-459.055	139.805	-0.153	-0.202
-458.040	-35.304	-0.083	0.045
-457.026	-148.743	-0.171	0.014
-456.011	44.936	0.082	-0.076
-454.997	-84.535	-0.186	-0.059
-453.982	181.259	-0.127	0.188
-452.968	-74.982	-0.179	0.064
-451.953	516.435	-0.065	0.152
-450.938	-138.515	-0.207	-0.023
-449.924	-87.554	-0.245	0.074
-448.909	396.478	0.015	-0.031
-447.895	68.717	0.127	-0.131
-446.880	167.836	0.190	0.271
-445.865	46.653	-0.203	0.189
-444.851	183.022	-0.091	-0.135
-443.836	591.159	0.224	0.553
-442.822	233.714	-0.062	-0.102
-441.807	-200.000	0.003	0.075
-440.792	11.359	-0.336	0.258
-439.778	303.221	-0.142	-0.263
-438.763	391.648	0.111	-0.231
-437.749	-134.180	0.089	-0.011
-436.734	-108.522	0.062	0.013
-435.719	-9.470	-0.250	-0.167
-434.705	444.615	0.103	-0.226
-433.690	-200.000	0.007	-0.047
-432.676	-89.778	0.265	0.078
-431.661	54.649	0.045	0.044
-430.646	180.061	-0.024	-0.035
-429.632	56.014	0.177	-0.172
-428.617	167.390	0.234	-0.333
-427.603	31.521	0.271	-0.234
-426.588	-108.885	-0.313	-0.067
-425.573	-200.000	0.079	-0.382
-424.559	-33.434	-0.127	0.070
-423.544	800.000	-0.044	0.156
-422.530	737.653	-0.103	-0.277
-421.515	800.000	0.066	-0.280
-420.500	268.767	-0.132	-0.232
-419.486	56.229	-0.094	-0.091
-418.471	113.403	0.062	0.075
-417.457	-110.051	-0.352	0.074
-416.442	56.057	0.177	-0.172
-415.428	-200.000	0.029	-0.388
-414.413	-200.000	-0.003	0.343
-413.398	800.000	-0.011	0.038
-412.384	-107.824	-0.201	-0.044
-411.369	-27.811	-0.062	-0.036
-410.355	800.000	0.057	-0.206
-409.340	123.687	0.052	-0.066
-408.325	164.747	0.100	-0.141
-407.311	-177.175	-0.179	0.004
-406.296	800.000	0.070	-0.199
-405.282	37.581	0.097	0.086
-404.267	269.523	-0.132	-0.232
-403.252	800.000	0.047	-0.170
-402.238	-152.344	-0.258	-0.019
-401.223	-69.728	0.071	0.027
-400.209	295.456	0.098	-0.180
-399.194	-43.017	-0.230	0.117
-398.179	534.990	0.082	-0.194
-397.165	228.964	-0.099	0.161
-396.150	45.382	-0.233	-0.215
-395.136	-200.000	-0.022	-0.186
-394.121	-158.487	-0.391	0.023
-393.106	162.560	-0.303	0.425
-392.092	-67.635	0.296	0.116
-391.077	-200.000	-0.046	0.292
-390.063	-62.390	0.092	-0.038
-389.048	608.896	-0.019	0.048
-388.033	256.502	0.195	0.335
-387.019	278.731	-0.063	-0.113
-386.004	800.000	0.096	0.343
-384.990	36.990	-0.174	0.154
-383.975	-110.394	0.252	0.052
-382.960	-117.126	0.207	0.038
-381.946	95.475	-0.132	-0.150
-380.931	-96.061	-0.022	-0.006
-379.917	1.781	0.305	-0.220
-378.902	164.963	0.089	0.125
-377.888	167.610	0.134	-0.190
-376.873	-19.058	0.356	-0.221
-375.858	308.467	-0.115	-0.215
-374.844	-200.000	0.399	-0.002
-373.829	-90.247	0.223	0.065
-372.815	32.737	-0.317	-0.274
-371.800	800.000	-0.148	-0.569
-370.785	-155.194	-0.109	0.007
-369.771	-200.000	0.001	-0.189
-368.756	-121.681	-0.132	-0.022
-367.742	196.485	-0.030	-0.045
-366.727	-200.000	0.025	0.194
-365.712	19.928	0.276	0.223
-364.698	26.616	-0.212	-0.177
-363.683	-200.000	0.002	0.259
-362.669	-73.113	0.308	0.113
-361.654	800.000	-0.149	-0.429
-360.639	82.923	0.090	-0.098
-359.625	-200.000	-0.059	0.353
-358.610	-200.000	0.031	0.225
-357.596	-98.622	0.189	0.048
-356.581	-50.042	-0.326	-0.154
-355.566	332.889	0.173	-0.335
-354.552	638.523	-0.054	0.137
-353.537	-81.968	-0.285	-0.093
-352.523	-179.475	-0.211	0.005
-351.508	-200.000	0.106	0.521
-350.493	206.228	-0.077	-0.119
-349.479	52.381	0.135	-0.128
-348.464	96.334	0.207	0.236
-347.450	-27.945	-0.112	0.065
-346.435	-200.000	0.056	0.352
-345.420	-82.121	0.134	0.044
-344.406	60.964	-0.221	0.219
-343.391	205.513	0.054	-0.084
-342.377	214.077	0.068	-0.108
-341.362	242.783	0.082	-0.136
-340.348	-200.000	0.018	0.392
-339.333	235.187	-0.293	0.482
-338.318	-26.705	-0.168	0.098
-337.304	-15.461	0.359	-0.229
-336.289	632.524	0.089	-0.225
-335.275	-48.755	0.343	0.164
-334.260	603.120	0.102	0.253
-333.245	-27.885	0.281	0.162
-332.231	-150.811	0.357	0.027
-331.216	-63.422	-0.052	0.021
-330.202	527.950	-0.106	0.249
-329.187	235.661	0.171	0.283
-328.172	169.758	-0.224	-0.320
-327.158	-58.714	0.276	0.119
-326.143	10.744	-0.182	0.139
-325.129	-91.960	-0.291	-0.082
-324.114	124.764	0.131	-0.164
-323.099	-178.742	0.147	0.003
-322.085	320.071	0.159	0.302
-321.070	-28.361	-0.110	0.063
-320.056	800.000	-0.046	-0.158
-319.041	37.322	0.117	0.104
-318.026	475.472	-0.152	0.343
-317.012	-38.425	-0.177	-0.093
-315.997	313.842	0.096	-0.180
-314.983	-200.000	0.057	0.313
-313.968	57.605	-0.083	0.081
-312.953	22.525	-0.212	-0.173
-311.939	800.000	-0.059	-0.164
-310.924	800.000	0.098	0.284
-309.910	-52.839	-0.112	0.051
-308.895	800.000	-0.027	0.083
-307.880	-131.998	0.126	-0.016
-306.866	52.845	-0.120	0.114
-305.851	92.214	-0.056	-0.063
-304.837	-160.199	-0.166	-0.009
-303.822	-10.500	-0.204	-0.135
-302.807	338.384	-0.195	0.377
-301.793	2.226	-0.186	0.134
-300.778	96.053	0.196	0.223
-299.764	411.225	-0.031	-0.066
-298.749	64.631	0.093	-0.093
-297.735	-39.197	0.109	-0.057
-296.720	-200.000	0.055	0.343
-295.705	337.960	-0.164	0.318
-294.691	-171.708	-0.129	0.004
-293.676	-200.000	-0.020	0.260
-292.662	800.000	-0.054	0.187
-291.647	178.021	-0.093	0.136
-290.632	-103.501	0.201	-0.047
-289.618	195.614	0.191	-0.290
-288.603	-66.759	-0.227	-0.089
-287.589	800.000	-0.038	-0.113
-286.574	-200.000	-0.043	0.253
-285.559	-163.863	0.039	0.002
-284.545	-45.798	-0.297	0.146
-283.530	-69.612	0.236	-0.090
-282.516	-46.588	0.373	-0.182
-281.501	76.799	-0.048	-0.051
-280.486	0.840	-0.181	-0.129
-279.472	422.821	-0.119	-0.255
-278.457	-16.465	0.315	-0.199
-277.443	-54.809	0.236	-0.106
-276.428	-100.911	0.286	-0.070
-275.413	800.000	-0.092	-0.340
-274.399	-109.703	0.163	0.034
-273.384	-87.445	-0.198	0.060
-272.370	152.516	-0.051	0.070
-271.355	235.337	-0.119	0.195
-270.340	-200.000	0.023	-0.113
-269.326	107.330	-0.124	0.146
-268.311	200.607	-0.149	0.228
-267.297	-26.419	0.222	0.129
-266.282	-54.229	-0.095	0.043
-265.267	337.137	0.056	-0.109
-264.253	-145.523	-0.056	0.005
-263.238	-87.063	-0.126	-0.038
-262.224	201.789	0.021	-0.032
-261.209	800.000	-0.071	0.287
-260.195	49.723	-0.068	0.064
-259.180	-111.790	-0.092	0.019
-258.165	-57.492	-0.133	-0.058
-257.151	183.168	0.119	0.175
-256.136	800.000	-0.037	-0.107
-255.122	800.000	-0.032	-0.137
-254.107	6.724	0.122	-0.090
-253.092	-129.713	-0.025	0.003
-252.078	646.814	-0.094	0.240
-251.063	800.000	-0.044	0.157
-250.049	163.456	0.111	0.155
-249.034	-26.264	0.153	0.089
-248.019	-23.200	0.097	-0.058
-247.005	-79.322	-0.265	-0.089
-245.990	70.161	-0.112	-0.115
-244.976	34.995	0.303	0.264
-243.961	800.000	0.045	-0.193
-242.946	329.516	0.058	-0.110
-241.932	-68.182	0.138	0.053
-240.917	800.000	0.006	-0.016
-239.903	28.568	0.120	-0.101
-238.888	-141.021	0.045	-0.005
-237.873	-21.174	0.463	0.281
-236.859	800.000	-0.126	-0.377
-235.844	89.911	-0.279	0.310
-234.830	-200.000	-0.009	-0.108
-233.815	-125.657	0.376	0.057
-232.800	197.202	0.062	0.094
-231.786	341.563	-0.070	-0.137
-230.771	-200.000	-0.039	-0.273
-229.757	-29.905	0.241	0.136
-228.742	15.859	-0.198	0.155
-227.727	127.987	-0.036	0.045
-226.713	23.919	0.255	-0.209
-225.698	-1.982	0.222	-0.155
-224.684	800.000	0.098	-0.403
-223.669	400.804	-0.040	0.083
-222.655	772.475	-0.010	-0.027
-221.640	239.128	0.089	0.147
-220.625	-200.000	-0.036	0.329
-219.611	-31.408	0.196	0.110
-218.596	603.896	0.043	0.107
-217.582	-31.094	0.171	0.096
-216.567	-10.659	0.286	-0.188
-215.552	169.230	-0.184	-0.261
-214.538	-166.893	-0.240	-0.010
-213.523	-200.000	-0.013	0.172
-212.509	58.974	-0.230	0.225
-211.494	-200.000	-0.019	-0.360
-210.479	62.730	0.198	0.197
-209.465	64.569	0.162	0.162
-208.450	-114.112	0.340	-0.065
-207.436	57.948	0.195	-0.190
-206.421	103.609	0.194	-0.226
-205.406	-18.477	-0.179	-0.111
-204.392	-67.685	-0.152	-0.059
-203.377	-57.186	0.233	0.102
-202.363	-0.377	0.406	0.286
-201.348	118.901	-0.231	-0.284
-200.333	-118.634	0.213	-0.037
-199.319	54.038	0.260	-0.248
-198.304	-200.000	-0.025	0.335
-197.290	-200.000	0.082	0.369
-196.275	-200.000	0.050	0.226
-195.260	-200.000	0.304	-0.001
-194.246	35.004	-0.127	-0.111
-193.231	-75.438	0.377	-0.133
-192.217	-60.745	-0.201	0.084
-191.202	-122.884	-0.097	0.016
-190.187	-200.000	-0.008	-0.270
-189.173	-200.000	0.011	-0.080
-188.158	-79.146	0.126	0.042
-187.144	-12.708	0.046	-0.030
-186.129	63.203	-0.162	-0.161
-185.114	-191.232	0.081	0.001
-184.100	-84.210	-0.292	-0.092
-183.085	-200.000	0.033	-0.224
-182.071	117.969	-0.116	0.142
-181.056	-129.694	-0.106	0.014
-180.042	9.316	-0.155	0.116
-179.027	31.859	-0.166	0.141
-178.012	800.000	0.006	-0.019
-176.998	-68.665	-0.097	0.037
-175.983	-64.380	0.358	0.144
-174.969	-120.234	-0.174	-0.029
-173.954	172.961	0.084	0.121
-172.939	140.071	0.096	0.126
-171.925	-28.054	0.112	0.064
-170.910	192.048	0.110	0.164
-169.896	-3.962	0.144	-0.099
-168.881	800.000	0.063	0.260
-167.866	-53.206	0.228	0.104
-166.852	-200.000	-0.047	0.358
-165.837	-138.152	0.347	-0.038
-164.823	185.745	0.165	-0.244
-163.808	313.969	0.057	-0.107
-162.793	24.821	-0.061	0.050
-161.779	-64.064	-0.185	0.075
-160.764	-200.000	0.016	-0.206
-159.750	67.565	-0.180	-0.182
-158.735	523.397	-0.151	0.351
-157.720	-200.000	0.001	-0.024
-156.706	31.858	-0.107	0.091
-155.691	314.658	0.063	-0.118
-154.677	124.094	-0.178	-0.221
-153.662	800.000	-0.101	-0.296
-152.647	85.151	0.185	0.201
-151.633	90.644	-0.101	0.112
-150.618	-200.000	0.032	-0.337
-149.604	-84.860	0.132	0.041
-148.589	-9.254	0.123	-0.082
-147.574	-68.320	0.215	-0.083
-146.560	-170.651	-0.115	-0.004
-145.545	-33.536	0.249	0.136
-144.531	-6.551	-0.166	0.112
-143.516	-200.000	-0.014	-0.083
-142.502	-20.305	0.102	0.062
-141.487	-200.000	-0.008	0.215
-140.472	-200.000	0.027	0.196
-139.458	-200.000	-0.041	0.322
-138.443	-200.000	-0.019	-0.480
-137.429	192.055	-0.085	0.127
-136.414	-200.000	-0.032	0.283
-135.399	500.811	-0.173	0.396
-134.385	-200.000	0.015	-0.416
-133.370	800.000	-0.104	-0.302
-132.356	21.849	0.342	-0.276
-131.341	-200.000	-0.033	0.229
-130.326	-200.000	0.003	-0.330
-129.312	449.701	-0.116	0.254
-128.297	144.494	0.275	-0.363
-127.283	-200.000	0.052	0.400
-126.268	-52.682	0.076	0.035
-125.253	312.189	0.119	0.220
-124.239	-106.299	0.372	0.082
-123.224	800.000	-0.101	0.349
-122.210	-200.000	-0.036	-0.245
-121.195	80.832	0.067	-0.072
