DTS Sentinel unit serial number:	SN413079Multiplexer serial number:	ORYXHardware model number:	OX4-SRSoftware version number:	ORYX F/W v4.00 Oryx Data Collector v3.7.2.0data status	okinstallation	princeton_trtdifferential loss correction	single-endedforward channel	channel 1reverse channel	N/Adate	2019/09/12time	18:32:34forward acquisition time	15.00reverse acquisition time	0.00gamma	496.2192k internal	0.2317k external	0.2317temperature offset calibration	1.0116default loss term (dB/km)	0.3790temperature slope calibration	1.0000multiplexer offset coefficient	1.0000multiplexer slope coefficient	1.0000fibre end	0.00T internal ref (°C)	33.19T ext. ref 1 (°C)	3.00T ext. ref 2 (°C)	27.79length (m)	temperature (°C)	Stokes	anti-Stokes-747.200	54.920	-0.564	0.552
-746.185	82.198	0.095	0.104
-745.171	15.623	0.301	0.239
-744.156	305.991	0.207	-0.390
-743.142	-179.085	0.256	0.006
-742.127	800.000	0.061	-0.186
-741.112	-9.731	0.123	-0.083
-740.098	33.605	-0.569	0.500
-739.083	109.827	-0.241	0.293
-738.069	-200.000	-0.001	-0.258
-737.054	-56.165	-0.407	0.184
-736.039	282.402	0.401	-0.728
-735.025	800.000	-0.274	-0.941
-734.010	-200.000	0.016	0.101
-732.996	-14.986	-0.143	0.093
-731.981	32.275	0.335	-0.292
-730.966	375.401	-0.078	0.161
-729.952	800.000	-0.256	-1.013
-728.937	800.000	-0.035	0.149
-727.923	-200.000	-0.642	-0.002
-726.908	560.513	0.158	-0.385
-725.894	489.209	0.120	-0.277
-724.879	454.998	0.329	-0.737
-723.864	-58.957	-0.934	-0.408
-722.850	34.417	-0.350	-0.309
-721.835	-69.822	-0.556	-0.215
-720.821	236.095	0.152	-0.254
-719.806	-68.245	0.564	-0.222
-718.791	-25.753	0.648	-0.386
-717.777	-62.842	-0.271	0.114
-716.762	-104.844	0.527	0.122
-715.748	83.910	0.105	0.116
-714.733	-134.092	0.261	-0.033
-713.718	361.812	0.278	0.564
-712.704	97.685	-0.380	-0.441
-711.689	109.429	-0.579	0.701
-710.675	-200.000	0.004	0.108
-709.660	-31.078	0.328	-0.187
-708.645	451.355	0.435	-0.971
-707.631	-60.745	-0.230	-0.099
-706.616	-64.438	0.549	0.226
-705.602	800.000	0.286	-0.970
-704.587	-55.765	-0.441	-0.199
-703.572	285.709	-0.347	0.632
-702.558	195.433	-0.294	-0.451
-701.543	98.442	0.337	-0.393
-700.529	-160.593	0.456	-0.025
-699.514	-42.282	-0.272	0.140
-698.499	-26.947	0.219	-0.130
-697.485	-62.552	0.388	0.163
-696.470	293.274	0.491	0.906
-695.456	-183.159	0.754	0.013
-694.441	-6.147	-0.034	-0.023
-693.426	369.017	0.165	-0.338
-692.412	157.757	-0.306	0.428
-691.397	-72.383	-0.194	-0.073
-690.383	-200.000	-0.093	0.572
-689.368	800.000	-0.114	-0.343
-688.354	433.783	0.177	-0.388
-687.339	-200.000	-0.029	0.166
-686.324	192.709	-0.570	0.870
-685.310	23.415	-0.467	0.388
-684.295	-200.000	0.000	0.229
-683.281	546.023	0.258	-0.623
-682.266	-36.549	0.903	-0.491
-681.251	-111.053	-0.581	-0.120
-680.237	80.626	-0.429	0.467
-679.222	-62.405	-0.852	-0.358
-678.208	800.000	0.178	-0.566
-677.193	-83.027	0.211	0.069
-676.178	800.000	0.197	-0.724
-675.164	-20.464	0.250	-0.155
-674.149	75.610	-0.031	0.033
-673.135	800.000	0.078	-0.278
-672.120	11.857	-0.519	0.402
-671.105	6.571	0.267	0.200
-670.091	-66.887	-0.473	-0.189
-669.076	207.297	0.703	-1.107
-668.062	-200.000	0.112	0.690
-667.047	-139.512	-0.521	0.056
-666.032	-31.663	-0.504	-0.286
-665.018	-200.000	0.011	0.268
-664.003	-55.121	0.284	-0.129
-662.989	43.433	-0.354	0.326
-661.974	-124.307	-0.830	0.131
-660.959	-72.668	-0.317	0.118
-659.945	420.795	0.294	-0.635
-658.930	-76.633	0.361	-0.128
-657.916	92.567	0.116	0.132
-656.901	102.278	-0.488	0.575
-655.886	3.899	0.362	-0.267
-654.872	-200.000	0.023	-0.588
-653.857	-200.000	-0.041	-0.502
-652.843	443.532	-0.122	-0.271
-651.828	-64.568	0.346	-0.142
-650.814	-5.028	0.510	-0.355
-649.799	-78.318	-0.543	0.188
-648.784	270.177	-0.366	-0.649
-647.770	337.078	-0.287	0.564
-646.755	-200.000	0.014	0.214
-645.741	-85.284	-0.177	-0.056
-644.726	-10.595	0.325	0.217
-643.711	-200.000	0.132	-0.670
-642.697	-131.346	-1.077	-0.144
-641.682	81.172	0.536	0.584
-640.668	-79.215	-0.170	-0.058
-639.653	216.404	-0.053	0.085
-638.638	-46.201	0.508	-0.252
-637.624	146.125	-0.162	0.219
-636.609	-200.000	-0.031	0.426
-635.595	-53.599	0.472	-0.218
-634.580	800.000	-0.124	0.358
-633.565	562.296	-0.139	-0.338
-632.551	-15.635	-0.440	0.283
-631.536	-8.944	0.327	0.221
-630.522	-103.968	-0.302	0.071
-629.507	-200.000	-0.046	-0.312
-628.492	800.000	0.138	-0.485
-627.478	498.885	-0.130	0.303
-626.463	-159.785	0.422	0.023
-625.449	382.579	-0.282	-0.584
-624.434	-49.096	-0.795	-0.383
-623.419	800.000	-0.125	0.378
-622.405	3.673	0.647	-0.476
-621.390	-68.581	0.608	-0.237
-620.376	-200.000	-0.070	0.315
-619.361	800.000	-0.125	0.531
-618.346	-68.929	0.850	-0.330
-617.332	-15.087	0.348	-0.225
-616.317	250.417	0.383	-0.655
-615.303	-200.000	-0.042	-0.759
-614.288	163.201	-0.278	0.393
-613.273	503.662	0.274	-0.640
-612.259	-200.000	0.042	0.508
-611.244	-193.003	0.694	0.006
-610.230	98.911	0.641	-0.745
-609.215	579.013	-0.026	-0.064
-608.201	-73.178	0.753	0.278
-607.186	-34.157	0.103	0.057
-606.171	800.000	0.015	0.042
-605.157	127.737	0.239	0.306
-604.142	-92.387	-1.117	-0.317
-603.128	-200.000	0.021	-0.689
-602.113	-154.923	1.008	-0.067
-601.098	-62.819	-0.570	-0.238
-600.084	-91.106	-0.654	0.189
-599.069	52.211	-0.119	0.115
-598.055	800.000	-0.288	-0.933
-597.040	-87.677	-0.571	-0.174
-596.025	207.756	-0.246	-0.386
-595.011	800.000	0.270	0.897
-593.996	92.498	-0.291	-0.331
-592.982	-200.000	-0.152	0.794
-591.967	-84.355	0.506	-0.161
-590.952	-130.120	0.715	0.098
-589.938	-41.092	0.746	0.388
-588.923	-45.429	0.236	-0.118
-587.909	-4.107	-0.337	-0.235
-586.894	425.133	-0.251	-0.545
-585.879	272.025	0.570	-1.012
-584.865	-200.000	-0.180	1.306
-583.850	-66.764	0.251	-0.100
-582.836	-23.279	0.365	-0.221
-581.821	267.397	-0.174	0.307
-580.806	-42.062	-0.486	0.250
-579.792	-92.490	0.502	0.142
-578.777	-113.102	-0.252	-0.050
-577.763	-78.987	0.400	0.137
-576.748	-7.244	-0.229	0.156
-575.733	-192.425	-0.771	0.007
-574.719	-124.312	-0.672	0.106
-573.704	-128.351	0.307	-0.044
-572.690	103.053	0.403	0.475
-571.675	-180.319	0.989	-0.021
-570.661	-142.440	0.855	-0.085
-569.646	-7.495	-0.705	0.480
-568.631	-95.013	-0.312	-0.085
-567.617	-122.385	0.351	0.058
-566.602	800.000	0.175	-0.651
-565.588	198.163	0.144	0.221
-564.573	-200.000	-0.029	0.268
-563.558	-118.513	-0.319	0.057
-562.544	-186.881	-0.456	0.006
-561.529	-116.067	0.926	0.173
-560.515	800.000	-0.133	0.474
-559.500	-87.896	0.410	-0.124
-558.485	-56.182	-0.841	-0.376
-557.471	328.403	-0.339	0.654
-556.456	-200.000	0.110	0.549
-555.442	-56.487	-0.625	0.279
-554.427	-200.000	0.111	-0.894
-553.412	-200.000	-0.005	-0.214
-552.398	157.666	0.036	-0.050
-551.383	-200.000	-0.006	0.082
-550.369	-68.861	-0.881	-0.342
-549.354	-111.005	-0.567	0.117
-548.339	-153.988	0.630	-0.043
-547.325	-200.000	-0.022	-0.651
-546.310	800.000	0.122	0.372
-545.296	190.140	-0.257	-0.388
-544.281	-74.770	0.305	-0.110
-543.266	187.775	-0.526	-0.789
-542.252	-22.822	-0.362	-0.220
-541.237	-124.540	-0.392	-0.061
-540.223	-26.707	0.502	-0.295
-539.208	800.000	0.207	0.589
-538.193	-200.000	0.089	-0.732
-537.179	-167.303	-0.854	-0.035
-536.164	-141.798	0.373	0.038
-535.150	-19.090	0.365	0.228
-534.135	9.450	0.335	0.255
-533.121	53.054	0.626	-0.602
-532.106	-121.999	-0.560	0.092
-531.091	-114.106	-0.511	-0.099
-530.077	81.853	0.752	0.817
-529.062	800.000	0.355	1.097
-528.048	-155.241	-1.086	0.071
-527.033	-108.379	0.817	0.177
-526.018	-86.350	-0.290	-0.090
-525.004	160.887	-0.545	-0.765
-523.989	-122.077	0.395	0.065
-522.975	62.723	0.144	-0.145
-521.960	-200.000	0.012	0.343
-520.945	197.671	-0.222	-0.340
-519.931	83.724	0.508	-0.556
-518.916	800.000	-0.031	0.101
-517.902	185.917	-0.274	0.410
-516.887	-86.983	0.271	-0.083
-515.872	156.286	0.216	-0.300
-514.858	464.466	0.386	-0.867
-513.843	-93.903	-0.166	0.046
-512.829	-124.029	-0.209	-0.033
-511.814	-118.183	-0.287	0.051
-510.799	109.490	-0.123	0.148
-509.785	800.000	-0.193	0.749
-508.770	-115.209	-0.401	-0.076
-507.756	585.781	0.033	-0.081
-506.741	-200.000	0.028	0.162
-505.726	454.010	-0.180	-0.401
-504.712	800.000	-0.125	-0.447
-503.697	-123.330	0.736	-0.118
-502.683	58.373	-0.415	-0.408
-501.668	-43.710	0.679	0.343
-500.653	542.004	-0.084	0.201
-499.639	629.764	-0.240	0.609
-498.624	-200.000	-0.046	-0.465
-497.610	-200.000	-0.097	0.615
-496.595	-66.811	0.884	0.350
-495.581	434.983	-0.222	-0.485
-494.566	60.488	-0.159	0.158
-493.551	-121.553	-0.272	0.045
-492.537	341.645	-0.103	-0.201
-491.522	-200.000	0.112	0.680
-490.508	325.203	-0.247	-0.473
-489.493	-200.000	-0.083	-0.958
-488.478	7.339	-0.888	0.665
-487.464	-130.581	-1.154	-0.156
-486.449	-120.385	-0.968	0.165
-485.435	-49.973	0.727	0.346
-484.420	-200.000	0.052	-0.231
-483.405	800.000	0.093	-0.326
-482.391	-48.291	-0.213	-0.103
-481.376	-109.287	-0.279	0.059
-480.362	-200.000	0.052	-0.257
-479.347	-200.000	0.106	0.676
-478.332	-20.290	-0.741	-0.457
-477.318	-68.066	-0.107	0.042
-476.303	-200.000	-0.016	-0.203
-475.289	-157.197	0.532	-0.032
-474.274	-56.877	-0.186	0.082
-473.259	-25.831	-0.766	0.452
-472.245	0.731	0.183	-0.131
-471.230	800.000	0.148	-0.443
-470.216	-200.000	0.005	1.133
-469.201	230.872	0.454	-0.745
-468.186	-20.957	-0.778	-0.477
-467.172	-200.000	0.066	-0.412
-466.157	191.821	0.133	-0.201
-465.143	-60.911	-0.337	-0.143
-464.128	-90.230	-0.231	0.067
-463.113	299.533	0.285	-0.526
-462.099	30.120	-0.263	0.225
-461.084	800.000	0.027	-0.103
-460.070	453.178	0.071	0.157
-459.055	-12.662	0.138	0.090
-458.040	-200.000	0.025	-0.419
-457.026	-28.479	0.602	-0.348
-456.011	55.375	-1.095	1.061
-454.997	480.249	-0.222	0.504
-453.982	158.396	-0.279	0.387
-452.968	150.090	0.217	-0.295
-451.953	165.412	0.440	0.622
-450.938	-200.000	0.092	-0.436
-449.924	468.212	-0.452	-1.014
-448.909	22.211	0.224	0.183
-447.895	331.709	-0.059	-0.114
-446.880	7.512	-0.259	0.194
-445.865	711.781	0.195	0.516
-444.851	189.304	0.216	-0.324
-443.836	-91.855	1.002	0.284
-442.822	106.695	-0.335	0.398
-441.807	-140.368	0.616	-0.064
-440.792	-75.210	0.124	0.044
-439.778	-200.000	0.008	-1.122
-438.763	-194.339	-0.960	-0.008
-437.749	80.000	-0.236	0.254
-436.734	-200.000	-0.003	-0.170
-435.719	-85.420	-0.628	0.196
-434.705	160.054	0.193	-0.269
-433.690	217.107	-0.629	-1.002
-432.676	-11.031	-0.516	0.341
-431.661	-100.800	-0.449	-0.111
-430.646	222.830	-0.324	-0.522
-429.632	3.447	0.689	-0.502
-428.617	800.000	-0.154	0.562
-427.603	624.592	-0.226	0.570
-426.588	-200.000	-0.092	-0.647
-425.573	98.319	0.229	0.264
-424.559	-86.461	-0.624	-0.191
-423.544	270.689	0.242	0.426
-422.530	-200.000	0.002	-0.073
-421.515	-200.000	0.171	0.820
-420.500	-200.000	0.032	0.261
-419.486	-200.000	0.605	-0.001
-418.471	-88.469	0.131	0.039
-417.457	-200.000	-0.035	0.406
-416.442	508.094	0.137	-0.317
-415.428	289.485	0.180	-0.326
-414.413	-200.000	-0.039	-0.685
-413.398	-161.478	-0.197	-0.010
-412.384	-32.921	0.262	0.145
-411.369	631.632	-0.247	-0.625
-410.355	-92.463	0.398	-0.112
-409.340	-16.609	0.253	0.160
-408.325	36.140	-0.326	-0.287
-407.311	680.778	0.182	-0.472
-406.296	-200.000	-0.079	-0.415
-405.282	-200.000	0.017	0.131
-404.267	649.854	-0.207	0.530
-403.252	800.000	-0.138	-0.532
-402.238	-60.352	0.482	-0.205
-401.223	-168.601	-0.628	0.024
-400.209	-97.547	-0.491	0.127
-399.194	125.993	0.121	-0.153
-398.179	-200.000	0.045	0.604
-397.165	-200.000	0.046	0.354
-396.150	6.346	0.324	-0.240
-395.136	-34.073	0.638	-0.350
-394.121	162.117	-0.723	1.012
-393.106	109.445	0.146	-0.175
-392.092	800.000	0.169	-0.725
-391.077	390.098	-0.160	0.332
-390.063	-69.162	0.242	0.093
-389.048	93.118	-0.761	-0.859
-388.033	-37.257	0.197	-0.105
-387.019	-11.522	0.282	0.185
-386.004	-125.740	0.266	0.040
-384.990	-23.491	0.587	0.352
-383.975	792.066	0.158	0.435
-382.960	53.733	0.411	0.394
-381.946	-65.721	0.495	-0.198
-380.931	49.658	0.277	-0.260
-379.917	-135.533	-0.944	0.112
-378.902	800.000	0.154	-0.512
-377.888	-0.663	0.474	0.336
-376.873	800.000	-0.056	0.181
-375.858	220.922	-0.217	0.348
-374.844	338.501	-0.162	-0.316
-373.829	-91.594	-0.457	0.130
-372.815	-200.000	-0.104	-0.522
-371.800	-60.162	-0.092	-0.039
-370.785	177.250	-0.382	0.555
-369.771	181.220	-0.183	0.268
-368.756	-121.176	-0.316	-0.053
-367.742	-200.000	-0.070	-0.618
-366.727	134.442	0.499	0.645
-365.712	33.521	-0.206	-0.178
-364.698	-200.000	-0.039	0.921
-363.683	-32.965	-0.335	0.186
-362.669	-82.453	0.374	0.121
-361.654	-29.972	-0.279	-0.158
-360.639	-110.129	1.219	-0.254
-359.625	-104.517	-0.959	-0.221
-358.610	-200.000	-0.160	0.768
-357.596	172.113	0.508	0.729
-356.581	-133.581	-0.726	0.091
-355.566	-200.000	-0.119	0.554
-354.552	559.417	0.205	0.494
-353.537	-115.201	-0.526	-0.099
-352.523	97.245	0.210	-0.240
-351.508	-102.362	-0.584	0.140
-350.493	53.014	-0.447	0.426
-349.479	626.761	-0.244	0.615
-348.464	244.427	-0.608	-1.018
-347.450	-16.612	0.725	0.457
-346.435	-120.402	-0.535	-0.091
-345.420	800.000	0.077	-0.230
-344.406	-171.642	-0.683	-0.022
-343.391	-200.000	0.070	0.507
-342.377	-200.000	-0.134	-1.063
-341.362	-130.552	0.477	-0.064
-340.348	-188.290	0.666	0.008
-339.333	349.111	-0.127	0.250
-338.318	800.000	-0.054	-0.153
-337.304	-4.184	-0.325	0.224
-336.289	-200.000	-0.042	-0.333
-335.275	4.959	-0.851	0.624
-334.260	-110.510	-0.721	0.149
-333.245	1.267	-0.523	-0.374
-332.231	-152.329	-0.145	0.010
-331.216	-64.699	-0.328	0.133
-330.202	-14.820	-0.568	0.364
-329.187	-74.542	-0.099	-0.036
-328.172	70.997	0.339	0.350
-327.158	-41.490	0.104	0.053
-326.143	23.482	-0.275	0.225
-325.129	-69.243	0.497	-0.190
-324.114	-9.324	0.627	0.417
-323.099	800.000	0.181	-0.517
-322.085	272.643	0.325	-0.571
-321.070	-37.319	-0.277	0.148
-320.056	-52.412	-0.393	0.181
-319.041	-64.458	0.791	0.320
-318.026	101.201	0.732	-0.849
-317.012	-200.000	-0.047	-0.910
-315.997	-87.448	0.816	-0.246
-314.983	338.522	-0.314	-0.608
-313.968	-200.000	-0.112	-0.638
-312.953	-51.425	-0.768	0.357
-311.939	246.355	-0.287	-0.482
-310.924	1.244	-0.057	0.041
-309.910	42.154	0.286	-0.258
-308.895	-136.177	0.505	0.059
-307.880	-200.000	0.031	0.309
-306.866	-5.429	-0.459	-0.314
-305.851	117.726	-0.467	-0.572
-304.837	-98.738	0.518	0.131
-303.822	121.878	-0.241	-0.299
-302.807	-104.461	1.199	-0.276
-301.793	-82.872	0.552	0.177
-300.778	-3.355	0.694	0.481
-299.764	-59.256	1.075	0.461
-298.749	47.498	-0.180	0.167
-297.735	-14.155	0.348	0.223
-296.720	16.825	-0.142	0.112
-295.705	84.152	-0.105	-0.114
-294.691	722.086	-0.254	-0.673
-293.676	-200.000	0.122	0.587
-292.662	152.588	-0.374	-0.508
-291.647	574.370	0.171	0.414
-290.632	627.560	0.168	-0.423
-289.618	-200.000	-0.028	-0.851
-288.603	-200.000	-0.025	0.540
-287.589	-22.842	0.901	0.541
-286.574	15.320	0.213	-0.166
-285.559	-89.142	-0.681	0.200
-284.545	269.762	0.258	0.450
-283.530	18.929	-0.171	-0.136
-282.516	743.407	0.106	-0.284
-281.501	-200.000	-0.112	-1.066
-280.486	359.168	-0.229	-0.455
-279.472	-79.953	0.365	0.122
-278.457	-200.000	0.037	0.546
-277.443	123.876	-0.976	1.218
-276.428	-121.270	0.339	0.056
-275.413	-72.158	0.389	-0.143
-274.399	-200.000	-0.017	-0.189
-273.384	174.303	-0.168	-0.241
-272.370	783.845	-0.205	-0.559
-271.355	478.936	0.047	0.105
-270.340	167.929	0.215	0.303
-269.326	-133.695	-0.790	0.098
-268.311	-96.303	0.108	-0.028
-267.297	-138.154	-0.363	0.040
-266.282	-200.000	-0.035	0.244
-265.267	77.984	-0.574	-0.608
-264.253	-47.392	0.140	-0.068
-263.238	-44.393	0.539	0.268
-262.224	-165.986	-0.487	-0.021
-261.209	-111.091	-0.547	-0.111
-260.195	259.601	-0.037	-0.063
-259.180	-61.677	0.559	0.233
-258.165	-37.161	-0.389	0.207
-257.151	35.255	-0.234	0.204
-256.136	-39.461	0.262	-0.136
-255.122	-69.957	-0.449	-0.170
-254.107	-113.833	0.258	-0.050
-253.092	-27.526	0.711	-0.410
-252.078	-32.918	-0.464	-0.256
-251.063	-200.000	-0.013	0.677
-250.049	-200.000	0.230	-1.167
-249.034	-200.000	-0.058	-0.504
-248.019	-69.316	-0.731	-0.279
-247.005	-71.174	0.574	-0.214
-245.990	320.093	0.289	0.544
-244.976	225.710	-0.256	0.411
-243.961	-200.000	-0.002	0.540
-242.946	800.000	-0.080	0.293
-241.932	124.791	-0.025	-0.031
-240.917	537.615	-0.258	0.608
-239.903	509.906	0.289	-0.668
-238.888	176.160	0.403	-0.581
-237.873	-9.019	-0.156	-0.103
-236.859	-162.385	0.617	0.030
-235.844	449.778	0.432	0.946
-234.830	-155.743	0.261	0.017
-233.815	-200.000	0.110	0.743
-232.800	800.000	-0.155	0.426
-231.786	-49.673	0.825	0.389
-230.771	-200.000	0.034	0.700
-229.757	-0.793	0.434	-0.305
-228.742	185.656	0.425	-0.627
-227.727	457.180	0.047	0.103
-226.713	-72.609	1.030	0.377
-225.698	9.984	-0.385	-0.290
-224.684	-200.000	-0.004	0.129
-223.669	-117.180	-0.420	-0.076
-222.655	17.654	-0.158	0.124
-221.640	-200.000	-0.100	-0.674
-220.625	209.345	-0.542	0.842
-219.611	24.012	-0.273	0.223
-218.596	-118.182	-0.889	-0.157
-217.582	52.222	0.454	-0.430
-216.567	-61.581	1.084	0.451
-215.552	408.046	0.291	-0.610
-214.538	-131.939	-0.467	-0.060
-213.523	800.000	-0.100	0.318
-212.509	-53.319	-0.989	-0.450
-211.494	800.000	0.178	0.699
-210.479	-200.000	-0.059	0.347
-209.465	546.417	0.104	0.248
-208.450	15.723	0.696	0.543
-207.436	-200.000	-0.052	-0.514
-206.421	-48.916	-0.318	-0.151
-205.406	-188.500	0.534	0.007
-204.392	-95.911	0.558	0.147
-203.377	-50.026	0.070	-0.033
-202.363	-25.571	-0.186	-0.109
-201.348	-134.115	0.797	0.098
-200.333	-69.653	0.354	0.134
-199.319	91.999	0.229	0.255
-198.304	14.220	0.695	0.537
-197.290	138.135	0.124	-0.161
-196.275	-80.927	0.651	-0.214
-195.260	-47.933	0.652	-0.313
-194.246	427.736	-0.076	-0.163
-193.231	9.914	-0.357	-0.268
-192.217	199.096	-0.352	-0.535
-191.202	169.929	-0.458	0.648
-190.187	-200.000	-0.002	0.047
-189.173	188.776	-0.105	-0.156
-188.158	281.795	0.290	0.514
-187.144	-200.000	0.028	-0.290
-186.129	-71.694	0.475	-0.175
-185.114	-200.000	-0.070	0.554
-184.100	-79.588	-0.137	-0.046
-183.085	-99.100	0.681	0.171
-182.071	113.365	0.319	-0.384
-181.056	800.000	0.064	-0.215
-180.042	-123.029	-0.190	-0.030
-179.027	-200.000	0.084	-0.396
-178.012	-105.948	0.319	-0.071
-176.998	-112.907	-0.761	-0.149
-175.983	445.812	0.257	0.560
-174.969	164.225	0.234	0.326
-173.954	-101.111	-0.977	0.237
-172.939	15.514	0.933	0.725
-171.925	-149.075	-0.485	0.039
-170.910	-81.066	0.421	0.138
-169.896	-200.000	-0.064	0.388
-168.881	-200.000	0.084	-0.632
-167.866	-50.363	0.375	0.175
-166.852	-200.000	0.087	-0.402
-165.837	-200.000	-0.024	0.601
-164.823	800.000	0.019	0.071
-163.808	-165.900	-0.154	-0.007
-162.793	-200.000	0.031	-0.714
-161.779	-200.000	-0.088	0.841
-160.764	518.977	-0.299	-0.693
-159.750	-25.806	0.520	0.303
-158.735	198.163	-0.526	0.795
-157.720	-59.477	-0.450	-0.191
-156.706	44.329	0.483	0.438
-155.691	-78.730	-0.569	0.192
-154.677	-155.162	-0.781	0.050
-153.662	-113.624	0.546	0.106
-152.647	92.151	-0.161	0.180
-151.633	537.936	0.198	0.466
-150.618	-200.000	-0.013	0.154
-149.604	-181.937	0.496	-0.009
-148.589	65.580	-0.502	-0.503
-147.574	-200.000	0.122	-0.700
-146.560	-200.000	0.023	0.296
-145.545	470.976	0.420	0.933
-144.531	-137.222	0.759	0.085
-143.516	91.145	0.499	0.554
-142.502	-103.967	0.992	0.229
-141.487	-105.209	-0.811	-0.183
-140.472	421.580	-0.109	0.231
-139.458	-142.374	-0.392	-0.038
-138.443	-67.563	0.778	0.302
-137.429	-200.000	-0.073	-0.451
-136.414	-133.929	-0.245	-0.030
-135.399	159.297	0.559	0.769
-134.385	-200.000	-0.009	-0.737
-133.370	-134.709	0.373	0.045
-132.356	-26.709	0.307	0.177
-131.341	-112.974	0.464	0.091
-130.326	-200.000	0.159	-0.983
-129.312	168.485	0.748	-1.054
-128.297	30.113	0.379	0.320
-127.283	1.709	0.223	-0.159
-126.268	-166.111	0.831	0.035
-125.253	-83.178	0.556	0.177
-124.239	-86.308	-0.443	-0.135
-123.224	-127.199	-0.697	0.101
-122.210	78.777	-0.254	-0.269
