DTS Sentinel unit serial number:	SN413079Multiplexer serial number:	ORYXHardware model number:	OX4-SRSoftware version number:	ORYX F/W v4.00 Oryx Data Collector v3.7.2.0data status	okinstallation	princeton_trtdifferential loss correction	single-endedforward channel	channel 1reverse channel	N/Adate	2019/09/17time	18:22:35forward acquisition time	60.00reverse acquisition time	0.00gamma	496.2192k internal	0.2290k external	0.2290temperature offset calibration	0.9960default loss term (dB/km)	0.3790temperature slope calibration	1.0000multiplexer offset coefficient	1.0000multiplexer slope coefficient	1.0000fibre end	0.00T internal ref (°C)	43.27T ext. ref 1 (°C)	0.32T ext. ref 2 (°C)	36.56length (m)	temperature (°C)	Stokes	anti-Stokes-747.200	-200.000	-0.004	-0.204
-746.185	73.689	0.160	-0.172
-745.171	-148.418	-0.108	0.009
-744.156	30.395	0.092	0.081
-743.142	5.643	-0.085	0.065
-742.127	59.321	0.121	-0.122
-741.112	340.766	0.120	0.241
-740.098	-200.000	-0.024	0.244
-739.083	203.217	0.137	-0.217
-738.069	-121.520	0.268	-0.046
-737.054	-55.830	-0.301	-0.137
-736.039	-58.124	-0.322	-0.144
-735.025	-102.423	0.263	-0.064
-734.010	-154.638	-0.150	-0.010
-732.996	655.798	-0.066	-0.173
-731.981	-200.000	0.022	-0.257
-730.966	-44.862	0.161	0.082
-729.952	-17.137	-0.439	-0.284
-728.937	123.457	-0.205	-0.263
-727.923	-200.000	-0.018	-0.145
-726.908	165.053	-0.125	-0.181
-725.894	800.000	-0.093	-0.272
-724.879	-33.416	0.218	0.123
-723.864	-200.000	-0.000	-0.173
-722.850	238.409	-0.070	-0.119
-721.835	-93.437	-0.500	0.142
-720.821	-84.229	0.100	0.033
-719.806	106.898	-0.109	0.132
-718.791	175.261	0.120	0.178
-717.777	-200.000	0.006	0.099
-716.762	800.000	0.120	0.457
-715.748	-124.493	0.118	-0.019
-714.733	800.000	-0.022	0.080
-713.718	-143.520	-0.145	0.014
-712.704	475.750	-0.014	0.033
-711.689	34.343	-0.328	-0.293
-710.675	222.204	0.159	-0.262
-709.660	47.077	0.104	-0.099
-708.645	11.883	-0.183	-0.144
-707.631	25.290	0.237	-0.202
-706.616	-200.000	-0.001	0.279
-705.602	754.431	0.027	-0.075
-704.587	800.000	0.035	-0.135
-703.572	401.263	0.022	0.047
-702.558	-200.000	-0.043	-0.206
-701.543	-98.572	-0.342	0.089
-700.529	-75.505	0.134	0.049
-699.514	1.245	0.095	0.070
-698.499	-138.999	-0.071	0.008
-697.485	112.190	0.198	0.244
-696.470	469.224	0.105	-0.242
-695.456	-115.737	0.146	0.028
-694.441	-17.991	0.256	0.164
-693.426	-200.000	-0.009	-0.127
-692.412	-123.880	-0.217	-0.035
-691.397	-26.337	0.206	-0.124
-690.383	578.313	0.157	0.392
-689.368	800.000	0.025	-0.073
-688.354	14.628	-0.189	-0.151
-687.339	267.081	-0.160	-0.287
-686.324	-85.059	0.271	-0.087
-685.310	-92.316	-0.097	-0.028
-684.295	-34.553	-0.072	-0.040
-683.281	-11.881	0.176	-0.118
-682.266	289.327	-0.089	-0.165
-681.251	-59.842	-0.126	0.055
-680.237	181.962	0.011	-0.016
-679.222	-77.099	0.150	-0.053
-678.208	800.000	0.089	-0.254
-677.193	243.027	0.114	-0.194
-676.178	143.815	-0.118	0.161
-675.164	137.666	0.082	-0.110
-674.149	127.253	0.035	0.045
-673.135	648.158	0.116	-0.304
-672.120	14.367	-0.205	-0.164
-671.105	-142.617	0.291	0.029
-670.091	3.573	-0.254	-0.189
-669.076	363.895	0.035	0.072
-668.062	-200.000	0.005	0.058
-667.047	-65.355	-0.221	0.091
-666.032	365.391	-0.131	-0.268
-665.018	-200.000	0.055	-0.285
-664.003	8.280	0.078	0.060
-662.989	-4.002	0.176	0.124
-661.974	-19.581	-0.088	-0.056
-660.959	-55.957	-0.237	0.108
-659.945	-20.103	-0.242	-0.152
-658.930	-35.165	0.271	0.151
-657.916	78.590	0.262	0.286
-656.901	-182.858	-0.291	-0.005
-655.886	-119.131	0.137	-0.024
-654.872	227.711	-0.036	0.060
-653.857	-56.087	0.022	0.010
-652.843	-124.628	0.085	-0.014
-651.828	-26.782	0.374	-0.223
-650.814	3.484	0.115	-0.086
-649.799	-186.657	-0.353	0.005
-648.784	-117.747	-0.192	-0.035
-647.770	-199.592	0.178	0.001
-646.755	56.208	-0.204	0.202
-645.741	-14.051	-0.096	0.063
-644.726	-200.000	-0.010	-0.155
-643.711	145.769	0.097	0.133
-642.697	-186.436	-0.355	-0.005
-641.682	751.187	0.021	-0.058
-640.668	-77.217	0.323	0.115
-639.653	721.406	-0.061	-0.164
-638.638	-200.000	-0.007	-0.074
-637.624	-200.000	-0.032	0.333
-636.609	-6.527	0.097	0.068
-635.595	-70.455	-0.181	0.070
-634.580	83.667	-0.093	-0.104
-633.565	-89.182	0.319	0.096
-632.551	-30.961	-0.208	0.120
-631.536	-200.000	0.009	0.346
-630.522	-43.332	-0.145	0.075
-629.507	-98.311	0.121	-0.032
-628.492	-52.603	-0.162	-0.076
-627.478	203.835	0.098	-0.155
-626.463	43.724	-0.083	-0.077
-625.449	208.203	-0.108	-0.172
-624.434	95.528	0.237	0.275
-623.419	0.887	-0.173	0.127
-622.405	-52.596	-0.368	-0.173
-621.390	2.923	-0.214	0.158
-620.376	-74.587	-0.181	-0.066
-619.361	-24.514	0.054	0.033
-618.346	111.202	-0.264	0.324
-617.332	79.996	0.155	0.170
-616.317	71.850	-0.069	0.073
-615.303	-43.406	0.189	0.097
-614.288	19.185	0.353	0.289
-613.273	-200.000	0.029	0.341
-612.259	800.000	-0.049	0.212
-611.244	-88.846	-0.193	-0.058
-610.230	75.181	-0.297	0.319
-609.215	-200.000	0.001	-0.172
-608.201	-87.194	0.123	-0.038
-607.186	26.174	0.228	0.194
-606.171	338.511	0.013	0.025
-605.157	427.380	-0.068	-0.150
-604.142	-126.799	-0.098	-0.015
-603.128	152.274	-0.251	-0.349
-602.113	-103.155	0.167	0.040
-601.098	127.472	0.163	-0.211
-600.084	105.315	0.029	0.035
-599.069	-111.708	-0.216	-0.045
-598.055	222.784	-0.123	0.202
-597.040	-125.517	0.146	-0.023
-596.025	-73.833	0.229	-0.085
-595.011	-100.380	-0.151	-0.038
-593.996	194.217	0.191	0.294
-592.982	-142.261	-0.300	-0.030
-591.967	302.947	0.191	0.360
-590.952	-200.000	0.038	0.196
-589.938	-42.354	-0.282	-0.147
-588.923	800.000	0.063	0.208
-587.909	-200.000	0.001	0.083
-586.894	-25.054	-0.165	-0.100
-585.879	68.734	0.051	-0.053
-584.865	-65.148	0.207	0.085
-583.850	-24.264	0.172	0.105
-582.836	-152.784	0.268	0.019
-581.821	-39.754	0.234	-0.125
-580.806	800.000	0.058	-0.190
-579.792	-26.972	-0.150	0.089
-578.777	-200.000	-0.000	0.344
-577.763	795.896	-0.037	-0.103
-576.748	-71.071	-0.161	-0.062
-575.733	-78.344	0.243	-0.085
-574.719	-200.000	-0.016	0.210
-573.704	-69.742	-0.240	-0.093
-572.690	-112.341	-0.046	0.009
-571.675	24.305	0.273	-0.229
-570.661	-92.982	0.161	-0.046
-569.646	394.444	0.126	0.267
-568.631	-106.141	0.182	0.042
-567.617	800.000	0.073	-0.264
-566.602	728.196	0.069	0.188
-565.588	86.154	0.036	-0.041
-564.573	11.247	0.173	-0.135
-563.558	56.135	0.044	-0.044
-562.544	-67.264	0.155	-0.062
-561.529	152.910	-0.090	0.125
-560.515	97.077	-0.135	-0.157
-559.500	800.000	0.061	-0.179
-558.485	-127.135	-0.262	-0.039
-557.471	800.000	-0.045	0.188
-556.456	-200.000	0.017	-0.141
-555.442	153.790	-0.109	-0.152
-554.427	180.649	-0.118	0.176
-553.412	52.990	-0.062	-0.060
-552.398	327.898	0.216	0.421
-551.383	-69.281	0.251	-0.098
-550.369	800.000	-0.046	0.174
-549.354	55.515	-0.031	0.030
-548.339	-51.124	0.274	0.131
-547.325	-18.160	0.346	0.220
-546.310	680.614	0.050	0.133
-545.296	-159.441	-0.241	0.014
-544.281	171.870	0.133	-0.194
-543.266	-200.000	-0.013	0.365
-542.252	174.664	0.045	0.066
-541.237	-62.723	-0.207	0.087
-540.223	-200.000	0.020	-0.194
-539.208	185.347	-0.158	0.238
-538.193	-13.984	0.177	-0.116
-537.179	-12.592	-0.179	0.119
-536.164	-200.000	0.020	-0.232
-535.150	295.946	-0.037	0.069
-534.135	-12.579	-0.125	-0.083
-533.121	644.193	-0.048	-0.125
-532.106	680.188	-0.096	0.254
-531.091	126.565	-0.286	-0.368
-530.077	-200.000	0.026	0.139
-529.062	-200.000	-0.037	0.288
-528.048	242.110	-0.131	-0.223
-527.033	67.253	-0.144	-0.149
-526.018	518.642	-0.108	0.258
-525.004	146.880	-0.175	-0.240
-523.989	14.401	0.252	0.199
-522.975	619.413	0.035	-0.089
-521.960	800.000	-0.058	0.231
-520.945	-200.000	-0.022	-0.337
-519.931	-73.330	0.234	0.087
-518.916	-117.298	0.134	-0.025
-517.902	10.877	0.251	-0.195
-516.887	-200.000	0.003	-0.270
-515.872	23.379	-0.258	-0.215
-514.858	-200.000	-0.014	-0.102
-513.843	-91.284	0.077	-0.022
-512.829	-200.000	0.004	0.153
-511.814	800.000	-0.084	0.273
-510.799	-28.849	0.124	-0.072
-509.785	78.748	-0.122	0.133
-508.770	-63.773	0.207	-0.086
-507.756	-200.000	0.032	-0.232
-506.741	800.000	-0.063	-0.247
-505.726	26.857	-0.095	-0.081
-504.712	-200.000	-0.147	-0.682
-503.697	-43.123	-0.083	0.043
-502.683	-106.326	-0.104	0.024
-501.668	26.308	0.278	0.236
-500.653	-168.937	-0.395	-0.015
-499.639	185.569	0.176	-0.266
-498.624	131.778	0.141	0.184
-497.610	-200.000	-0.013	0.097
-496.595	29.537	-0.209	0.180
-495.581	-7.131	-0.221	0.152
-494.566	153.915	-0.304	0.423
-493.551	193.497	-0.075	-0.116
-492.537	-200.000	0.020	0.432
-491.522	800.000	-0.034	0.115
-490.508	800.000	0.024	0.080
-489.493	345.279	-0.255	-0.507
-488.478	-55.561	-0.213	-0.097
-487.464	107.056	-0.124	-0.149
-486.449	-91.449	-0.059	0.017
-485.435	335.535	-0.146	0.287
-484.420	-148.172	0.399	0.033
-483.405	-71.192	0.320	-0.122
-482.391	-49.018	0.080	-0.039
-481.376	38.690	-0.062	-0.057
-480.362	-111.762	-0.043	-0.009
-479.347	-99.207	0.387	0.099
-478.332	-55.899	0.303	0.137
-477.318	-200.000	-0.014	0.265
-476.303	715.330	-0.050	0.133
-475.289	-62.755	0.365	-0.153
-474.274	261.319	-0.038	0.067
-473.259	112.236	-0.262	0.321
-472.245	48.503	0.140	-0.133
-471.230	-40.410	-0.086	0.045
-470.216	-88.805	-0.103	-0.031
-469.201	800.000	-0.068	0.264
-468.186	-115.863	-0.333	-0.063
-467.172	800.000	0.072	-0.317
-466.157	236.085	0.119	-0.200
-465.143	-102.408	-0.167	0.040
-464.128	202.101	-0.054	-0.084
-463.113	-94.064	-0.039	0.011
-462.099	800.000	0.074	-0.267
-461.084	-200.000	0.024	-0.152
-460.070	800.000	-0.072	0.278
-459.055	-125.502	-0.261	0.040
-458.040	-200.000	0.028	0.142
-457.026	-74.554	-0.425	-0.155
-456.011	-64.519	-0.103	0.042
-454.997	800.000	0.036	0.151
-453.982	89.052	-0.168	0.190
-452.968	-68.571	0.078	0.030
-451.953	-105.800	-0.153	-0.035
-450.938	64.975	0.112	0.114
-449.924	23.552	0.083	0.069
-448.909	-87.485	0.199	-0.061
-447.895	241.939	0.219	-0.371
-446.880	-2.089	-0.184	-0.131
-445.865	102.641	-0.204	0.242
-444.851	800.000	-0.026	-0.109
-443.836	-79.299	0.063	0.022
-442.822	49.100	0.138	-0.131
-441.807	563.521	0.037	-0.092
-440.792	-35.669	0.140	-0.077
-439.778	80.430	-0.189	-0.206
-438.763	800.000	-0.071	-0.207
-437.749	-121.813	0.204	-0.034
-436.734	-21.535	0.067	0.042
-435.719	-125.760	0.233	0.036
-434.705	41.402	-0.247	0.226
-433.690	-122.825	0.360	-0.059
-432.676	-85.449	-0.207	-0.065
-431.661	-200.000	0.031	-0.490
-430.646	553.629	-0.127	-0.310
-429.632	-200.000	0.032	-0.224
-428.617	115.403	0.049	-0.061
-427.603	-59.117	0.046	0.020
-426.588	397.701	-0.098	-0.207
-425.573	37.046	0.153	0.137
-424.559	789.539	0.058	-0.162
-423.544	-129.071	0.174	-0.025
-422.530	53.130	0.113	0.109
-421.515	800.000	-0.081	0.242
-420.500	91.834	-0.239	-0.272
-419.486	-152.758	0.471	0.034
-418.471	-182.294	-0.179	-0.003
-417.457	257.976	0.074	-0.128
-416.442	-104.023	0.092	-0.022
-415.428	92.147	-0.051	0.058
-414.413	135.814	0.128	-0.169
-413.398	319.838	0.021	0.040
-412.384	-200.000	0.033	0.180
-411.369	-122.929	-0.295	-0.048
-410.355	65.392	-0.097	-0.099
-409.340	-63.378	0.206	-0.086
-408.325	-200.000	0.026	-0.132
-407.311	-200.000	0.060	-0.272
-406.296	-58.756	-0.521	-0.228
-405.282	-200.000	-0.025	-0.121
-404.267	287.771	0.070	0.129
-403.252	-159.821	-0.099	0.005
-402.238	115.950	0.325	0.402
-401.223	-200.000	-0.001	0.182
-400.209	291.171	0.204	0.374
-399.194	-1.205	0.055	0.039
-398.179	-57.196	0.137	0.061
-397.165	193.410	0.143	0.218
-396.150	-200.000	0.027	0.198
-395.136	-200.000	-0.004	-0.271
-394.121	16.832	0.046	0.037
-393.106	-57.528	-0.262	0.116
-392.092	-200.000	-0.022	-0.474
-391.077	-102.606	-0.056	0.014
-390.063	-182.385	-0.148	-0.003
-389.048	567.662	-0.147	-0.360
-388.033	-42.068	-0.169	-0.088
-387.019	-18.420	-0.368	0.232
-386.004	708.768	0.092	-0.246
-384.990	800.000	0.018	-0.076
-383.975	-23.207	-0.143	0.087
-382.960	529.760	-0.210	-0.501
-381.946	91.417	0.126	-0.143
-380.931	197.242	0.071	0.109
-379.917	800.000	0.117	0.407
-378.902	468.847	0.118	-0.267
-377.888	-122.825	0.261	0.043
-376.873	-21.224	0.122	-0.076
-375.858	-61.720	-0.028	0.012
-374.844	100.708	0.015	-0.017
-373.829	-83.173	0.314	-0.102
-372.815	211.671	-0.207	0.329
-371.800	677.315	0.111	0.291
-370.785	48.479	0.007	0.007
-369.771	-200.000	0.028	0.363
-368.756	800.000	-0.046	0.155
-367.742	52.429	-0.110	-0.106
-366.727	86.700	-0.057	-0.064
-365.712	0.080	-0.140	-0.101
-364.698	4.138	-0.218	0.161
-363.683	188.292	-0.149	0.225
-362.669	-200.000	0.020	-0.155
-361.654	-193.811	-0.198	0.002
-360.639	13.370	0.252	0.197
-359.625	-62.818	0.281	-0.117
-358.610	-148.012	0.186	0.016
-357.596	800.000	0.011	0.045
-356.581	-188.491	-0.059	-0.001
-355.566	776.659	-0.077	-0.214
-354.552	13.551	0.236	0.185
-353.537	97.148	-0.107	-0.123
-352.523	-19.974	0.160	-0.100
-351.508	-69.941	-0.077	0.029
-350.493	-22.800	-0.037	0.023
-349.479	-59.139	0.212	-0.092
-348.464	-164.663	-0.147	0.007
-347.450	210.970	-0.121	-0.191
-346.435	-200.000	-0.031	0.150
-345.420	300.707	0.043	-0.079
-344.406	800.000	0.098	-0.283
-343.391	589.504	0.039	0.097
-342.377	85.905	0.147	-0.163
-341.362	-112.848	-0.118	-0.024
-340.348	18.451	0.021	-0.017
-339.333	242.844	0.135	-0.228
-338.318	-96.040	-0.357	-0.096
-337.304	-200.000	0.013	0.282
-336.289	754.848	0.065	-0.176
-335.275	-200.000	0.021	-0.162
-334.260	138.663	-0.155	-0.206
-333.245	-54.446	0.448	-0.205
-332.231	-34.646	-0.093	0.052
-331.216	800.000	-0.038	-0.121
-330.202	-200.000	-0.013	0.089
-329.187	300.376	0.025	0.047
-328.172	-173.115	0.283	-0.009
-327.158	43.228	-0.088	0.081
-326.143	221.403	0.104	-0.169
-325.129	-78.411	-0.157	0.054
-324.114	-34.735	0.034	-0.019
-323.099	217.037	-0.030	-0.048
-322.085	107.071	0.074	-0.089
-321.070	161.791	-0.191	-0.269
-320.056	800.000	-0.044	-0.130
-319.041	-200.000	-0.007	-0.093
-318.026	22.103	0.328	-0.270
-317.012	52.498	-0.138	0.132
-315.997	441.991	-0.119	-0.262
-314.983	387.469	-0.090	-0.188
-313.968	31.323	-0.206	-0.178
-312.953	718.210	-0.068	0.182
-311.939	800.000	0.080	0.242
-310.924	242.860	0.004	0.007
-309.910	135.648	0.114	-0.149
-308.895	-37.318	-0.333	0.179
-307.880	258.325	0.038	0.066
-306.866	800.000	-0.091	0.257
-305.851	105.725	-0.163	0.194
-304.837	35.008	0.177	0.156
-303.822	-46.011	-0.251	0.124
-302.807	728.682	0.067	0.180
-301.793	40.943	0.087	-0.079
-300.778	-56.226	0.255	0.114
-299.764	-187.851	-0.351	-0.005
-298.749	-93.475	0.495	0.138
-297.735	392.189	0.094	-0.198
-296.720	387.178	-0.095	-0.197
-295.705	-200.000	-0.022	-0.178
-294.691	-200.000	0.018	0.249
-293.676	-200.000	0.081	-0.373
-292.662	123.498	0.125	-0.158
-291.647	-130.930	0.532	0.072
-290.632	-8.453	0.053	0.036
-289.618	-140.160	0.127	-0.013
-288.603	-200.000	0.031	0.000
-287.589	10.221	0.204	0.156
-286.574	-200.000	-0.100	0.454
-285.559	18.709	-0.126	0.101
-284.545	800.000	-0.059	-0.228
-283.530	800.000	0.054	-0.164
-282.516	28.421	-0.090	-0.077
-281.501	-200.000	-0.027	0.262
-280.486	-200.000	-0.008	-0.058
-279.472	10.367	-0.119	0.091
-278.457	-64.157	0.256	-0.105
-277.443	45.820	-0.075	0.070
-276.428	-200.000	-0.008	-0.229
-275.413	-111.936	-0.017	-0.003
-274.399	-200.000	0.019	-0.273
-273.384	800.000	-0.059	-0.255
-272.370	-69.800	0.089	0.034
-271.355	764.814	0.086	0.236
-270.340	131.944	-0.018	0.023
-269.326	-200.000	0.034	0.366
-268.311	-5.786	0.116	0.080
-267.297	-50.125	0.164	-0.078
-266.282	151.136	-0.232	0.318
-265.267	262.394	-0.061	-0.107
-264.253	53.005	-0.111	0.107
-263.238	131.378	0.055	-0.071
-262.224	-59.371	0.082	0.035
-261.209	800.000	0.014	0.045
-260.195	-65.774	0.188	0.075
-259.180	-86.470	0.074	-0.023
-258.165	338.477	-0.122	-0.239
-257.151	-79.839	-0.092	0.031
-256.136	-28.624	-0.117	0.068
-255.122	-61.939	0.294	-0.123
-254.107	-200.000	0.015	0.073
-253.092	651.811	-0.101	-0.260
-252.078	-200.000	0.019	0.224
-251.063	800.000	-0.094	-0.265
-250.049	91.870	-0.200	-0.226
-249.034	-83.226	0.206	-0.067
-248.019	-88.018	-0.101	-0.031
-247.005	151.131	-0.007	-0.010
-245.990	-26.274	0.352	-0.207
-244.976	-38.005	0.320	0.171
-243.961	597.199	0.012	-0.029
-242.946	-200.000	0.015	0.265
-241.932	184.127	0.203	0.302
-240.917	-66.275	0.315	-0.126
-239.903	-200.000	0.007	0.093
-238.888	618.746	0.116	0.293
-237.873	179.075	-0.068	0.100
-236.859	-114.232	-0.159	0.031
-235.844	-150.513	-0.142	0.011
-234.830	-118.178	-0.146	-0.026
-233.815	-54.600	0.250	0.113
-232.800	415.238	0.056	0.120
-231.786	-85.219	0.178	0.056
-230.771	267.000	-0.152	0.267
-229.757	-175.363	-0.180	0.005
-228.742	-200.000	-0.004	0.055
-227.727	9.568	-0.166	-0.126
-226.713	-43.134	0.244	-0.124
-225.698	800.000	0.094	-0.373
-224.684	-68.710	0.173	-0.067
-223.669	-49.988	-0.451	0.215
-222.655	697.443	0.013	-0.035
-221.640	-178.052	-0.046	0.001
-220.625	83.467	-0.093	0.102
-219.611	700.519	0.013	-0.035
-218.596	69.743	-0.194	-0.200
-217.582	495.496	-0.132	-0.304
-216.567	-76.302	-0.174	-0.061
-215.552	-44.098	-0.071	-0.036
-214.538	15.738	0.035	-0.028
-213.523	59.076	-0.082	-0.081
-212.509	-98.100	-0.135	-0.035
-211.494	800.000	-0.079	-0.234
-210.479	-53.492	-0.340	0.156
-209.465	-200.000	0.029	0.133
-208.450	152.216	0.232	0.318
-207.436	800.000	-0.065	-0.196
-206.421	800.000	-0.040	-0.154
-205.406	33.059	0.164	-0.143
-204.392	8.247	0.159	-0.120
-203.377	47.398	-0.184	-0.172
-202.363	181.116	-0.056	0.083
-201.348	-14.159	0.175	-0.113
-200.333	800.000	0.092	0.402
-199.319	-63.960	-0.142	0.058
-198.304	376.292	0.156	0.319
-197.290	-66.595	-0.396	0.157
-196.275	190.980	-0.193	0.292
-195.260	-200.000	0.016	0.256
-194.246	6.605	-0.200	0.149
-193.231	800.000	-0.049	-0.182
-192.217	-200.000	0.011	-0.351
-191.202	55.951	-0.070	-0.068
-190.187	54.216	0.179	-0.173
-189.173	800.000	0.078	0.311
-188.158	-200.000	0.022	0.275
-187.144	124.949	-0.247	-0.312
-186.129	-12.660	0.096	0.063
-185.114	-38.664	0.164	-0.087
-184.100	18.145	0.083	0.066
-183.085	-143.405	0.130	-0.012
-182.071	-40.403	-0.067	-0.035
-181.056	-105.378	0.086	0.020
-180.042	-0.942	0.263	-0.187
-179.027	127.372	0.163	-0.207
-178.012	343.560	-0.088	-0.172
-176.998	-166.770	0.013	-0.001
-175.983	273.493	-0.109	-0.192
-174.969	9.283	0.174	-0.132
-173.954	-200.000	-0.014	0.318
-172.939	57.936	0.080	-0.079
-171.925	-109.513	0.232	-0.049
-170.910	-160.779	0.306	0.016
-169.896	-31.650	-0.198	-0.111
-168.881	-110.042	-0.087	0.018
-167.866	244.091	0.076	0.128
-166.852	401.033	0.143	-0.301
-165.837	-172.031	0.311	0.010
-164.823	35.604	-0.124	0.109
-163.808	87.076	0.116	-0.128
-162.793	6.172	0.172	-0.127
-161.779	-158.473	0.123	0.007
-160.764	29.735	-0.089	-0.076
-159.750	292.308	-0.066	0.121
-158.735	290.407	0.030	0.054
-157.720	169.031	-0.261	0.373
-156.706	-200.000	-0.006	0.168
-155.691	1.385	-0.231	0.166
-154.677	133.927	-0.173	0.225
-153.662	-200.000	0.015	-0.282
-152.647	82.825	-0.123	-0.134
-151.633	-6.628	-0.129	-0.088
-150.618	-118.138	0.264	0.047
-149.604	800.000	-0.040	-0.176
-148.589	66.279	-0.317	-0.322
-147.574	98.262	0.182	-0.210
-146.560	-32.179	-0.253	-0.141
-145.545	43.009	0.045	-0.041
-144.531	800.000	0.030	0.089
-143.516	116.639	0.201	0.247
-142.502	-200.000	0.166	0.000
-141.487	-200.000	-0.012	0.104
-140.472	104.162	-0.153	-0.180
-139.458	-107.214	0.160	0.035
-138.443	800.000	-0.042	0.176
-137.429	148.987	0.127	0.172
-136.414	107.554	0.070	0.084
-135.399	-107.342	-0.093	-0.020
-134.385	800.000	-0.035	0.102
-133.370	-23.464	0.236	-0.142
-132.356	132.890	-0.077	0.100
-131.341	162.929	-0.171	-0.241
-130.326	-166.082	0.396	0.017
-129.312	301.025	-0.048	0.088
-128.297	-21.521	0.240	0.146
-127.283	-105.647	0.336	-0.076
-126.268	177.444	-0.101	-0.146
-125.253	799.537	0.063	0.173
-124.239	10.891	-0.132	0.100
-123.224	-112.160	-0.234	0.047
-122.210	-95.150	0.470	-0.127
-121.195	122.130	-0.134	-0.167
-120.180	800.000	-0.058	-0.225
