DTS Sentinel unit serial number:	SN413079Multiplexer serial number:	ORYXHardware model number:	OX4-SRSoftware version number:	ORYX F/W v4.00 Oryx Data Collector v3.7.2.0data status	okinstallation	princeton_trtdifferential loss correction	single-endedforward channel	channel 1reverse channel	N/Adate	2019/09/14time	15:10:35forward acquisition time	60.00reverse acquisition time	0.00gamma	496.2192k internal	0.2294k external	0.2294temperature offset calibration	1.0073default loss term (dB/km)	0.3790temperature slope calibration	1.0000multiplexer offset coefficient	1.0000multiplexer slope coefficient	1.0000fibre end	0.00T internal ref (°C)	39.09T ext. ref 1 (°C)	5.07T ext. ref 2 (°C)	35.22length (m)	temperature (°C)	Stokes	anti-Stokes-747.200	-74.849	0.210	-0.077
-746.185	-129.253	0.206	0.029
-745.171	235.632	0.216	0.365
-744.156	-200.000	-0.011	-0.137
-743.142	-200.000	-0.058	0.328
-742.127	36.044	0.160	0.144
-741.112	-40.796	0.075	-0.040
-740.098	-11.683	-0.273	-0.184
-739.083	376.471	0.137	0.285
-738.069	-118.530	-0.199	0.036
-737.054	149.627	-0.142	-0.196
-736.039	-89.765	0.308	-0.092
-735.025	-200.000	0.067	0.523
-734.010	-200.000	0.039	-0.240
-732.996	426.301	-0.159	-0.350
-731.981	435.594	-0.127	-0.282
-730.966	159.859	0.095	-0.135
-729.952	339.756	-0.088	-0.176
-728.937	75.792	-0.101	-0.109
-727.923	-17.245	-0.059	0.038
-726.908	50.385	-0.099	0.096
-725.894	-200.000	0.072	0.552
-724.879	407.111	0.024	0.051
-723.864	800.000	0.045	-0.165
-722.850	-200.000	-0.004	-0.090
-721.835	-138.666	0.162	-0.018
-720.821	87.266	0.096	-0.108
-719.806	-108.843	0.269	-0.059
-718.791	-88.064	0.223	0.068
-717.777	-104.397	-0.230	0.054
-716.762	120.423	0.099	-0.126
-715.748	139.606	-0.171	-0.230
-714.733	160.391	0.143	0.203
-713.718	-97.573	-0.232	0.062
-712.704	-46.454	-0.121	0.061
-711.689	26.222	0.110	-0.094
-710.675	800.000	-0.080	-0.296
-709.660	189.898	0.161	0.247
-708.645	-200.000	-0.003	0.196
-707.631	23.194	0.104	0.087
-706.616	-19.526	-0.171	-0.108
-705.602	-200.000	0.011	0.136
-704.587	-82.581	-0.186	0.062
-703.572	-103.148	0.483	-0.117
-702.558	-47.740	-0.233	0.116
-701.543	-102.407	-0.380	-0.093
-700.529	19.893	-0.168	0.138
-699.514	-200.000	0.030	-0.249
-698.499	-163.737	-0.285	0.014
-697.485	19.993	-0.237	-0.195
-696.470	-200.000	-0.008	0.144
-695.456	122.555	0.084	-0.108
-694.441	-81.941	0.273	0.091
-693.426	-154.386	0.328	-0.022
-692.412	192.769	-0.104	0.160
-691.397	680.960	0.034	0.089
-690.383	-31.688	-0.166	0.095
-689.368	-87.043	-0.372	-0.116
-688.354	347.842	0.070	-0.142
-687.339	215.729	-0.238	0.386
-686.324	660.340	-0.081	0.213
-685.310	662.546	-0.112	0.295
-684.295	-171.652	-0.207	-0.007
-683.281	-51.237	-0.275	-0.131
-682.266	-101.682	0.152	-0.038
-681.251	426.619	-0.149	0.328
-680.237	16.008	-0.071	0.057
-679.222	-172.349	-0.284	-0.009
-678.208	315.760	-0.081	0.156
-677.193	800.000	-0.152	0.440
-676.178	186.607	-0.091	0.139
-675.164	-103.355	-0.447	-0.107
-674.149	-200.000	-0.001	-0.076
-673.135	800.000	0.026	0.085
-672.120	22.401	-0.139	-0.116
-671.105	-5.908	0.276	0.193
-670.091	0.238	0.085	0.062
-669.076	-127.961	-0.219	-0.032
-668.062	800.000	-0.027	-0.086
-667.047	335.780	-0.076	0.151
-666.032	800.000	0.085	0.373
-665.018	395.845	-0.128	-0.272
-664.003	800.000	0.035	0.100
-662.989	-141.873	-0.395	-0.040
-661.974	-196.990	0.247	-0.002
-660.959	800.000	-0.073	0.282
-659.945	-38.868	0.309	0.166
-658.930	-137.552	-0.153	-0.018
-657.916	-17.726	-0.194	-0.124
-656.901	-107.008	0.047	0.011
-655.886	-130.881	0.182	0.025
-654.872	-70.881	0.242	0.093
-653.857	140.111	0.053	-0.072
-652.843	6.512	-0.263	0.199
-651.828	2.290	0.069	-0.051
-650.814	202.160	-0.120	-0.189
-649.799	-52.558	0.306	-0.144
-648.784	-9.078	-0.076	-0.052
-647.770	121.090	-0.091	0.115
-646.755	-163.953	-0.206	0.010
-645.741	-2.474	0.202	0.144
-644.726	800.000	0.066	0.193
-643.711	-94.220	-0.169	0.047
-642.697	800.000	-0.094	0.342
-641.682	244.696	0.043	-0.073
-640.668	25.006	-0.251	0.212
-639.653	-200.000	-0.017	0.122
-638.638	538.467	0.103	-0.249
-637.624	-59.311	-0.266	0.116
-636.609	800.000	-0.086	-0.269
-635.595	800.000	0.108	-0.315
-634.580	2.368	-0.501	-0.369
-633.565	-200.000	-0.036	0.198
-632.551	361.243	0.139	0.283
-631.536	448.767	-0.109	0.244
-630.522	-200.000	-0.005	-0.129
-629.507	224.533	0.060	0.099
-628.492	800.000	0.063	-0.224
-627.478	793.412	-0.106	-0.297
-626.463	140.408	-0.106	0.142
-625.449	650.454	-0.075	-0.195
-624.434	458.187	-0.075	-0.169
-623.419	-80.969	-0.269	0.091
-622.405	282.585	0.112	-0.204
-621.390	318.330	0.100	-0.192
-620.376	132.101	-0.101	-0.132
-619.361	129.993	0.258	-0.336
-618.346	10.067	-0.183	0.141
-617.332	-200.000	0.038	-0.345
-616.317	-19.884	-0.172	0.108
-615.303	-200.000	-0.069	-0.441
-614.288	18.219	0.143	0.116
-613.273	767.071	0.030	-0.083
-612.259	77.509	0.057	-0.062
-611.244	380.844	0.063	0.132
-610.230	-200.000	0.007	0.114
-609.215	800.000	-0.103	0.449
-608.201	-35.115	0.396	0.219
-607.186	70.334	-0.059	0.062
-606.171	-54.960	-0.138	-0.063
-605.157	494.547	-0.103	-0.240
-604.142	316.224	0.134	0.257
-603.128	-106.586	-0.285	0.064
-602.113	800.000	-0.035	-0.149
-601.098	-43.106	0.114	0.059
-600.084	-152.123	0.313	0.023
-599.069	532.340	0.024	0.057
-598.055	13.047	0.175	0.138
-597.040	-200.000	-0.010	0.112
-596.025	800.000	-0.054	-0.182
-595.011	22.993	-0.194	-0.162
-593.996	51.351	0.282	0.272
-592.982	62.330	0.066	-0.067
-591.967	-32.520	0.159	0.090
-590.952	105.856	0.211	-0.253
-589.938	800.000	-0.068	-0.221
-588.923	-27.852	-0.270	0.159
-587.909	-76.241	0.281	0.101
-586.894	-200.000	-0.004	0.151
-585.879	69.961	-0.129	0.135
-584.865	-86.727	-0.121	0.038
-583.850	445.262	0.045	-0.101
-582.836	-96.136	0.201	-0.054
-581.821	96.299	0.174	0.203
-580.806	127.333	0.338	0.436
-579.792	800.000	0.059	0.191
-578.777	-137.319	-0.359	0.041
-577.763	412.573	-0.106	0.229
-576.748	-200.000	-0.026	-0.203
-575.733	-144.746	0.485	-0.045
-574.719	-144.222	0.215	0.020
-573.704	800.000	0.049	0.165
-572.690	-50.752	0.126	-0.060
-571.675	-136.690	-0.211	0.025
-570.661	800.000	-0.088	-0.338
-569.646	258.970	0.091	-0.160
-568.631	-87.499	0.170	-0.052
-567.617	104.161	0.136	-0.162
-566.602	185.001	-0.126	0.189
-565.588	55.451	-0.135	-0.132
-564.573	-36.099	0.206	0.113
-563.558	334.974	-0.084	0.166
-562.544	-167.789	0.297	-0.012
-561.529	241.710	0.141	-0.239
-560.515	-157.791	-0.545	-0.033
-559.500	-77.606	0.159	-0.056
-558.485	75.610	0.143	0.153
-557.471	800.000	0.080	-0.301
-556.456	-74.126	-0.073	0.027
-555.442	-61.544	0.146	0.062
-554.427	341.508	-0.151	0.300
-553.412	-200.000	-0.002	-0.103
-552.398	-200.000	0.039	-0.189
-551.383	79.327	-0.063	-0.069
-550.369	354.666	0.238	-0.480
-549.354	-200.000	0.000	0.127
-548.339	500.358	0.132	-0.309
-547.325	66.938	-0.063	0.065
-546.310	800.000	0.063	-0.204
-545.296	-26.569	0.138	-0.082
-544.281	-200.000	0.017	0.183
-543.266	70.321	0.069	0.072
-542.252	691.165	0.099	0.263
-541.237	-102.577	0.121	-0.029
-540.223	-149.328	0.371	0.030
-539.208	-136.052	0.103	0.012
-538.193	-29.581	-0.137	0.079
-537.179	-57.819	0.087	0.038
-536.164	39.407	-0.141	0.128
-535.150	-200.000	-0.053	-0.400
-534.135	-24.552	-0.254	0.153
-533.121	41.547	0.190	0.175
-532.106	-200.000	0.007	-0.130
-531.091	-190.206	-0.135	-0.002
-530.077	-200.000	0.026	0.151
-529.062	324.621	0.073	0.142
-528.048	31.577	0.209	0.183
-527.033	-129.933	-0.267	0.037
-526.018	-200.000	0.028	0.212
-525.004	-164.612	-0.253	-0.012
-523.989	205.874	0.110	-0.174
-522.975	-15.076	-0.221	-0.144
-521.960	-200.000	0.023	-0.127
-520.945	-59.490	-0.252	0.110
-519.931	-27.082	-0.156	-0.092
-518.916	106.474	0.190	-0.229
-517.902	561.546	0.046	-0.112
-516.887	-200.000	-0.028	0.132
-515.872	573.567	-0.076	-0.188
-514.858	800.000	0.020	-0.082
-513.843	800.000	0.031	-0.104
-512.829	100.742	-0.345	-0.407
-511.814	414.611	0.044	-0.096
-510.799	-200.000	-0.018	-0.223
-509.785	404.535	0.038	-0.080
-508.770	106.894	-0.057	-0.068
-507.756	494.311	-0.133	-0.309
-506.741	-43.645	0.190	-0.097
-505.726	763.612	-0.055	-0.152
-504.712	-151.721	-0.421	-0.031
-503.697	106.280	0.108	0.130
-502.683	-93.874	-0.299	0.083
-501.668	-9.511	0.087	0.059
-500.653	183.134	0.054	-0.080
-499.639	117.439	0.191	-0.238
-498.624	800.000	-0.057	0.233
-497.610	40.800	-0.195	0.179
-496.595	-67.630	0.127	0.050
-495.581	-200.000	0.011	0.131
-494.566	-126.397	0.134	-0.020
-493.551	67.965	0.172	-0.178
-492.537	-9.003	-0.001	-0.001
-491.522	-16.580	0.219	-0.141
-490.508	427.155	-0.038	0.082
-489.493	-66.668	-0.338	0.136
-488.478	-200.000	0.022	-0.113
-487.464	-114.653	-0.497	0.096
-486.449	-106.358	0.100	-0.023
-485.435	-2.048	-0.237	-0.169
-484.420	-82.824	-0.239	-0.078
-483.405	800.000	0.043	-0.155
-482.391	18.513	0.185	-0.149
-481.376	9.770	-0.137	-0.105
-480.362	74.686	0.022	0.023
-479.347	-200.000	-0.015	0.109
-478.332	107.578	0.042	-0.051
-477.318	413.096	-0.119	0.256
-476.303	602.473	0.011	-0.028
-475.289	800.000	-0.105	0.302
-474.274	312.011	-0.105	-0.198
-473.259	-184.467	-0.207	0.003
-472.245	33.229	0.020	0.018
-471.230	55.752	-0.043	-0.042
-470.216	144.068	-0.113	0.152
-469.201	214.897	0.107	0.172
-468.186	59.493	-0.193	-0.193
-467.172	17.395	0.167	0.134
-466.157	-200.000	0.018	0.253
-465.143	-110.039	0.258	0.055
-464.128	63.140	0.281	0.285
-463.113	-94.078	0.271	0.075
-462.099	-78.932	0.023	-0.008
-461.084	-117.333	0.218	-0.040
-460.070	-175.545	-0.023	-0.001
-459.055	-65.726	-0.109	-0.044
-458.040	800.000	0.080	-0.348
-457.026	-31.456	0.106	0.060
-456.011	-47.264	0.047	0.023
-454.997	19.907	0.208	-0.170
-453.982	256.841	-0.133	0.231
-452.968	-200.000	0.013	0.189
-451.953	-200.000	0.048	-0.516
-450.938	49.800	0.273	-0.260
-449.924	800.000	-0.164	0.507
-448.909	-200.000	-0.032	0.175
-447.895	-117.772	0.460	0.084
-446.880	385.818	0.044	-0.091
-445.865	-200.000	-0.011	0.190
-444.851	-66.872	0.391	0.156
-443.836	539.403	-0.121	-0.292
-442.822	108.057	0.101	-0.122
-441.807	-107.340	-0.362	-0.080
-440.792	53.756	0.123	0.119
-439.778	177.828	-0.118	0.174
-438.763	-200.000	-0.021	0.184
-437.749	480.724	0.101	0.232
-436.734	116.958	0.122	-0.152
-435.719	-200.000	-0.012	-0.419
-434.705	-29.498	-0.196	0.113
-433.690	69.320	-0.110	0.114
-432.676	250.204	-0.152	-0.261
-431.661	800.000	-0.056	0.182
-430.646	24.421	-0.136	0.113
-429.632	117.264	-0.153	0.190
-428.617	423.121	-0.137	0.297
-427.603	401.665	0.211	0.449
-426.588	105.397	0.040	-0.048
-425.573	-200.000	0.015	0.153
-424.559	503.401	0.180	0.421
-423.544	-193.091	-0.184	-0.002
-422.530	-47.114	0.155	0.076
-421.515	-200.000	-0.099	-0.000
-420.500	-200.000	0.050	0.442
-419.486	157.255	-0.169	-0.236
-418.471	-66.969	0.292	0.116
-417.457	189.021	-0.065	-0.098
-416.442	34.971	0.322	-0.284
-415.428	-200.000	0.070	0.345
-414.413	82.820	0.323	-0.354
-413.398	462.893	0.189	-0.426
-412.384	115.673	-0.185	0.229
-411.369	125.630	-0.145	0.184
-410.355	-200.000	-0.003	-0.110
-409.340	70.876	0.191	0.200
-408.325	-61.756	-0.161	0.068
-407.311	61.063	0.134	-0.134
-406.296	-109.100	0.313	0.067
-405.282	50.795	-0.186	-0.178
-404.267	800.000	-0.018	-0.067
-403.252	-87.095	0.449	-0.138
-402.238	19.421	0.191	-0.155
-401.223	-48.824	0.301	0.146
-400.209	131.113	-0.100	-0.130
-399.194	18.717	-0.042	0.034
-398.179	11.291	-0.283	0.219
-397.165	241.874	-0.068	0.114
-396.150	387.688	-0.093	-0.193
-395.136	241.679	0.221	-0.373
-394.121	-150.416	-0.303	-0.023
-393.106	349.853	0.077	-0.153
-392.092	229.670	-0.250	0.412
-391.077	30.572	0.364	-0.314
-390.063	-135.013	0.239	0.029
-389.048	-15.667	-0.031	0.020
-388.033	800.000	0.061	0.208
-387.019	130.384	0.082	0.105
-386.004	322.780	0.055	-0.105
-384.990	800.000	-0.061	-0.236
-383.975	800.000	0.054	0.213
-382.960	-31.540	0.207	0.117
-381.946	-200.000	-0.035	0.224
-380.931	134.669	-0.194	0.253
-379.917	-200.000	0.011	-0.102
-378.902	526.434	-0.056	0.133
-377.888	-200.000	-0.051	0.290
-376.873	800.000	-0.061	-0.203
-375.858	800.000	0.049	-0.142
-374.844	85.712	0.024	-0.027
-373.829	350.552	-0.182	-0.363
-372.815	-200.000	-0.009	-0.074
-371.800	-66.484	-0.393	-0.157
-370.785	-95.705	-0.413	0.111
-369.771	-6.925	-0.193	0.132
-368.756	-200.000	-0.036	0.178
-367.742	800.000	-0.031	0.135
-366.727	112.054	-0.051	0.063
-365.712	-200.000	-0.045	-0.235
-364.698	87.808	-0.025	-0.028
-363.683	3.128	0.148	-0.108
-362.669	800.000	-0.079	0.307
-361.654	17.198	-0.051	-0.041
-360.639	230.649	-0.130	0.215
-359.625	224.265	0.051	0.083
-358.610	724.408	0.111	-0.299
-357.596	185.498	-0.034	-0.051
-356.581	-72.240	-0.214	-0.080
-355.566	-200.000	-0.010	0.182
-354.552	543.808	-0.052	-0.124
-353.537	27.589	0.275	-0.233
-352.523	-100.653	0.078	0.019
-351.508	-200.000	0.007	0.199
-350.493	-147.417	0.152	-0.013
-349.479	-69.196	-0.120	-0.046
-348.464	-132.901	-0.238	-0.030
-347.450	-200.000	-0.018	-0.095
-346.435	610.063	-0.075	0.187
-345.420	-200.000	-0.098	0.438
-344.406	-0.850	0.186	0.133
-343.391	-0.461	0.185	0.132
-342.377	626.997	-0.019	0.048
-341.362	49.982	-0.094	0.089
-340.348	195.901	-0.221	-0.339
-339.333	-27.655	0.050	0.029
-338.318	-59.742	0.308	-0.133
-337.304	-99.790	0.424	-0.107
-336.289	-113.313	-0.305	-0.060
-335.275	-106.434	-0.281	-0.063
-334.260	162.023	0.066	-0.093
-333.245	-136.957	0.126	0.015
-332.231	706.308	0.064	-0.169
-331.216	464.730	-0.032	-0.072
-330.202	-50.482	0.368	0.175
-329.187	200.786	-0.079	-0.122
-328.172	-200.000	-0.036	-0.216
-327.158	-200.000	0.031	0.612
-326.143	31.286	0.094	0.082
-325.129	-140.802	-0.149	-0.015
-324.114	251.567	0.108	0.185
-323.099	207.496	0.048	0.075
-322.085	548.896	0.024	-0.057
-321.070	43.646	-0.191	-0.176
-320.056	244.403	0.074	-0.126
-319.041	76.044	0.112	-0.120
-318.026	73.048	0.141	0.148
-317.012	98.615	-0.119	-0.138
-315.997	-137.391	-0.052	0.006
-314.983	-200.000	-0.015	0.241
-313.968	-60.192	0.155	0.066
-312.953	43.624	0.147	-0.135
-311.939	43.317	0.181	0.167
-310.924	-87.341	-0.027	0.008
-309.910	74.908	0.252	-0.266
-308.895	8.399	0.170	-0.129
-307.880	-153.111	-0.192	-0.014
-306.866	-97.425	0.114	0.030
-305.851	-72.368	-0.212	-0.079
-304.837	70.824	-0.089	-0.092
-303.822	-44.453	-0.165	-0.083
-302.807	-200.000	0.035	-0.259
-301.793	800.000	0.043	0.121
-300.778	800.000	0.025	-0.078
-299.764	186.672	-0.129	-0.193
-298.749	71.229	0.097	0.101
-297.735	25.467	0.099	0.083
-296.720	-198.910	-0.162	-0.001
-295.705	-103.746	0.153	-0.036
-294.691	-200.000	0.020	0.138
-293.676	-68.457	0.037	0.014
-292.662	56.880	-0.089	-0.087
-291.647	-200.000	0.024	-0.134
-290.632	-39.272	0.182	-0.096
-289.618	-11.612	-0.097	0.064
-288.603	279.149	-0.073	0.131
-287.589	-69.386	0.198	-0.077
-286.574	14.858	-0.140	0.110
-285.559	-44.501	-0.265	-0.133
-284.545	152.284	0.089	-0.122
-283.530	-136.546	-0.190	0.022
-282.516	-200.000	-0.027	0.183
-281.501	-200.000	-0.001	-0.013
-280.486	-37.362	-0.190	0.102
-279.472	-35.677	0.150	-0.082
-278.457	-150.884	0.078	-0.006
-277.443	-134.068	-0.396	0.049
-276.428	-70.440	0.331	0.126
-275.413	-133.132	0.098	0.012
-274.399	800.000	-0.050	-0.162
-273.384	494.018	-0.109	-0.252
-272.370	-161.609	-0.127	-0.007
-271.355	15.206	-0.274	-0.216
-270.340	800.000	-0.092	-0.280
-269.326	-68.186	0.153	0.060
-268.311	800.000	0.069	-0.216
-267.297	800.000	-0.110	0.380
-266.282	64.880	-0.127	0.129
-265.267	198.627	0.118	0.181
-264.253	-51.672	0.279	-0.131
-263.238	357.242	0.135	-0.270
-262.224	22.381	-0.186	-0.153
-261.209	-97.354	-0.329	-0.086
-260.195	-102.048	-0.283	0.068
-259.180	-183.741	-0.297	-0.005
-258.165	431.953	-0.073	0.158
-257.151	-52.600	0.298	0.138
-256.136	107.058	-0.245	-0.292
-255.122	51.969	-0.236	0.226
-254.107	-200.000	0.082	0.416
-253.092	-47.623	-0.121	-0.059
-252.078	124.490	-0.234	0.296
-251.063	163.393	-0.042	0.060
-250.049	-17.513	0.266	0.168
-249.034	-78.884	-0.076	-0.026
-248.019	553.296	-0.083	0.199
-247.005	94.559	0.167	0.191
-245.990	800.000	-0.090	-0.328
-244.976	-175.408	0.180	-0.005
-243.961	603.098	-0.065	-0.163
-242.946	-139.766	-0.128	0.014
-241.932	-200.000	0.004	-0.120
-240.917	221.191	-0.056	0.090
-239.903	-108.754	-0.100	-0.021
-238.888	421.764	-0.185	-0.397
-237.873	800.000	0.061	-0.173
-236.859	-200.000	0.030	0.159
-235.844	115.699	-0.136	0.166
-234.830	-200.000	0.032	-0.239
-233.815	-72.637	-0.089	0.033
-232.800	-200.000	0.003	0.405
-231.786	-200.000	0.037	-0.246
-230.771	-66.283	-0.226	0.090
-229.757	139.986	-0.122	0.161
-228.742	-200.000	0.024	0.290
-227.727	-102.964	0.172	-0.041
-226.713	-90.376	-0.298	0.087
-225.698	-4.026	-0.206	-0.143
-224.684	-81.179	0.265	-0.088
-223.669	-200.000	0.010	0.089
-222.655	178.862	0.124	-0.182
-221.640	-114.441	0.166	-0.032
-220.625	-15.962	0.048	0.031
-219.611	-22.857	0.115	0.069
-218.596	-18.579	0.125	-0.078
-217.582	373.041	-0.128	-0.262
-216.567	-37.422	0.121	-0.065
-215.552	-41.338	-0.121	0.063
-214.538	800.000	-0.018	-0.069
-213.523	148.430	0.201	0.272
-212.509	800.000	-0.070	-0.237
-211.494	-154.695	-0.134	0.009
-210.479	-91.254	0.380	0.109
-209.465	-200.000	-0.011	-0.264
-208.450	-200.000	-0.057	0.337
-207.436	575.161	-0.101	-0.246
-206.421	-124.310	-0.268	-0.042
-205.406	143.309	-0.131	-0.175
-204.392	336.015	-0.109	-0.213
-203.377	41.211	0.270	-0.244
-202.363	10.791	0.152	0.116
-201.348	289.465	-0.133	-0.241
-200.333	-41.058	0.234	-0.121
-199.319	499.772	-0.078	-0.180
-198.304	-200.000	0.050	0.321
-197.290	-4.293	0.189	0.131
-196.275	-200.000	-0.282	0.001
-195.260	-200.000	-0.001	0.097
-194.246	-150.099	0.200	0.016
-193.231	106.067	-0.121	0.143
-192.217	-200.000	-0.018	0.163
-191.202	-44.399	0.182	-0.091
-190.187	-200.000	-0.036	0.245
-189.173	-65.376	0.038	0.015
-188.158	54.452	0.164	0.158
-187.144	0.117	0.428	-0.305
-186.129	800.000	0.012	0.047
-185.114	-200.000	0.043	0.189
-184.100	-9.946	-0.268	0.178
-183.085	-93.089	0.140	-0.039
-182.071	-135.010	-0.386	0.047
-181.056	79.619	-0.214	-0.230
-180.042	-23.762	-0.181	-0.108
-179.027	66.418	0.086	0.087
-178.012	-136.223	0.441	0.052
-176.998	-200.000	0.006	-0.252
-175.983	475.606	0.045	0.101
-174.969	391.501	-0.173	0.359
-173.954	67.129	0.295	-0.301
-172.939	70.206	-0.119	-0.123
-171.925	230.973	-0.150	-0.246
-170.910	800.000	-0.082	0.288
-169.896	-29.620	-0.149	-0.085
-168.881	-108.476	-0.353	0.076
-167.866	-137.915	0.258	0.029
-166.852	-200.000	-0.029	0.165
-165.837	455.759	0.056	-0.125
-164.823	45.853	-0.147	0.136
-163.808	20.869	-0.168	-0.136
-162.793	-144.184	-0.178	0.017
-161.779	-200.000	0.016	-0.084
-160.764	244.695	0.096	-0.162
-159.750	739.739	0.084	0.225
-158.735	-68.994	0.154	0.059
-157.720	652.984	0.013	0.033
-156.706	-161.705	-0.434	0.022
-155.691	-200.000	0.006	0.052
-154.677	-79.647	0.316	0.106
-153.662	800.000	0.055	0.155
-152.647	-10.652	0.199	0.132
-151.633	-108.100	-0.023	0.005
-150.618	800.000	-0.044	-0.149
-149.604	800.000	-0.054	0.207
-148.589	-197.502	-0.336	-0.002
-147.574	21.473	0.102	0.083
-146.560	128.221	-0.193	0.246
-145.545	800.000	0.040	-0.154
-144.531	418.602	0.146	0.312
-143.516	-47.299	0.315	0.153
-142.502	-200.000	-0.019	0.114
-141.487	-200.000	-0.035	0.407
-140.472	-200.000	0.074	0.357
-139.458	-200.000	0.007	-0.094
-138.443	-114.618	0.186	-0.036
-137.429	-54.969	0.229	0.103
-136.414	800.000	-0.074	-0.245
-135.399	39.168	0.333	-0.298
-134.385	23.058	0.162	0.132
-133.370	179.143	-0.174	0.254
-132.356	-64.503	-0.337	0.136
-131.341	-85.718	0.164	-0.051
-130.326	-61.285	0.042	-0.018
-129.312	-107.757	0.178	-0.039
-128.297	-200.000	-0.031	-0.170
-127.283	-200.000	0.029	-0.160
-126.268	149.043	0.403	-0.544
-125.253	-57.567	0.205	0.090
-124.239	800.000	0.042	-0.152
-123.224	721.115	0.102	-0.270
-122.210	225.781	0.139	-0.225
-121.195	-116.724	0.253	0.046
