DTS Sentinel unit serial number:	SN413079Multiplexer serial number:	ORYXHardware model number:	OX4-SRSoftware version number:	ORYX F/W v4.00 Oryx Data Collector v3.7.2.0data status	okinstallation	princeton_trtdifferential loss correction	single-endedforward channel	channel 1reverse channel	N/Adate	2019/09/16time	15:38:35forward acquisition time	60.00reverse acquisition time	0.00gamma	496.2192k internal	0.2292k external	0.2292temperature offset calibration	0.9951default loss term (dB/km)	0.3790temperature slope calibration	1.0000multiplexer offset coefficient	1.0000multiplexer slope coefficient	1.0000fibre end	0.00T internal ref (°C)	41.17T ext. ref 1 (°C)	14.73T ext. ref 2 (°C)	36.59length (m)	temperature (°C)	Stokes	anti-Stokes-747.200	331.293	0.098	-0.193
-746.185	-137.373	-0.117	-0.014
-745.171	-136.522	-0.242	0.029
-744.156	544.472	-0.081	0.198
-743.142	800.000	-0.057	0.195
-742.127	800.000	-0.102	0.305
-741.112	-131.744	0.346	0.046
-740.098	800.000	-0.141	0.535
-739.083	-118.263	0.210	-0.038
-738.069	192.286	0.021	-0.033
-737.054	80.704	0.065	0.071
-736.039	-56.768	0.154	-0.070
-735.025	-200.000	0.043	-0.304
-734.010	-134.840	-0.215	0.027
-732.996	-71.462	-0.374	0.143
-731.981	-140.098	-0.155	0.017
-730.966	-13.965	0.054	0.036
-729.952	115.139	0.041	-0.051
-728.937	485.983	-0.100	0.232
-727.923	61.016	-0.078	-0.079
-726.908	240.272	-0.026	-0.044
-725.894	-111.698	-0.426	-0.088
-724.879	-76.038	-0.484	-0.175
-723.864	-200.000	0.026	-0.154
-722.850	-200.000	-0.030	-0.222
-721.835	-56.005	-0.257	-0.117
-720.821	-200.000	0.015	-0.244
-719.806	104.823	-0.260	-0.313
-718.791	-200.000	0.095	0.460
-717.777	-200.000	0.012	-0.267
-716.762	-47.872	0.020	-0.010
-715.748	296.845	-0.142	-0.266
-714.733	-134.065	0.108	-0.014
-713.718	-141.086	-0.197	0.021
-712.704	-137.989	0.259	0.029
-711.689	322.749	-0.186	-0.363
-710.675	-200.000	-0.029	0.148
-709.660	19.322	0.143	-0.117
-708.645	-32.534	0.193	-0.110
-707.631	3.429	-0.170	-0.127
-706.616	-93.641	0.163	-0.046
-705.602	-112.194	-0.371	0.076
-704.587	385.942	-0.058	-0.123
-703.572	45.550	-0.071	0.067
-702.558	-77.837	-0.363	-0.128
-701.543	-158.314	0.333	0.020
-700.529	-127.209	0.205	0.031
-699.514	-2.573	0.064	0.045
-698.499	-195.826	-0.147	-0.001
-697.485	72.415	0.062	0.066
-696.470	-8.568	-0.380	0.261
-695.456	141.288	0.111	0.151
-694.441	-112.944	0.457	-0.092
-693.426	104.224	0.180	-0.217
-692.412	800.000	0.012	0.046
-691.397	-8.909	0.334	-0.229
-690.383	50.229	0.063	0.061
-689.368	89.923	0.035	0.040
-688.354	238.848	0.078	0.132
-687.339	-200.000	0.017	-0.258
-686.324	-18.700	-0.298	-0.190
-685.310	21.107	0.356	0.295
-684.295	496.602	-0.167	-0.391
-683.281	-113.787	-0.520	0.103
-682.266	522.210	-0.067	-0.160
-681.251	278.831	-0.082	0.150
-680.237	-93.738	-0.123	-0.035
-679.222	-200.000	-0.019	0.429
-678.208	800.000	-0.037	-0.105
-677.193	-61.749	-0.313	0.134
-676.178	270.804	0.009	-0.016
-675.164	-95.752	0.113	0.031
-674.149	-21.596	-0.114	-0.071
-673.135	790.917	-0.086	-0.242
-672.120	-19.986	0.163	-0.102
-671.105	-33.845	-0.296	0.166
-670.091	-72.779	-0.195	0.073
-669.076	-105.104	0.242	0.056
-668.062	186.282	-0.185	0.281
-667.047	-4.023	0.114	0.080
-666.032	378.891	0.104	0.217
-665.018	75.365	0.035	-0.038
-664.003	181.028	-0.213	-0.320
-662.989	-39.323	0.246	-0.132
-661.974	398.226	-0.189	-0.404
-660.959	102.790	0.156	-0.186
-659.945	-8.127	0.313	0.215
-658.930	-89.808	-0.072	0.022
-657.916	-200.000	0.209	0.001
-656.901	377.676	0.146	-0.304
-655.886	800.000	0.027	-0.087
-654.872	192.622	-0.090	-0.138
-653.857	265.782	-0.130	0.231
-652.843	215.402	0.090	-0.146
-651.828	-200.000	-0.005	0.183
-650.814	147.766	-0.168	0.231
-649.799	427.999	0.070	-0.153
-648.784	210.164	0.125	-0.201
-647.770	152.148	0.153	-0.213
-646.755	-200.000	0.021	0.286
-645.741	52.496	-0.064	0.062
-644.726	166.808	0.184	-0.266
-643.711	-91.180	-0.235	-0.069
-642.697	800.000	0.039	-0.151
-641.682	259.246	-0.117	-0.206
-640.668	-200.000	-0.008	-0.339
-639.653	85.856	-0.027	-0.030
-638.638	-42.008	-0.113	0.059
-637.624	800.000	-0.031	0.116
-636.609	146.039	0.090	-0.123
-635.595	-88.769	-0.220	0.067
-634.580	800.000	0.232	0.675
-633.565	127.906	-0.164	0.212
-632.551	150.455	-0.050	0.070
-631.536	-38.757	0.213	0.114
-630.522	-16.873	0.224	-0.144
-629.507	140.806	-0.088	0.119
-628.492	12.002	0.143	-0.112
-627.478	-153.851	-0.362	-0.025
-626.463	-200.000	0.123	-0.000
-625.449	-9.475	0.220	0.149
-624.434	-126.833	-0.326	0.049
-623.419	-67.403	-0.211	0.084
-622.405	110.961	0.081	-0.099
-621.390	20.682	-0.100	-0.082
-620.376	-200.000	0.007	-0.145
-619.361	-27.408	-0.086	0.051
-618.346	114.314	-0.054	-0.067
-617.332	28.122	-0.183	-0.157
-616.317	-125.199	-0.149	-0.023
-615.303	110.051	-0.173	0.211
-614.288	-126.614	-0.180	0.027
-613.273	161.462	0.085	-0.122
-612.259	-123.796	0.122	0.020
-611.244	-200.000	-0.068	-0.328
-610.230	-2.983	-0.026	-0.019
-609.215	-29.723	-0.231	-0.134
-608.201	-129.174	-0.172	-0.024
-607.186	41.366	0.075	0.069
-606.171	-55.441	0.266	0.121
-605.157	-200.000	0.002	0.284
-604.142	-153.263	0.137	0.010
-603.128	-162.448	0.402	0.020
-602.113	20.591	0.051	-0.042
-601.098	800.000	0.054	0.241
-600.084	-96.211	-0.330	0.089
-599.069	-87.122	-0.253	-0.078
-598.055	-183.362	0.197	0.003
-597.040	775.526	-0.067	0.187
-596.025	-47.877	-0.107	0.053
-595.011	-165.796	0.131	0.006
-593.996	630.975	0.044	-0.113
-592.982	98.356	0.128	-0.150
-591.967	800.000	-0.062	0.192
-590.952	677.489	0.056	0.148
-589.938	-64.018	0.173	0.072
-588.923	800.000	-0.019	0.082
-587.909	-200.000	0.044	-0.231
-586.894	-73.094	0.153	0.057
-585.879	255.880	0.132	0.231
-584.865	666.990	-0.095	0.250
-583.850	-65.598	0.246	-0.100
-582.836	-185.112	-0.324	0.005
-581.821	456.387	-0.098	0.221
-580.806	611.730	0.033	0.084
-579.792	218.989	0.145	-0.236
-578.777	-169.692	-0.386	0.014
-577.763	188.256	-0.146	-0.222
-576.748	-45.137	0.237	0.120
-575.733	-200.000	0.003	-0.157
-574.719	73.762	0.089	-0.095
-573.704	557.944	0.067	0.165
-572.690	-126.534	-0.332	-0.050
-571.675	800.000	-0.045	0.169
-570.661	800.000	0.079	-0.257
-569.646	-6.960	-0.272	0.188
-568.631	11.506	0.029	-0.022
-567.617	324.655	-0.114	0.221
-566.602	688.459	-0.070	-0.185
-565.588	-38.128	-0.336	0.181
-564.573	-105.240	0.241	0.056
-563.558	-15.493	-0.178	-0.116
-562.544	-200.000	-0.007	0.224
-561.529	-2.539	0.160	0.114
-560.515	-145.965	0.220	-0.020
-559.500	800.000	-0.072	0.298
-558.485	212.367	-0.004	0.006
-557.471	-25.584	0.253	0.152
-556.456	-200.000	0.003	0.092
-555.442	-200.000	0.004	-0.067
-554.427	-200.000	0.009	-0.044
-553.412	-55.014	0.078	-0.036
-552.398	18.293	-0.039	-0.032
-551.383	-118.644	0.192	0.035
-550.369	-188.699	0.341	0.004
-549.354	123.239	-0.170	0.216
-548.339	-200.000	0.076	-0.448
-547.325	-200.000	0.024	-0.162
-546.310	711.949	-0.162	0.436
-545.296	102.941	-0.258	-0.307
-544.281	-200.000	-0.022	0.102
-543.266	-66.979	0.181	0.072
-542.252	-48.026	-0.030	-0.015
-541.237	-165.096	-0.133	-0.006
-540.223	146.254	0.154	0.210
-539.208	284.083	0.072	-0.132
-538.193	-158.121	0.130	-0.008
-537.179	770.559	-0.116	0.322
-536.164	-200.000	0.027	-0.319
-535.150	-200.000	0.000	-0.250
-534.135	800.000	-0.022	-0.080
-533.121	800.000	-0.068	-0.268
-532.106	800.000	0.111	0.378
-531.091	-128.805	0.281	-0.040
-530.077	-200.000	-0.011	0.097
-529.062	537.311	0.057	0.137
-528.048	62.836	0.095	0.097
-527.033	-200.000	-0.012	-0.147
-526.018	-200.000	-0.069	-0.315
-525.004	-34.651	-0.093	0.052
-523.989	-200.000	0.027	-0.272
-522.975	24.814	-0.132	0.111
-521.960	-83.728	-0.119	0.039
-520.945	-200.000	-0.016	0.132
-519.931	-200.000	-0.045	0.257
-518.916	25.754	-0.141	-0.119
-517.902	-55.722	-0.229	0.104
-516.887	18.226	0.147	-0.119
-515.872	410.955	0.071	0.154
-514.858	-200.000	-0.037	-0.198
-513.843	-45.829	0.361	-0.181
-512.829	447.524	-0.116	0.259
-511.814	800.000	0.064	0.195
-510.799	800.000	-0.063	-0.213
-509.785	-67.498	0.224	-0.089
-508.770	90.673	0.063	-0.072
-507.756	-144.845	0.135	-0.013
-506.741	65.181	0.243	0.249
-505.726	1.893	-0.061	0.045
-504.712	-109.467	0.176	0.038
-503.697	-78.782	-0.126	0.044
-502.683	-81.421	0.260	-0.087
-501.668	-116.146	-0.205	0.039
-500.653	9.510	-0.296	-0.228
-499.639	-96.112	-0.301	0.081
-498.624	-200.000	0.027	-0.252
-497.610	-200.000	0.010	0.062
-496.595	797.326	-0.059	-0.165
-495.581	320.666	0.059	-0.113
-494.566	-200.000	0.007	-0.062
-493.551	-64.593	-0.170	-0.070
-492.537	-89.162	-0.643	0.193
-491.522	-67.063	-0.277	0.111
-490.508	-118.547	-0.199	-0.036
-489.493	79.873	-0.260	0.283
-488.478	161.770	0.013	0.019
-487.464	112.411	-0.106	-0.130
-486.449	119.343	-0.133	-0.166
-485.435	-47.468	0.342	0.168
-484.420	130.090	-0.142	0.184
-483.405	-200.000	-0.054	0.282
-482.391	-200.000	0.001	-0.009
-481.376	-34.765	-0.382	-0.212
-480.362	-92.816	0.266	-0.075
-479.347	-72.495	0.307	-0.115
-478.332	800.000	-0.032	-0.138
-477.318	-143.249	-0.021	0.002
-476.303	100.160	0.139	-0.163
-475.289	-200.000	-0.039	-0.236
-474.274	168.723	0.069	0.100
-473.259	741.765	0.104	-0.283
-472.245	-96.669	-0.163	-0.044
-471.230	-200.000	0.014	-0.323
-470.216	708.528	0.034	0.092
-469.201	-200.000	0.011	0.292
-468.186	-200.000	0.032	0.161
-467.172	-200.000	-0.006	-0.174
-466.157	580.203	0.102	0.253
-465.143	588.463	0.056	-0.140
-464.128	-200.000	-0.148	-0.000
-463.113	333.204	0.080	-0.157
-462.099	800.000	-0.134	0.397
-461.084	-134.860	-0.063	-0.008
-460.070	-35.485	-0.199	-0.109
-459.055	218.498	0.141	0.228
-458.040	131.569	-0.194	-0.253
-457.026	-102.547	-0.373	-0.090
-456.011	306.228	0.082	-0.154
-454.997	-120.083	0.265	0.046
-453.982	5.336	0.128	-0.095
-452.968	127.425	-0.073	0.093
-451.953	117.178	-0.102	0.127
-450.938	-200.000	-0.154	0.000
-449.924	-60.982	-0.151	0.065
-448.909	-155.733	-0.261	0.017
-447.895	800.000	-0.099	-0.381
-446.880	-200.000	0.014	0.238
-445.865	-16.911	-0.075	0.048
-444.851	-159.611	0.181	-0.010
-443.836	8.064	-0.217	-0.165
-442.822	33.372	0.287	-0.252
-441.807	735.440	-0.136	-0.367
-440.792	800.000	-0.094	0.318
-439.778	201.764	-0.117	0.182
-438.763	-200.000	0.024	0.124
-437.749	111.173	-0.054	0.065
-436.734	-110.625	-0.144	0.030
-435.719	-200.000	-0.029	-0.146
-434.705	242.130	0.127	-0.215
-433.690	-66.369	0.139	0.056
-432.676	-67.282	-0.329	0.131
-431.661	800.000	0.048	-0.165
-430.646	-172.799	0.119	-0.004
-429.632	-143.111	-0.118	-0.012
-428.617	-45.110	-0.170	0.086
-427.603	-22.836	0.202	0.124
-426.588	-81.301	0.158	0.053
-425.573	-129.743	0.092	-0.013
-424.559	25.195	-0.206	0.173
-423.544	-200.000	-0.037	-0.263
-422.530	78.788	-0.206	-0.223
-421.515	800.000	0.103	0.331
-420.500	800.000	0.032	-0.138
-419.486	-125.518	-0.248	-0.038
-418.471	800.000	-0.062	-0.239
-417.457	-45.043	0.118	-0.059
-416.442	-16.899	0.212	-0.136
-415.428	65.917	0.012	-0.013
-414.413	-169.576	-0.267	-0.010
-413.398	81.786	0.032	-0.035
-412.384	-129.023	-0.160	0.023
-411.369	-113.595	-0.105	-0.021
-410.355	-7.888	-0.081	0.055
-409.340	501.973	-0.139	0.323
-408.325	704.015	0.040	0.107
-407.311	-196.916	0.259	-0.002
-406.296	44.515	0.228	-0.212
-405.282	-42.668	0.268	-0.138
-404.267	-137.763	-0.160	-0.018
-403.252	245.835	0.046	0.079
-402.238	399.688	-0.142	0.300
-401.223	133.099	-0.205	0.268
-400.209	-29.126	0.093	0.054
-399.194	-112.724	-0.209	-0.042
-398.179	64.820	0.221	-0.225
-397.165	265.559	-0.153	-0.270
-396.150	-200.000	-0.009	0.088
-395.136	800.000	-0.108	-0.349
-394.121	800.000	0.065	0.263
-393.106	-4.367	0.404	0.282
-392.092	139.192	-0.142	-0.188
-391.077	-134.284	-0.329	-0.041
-390.063	-200.000	-0.030	-0.165
-389.048	272.232	0.018	-0.032
-388.033	800.000	-0.014	-0.057
-387.019	800.000	0.026	0.115
-386.004	-150.565	0.234	0.018
-384.990	190.608	0.082	-0.124
-383.975	-69.977	-0.063	-0.024
-382.960	199.847	-0.265	-0.411
-381.946	190.114	0.080	-0.121
-380.931	335.707	0.060	0.118
-379.917	736.321	-0.063	0.169
-378.902	-145.914	-0.286	0.026
-377.888	-162.747	0.091	-0.004
-376.873	-98.359	-0.154	-0.040
-375.858	-132.452	0.221	0.029
-374.844	-136.463	0.376	0.044
-373.829	-200.000	0.011	0.283
-372.815	800.000	-0.055	0.154
-371.800	-173.810	-0.152	0.005
-370.785	-42.645	-0.124	-0.064
-369.771	800.000	0.055	0.193
-368.756	288.710	0.103	0.188
-367.742	596.096	0.091	0.227
-366.727	207.443	-0.044	0.069
-365.712	18.846	-0.061	0.050
-364.698	-200.000	0.041	0.200
-363.683	176.665	-0.040	-0.058
-362.669	-43.513	0.143	-0.073
-361.654	487.807	0.078	-0.180
-360.639	67.689	-0.068	0.071
-359.625	329.862	0.186	0.360
-358.610	54.324	-0.031	-0.030
-357.596	90.081	0.075	0.084
-356.581	86.518	-0.150	0.167
-355.566	-47.971	0.158	0.077
-354.552	-200.000	-0.039	0.182
-353.537	13.816	0.038	-0.030
-352.523	-200.000	-0.028	0.216
-351.508	188.169	-0.129	-0.194
-350.493	208.004	0.192	-0.302
-349.479	-41.776	0.349	-0.180
-348.464	-82.242	-0.146	-0.048
-347.450	55.081	-0.138	0.134
-346.435	49.386	0.094	-0.089
-345.420	800.000	0.046	-0.171
-344.406	20.998	-0.189	0.155
-343.391	194.513	-0.186	-0.283
-342.377	-106.666	-0.266	0.060
-341.362	-200.000	0.004	-0.101
-340.348	-200.000	-0.021	-0.099
-339.333	67.271	0.091	0.094
-338.318	62.600	0.194	-0.196
-337.304	-65.592	-0.243	-0.098
-336.289	800.000	0.029	-0.083
-335.275	-42.171	-0.353	0.182
-334.260	-88.911	-0.238	-0.071
-333.245	-67.788	-0.379	-0.149
-332.231	-200.000	0.009	0.086
-331.216	292.834	0.092	0.170
-330.202	-165.211	0.219	-0.010
-329.187	-198.852	0.180	0.001
-328.172	84.703	0.159	0.175
-327.158	-53.298	-0.124	0.057
-326.143	-33.434	-0.096	-0.053
-325.129	-200.000	0.015	0.084
-324.114	800.000	-0.039	0.166
-323.099	-33.576	-0.336	-0.187
-322.085	-78.984	0.216	0.074
-321.070	-79.007	-0.273	0.094
-320.056	-55.535	-0.036	-0.016
-319.041	800.000	-0.049	-0.172
-318.026	404.368	-0.017	0.035
-317.012	-200.000	0.017	-0.372
-315.997	-172.891	-0.154	-0.005
-314.983	219.329	-0.129	-0.207
-313.968	116.373	-0.072	-0.089
-312.953	506.440	0.062	-0.145
-311.939	-200.000	-0.016	0.171
-310.924	-126.957	-0.400	0.059
-309.910	-200.000	-0.035	-0.221
-308.895	85.969	0.097	0.107
-307.880	-163.769	-0.284	-0.013
-306.866	-28.373	0.246	0.143
-305.851	352.930	0.151	-0.301
-304.837	-200.000	0.007	0.163
-303.822	91.556	0.051	-0.058
-302.807	-200.000	-0.018	-0.208
-301.793	-45.418	-0.032	0.016
-300.778	-200.000	-0.006	0.165
-299.764	800.000	-0.031	-0.106
-298.749	-145.979	0.302	-0.027
-297.735	-200.000	0.016	0.386
-296.720	18.131	-0.067	0.054
-295.705	-200.000	0.040	0.320
-294.691	-106.430	-0.095	-0.021
-293.676	-64.642	0.074	-0.030
-292.662	-197.402	0.077	-0.000
-291.647	-168.007	0.451	-0.018
-290.632	285.334	-0.102	0.184
-289.618	187.833	-0.069	0.103
-288.603	-149.961	0.312	0.024
-287.589	-200.000	-0.006	-0.074
-286.574	599.336	0.087	-0.218
-285.559	713.719	-0.078	0.207
-284.545	-145.329	-0.199	0.018
-283.530	-127.528	0.308	-0.045
-282.516	800.000	-0.073	0.224
-281.501	-55.599	0.090	0.040
-280.486	55.587	0.215	-0.210
-279.472	-56.526	-0.140	0.062
-278.457	-83.812	-0.068	0.022
-277.443	21.126	0.357	-0.291
-276.428	800.000	-0.009	-0.041
-275.413	-200.000	-0.016	0.170
-274.399	24.452	-0.111	-0.093
-273.384	-14.252	0.282	0.183
-272.370	219.474	0.151	0.242
-271.355	-200.000	-0.011	0.186
-270.340	-92.848	0.299	-0.084
-269.326	800.000	-0.069	0.208
-268.311	69.109	0.167	0.173
-267.297	-177.469	0.280	-0.007
-266.282	-104.819	-0.313	-0.072
-265.267	-159.573	0.294	0.016
-264.253	-6.223	0.159	0.109
-263.238	800.000	-0.049	0.196
-262.224	96.649	-0.125	-0.143
-261.209	115.974	-0.254	-0.312
-260.195	86.773	0.266	-0.295
-259.180	-138.533	0.083	-0.009
-258.165	20.153	-0.034	0.028
-257.151	-120.736	-0.120	-0.020
-256.136	-116.602	0.086	0.016
-255.122	71.147	-0.061	0.064
-254.107	-50.108	0.232	0.110
-253.092	293.310	-0.039	0.071
-252.078	-129.422	0.365	-0.051
-251.063	50.552	-0.095	0.090
-250.049	45.373	-0.193	-0.179
-249.034	-200.000	0.030	-0.142
-248.019	-200.000	-0.051	-0.327
-247.005	-97.711	0.281	-0.073
-245.990	235.331	0.026	0.044
-244.976	-86.154	0.244	0.075
-243.961	-156.177	-0.098	0.006
-242.946	36.069	0.070	0.062
-241.932	299.210	0.062	-0.114
-240.917	13.884	-0.124	0.097
-239.903	-71.673	0.246	0.092
-238.888	485.285	-0.046	-0.105
-237.873	800.000	-0.075	-0.253
-236.859	-89.715	0.215	-0.063
-235.844	-115.931	-0.092	0.017
-234.830	-51.552	0.177	0.083
-233.815	101.354	-0.180	-0.210
-232.800	-200.000	0.015	-0.284
-231.786	-59.747	0.235	0.101
-230.771	-120.813	-0.152	0.026
-229.757	-95.006	-0.173	-0.047
-228.742	49.209	-0.148	0.140
-227.727	-200.000	-0.015	-0.287
-226.713	-7.567	-0.275	0.187
-225.698	38.918	0.092	0.082
-224.684	-200.000	0.037	0.347
-223.669	470.799	-0.140	0.316
-222.655	131.898	0.074	0.095
-221.640	736.139	-0.113	-0.303
-220.625	-16.779	0.100	-0.063
-219.611	-200.000	-0.062	0.277
-218.596	185.909	0.129	-0.193
-217.582	36.985	0.288	-0.256
-216.567	-69.298	-0.195	0.075
-215.552	-103.623	-0.073	-0.017
-214.538	51.260	0.165	-0.157
-213.523	90.901	0.261	-0.294
-212.509	-103.257	0.342	0.081
-211.494	-142.544	0.197	-0.019
-210.479	-10.593	-0.280	0.186
-209.465	328.771	-0.033	0.064
-208.450	173.864	-0.216	0.313
-207.436	-200.000	0.005	0.153
-206.421	419.676	-0.049	-0.106
-205.406	85.058	0.091	0.100
-204.392	-161.571	0.175	-0.009
-203.377	12.639	0.165	-0.128
-202.363	-23.331	0.026	-0.016
-201.348	-147.674	-0.255	0.021
-200.333	103.699	0.064	-0.075
-199.319	-90.468	0.033	-0.010
-198.304	-14.956	-0.066	-0.043
-197.290	531.179	-0.049	0.116
-196.275	-200.000	0.067	-0.513
-195.260	-200.000	0.023	-0.311
-194.246	124.904	0.162	0.205
-193.231	88.669	-0.050	0.056
-192.217	-96.566	-0.103	0.027
-191.202	-69.656	0.337	0.129
-190.187	-82.822	-0.174	-0.056
-189.173	-200.000	0.068	-0.342
-188.158	400.912	0.011	0.023
-187.144	-31.474	0.174	-0.098
-186.129	62.838	0.154	-0.154
-185.114	-200.000	-0.013	0.138
-184.100	27.242	0.131	-0.110
-183.085	-200.000	0.005	0.054
-182.071	-200.000	0.050	-0.276
-181.056	94.685	0.123	-0.140
-180.042	800.000	-0.095	-0.300
-179.027	800.000	0.060	0.196
-178.012	-143.473	0.189	-0.018
-176.998	169.843	0.112	-0.160
-175.983	-115.687	0.166	0.031
-174.969	-200.000	-0.036	0.222
-173.954	81.388	0.196	0.212
-172.939	-119.080	0.210	-0.037
-171.925	-96.923	-0.230	-0.060
-170.910	-200.000	-0.026	0.178
-169.896	-61.244	-0.016	0.007
-168.881	-200.000	-0.001	-0.271
-167.866	225.356	0.062	-0.100
-166.852	-52.698	-0.296	0.137
-165.837	800.000	-0.055	-0.227
-164.823	-65.624	-0.115	-0.046
-163.808	-152.259	-0.173	0.013
-162.793	-155.621	0.125	-0.008
-161.779	-138.479	-0.172	0.019
-160.764	800.000	-0.092	0.397
-159.750	265.851	0.002	0.003
-158.735	800.000	-0.049	-0.191
-157.720	800.000	0.045	0.179
-156.706	-80.121	0.183	-0.061
-155.691	434.290	0.168	0.366
-154.677	263.378	0.170	0.295
-153.662	-94.771	-0.282	-0.076
-152.647	50.020	0.211	0.199
-151.633	-72.808	0.252	-0.093
-150.618	-200.000	0.021	-0.118
-149.604	-20.349	0.293	0.180
-148.589	-48.234	-0.155	0.075
-147.574	62.899	0.212	-0.212
-146.560	-34.780	0.343	-0.188
-145.545	132.867	-0.172	-0.222
-144.531	101.573	-0.144	0.168
-143.516	-24.185	0.271	-0.162
-142.502	33.737	-0.126	-0.110
-141.487	800.000	-0.063	0.235
-140.472	-182.559	0.452	0.008
-139.458	168.393	0.137	0.196
-138.443	800.000	0.077	-0.318
-137.429	-154.516	-0.328	-0.022
-136.414	-200.000	0.029	0.148
-135.399	800.000	-0.048	0.206
-134.385	133.877	0.131	0.169
-133.370	2.044	0.144	0.104
-132.356	-104.745	-0.258	-0.059
-131.341	537.848	0.200	0.476
-130.326	-89.827	-0.414	0.121
-129.312	-200.000	-0.080	0.366
-128.297	502.826	0.067	-0.155
-127.283	-157.776	-0.151	0.009
-126.268	-181.041	-0.098	-0.002
-125.253	146.540	0.245	0.328
-124.239	150.308	-0.021	0.028
-123.224	0.600	0.184	0.131
-122.210	-122.841	0.215	-0.035
