DTS Sentinel unit serial number:	SN413079Multiplexer serial number:	ORYXHardware model number:	OX4-SRSoftware version number:	ORYX F/W v4.00 Oryx Data Collector v3.7.2.0data status	okinstallation	princeton_trtdifferential loss correction	single-endedforward channel	channel 1reverse channel	N/Adate	2019/09/14time	21:22:35forward acquisition time	60.00reverse acquisition time	0.00gamma	496.2192k internal	0.2318k external	0.2318temperature offset calibration	1.0013default loss term (dB/km)	0.3790temperature slope calibration	1.0000multiplexer offset coefficient	1.0000multiplexer slope coefficient	1.0000fibre end	0.00T internal ref (°C)	32.94T ext. ref 1 (°C)	4.78T ext. ref 2 (°C)	27.73length (m)	temperature (°C)	Stokes	anti-Stokes-747.200	-200.000	0.041	-0.315
-746.185	-27.024	-0.111	-0.066
-745.171	-110.039	-0.255	-0.054
-744.156	-200.000	-0.048	0.293
-743.142	-200.000	-0.011	0.243
-742.127	79.503	0.120	0.130
-741.112	-176.362	0.312	-0.008
-740.098	-86.283	-0.265	0.082
-739.083	800.000	0.049	-0.167
-738.069	109.882	0.104	0.127
-737.054	264.172	0.201	0.353
-736.039	27.634	-0.180	0.153
-735.025	-117.884	0.291	0.053
-734.010	-27.701	0.389	-0.228
-732.996	-8.469	-0.097	0.066
-731.981	-173.517	-0.063	-0.002
-730.966	277.298	-0.124	-0.224
-729.952	-135.605	0.078	-0.009
-728.937	372.671	-0.111	0.228
-727.923	595.893	-0.060	-0.149
-726.908	-81.150	-0.316	0.106
-725.894	-59.112	-0.504	-0.220
-724.879	90.965	-0.054	-0.062
-723.864	89.815	-0.063	0.071
-722.850	513.614	0.075	-0.177
-721.835	-54.772	-0.162	-0.074
-720.821	107.304	0.131	-0.158
-719.806	255.907	-0.288	-0.499
-718.791	-200.000	0.004	0.145
-717.777	139.584	0.063	0.084
-716.762	-200.000	0.022	-0.132
-715.748	504.197	0.120	-0.282
-714.733	-73.593	-0.174	-0.064
-713.718	131.257	-0.167	0.217
-712.704	-174.856	-0.093	0.003
-711.689	286.516	-0.117	-0.214
-710.675	-153.009	0.218	0.016
-709.660	200.848	0.192	-0.299
-708.645	800.000	0.062	-0.260
-707.631	-200.000	-0.016	0.251
-706.616	-200.000	-0.002	0.078
-705.602	133.134	-0.177	0.231
-704.587	64.015	0.201	0.204
-703.572	-141.446	0.392	-0.040
-702.558	275.985	0.066	-0.118
-701.543	81.061	0.046	-0.050
-700.529	195.962	0.097	-0.148
-699.514	610.428	0.105	-0.265
-698.499	-150.931	0.298	-0.023
-697.485	800.000	-0.086	-0.252
-696.470	-70.125	0.068	0.026
-695.456	91.566	0.202	0.230
-694.441	645.386	-0.090	-0.231
-693.426	375.145	0.186	-0.383
-692.412	108.197	0.103	-0.124
-691.397	-200.000	-0.031	-0.298
-690.383	-200.000	-0.012	0.214
-689.368	16.165	0.141	-0.112
-688.354	-145.341	0.251	-0.023
-687.339	-107.602	-0.261	-0.058
-686.324	-200.000	0.001	0.056
-685.310	-200.000	0.009	-0.132
-684.295	71.172	0.204	-0.214
-683.281	79.977	-0.101	0.110
-682.266	19.130	-0.386	-0.312
-681.251	528.145	-0.068	-0.161
-680.237	244.508	-0.120	-0.203
-679.222	283.444	-0.032	-0.058
-678.208	136.300	-0.259	-0.340
-677.193	-173.280	0.004	-0.000
-676.178	12.488	-0.087	-0.068
-675.164	57.948	-0.264	-0.261
-674.149	800.000	0.063	-0.257
-673.135	-146.625	-0.336	0.029
-672.120	-122.398	0.281	-0.046
-671.105	-66.570	-0.165	0.066
-670.091	-78.425	0.303	0.105
-669.076	-54.681	-0.223	-0.102
-668.062	800.000	-0.064	0.215
-667.047	172.164	-0.126	0.183
-666.032	11.875	-0.207	0.160
-665.018	-200.000	0.017	-0.235
-664.003	255.496	0.093	0.161
-662.989	-145.661	0.159	-0.014
-661.974	800.000	-0.035	0.110
-660.959	151.986	-0.058	-0.080
-659.945	96.402	-0.090	-0.103
-658.930	-92.440	-0.368	-0.104
-657.916	133.924	-0.174	-0.227
-656.901	-64.060	-0.229	-0.094
-655.886	-114.533	-0.122	-0.024
-654.872	612.971	-0.039	0.098
-653.857	800.000	-0.065	0.183
-652.843	-200.000	-0.019	0.201
-651.828	19.516	0.153	0.124
-650.814	292.984	0.137	0.252
-649.799	-200.000	-0.008	0.241
-648.784	171.013	-0.093	0.134
-647.770	80.402	-0.086	0.093
-646.755	-44.164	-0.243	0.123
-645.741	-97.587	0.051	0.013
-644.726	-156.896	-0.322	0.020
-643.711	-200.000	-0.013	-0.252
-642.697	-134.737	0.239	-0.029
-641.682	-31.735	0.174	0.099
-640.668	-200.000	0.034	-0.190
-639.653	-200.000	0.019	-0.140
-638.638	758.812	-0.091	-0.247
-637.624	800.000	0.056	0.157
-636.609	67.857	-0.067	-0.069
-635.595	-37.696	-0.120	0.064
-634.580	-166.295	-0.104	-0.004
-633.565	422.283	0.024	-0.053
-632.551	-200.000	0.063	0.302
-631.536	-88.454	-0.340	-0.102
-630.522	497.753	0.029	0.067
-629.507	-200.000	-0.044	-0.230
-628.492	-200.000	-0.003	0.082
-627.478	-139.478	-0.268	-0.029
-626.463	800.000	0.015	0.045
-625.449	-100.331	0.291	-0.073
-624.434	-200.000	0.021	-0.141
-623.419	-200.000	-0.017	-0.113
-622.405	10.807	-0.212	0.163
-621.390	-26.000	-0.160	0.095
-620.376	-143.013	0.131	-0.013
-619.361	800.000	-0.067	-0.217
-618.346	-200.000	-0.060	-0.328
-617.332	-200.000	-0.010	-0.145
-616.317	-14.595	-0.097	0.063
-615.303	-200.000	-0.011	0.278
-614.288	-86.752	-0.079	0.024
-613.273	-200.000	-0.042	0.567
-612.259	-49.613	0.308	0.148
-611.244	-200.000	0.002	0.090
-610.230	-86.198	-0.068	0.021
-609.215	26.181	-0.262	0.220
-608.201	-97.199	0.341	0.090
-607.186	-42.467	-0.125	0.064
-606.171	438.608	0.114	0.250
-605.157	-65.193	0.179	0.073
-604.142	-200.000	0.063	-0.369
-603.128	220.454	0.161	-0.259
-602.113	-30.366	-0.143	-0.082
-601.098	-200.000	-0.027	-0.137
-600.084	110.373	0.117	0.142
-599.069	-26.703	0.242	-0.142
-598.055	112.169	-0.073	-0.089
-597.040	26.829	-0.120	-0.101
-596.025	800.000	0.119	-0.423
-595.011	-108.656	-0.070	-0.015
-593.996	-131.454	0.491	0.065
-592.982	-51.905	-0.108	-0.051
-591.967	-38.987	0.170	-0.090
-590.952	-2.550	0.208	-0.146
-589.938	222.853	-0.119	-0.192
-588.923	66.270	0.255	0.260
-587.909	-200.000	-0.028	0.328
-586.894	-19.157	0.044	-0.028
-585.879	58.371	0.007	0.007
-584.865	-113.197	-0.150	-0.030
-583.850	616.716	0.127	0.320
-582.836	-200.000	0.012	-0.159
-581.821	95.553	-0.116	-0.133
-580.806	37.506	-0.152	-0.136
-579.792	-115.351	-0.170	0.032
-578.777	578.204	-0.111	-0.273
-577.763	64.132	0.144	0.146
-576.748	220.972	-0.204	0.328
-575.733	-200.000	0.008	0.131
-574.719	-102.765	-0.169	0.040
-573.704	-19.581	0.103	0.064
-572.690	-200.000	0.015	0.085
-571.675	-200.000	-0.024	-0.427
-570.661	-200.000	0.016	-0.114
-569.646	-37.641	-0.122	-0.065
-568.631	-200.000	-0.004	0.378
-567.617	800.000	-0.028	0.109
-566.602	56.893	-0.248	-0.243
-565.588	80.650	0.093	-0.101
-564.573	-200.000	-0.005	-0.226
-563.558	-81.924	0.206	-0.068
-562.544	87.020	-0.230	0.255
-561.529	-8.191	0.074	0.050
-560.515	-71.912	-0.154	0.057
-559.500	-84.800	0.256	0.081
-558.485	-113.516	0.046	0.009
-557.471	49.268	-0.166	0.157
-556.456	-59.823	0.103	0.044
-555.442	4.686	-0.165	-0.122
-554.427	311.327	0.105	0.198
-553.412	-200.000	0.015	-0.113
-552.398	453.592	-0.107	-0.238
-551.383	28.115	-0.153	0.130
-550.369	-200.000	0.010	0.157
-549.354	-0.736	-0.325	-0.232
-548.339	116.336	0.088	-0.109
-547.325	-147.301	-0.261	0.022
-546.310	167.786	0.157	0.225
-545.296	-200.000	0.044	0.257
-544.281	-53.523	-0.100	0.046
-543.266	30.624	0.126	-0.108
-542.252	330.204	0.128	0.247
-541.237	-163.285	-0.098	-0.005
-540.223	800.000	0.139	0.466
-539.208	-200.000	-0.013	0.166
-538.193	-56.165	0.288	-0.129
-537.179	-49.833	0.123	0.059
-536.164	-45.519	0.196	0.097
-535.150	-142.696	0.139	-0.014
-534.135	-95.562	-0.316	0.085
-533.121	389.312	-0.106	0.221
-532.106	189.470	-0.184	-0.277
-531.091	-151.000	0.302	-0.023
-530.077	770.488	-0.047	0.129
-529.062	-147.688	-0.190	-0.016
-528.048	-23.686	0.178	0.107
-527.033	800.000	0.040	-0.165
-526.018	800.000	-0.069	-0.243
-525.004	800.000	0.019	-0.077
-523.989	141.352	0.103	-0.136
-522.975	-175.086	0.473	-0.013
-521.960	-200.000	0.046	-0.266
-520.945	800.000	-0.029	-0.110
-519.931	-96.865	-0.275	-0.072
-518.916	-139.014	-0.434	0.047
-517.902	514.320	-0.115	-0.268
-516.887	-144.390	-0.292	0.027
-515.872	-21.126	-0.173	0.106
-514.858	-62.160	-0.090	-0.038
-513.843	-200.000	-0.016	0.146
-512.829	149.270	0.146	0.199
-511.814	199.787	-0.109	0.167
-510.799	-35.323	-0.188	0.103
-509.785	349.638	0.109	-0.217
-508.770	130.997	-0.163	0.210
-507.756	71.957	0.274	-0.285
-506.741	-160.044	-0.092	-0.005
-505.726	-200.000	0.006	0.108
-504.712	81.601	0.121	-0.131
-503.697	632.583	0.076	-0.193
-502.683	800.000	-0.026	-0.107
-501.668	6.647	-0.178	-0.133
-500.653	336.830	0.184	-0.359
-499.639	-200.000	0.025	0.158
-498.624	-37.611	0.347	-0.185
-497.610	-200.000	-0.030	0.339
-496.595	-29.884	-0.189	-0.108
-495.581	-200.000	-0.013	0.313
-494.566	-75.336	-0.122	-0.044
-493.551	325.833	-0.064	0.123
-492.537	-23.629	-0.019	-0.012
-491.522	256.123	0.074	-0.128
-490.508	-200.000	0.013	0.128
-489.493	689.313	-0.052	0.137
-488.478	-154.942	0.177	-0.012
-487.464	800.000	-0.077	-0.246
-486.449	444.161	0.056	-0.122
-485.435	-128.460	0.263	-0.037
-484.420	-200.000	-0.005	-0.390
-483.405	-28.955	0.287	-0.165
-482.391	76.158	0.153	-0.162
-481.376	-30.211	-0.103	-0.059
-480.362	-78.349	-0.262	0.090
-479.347	37.367	-0.131	-0.116
-478.332	26.106	0.115	0.096
-477.318	-200.000	-0.031	0.269
-476.303	-200.000	0.016	0.219
-475.289	-200.000	0.016	-0.114
-474.274	38.164	-0.151	-0.134
-473.259	-107.004	-0.346	0.077
-472.245	-157.929	0.174	0.010
-471.230	800.000	0.093	0.291
-470.216	800.000	0.091	-0.352
-469.201	-89.120	-0.170	0.050
-468.186	800.000	-0.020	-0.066
-467.172	-200.000	-0.098	0.430
-466.157	57.625	0.184	0.180
-465.143	-149.825	0.071	0.006
-464.128	-46.849	-0.034	0.017
-463.113	467.671	0.118	0.264
-462.099	-200.000	0.038	-0.264
-461.084	-131.983	0.196	-0.026
-460.070	124.564	-0.100	0.125
-459.055	-114.816	0.119	-0.023
-458.040	800.000	0.037	-0.163
-457.026	-66.541	0.103	-0.041
-456.011	48.883	-0.174	-0.163
-454.997	-200.000	-0.034	0.156
-453.982	377.336	-0.129	-0.263
-452.968	25.649	0.084	-0.070
-451.953	-130.720	-0.328	0.044
-450.938	-121.148	-0.179	0.030
-449.924	-188.374	0.140	-0.002
-448.909	800.000	0.067	0.245
-447.895	800.000	-0.129	0.387
-446.880	-121.290	0.231	-0.039
-445.865	111.470	-0.166	0.201
-444.851	-186.258	-0.222	0.003
-443.836	-200.000	0.004	0.211
-442.822	187.208	0.059	0.088
-441.807	456.499	0.084	-0.186
-440.792	-89.757	-0.212	-0.062
-439.778	32.708	-0.115	-0.099
-438.763	-74.409	0.058	0.021
-437.749	-120.749	0.216	0.037
-436.734	-92.491	-0.033	-0.009
-435.719	34.657	0.120	0.105
-434.705	106.117	-0.071	0.085
-433.690	141.947	-0.095	-0.126
-432.676	84.213	-0.186	-0.203
-431.661	-91.164	0.060	0.017
-430.646	38.836	0.232	-0.207
-429.632	47.524	0.091	0.085
-428.617	-31.290	-0.190	-0.107
-427.603	-88.912	0.261	-0.077
-426.588	17.543	0.164	-0.131
-425.573	-43.913	0.133	-0.067
-424.559	153.821	-0.218	0.298
-423.544	800.000	-0.035	0.130
-422.530	-32.530	0.228	-0.127
-421.515	-200.000	0.092	0.468
-420.500	156.471	-0.236	-0.326
-419.486	32.989	-0.338	-0.293
-418.471	-84.718	0.409	-0.129
-417.457	-61.715	-0.333	0.139
-416.442	-143.467	-0.334	0.032
-415.428	26.315	-0.189	0.158
-414.413	-138.214	-0.107	0.012
-413.398	450.300	-0.107	0.237
-412.384	42.417	-0.036	-0.032
-411.369	80.246	-0.085	-0.091
-410.355	-157.656	0.170	-0.010
-409.340	7.356	0.138	-0.103
-408.325	800.000	0.143	-0.467
-407.311	-130.802	-0.205	-0.027
-406.296	-200.000	0.001	0.309
-405.282	-40.440	-0.285	0.148
-404.267	156.516	0.091	0.125
-403.252	-86.162	-0.169	-0.052
-402.238	-200.000	0.019	0.124
-401.223	-200.000	0.004	-0.069
-400.209	-92.988	-0.095	-0.026
-399.194	384.076	-0.044	-0.090
-398.179	-20.619	0.190	-0.117
-397.165	-200.000	0.023	-0.393
-396.150	-200.000	0.001	-0.145
-395.136	-200.000	0.006	0.205
-394.121	90.214	-0.324	0.361
-393.106	674.941	-0.079	-0.206
-392.092	581.331	-0.047	0.115
-391.077	-200.000	-0.040	-0.249
-390.063	292.589	0.160	-0.292
-389.048	645.577	-0.044	0.112
-388.033	-131.946	-0.183	-0.024
-387.019	65.041	0.226	0.228
-386.004	-200.000	0.029	0.138
-384.990	47.369	0.147	0.137
-383.975	56.104	-0.168	0.163
-382.960	3.677	0.352	0.256
-381.946	-104.383	0.039	0.009
-380.931	365.532	-0.140	-0.281
-379.917	206.753	0.135	0.210
-378.902	-26.437	-0.178	-0.104
-377.888	800.000	-0.103	0.343
-376.873	331.681	0.191	0.368
-375.858	202.853	0.226	-0.349
-374.844	235.028	0.158	-0.260
-373.829	-52.292	-0.246	-0.114
-372.815	-159.388	-0.272	0.015
-371.800	6.301	-0.156	-0.115
-370.785	91.408	-0.137	-0.153
-369.771	-130.953	0.320	-0.043
-368.756	-200.000	-0.016	-0.230
-367.742	114.300	-0.137	-0.166
-366.727	31.270	-0.125	0.107
-365.712	193.593	-0.091	0.137
-364.698	-35.974	0.168	0.090
-363.683	800.000	-0.153	-0.502
-362.669	343.302	-0.081	-0.158
-361.654	-7.777	-0.050	0.034
-360.639	429.966	0.072	0.154
-359.625	-31.467	0.264	0.148
-358.610	-20.767	0.045	0.027
-357.596	-44.134	0.189	-0.094
-356.581	-200.000	-0.010	0.097
-355.566	-13.948	-0.311	-0.200
-354.552	-200.000	0.051	-0.312
-353.537	-127.046	-0.086	-0.013
-352.523	-31.940	0.061	0.034
-351.508	-200.000	0.015	0.241
-350.493	-74.854	0.063	-0.022
-349.479	675.057	0.051	-0.131
-348.464	-70.906	-0.094	-0.035
-347.450	-92.490	-0.173	0.048
-346.435	-118.510	0.054	0.010
-345.420	-200.000	-0.202	0.001
-344.406	55.410	-0.101	-0.097
-343.391	-200.000	0.000	-0.107
-342.377	-200.000	-0.021	-0.138
-341.362	45.817	-0.101	0.093
-340.348	146.394	0.098	-0.131
-339.333	-200.000	-0.055	0.256
-338.318	800.000	0.050	0.156
-337.304	-200.000	0.015	0.339
-336.289	-200.000	-0.006	-0.035
-335.275	800.000	0.079	0.283
-334.260	-130.493	-0.076	-0.010
-333.245	-76.255	-0.305	0.107
-332.231	65.537	-0.183	0.185
-331.216	88.041	-0.080	0.089
-330.202	-200.000	0.018	0.088
-329.187	563.335	0.025	0.061
-328.172	-200.000	-0.040	-0.184
-327.158	-26.451	-0.120	0.070
-326.143	-21.530	0.070	-0.042
-325.129	-48.949	-0.234	0.112
-324.114	69.029	0.041	0.042
-323.099	-100.479	-0.330	0.081
-322.085	278.670	0.248	-0.440
-321.070	568.341	-0.129	-0.313
-320.056	164.192	-0.156	-0.218
-319.041	-200.000	0.017	0.096
-318.026	800.000	-0.143	0.500
-317.012	-30.877	-0.185	0.104
-315.997	71.681	-0.168	-0.174
-314.983	800.000	-0.074	-0.309
-313.968	800.000	0.036	-0.124
-312.953	31.842	0.117	-0.100
-311.939	-109.497	-0.148	0.031
-310.924	51.526	0.203	-0.192
-309.910	33.794	0.052	-0.045
-308.895	-14.876	0.301	-0.192
-307.880	-87.907	-0.426	0.128
-306.866	-72.896	0.252	-0.092
-305.851	-117.981	0.103	0.018
-304.837	-1.516	0.129	-0.090
-303.822	526.157	-0.071	-0.166
-302.807	-143.405	0.288	0.027
-301.793	-19.358	-0.153	0.094
-300.778	-200.000	0.011	-0.239
-299.764	234.170	-0.124	-0.203
-298.749	112.374	-0.244	-0.294
-297.735	800.000	0.030	0.107
-296.720	124.494	-0.119	-0.149
-295.705	-1.499	0.094	0.066
-294.691	42.703	0.048	-0.043
-293.676	-68.378	-0.320	0.124
-292.662	-200.000	-0.035	0.166
-291.647	189.793	0.111	-0.166
-290.632	-200.000	0.029	0.365
-289.618	5.114	0.185	0.135
-288.603	96.697	-0.198	-0.226
-287.589	-200.000	0.006	-0.086
-286.574	375.822	0.060	0.122
-285.559	-85.287	-0.178	0.055
-284.545	-22.863	-0.137	-0.082
-283.530	-1.484	-0.146	0.102
-282.516	42.542	0.279	0.253
-281.501	-200.000	-0.466	-0.002
-280.486	-200.000	-0.048	0.313
-279.472	-200.000	-0.006	0.160
-278.457	326.034	-0.053	0.100
-277.443	-59.702	0.219	0.093
-276.428	-82.386	-0.107	-0.034
-275.413	-27.444	0.182	-0.105
-274.399	800.000	0.041	0.164
-273.384	-200.000	-0.025	0.288
-272.370	-153.187	0.255	-0.018
-271.355	139.347	-0.097	0.126
-270.340	37.749	0.089	-0.078
-269.326	100.245	0.262	0.302
-268.311	-200.000	0.011	0.194
-267.297	-89.662	0.091	0.026
-266.282	-61.994	0.179	-0.074
-265.267	389.418	0.152	-0.312
-264.253	-65.299	-0.138	-0.055
-263.238	91.035	-0.154	0.171
-262.224	-26.067	-0.169	0.099
-261.209	-184.383	-0.093	0.002
-260.195	352.877	0.082	0.161
-259.180	-200.000	0.023	-0.196
-258.165	-142.467	0.190	0.019
-257.151	223.477	-0.027	0.043
-256.136	5.356	-0.136	0.100
-255.122	-12.042	-0.263	-0.171
-254.107	-200.000	-0.085	0.451
-253.092	-44.636	0.226	0.112
-252.078	-200.000	-0.083	-0.442
-251.063	-139.751	0.470	0.050
-250.049	-22.811	-0.080	-0.048
-249.034	-41.468	-0.259	-0.132
-248.019	573.105	0.131	0.318
-247.005	609.020	-0.032	0.078
-245.990	482.967	-0.108	-0.245
-244.976	-84.793	0.156	-0.049
-243.961	-151.801	-0.223	-0.016
-242.946	-200.000	-0.041	-0.185
-241.932	-186.548	-0.113	0.002
-240.917	-163.279	0.034	-0.002
-239.903	42.723	0.173	0.156
-238.888	12.277	0.308	-0.236
-237.873	-200.000	0.152	-0.708
-236.859	-200.000	-0.009	-0.288
-235.844	366.642	-0.094	-0.188
-234.830	800.000	0.051	0.159
-233.815	-200.000	0.083	0.434
-232.800	77.821	0.235	0.248
-231.786	-128.214	-0.230	0.033
-230.771	-200.000	-0.025	-0.142
-229.757	800.000	-0.051	-0.184
-228.742	358.002	-0.077	-0.152
-227.727	131.354	0.102	0.130
-226.713	77.817	0.102	-0.108
-225.698	-91.329	0.188	0.053
-224.684	159.471	0.187	0.258
-223.669	-200.000	-0.009	-0.064
-222.655	43.027	-0.079	0.072
-221.640	800.000	0.018	-0.055
-220.625	461.010	-0.139	0.306
-219.611	-75.848	0.305	0.107
-218.596	0.258	-0.227	-0.161
-217.582	464.361	-0.138	-0.305
-216.567	-113.125	-0.154	0.030
-215.552	154.637	0.080	0.109
-214.538	-200.000	-0.003	0.194
-213.523	117.073	0.030	0.036
-212.509	181.256	0.156	0.228
-211.494	-200.000	-0.029	-0.292
-210.479	268.079	-0.103	-0.179
-209.465	-40.018	-0.248	0.128
-208.450	234.748	0.104	0.170
-207.436	12.032	0.204	0.156
-206.421	-200.000	0.013	-0.380
-205.406	-154.793	0.125	-0.008
-204.392	233.973	0.134	0.219
-203.377	800.000	0.042	-0.143
-202.363	-79.936	0.427	0.142
-201.348	-94.238	0.349	0.095
-200.333	144.495	-0.078	-0.103
-199.319	-57.170	0.173	-0.075
-198.304	77.407	-0.054	-0.057
-197.290	-200.000	0.007	-0.262
-196.275	-200.000	0.003	-0.016
-195.260	112.596	0.097	-0.116
-194.246	107.297	-0.210	0.247
-193.231	-118.596	0.166	-0.029
-192.217	-1.360	0.207	0.145
-191.202	-82.224	0.134	-0.043
-190.187	310.425	-0.187	0.347
-189.173	-200.000	0.076	0.338
-188.158	-140.042	-0.513	-0.054
-187.144	-90.363	-0.194	-0.056
-186.129	-4.068	0.279	-0.191
-185.114	106.573	0.316	-0.371
-184.100	-21.958	0.184	0.111
-183.085	-53.826	0.259	0.117
-182.071	72.202	-0.061	-0.063
-181.056	-148.146	0.158	-0.013
-180.042	-200.000	-0.028	-0.385
-179.027	-2.385	0.249	-0.173
-178.012	-181.111	0.099	0.002
-176.998	-200.000	-0.013	-0.165
-175.983	337.365	0.091	-0.176
-174.969	190.508	0.195	-0.289
-173.954	-200.000	-0.029	0.200
-172.939	-129.720	0.301	0.041
-171.925	800.000	-0.050	0.188
-170.910	193.169	0.110	0.164
-169.896	-137.796	-0.055	-0.006
-168.881	-200.000	-0.015	-0.169
-167.866	800.000	-0.032	0.091
-166.852	-107.198	0.140	-0.030
-165.837	-67.383	0.142	0.055
-164.823	82.928	0.102	0.109
-163.808	-104.960	0.227	0.052
-162.793	54.861	-0.264	0.252
-161.779	-51.976	0.224	0.103
-160.764	347.133	0.125	-0.244
-159.750	19.996	0.121	-0.096
-158.735	294.850	-0.095	0.171
-157.720	-65.174	-0.215	0.086
-156.706	-200.000	0.058	-0.345
-155.691	-120.824	0.411	0.069
-154.677	657.968	-0.030	-0.077
-153.662	-140.122	0.360	-0.037
-152.647	-57.552	-0.275	0.119
-151.633	-200.000	-0.041	0.390
-150.618	-200.000	0.007	-0.052
-149.604	800.000	-0.141	-0.412
-148.589	800.000	0.023	-0.091
-147.574	-56.635	-0.200	0.088
-146.560	-200.000	-0.055	0.480
-145.545	-22.089	-0.288	0.173
-144.531	1.158	0.192	0.136
-143.516	-68.191	-0.166	0.064
-142.502	-200.000	0.023	-0.099
-141.487	477.315	-0.175	0.391
-140.472	-155.588	-0.316	-0.020
-139.458	-25.137	-0.267	0.156
-138.443	145.347	-0.129	-0.171
-137.429	173.171	-0.035	-0.050
-136.414	-66.378	0.270	0.106
-135.399	-192.553	0.288	-0.003
-134.385	-51.294	-0.242	-0.112
-133.370	-179.505	0.358	0.008
-132.356	-182.354	0.192	0.004
-131.341	494.259	-0.106	0.240
-130.326	359.472	-0.181	0.358
-129.312	-75.352	0.025	0.009
-128.297	-200.000	0.029	0.285
-127.283	-85.142	0.168	-0.052
-126.268	-86.030	-0.187	0.057
-125.253	51.292	-0.231	0.217
-124.239	115.545	0.088	0.106
-123.224	-8.887	0.166	0.110
-122.210	-200.000	-0.002	0.283
