DTS Sentinel unit serial number:	SN413079Multiplexer serial number:	ORYXHardware model number:	OX4-SRSoftware version number:	ORYX F/W v4.00 Oryx Data Collector v3.7.2.0data status	okinstallation	princeton_trtdifferential loss correction	single-endedforward channel	channel 1reverse channel	N/Adate	2019/09/14time	17:18:35forward acquisition time	60.00reverse acquisition time	0.00gamma	496.2192k internal	0.2296k external	0.2296temperature offset calibration	1.0053default loss term (dB/km)	0.3790temperature slope calibration	1.0000multiplexer offset coefficient	1.0000multiplexer slope coefficient	1.0000fibre end	0.00T internal ref (°C)	37.87T ext. ref 1 (°C)	5.05T ext. ref 2 (°C)	32.83length (m)	temperature (°C)	Stokes	anti-Stokes-747.200	214.674	0.201	0.325
-746.185	-118.704	-0.676	0.122
-745.171	237.801	0.144	-0.244
-744.156	106.502	0.140	0.170
-743.142	-127.915	-0.041	0.006
-742.127	-144.246	-0.216	-0.021
-741.112	-51.009	-0.105	-0.050
-740.098	-34.343	-0.214	-0.120
-739.083	724.589	-0.039	0.106
-738.069	-140.281	-0.282	-0.030
-737.054	-200.000	0.015	-0.318
-736.039	-200.000	0.002	0.489
-735.025	126.839	0.236	0.306
-734.010	179.717	-0.062	-0.093
-732.996	-8.731	-0.201	0.138
-731.981	-113.668	0.176	0.035
-730.966	-108.912	0.530	0.116
-729.952	177.111	-0.086	0.128
-728.937	217.265	-0.188	-0.306
-727.923	-109.217	0.093	0.020
-726.908	202.301	-0.014	-0.022
-725.894	52.645	-0.033	-0.033
-724.879	5.569	0.119	0.090
-723.864	-85.752	0.218	-0.069
-722.850	-43.229	0.397	-0.205
-721.835	-34.407	-0.086	-0.048
-720.821	398.314	-0.045	0.097
-719.806	1.014	0.142	-0.104
-718.791	32.565	-0.045	-0.040
-717.777	81.685	-0.176	0.195
-716.762	-200.000	-0.010	-0.130
-715.748	344.024	0.070	-0.139
-714.733	-72.135	-0.398	0.151
-713.718	-94.002	-0.156	-0.044
-712.704	28.400	0.067	0.058
-711.689	-200.000	0.005	0.068
-710.675	800.000	0.072	0.220
-709.660	271.153	-0.079	0.142
-708.645	40.803	0.185	-0.170
-707.631	101.917	0.116	0.138
-706.616	-11.112	0.108	0.073
-705.602	-152.919	-0.131	0.009
-704.587	-187.554	-0.253	-0.003
-703.572	622.240	0.093	0.240
-702.558	725.723	-0.136	0.369
-701.543	-30.823	0.115	0.066
-700.529	-126.970	0.140	-0.021
-699.514	-154.704	0.174	0.012
-698.499	-200.000	0.007	0.065
-697.485	78.857	0.180	-0.196
-696.470	-200.000	-0.003	0.030
-695.456	-200.000	0.033	0.413
-694.441	-58.421	-0.163	-0.072
-693.426	37.100	0.212	0.191
-692.412	-32.716	-0.170	-0.096
-691.397	800.000	0.027	0.108
-690.383	198.209	-0.252	0.393
-689.368	61.331	-0.071	-0.072
-688.354	800.000	-0.029	-0.100
-687.339	-106.767	0.446	-0.101
-686.324	447.313	0.127	0.286
-685.310	588.420	0.069	-0.173
-684.295	109.426	-0.238	0.290
-683.281	15.555	-0.283	0.226
-682.266	46.796	0.137	-0.130
-681.251	-110.300	0.306	0.065
-680.237	-91.115	-0.235	0.069
-679.222	139.299	0.016	0.022
-678.208	-25.053	-0.210	0.127
-677.193	800.000	0.067	-0.213
-676.178	641.978	0.117	-0.305
-675.164	99.637	0.146	-0.172
-674.149	262.055	-0.206	-0.364
-673.135	-200.000	-0.037	-0.193
-672.120	6.007	-0.109	-0.082
-671.105	-131.431	0.154	-0.021
-670.091	-200.000	-0.029	-0.219
-669.076	327.631	0.074	0.144
-668.062	-195.889	-0.167	-0.001
-667.047	23.901	0.130	0.109
-666.032	-28.110	-0.330	0.195
-665.018	-107.281	-0.404	0.091
-664.003	-200.000	-0.007	-0.289
-662.989	225.155	-0.136	-0.224
-661.974	800.000	-0.077	-0.249
-660.959	535.375	0.039	-0.095
-659.945	11.417	-0.332	0.259
-658.930	-200.000	0.010	0.391
-657.916	-200.000	0.044	0.198
-656.901	88.389	-0.118	-0.134
-655.886	81.369	-0.193	0.212
-654.872	-66.000	0.314	0.128
-653.857	11.183	0.056	0.044
-652.843	-200.000	-0.025	-0.130
-651.828	-190.877	-0.192	0.002
-650.814	61.323	-0.177	0.180
-649.799	-128.420	0.083	0.012
-648.784	-32.786	0.154	0.087
-647.770	322.568	-0.082	0.158
-646.755	-200.000	0.002	0.035
-645.741	-111.904	0.238	0.049
-644.726	-16.890	0.034	-0.022
-643.711	398.381	0.118	-0.251
-642.697	129.384	-0.147	-0.191
-641.682	91.723	0.111	-0.127
-640.668	8.513	0.111	-0.085
-639.653	-200.000	0.001	0.204
-638.638	0.780	-0.277	0.202
-637.624	-200.000	0.002	-0.098
-636.609	800.000	-0.044	-0.176
-635.595	-30.235	0.288	0.166
-634.580	-90.438	-0.106	-0.031
-633.565	-44.316	0.342	-0.175
-632.551	-185.485	0.063	-0.001
-631.536	-200.000	-0.047	0.278
-630.522	119.882	-0.151	-0.190
-629.507	-69.860	-0.186	0.072
-628.492	-16.945	-0.157	0.101
-627.478	324.860	-0.247	-0.481
-626.463	-81.173	-0.190	-0.064
-625.449	800.000	-0.056	0.173
-624.434	24.681	-0.041	0.035
-623.419	105.264	-0.066	-0.079
-622.405	-200.000	-0.003	-0.265
-621.390	4.300	-0.052	-0.039
-620.376	-200.000	0.002	-0.062
-619.361	464.997	-0.093	-0.211
-618.346	-200.000	0.001	-0.033
-617.332	249.988	-0.097	0.167
-616.317	-79.007	0.104	0.036
-615.303	372.986	0.029	0.060
-614.288	126.073	0.063	-0.081
-613.273	66.844	-0.047	-0.048
-612.259	-98.954	0.377	0.097
-611.244	56.077	-0.194	0.191
-610.230	-39.320	-0.375	-0.200
-609.215	800.000	-0.053	0.238
-608.201	-38.470	-0.142	0.076
-607.186	-125.815	-0.110	-0.017
-606.171	206.867	0.090	-0.142
-605.157	-200.000	-0.003	-0.101
-604.142	19.400	-0.278	-0.227
-603.128	800.000	-0.118	-0.367
-602.113	-157.485	0.440	-0.027
-601.098	210.711	0.098	-0.156
-600.084	9.381	-0.186	0.143
-599.069	-159.391	-0.361	0.020
-598.055	-86.718	0.435	0.135
-597.040	161.022	-0.185	0.262
-596.025	2.298	-0.046	0.034
-595.011	-94.476	-0.196	0.054
-593.996	112.548	-0.255	0.314
-592.982	-147.375	0.083	-0.007
-591.967	-70.819	0.285	-0.109
-590.952	17.418	0.256	-0.207
-589.938	-57.782	0.176	-0.078
-588.923	-200.000	0.027	0.160
-587.909	-200.000	0.033	0.242
-586.894	-200.000	0.028	-0.250
-585.879	800.000	-0.042	0.131
-584.865	-128.561	0.133	0.019
-583.850	-148.603	-0.134	-0.011
-582.836	74.527	-0.075	-0.080
-581.821	112.355	0.125	-0.153
-580.806	76.126	-0.121	-0.130
-579.792	-145.940	-0.217	0.020
-578.777	-33.248	0.050	0.028
-577.763	144.794	0.111	-0.151
-576.748	88.356	0.106	-0.120
-575.733	-200.000	-0.013	0.246
-574.719	-124.032	0.467	0.075
-573.704	-103.876	-0.216	0.051
-572.690	-151.164	-0.283	0.022
-571.675	-200.000	0.005	-0.053
-570.661	183.310	-0.230	-0.346
-569.646	-11.578	-0.103	0.069
-568.631	262.049	0.070	-0.124
-567.617	800.000	0.155	-0.451
-566.602	800.000	0.090	-0.380
-565.588	-69.897	0.059	0.023
-564.573	236.632	-0.037	-0.062
-563.558	147.581	-0.222	0.303
-562.544	146.373	-0.189	-0.258
-561.529	-89.263	-0.278	-0.083
-560.515	-116.716	-0.165	0.031
-559.500	-6.824	-0.130	-0.089
-558.485	-115.986	-0.225	-0.043
-557.471	78.234	-0.246	0.266
-556.456	-157.511	0.100	-0.006
-555.442	201.200	-0.123	0.191
-554.427	1.066	-0.188	0.137
-553.412	-200.000	0.018	-0.148
-552.398	-117.847	0.416	0.076
-551.383	420.992	0.029	-0.063
-550.369	-17.541	0.146	0.093
-549.354	-79.284	0.522	-0.179
-548.339	-151.288	-0.196	-0.015
-547.325	-71.335	-0.054	0.021
-546.310	-39.122	0.290	-0.155
-545.296	-200.000	0.006	-0.222
-544.281	-200.000	0.000	-0.446
-543.266	800.000	-0.060	0.238
-542.252	139.413	-0.095	-0.127
-541.237	-169.459	-0.439	-0.016
-540.223	-123.961	-0.205	-0.033
-539.208	-20.403	-0.172	-0.107
-538.193	-25.139	0.029	0.017
-537.179	-200.000	-0.054	-0.243
-536.164	-167.218	-0.431	-0.018
-535.150	613.879	-0.069	-0.175
-534.135	100.354	-0.134	-0.158
-533.121	-200.000	-0.011	-0.117
-532.106	263.726	-0.097	-0.171
-531.091	-200.000	-0.003	-0.138
-530.077	86.199	0.072	0.080
-529.062	-178.648	-0.239	0.006
-528.048	-200.000	0.016	0.418
-527.033	74.468	-0.097	-0.103
-526.018	-200.000	-0.017	0.250
-525.004	-35.515	0.271	0.149
-523.989	-87.936	0.355	-0.108
-522.975	47.060	0.143	0.135
-521.960	109.017	0.270	-0.328
-520.945	115.561	-0.061	0.075
-519.931	-200.000	-0.027	-0.194
-518.916	47.102	-0.087	-0.082
-517.902	-53.810	0.158	-0.073
-516.887	-108.128	0.256	-0.056
-515.872	-168.052	-0.233	0.009
-514.858	-126.419	0.373	0.056
-513.843	-65.235	-0.061	-0.025
-512.829	-79.827	0.183	0.062
-511.814	-12.880	0.028	0.019
-510.799	246.139	-0.115	0.197
-509.785	-36.305	0.131	0.071
-508.770	9.271	-0.148	-0.113
-507.756	800.000	0.032	0.105
-506.741	374.525	0.030	0.062
-505.726	-35.703	0.189	-0.104
-504.712	29.108	0.357	-0.306
-503.697	144.229	-0.098	-0.133
-502.683	39.427	-0.238	-0.216
-501.668	-200.000	-0.002	-0.090
-500.653	-200.000	-0.002	-0.237
-499.639	800.000	-0.075	0.299
-498.624	-34.718	0.116	-0.064
-497.610	-43.214	-0.204	-0.105
-496.595	800.000	-0.082	0.323
-495.581	-18.339	0.070	0.044
-494.566	800.000	-0.050	-0.189
-493.551	98.675	-0.120	0.140
-492.537	800.000	-0.112	0.334
-491.522	82.142	0.183	-0.200
-490.508	-200.000	0.046	0.221
-489.493	-9.173	-0.161	0.109
-488.478	152.283	0.063	-0.087
-487.464	800.000	-0.064	-0.221
-486.449	-29.513	0.368	0.213
-485.435	-111.415	0.364	0.075
-484.420	122.675	0.089	-0.113
-483.405	213.265	-0.052	0.083
-482.391	119.476	0.046	-0.057
-481.376	67.694	-0.185	0.191
-480.362	58.427	-0.129	0.128
-479.347	-200.000	-0.026	-0.169
-478.332	-35.585	-0.312	-0.171
-477.318	230.920	0.055	-0.091
-476.303	-83.875	-0.272	0.088
-475.289	227.368	-0.275	-0.452
-474.274	646.226	0.053	-0.136
-473.259	-94.867	-0.266	-0.073
-472.245	-200.000	0.010	-0.068
-471.230	-76.143	-0.262	0.093
-470.216	-40.416	0.148	-0.077
-469.201	451.932	-0.049	-0.109
-468.186	-132.968	-0.161	-0.021
-467.172	-149.593	-0.104	-0.008
-466.157	184.567	-0.227	-0.339
-465.143	-141.504	0.238	0.024
-464.128	118.298	0.069	-0.086
-463.113	166.788	-0.046	-0.066
-462.099	800.000	0.080	0.328
-461.084	-100.467	-0.274	-0.069
-460.070	-9.093	-0.217	0.147
-459.055	0.351	0.113	0.081
-458.040	800.000	0.032	0.103
-457.026	-85.006	0.079	-0.025
-456.011	404.790	-0.230	-0.489
-454.997	800.000	0.056	0.237
-453.982	-118.679	0.121	-0.022
-452.968	-200.000	0.017	0.163
-451.953	-200.000	0.001	0.289
-450.938	-58.168	0.309	-0.136
-449.924	41.087	-0.147	-0.134
-448.909	-116.038	-0.543	-0.102
-447.895	-49.979	-0.156	-0.075
-446.880	20.672	0.087	0.071
-445.865	129.176	0.111	0.143
-444.851	-200.000	-0.013	-0.074
-443.836	-107.652	-0.159	0.035
-442.822	-200.000	0.020	0.283
-441.807	333.962	0.059	-0.115
-440.792	495.805	-0.203	0.471
-439.778	299.224	-0.125	0.232
-438.763	-200.000	-0.012	-0.127
-437.749	-11.777	-0.076	0.050
-436.734	-104.347	-0.140	-0.033
-435.719	-98.491	-0.152	0.039
-434.705	-200.000	0.015	-0.248
-433.690	-74.704	0.121	0.044
-432.676	214.003	-0.138	0.221
-431.661	788.482	-0.069	-0.191
-430.646	-57.128	-0.196	-0.087
-429.632	61.084	0.169	0.170
-428.617	-200.000	-0.016	0.221
-427.603	130.723	-0.159	-0.205
-426.588	-84.736	-0.254	-0.081
-425.573	-117.697	0.449	-0.082
-424.559	-137.885	0.396	-0.045
-423.544	70.863	-0.119	0.125
-422.530	525.261	0.167	-0.397
-421.515	191.217	0.069	-0.105
-420.500	-24.184	0.126	0.076
-419.486	-118.522	0.140	0.025
-418.471	514.089	-0.050	-0.118
-417.457	40.105	0.088	-0.080
-416.442	-141.011	0.256	0.026
-415.428	-111.761	0.217	0.044
-414.413	-200.000	-0.002	-0.032
-413.398	-200.000	-0.037	-0.202
-412.384	-1.695	0.192	-0.136
-411.369	-200.000	0.038	0.274
-410.355	-200.000	0.050	0.370
-409.340	-73.049	0.095	-0.035
-408.325	-64.101	0.237	0.098
-407.311	-106.446	-0.371	0.084
-406.296	-17.087	0.249	0.158
-405.282	-46.906	0.379	0.187
-404.267	535.910	-0.144	-0.346
-403.252	-200.000	-0.049	0.215
-402.238	-200.000	-0.071	0.430
-401.223	214.920	-0.127	-0.203
-400.209	28.027	-0.073	-0.062
-399.194	453.101	-0.047	0.105
-398.179	-62.600	-0.311	0.130
-397.165	-107.235	0.146	-0.032
-396.150	145.456	0.053	0.072
-395.136	14.245	-0.226	-0.177
-394.121	-126.902	0.597	0.089
-393.106	-144.783	0.240	-0.022
-392.092	-39.406	-0.074	0.039
-391.077	-19.656	-0.157	-0.098
-390.063	-200.000	-0.091	0.429
-389.048	259.644	-0.023	-0.040
-388.033	-200.000	-0.013	-0.129
-387.019	-200.000	-0.012	-0.237
-386.004	-200.000	-0.019	-0.338
-384.990	-200.000	-0.004	-0.255
-383.975	-84.221	0.171	0.055
-382.960	-8.221	-0.177	0.120
-381.946	552.703	0.129	0.313
-380.931	-114.689	-0.265	0.051
-379.917	-182.278	0.268	0.005
-378.902	800.000	-0.065	-0.243
-377.888	340.024	-0.081	-0.159
-376.873	-18.465	0.187	-0.117
-375.858	-58.918	0.054	0.024
-374.844	800.000	0.071	0.235
-373.829	800.000	-0.060	0.193
-372.815	131.035	0.081	0.105
-371.800	-63.156	0.180	0.075
-370.785	16.560	-0.241	-0.192
-369.771	129.024	-0.068	0.088
-368.756	21.224	0.395	-0.323
-367.742	-74.765	0.120	0.043
-366.727	204.407	-0.108	0.168
-365.712	800.000	0.035	-0.155
-364.698	-6.504	0.141	0.097
-363.683	281.706	-0.137	-0.247
-362.669	-183.832	0.075	-0.001
-361.654	-6.728	0.140	0.096
-360.639	27.696	-0.237	0.201
-359.625	141.434	-0.221	-0.294
-358.610	343.938	-0.128	-0.252
-357.596	-24.969	0.198	0.119
-356.581	-16.723	-0.170	0.108
-355.566	-56.943	-0.176	-0.078
-354.552	-120.225	0.094	-0.016
-353.537	-164.150	0.054	0.003
-352.523	169.897	0.149	0.215
-351.508	-14.612	-0.072	0.046
-350.493	-64.944	-0.211	-0.086
-349.479	-200.000	-0.351	0.000
-348.464	252.128	0.045	0.078
-347.450	800.000	0.062	0.186
-346.435	-26.880	0.194	-0.114
-345.420	109.599	-0.115	-0.138
-344.406	-181.251	-0.094	-0.002
-343.391	348.590	-0.106	-0.210
-342.377	-141.881	0.132	-0.013
-341.362	98.410	-0.029	0.033
-340.348	243.412	0.150	-0.253
-339.333	176.637	0.117	-0.172
-338.318	114.715	0.182	-0.224
-337.304	-200.000	0.020	-0.149
-336.289	266.573	-0.121	-0.213
-335.275	55.400	-0.088	-0.086
-334.260	800.000	0.102	0.287
-333.245	-141.072	-0.108	-0.011
-332.231	615.114	-0.043	-0.108
-331.216	-5.541	0.076	-0.052
-330.202	-200.000	-0.049	-0.257
-329.187	-200.000	-0.098	-0.456
-328.172	-200.000	0.052	-0.332
-327.158	225.822	-0.120	-0.196
-326.143	87.264	0.109	-0.121
-325.129	-156.994	0.322	-0.020
-324.114	50.826	-0.033	0.032
-323.099	-31.566	0.400	-0.226
-322.085	-188.669	-0.103	-0.001
-321.070	11.730	0.051	-0.040
-320.056	-160.991	-0.190	-0.010
-319.041	431.183	-0.107	0.233
-318.026	156.528	-0.035	0.049
-317.012	334.532	0.094	0.182
-315.997	232.273	-0.179	0.295
-314.983	1.866	-0.227	0.165
-313.968	800.000	-0.104	-0.415
-312.953	-200.000	0.005	0.038
-311.939	465.188	-0.030	-0.068
-310.924	769.374	0.021	-0.058
-309.910	35.660	0.182	-0.160
-308.895	-41.408	-0.084	0.044
-307.880	-200.000	0.012	0.219
-306.866	-47.339	-0.278	0.136
-305.851	-44.874	-0.184	0.092
-304.837	119.921	-0.107	0.133
-303.822	-40.823	-0.159	0.083
-302.807	-94.809	-0.228	-0.062
-301.793	-200.000	-0.009	0.212
-300.778	-78.645	0.213	-0.073
-299.764	-200.000	0.010	0.436
-298.749	-200.000	-0.009	0.282
-297.735	-200.000	-0.041	0.283
-296.720	428.623	-0.153	0.332
-295.705	197.764	0.086	-0.133
-294.691	-57.956	0.244	0.107
-293.676	-200.000	-0.035	0.209
-292.662	-52.596	-0.236	0.110
-291.647	-75.687	-0.169	-0.060
-290.632	800.000	0.124	-0.453
-289.618	800.000	-0.022	0.066
-288.603	-119.887	-0.157	0.027
-287.589	-56.872	-0.188	-0.083
-286.574	-61.886	0.127	0.053
-285.559	63.371	-0.074	0.074
-284.545	-200.000	0.052	-0.249
-283.530	150.432	-0.163	-0.222
-282.516	71.639	-0.174	-0.181
-281.501	-18.051	-0.130	0.082
-280.486	-11.325	-0.143	-0.094
-279.472	-164.841	0.117	-0.005
-278.457	800.000	-0.017	0.051
-277.443	800.000	-0.029	-0.127
-276.428	-200.000	0.004	0.062
-275.413	-200.000	-0.048	0.382
-274.399	310.238	-0.054	0.101
-273.384	800.000	-0.012	0.050
-272.370	534.726	0.123	0.293
-271.355	-36.580	0.148	0.080
-270.340	-24.293	0.353	0.211
-269.326	347.525	-0.030	0.059
-268.311	-36.282	0.270	0.146
-267.297	800.000	-0.149	0.479
-266.282	-97.368	0.012	0.003
-265.267	119.584	-0.081	-0.101
-264.253	-49.479	-0.143	0.068
-263.238	81.502	0.256	-0.278
-262.224	-95.033	-0.171	-0.046
-261.209	-124.575	-0.223	-0.035
-260.195	301.354	-0.094	0.174
-259.180	-123.464	0.125	0.020
-258.165	278.039	0.146	0.260
-257.151	-124.776	0.209	-0.032
-256.136	21.702	0.153	-0.125
-255.122	-0.650	0.157	0.111
-254.107	535.461	-0.074	-0.176
-253.092	-200.000	-0.009	0.163
-252.078	-200.000	-0.006	-0.094
-251.063	96.047	0.226	0.259
-250.049	-115.303	0.503	0.095
-249.034	-67.883	-0.144	-0.057
-248.019	5.231	-0.247	-0.182
-247.005	466.464	-0.140	0.313
-245.990	800.000	0.066	-0.272
-244.976	-200.000	0.040	-0.256
-243.961	-200.000	-0.011	-0.137
-242.946	21.543	-0.209	-0.170
-241.932	-80.598	-0.219	0.073
-240.917	39.725	-0.343	0.309
-239.903	800.000	-0.032	0.100
-238.888	121.006	0.285	-0.355
-237.873	800.000	-0.110	0.418
-236.859	85.659	0.174	0.192
-235.844	106.157	0.019	-0.023
-234.830	46.810	0.220	-0.205
-233.815	105.639	-0.127	0.151
-232.800	337.644	0.018	0.036
-231.786	-188.492	-0.287	-0.004
-230.771	-117.243	0.411	0.075
-229.757	-187.254	0.523	0.007
-228.742	-80.326	-0.038	0.013
-227.727	-164.961	0.169	0.008
-226.713	27.233	-0.153	0.129
-225.698	800.000	0.048	0.150
-224.684	236.836	0.022	-0.036
-223.669	36.232	0.125	0.110
-222.655	-117.028	-0.367	0.067
-221.640	-52.907	-0.111	0.051
-220.625	-94.042	0.439	-0.121
-219.611	-73.878	-0.169	0.061
-218.596	-120.449	0.102	0.017
-217.582	-17.826	0.003	-0.002
-216.567	159.030	0.146	0.204
-215.552	639.787	0.038	0.098
-214.538	267.873	-0.129	-0.226
-213.523	650.726	0.130	0.332
-212.509	800.000	-0.104	0.363
-211.494	554.290	0.058	0.139
-210.479	475.964	-0.062	-0.141
-209.465	29.263	0.308	0.262
-208.450	-165.480	0.212	0.009
-207.436	539.034	-0.040	0.096
-206.421	-140.867	0.180	-0.019
-205.406	20.765	0.100	0.081
-204.392	800.000	-0.059	0.173
-203.377	12.553	0.103	0.079
-202.363	4.883	0.126	-0.093
-201.348	-7.441	0.161	-0.109
-200.333	-16.353	0.119	0.076
-199.319	0.477	-0.278	-0.198
-198.304	93.125	0.253	0.286
-197.290	262.861	-0.076	0.132
-196.275	-147.402	0.129	-0.011
-195.260	-103.089	0.230	-0.055
-194.246	299.387	-0.004	0.007
-193.231	-75.384	-0.118	-0.042
-192.217	350.395	0.101	0.199
-191.202	800.000	-0.028	0.108
-190.187	-200.000	0.007	0.050
-189.173	-119.640	0.536	-0.093
-188.158	-200.000	0.028	-0.140
-187.144	64.771	0.282	0.285
-186.129	-200.000	0.021	-0.370
-185.114	-200.000	0.023	0.197
-184.100	-39.483	-0.126	0.066
-183.085	355.151	0.038	0.076
-182.071	-200.000	0.002	0.260
-181.056	-200.000	-0.027	0.183
-180.042	46.444	0.109	-0.101
-179.027	180.059	0.137	0.201
-178.012	-0.736	0.214	-0.152
-176.998	-175.831	0.123	-0.003
-175.983	203.155	0.100	-0.154
-174.969	-118.265	-0.514	-0.091
-173.954	326.605	0.068	0.131
-172.939	800.000	0.055	0.221
-171.925	800.000	0.074	0.254
-170.910	719.310	0.090	-0.238
-169.896	800.000	0.077	0.274
-168.881	800.000	-0.024	0.091
-167.866	105.067	0.034	0.041
-166.852	645.637	0.084	-0.215
-165.837	26.509	0.184	0.154
-164.823	-200.000	-0.046	0.461
-163.808	82.281	-0.129	-0.140
-162.793	320.651	-0.141	-0.268
-161.779	-153.159	0.294	-0.021
-160.764	23.592	-0.151	-0.124
-159.750	144.920	0.162	-0.217
-158.735	34.796	-0.243	-0.212
-157.720	800.000	0.066	0.234
-156.706	-48.327	0.286	-0.138
-155.691	-138.166	-0.245	-0.027
-154.677	776.567	-0.057	-0.155
-153.662	99.714	0.040	0.047
-152.647	-55.934	-0.187	0.083
-151.633	60.980	-0.158	0.157
-150.618	-37.365	0.098	0.052
-149.604	-120.568	0.045	-0.008
-148.589	-115.200	0.418	-0.079
-147.574	57.181	0.220	0.214
-146.560	-131.271	-0.220	0.029
-145.545	-200.000	-0.010	0.195
-144.531	-200.000	0.032	0.194
-143.516	594.096	0.148	0.366
-142.502	-78.945	0.390	-0.132
-141.487	-0.454	0.188	-0.133
-140.472	-91.777	-0.186	0.053
-139.458	308.083	-0.066	0.122
-138.443	-200.000	0.029	0.173
-137.429	-147.224	0.148	0.013
-136.414	-127.080	-0.122	0.018
-135.399	-200.000	-0.005	0.028
-134.385	-200.000	-0.003	0.336
-133.370	346.097	-0.115	-0.226
-132.356	111.532	0.067	0.081
-131.341	-200.000	-0.040	0.275
-130.326	-200.000	-0.017	0.145
-129.312	-54.683	-0.197	-0.089
-128.297	184.095	-0.164	0.242
-127.283	-99.269	0.289	0.073
-126.268	-79.984	0.370	0.124
-125.253	-200.000	-0.029	-0.158
-124.239	453.948	-0.161	0.356
-123.224	-133.499	0.146	-0.018
-122.210	-83.459	-0.109	0.035
-121.195	24.253	-0.133	-0.109
