DTS Sentinel unit serial number:	SN413079Multiplexer serial number:	ORYXHardware model number:	OX4-SRSoftware version number:	ORYX F/W v4.00 Oryx Data Collector v3.7.2.0data status	okinstallation	princeton_trtdifferential loss correction	single-endedforward channel	channel 1reverse channel	N/Adate	2019/09/18time	07:06:35forward acquisition time	60.00reverse acquisition time	0.00gamma	496.2192k internal	0.2340k external	0.2340temperature offset calibration	0.9977default loss term (dB/km)	0.3790temperature slope calibration	1.0000multiplexer offset coefficient	1.0000multiplexer slope coefficient	1.0000fibre end	0.00T internal ref (°C)	23.19T ext. ref 1 (°C)	0.18T ext. ref 2 (°C)	17.25length (m)	temperature (°C)	Stokes	anti-Stokes-747.200	-19.773	0.290	-0.180
-746.185	-84.753	-0.278	0.088
-745.171	800.000	-0.036	0.127
-744.156	251.782	-0.065	0.110
-743.142	-12.078	0.064	0.042
-742.127	800.000	0.024	-0.084
-741.112	85.829	-0.241	0.265
-740.098	467.648	0.092	0.207
-739.083	111.500	-0.112	0.135
-738.069	800.000	-0.117	0.337
-737.054	-200.000	0.006	0.134
-736.039	26.397	-0.303	-0.254
-735.025	-70.692	-0.015	-0.006
-734.010	167.717	-0.139	-0.198
-732.996	5.563	0.072	-0.053
-731.981	-107.543	-0.387	0.085
-730.966	114.198	-0.048	-0.059
-729.952	241.942	0.137	0.230
-728.937	177.955	-0.078	-0.114
-727.923	-45.577	0.299	0.148
-726.908	-48.550	0.105	0.051
-725.894	68.180	-0.393	-0.403
-724.879	137.983	-0.200	-0.263
-723.864	256.364	0.135	0.232
-722.850	-90.081	-0.234	-0.068
-721.835	116.435	0.062	0.076
-720.821	517.928	-0.109	0.255
-719.806	306.695	0.101	0.189
-718.791	-20.152	-0.134	-0.083
-717.777	-35.930	0.119	-0.065
-716.762	153.624	-0.157	0.215
-715.748	777.252	-0.028	-0.077
-714.733	-80.243	0.082	-0.027
-713.718	800.000	0.063	0.235
-712.704	217.350	0.043	0.069
-711.689	172.156	-0.131	-0.189
-710.675	49.509	-0.069	-0.065
-709.660	-141.460	-0.167	-0.017
-708.645	-200.000	-0.002	0.026
-707.631	-5.083	-0.114	-0.078
-706.616	-161.937	-0.323	-0.016
-705.602	-143.559	-0.399	-0.038
-704.587	192.792	0.269	-0.407
-703.572	-65.870	-0.118	0.047
-702.558	62.759	0.439	0.440
-701.543	2.448	-0.114	-0.083
-700.529	109.837	-0.253	-0.304
-699.514	411.470	0.070	-0.149
-698.499	59.713	0.161	0.159
-697.485	151.845	0.188	-0.256
-696.470	-62.696	-0.092	-0.038
-695.456	118.020	0.087	0.108
-694.441	265.690	-0.191	0.333
-693.426	-53.441	-0.279	-0.128
-692.412	38.175	0.151	-0.134
-691.397	-145.758	-0.145	-0.013
-690.383	-200.000	0.022	-0.191
-689.368	45.420	-0.050	0.046
-688.354	34.430	0.079	-0.069
-687.339	62.930	-0.175	-0.175
-686.324	304.866	0.053	0.099
-685.310	287.112	0.084	0.152
-684.295	7.744	0.149	0.112
-683.281	68.364	-0.093	-0.095
-682.266	38.351	-0.125	0.111
-681.251	-133.882	0.160	0.020
-680.237	25.703	-0.529	-0.441
-679.222	389.582	0.200	-0.414
-678.208	-47.107	0.288	-0.141
-677.193	-108.439	-0.578	0.124
-676.178	316.974	-0.096	0.182
-675.164	-58.232	-0.224	0.098
-674.149	-127.532	-0.398	-0.058
-673.135	721.740	0.067	0.177
-672.120	241.766	0.063	0.105
-671.105	380.560	-0.146	-0.300
-670.091	-108.664	-0.179	0.038
-669.076	-45.380	-0.272	0.135
-668.062	-29.092	0.200	0.114
-667.047	37.234	0.034	-0.030
-666.032	89.969	0.111	0.124
-665.018	-3.345	-0.273	-0.190
-664.003	-200.000	0.002	-0.100
-662.989	503.886	-0.053	0.123
-661.974	239.445	0.164	0.273
-660.959	-66.054	0.479	-0.191
-659.945	-200.000	0.018	-0.157
-658.930	-148.013	-0.058	-0.005
-657.916	800.000	0.108	0.298
-656.901	-17.753	-0.083	0.052
-655.886	441.542	-0.042	0.092
-654.872	-191.382	-0.230	0.002
-653.857	41.823	-0.062	-0.056
-652.843	-79.086	-0.093	0.032
-651.828	-31.294	0.180	0.101
-650.814	83.665	-0.345	0.376
-649.799	-138.257	0.165	-0.018
-648.784	-139.465	-0.372	0.040
-647.770	-18.218	-0.118	0.074
-646.755	-64.383	-0.151	-0.061
-645.741	55.434	0.135	-0.130
-644.726	-113.088	-0.185	0.036
-643.711	-88.170	0.328	-0.098
-642.697	-35.735	-0.259	-0.140
-641.682	-48.711	0.325	0.156
-640.668	-9.721	-0.220	-0.146
-639.653	-103.535	0.126	-0.030
-638.638	188.539	-0.327	-0.488
-637.624	-200.000	-0.047	-0.221
-636.609	-109.866	0.232	-0.049
-635.595	-200.000	-0.002	-0.091
-634.580	-81.608	0.060	-0.020
-633.565	153.010	0.093	0.127
-632.551	-16.069	-0.150	-0.095
-631.536	11.790	0.232	0.178
-630.522	234.567	0.218	-0.359
-629.507	621.978	0.176	-0.441
-628.492	-200.000	-0.040	0.187
-627.478	299.947	-0.076	0.140
-626.463	-40.725	0.456	0.236
-625.449	-47.631	0.112	0.054
-624.434	-11.286	0.198	0.130
-623.419	-22.080	-0.221	-0.134
-622.405	-109.574	-0.237	0.050
-621.390	-132.547	0.307	-0.039
-620.376	800.000	0.133	-0.425
-619.361	-81.090	-0.186	-0.061
-618.346	-73.253	-0.410	0.150
-617.332	-47.955	-0.063	0.031
-616.317	-55.719	0.304	-0.136
-615.303	184.826	-0.050	0.074
-614.288	103.494	0.241	0.283
-613.273	318.741	-0.097	-0.184
-612.259	148.453	0.123	0.165
-611.244	184.397	-0.145	0.214
-610.230	-200.000	-0.001	-0.017
-609.215	-200.000	-0.001	0.280
-608.201	781.984	-0.027	-0.075
-607.186	89.632	-0.144	-0.160
-606.171	-85.184	-0.052	0.016
-605.157	557.099	-0.102	-0.246
-604.142	-158.281	-0.201	0.012
-603.128	-200.000	0.039	-0.393
-602.113	-151.901	0.206	-0.015
-601.098	-22.909	-0.312	-0.188
-600.084	-89.761	0.098	0.029
-599.069	-123.101	0.159	-0.025
-598.055	-58.119	0.070	-0.030
-597.040	63.947	-0.163	-0.163
-596.025	800.000	-0.068	0.190
-595.011	-200.000	0.007	0.093
-593.996	322.570	0.064	-0.121
-592.982	-200.000	0.053	-0.235
-591.967	800.000	0.075	0.302
-590.952	48.836	0.045	0.042
-589.938	-144.461	-0.123	0.011
-588.923	-200.000	-0.038	0.256
-587.909	-200.000	-0.013	0.167
-586.894	370.260	0.111	-0.224
-585.879	114.522	0.197	-0.239
-584.865	553.657	-0.060	-0.145
-583.850	-114.422	0.303	-0.058
-582.836	98.735	-0.113	-0.129
-581.821	-11.871	0.076	0.050
-580.806	369.506	-0.202	-0.407
-579.792	118.745	-0.105	-0.130
-578.777	65.776	0.260	-0.262
-577.763	-200.000	-0.001	0.105
-576.748	75.347	-0.069	-0.072
-575.733	800.000	-0.107	-0.314
-574.719	35.955	-0.263	0.230
-573.704	-85.679	-0.193	-0.060
-572.690	13.093	-0.049	-0.038
-571.675	-166.798	0.102	-0.004
-570.661	178.144	-0.235	-0.342
-569.646	-73.512	-0.135	-0.049
-568.631	-43.603	-0.308	-0.155
-567.617	30.190	-0.285	0.242
-566.602	-159.844	0.271	0.015
-565.588	-127.500	0.227	-0.033
-564.573	129.357	-0.349	0.444
-563.558	426.438	0.206	-0.442
-562.544	474.059	0.049	-0.110
-561.529	37.872	-0.122	-0.108
-560.515	-134.656	-0.172	-0.021
-559.500	-159.055	-0.327	-0.018
-558.485	-182.360	0.178	-0.003
-557.471	-92.884	0.279	-0.078
-556.456	456.168	0.098	0.217
-555.442	24.736	-0.050	0.041
-554.427	-115.545	0.434	0.081
-553.412	-81.390	-0.217	-0.071
-552.398	116.339	-0.056	-0.068
-551.383	-58.346	0.238	-0.103
-550.369	-200.000	0.015	-0.105
-549.354	184.012	-0.148	0.217
-548.339	-67.071	0.200	0.078
-547.325	-132.646	-0.272	0.035
-546.310	109.573	0.223	-0.266
-545.296	3.736	-0.322	-0.234
-544.281	-50.803	0.015	0.007
-543.266	190.724	-0.091	-0.136
-542.252	-200.000	0.025	0.267
-541.237	-200.000	0.011	0.346
-540.223	-57.420	-0.071	-0.031
-539.208	569.646	0.042	-0.102
-538.193	-200.000	0.045	0.259
-537.179	177.118	0.363	-0.526
-536.164	438.177	0.095	-0.206
-535.150	43.520	-0.391	0.355
-534.135	209.689	0.160	0.250
-533.121	-200.000	0.002	0.206
-532.106	-41.329	0.035	-0.018
-531.091	-46.289	0.019	0.009
-530.077	-67.707	0.322	-0.125
-529.062	-200.000	0.035	-0.251
-528.048	90.696	-0.066	-0.073
-527.033	800.000	0.044	0.165
-526.018	19.646	-0.324	0.259
-525.004	-66.157	-0.298	-0.118
-523.989	44.634	-0.158	-0.144
-522.975	-157.098	0.123	-0.007
-521.960	28.780	-0.265	-0.223
-520.945	-126.840	0.096	0.014
-519.931	-50.081	0.492	-0.232
-518.916	736.938	0.102	-0.273
-517.902	-1.480	0.230	0.161
-516.887	337.301	0.236	0.456
-515.872	-162.452	-0.307	0.015
-514.858	-140.269	-0.052	-0.005
-513.843	-114.006	0.402	-0.077
-512.829	71.336	-0.240	0.247
-511.814	60.864	-0.048	0.047
-510.799	-28.608	-0.275	-0.158
-509.785	-20.411	-0.258	-0.158
-508.770	272.026	-0.005	-0.010
-507.756	215.086	-0.217	0.342
-506.741	-72.197	0.194	0.072
-505.726	-200.000	0.003	0.065
-504.712	360.649	0.109	0.217
-503.697	7.846	-0.204	0.152
-502.683	-25.462	-0.208	0.122
-501.668	-100.964	-0.296	-0.072
-500.653	629.601	-0.098	-0.246
-499.639	81.460	-0.049	0.053
-498.624	800.000	0.068	-0.230
-497.610	-54.095	-0.126	0.057
-496.595	258.250	0.085	0.145
-495.581	800.000	-0.095	0.338
-494.566	-78.926	-0.089	0.030
-493.551	52.693	-0.031	0.029
-492.537	74.846	0.157	-0.164
-491.522	-200.000	-0.016	-0.080
-490.508	47.775	0.193	-0.178
-489.493	-200.000	-0.010	0.118
-488.478	-93.313	-0.146	-0.040
-487.464	44.361	-0.101	-0.092
-486.449	408.580	0.129	0.271
-485.435	11.645	-0.283	0.216
-484.420	68.114	0.088	0.089
-483.405	-49.704	-0.036	0.017
-482.391	164.721	0.118	0.166
-481.376	243.386	0.047	-0.078
-480.362	292.769	-0.149	-0.269
-479.347	-200.000	-0.118	-0.570
-478.332	0.774	-0.079	0.056
-477.318	100.918	0.206	-0.238
-476.303	-200.000	-0.028	0.341
-475.289	800.000	-0.065	0.216
-474.274	112.499	-0.029	0.035
-473.259	-200.000	-0.024	0.208
-472.245	-200.000	0.001	0.074
-471.230	-49.166	-0.083	0.039
-470.216	800.000	-0.032	-0.135
-469.201	300.662	0.115	-0.211
-468.186	4.844	-0.161	0.118
-467.172	69.883	0.315	-0.323
-466.157	-44.059	0.274	0.137
-465.143	580.868	-0.158	-0.384
-464.128	88.051	-0.171	0.188
-463.113	800.000	-0.015	0.051
-462.099	800.000	-0.029	-0.113
-461.084	-120.075	-0.400	0.068
-460.070	0.930	0.149	0.106
-459.055	-200.000	-0.008	-0.084
-458.040	-18.256	0.112	0.069
-457.026	-81.026	0.176	-0.058
-456.011	800.000	-0.042	0.117
-454.997	233.054	-0.029	0.047
-453.982	800.000	0.009	0.035
-452.968	-32.009	-0.402	-0.223
-451.953	62.328	-0.198	0.196
-450.938	-70.307	0.258	0.097
-449.924	-65.504	-0.046	-0.018
-448.909	-70.198	0.520	-0.196
-447.895	-200.000	-0.001	-0.050
-446.880	-62.555	0.164	-0.067
-445.865	-147.692	0.116	0.010
-444.851	2.417	-0.039	0.028
-443.836	144.964	0.231	-0.307
-442.822	-2.051	-0.437	0.304
-441.807	-200.000	0.031	0.165
-440.792	6.030	0.220	-0.162
-439.778	330.808	0.120	-0.228
-438.763	164.107	-0.104	0.145
-437.749	-35.555	0.146	-0.079
-436.734	457.723	0.091	0.200
-435.719	800.000	-0.030	-0.111
-434.705	-133.730	0.148	-0.018
-433.690	123.841	0.146	-0.182
-432.676	57.490	0.062	0.060
-431.661	51.885	0.174	-0.164
-430.646	-200.000	-0.030	-0.216
-429.632	449.750	0.034	-0.075
-428.617	33.954	0.139	0.119
-427.603	241.474	-0.090	0.148
-426.588	-134.664	0.116	-0.014
-425.573	-47.178	-0.246	0.119
-424.559	65.799	0.188	0.189
-423.544	303.931	0.144	0.264
-422.530	-97.179	0.207	-0.053
-421.515	-62.916	-0.260	-0.106
-420.500	-79.324	-0.054	0.018
-419.486	-125.678	-0.187	0.028
-418.471	-30.544	0.122	0.069
-417.457	73.692	-0.084	0.087
-416.442	-140.816	-0.084	0.009
-415.428	29.151	-0.195	0.164
-414.413	-110.219	0.307	0.063
-413.398	-200.000	-0.022	-0.352
-412.384	-77.553	0.162	-0.056
-411.369	43.777	0.014	0.012
-410.355	20.370	-0.238	0.191
-409.340	800.000	0.044	-0.150
-408.325	-67.765	-0.107	-0.042
-407.311	-200.000	0.006	-0.045
-406.296	-78.301	-0.166	0.056
-405.282	-16.118	0.125	0.079
-404.267	95.646	0.144	-0.162
-403.252	6.875	0.130	0.096
-402.238	112.166	-0.272	-0.326
-401.223	51.625	0.125	-0.118
-400.209	-36.513	-0.129	0.069
-399.194	-162.582	-0.264	0.013
-398.179	25.220	-0.336	-0.276
-397.165	-187.105	0.189	-0.003
-396.150	-200.000	0.012	0.141
-395.136	-85.166	0.105	0.033
-394.121	-75.304	0.237	0.084
-393.106	682.222	0.049	0.125
-392.092	-200.000	-0.012	-0.092
-391.077	800.000	-0.046	-0.173
-390.063	376.532	-0.093	0.188
-389.048	-74.437	-0.111	0.040
-388.033	-200.000	-0.067	0.356
-387.019	143.624	-0.168	-0.221
-386.004	-141.520	0.187	-0.019
-384.990	-51.375	-0.253	0.117
-383.975	-85.127	-0.091	0.028
-382.960	201.872	0.076	0.116
-381.946	-61.305	-0.174	-0.072
-380.931	49.107	0.203	0.189
-379.917	89.326	-0.011	-0.012
-378.902	-3.896	-0.113	0.078
-377.888	-200.000	-0.029	-0.534
-376.873	53.020	0.044	-0.042
-375.858	-200.000	-0.010	0.201
-374.844	-8.381	-0.196	0.131
-373.829	516.120	-0.111	0.257
-372.815	-200.000	-0.005	0.090
-371.800	92.661	-0.105	-0.117
-370.785	-90.247	0.207	0.059
-369.771	267.767	-0.160	0.276
-368.756	-105.261	0.208	0.047
-367.742	462.153	0.135	0.298
-366.727	800.000	-0.011	-0.037
-365.712	-62.630	-0.106	0.043
-364.698	102.071	-0.049	-0.056
-363.683	64.421	0.102	-0.102
-362.669	-200.000	-0.038	-0.240
-361.654	161.981	-0.057	0.079
-360.639	55.859	0.185	0.177
-359.625	128.732	0.065	0.082
-358.610	-134.973	0.143	-0.017
-357.596	56.488	-0.103	-0.099
-356.581	8.010	0.080	-0.059
-355.566	16.811	-0.188	0.147
-354.552	85.663	0.233	-0.253
-353.537	800.000	0.104	-0.363
-352.523	-65.809	0.142	-0.056
-351.508	-200.000	0.013	0.273
-350.493	77.248	0.210	0.221
-349.479	705.412	-0.135	0.351
-348.464	142.225	0.241	0.315
-347.450	23.528	-0.117	0.095
-346.435	162.281	-0.059	0.082
-345.420	45.390	-0.097	-0.089
-344.406	800.000	-0.028	0.081
-343.391	-99.407	-0.366	-0.091
-342.377	-143.842	0.028	-0.003
-341.362	70.018	-0.325	-0.331
-340.348	-153.534	0.207	-0.014
-339.333	221.244	0.115	-0.183
-338.318	-160.480	0.154	0.008
-337.304	-167.991	-0.158	-0.006
-336.289	54.932	-0.198	0.188
-335.275	-200.000	-0.011	-0.087
-334.260	-79.315	0.141	-0.047
-333.245	-200.000	0.048	-0.297
-332.231	54.726	0.215	-0.205
-331.216	-200.000	-0.052	0.280
-330.202	-118.891	-0.165	-0.029
-329.187	-200.000	-0.003	-0.160
-328.172	277.353	0.120	0.211
-327.158	-145.478	-0.136	-0.012
-326.143	-176.041	0.095	0.002
-325.129	201.748	-0.141	0.214
-324.114	-200.000	0.006	-0.025
-323.099	-39.186	-0.133	-0.069
-322.085	47.389	-0.156	-0.144
-321.070	-101.725	-0.112	-0.027
-320.056	-102.538	0.274	0.065
-319.041	-97.432	0.155	0.040
-318.026	58.376	0.201	0.195
-317.012	800.000	0.036	0.140
-315.997	690.081	0.050	0.130
-314.983	9.796	-0.272	-0.203
-313.968	379.514	-0.075	-0.151
-312.953	56.447	-0.343	0.328
-311.939	15.521	-0.335	0.259
-310.924	-78.954	-0.038	-0.013
-309.910	149.251	0.117	0.156
-308.895	150.308	-0.157	-0.209
-307.880	74.148	0.166	-0.172
-306.866	121.664	0.027	0.033
-305.851	-200.000	-0.044	0.357
-304.837	528.269	-0.179	0.417
-303.822	-200.000	-0.024	0.315
-302.807	-47.850	0.291	-0.139
-301.793	-115.818	0.280	-0.052
-300.778	-200.000	-0.319	0.000
-299.764	408.686	-0.042	0.088
-298.749	538.643	-0.128	0.299
-297.735	614.178	0.028	0.069
-296.720	401.546	0.179	0.370
-295.705	-200.000	0.000	-0.174
-294.691	131.398	0.017	-0.022
-293.676	83.465	-0.199	-0.214
-292.662	-145.422	0.161	0.014
-291.647	25.306	-0.245	0.201
-290.632	-126.325	0.273	-0.040
-289.618	-20.554	-0.106	0.064
-288.603	276.597	0.114	0.200
-287.589	229.264	0.139	-0.223
-286.574	-155.852	0.622	0.039
-285.559	27.247	-0.347	-0.287
-284.545	589.030	-0.202	0.489
-283.530	-98.877	-0.191	0.048
-282.516	20.748	0.194	-0.155
-281.501	368.381	0.085	-0.169
-280.486	20.870	0.182	0.146
-279.472	329.363	-0.086	-0.163
-278.457	-127.833	0.234	0.033
-277.443	22.998	-0.110	0.089
-276.428	-83.798	0.309	0.097
-275.413	-22.198	0.178	0.106
-274.399	-200.000	-0.025	0.189
-273.384	-200.000	-0.001	0.203
-272.370	800.000	0.017	-0.068
-271.355	800.000	-0.036	-0.138
-270.340	-94.273	0.417	-0.112
-269.326	-28.819	-0.093	0.053
-268.311	-137.345	0.275	0.031
-267.297	-83.207	0.247	0.078
-266.282	-125.453	0.056	-0.008
-265.267	-29.501	-0.385	0.217
-264.253	409.617	-0.054	0.112
-263.238	-40.160	-0.094	0.048
-262.224	-108.995	0.188	-0.039
-261.209	143.235	0.273	0.357
-260.195	-183.913	-0.207	-0.003
-259.180	-200.000	0.012	0.196
-258.165	-200.000	-0.032	-0.142
-257.151	-55.392	-0.307	-0.135
-256.136	-66.687	-0.281	-0.109
-255.122	-200.000	0.044	-0.221
-254.107	-48.472	0.230	-0.109
-253.092	-3.340	0.182	0.125
-252.078	800.000	-0.085	0.244
-251.063	-121.076	0.138	-0.023
-250.049	-156.583	0.189	0.012
-249.034	800.000	0.044	0.188
-248.019	-88.541	0.197	0.058
-247.005	-200.000	0.010	0.051
-245.990	23.497	0.145	-0.117
-244.976	800.000	0.171	-0.472
-243.961	-49.869	-0.138	0.064
-242.946	58.769	0.155	0.150
-241.932	800.000	0.062	-0.175
-240.917	-32.272	-0.126	-0.069
-239.903	800.000	-0.099	0.274
-238.888	361.242	-0.028	0.055
-237.873	-154.873	0.110	0.007
-236.859	199.241	-0.051	-0.078
-235.844	-112.166	-0.187	0.037
-234.830	5.276	0.481	-0.348
-233.815	7.879	-0.193	-0.142
-232.800	-140.811	0.340	0.034
-231.786	-200.000	-0.076	0.389
-230.771	-45.003	-0.262	0.128
-229.757	-92.178	-0.151	0.042
-228.742	-97.737	-0.248	0.063
-227.727	52.021	0.226	-0.211
-226.713	-24.381	0.232	-0.136
-225.698	90.954	0.074	0.081
-224.684	-159.042	-0.263	0.015
-223.669	134.948	0.178	0.227
-222.655	-89.750	0.104	0.030
-221.640	-1.606	-0.386	0.267
-220.625	800.000	0.085	-0.288
-219.611	-152.493	0.087	-0.006
-218.596	-200.000	0.013	-0.141
-217.582	-200.000	0.006	-0.037
-216.567	231.204	0.130	-0.209
-215.552	-200.000	0.005	0.461
-214.538	93.860	0.197	-0.219
-213.523	-200.000	-0.006	0.263
-212.509	-200.000	-0.014	0.196
-211.494	-200.000	0.022	0.168
-210.479	77.333	-0.198	0.207
-209.465	319.771	0.038	-0.070
-208.450	-200.000	0.068	-0.365
-207.436	7.141	0.046	-0.034
-206.421	0.640	0.061	-0.043
-205.406	186.067	-0.169	0.246
-204.392	134.323	0.156	-0.199
-203.377	138.686	0.097	0.125
-202.363	616.670	-0.087	0.214
-201.348	-59.212	-0.318	-0.134
-200.333	-200.000	-0.005	0.066
-199.319	-26.121	0.261	0.150
-198.304	-136.253	-0.144	-0.017
-197.290	-139.409	0.104	0.011
-196.275	498.157	0.012	-0.028
-195.260	-171.522	0.260	-0.008
-194.246	-149.571	0.186	-0.014
-193.231	-200.000	0.021	-0.245
-192.217	311.724	0.149	-0.275
-191.202	-66.912	-0.307	0.119
-190.187	-200.000	-0.019	-0.119
-189.173	-200.000	-0.009	-0.185
-188.158	-83.305	-0.237	0.075
-187.144	664.471	-0.112	-0.282
-186.129	800.000	0.047	-0.137
-185.114	393.320	0.220	-0.449
-184.100	241.084	-0.128	0.209
-183.085	119.379	-0.120	-0.146
-182.071	-81.451	-0.158	0.051
-181.056	-138.846	0.247	-0.026
-180.042	53.084	-0.237	-0.222
-179.027	209.456	0.064	0.098
-178.012	-152.570	-0.212	-0.015
-176.998	-90.986	0.430	-0.121
-175.983	-169.280	-0.276	-0.010
-174.969	463.788	-0.024	0.052
-173.954	800.000	-0.059	-0.162
-172.939	-158.621	-0.218	0.012
-171.925	43.439	-0.136	0.122
-170.910	-54.576	-0.470	-0.208
-169.896	-200.000	0.018	0.137
-168.881	-75.481	-0.092	0.032
-167.866	53.362	0.094	-0.088
-166.852	17.814	0.032	-0.025
-165.837	107.661	-0.160	0.187
-164.823	-35.770	0.172	-0.091
-163.808	-110.227	-0.035	0.007
-162.793	-200.000	-0.046	0.275
-161.779	333.684	-0.066	-0.124
-160.764	98.956	-0.070	-0.080
-159.750	-135.920	-0.348	0.040
-158.735	-41.892	0.254	-0.127
-157.720	139.852	0.108	-0.139
-156.706	-139.448	0.224	-0.023
-155.691	-101.724	0.072	0.017
-154.677	-105.425	0.380	-0.085
-153.662	-110.457	-0.135	0.027
-152.647	-73.507	-0.304	-0.109
-151.633	420.245	0.222	0.465
-150.618	-200.000	0.016	-0.343
-149.604	-44.424	0.160	0.078
-148.589	43.035	-0.292	-0.261
-147.574	5.085	0.123	-0.088
-146.560	-112.239	-0.103	-0.020
-145.545	-200.000	-0.027	0.120
-144.531	-85.365	-0.269	-0.082
-143.516	78.708	-0.204	0.214
-142.502	-89.340	0.114	-0.033
-141.487	536.357	0.006	0.013
-140.472	-6.854	-0.219	0.146
-139.458	-117.653	0.132	0.023
-138.443	-23.626	0.285	0.168
-137.429	-112.955	0.074	0.014
-136.414	-29.270	0.222	0.124
-135.399	-200.000	0.002	0.051
-134.385	398.899	-0.121	0.248
-133.370	51.568	0.047	-0.044
-132.356	-24.081	0.167	0.098
-131.341	307.141	-0.117	-0.214
-130.326	-66.318	-0.100	-0.039
-129.312	-112.119	0.269	-0.053
-128.297	140.693	-0.268	0.346
-127.283	-154.630	0.324	-0.021
-126.268	296.926	0.077	0.138
-125.253	-144.662	-0.102	0.009
-124.239	125.659	0.099	-0.123
-123.224	-200.000	-0.001	-0.338
-122.210	800.000	0.068	-0.220
-121.195	212.773	0.087	0.134
-120.180	-200.000	0.026	0.142
