DTS Sentinel unit serial number:	SN413079Multiplexer serial number:	ORYXHardware model number:	OX4-SRSoftware version number:	ORYX F/W v4.00 Oryx Data Collector v3.7.2.0data status	okinstallation	princeton_trtdifferential loss correction	single-endedforward channel	channel 1reverse channel	N/Adate	2019/09/15time	11:30:35forward acquisition time	60.00reverse acquisition time	0.00gamma	496.2192k internal	0.2308k external	0.2308temperature offset calibration	0.9986default loss term (dB/km)	0.3790temperature slope calibration	1.0000multiplexer offset coefficient	1.0000multiplexer slope coefficient	1.0000fibre end	0.00T internal ref (°C)	34.31T ext. ref 1 (°C)	5.01T ext. ref 2 (°C)	29.89length (m)	temperature (°C)	Stokes	anti-Stokes-747.200	154.863	-0.087	0.122
-746.185	-147.771	-0.286	0.024
-745.171	390.476	0.119	0.252
-744.156	-138.740	0.088	0.010
-743.142	-200.000	0.004	-0.150
-742.127	-60.463	-0.141	0.061
-741.112	-121.389	0.080	0.014
-740.098	-200.000	-0.008	0.325
-739.083	85.720	-0.152	0.170
-738.069	-111.104	-0.196	0.041
-737.054	-71.495	-0.210	0.080
-736.039	80.558	-0.133	-0.146
-735.025	800.000	0.093	0.361
-734.010	-200.000	0.022	-0.142
-732.996	-39.436	-0.157	-0.084
-731.981	120.570	-0.260	-0.328
-730.966	460.167	0.132	-0.298
-729.952	-96.172	-0.177	-0.048
-728.937	439.878	-0.044	-0.098
-727.923	-56.300	-0.113	-0.051
-726.908	-200.000	-0.102	-0.505
-725.894	531.860	0.181	-0.434
-724.879	-165.359	-0.174	0.008
-723.864	464.529	-0.152	0.345
-722.850	-62.352	0.304	0.129
-721.835	-200.000	0.043	-0.273
-720.821	38.089	0.116	-0.105
-719.806	-17.724	0.062	-0.040
-718.791	-8.096	0.317	-0.217
-717.777	391.474	0.099	0.210
-716.762	-200.000	-0.016	-0.253
-715.748	129.535	-0.095	0.123
-714.733	-23.360	0.190	0.116
-713.718	298.205	0.116	-0.217
-712.704	670.628	0.065	-0.172
-711.689	-145.524	0.186	-0.017
-710.675	772.738	0.062	-0.172
-709.660	-146.493	0.048	0.004
-708.645	-100.767	0.133	-0.033
-707.631	-91.315	-0.401	-0.116
-706.616	-200.000	0.019	-0.109
-705.602	197.953	-0.074	-0.115
-704.587	6.234	0.122	-0.092
-703.572	-5.696	-0.226	-0.157
-702.558	192.069	0.049	0.076
-701.543	58.684	-0.055	0.055
-700.529	-200.000	-0.067	-0.359
-699.514	35.874	-0.210	0.188
-698.499	43.191	0.116	-0.107
-697.485	97.484	0.055	-0.064
-696.470	-88.219	-0.107	-0.033
-695.456	29.943	0.280	-0.242
-694.441	-139.806	0.180	-0.019
-693.426	-200.000	-0.018	-0.231
-692.412	-44.347	-0.292	-0.148
-691.397	-200.000	-0.015	-0.348
-690.383	-34.157	0.233	-0.130
-689.368	94.272	-0.296	0.341
-688.354	-23.544	-0.178	-0.108
-687.339	-1.665	-0.242	-0.173
-686.324	83.426	0.213	0.235
-685.310	-104.194	0.239	0.056
-684.295	-117.756	-0.237	0.043
-683.281	172.561	0.111	-0.162
-682.266	39.267	0.044	0.040
-681.251	-90.447	-0.374	0.110
-680.237	-155.604	-0.125	0.008
-679.222	-100.403	-0.361	0.091
-678.208	-200.000	-0.116	0.561
-677.193	22.736	0.214	-0.178
-676.178	-46.612	-0.202	0.100
-675.164	429.017	-0.171	0.374
-674.149	139.202	-0.095	-0.127
-673.135	268.236	-0.082	0.146
-672.120	49.835	0.168	0.160
-671.105	-17.454	0.352	0.224
-670.091	673.350	0.095	-0.249
-669.076	222.022	0.049	-0.080
-668.062	56.017	-0.142	-0.139
-667.047	-39.953	0.051	0.027
-666.032	-200.000	0.029	-0.220
-665.018	500.714	-0.070	0.164
-664.003	70.046	-0.075	-0.079
-662.989	-187.677	-0.242	0.003
-661.974	-200.000	-0.005	-0.244
-660.959	9.649	0.195	-0.150
-659.945	-200.000	0.021	-0.310
-658.930	240.298	0.239	-0.403
-657.916	130.599	-0.186	-0.241
-656.901	-120.532	-0.389	0.067
-655.886	-93.800	0.183	0.051
-654.872	-30.387	0.141	-0.081
-653.857	22.455	0.218	-0.181
-652.843	66.522	0.235	-0.242
-651.828	1.625	0.046	-0.033
-650.814	87.801	-0.083	-0.093
-649.799	380.858	-0.028	-0.058
-648.784	-166.983	-0.101	-0.004
-647.770	-13.016	0.212	0.139
-646.755	-200.000	-0.007	0.034
-645.741	-200.000	-0.030	-0.182
-644.726	-200.000	-0.009	-0.068
-643.711	-200.000	-0.019	-0.124
-642.697	-200.000	-0.005	-0.207
-641.682	167.639	-0.182	-0.262
-640.668	-194.800	-0.173	-0.001
-639.653	-166.093	-0.286	-0.012
-638.638	54.230	-0.174	0.170
-637.624	80.150	-0.074	-0.080
-636.609	-200.000	-0.016	0.158
-635.595	-135.259	0.143	0.017
-634.580	218.986	0.055	0.089
-633.565	15.782	0.139	-0.111
-632.551	-66.665	0.057	-0.023
-631.536	-200.000	0.005	0.358
-630.522	220.006	-0.149	0.241
-629.507	0.500	0.347	0.251
-628.492	718.189	0.061	-0.163
-627.478	-83.046	0.013	0.004
-626.463	18.870	-0.240	0.194
-625.449	-31.719	-0.400	-0.227
-624.434	34.457	0.255	-0.226
-623.419	-108.191	-0.332	-0.073
-622.405	558.745	0.092	-0.223
-621.390	-115.954	0.379	0.072
-620.376	-200.000	-0.014	0.229
-619.361	-40.440	0.221	0.116
-618.346	-53.964	-0.199	-0.092
-617.332	111.972	-0.064	-0.079
-616.317	50.735	-0.071	0.068
-615.303	515.190	-0.098	0.231
-614.288	-192.940	0.100	-0.001
-613.273	-113.498	-0.326	0.065
-612.259	-84.740	-0.217	-0.069
-611.244	481.471	0.042	-0.096
-610.230	-43.564	-0.060	-0.031
-609.215	5.175	0.123	-0.092
-608.201	-200.000	-0.011	-0.147
-607.186	182.329	-0.059	0.088
-606.171	-82.044	-0.445	0.147
-605.157	139.761	-0.172	-0.229
-604.142	-149.752	0.145	0.012
-603.128	-53.823	-0.118	-0.054
-602.113	-132.311	0.362	0.047
-601.098	-54.732	0.234	-0.107
-600.084	800.000	0.069	0.199
-599.069	563.334	0.055	0.135
-598.055	-200.000	-0.029	0.287
-597.040	-27.161	0.149	-0.088
-596.025	-104.850	-0.440	0.102
-595.011	326.913	-0.069	-0.134
-593.996	-86.357	0.378	0.118
-592.982	-35.351	-0.215	-0.118
-591.967	78.380	0.064	-0.069
-590.952	-151.983	0.161	-0.012
-589.938	-200.000	-0.021	-0.286
-588.923	642.472	-0.102	0.263
-587.909	-200.000	0.024	0.372
-586.894	314.488	0.105	-0.199
-585.879	-32.287	0.154	-0.087
-584.865	51.137	0.125	0.120
-583.850	529.683	0.020	-0.047
-582.836	-122.971	-0.160	-0.026
-581.821	-117.553	0.247	0.045
-580.806	101.587	0.051	-0.060
-579.792	-76.026	-0.147	0.052
-578.777	39.607	-0.288	0.261
-577.763	424.783	-0.116	-0.251
-576.748	-57.542	0.309	-0.137
-575.733	405.567	-0.127	-0.270
-574.719	-200.000	0.004	0.334
-573.704	-74.444	0.185	0.067
-572.690	-135.376	-0.222	-0.027
-571.675	-200.000	0.063	0.393
-570.661	-37.125	0.253	0.137
-569.646	21.902	0.100	-0.082
-568.631	86.672	-0.048	-0.054
-567.617	-103.940	-0.298	0.070
-566.602	43.859	0.061	0.057
-565.588	-31.711	0.135	0.076
-564.573	800.000	-0.100	-0.307
-563.558	-200.000	0.044	-0.318
-562.544	-128.228	0.149	0.022
-561.529	520.802	0.044	-0.104
-560.515	82.216	0.139	-0.152
-559.500	-6.472	-0.153	0.105
-558.485	-104.284	-0.264	0.062
-557.471	-200.000	-0.006	-0.141
-556.456	92.588	0.057	0.064
-555.442	800.000	0.152	-0.458
-554.427	364.886	0.086	-0.175
-553.412	-200.000	-0.006	-0.034
-552.398	69.501	-0.090	0.093
-551.383	-200.000	0.042	0.242
-550.369	-139.770	-0.262	-0.028
-549.354	155.926	-0.111	-0.154
-548.339	137.492	0.112	0.148
-547.325	87.435	-0.127	-0.141
-546.310	-77.048	0.038	-0.013
-545.296	-200.000	0.006	-0.392
-544.281	800.000	-0.052	0.164
-543.266	251.554	-0.165	0.284
-542.252	-200.000	0.016	0.144
-541.237	184.090	-0.127	0.190
-540.223	-75.398	0.122	-0.044
-539.208	-125.462	0.068	0.010
-538.193	-12.192	-0.106	-0.070
-537.179	800.000	0.095	-0.279
-536.164	800.000	-0.066	0.208
-535.150	800.000	-0.028	-0.082
-534.135	91.706	-0.184	-0.209
-533.121	-200.000	0.027	0.202
-532.106	-200.000	0.026	0.187
-531.091	561.613	0.059	-0.143
-530.077	-52.920	-0.209	0.097
-529.062	-51.681	-0.187	-0.088
-528.048	-81.549	0.221	-0.073
-527.033	52.424	-0.132	-0.127
-526.018	-149.335	0.362	-0.029
-525.004	2.359	-0.155	-0.113
-523.989	800.000	-0.097	0.277
-522.975	-127.285	0.207	-0.030
-521.960	-70.594	0.110	0.042
-520.945	-200.000	-0.004	-0.096
-519.931	-35.770	-0.149	-0.081
-518.916	-39.352	-0.107	-0.057
-517.902	800.000	-0.081	0.236
-516.887	-82.396	0.188	-0.062
-515.872	-200.000	-0.005	-0.222
-514.858	243.742	-0.051	-0.087
-513.843	703.971	0.049	0.131
-512.829	-200.000	0.030	0.227
-511.814	769.241	0.097	0.266
-510.799	-98.171	-0.130	0.034
-509.785	549.053	0.097	-0.234
-508.770	-70.233	-0.136	0.052
-507.756	29.154	0.009	0.008
-506.741	-200.000	0.004	0.151
-505.726	387.097	-0.138	-0.288
-504.712	-44.699	0.182	0.091
-503.697	102.306	0.195	0.230
-502.683	-96.329	0.192	-0.051
-501.668	-110.412	0.125	0.026
-500.653	-51.089	0.262	0.124
-499.639	-114.124	0.051	-0.010
-498.624	-105.849	0.124	-0.028
-497.610	-105.788	-0.244	-0.055
-496.595	777.313	0.021	-0.057
-495.581	-33.943	0.269	0.149
-494.566	-133.853	0.088	0.011
-493.551	59.136	0.278	-0.276
-492.537	240.987	-0.097	0.164
-491.522	-118.099	0.217	0.039
-490.508	-72.413	0.199	0.074
-489.493	-27.678	0.238	-0.139
-488.478	-44.968	0.177	0.089
-487.464	310.091	-0.039	-0.073
-486.449	-200.000	-0.006	-0.166
-485.435	785.446	0.040	0.110
-484.420	206.953	0.138	0.216
-483.405	147.608	-0.044	-0.060
-482.391	-71.493	0.037	0.014
-481.376	-200.000	-0.045	0.299
-480.362	502.384	-0.132	-0.306
-479.347	21.756	-0.176	-0.144
-478.332	-200.000	0.036	0.292
-477.318	800.000	-0.035	-0.115
-476.303	8.169	-0.134	0.101
-475.289	432.049	0.063	0.137
-474.274	-13.731	0.057	-0.037
-473.259	-200.000	-0.012	0.299
-472.245	23.410	-0.208	0.172
-471.230	-200.000	0.092	-0.406
-470.216	-120.113	0.208	-0.036
-469.201	-200.000	0.009	-0.183
-468.186	-174.166	-0.325	-0.010
-467.172	-162.727	-0.413	0.020
-466.157	-137.862	-0.330	0.037
-465.143	800.000	0.045	-0.178
-464.128	505.562	-0.085	0.198
-463.113	-62.862	-0.224	-0.093
-462.099	194.379	-0.253	-0.386
-461.084	776.213	0.116	0.318
-460.070	-67.269	-0.099	0.039
-459.055	800.000	-0.164	-0.503
-458.040	-131.572	0.095	0.013
-457.026	-75.641	0.098	0.035
-456.011	13.826	-0.136	0.106
-454.997	34.547	0.260	0.229
-453.982	-200.000	-0.023	0.150
-452.968	70.698	-0.219	-0.228
-451.953	516.091	0.113	-0.265
-450.938	120.335	0.126	0.157
-449.924	-110.257	0.393	0.082
-448.909	143.313	-0.205	0.274
-447.895	72.709	0.250	0.262
-446.880	-200.000	0.088	-0.426
-445.865	219.513	0.100	0.161
-444.851	-40.909	0.209	-0.109
-443.836	332.340	0.066	-0.127
-442.822	-64.294	-0.358	0.147
-441.807	-118.387	0.279	-0.050
-440.792	102.937	0.275	-0.324
-439.778	-175.651	0.105	-0.003
-438.763	247.503	0.208	0.353
-437.749	-4.034	0.270	-0.188
-436.734	-79.180	0.113	0.039
-435.719	-164.886	-0.172	-0.008
-434.705	45.049	0.048	0.044
-433.690	-200.000	-0.011	-0.179
-432.676	800.000	0.010	0.037
-431.661	13.940	-0.326	0.254
-430.646	-174.488	-0.027	0.001
-429.632	-82.132	-0.216	0.071
-428.617	-101.753	-0.133	-0.032
-427.603	800.000	-0.094	0.389
-426.588	-133.033	-0.148	0.019
-425.573	11.755	-0.096	-0.074
-424.559	-200.000	0.057	0.266
-423.544	208.852	0.094	0.147
-422.530	-200.000	0.000	0.085
-421.515	15.971	-0.041	0.032
-420.500	-200.000	0.002	-0.031
-419.486	34.382	-0.101	-0.089
-418.471	-167.075	-0.334	0.014
-417.457	-200.000	0.001	-0.075
-416.442	57.598	-0.275	0.270
-415.428	17.724	0.150	0.120
-414.413	18.845	-0.089	0.071
-413.398	-200.000	0.047	0.325
-412.384	375.210	-0.170	0.349
-411.369	-162.065	0.195	-0.010
-410.355	-142.471	0.040	-0.004
-409.340	-129.402	-0.354	-0.049
-408.325	-151.375	-0.121	-0.009
-407.311	77.416	0.209	0.223
-406.296	401.261	0.051	-0.107
-405.282	11.969	0.073	0.056
-404.267	292.287	0.112	0.205
-403.252	-200.000	0.061	-0.387
-402.238	270.549	-0.062	-0.109
-401.223	-114.587	-0.180	-0.035
-400.209	-86.690	-0.235	-0.072
-399.194	-116.674	-0.203	0.037
-398.179	-127.435	-0.102	-0.015
-397.165	40.418	0.172	-0.155
-396.150	8.582	-0.086	-0.065
-395.136	92.114	0.198	0.224
-394.121	90.385	0.307	0.345
-393.106	-123.915	-0.163	0.026
-392.092	-172.720	-0.363	-0.011
-391.077	-77.061	0.110	0.039
-390.063	-16.333	-0.232	0.148
-389.048	-200.000	0.008	-0.149
-388.033	-127.436	0.301	-0.044
-387.019	-200.000	0.026	0.429
-386.004	-52.696	0.321	0.148
-384.990	-156.668	-0.390	-0.024
-383.975	-200.000	-0.064	0.458
-382.960	-200.000	0.251	0.000
-381.946	-200.000	-0.000	0.193
-380.931	-200.000	-0.003	0.056
-379.917	-76.337	0.142	0.050
-378.902	7.357	-0.281	-0.211
-377.888	161.915	-0.202	0.284
-376.873	-200.000	-0.023	-0.143
-375.858	-200.000	0.035	0.262
-374.844	-72.105	0.355	-0.132
-373.829	129.577	-0.107	0.137
-372.815	-70.018	-0.400	0.152
-371.800	118.735	0.056	0.069
-370.785	-91.175	-0.229	0.066
-369.771	54.874	-0.286	-0.277
-368.756	-82.984	0.159	-0.051
-367.742	-141.830	-0.399	-0.040
-366.727	-49.453	0.315	-0.150
-365.712	316.437	-0.029	-0.055
-364.698	800.000	0.028	-0.077
-363.683	-200.000	-0.007	-0.141
-362.669	524.998	0.042	0.100
-361.654	212.094	-0.089	0.140
-360.639	41.094	0.093	0.085
-359.625	123.565	-0.237	-0.297
-358.610	202.473	0.076	-0.117
-357.596	448.631	-0.137	0.302
-356.581	412.537	0.008	-0.018
-355.566	445.417	-0.029	-0.063
-354.552	800.000	-0.027	-0.082
-353.537	800.000	0.016	-0.066
-352.523	-124.006	-0.121	-0.019
-351.508	-135.629	0.137	-0.016
-350.493	800.000	-0.044	-0.166
-349.479	-146.237	-0.023	-0.002
-348.464	-50.224	0.284	-0.135
-347.450	-81.330	-0.316	0.104
-346.435	220.688	-0.172	-0.276
-345.420	396.243	-0.105	-0.220
-344.406	-14.750	-0.034	0.022
-343.391	219.450	-0.124	-0.199
-342.377	-200.000	-0.009	-0.153
-341.362	73.750	-0.156	-0.163
-340.348	-147.933	-0.326	-0.027
-339.333	695.950	0.135	-0.356
-338.318	-200.000	-0.012	-0.145
-337.304	156.849	0.048	-0.066
-336.289	39.601	0.249	-0.223
-335.275	-109.668	0.321	0.068
-334.260	800.000	0.025	0.085
-333.245	-200.000	0.002	-0.170
-332.231	-138.039	-0.168	-0.019
-331.216	33.862	0.212	0.185
-330.202	-19.395	0.200	0.124
-329.187	-200.000	-0.012	0.347
-328.172	-166.378	0.328	0.014
-327.158	46.481	-0.121	-0.112
-326.143	800.000	-0.008	0.031
-325.129	-162.154	-0.029	-0.001
-324.114	363.886	0.116	-0.234
-323.099	-178.103	0.214	0.005
-322.085	800.000	-0.046	0.152
-321.070	-14.177	-0.212	0.137
-320.056	-200.000	0.035	-0.197
-319.041	800.000	0.026	-0.110
-318.026	129.844	-0.099	-0.127
-317.012	21.301	-0.385	-0.313
-315.997	800.000	-0.084	-0.343
-314.983	-141.077	0.138	0.014
-313.968	196.678	-0.126	-0.191
-312.953	78.844	-0.287	0.307
-311.939	149.991	0.082	-0.111
-310.924	600.783	0.119	-0.295
-309.910	-80.553	0.202	-0.067
-308.895	-126.615	0.151	-0.022
-307.880	-200.000	-0.058	0.511
-306.866	439.016	0.062	0.135
-305.851	-200.000	-0.076	-0.368
-304.837	-6.674	-0.108	-0.073
-303.822	-93.175	-0.167	-0.046
-302.807	223.692	0.137	-0.221
-301.793	-200.000	-0.023	-0.235
-300.778	-12.097	-0.276	-0.180
-299.764	50.509	0.148	0.140
-298.749	-171.590	0.206	-0.007
-297.735	74.945	0.122	0.128
-296.720	-102.193	-0.397	0.095
-295.705	161.500	0.130	0.181
-294.691	800.000	0.054	-0.153
-293.676	188.378	-0.131	-0.195
-292.662	758.584	-0.080	-0.217
-291.647	-200.000	-0.046	-0.244
-290.632	-75.186	0.053	0.019
-289.618	10.859	0.103	0.078
-288.603	-200.000	0.013	-0.147
-287.589	-200.000	-0.014	-0.173
-286.574	292.484	0.191	-0.348
-285.559	98.942	0.191	0.220
-284.545	-94.476	0.174	-0.047
-283.530	306.888	-0.201	-0.375
-282.516	-177.511	-0.031	0.001
-281.501	-200.000	0.002	0.022
-280.486	-132.667	-0.273	0.035
-279.472	-200.000	0.060	0.272
-278.457	-26.572	0.232	0.135
-277.443	800.000	-0.127	0.432
-276.428	-68.205	-0.050	0.019
-275.413	532.015	0.101	0.239
-274.399	-86.254	0.230	-0.071
-273.384	800.000	0.049	0.149
-272.370	-63.907	-0.091	-0.037
-271.355	-65.203	-0.141	0.057
-270.340	-132.447	-0.226	-0.029
-269.326	-61.207	0.177	-0.075
-268.311	18.289	0.172	-0.137
-267.297	-11.399	-0.284	0.186
-266.282	15.368	-0.116	0.091
-265.267	-183.321	-0.282	-0.005
-264.253	152.197	-0.175	-0.239
-263.238	-141.533	-0.153	-0.015
-262.224	-60.074	-0.112	0.048
-261.209	-142.925	-0.394	-0.038
-260.195	439.996	-0.149	0.324
-259.180	9.157	0.133	-0.100
-258.165	486.903	-0.065	-0.148
-257.151	468.346	-0.042	-0.094
-256.136	335.698	0.087	0.168
-255.122	240.010	-0.157	0.261
-254.107	-145.459	-0.387	-0.035
-253.092	294.054	-0.123	0.225
-252.078	292.065	-0.004	-0.008
-251.063	800.000	-0.072	-0.207
-250.049	25.475	0.094	-0.078
-249.034	223.145	-0.156	-0.251
-248.019	714.056	0.045	-0.120
-247.005	-16.457	0.258	0.163
-245.990	168.034	0.222	-0.315
-244.976	-86.406	0.225	0.069
-243.961	-73.703	-0.224	0.081
-242.946	-200.000	0.023	-0.113
-241.932	800.000	0.032	-0.122
-240.917	71.020	-0.153	0.158
-239.903	82.105	0.101	0.109
-238.888	-200.000	-0.015	-0.131
-237.873	-39.367	0.115	-0.060
-236.859	800.000	-0.034	-0.101
-235.844	-200.000	-0.013	-0.274
-234.830	144.094	0.123	0.164
-233.815	133.750	0.215	0.277
-232.800	-200.000	-0.054	0.368
-231.786	1.019	0.128	-0.092
-230.771	800.000	0.074	-0.292
-229.757	155.196	-0.097	-0.133
-228.742	-20.620	0.093	-0.057
-227.727	-96.010	0.357	0.095
-226.713	800.000	-0.073	0.315
-225.698	446.341	0.050	0.109
-224.684	24.219	0.228	-0.188
-223.669	-104.449	-0.123	0.028
-222.655	136.300	-0.054	0.070
-221.640	715.707	0.114	-0.302
-220.625	-200.000	0.027	-0.131
-219.611	54.322	0.160	-0.154
-218.596	39.618	-0.175	0.156
-217.582	800.000	0.019	0.060
-216.567	258.856	-0.169	0.291
-215.552	32.964	0.178	0.154
-214.538	-112.201	0.279	-0.056
-213.523	-132.661	-0.023	-0.003
-212.509	-200.000	0.009	-0.059
-211.494	-200.000	0.001	-0.208
-210.479	800.000	0.053	-0.150
-209.465	-128.729	0.247	-0.035
-208.450	47.039	0.417	0.386
-207.436	-66.340	0.339	0.134
-206.421	800.000	0.039	-0.156
-205.406	-25.487	-0.115	0.068
-204.392	93.240	0.180	-0.202
-203.377	-16.247	0.196	0.124
-202.363	-117.053	-0.289	-0.053
-201.348	70.394	0.129	0.133
-200.333	-200.000	0.032	-0.161
-199.319	178.658	-0.210	0.305
-198.304	-48.318	0.422	-0.202
-197.290	-77.828	-0.263	-0.090
-196.275	16.046	-0.150	-0.117
-195.260	-84.233	0.079	0.025
-194.246	-200.000	0.000	0.154
-193.231	800.000	-0.039	-0.136
-192.217	-93.180	-0.116	-0.032
-191.202	304.457	0.148	0.273
-190.187	-200.000	-0.009	-0.338
-189.173	-55.357	-0.234	-0.105
-188.158	266.892	-0.101	-0.176
-187.144	46.092	0.269	-0.248
-186.129	24.733	0.103	0.085
-185.114	1.405	0.038	0.027
-184.100	-25.760	-0.221	-0.130
-183.085	-111.623	0.159	-0.032
-182.071	178.471	0.236	0.343
-181.056	628.750	0.105	0.263
-180.042	103.425	-0.044	0.052
-179.027	89.089	0.132	-0.146
-178.012	-130.705	0.343	-0.046
-176.998	-200.000	-0.020	-0.108
-175.983	12.250	0.208	0.159
-174.969	-85.204	-0.027	0.008
-173.954	748.269	-0.058	0.155
-172.939	242.675	0.177	0.295
-171.925	224.880	-0.106	0.171
-170.910	181.178	-0.143	-0.209
-169.896	30.099	0.205	-0.173
-168.881	110.756	0.184	-0.220
-167.866	800.000	-0.097	-0.288
-166.852	-145.434	0.174	-0.016
-165.837	800.000	-0.061	-0.211
-164.823	800.000	0.024	-0.089
-163.808	-3.431	-0.130	0.090
-162.793	-200.000	0.039	-0.331
-161.779	-200.000	-0.020	0.241
-160.764	57.259	0.177	0.171
-159.750	43.378	0.166	0.151
-158.735	-75.795	-0.264	0.093
-157.720	87.806	-0.175	-0.193
-156.706	-106.108	0.045	0.010
-155.691	-200.000	-0.015	0.380
-154.677	800.000	0.073	0.234
-153.662	-200.000	-0.040	0.299
-152.647	72.479	0.225	0.233
-151.633	-200.000	0.009	-0.052
-150.618	-101.651	-0.381	0.092
-149.604	-14.790	-0.261	0.166
-148.589	-200.000	-0.023	-0.302
-147.574	-32.700	-0.313	-0.173
-146.560	800.000	0.068	-0.226
-145.545	-200.000	0.033	-0.206
-144.531	776.063	0.071	0.192
-143.516	-200.000	0.051	0.251
-142.502	-55.676	-0.251	-0.112
-141.487	1.921	-0.083	0.060
-140.472	-115.144	0.214	-0.040
-139.458	-6.061	0.243	0.165
-138.443	51.149	-0.144	0.135
-137.429	-200.000	0.001	0.052
-136.414	15.005	-0.379	0.294
-135.399	-138.936	-0.083	-0.009
-134.385	800.000	-0.073	0.219
-133.370	657.222	0.039	-0.098
-132.356	168.588	0.160	0.227
-131.341	800.000	-0.002	-0.006
-130.326	457.022	-0.059	0.130
-129.312	-74.271	-0.253	0.091
-128.297	-26.527	-0.184	-0.107
-127.283	-139.470	0.412	0.044
-126.268	-90.573	0.203	-0.058
-125.253	-94.341	0.108	0.029
-124.239	29.241	0.115	-0.097
-123.224	433.544	0.096	0.207
-122.210	800.000	0.065	0.186
