DTS Sentinel unit serial number:	SN413079Multiplexer serial number:	ORYXHardware model number:	OX4-SRSoftware version number:	ORYX F/W v4.00 Oryx Data Collector v3.7.2.0data status	okinstallation	princeton_trtdifferential loss correction	single-endedforward channel	channel 1reverse channel	N/Adate	2019/09/16time	11:22:35forward acquisition time	60.00reverse acquisition time	0.00gamma	496.2192k internal	0.2298k external	0.2298temperature offset calibration	0.9966default loss term (dB/km)	0.3790temperature slope calibration	1.0000multiplexer offset coefficient	1.0000multiplexer slope coefficient	1.0000fibre end	0.00T internal ref (°C)	37.33T ext. ref 1 (°C)	12.90T ext. ref 2 (°C)	34.45length (m)	temperature (°C)	Stokes	anti-Stokes-747.200	-1.919	-0.190	-0.136
-746.185	494.819	-0.188	0.440
-745.171	445.022	0.064	-0.143
-744.156	-200.000	-0.080	0.391
-743.142	-1.370	-0.117	0.085
-742.127	50.442	-0.319	0.308
-741.112	43.687	0.307	-0.286
-740.098	195.560	0.128	0.198
-739.083	-130.082	-0.222	-0.031
-738.069	32.548	0.084	0.074
-737.054	359.126	-0.078	0.159
-736.039	139.310	0.123	0.166
-735.025	800.000	-0.029	0.128
-734.010	-76.808	-0.258	0.092
-732.996	-147.113	-0.341	0.030
-731.981	70.395	0.108	-0.114
-730.966	361.866	-0.118	0.242
-729.952	7.879	0.131	-0.101
-728.937	800.000	0.110	0.338
-727.923	119.838	-0.202	-0.255
-726.908	-80.709	-0.269	-0.091
-725.894	725.869	-0.080	-0.217
-724.879	100.896	0.012	-0.014
-723.864	-52.855	-0.235	0.111
-722.850	-46.184	-0.226	-0.114
-721.835	-92.081	-0.183	0.053
-720.821	-156.340	-0.238	0.015
-719.806	34.759	0.109	-0.097
-718.791	314.045	0.102	0.196
-717.777	42.900	0.190	-0.177
-716.762	-108.785	-0.373	0.081
-715.748	5.401	-0.465	0.350
-714.733	-101.134	0.435	0.109
-713.718	186.614	0.097	-0.148
-712.704	-149.289	-0.319	-0.026
-711.689	57.792	0.019	0.019
-710.675	800.000	-0.112	-0.315
-709.660	77.100	0.069	-0.075
-708.645	213.864	0.064	-0.103
-707.631	800.000	-0.060	0.247
-706.616	45.063	0.164	-0.154
-705.602	-200.000	-0.056	-0.251
-704.587	-68.932	0.396	-0.156
-703.572	-200.000	-0.020	0.289
-702.558	-120.741	-0.103	0.018
-701.543	66.383	0.112	-0.116
-700.529	800.000	0.048	0.168
-699.514	39.012	-0.277	0.252
-698.499	225.397	0.042	-0.070
-697.485	-53.863	-0.273	-0.127
-696.470	-49.295	-0.335	-0.163
-695.456	-200.000	-0.031	0.324
-694.441	-82.775	0.212	-0.070
-693.426	-200.000	-0.007	0.226
-692.412	299.222	0.137	0.257
-691.397	-49.354	0.094	-0.046
-690.383	95.353	-0.059	-0.068
-689.368	53.678	-0.180	0.176
-688.354	-4.661	-0.215	0.151
-687.339	-200.000	-0.044	-0.297
-686.324	450.183	0.072	0.162
-685.310	-146.510	0.275	0.024
-684.295	-151.636	0.076	0.006
-683.281	64.566	0.233	-0.239
-682.266	178.228	0.082	-0.122
-681.251	-49.898	-0.174	-0.084
-680.237	104.237	-0.081	0.097
-679.222	54.637	0.140	-0.138
-678.208	244.545	-0.108	0.185
-677.193	-64.286	0.186	-0.077
-676.178	-51.486	-0.415	0.198
-675.164	92.397	-0.166	0.191
-674.149	86.229	0.208	0.233
-673.135	-97.824	0.440	0.116
-672.120	800.000	0.106	0.380
-671.105	-125.132	0.219	-0.034
-670.091	-87.819	-0.272	-0.083
-669.076	447.200	-0.176	-0.395
-668.062	-18.520	-0.217	0.138
-667.047	-159.698	-0.324	-0.018
-666.032	543.657	-0.115	0.280
-665.018	-89.450	-0.188	-0.056
-664.003	800.000	-0.139	0.457
-662.989	50.035	0.060	-0.058
-661.974	-200.000	-0.050	-0.412
-660.959	167.738	0.180	-0.260
-659.945	-121.876	0.148	-0.025
-658.930	20.153	-0.099	0.081
-657.916	-200.000	0.045	0.382
-656.901	-200.000	0.117	-0.537
-655.886	800.000	-0.062	-0.216
-654.872	119.166	-0.295	0.372
-653.857	173.932	-0.269	-0.395
-652.843	-43.341	-0.279	-0.143
-651.828	97.623	0.058	-0.068
-650.814	261.779	0.179	0.316
-649.799	-59.874	0.354	0.154
-648.784	71.402	0.170	0.180
-647.770	371.871	-0.051	-0.106
-646.755	-32.729	-0.299	-0.169
-645.741	570.332	-0.025	-0.061
-644.726	-146.671	0.146	-0.013
-643.711	46.759	-0.112	0.106
-642.697	-13.355	0.396	-0.261
-641.682	203.454	0.071	-0.112
-640.668	519.886	0.024	0.057
-639.653	690.970	-0.171	-0.456
-638.638	-107.319	0.206	-0.046
-637.624	-21.724	0.419	-0.259
-636.609	800.000	-0.091	0.395
-635.595	-30.450	0.211	-0.122
-634.580	108.933	-0.299	-0.363
-633.565	408.413	0.022	0.048
-632.551	-142.157	-0.161	0.016
-631.536	-16.063	0.106	0.069
-630.522	800.000	-0.024	0.091
-629.507	-160.395	0.165	-0.009
-628.492	-200.000	-0.005	0.066
-627.478	-75.691	0.145	-0.052
-626.463	-200.000	0.031	0.296
-625.449	-81.126	0.267	-0.090
-624.434	-81.109	0.111	-0.037
-623.419	-140.052	-0.427	0.046
-622.405	94.675	0.057	-0.066
-621.390	-200.000	0.030	0.277
-620.376	-9.186	-0.163	0.111
-619.361	-200.000	0.043	0.311
-618.346	-200.000	0.011	-0.054
-617.332	-94.894	0.127	0.035
-616.317	10.585	0.159	-0.123
-615.303	177.374	0.164	0.243
-614.288	349.179	0.094	-0.188
-613.273	244.933	0.132	-0.225
-612.259	-23.822	-0.209	-0.127
-611.244	800.000	0.043	-0.149
-610.230	-126.111	0.161	-0.024
-609.215	800.000	-0.041	-0.117
-608.201	-200.000	0.056	0.339
-607.186	-60.045	-0.164	-0.071
-606.171	-200.000	-0.028	0.157
-605.157	-7.374	-0.183	0.126
-604.142	800.000	-0.115	-0.396
-603.128	358.929	-0.079	-0.160
-602.113	-111.764	-0.079	-0.016
-601.098	259.220	-0.088	0.155
-600.084	370.138	0.115	0.237
-599.069	332.451	0.165	0.323
-598.055	795.772	0.024	0.067
-597.040	-200.000	-0.042	0.209
-596.025	-200.000	0.011	-0.336
-595.011	800.000	0.046	-0.133
-593.996	16.683	-0.207	-0.166
-592.982	800.000	0.121	-0.419
-591.967	-38.515	0.074	0.039
-590.952	-200.000	-0.006	-0.194
-589.938	64.403	0.279	0.285
-588.923	74.063	-0.232	0.247
-587.909	22.282	-0.242	0.201
-586.894	-39.752	0.056	0.030
-585.879	42.839	-0.184	-0.170
-584.865	430.889	0.087	0.190
-583.850	-200.000	-0.007	0.049
-582.836	-97.546	-0.187	-0.049
-581.821	-133.756	0.091	-0.012
-580.806	-59.029	0.051	-0.022
-579.792	-52.961	0.231	-0.108
-578.777	45.912	0.063	-0.059
-577.763	-200.000	0.075	0.447
-576.748	800.000	0.020	0.057
-575.733	279.361	-0.186	-0.337
-574.719	-27.837	0.073	-0.043
-573.704	334.376	-0.056	-0.110
-572.690	-44.617	-0.170	-0.086
-571.675	384.759	-0.146	-0.305
-570.661	-28.735	0.478	-0.279
-569.646	101.087	0.046	-0.054
-568.631	589.206	-0.085	-0.212
-567.617	-113.010	0.180	0.036
-566.602	-12.116	-0.360	0.239
-565.588	58.480	-0.076	-0.075
-564.573	251.153	0.088	-0.152
-563.558	-24.358	-0.042	-0.025
-562.544	199.413	-0.095	0.148
-561.529	-67.818	-0.358	0.142
-560.515	-154.604	0.378	-0.026
-559.500	78.025	-0.239	-0.259
-558.485	1.494	-0.143	-0.105
-557.471	-200.000	0.048	-0.219
-556.456	800.000	-0.049	0.166
-555.442	-200.000	0.091	0.529
-554.427	319.702	0.090	-0.173
-553.412	-200.000	-0.008	0.075
-552.398	522.789	-0.008	0.020
-551.383	-200.000	-0.009	-0.098
-550.369	264.402	0.126	-0.222
-549.354	32.372	0.146	-0.128
-548.339	654.007	0.077	-0.201
-547.325	31.218	0.143	-0.125
-546.310	800.000	-0.059	0.209
-545.296	401.845	0.228	-0.485
-544.281	-200.000	0.004	0.208
-543.266	762.383	-0.047	0.129
-542.252	800.000	-0.107	-0.333
-541.237	-200.000	-0.006	-0.092
-540.223	31.611	0.037	0.033
-539.208	-200.000	0.010	-0.132
-538.193	-36.963	-0.239	0.129
-537.179	40.616	0.174	0.159
-536.164	35.928	0.104	0.093
-535.150	46.354	-0.029	0.027
-534.135	116.828	0.272	-0.338
-533.121	60.016	-0.063	0.063
-532.106	-144.154	-0.244	0.023
-531.091	800.000	0.074	-0.277
-530.077	800.000	-0.039	-0.136
-529.062	-166.901	-0.174	-0.007
-528.048	154.688	-0.126	0.175
-527.033	-200.000	0.008	-0.058
-526.018	337.608	-0.019	0.037
-525.004	74.579	0.230	-0.245
-523.989	-200.000	0.052	-0.241
-522.975	166.525	0.060	-0.086
-521.960	367.455	0.075	-0.153
-520.945	-200.000	0.015	0.112
-519.931	3.932	0.033	0.024
-518.916	391.265	0.068	-0.143
-517.902	-200.000	-0.065	-0.318
-516.887	-5.340	-0.253	-0.176
-515.872	-107.826	0.176	-0.039
-514.858	-116.046	0.015	0.003
-513.843	690.376	-0.146	-0.387
-512.829	43.528	0.254	-0.235
-511.814	-66.834	-0.219	0.088
-510.799	33.007	0.161	-0.141
-509.785	180.405	0.113	-0.167
-508.770	-200.000	-0.090	-0.444
-507.756	435.045	-0.061	-0.135
-506.741	516.502	-0.076	-0.180
-505.726	214.024	-0.126	-0.201
-504.712	22.542	-0.028	0.023
-503.697	-200.000	-0.025	-0.201
-502.683	-6.121	-0.199	0.138
-501.668	98.026	-0.113	-0.131
-500.653	-200.000	0.027	-0.120
-499.639	275.354	0.021	-0.037
-498.624	95.197	0.179	0.206
-497.610	-87.460	-0.191	-0.058
-496.595	168.122	0.245	-0.353
-495.581	177.883	-0.178	0.263
-494.566	-83.929	0.198	0.064
-493.551	-53.357	0.236	-0.109
-492.537	39.777	-0.420	-0.381
-491.522	769.633	-0.014	-0.039
-490.508	228.370	0.171	0.282
-489.493	-200.000	-0.030	-0.142
-488.478	-155.872	0.172	-0.011
-487.464	667.646	0.051	-0.134
-486.449	-41.066	-0.208	0.109
-485.435	195.517	0.153	0.236
-484.420	9.416	0.157	-0.120
-483.405	488.086	0.062	0.143
-482.391	-200.000	0.023	0.323
-481.376	-130.409	0.190	0.026
-480.362	68.126	0.134	-0.138
-479.347	176.886	0.147	-0.217
-478.332	75.021	-0.225	-0.239
-477.318	-151.779	0.063	-0.005
-476.303	26.215	-0.080	0.067
-475.289	800.000	-0.045	0.164
-474.274	-51.649	-0.372	-0.175
-473.259	-117.600	-0.252	-0.046
-472.245	-200.000	-0.009	-0.258
-471.230	482.317	-0.055	-0.127
-470.216	-200.000	-0.094	-0.469
-469.201	57.466	0.247	0.244
-468.186	90.446	0.198	0.224
-467.172	362.413	0.087	0.176
-466.157	-130.940	0.108	0.015
-465.143	59.571	0.249	-0.248
-464.128	-200.000	-0.021	0.173
-463.113	800.000	-0.092	-0.359
-462.099	76.451	0.129	-0.138
-461.084	297.781	0.041	0.077
-460.070	495.778	0.058	-0.134
-459.055	-72.001	-0.320	0.120
-458.040	-62.054	-0.147	-0.062
-457.026	-163.642	-0.036	-0.002
-456.011	569.163	0.051	-0.125
-454.997	536.803	-0.033	-0.080
-453.982	800.000	-0.062	-0.227
-452.968	313.496	-0.100	-0.190
-451.953	-150.137	0.322	0.025
-450.938	-57.754	-0.319	-0.141
-449.924	472.315	-0.100	0.227
-448.909	331.420	0.101	-0.197
-447.895	211.927	-0.137	-0.218
-446.880	-89.772	-0.054	-0.016
-445.865	24.728	0.175	0.146
-444.851	296.682	-0.036	0.066
-443.836	-9.432	0.086	0.058
-442.822	-78.660	-0.187	0.064
-441.807	-34.265	-0.156	-0.086
-440.792	225.764	-0.162	-0.265
-439.778	-200.000	-0.028	-0.331
-438.763	800.000	-0.100	0.345
-437.749	-96.863	0.255	-0.068
-436.734	-27.813	-0.253	0.148
-435.719	-165.223	-0.125	0.006
-434.705	15.471	0.094	0.074
-433.690	-139.007	-0.205	-0.022
-432.676	-37.525	0.215	-0.116
-431.661	800.000	0.016	-0.048
-430.646	755.635	-0.082	0.225
-429.632	70.091	-0.154	-0.160
-428.617	-200.000	0.035	0.172
-427.603	89.724	-0.209	0.235
-426.588	23.679	-0.109	0.091
-425.573	41.206	-0.303	0.276
-424.559	-24.621	0.154	0.092
-423.544	-99.911	-0.421	-0.106
-422.530	220.351	-0.134	-0.216
-421.515	-50.101	-0.089	-0.043
-420.500	18.045	0.312	0.251
-419.486	-198.642	0.090	0.001
-418.471	-88.772	0.150	0.045
-417.457	-56.055	-0.029	-0.013
-416.442	-200.000	0.004	-0.137
-415.428	-200.000	-0.015	0.266
-414.413	8.575	-0.151	-0.115
-413.398	800.000	-0.054	0.219
-412.384	311.521	-0.051	-0.096
-411.369	123.614	0.128	-0.162
-410.355	708.664	0.037	-0.100
-409.340	-33.089	-0.426	0.238
-408.325	14.038	-0.184	-0.145
-407.311	217.744	0.060	-0.096
-406.296	153.410	0.073	0.101
-405.282	88.449	-0.374	-0.418
-404.267	-92.769	0.166	-0.047
-403.252	-200.000	0.031	0.286
-402.238	-200.000	-0.019	0.200
-401.223	-200.000	-0.022	-0.183
-400.209	310.936	0.160	-0.303
-399.194	-159.416	-0.165	-0.009
-398.179	-200.000	0.051	0.270
-397.165	-200.000	-0.080	-0.467
-396.150	-200.000	0.034	0.354
-395.136	-200.000	-0.080	0.368
-394.121	-200.000	0.057	-0.389
-393.106	125.948	0.099	-0.125
-392.092	137.791	-0.115	0.152
-391.077	86.428	-0.159	-0.176
-390.063	-200.000	-0.043	-0.210
-389.048	800.000	0.095	-0.292
-388.033	9.453	-0.084	-0.064
-387.019	534.008	0.137	0.326
-386.004	41.080	0.201	0.182
-384.990	-116.766	-0.278	0.051
-383.975	-12.424	-0.284	0.187
-382.960	268.102	-0.307	0.542
-381.946	-62.388	0.179	0.075
-380.931	-35.644	-0.148	0.081
-379.917	-184.519	0.206	-0.003
-378.902	-168.426	0.082	0.003
-377.888	800.000	0.088	-0.306
-376.873	-200.000	-0.023	-0.137
-375.858	5.990	0.264	-0.197
-374.844	292.389	0.137	0.250
-373.829	-200.000	-0.010	0.311
-372.815	624.729	-0.076	0.193
-371.800	40.080	-0.294	0.266
-370.785	641.994	-0.123	0.316
-369.771	-134.054	0.206	-0.026
-368.756	-123.806	0.234	-0.037
-367.742	597.717	-0.070	-0.175
-366.727	-41.648	-0.184	0.095
-365.712	-114.624	-0.100	-0.019
-364.698	-23.143	0.186	-0.113
-363.683	58.228	-0.152	-0.150
-362.669	800.000	0.037	0.137
-361.654	800.000	-0.033	0.100
-360.639	-112.558	0.247	-0.050
-359.625	-200.000	0.008	0.157
-358.610	-115.347	-0.206	-0.039
-357.596	303.223	0.030	0.055
-356.581	1.848	-0.224	-0.162
-355.566	472.538	0.126	-0.285
-354.552	-173.964	-0.113	-0.003
-353.537	-61.153	-0.146	0.062
-352.523	38.008	-0.098	-0.087
-351.508	-43.285	-0.237	0.121
-350.493	28.300	0.298	0.253
-349.479	378.860	0.051	0.105
-348.464	692.270	0.111	0.292
-347.450	351.208	-0.069	0.138
-346.435	4.041	0.186	0.137
-345.420	118.437	-0.170	-0.211
-344.406	-48.870	-0.230	-0.111
-343.391	-5.796	-0.333	-0.229
-342.377	22.902	0.047	-0.039
-341.362	-31.074	-0.216	-0.122
-340.348	-43.349	0.258	0.131
-339.333	-17.005	0.153	0.097
-338.318	125.420	0.111	0.141
-337.304	318.691	0.050	0.095
-336.289	763.396	0.102	-0.277
-335.275	-130.220	-0.395	0.054
-334.260	-35.198	-0.081	-0.044
-333.245	-119.493	-0.101	-0.018
-332.231	278.601	0.138	0.248
-331.216	-82.936	0.276	-0.090
-330.202	49.351	-0.185	0.175
-329.187	-16.909	-0.469	0.298
-328.172	109.085	-0.210	-0.252
-327.158	166.581	-0.072	0.102
-326.143	129.205	0.060	-0.077
-325.129	-200.000	0.010	0.050
-324.114	-111.251	-0.302	-0.062
-323.099	-107.787	-0.111	0.024
-322.085	-55.365	0.320	-0.144
-321.070	-22.661	-0.396	-0.240
-320.056	-200.000	-0.015	-0.094
-319.041	-169.261	0.075	-0.003
-318.026	-200.000	-0.175	0.000
-317.012	-49.024	-0.222	-0.106
-315.997	437.046	-0.055	-0.120
-314.983	246.004	-0.138	0.233
-313.968	51.602	-0.240	0.229
-312.953	-77.882	0.470	-0.163
-311.939	-151.934	-0.351	0.026
-310.924	72.256	-0.036	0.038
-309.910	310.065	0.062	0.117
-308.895	-200.000	-0.002	0.209
-307.880	100.456	0.289	-0.336
-306.866	190.273	0.055	0.082
-305.851	-200.000	0.040	-0.287
-304.837	328.303	-0.014	-0.026
-303.822	648.350	-0.126	0.323
-302.807	218.714	0.108	0.172
-301.793	424.690	-0.229	0.494
-300.778	-200.000	0.016	0.177
-299.764	242.829	-0.195	-0.328
-298.749	-119.156	0.139	0.024
-297.735	170.532	0.247	0.355
-296.720	-72.144	-0.346	0.129
-295.705	-200.000	0.044	0.226
-294.691	-103.909	-0.194	-0.045
-293.676	2.708	-0.200	-0.146
-292.662	-200.000	0.057	0.397
-291.647	-72.684	0.387	0.143
-290.632	-93.233	-0.103	0.029
-289.618	10.335	0.076	-0.058
-288.603	-200.000	0.014	0.242
-287.589	800.000	-0.083	-0.352
-286.574	133.380	-0.062	-0.081
-285.559	-72.306	-0.242	0.090
-284.545	27.648	0.146	0.123
-283.530	800.000	-0.034	-0.100
-282.516	-63.313	-0.351	-0.145
-281.501	-83.334	0.252	0.081
-280.486	-200.000	0.022	-0.320
-279.472	1.457	-0.050	-0.036
-278.457	-108.759	-0.313	-0.067
-277.443	47.495	-0.147	0.137
-276.428	76.005	0.317	0.336
-275.413	-50.243	-0.232	-0.110
-274.399	800.000	-0.021	-0.076
-273.384	578.534	-0.059	-0.145
-272.370	-200.000	-0.041	0.237
-271.355	202.789	-0.121	0.187
-270.340	-200.000	-0.019	-0.267
-269.326	309.496	-0.086	-0.160
-268.311	-200.000	0.034	0.206
-267.297	60.787	-0.223	0.221
-266.282	-186.706	0.365	-0.005
-265.267	-43.013	0.109	0.056
-264.253	1.008	0.287	-0.206
-263.238	-104.742	0.335	-0.077
-262.224	193.140	0.110	0.166
-261.209	-200.000	0.015	0.116
-260.195	-141.690	-0.150	0.015
-259.180	-36.362	-0.119	-0.064
-258.165	-200.000	0.008	0.055
-257.151	-169.736	-0.141	0.005
-256.136	130.747	0.288	-0.370
-255.122	-107.674	0.146	0.032
-254.107	256.119	0.107	-0.183
-253.092	-200.000	-0.019	-0.353
-252.078	113.622	0.061	0.075
-251.063	-110.879	0.534	0.110
-250.049	382.096	0.134	0.276
-249.034	-200.000	0.022	0.131
-248.019	158.465	0.113	0.158
-247.005	-200.000	0.074	0.338
-245.990	193.861	0.108	0.164
-244.976	359.773	-0.161	0.322
-243.961	-152.898	-0.245	-0.017
-242.946	46.792	0.139	0.129
-241.932	-118.137	0.429	0.077
-240.917	276.947	-0.239	0.424
-239.903	-41.335	-0.062	-0.032
-238.888	-89.626	-0.203	0.060
-237.873	-200.000	-0.038	0.181
-236.859	-153.824	-0.162	-0.011
-235.844	321.632	0.112	0.213
-234.830	-103.369	-0.128	-0.030
-233.815	-92.141	0.137	0.039
-232.800	99.350	0.069	-0.080
-231.786	44.300	-0.096	-0.088
-230.771	-121.449	0.135	-0.023
-229.757	17.401	-0.165	0.131
-228.742	195.472	0.100	0.153
-227.727	400.719	0.051	-0.107
-226.713	-200.000	0.011	0.331
-225.698	-5.818	0.147	0.101
-224.684	-63.549	0.211	0.087
-223.669	-147.536	-0.467	0.039
-222.655	421.213	0.089	0.191
-221.640	-47.959	0.172	-0.083
-220.625	12.296	0.315	-0.243
-219.611	-57.317	0.183	-0.080
-218.596	6.239	0.254	-0.189
-217.582	-200.000	0.047	0.306
-216.567	-14.724	-0.080	0.051
-215.552	-54.173	0.059	0.027
-214.538	209.100	0.060	-0.094
-213.523	-200.000	0.001	-0.274
-212.509	-200.000	-0.012	-0.235
-211.494	-163.093	0.103	0.005
-210.479	-114.467	-0.128	0.025
-209.465	-14.246	-0.289	0.187
-208.450	800.000	-0.081	0.288
-207.436	800.000	0.035	0.111
-206.421	-200.000	-0.050	0.384
-205.406	-78.396	-0.296	0.101
-204.392	8.119	0.274	-0.206
-203.377	-33.363	0.083	0.046
-202.363	-90.367	0.246	0.071
-201.348	-82.689	0.140	-0.045
-200.333	-23.478	-0.102	-0.061
-199.319	68.711	-0.259	-0.266
-198.304	34.109	0.151	0.132
-197.290	-102.661	0.157	-0.037
-196.275	-146.430	-0.435	0.038
-195.260	176.074	0.050	-0.072
-194.246	32.803	0.327	0.282
-193.231	800.000	-0.098	0.299
-192.217	299.720	0.057	-0.105
-191.202	-142.959	0.263	0.025
-190.187	355.524	0.099	0.196
-189.173	303.737	-0.062	-0.115
-188.158	205.015	0.019	0.029
-187.144	800.000	0.020	-0.060
-186.129	-164.664	0.103	0.005
-185.114	-3.543	0.328	0.228
-184.100	800.000	0.023	-0.073
-183.085	-76.656	-0.167	0.058
-182.071	256.465	0.019	-0.032
-181.056	8.319	0.126	0.095
-180.042	-7.513	0.461	0.312
-179.027	147.812	0.210	-0.283
-178.012	62.484	0.183	-0.182
-176.998	163.818	-0.152	-0.214
-175.983	800.000	-0.110	0.315
-174.969	-128.342	0.238	-0.034
-173.954	-116.851	0.327	-0.060
-172.939	-108.082	-0.084	0.018
-171.925	-55.639	0.159	-0.071
-170.910	-110.307	-0.274	-0.057
-169.896	-51.236	0.248	0.116
-168.881	329.433	0.325	0.624
-167.866	-200.000	0.029	-0.268
-166.852	-200.000	-0.004	0.084
-165.837	800.000	0.048	0.197
-164.823	-200.000	0.022	0.107
-163.808	116.398	0.172	0.211
-162.793	-200.000	0.009	0.231
-161.779	73.590	-0.018	-0.018
-160.764	432.131	-0.135	0.291
-159.750	-143.246	-0.091	0.009
-158.735	84.539	0.249	-0.272
-157.720	-200.000	-0.061	0.304
-156.706	-86.013	-0.307	-0.095
-155.691	-43.337	-0.165	-0.083
-154.677	-136.021	-0.370	-0.043
-153.662	-200.000	0.014	-0.094
-152.647	-48.398	0.124	-0.059
-151.633	800.000	-0.029	-0.083
-150.618	-126.037	0.131	-0.020
-149.604	-106.040	0.210	-0.047
-148.589	169.413	0.217	-0.309
-147.574	800.000	0.058	0.243
-146.560	-61.362	0.054	-0.023
-145.545	251.717	0.028	0.048
-144.531	40.177	-0.076	0.068
-143.516	-200.000	0.006	-0.085
-142.502	-200.000	0.029	-0.138
-141.487	-200.000	-0.014	-0.204
-140.472	-200.000	0.048	0.223
-139.458	-161.941	0.185	-0.009
-138.443	-40.665	0.318	0.164
-137.429	-174.177	-0.198	-0.006
-136.414	58.469	0.320	-0.313
-135.399	17.317	-0.149	0.118
-134.385	-69.401	0.201	0.077
-133.370	-187.499	-0.273	0.004
-132.356	-21.153	0.131	-0.080
-131.341	28.926	-0.080	0.068
-130.326	800.000	-0.077	0.328
-129.312	-200.000	0.001	-0.117
-128.297	-137.770	0.131	0.015
-127.283	-133.295	0.355	0.045
-126.268	-20.135	0.298	-0.183
-125.253	657.318	0.041	-0.104
-124.239	74.203	0.165	0.173
-123.224	-71.374	0.196	-0.073
-122.210	188.610	0.325	0.484
-121.195	800.000	-0.093	0.279
-120.180	299.711	0.031	0.057
