DTS Sentinel unit serial number:	SN413079Multiplexer serial number:	ORYXHardware model number:	OX4-SRSoftware version number:	ORYX F/W v4.00 Oryx Data Collector v3.7.2.0data status	okinstallation	princeton_trtdifferential loss correction	single-endedforward channel	channel 1reverse channel	N/Adate	2019/09/15time	17:22:35forward acquisition time	60.00reverse acquisition time	0.00gamma	496.2192k internal	0.2291k external	0.2291temperature offset calibration	0.9931default loss term (dB/km)	0.3790temperature slope calibration	1.0000multiplexer offset coefficient	1.0000multiplexer slope coefficient	1.0000fibre end	0.00T internal ref (°C)	44.77T ext. ref 1 (°C)	6.07T ext. ref 2 (°C)	40.09length (m)	temperature (°C)	Stokes	anti-Stokes-747.200	800.000	-0.092	0.304
-746.185	-80.325	-0.150	0.051
-745.171	-200.000	-0.002	-0.146
-744.156	800.000	-0.106	0.382
-743.142	-13.994	-0.108	0.071
-742.127	56.476	-0.038	-0.038
-741.112	-125.415	0.328	0.051
-740.098	800.000	-0.066	0.231
-739.083	-200.000	0.087	0.446
-738.069	-179.645	0.278	0.006
-737.054	-0.654	-0.218	0.159
-736.039	48.348	-0.091	-0.087
-735.025	800.000	-0.074	0.266
-734.010	-200.000	-0.003	0.041
-732.996	-51.012	-0.294	-0.141
-731.981	146.377	-0.080	-0.110
-730.966	-169.155	-0.011	-0.000
-729.952	-200.000	-0.043	-0.277
-728.937	322.220	-0.068	0.133
-727.923	-4.291	-0.099	-0.070
-726.908	800.000	-0.055	-0.221
-725.894	21.239	0.225	-0.187
-724.879	-47.295	0.149	-0.074
-723.864	-168.791	0.122	0.005
-722.850	-15.820	0.029	0.019
-721.835	-22.066	0.309	-0.192
-720.821	55.154	0.086	-0.085
-719.806	24.552	-0.143	0.121
-718.791	-200.000	-0.039	-0.204
-717.777	-200.000	-0.036	0.232
-716.762	-123.812	-0.189	0.031
-715.748	196.899	0.122	-0.190
-714.733	0.750	0.303	-0.222
-713.718	-200.000	-0.007	0.274
-712.704	27.179	-0.029	0.025
-711.689	-200.000	0.021	-0.154
-710.675	-178.718	-0.140	0.003
-709.660	-29.195	-0.186	0.109
-708.645	447.140	0.076	-0.171
-707.631	-34.234	-0.266	0.149
-706.616	800.000	-0.118	0.382
-705.602	-144.635	-0.299	-0.028
-704.587	-200.000	0.054	-0.403
-703.572	-66.628	0.162	-0.066
-702.558	65.878	-0.159	0.164
-701.543	-119.524	0.049	0.009
-700.529	15.565	-0.069	0.055
-699.514	-74.013	0.035	-0.013
-698.499	8.035	-0.289	-0.222
-697.485	-65.871	-0.231	0.094
-696.470	-44.931	-0.270	-0.137
-695.456	227.003	-0.101	0.168
-694.441	71.966	0.115	-0.122
-693.426	800.000	0.054	-0.200
-692.412	800.000	-0.085	-0.359
-691.397	-200.000	0.001	-0.197
-690.383	42.961	0.112	-0.104
-689.368	-155.508	0.266	-0.018
-688.354	-28.626	-0.133	0.078
-687.339	-57.247	-0.198	0.089
-686.324	-200.000	0.012	-0.067
-685.310	-36.168	-0.325	-0.179
-684.295	-109.302	0.121	-0.026
-683.281	-29.343	-0.247	0.145
-682.266	322.097	0.017	-0.033
-681.251	-55.789	-0.509	0.232
-680.237	-143.335	-0.185	0.018
-679.222	800.000	-0.029	-0.096
-678.208	-104.791	-0.064	0.015
-677.193	800.000	-0.022	-0.091
-676.178	-118.379	-0.183	0.033
-675.164	-200.000	0.008	-0.127
-674.149	20.422	0.171	0.141
-673.135	800.000	0.074	-0.320
-672.120	-200.000	-0.035	0.457
-671.105	54.589	-0.093	0.091
-670.091	445.328	0.110	0.247
-669.076	-94.961	-0.305	-0.084
-668.062	3.422	-0.133	0.099
-667.047	462.316	-0.129	0.294
-666.032	-82.773	-0.223	0.074
-665.018	-51.403	-0.233	0.111
-664.003	-139.888	0.247	0.027
-662.989	-62.869	0.179	0.076
-661.974	-200.000	0.025	0.337
-660.959	-117.275	-0.156	0.029
-659.945	149.015	0.059	0.081
-658.930	-51.782	0.236	0.112
-657.916	-102.431	-0.140	-0.034
-656.901	-200.000	-0.038	-0.339
-655.886	-112.578	0.227	0.046
-654.872	-13.747	-0.244	-0.161
-653.857	203.244	0.317	0.501
-652.843	-101.689	-0.328	-0.081
-651.828	142.693	0.078	0.106
-650.814	218.768	-0.202	-0.329
-649.799	394.092	-0.105	0.223
-648.784	-192.321	0.144	-0.001
-647.770	-35.017	-0.260	0.145
-646.755	451.739	-0.061	-0.137
-645.741	76.429	0.175	0.189
-644.726	300.681	0.069	0.130
-643.711	573.625	-0.141	-0.351
-642.697	-200.000	-0.059	-0.365
-641.682	-200.000	0.071	-0.497
-640.668	232.706	-0.138	0.232
-639.653	50.269	-0.069	0.066
-638.638	105.902	-0.189	0.228
-637.624	-200.000	-0.005	0.050
-636.609	629.424	0.132	0.340
-635.595	14.051	-0.143	0.113
-634.580	-42.123	-0.302	0.157
-633.565	-200.000	0.026	-0.244
-632.551	158.153	0.077	0.109
-631.536	-112.900	0.131	-0.026
-630.522	-87.274	0.211	0.065
-629.507	-82.768	0.036	-0.012
-628.492	-200.000	-0.012	-0.095
-627.478	-200.000	0.014	-0.322
-626.463	77.715	-0.180	0.196
-625.449	-22.724	-0.135	-0.083
-624.434	-11.848	-0.183	0.122
-623.419	410.853	0.079	0.170
-622.405	39.678	0.088	-0.081
-621.390	-119.258	0.204	0.036
-620.376	800.000	0.063	-0.217
-619.361	-200.000	-0.041	-0.201
-618.346	-11.829	-0.220	-0.147
-617.332	-140.226	0.301	-0.032
-616.317	294.445	-0.140	-0.261
-615.303	241.419	0.022	-0.037
-614.288	-6.496	-0.195	0.135
-613.273	123.164	0.147	-0.188
-612.259	-62.810	0.172	0.073
-611.244	-28.884	-0.168	0.099
-610.230	-12.064	-0.052	0.035
-609.215	-150.712	0.183	0.014
-608.201	78.229	-0.140	0.152
-607.186	-200.000	0.019	-0.199
-606.171	-154.726	0.481	0.033
-605.157	680.324	-0.036	-0.097
-604.142	-200.000	-0.084	-0.768
-603.128	-47.466	-0.065	0.032
-602.113	800.000	-0.085	-0.252
-601.098	-200.000	0.061	-0.280
-600.084	176.751	0.067	-0.099
-599.069	-45.711	0.227	-0.114
-598.055	2.705	-0.084	-0.062
-597.040	406.400	0.113	-0.242
-596.025	75.197	0.119	-0.128
-595.011	-72.622	0.129	0.049
-593.996	800.000	-0.080	-0.318
-592.982	-101.243	-0.354	-0.088
-591.967	-164.062	0.100	-0.005
-590.952	-3.546	-0.251	-0.177
-589.938	-126.803	-0.140	-0.021
-588.923	-85.203	0.182	0.058
-587.909	91.425	0.259	-0.296
-586.894	164.933	0.321	-0.460
-585.879	-200.000	0.024	0.169
-584.865	172.966	0.012	-0.017
-583.850	-22.961	-0.389	-0.238
-582.836	1.369	-0.108	-0.079
-581.821	-108.359	-0.208	0.046
-580.806	577.084	-0.088	-0.219
-579.792	111.421	-0.206	-0.253
-578.777	201.531	0.117	-0.183
-577.763	-92.368	-0.450	0.129
-576.748	800.000	-0.094	0.274
-575.733	5.882	-0.240	-0.180
-574.719	8.136	0.037	0.028
-573.704	-159.528	-0.154	-0.009
-572.690	258.744	-0.047	0.082
-571.675	-132.236	-0.191	0.025
-570.661	-200.000	-0.032	0.215
-569.646	-200.000	0.044	-0.230
-568.631	81.262	0.073	0.081
-567.617	-181.307	0.108	0.002
-566.602	800.000	0.099	0.401
-565.588	59.082	-0.112	-0.112
-564.573	-103.821	0.100	0.024
-563.558	55.798	-0.143	0.141
-562.544	800.000	0.034	-0.134
-561.529	794.661	-0.038	0.106
-560.515	55.143	0.325	0.319
-559.500	-200.000	-0.042	-0.275
-558.485	-200.000	0.036	-0.189
-557.471	430.390	0.078	0.172
-556.456	-142.709	-0.368	0.037
-555.442	-200.000	0.040	0.258
-554.427	800.000	0.034	-0.142
-553.412	234.632	-0.158	-0.265
-552.398	-75.008	0.168	-0.061
-551.383	-200.000	-0.055	-0.321
-550.369	16.964	0.263	0.212
-549.354	-200.000	-0.028	-0.269
-548.339	-50.878	0.200	-0.096
-547.325	-200.000	0.004	0.090
-546.310	-39.198	0.157	-0.084
-545.296	77.398	-0.143	0.155
-544.281	234.374	0.024	-0.040
-543.266	-55.494	0.222	-0.101
-542.252	-200.000	-0.026	0.127
-541.237	155.743	-0.107	0.149
-540.223	521.332	-0.037	-0.089
-539.208	689.577	-0.062	-0.166
-538.193	-30.312	-0.138	-0.080
-537.179	355.025	0.047	-0.095
-536.164	38.536	-0.158	-0.143
-535.150	423.031	0.170	0.371
-534.135	-86.015	-0.135	0.042
-533.121	6.048	0.175	-0.132
-532.106	-200.000	-0.028	-0.338
-531.091	800.000	0.105	-0.402
-530.077	-200.000	-0.064	0.310
-529.062	-200.000	-0.013	-0.094
-528.048	800.000	0.038	-0.168
-527.033	-45.578	-0.162	-0.081
-526.018	-200.000	0.032	0.370
-525.004	-135.496	0.224	0.027
-523.989	24.082	0.145	0.121
-522.975	45.416	-0.116	0.109
-521.960	258.183	-0.037	-0.065
-520.945	17.860	0.119	-0.096
-519.931	-13.877	0.163	-0.107
-518.916	-132.822	-0.315	-0.041
-517.902	-103.940	-0.229	-0.054
-516.887	370.603	0.122	0.251
-515.872	-74.886	0.340	0.124
-514.858	-73.804	-0.089	-0.033
-513.843	472.472	-0.028	0.064
-512.829	335.488	-0.083	0.164
-511.814	-200.000	0.014	-0.247
-510.799	-200.000	0.029	0.201
-509.785	-71.102	-0.377	0.144
-508.770	70.703	-0.080	-0.084
-507.756	539.443	-0.126	-0.304
-506.741	348.385	-0.114	-0.228
-505.726	123.989	-0.059	-0.075
-504.712	-200.000	0.014	-0.116
-503.697	-200.000	-0.014	0.273
-502.683	800.000	-0.042	-0.152
-501.668	75.707	0.047	-0.050
-500.653	154.113	0.118	-0.163
-499.639	135.039	-0.048	0.063
-498.624	27.031	-0.118	-0.100
-497.610	254.669	0.118	-0.204
-496.595	245.304	0.141	0.241
-495.581	-105.804	0.230	0.053
-494.566	800.000	-0.085	-0.304
-493.551	337.724	0.154	-0.305
-492.537	78.525	0.370	0.401
-491.522	10.824	0.066	-0.051
-490.508	-200.000	0.032	0.250
-489.493	-107.423	0.256	0.057
-488.478	29.459	0.065	-0.056
-487.464	89.749	-0.045	-0.051
-486.449	-200.000	-0.037	0.196
-485.435	800.000	0.049	0.179
-484.420	-200.000	0.025	-0.185
-483.405	95.694	0.249	0.288
-482.391	-200.000	-0.013	-0.513
-481.376	-200.000	0.026	0.280
-480.362	800.000	0.038	-0.166
-479.347	117.090	0.099	-0.123
-478.332	496.556	0.044	0.103
-477.318	-63.568	-0.184	0.077
-476.303	800.000	-0.039	0.172
-475.289	-8.068	0.184	-0.126
-474.274	800.000	0.063	-0.182
-473.259	-99.739	-0.143	-0.036
-472.245	-148.717	0.194	0.016
-471.230	-154.607	0.166	0.011
-470.216	-100.636	-0.366	0.091
-469.201	-1.791	-0.258	-0.184
-468.186	768.253	0.070	0.193
-467.172	-200.000	-0.008	-0.146
-466.157	-81.249	0.391	0.131
-465.143	-95.807	0.202	0.055
-464.128	-112.548	-0.298	0.060
-463.113	134.996	-0.065	0.085
-462.099	-102.586	0.282	-0.068
-461.084	-177.271	0.382	0.010
-460.070	306.412	-0.027	-0.051
-459.055	800.000	-0.025	-0.084
-458.040	800.000	0.009	0.025
-457.026	-200.000	0.040	0.340
-456.011	167.743	0.214	0.309
-454.997	-145.620	0.211	-0.019
-453.982	145.999	-0.108	-0.146
-452.968	-179.012	0.238	0.005
-451.953	-134.310	0.175	0.022
-450.938	-131.390	-0.132	-0.018
-449.924	625.002	-0.057	0.146
-448.909	143.000	0.120	-0.162
-447.895	-68.802	-0.116	0.045
-446.880	-10.981	-0.416	0.278
-445.865	-20.452	-0.223	-0.139
-444.851	-200.000	-0.035	-0.156
-443.836	-200.000	0.008	0.186
-442.822	-94.785	0.052	0.014
-441.807	-200.000	-0.028	-0.240
-440.792	-90.959	-0.275	0.080
-439.778	-200.000	0.025	0.330
-438.763	612.123	-0.125	0.316
-437.749	-59.783	0.132	-0.057
-436.734	-34.352	0.221	0.123
-435.719	-91.222	0.178	-0.052
-434.705	178.260	-0.179	0.265
-433.690	58.849	0.101	0.100
-432.676	72.965	0.182	0.193
-431.661	800.000	-0.053	0.162
-430.646	-15.924	-0.275	-0.177
-429.632	574.545	0.071	0.176
-428.617	-49.766	-0.226	-0.108
-427.603	57.394	0.127	-0.126
-426.588	-38.018	-0.056	-0.030
-425.573	120.912	0.092	-0.115
-424.559	-61.963	-0.251	0.106
-423.544	318.003	0.122	0.234
-422.530	72.313	0.145	0.153
-421.515	-200.000	0.001	0.159
-420.500	-200.000	-0.003	0.039
-419.486	201.106	-0.079	0.123
-418.471	441.783	0.049	-0.107
-417.457	-53.922	-0.048	0.022
-416.442	800.000	-0.053	0.194
-415.428	-78.039	0.106	0.037
-414.413	-149.163	-0.337	0.027
-413.398	283.448	-0.081	0.147
-412.384	206.694	-0.126	-0.199
-411.369	-200.000	-0.051	0.234
-410.355	800.000	-0.068	0.251
-409.340	-200.000	-0.002	0.316
-408.325	-179.097	-0.245	-0.006
-407.311	94.395	0.045	0.051
-406.296	-111.502	-0.120	0.025
-405.282	212.101	0.170	0.271
-404.267	132.869	0.072	0.094
-403.252	-92.991	0.456	0.128
-402.238	-200.000	0.035	-0.175
-401.223	-92.678	0.282	-0.080
-400.209	-147.930	0.077	-0.007
-399.194	-200.000	0.051	0.442
-398.179	-85.184	-0.112	-0.035
-397.165	-200.000	0.027	-0.160
-396.150	-125.161	-0.291	0.045
-395.136	220.729	-0.192	0.311
-394.121	490.343	-0.131	-0.302
-393.106	-40.819	-0.225	0.118
-392.092	142.744	0.122	0.164
-391.077	-148.557	-0.313	0.026
-390.063	286.183	0.056	0.102
-389.048	53.048	-0.137	0.132
-388.033	-7.444	0.106	-0.073
-387.019	-146.540	0.102	-0.009
-386.004	-200.000	-0.015	0.163
-384.990	-66.986	-0.210	-0.084
-383.975	-200.000	0.019	-0.158
-382.960	-104.867	0.248	0.057
-381.946	157.160	0.131	0.182
-380.931	-89.801	0.248	0.073
-379.917	5.887	0.202	0.151
-378.902	-57.910	-0.290	0.128
-377.888	311.740	0.027	-0.051
-376.873	-125.674	0.321	-0.049
-375.858	-185.518	-0.083	0.001
-374.844	-138.996	0.158	-0.017
-373.829	-70.405	0.411	0.157
-372.815	42.507	-0.162	-0.149
-371.800	800.000	-0.055	-0.167
-370.785	-87.164	0.414	0.127
-369.771	-48.791	0.094	0.046
-368.756	-139.836	-0.285	0.030
-367.742	-38.066	0.242	0.130
-366.727	322.420	0.023	0.045
-365.712	250.818	0.087	0.149
-364.698	390.434	0.123	0.258
-363.683	-18.257	-0.213	-0.134
-362.669	294.895	0.156	-0.288
-361.654	-89.320	0.171	0.051
-360.639	-115.423	-0.290	0.055
-359.625	-172.862	-0.243	-0.008
-358.610	141.697	0.059	-0.080
-357.596	501.106	-0.126	-0.294
-356.581	249.332	0.225	0.384
-355.566	105.360	-0.197	-0.235
-354.552	-200.000	-0.030	-0.259
-353.537	789.804	0.067	0.185
-352.523	38.491	0.066	-0.060
-351.508	-200.000	-0.032	0.266
-350.493	-115.909	0.183	0.035
-349.479	292.150	-0.141	0.258
-348.464	-138.704	0.263	0.029
-347.450	-200.000	-0.064	-0.418
-346.435	97.768	-0.085	-0.098
-345.420	-62.204	0.182	0.076
-344.406	-200.000	-0.008	0.374
-343.391	-200.000	0.097	0.000
-342.377	-16.064	0.200	0.128
-341.362	688.926	0.040	0.107
-340.348	553.827	0.154	-0.373
-339.333	133.416	-0.089	-0.116
-338.318	800.000	0.087	-0.285
-337.304	-84.294	-0.127	-0.040
-336.289	800.000	0.086	0.284
-335.275	-103.901	-0.220	0.052
-334.260	-58.086	0.146	-0.064
-333.245	-81.921	-0.486	0.160
-332.231	800.000	-0.078	-0.277
-331.216	-55.162	0.480	0.218
-330.202	41.905	0.078	-0.071
-329.187	-60.034	0.037	0.016
-328.172	100.625	0.372	0.435
-327.158	166.318	0.182	-0.260
-326.143	-200.000	-0.009	-0.168
-325.129	323.977	-0.077	0.148
-324.114	-183.477	0.211	-0.004
-323.099	76.035	0.039	0.042
-322.085	-86.148	0.130	-0.040
-321.070	433.590	-0.017	0.036
-320.056	22.791	-0.123	0.101
-319.041	-58.260	0.126	0.055
-318.026	132.395	0.212	0.275
-317.012	-200.000	-0.026	-0.221
-315.997	800.000	-0.028	0.114
-314.983	100.996	0.152	-0.178
-313.968	-78.551	0.280	-0.096
-312.953	-60.960	0.354	-0.151
-311.939	-137.003	-0.174	-0.020
-310.924	-197.157	-0.228	-0.001
-309.910	-24.223	0.073	-0.044
-308.895	-200.000	-0.020	-0.285
-307.880	36.982	-0.069	0.061
-306.866	-200.000	0.002	-0.021
-305.851	34.387	-0.050	0.044
-304.837	460.400	0.032	-0.071
-303.822	-200.000	0.002	-0.020
-302.807	54.932	0.149	-0.145
-301.793	800.000	0.024	-0.083
-300.778	800.000	0.115	-0.437
-299.764	469.913	-0.019	-0.042
-298.749	-36.167	0.122	0.066
-297.735	471.039	-0.186	-0.421
-296.720	-126.896	0.235	0.035
-295.705	459.575	-0.073	-0.163
-294.691	-120.383	-0.282	0.048
-293.676	292.447	0.181	0.332
-292.662	11.384	0.269	0.207
-291.647	-143.613	0.195	0.019
-290.632	414.531	-0.093	0.199
-289.618	-200.000	-0.038	0.312
-288.603	-62.427	-0.308	0.129
-287.589	-200.000	-0.004	-0.068
-286.574	-50.975	-0.283	-0.134
-285.559	95.840	-0.199	-0.229
-284.545	800.000	0.060	0.178
-283.530	800.000	0.022	-0.062
-282.516	-200.000	-0.019	-0.162
-281.501	-86.571	0.361	-0.111
-280.486	-153.645	-0.238	0.016
-279.472	485.138	-0.104	-0.238
-278.457	-151.714	0.175	-0.013
-277.443	-169.225	0.210	0.008
-276.428	800.000	0.113	0.484
-275.413	-101.850	0.079	-0.019
-274.399	37.675	-0.060	0.054
-273.384	-144.750	0.320	0.030
-272.370	-143.373	0.107	0.010
-271.355	147.849	-0.140	0.189
-270.340	-88.505	0.204	0.061
-269.326	81.551	-0.077	-0.084
-268.311	481.054	-0.066	0.150
-267.297	-145.060	-0.290	-0.027
-266.282	83.042	-0.203	0.222
-265.267	378.038	0.038	0.078
-264.253	-52.963	0.169	-0.078
-263.238	-63.464	-0.097	-0.040
-262.224	-45.598	-0.109	-0.054
-261.209	-41.655	-0.224	-0.116
-260.195	-143.960	-0.061	0.006
-259.180	63.873	-0.154	0.156
-258.165	61.226	0.131	0.131
-257.151	-28.934	0.045	-0.026
-256.136	-128.980	0.243	-0.034
-255.122	333.743	-0.055	-0.107
-254.107	182.480	-0.131	-0.193
-253.092	-122.360	-0.269	-0.044
-252.078	-200.000	-0.024	0.128
-251.063	172.012	-0.131	0.189
-250.049	-130.201	-0.239	0.033
-249.034	-200.000	-0.009	-0.073
-248.019	-7.320	0.090	0.062
-247.005	800.000	-0.067	-0.255
-245.990	-200.000	0.017	0.269
-244.976	-154.998	-0.084	0.006
-243.961	412.950	-0.037	-0.079
-242.946	-200.000	0.003	0.170
-241.932	800.000	-0.051	0.219
-240.917	-200.000	0.007	-0.118
-239.903	765.374	-0.080	0.218
-238.888	-200.000	-0.037	-0.461
-237.873	-200.000	-0.059	-0.262
-236.859	-51.387	-0.207	0.097
-235.844	-163.937	0.227	0.011
-234.830	-200.000	-0.007	-0.281
-233.815	737.232	-0.054	0.145
-232.800	-121.928	-0.297	0.049
-231.786	316.510	0.159	-0.301
-230.771	-172.496	-0.230	-0.007
-229.757	49.229	-0.086	-0.081
-228.742	-50.483	0.222	-0.105
-227.727	-113.779	-0.082	-0.016
-226.713	165.779	0.130	-0.185
-225.698	14.293	-0.180	0.141
-224.684	-102.502	0.261	0.063
-223.669	800.000	0.043	0.146
-222.655	39.446	-0.229	0.206
-221.640	-56.047	-0.120	-0.054
-220.625	181.086	0.103	0.152
-219.611	48.281	-0.048	-0.045
-218.596	322.365	0.121	0.232
-217.582	428.637	-0.024	0.053
-216.567	-200.000	0.001	0.269
-215.552	-200.000	0.037	0.243
-214.538	-120.716	0.191	0.032
-213.523	-30.606	-0.124	-0.071
-212.509	-21.183	-0.042	-0.026
-211.494	800.000	-0.032	0.102
-210.479	-132.030	-0.353	0.046
-209.465	-96.825	-0.088	0.023
-208.450	-139.106	-0.008	-0.001
-207.436	-170.662	0.143	-0.005
-206.421	-177.386	-0.316	0.008
-205.406	-82.050	0.097	-0.032
-204.392	800.000	0.041	-0.126
-203.377	-77.147	-0.249	-0.087
-202.363	42.486	-0.267	-0.244
-201.348	78.477	-0.288	0.309
-200.333	-200.000	-0.019	-0.243
-199.319	145.427	0.133	-0.179
-198.304	-200.000	0.023	0.105
-197.290	-50.134	-0.323	-0.153
-196.275	28.529	-0.163	0.139
-195.260	178.300	0.116	0.169
-194.246	166.086	0.123	0.175
-193.231	-24.469	0.083	0.049
-192.217	240.060	-0.028	-0.047
-191.202	163.849	-0.059	0.083
-190.187	-142.615	-0.296	-0.029
-189.173	-200.000	0.065	-0.331
-188.158	800.000	0.035	0.132
-187.144	-104.248	0.429	0.100
-186.129	-43.112	-0.219	-0.111
-185.114	-51.937	-0.283	0.132
-184.100	60.578	0.055	0.055
-183.085	287.463	-0.138	0.249
-182.071	-177.891	0.015	-0.000
-181.056	23.424	-0.189	-0.156
-180.042	159.339	0.165	0.229
-179.027	-143.121	0.316	-0.031
-178.012	17.964	0.289	0.230
-176.998	-183.439	0.170	-0.003
-175.983	-57.750	0.167	0.073
-174.969	74.682	0.023	0.024
-173.954	381.627	-0.181	0.372
-172.939	-105.050	-0.157	0.036
-171.925	-84.396	-0.131	0.042
-170.910	-45.886	-0.069	0.034
-169.896	-142.958	-0.042	0.004
-168.881	619.124	-0.118	-0.297
-167.866	-14.650	0.153	0.098
-166.852	121.361	0.028	-0.034
-165.837	-47.292	0.229	0.111
-164.823	239.436	-0.066	-0.109
-163.808	800.000	0.132	-0.485
-162.793	-102.574	0.085	0.020
-161.779	295.568	0.077	-0.142
-160.764	-15.345	-0.198	-0.127
-159.750	106.126	-0.035	-0.042
-158.735	-71.260	-0.092	0.035
-157.720	-50.199	-0.499	-0.236
-156.706	-34.880	-0.115	0.063
-155.691	538.721	0.040	-0.094
-154.677	-56.857	-0.434	0.192
-153.662	-8.292	-0.131	-0.088
-152.647	149.484	0.282	-0.382
-151.633	5.823	0.218	-0.161
-150.618	-65.952	0.179	-0.071
-149.604	-44.331	0.169	-0.085
-148.589	-73.458	0.091	0.033
-147.574	-200.000	0.002	-0.144
-146.560	-108.511	-0.129	0.028
-145.545	459.844	0.069	-0.154
-144.531	14.627	-0.203	0.159
-143.516	26.306	0.145	0.121
-142.502	31.313	0.209	0.180
-141.487	-114.771	0.142	0.027
-140.472	-117.715	0.144	0.026
-139.458	-37.161	0.242	0.129
-138.443	486.947	-0.019	0.043
-137.429	-200.000	0.047	0.209
-136.414	-128.354	0.213	0.030
-135.399	-145.405	0.531	-0.048
-134.385	-93.690	0.228	-0.063
-133.370	-90.406	0.083	-0.024
-132.356	800.000	0.009	0.028
-131.341	2.853	0.124	0.090
-130.326	-200.000	0.026	0.137
-129.312	-61.089	-0.168	-0.071
-128.297	-200.000	0.004	0.173
-127.283	458.232	-0.058	-0.128
-126.268	19.201	-0.180	0.144
-125.253	270.847	0.148	0.260
-124.239	-1.235	-0.145	0.102
-123.224	-36.926	0.318	-0.170
-122.210	365.164	0.073	-0.148
