DTS Sentinel unit serial number:	SN413079Multiplexer serial number:	ORYXHardware model number:	OX4-SRSoftware version number:	ORYX F/W v4.00 Oryx Data Collector v3.7.2.0data status	okinstallation	princeton_trtdifferential loss correction	single-endedforward channel	channel 1reverse channel	N/Adate	2019/09/19time	06:38:35forward acquisition time	60.00reverse acquisition time	0.00gamma	496.2192k internal	0.2343k external	0.2343temperature offset calibration	1.0017default loss term (dB/km)	0.3790temperature slope calibration	1.0000multiplexer offset coefficient	1.0000multiplexer slope coefficient	1.0000fibre end	0.00T internal ref (°C)	19.03T ext. ref 1 (°C)	0.56T ext. ref 2 (°C)	12.81length (m)	temperature (°C)	Stokes	anti-Stokes-747.200	-164.929	0.032	-0.001
-746.185	-200.000	0.004	0.236
-745.171	12.050	-0.173	0.133
-744.156	-108.368	-0.324	-0.070
-743.142	63.307	0.135	-0.135
-742.127	184.715	-0.064	-0.095
-741.112	620.430	-0.063	-0.160
-740.098	-200.000	-0.016	-0.102
-739.083	-52.024	-0.329	-0.153
-738.069	800.000	-0.040	-0.141
-737.054	144.812	0.195	0.261
-736.039	-19.977	-0.422	-0.261
-735.025	-200.000	-0.020	0.323
-734.010	-152.660	-0.338	-0.024
-732.996	-84.046	-0.503	-0.160
-731.981	-125.019	-0.270	-0.041
-730.966	28.925	-0.208	0.176
-729.952	-85.630	-0.044	0.014
-728.937	40.877	-0.048	-0.043
-727.923	-127.152	-0.410	0.060
-726.908	-200.000	-0.013	0.272
-725.894	-55.972	-0.175	0.078
-724.879	89.984	0.032	-0.036
-723.864	800.000	0.101	-0.389
-722.850	124.046	-0.099	0.125
-721.835	264.419	-0.114	0.199
-720.821	-126.118	-0.162	-0.024
-719.806	800.000	-0.037	0.162
-718.791	181.674	0.100	0.148
-717.777	216.402	-0.082	-0.131
-716.762	-111.704	0.241	-0.049
-715.748	-181.057	-0.242	0.005
-714.733	89.103	-0.168	-0.187
-713.718	-200.000	-0.012	0.165
-712.704	37.381	-0.265	0.235
-711.689	234.450	0.120	-0.197
-710.675	-75.190	-0.124	-0.044
-709.660	-90.795	0.081	0.023
-708.645	-92.195	-0.087	0.025
-707.631	-131.224	0.296	-0.039
-706.616	352.818	0.077	0.153
-705.602	385.810	0.040	-0.082
-704.587	-200.000	-0.026	0.228
-703.572	625.588	-0.135	-0.341
-702.558	-99.720	-0.181	-0.045
-701.543	-33.868	0.105	-0.058
-700.529	-4.740	-0.130	-0.090
-699.514	-160.174	-0.155	-0.008
-698.499	384.770	0.184	-0.379
-697.485	-200.000	0.011	-0.276
-696.470	-200.000	0.018	0.223
-695.456	251.560	-0.084	-0.144
-694.441	-7.091	0.277	-0.188
-693.426	420.143	-0.039	0.084
-692.412	-54.074	0.073	-0.033
-691.397	-200.000	0.024	-0.230
-690.383	278.412	-0.169	-0.301
-689.368	141.365	-0.054	-0.072
-688.354	-18.725	-0.080	0.050
-687.339	-2.921	-0.112	-0.078
-686.324	-60.936	0.117	-0.049
-685.310	50.214	0.167	0.158
-684.295	204.020	-0.080	-0.123
-683.281	375.373	0.069	-0.141
-682.266	-200.000	-0.047	0.365
-681.251	-50.049	0.217	0.103
-680.237	-200.000	0.002	-0.141
-679.222	12.081	0.232	0.179
-678.208	186.821	-0.072	0.108
-677.193	-200.000	-0.006	0.198
-676.178	142.788	0.124	0.165
-675.164	-154.372	-0.399	-0.027
-674.149	-168.367	0.343	-0.013
-673.135	50.544	0.176	0.166
-672.120	122.888	0.173	-0.216
-671.105	-106.520	-0.220	0.049
-670.091	431.181	-0.072	0.155
-669.076	14.974	-0.131	0.102
-668.062	-200.000	-0.008	-0.175
-667.047	800.000	-0.020	0.079
-666.032	79.629	-0.047	0.050
-665.018	29.001	-0.252	0.213
-664.003	-11.270	0.169	0.111
-662.989	424.038	-0.126	-0.270
-661.974	-200.000	-0.053	0.284
-660.959	-113.160	0.119	-0.023
-659.945	-151.393	-0.233	0.017
-658.930	-200.000	0.036	-0.215
-657.916	482.167	0.113	-0.257
-656.901	-200.000	0.018	-0.123
-655.886	288.295	0.058	-0.105
-654.872	-61.169	-0.226	0.095
-653.857	-112.145	0.057	-0.012
-652.843	-73.092	0.260	0.095
-651.828	-173.777	0.528	0.016
-650.814	211.788	0.115	-0.181
-649.799	-56.515	0.428	0.190
-648.784	-200.000	0.045	0.240
-647.770	94.717	-0.130	0.147
-646.755	-112.096	-0.282	0.057
-645.741	36.985	0.101	0.089
-644.726	70.044	-0.251	-0.258
-643.711	22.724	-0.333	-0.272
-642.697	-200.000	-0.002	0.167
-641.682	122.522	-0.148	-0.185
-640.668	-200.000	0.012	-0.144
-639.653	-80.595	0.198	0.066
-638.638	-69.893	-0.244	-0.093
-637.624	-92.632	0.177	-0.050
-636.609	-96.071	-0.206	0.055
-635.595	98.177	0.268	0.308
-634.580	-104.690	0.253	0.058
-633.565	396.214	0.223	0.463
-632.551	548.073	0.110	-0.263
-631.536	331.489	-0.129	0.248
-630.522	-200.000	-0.032	-0.396
-629.507	268.899	0.139	-0.242
-628.492	-166.277	0.393	-0.017
-627.478	92.035	0.150	-0.168
-626.463	-73.864	0.063	0.023
-625.449	169.192	-0.163	-0.231
-624.434	-4.315	-0.408	0.281
-623.419	-132.657	-0.329	0.042
-622.405	-103.991	0.271	-0.063
-621.390	800.000	0.019	0.062
-620.376	-200.000	0.025	0.120
-619.361	105.256	-0.113	-0.133
-618.346	48.181	0.065	0.060
-617.332	-89.481	0.146	0.043
-616.317	-138.374	0.203	0.022
-615.303	-200.000	0.003	0.091
-614.288	-148.689	-0.419	-0.034
-613.273	800.000	-0.075	0.275
-612.259	81.016	0.115	-0.124
-611.244	176.997	-0.186	0.270
-610.230	-49.220	-0.060	0.029
-609.215	800.000	-0.052	-0.165
-608.201	-45.134	0.191	-0.095
-607.186	800.000	-0.056	0.206
-606.171	375.469	0.108	0.219
-605.157	449.944	0.026	0.056
-604.142	800.000	0.048	-0.183
-603.128	-200.000	-0.049	0.227
-602.113	651.119	-0.031	-0.078
-601.098	-200.000	-0.009	-0.117
-600.084	542.732	-0.071	0.168
-599.069	-200.000	-0.017	0.106
-598.055	352.795	-0.064	0.125
-597.040	-7.633	0.036	-0.024
-596.025	-200.000	0.008	-0.083
-595.011	54.870	0.345	0.331
-593.996	-44.388	0.235	0.117
-592.982	122.519	0.188	0.234
-591.967	-61.331	-0.249	-0.104
-590.952	460.870	0.172	-0.382
-589.938	195.173	-0.160	0.242
-588.923	24.473	-0.238	0.196
-587.909	-113.578	0.246	0.048
-586.894	-200.000	-0.074	0.343
-585.879	178.829	-0.158	0.230
-584.865	-200.000	-0.028	0.215
-583.850	-78.765	0.206	0.070
-582.836	265.637	0.100	0.173
-581.821	-200.000	0.053	-0.260
-580.806	68.713	0.053	-0.054
-579.792	-200.000	0.034	-0.430
-578.777	377.283	0.069	0.139
-577.763	-200.000	0.011	-0.168
-576.748	235.528	-0.072	0.119
-575.733	800.000	-0.071	-0.262
-574.719	117.885	-0.202	-0.247
-573.704	697.372	-0.036	-0.095
-572.690	-29.607	0.159	-0.091
-571.675	-99.962	0.314	-0.078
-570.661	37.675	-0.092	-0.081
-569.646	-84.741	0.393	-0.123
-568.631	-200.000	0.004	0.033
-567.617	-5.983	0.224	-0.152
-566.602	147.427	-0.076	0.102
-565.588	-6.503	0.117	-0.079
-564.573	350.449	0.021	0.042
-563.558	-200.000	-0.015	-0.242
-562.544	-35.430	-0.106	-0.057
-561.529	50.092	-0.172	0.161
-560.515	178.504	-0.125	0.181
-559.500	-11.141	-0.081	-0.053
-558.485	-53.581	-0.164	-0.075
-557.471	399.780	0.128	0.268
-556.456	16.530	-0.125	0.098
-555.442	-200.000	-0.017	0.249
-554.427	208.509	0.128	-0.199
-553.412	419.720	-0.057	0.121
-552.398	48.210	0.099	0.092
-551.383	-137.771	-0.139	-0.016
-550.369	21.037	0.047	-0.038
-549.354	800.000	-0.056	-0.184
-548.339	-116.403	0.226	0.041
-547.325	-200.000	0.008	-0.213
-546.310	779.024	-0.039	-0.105
-545.296	-85.841	0.094	0.029
-544.281	-102.871	-0.618	0.146
-543.266	-137.813	0.117	0.013
-542.252	-200.000	0.014	-0.112
-541.237	-49.179	-0.139	-0.066
-540.223	-2.965	-0.186	0.129
-539.208	-200.000	-0.007	-0.368
-538.193	-170.186	0.222	-0.008
-537.179	671.570	0.183	-0.471
-536.164	-53.783	-0.210	-0.095
-535.150	202.221	-0.101	0.155
-534.135	-49.119	0.154	-0.073
-533.121	-200.000	0.025	-0.157
-532.106	192.505	0.084	-0.126
-531.091	-200.000	-0.017	0.173
-530.077	94.193	-0.061	-0.068
-529.062	103.390	-0.114	-0.133
-528.048	-145.916	0.195	-0.017
-527.033	20.628	-0.225	-0.180
-526.018	-200.000	-0.084	-0.418
-525.004	36.540	-0.192	0.168
-523.989	-120.099	0.401	-0.068
-522.975	8.566	-0.202	0.151
-521.960	-186.772	0.092	-0.001
-520.945	551.775	-0.117	0.280
-519.931	-37.544	0.043	-0.023
-518.916	-200.000	-0.019	-0.137
-517.902	-200.000	-0.030	-0.234
-516.887	-35.398	-0.192	-0.104
-515.872	319.569	0.052	0.097
-514.858	-200.000	-0.009	-0.234
-513.843	-36.031	0.192	-0.103
-512.829	10.142	-0.113	0.085
-511.814	191.765	-0.223	-0.334
-510.799	117.497	-0.152	-0.185
-509.785	288.728	0.085	-0.152
-508.770	-30.901	0.034	0.019
-507.756	-25.376	0.123	-0.072
-506.741	-200.000	-0.002	0.019
-505.726	53.871	0.294	0.280
-504.712	-200.000	0.043	-0.192
-503.697	64.886	0.134	0.135
-502.683	137.301	0.138	0.178
-501.668	103.689	0.293	0.342
-500.653	-147.655	-0.325	-0.027
-499.639	800.000	0.012	0.054
-498.624	-200.000	-0.054	0.258
-497.610	31.186	-0.111	0.094
-496.595	301.507	-0.066	0.122
-495.581	800.000	0.083	0.262
-494.566	608.843	-0.099	-0.246
-493.551	-128.709	-0.278	0.039
-492.537	-48.497	-0.244	-0.116
-491.522	-121.763	-0.088	-0.014
-490.508	-200.000	-0.014	0.118
-489.493	-29.969	0.141	0.080
-488.478	-200.000	-0.070	-0.325
-487.464	-200.000	-0.004	0.031
-486.449	-135.907	-0.336	0.039
-485.435	138.006	0.267	-0.347
-484.420	-200.000	0.008	0.125
-483.405	80.086	-0.105	0.112
-482.391	-200.000	0.011	0.093
-481.376	-123.940	-0.369	0.058
-480.362	-19.631	-0.035	0.021
-479.347	-63.689	0.319	0.130
-478.332	-1.771	0.142	0.099
-477.318	-200.000	0.024	-0.128
-476.303	-116.240	0.289	0.053
-475.289	263.464	0.025	0.042
-474.274	-43.334	-0.171	0.086
-473.259	800.000	0.145	0.397
-472.245	183.209	0.238	0.348
-471.230	-200.000	-0.018	-0.098
-470.216	94.584	-0.117	0.131
-469.201	-145.329	-0.265	0.024
-468.186	178.955	0.365	0.528
-467.172	716.453	-0.072	0.190
-466.157	-167.812	-0.086	0.003
-465.143	221.261	-0.022	0.035
-464.128	319.226	0.024	0.045
-463.113	-88.612	-0.183	-0.054
-462.099	-71.030	-0.201	0.075
-461.084	-200.000	-0.003	-0.079
-460.070	155.114	-0.019	-0.026
-459.055	426.523	-0.064	-0.136
-458.040	-88.591	-0.106	0.031
-457.026	-102.908	-0.202	0.047
-456.011	704.923	-0.029	0.077
-454.997	34.704	-0.189	0.164
-453.982	-200.000	0.058	0.312
-452.968	113.703	-0.097	-0.117
-451.953	137.881	0.072	0.094
-450.938	-200.000	-0.090	0.000
-449.924	557.994	-0.029	-0.069
-448.909	-167.778	0.158	-0.006
-447.895	-45.198	0.135	0.067
-446.880	156.459	-0.106	0.145
-445.865	56.833	-0.203	0.195
-444.851	494.135	0.141	-0.320
-443.836	-33.337	-0.257	-0.141
-442.822	280.376	0.239	0.422
-441.807	800.000	0.093	0.315
-440.792	800.000	-0.084	-0.333
-439.778	-152.279	-0.240	-0.017
-438.763	348.578	0.171	-0.333
-437.749	-96.562	-0.145	-0.038
-436.734	-200.000	0.055	-0.254
-435.719	-182.268	0.126	0.002
-434.705	561.714	0.060	-0.143
-433.690	-116.714	-0.123	-0.022
-432.676	342.380	-0.154	-0.299
-431.661	-153.985	0.367	0.025
-430.646	800.000	0.053	-0.147
-429.632	61.975	0.216	0.213
-428.617	70.677	0.192	0.196
-427.603	768.669	-0.041	0.111
-426.588	73.943	0.136	0.141
-425.573	-65.276	-0.188	-0.075
-424.559	42.138	0.216	-0.194
-423.544	-66.422	-0.157	-0.062
-422.530	-109.186	0.185	0.039
-421.515	-30.267	0.225	-0.126
-420.500	-144.591	-0.294	-0.027
-419.486	113.353	0.176	-0.212
-418.471	-161.858	0.262	0.013
-417.457	33.748	-0.225	-0.194
-416.442	199.317	-0.098	0.148
-415.428	-160.143	0.117	-0.006
-414.413	-131.108	-0.218	-0.029
-413.398	-90.652	0.243	-0.069
-412.384	-36.629	0.059	-0.032
-411.369	234.157	-0.110	0.179
-410.355	704.751	0.094	-0.245
-409.340	35.345	0.246	-0.213
-408.325	166.726	-0.207	0.290
-407.311	37.865	0.079	0.069
-406.296	800.000	-0.012	0.039
-405.282	129.317	0.127	0.161
-404.267	93.443	-0.257	-0.287
-403.252	518.001	0.157	-0.363
-402.238	-155.812	-0.284	-0.018
-401.223	734.599	0.123	-0.326
-400.209	-43.697	0.085	0.042
-399.194	-22.475	-0.147	-0.088
-398.179	-14.162	-0.162	-0.103
-397.165	-200.000	0.001	0.150
-396.150	-200.000	-0.056	-0.365
-395.136	411.204	0.056	-0.117
-394.121	266.617	0.236	0.406
-393.106	-23.070	-0.338	-0.201
-392.092	526.376	0.036	-0.084
-391.077	-200.000	-0.083	-0.461
-390.063	27.201	-0.219	-0.182
-389.048	800.000	-0.026	0.071
-388.033	259.511	0.062	0.106
-387.019	-22.683	-0.224	-0.134
-386.004	-105.429	0.141	-0.032
-384.990	-64.036	0.227	-0.092
-383.975	206.409	0.099	0.152
-382.960	800.000	-0.211	0.579
-381.946	-6.605	-0.075	0.050
-380.931	-87.893	-0.071	0.021
-379.917	13.073	-0.082	0.063
-378.902	731.453	-0.042	0.112
-377.888	62.687	-0.173	-0.170
-376.873	-156.334	-0.265	-0.016
-375.858	-115.979	0.173	0.032
-374.844	800.000	0.080	0.224
-373.829	-80.118	-0.319	0.105
-372.815	21.118	-0.173	-0.139
-371.800	-200.000	-0.002	0.080
-370.785	25.941	-0.282	-0.232
-369.771	800.000	-0.058	-0.171
-368.756	114.321	0.136	-0.163
-367.742	-200.000	0.052	0.403
-366.727	-120.768	-0.036	0.006
-365.712	66.085	0.063	-0.064
-364.698	420.081	-0.079	0.167
-363.683	-94.165	0.045	0.012
-362.669	13.955	0.103	0.079
-361.654	49.170	-0.173	-0.161
-360.639	800.000	0.166	-0.608
-359.625	-200.000	-0.015	-0.203
-358.610	-67.715	0.267	-0.103
-357.596	800.000	-0.055	0.209
-356.581	89.002	-0.039	-0.043
-355.566	47.760	0.102	-0.094
-354.552	4.766	-0.190	0.138
-353.537	104.731	0.143	-0.167
-352.523	-200.000	0.005	-0.383
-351.508	54.002	-0.046	-0.044
-350.493	-44.420	-0.149	-0.074
-349.479	-49.887	-0.116	0.054
-348.464	63.044	-0.215	-0.213
-347.450	800.000	-0.042	-0.126
-346.435	800.000	-0.137	-0.479
-345.420	-36.275	-0.262	0.139
-344.406	32.847	0.118	0.101
-343.391	375.340	0.148	-0.297
-342.377	-200.000	-0.031	0.270
-341.362	155.567	0.100	0.136
-340.348	-36.473	0.218	0.116
-339.333	-22.323	0.142	-0.085
-338.318	106.130	-0.242	0.282
-337.304	633.760	0.044	0.110
-336.289	-19.647	0.105	-0.064
-335.275	-200.000	0.039	0.372
-334.260	-15.693	0.307	0.193
-333.245	-70.432	-0.256	-0.096
-332.231	-195.105	0.349	0.003
-331.216	-74.547	-0.281	0.100
-330.202	-57.500	0.079	-0.034
-329.187	-200.000	0.022	-0.276
-328.172	-145.530	0.306	-0.027
-327.158	107.070	-0.048	0.057
-326.143	290.921	0.170	0.305
-325.129	-200.000	0.034	0.263
-324.114	129.793	-0.126	0.158
-323.099	188.073	0.249	-0.366
-322.085	800.000	0.093	0.293
-321.070	-9.533	-0.206	0.135
-320.056	313.853	0.089	0.164
-319.041	-200.000	-0.002	-0.337
-318.026	107.389	-0.146	-0.171
-317.012	-54.911	-0.217	-0.096
-315.997	-24.352	-0.139	0.082
-314.983	-131.846	-0.247	0.032
-313.968	-200.000	-0.003	0.026
-312.953	-9.443	0.120	0.079
-311.939	-100.950	0.304	-0.074
-310.924	-163.173	-0.353	-0.017
-309.910	-200.000	-0.015	0.392
-308.895	-200.000	0.036	0.243
-307.880	225.029	-0.140	0.223
-306.866	-200.000	-0.020	-0.419
-305.851	678.052	-0.042	-0.108
-304.837	63.820	0.091	0.090
-303.822	-30.087	0.330	0.185
-302.807	-89.494	-0.131	0.038
-301.793	-90.547	-0.075	0.021
-300.778	-144.849	-0.121	0.011
-299.764	-136.539	0.315	0.036
-298.749	-171.407	0.247	-0.008
-297.735	13.325	-0.155	0.118
-296.720	-77.060	-0.191	0.066
-295.705	-123.666	0.140	0.022
-294.691	-62.218	0.175	0.072
-293.676	20.050	-0.246	0.195
-292.662	601.007	0.086	-0.210
-291.647	-200.000	0.022	-0.152
-290.632	-96.979	0.231	0.060
-289.618	400.549	-0.126	-0.260
-288.603	2.519	-0.087	-0.062
-287.589	292.554	-0.149	0.267
-286.574	-122.495	0.193	-0.031
-285.559	345.253	0.132	0.255
-284.545	-49.901	-0.204	-0.095
-283.530	800.000	0.078	0.223
-282.516	519.858	0.079	0.182
-281.501	224.381	0.151	-0.240
-280.486	20.676	0.200	-0.159
-279.472	386.225	0.104	-0.212
-278.457	-31.207	-0.198	0.109
-277.443	106.963	-0.103	0.121
-276.428	-116.603	0.116	0.021
-275.413	263.024	0.140	0.239
-274.399	-102.703	-0.210	-0.049
-273.384	220.802	-0.084	-0.133
-272.370	-4.537	0.111	0.076
-271.355	435.863	0.159	0.341
-270.340	-111.148	-0.225	0.045
-269.326	-81.777	-0.097	0.031
-268.311	92.210	-0.265	0.293
-267.297	-108.289	0.312	-0.066
-266.282	314.832	0.083	-0.153
-265.267	-161.033	0.284	-0.015
-264.253	-200.000	-0.015	-0.359
-263.238	20.400	-0.193	0.153
-262.224	800.000	0.070	-0.239
-261.209	64.647	-0.166	0.164
-260.195	-129.253	0.101	0.014
-259.180	453.328	0.078	0.169
-258.165	74.160	-0.023	-0.023
-257.151	19.270	0.108	0.085
-256.136	800.000	0.067	0.201
-255.122	-200.000	-0.019	0.128
-254.107	113.752	-0.118	0.141
-253.092	110.495	-0.274	-0.324
-252.078	-61.968	0.385	0.158
-251.063	-200.000	-0.002	-0.163
-250.049	-137.091	0.164	-0.018
-249.034	80.117	-0.140	0.147
-248.019	800.000	0.084	0.267
-247.005	521.419	-0.123	-0.283
-245.990	260.803	-0.128	0.217
-244.976	198.940	-0.016	0.024
-243.961	-117.764	-0.372	-0.066
-242.946	81.915	-0.179	-0.191
-241.932	-200.000	0.031	-0.242
-240.917	32.235	-0.152	0.129
-239.903	800.000	0.051	-0.158
-238.888	62.623	0.197	-0.193
-237.873	-41.394	0.286	-0.144
-236.859	800.000	-0.071	-0.248
-235.844	800.000	0.034	0.093
-234.830	-98.601	-0.176	0.044
-233.815	-200.000	0.021	0.143
-232.800	-200.000	0.053	0.527
-231.786	129.461	0.155	0.195
-230.771	-44.799	0.183	0.090
-229.757	174.129	-0.121	0.172
-228.742	-110.197	0.179	-0.037
-227.727	445.795	0.194	-0.419
-226.713	66.904	-0.035	0.035
-225.698	-41.022	0.225	-0.114
-224.684	22.492	-0.227	0.182
-223.669	-110.691	-0.077	0.016
-222.655	241.234	-0.148	0.243
-221.640	-16.817	0.074	0.046
-220.625	-137.921	-0.493	-0.054
-219.611	800.000	-0.069	0.229
-218.596	-118.419	-0.172	0.030
-217.582	82.546	0.129	-0.137
-216.567	-30.492	0.172	0.096
-215.552	-200.000	-0.035	-0.277
-214.538	582.123	0.108	0.261
-213.523	-106.726	0.149	0.032
-212.509	-6.339	-0.117	-0.078
-211.494	-119.984	-0.029	-0.005
-210.479	87.340	0.022	0.024
-209.465	800.000	0.013	0.048
-208.450	-21.104	-0.090	0.054
-207.436	-73.990	0.271	0.096
-206.421	-22.534	0.150	0.089
-205.406	-145.864	-0.088	0.008
-204.392	-138.245	-0.270	-0.029
-203.377	-128.601	0.223	0.031
-202.363	-119.250	0.289	-0.049
-201.348	52.975	0.062	0.058
-200.333	193.450	0.088	0.131
-199.319	800.000	0.032	0.103
-198.304	-80.054	0.151	-0.050
-197.290	83.416	-0.325	0.347
-196.275	800.000	-0.030	-0.113
-195.260	185.900	-0.038	0.055
-194.246	78.245	-0.137	-0.144
-193.231	-67.878	-0.127	-0.049
-192.217	106.434	0.168	-0.195
-191.202	249.962	-0.030	-0.051
-190.187	210.801	0.090	-0.138
-189.173	-80.533	-0.435	0.142
-188.158	-200.000	0.034	-0.259
-187.144	-119.518	-0.278	0.047
-186.129	100.739	0.230	0.262
-185.114	-155.644	0.181	-0.011
-184.100	315.885	-0.054	0.100
-183.085	-41.595	0.259	-0.131
-182.071	607.878	0.126	-0.307
-181.056	-145.246	0.391	-0.035
-180.042	-107.216	0.126	-0.027
-179.027	-111.308	-0.026	0.005
-178.012	-200.000	-0.017	-0.337
-176.998	8.594	-0.226	0.167
-175.983	-42.182	0.197	-0.099
-174.969	241.978	-0.080	-0.132
-173.954	21.901	0.047	0.037
-172.939	184.073	-0.220	-0.319
-171.925	-43.827	-0.426	-0.210
-170.910	380.914	0.205	-0.412
-169.896	2.221	-0.196	-0.139
-168.881	-42.385	0.134	-0.067
-167.866	-56.980	0.199	-0.086
-166.852	116.236	-0.087	-0.104
-165.837	-200.000	-0.028	-0.138
-164.823	-120.304	0.074	-0.012
-163.808	-200.000	0.091	0.442
-162.793	800.000	-0.092	0.287
-161.779	1.129	0.183	-0.128
-160.764	-200.000	0.023	-0.325
-159.750	-200.000	0.016	-0.196
-158.735	463.219	-0.071	-0.155
-157.720	-61.309	0.283	0.117
-156.706	226.222	-0.144	-0.229
-155.691	800.000	0.049	-0.175
-154.677	61.734	0.101	-0.098
-153.662	106.052	0.077	0.089
-152.647	272.331	-0.119	0.205
-151.633	-200.000	-0.036	0.224
-150.618	800.000	0.095	-0.364
-149.604	35.338	0.250	-0.214
-148.589	-22.669	-0.099	-0.058
-147.574	-77.789	-0.131	-0.044
-146.560	-122.813	0.177	-0.028
-145.545	66.951	0.032	-0.032
-144.531	-134.969	-0.333	-0.039
-143.516	57.422	-0.176	0.168
-142.502	-24.709	-0.091	0.053
-141.487	98.528	-0.168	-0.190
-140.472	58.000	0.376	-0.360
-139.458	-14.074	0.051	0.032
-138.443	-137.825	0.090	0.010
-137.429	42.334	-0.095	-0.085
-136.414	-137.678	-0.188	0.021
-135.399	-128.112	0.113	-0.016
-134.385	-200.000	0.034	-0.208
-133.370	-200.000	0.007	-0.543
-132.356	-184.167	-0.141	0.002
-131.341	-73.690	0.289	0.103
-130.326	-131.207	-0.115	-0.015
-129.312	-36.790	0.232	-0.122
-128.297	45.959	-0.159	0.144
-127.283	-200.000	0.006	0.044
-126.268	-200.000	0.001	-0.026
-125.253	800.000	0.042	0.133
-124.239	-19.968	0.376	-0.227
-123.224	800.000	0.020	0.073
-122.210	-26.348	0.064	-0.037
