DTS Sentinel unit serial number:	SN413079Multiplexer serial number:	ORYXHardware model number:	OX4-SRSoftware version number:	ORYX F/W v4.00 Oryx Data Collector v3.7.2.0data status	okinstallation	princeton_trtdifferential loss correction	single-endedforward channel	channel 1reverse channel	N/Adate	2019/09/18time	10:42:35forward acquisition time	60.00reverse acquisition time	0.00gamma	496.2192k internal	0.2327k external	0.2327temperature offset calibration	0.9978default loss term (dB/km)	0.3790temperature slope calibration	1.0000multiplexer offset coefficient	1.0000multiplexer slope coefficient	1.0000fibre end	0.00T internal ref (°C)	28.75T ext. ref 1 (°C)	0.36T ext. ref 2 (°C)	25.43length (m)	temperature (°C)	Stokes	anti-Stokes-747.200	51.878	0.233	-0.224
-746.185	800.000	0.090	0.318
-745.171	-200.000	-0.015	-0.202
-744.156	800.000	0.091	0.272
-743.142	-27.769	-0.026	-0.015
-742.127	-200.000	0.094	0.484
-741.112	340.192	-0.087	-0.171
-740.098	800.000	0.016	0.044
-739.083	-200.000	0.036	-0.174
-738.069	-53.015	-0.105	0.049
-737.054	-162.956	0.115	-0.006
-736.039	-143.535	-0.546	-0.052
-735.025	36.565	0.384	0.341
-734.010	15.607	0.081	0.064
-732.996	-200.000	0.012	-0.245
-731.981	-37.500	-0.349	-0.187
-730.966	-147.764	-0.243	-0.021
-729.952	482.161	0.153	-0.349
-728.937	-200.000	0.065	-0.405
-727.923	-162.771	-0.042	0.002
-726.908	-61.100	-0.306	-0.130
-725.894	-5.029	-0.205	0.142
-724.879	246.434	0.176	-0.299
-723.864	-68.814	-0.191	0.074
-722.850	41.857	0.343	-0.314
-721.835	800.000	-0.104	-0.291
-720.821	202.021	0.097	0.150
-719.806	-200.000	-0.087	-0.484
-718.791	800.000	-0.069	-0.199
-717.777	-200.000	0.060	0.342
-716.762	-39.484	0.206	0.109
-715.748	-29.392	-0.135	-0.078
-714.733	73.235	-0.224	0.236
-713.718	67.925	0.133	-0.137
-712.704	-80.728	0.246	0.082
-711.689	-73.227	-0.255	-0.094
-710.675	-200.000	-0.023	0.190
-709.660	-63.020	-0.512	-0.213
-708.645	422.689	0.102	-0.221
-707.631	-99.999	0.322	-0.081
-706.616	-136.842	0.267	-0.031
-705.602	-98.584	-0.186	0.048
-704.587	-0.730	0.242	-0.172
-703.572	-147.225	0.151	-0.013
-702.558	162.254	0.042	0.060
-701.543	-39.011	-0.068	0.036
-700.529	800.000	-0.050	-0.163
-699.514	140.743	0.093	0.123
-698.499	-170.525	0.174	0.006
-697.485	-200.000	-0.002	-0.322
-696.470	373.892	0.020	0.042
-695.456	215.962	0.135	-0.216
-694.441	27.602	0.151	0.128
-693.426	101.590	0.139	0.163
-692.412	42.693	-0.270	-0.248
-691.397	-200.000	0.017	-0.258
-690.383	-28.058	-0.222	0.129
-689.368	-200.000	0.041	-0.374
-688.354	-45.483	-0.369	0.184
-687.339	-75.252	-0.327	0.117
-686.324	-200.000	0.006	0.224
-685.310	312.386	-0.026	0.049
-684.295	-93.153	0.131	-0.037
-683.281	108.557	0.113	-0.136
-682.266	215.862	-0.025	0.040
-681.251	78.716	0.175	0.188
-680.237	-66.957	-0.241	0.096
-679.222	-65.906	-0.101	-0.041
-678.208	800.000	-0.081	-0.338
-677.193	-11.591	0.174	0.115
-676.178	340.541	-0.018	0.036
-675.164	106.466	-0.028	0.033
-674.149	-105.026	-0.148	-0.034
-673.135	-200.000	-0.043	0.383
-672.120	131.662	0.145	-0.188
-671.105	-89.822	0.333	0.098
-670.091	-184.900	-0.401	0.006
-669.076	104.015	-0.203	0.240
-668.062	133.909	-0.145	-0.188
-667.047	66.111	0.169	-0.172
-666.032	481.962	0.104	0.237
-665.018	299.170	-0.074	0.137
-664.003	200.019	-0.199	0.307
-662.989	-8.229	0.223	0.151
-661.974	-114.323	0.400	0.077
-660.959	51.751	-0.218	0.209
-659.945	88.744	-0.098	-0.109
-658.930	-89.674	0.092	0.027
-657.916	-112.538	-0.310	0.062
-656.901	-153.584	-0.236	-0.016
-655.886	7.433	0.222	0.167
-654.872	36.255	-0.165	-0.146
-653.857	-22.344	-0.157	-0.096
-652.843	800.000	-0.095	0.340
-651.828	-47.746	0.275	0.134
-650.814	232.862	0.131	-0.216
-649.799	-200.000	0.037	0.283
-648.784	350.275	-0.147	-0.291
-647.770	800.000	-0.070	0.244
-646.755	800.000	0.044	0.148
-645.741	-200.000	0.068	0.434
-644.726	-200.000	-0.019	0.171
-643.711	488.143	-0.108	-0.247
-642.697	174.197	0.197	0.286
-641.682	-200.000	0.023	0.240
-640.668	-200.000	0.008	0.335
-639.653	-73.738	0.024	0.009
-638.638	-94.604	-0.213	-0.058
-637.624	-200.000	-0.020	0.193
-636.609	800.000	-0.112	-0.323
-635.595	-200.000	-0.060	-0.359
-634.580	-62.543	0.224	-0.094
-633.565	26.708	-0.042	-0.035
-632.551	359.680	-0.203	-0.409
-631.536	-79.670	-0.317	0.107
-630.522	800.000	-0.086	0.296
-629.507	-200.000	0.089	-0.392
-628.492	182.750	0.034	-0.050
-627.478	132.022	0.216	-0.279
-626.463	-119.032	0.352	0.062
-625.449	-108.455	0.173	0.037
-624.434	-56.488	0.314	-0.140
-623.419	189.167	0.034	-0.051
-622.405	-200.000	-0.023	-0.258
-621.390	-200.000	0.060	-0.278
-620.376	31.923	-0.073	0.063
-619.361	236.759	-0.122	-0.203
-618.346	33.616	-0.094	0.082
-617.332	-200.000	0.061	0.433
-616.317	-142.489	0.066	0.007
-615.303	-79.227	-0.155	-0.053
-614.288	-147.617	-0.090	-0.008
-613.273	800.000	0.050	-0.182
-612.259	-200.000	-0.031	0.176
-611.244	495.084	0.084	0.192
-610.230	444.156	0.067	0.148
-609.215	-104.339	-0.118	-0.027
-608.201	-89.493	0.418	-0.123
-607.186	-33.106	0.159	0.088
-606.171	-41.800	-0.223	0.115
-605.157	6.481	0.194	-0.145
-604.142	-99.239	0.189	0.048
-603.128	600.603	0.148	0.369
-602.113	334.152	-0.128	-0.248
-601.098	-20.145	0.060	-0.037
-600.084	800.000	-0.119	-0.333
-599.069	-200.000	0.063	-0.435
-598.055	-66.472	0.098	-0.039
-597.040	-130.588	0.386	-0.052
-596.025	44.235	-0.155	-0.142
-595.011	800.000	0.051	-0.151
-593.996	0.248	0.098	0.070
-592.982	3.452	-0.113	0.083
-591.967	248.423	0.187	-0.317
-590.952	95.629	0.298	0.341
-589.938	109.865	0.135	-0.163
-588.923	-200.000	-0.012	-0.061
-587.909	-23.421	-0.201	-0.121
-586.894	537.134	0.080	0.190
-585.879	243.624	0.045	0.076
-584.865	-111.214	-0.260	-0.053
-583.850	-200.000	0.001	-0.169
-582.836	-107.649	0.231	-0.051
-581.821	-21.838	-0.404	-0.246
-580.806	800.000	-0.088	-0.264
-579.792	-200.000	-0.001	0.465
-578.777	67.868	0.121	0.124
-577.763	54.337	0.084	-0.081
-576.748	-32.295	0.128	-0.071
-575.733	-200.000	-0.002	-0.057
-574.719	-200.000	0.042	-0.385
-573.704	137.813	0.097	0.127
-572.690	-63.523	-0.243	-0.100
-571.675	-200.000	0.022	-0.240
-570.661	-200.000	0.004	0.064
-569.646	-87.360	-0.272	-0.083
-568.631	-101.933	0.137	-0.033
-567.617	195.966	0.110	-0.167
-566.602	-30.688	-0.315	0.178
-565.588	144.840	-0.121	0.162
-564.573	-190.012	0.185	0.002
-563.558	709.364	0.090	-0.238
-562.544	-26.535	-0.224	0.131
-561.529	-12.421	0.106	-0.069
-560.515	-87.650	0.221	-0.067
-559.500	800.000	0.087	0.337
-558.485	38.239	-0.158	0.141
-557.471	108.010	0.197	0.235
-556.456	-45.697	0.219	-0.109
-555.442	-98.140	0.029	-0.008
-554.427	172.454	0.077	0.111
-553.412	-16.522	0.233	-0.148
-552.398	-5.823	-0.028	-0.019
-551.383	-79.331	0.215	-0.073
-550.369	-23.957	0.089	-0.053
-549.354	30.353	0.107	0.091
-548.339	-158.187	-0.558	0.033
-547.325	-140.968	-0.307	0.031
-546.310	647.852	0.177	-0.454
-545.296	-68.495	0.208	-0.081
-544.281	30.659	-0.077	0.066
-543.266	59.800	0.238	0.235
-542.252	-31.421	-0.312	0.176
-541.237	39.634	-0.090	-0.081
-540.223	140.698	0.105	0.139
-539.208	-200.000	0.009	-0.246
-538.193	-200.000	0.004	-0.060
-537.179	448.527	-0.071	-0.156
-536.164	33.911	0.163	-0.142
-535.150	-60.862	0.494	-0.209
-534.135	235.087	0.160	-0.264
-533.121	-40.486	0.472	-0.245
-532.106	156.261	0.251	-0.346
-531.091	35.451	-0.321	-0.281
-530.077	-181.448	0.053	-0.001
-529.062	68.814	-0.069	-0.071
-528.048	280.390	0.184	-0.328
-527.033	-200.000	0.002	-0.408
-526.018	15.682	-0.213	0.168
-525.004	-200.000	-0.215	0.000
-523.989	124.350	-0.050	-0.063
-522.975	800.000	-0.068	-0.243
-521.960	-44.359	-0.315	-0.158
-520.945	-109.318	-0.162	-0.034
-519.931	9.556	0.094	-0.071
-518.916	-200.000	0.002	-0.026
-517.902	226.924	0.039	0.063
-516.887	-143.124	0.120	0.012
-515.872	-200.000	0.097	-0.477
-514.858	-171.268	0.124	0.004
-513.843	-64.744	0.130	-0.052
-512.829	-200.000	-0.048	0.298
-511.814	-120.889	-0.215	-0.036
-510.799	703.541	-0.040	0.106
-509.785	37.061	-0.156	0.138
-508.770	672.803	0.028	-0.072
-507.756	259.617	-0.027	0.046
-506.741	169.070	-0.179	-0.255
-505.726	209.418	0.047	-0.074
-504.712	-30.144	0.201	-0.114
-503.697	236.928	-0.110	0.182
-502.683	217.069	0.130	0.206
-501.668	-47.551	0.348	0.169
-500.653	-128.980	0.195	-0.027
-499.639	208.155	0.229	-0.358
-498.624	122.827	-0.197	0.246
-497.610	431.158	-0.054	-0.118
-496.595	-11.480	-0.176	-0.115
-495.581	800.000	-0.046	0.200
-494.566	3.374	0.194	0.141
-493.551	88.748	0.147	0.163
-492.537	-104.743	-0.234	0.054
-491.522	-53.984	0.080	0.037
-490.508	223.256	0.093	0.150
-489.493	-118.449	-0.095	-0.017
-488.478	800.000	-0.123	-0.368
-487.464	-155.656	-0.246	-0.016
-486.449	-200.000	0.021	0.375
-485.435	249.479	-0.206	0.348
-484.420	800.000	-0.029	0.119
-483.405	190.821	-0.105	0.158
-482.391	4.598	-0.214	-0.157
-481.376	715.810	0.073	0.192
-480.362	187.728	0.048	-0.071
-479.347	581.526	0.095	0.233
-478.332	164.067	-0.052	-0.073
-477.318	144.666	-0.010	-0.014
-476.303	-200.000	0.017	0.308
-475.289	-110.871	-0.095	0.019
-474.274	-60.151	-0.416	0.177
-473.259	-190.442	0.123	-0.001
-472.245	-69.408	-0.399	-0.153
-471.230	201.342	-0.082	0.127
-470.216	217.868	-0.229	-0.365
-469.201	-91.247	0.227	-0.065
-468.186	103.855	-0.116	0.136
-467.172	-200.000	0.029	0.167
-466.157	-29.870	-0.096	0.055
-465.143	103.891	-0.150	-0.176
-464.128	-25.545	-0.152	-0.090
-463.113	28.064	0.257	-0.217
-462.099	-11.823	-0.219	-0.143
-461.084	-33.447	0.034	0.019
-460.070	-66.585	0.288	0.114
-459.055	103.932	0.177	0.208
-458.040	-200.000	0.031	-0.203
-457.026	72.116	-0.162	-0.168
-456.011	668.492	-0.117	0.303
-454.997	17.563	0.210	0.166
-453.982	79.814	-0.141	0.151
-452.968	-40.517	-0.112	0.058
-451.953	404.602	-0.123	0.258
-450.938	-200.000	0.030	0.208
-449.924	-119.890	0.166	0.028
-448.909	-200.000	0.032	0.156
-447.895	-156.557	0.170	-0.011
-446.880	800.000	0.035	-0.124
-445.865	800.000	-0.065	0.198
-444.851	-16.912	-0.374	-0.235
-443.836	-200.000	0.010	0.342
-442.822	50.064	-0.054	0.051
-441.807	-146.740	-0.221	0.019
-440.792	-19.770	0.111	-0.069
-439.778	-200.000	0.038	0.242
-438.763	-137.747	0.070	-0.008
-437.749	800.000	-0.116	-0.483
-436.734	-146.974	0.085	-0.007
-435.719	-64.491	0.207	0.084
-434.705	291.372	-0.170	-0.308
-433.690	-200.000	0.013	0.166
-432.676	332.233	-0.220	0.422
-431.661	800.000	0.006	-0.020
-430.646	134.359	0.102	-0.132
-429.632	-156.768	-0.036	-0.002
-428.617	-200.000	0.298	0.001
-427.603	-71.084	0.181	-0.068
-426.588	624.707	-0.117	-0.293
-425.573	36.204	0.207	-0.182
-424.559	-111.805	0.316	0.064
-423.544	350.546	-0.120	-0.237
-422.530	-69.608	-0.319	-0.122
-421.515	-19.210	-0.181	0.112
-420.500	-200.000	0.018	0.083
-419.486	800.000	0.136	-0.448
-418.471	615.143	-0.039	-0.098
-417.457	170.843	0.294	0.419
-416.442	306.977	0.098	0.182
-415.428	79.913	-0.056	0.060
-414.413	800.000	-0.068	0.290
-413.398	13.798	0.198	-0.153
-412.384	-3.950	0.166	-0.114
-411.369	-78.661	0.042	0.014
-410.355	17.654	-0.045	0.036
-409.340	-200.000	-0.046	0.227
-408.325	-84.637	0.303	0.095
-407.311	-88.197	0.376	-0.112
-406.296	-20.547	0.103	0.063
-405.282	0.017	-0.101	-0.071
-404.267	800.000	-0.034	-0.123
-403.252	-93.304	0.270	-0.075
-402.238	-89.209	-0.109	-0.032
-401.223	-29.354	0.169	-0.096
-400.209	-1.148	0.186	0.131
-399.194	-4.953	0.109	-0.075
-398.179	770.641	0.080	0.217
-397.165	19.016	0.388	0.309
-396.150	-26.574	0.238	0.138
-395.136	-31.381	-0.234	-0.131
-394.121	-50.930	0.129	-0.060
-393.106	18.955	-0.250	0.199
-392.092	-21.526	0.204	0.124
-391.077	-200.000	-0.020	0.330
-390.063	105.692	0.037	0.044
-389.048	-200.000	-0.048	-0.301
-388.033	-143.264	0.277	0.026
-387.019	-200.000	-0.087	-0.392
-386.004	-174.969	0.187	-0.005
-384.990	-76.736	0.109	0.038
-383.975	61.778	0.150	-0.148
-382.960	527.451	0.030	0.071
-381.946	37.085	0.116	0.102
-380.931	69.366	0.083	0.085
-379.917	-22.038	-0.097	-0.059
-378.902	-200.000	-0.012	-0.238
-377.888	32.180	0.140	0.120
-376.873	-13.313	0.202	0.130
-375.858	-200.000	0.009	0.335
-374.844	-78.008	0.065	-0.022
-373.829	71.693	-0.170	0.175
-372.815	-200.000	0.007	-0.161
-371.800	129.143	0.214	0.272
-370.785	234.133	-0.138	0.227
-369.771	-114.316	0.153	-0.029
-368.756	466.814	0.084	-0.187
-367.742	-75.893	0.069	0.024
-366.727	16.690	-0.216	-0.170
-365.712	190.954	-0.079	0.118
-364.698	-48.254	-0.056	-0.027
-363.683	398.806	-0.053	0.111
-362.669	8.854	0.103	0.077
-361.654	2.879	-0.137	0.099
-360.639	-21.880	-0.168	-0.101
-359.625	236.733	0.022	0.037
-358.610	-200.000	-0.025	0.160
-357.596	-123.989	-0.246	-0.038
-356.581	797.496	0.088	0.241
-355.566	-158.805	-0.262	-0.015
-354.552	-84.666	0.046	-0.014
-353.537	-3.156	-0.061	-0.042
-352.523	43.418	0.292	0.265
-351.508	107.696	-0.186	-0.219
-350.493	800.000	-0.117	-0.383
-349.479	-11.008	-0.080	-0.052
-348.464	173.420	-0.086	0.123
-347.450	-200.000	0.054	-0.295
-346.435	-200.000	0.013	-0.123
-345.420	-127.329	-0.128	0.019
-344.406	-62.683	-0.135	0.056
-343.391	526.857	0.042	-0.099
-342.377	800.000	0.032	-0.108
-341.362	-1.013	0.146	-0.103
-340.348	800.000	0.093	-0.322
-339.333	-17.811	-0.158	-0.098
-338.318	312.795	-0.113	-0.211
-337.304	-122.011	-0.170	0.028
-336.289	-179.904	0.084	-0.002
-335.275	-200.000	-0.024	0.180
-334.260	32.981	0.058	0.050
-333.245	-37.299	-0.151	-0.080
-332.231	800.000	-0.045	0.167
-331.216	-200.000	0.097	0.450
-330.202	-80.074	-0.046	-0.015
-329.187	395.905	-0.120	0.248
-328.172	276.258	-0.020	-0.034
-327.158	800.000	-0.027	0.107
-326.143	62.318	-0.114	-0.113
-325.129	-200.000	-0.020	0.124
-324.114	-200.000	-0.019	-0.184
-323.099	-125.355	0.092	0.014
-322.085	-200.000	-0.015	0.343
-321.070	84.685	-0.207	-0.224
-320.056	373.574	-0.039	0.079
-319.041	-161.796	0.265	-0.013
-318.026	800.000	-0.043	-0.159
-317.012	-143.589	0.118	0.011
-315.997	-200.000	-0.048	0.228
-314.983	-42.110	-0.180	0.092
-313.968	509.453	0.057	0.131
-312.953	-82.729	-0.066	0.021
-311.939	-200.000	-0.027	-0.135
-310.924	442.084	-0.066	-0.143
-309.910	12.578	0.199	0.152
-308.895	-200.000	0.004	0.030
-307.880	113.087	-0.106	-0.127
-306.866	-30.131	0.169	0.095
-305.851	250.234	0.021	0.035
-304.837	6.321	0.162	-0.119
-303.822	-118.058	0.190	0.034
-302.807	493.209	0.097	-0.221
-301.793	80.643	0.118	0.126
-300.778	-61.068	-0.048	-0.020
-299.764	-200.000	-0.017	-0.283
-298.749	-155.001	-0.237	-0.015
-297.735	62.269	-0.023	0.023
-296.720	102.388	0.123	-0.142
-295.705	-200.000	0.042	0.198
-294.691	-64.893	-0.072	0.029
-293.676	-200.000	-0.008	0.142
-292.662	-200.000	0.112	-0.570
-291.647	542.376	-0.093	0.219
-290.632	218.677	-0.157	-0.248
-289.618	198.932	-0.145	0.220
-288.603	-167.479	-0.127	0.005
-287.589	-99.791	-0.205	-0.051
-286.574	124.158	-0.032	0.040
-285.559	-8.676	-0.101	-0.067
-284.545	151.610	0.201	-0.272
-283.530	63.575	-0.114	0.114
-282.516	-164.144	-0.484	-0.022
-281.501	33.612	-0.194	-0.167
-280.486	167.174	0.170	0.238
-279.472	767.981	0.069	0.186
-278.457	94.037	0.325	0.365
-277.443	152.341	-0.208	-0.281
-276.428	26.182	-0.187	-0.155
-275.413	-200.000	-0.009	-0.088
-274.399	-33.314	-0.252	0.138
-273.384	800.000	0.052	-0.217
-272.370	-200.000	0.025	0.166
-271.355	-65.928	-0.167	-0.066
-270.340	-35.332	-0.086	-0.046
-269.326	-108.708	-0.207	0.044
-268.311	66.218	0.057	-0.057
-267.297	-200.000	-0.006	0.332
-266.282	-200.000	-0.001	0.037
-265.267	-109.527	0.304	-0.063
-264.253	309.947	0.123	0.228
-263.238	800.000	-0.077	-0.212
-262.224	424.178	-0.111	-0.236
-261.209	800.000	-0.126	-0.382
-260.195	-33.732	0.272	-0.149
-259.180	412.220	-0.093	0.196
-258.165	-200.000	0.006	0.139
-257.151	155.327	0.217	0.295
-256.136	800.000	0.040	0.141
-255.122	71.737	-0.065	-0.067
-254.107	-22.024	-0.370	0.223
-253.092	-53.298	-0.170	-0.077
-252.078	75.912	0.136	-0.142
-251.063	-94.862	0.312	0.084
-250.049	-200.000	-0.012	-0.260
-249.034	-200.000	-0.009	0.285
-248.019	-111.287	0.057	-0.012
-247.005	-200.000	0.020	0.138
-245.990	108.223	0.202	0.238
-244.976	-146.738	-0.280	-0.024
-243.961	136.436	0.209	0.269
-242.946	-200.000	-0.007	0.165
-241.932	263.692	-0.117	-0.202
-240.917	117.943	-0.132	-0.161
-239.903	-200.000	0.008	0.054
-238.888	-146.302	-0.190	-0.016
-237.873	393.318	0.182	-0.375
-236.859	-144.833	0.248	-0.022
-235.844	-200.000	0.004	0.027
-234.830	475.832	0.099	0.222
-233.815	-53.315	0.110	-0.050
-232.800	2.424	-0.190	0.136
-231.786	-19.672	0.035	-0.022
-230.771	241.394	-0.239	0.395
-229.757	-174.015	-0.092	-0.003
-228.742	-27.582	-0.370	-0.213
-227.727	411.368	0.110	-0.231
-226.713	4.474	0.105	-0.076
-225.698	27.896	-0.366	0.304
-224.684	-61.392	0.094	0.039
-223.669	-200.000	-0.032	0.218
-222.655	-57.554	-0.110	-0.048
-221.640	765.428	0.052	0.141
-220.625	800.000	0.074	0.221
-219.611	-65.992	-0.215	0.085
-218.596	18.311	0.036	-0.028
-217.582	-200.000	0.006	-0.099
-216.567	27.962	0.128	0.107
-215.552	156.180	0.036	-0.050
-214.538	-200.000	0.016	0.087
-213.523	74.315	0.135	-0.140
-212.509	-200.000	-0.029	-0.168
-211.494	42.536	-0.159	0.143
-210.479	-146.952	-0.081	-0.007
-209.465	-200.000	-0.019	-0.126
-208.450	-200.000	0.025	-0.391
-207.436	130.847	0.047	-0.060
-206.421	-152.135	-0.129	-0.009
-205.406	-200.000	-0.015	-0.489
-204.392	137.699	0.162	-0.210
-203.377	-144.545	-0.329	-0.030
-202.363	-74.009	-0.410	0.147
-201.348	-101.586	0.131	-0.031
-200.333	322.214	-0.129	0.243
-199.319	-200.000	-0.007	0.176
-198.304	-200.000	-0.019	-0.143
-197.290	-130.914	-0.172	-0.023
-196.275	-200.000	0.023	0.270
-195.260	9.269	-0.068	-0.051
-194.246	-109.695	0.320	0.067
-193.231	-66.419	0.095	0.037
-192.217	-142.062	-0.321	-0.031
-191.202	-149.615	-0.137	0.011
-190.187	-200.000	0.017	0.086
-189.173	-136.127	-0.339	0.039
-188.158	-200.000	0.048	0.344
-187.144	-42.032	-0.471	0.238
-186.129	155.518	-0.134	0.182
-185.114	79.670	0.128	-0.136
-184.100	41.505	0.097	0.087
-183.085	100.369	-0.011	-0.012
-182.071	-200.000	0.042	0.272
-181.056	-59.282	-0.123	0.052
-180.042	-111.853	0.212	-0.042
-179.027	-200.000	0.051	-0.350
-178.012	-200.000	-0.002	-0.422
-176.998	92.475	0.317	-0.352
-175.983	-58.973	0.083	-0.036
-174.969	-122.687	-0.331	0.053
-173.954	-119.146	0.097	-0.017
-172.939	-200.000	-0.006	0.034
-171.925	800.000	-0.024	0.078
-170.910	-100.563	-0.278	-0.068
-169.896	-7.435	0.181	0.121
-168.881	-26.164	0.121	-0.070
-167.866	-139.748	0.458	0.048
-166.852	153.632	0.053	0.072
-165.837	-153.719	-0.309	-0.021
-164.823	5.543	-0.319	0.232
-163.808	73.402	0.060	0.062
-162.793	-200.000	-0.059	0.270
-161.779	178.251	-0.203	0.293
-160.764	113.124	0.175	0.209
-159.750	327.189	-0.189	0.358
-158.735	153.300	-0.154	-0.207
-157.720	-26.733	0.225	-0.130
-156.706	-130.155	-0.386	-0.052
-155.691	496.877	0.118	-0.266
-154.677	-74.996	0.015	-0.005
-153.662	89.600	0.094	0.103
-152.647	-200.000	0.024	0.115
-151.633	-139.491	0.223	0.023
-150.618	-79.937	0.167	0.055
-149.604	121.738	0.112	0.137
-148.589	86.120	-0.279	-0.302
-147.574	103.424	0.112	0.129
-146.560	800.000	0.025	-0.086
-145.545	-113.550	0.267	0.051
-144.531	73.340	-0.128	-0.132
-143.516	-59.548	-0.022	-0.009
-142.502	-54.505	0.124	-0.055
-141.487	-123.851	-0.065	-0.010
-140.472	-22.469	0.070	-0.042
-139.458	236.883	-0.099	-0.162
-138.443	45.003	0.293	0.266
-137.429	-169.699	0.217	0.008
-136.414	287.189	-0.105	-0.187
-135.399	371.298	-0.123	-0.246
-134.385	800.000	-0.088	0.246
-133.370	99.470	0.137	-0.156
-132.356	212.148	0.186	-0.289
-131.341	-161.903	0.170	0.008
-130.326	709.514	-0.069	0.179
-129.312	-200.000	-0.038	0.173
-128.297	137.016	0.192	-0.246
-127.283	-43.574	0.199	0.099
-126.268	-80.183	-0.164	-0.054
-125.253	48.594	0.086	-0.080
-124.239	193.405	-0.275	-0.409
-123.224	-55.227	-0.296	0.131
-122.210	-200.000	-0.030	-0.217
-121.195	-26.890	0.324	0.186
