DTS Sentinel unit serial number:	SN413079Multiplexer serial number:	ORYXHardware model number:	OX4-SRSoftware version number:	ORYX F/W v4.00 Oryx Data Collector v3.7.2.0data status	okinstallation	princeton_trtdifferential loss correction	single-endedforward channel	channel 1reverse channel	N/Adate	2019/09/17time	00:02:35forward acquisition time	60.00reverse acquisition time	0.00gamma	496.2192k internal	0.2325k external	0.2325temperature offset calibration	0.9955default loss term (dB/km)	0.3790temperature slope calibration	1.0000multiplexer offset coefficient	1.0000multiplexer slope coefficient	1.0000fibre end	0.00T internal ref (°C)	29.58T ext. ref 1 (°C)	0.09T ext. ref 2 (°C)	23.95length (m)	temperature (°C)	Stokes	anti-Stokes-747.200	-200.000	0.041	0.394
-746.185	-200.000	0.016	-0.087
-745.171	-31.146	-0.214	0.122
-744.156	271.205	-0.034	-0.061
-743.142	65.076	-0.191	0.194
-742.127	122.369	-0.142	0.179
-741.112	-200.000	-0.053	0.341
-740.098	-200.000	-0.033	0.457
-739.083	800.000	0.088	0.255
-738.069	-200.000	0.035	0.183
-737.054	-123.945	0.188	0.030
-736.039	-17.706	-0.122	-0.077
-735.025	-200.000	0.041	0.245
-734.010	0.044	-0.033	-0.024
-732.996	205.507	-0.096	-0.151
-731.981	-200.000	0.019	0.190
-730.966	52.969	0.126	0.122
-729.952	-17.691	-0.198	0.125
-728.937	-95.557	-0.278	0.075
-727.923	-200.000	0.039	-0.173
-726.908	800.000	-0.065	0.269
-725.894	-65.553	-0.227	0.092
-724.879	-6.699	0.206	-0.141
-723.864	800.000	-0.055	-0.166
-722.850	393.903	-0.066	-0.138
-721.835	68.005	-0.038	-0.039
-720.821	289.444	0.141	-0.258
-719.806	94.361	0.210	-0.240
-718.791	800.000	0.009	0.027
-717.777	114.574	-0.173	-0.212
-716.762	-140.344	-0.147	0.015
-715.748	49.237	-0.254	-0.240
-714.733	-156.494	-0.154	-0.010
-713.718	68.503	-0.151	0.156
-712.704	-200.000	-0.014	-0.095
-711.689	687.653	-0.144	-0.379
-710.675	-153.021	-0.251	0.018
-709.660	-200.000	-0.010	0.152
-708.645	800.000	0.075	0.269
-707.631	800.000	0.059	0.196
-706.616	-136.341	-0.255	0.030
-705.602	-96.995	-0.262	-0.069
-704.587	-152.180	-0.067	-0.005
-703.572	-121.555	0.221	-0.037
-702.558	277.646	0.117	0.209
-701.543	-106.272	0.201	0.045
-700.529	34.225	-0.276	0.242
-699.514	356.082	0.105	-0.210
-698.499	18.388	-0.199	-0.160
-697.485	-200.000	0.080	-0.555
-696.470	-200.000	0.043	-0.196
-695.456	-200.000	0.013	0.061
-694.441	800.000	0.071	-0.235
-693.426	-168.318	0.232	-0.009
-692.412	-24.874	-0.123	0.073
-691.397	800.000	0.054	-0.177
-690.383	-49.895	0.131	0.062
-689.368	-200.000	0.035	-0.265
-688.354	-56.566	-0.163	-0.073
-687.339	312.652	0.056	0.107
-686.324	-107.311	0.061	0.014
-685.310	-200.000	0.052	-0.338
-684.295	18.823	0.248	0.200
-683.281	-99.486	-0.024	-0.006
-682.266	-42.767	-0.201	0.103
-681.251	-133.343	-0.351	0.044
-680.237	152.432	-0.032	0.044
-679.222	538.142	0.055	0.132
-678.208	-4.572	0.085	-0.059
-677.193	-200.000	-0.066	-0.305
-676.178	130.408	-0.079	0.102
-675.164	800.000	0.079	-0.325
-674.149	-200.000	-0.009	-0.359
-673.135	128.987	0.122	0.156
-672.120	252.777	0.035	0.060
-671.105	800.000	0.095	0.308
-670.091	-90.909	-0.168	0.049
-669.076	13.839	-0.269	-0.211
-668.062	800.000	0.044	-0.178
-667.047	-72.575	-0.196	0.073
-666.032	-200.000	-0.013	-0.086
-665.018	131.598	0.085	-0.110
-664.003	800.000	0.024	-0.101
-662.989	-59.270	-0.205	-0.089
-661.974	333.450	-0.054	-0.105
-660.959	-109.408	-0.102	-0.022
-659.945	220.489	-0.079	-0.127
-658.930	7.662	-0.196	-0.147
-657.916	-19.934	0.056	0.035
-656.901	39.488	0.218	-0.197
-655.886	-106.994	0.301	0.067
-654.872	-62.079	-0.440	-0.185
-653.857	-200.000	-0.114	-0.513
-652.843	419.904	0.101	0.217
-651.828	106.462	-0.136	-0.162
-650.814	-200.000	0.027	-0.182
-649.799	356.662	-0.084	-0.169
-648.784	685.878	-0.083	0.218
-647.770	800.000	-0.153	-0.501
-646.755	-200.000	0.049	-0.433
-645.741	-90.624	-0.402	-0.117
-644.726	77.960	-0.240	0.258
-643.711	-200.000	-0.008	0.077
-642.697	167.618	0.262	0.375
-641.682	-200.000	0.012	0.196
-640.668	242.990	0.041	0.070
-639.653	-200.000	-0.034	0.266
-638.638	-39.264	-0.167	0.088
-637.624	-200.000	0.006	-0.316
-636.609	-200.000	0.011	-0.499
-635.595	470.328	0.038	0.085
-634.580	279.055	0.191	-0.342
-633.565	-200.000	0.052	-0.235
-632.551	-200.000	0.021	-0.276
-631.536	-107.339	0.197	-0.044
-630.522	798.892	0.037	-0.103
-629.507	0.997	0.128	-0.092
-628.492	721.683	-0.020	0.053
-627.478	-94.203	0.134	0.037
-626.463	-55.698	0.190	0.085
-625.449	19.049	-0.192	0.155
-624.434	-31.172	0.068	0.038
-623.419	-20.778	-0.084	-0.052
-622.405	-200.000	0.003	0.051
-621.390	-100.324	-0.364	0.091
-620.376	229.875	0.122	0.201
-619.361	-89.224	-0.175	0.052
-618.346	456.505	-0.087	-0.193
-617.332	-42.921	-0.239	-0.122
-616.317	-166.110	-0.340	-0.015
-615.303	-200.000	-0.008	0.307
-614.288	-79.837	-0.338	-0.114
-613.273	-200.000	-0.088	-0.476
-612.259	800.000	-0.203	-0.744
-611.244	-173.334	0.131	0.004
-610.230	190.193	-0.103	-0.155
-609.215	514.575	0.068	0.160
-608.201	129.914	0.101	0.130
-607.186	-175.660	0.093	0.003
-606.171	-82.899	-0.186	0.060
-605.157	-200.000	0.071	0.315
-604.142	-61.064	-0.321	-0.136
-603.128	36.740	0.365	0.323
-602.113	83.930	0.088	-0.096
-601.098	56.796	-0.272	-0.265
-600.084	11.648	-0.137	-0.106
-599.069	-200.000	0.017	0.324
-598.055	122.528	-0.115	-0.144
-597.040	83.055	-0.152	0.166
-596.025	-70.888	-0.316	0.120
-595.011	327.896	0.110	0.212
-593.996	-2.865	0.330	0.231
-592.982	102.908	-0.230	-0.270
-591.967	4.153	-0.182	-0.134
-590.952	226.790	0.124	0.202
-589.938	86.262	-0.180	0.199
-588.923	800.000	0.030	-0.102
-587.909	800.000	-0.117	0.387
-586.894	1.195	-0.286	0.206
-585.879	28.035	0.241	0.204
-584.865	-200.000	0.053	-0.373
-583.850	116.405	-0.300	-0.369
-582.836	-200.000	0.014	0.236
-581.821	-42.971	0.221	-0.113
-580.806	540.341	-0.026	0.061
-579.792	235.320	-0.026	0.043
-578.777	800.000	0.053	0.177
-577.763	-200.000	0.046	0.202
-576.748	346.678	0.062	-0.121
-575.733	81.222	-0.218	-0.236
-574.719	117.302	0.246	0.303
-573.704	-159.270	0.101	0.006
-572.690	-191.106	-0.171	0.002
-571.675	152.775	0.172	0.235
-570.661	686.745	-0.036	-0.094
-569.646	-200.000	0.008	0.197
-568.631	-200.000	-0.041	-0.289
-567.617	-27.486	-0.137	0.080
-566.602	-200.000	-0.061	0.298
-565.588	68.576	0.232	0.238
-564.573	162.278	-0.048	-0.068
-563.558	52.789	0.253	0.242
-562.544	93.869	-0.223	0.254
-561.529	449.937	-0.071	0.157
-560.515	135.483	-0.092	0.119
-559.500	181.020	-0.111	-0.164
-558.485	291.834	-0.051	0.093
-557.471	-121.620	0.310	0.051
-556.456	10.324	0.254	0.194
-555.442	93.827	0.197	-0.224
-554.427	564.642	-0.117	-0.284
-553.412	-200.000	0.020	0.341
-552.398	-200.000	0.080	-0.405
-551.383	152.098	-0.250	0.342
-550.369	-200.000	0.008	-0.189
-549.354	-48.134	0.093	0.045
-548.339	-200.000	-0.005	0.036
-547.325	169.645	0.020	-0.029
-546.310	-68.266	-0.299	-0.116
-545.296	9.555	0.355	-0.269
-544.281	-87.544	0.215	0.065
-543.266	-200.000	0.021	-0.239
-542.252	-27.929	0.187	0.109
-541.237	65.717	-0.198	0.201
-540.223	-126.459	-0.089	0.013
-539.208	-200.000	-0.012	0.075
-538.193	-59.494	-0.034	-0.015
-537.179	-200.000	0.018	-0.144
-536.164	38.718	-0.081	0.072
-535.150	-132.973	-0.177	0.022
-534.135	-102.166	0.174	-0.042
-533.121	-34.723	0.136	-0.074
-532.106	-72.467	-0.290	-0.107
-531.091	-96.586	0.279	0.074
-530.077	800.000	0.110	-0.403
-529.062	134.273	0.127	-0.164
-528.048	-86.994	0.233	0.071
-527.033	-12.353	-0.178	0.116
-526.018	-127.166	0.424	-0.062
-525.004	-35.690	-0.334	-0.181
-523.989	-200.000	0.002	0.204
-522.975	-60.707	-0.193	-0.082
-521.960	-14.758	-0.087	-0.056
-520.945	-97.056	0.425	-0.111
-519.931	-95.339	-0.309	0.083
-518.916	-62.594	0.039	0.016
-517.902	59.391	0.282	0.278
-516.887	800.000	-0.104	0.372
-515.872	-107.833	0.120	0.026
-514.858	322.281	0.096	-0.183
-513.843	800.000	0.026	-0.096
-512.829	92.211	-0.159	-0.179
-511.814	371.218	0.167	-0.338
-510.799	15.032	0.370	-0.290
-509.785	257.736	0.135	-0.231
-508.770	18.538	-0.279	0.223
-507.756	-16.075	-0.152	0.097
-506.741	-151.498	0.142	-0.010
-505.726	-200.000	0.071	0.469
-504.712	-14.172	-0.021	0.013
-503.697	230.278	0.174	-0.284
-502.683	167.446	0.098	-0.139
-501.668	5.256	0.097	0.071
-500.653	167.412	-0.121	-0.172
-499.639	421.913	0.131	0.281
-498.624	-155.831	-0.367	0.023
-497.610	-75.136	0.352	0.126
-496.595	-14.078	0.190	-0.122
-495.581	53.895	-0.198	0.190
-494.566	-200.000	0.019	0.145
-493.551	119.451	-0.075	-0.092
-492.537	-91.903	-0.160	-0.045
-491.522	-156.467	-0.019	0.001
-490.508	-192.384	0.422	-0.004
-489.493	188.635	-0.111	-0.165
-488.478	-84.670	-0.313	0.099
-487.464	80.428	0.107	-0.115
-486.449	-95.452	-0.264	0.071
-485.435	495.024	0.212	0.486
-484.420	397.866	-0.082	0.172
-483.405	-114.734	0.435	0.083
-482.391	800.000	-0.061	-0.198
-481.376	-56.271	0.218	-0.097
-480.362	-8.470	0.137	0.092
-479.347	22.064	0.074	0.060
-478.332	-140.133	0.254	0.027
-477.318	207.558	-0.030	0.046
-476.303	-73.387	-0.327	0.119
-475.289	-200.000	0.003	0.044
-474.274	-67.845	0.089	-0.035
-473.259	-112.127	-0.487	-0.098
-472.245	-200.000	-0.025	0.307
-471.230	160.735	-0.129	-0.180
-470.216	-7.979	0.368	-0.248
-469.201	435.143	-0.082	0.177
-468.186	218.218	0.096	-0.153
-467.172	444.534	-0.108	-0.236
-466.157	612.325	-0.082	-0.204
-465.143	327.926	-0.072	-0.138
-464.128	262.188	0.106	-0.184
-463.113	-141.033	-0.261	0.027
-462.099	1.850	-0.183	-0.131
-461.084	-100.845	-0.175	0.043
-460.070	626.629	-0.152	0.382
-459.055	-19.302	0.461	0.285
-458.040	791.978	0.028	0.078
-457.026	800.000	-0.124	0.415
-456.011	-82.938	-0.153	0.049
-454.997	-68.715	-0.329	0.127
-453.982	800.000	0.126	0.357
-452.968	46.454	-0.161	0.149
-451.953	-49.077	0.081	0.039
-450.938	-150.657	-0.295	0.022
-449.924	-60.601	-0.202	-0.086
-448.909	437.457	0.085	-0.185
-447.895	-15.619	-0.305	-0.194
-446.880	-4.499	-0.026	-0.018
-445.865	4.072	-0.151	0.110
-444.851	-200.000	-0.007	0.134
-443.836	79.307	0.061	-0.065
-442.822	79.933	-0.026	0.028
-441.807	800.000	-0.096	0.291
-440.792	356.174	0.110	0.218
-439.778	-27.427	0.167	0.097
-438.763	-11.503	-0.141	0.093
-437.749	511.114	0.069	0.161
-436.734	-200.000	-0.002	0.146
-435.719	800.000	0.082	0.281
-434.705	51.030	-0.211	0.200
-433.690	-99.623	0.176	0.044
-432.676	285.051	0.127	0.229
-431.661	800.000	-0.070	-0.199
-430.646	64.469	0.185	-0.186
-429.632	-200.000	-0.085	0.402
-428.617	800.000	0.066	-0.231
-427.603	-142.943	0.099	-0.010
-426.588	73.004	-0.263	-0.274
-425.573	242.029	0.120	0.200
-424.559	800.000	0.094	0.317
-423.544	729.325	-0.016	0.041
-422.530	-200.000	0.015	0.229
-421.515	-138.019	-0.069	-0.008
-420.500	-200.000	-0.036	-0.203
-419.486	-200.000	-0.025	0.143
-418.471	-77.860	-0.251	0.086
-417.457	-200.000	-0.016	0.211
-416.442	-130.532	0.281	0.038
-415.428	-116.329	-0.187	-0.034
-414.413	-78.204	-0.199	-0.068
-413.398	-109.862	0.069	-0.015
-412.384	800.000	0.069	-0.237
-411.369	800.000	0.073	-0.218
-410.355	800.000	0.095	0.302
-409.340	423.019	0.059	0.127
-408.325	135.402	0.192	0.248
-407.311	800.000	-0.072	-0.231
-406.296	800.000	0.055	0.193
-405.282	24.521	0.337	0.277
-404.267	-41.363	-0.139	-0.071
-403.252	54.224	-0.060	-0.057
-402.238	-10.668	-0.234	-0.154
-401.223	-54.684	-0.014	-0.006
-400.209	-5.073	-0.325	-0.223
-399.194	-29.070	-0.263	-0.150
-398.179	-12.097	0.207	-0.135
-397.165	281.426	0.061	-0.108
-396.150	-200.000	-0.021	0.111
-395.136	385.926	-0.116	0.239
-394.121	-107.020	0.050	-0.011
-393.106	-200.000	0.001	-0.130
-392.092	800.000	0.041	-0.176
-391.077	23.796	0.376	0.308
-390.063	-61.677	0.064	0.027
-389.048	-102.186	0.138	-0.033
-388.033	216.384	0.120	0.190
-387.019	191.297	0.242	-0.363
-386.004	-137.644	-0.259	0.029
-384.990	-128.110	0.285	0.041
-383.975	162.753	-0.156	-0.218
-382.960	-200.000	0.007	-0.369
-381.946	343.751	0.093	-0.182
-380.931	-60.257	-0.361	0.153
-379.917	800.000	0.048	0.172
-378.902	-200.000	0.043	-0.329
-377.888	-200.000	0.026	0.132
-376.873	-80.555	-0.460	0.153
-375.858	20.438	0.157	0.127
-374.844	-200.000	-0.045	-0.327
-373.829	-75.988	-0.209	0.074
-372.815	155.543	-0.140	-0.192
-371.800	332.630	0.117	-0.224
-370.785	720.551	0.164	-0.433
-369.771	800.000	0.091	-0.314
-368.756	-200.000	0.137	0.608
-367.742	-120.016	0.126	-0.022
-366.727	-67.772	-0.020	0.008
-365.712	69.766	0.247	0.254
-364.698	800.000	-0.094	-0.268
-363.683	800.000	-0.074	-0.301
-362.669	-56.500	-0.107	0.047
-361.654	-200.000	0.010	-0.237
-360.639	43.552	0.171	0.156
-359.625	-85.707	0.172	-0.053
-358.610	152.458	-0.265	0.360
-357.596	-141.473	-0.508	0.051
-356.581	-1.483	0.232	-0.163
-355.566	800.000	0.082	0.297
-354.552	800.000	0.043	0.182
-353.537	68.121	-0.260	-0.265
-352.523	-47.799	0.140	-0.067
-351.508	-95.564	-0.355	-0.094
-350.493	315.771	0.019	-0.036
-349.479	60.310	0.068	0.067
-348.464	-132.644	-0.255	0.032
-347.450	17.986	0.380	0.301
-346.435	-200.000	-0.023	-0.117
-345.420	-200.000	0.018	0.268
-344.406	-200.000	0.004	-0.128
-343.391	612.169	0.067	-0.166
-342.377	256.581	-0.151	-0.257
-341.362	406.797	0.057	0.119
-340.348	339.475	0.014	-0.027
-339.333	-200.000	0.081	-0.360
-338.318	-21.797	0.102	0.062
-337.304	-44.921	-0.195	-0.096
-336.289	800.000	0.116	-0.366
-335.275	-123.829	-0.287	0.045
-334.260	-63.185	0.198	-0.081
-333.245	-200.000	-0.009	-0.229
-332.231	-47.581	0.106	0.051
-331.216	-28.963	0.120	0.068
-330.202	55.978	0.087	-0.084
-329.187	166.054	-0.149	-0.210
-328.172	58.357	-0.147	0.143
-327.158	64.690	0.034	-0.034
-326.143	-1.657	0.116	0.081
-325.129	53.326	-0.085	-0.081
-324.114	800.000	0.062	-0.175
-323.099	-6.752	0.189	0.128
-322.085	188.867	0.074	0.110
-321.070	263.147	0.204	-0.352
-320.056	-51.275	0.094	-0.044
-319.041	-102.987	0.519	0.122
-318.026	-27.105	0.404	0.234
-317.012	-200.000	0.027	0.398
-315.997	-144.657	0.480	-0.044
-314.983	554.298	0.044	0.105
-313.968	-111.610	-0.079	-0.016
-312.953	-127.175	0.293	0.042
-311.939	-200.000	0.010	0.100
-310.924	389.634	-0.069	-0.141
-309.910	-76.680	-0.222	-0.077
-308.895	241.009	0.128	-0.212
-307.880	175.355	0.255	0.367
-306.866	59.930	-0.176	0.173
-305.851	600.720	-0.107	-0.263
-304.837	-48.662	0.097	-0.046
-303.822	-195.150	0.185	0.001
-302.807	74.185	0.195	0.203
-301.793	-125.178	-0.269	0.041
-300.778	-30.826	0.194	-0.109
-299.764	800.000	0.064	0.220
-298.749	-72.596	-0.193	-0.071
-297.735	-151.795	0.226	-0.016
-296.720	800.000	-0.078	-0.267
-295.705	-200.000	0.030	-0.142
-294.691	189.655	0.064	0.095
-293.676	8.537	0.177	0.132
-292.662	31.628	0.259	-0.220
-291.647	-200.000	-0.094	-0.422
-290.632	-90.336	-0.248	-0.071
-289.618	481.225	0.059	-0.132
-288.603	159.338	0.022	0.031
-287.589	-200.000	0.003	0.063
-286.574	-107.645	0.204	-0.044
-285.559	255.395	-0.085	-0.145
-284.545	165.841	0.174	-0.245
-283.530	-200.000	0.013	0.304
-282.516	86.367	-0.224	-0.245
-281.501	800.000	-0.098	-0.398
-280.486	-53.153	0.213	0.097
-279.472	53.931	0.140	0.133
-278.457	49.927	-0.308	-0.288
-277.443	-200.000	0.003	-0.089
-276.428	-82.352	-0.150	-0.048
-275.413	-200.000	-0.032	0.198
-274.399	6.818	-0.218	0.161
-273.384	-80.533	0.205	0.068
-272.370	-77.153	-0.310	0.107
-271.355	525.913	-0.120	0.280
-270.340	-200.000	0.017	-0.097
-269.326	96.787	-0.292	0.331
-268.311	179.505	-0.151	-0.219
-267.297	498.348	-0.044	-0.101
-266.282	6.725	0.252	0.186
-265.267	585.243	-0.031	-0.075
-264.253	638.470	0.081	0.204
-263.238	800.000	-0.076	0.249
-262.224	-25.121	-0.136	0.080
-261.209	-114.393	0.277	-0.053
-260.195	139.012	-0.125	0.163
-259.180	180.171	0.192	0.279
-258.165	478.925	-0.028	0.063
-257.151	-169.653	-0.276	-0.010
-256.136	47.149	0.192	-0.177
-255.122	61.375	-0.067	0.066
-254.107	-131.225	-0.229	-0.030
-253.092	78.899	-0.085	-0.091
-252.078	-59.072	-0.232	0.099
-251.063	569.308	-0.073	0.175
-250.049	-147.934	0.240	-0.020
-249.034	163.675	0.074	-0.103
-248.019	284.836	-0.092	0.164
-247.005	-124.744	-0.232	0.036
-245.990	-103.635	-0.234	-0.054
-244.976	140.115	-0.189	-0.247
-243.961	18.054	0.131	0.103
-242.946	-109.874	0.084	0.017
-241.932	-158.494	0.185	-0.011
-240.917	-200.000	0.108	-0.528
-239.903	-200.000	-0.018	0.141
-238.888	378.409	0.037	-0.075
-237.873	112.186	-0.127	-0.151
-236.859	800.000	-0.041	-0.162
-235.844	27.169	-0.044	0.037
-234.830	78.868	-0.035	0.037
-233.815	-26.041	0.230	-0.134
-232.800	45.518	-0.184	-0.168
-231.786	-200.000	0.046	-0.261
-230.771	-70.795	0.056	-0.021
-229.757	522.949	-0.047	-0.110
-228.742	-15.298	0.271	0.171
-227.727	620.252	0.057	-0.142
-226.713	800.000	0.142	0.432
-225.698	22.664	-0.218	-0.177
-224.684	4.651	0.105	0.076
-223.669	800.000	-0.021	0.059
-222.655	-200.000	-0.016	-0.377
-221.640	-122.322	-0.134	-0.022
-220.625	99.008	-0.067	-0.077
-219.611	-151.559	-0.109	0.008
-218.596	89.415	-0.107	0.118
-217.582	-192.593	0.050	-0.000
-216.567	-127.200	-0.116	-0.017
-215.552	-200.000	0.002	-0.259
-214.538	-119.337	0.191	-0.033
-213.523	7.487	-0.143	-0.106
-212.509	800.000	0.047	0.148
-211.494	800.000	-0.035	-0.145
-210.479	11.552	-0.151	-0.114
-209.465	-110.978	0.274	0.056
-208.450	-32.898	-0.140	0.077
-207.436	-158.129	-0.331	-0.019
-206.421	-182.775	0.105	-0.002
-205.406	35.878	0.318	0.276
-204.392	800.000	-0.049	0.194
-203.377	357.675	-0.103	-0.203
-202.363	109.615	0.146	-0.173
-201.348	-200.000	0.055	0.412
-200.333	-169.245	-0.046	0.002
-199.319	-200.000	-0.024	0.238
-198.304	-170.458	-0.161	0.006
-197.290	-74.968	0.331	0.117
-196.275	303.197	-0.161	-0.295
-195.260	628.299	0.093	0.232
-194.246	89.667	-0.335	0.369
-193.231	-115.109	0.374	0.070
-192.217	126.516	-0.213	0.266
-191.202	649.000	0.044	-0.110
-190.187	201.624	0.226	-0.344
-189.173	800.000	0.042	-0.153
-188.158	358.837	0.121	0.239
-187.144	-200.000	-0.006	-0.226
-186.129	-158.099	0.162	0.009
-185.114	800.000	0.091	-0.288
-184.100	258.526	0.179	-0.305
-183.085	40.648	-0.109	-0.097
-182.071	70.091	0.221	0.226
-181.056	191.656	-0.161	0.240
-180.042	94.969	0.116	-0.130
-179.027	-200.000	0.024	0.135
-178.012	-89.979	-0.210	0.060
-176.998	-182.979	-0.313	-0.006
-175.983	800.000	-0.048	-0.203
-174.969	-94.083	0.306	-0.083
-173.954	-89.646	0.264	-0.076
-172.939	67.121	-0.126	0.127
-171.925	155.514	-0.126	-0.171
-170.910	-200.000	-0.018	-0.128
-169.896	3.328	-0.227	-0.163
-168.881	-200.000	-0.033	-0.173
-167.866	87.745	0.112	-0.123
-166.852	-55.579	0.248	0.110
-165.837	226.971	-0.276	0.442
-164.823	-73.031	0.337	-0.122
-163.808	-139.344	0.170	0.018
-162.793	753.378	-0.092	0.246
-161.779	60.608	-0.369	0.360
-160.764	800.000	0.045	-0.185
-159.750	-200.000	-0.054	-0.264
-158.735	-120.692	-0.166	0.028
-157.720	-188.783	-0.230	-0.003
-156.706	169.900	-0.085	-0.120
-155.691	298.813	-0.116	0.210
-154.677	-200.000	0.035	0.251
-153.662	-173.667	0.321	-0.009
-152.647	146.274	0.204	-0.270
-151.633	-55.227	0.178	-0.079
-150.618	-152.574	0.299	-0.021
-149.604	-130.060	-0.161	0.022
-148.589	104.319	0.173	0.200
-147.574	725.313	0.093	-0.244
-146.560	-94.494	-0.258	-0.069
-145.545	-108.252	0.057	-0.012
-144.531	-53.627	0.337	0.152
-143.516	180.387	-0.016	-0.023
-142.502	26.588	0.064	0.053
-141.487	-200.000	-0.027	0.140
-140.472	37.134	-0.244	-0.213
-139.458	342.453	0.084	0.161
-138.443	216.845	-0.072	0.113
-137.429	151.185	0.215	0.288
-136.414	597.668	-0.137	-0.334
-135.399	-200.000	-0.003	-0.470
-134.385	-20.410	-0.256	0.155
-133.370	-140.448	-0.247	-0.025
-132.356	280.995	0.198	-0.349
-131.341	-200.000	0.009	-0.228
-130.326	174.822	0.156	-0.222
-129.312	-200.000	-0.003	-0.037
-128.297	-88.076	-0.323	-0.096
-127.283	-6.191	0.254	-0.171
-126.268	-67.902	0.410	0.158
-125.253	-108.577	-0.298	0.063
-124.239	356.962	-0.070	0.137
-123.224	800.000	0.018	0.058
-122.210	115.797	-0.030	0.036
-121.195	-21.161	0.315	-0.190
