DTS Sentinel unit serial number:	SN413079Multiplexer serial number:	ORYXHardware model number:	OX4-SRSoftware version number:	ORYX F/W v4.00 Oryx Data Collector v3.7.2.0data status	okinstallation	princeton_trtdifferential loss correction	single-endedforward channel	channel 1reverse channel	N/Adate	2019/09/17time	23:54:35forward acquisition time	60.00reverse acquisition time	0.00gamma	496.2192k internal	0.2340k external	0.2340temperature offset calibration	0.9980default loss term (dB/km)	0.3790temperature slope calibration	1.0000multiplexer offset coefficient	1.0000multiplexer slope coefficient	1.0000fibre end	0.00T internal ref (°C)	23.94T ext. ref 1 (°C)	0.17T ext. ref 2 (°C)	17.24length (m)	temperature (°C)	Stokes	anti-Stokes-747.200	40.162	0.238	-0.215
-746.185	-148.241	0.147	0.012
-745.171	99.653	0.316	0.367
-744.156	-63.689	-0.110	-0.045
-743.142	3.865	0.397	-0.291
-742.127	-200.000	-0.036	0.384
-741.112	382.517	-0.141	0.291
-740.098	-200.000	-0.007	0.190
-739.083	-200.000	-0.001	0.024
-738.069	-133.560	-0.306	0.038
-737.054	128.219	-0.119	0.151
-736.039	605.035	0.081	-0.203
-735.025	-80.533	-0.112	-0.037
-734.010	180.810	-0.171	0.251
-732.996	6.605	-0.182	0.135
-731.981	114.372	0.144	0.175
-730.966	9.332	-0.420	0.318
-729.952	-17.322	0.117	-0.074
-728.937	800.000	-0.050	-0.140
-727.923	-124.523	0.128	-0.020
-726.908	60.522	-0.164	0.163
-725.894	-121.269	-0.056	0.009
-724.879	130.842	-0.157	0.202
-723.864	800.000	0.054	-0.203
-722.850	800.000	-0.099	-0.310
-721.835	-200.000	-0.004	-0.021
-720.821	421.410	0.086	-0.184
-719.806	800.000	-0.022	-0.075
-718.791	-6.163	-0.104	0.071
-717.777	-200.000	-0.003	0.143
-716.762	-56.207	-0.058	0.026
-715.748	-82.062	-0.274	-0.089
-714.733	-200.000	-0.033	0.279
-713.718	57.636	-0.036	-0.035
-712.704	-200.000	-0.062	-0.418
-711.689	704.561	-0.139	-0.368
-710.675	390.612	-0.157	0.326
-709.660	140.323	0.237	-0.313
-708.645	15.287	0.144	-0.113
-707.631	800.000	-0.049	0.193
-706.616	96.480	-0.032	0.037
-705.602	-76.416	-0.038	0.013
-704.587	85.466	0.136	-0.149
-703.572	-1.019	-0.178	0.126
-702.558	-200.000	0.019	0.319
-701.543	-91.493	0.390	0.111
-700.529	-200.000	-0.051	0.268
-699.514	-178.028	-0.171	-0.004
-698.499	800.000	-0.078	-0.222
-697.485	-60.384	-0.310	0.132
-696.470	-70.533	0.289	-0.109
-695.456	29.763	-0.249	-0.212
-694.441	509.786	0.009	0.020
-693.426	-49.761	-0.061	0.029
-692.412	-131.684	0.427	0.056
-691.397	393.654	-0.162	-0.338
-690.383	202.557	-0.148	0.229
-689.368	-87.597	0.232	-0.070
-688.354	3.948	0.276	-0.202
-687.339	9.271	-0.125	0.095
-686.324	-103.765	-0.376	0.088
-685.310	-95.627	0.523	0.140
-684.295	-200.000	-0.040	0.185
-683.281	-86.884	0.211	-0.064
-682.266	-173.833	0.126	-0.004
-681.251	-200.000	0.056	0.325
-680.237	-50.433	0.115	-0.054
-679.222	-86.475	0.127	0.039
-678.208	-160.280	-0.204	-0.011
-677.193	-85.776	-0.231	0.072
-676.178	800.000	0.044	-0.163
-675.164	8.727	0.309	-0.233
-674.149	800.000	-0.070	-0.196
-673.135	722.949	0.050	-0.132
-672.120	-200.000	-0.034	-0.206
-671.105	311.787	-0.111	0.208
-670.091	76.397	-0.182	0.192
-669.076	800.000	-0.107	-0.333
-668.062	-193.995	0.429	0.004
-667.047	-73.417	0.102	0.037
-666.032	55.819	0.174	0.168
-665.018	800.000	-0.035	0.108
-664.003	321.215	-0.186	-0.354
-662.989	659.923	0.062	-0.158
-661.974	-97.407	0.266	-0.069
-660.959	-30.133	0.226	0.129
-659.945	313.889	0.117	-0.220
-658.930	193.634	-0.063	-0.095
-657.916	212.291	-0.022	-0.034
-656.901	155.109	0.117	-0.160
-655.886	40.405	-0.122	0.110
-654.872	-123.287	-0.330	-0.053
-653.857	-200.000	-0.052	0.324
-652.843	-200.000	0.042	0.249
-651.828	-85.519	-0.092	0.029
-650.814	-9.734	-0.282	-0.187
-649.799	800.000	-0.058	-0.229
-648.784	-82.485	-0.181	-0.059
-647.770	-42.379	-0.243	-0.124
-646.755	-33.044	0.123	0.068
-645.741	-118.640	0.110	-0.019
-644.726	20.211	0.185	0.149
-643.711	420.766	-0.189	0.405
-642.697	-200.000	-0.055	-0.258
-641.682	-116.405	0.044	-0.008
-640.668	101.677	0.191	0.222
-639.653	-9.975	0.083	0.055
-638.638	4.594	-0.222	0.163
-637.624	-7.563	-0.066	0.045
-636.609	-200.000	-0.012	0.254
-635.595	271.556	0.175	0.308
-634.580	222.993	0.031	0.050
-633.565	87.901	-0.048	-0.053
-632.551	-200.000	-0.022	0.185
-631.536	9.478	-0.144	0.109
-630.522	-93.766	-0.560	-0.154
-629.507	-41.236	0.115	0.059
-628.492	-71.350	0.094	0.035
-627.478	271.082	-0.175	-0.307
-626.463	-181.813	0.269	0.005
-625.449	773.289	-0.110	-0.298
-624.434	-200.000	0.028	-0.126
-623.419	519.785	-0.075	-0.176
-622.405	800.000	0.106	-0.317
-621.390	44.193	0.170	0.156
-620.376	-200.000	0.005	-0.042
-619.361	96.101	0.115	0.131
-618.346	412.649	-0.024	-0.051
-617.332	-200.000	0.019	0.206
-616.317	20.056	-0.308	-0.248
-615.303	-27.880	0.315	0.182
-614.288	-24.332	-0.147	-0.088
-613.273	275.308	0.068	0.121
-612.259	-21.278	0.173	-0.105
-611.244	-114.949	0.102	-0.019
-610.230	285.541	0.036	-0.064
-609.215	800.000	0.044	0.184
-608.201	-65.337	-0.032	0.013
-607.186	-200.000	0.046	0.347
-606.171	800.000	0.037	-0.112
-605.157	-113.915	-0.463	-0.090
-604.142	-26.783	-0.262	-0.153
-603.128	-141.690	0.210	0.021
-602.113	312.326	-0.065	0.122
-601.098	-111.762	-0.477	0.096
-600.084	94.733	0.134	-0.152
-599.069	-200.000	0.006	0.161
-598.055	263.247	-0.113	-0.196
-597.040	800.000	0.017	-0.072
-596.025	-166.442	0.095	0.004
-595.011	-200.000	0.008	-0.058
-593.996	79.248	0.076	-0.081
-592.982	-106.050	-0.167	-0.037
-591.967	-200.000	-0.017	-0.136
-590.952	332.519	0.131	0.252
-589.938	636.624	-0.034	0.085
-588.923	74.858	-0.134	-0.141
-587.909	-160.415	-0.134	-0.007
-586.894	-196.783	-0.182	-0.001
-585.879	-200.000	0.015	0.332
-584.865	-37.983	-0.227	0.120
-583.850	-78.375	-0.188	-0.064
-582.836	119.769	0.094	-0.116
-581.821	119.615	-0.234	0.288
-580.806	-200.000	-0.010	0.248
-579.792	-73.626	-0.089	0.032
-578.777	-28.000	-0.137	0.079
-577.763	619.927	0.036	0.090
-576.748	197.866	0.199	-0.303
-575.733	-200.000	0.043	-0.436
-574.719	313.301	0.093	0.173
-573.704	-50.490	-0.012	-0.006
-572.690	-43.313	-0.106	0.053
-571.675	-46.055	0.158	-0.078
-570.661	-182.068	0.379	0.007
-569.646	-59.417	0.221	0.095
-568.631	-200.000	0.107	0.471
-567.617	-131.231	-0.304	0.040
-566.602	-200.000	-0.049	-0.449
-565.588	-200.000	-0.032	-0.381
-564.573	-4.586	-0.137	0.094
-563.558	-67.542	0.350	-0.137
-562.544	107.587	-0.188	-0.222
-561.529	800.000	-0.006	-0.023
-560.515	-52.093	-0.187	-0.086
-559.500	419.064	-0.153	-0.326
-558.485	-200.000	-0.023	-0.229
-557.471	209.456	-0.126	0.196
-556.456	-200.000	0.046	-0.308
-555.442	-136.401	-0.203	0.024
-554.427	-107.669	0.096	-0.021
-553.412	24.150	-0.080	-0.066
-552.398	132.103	-0.222	-0.285
-551.383	-110.989	0.194	0.040
-550.369	-79.075	0.177	-0.060
-549.354	784.565	-0.089	0.243
-548.339	-52.758	-0.185	-0.085
-547.325	316.742	-0.016	0.031
-546.310	-133.444	-0.040	0.005
-545.296	45.593	-0.320	-0.294
-544.281	-58.113	-0.072	-0.031
-543.266	151.681	0.214	0.291
-542.252	-200.000	-0.062	0.310
-541.237	-85.642	-0.216	-0.067
-540.223	-26.598	-0.198	-0.115
-539.208	-200.000	0.064	-0.314
-538.193	-45.323	-0.420	0.207
-537.179	-20.155	-0.143	0.087
-536.164	73.626	0.423	-0.441
-535.150	30.684	-0.126	0.107
-534.135	-200.000	0.018	-0.122
-533.121	15.938	-0.176	-0.138
-532.106	8.990	0.227	-0.171
-531.091	-43.852	-0.295	-0.148
-530.077	319.087	0.059	-0.110
-529.062	-83.416	-0.273	-0.087
-528.048	465.804	-0.062	-0.137
-527.033	127.659	-0.140	0.176
-526.018	-200.000	-0.031	-0.215
-525.004	186.692	0.117	0.174
-523.989	-84.053	-0.368	0.116
-522.975	42.140	-0.018	-0.017
-521.960	71.862	-0.232	0.240
-520.945	283.194	0.016	0.029
-519.931	800.000	-0.026	-0.091
-518.916	-200.000	0.353	0.001
-517.902	-0.892	-0.360	0.253
-516.887	164.250	0.082	-0.115
-515.872	378.230	-0.113	0.230
-514.858	19.827	-0.257	0.206
-513.843	-200.000	-0.016	-0.159
-512.829	-42.748	0.276	-0.139
-511.814	-43.996	-0.058	-0.029
-510.799	50.459	0.124	0.117
-509.785	-15.567	-0.217	-0.137
-508.770	-154.907	0.249	0.016
-507.756	-126.483	-0.218	-0.032
-506.741	37.157	-0.148	0.130
-505.726	-43.341	0.227	-0.114
-504.712	-200.000	0.010	-0.104
-503.697	-184.038	-0.152	-0.003
-502.683	800.000	0.045	-0.184
-501.668	800.000	0.073	-0.207
-500.653	-164.885	0.369	0.016
-499.639	4.863	-0.196	-0.143
-498.624	-200.000	0.004	0.156
-497.610	-17.956	-0.204	-0.127
-496.595	-13.260	-0.152	0.098
-495.581	-155.717	0.227	-0.014
-494.566	-102.726	0.241	-0.057
-493.551	-200.000	-0.002	-0.233
-492.537	-63.241	-0.232	-0.095
-491.522	393.404	-0.092	-0.189
-490.508	42.492	-0.108	0.098
-489.493	219.384	-0.136	-0.216
-488.478	-146.485	-0.140	-0.012
-487.464	119.591	-0.083	-0.101
-486.449	233.063	0.102	-0.167
-485.435	-47.293	-0.123	0.059
-484.420	-200.000	-0.022	0.363
-483.405	-116.151	0.213	0.039
-482.391	-28.566	0.047	0.027
-481.376	-97.902	-0.260	0.067
-480.362	-26.862	0.091	0.053
-479.347	-90.412	0.464	-0.133
-478.332	-173.925	-0.181	0.005
-477.318	143.059	0.104	-0.137
-476.303	487.418	0.196	0.444
-475.289	800.000	0.051	0.185
-474.274	-200.000	0.030	0.183
-473.259	-176.500	0.261	-0.007
-472.245	110.823	0.292	0.349
-471.230	-92.238	-0.329	0.092
-470.216	314.954	0.123	-0.230
-469.201	350.587	-0.093	0.183
-468.186	-200.000	-0.013	0.161
-467.172	-37.817	-0.386	0.204
-466.157	407.741	0.063	0.131
-465.143	-200.000	-0.019	-0.189
-464.128	-40.706	0.065	-0.034
-463.113	-46.970	-0.078	-0.038
-462.099	12.884	-0.059	0.045
-461.084	-42.354	-0.104	-0.053
-460.070	-200.000	-0.052	0.232
-459.055	-122.272	0.101	-0.016
-458.040	-200.000	-0.002	-0.022
-457.026	-101.138	-0.262	0.064
-456.011	800.000	-0.059	0.192
-454.997	800.000	0.013	-0.040
-453.982	94.032	0.284	-0.320
-452.968	800.000	0.082	-0.291
-451.953	-14.333	0.205	0.131
-450.938	-89.477	-0.109	-0.032
-449.924	-123.390	0.188	0.030
-448.909	-110.837	0.175	0.036
-447.895	-200.000	0.040	-0.280
-446.880	12.584	-0.176	-0.134
-445.865	-102.179	0.118	-0.028
-444.851	-184.346	-0.045	0.001
-443.836	75.363	-0.157	-0.164
-442.822	196.401	-0.144	-0.218
-441.807	3.953	0.212	-0.153
-440.792	-55.703	0.311	-0.138
-439.778	-135.811	0.145	0.017
-438.763	788.961	-0.029	-0.079
-437.749	588.315	0.104	-0.255
-436.734	123.668	0.202	-0.251
-435.719	-30.347	-0.272	0.153
-434.705	60.823	0.160	-0.157
-433.690	215.931	0.068	-0.107
-432.676	-200.000	-0.012	0.128
-431.661	-14.408	-0.138	0.088
-430.646	90.340	-0.166	0.183
-429.632	800.000	-0.052	0.152
-428.617	61.347	0.088	0.086
-427.603	24.910	-0.047	-0.038
-426.588	-169.213	-0.223	-0.008
-425.573	203.344	0.131	0.200
-424.559	-94.252	-0.053	-0.014
-423.544	-28.699	0.105	0.060
-422.530	371.640	-0.107	0.214
-421.515	87.417	-0.056	0.062
-420.500	227.345	-0.223	0.359
-419.486	10.480	0.240	-0.181
-418.471	-140.268	0.112	-0.012
-417.457	402.549	-0.191	0.397
-416.442	-42.255	0.567	0.287
-415.428	-89.557	-0.423	-0.123
-414.413	-25.964	-0.119	0.069
-413.398	136.521	0.166	0.215
-412.384	80.029	0.246	-0.262
-411.369	-97.041	0.053	-0.014
-410.355	-47.589	0.161	0.077
-409.340	-108.799	-0.135	-0.029
-408.325	-76.130	0.300	0.105
-407.311	-20.565	-0.259	-0.157
-406.296	373.094	0.032	-0.064
-405.282	369.988	-0.104	0.209
-404.267	348.891	-0.060	0.117
-403.252	530.148	0.105	-0.244
-402.238	-200.000	0.089	-0.415
-401.223	-200.000	-0.004	-0.033
-400.209	-200.000	-0.030	0.165
-399.194	-127.924	-0.159	0.023
-398.179	-68.307	-0.192	-0.074
-397.165	-19.223	0.106	0.065
-396.150	-91.081	0.486	0.138
-395.136	-200.000	0.015	0.072
-394.121	-200.000	0.008	-0.090
-393.106	-200.000	-0.010	-0.083
-392.092	800.000	-0.047	0.141
-391.077	-76.134	0.156	0.054
-390.063	144.471	0.197	-0.260
-389.048	23.832	0.062	-0.050
-388.033	-200.000	0.033	0.278
-387.019	-113.706	-0.145	0.028
-386.004	69.805	0.098	0.100
-384.990	-118.090	-0.134	0.024
-383.975	-47.521	0.065	-0.031
-382.960	19.731	-0.323	0.257
-381.946	-3.116	-0.239	-0.165
-380.931	81.668	-0.158	-0.169
-379.917	-81.430	-0.035	-0.011
-378.902	800.000	-0.052	-0.159
-377.888	10.035	0.066	-0.050
-376.873	-175.819	-0.328	-0.009
-375.858	32.803	-0.082	0.070
-374.844	7.344	0.168	0.124
-373.829	9.448	-0.109	0.081
-372.815	-115.732	-0.127	-0.024
-371.800	-32.381	-0.533	-0.294
-370.785	-200.000	0.005	-0.165
-369.771	800.000	0.041	-0.143
-368.756	800.000	0.009	0.029
-367.742	74.634	-0.092	0.096
-366.727	-116.215	-0.298	-0.055
-365.712	-141.337	0.154	0.015
-364.698	324.964	-0.035	0.066
-363.683	-89.618	-0.401	0.116
-362.669	486.804	0.153	-0.344
-361.654	270.512	0.170	0.295
-360.639	-18.242	0.152	-0.094
-359.625	70.581	0.039	0.040
-358.610	-200.000	-0.070	0.319
-357.596	-119.804	0.121	-0.021
-356.581	-86.082	0.131	-0.040
-355.566	-103.139	-0.154	0.036
-354.552	-200.000	0.069	0.329
-353.537	60.057	0.100	0.097
-352.523	73.161	0.045	-0.047
-351.508	-85.991	0.228	0.069
-350.493	358.554	-0.049	0.097
-349.479	-165.900	-0.526	0.022
-348.464	96.528	-0.108	-0.123
-347.450	487.086	-0.084	0.189
-346.435	36.178	0.087	-0.075
-345.420	-165.465	0.151	0.007
-344.406	-200.000	0.021	0.222
-343.391	82.165	0.148	0.158
-342.377	-118.568	0.236	-0.041
-341.362	-200.000	0.027	-0.363
-340.348	800.000	0.062	-0.259
-339.333	-41.376	-0.049	-0.025
-338.318	-15.646	-0.118	0.074
-337.304	-129.067	0.167	0.023
-336.289	81.057	-0.016	-0.017
-335.275	-141.843	-0.251	-0.025
-334.260	-15.526	-0.065	0.041
-333.245	291.555	-0.115	-0.207
-332.231	-144.596	-0.392	-0.036
-331.216	299.551	0.087	0.157
-330.202	-81.160	-0.178	0.058
-329.187	-54.769	0.214	0.095
-328.172	-126.104	0.188	0.028
-327.158	209.200	0.080	-0.124
-326.143	571.170	0.022	-0.052
-325.129	542.102	-0.037	0.086
-324.114	-142.667	0.135	0.013
-323.099	122.273	-0.199	0.246
-322.085	178.233	0.039	-0.056
-321.070	-84.866	0.247	-0.077
-320.056	-179.168	-0.180	0.004
-319.041	30.882	0.094	-0.079
-318.026	800.000	0.051	-0.141
-317.012	-200.000	0.028	-0.282
-315.997	-200.000	0.021	0.180
-314.983	-116.675	0.220	-0.040
-313.968	-200.000	0.009	-0.088
-312.953	-83.006	-0.161	0.051
-311.939	-80.823	0.272	0.089
-310.924	458.500	0.143	0.313
-309.910	-200.000	-0.043	0.369
-308.895	277.419	-0.163	0.287
-307.880	-200.000	-0.055	-0.435
-306.866	-94.423	-0.255	-0.069
-305.851	25.803	-0.235	-0.193
-304.837	-57.711	0.109	0.047
-303.822	23.183	-0.083	0.067
-302.807	-19.958	0.251	-0.153
-301.793	185.892	0.081	-0.119
-300.778	800.000	0.069	-0.212
-299.764	132.750	0.110	-0.140
-298.749	183.792	0.153	0.222
-297.735	-200.000	0.018	-0.083
-296.720	-96.200	0.059	-0.015
-295.705	-200.000	0.005	0.094
-294.691	208.604	-0.029	-0.045
-293.676	-26.389	-0.150	-0.087
-292.662	-112.357	0.125	-0.025
-291.647	-135.247	-0.150	-0.018
-290.632	800.000	0.061	-0.220
-289.618	305.734	-0.144	-0.263
-288.603	-57.446	-0.208	0.090
-287.589	-200.000	-0.001	-0.037
-286.574	-31.772	-0.336	0.185
-285.559	-84.807	0.165	0.051
-284.545	209.647	-0.051	-0.079
-283.530	93.543	0.167	0.186
-282.516	-200.000	0.007	-0.051
-281.501	-16.844	0.288	0.179
-280.486	136.012	0.099	0.127
-279.472	140.671	0.208	-0.271
-278.457	15.950	0.102	0.079
-277.443	-47.761	-0.272	-0.130
-276.428	-200.000	-0.014	-0.114
-275.413	36.316	-0.054	0.047
-274.399	800.000	-0.037	-0.112
-273.384	165.142	0.094	-0.131
-272.370	5.803	-0.054	0.040
-271.355	84.373	-0.273	0.294
-270.340	800.000	0.054	0.163
-269.326	101.731	-0.161	-0.185
-268.311	-5.453	0.397	0.268
-267.297	-70.716	-0.249	0.093
-266.282	-200.000	0.016	0.077
-265.267	-32.466	-0.263	0.144
-264.253	800.000	0.103	0.441
-263.238	59.013	0.169	0.164
-262.224	-54.858	-0.155	0.069
-261.209	339.063	-0.092	-0.176
-260.195	151.139	0.295	0.394
-259.180	387.323	-0.064	-0.131
-258.165	47.584	-0.055	-0.050
-257.151	108.444	0.197	-0.231
-256.136	-200.000	0.036	0.195
-255.122	-200.000	0.047	-0.225
-254.107	94.784	0.174	-0.194
-253.092	-129.745	0.242	-0.033
-252.078	21.824	-0.306	-0.245
-251.063	-82.922	0.186	-0.059
-250.049	-41.193	0.100	-0.051
-249.034	170.435	0.079	-0.112
-248.019	-68.242	0.194	0.074
-247.005	-200.000	0.003	0.046
-245.990	-179.266	-0.313	-0.007
-244.976	430.645	-0.014	-0.030
-243.961	-10.687	-0.100	-0.065
-242.946	-58.230	-0.224	0.096
-241.932	409.122	-0.173	-0.360
-240.917	285.061	-0.161	-0.286
-239.903	-200.000	-0.030	-0.313
-238.888	-111.653	0.230	-0.046
-237.873	41.290	0.347	0.309
-236.859	-40.430	-0.210	0.107
-235.844	753.273	-0.015	-0.039
-234.830	-200.000	0.002	-0.333
-233.815	800.000	-0.065	0.223
-232.800	-92.856	0.098	0.027
-231.786	140.421	0.103	-0.134
-230.771	1.233	0.217	0.153
-229.757	-200.000	-0.013	0.073
-228.742	-200.000	-0.022	0.452
-227.727	518.747	0.164	0.377
-226.713	-121.046	0.130	0.021
-225.698	179.643	0.098	-0.141
-224.684	-34.916	0.187	-0.100
-223.669	22.874	0.201	0.162
-222.655	-16.519	0.082	0.051
-221.640	-66.470	-0.356	-0.139
-220.625	56.106	0.223	0.212
-219.611	133.735	0.038	0.048
-218.596	-142.220	-0.107	-0.010
-217.582	-79.277	0.225	0.075
-216.567	-34.960	0.296	0.159
-215.552	383.453	-0.112	0.226
-214.538	-59.557	-0.464	0.196
-213.523	124.214	0.342	0.422
-212.509	-65.722	0.192	-0.075
-211.494	390.131	0.184	-0.375
-210.479	-59.758	-0.230	-0.097
-209.465	-102.863	0.430	0.100
-208.450	-200.000	-0.069	0.478
-207.436	-86.582	0.406	0.122
-206.421	156.853	-0.050	-0.067
-205.406	-200.000	-0.059	-0.413
-204.392	-59.172	0.327	-0.138
-203.377	-82.493	0.145	-0.046
-202.363	-200.000	-0.037	0.203
-201.348	201.764	0.124	0.188
-200.333	-49.378	-0.209	-0.098
-199.319	-125.261	0.169	0.025
-198.304	251.888	0.074	0.123
-197.290	96.603	-0.097	-0.109
-196.275	642.636	0.217	-0.542
-195.260	-129.398	-0.091	-0.012
-194.246	-71.644	-0.056	0.021
-193.231	300.333	0.120	-0.218
-192.217	212.559	-0.006	0.009
-191.202	-200.000	0.027	-0.181
-190.187	-49.211	0.396	-0.186
-189.173	-200.000	0.028	-0.150
-188.158	-200.000	0.022	0.161
-187.144	-200.000	0.032	0.176
-186.129	-21.589	0.298	0.178
-185.114	-23.479	-0.121	0.071
-184.100	-189.070	-0.143	-0.002
-183.085	93.738	0.144	0.160
-182.071	670.869	0.004	-0.010
-181.056	-43.156	-0.155	0.077
-180.042	19.200	-0.191	0.150
-179.027	800.000	-0.066	-0.196
-178.012	800.000	0.048	0.155
-176.998	-92.413	0.296	-0.082
-175.983	-165.900	-0.384	0.016
-174.969	370.858	-0.042	0.084
-173.954	-101.458	0.098	0.023
-172.939	800.000	0.081	-0.300
-171.925	-200.000	-0.014	-0.077
-170.910	564.066	-0.106	0.252
-169.896	-166.942	0.102	0.004
-168.881	161.600	0.316	-0.433
-167.866	102.782	0.109	0.125
-166.852	152.727	0.223	0.298
-165.837	-200.000	-0.002	-0.089
-164.823	800.000	-0.132	-0.364
-163.808	-24.308	-0.025	0.015
-162.793	-81.389	-0.315	0.102
-161.779	-2.559	0.362	0.248
-160.764	-20.528	0.197	-0.118
-159.750	-200.000	0.024	-0.154
-158.735	800.000	0.115	0.322
-157.720	161.231	0.127	0.173
-156.706	-148.085	-0.419	-0.034
-155.691	138.425	0.132	0.169
-154.677	-68.181	0.187	0.071
-153.662	61.389	0.177	-0.172
-152.647	-123.561	-0.248	0.039
-151.633	11.631	0.151	-0.114
-150.618	-200.000	-0.006	0.189
-149.604	47.937	-0.138	0.126
-148.589	314.684	0.034	-0.063
-147.574	790.667	0.032	0.085
-146.560	-151.748	0.218	0.016
-145.545	40.177	0.277	-0.244
-144.531	119.207	-0.133	0.161
-143.516	527.249	0.036	0.084
-142.502	-57.957	0.120	-0.051
-141.487	213.052	-0.036	-0.055
-140.472	800.000	0.128	0.393
-139.458	-200.000	-0.065	0.313
-138.443	-62.328	-0.288	0.117
-137.429	-82.730	-0.133	0.042
-136.414	490.661	-0.104	0.234
-135.399	800.000	0.083	0.245
-134.385	-131.123	0.417	0.054
-133.370	800.000	-0.064	-0.237
-132.356	-82.341	-0.104	-0.033
-131.341	-49.207	0.179	-0.084
-130.326	-200.000	0.014	0.226
-129.312	56.934	0.089	0.085
-128.297	800.000	-0.060	0.205
-127.283	-124.860	-0.214	-0.032
-126.268	-122.896	0.187	0.030
-125.253	353.885	-0.090	-0.176
-124.239	-79.378	-0.260	-0.086
-123.224	-200.000	-0.056	0.353
-122.210	-9.109	0.228	0.149
-121.195	800.000	-0.069	-0.219
