DTS Sentinel unit serial number:	SN413079Multiplexer serial number:	ORYXHardware model number:	OX4-SRSoftware version number:	ORYX F/W v4.00 Oryx Data Collector v3.7.2.0data status	okinstallation	princeton_trtdifferential loss correction	single-endedforward channel	channel 1reverse channel	N/Adate	2019/09/16time	21:10:35forward acquisition time	60.00reverse acquisition time	0.00gamma	496.2192k internal	0.2324k external	0.2324temperature offset calibration	0.9952default loss term (dB/km)	0.3790temperature slope calibration	1.0000multiplexer offset coefficient	1.0000multiplexer slope coefficient	1.0000fibre end	0.00T internal ref (°C)	31.81T ext. ref 1 (°C)	0.05T ext. ref 2 (°C)	25.48length (m)	temperature (°C)	Stokes	anti-Stokes-747.200	-49.209	0.207	-0.100
-746.185	476.792	-0.025	0.056
-745.171	-125.708	0.071	-0.011
-744.156	-14.905	0.347	0.225
-743.142	-200.000	-0.008	-0.096
-742.127	-200.000	0.008	0.076
-741.112	685.430	-0.094	0.248
-740.098	-97.944	0.277	0.072
-739.083	89.789	-0.115	0.129
-738.069	-190.417	0.157	-0.002
-737.054	800.000	-0.044	0.143
-736.039	-47.497	-0.210	-0.103
-735.025	6.625	0.333	0.250
-734.010	-147.694	0.181	0.015
-732.996	800.000	0.074	0.219
-731.981	-96.445	0.243	0.065
-730.966	-132.471	0.207	0.027
-729.952	57.532	0.084	-0.083
-728.937	50.580	-0.075	-0.072
-727.923	800.000	-0.038	-0.110
-726.908	52.838	-0.075	-0.073
-725.894	-141.065	0.032	0.003
-724.879	-83.812	0.323	0.104
-723.864	-36.335	-0.148	0.081
-722.850	163.913	-0.286	-0.406
-721.835	-96.978	-0.263	0.069
-720.821	721.227	0.061	-0.163
-719.806	-135.554	-0.227	0.027
-718.791	-200.000	0.039	0.343
-717.777	-46.778	0.257	-0.127
-716.762	-200.000	0.004	-0.132
-715.748	-68.812	0.070	0.027
-714.733	54.174	-0.119	-0.116
-713.718	352.992	0.049	0.098
-712.704	-76.732	-0.120	-0.042
-711.689	97.480	-0.206	-0.239
-710.675	-100.354	0.145	-0.036
-709.660	237.424	0.016	-0.027
-708.645	166.714	-0.121	0.174
-707.631	-43.441	-0.063	-0.032
-706.616	86.964	0.059	-0.066
-705.602	-200.000	-0.018	0.283
-704.587	95.514	-0.065	-0.074
-703.572	-200.000	0.039	-0.218
-702.558	207.184	-0.049	0.076
-701.543	-58.586	0.204	-0.089
-700.529	391.505	-0.029	-0.060
-699.514	73.304	0.188	0.198
-698.499	-122.474	0.075	0.012
-697.485	-200.000	0.016	-0.084
-696.470	800.000	0.050	-0.197
-695.456	-8.827	0.363	-0.245
-694.441	223.480	-0.119	0.193
-693.426	52.257	-0.049	0.047
-692.412	-200.000	-0.024	0.316
-691.397	-20.422	0.139	-0.086
-690.383	-90.471	0.254	-0.074
-689.368	-73.260	0.378	-0.139
-688.354	731.699	0.084	0.227
-687.339	-92.290	-0.218	-0.062
-686.324	50.669	-0.006	-0.006
-685.310	-200.000	0.039	0.209
-684.295	-0.767	-0.146	-0.104
-683.281	612.849	0.027	0.068
-682.266	-1.105	-0.112	-0.080
-681.251	-200.000	-0.013	-0.134
-680.237	187.500	0.143	0.215
-679.222	58.996	-0.212	-0.210
-678.208	800.000	-0.030	0.122
-677.193	171.014	-0.086	0.124
-676.178	-16.663	-0.188	0.120
-675.164	-118.632	0.165	-0.029
-674.149	800.000	0.033	0.094
-673.135	47.399	0.046	0.043
-672.120	-158.304	0.246	0.014
-671.105	85.540	-0.055	-0.061
-670.091	-200.000	0.008	0.120
-669.076	86.772	0.154	-0.171
-668.062	-10.299	-0.187	0.125
-667.047	430.188	-0.088	0.192
-666.032	4.336	0.138	0.101
-665.018	-200.000	-0.015	-0.112
-664.003	395.824	0.061	-0.128
-662.989	800.000	0.051	0.196
-661.974	1.490	0.141	0.102
-660.959	-200.000	0.008	0.180
-659.945	7.418	0.078	-0.059
-658.930	192.739	0.196	0.298
-657.916	-200.000	-0.011	-0.143
-656.901	-27.519	0.157	-0.092
-655.886	-109.363	0.202	0.043
-654.872	-69.333	0.318	-0.123
-653.857	191.099	0.077	-0.116
-652.843	3.907	-0.238	0.175
-651.828	297.904	-0.130	-0.241
-650.814	-200.000	0.032	-0.380
-649.799	-44.929	-0.139	0.070
-648.784	-104.553	-0.348	-0.081
-647.770	800.000	-0.047	-0.134
-646.755	-32.452	0.153	0.086
-645.741	557.518	-0.103	0.249
-644.726	-143.502	0.058	0.006
-643.711	-136.861	-0.262	0.030
-642.697	466.336	0.112	0.252
-641.682	-0.667	0.046	-0.033
-640.668	-68.817	-0.125	-0.048
-639.653	119.404	0.086	-0.107
-638.638	-200.000	-0.042	-0.301
-637.624	-173.429	-0.298	-0.009
-636.609	-130.967	-0.097	0.013
-635.595	-200.000	0.016	0.204
-634.580	612.924	-0.029	0.072
-633.565	43.570	-0.112	0.103
-632.551	-64.805	0.068	-0.028
-631.536	117.899	0.112	0.139
-630.522	22.887	0.053	0.043
-629.507	20.314	0.348	-0.283
-628.492	-30.424	-0.292	0.166
-627.478	-165.861	-0.289	-0.012
-626.463	43.330	0.261	-0.239
-625.449	800.000	-0.083	-0.259
-624.434	55.085	0.058	0.056
-623.419	800.000	-0.077	0.313
-622.405	800.000	-0.066	0.228
-621.390	-42.074	-0.031	0.016
-620.376	-200.000	0.019	-0.107
-619.361	109.995	-0.145	0.175
-618.346	-47.564	-0.367	-0.179
-617.332	232.645	-0.341	-0.563
-616.317	-142.907	0.307	0.030
-615.303	-172.590	0.094	-0.003
-614.288	26.049	0.071	-0.059
-613.273	-200.000	0.066	0.333
-612.259	410.235	0.094	-0.199
-611.244	-27.653	0.124	-0.072
-610.230	263.305	-0.135	0.235
-609.215	-7.800	-0.330	-0.223
-608.201	148.876	0.188	-0.255
-607.186	-63.734	-0.349	0.144
-606.171	-37.908	0.113	0.060
-605.157	-46.645	0.177	0.087
-604.142	-200.000	0.008	-0.153
-603.128	63.326	-0.135	-0.136
-602.113	-143.259	-0.229	-0.022
-601.098	-42.622	0.308	0.157
-600.084	98.122	-0.304	-0.351
-599.069	157.153	-0.052	-0.073
-598.055	112.921	0.101	0.123
-597.040	-77.149	0.197	-0.069
-596.025	-102.996	0.253	-0.060
-595.011	-132.966	-0.282	0.036
-593.996	-18.975	-0.157	0.098
-592.982	97.165	0.086	0.099
-591.967	77.752	-0.067	0.071
-590.952	-200.000	0.023	-0.178
-589.938	-138.809	-0.086	0.009
-588.923	222.036	0.070	-0.114
-587.909	260.263	-0.025	0.044
-586.894	-137.280	0.038	0.004
-585.879	-200.000	-0.118	0.000
-584.865	450.483	-0.144	-0.319
-583.850	-51.661	0.185	-0.087
-582.836	800.000	0.103	0.301
-581.821	-32.970	-0.234	-0.130
-580.806	-24.659	-0.246	-0.147
-579.792	-200.000	-0.017	-0.103
-578.777	800.000	-0.039	-0.115
-577.763	598.657	-0.104	0.260
-576.748	-144.156	-0.352	-0.033
-575.733	-120.433	-0.248	-0.042
-574.719	127.224	-0.051	0.065
-573.704	-2.245	-0.176	-0.124
-572.690	-184.431	-0.037	-0.001
-571.675	-101.454	-0.158	0.039
-570.661	-121.012	-0.141	0.024
-569.646	-126.393	0.178	0.027
-568.631	87.314	-0.119	-0.132
-567.617	71.131	0.128	-0.133
-566.602	28.919	-0.087	0.074
-565.588	-66.442	-0.284	0.113
-564.573	-200.000	-0.012	-0.302
-563.558	368.105	0.065	-0.131
-562.544	-200.000	-0.045	-0.294
-561.529	189.934	0.031	0.047
-560.515	-115.390	0.105	-0.020
-559.500	475.408	-0.081	0.182
-558.485	-8.242	-0.354	-0.239
-557.471	85.858	-0.157	0.173
-556.456	-102.465	0.089	0.021
-555.442	-51.078	-0.202	0.095
-554.427	800.000	-0.083	0.315
-553.412	-38.718	0.133	-0.071
-552.398	-198.961	-0.271	0.001
-551.383	-35.230	0.152	-0.083
-550.369	569.816	-0.065	0.157
-549.354	194.346	0.194	0.295
-548.339	-117.916	0.347	-0.062
-547.325	800.000	-0.128	-0.362
-546.310	-3.821	-0.195	-0.136
-545.296	15.059	-0.154	-0.121
-544.281	-200.000	0.030	0.231
-543.266	-66.394	0.340	0.135
-542.252	3.616	-0.334	-0.244
-541.237	800.000	-0.046	-0.137
-540.223	-125.835	0.395	-0.060
-539.208	605.873	-0.106	0.264
-538.193	-61.980	-0.311	0.130
-537.179	-33.396	-0.218	-0.121
-536.164	-88.707	-0.264	-0.079
-535.150	-145.982	0.253	-0.022
-534.135	-37.732	0.283	-0.151
-533.121	239.471	0.067	-0.111
-532.106	-120.553	0.101	0.017
-531.091	-200.000	-0.002	-0.118
-530.077	245.731	-0.130	-0.220
-529.062	-40.118	-0.086	-0.045
-528.048	-65.111	0.193	0.078
-527.033	-144.239	-0.193	-0.018
-526.018	565.371	0.051	0.123
-525.004	-10.171	-0.113	-0.075
-523.989	-200.000	-0.007	-0.237
-522.975	-101.545	-0.249	-0.061
-521.960	-200.000	-0.001	-0.352
-520.945	408.038	0.179	0.378
-519.931	-128.104	0.320	-0.046
-518.916	-101.055	-0.132	-0.032
-517.902	-55.052	0.409	-0.184
-516.887	116.229	0.153	-0.188
-515.872	-106.962	-0.161	0.036
-514.858	45.940	0.247	0.228
-513.843	54.385	0.077	-0.074
-512.829	-161.401	-0.266	-0.014
-511.814	175.717	-0.181	-0.262
-510.799	-76.656	0.114	-0.040
-509.785	322.472	0.033	0.063
-508.770	-73.424	0.399	0.146
-507.756	800.000	-0.016	-0.062
-506.741	27.904	-0.204	0.172
-505.726	-76.672	0.186	-0.065
-504.712	220.222	0.126	-0.202
-503.697	108.169	-0.261	-0.311
-502.683	681.818	-0.163	-0.425
-501.668	196.305	-0.033	0.050
-500.653	104.698	-0.089	0.105
-499.639	-53.776	-0.309	0.141
-498.624	800.000	0.077	-0.273
-497.610	-66.391	-0.025	0.010
-496.595	-160.086	0.108	-0.006
-495.581	-106.536	0.283	-0.063
-494.566	-105.836	-0.204	0.046
-493.551	78.827	-0.107	0.114
-492.537	34.909	0.343	-0.300
-491.522	223.822	0.137	0.220
-490.508	-200.000	0.056	0.265
-489.493	90.008	0.140	0.156
-488.478	125.182	0.138	-0.173
-487.464	-36.531	0.110	-0.059
-486.449	-41.662	0.220	-0.113
-485.435	-91.813	-0.094	-0.027
-484.420	125.282	-0.090	0.114
-483.405	213.744	-0.057	-0.089
-482.391	54.595	-0.092	-0.088
-481.376	713.668	-0.058	0.154
-480.362	573.216	-0.052	-0.128
-479.347	97.758	-0.167	-0.192
-478.332	-50.906	-0.355	-0.166
-477.318	70.195	0.089	-0.092
-476.303	-200.000	-0.004	0.215
-475.289	-142.717	0.133	0.013
-474.274	-151.975	0.156	0.011
-473.259	-137.384	0.196	0.022
-472.245	274.071	-0.046	0.080
-471.230	378.440	0.055	-0.112
-470.216	473.442	-0.072	-0.162
-469.201	-77.355	-0.347	-0.120
-468.186	581.874	0.102	-0.251
-467.172	-50.909	0.135	0.063
-466.157	-81.429	0.182	0.060
-465.143	-79.112	-0.349	0.118
-464.128	-200.000	0.021	0.289
-463.113	-200.000	0.030	0.420
-462.099	77.775	-0.142	0.151
-461.084	150.602	0.138	-0.187
-460.070	-39.702	0.108	0.056
-459.055	-142.967	-0.187	0.018
-458.040	-173.121	-0.283	0.009
-457.026	-44.446	0.313	-0.156
-456.011	-108.757	-0.118	0.025
-454.997	-106.731	-0.119	0.026
-453.982	14.077	-0.181	-0.141
-452.968	498.053	0.163	-0.373
-451.953	274.388	0.201	0.355
-450.938	-43.228	0.142	0.072
-449.924	-126.639	0.309	-0.046
-448.909	171.732	-0.138	-0.198
-447.895	-118.683	0.380	0.067
-446.880	-200.000	-0.015	0.068
-445.865	-111.789	-0.071	0.014
-444.851	-200.000	0.044	0.288
-443.836	424.888	-0.058	-0.125
-442.822	125.313	0.153	-0.193
-441.807	-200.000	-0.013	-0.122
-440.792	-19.139	-0.205	-0.127
-439.778	115.676	0.292	0.357
-438.763	-88.249	-0.109	-0.033
-437.749	-71.313	-0.070	-0.026
-436.734	-200.000	0.015	0.085
-435.719	40.866	-0.169	-0.152
-434.705	-90.975	0.187	-0.054
-433.690	800.000	0.092	-0.270
-432.676	-169.496	0.151	-0.006
-431.661	-200.000	-0.020	0.195
-430.646	187.178	-0.124	0.185
-429.632	389.513	0.160	-0.330
-428.617	800.000	-0.082	0.227
-427.603	800.000	0.115	0.428
-426.588	39.680	-0.195	-0.175
-425.573	106.459	-0.175	-0.207
-424.559	41.770	-0.026	-0.024
-423.544	800.000	0.054	-0.194
-422.530	-107.497	0.160	-0.035
-421.515	25.532	0.302	-0.251
-420.500	609.110	-0.131	-0.327
-419.486	-200.000	0.002	0.107
-418.471	-22.229	0.309	-0.187
-417.457	-171.896	-0.285	0.009
-416.442	299.761	0.187	0.344
-415.428	-169.448	-0.328	-0.012
-414.413	-59.188	-0.268	-0.115
-413.398	-200.000	-0.013	0.137
-412.384	86.184	-0.130	-0.142
-411.369	-200.000	-0.013	-0.100
-410.355	65.896	-0.102	-0.103
-409.340	634.989	0.086	0.218
-408.325	96.466	0.267	0.304
-407.311	-124.173	-0.489	0.076
-406.296	-200.000	-0.011	-0.184
-405.282	90.499	0.040	-0.045
-404.267	-104.043	0.244	-0.057
-403.252	124.490	-0.225	0.282
-402.238	-110.729	-0.280	-0.058
-401.223	501.314	-0.069	0.159
-400.209	309.105	0.103	-0.191
-399.194	-101.838	-0.106	-0.025
-398.179	-53.304	0.321	0.146
-397.165	-153.104	-0.152	-0.011
-396.150	800.000	-0.048	-0.179
-395.136	-200.000	0.017	0.171
-394.121	156.660	-0.224	0.308
-393.106	230.025	-0.116	-0.188
-392.092	46.450	0.204	-0.188
-391.077	100.693	0.143	0.165
-390.063	311.326	-0.107	0.199
-389.048	169.908	0.127	-0.180
-388.033	-93.359	-0.094	-0.026
-387.019	275.912	-0.142	0.251
-386.004	302.254	-0.081	-0.150
-384.990	-124.981	-0.099	0.015
-383.975	-200.000	0.030	0.147
-382.960	-78.229	0.276	-0.094
-381.946	-38.267	0.239	0.126
-380.931	800.000	-0.082	-0.256
-379.917	-109.173	-0.227	0.048
-378.902	110.897	0.149	-0.178
-377.888	441.213	-0.051	-0.112
-376.873	800.000	-0.111	0.419
-375.858	-128.035	0.173	0.025
-374.844	353.565	-0.120	-0.237
-373.829	-36.381	0.241	-0.129
-372.815	57.015	-0.033	-0.032
-371.800	366.351	0.022	0.044
-370.785	55.932	-0.211	-0.204
-369.771	32.125	-0.103	0.088
-368.756	-158.303	-0.045	-0.003
-367.742	42.216	-0.227	0.205
-366.727	-181.749	-0.355	-0.007
-365.712	-107.910	-0.372	-0.080
-364.698	-111.278	-0.208	0.042
-363.683	-200.000	0.039	0.205
-362.669	109.558	0.181	-0.216
-361.654	3.478	0.315	0.228
-360.639	800.000	-0.040	0.153
-359.625	250.155	0.134	0.226
-358.610	-120.113	0.259	-0.044
-357.596	57.122	0.354	-0.343
-356.581	-149.287	-0.199	0.016
-355.566	181.451	-0.093	-0.136
-354.552	-158.539	0.063	0.004
-353.537	-200.000	0.026	0.380
-352.523	-48.731	0.417	-0.199
-351.508	324.652	0.106	-0.201
-350.493	109.183	-0.114	0.136
-349.479	800.000	-0.107	0.421
-348.464	-73.069	0.222	0.081
-347.450	-80.198	0.074	-0.025
-346.435	-8.358	0.228	-0.152
-345.420	-79.858	0.392	-0.131
-344.406	800.000	-0.021	-0.086
-343.391	412.914	-0.071	-0.151
-342.377	-48.582	-0.374	0.179
-341.362	-67.152	0.281	0.110
-340.348	-37.053	0.097	0.052
-339.333	-124.227	-0.332	-0.052
-338.318	-109.890	-0.222	0.046
-337.304	395.497	0.074	-0.153
-336.289	40.525	0.119	-0.106
-335.275	800.000	-0.051	0.186
-334.260	-158.853	0.171	0.010
-333.245	422.671	-0.064	-0.136
-332.231	56.861	0.034	0.032
-331.216	135.725	0.049	-0.064
-330.202	800.000	0.092	0.346
-329.187	223.315	-0.226	0.362
-328.172	10.278	-0.122	0.092
-327.158	800.000	0.053	-0.146
-326.143	-17.872	0.255	0.159
-325.129	-200.000	0.005	0.218
-324.114	493.911	-0.053	-0.120
-323.099	-17.357	-0.020	-0.013
-322.085	336.161	0.138	-0.266
-321.070	449.628	-0.056	0.122
-320.056	-9.157	0.084	-0.056
-319.041	-42.064	-0.359	-0.182
-318.026	-146.250	0.239	0.021
-317.012	87.244	-0.296	0.325
-315.997	800.000	-0.115	0.410
-314.983	-126.079	0.217	0.032
-313.968	309.770	-0.171	-0.318
-312.953	800.000	-0.010	-0.033
-311.939	-200.000	-0.040	-0.176
-310.924	71.008	0.183	-0.188
-309.910	-133.323	-0.205	-0.026
-308.895	-70.282	0.312	-0.117
-307.880	-120.519	-0.126	0.021
-306.866	-23.393	0.130	0.077
-305.851	-76.933	0.182	-0.063
-304.837	-200.000	-0.033	0.235
-303.822	34.723	-0.073	0.063
-302.807	32.718	0.186	0.159
-301.793	-16.847	0.175	-0.110
-300.778	114.892	0.166	0.201
-299.764	575.443	0.177	-0.429
-298.749	-200.000	0.027	0.174
-297.735	654.496	0.124	-0.317
-296.720	-200.000	-0.057	-0.419
-295.705	-77.325	-0.351	-0.121
-294.691	-121.907	-0.304	0.050
-293.676	-200.000	-0.059	-0.508
-292.662	-103.417	0.027	-0.006
-291.647	-92.629	-0.177	-0.049
-290.632	-46.111	-0.046	0.022
-289.618	73.585	-0.111	0.116
-288.603	-95.735	0.203	-0.054
-287.589	-29.807	0.320	-0.181
-286.574	6.927	0.205	-0.151
-285.559	800.000	0.075	-0.267
-284.545	-63.123	-0.273	0.112
-283.530	-103.852	0.295	0.068
-282.516	800.000	0.029	0.099
-281.501	800.000	-0.030	0.119
-280.486	800.000	0.007	-0.022
-279.472	-33.978	0.565	0.308
-278.457	-141.436	-0.139	0.014
-277.443	5.908	-0.209	0.154
-276.428	-33.417	-0.069	0.038
-275.413	247.917	0.048	0.081
-274.399	265.874	-0.020	0.035
-273.384	-127.373	0.113	0.016
-272.370	193.362	-0.074	0.110
-271.355	-60.004	0.299	0.127
-270.340	35.943	0.242	0.211
-269.326	33.122	0.236	0.203
-268.311	325.423	-0.077	0.145
-267.297	800.000	-0.102	0.300
-266.282	407.996	-0.108	0.225
-265.267	304.883	0.222	-0.409
-264.253	-200.000	-0.052	0.282
-263.238	-71.079	-0.257	0.096
-262.224	-85.952	-0.477	-0.146
-261.209	57.574	0.113	0.110
-260.195	-3.481	0.196	-0.135
-259.180	61.007	-0.032	-0.032
-258.165	800.000	0.017	0.067
-257.151	-89.808	-0.114	-0.033
-256.136	-123.275	0.149	0.024
-255.122	-122.859	-0.162	0.026
-254.107	494.837	0.166	0.378
-253.092	298.707	0.080	-0.146
-252.078	49.137	-0.075	0.070
-251.063	-68.383	0.271	-0.104
-250.049	-95.688	0.328	0.087
-249.034	-147.776	-0.372	-0.031
-248.019	-52.102	-0.151	0.069
-247.005	82.244	0.169	0.181
-245.990	-200.000	-0.049	-0.230
-244.976	144.718	-0.240	-0.317
-243.961	-157.113	0.308	-0.019
-242.946	-200.000	-0.017	-0.104
-241.932	800.000	0.089	-0.356
-240.917	800.000	-0.135	0.380
-239.903	-9.973	0.191	-0.126
-238.888	-143.301	0.248	-0.024
-237.873	-200.000	-0.046	0.251
-236.859	-200.000	0.013	0.455
-235.844	24.589	-0.089	0.073
-234.830	129.799	-0.229	0.290
-233.815	-106.774	0.074	0.016
-232.800	321.542	0.079	0.150
-231.786	175.058	0.204	0.292
-230.771	-200.000	0.004	0.026
-229.757	68.210	0.078	0.079
-228.742	149.981	0.179	0.240
-227.727	163.350	0.071	0.099
-226.713	-102.715	-0.143	0.034
-225.698	311.174	-0.128	-0.238
-224.684	-200.000	-0.043	0.222
-223.669	-81.608	-0.248	0.081
-222.655	329.213	0.009	0.017
-221.640	-200.000	-0.002	0.101
-220.625	800.000	-0.117	0.427
-219.611	-163.241	0.157	-0.007
-218.596	800.000	-0.046	0.172
-217.582	-178.741	-0.165	-0.004
-216.567	42.613	0.274	0.247
-215.552	62.975	0.059	-0.058
-214.538	-112.357	0.083	0.016
-213.523	116.469	-0.220	-0.267
-212.509	-200.000	0.037	0.407
-211.494	118.478	-0.106	0.129
-210.479	-128.983	-0.265	-0.037
-209.465	-30.937	0.244	0.136
-208.450	90.453	-0.141	-0.156
-207.436	96.504	0.123	0.139
-206.421	-200.000	-0.023	0.214
-205.406	-85.618	0.244	-0.075
-204.392	-153.377	0.422	0.029
-203.377	-71.443	-0.275	-0.102
-202.363	270.736	0.180	0.313
-201.348	147.210	-0.194	0.259
-200.333	-200.000	-0.008	0.100
-199.319	245.141	-0.101	0.168
-198.304	3.220	0.210	-0.151
-197.290	0.770	0.192	-0.136
-196.275	-140.769	0.170	-0.017
-195.260	319.463	-0.096	0.179
-194.246	-200.000	0.000	-0.263
-193.231	-92.405	0.096	-0.027
-192.217	11.372	0.218	0.165
-191.202	-200.000	0.012	-0.254
-190.187	655.209	-0.099	0.250
-189.173	-96.281	0.238	-0.062
-188.158	-73.945	0.416	-0.149
-187.144	-126.554	0.105	0.015
-186.129	800.000	0.075	-0.271
-185.114	200.633	-0.118	-0.178
-184.100	-29.737	0.380	-0.214
-183.085	-139.052	-0.153	-0.016
-182.071	274.066	-0.093	-0.163
-181.056	353.980	0.146	0.286
-180.042	-100.711	-0.260	-0.063
-179.027	-15.580	0.178	-0.112
-178.012	-107.917	0.053	0.011
-176.998	-108.267	0.267	0.057
-175.983	431.948	-0.075	-0.161
-174.969	-146.613	0.113	0.010
-173.954	246.344	0.111	-0.185
-172.939	800.000	0.094	0.318
-171.925	-36.078	-0.081	0.043
-170.910	-91.251	-0.150	-0.042
-169.896	17.320	-0.198	0.155
-168.881	53.618	-0.200	-0.189
-167.866	-31.985	-0.212	-0.117
-166.852	-34.283	0.055	0.030
-165.837	-200.000	-0.027	-0.203
-164.823	-200.000	-0.018	0.179
-163.808	-200.000	-0.081	-0.383
-162.793	-32.745	-0.062	0.034
-161.779	296.851	0.128	0.233
-160.764	-200.000	-0.015	-0.290
-159.750	-101.584	-0.353	0.085
-158.735	-34.460	0.215	0.116
-157.720	800.000	-0.128	0.451
-156.706	-200.000	0.026	0.220
-155.691	-55.974	-0.284	-0.125
-154.677	-200.000	-0.020	-0.305
-153.662	-91.104	0.378	-0.107
-152.647	-65.493	0.380	-0.150
-151.633	694.606	0.020	0.051
-150.618	356.919	0.022	0.044
-149.604	136.272	0.197	0.253
-148.589	-200.000	0.083	0.385
-147.574	-200.000	-0.023	-0.109
-146.560	-145.880	-0.215	0.019
-145.545	-200.000	0.025	0.151
-144.531	-134.017	0.163	-0.020
-143.516	-98.611	0.219	0.055
-142.502	107.057	0.101	-0.118
-141.487	-200.000	0.067	0.344
-140.472	174.797	0.122	-0.174
-139.458	-200.000	0.036	0.187
-138.443	-7.998	0.050	-0.033
-137.429	133.553	0.321	0.409
-136.414	800.000	-0.123	0.360
-135.399	35.217	0.303	0.262
-134.385	-153.263	-0.362	0.025
-133.370	3.455	0.141	-0.101
-132.356	-3.086	-0.102	-0.070
-131.341	490.765	0.196	0.442
-130.326	32.103	0.070	0.060
-129.312	-51.276	0.367	0.169
-128.297	-200.000	-0.002	-0.028
-127.283	23.669	-0.204	-0.165
-126.268	-27.136	0.395	-0.227
-125.253	-31.732	-0.149	-0.082
-124.239	36.624	0.029	-0.025
-123.224	363.912	0.006	-0.011
-122.210	-200.000	0.013	0.161
-121.195	-200.000	0.066	-0.551
