DTS Sentinel unit serial number:	SN413079Multiplexer serial number:	ORYXHardware model number:	OX4-SRSoftware version number:	ORYX F/W v4.00 Oryx Data Collector v3.7.2.0data status	okinstallation	princeton_trtdifferential loss correction	single-endedforward channel	channel 1reverse channel	N/Adate	2019/09/16time	08:22:35forward acquisition time	60.00reverse acquisition time	0.00gamma	496.2192k internal	0.2324k external	0.2324temperature offset calibration	0.9976default loss term (dB/km)	0.3790temperature slope calibration	1.0000multiplexer offset coefficient	1.0000multiplexer slope coefficient	1.0000fibre end	0.00T internal ref (°C)	29.06T ext. ref 1 (°C)	11.86T ext. ref 2 (°C)	25.51length (m)	temperature (°C)	Stokes	anti-Stokes-747.200	-139.579	-0.222	-0.024
-746.185	800.000	0.116	0.363
-745.171	744.039	-0.094	0.255
-744.156	-161.725	0.138	-0.007
-743.142	-63.348	-0.072	-0.030
-742.127	800.000	-0.081	0.325
-741.112	259.975	-0.062	-0.108
-740.098	179.818	0.219	0.323
-739.083	-104.763	0.152	0.035
-738.069	189.377	0.059	0.090
-737.054	148.937	0.050	0.069
-736.039	96.338	-0.256	-0.295
-735.025	-98.622	0.119	0.031
-734.010	793.589	0.157	0.436
-732.996	-37.456	-0.190	0.103
-731.981	-200.000	0.027	-0.207
-730.966	20.088	-0.214	-0.174
-729.952	-200.000	-0.007	-0.080
-728.937	-22.184	0.031	0.019
-727.923	-77.254	-0.345	0.121
-726.908	155.090	0.122	-0.170
-725.894	-200.000	-0.027	0.140
-724.879	-200.000	0.045	-0.265
-723.864	-177.097	-0.172	0.004
-722.850	800.000	0.073	-0.258
-721.835	62.053	-0.068	0.068
-720.821	395.313	0.027	0.056
-719.806	-107.184	-0.133	0.030
-718.791	-128.804	-0.530	0.075
-717.777	-61.977	-0.101	-0.043
-716.762	148.560	0.085	-0.116
-715.748	-56.571	-0.259	-0.116
-714.733	103.081	-0.156	-0.184
-713.718	544.315	-0.029	0.070
-712.704	185.084	0.153	-0.229
-711.689	18.452	0.090	-0.072
-710.675	336.134	-0.118	0.232
-709.660	0.371	-0.360	0.259
-708.645	-200.000	-0.037	0.181
-707.631	248.637	-0.133	0.226
-706.616	-165.915	-0.102	0.004
-705.602	719.915	0.134	0.359
-704.587	800.000	0.089	-0.355
-703.572	-2.023	-0.456	-0.323
-702.558	-200.000	0.036	0.373
-701.543	-116.510	-0.032	-0.006
-700.529	32.182	0.061	0.053
-699.514	-10.754	0.141	-0.094
-698.499	-200.000	0.066	0.349
-697.485	-13.832	0.277	0.181
-696.470	-200.000	-0.025	-0.368
-695.456	782.636	-0.061	-0.167
-694.441	-200.000	0.065	0.393
-693.426	-125.077	0.042	0.007
-692.412	800.000	-0.055	-0.184
-691.397	-200.000	-0.011	-0.344
-690.383	-200.000	-0.027	0.219
-689.368	-149.351	0.086	0.007
-688.354	-200.000	-0.030	-0.132
-687.339	800.000	-0.071	-0.240
-686.324	-48.136	0.243	-0.118
-685.310	10.478	-0.130	0.099
-684.295	800.000	-0.103	-0.422
-683.281	290.456	0.176	-0.322
-682.266	-89.811	-0.312	-0.092
-681.251	114.837	0.183	-0.225
-680.237	-200.000	-0.008	-0.075
-679.222	17.513	0.134	0.108
-678.208	89.021	0.040	0.045
-677.193	-200.000	-0.006	0.332
-676.178	-200.000	0.013	-0.243
-675.164	296.995	-0.194	-0.359
-674.149	123.993	-0.103	-0.130
-673.135	34.347	0.111	0.097
-672.120	-200.000	-0.009	0.051
-671.105	-83.241	0.096	0.031
-670.091	800.000	-0.040	-0.111
-669.076	323.975	-0.070	0.134
-668.062	-200.000	-0.028	0.272
-667.047	-15.375	-0.248	0.160
-666.032	-49.430	-0.200	0.096
-665.018	116.914	0.033	0.041
-664.003	125.277	0.354	-0.450
-662.989	-199.270	-0.215	-0.001
-661.974	-200.000	-0.023	0.176
-660.959	502.267	0.021	0.050
-659.945	-76.305	0.027	-0.010
-658.930	-31.380	-0.218	0.123
-657.916	-200.000	-0.011	0.271
-656.901	312.840	0.148	-0.279
-655.886	510.962	-0.093	-0.217
-654.872	-191.054	0.274	0.003
-653.857	81.152	0.067	-0.073
-652.843	-52.379	0.131	-0.061
-651.828	-18.608	-0.404	0.253
-650.814	34.994	-0.060	0.053
-649.799	-8.686	-0.118	0.080
-648.784	273.738	0.063	-0.113
-647.770	113.121	-0.088	-0.107
-646.755	-72.109	-0.170	-0.063
-645.741	-33.585	-0.266	-0.148
-644.726	45.075	0.194	-0.180
-643.711	-200.000	0.042	-0.252
-642.697	-40.318	-0.224	0.117
-641.682	600.584	0.062	-0.155
-640.668	-200.000	-0.031	0.356
-639.653	-166.440	-0.071	-0.003
-638.638	-91.872	0.349	-0.100
-637.624	322.226	-0.017	0.033
-636.609	-47.935	-0.279	0.136
-635.595	-200.000	-0.040	0.261
-634.580	-105.221	0.324	-0.074
-633.565	-200.000	0.008	-0.280
-632.551	-111.724	-0.294	0.060
-631.536	-68.180	0.114	-0.045
-630.522	50.824	-0.143	0.136
-629.507	705.824	-0.070	0.187
-628.492	337.011	0.084	0.165
-627.478	-184.596	-0.377	-0.006
-626.463	159.903	-0.191	0.267
-625.449	223.580	0.141	-0.229
-624.434	293.456	-0.102	-0.188
-623.419	800.000	0.015	0.064
-622.405	168.653	0.153	-0.219
-621.390	-179.907	-0.126	-0.003
-620.376	271.935	-0.164	-0.290
-619.361	800.000	-0.062	-0.226
-618.346	106.297	0.107	-0.128
-617.332	-114.200	0.162	-0.031
-616.317	-200.000	-0.021	-0.152
-615.303	-188.968	0.260	-0.003
-614.288	56.646	0.170	0.166
-613.273	-90.668	-0.027	0.008
-612.259	224.786	0.087	0.141
-611.244	-200.000	0.018	-0.104
-610.230	800.000	0.131	-0.469
-609.215	-75.546	0.029	0.011
-608.201	-41.041	0.212	0.110
-607.186	-167.465	0.139	0.006
-606.171	560.606	0.197	-0.477
-605.157	-148.502	-0.160	0.013
-604.142	-200.000	0.001	0.027
-603.128	-200.000	-0.059	-0.334
-602.113	-150.546	0.084	0.006
-601.098	202.964	0.173	0.269
-600.084	19.006	0.170	0.137
-599.069	-117.783	-0.388	-0.070
-598.055	224.168	0.168	0.273
-597.040	245.469	-0.149	-0.252
-596.025	800.000	-0.041	0.161
-595.011	-123.837	0.131	0.021
-593.996	-84.571	0.180	0.057
-592.982	800.000	0.049	-0.164
-591.967	-200.000	-0.010	0.294
-590.952	59.853	-0.255	0.253
-589.938	800.000	-0.024	-0.067
-588.923	-143.193	-0.471	-0.045
-587.909	800.000	0.077	0.309
-586.894	-148.864	0.067	0.005
-585.879	-38.989	-0.230	-0.121
-584.865	-67.764	0.134	0.053
-583.850	60.629	-0.179	0.178
-582.836	151.330	-0.256	0.350
-581.821	-6.999	0.327	0.223
-580.806	-130.887	0.313	-0.042
-579.792	-200.000	-0.009	0.249
-578.777	-103.018	-0.079	0.019
-577.763	162.890	-0.190	-0.267
-576.748	267.837	0.212	-0.372
-575.733	45.358	0.193	-0.179
-574.719	54.400	0.253	0.244
-573.704	-200.000	-0.009	0.044
-572.690	-200.000	0.020	0.209
-571.675	-132.743	0.272	0.035
-570.661	800.000	-0.065	-0.209
-569.646	-98.970	-0.318	0.081
-568.631	264.873	-0.032	0.055
-567.617	-87.360	0.266	0.081
-566.602	332.601	0.177	0.343
-565.588	-131.023	0.306	-0.041
-564.573	-118.916	0.190	0.034
-563.558	108.494	0.384	-0.460
-562.544	-47.104	-0.357	-0.174
-561.529	-52.487	-0.345	-0.160
-560.515	212.584	-0.047	0.074
-559.500	-101.388	0.125	-0.031
-558.485	493.089	0.064	-0.147
-557.471	800.000	0.042	-0.171
-556.456	-113.236	0.051	-0.010
-555.442	97.709	-0.066	0.076
-554.427	86.901	-0.063	0.069
-553.412	-200.000	0.063	-0.357
-552.398	173.451	-0.146	-0.211
-551.383	-30.578	-0.412	-0.234
-550.369	-115.732	-0.305	-0.057
-549.354	-96.366	0.091	0.024
-548.339	-200.000	0.009	0.048
-547.325	123.942	-0.086	-0.108
-546.310	-200.000	0.015	0.190
-545.296	-5.597	-0.024	-0.016
-544.281	-81.147	-0.218	-0.072
-543.266	68.268	0.176	-0.180
-542.252	-117.505	0.260	0.047
-541.237	-117.804	-0.059	-0.011
-540.223	-200.000	-0.035	0.175
-539.208	800.000	-0.106	-0.375
-538.193	-200.000	-0.023	-0.187
-537.179	-82.503	-0.176	0.057
-536.164	-46.651	0.162	0.079
-535.150	800.000	-0.044	-0.143
-534.135	-136.001	0.242	0.028
-533.121	-71.891	0.196	-0.073
-532.106	-18.021	-0.212	-0.133
-531.091	-200.000	-0.050	0.238
-530.077	85.521	0.143	-0.158
-529.062	521.204	0.148	0.347
-528.048	584.582	-0.058	0.142
-527.033	53.905	-0.169	0.162
-526.018	800.000	0.090	0.302
-525.004	-200.000	-0.003	-0.051
-523.989	800.000	-0.015	0.049
-522.975	-200.000	-0.007	-0.178
-521.960	126.731	-0.101	-0.128
-520.945	-200.000	-0.021	-0.124
-519.931	-200.000	0.004	0.076
-518.916	-132.939	0.209	0.027
-517.902	-116.173	0.072	0.013
-516.887	756.389	0.063	0.169
-515.872	-200.000	-0.079	0.538
-514.858	317.565	-0.053	0.100
-513.843	-200.000	0.007	-0.076
-512.829	-94.414	0.317	0.087
-511.814	100.324	-0.310	-0.360
-510.799	372.991	-0.061	0.125
-509.785	-200.000	0.003	0.286
-508.770	87.355	-0.066	0.073
-507.756	-20.286	-0.123	0.076
-506.741	-200.000	0.041	0.247
-505.726	800.000	-0.044	-0.152
-504.712	-138.403	0.068	-0.008
-503.697	171.531	0.371	-0.532
-502.683	76.609	-0.288	-0.305
-501.668	800.000	-0.028	-0.121
-500.653	169.448	-0.176	-0.252
-499.639	123.582	0.122	-0.153
-498.624	-200.000	0.045	0.233
-497.610	-90.599	-0.054	0.016
-496.595	-4.908	-0.139	0.096
-495.581	316.805	-0.042	-0.079
-494.566	-200.000	0.042	-0.271
-493.551	8.303	-0.272	-0.204
-492.537	458.122	-0.171	-0.379
-491.522	-121.539	-0.487	-0.081
-490.508	10.416	0.038	0.029
-489.493	-154.186	-0.312	-0.021
-488.478	155.641	0.237	0.326
-487.464	491.972	0.065	0.150
-486.449	-111.159	-0.147	-0.030
-485.435	-200.000	0.021	-0.185
-484.420	65.585	0.222	-0.225
-483.405	365.958	0.069	0.139
-482.391	-200.000	0.053	0.252
-481.376	235.269	0.094	-0.156
-480.362	262.964	-0.136	0.236
-479.347	800.000	0.070	-0.266
-478.332	-121.428	-0.483	0.080
-477.318	1.453	0.133	0.096
-476.303	-15.386	-0.174	-0.111
-475.289	-200.000	-0.074	-0.529
-474.274	-82.464	0.369	0.120
-473.259	327.757	0.151	-0.288
-472.245	399.948	-0.084	0.175
-471.230	-27.786	-0.119	0.069
-470.216	-115.945	0.223	0.041
-469.201	221.231	0.130	0.209
-468.186	-63.717	0.212	0.087
-467.172	-9.453	-0.170	-0.113
-466.157	-8.118	0.047	-0.032
-465.143	-200.000	0.041	0.230
-464.128	-124.285	-0.036	-0.006
-463.113	33.434	0.126	-0.109
-462.099	364.291	-0.094	-0.190
-461.084	139.731	-0.216	0.284
-460.070	800.000	-0.235	-0.720
-459.055	-101.630	0.305	0.074
-458.040	103.586	-0.157	0.184
-457.026	142.386	-0.174	-0.230
-456.011	-104.734	0.238	0.055
-454.997	-70.479	-0.260	-0.098
-453.982	25.830	0.198	0.165
-452.968	70.801	0.072	-0.075
-451.953	800.000	0.037	0.115
-450.938	-106.531	-0.326	0.073
-449.924	-200.000	-0.010	0.234
-448.909	-200.000	-0.081	-0.368
-447.895	292.918	-0.084	-0.152
-446.880	800.000	-0.033	-0.114
-445.865	222.046	-0.040	-0.065
-444.851	185.135	0.116	-0.172
-443.836	-179.128	0.228	0.005
-442.822	-20.037	-0.105	0.064
-441.807	800.000	0.105	-0.398
-440.792	-132.630	-0.173	-0.022
-439.778	800.000	0.114	0.329
-438.763	104.629	0.005	0.006
-437.749	-36.795	0.150	0.080
-436.734	-200.000	-0.022	0.149
-435.719	-114.498	0.197	-0.038
-434.705	196.379	-0.092	0.139
-433.690	-145.458	0.145	-0.013
-432.676	-200.000	0.053	0.378
-431.661	-200.000	0.009	-0.064
-430.646	-51.103	0.113	-0.053
-429.632	-200.000	0.006	-0.062
-428.617	300.863	0.158	-0.291
-427.603	-200.000	-0.023	0.217
-426.588	-200.000	-0.056	0.247
-425.573	449.786	-0.040	-0.089
-424.559	-65.853	0.331	0.132
-423.544	106.079	-0.289	-0.341
-422.530	382.921	0.196	-0.403
-421.515	800.000	-0.095	-0.332
-420.500	-200.000	0.000	-0.139
-419.486	46.615	0.098	-0.091
-418.471	800.000	0.085	-0.365
-417.457	-200.000	-0.027	-0.183
-416.442	-73.233	0.343	-0.125
-415.428	116.197	-0.267	0.326
-414.413	134.749	0.187	0.242
-413.398	-46.013	-0.197	-0.097
-412.384	258.529	0.088	-0.151
-411.369	-200.000	-0.035	0.249
-410.355	30.628	0.107	0.091
-409.340	-62.693	-0.123	-0.051
-408.325	309.754	-0.119	0.222
-407.311	41.751	0.299	-0.270
-406.296	17.050	0.060	-0.047
-405.282	-200.000	0.012	-0.051
-404.267	202.419	-0.283	-0.435
-403.252	56.880	0.100	0.097
-402.238	-102.228	-0.181	-0.043
-401.223	-200.000	-0.003	-0.210
-400.209	-121.807	-0.286	-0.047
-399.194	-200.000	0.013	0.101
-398.179	-37.286	0.098	0.052
-397.165	800.000	-0.080	0.248
-396.150	449.165	-0.149	0.326
-395.136	23.338	-0.258	0.211
-394.121	11.514	-0.214	0.163
-393.106	800.000	0.104	0.368
-392.092	155.830	-0.123	0.169
-391.077	17.353	-0.092	0.072
-390.063	-135.705	-0.239	-0.028
-389.048	-132.020	-0.368	0.048
-388.033	-51.879	0.142	-0.066
-387.019	-200.000	0.021	-0.121
-386.004	800.000	-0.090	0.326
-384.990	263.860	0.168	0.290
-383.975	-142.793	-0.218	-0.021
-382.960	146.353	0.151	-0.202
-381.946	244.397	-0.070	0.117
-380.931	-62.892	-0.257	-0.106
-379.917	-114.961	0.369	-0.070
-378.902	-34.513	-0.227	0.124
-377.888	-200.000	0.002	-0.040
-376.873	-104.951	-0.254	0.058
-375.858	52.110	0.270	0.256
-374.844	359.367	0.044	0.087
-373.829	36.930	-0.209	0.184
-372.815	-99.828	-0.187	0.047
-371.800	-106.121	0.373	-0.083
-370.785	800.000	0.071	0.281
-369.771	452.526	-0.160	-0.351
-368.756	80.545	0.099	-0.106
-367.742	595.823	0.107	0.265
-366.727	170.190	-0.114	0.163
-365.712	5.597	-0.249	0.183
-364.698	-104.680	-0.122	-0.028
-363.683	15.210	0.136	0.106
-362.669	5.016	0.205	-0.150
-361.654	61.582	0.340	0.337
-360.639	-70.324	-0.587	-0.222
-359.625	800.000	-0.092	-0.284
-358.610	157.001	-0.276	-0.379
-357.596	-200.000	0.049	0.246
-356.581	57.751	-0.105	0.102
-355.566	237.657	-0.017	0.028
-354.552	-49.290	0.301	0.143
-353.537	800.000	0.030	-0.119
-352.523	177.697	-0.017	-0.025
-351.508	436.312	0.136	0.295
-350.493	-152.941	0.205	-0.014
-349.479	-200.000	0.012	0.053
-348.464	26.888	-0.313	0.260
-347.450	177.378	0.045	0.065
-346.435	-168.222	-0.223	-0.009
-345.420	-200.000	-0.025	-0.152
-344.406	-83.947	-0.106	0.034
-343.391	-126.171	-0.035	-0.005
-342.377	-200.000	-0.045	0.243
-341.362	-7.195	0.035	0.023
-340.348	800.000	0.015	0.045
-339.333	-78.931	0.209	-0.071
-338.318	208.300	0.074	-0.115
-337.304	4.135	0.393	0.286
-336.289	271.422	-0.084	0.147
-335.275	150.791	-0.026	0.035
-334.260	733.489	0.094	-0.249
-333.245	36.057	-0.166	0.145
-332.231	-200.000	-0.018	-0.151
-331.216	-36.127	-0.144	-0.077
-330.202	186.415	0.024	0.036
-329.187	-88.043	0.023	-0.007
-328.172	123.592	-0.058	0.073
-327.158	-132.678	-0.043	-0.006
-326.143	-200.000	-0.010	-0.114
-325.129	-31.130	-0.334	-0.187
-324.114	-200.000	0.016	-0.372
-323.099	105.981	-0.048	-0.056
-322.085	14.544	-0.141	0.109
-321.070	144.214	-0.174	0.231
-320.056	406.100	-0.057	-0.118
-319.041	20.793	0.086	-0.069
-318.026	139.726	0.147	-0.193
-317.012	-70.446	0.133	-0.050
-315.997	-91.441	0.242	-0.069
-314.983	-43.296	0.153	-0.077
-313.968	446.918	0.078	0.170
-312.953	3.470	0.251	-0.182
-311.939	127.107	0.124	0.156
-310.924	800.000	0.022	-0.073
-309.910	-200.000	0.029	0.239
-308.895	-20.402	-0.083	0.051
-307.880	-200.000	0.005	0.102
-306.866	-46.496	0.236	0.115
-305.851	-125.601	-0.249	0.037
-304.837	800.000	0.046	0.169
-303.822	188.445	-0.189	-0.281
-302.807	-200.000	0.005	-0.114
-301.793	9.157	0.214	-0.161
-300.778	-165.026	-0.122	-0.005
-299.764	-99.773	-0.204	-0.051
-298.749	2.199	0.128	0.092
-297.735	-136.726	-0.169	0.019
-296.720	-91.877	-0.174	-0.049
-295.705	118.884	0.128	-0.157
-294.691	125.985	0.263	0.330
-293.676	61.709	-0.088	0.086
-292.662	-200.000	0.031	0.274
-291.647	94.870	0.136	-0.153
-290.632	-53.942	0.078	0.035
-289.618	628.456	-0.035	0.089
-288.603	-82.881	-0.128	-0.041
-287.589	336.673	0.141	-0.271
-286.574	-175.435	0.372	0.010
-285.559	-133.302	0.112	0.014
-284.545	-58.500	-0.216	0.093
-283.530	-95.511	0.275	-0.073
-282.516	-15.707	-0.203	-0.128
-281.501	800.000	-0.070	0.225
-280.486	453.575	0.183	0.402
-279.472	-84.240	0.334	-0.105
-278.457	128.468	0.031	-0.039
-277.443	-59.006	0.323	-0.138
-276.428	171.536	-0.050	-0.071
-275.413	353.716	-0.056	0.110
-274.399	-89.356	-0.137	0.040
-273.384	-9.887	0.139	0.091
-272.370	645.627	-0.125	0.315
-271.355	-74.218	0.066	0.024
-270.340	-108.512	-0.074	0.016
-269.326	210.579	-0.104	0.163
-268.311	-170.015	0.096	0.003
-267.297	-190.960	-0.018	0.000
-266.282	-200.000	0.002	-0.187
-265.267	75.752	-0.092	-0.096
-264.253	-88.509	0.102	-0.030
-263.238	-18.643	-0.173	0.107
-262.224	-93.389	0.316	0.087
-261.209	98.986	-0.060	0.069
-260.195	-74.317	-0.190	-0.068
-259.180	-200.000	0.001	0.128
-258.165	354.108	0.124	0.245
-257.151	113.959	0.085	0.102
-256.136	-89.220	-0.292	0.085
-255.122	-12.138	0.121	-0.079
-254.107	-200.000	0.044	-0.280
-253.092	-122.918	-0.175	-0.028
-252.078	-64.503	-0.081	0.033
-251.063	-27.941	0.134	-0.077
-250.049	421.735	0.021	0.044
-249.034	-7.920	-0.181	-0.121
-248.019	161.478	0.022	0.030
-247.005	239.844	-0.098	-0.161
-245.990	23.447	0.171	-0.140
-244.976	-112.072	-0.340	-0.068
-243.961	-0.571	0.174	-0.122
-242.946	-166.960	0.497	-0.020
-241.932	-200.000	0.053	-0.268
-240.917	-77.156	0.246	-0.085
-239.903	-10.817	-0.106	-0.069
-238.888	30.784	-0.333	0.282
-237.873	-27.377	0.050	-0.029
-236.859	30.938	0.052	0.044
-235.844	-45.858	-0.268	0.131
-234.830	212.939	-0.203	0.317
-233.815	-200.000	0.036	-0.217
-232.800	-115.957	-0.148	-0.027
-231.786	-110.418	-0.256	0.053
-230.771	112.314	0.260	-0.311
-229.757	-197.728	-0.216	0.001
-228.742	-52.125	-0.200	-0.092
-227.727	-200.000	0.046	0.234
-226.713	-93.815	-0.170	0.046
-225.698	-47.802	0.120	0.058
-224.684	-200.000	-0.014	0.295
-223.669	12.569	0.115	-0.088
-222.655	112.908	0.109	0.131
-221.640	-154.292	-0.288	-0.019
-220.625	-69.744	0.246	0.093
-219.611	-200.000	0.018	-0.190
-218.596	-200.000	0.003	0.043
-217.582	-200.000	0.004	0.490
-216.567	-70.934	-0.230	-0.086
-215.552	-42.158	0.153	0.077
-214.538	331.892	-0.074	-0.140
-213.523	-111.023	-0.089	0.018
-212.509	332.848	-0.063	0.120
-211.494	-200.000	-0.030	-0.224
-210.479	419.988	-0.101	-0.213
-209.465	107.613	-0.131	-0.155
-208.450	-31.543	-0.552	0.306
-207.436	68.991	-0.076	0.077
-206.421	-28.771	0.162	-0.092
-205.406	381.701	0.095	-0.193
-204.392	-82.659	0.232	0.074
-203.377	592.235	-0.030	0.072
-202.363	16.182	0.058	0.045
-201.348	-152.861	0.092	-0.006
-200.333	-200.000	-0.043	-0.193
-199.319	800.000	0.013	0.053
-198.304	-110.007	-0.558	-0.115
-197.290	58.860	0.293	-0.284
-196.275	-70.363	0.250	0.094
-195.260	42.572	-0.259	0.233
-194.246	-53.757	0.209	0.094
-193.231	53.259	-0.117	0.110
-192.217	800.000	-0.033	0.121
-191.202	128.894	-0.129	-0.163
-190.187	22.356	0.127	-0.102
-189.173	-112.392	0.077	0.015
-188.158	-200.000	-0.026	0.193
-187.144	103.165	0.109	-0.127
-186.129	159.332	0.194	-0.267
-185.114	681.453	0.103	0.264
-184.100	-118.201	-0.269	0.047
-183.085	-84.738	0.024	0.007
-182.071	287.346	0.036	-0.065
-181.056	-126.489	0.052	-0.008
-180.042	-143.354	0.128	-0.012
-179.027	800.000	-0.029	0.107
-178.012	70.871	0.106	0.109
-176.998	800.000	0.030	0.087
-175.983	-200.000	-0.034	0.171
-174.969	-44.273	-0.219	0.108
-173.954	-4.273	-0.162	-0.110
-172.939	-200.000	-0.033	-0.176
-171.925	800.000	-0.004	-0.015
-170.910	-165.205	0.083	-0.004
-169.896	18.215	0.159	0.125
-168.881	-59.570	0.457	-0.193
-167.866	-81.770	-0.250	0.081
-166.852	800.000	0.076	0.293
-165.837	-147.407	0.358	-0.030
-164.823	-121.520	0.389	0.064
-163.808	56.164	0.092	0.088
-162.793	-25.157	0.211	-0.123
-161.779	-91.164	-0.325	0.092
-160.764	70.748	0.113	-0.115
-159.750	-13.868	-0.207	0.132
-158.735	-200.000	0.019	-0.161
-157.720	-168.107	0.361	0.014
-156.706	-200.000	-0.015	0.221
-155.691	-102.148	0.256	0.061
-154.677	298.462	-0.097	0.177
-153.662	-200.000	0.002	-0.253
-152.647	-63.741	0.227	0.092
-151.633	-26.313	0.190	0.110
-150.618	-200.000	0.006	0.102
-149.604	800.000	-0.063	0.179
-148.589	-200.000	-0.057	0.370
-147.574	-200.000	0.001	-0.159
-146.560	215.448	-0.133	-0.208
-145.545	-200.000	0.007	0.195
-144.531	800.000	0.052	0.218
-143.516	-200.000	0.025	-0.124
-142.502	-106.283	-0.046	0.010
-141.487	346.383	-0.115	0.223
-140.472	-81.069	0.193	0.063
-139.458	794.212	-0.075	0.204
-138.443	-77.214	0.265	-0.091
-137.429	471.355	-0.116	0.257
-136.414	222.094	0.107	-0.169
-135.399	-200.000	0.021	0.203
-134.385	-52.528	-0.089	-0.041
-133.370	-164.566	0.384	-0.017
-132.356	-200.000	0.044	0.256
-131.341	-53.253	-0.087	0.039
-130.326	-27.948	-0.295	0.168
-129.312	-150.283	-0.326	0.025
-128.297	-117.461	0.121	0.021
-127.283	55.707	-0.077	0.074
-126.268	800.000	0.052	-0.148
-125.253	800.000	-0.032	-0.104
-124.239	-200.000	0.026	-0.201
-123.224	-30.197	-0.243	0.136
-122.210	631.707	0.092	-0.229
