DTS Sentinel unit serial number:	SN413079Multiplexer serial number:	ORYXHardware model number:	OX4-SRSoftware version number:	ORYX F/W v4.00 Oryx Data Collector v3.7.2.0data status	okinstallation	princeton_trtdifferential loss correction	single-endedforward channel	channel 1reverse channel	N/Adate	2019/09/15time	18:06:35forward acquisition time	60.00reverse acquisition time	0.00gamma	496.2192k internal	0.2290k external	0.2290temperature offset calibration	0.9936default loss term (dB/km)	0.3790temperature slope calibration	1.0000multiplexer offset coefficient	1.0000multiplexer slope coefficient	1.0000fibre end	0.00T internal ref (°C)	44.66T ext. ref 1 (°C)	6.52T ext. ref 2 (°C)	39.06length (m)	temperature (°C)	Stokes	anti-Stokes-747.200	256.099	0.013	0.024
-746.185	39.558	0.041	0.038
-745.171	37.063	0.239	-0.217
-744.156	261.442	-0.019	-0.033
-743.142	-8.005	0.244	0.168
-742.127	-63.281	-0.196	0.083
-741.112	-127.119	0.160	-0.024
-740.098	800.000	-0.125	0.543
-739.083	-150.312	-0.274	-0.022
-738.069	-7.834	0.024	0.017
-737.054	-192.518	0.179	0.002
-736.039	-3.795	-0.046	-0.033
-735.025	675.926	-0.115	0.305
-734.010	95.997	0.119	-0.139
-732.996	-25.659	0.101	0.061
-731.981	293.392	0.116	-0.217
-730.966	154.274	-0.210	-0.296
-729.952	-130.235	-0.212	0.030
-728.937	139.895	-0.141	-0.191
-727.923	-131.588	0.123	-0.017
-726.908	-56.810	0.249	-0.113
-725.894	-102.468	0.071	-0.017
-724.879	-23.807	0.142	0.087
-723.864	800.000	-0.093	0.397
-722.850	-200.000	0.005	0.116
-721.835	-78.202	0.157	-0.055
-720.821	-200.000	-0.025	0.194
-719.806	64.218	-0.235	-0.242
-718.791	13.235	-0.171	0.135
-717.777	-200.000	0.001	0.088
-716.762	-200.000	-0.026	-0.287
-715.748	-200.000	-0.013	0.098
-714.733	-52.403	-0.109	0.051
-713.718	559.114	-0.130	-0.320
-712.704	-200.000	-0.048	-0.347
-711.689	-200.000	0.051	0.398
-710.675	800.000	0.080	-0.237
-709.660	-43.419	0.235	0.122
-708.645	800.000	-0.096	0.305
-707.631	-200.000	0.039	0.194
-706.616	-200.000	0.057	-0.335
-705.602	800.000	0.037	0.122
-704.587	-174.905	0.272	-0.008
-703.572	-200.000	0.000	0.109
-702.558	95.072	0.264	0.307
-701.543	117.806	0.084	-0.106
-700.529	-74.650	0.102	0.038
-699.514	800.000	-0.064	-0.231
-698.499	83.241	-0.156	0.173
-697.485	-110.892	-0.113	-0.024
-696.470	-56.180	-0.189	-0.086
-695.456	759.510	0.050	0.139
-694.441	-134.327	0.196	0.025
-693.426	800.000	-0.092	-0.288
-692.412	242.598	-0.204	-0.350
-691.397	29.243	-0.213	0.184
-690.383	-58.714	0.287	-0.127
-689.368	-200.000	0.018	-0.362
-688.354	-200.000	-0.011	-0.420
-687.339	-80.424	0.010	-0.003
-686.324	513.565	-0.046	-0.111
-685.310	-139.180	-0.392	-0.043
-684.295	93.061	-0.313	-0.362
-683.281	-160.742	-0.167	-0.009
-682.266	172.563	-0.150	-0.221
-681.251	-200.000	0.023	0.206
-680.237	5.515	0.087	-0.066
-679.222	143.269	0.167	-0.227
-678.208	-156.190	0.117	0.008
-677.193	-166.823	0.229	-0.010
-676.178	367.450	0.113	0.234
-675.164	-200.000	0.080	-0.530
-674.149	-126.713	0.091	-0.014
-673.135	-162.014	-0.387	0.020
-672.120	-200.000	-0.016	0.084
-671.105	297.924	0.246	0.461
-670.091	-23.150	-0.423	0.260
-669.076	15.936	0.055	0.044
-668.062	800.000	0.107	0.308
-667.047	-200.000	-0.049	-0.391
-666.032	48.228	-0.237	0.227
-665.018	145.509	-0.049	-0.067
-664.003	365.556	0.078	0.161
-662.989	-130.869	-0.337	-0.046
-661.974	-22.010	-0.235	-0.146
-660.959	275.329	-0.080	0.145
-659.945	-200.000	0.006	0.291
-658.930	-200.000	0.037	-0.349
-657.916	6.864	-0.287	-0.218
-656.901	158.302	0.234	-0.332
-655.886	-100.564	0.127	-0.032
-654.872	-19.390	-0.123	0.078
-653.857	612.949	0.101	-0.257
-652.843	107.944	0.221	-0.269
-651.828	-200.000	-0.018	-0.328
-650.814	3.124	0.212	-0.157
-649.799	-124.979	-0.164	0.026
-648.784	316.517	0.183	0.353
-647.770	353.667	0.098	-0.199
-646.755	-72.557	-0.168	-0.063
-645.741	-39.972	-0.375	0.200
-644.726	-200.000	0.021	-0.312
-643.711	736.741	0.092	-0.251
-642.697	149.064	0.145	-0.200
-641.682	800.000	-0.047	-0.145
-640.668	-22.747	0.227	0.140
-639.653	382.517	-0.116	0.243
-638.638	631.476	-0.039	0.101
-637.624	439.799	0.064	0.144
-636.609	-71.030	-0.092	0.035
-635.595	24.475	-0.243	0.205
-634.580	131.316	0.116	-0.152
-633.565	-82.546	0.091	-0.030
-632.551	505.964	-0.156	0.370
-631.536	-56.792	0.173	-0.078
-630.522	234.440	-0.120	0.202
-629.507	-200.000	0.028	-0.524
-628.492	-156.179	-0.208	-0.013
-627.478	-200.000	0.022	-0.451
-626.463	-110.733	-0.062	-0.013
-625.449	148.341	0.104	0.144
-624.434	-110.730	-0.331	-0.070
-623.419	800.000	-0.044	-0.145
-622.405	-200.000	0.053	-0.281
-621.390	800.000	-0.026	0.108
-620.376	-158.917	-0.122	-0.007
-619.361	-67.036	0.292	-0.118
-618.346	650.698	-0.106	0.276
-617.332	270.060	-0.089	-0.160
-616.317	652.205	-0.100	-0.261
-615.303	74.579	-0.076	0.081
-614.288	-200.000	-0.081	-0.413
-613.273	96.137	0.085	0.099
-612.259	246.923	-0.109	-0.187
-611.244	240.103	0.233	-0.396
-610.230	662.366	-0.115	0.302
-609.215	144.100	-0.286	-0.388
-608.201	-77.620	-0.158	0.056
-607.186	-15.399	-0.092	0.060
-606.171	-200.000	0.029	-0.417
-605.157	-8.407	-0.140	0.096
-604.142	7.330	0.271	-0.206
-603.128	28.584	-0.182	0.157
-602.113	-168.459	-0.049	-0.002
-601.098	-43.173	-0.108	0.056
-600.084	-53.045	-0.158	-0.074
-599.069	-136.433	-0.255	-0.030
-598.055	45.092	-0.073	-0.069
-597.040	40.606	0.272	0.250
-596.025	-87.599	-0.165	0.051
-595.011	-46.328	-0.170	0.085
-593.996	-26.550	-0.182	-0.109
-592.982	179.040	-0.112	0.166
-591.967	-130.202	0.208	-0.029
-590.952	100.926	-0.066	-0.078
-589.938	121.409	-0.098	-0.124
-588.923	135.793	0.157	0.208
-587.909	24.935	0.162	0.136
-586.894	94.606	0.102	-0.118
-585.879	-24.175	0.119	-0.072
-584.865	-165.168	0.087	-0.004
-583.850	-55.348	-0.158	0.072
-582.836	477.433	0.033	-0.077
-581.821	-53.819	0.310	0.144
-580.806	-24.167	0.255	-0.155
-579.792	-32.409	-0.193	0.110
-578.777	670.292	0.060	0.158
-577.763	213.150	0.034	0.054
-576.748	-93.951	0.010	0.003
-575.733	-200.000	0.049	-0.303
-574.719	-8.592	-0.289	-0.197
-573.704	-200.000	-0.030	0.312
-572.690	-95.377	-0.497	0.136
-571.675	800.000	-0.031	0.095
-570.661	-141.930	-0.276	0.028
-569.646	-76.814	0.178	-0.063
-568.631	-155.244	-0.080	0.005
-567.617	-87.707	0.263	-0.081
-566.602	369.684	-0.077	-0.158
-565.588	40.631	0.044	0.040
-564.573	-200.000	0.008	-0.118
-563.558	-126.008	0.183	-0.028
-562.544	528.787	0.051	0.121
-561.529	356.559	-0.042	-0.085
-560.515	145.629	-0.046	-0.063
-559.500	57.812	-0.331	-0.329
-558.485	-140.579	-0.175	-0.018
-557.471	-119.760	0.357	0.063
-556.456	74.970	-0.223	-0.239
-555.442	274.796	0.060	0.108
-554.427	-200.000	0.022	0.111
-553.412	-34.607	-0.229	0.128
-552.398	-0.175	0.048	-0.035
-551.383	-116.533	0.070	-0.013
-550.369	-64.660	0.258	0.106
-549.354	-200.000	-0.001	0.189
-548.339	248.598	-0.106	0.182
-547.325	-56.448	0.058	0.026
-546.310	-63.906	0.116	-0.048
-545.296	-111.010	0.178	-0.037
-544.281	45.951	0.174	0.163
-543.266	-200.000	-0.018	0.345
-542.252	278.133	-0.103	-0.186
-541.237	37.837	-0.253	-0.228
-540.223	26.301	0.077	0.066
-539.208	-170.238	0.372	-0.013
-538.193	-85.808	-0.467	-0.147
-537.179	180.382	-0.158	-0.235
-536.164	292.114	-0.092	0.171
-535.150	168.048	0.101	-0.146
-534.135	800.000	-0.046	-0.204
-533.121	-51.860	0.052	-0.025
-532.106	-75.580	-0.215	0.078
-531.091	151.081	0.036	-0.049
-530.077	-188.173	-0.338	-0.004
-529.062	-115.436	-0.177	0.034
-528.048	-200.000	-0.060	0.271
-527.033	252.913	0.180	0.312
-526.018	-200.000	0.034	0.275
-525.004	117.298	0.151	-0.189
-523.989	-72.469	-0.133	0.050
-522.975	-23.873	0.093	-0.056
-521.960	-200.000	0.011	-0.285
-520.945	-85.065	0.254	-0.081
-519.931	36.473	0.327	-0.293
-518.916	-159.435	-0.338	-0.019
-517.902	-69.815	-0.151	-0.059
-516.887	-62.829	-0.087	0.037
-515.872	112.680	-0.138	0.169
-514.858	256.429	0.046	0.081
-513.843	-165.430	0.379	-0.017
-512.829	-200.000	-0.006	-0.205
-511.814	122.798	-0.077	-0.098
-510.799	-135.122	0.150	0.018
-509.785	800.000	0.062	-0.201
-508.770	278.444	0.097	-0.175
-507.756	-200.000	-0.034	-0.175
-506.741	47.543	-0.358	-0.339
-505.726	420.745	0.047	-0.102
-504.712	-200.000	-0.005	0.027
-503.697	-196.802	0.233	0.002
-502.683	105.263	-0.074	0.089
-501.668	97.505	-0.061	-0.071
-500.653	-133.479	-0.184	-0.023
-499.639	-167.364	-0.151	-0.006
-498.624	21.349	0.099	0.082
-497.610	-24.192	0.245	-0.148
-496.595	609.205	-0.070	-0.176
-495.581	94.299	0.131	-0.151
-494.566	52.143	0.072	-0.069
-493.551	65.190	-0.104	0.106
-492.537	9.907	-0.098	-0.076
-491.522	726.917	-0.096	0.261
-490.508	800.000	0.086	-0.327
-489.493	-100.416	-0.390	0.098
-488.478	-59.273	0.060	0.026
-487.464	39.393	0.291	0.264
-486.449	18.722	-0.139	0.113
-485.435	-200.000	0.053	-0.603
-484.420	563.015	-0.051	0.125
-483.405	-200.000	-0.008	0.224
-482.391	-200.000	-0.003	0.248
-481.376	-200.000	-0.008	0.129
-480.362	-200.000	-0.061	-0.410
-479.347	541.052	0.187	0.452
-478.332	41.630	-0.178	0.163
-477.318	-200.000	-0.033	-0.228
-476.303	800.000	0.083	-0.274
-475.289	-132.394	-0.314	0.041
-474.274	138.993	-0.094	0.125
-473.259	239.904	0.179	-0.301
-472.245	-70.168	0.165	-0.063
-471.230	145.779	0.110	-0.150
-470.216	-121.943	0.268	0.045
-469.201	619.454	-0.092	0.235
-468.186	-200.000	0.033	0.199
-467.172	-42.412	0.175	0.091
-466.157	23.866	-0.100	0.083
-465.143	111.176	0.057	0.069
-464.128	-128.623	-0.061	0.009
-463.113	-6.673	0.100	0.069
-462.099	254.292	-0.090	0.156
-461.084	615.449	0.053	-0.134
-460.070	-200.000	0.051	-0.306
-459.055	-82.115	0.340	-0.112
-458.040	-200.000	0.004	0.183
-457.026	800.000	-0.081	0.254
-456.011	478.986	-0.131	0.301
-454.997	-94.735	0.205	-0.056
-453.982	319.383	-0.107	0.205
-452.968	126.507	-0.223	-0.285
-451.953	-119.636	0.420	-0.073
-450.938	50.159	-0.038	0.037
-449.924	-127.529	0.077	-0.011
-448.909	-56.014	0.258	0.117
-447.895	316.684	0.063	-0.120
-446.880	81.633	-0.130	-0.143
-445.865	213.395	-0.187	0.299
-444.851	38.817	-0.202	0.182
-443.836	-200.000	-0.041	-0.297
-442.822	800.000	0.076	-0.263
-441.807	-200.000	0.011	-0.149
-440.792	-188.570	-0.266	-0.003
-439.778	-60.781	0.186	0.080
-438.763	163.362	-0.048	-0.068
-437.749	-200.000	0.004	0.177
-436.734	800.000	-0.061	0.227
-435.719	153.628	0.130	0.180
-434.705	-59.336	-0.295	0.129
-433.690	-83.326	0.347	-0.113
-432.676	-51.809	-0.115	0.054
-431.661	-200.000	0.046	-0.222
-430.646	-200.000	0.007	0.035
-429.632	353.446	-0.064	-0.128
-428.617	141.848	0.174	0.234
-427.603	-69.381	0.193	-0.075
-426.588	-127.266	-0.173	0.026
-425.573	-200.000	-0.058	-0.309
-424.559	-22.161	-0.397	0.244
-423.544	559.550	0.114	-0.279
-422.530	105.506	0.261	0.312
-421.515	-200.000	0.011	-0.091
-420.500	-200.000	-0.020	0.170
-419.486	425.438	-0.021	-0.046
-418.471	-200.000	0.016	0.198
-417.457	-200.000	0.038	-0.230
-416.442	-74.250	-0.131	-0.048
-415.428	348.714	-0.121	0.241
-414.413	800.000	-0.070	0.234
-413.398	26.595	-0.121	-0.102
-412.384	-42.165	0.328	0.170
-411.369	66.932	0.197	0.202
-410.355	171.761	-0.212	0.307
-409.340	155.696	-0.167	0.232
-408.325	58.506	-0.233	-0.231
-407.311	-91.352	-0.124	-0.036
-406.296	293.650	-0.071	-0.131
-405.282	-63.736	-0.098	0.040
-404.267	33.069	0.139	0.121
-403.252	74.192	-0.141	0.149
-402.238	-200.000	-0.010	0.178
-401.223	800.000	-0.058	0.249
-400.209	42.317	0.134	0.123
-399.194	-140.310	-0.225	0.024
-398.179	-35.090	0.278	-0.153
-397.165	197.133	-0.129	0.199
-396.150	-186.628	0.182	0.003
-395.136	-64.984	0.030	-0.012
-394.121	-44.933	-0.163	0.082
-393.106	409.803	-0.058	0.124
-392.092	-165.347	0.213	-0.009
-391.077	-174.254	-0.080	-0.002
-390.063	-96.805	-0.161	-0.043
-389.048	-180.765	-0.499	0.010
-388.033	-87.041	0.038	0.012
-387.019	666.901	0.103	0.270
-386.004	-46.309	0.154	0.076
-384.990	-23.827	0.152	0.092
-383.975	800.000	-0.040	0.168
-382.960	-200.000	0.032	0.466
-381.946	-200.000	-0.032	-0.254
-380.931	-143.036	0.508	-0.050
-379.917	669.604	0.020	0.051
-378.902	163.048	-0.077	-0.110
-377.888	108.671	-0.108	-0.130
-376.873	146.039	-0.240	-0.325
-375.858	800.000	0.055	-0.164
-374.844	-17.995	0.356	-0.225
-373.829	-200.000	-0.026	0.138
-372.815	800.000	0.147	0.478
-371.800	9.051	0.223	0.170
-370.785	152.245	0.173	-0.239
-369.771	9.588	0.036	-0.028
-368.756	127.933	0.074	-0.095
-367.742	-200.000	0.007	-0.200
-366.727	-104.246	0.338	0.079
-365.712	68.218	-0.109	0.113
-364.698	-111.284	0.073	0.015
-363.683	-200.000	-0.012	0.216
-362.669	313.528	-0.074	0.141
-361.654	-140.024	0.217	0.023
-360.639	-37.223	0.123	0.066
-359.625	-30.276	0.396	0.227
-358.610	-88.003	0.467	0.141
-357.596	-150.147	-0.238	-0.019
-356.581	-200.000	-0.014	-0.227
-355.566	154.736	0.182	0.252
-354.552	175.864	-0.127	0.187
-353.537	646.922	0.088	0.227
-352.523	-127.023	0.232	0.034
-351.508	317.562	0.098	0.187
-350.493	8.711	-0.184	0.140
-349.479	800.000	0.017	0.057
-348.464	-195.077	0.364	-0.003
-347.450	800.000	-0.055	0.171
-346.435	631.921	0.064	0.163
-345.420	20.751	0.037	-0.030
-344.406	-84.863	0.124	-0.039
-343.391	800.000	0.098	0.320
-342.377	-116.131	0.421	-0.079
-341.362	-165.531	-0.228	0.010
-340.348	191.277	-0.122	-0.186
-339.333	-68.335	-0.392	-0.154
-338.318	-16.597	-0.137	-0.087
-337.304	-140.740	0.143	0.015
-336.289	448.058	-0.083	-0.184
-335.275	-119.049	-0.081	-0.014
-334.260	-200.000	0.014	0.283
-333.245	485.873	0.178	-0.409
-332.231	-200.000	0.002	-0.086
-331.216	-155.541	0.015	0.001
-330.202	53.550	-0.397	-0.383
-329.187	800.000	0.059	-0.180
-328.172	-174.458	0.201	0.006
-327.158	15.724	0.087	0.069
-326.143	159.311	-0.125	0.175
-325.129	-62.541	-0.377	-0.158
-324.114	-73.724	-0.254	0.093
-323.099	-200.000	-0.033	-0.175
-322.085	172.479	-0.047	-0.068
-321.070	270.892	-0.160	-0.285
-320.056	800.000	0.012	-0.035
-319.041	800.000	0.037	-0.141
-318.026	800.000	0.036	-0.145
-317.012	-9.759	-0.224	-0.151
-315.997	264.781	-0.111	0.195
-314.983	591.134	-0.036	0.090
-313.968	-107.913	0.293	-0.064
-312.953	-200.000	-0.005	-0.178
-311.939	72.691	-0.044	0.046
-310.924	-97.534	-0.168	0.044
-309.910	122.989	-0.092	0.116
-308.895	-81.424	-0.124	0.041
-307.880	-1.030	0.108	0.077
-306.866	-45.617	0.359	-0.179
-305.851	291.397	-0.130	-0.239
-304.837	800.000	-0.105	-0.360
-303.822	47.718	-0.034	0.032
-302.807	168.890	-0.049	-0.070
-301.793	-36.684	0.157	0.085
-300.778	-104.623	0.314	0.073
-299.764	-116.908	-0.310	0.057
-298.749	800.000	0.030	-0.131
-297.735	-98.910	0.081	-0.021
-296.720	175.531	-0.242	0.353
-295.705	-200.000	0.037	0.167
-294.691	-168.419	-0.167	0.006
-293.676	380.955	0.051	0.106
-292.662	-173.188	0.128	-0.004
-291.647	29.996	0.337	0.289
-290.632	800.000	0.115	0.353
-289.618	-36.641	-0.126	-0.068
-288.603	146.232	-0.137	0.185
-287.589	-128.807	-0.369	-0.052
-286.574	182.083	0.152	0.225
-285.559	-200.000	0.003	-0.049
-284.545	-200.000	0.072	-0.324
-283.530	183.553	-0.075	-0.111
-282.516	-176.221	0.110	0.003
-281.501	-151.180	-0.252	-0.019
-280.486	132.517	-0.122	0.159
-279.472	-65.797	-0.330	-0.133
-278.457	-200.000	-0.004	-0.092
-277.443	-107.166	0.305	-0.068
-276.428	800.000	0.081	-0.287
-275.413	679.792	0.183	0.478
-274.399	234.264	-0.211	0.350
-273.384	61.653	-0.108	-0.108
-272.370	-25.585	0.070	0.042
-271.355	-87.005	0.071	-0.022
-270.340	168.232	0.215	-0.308
-269.326	-162.998	-0.115	-0.006
-268.311	-153.887	-0.455	0.031
-267.297	-28.157	-0.217	-0.126
-266.282	186.149	0.024	0.036
-265.267	291.847	-0.023	-0.042
-264.253	-131.056	-0.304	0.041
-263.238	-58.293	0.242	0.106
-262.224	119.732	0.190	0.236
-261.209	800.000	-0.054	0.201
-260.195	-200.000	-0.009	-0.139
-259.180	-103.514	-0.131	0.031
-258.165	-193.932	0.292	0.002
-257.151	-14.455	0.082	0.053
-256.136	206.447	-0.127	0.199
-255.122	-200.000	0.020	-0.258
-254.107	-200.000	0.019	-0.180
-253.092	800.000	-0.018	-0.064
-252.078	-34.768	0.255	-0.140
-251.063	-121.759	0.064	0.011
-250.049	99.356	-0.116	-0.135
-249.034	531.508	-0.137	0.325
-248.019	5.038	0.218	0.161
-247.005	323.829	0.114	0.218
-245.990	-55.648	-0.091	-0.041
-244.976	-191.801	0.244	0.002
-243.961	496.501	0.090	-0.207
-242.946	-200.000	0.042	0.200
-241.932	-61.870	-0.302	-0.127
-240.917	-199.200	-0.061	0.000
-239.903	-5.084	-0.125	0.087
-238.888	-200.000	-0.008	0.123
-237.873	207.948	0.087	-0.137
-236.859	800.000	-0.071	0.218
-235.844	-200.000	-0.001	-0.074
-234.830	-101.085	0.084	0.021
-233.815	-200.000	-0.003	0.062
-232.800	800.000	-0.033	-0.126
-231.786	-60.579	0.437	-0.186
-230.771	-200.000	0.022	-0.152
-229.757	21.774	0.090	0.074
-228.742	-200.000	0.020	0.093
-227.727	-19.855	0.041	0.026
-226.713	-200.000	0.026	0.118
-225.698	-154.130	0.283	0.019
-224.684	-200.000	-0.116	0.000
-223.669	81.625	0.007	-0.008
-222.655	79.170	0.190	0.204
-221.640	742.673	0.093	0.252
-220.625	160.265	-0.251	0.351
-219.611	800.000	-0.014	-0.040
-218.596	-109.708	-0.295	-0.062
-217.582	800.000	0.070	0.249
-216.567	-200.000	-0.039	0.265
-215.552	-103.551	0.221	0.052
-214.538	-200.000	0.048	-0.224
-213.523	-94.517	-0.094	-0.026
-212.509	-40.276	-0.218	-0.114
-211.494	578.547	-0.088	-0.217
-210.479	-85.630	0.094	0.029
-209.465	126.752	-0.184	-0.233
-208.450	-200.000	0.039	0.217
-207.436	-19.624	-0.262	-0.163
-206.421	-44.317	0.397	0.200
-205.406	45.008	-0.116	0.107
-204.392	681.808	0.090	0.236
-203.377	-37.959	0.111	0.059
-202.363	-32.689	0.256	-0.143
-201.348	-182.319	0.275	0.005
-200.333	48.832	-0.055	0.052
-199.319	-200.000	-0.005	0.134
-198.304	401.110	-0.060	-0.127
-197.290	-21.295	0.319	0.195
-196.275	44.976	0.086	0.080
-195.260	622.963	0.075	-0.189
-194.246	236.630	0.040	-0.066
-193.231	-19.103	0.237	-0.148
-192.217	-182.596	-0.237	0.004
-191.202	54.706	0.075	-0.072
-190.187	800.000	-0.052	-0.206
-189.173	78.136	0.234	-0.250
-188.158	124.212	-0.096	0.120
-187.144	53.690	0.183	-0.176
-186.129	360.204	-0.122	0.245
-185.114	-200.000	0.281	-0.000
-184.100	800.000	-0.043	0.159
-183.085	-200.000	0.013	-0.103
-182.071	-4.217	-0.083	0.057
-181.056	-124.499	0.147	-0.023
-180.042	-165.118	0.126	-0.006
-179.027	-200.000	0.062	0.277
-178.012	-136.571	-0.074	-0.009
-176.998	-30.503	0.261	-0.148
-175.983	-126.280	-0.289	-0.043
-174.969	-27.082	-0.235	0.138
-173.954	-65.911	0.327	-0.131
-172.939	-99.768	-0.314	-0.079
-171.925	-200.000	0.009	-0.112
-170.910	-92.055	0.115	0.032
-169.896	225.104	0.193	-0.312
-168.881	156.694	0.096	0.133
-167.866	-200.000	0.038	-0.265
-166.852	-50.727	0.296	0.140
-165.837	-200.000	-0.042	-0.303
-164.823	-200.000	0.018	-0.222
-163.808	-23.376	-0.387	-0.233
-162.793	-159.697	-0.367	0.020
-161.779	97.172	-0.152	-0.175
-160.764	-57.236	0.053	-0.023
-159.750	26.863	-0.107	-0.090
-158.735	-62.454	0.233	-0.097
-157.720	-200.000	-0.050	-0.263
-156.706	-143.848	-0.560	0.053
-155.691	-200.000	0.004	0.082
-154.677	-91.905	0.177	-0.050
-153.662	-94.208	0.166	-0.046
-152.647	-200.000	0.017	0.245
-151.633	-28.309	-0.102	-0.059
-150.618	78.417	0.119	-0.127
-149.604	-200.000	-0.012	-0.261
-148.589	22.456	-0.122	-0.100
-147.574	-41.921	-0.187	0.096
-146.560	288.103	-0.116	-0.209
-145.545	-72.162	-0.232	0.086
-144.531	-51.764	-0.212	0.099
-143.516	-200.000	0.026	0.158
-142.502	201.931	0.193	0.298
-141.487	318.481	-0.057	-0.108
-140.472	-200.000	0.103	-0.460
-139.458	79.252	0.216	-0.232
-138.443	221.830	0.082	0.132
-137.429	473.835	-0.049	0.111
-136.414	-200.000	-0.029	0.165
-135.399	-200.000	0.021	0.262
-134.385	-200.000	-0.013	0.407
-133.370	800.000	-0.056	0.168
-132.356	-3.959	0.105	-0.073
-131.341	-110.788	-0.328	0.068
-130.326	-109.291	0.168	0.036
-129.312	206.213	-0.028	-0.043
-128.297	27.750	0.205	-0.172
-127.283	-38.546	0.331	0.175
-126.268	-200.000	-0.011	0.069
-125.253	800.000	0.082	0.292
-124.239	100.948	-0.128	0.149
-123.224	235.680	0.186	0.308
-122.210	-200.000	-0.038	-0.382
