DTS Sentinel unit serial number:	SN413079Multiplexer serial number:	ORYXHardware model number:	OX4-SRSoftware version number:	ORYX F/W v4.00 Oryx Data Collector v3.7.2.0data status	okinstallation	princeton_trtdifferential loss correction	single-endedforward channel	channel 1reverse channel	N/Adate	2019/09/17time	20:10:35forward acquisition time	60.00reverse acquisition time	0.00gamma	496.2192k internal	0.2327k external	0.2327temperature offset calibration	0.9979default loss term (dB/km)	0.3790temperature slope calibration	1.0000multiplexer offset coefficient	1.0000multiplexer slope coefficient	1.0000fibre end	0.00T internal ref (°C)	32.28T ext. ref 1 (°C)	0.22T ext. ref 2 (°C)	22.37length (m)	temperature (°C)	Stokes	anti-Stokes-747.200	352.352	0.037	0.074
-746.185	130.658	-0.134	0.173
-745.171	-103.829	0.303	0.071
-744.156	-6.628	-0.157	-0.108
-743.142	51.670	-0.117	-0.112
-742.127	800.000	0.103	0.401
-741.112	57.346	0.072	-0.071
-740.098	-13.331	-0.214	0.140
-739.083	359.907	-0.077	0.156
-738.069	-200.000	0.049	0.463
-737.054	4.989	-0.217	-0.161
-736.039	-168.337	-0.417	0.016
-735.025	800.000	-0.054	-0.179
-734.010	-94.506	-0.489	-0.134
-732.996	-200.000	-0.012	0.087
-731.981	-116.728	-0.183	0.034
-730.966	-41.327	-0.161	-0.084
-729.952	270.163	-0.042	-0.074
-728.937	-200.000	0.018	-0.157
-727.923	-147.543	0.145	0.012
-726.908	196.142	-0.146	-0.224
-725.894	-200.000	-0.003	0.126
-724.879	-141.714	-0.045	0.005
-723.864	-200.000	-0.180	0.000
-722.850	224.182	-0.025	-0.041
-721.835	19.820	-0.224	0.181
-720.821	-118.700	0.305	-0.054
-719.806	-7.652	0.131	-0.089
-718.791	-85.076	-0.210	0.066
-717.777	-200.000	0.021	0.117
-716.762	-200.000	-0.064	-0.393
-715.748	-32.526	0.168	0.094
-714.733	-200.000	-0.001	-0.103
-713.718	-93.110	0.214	-0.060
-712.704	138.862	0.077	0.103
-711.689	800.000	0.092	0.287
-710.675	66.064	-0.142	0.145
-709.660	40.402	0.275	-0.250
-708.645	117.258	0.196	-0.242
-707.631	-116.227	-0.130	0.024
-706.616	-49.731	0.199	-0.095
-705.602	-37.699	-0.315	-0.169
-704.587	8.300	0.227	0.172
-703.572	-85.282	-0.115	-0.036
-702.558	800.000	0.060	0.195
-701.543	-35.243	0.159	-0.087
-700.529	-200.000	0.027	0.144
-699.514	-24.677	-0.210	-0.126
-698.499	800.000	0.145	-0.436
-697.485	-88.838	0.165	-0.049
-696.470	479.788	-0.217	-0.496
-695.456	180.597	-0.153	-0.227
-694.441	227.027	0.070	0.115
-693.426	-149.613	-0.387	-0.031
-692.412	800.000	-0.093	-0.388
-691.397	-200.000	0.026	0.311
-690.383	-63.274	0.197	-0.082
-689.368	7.739	0.250	-0.188
-688.354	-136.969	0.095	0.011
-687.339	-131.981	-0.185	0.024
-686.324	-200.000	0.021	0.373
-685.310	63.882	0.192	0.194
-684.295	800.000	-0.056	-0.204
-683.281	74.943	0.143	0.152
-682.266	-200.000	-0.010	-0.072
-681.251	316.227	-0.027	0.051
-680.237	-143.247	-0.305	0.029
-679.222	-143.215	-0.160	0.015
-678.208	152.287	0.101	0.139
-677.193	70.899	-0.236	-0.246
-676.178	266.259	0.249	-0.437
-675.164	-139.481	-0.155	-0.017
-674.149	800.000	0.031	-0.105
-673.135	-200.000	0.049	-0.406
-672.120	11.268	-0.222	0.171
-671.105	61.695	0.233	0.233
-670.091	800.000	-0.004	-0.014
-669.076	-127.860	0.135	0.020
-668.062	16.036	0.039	0.031
-667.047	-200.000	-0.021	0.206
-666.032	-36.775	0.602	-0.325
-665.018	-12.933	-0.127	-0.083
-664.003	299.107	-0.095	-0.175
-662.989	-41.006	0.427	-0.222
-661.974	-29.967	-0.413	0.237
-660.959	-90.514	-0.023	-0.007
-659.945	-17.584	0.421	0.266
-658.930	-122.911	0.087	-0.014
-657.916	249.742	0.110	0.188
-656.901	-44.131	-0.048	0.024
-655.886	-200.000	-0.052	0.289
-654.872	401.837	-0.028	-0.059
-653.857	55.550	-0.274	0.266
-652.843	-69.465	-0.280	0.108
-651.828	-178.222	0.228	-0.005
-650.814	-82.569	0.322	-0.105
-649.799	3.989	-0.239	0.175
-648.784	64.966	-0.206	0.209
-647.770	-102.024	0.316	0.077
-646.755	-77.891	-0.302	-0.105
-645.741	-42.750	-0.088	-0.045
-644.726	-200.000	0.035	-0.538
-643.711	622.098	0.143	-0.362
-642.697	501.528	0.118	-0.273
-641.682	103.256	0.060	0.071
-640.668	-200.000	-0.056	-0.372
-639.653	50.289	0.074	-0.070
-638.638	34.097	0.166	0.145
-637.624	800.000	0.019	0.073
-636.609	-200.000	-0.030	-0.315
-635.595	-142.027	-0.174	-0.017
-634.580	158.664	-0.123	0.171
-633.565	100.657	0.164	0.191
-632.551	-200.000	-0.025	0.284
-631.536	-70.067	-0.230	-0.088
-630.522	67.367	0.044	0.045
-629.507	198.268	0.074	-0.113
-628.492	207.584	0.187	0.293
-627.478	138.537	0.087	-0.115
-626.463	-8.780	-0.405	0.273
-625.449	566.916	0.082	0.199
-624.434	67.689	0.271	-0.278
-623.419	17.030	-0.197	-0.156
-622.405	-200.000	-0.029	0.149
-621.390	372.464	-0.084	0.172
-620.376	325.375	-0.026	-0.050
-619.361	-2.822	-0.095	-0.066
-618.346	-180.108	0.063	-0.001
-617.332	168.793	0.045	0.065
-616.317	-43.257	0.012	-0.006
-615.303	-109.361	-0.232	0.049
-614.288	453.772	-0.036	-0.080
-613.273	-84.218	-0.266	-0.085
-612.259	177.182	0.053	0.077
-611.244	-167.813	-0.483	0.019
-610.230	-140.462	0.219	0.023
-609.215	-200.000	-0.018	-0.381
-608.201	-32.094	-0.091	-0.051
-607.186	6.670	-0.231	-0.172
-606.171	800.000	-0.144	-0.413
-605.157	-200.000	0.023	0.157
-604.142	-40.826	-0.124	-0.065
-603.128	-200.000	0.014	0.215
-602.113	-137.997	-0.149	0.017
-601.098	-144.634	-0.250	0.023
-600.084	-166.729	0.229	-0.010
-599.069	800.000	-0.110	0.359
-598.055	-99.564	0.121	0.030
-597.040	-200.000	0.004	-0.128
-596.025	277.334	-0.054	0.096
-595.011	-200.000	-0.045	0.209
-593.996	468.130	0.157	0.352
-592.982	800.000	0.092	0.282
-591.967	-141.893	-0.181	-0.018
-590.952	56.495	0.189	0.184
-589.938	17.367	0.407	-0.324
-588.923	308.284	0.037	-0.070
-587.909	800.000	0.028	-0.094
-586.894	747.709	-0.182	0.492
-585.879	-58.808	0.062	-0.027
-584.865	163.628	0.029	0.040
-583.850	-81.369	-0.097	0.032
-582.836	-135.344	0.242	-0.029
-581.821	800.000	-0.125	-0.350
-580.806	-129.184	0.308	-0.043
-579.792	526.091	-0.052	0.122
-578.777	71.268	0.191	-0.199
-577.763	-2.215	0.137	0.096
-576.748	25.802	0.203	-0.170
-575.733	-138.375	-0.395	-0.044
-574.719	1.038	0.080	-0.058
-573.704	-200.000	-0.016	-0.137
-572.690	-176.349	-0.271	0.007
-571.675	466.545	0.123	-0.277
-570.661	-93.015	-0.072	0.020
-569.646	-200.000	-0.007	-0.151
-568.631	233.171	0.150	0.246
-567.617	550.168	-0.106	0.254
-566.602	50.830	0.275	-0.261
-565.588	214.379	0.142	-0.224
-564.573	-44.998	-0.074	0.037
-563.558	-45.435	-0.042	-0.021
-562.544	-14.865	0.045	-0.029
-561.529	-97.886	-0.214	-0.055
-560.515	-88.079	0.196	-0.059
-559.500	-81.848	-0.398	-0.130
-558.485	-57.957	0.228	0.100
-557.471	-119.769	0.315	0.054
-556.456	166.443	0.044	0.063
-555.442	-132.186	0.335	0.043
-554.427	199.362	-0.261	-0.400
-553.412	353.961	-0.016	-0.031
-552.398	457.634	0.081	-0.179
-551.383	-200.000	0.047	-0.343
-550.369	-13.724	-0.215	-0.139
-549.354	-55.833	0.216	-0.097
-548.339	623.599	0.051	0.128
-547.325	-10.473	-0.030	-0.020
-546.310	-121.970	-0.140	0.023
-545.296	-93.585	0.111	-0.031
-544.281	-200.000	0.026	-0.266
-543.266	212.262	-0.194	-0.305
-542.252	16.001	-0.137	-0.108
-541.237	249.504	0.168	0.284
-540.223	800.000	-0.047	0.139
-539.208	-172.652	-0.217	0.007
-538.193	-200.000	-0.002	0.169
-537.179	-200.000	-0.045	-0.405
-536.164	259.722	0.125	-0.216
-535.150	147.192	0.075	0.101
-534.135	-200.000	0.021	-0.165
-533.121	390.117	0.114	0.237
-532.106	7.681	-0.006	0.005
-531.091	-66.340	0.223	0.089
-530.077	-200.000	0.019	0.327
-529.062	573.422	0.152	0.371
-528.048	-200.000	0.030	-0.169
-527.033	-150.481	-0.184	-0.014
-526.018	-186.379	-0.162	0.002
-525.004	20.070	-0.021	-0.017
-523.989	800.000	0.015	0.059
-522.975	-34.985	0.105	0.057
-521.960	363.216	-0.045	-0.091
-520.945	498.768	-0.122	0.281
-519.931	-150.784	-0.015	0.001
-518.916	192.966	-0.181	-0.274
-517.902	-200.000	-0.027	-0.269
-516.887	156.388	0.150	0.207
-515.872	-200.000	-0.001	0.090
-514.858	-200.000	-0.004	0.023
-513.843	-78.278	-0.143	0.049
-512.829	220.658	0.178	0.286
-511.814	194.278	0.153	0.232
-510.799	138.715	0.145	-0.190
-509.785	-32.353	0.112	-0.062
-508.770	-110.742	0.305	-0.063
-507.756	-130.199	0.170	-0.023
-506.741	212.908	-0.045	-0.071
-505.726	402.633	-0.266	-0.559
-504.712	-200.000	0.004	-0.056
-503.697	800.000	0.095	-0.373
-502.683	487.978	-0.086	-0.197
-501.668	-140.734	-0.185	-0.019
-500.653	14.996	-0.080	0.062
-499.639	-200.000	0.018	0.269
-498.624	49.027	0.152	-0.143
-497.610	124.235	0.104	-0.131
-496.595	173.509	0.131	-0.189
-495.581	-105.436	-0.118	0.027
-494.566	135.759	0.178	0.231
-493.551	-1.424	0.177	-0.125
-492.537	-69.835	-0.183	0.070
-491.522	72.585	0.121	0.126
-490.508	-38.463	0.101	-0.054
-489.493	-122.019	0.094	0.015
-488.478	15.474	-0.292	-0.229
-487.464	-28.082	0.361	0.208
-486.449	-78.220	-0.406	0.139
-485.435	-128.498	-0.480	0.068
-484.420	17.951	0.232	-0.185
-483.405	111.583	-0.129	-0.155
-482.391	-200.000	-0.055	0.262
-481.376	-21.006	0.406	-0.248
-480.362	12.314	0.353	-0.271
-479.347	-35.677	-0.242	0.131
-478.332	-135.179	0.219	-0.026
-477.318	-200.000	-0.055	-0.392
-476.303	159.137	0.352	0.488
-475.289	800.000	-0.086	-0.293
-474.274	-200.000	-0.024	-0.188
-473.259	24.741	-0.181	0.150
-472.245	182.725	0.017	0.025
-471.230	58.358	0.125	0.123
-470.216	44.618	-0.104	0.095
-469.201	56.737	0.038	0.037
-468.186	-200.000	-0.014	-0.179
-467.172	0.899	0.265	-0.189
-466.157	-90.933	-0.222	0.064
-465.143	-200.000	0.012	-0.156
-464.128	31.290	-0.206	0.177
-463.113	-20.581	0.207	0.127
-462.099	-114.897	-0.181	0.034
-461.084	-200.000	-0.088	0.437
-460.070	-34.800	-0.337	0.183
-459.055	-136.115	0.255	0.030
-458.040	10.622	0.182	-0.139
-457.026	-200.000	-0.001	0.167
-456.011	512.026	-0.111	0.258
-454.997	-143.173	-0.143	-0.014
-453.982	-24.083	0.118	-0.070
-452.968	23.621	-0.174	-0.143
-451.953	145.892	0.079	-0.105
-450.938	134.928	-0.157	-0.204
-449.924	-181.665	-0.370	0.007
-448.909	-96.099	0.049	0.013
-447.895	-200.000	0.019	-0.100
-446.880	-200.000	0.006	-0.167
-445.865	800.000	0.040	0.153
-444.851	-200.000	-0.026	0.255
-443.836	281.256	0.021	0.038
-442.822	800.000	0.080	0.348
-441.807	-13.292	0.272	0.176
-440.792	800.000	0.029	0.111
-439.778	111.738	0.084	0.102
-438.763	-14.883	-0.095	-0.061
-437.749	800.000	-0.066	0.203
-436.734	-200.000	0.181	0.000
-435.719	-56.389	0.287	0.127
-434.705	60.603	-0.182	0.180
-433.690	800.000	-0.032	-0.128
-432.676	190.432	0.015	0.023
-431.661	-157.476	0.074	-0.004
-430.646	-9.483	0.366	0.243
-429.632	110.686	-0.157	-0.188
-428.617	162.251	-0.136	-0.190
-427.603	-119.924	0.178	0.030
-426.588	-200.000	-0.014	-0.173
-425.573	-77.527	-0.124	-0.043
-424.559	800.000	0.033	-0.113
-423.544	-99.606	-0.295	-0.074
-422.530	524.127	0.064	-0.149
-421.515	484.390	-0.134	-0.303
-420.500	-134.469	0.322	-0.039
-419.486	-200.000	-0.030	0.302
-418.471	8.675	-0.230	0.173
-417.457	-200.000	-0.020	-0.199
-416.442	16.625	0.116	-0.091
-415.428	-200.000	0.000	-0.294
-414.413	800.000	0.078	-0.224
-413.398	146.738	-0.111	-0.149
-412.384	-56.560	-0.294	0.130
-411.369	-105.979	-0.148	0.033
-410.355	-145.550	0.205	-0.018
-409.340	310.679	-0.069	-0.128
-408.325	91.458	-0.252	-0.282
-407.311	-12.327	0.221	0.144
-406.296	-115.499	0.103	-0.019
-405.282	149.984	-0.132	-0.178
-404.267	-200.000	0.025	0.295
-403.252	-200.000	0.025	0.319
-402.238	392.620	0.098	-0.203
-401.223	52.152	0.117	0.111
-400.209	-200.000	-0.043	0.418
-399.194	-115.900	-0.217	0.040
-398.179	-125.671	0.113	0.017
-397.165	-171.795	-0.210	-0.007
-396.150	88.349	-0.075	-0.082
-395.136	123.843	0.151	0.189
-394.121	37.312	-0.218	0.192
-393.106	244.949	0.175	0.292
-392.092	-94.354	0.200	-0.054
-391.077	-143.249	-0.197	0.019
-390.063	143.513	-0.198	-0.262
-389.048	-144.485	-0.195	-0.018
-388.033	234.477	0.268	0.440
-387.019	-200.000	-0.001	-0.162
-386.004	-104.362	-0.615	0.142
-384.990	-200.000	0.015	-0.151
-383.975	-116.248	-0.173	-0.032
-382.960	-56.722	0.187	0.082
-381.946	42.341	0.270	0.244
-380.931	-2.816	0.059	0.041
-379.917	0.307	0.089	0.063
-378.902	800.000	0.051	-0.150
-377.888	-200.000	-0.052	-0.358
-376.873	-130.069	0.152	0.021
-375.858	98.843	0.199	-0.228
-374.844	-91.881	0.430	-0.121
-373.829	198.455	0.185	0.280
-372.815	-33.460	0.141	-0.077
-371.800	488.477	-0.090	-0.204
-370.785	146.703	0.213	-0.285
-369.771	-200.000	-0.061	-0.598
-368.756	-112.230	0.084	0.017
-367.742	-200.000	0.020	-0.154
-366.727	-200.000	-0.052	0.511
-365.712	584.314	0.093	0.226
-364.698	160.067	-0.065	0.090
-363.683	-116.836	-0.113	0.021
-362.669	-200.000	-0.010	0.141
-361.654	-96.351	0.308	0.081
-360.639	-200.000	0.008	-0.317
-359.625	34.792	-0.237	0.206
-358.610	200.581	-0.119	0.182
-357.596	-91.624	-0.202	0.057
-356.581	-151.344	-0.072	0.005
-355.566	-45.408	0.046	0.023
-354.552	61.579	0.169	-0.167
-353.537	-200.000	0.064	0.300
-352.523	-99.002	0.130	-0.033
-351.508	1.369	0.056	-0.040
-350.493	-200.000	-0.011	-0.421
-349.479	-141.540	-0.108	0.011
-348.464	-120.831	-0.144	-0.024
-347.450	-193.043	0.056	-0.000
-346.435	-90.748	0.139	0.040
-345.420	160.149	-0.140	-0.193
-344.406	800.000	-0.060	-0.180
-343.391	24.815	-0.303	-0.249
-342.377	498.325	-0.078	-0.178
-341.362	800.000	-0.064	0.233
-340.348	-200.000	0.018	0.156
-339.333	0.497	0.151	0.107
-338.318	72.110	-0.265	-0.274
-337.304	584.460	-0.094	-0.229
-336.289	375.548	-0.069	-0.139
-335.275	113.876	-0.017	0.021
-334.260	-40.709	-0.536	0.275
-333.245	-112.262	0.314	-0.063
-332.231	17.645	-0.290	-0.229
-331.216	-111.679	-0.139	0.028
-330.202	-55.484	0.178	0.079
-329.187	-182.000	-0.298	0.006
-328.172	800.000	0.030	0.109
-327.158	475.452	0.089	0.199
-326.143	13.030	0.087	-0.066
-325.129	15.402	-0.230	0.179
-324.114	38.585	0.221	-0.195
-323.099	304.272	0.269	-0.494
-322.085	-109.276	0.205	-0.043
-321.070	166.021	-0.102	0.143
-320.056	-200.000	0.025	0.259
-319.041	-51.939	0.325	0.150
-318.026	4.669	0.098	0.071
-317.012	-165.213	-0.195	0.009
-315.997	800.000	0.082	-0.228
-314.983	123.743	0.086	0.107
-313.968	273.167	-0.101	0.177
-312.953	207.209	0.185	0.285
-311.939	-200.000	0.018	0.124
-310.924	250.674	0.087	0.147
-309.910	543.246	-0.106	-0.252
-308.895	-200.000	-0.025	-0.155
-307.880	244.545	0.039	0.065
-306.866	-77.219	0.114	0.039
-305.851	30.435	-0.199	-0.168
-304.837	800.000	-0.123	0.368
-303.822	-200.000	-0.050	0.313
-302.807	-75.465	0.196	-0.069
-301.793	354.826	-0.125	-0.247
-300.778	-200.000	-0.036	-0.326
-299.764	-200.000	-0.015	0.291
-298.749	462.506	0.147	0.326
-297.735	800.000	-0.143	-0.484
-296.720	-200.000	-0.052	-0.344
-295.705	-200.000	-0.018	0.133
-294.691	800.000	0.079	0.263
-293.676	-133.257	0.215	-0.027
-292.662	-200.000	0.001	-0.102
-291.647	-150.232	-0.331	0.025
-290.632	800.000	0.075	0.320
-289.618	47.369	-0.154	-0.142
-288.603	-103.113	-0.133	-0.031
-287.589	-150.009	0.223	-0.017
-286.574	75.161	-0.008	-0.008
-285.559	800.000	-0.057	-0.191
-284.545	500.242	0.163	-0.372
-283.530	29.094	0.107	-0.090
-282.516	581.653	0.105	-0.255
-281.501	-134.995	-0.075	-0.009
-280.486	-68.047	0.119	-0.046
-279.472	-200.000	0.002	0.156
-278.457	-102.102	-0.046	0.011
-277.443	-200.000	-0.047	-0.246
-276.428	-104.237	-0.111	0.025
-275.413	403.272	0.060	0.125
-274.399	-118.244	-0.205	0.036
-273.384	-175.729	0.050	-0.001
-272.370	31.024	-0.224	-0.190
-271.355	-96.903	0.212	0.055
-270.340	-124.778	0.257	0.039
-269.326	-200.000	-0.045	0.362
-268.311	-200.000	-0.050	-0.314
-267.297	3.551	-0.364	0.262
-266.282	123.050	0.214	-0.265
-265.267	-28.243	0.232	0.133
-264.253	-200.000	-0.008	-0.070
-263.238	-200.000	-0.007	0.163
-262.224	-32.347	0.178	-0.098
-261.209	-56.784	0.180	0.079
-260.195	-168.911	0.153	-0.006
-259.180	-200.000	0.112	0.516
-258.165	-171.876	-0.098	-0.003
-257.151	-82.940	-0.295	-0.094
-256.136	97.381	-0.045	0.051
-255.122	800.000	0.080	-0.229
-254.107	-44.872	-0.185	0.091
-253.092	-90.597	0.365	0.104
-252.078	58.896	0.280	0.272
-251.063	29.553	-0.093	0.078
-250.049	-12.665	0.141	0.091
-249.034	81.225	0.203	0.217
-248.019	93.984	-0.096	-0.108
-247.005	-160.578	0.565	-0.030
-245.990	263.709	0.069	0.118
-244.976	30.634	-0.464	0.393
-243.961	-122.707	0.104	0.017
-242.946	800.000	-0.062	-0.229
-241.932	-164.846	-0.215	-0.010
-240.917	42.859	0.280	-0.252
-239.903	-116.755	0.139	-0.025
-238.888	-148.560	-0.386	0.031
-237.873	-138.930	-0.518	0.056
-236.859	-200.000	0.053	0.445
-235.844	234.887	-0.076	0.125
-234.830	-164.319	0.229	-0.010
-233.815	-88.525	0.130	0.038
-232.800	370.328	0.083	-0.167
-231.786	800.000	0.036	-0.153
-230.771	-20.706	-0.081	0.049
-229.757	800.000	0.076	0.208
-228.742	-146.060	-0.512	0.045
-227.727	290.116	0.082	0.146
-226.713	800.000	-0.140	0.547
-225.698	491.659	-0.125	-0.282
-224.684	300.187	-0.019	-0.034
-223.669	21.542	0.168	0.135
-222.655	-142.949	0.372	-0.036
-221.640	35.829	0.275	-0.239
-220.625	99.062	0.073	-0.083
-219.611	-58.731	0.145	-0.062
-218.596	-200.000	0.002	0.309
-217.582	800.000	0.071	-0.254
-216.567	74.132	-0.157	-0.163
-215.552	-200.000	0.285	0.001
-214.538	-176.526	-0.058	0.001
-213.523	-16.140	-0.474	0.297
-212.509	283.970	0.149	0.265
-211.494	187.189	-0.116	0.171
-210.479	-65.698	-0.117	-0.046
-209.465	286.890	-0.004	0.008
-208.450	-200.000	0.037	0.237
-207.436	-189.795	-0.163	-0.002
-206.421	-159.422	-0.337	-0.019
-205.406	800.000	-0.077	-0.254
-204.392	327.546	-0.083	-0.156
-203.377	-134.043	0.150	-0.018
-202.363	800.000	-0.040	-0.150
-201.348	-200.000	-0.081	0.435
-200.333	-103.897	0.466	0.107
-199.319	758.733	0.132	0.353
-198.304	-200.000	-0.077	-0.484
-197.290	83.215	-0.065	0.070
-196.275	-127.613	0.104	-0.015
-195.260	17.609	0.181	0.142
-194.246	-179.340	0.265	0.006
-193.231	334.421	-0.161	0.307
-192.217	105.110	-0.188	0.219
-191.202	-86.514	0.207	-0.063
-190.187	56.469	0.262	0.251
-189.173	337.741	-0.123	-0.236
-188.158	559.068	0.032	-0.077
-187.144	-151.317	-0.214	-0.016
-186.129	-200.000	0.015	-0.134
-185.114	27.636	0.143	-0.119
-184.100	337.714	0.146	0.280
-183.085	63.909	-0.195	0.194
-182.071	75.825	-0.132	0.138
-181.056	526.277	-0.238	-0.554
-180.042	143.554	-0.071	0.094
-179.027	-140.807	-0.292	0.030
-178.012	-62.712	-0.121	-0.050
-176.998	-44.338	0.115	-0.057
-175.983	-168.004	-0.173	0.007
-174.969	44.918	0.045	-0.040
-173.954	-142.185	-0.158	0.015
-172.939	-200.000	-0.035	0.165
-171.925	-200.000	0.007	0.035
-170.910	-136.459	0.136	0.016
-169.896	-200.000	-0.047	0.208
-168.881	234.986	-0.152	0.246
-167.866	197.649	-0.119	0.179
-166.852	76.689	0.174	-0.182
-165.837	188.297	0.160	-0.236
-164.823	165.706	0.113	0.157
-163.808	-0.404	-0.241	0.168
-162.793	800.000	0.035	0.137
-161.779	-103.774	0.180	-0.041
-160.764	-14.364	-0.106	-0.067
-159.750	-146.811	0.096	0.008
-158.735	380.229	-0.114	-0.230
-157.720	291.276	0.100	-0.179
-156.706	-31.412	-0.185	0.103
-155.691	95.180	-0.129	-0.144
-154.677	44.658	0.103	0.093
-153.662	-35.852	-0.334	0.178
-152.647	124.973	-0.052	-0.064
-151.633	-200.000	0.042	-0.270
-150.618	-200.000	-0.061	0.339
-149.604	118.073	-0.151	-0.183
-148.589	13.146	0.148	-0.113
-147.574	296.391	-0.055	-0.100
-146.560	192.458	-0.233	0.347
-145.545	101.869	0.074	-0.085
-144.531	94.751	-0.159	0.178
-143.516	-200.000	0.058	0.333
-142.502	-189.244	0.123	0.001
-141.487	-200.000	0.013	0.108
-140.472	93.272	0.261	0.290
-139.458	308.156	0.121	0.222
-138.443	800.000	-0.047	0.195
-137.429	-42.252	-0.147	0.074
-136.414	-89.599	0.291	0.084
-135.399	-97.162	-0.247	-0.064
-134.385	-64.694	0.488	-0.195
-133.370	35.622	-0.156	-0.135
-132.356	-200.000	-0.001	0.173
-131.341	210.725	-0.039	-0.060
-130.326	429.687	0.057	-0.121
-129.312	-105.487	0.282	-0.063
-128.297	48.958	0.135	0.125
-127.283	-118.846	0.204	-0.035
-126.268	-125.985	-0.114	0.017
-125.253	138.792	-0.311	0.402
-124.239	232.473	-0.080	0.129
-123.224	93.835	0.103	-0.115
-122.210	-200.000	0.016	-0.242
-121.195	50.694	-0.197	0.184
