DTS Sentinel unit serial number:	SN413079Multiplexer serial number:	ORYXHardware model number:	OX4-SRSoftware version number:	ORYX F/W v4.00 Oryx Data Collector v3.7.2.0data status	okinstallation	princeton_trtdifferential loss correction	single-endedforward channel	channel 1reverse channel	N/Adate	2019/09/12time	19:20:34forward acquisition time	15.00reverse acquisition time	0.00gamma	496.2192k internal	0.2321k external	0.2321temperature offset calibration	1.0122default loss term (dB/km)	0.3790temperature slope calibration	1.0000multiplexer offset coefficient	1.0000multiplexer slope coefficient	1.0000fibre end	0.00T internal ref (°C)	32.44T ext. ref 1 (°C)	3.20T ext. ref 2 (°C)	26.97length (m)	temperature (°C)	Stokes	anti-Stokes-747.200	-167.307	0.731	0.030
-746.185	195.084	-0.257	0.395
-745.171	409.960	-0.152	0.326
-744.156	800.000	0.222	0.700
-743.142	571.767	-0.195	0.480
-742.127	86.773	0.241	-0.269
-741.112	800.000	0.170	0.566
-740.098	43.184	0.547	0.505
-739.083	-55.359	-0.658	0.298
-738.069	414.168	-0.325	-0.699
-737.054	492.129	-0.222	0.514
-736.039	58.214	0.301	0.298
-735.025	-109.181	1.256	0.270
-734.010	-73.530	0.503	0.185
-732.996	-159.730	-0.231	0.013
-731.981	800.000	0.151	0.517
-730.966	-200.000	0.018	0.355
-729.952	108.098	-0.080	-0.096
-728.937	-200.000	0.103	-0.853
-727.923	-200.000	0.092	-0.771
-726.908	58.547	-0.353	0.350
-725.894	-88.327	0.459	0.139
-724.879	115.642	-0.660	-0.815
-723.864	-70.562	-0.822	0.314
-722.850	11.019	-0.378	-0.291
-721.835	702.989	0.373	0.993
-720.821	-75.640	1.067	0.383
-719.806	-200.000	0.061	0.451
-718.791	-149.436	-0.805	0.065
-717.777	43.387	0.175	0.162
-716.762	-125.551	-1.128	0.173
-715.748	666.765	-0.196	-0.512
-714.733	-53.034	1.151	0.534
-713.718	62.118	0.376	0.378
-712.704	-200.000	0.017	-0.175
-711.689	186.057	-0.365	-0.548
-710.675	6.104	-0.825	-0.617
-709.660	-200.000	-0.041	-0.228
-708.645	-54.795	-0.593	-0.270
-707.631	161.557	-0.391	-0.552
-706.616	800.000	-0.238	-0.977
-705.602	-108.577	-0.440	0.095
-704.587	458.033	0.153	0.342
-703.572	-54.617	-0.980	-0.447
-702.558	23.630	-0.559	0.464
-701.543	-42.078	-0.340	0.176
-700.529	-159.814	-0.418	0.023
-699.514	33.164	-0.334	0.293
-698.499	-146.364	-0.313	-0.028
-697.485	-200.000	-0.057	0.326
-696.470	800.000	-0.010	-0.035
-695.456	106.639	0.148	-0.177
-694.441	-200.000	0.072	0.422
-693.426	-44.850	0.502	0.252
-692.412	-78.965	0.192	-0.066
-691.397	-200.000	0.926	-0.004
-690.383	800.000	-0.064	0.189
-689.368	-17.377	0.423	0.268
-688.354	-200.000	-0.059	-0.578
-687.339	0.470	-0.451	-0.325
-686.324	-137.863	0.387	0.044
-685.310	-61.250	-0.684	-0.291
-684.295	-70.478	-0.206	0.079
-683.281	-88.053	-1.095	-0.331
-682.266	15.608	0.111	0.088
-681.251	-2.527	-0.017	-0.012
-680.237	-124.877	-0.588	-0.091
-679.222	158.776	0.818	-1.145
-678.208	-135.016	-0.906	0.110
-677.193	84.663	-0.274	-0.302
-676.178	-151.446	0.446	-0.033
-675.164	-200.000	0.057	-0.867
-674.149	481.023	0.525	-1.201
-673.135	-103.880	0.647	-0.152
-672.120	113.663	0.400	0.490
-671.105	-64.947	0.882	-0.359
-670.091	800.000	0.249	-1.063
-669.076	-121.113	0.349	0.059
-668.062	93.013	0.164	0.187
-667.047	-200.000	0.008	-0.431
-666.032	285.876	-0.230	-0.418
-665.018	-13.016	-0.506	0.332
-664.003	43.475	0.252	0.232
-662.989	-47.617	-0.097	0.047
-661.974	-2.398	-0.150	-0.106
-660.959	-82.769	-0.394	-0.128
-659.945	645.705	-0.156	-0.400
-658.930	16.172	0.237	-0.188
-657.916	345.989	-0.138	-0.273
-656.901	319.402	0.066	-0.127
-655.886	-159.415	-0.482	0.027
-654.872	90.265	0.030	-0.034
-653.857	-2.134	-0.682	-0.482
-652.843	287.897	0.387	0.706
-651.828	736.549	-0.087	0.236
-650.814	302.873	0.127	-0.237
-649.799	73.181	-0.520	0.548
-648.784	533.328	0.253	-0.604
-647.770	800.000	-0.062	0.239
-646.755	800.000	0.109	0.305
-645.741	79.916	-0.544	0.589
-644.726	116.139	-0.452	-0.557
-643.711	781.766	0.191	-0.526
-642.697	758.767	0.411	1.120
-641.682	16.381	-0.369	-0.293
-640.668	-105.468	-0.644	0.147
-639.653	1.383	0.262	-0.189
-638.638	26.880	-0.195	-0.164
-637.624	-106.510	0.546	-0.123
-636.609	-200.000	0.072	-0.593
-635.595	800.000	0.097	0.317
-634.580	-200.000	0.018	-0.444
-633.565	322.785	0.376	-0.721
-632.551	-200.000	0.087	-0.446
-631.536	795.710	0.200	0.554
-630.522	800.000	0.164	0.632
-629.507	54.398	0.370	-0.358
-628.492	73.009	0.266	-0.279
-627.478	287.721	-0.297	-0.541
-626.463	-142.468	-0.581	-0.057
-625.449	350.955	-0.190	-0.377
-624.434	800.000	0.007	-0.028
-623.419	-148.759	0.139	-0.011
-622.405	36.422	0.178	0.158
-621.390	-200.000	0.094	0.533
-620.376	113.846	-0.097	0.118
-619.361	149.944	0.167	-0.227
-618.346	16.000	0.588	0.466
-617.332	-44.574	-0.604	-0.303
-616.317	7.916	0.393	-0.296
-615.303	-200.000	-0.029	0.340
-614.288	-91.490	-0.191	-0.055
-613.273	-200.000	-0.071	0.772
-612.259	-33.949	-0.811	0.449
-611.244	-69.533	0.624	0.240
-610.230	-200.000	0.122	-0.632
-609.215	7.422	0.484	-0.364
-608.201	1.121	0.145	-0.105
-607.186	-2.789	0.235	0.165
-606.171	-200.000	-0.023	0.428
-605.157	-149.753	0.644	0.051
-604.142	-22.084	-0.603	-0.368
-603.128	-200.000	0.451	0.000
-602.113	-46.401	0.071	-0.035
-601.098	225.008	-0.195	0.317
-600.084	12.182	0.520	0.402
-599.069	27.454	-0.601	-0.508
-598.055	121.789	0.209	0.262
-597.040	-200.000	0.049	0.422
-596.025	-157.689	0.792	-0.047
-595.011	-78.233	-0.414	-0.143
-593.996	247.798	0.663	1.125
-592.982	-84.896	0.961	0.303
-591.967	36.575	-0.339	0.301
-590.952	-200.000	0.073	-0.608
-589.938	-113.588	-0.217	-0.043
-588.923	-200.000	-0.064	-0.421
-587.909	47.224	-0.458	0.428
-586.894	800.000	0.088	0.376
-585.879	285.828	-0.189	0.343
-584.865	-16.333	0.322	0.205
-583.850	-133.716	0.988	-0.124
-582.836	-200.000	0.020	-0.641
-581.821	-10.132	0.381	-0.254
-580.806	-47.083	-0.263	0.129
-579.792	800.000	0.193	-0.820
-578.777	313.793	0.379	-0.716
-577.763	-67.530	-0.627	-0.247
-576.748	-147.520	-0.303	-0.026
-575.733	-50.043	0.527	0.251
-574.719	800.000	-0.107	-0.349
-573.704	30.972	0.617	0.531
-572.690	413.544	0.168	-0.358
-571.675	-40.468	-0.769	-0.401
-570.661	-200.000	-0.034	0.453
-569.646	-200.000	-0.044	-0.251
-568.631	-83.532	0.435	0.140
-567.617	-74.200	-0.402	-0.146
-566.602	-53.448	0.339	-0.156
-565.588	-200.000	0.219	-1.612
-564.573	-33.921	0.438	-0.242
-563.558	0.512	0.460	0.330
-562.544	444.072	0.173	0.380
-561.529	-176.125	0.633	-0.017
-560.515	800.000	-0.162	0.526
-559.500	-200.000	-0.063	-0.570
-558.485	800.000	-0.094	-0.292
-557.471	-99.792	-0.801	0.201
-556.456	93.029	-0.598	0.678
-555.442	-41.710	-0.628	-0.324
-554.427	-200.000	0.022	0.675
-553.412	-83.961	-0.703	0.224
-552.398	-200.000	-0.115	1.247
-551.383	-67.974	-0.228	0.089
-550.369	800.000	-0.212	-0.635
-549.354	178.816	0.551	0.808
-548.339	-78.354	-0.983	0.338
-547.325	-78.796	0.009	0.003
-546.310	216.839	-0.147	-0.235
-545.296	-23.305	-0.346	0.209
-544.281	-4.591	-0.205	-0.142
-543.266	-128.109	-0.699	-0.100
-542.252	155.701	-0.080	0.110
-541.237	129.354	-0.113	-0.145
-540.223	800.000	0.090	-0.363
-539.208	800.000	-0.090	0.364
-538.193	97.071	-0.489	-0.562
-537.179	-46.604	-0.330	-0.162
-536.164	-78.413	-0.679	0.233
-535.150	-28.106	-0.679	0.394
-534.135	47.645	-0.078	0.073
-533.121	-64.450	0.234	0.095
-532.106	398.236	0.025	0.051
-531.091	77.817	0.549	0.587
-530.077	227.145	0.320	-0.521
-529.062	-15.915	0.843	0.538
-528.048	-93.153	0.594	0.166
-527.033	7.161	-0.687	0.514
-526.018	175.063	0.765	1.111
-525.004	28.653	0.635	0.539
-523.989	-51.144	0.761	-0.357
-522.975	-200.000	-0.104	0.574
-521.960	-124.592	0.164	0.025
-520.945	-147.838	-0.622	0.052
-519.931	800.000	0.069	0.298
-518.916	800.000	-0.018	0.060
-517.902	-88.403	1.122	-0.336
-516.887	-81.379	0.332	0.110
-515.872	-23.487	-0.437	0.263
-514.858	-200.000	-0.140	-1.294
-513.843	100.260	0.031	0.036
-512.829	-52.961	1.024	0.472
-511.814	210.554	0.542	0.853
-510.799	368.703	0.061	-0.123
-509.785	15.451	-0.309	0.243
-508.770	441.256	-0.361	-0.791
-507.756	800.000	-0.132	0.425
-506.741	-123.247	1.191	-0.191
-505.726	34.559	-0.400	0.350
-504.712	94.395	0.126	-0.144
-503.697	328.615	0.004	-0.008
-502.683	-134.777	0.035	-0.004
-501.668	122.130	0.496	-0.620
-500.653	-17.248	0.455	-0.287
-499.639	454.910	0.304	0.674
-498.624	678.804	-0.246	-0.641
-497.610	-136.980	0.258	0.030
-496.595	-64.188	-0.316	0.129
-495.581	153.197	0.415	0.568
-494.566	189.215	-0.233	0.349
-493.551	395.007	-0.254	-0.530
-492.537	-19.143	0.347	0.216
-491.522	125.621	0.184	0.232
-490.508	-120.738	-0.402	-0.068
-489.493	-3.123	0.347	-0.242
-488.478	-149.573	-1.427	-0.113
-487.464	-134.103	0.933	-0.115
-486.449	99.255	-0.618	0.715
-485.435	-63.946	0.276	-0.113
-484.420	-200.000	0.106	0.668
-483.405	-200.000	0.044	0.477
-482.391	-101.427	0.472	-0.115
-481.376	-44.362	-0.445	0.223
-480.362	203.316	-0.088	0.136
-479.347	-200.000	-0.026	-0.794
-478.332	-200.000	-0.026	0.256
-477.318	800.000	-0.212	0.600
-476.303	-200.000	-0.005	0.359
-475.289	-200.000	0.020	0.785
-474.274	-1.474	0.516	0.364
-473.259	678.020	0.344	0.895
-472.245	-108.855	0.681	0.146
-471.230	-200.000	-0.165	-0.789
-470.216	-105.249	1.160	0.264
-469.201	154.906	0.234	0.322
-468.186	4.867	-0.203	-0.149
-467.172	800.000	0.277	-0.799
-466.157	-137.355	-0.374	-0.042
-465.143	-136.281	1.238	0.144
-464.128	-99.030	-0.882	-0.224
-463.113	-114.381	-0.938	0.180
-462.099	-112.595	0.452	-0.090
-461.084	415.051	-0.336	-0.715
-460.070	-16.023	0.716	-0.455
-459.055	312.407	0.412	-0.773
-458.040	800.000	-0.144	0.583
-457.026	-57.128	0.126	0.056
-456.011	-158.974	0.487	0.028
-454.997	-200.000	-0.083	-0.553
-453.982	800.000	0.192	-0.714
-452.968	-111.940	-0.477	0.096
-451.953	268.755	-0.364	0.638
-450.938	-117.457	0.206	-0.037
-449.924	-137.708	-0.268	-0.030
-448.909	-200.000	0.030	-0.232
-447.895	15.054	0.582	0.456
-446.880	180.995	-0.133	0.195
-445.865	731.257	-0.178	-0.475
-444.851	800.000	-0.160	-0.629
-443.836	436.815	-0.370	0.804
-442.822	386.797	-0.150	0.309
-441.807	-1.912	-0.230	0.162
-440.792	64.234	-0.454	0.457
-439.778	125.368	0.199	-0.250
-438.763	-200.000	-0.095	-0.772
-437.749	-200.000	-0.001	0.400
-436.734	-191.539	-0.659	-0.007
-435.719	542.782	0.093	0.222
-434.705	-200.000	-0.000	-0.285
-433.690	232.785	0.450	-0.739
-432.676	-29.193	-0.138	-0.079
-431.661	113.792	-0.473	0.574
-430.646	387.618	0.479	-0.989
-429.632	-49.683	-0.369	0.175
-428.617	-34.243	-0.175	0.096
-427.603	-115.815	-0.708	0.132
-426.588	-200.000	0.024	-0.549
-425.573	-169.408	-0.693	0.025
-424.559	800.000	0.023	0.075
-423.544	-200.000	0.088	-0.605
-422.530	-113.780	0.374	0.073
-421.515	189.362	-0.692	-1.035
-420.500	344.590	0.257	0.504
-419.486	-70.134	0.388	-0.147
-418.471	120.193	-0.368	0.456
-417.457	304.271	-0.057	0.106
-416.442	-102.674	-0.933	-0.222
-415.428	-4.904	-0.209	-0.144
-414.413	-57.743	0.179	-0.078
-413.398	381.824	-0.200	-0.409
-412.384	-66.514	0.618	0.245
-411.369	-200.000	0.226	-1.025
-410.355	95.410	-0.364	0.414
-409.340	-157.050	-0.249	-0.015
-408.325	-29.116	-0.249	0.142
-407.311	189.354	-0.519	0.776
-406.296	21.291	0.460	0.373
-405.282	800.000	-0.243	-0.698
-404.267	-162.596	1.056	-0.052
-403.252	62.748	0.364	-0.363
-402.238	-133.634	-0.327	0.041
-401.223	-15.285	-0.374	-0.239
-400.209	498.588	-0.399	0.917
-399.194	-5.272	0.595	0.408
-398.179	800.000	-0.128	-0.357
-397.165	48.161	-0.375	-0.349
-396.150	700.756	0.232	-0.608
-395.136	382.536	0.245	0.501
-394.121	84.136	0.230	-0.250
-393.106	-24.173	0.059	-0.035
-392.092	-63.013	0.558	0.230
-391.077	25.858	-0.059	-0.049
-390.063	422.823	-0.331	0.710
-389.048	127.416	0.063	0.080
-388.033	-166.192	0.632	0.027
-387.019	-116.541	-0.283	0.052
-386.004	359.606	0.250	-0.498
-384.990	178.191	0.591	-0.859
-383.975	6.131	-0.313	0.232
-382.960	113.968	-0.258	-0.312
-381.946	-200.000	-0.044	0.353
-380.931	-119.279	-0.154	-0.027
-379.917	-200.000	-0.072	0.957
-378.902	-24.692	0.048	0.029
-377.888	118.289	0.166	-0.204
-376.873	32.503	0.218	-0.188
-375.858	-157.774	0.454	0.027
-374.844	158.873	-0.303	0.419
-373.829	86.289	0.603	-0.662
-372.815	-86.281	-0.551	-0.169
-371.800	39.961	0.465	0.416
-370.785	-82.012	-0.407	0.132
-369.771	325.022	0.535	-1.019
-368.756	755.731	-0.126	0.340
-367.742	-200.000	0.003	0.077
-366.727	203.397	0.400	0.616
-365.712	182.208	-0.566	-0.831
-364.698	-42.163	0.135	-0.069
-363.683	-46.844	0.549	0.268
-362.669	85.797	-0.309	-0.339
-361.654	404.919	-0.305	-0.641
-360.639	-9.096	0.283	0.188
-359.625	-174.714	-0.417	0.012
-358.610	-200.000	0.044	0.804
-357.596	-200.000	0.074	-0.390
-356.581	89.498	0.170	-0.189
-355.566	49.442	-1.080	1.011
-354.552	-200.000	0.052	0.664
-353.537	800.000	0.087	-0.282
-352.523	-198.855	0.927	-0.005
-351.508	27.250	-0.882	-0.737
-350.493	-200.000	-0.094	0.481
-349.479	-200.000	0.015	0.384
-348.464	85.090	-0.398	0.434
-347.450	130.831	0.043	0.055
-346.435	-136.250	-0.278	0.032
-345.420	2.458	0.656	-0.473
-344.406	-128.271	0.569	-0.081
-343.391	-71.006	0.546	0.204
-342.377	166.887	0.340	-0.480
-341.362	99.292	-0.315	-0.362
-340.348	184.260	0.374	-0.552
-339.333	115.774	-0.293	0.357
-338.318	-200.000	0.013	0.273
-337.304	18.815	-0.320	0.255
-336.289	-162.131	0.313	-0.016
-335.275	-97.876	-0.536	0.138
-334.260	-200.000	-0.028	-0.293
-333.245	800.000	-0.151	-0.495
-332.231	-137.525	-0.464	0.052
-331.216	15.306	-0.410	0.320
-330.202	-145.983	-0.549	-0.048
-329.187	455.999	0.248	0.548
-328.172	-200.000	-0.063	-0.673
-327.158	-40.882	-0.380	0.196
-326.143	-200.000	-0.005	-0.103
-325.129	609.472	0.372	0.923
-324.114	479.280	-0.263	0.593
-323.099	-119.512	0.777	0.134
-322.085	-200.000	0.093	-0.829
-321.070	-16.976	-0.115	-0.072
-320.056	-147.036	0.372	0.032
-319.041	-30.137	-0.462	-0.261
-318.026	-200.000	-0.030	-0.768
-317.012	-125.511	-0.878	-0.133
-315.997	-200.000	-0.012	-0.485
-314.983	-25.993	0.283	-0.166
-313.968	42.972	0.705	0.639
-312.953	143.001	0.506	0.669
-311.939	55.017	-0.117	-0.112
-310.924	15.129	-0.419	0.327
-309.910	800.000	-0.094	0.301
-308.895	-101.318	0.382	0.093
-307.880	654.432	0.262	-0.668
-306.866	-73.107	0.596	0.217
-305.851	-200.000	-0.057	0.793
-304.837	-200.000	0.048	0.422
-303.822	800.000	-0.170	0.529
-302.807	-196.581	-0.723	0.005
-301.793	92.756	-0.486	0.545
-300.778	-126.850	-0.349	-0.051
-299.764	208.882	0.320	-0.498
-298.749	626.350	-0.197	0.495
-297.735	800.000	0.179	0.626
-296.720	-40.151	-0.469	-0.243
-295.705	-39.317	0.518	-0.270
-294.691	69.390	0.467	-0.478
-293.676	219.463	-0.165	0.261
-292.662	-75.398	-0.703	0.249
-291.647	39.440	-0.379	-0.337
-290.632	-9.625	0.548	0.363
-289.618	200.901	0.350	-0.534
-288.603	0.284	-0.482	-0.341
-287.589	-200.000	0.007	-0.388
-286.574	-197.520	0.144	-0.001
-285.559	-55.388	-0.852	-0.379
-284.545	-102.307	-0.359	0.086
-283.530	-63.985	-0.733	0.297
-282.516	3.063	-0.721	0.520
-281.501	607.216	0.173	-0.429
-280.486	800.000	0.116	-0.397
-279.472	-198.473	-0.468	0.003
-278.457	-200.000	-0.078	-0.349
-277.443	15.916	0.537	0.419
-276.428	507.359	0.224	0.515
-275.413	800.000	-0.198	0.588
-274.399	-110.069	-0.574	-0.119
-273.384	-146.477	0.747	0.065
-272.370	800.000	-0.112	-0.358
-271.355	-105.153	-0.588	-0.133
-270.340	-8.860	0.643	0.427
-269.326	543.406	-0.191	-0.453
-268.311	48.016	-0.894	-0.829
-267.297	171.411	0.164	-0.233
-266.282	98.024	0.346	-0.395
-265.267	-132.279	-0.795	-0.102
-264.253	196.701	0.243	-0.367
-263.238	39.025	-0.609	-0.540
-262.224	-200.000	-0.009	-0.599
-261.209	-200.000	0.174	-0.762
-260.195	-200.000	0.040	-1.153
-259.180	-86.548	-0.741	-0.225
-258.165	-110.240	0.486	0.100
-257.151	-56.413	-0.463	-0.204
-256.136	-98.539	-0.454	-0.115
-255.122	-200.000	-0.075	-0.772
-254.107	101.455	0.249	0.288
-253.092	168.922	-0.224	-0.317
-252.078	-113.044	-0.428	0.084
-251.063	-97.882	0.723	-0.185
-250.049	47.977	-0.091	0.085
-249.034	-77.834	0.432	-0.148
-248.019	-200.000	-0.009	-0.382
-247.005	138.086	-0.212	-0.276
-245.990	210.676	-0.208	-0.324
-244.976	-56.026	0.581	-0.257
-243.961	-83.826	0.179	-0.057
-242.946	800.000	-0.325	0.928
-241.932	800.000	-0.174	0.544
-240.917	-51.590	0.408	-0.189
-239.903	16.989	-0.446	-0.350
-238.888	66.879	-0.229	0.231
-237.873	-79.547	0.176	-0.059
-236.859	139.792	-0.241	-0.314
-235.844	-52.527	0.146	-0.067
-234.830	54.157	0.410	-0.391
-233.815	800.000	-0.102	-0.399
-232.800	-32.592	0.353	-0.195
-231.786	450.061	-0.445	0.972
-230.771	-12.990	0.486	0.313
-229.757	58.454	0.151	0.147
-228.742	-200.000	-0.076	-0.483
-227.727	800.000	0.050	-0.160
-226.713	0.545	-0.652	0.461
-225.698	-200.000	0.039	-0.928
-224.684	-31.583	-0.489	0.272
-223.669	800.000	-0.028	-0.096
-222.655	-200.000	-0.044	-0.311
-221.640	11.969	-0.159	0.121
-220.625	-39.151	0.357	0.186
-219.611	19.101	-0.704	-0.559
-218.596	800.000	0.242	0.754
-217.582	677.823	-0.144	0.371
-216.567	-153.681	0.599	0.041
-215.552	413.358	-0.249	0.525
-214.538	-200.000	0.050	-0.318
-213.523	329.663	-0.335	0.638
-212.509	77.073	0.546	0.574
-211.494	-19.165	-0.998	-0.613
-210.479	67.248	0.541	-0.546
-209.465	226.735	0.242	0.389
-208.450	-200.000	0.087	0.567
-207.436	-165.382	0.986	0.043
-206.421	-109.349	0.647	0.136
-205.406	162.166	-0.581	-0.806
-204.392	-123.205	-0.388	-0.061
-203.377	-54.045	-0.392	0.177
-202.363	-66.758	0.128	-0.050
-201.348	800.000	-0.119	0.436
-200.333	-16.878	0.627	-0.392
-199.319	-32.076	-0.378	0.209
-198.304	761.788	0.262	0.702
-197.290	-59.501	0.742	0.315
-196.275	-138.204	-0.572	0.063
-195.260	-96.758	0.561	-0.146
-194.246	43.982	-0.326	-0.295
-193.231	-27.983	-0.772	-0.442
-192.217	-53.309	0.620	-0.281
-191.202	-4.935	-0.553	-0.377
-190.187	-200.000	0.050	0.571
-189.173	106.837	0.716	-0.840
-188.158	-24.278	-0.411	-0.242
-187.144	-200.000	-0.020	0.381
-186.129	-87.614	-0.752	-0.224
-185.114	61.437	0.681	-0.670
-184.100	-121.070	0.857	0.142
-183.085	432.799	-0.356	0.763
-182.071	-134.946	0.526	0.063
-181.056	555.457	0.474	-1.129
-180.042	-82.744	1.038	0.332
-179.027	115.270	0.165	0.200
-178.012	-45.133	-0.204	0.100
-176.998	800.000	-0.192	0.810
-175.983	-126.121	-0.425	0.063
-174.969	-38.648	-1.147	-0.599
-173.954	172.643	0.288	-0.409
-172.939	141.830	-0.308	0.403
-171.925	340.221	0.200	-0.386
-170.910	10.093	0.260	0.195
-169.896	-121.037	0.489	0.081
-168.881	-92.505	-0.311	0.086
-167.866	-66.062	-0.582	0.229
-166.852	-78.381	0.768	-0.260
-165.837	-47.917	0.051	-0.025
-164.823	-73.516	0.283	-0.102
-163.808	800.000	0.229	0.743
-162.793	-200.000	0.050	0.944
-161.779	30.203	-0.369	0.311
-160.764	99.378	-0.627	-0.717
-159.750	-154.107	-0.634	-0.042
-158.735	344.008	0.271	-0.526
-157.720	-200.000	-0.000	-0.555
-156.706	327.831	-0.209	0.396
-155.691	14.938	-0.632	0.488
-154.677	800.000	0.039	0.131
-153.662	86.358	-0.251	0.274
-152.647	151.645	0.106	0.143
-151.633	389.499	0.129	0.263
-150.618	10.456	0.127	0.095
-149.604	-74.285	0.536	-0.191
-148.589	-32.515	-0.922	0.507
-147.574	-162.451	0.395	-0.019
-146.560	603.985	-0.182	0.446
-145.545	218.076	0.362	0.570
-144.531	43.091	-0.140	-0.126
-143.516	17.106	-0.481	0.376
-142.502	337.387	0.101	-0.193
-141.487	-50.785	-0.541	-0.251
-140.472	-200.000	0.002	0.067
-139.458	-27.151	-0.227	-0.131
-138.443	800.000	-0.277	0.847
-137.429	-200.000	-0.038	-0.649
-136.414	-176.768	0.567	0.014
-135.399	-43.665	0.250	-0.124
-134.385	-110.298	-0.342	0.070
-133.370	41.678	-0.250	-0.224
-132.356	-122.700	-0.471	-0.075
-131.341	432.563	0.090	-0.193
-130.326	411.695	-0.127	-0.267
-129.312	-200.000	-0.085	-0.937
-128.297	773.759	0.162	0.436
-127.283	-117.564	0.898	0.160
-126.268	126.751	0.456	-0.570
-125.253	35.398	-0.419	0.363
-124.239	250.626	0.340	0.569
-123.224	-66.348	0.284	-0.111
-122.210	114.242	-0.520	-0.624
-121.195	-200.000	-0.048	0.419
