DTS Sentinel unit serial number:	SN413079Multiplexer serial number:	ORYXHardware model number:	OX4-SRSoftware version number:	ORYX F/W v4.00 Oryx Data Collector v3.7.2.0data status	okinstallation	princeton_trtdifferential loss correction	single-endedforward channel	channel 1reverse channel	N/Adate	2019/09/14time	04:30:35forward acquisition time	60.00reverse acquisition time	0.00gamma	496.2192k internal	0.2334k external	0.2334temperature offset calibration	1.0078default loss term (dB/km)	0.3790temperature slope calibration	1.0000multiplexer offset coefficient	1.0000multiplexer slope coefficient	1.0000fibre end	0.00T internal ref (°C)	26.75T ext. ref 1 (°C)	3.35T ext. ref 2 (°C)	21.93length (m)	temperature (°C)	Stokes	anti-Stokes-747.200	-84.430	-0.135	0.043
-746.185	-200.000	-0.002	0.129
-745.171	-83.561	-0.208	-0.067
-744.156	-114.672	-0.320	0.061
-743.142	-38.713	-0.151	0.080
-742.127	-88.524	-0.270	-0.081
-741.112	-114.015	-0.161	-0.031
-740.098	43.157	-0.075	0.069
-739.083	-79.200	0.189	0.064
-738.069	-200.000	-0.031	0.213
-737.054	800.000	-0.122	0.426
-736.039	-139.472	-0.207	0.022
-735.025	-48.123	0.297	0.144
-734.010	81.284	-0.290	-0.315
-732.996	-51.795	-0.060	-0.028
-731.981	800.000	-0.030	-0.094
-730.966	58.988	-0.325	0.321
-729.952	800.000	0.038	0.155
-728.937	-200.000	-0.016	-0.082
-727.923	433.955	0.049	0.108
-726.908	-166.684	-0.192	0.008
-725.894	-175.754	-0.275	0.007
-724.879	21.733	-0.135	-0.110
-723.864	-0.826	0.228	-0.162
-722.850	800.000	-0.110	-0.313
-721.835	-3.675	0.152	0.106
-720.821	-200.000	0.026	-0.186
-719.806	150.396	0.196	-0.267
-718.791	-58.178	-0.353	-0.154
-717.777	-122.919	-0.246	-0.040
-716.762	551.184	-0.022	-0.052
-715.748	-47.030	0.258	-0.126
-714.733	-132.974	-0.146	-0.019
-713.718	-149.851	-0.123	0.010
-712.704	-200.000	-0.050	-0.245
-711.689	131.734	0.179	-0.232
-710.675	-200.000	-0.036	0.175
-709.660	-200.000	0.054	0.289
-708.645	-120.768	0.211	-0.036
-707.631	-122.264	0.211	0.035
-706.616	-200.000	0.010	-0.130
-705.602	695.502	-0.185	-0.486
-704.587	93.851	-0.137	-0.155
-703.572	-164.826	-0.527	-0.024
-702.558	-64.102	0.213	-0.087
-701.543	53.565	-0.254	-0.244
-700.529	800.000	0.046	-0.129
-699.514	800.000	-0.068	-0.281
-698.499	-32.208	-0.239	-0.134
-697.485	183.792	-0.149	0.221
-696.470	364.163	0.152	0.307
-695.456	-39.384	0.067	0.035
-694.441	-4.513	0.031	0.022
-693.426	-200.000	0.035	0.178
-692.412	178.763	-0.063	0.092
-691.397	-200.000	-0.040	-0.185
-690.383	-105.821	0.424	-0.096
-689.368	800.000	-0.028	0.121
-688.354	-90.194	-0.089	0.026
-687.339	548.491	-0.065	-0.156
-686.324	45.112	-0.060	-0.055
-685.310	-61.962	0.316	0.133
-684.295	800.000	-0.034	0.149
-683.281	474.995	-0.035	-0.080
-682.266	-136.286	-0.256	0.030
-681.251	741.822	-0.087	0.233
-680.237	800.000	-0.046	0.198
-679.222	185.966	-0.111	-0.165
-678.208	-108.738	-0.337	0.072
-677.193	545.361	-0.016	-0.038
-676.178	338.284	-0.057	0.111
-675.164	-71.633	0.195	0.073
-674.149	273.882	-0.075	-0.134
-673.135	-112.535	0.159	0.032
-672.120	800.000	0.048	0.148
-671.105	7.825	0.082	-0.062
-670.091	142.216	0.040	-0.053
-669.076	-55.247	-0.215	-0.097
-668.062	-200.000	0.016	-0.082
-667.047	39.307	-0.144	0.129
-666.032	-200.000	0.011	-0.129
-665.018	800.000	0.092	0.355
-664.003	-12.148	0.130	0.085
-662.989	800.000	0.040	-0.131
-661.974	-94.906	-0.074	-0.020
-660.959	800.000	-0.046	-0.146
-659.945	-135.434	0.306	-0.037
-658.930	-28.723	0.123	-0.071
-657.916	800.000	0.028	0.095
-656.901	-161.691	-0.226	0.012
-655.886	-172.146	0.169	0.005
-654.872	-30.887	0.283	-0.160
-653.857	-107.900	-0.134	0.029
-652.843	-10.797	0.453	0.300
-651.828	-200.000	-0.007	-0.136
-650.814	347.203	0.135	0.266
-649.799	248.813	0.051	-0.086
-648.784	-97.802	0.343	0.089
-647.770	69.961	-0.124	-0.128
-646.755	311.106	0.262	-0.491
-645.741	-192.720	-0.296	-0.003
-644.726	77.322	-0.095	-0.101
-643.711	-200.000	-0.031	-0.164
-642.697	62.927	0.124	-0.124
-641.682	193.338	0.148	-0.224
-640.668	-170.802	-0.168	0.006
-639.653	-200.000	0.013	-0.315
-638.638	-200.000	0.001	-0.018
-637.624	91.205	-0.056	0.063
-636.609	-47.355	0.140	0.068
-635.595	136.940	0.206	0.269
-634.580	176.264	0.059	0.086
-633.565	46.467	-0.138	-0.128
-632.551	584.470	0.160	0.394
-631.536	76.670	0.047	0.050
-630.522	224.288	-0.108	-0.174
-629.507	-45.154	-0.125	0.062
-628.492	-157.117	-0.183	-0.011
-627.478	11.650	0.103	0.079
-626.463	4.173	0.325	-0.238
-625.449	115.407	0.108	0.132
-624.434	-132.870	0.338	-0.043
-623.419	-35.851	-0.294	0.159
-622.405	219.707	-0.189	-0.303
-621.390	-71.961	-0.113	-0.042
-620.376	442.325	-0.039	-0.086
-619.361	-123.793	-0.396	0.063
-618.346	800.000	0.069	0.290
-617.332	193.611	-0.077	0.116
-616.317	-41.701	-0.397	-0.204
-615.303	-154.301	0.374	0.025
-614.288	800.000	-0.059	0.227
-613.273	-115.201	-0.585	-0.111
-612.259	-109.650	0.069	-0.015
-611.244	-79.189	-0.177	-0.060
-610.230	797.129	0.064	-0.177
-609.215	-200.000	0.026	0.348
-608.201	359.624	-0.202	0.405
-607.186	-97.109	0.068	-0.018
-606.171	83.752	-0.123	0.135
-605.157	-200.000	0.002	0.192
-604.142	103.891	0.146	-0.172
-603.128	-200.000	0.009	-0.166
-602.113	-5.429	-0.224	-0.154
-601.098	255.144	0.039	-0.067
-600.084	660.911	-0.017	-0.045
-599.069	39.020	-0.171	-0.152
-598.055	440.503	-0.184	0.402
-597.040	-200.000	-0.041	-0.236
-596.025	-26.366	0.246	0.144
-595.011	76.728	-0.029	0.031
-593.996	243.564	-0.111	-0.186
-592.982	-31.556	0.175	-0.098
-591.967	-41.621	-0.024	0.012
-590.952	-200.000	-0.036	-0.173
-589.938	10.878	-0.362	-0.276
-588.923	800.000	0.043	-0.136
-587.909	489.898	-0.035	0.081
-586.894	653.248	0.101	0.260
-585.879	-81.915	0.221	-0.072
-584.865	-25.775	-0.196	0.115
-583.850	480.499	-0.159	0.361
-582.836	-141.668	-0.066	0.007
-581.821	-200.000	-0.025	0.270
-580.806	336.342	0.046	-0.090
-579.792	299.376	0.053	-0.098
-578.777	800.000	-0.147	-0.440
-577.763	-157.382	0.202	0.012
-576.748	-200.000	-0.044	-0.366
-575.733	529.594	-0.099	-0.233
-574.719	-84.704	-0.117	-0.037
-573.704	-200.000	-0.010	0.131
-572.690	65.014	0.107	-0.108
-571.675	800.000	-0.132	0.436
-570.661	350.891	-0.136	0.268
-569.646	-0.001	-0.274	-0.195
-568.631	800.000	-0.136	-0.398
-567.617	-44.382	0.140	0.070
-566.602	-200.000	-0.020	-0.262
-565.588	-127.476	-0.120	0.017
-564.573	-200.000	0.019	-0.209
-563.558	16.535	-0.111	0.088
-562.544	-121.779	0.177	0.029
-561.529	204.789	-0.126	0.195
-560.515	-200.000	-0.023	0.134
-559.500	-200.000	-0.043	-0.262
-558.485	-94.515	0.135	0.037
-557.471	-28.667	-0.354	-0.203
-556.456	-200.000	-0.024	0.236
-555.442	800.000	-0.050	-0.139
-554.427	-62.075	0.061	0.025
-553.412	74.218	0.086	0.090
-552.398	-200.000	-0.043	-0.355
-551.383	-200.000	0.006	-0.303
-550.369	-143.537	-0.346	-0.033
-549.354	23.811	0.242	0.199
-548.339	-19.435	0.339	0.210
-547.325	-115.607	-0.156	-0.029
-546.310	-200.000	0.137	-0.798
-545.296	-6.177	0.179	-0.122
-544.281	15.837	-0.272	0.213
-543.266	-80.228	0.217	0.072
-542.252	-50.376	-0.227	0.107
-541.237	41.204	-0.160	0.145
-540.223	6.468	0.182	-0.135
-539.208	247.637	0.094	-0.158
-538.193	389.683	0.074	-0.152
-537.179	-66.260	0.198	-0.078
-536.164	-4.696	0.123	0.084
-535.150	115.430	0.049	-0.060
-534.135	19.396	0.022	-0.017
-533.121	682.654	0.026	0.067
-532.106	-3.150	0.069	0.048
-531.091	-147.901	-0.043	0.004
-530.077	-2.328	0.356	0.249
-529.062	-81.776	0.269	-0.088
-528.048	800.000	-0.090	0.367
-527.033	-121.562	-0.322	-0.053
-526.018	-200.000	0.047	0.365
-525.004	-137.625	-0.232	0.026
-523.989	218.296	-0.265	0.422
-522.975	-111.284	0.181	-0.037
-521.960	-6.224	-0.053	0.036
-520.945	-130.277	0.320	-0.043
-519.931	-102.652	0.328	0.078
-518.916	-164.991	0.261	-0.012
-517.902	-137.519	-0.300	-0.034
-516.887	-200.000	-0.003	0.118
-515.872	-200.000	-0.001	-0.036
-514.858	-151.656	0.465	-0.034
-513.843	800.000	0.017	-0.065
-512.829	213.950	-0.270	0.426
-511.814	-200.000	0.047	-0.237
-510.799	35.208	0.121	0.105
-509.785	-200.000	-0.045	-0.327
-508.770	629.160	0.086	-0.216
-507.756	42.622	-0.043	0.039
-506.741	260.526	0.074	-0.127
-505.726	-179.026	-0.250	0.006
-504.712	-120.731	0.090	0.015
-503.697	51.661	-0.172	-0.163
-502.683	280.364	-0.205	0.364
-501.668	591.545	0.145	0.355
-500.653	8.505	0.169	-0.127
-499.639	800.000	0.101	-0.282
-498.624	-200.000	-0.130	-0.000
-497.610	304.192	0.092	-0.170
-496.595	116.322	-0.187	-0.228
-495.581	137.292	0.225	0.292
-494.566	-18.469	0.093	0.058
-493.551	258.882	-0.032	-0.055
-492.537	-31.137	-0.163	-0.091
-491.522	-56.459	-0.141	-0.062
-490.508	322.145	0.135	0.255
-489.493	-22.368	-0.118	-0.071
-488.478	-200.000	0.008	-0.109
-487.464	-200.000	-0.011	-0.222
-486.449	-52.677	-0.225	-0.103
-485.435	-51.313	0.135	-0.063
-484.420	4.993	0.169	-0.124
-483.405	33.911	-0.054	0.047
-482.391	-20.881	0.233	-0.142
-481.376	648.567	0.137	-0.348
-480.362	800.000	-0.042	-0.149
-479.347	-200.000	-0.009	-0.140
-478.332	43.320	-0.134	0.122
-477.318	565.659	0.086	0.207
-476.303	-65.836	0.178	-0.071
-475.289	43.201	-0.039	0.035
-474.274	90.136	0.134	-0.149
-473.259	254.966	0.086	-0.146
-472.245	-68.842	-0.310	0.119
-471.230	168.793	0.076	-0.107
-470.216	-113.561	-0.234	-0.045
-469.201	-200.000	0.004	0.138
-468.186	398.859	0.075	-0.156
-467.172	43.363	-0.218	-0.198
-466.157	287.071	-0.159	0.285
-465.143	800.000	-0.058	0.163
-464.128	-200.000	0.042	0.488
-463.113	-152.389	0.248	0.018
-462.099	10.857	0.124	-0.094
-461.084	-200.000	0.008	0.164
-460.070	-200.000	0.030	-0.146
-459.055	-34.924	-0.355	-0.192
-458.040	800.000	0.073	0.309
-457.026	800.000	-0.004	-0.014
-456.011	800.000	-0.085	-0.284
-454.997	79.318	-0.136	0.145
-453.982	44.460	-0.206	-0.188
-452.968	800.000	-0.035	0.134
-451.953	299.793	-0.090	-0.165
-450.938	353.618	-0.023	-0.046
-449.924	674.453	0.122	-0.315
-448.909	141.690	-0.073	0.096
-447.895	-83.268	0.067	0.021
-446.880	170.456	0.027	-0.038
-445.865	-200.000	0.045	0.303
-444.851	-134.931	-0.271	-0.033
-443.836	-55.105	-0.169	0.076
-442.822	110.345	0.057	-0.068
-441.807	-125.391	0.225	-0.034
-440.792	-116.576	0.168	-0.031
-439.778	-200.000	0.009	0.299
-438.763	-200.000	0.000	-0.072
-437.749	-84.973	0.060	0.019
-436.734	135.343	-0.070	0.090
-435.719	36.397	-0.279	-0.245
-434.705	800.000	0.027	-0.094
-433.690	-1.222	0.152	-0.107
-432.676	-200.000	0.002	0.264
-431.661	-89.359	-0.389	-0.114
-430.646	257.310	-0.150	0.255
-429.632	-200.000	0.000	0.285
-428.617	200.954	0.179	0.273
-427.603	284.323	-0.045	0.081
-426.588	-200.000	-0.028	-0.316
-425.573	-21.030	0.175	-0.106
-424.559	690.915	0.163	-0.424
-423.544	390.619	0.044	-0.090
-422.530	-82.535	0.258	-0.083
-421.515	-200.000	-0.004	-0.229
-420.500	148.092	0.055	0.074
-419.486	161.352	-0.166	0.231
-418.471	-54.954	-0.239	0.107
-417.457	-200.000	-0.060	-0.438
-416.442	800.000	-0.045	-0.146
-415.428	426.685	0.125	-0.267
-414.413	-176.995	0.040	0.001
-413.398	541.244	-0.073	0.173
-412.384	-3.451	0.068	0.047
-411.369	131.013	-0.154	0.197
-410.355	-14.980	-0.174	-0.110
-409.340	-48.932	0.052	0.025
-408.325	800.000	0.078	-0.231
-407.311	201.508	0.123	0.187
-406.296	-144.707	0.400	0.036
-405.282	-200.000	0.000	0.227
-404.267	275.338	0.081	-0.143
-403.252	32.629	0.250	-0.214
-402.238	800.000	0.013	0.053
-401.223	-176.018	-0.390	-0.010
-400.209	379.606	-0.069	-0.140
-399.194	-200.000	0.033	-0.278
-398.179	-109.931	0.062	0.013
-397.165	324.767	0.209	0.397
-396.150	-200.000	0.036	0.214
-395.136	137.504	-0.085	-0.111
-394.121	800.000	-0.032	-0.103
-393.106	380.649	-0.042	0.086
-392.092	181.837	0.142	0.207
-391.077	654.875	0.106	-0.269
-390.063	-85.968	0.361	-0.111
-389.048	-72.323	0.161	0.059
-388.033	386.768	-0.047	0.097
-387.019	-124.484	-0.250	0.039
-386.004	-200.000	-0.023	-0.235
-384.990	-200.000	-0.014	0.136
-383.975	-90.641	0.345	-0.099
-382.960	144.753	-0.126	-0.168
-381.946	-82.997	0.051	-0.016
-380.931	-200.000	-0.020	0.161
-379.917	-35.496	0.137	0.074
-378.902	800.000	-0.141	-0.435
-377.888	-37.758	-0.129	0.068
-376.873	-69.533	0.050	-0.019
-375.858	800.000	-0.033	-0.110
-374.844	-23.896	0.196	-0.116
-373.829	-200.000	0.021	0.227
-372.815	42.107	0.163	-0.146
-371.800	129.333	0.143	0.181
-370.785	89.799	-0.125	0.138
-369.771	-146.130	-0.176	-0.015
-368.756	507.728	0.022	-0.050
-367.742	800.000	0.060	-0.188
-366.727	800.000	-0.070	-0.268
-365.712	-24.362	0.144	0.085
-364.698	460.785	0.073	-0.161
-363.683	155.790	0.053	-0.072
-362.669	-93.420	-0.214	0.059
-361.654	-122.568	-0.214	-0.034
-360.639	800.000	0.076	-0.274
-359.625	-15.793	-0.138	-0.087
-358.610	-72.206	0.172	0.063
-357.596	-200.000	0.040	-0.189
-356.581	-27.572	-0.130	-0.075
-355.566	800.000	-0.025	-0.093
-354.552	2.413	-0.292	0.209
-353.537	215.785	0.074	-0.117
-352.523	-200.000	-0.001	-0.017
-351.508	800.000	-0.013	-0.046
-350.493	51.552	0.181	-0.170
-349.479	-114.134	-0.221	-0.042
-348.464	-109.292	0.047	-0.010
-347.450	-32.136	-0.179	0.099
-346.435	145.451	0.092	0.122
-345.420	-165.014	0.269	0.012
-344.406	233.713	-0.101	-0.165
-343.391	-59.589	0.273	0.116
-342.377	748.254	-0.051	0.136
-341.362	-24.537	-0.133	0.078
-340.348	489.270	0.131	0.296
-339.333	-200.000	0.017	-0.164
-338.318	-200.000	0.064	0.350
-337.304	-166.811	-0.181	0.007
-336.289	-78.907	0.010	-0.003
-335.275	-200.000	-0.025	0.155
-334.260	192.927	-0.042	0.063
-333.245	-200.000	0.219	0.000
-332.231	800.000	0.086	-0.283
-331.216	-200.000	-0.019	0.095
-330.202	-26.871	0.250	-0.144
-329.187	-168.231	0.207	-0.008
-328.172	32.148	0.118	-0.101
-327.158	-80.691	-0.209	-0.069
-326.143	-120.273	-0.285	0.048
-325.129	180.872	-0.104	0.152
-324.114	61.406	-0.111	0.109
-323.099	-95.510	-0.311	0.082
-322.085	446.763	-0.019	-0.042
-321.070	-88.113	0.319	-0.094
-320.056	-3.895	-0.202	0.139
-319.041	-200.000	-0.037	-0.168
-318.026	-200.000	-0.020	-0.255
-317.012	239.481	0.122	0.200
-315.997	-89.522	0.156	0.045
-314.983	-200.000	0.001	0.210
-313.968	129.192	-0.018	-0.022
-312.953	353.471	0.120	-0.236
-311.939	-81.136	0.196	-0.064
-310.924	-200.000	-0.018	0.319
-309.910	800.000	-0.016	0.063
-308.895	-133.110	0.325	0.041
-307.880	197.327	-0.074	-0.112
-306.866	221.884	-0.127	-0.202
-305.851	800.000	0.059	-0.249
-304.837	-82.920	-0.271	0.087
-303.822	-96.456	0.187	0.049
-302.807	366.383	0.092	0.183
-301.793	-62.307	0.048	0.020
-300.778	181.152	0.107	0.155
-299.764	400.202	-0.199	-0.412
-298.749	278.737	-0.116	-0.204
-297.735	-49.555	-0.069	0.033
-296.720	12.588	-0.230	0.176
-295.705	138.440	-0.198	0.256
-294.691	80.869	-0.218	0.232
-293.676	-52.722	0.101	0.046
-292.662	800.000	-0.094	-0.378
-291.647	6.525	-0.140	0.103
-290.632	-200.000	-0.048	0.283
-289.618	565.671	0.121	0.291
-288.603	-184.723	0.260	0.004
-287.589	70.331	0.182	0.185
-286.574	-20.484	-0.107	0.065
-285.559	57.948	0.169	0.164
-284.545	-200.000	0.053	0.237
-283.530	-119.074	-0.116	-0.020
-282.516	-151.963	0.052	-0.004
-281.501	-124.643	-0.421	-0.064
-280.486	-112.212	0.138	0.027
-279.472	-16.304	-0.232	0.145
-278.457	-183.667	-0.375	0.006
-277.443	45.031	0.152	-0.139
-276.428	174.495	-0.103	-0.147
-275.413	-83.056	-0.041	0.013
-274.399	-117.201	-0.201	-0.036
-273.384	-10.229	-0.204	-0.134
-272.370	-55.467	-0.101	-0.045
-271.355	-41.749	0.101	-0.051
-270.340	99.321	0.047	-0.053
-269.326	-140.875	0.279	0.028
-268.311	-88.403	0.461	0.136
-267.297	-44.374	-0.170	0.084
-266.282	28.112	-0.062	-0.052
-265.267	21.360	0.255	-0.204
-264.253	478.681	0.048	0.108
-263.238	-129.881	0.105	-0.014
-262.224	-27.640	-0.243	0.139
-261.209	23.513	0.143	-0.116
-260.195	-71.153	-0.335	0.124
-259.180	471.896	0.104	-0.230
-258.165	113.814	0.080	0.096
-257.151	90.810	0.186	0.205
-256.136	41.367	0.320	-0.286
-255.122	-0.370	-0.228	0.160
-254.107	155.817	0.065	0.088
-253.092	-135.700	-0.090	-0.011
-252.078	-200.000	-0.067	0.317
-251.063	476.586	0.081	-0.180
-250.049	122.146	-0.053	0.066
-249.034	-15.774	-0.124	-0.078
-248.019	52.315	-0.189	0.178
-247.005	126.111	-0.269	0.335
-245.990	356.103	0.039	0.076
-244.976	-140.721	0.172	0.018
-243.961	-200.000	0.007	0.031
-242.946	-200.000	0.009	-0.137
-241.932	-200.000	0.046	0.234
-240.917	197.403	-0.156	0.235
-239.903	-109.294	0.250	-0.052
-238.888	3.182	0.132	0.094
-237.873	-200.000	-0.028	0.135
-236.859	-32.919	-0.183	0.100
-235.844	174.428	0.116	0.165
-234.830	196.082	-0.138	0.207
-233.815	165.826	0.196	0.273
-232.800	427.501	-0.157	0.335
-231.786	800.000	-0.064	0.180
-230.771	-200.000	0.061	0.308
-229.757	-74.379	-0.132	-0.047
-228.742	800.000	0.082	-0.245
-227.727	-79.996	0.168	0.055
-226.713	6.150	-0.166	0.121
-225.698	-137.852	0.118	-0.013
-224.684	189.911	0.271	-0.400
-223.669	-158.130	0.362	0.021
-222.655	-200.000	-0.055	0.461
-221.640	-128.132	0.080	0.011
-220.625	-13.229	-0.143	0.091
-219.611	-134.016	-0.182	-0.022
-218.596	433.283	0.070	-0.149
-217.582	-20.650	0.124	0.075
-216.567	800.000	0.079	0.296
-215.552	189.602	-0.112	-0.165
-214.538	212.864	0.276	-0.428
-213.523	-200.000	0.054	0.324
-212.509	118.503	0.155	-0.189
-211.494	-200.000	0.002	0.054
-210.479	-200.000	0.011	-0.182
-209.465	248.661	0.170	-0.283
-208.450	-200.000	0.006	0.178
-207.436	800.000	-0.013	0.054
-206.421	-43.204	-0.119	-0.059
-205.406	-67.843	0.060	0.023
-204.392	132.774	-0.158	0.200
-203.377	17.964	0.079	-0.062
-202.363	-98.071	-0.257	0.065
-201.348	277.815	-0.088	0.154
-200.333	-40.902	0.113	-0.058
-199.319	-76.399	-0.291	0.101
-198.304	66.777	0.075	0.075
-197.290	-200.000	-0.004	0.064
-196.275	-200.000	-0.028	0.204
-195.260	-200.000	0.026	0.307
-194.246	397.508	0.182	0.374
-193.231	-15.884	-0.174	-0.109
-192.217	-96.550	0.334	0.087
-191.202	-200.000	0.013	0.111
-190.187	1.894	0.181	0.128
-189.173	158.839	-0.024	0.033
-188.158	214.394	-0.172	-0.268
-187.144	184.289	0.225	-0.327
-186.129	-200.000	0.027	0.372
-185.114	392.199	0.078	-0.158
-184.100	-49.366	0.167	-0.078
-183.085	13.460	-0.249	-0.190
-182.071	-142.978	0.256	-0.024
-181.056	-101.830	-0.181	0.043
-180.042	13.281	-0.003	-0.002
-179.027	-200.000	0.026	-0.131
-178.012	-106.170	0.240	-0.053
-176.998	150.408	0.350	0.467
-175.983	18.327	-0.228	0.179
-174.969	52.039	-0.329	0.309
-173.954	-50.796	0.219	-0.101
-172.939	-68.482	-0.081	0.031
-171.925	382.061	-0.074	-0.149
-170.910	-85.914	-0.127	-0.039
-169.896	-36.222	0.102	0.054
-168.881	20.555	0.054	-0.043
-167.866	-43.570	0.149	-0.074
-166.852	-195.346	0.176	0.001
-165.837	-150.964	-0.390	0.029
-164.823	-99.211	0.244	-0.061
-163.808	322.029	0.018	0.033
-162.793	800.000	-0.068	-0.227
-161.779	-200.000	-0.012	-0.154
-160.764	69.049	0.146	0.148
-159.750	-143.444	-0.171	0.016
-158.735	800.000	0.080	0.221
-157.720	-200.000	-0.053	0.259
-156.706	8.194	0.448	-0.330
-155.691	-44.584	-0.372	-0.183
-154.677	-19.399	-0.371	-0.226
-153.662	-200.000	0.021	-0.118
-152.647	-200.000	0.027	-0.260
-151.633	800.000	-0.010	-0.035
-150.618	43.178	0.069	-0.062
-149.604	-79.454	-0.288	0.096
-148.589	-88.363	0.310	-0.091
-147.574	135.837	0.094	0.120
-146.560	-141.077	-0.167	0.017
-145.545	800.000	-0.033	-0.135
-144.531	44.150	0.101	-0.091
-143.516	95.030	0.075	0.084
-142.502	800.000	0.080	0.334
-141.487	-16.594	-0.173	-0.108
-140.472	53.787	0.131	0.124
-139.458	-200.000	-0.018	-0.332
-138.443	-76.701	0.092	0.032
-137.429	-200.000	-0.000	0.030
-136.414	-200.000	-0.001	-0.198
-135.399	219.254	-0.124	-0.195
-134.385	-166.779	0.265	-0.011
-133.370	-175.969	0.160	0.004
-132.356	-200.000	0.005	0.183
-131.341	-180.829	-0.246	-0.005
-130.326	102.030	0.065	0.074
-129.312	-200.000	-0.034	-0.198
-128.297	569.273	0.037	0.088
-127.283	127.624	-0.198	0.247
-126.268	-200.000	0.043	-0.309
-125.253	-141.720	0.288	-0.028
-124.239	800.000	0.041	-0.140
-123.224	-200.000	-0.006	0.136
-122.210	28.727	0.099	0.082
