DTS Sentinel unit serial number:	SN413079Multiplexer serial number:	ORYXHardware model number:	OX4-SRSoftware version number:	ORYX F/W v4.00 Oryx Data Collector v3.7.2.0data status	okinstallation	princeton_trtdifferential loss correction	single-endedforward channel	channel 1reverse channel	N/Adate	2019/09/16time	02:06:35forward acquisition time	60.00reverse acquisition time	0.00gamma	496.2192k internal	0.2332k external	0.2332temperature offset calibration	0.9976default loss term (dB/km)	0.3790temperature slope calibration	1.0000multiplexer offset coefficient	1.0000multiplexer slope coefficient	1.0000fibre end	0.00T internal ref (°C)	27.50T ext. ref 1 (°C)	10.12T ext. ref 2 (°C)	22.42length (m)	temperature (°C)	Stokes	anti-Stokes-747.200	88.569	-0.217	-0.243
-746.185	175.050	0.210	0.306
-745.171	3.699	0.273	0.201
-744.156	-118.599	-0.185	-0.033
-743.142	-200.000	0.003	0.094
-742.127	470.398	0.088	-0.200
-741.112	-58.568	0.444	0.194
-740.098	-200.000	-0.089	0.395
-739.083	130.603	-0.063	-0.081
-738.069	457.177	0.118	-0.263
-737.054	172.882	0.043	-0.062
-736.039	800.000	-0.108	-0.355
-735.025	-39.336	-0.213	-0.113
-734.010	-91.530	-0.294	-0.084
-732.996	36.332	-0.403	-0.358
-731.981	-142.064	-0.324	0.032
-730.966	-17.616	0.270	-0.171
-729.952	3.134	-0.309	-0.226
-728.937	-30.255	-0.124	0.071
-727.923	25.508	-0.100	0.084
-726.908	-200.000	-0.008	-0.101
-725.894	-109.522	-0.186	0.039
-724.879	-149.539	-0.098	-0.008
-723.864	800.000	-0.069	-0.220
-722.850	-200.000	0.021	-0.442
-721.835	800.000	-0.048	0.169
-720.821	766.791	0.069	0.188
-719.806	68.482	-0.140	0.144
-718.791	-200.000	0.010	0.159
-717.777	-64.897	-0.247	-0.101
-716.762	-200.000	-0.009	-0.234
-715.748	368.889	-0.130	-0.265
-714.733	176.641	-0.074	0.107
-713.718	295.438	0.214	-0.394
-712.704	394.491	-0.117	-0.246
-711.689	-110.096	0.189	0.040
-710.675	5.816	-0.164	0.122
-709.660	115.506	0.245	-0.301
-708.645	-65.880	0.272	-0.109
-707.631	307.901	0.102	0.190
-706.616	800.000	0.106	-0.309
-705.602	-159.779	0.125	-0.007
-704.587	129.473	0.054	-0.069
-703.572	-18.276	-0.139	0.087
-702.558	-45.307	-0.058	-0.029
-701.543	501.979	0.064	0.148
-700.529	279.709	0.049	-0.088
-699.514	-20.231	0.149	0.092
-698.499	800.000	0.075	-0.292
-697.485	-130.975	0.185	0.025
-696.470	800.000	-0.101	-0.311
-695.456	462.435	-0.103	0.232
-694.441	-143.056	0.243	-0.024
-693.426	-200.000	0.046	-0.272
-692.412	800.000	-0.047	0.190
-691.397	-126.099	-0.041	0.006
-690.383	48.421	-0.298	-0.280
-689.368	-60.454	0.166	0.071
-688.354	-200.000	0.037	0.163
-687.339	-200.000	0.014	-0.076
-686.324	-121.168	-0.074	-0.012
-685.310	86.369	-0.114	0.126
-684.295	245.495	0.071	0.120
-683.281	347.082	0.069	-0.137
-682.266	-14.918	-0.166	-0.107
-681.251	-200.000	-0.036	-0.182
-680.237	46.424	0.179	-0.167
-679.222	-59.299	-0.351	0.152
-678.208	-126.647	-0.284	-0.042
-677.193	800.000	-0.086	-0.356
-676.178	-64.383	0.290	-0.118
-675.164	800.000	-0.069	-0.194
-674.149	7.550	0.188	0.141
-673.135	800.000	0.062	0.259
-672.120	-200.000	0.007	0.058
-671.105	-200.000	-0.022	-0.204
-670.091	-200.000	0.008	-0.251
-669.076	337.827	0.140	0.274
-668.062	-23.504	0.119	0.072
-667.047	522.971	-0.131	0.308
-666.032	-185.972	-0.198	-0.003
-665.018	-146.400	-0.231	0.020
-664.003	800.000	-0.023	0.069
-662.989	291.200	0.039	0.071
-661.974	-200.000	0.023	0.156
-660.959	-200.000	0.008	-0.099
-659.945	-84.309	0.174	0.055
-658.930	-27.932	-0.174	0.101
-657.916	-24.965	0.167	-0.100
-656.901	105.930	0.157	0.186
-655.886	15.186	-0.120	0.094
-654.872	-44.248	-0.335	-0.168
-653.857	-200.000	-0.021	-0.129
-652.843	147.188	0.091	0.123
-651.828	-0.957	-0.166	-0.118
-650.814	-200.000	-0.012	0.078
-649.799	55.690	-0.059	0.057
-648.784	33.624	-0.069	0.060
-647.770	800.000	-0.098	-0.321
-646.755	-36.971	0.356	-0.191
-645.741	123.542	0.095	-0.120
-644.726	800.000	0.123	-0.435
-643.711	-55.427	0.128	-0.057
-642.697	-77.415	0.018	0.006
-641.682	-35.666	0.077	0.042
-640.668	-66.122	0.161	-0.064
-639.653	368.213	-0.046	0.093
-638.638	242.861	-0.030	0.051
-637.624	87.967	-0.103	-0.115
-636.609	619.082	0.057	0.144
-635.595	287.859	-0.192	0.348
-634.580	79.868	0.179	0.193
-633.565	9.081	-0.074	-0.056
-632.551	117.105	-0.210	-0.259
-631.536	-200.000	0.018	0.156
-630.522	26.083	-0.042	-0.035
-629.507	-123.611	0.067	0.011
-628.492	-200.000	-0.024	-0.205
-627.478	-81.420	-0.260	-0.086
-626.463	-96.395	0.432	-0.114
-625.449	111.476	-0.103	0.125
-624.434	516.638	-0.081	-0.190
-623.419	800.000	-0.036	-0.120
-622.405	-65.531	0.233	0.094
-621.390	-21.248	0.298	-0.182
-620.376	-140.141	-0.365	0.038
-619.361	800.000	0.056	0.217
-618.346	10.866	0.260	-0.199
-617.332	-38.568	-0.263	-0.139
-616.317	-118.764	-0.006	0.001
-615.303	-110.238	-0.143	0.030
-614.288	-200.000	0.050	-0.291
-613.273	-124.617	0.082	-0.013
-612.259	81.766	0.187	0.202
-611.244	-200.000	0.009	0.210
-610.230	131.481	-0.086	0.110
-609.215	-74.532	-0.407	0.147
-608.201	-200.000	0.040	0.299
-607.186	-44.911	-0.066	0.033
-606.171	-122.528	0.124	0.020
-605.157	-11.257	0.157	-0.103
-604.142	217.584	-0.158	-0.251
-603.128	-65.010	-0.069	-0.028
-602.113	-58.372	-0.298	0.129
-601.098	-54.536	-0.060	0.027
-600.084	-200.000	0.022	-0.314
-599.069	-134.739	0.277	-0.034
-598.055	-146.140	-0.198	0.017
-597.040	-143.257	0.204	-0.020
-596.025	-200.000	0.060	0.278
-595.011	-29.208	-0.323	0.185
-593.996	107.465	-0.032	-0.038
-592.982	-148.183	0.105	0.009
-591.967	-200.000	0.011	0.401
-590.952	800.000	-0.106	0.424
-589.938	-200.000	0.033	0.265
-588.923	800.000	0.106	0.378
-587.909	-200.000	-0.008	-0.228
-586.894	-140.526	0.278	-0.029
-585.879	83.094	-0.256	0.278
-584.865	-67.341	-0.336	0.132
-583.850	20.588	-0.181	-0.147
-582.836	-116.417	-0.153	-0.028
-581.821	-200.000	0.019	-0.173
-580.806	791.661	-0.033	-0.090
-579.792	757.683	0.084	0.227
-578.777	65.326	0.166	-0.168
-577.763	-200.000	0.021	0.498
-576.748	-50.840	0.188	0.088
-575.733	-114.127	0.106	-0.021
-574.719	373.060	-0.097	0.197
-573.704	-16.825	0.160	0.101
-572.690	-200.000	-0.044	-0.208
-571.675	-69.162	0.222	0.086
-570.661	-46.531	-0.122	-0.060
-569.646	-200.000	-0.033	-0.209
-568.631	736.063	-0.037	0.100
-567.617	800.000	0.038	0.111
-566.602	800.000	-0.018	-0.076
-565.588	210.810	-0.078	-0.122
-564.573	-200.000	0.005	0.501
-563.558	-19.922	-0.239	-0.148
-562.544	-69.216	-0.240	-0.092
-561.529	800.000	-0.060	0.221
-560.515	130.649	0.038	-0.048
-559.500	210.052	0.031	0.048
-558.485	-2.622	-0.074	0.052
-557.471	-112.829	0.125	-0.025
-556.456	105.239	-0.087	-0.103
-555.442	-38.343	0.174	-0.092
-554.427	-117.191	-0.270	0.049
-553.412	34.368	0.034	-0.030
-552.398	48.687	-0.231	-0.216
-551.383	800.000	0.091	0.339
-550.369	-7.048	-0.199	-0.135
-549.354	-96.821	0.303	-0.079
-548.339	-165.313	0.204	0.009
-547.325	-137.565	0.060	0.007
-546.310	150.569	-0.053	-0.072
-545.296	800.000	0.033	-0.137
-544.281	56.556	0.052	0.051
-543.266	151.187	0.150	0.204
-542.252	800.000	-0.067	0.197
-541.237	-52.286	0.103	0.048
-540.223	800.000	0.090	-0.312
-539.208	-200.000	-0.005	0.173
-538.193	-95.206	-0.495	-0.133
-537.179	-200.000	-0.000	-0.406
-536.164	-114.755	0.046	-0.009
-535.150	-200.000	-0.008	0.376
-534.135	427.460	0.020	-0.044
-533.121	-55.889	0.211	-0.094
-532.106	131.721	0.067	-0.086
-531.091	-200.000	0.065	-0.321
-530.077	-200.000	0.045	-0.291
-529.062	-200.000	0.020	-0.235
-528.048	-88.950	0.075	-0.022
-527.033	55.471	0.289	-0.279
-526.018	-180.520	-0.430	-0.009
-525.004	136.875	-0.084	-0.110
-523.989	-200.000	0.075	-0.489
-522.975	-126.714	-0.317	0.047
-521.960	295.461	-0.072	0.131
-520.945	-47.058	-0.122	-0.059
-519.931	-200.000	-0.004	-0.085
-518.916	184.500	0.130	-0.192
-517.902	-155.525	0.323	-0.021
-516.887	348.127	-0.073	0.144
-515.872	-200.000	-0.062	-0.304
-514.858	350.403	-0.051	0.101
-513.843	185.011	0.130	-0.193
-512.829	-32.497	-0.157	-0.087
-511.814	-107.442	-0.269	0.059
-510.799	-157.896	0.117	-0.007
-509.785	-200.000	-0.024	-0.212
-508.770	-139.583	-0.026	-0.003
-507.756	202.444	0.152	0.234
-506.741	7.134	-0.129	0.096
-505.726	-92.878	-0.240	-0.067
-504.712	-200.000	-0.023	0.118
-503.697	25.765	0.192	-0.159
-502.683	228.316	-0.071	0.115
-501.668	171.378	-0.026	0.037
-500.653	-67.393	0.359	0.140
-499.639	-30.219	-0.021	-0.012
-498.624	-200.000	-0.010	0.091
-497.610	371.786	-0.051	0.104
-496.595	-91.956	0.283	-0.080
-495.581	-30.537	-0.133	0.075
-494.566	-37.707	-0.246	-0.130
-493.551	316.013	0.059	0.111
-492.537	-48.283	-0.075	0.036
-491.522	-6.937	0.305	0.207
-490.508	-8.165	0.259	-0.174
-489.493	-200.000	-0.036	-0.338
-488.478	66.984	0.012	0.012
-487.464	16.280	0.296	-0.232
-486.449	-193.893	-0.437	0.004
-485.435	27.516	-0.127	0.106
-484.420	-129.855	0.128	0.017
-483.405	408.461	-0.159	0.335
-482.391	538.096	0.050	-0.118
-481.376	18.885	-0.282	-0.225
-480.362	589.470	-0.137	-0.336
-479.347	252.407	-0.045	-0.077
-478.332	-200.000	-0.039	-0.183
-477.318	103.719	0.219	0.256
-476.303	266.293	-0.029	-0.051
-475.289	-17.661	-0.285	-0.178
-474.274	20.260	0.337	-0.271
-473.259	-122.329	-0.050	0.008
-472.245	-162.009	-0.297	0.015
-471.230	545.484	-0.115	-0.274
-470.216	749.213	-0.034	0.090
-469.201	199.342	0.067	-0.103
-468.186	-200.000	0.000	-0.238
-467.172	148.532	-0.138	0.186
-466.157	-200.000	-0.039	0.200
-465.143	315.189	-0.132	-0.249
-464.128	373.239	0.018	-0.036
-463.113	-33.204	0.135	-0.074
-462.099	-104.209	0.426	-0.098
-461.084	-200.000	-0.028	-0.216
-460.070	205.724	0.073	-0.113
-459.055	-200.000	0.019	-0.275
-458.040	59.212	-0.241	0.236
-457.026	-200.000	-0.026	0.238
-456.011	-127.681	0.217	0.031
-454.997	140.555	0.113	-0.149
-453.982	-38.564	0.040	0.021
-452.968	-200.000	-0.012	-0.090
-451.953	105.569	0.242	-0.284
-450.938	800.000	0.170	-0.650
-449.924	603.668	0.043	0.106
-448.909	468.855	-0.134	-0.298
-447.895	713.436	-0.047	-0.125
-446.880	800.000	-0.011	-0.035
-445.865	-137.635	0.339	-0.038
-444.851	-200.000	0.000	0.046
-443.836	-26.734	0.065	0.038
-442.822	-11.750	0.222	-0.145
-441.807	164.177	-0.098	0.137
-440.792	-128.763	0.179	0.025
-439.778	-200.000	-0.058	-0.405
-438.763	-119.851	-0.424	0.073
-437.749	-71.317	-0.228	-0.085
-436.734	-200.000	0.045	-0.281
-435.719	667.131	0.038	0.097
-434.705	-200.000	0.028	-0.418
-433.690	800.000	-0.138	-0.385
-432.676	252.106	0.197	0.333
-431.661	785.493	0.069	-0.188
-430.646	28.700	0.214	0.180
-429.632	280.324	-0.234	0.416
-428.617	-200.000	0.021	0.198
-427.603	-200.000	0.081	-0.000
-426.588	176.121	-0.177	0.256
-425.573	172.878	-0.038	0.054
-424.559	-108.451	0.551	0.118
-423.544	-165.625	-0.084	-0.004
-422.530	192.444	-0.079	-0.118
-421.515	4.464	0.232	-0.169
-420.500	-135.506	-0.281	0.033
-419.486	-200.000	-0.044	0.447
-418.471	242.864	-0.212	0.354
-417.457	226.646	0.090	-0.145
-416.442	-4.993	0.122	0.084
-415.428	289.670	0.084	-0.152
-414.413	-66.490	0.172	0.068
-413.398	134.220	-0.196	0.252
-412.384	11.832	0.141	-0.108
-411.369	-105.826	-0.327	-0.073
-410.355	55.512	0.259	0.249
-409.340	86.235	-0.150	-0.164
-408.325	-200.000	-0.067	0.000
-407.311	-200.000	-0.040	0.186
-406.296	363.918	-0.092	0.183
-405.282	800.000	0.021	-0.059
-404.267	116.043	-0.046	-0.055
-403.252	-200.000	-0.010	-0.051
-402.238	-108.176	0.264	-0.057
-401.223	58.562	0.063	-0.062
-400.209	119.694	-0.172	-0.212
-399.194	233.095	0.085	-0.138
-398.179	40.150	0.084	0.075
-397.165	186.643	-0.275	-0.407
-396.150	-64.355	0.194	0.078
-395.136	-113.148	0.230	0.045
-394.121	138.032	0.069	-0.089
-393.106	381.702	-0.070	-0.143
-392.092	327.219	-0.172	-0.327
-391.077	-72.322	-0.304	-0.112
-390.063	383.485	-0.114	-0.233
-389.048	55.940	0.071	0.068
-388.033	-41.063	-0.254	-0.130
-387.019	800.000	0.024	-0.094
-386.004	800.000	0.113	-0.330
-384.990	-5.204	-0.140	-0.096
-383.975	76.383	-0.243	0.255
-382.960	650.086	-0.037	0.094
-381.946	55.102	-0.211	-0.202
-380.931	-67.648	-0.158	-0.062
-379.917	339.979	0.105	-0.202
-378.902	203.333	0.041	-0.064
-377.888	215.922	-0.230	0.363
-376.873	-200.000	0.019	-0.085
-375.858	-199.128	0.161	-0.001
-374.844	-83.267	0.416	0.132
-373.829	-77.898	0.397	0.136
-372.815	-148.883	-0.171	0.014
-371.800	360.688	-0.107	0.213
-370.785	-200.000	0.010	0.241
-369.771	800.000	0.020	0.088
-368.756	157.597	0.151	0.207
-367.742	10.507	0.088	0.067
-366.727	516.436	0.082	-0.191
-365.712	-157.606	-0.321	0.019
-364.698	225.044	-0.130	-0.209
-363.683	116.133	0.052	-0.063
-362.669	-157.368	-0.388	-0.023
-361.654	-119.055	0.177	0.031
-360.639	-200.000	0.051	0.250
-359.625	-60.217	0.272	-0.115
-358.610	800.000	-0.075	-0.208
-357.596	77.386	0.294	-0.310
-356.581	222.083	-0.233	0.371
-355.566	-200.000	0.017	-0.092
-354.552	-200.000	0.009	0.254
-353.537	-200.000	-0.002	0.161
-352.523	-4.807	0.229	-0.157
-351.508	-77.771	-0.215	-0.074
-350.493	35.045	-0.155	-0.135
-349.479	-95.372	-0.163	-0.043
-348.464	-89.594	0.108	-0.031
-347.450	100.792	0.117	-0.135
-346.435	-200.000	0.031	-0.228
-345.420	-18.166	-0.155	-0.096
-344.406	72.260	0.229	-0.236
-343.391	310.197	0.103	0.191
-342.377	-95.710	0.250	0.066
-341.362	434.291	-0.009	0.019
-340.348	-200.000	0.019	0.178
-339.333	-200.000	0.026	0.296
-338.318	19.605	0.221	0.176
-337.304	-200.000	-0.027	-0.166
-336.289	-73.710	0.057	0.021
-335.275	-200.000	0.015	-0.069
-334.260	215.142	-0.076	0.119
-333.245	100.740	0.122	-0.140
-332.231	-160.229	0.157	0.008
-331.216	296.056	0.040	0.072
-330.202	-111.487	0.026	0.005
-329.187	673.837	-0.061	-0.157
-328.172	223.761	-0.072	-0.115
-327.158	-200.000	0.063	0.291
-326.143	-200.000	0.024	-0.159
-325.129	-46.844	0.092	-0.045
-324.114	-200.000	-0.005	0.112
-323.099	-200.000	0.029	0.291
-322.085	292.394	-0.102	0.183
-321.070	-140.015	-0.094	0.010
-320.056	-5.047	-0.303	-0.206
-319.041	-77.514	0.237	0.082
-318.026	36.954	-0.350	0.306
-317.012	800.000	0.099	0.276
-315.997	-193.099	0.412	-0.004
-314.983	-147.945	-0.481	-0.040
-313.968	346.665	-0.064	-0.124
-312.953	-172.711	-0.195	-0.006
-311.939	134.538	-0.215	0.276
-310.924	283.884	0.093	-0.166
-309.910	121.909	0.143	0.177
-308.895	-5.205	-0.235	0.160
-307.880	268.457	0.102	-0.176
-306.866	405.075	-0.022	-0.045
-305.851	-101.403	-0.247	0.059
-304.837	-109.217	-0.345	0.072
-303.822	356.082	-0.014	0.027
-302.807	-51.139	-0.174	0.080
-301.793	141.920	-0.228	-0.300
-300.778	415.360	-0.061	-0.129
-299.764	-84.855	-0.293	-0.091
-298.749	125.096	0.197	0.245
-297.735	-86.907	0.170	-0.051
-296.720	226.868	-0.085	0.137
-295.705	46.218	-0.225	-0.206
-294.691	35.099	-0.125	-0.108
-293.676	343.118	0.077	-0.150
-292.662	-200.000	0.005	0.029
-291.647	191.120	-0.131	-0.194
-290.632	800.000	-0.067	-0.262
-289.618	148.766	0.187	-0.250
-288.603	-14.554	-0.132	0.084
-287.589	538.220	0.177	0.416
-286.574	-50.572	0.394	-0.183
-285.559	243.748	0.093	-0.154
-284.545	77.498	0.142	-0.149
-283.530	151.994	-0.134	-0.180
-282.516	9.392	0.003	0.002
-281.501	-119.301	-0.369	0.063
-280.486	647.630	0.118	-0.297
-279.472	-99.771	-0.412	0.102
-278.457	800.000	-0.075	0.322
-277.443	800.000	0.076	0.261
-276.428	-45.348	-0.227	-0.111
-275.413	168.422	-0.278	0.391
-274.399	-43.404	-0.106	-0.053
-273.384	239.308	-0.094	-0.155
-272.370	486.846	0.087	0.196
-271.355	-82.249	-0.213	-0.068
-270.340	-75.239	-0.081	-0.029
-269.326	-13.753	0.303	0.194
-268.311	-163.701	0.283	-0.013
-267.297	-80.930	0.090	0.029
-266.282	-200.000	0.016	0.257
-265.267	-200.000	0.007	-0.093
-264.253	344.099	0.050	0.097
-263.238	-200.000	0.015	0.072
-262.224	20.882	0.084	-0.067
-261.209	-75.868	0.185	0.065
-260.195	-123.782	0.141	-0.022
-259.180	74.589	0.140	0.146
-258.165	-200.000	-0.026	0.146
-257.151	218.448	-0.119	-0.188
-256.136	-86.669	0.091	-0.027
-255.122	-18.845	-0.093	0.057
-254.107	-20.367	0.258	0.157
-253.092	66.386	0.061	0.062
-252.078	-22.964	0.162	0.097
-251.063	-160.349	0.225	-0.012
-250.049	800.000	0.076	0.283
-249.034	-200.000	0.042	0.204
-248.019	-200.000	-0.025	0.285
-247.005	483.088	-0.101	-0.227
-245.990	78.787	0.168	0.177
-244.976	-200.000	-0.043	-0.251
-243.961	800.000	0.036	-0.153
-242.946	245.289	0.075	0.124
-241.932	-107.387	-0.454	-0.098
-240.917	-68.714	0.276	0.105
-239.903	800.000	-0.048	0.142
-238.888	-8.530	0.228	-0.151
-237.873	9.010	-0.227	-0.169
-236.859	197.659	0.047	0.071
-235.844	291.575	-0.058	0.104
-234.830	252.196	-0.086	-0.144
-233.815	-56.736	0.154	0.067
-232.800	-130.791	0.243	-0.032
-231.786	463.113	0.137	0.301
-230.771	-6.406	-0.249	0.167
-229.757	302.383	-0.083	0.151
-228.742	-114.099	0.141	0.027
-227.727	407.861	-0.073	0.153
-226.713	37.122	-0.005	0.004
-225.698	5.997	0.026	-0.019
-224.684	-178.597	0.062	0.001
-223.669	41.617	-0.126	-0.112
-222.655	800.000	0.104	0.432
-221.640	-54.205	0.428	-0.192
-220.625	800.000	0.010	-0.031
-219.611	800.000	-0.035	0.141
-218.596	-40.941	-0.026	0.013
-217.582	800.000	0.034	0.094
-216.567	159.722	-0.169	0.232
-215.552	-200.000	0.010	0.167
-214.538	270.687	-0.034	0.059
-213.523	-20.865	0.072	-0.044
-212.509	-169.365	0.096	-0.003
-211.494	-200.000	0.000	0.069
-210.479	-2.915	0.270	0.186
-209.465	-103.467	-0.195	-0.045
-208.450	-200.000	0.061	0.293
-207.436	-178.468	0.079	0.002
-206.421	363.082	0.015	-0.030
-205.406	800.000	-0.048	0.140
-204.392	-29.483	0.202	-0.114
-203.377	113.888	0.015	-0.017
-202.363	-32.813	-0.249	0.136
-201.348	-200.000	0.040	-0.394
-200.333	118.662	0.150	0.183
-199.319	-200.000	0.004	0.211
-198.304	114.577	-0.087	-0.105
-197.290	67.141	0.203	-0.204
-196.275	-8.460	0.233	-0.154
-195.260	30.582	0.232	-0.195
-194.246	-10.249	-0.315	0.206
-193.231	21.749	0.292	0.234
-192.217	-200.000	-0.047	0.228
-191.202	-200.000	0.015	-0.192
-190.187	-200.000	0.006	-0.129
-189.173	214.024	0.210	0.327
-188.158	9.924	0.087	-0.065
-187.144	800.000	-0.065	-0.206
-186.129	-6.612	0.132	-0.088
-185.114	38.565	0.132	-0.116
-184.100	800.000	-0.029	0.107
-183.085	800.000	0.099	0.425
-182.071	100.064	-0.204	0.233
-181.056	-88.530	-0.301	-0.088
-180.042	74.889	-0.256	0.266
-179.027	-200.000	-0.008	-0.119
-178.012	49.855	-0.262	0.243
-176.998	147.446	0.092	-0.122
-175.983	800.000	-0.130	0.391
-174.969	111.440	0.159	0.189
-173.954	-200.000	-0.018	0.084
-172.939	-104.417	0.331	0.075
-171.925	-37.682	-0.319	-0.167
-170.910	14.271	0.072	-0.055
-169.896	-154.283	-0.408	0.027
-168.881	-200.000	0.059	-0.320
-167.866	800.000	-0.028	-0.090
-166.852	-62.078	-0.200	0.082
-165.837	-37.106	0.200	0.105
-164.823	112.541	0.106	0.126
-163.808	-68.209	0.279	0.107
-162.793	290.303	-0.048	-0.085
-161.779	-3.806	-0.340	-0.232
-160.764	566.861	0.198	0.474
-159.750	-132.266	-0.304	-0.039
-158.735	41.040	-0.229	-0.204
-157.720	27.973	-0.051	-0.043
-156.706	117.679	-0.103	0.125
-155.691	-200.000	-0.032	0.138
-154.677	-49.691	0.353	0.165
-153.662	-1.813	-0.137	-0.095
-152.647	-200.000	0.006	-0.055
-151.633	-49.180	0.433	-0.203
-150.618	-200.000	-0.041	0.411
-149.604	-22.542	-0.025	0.015
-148.589	22.195	0.243	-0.195
-147.574	151.816	0.229	0.307
-146.560	-11.108	0.221	-0.143
-145.545	330.850	-0.177	0.336
-144.531	-36.590	0.224	-0.118
-143.516	-125.652	-0.230	0.034
-142.502	67.308	0.109	0.109
-141.487	-121.766	0.302	-0.049
-140.472	-5.536	-0.099	-0.067
-139.458	-16.459	0.207	0.129
-138.443	-16.911	-0.290	-0.180
-137.429	-48.932	-0.134	-0.063
-136.414	-138.162	-0.155	0.017
-135.399	559.372	0.006	0.013
-134.385	-200.000	0.005	-0.033
-133.370	800.000	-0.133	0.404
-132.356	6.314	0.096	-0.070
-131.341	211.401	-0.010	0.015
-130.326	-174.512	0.046	-0.001
-129.312	1.918	0.235	0.166
-128.297	50.524	0.413	-0.384
-127.283	612.116	0.165	0.404
-126.268	-200.000	-0.011	0.161
-125.253	19.113	-0.251	0.198
-124.239	93.015	-0.129	0.143
-123.224	-200.000	-0.008	-0.156
-122.210	-82.001	0.388	0.124
-121.195	-178.535	-0.075	0.002
