DTS Sentinel unit serial number:	SN413079Multiplexer serial number:	ORYXHardware model number:	OX4-SRSoftware version number:	ORYX F/W v4.00 Oryx Data Collector v3.7.2.0data status	okinstallation	princeton_trtdifferential loss correction	single-endedforward channel	channel 1reverse channel	N/Adate	2019/09/17time	16:06:35forward acquisition time	60.00reverse acquisition time	0.00gamma	496.2192k internal	0.2291k external	0.2291temperature offset calibration	0.9954default loss term (dB/km)	0.3790temperature slope calibration	1.0000multiplexer offset coefficient	1.0000multiplexer slope coefficient	1.0000fibre end	0.00T internal ref (°C)	40.30T ext. ref 1 (°C)	0.38T ext. ref 2 (°C)	38.72length (m)	temperature (°C)	Stokes	anti-Stokes-747.200	-6.739	-0.258	0.180
-746.185	-200.000	-0.050	0.390
-745.171	390.579	0.174	-0.369
-744.156	-200.000	0.024	0.252
-743.142	800.000	-0.091	0.333
-742.127	800.000	-0.137	-0.535
-741.112	-200.000	-0.016	-0.113
-740.098	426.793	0.215	0.474
-739.083	-41.352	0.082	-0.043
-738.069	144.602	0.169	0.232
-737.054	800.000	0.090	-0.254
-736.039	-114.502	-0.310	-0.061
-735.025	-109.323	0.116	-0.025
-734.010	-37.188	-0.440	0.241
-732.996	453.558	-0.059	0.133
-731.981	-200.000	0.034	0.192
-730.966	-80.680	-0.334	-0.114
-729.952	-40.986	0.397	-0.210
-728.937	-156.892	-0.300	0.019
-727.923	-103.355	-0.263	-0.063
-726.908	-200.000	-0.240	-0.000
-725.894	23.002	-0.108	-0.091
-724.879	-19.621	-0.426	0.270
-723.864	-200.000	0.002	-0.244
-722.850	432.929	-0.078	-0.173
-721.835	-15.843	-0.113	-0.073
-720.821	-63.008	-0.357	0.151
-719.806	-197.066	0.343	0.002
-718.791	-82.707	-0.155	-0.051
-717.777	178.200	0.088	-0.131
-716.762	330.430	0.134	0.264
-715.748	-143.949	-0.102	0.010
-714.733	-200.000	-0.022	-0.239
-713.718	110.212	0.070	-0.086
-712.704	110.599	-0.267	-0.328
-711.689	216.431	-0.067	-0.110
-710.675	34.281	0.071	0.063
-709.660	-200.000	0.007	-0.165
-708.645	99.330	-0.162	-0.191
-707.631	260.711	0.119	0.210
-706.616	319.042	-0.116	-0.225
-705.602	-12.355	-0.249	-0.166
-704.587	107.358	-0.066	-0.081
-703.572	112.279	0.122	-0.151
-702.558	-200.000	-0.018	-0.092
-701.543	114.966	0.084	0.104
-700.529	118.836	-0.082	0.104
-699.514	-200.000	0.080	-0.482
-698.499	205.141	-0.066	-0.105
-697.485	-52.235	-0.226	0.107
-696.470	32.272	-0.085	0.075
-695.456	-109.493	0.219	0.047
-694.441	-24.600	0.324	0.197
-693.426	-28.962	0.175	0.103
-692.412	247.823	-0.093	0.160
-691.397	-124.376	-0.240	0.038
-690.383	196.072	-0.166	0.259
-689.368	-14.621	-0.066	-0.044
-688.354	-200.000	-0.034	-0.225
-687.339	-80.604	-0.079	-0.027
-686.324	651.250	0.087	0.228
-685.310	-200.000	-0.063	0.350
-684.295	800.000	-0.023	0.097
-683.281	31.226	-0.111	0.097
-682.266	-197.504	-0.210	0.001
-681.251	800.000	0.106	-0.401
-680.237	-200.000	0.029	-0.137
-679.222	5.868	0.171	-0.129
-678.208	157.307	-0.069	0.097
-677.193	-123.271	0.125	-0.020
-676.178	-128.251	0.114	-0.017
-675.164	17.257	0.151	0.123
-674.149	377.774	0.121	-0.253
-673.135	-200.000	-0.000	0.034
-672.120	772.872	0.092	-0.256
-671.105	49.547	0.055	0.053
-670.091	-189.266	0.062	-0.001
-669.076	-150.120	-0.204	-0.016
-668.062	-86.381	0.192	0.060
-667.047	127.018	0.240	0.310
-666.032	-31.570	0.105	0.060
-665.018	-80.288	0.072	-0.024
-664.003	-200.000	-0.017	0.087
-662.989	800.000	-0.078	0.267
-661.974	-104.886	-0.121	-0.028
-660.959	-146.753	0.242	-0.021
-659.945	-114.157	-0.197	-0.039
-658.930	-151.407	0.352	0.027
-657.916	429.595	-0.030	0.067
-656.901	-9.517	-0.280	-0.191
-655.886	-114.161	-0.226	-0.044
-654.872	83.350	-0.100	-0.112
-653.857	-140.648	-0.182	0.019
-652.843	24.760	0.286	0.242
-651.828	135.620	0.079	-0.105
-650.814	283.182	-0.226	0.415
-649.799	-72.754	0.343	0.129
-648.784	-120.777	0.242	-0.042
-647.770	254.155	-0.062	-0.108
-646.755	-200.000	0.014	-0.151
-645.741	-157.138	-0.261	-0.016
-644.726	128.394	0.041	0.054
-643.711	-81.488	0.315	0.106
-642.697	2.142	-0.193	0.142
-641.682	100.367	-0.050	0.059
-640.668	-100.507	-0.355	0.090
-639.653	47.851	-0.156	-0.149
-638.638	75.093	0.115	-0.124
-637.624	-164.173	0.107	-0.005
-636.609	210.002	0.241	-0.386
-635.595	-78.686	-0.079	0.027
-634.580	-200.000	-0.084	0.443
-633.565	-120.397	0.241	-0.042
-632.551	-132.224	-0.353	-0.047
-631.536	270.778	0.046	-0.082
-630.522	-200.000	-0.051	0.417
-629.507	22.677	-0.133	0.111
-628.492	154.090	-0.207	0.289
-627.478	-200.000	0.004	0.104
-626.463	-153.697	-0.240	0.017
-625.449	-38.902	-0.383	-0.206
-624.434	-99.003	-0.249	-0.064
-623.419	-68.853	-0.213	-0.084
-622.405	-90.939	-0.029	0.008
-621.390	62.325	-0.265	-0.269
-620.376	-124.089	0.388	-0.062
-619.361	800.000	0.085	-0.264
-618.346	0.834	0.057	-0.042
-617.332	432.031	0.130	0.287
-616.317	-200.000	-0.053	-0.285
-615.303	618.612	0.098	-0.250
-614.288	158.996	-0.155	-0.220
-613.273	-200.000	0.044	-0.209
-612.259	-117.230	-0.157	-0.029
-611.244	800.000	-0.069	-0.233
-610.230	800.000	-0.062	-0.233
-609.215	72.290	-0.184	-0.195
-608.201	229.350	-0.179	0.297
-607.186	-129.820	0.313	0.044
-606.171	92.001	-0.046	-0.053
-605.157	-200.000	0.032	0.227
-604.142	-165.412	0.096	-0.004
-603.128	291.852	0.144	-0.266
-602.113	-75.921	-0.113	-0.041
-601.098	687.665	0.089	0.236
-600.084	486.673	0.084	-0.195
-599.069	-114.127	-0.156	0.031
-598.055	129.090	0.144	-0.187
-597.040	-50.491	-0.208	-0.100
-596.025	75.535	-0.066	-0.071
-595.011	62.939	-0.170	-0.174
-593.996	-60.070	-0.077	-0.033
-592.982	107.764	-0.293	-0.356
-591.967	228.421	0.095	-0.158
-590.952	248.176	-0.052	0.089
-589.938	-200.000	-0.033	-0.627
-588.923	-200.000	-0.031	-0.217
-587.909	-200.000	0.013	0.195
-586.894	436.060	0.044	-0.097
-585.879	-107.711	0.021	0.005
-584.865	36.416	-0.245	-0.220
-583.850	-200.000	0.001	0.329
-582.836	108.344	0.077	0.094
-581.821	106.816	0.233	-0.281
-580.806	-200.000	-0.012	-0.062
-579.792	374.037	0.041	-0.084
-578.777	345.320	-0.044	0.089
-577.763	94.959	-0.179	0.208
-576.748	-200.000	0.047	0.349
-575.733	-200.000	-0.017	-0.115
-574.719	-147.839	-0.368	0.031
-573.704	-127.249	0.213	-0.032
-572.690	-200.000	-0.004	0.307
-571.675	67.148	0.248	0.258
-570.661	-87.438	0.204	0.063
-569.646	800.000	0.058	-0.208
-568.631	-27.033	0.178	-0.106
-567.617	356.106	-0.233	-0.471
-566.602	299.342	-0.176	-0.330
-565.588	79.950	0.309	-0.337
-564.573	-50.608	-0.140	0.067
-563.558	-122.910	0.238	-0.039
-562.544	-158.084	0.174	-0.010
-561.529	236.973	0.039	-0.066
-560.515	-33.598	-0.210	0.118
-559.500	800.000	0.015	-0.059
-558.485	-93.318	-0.172	-0.048
-557.471	-75.624	0.166	-0.060
-556.456	-200.000	-0.010	-0.117
-555.442	323.949	0.048	-0.094
-554.427	-143.638	-0.258	0.025
-553.412	38.578	-0.039	-0.035
-552.398	-200.000	0.021	0.288
-551.383	69.971	-0.357	-0.374
-550.369	-127.470	-0.448	-0.066
-549.354	-200.000	-0.018	0.304
-548.339	98.416	0.141	0.165
-547.325	-151.480	-0.190	-0.014
-546.310	-172.362	0.243	-0.008
-545.296	800.000	-0.067	0.265
-544.281	-57.076	-0.276	-0.124
-543.266	21.210	0.262	-0.216
-542.252	-135.634	0.306	0.037
-541.237	-200.000	0.013	-0.176
-540.223	-200.000	0.027	0.351
-539.208	-50.429	-0.188	0.090
-538.193	800.000	0.060	0.225
-537.179	309.588	-0.089	0.169
-536.164	89.137	-0.092	0.105
-535.150	565.187	-0.093	-0.230
-534.135	155.525	0.053	-0.075
-533.121	-174.319	-0.062	0.002
-532.106	-125.985	-0.219	-0.033
-531.091	513.482	0.264	-0.626
-530.077	632.583	0.121	0.312
-529.062	-78.811	0.319	0.111
-528.048	-34.561	-0.086	0.048
-527.033	-94.676	-0.364	0.100
-526.018	320.774	-0.160	0.308
-525.004	800.000	0.008	0.032
-523.989	-114.707	-0.172	-0.033
-522.975	-179.204	-0.061	0.001
-521.960	-200.000	0.018	0.317
-520.945	-200.000	-0.008	-0.085
-519.931	-200.000	-0.040	0.327
-518.916	-17.751	0.080	0.051
-517.902	-129.254	-0.363	-0.051
-516.887	-136.590	-0.114	0.013
-515.872	800.000	0.049	-0.186
-514.858	-118.223	-0.217	0.039
-513.843	-200.000	-0.006	0.075
-512.829	800.000	0.080	0.317
-511.814	47.527	0.200	-0.189
-510.799	800.000	-0.129	-0.365
-509.785	84.515	-0.129	-0.143
-508.770	121.053	0.261	-0.330
-507.756	-86.730	-0.394	0.122
-506.741	7.476	0.202	-0.153
-505.726	-36.033	0.263	-0.144
-504.712	-200.000	0.015	-0.167
-503.697	48.203	-0.065	0.061
-502.683	-200.000	-0.002	0.197
-501.668	215.612	-0.064	0.103
-500.653	-200.000	0.001	0.118
-499.639	3.966	-0.094	-0.070
-498.624	-126.741	-0.132	-0.020
-497.610	230.797	0.113	-0.188
-496.595	-106.751	0.339	-0.076
-495.581	259.129	0.154	0.270
-494.566	698.728	0.115	0.307
-493.551	-63.118	0.096	0.040
-492.537	-162.348	-0.255	-0.013
-491.522	-79.962	-0.282	-0.096
-490.508	-151.684	-0.304	0.023
-489.493	800.000	0.114	0.331
-488.478	-71.093	0.046	0.017
-487.464	117.938	0.203	0.254
-486.449	-131.700	0.054	0.007
-485.435	-17.187	0.024	0.015
-484.420	56.240	0.148	0.146
-483.405	-147.547	-0.174	0.015
-482.391	-200.000	0.011	-0.067
-481.376	-191.872	-0.075	0.001
-480.362	-146.500	0.286	0.025
-479.347	-138.657	0.330	-0.037
-478.332	800.000	-0.046	0.130
-477.318	-66.280	-0.275	0.111
-476.303	-67.135	-0.157	-0.063
-475.289	197.743	0.190	-0.294
-474.274	-113.896	-0.225	0.044
-473.259	-200.000	-0.033	-0.164
-472.245	-55.126	-0.147	0.067
-471.230	-200.000	-0.015	0.279
-470.216	-68.088	-0.157	-0.062
-469.201	-200.000	0.041	-0.425
-468.186	800.000	0.065	0.186
-467.172	492.404	-0.064	0.148
-466.157	-33.533	-0.307	-0.172
-465.143	12.530	0.213	-0.167
-464.128	-164.457	-0.253	-0.012
-463.113	168.781	0.095	-0.137
-462.099	290.727	0.080	-0.146
-461.084	104.482	-0.220	-0.262
-460.070	-200.000	0.032	0.208
-459.055	-30.788	0.038	-0.022
-458.040	800.000	0.067	-0.210
-457.026	-79.531	-0.170	-0.058
-456.011	-102.524	0.252	-0.061
-454.997	406.112	-0.121	-0.259
-453.982	-200.000	0.027	0.199
-452.968	800.000	0.064	0.263
-451.953	-67.081	0.179	0.071
-450.938	-84.365	0.220	0.071
-449.924	-34.452	-0.339	-0.188
-448.909	47.028	0.313	-0.295
-447.895	-200.000	-0.040	0.193
-446.880	800.000	0.043	0.137
-445.865	-200.000	-0.008	-0.200
-444.851	235.186	-0.135	-0.226
-443.836	32.285	0.116	-0.101
-442.822	-200.000	0.010	-0.086
-441.807	-27.507	0.159	0.093
-440.792	-91.795	0.148	0.043
-439.778	-49.558	0.156	0.075
-438.763	-200.000	-0.002	-0.065
-437.749	-69.796	-0.062	-0.024
-436.734	-135.721	-0.194	-0.023
-435.719	-23.597	-0.038	-0.023
-434.705	-65.288	-0.350	0.142
-433.690	-73.266	0.082	0.030
-432.676	104.199	0.206	-0.245
-431.661	-200.000	-0.011	0.170
-430.646	-200.000	0.009	-0.144
-429.632	800.000	-0.070	-0.268
-428.617	-200.000	0.010	-0.074
-427.603	72.106	0.231	-0.243
-426.588	-104.818	0.117	-0.027
-425.573	-53.825	0.100	0.046
-424.559	-83.503	0.234	0.076
-423.544	-200.000	0.012	-0.239
-422.530	-21.366	-0.194	-0.120
-421.515	-113.839	-0.186	0.037
-420.500	370.293	0.124	-0.253
-419.486	-40.169	-0.059	-0.031
-418.471	-200.000	-0.035	0.239
-417.457	728.155	0.024	0.064
-416.442	-15.235	0.312	0.202
-415.428	98.220	-0.260	0.303
-414.413	549.123	-0.088	0.213
-413.398	132.452	0.120	-0.156
-412.384	21.602	0.163	-0.134
-411.369	-88.429	0.212	0.064
-410.355	23.319	0.305	0.253
-409.340	-69.191	0.171	0.066
-408.325	-46.181	0.276	-0.137
-407.311	-91.639	-0.296	0.085
-406.296	-9.901	0.218	0.147
-405.282	-25.860	0.290	0.172
-404.267	119.675	0.200	0.251
-403.252	-55.786	0.427	0.193
-402.238	800.000	-0.059	0.217
-401.223	712.745	0.011	0.030
-400.209	42.430	-0.247	0.227
-399.194	-200.000	0.056	-0.277
-398.179	106.441	0.088	0.105
-397.165	800.000	0.064	-0.190
-396.150	216.148	-0.061	-0.099
-395.136	-83.990	-0.049	-0.016
-394.121	-107.645	-0.224	-0.050
-393.106	79.591	-0.209	0.226
-392.092	-157.901	0.320	-0.019
-391.077	800.000	-0.031	-0.117
-390.063	201.718	-0.171	0.265
-389.048	-122.466	0.149	0.025
-388.033	98.469	0.146	0.170
-387.019	235.729	0.126	-0.211
-386.004	-4.783	-0.183	0.127
-384.990	-17.451	0.192	0.122
-383.975	800.000	-0.064	-0.209
-382.960	-74.631	-0.504	-0.183
-381.946	134.503	0.122	-0.160
-380.931	136.580	-0.157	0.207
-379.917	-52.351	0.163	0.076
-378.902	-59.142	0.229	0.100
-377.888	140.284	-0.094	0.125
-376.873	-200.000	0.037	-0.279
-375.858	12.185	0.281	0.218
-374.844	66.012	0.125	-0.128
-373.829	142.776	-0.082	0.110
-372.815	38.472	0.218	0.196
-371.800	-1.560	-0.124	0.089
-370.785	800.000	0.083	-0.237
-369.771	294.092	-0.165	-0.305
-368.756	-68.797	-0.243	-0.095
-367.742	480.923	-0.092	0.211
-366.727	-37.957	-0.282	-0.151
-365.712	149.743	0.103	0.141
-364.698	-108.412	0.134	0.029
-363.683	268.547	0.112	0.199
-362.669	-53.668	0.197	-0.091
-361.654	-151.401	0.223	0.017
-360.639	-200.000	0.038	-0.212
-359.625	-6.268	-0.110	-0.076
-358.610	-200.000	-0.003	-0.112
-357.596	-200.000	-0.006	-0.203
-356.581	366.819	0.188	-0.383
-355.566	-128.266	0.159	-0.023
-354.552	-200.000	0.023	0.178
-353.537	260.197	-0.109	-0.190
-352.523	641.566	-0.021	-0.053
-351.508	-28.450	0.405	0.236
-350.493	-156.707	-0.148	0.009
-349.479	-22.172	0.043	0.026
-348.464	56.837	-0.148	0.146
-347.450	-56.605	0.204	0.091
-346.435	800.000	-0.084	0.311
-345.420	-200.000	-0.000	-0.092
-344.406	-162.956	0.530	-0.026
-343.391	-60.836	-0.019	-0.008
-342.377	-63.641	-0.203	-0.084
-341.362	-200.000	-0.101	-0.491
-340.348	-200.000	0.013	-0.058
-339.333	484.776	-0.065	0.148
-338.318	-45.928	-0.289	0.144
-337.304	13.838	0.020	0.015
-336.289	194.140	0.164	-0.251
-335.275	-139.688	-0.267	0.029
-334.260	354.396	0.189	0.379
-333.245	-200.000	0.022	0.159
-332.231	129.728	-0.169	-0.217
-331.216	-148.807	0.084	-0.007
-330.202	800.000	0.150	0.454
-329.187	1.698	0.160	0.116
-328.172	-64.550	-0.083	-0.034
-327.158	-124.905	-0.332	-0.052
-326.143	3.366	-0.230	-0.168
-325.129	-200.000	0.023	0.143
-324.114	90.499	0.136	-0.153
-323.099	47.321	0.246	-0.231
-322.085	390.452	-0.114	0.239
-321.070	101.910	-0.284	0.334
-320.056	-113.651	0.195	0.038
-319.041	282.894	0.053	-0.095
-318.026	-18.481	-0.325	0.204
-317.012	244.327	0.136	0.230
-315.997	800.000	0.059	0.178
-314.983	800.000	-0.039	-0.116
-313.968	-38.467	-0.110	0.059
-312.953	800.000	0.070	-0.245
-311.939	-147.761	-0.327	-0.028
-310.924	-200.000	-0.028	0.244
-309.910	-157.281	0.143	-0.009
-308.895	364.672	0.072	-0.146
-307.880	77.940	0.074	0.080
-306.866	800.000	0.071	0.235
-305.851	263.157	0.063	0.109
-304.837	-142.363	-0.045	0.004
-303.822	-95.491	0.267	-0.072
-302.807	10.894	-0.170	0.131
-301.793	-200.000	-0.021	-0.257
-300.778	342.571	-0.037	0.072
-299.764	42.749	-0.187	0.171
-298.749	9.252	-0.112	-0.085
-297.735	-99.748	0.222	-0.056
-296.720	-200.000	-0.001	0.245
-295.705	496.313	-0.138	0.318
-294.691	131.555	-0.262	-0.338
-293.676	800.000	-0.048	0.181
-292.662	-0.983	0.155	-0.110
-291.647	-25.645	0.071	-0.042
-290.632	-200.000	-0.000	0.012
-289.618	-106.316	-0.157	0.035
-288.603	9.387	0.157	0.120
-287.589	279.568	-0.099	0.178
-286.574	-98.093	0.340	0.088
-285.559	-9.812	-0.205	-0.137
-284.545	800.000	-0.078	-0.324
-283.530	-105.926	0.225	-0.051
-282.516	-78.416	0.150	-0.052
-281.501	-128.674	-0.130	-0.019
-280.486	-144.382	0.308	0.029
-279.472	-25.259	0.048	0.029
-278.457	-77.624	-0.449	-0.156
-277.443	-200.000	-0.017	0.081
-276.428	791.728	-0.110	-0.304
-275.413	-37.021	0.149	-0.080
-274.399	-118.593	-0.283	-0.050
-273.384	-84.290	0.327	-0.104
-272.370	800.000	-0.132	-0.495
-271.355	116.225	-0.226	-0.278
-270.340	-149.227	-0.100	0.008
-269.326	145.644	0.196	-0.263
-268.311	-136.660	-0.345	-0.040
-267.297	-19.490	0.158	0.098
-266.282	-30.231	0.233	0.133
-265.267	-112.102	0.252	-0.051
-264.253	-200.000	-0.033	0.255
-263.238	-200.000	-0.036	0.225
-262.224	174.431	0.044	0.064
-261.209	48.801	-0.085	0.080
-260.195	25.893	0.096	0.080
-259.180	154.842	0.027	-0.037
-258.165	11.416	0.167	-0.129
-257.151	78.536	-0.310	0.333
-256.136	129.531	-0.192	-0.246
-255.122	-125.617	-0.205	-0.031
-254.107	-200.000	0.122	-0.545
-253.092	-200.000	0.045	-0.279
-252.078	800.000	0.044	-0.123
-251.063	-27.267	-0.056	0.033
-250.049	364.448	0.047	-0.095
-249.034	-157.245	-0.113	0.007
-248.019	127.051	-0.123	0.157
-247.005	-200.000	0.024	0.160
-245.990	-140.804	-0.327	-0.034
-244.976	-55.196	-0.237	0.107
-243.961	434.918	-0.069	-0.151
-242.946	-200.000	-0.000	-0.239
-241.932	-47.948	-0.142	0.069
-240.917	194.562	0.192	0.292
-239.903	-135.190	0.426	0.051
-238.888	277.811	-0.135	0.241
-237.873	800.000	0.111	-0.323
-236.859	168.026	0.129	0.184
-235.844	-120.941	0.107	-0.018
-234.830	-200.000	-0.007	0.358
-233.815	137.300	0.029	0.038
-232.800	-113.218	-0.513	0.101
-231.786	-31.064	-0.049	-0.028
-230.771	31.752	0.010	-0.008
-229.757	-138.234	0.362	-0.040
-228.742	55.884	-0.100	0.097
-227.727	463.945	-0.146	-0.328
-226.713	66.421	-0.041	-0.042
-225.698	-129.398	0.117	-0.016
-224.684	-18.996	-0.284	-0.177
-223.669	107.381	-0.003	0.003
-222.655	-121.196	-0.222	0.037
-221.640	-36.370	0.167	-0.090
-220.625	-97.550	0.111	-0.029
-219.611	-166.398	0.507	0.021
-218.596	351.168	-0.063	0.125
-217.582	-59.387	0.192	0.083
-216.567	316.281	-0.085	-0.161
-215.552	-11.491	0.298	0.197
-214.538	-23.815	0.318	0.191
-213.523	-200.000	-0.050	0.233
-212.509	642.291	0.125	0.319
-211.494	59.711	-0.046	0.046
-210.479	-200.000	0.022	0.134
-209.465	-200.000	-0.005	-0.134
-208.450	-200.000	0.035	0.165
-207.436	447.464	0.118	-0.261
-206.421	-26.500	0.260	-0.153
-205.406	-200.000	0.003	0.048
-204.392	-200.000	-0.000	-0.186
-203.377	87.110	-0.148	0.164
-202.363	-3.668	0.137	-0.095
-201.348	-76.443	-0.297	0.105
-200.333	-200.000	0.007	0.122
-199.319	234.307	0.045	0.075
-198.304	11.785	-0.193	-0.148
-197.290	84.712	0.023	-0.026
-196.275	0.080	0.137	-0.098
-195.260	800.000	0.021	0.085
-194.246	-200.000	-0.024	-0.161
-193.231	-194.828	-0.458	-0.004
-192.217	157.365	0.211	0.292
-191.202	-2.510	0.040	0.028
-190.187	-149.958	-0.239	-0.019
-189.173	-200.000	-0.002	-0.247
-188.158	-155.721	0.483	-0.031
-187.144	-81.748	0.200	0.066
-186.129	6.808	0.311	0.232
-185.114	40.255	-0.405	0.365
-184.100	129.600	-0.137	-0.175
-183.085	66.826	0.032	0.033
-182.071	236.384	0.109	0.181
-181.056	-53.102	-0.109	-0.050
-180.042	-200.000	0.003	-0.023
-179.027	-136.599	0.476	-0.055
-178.012	230.909	-0.101	-0.165
-176.998	749.673	0.142	0.384
-175.983	8.861	0.106	0.080
-174.969	-45.177	-0.415	0.206
-173.954	-17.183	-0.267	0.169
-172.939	57.471	-0.123	-0.121
-171.925	-162.346	-0.124	-0.006
-170.910	-54.460	0.217	-0.098
-169.896	800.000	-0.091	0.306
-168.881	111.337	0.082	0.099
-167.866	-200.000	0.003	0.264
-166.852	-89.144	-0.340	0.100
-165.837	23.080	0.164	0.135
-164.823	-146.260	0.113	0.010
-163.808	241.199	-0.046	0.077
-162.793	-68.086	-0.284	-0.111
-161.779	-8.466	0.118	0.080
-160.764	800.000	0.052	-0.219
-159.750	133.367	-0.079	-0.102
-158.735	33.462	0.312	0.272
-157.720	136.628	0.106	0.138
-156.706	-28.272	0.216	-0.125
-155.691	800.000	-0.033	-0.145
-154.677	-22.369	-0.128	-0.077
-153.662	-200.000	0.018	0.243
-152.647	-200.000	-0.021	0.318
-151.633	69.884	0.087	0.089
-150.618	800.000	0.034	0.117
-149.604	-92.160	-0.159	0.045
-148.589	-7.007	-0.308	0.209
-147.574	-42.907	0.393	-0.200
-146.560	-12.257	-0.137	0.090
-145.545	9.561	-0.426	-0.322
-144.531	178.483	0.143	0.209
-143.516	-200.000	-0.031	-0.292
-142.502	-97.068	-0.177	0.046
-141.487	-14.252	0.271	-0.175
-140.472	-200.000	0.004	0.315
-139.458	-84.488	-0.554	-0.175
-138.443	15.093	0.178	0.139
-137.429	800.000	0.040	0.131
-136.414	307.543	0.178	-0.332
-135.399	-22.962	0.240	-0.145
-134.385	-7.296	0.048	-0.033
-133.370	8.502	-0.216	-0.162
-132.356	-200.000	-0.036	0.213
-131.341	-110.707	-0.202	0.042
-130.326	296.945	-0.264	0.485
-129.312	800.000	-0.031	0.096
-128.297	201.032	-0.147	0.226
-127.283	-72.169	0.181	-0.067
-126.268	652.667	-0.168	0.430
-125.253	436.254	-0.007	0.016
-124.239	-153.508	0.407	-0.028
-123.224	-57.279	0.125	-0.055
-122.210	-11.654	0.094	-0.062
