DTS Sentinel unit serial number:	SN413079Multiplexer serial number:	ORYXHardware model number:	OX4-SRSoftware version number:	ORYX F/W v4.00 Oryx Data Collector v3.7.2.0data status	okinstallation	princeton_trtdifferential loss correction	single-endedforward channel	channel 1reverse channel	N/Adate	2019/09/18time	04:02:35forward acquisition time	60.00reverse acquisition time	0.00gamma	496.2192k internal	0.2339k external	0.2339temperature offset calibration	0.9976default loss term (dB/km)	0.3790temperature slope calibration	1.0000multiplexer offset coefficient	1.0000multiplexer slope coefficient	1.0000fibre end	0.00T internal ref (°C)	23.19T ext. ref 1 (°C)	0.17T ext. ref 2 (°C)	18.08length (m)	temperature (°C)	Stokes	anti-Stokes-747.200	-200.000	0.014	0.065
-746.185	96.505	-0.275	-0.316
-745.171	545.641	0.163	0.391
-744.156	233.936	-0.176	0.290
-743.142	375.531	0.084	-0.173
-742.127	385.168	-0.099	-0.206
-741.112	800.000	-0.067	-0.200
-740.098	-175.286	0.037	-0.001
-739.083	-200.000	0.020	-0.125
-738.069	-147.882	-0.149	-0.012
-737.054	-30.868	0.065	-0.037
-736.039	-168.818	-0.294	-0.011
-735.025	-200.000	0.038	-0.445
-734.010	-35.067	-0.274	-0.150
-732.996	800.000	0.033	0.119
-731.981	-34.553	-0.151	-0.083
-730.966	19.432	-0.233	-0.188
-729.952	217.363	0.060	-0.095
-728.937	52.464	-0.120	-0.115
-727.923	-200.000	0.001	-0.116
-726.908	427.932	0.032	-0.070
-725.894	800.000	0.061	-0.179
-724.879	50.704	-0.018	0.017
-723.864	-58.160	0.148	0.064
-722.850	800.000	0.082	-0.228
-721.835	-200.000	0.020	-0.328
-720.821	-200.000	-0.042	-0.187
-719.806	-49.137	0.211	-0.101
-718.791	-25.501	-0.222	-0.131
-717.777	-184.918	-0.132	0.002
-716.762	-200.000	-0.021	-0.291
-715.748	-0.902	-0.189	0.134
-714.733	49.647	0.095	0.090
-713.718	-72.344	0.272	0.101
-712.704	1.729	-0.157	0.113
-711.689	-52.028	0.413	0.192
-710.675	-52.296	-0.389	0.180
-709.660	76.728	0.156	-0.166
-708.645	675.991	-0.044	-0.115
-707.631	-200.000	-0.031	-0.277
-706.616	-72.357	0.137	-0.051
-705.602	587.080	-0.055	-0.134
-704.587	-18.007	0.179	-0.112
-703.572	-145.233	-0.368	-0.033
-702.558	-6.629	-0.059	0.040
-701.543	-195.717	0.553	-0.004
-700.529	-111.515	-0.448	-0.091
-699.514	51.101	-0.284	-0.270
-698.499	145.006	-0.193	-0.259
-697.485	153.824	0.057	-0.079
-696.470	94.347	-0.107	0.122
-695.456	-156.055	-0.534	-0.034
-694.441	35.690	0.117	0.103
-693.426	-200.000	-0.019	0.124
-692.412	77.165	0.339	-0.361
-691.397	-119.260	-0.239	0.042
-690.383	-200.000	0.015	-0.154
-689.368	-25.751	-0.198	-0.117
-688.354	247.868	0.040	-0.068
-687.339	-200.000	-0.004	-0.043
-686.324	-6.274	-0.177	-0.121
-685.310	56.428	0.115	-0.112
-684.295	-200.000	0.027	0.124
-683.281	-16.761	0.198	0.125
-682.266	659.624	-0.063	-0.163
-681.251	-86.394	0.163	0.050
-680.237	-68.386	-0.508	-0.197
-679.222	-3.085	-0.158	-0.111
-678.208	-200.000	-0.044	0.291
-677.193	800.000	0.084	-0.248
-676.178	773.903	-0.078	0.214
-675.164	-102.119	-0.229	-0.055
-674.149	-0.101	-0.080	-0.057
-673.135	8.501	-0.109	0.082
-672.120	216.751	0.124	0.198
-671.105	-146.948	0.135	-0.012
-670.091	-59.188	0.121	-0.052
-669.076	25.435	0.101	-0.084
-668.062	122.092	-0.142	-0.177
-667.047	-200.000	0.008	0.244
-666.032	800.000	0.032	-0.107
-665.018	365.802	-0.085	0.172
-664.003	-50.812	0.278	-0.131
-662.989	-20.863	0.166	-0.102
-661.974	-123.146	0.236	-0.038
-660.959	-8.492	-0.100	-0.067
-659.945	-106.671	-0.160	0.036
-658.930	-121.457	0.087	-0.015
-657.916	84.548	-0.115	0.126
-656.901	18.247	-0.309	0.246
-655.886	17.643	0.124	-0.098
-654.872	800.000	-0.064	0.193
-653.857	4.443	0.354	-0.259
-652.843	225.338	-0.109	-0.176
-651.828	800.000	-0.067	-0.221
-650.814	-150.746	0.244	0.019
-649.799	-87.175	0.199	-0.060
-648.784	-6.193	0.063	-0.043
-647.770	-20.594	0.261	0.160
-646.755	800.000	0.031	-0.119
-645.741	-39.406	0.069	0.036
-644.726	-130.457	-0.174	0.023
-643.711	-50.206	0.221	-0.105
-642.697	-50.112	0.114	-0.054
-641.682	-200.000	-0.033	-0.197
-640.668	484.443	-0.022	0.050
-639.653	604.182	0.008	0.021
-638.638	-171.183	-0.295	0.010
-637.624	52.694	0.154	0.147
-636.609	-11.198	-0.179	0.118
-635.595	-50.131	-0.259	-0.122
-634.580	40.759	-0.096	0.086
-633.565	800.000	0.082	0.279
-632.551	-0.349	0.145	-0.103
-631.536	-200.000	-0.016	0.082
-630.522	358.149	0.159	0.318
-629.507	140.882	-0.132	0.175
-628.492	-49.413	0.181	-0.086
-627.478	79.512	-0.198	-0.212
-626.463	211.202	0.026	0.041
-625.449	575.453	-0.241	0.588
-624.434	113.818	0.170	0.206
-623.419	533.294	-0.039	-0.091
-622.405	-39.953	0.113	-0.059
-621.390	190.364	0.175	-0.263
-620.376	105.114	-0.180	0.212
-619.361	142.777	-0.073	0.097
-618.346	-46.617	-0.112	-0.055
-617.332	40.530	0.063	-0.057
-616.317	224.457	-0.153	0.246
-615.303	-61.691	0.140	0.059
-614.288	800.000	0.096	-0.351
-613.273	-200.000	0.022	-0.173
-612.259	87.753	-0.216	-0.239
-611.244	153.216	-0.128	0.175
-610.230	763.175	-0.089	-0.242
-609.215	421.628	0.093	-0.198
-608.201	-82.605	-0.282	0.091
-607.186	-51.973	0.176	0.081
-606.171	-77.640	0.094	-0.032
-605.157	-167.878	-0.213	0.008
-604.142	-89.323	-0.098	-0.029
-603.128	5.435	-0.218	0.161
-602.113	-200.000	0.000	-0.224
-601.098	800.000	-0.086	0.315
-600.084	252.988	0.050	-0.085
-599.069	-86.555	0.329	-0.101
-598.055	-61.925	-0.214	0.089
-597.040	-200.000	-0.028	-0.228
-596.025	-85.814	-0.159	0.049
-595.011	25.213	-0.264	0.218
-593.996	100.892	-0.067	0.078
-592.982	716.384	0.021	-0.056
-591.967	269.046	0.067	0.117
-590.952	754.323	0.054	0.146
-589.938	29.586	-0.216	0.183
-588.923	-65.524	0.215	-0.086
-587.909	246.946	-0.039	0.066
-586.894	-98.837	-0.127	0.032
-585.879	-137.179	-0.314	-0.036
-584.865	800.000	-0.011	0.041
-583.850	-114.261	-0.294	-0.057
-582.836	-65.763	0.094	-0.037
-581.821	-48.742	-0.260	-0.124
-580.806	49.029	0.160	-0.150
-579.792	675.231	0.051	-0.132
-578.777	-87.468	0.237	-0.072
-577.763	-114.227	-0.259	0.050
-576.748	694.298	0.089	-0.232
-575.733	140.638	0.056	0.073
-574.719	-200.000	0.010	-0.138
-573.704	-9.443	-0.293	-0.195
-572.690	-113.767	-0.443	0.086
-571.675	100.855	0.216	-0.250
-570.661	12.521	-0.052	-0.040
-569.646	-193.800	-0.178	0.001
-568.631	473.709	-0.149	0.335
-567.617	-200.000	0.000	-0.254
-566.602	-6.849	-0.442	-0.299
-565.588	107.889	0.211	0.250
-564.573	-15.406	0.183	0.117
-563.558	-200.000	0.009	0.285
-562.544	-200.000	-0.031	-0.341
-561.529	-69.377	0.082	0.031
-560.515	-200.000	-0.012	-0.245
-559.500	-45.227	-0.376	0.186
-558.485	800.000	0.128	0.360
-557.471	-200.000	0.004	0.181
-556.456	-108.430	-0.048	-0.010
-555.442	-91.011	0.234	-0.067
-554.427	-139.735	0.196	0.021
-553.412	48.006	-0.165	0.153
-552.398	-10.969	-0.189	0.124
-551.383	214.685	-0.132	0.208
-550.369	148.317	0.189	0.254
-549.354	31.640	-0.174	-0.149
-548.339	641.901	-0.026	-0.066
-547.325	-118.584	0.319	0.056
-546.310	-200.000	-0.022	-0.253
-545.296	-77.849	0.129	-0.044
-544.281	-200.000	0.081	-0.461
-543.266	-167.702	-0.347	0.014
-542.252	-180.976	0.196	0.004
-541.237	-125.255	-0.187	0.029
-540.223	800.000	0.159	0.547
-539.208	-200.000	-0.015	0.140
-538.193	-200.000	-0.026	0.143
-537.179	220.886	-0.059	-0.094
-536.164	413.182	-0.114	-0.240
-535.150	-200.000	0.034	0.331
-534.135	800.000	-0.012	0.051
-533.121	-63.035	-0.325	-0.134
-532.106	800.000	0.043	-0.188
-531.091	320.962	-0.116	0.219
-530.077	-175.770	0.265	-0.007
-529.062	3.193	0.156	-0.113
-528.048	-200.000	-0.005	0.093
-527.033	11.468	-0.109	0.083
-526.018	22.490	0.259	0.210
-525.004	-200.000	0.007	0.183
-523.989	-200.000	-0.039	-0.219
-522.975	131.499	0.033	0.042
-521.960	-200.000	-0.033	-0.312
-520.945	-28.063	0.088	-0.050
-519.931	-96.410	0.149	-0.039
-518.916	-80.229	-0.110	-0.037
-517.902	441.695	-0.085	0.186
-516.887	-43.019	0.231	0.116
-515.872	800.000	0.088	-0.372
-514.858	-200.000	-0.019	0.119
-513.843	3.035	0.113	-0.081
-512.829	-200.000	-0.022	0.142
-511.814	-60.302	-0.108	-0.046
-510.799	237.292	0.195	-0.321
-509.785	39.361	-0.135	-0.120
-508.770	-200.000	0.033	0.342
-507.756	-46.319	-0.109	0.053
-506.741	-3.771	0.173	-0.119
-505.726	-200.000	0.023	0.203
-504.712	800.000	-0.105	0.341
-503.697	800.000	-0.037	0.137
-502.683	165.337	-0.114	-0.160
-501.668	-200.000	-0.038	-0.223
-500.653	-86.614	-0.278	0.084
-499.639	-154.115	0.146	0.010
-498.624	-86.856	-0.444	0.135
-497.610	-163.149	-0.253	0.012
-496.595	-45.156	0.164	0.081
-495.581	-181.710	-0.375	0.007
-494.566	161.810	0.100	0.139
-493.551	57.554	-0.258	-0.250
-492.537	32.581	-0.223	0.191
-491.522	-11.910	-0.139	-0.090
-490.508	785.407	0.045	0.122
-489.493	42.362	-0.119	0.108
-488.478	94.998	0.298	0.337
-487.464	70.783	0.206	0.212
-486.449	71.688	0.126	0.131
-485.435	762.740	0.027	-0.072
-484.420	-200.000	-0.009	0.083
-483.405	-174.839	0.050	0.001
-482.391	800.000	-0.058	-0.183
-481.376	-104.702	0.158	0.036
-480.362	55.912	-0.125	-0.120
-479.347	-65.102	-0.102	0.041
-478.332	800.000	0.039	0.136
-477.318	381.325	0.062	-0.126
-476.303	-133.909	0.152	-0.019
-475.289	800.000	-0.083	-0.252
-474.274	-33.408	-0.185	0.102
-473.259	-143.607	0.226	0.021
-472.245	157.117	0.087	0.119
-471.230	800.000	0.060	-0.213
-470.216	396.858	-0.145	-0.301
-469.201	-11.046	0.099	0.065
-468.186	105.949	-0.130	-0.153
-467.172	-50.234	0.345	-0.162
-466.157	296.206	0.009	0.016
-465.143	356.758	0.121	-0.239
-464.128	-200.000	-0.002	-0.105
-463.113	-65.923	0.272	0.108
-462.099	-200.000	0.008	-0.213
-461.084	352.046	0.195	-0.383
-460.070	-20.563	-0.075	0.046
-459.055	800.000	-0.086	-0.275
-458.040	81.923	0.070	0.075
-457.026	28.542	-0.126	-0.106
-456.011	-62.216	-0.274	0.113
-454.997	-159.340	-0.392	-0.022
-453.982	6.993	-0.082	-0.060
-452.968	-200.000	0.019	0.336
-451.953	-37.382	0.196	0.104
-450.938	-200.000	0.021	0.093
-449.924	177.927	-0.112	-0.163
-448.909	-119.403	-0.201	0.035
-447.895	8.408	-0.137	0.102
-446.880	11.761	-0.244	-0.186
-445.865	-103.170	0.177	-0.042
-444.851	435.072	-0.095	0.204
-443.836	-200.000	-0.013	0.115
-442.822	-200.000	0.000	-0.233
-441.807	54.597	0.187	-0.179
-440.792	331.609	-0.047	0.089
-439.778	800.000	0.071	-0.220
-438.763	-200.000	0.017	0.077
-437.749	-83.283	0.184	-0.058
-436.734	6.051	-0.138	0.101
-435.719	-62.124	-0.326	-0.135
-434.705	174.894	-0.081	-0.116
-433.690	800.000	0.051	0.196
-432.676	-200.000	-0.023	0.202
-431.661	-174.064	-0.466	0.014
-430.646	-115.634	-0.201	0.037
-429.632	-41.823	0.399	-0.203
-428.617	72.355	-0.023	-0.024
-427.603	-200.000	0.057	-0.319
-426.588	42.044	0.147	-0.132
-425.573	800.000	-0.081	0.247
-424.559	-50.246	-0.152	-0.071
-423.544	-200.000	-0.006	0.371
-422.530	251.285	0.034	-0.057
-421.515	800.000	-0.087	0.325
-420.500	-52.299	-0.202	0.093
-419.486	-49.741	0.318	-0.150
-418.471	-144.958	0.291	0.026
-417.457	-77.244	-0.259	0.089
-416.442	-57.968	-0.153	-0.066
-415.428	-0.565	0.169	-0.119
-414.413	-100.768	0.091	0.022
-413.398	395.982	-0.046	0.096
-412.384	604.844	0.129	-0.318
-411.369	-66.098	0.206	0.081
-410.355	-131.859	0.358	0.046
-409.340	114.815	0.067	-0.080
-408.325	-7.910	-0.103	-0.069
-407.311	113.016	0.214	0.257
-406.296	-149.463	0.077	-0.006
-405.282	551.574	-0.087	0.206
-404.267	800.000	0.059	0.223
-403.252	-200.000	-0.022	0.151
-402.238	188.735	0.238	0.353
-401.223	-57.371	0.200	-0.087
-400.209	-200.000	0.009	-0.073
-399.194	-79.472	-0.340	0.114
-398.179	234.505	0.037	-0.061
-397.165	-114.376	0.207	0.039
-396.150	115.062	0.192	-0.232
-395.136	-44.131	-0.117	-0.058
-394.121	485.428	-0.035	0.078
-393.106	800.000	0.048	0.168
-392.092	-108.861	-0.174	0.037
-391.077	-27.676	-0.054	0.031
-390.063	166.191	-0.181	0.254
-389.048	132.769	-0.161	-0.205
-388.033	-133.751	-0.290	-0.036
-387.019	136.739	0.217	-0.280
-386.004	-84.120	0.057	0.018
-384.990	-75.828	0.387	0.136
-383.975	70.277	-0.204	0.208
-382.960	-200.000	-0.012	-0.110
-381.946	18.198	-0.170	0.134
-380.931	-16.060	0.227	0.143
-379.917	-90.749	0.064	0.018
-378.902	17.828	-0.124	-0.097
-377.888	553.884	-0.032	0.075
-376.873	31.392	-0.265	0.225
-375.858	-17.041	-0.098	-0.061
-374.844	800.000	-0.088	-0.256
-373.829	175.023	0.130	-0.187
-372.815	-142.153	0.317	0.031
-371.800	-200.000	0.024	-0.179
-370.785	0.841	-0.209	0.148
-369.771	-97.868	0.132	0.034
-368.756	593.135	0.030	0.073
-367.742	309.627	0.284	0.524
-366.727	503.282	0.105	0.239
-365.712	114.171	-0.163	0.196
-364.698	-200.000	0.073	0.397
-363.683	73.910	0.290	-0.300
-362.669	-77.932	-0.202	-0.069
-361.654	-200.000	-0.008	0.131
-360.639	800.000	0.077	0.222
-359.625	800.000	-0.076	-0.253
-358.610	5.617	0.150	0.109
-357.596	-187.120	-0.149	-0.002
-356.581	800.000	0.057	-0.181
-355.566	-200.000	-0.047	-0.221
-354.552	18.380	0.265	0.209
-353.537	800.000	-0.162	0.515
-352.523	-50.249	0.387	-0.181
-351.508	800.000	-0.149	0.416
-350.493	-200.000	0.071	-0.366
-349.479	243.133	-0.188	0.311
-348.464	246.033	0.079	0.131
-347.450	800.000	0.111	-0.310
-346.435	-153.530	0.150	0.010
-345.420	-200.000	-0.008	-0.086
-344.406	-200.000	-0.016	0.124
-343.391	-49.282	-0.332	-0.157
-342.377	800.000	0.086	0.252
-341.362	-200.000	-0.067	-0.403
-340.348	-200.000	0.020	-0.107
-339.333	565.336	-0.122	0.291
-338.318	-92.820	-0.290	-0.080
-337.304	267.775	0.115	-0.199
-336.289	-59.123	0.128	0.054
-335.275	-41.868	-0.215	-0.109
-334.260	-200.000	-0.036	-0.163
-333.245	127.204	0.182	0.228
-332.231	-61.037	-0.231	-0.097
-331.216	158.801	-0.060	0.083
-330.202	31.497	-0.046	-0.039
-329.187	-71.411	0.155	-0.057
-328.172	-6.023	0.296	0.200
-327.158	329.170	-0.065	0.122
-326.143	-30.210	-0.070	0.039
-325.129	-200.000	0.020	0.303
-324.114	88.279	-0.227	-0.249
-323.099	-62.329	0.306	0.126
-322.085	-200.000	-0.002	-0.113
-321.070	-108.391	0.287	-0.061
-320.056	187.771	0.145	-0.214
-319.041	-119.736	0.148	-0.025
-318.026	-101.996	-0.020	-0.005
-317.012	-92.056	-0.078	0.022
-315.997	800.000	0.046	-0.188
-314.983	345.705	0.018	0.035
-313.968	-11.907	-0.204	0.132
-312.953	102.818	0.176	-0.203
-311.939	111.984	-0.143	-0.170
-310.924	-200.000	0.017	-0.138
-309.910	-200.000	0.021	-0.338
-308.895	362.107	-0.328	-0.649
-307.880	32.595	0.316	-0.269
-306.866	-200.000	-0.023	-0.378
-305.851	-122.919	-0.154	-0.024
-304.837	-33.075	-0.193	-0.106
-303.822	-77.797	0.110	0.038
-302.807	-82.241	0.280	0.090
-301.793	-200.000	-0.007	-0.198
-300.778	12.549	0.211	-0.161
-299.764	-151.648	0.090	-0.007
-298.749	590.482	0.086	0.210
-297.735	800.000	-0.033	0.102
-296.720	-19.730	-0.207	0.126
-295.705	-200.000	-0.024	-0.377
-294.691	800.000	0.058	0.230
-293.676	98.469	0.280	-0.319
-292.662	-135.156	0.178	-0.021
-291.647	280.289	0.060	-0.105
-290.632	6.924	0.199	-0.146
-289.618	-117.391	-0.070	-0.012
-288.603	-200.000	0.021	0.171
-287.589	229.126	-0.037	0.060
-286.574	-98.482	0.409	0.103
-285.559	-192.262	-0.414	0.004
-284.545	-0.122	0.086	-0.060
-283.530	-14.504	-0.333	-0.211
-282.516	-108.842	0.233	0.049
-281.501	-99.284	0.658	0.164
-280.486	800.000	-0.100	0.351
-279.472	88.034	0.194	-0.212
-278.457	137.305	-0.219	0.282
-277.443	29.683	0.065	-0.055
-276.428	16.878	-0.179	-0.140
-275.413	800.000	0.030	-0.093
-274.399	800.000	-0.025	0.069
-273.384	257.275	0.137	-0.233
-272.370	-71.993	-0.275	-0.101
-271.355	435.838	-0.080	0.171
-270.340	32.711	-0.381	-0.324
-269.326	197.476	-0.083	-0.125
-268.311	177.722	-0.115	-0.165
-267.297	-147.180	0.355	-0.030
-266.282	-20.822	0.371	0.224
-265.267	-102.953	0.245	0.057
-264.253	-152.335	0.256	0.018
-263.238	-44.344	-0.315	-0.155
-262.224	-108.459	-0.300	-0.063
-261.209	-5.259	-0.237	-0.161
-260.195	18.246	0.333	-0.262
-259.180	17.088	-0.084	-0.065
-258.165	251.455	-0.021	0.036
-257.151	-200.000	0.005	0.110
-256.136	-200.000	0.009	-0.157
-255.122	-82.461	0.142	0.045
-254.107	-120.341	0.212	-0.036
-253.092	65.064	0.248	0.246
-252.078	-185.468	-0.115	-0.002
-251.063	258.359	-0.082	0.139
-250.049	800.000	-0.132	0.380
-249.034	-133.094	-0.336	0.042
-248.019	-200.000	0.048	0.313
-247.005	65.316	0.083	0.082
-245.990	-18.108	-0.288	0.177
-244.976	-200.000	0.033	-0.153
-243.961	452.703	0.162	0.352
-242.946	-145.114	0.374	0.033
-241.932	211.642	0.200	-0.310
-240.917	-137.391	0.093	0.010
-239.903	-41.099	-0.282	-0.143
-238.888	-88.300	0.128	-0.038
-237.873	-200.000	0.025	0.312
-236.859	453.203	0.040	0.087
-235.844	42.498	-0.208	-0.186
-234.830	-200.000	-0.002	-0.077
-233.815	-153.032	0.187	0.013
-232.800	800.000	-0.007	-0.028
-231.786	543.654	-0.118	0.276
-230.771	-106.668	0.090	-0.020
-229.757	1.485	-0.120	0.085
-228.742	221.881	0.160	0.253
-227.727	-161.577	0.034	-0.002
-226.713	-69.000	0.188	-0.071
-225.698	-147.516	-0.164	-0.014
-224.684	-31.377	-0.227	0.125
-223.669	-200.000	-0.023	-0.106
-222.655	422.061	0.062	0.130
-221.640	-140.525	-0.384	0.039
-220.625	-13.592	0.397	-0.253
-219.611	50.754	0.133	0.123
-218.596	-63.024	0.350	-0.142
-217.582	716.445	-0.011	0.029
-216.567	356.083	-0.114	-0.223
-215.552	-53.737	0.212	0.095
-214.538	-169.193	0.168	0.006
-213.523	800.000	-0.082	0.267
-212.509	-200.000	-0.035	0.267
-211.494	800.000	0.052	-0.148
-210.479	-200.000	-0.041	0.372
-209.465	-74.266	-0.120	0.043
-208.450	-23.394	-0.328	0.193
-207.436	-66.355	0.224	0.088
-206.421	345.851	-0.078	-0.150
-205.406	244.844	-0.104	0.171
-204.392	-200.000	-0.022	0.116
-203.377	239.140	0.142	-0.232
-202.363	-32.147	0.178	0.098
-201.348	223.036	-0.042	-0.066
-200.333	-200.000	-0.122	-0.001
-199.319	93.556	0.158	0.176
-198.304	82.913	0.083	-0.089
-197.290	-144.435	0.275	-0.025
-196.275	-200.000	0.000	-0.183
-195.260	162.592	-0.015	-0.021
-194.246	-36.662	0.068	0.036
-193.231	600.095	-0.057	-0.139
-192.217	623.044	-0.191	-0.471
-191.202	-200.000	0.008	-0.052
-190.187	-109.602	-0.134	0.028
-189.173	-28.610	-0.369	-0.209
-188.158	79.736	0.272	-0.287
-187.144	-200.000	-0.015	-0.192
-186.129	-102.927	-0.192	0.045
-185.114	196.778	-0.158	0.236
-184.100	424.052	0.096	-0.202
-183.085	-150.443	-0.407	-0.031
-182.071	7.271	0.114	0.084
-181.056	-200.000	-0.048	0.293
-180.042	345.210	-0.129	-0.248
-179.027	42.001	-0.185	-0.165
-178.012	-154.659	0.173	0.011
-176.998	-42.533	0.128	-0.064
-175.983	515.514	0.114	0.261
-174.969	-200.000	0.037	0.204
-173.954	-140.359	-0.255	0.026
-172.939	-200.000	0.071	-0.328
-171.925	800.000	0.026	0.104
-170.910	-102.775	-0.097	-0.023
-169.896	-86.451	-0.302	0.091
-168.881	11.133	0.042	0.031
-167.866	-7.353	-0.149	0.099
-166.852	127.686	0.240	-0.299
-165.837	11.828	0.219	-0.165
-164.823	457.893	0.100	0.217
-163.808	-200.000	-0.000	-0.390
-162.793	16.763	0.147	-0.114
-161.779	7.656	0.094	-0.069
-160.764	399.561	-0.017	0.035
-159.750	-114.499	0.097	0.018
-158.735	461.152	-0.067	0.147
-157.720	125.149	-0.091	-0.113
-156.706	-48.951	0.214	0.101
-155.691	-200.000	-0.018	-0.085
-154.677	800.000	-0.044	0.132
-153.662	-122.267	0.197	0.031
-152.647	-200.000	-0.001	-0.157
-151.633	29.424	0.237	-0.197
-150.618	800.000	-0.073	0.273
-149.604	146.626	-0.132	0.173
-148.589	-66.903	0.397	-0.154
-147.574	47.384	-0.056	0.052
-146.560	-54.952	0.293	-0.130
-145.545	-46.314	-0.073	0.035
-144.531	800.000	0.034	0.093
-143.516	-146.677	0.152	0.013
-142.502	-104.176	0.125	0.028
-141.487	156.164	-0.131	0.178
-140.472	-15.258	0.266	-0.167
-139.458	273.867	0.083	-0.143
-138.443	-123.045	0.081	0.013
-137.429	-70.713	0.033	0.012
-136.414	226.774	0.106	-0.169
-135.399	35.791	0.167	0.143
-134.385	-89.443	0.299	-0.086
-133.370	210.167	-0.038	0.058
-132.356	-71.678	0.071	-0.026
-131.341	-200.000	-0.003	0.072
-130.326	70.618	0.112	0.114
-129.312	-200.000	-0.012	-0.075
-128.297	43.735	0.105	0.094
-127.283	92.498	-0.156	-0.173
-126.268	89.727	0.109	-0.119
-125.253	-12.731	0.058	0.037
-124.239	28.035	0.123	0.101
-123.224	800.000	-0.066	0.279
-122.210	-200.000	-0.040	0.228
-121.195	-200.000	-0.007	-0.194
