DTS Sentinel unit serial number:	SN413079Multiplexer serial number:	ORYXHardware model number:	OX4-SRSoftware version number:	ORYX F/W v4.00 Oryx Data Collector v3.7.2.0data status	okinstallation	princeton_trtdifferential loss correction	single-endedforward channel	channel 1reverse channel	N/Adate	2019/09/15time	03:18:35forward acquisition time	60.00reverse acquisition time	0.00gamma	496.2192k internal	0.2323k external	0.2323temperature offset calibration	0.9990default loss term (dB/km)	0.3790temperature slope calibration	1.0000multiplexer offset coefficient	1.0000multiplexer slope coefficient	1.0000fibre end	0.00T internal ref (°C)	31.06T ext. ref 1 (°C)	4.59T ext. ref 2 (°C)	25.70length (m)	temperature (°C)	Stokes	anti-Stokes-747.200	17.593	-0.103	-0.083
-746.185	-153.772	-0.104	0.007
-745.171	176.590	0.149	-0.219
-744.156	-200.000	-0.010	0.227
-743.142	-66.688	-0.264	0.106
-742.127	88.607	-0.254	0.286
-741.112	72.099	-0.178	0.187
-740.098	364.263	0.112	0.228
-739.083	-135.483	-0.258	0.031
-738.069	433.694	-0.108	0.236
-737.054	12.487	0.138	0.108
-736.039	531.708	-0.059	0.140
-735.025	61.855	0.189	-0.190
-734.010	560.028	-0.019	-0.046
-732.996	-200.000	-0.057	-0.481
-731.981	-200.000	-0.082	-0.371
-730.966	-120.489	-0.199	-0.034
-729.952	-25.813	0.159	-0.094
-728.937	3.570	-0.108	-0.080
-727.923	800.000	-0.108	-0.397
-726.908	-43.524	-0.040	-0.020
-725.894	363.850	-0.111	0.225
-724.879	141.582	-0.176	0.235
-723.864	-200.000	0.028	0.193
-722.850	261.996	-0.155	0.272
-721.835	156.036	-0.033	-0.046
-720.821	-64.522	0.123	0.050
-719.806	-134.595	0.148	0.018
-718.791	-142.738	-0.170	0.017
-717.777	800.000	0.027	-0.116
-716.762	-155.381	-0.139	0.009
-715.748	503.123	0.100	-0.233
-714.733	-31.517	-0.137	-0.077
-713.718	-200.000	-0.009	-0.160
-712.704	800.000	-0.080	-0.255
-711.689	-77.993	-0.339	0.118
-710.675	-59.923	-0.199	-0.086
-709.660	76.973	0.129	-0.138
-708.645	33.974	0.058	0.051
-707.631	58.072	-0.103	0.101
-706.616	21.847	0.209	0.171
-705.602	-147.118	-0.135	-0.012
-704.587	-88.416	-0.088	-0.026
-703.572	376.908	0.122	0.251
-702.558	-31.586	-0.228	-0.129
-701.543	-189.056	0.302	-0.004
-700.529	53.064	-0.178	0.172
-699.514	-200.000	-0.049	-0.218
-698.499	90.836	-0.099	-0.112
-697.485	-183.681	0.305	0.005
-696.470	-1.845	-0.249	0.176
-695.456	625.845	0.122	-0.309
-694.441	-200.000	-0.016	-0.361
-693.426	362.394	0.134	0.272
-692.412	-200.000	0.004	0.026
-691.397	-0.500	0.152	0.109
-690.383	-103.865	0.135	-0.032
-689.368	6.099	-0.198	0.148
-688.354	-40.135	-0.183	0.096
-687.339	-24.482	-0.207	-0.124
-686.324	800.000	-0.107	-0.300
-685.310	-94.430	0.115	0.032
-684.295	-107.114	0.396	0.088
-683.281	-72.293	-0.156	0.058
-682.266	-200.000	-0.011	-0.114
-681.251	-200.000	0.023	-0.327
-680.237	-84.541	-0.180	0.057
-679.222	621.512	-0.041	0.104
-678.208	722.300	0.105	0.281
-677.193	789.819	0.113	-0.313
-676.178	-63.335	0.121	-0.050
-675.164	-46.022	0.101	-0.050
-674.149	-1.600	0.120	0.085
-673.135	800.000	-0.051	-0.152
-672.120	-94.863	-0.120	-0.033
-671.105	298.231	-0.052	-0.097
-670.091	231.664	-0.055	-0.091
-669.076	-200.000	-0.046	0.271
-668.062	252.239	-0.052	-0.090
-667.047	134.783	-0.139	-0.182
-666.032	154.416	0.176	0.244
-665.018	45.633	-0.226	0.210
-664.003	-63.357	-0.206	0.085
-662.989	23.421	-0.131	-0.109
-661.974	-200.000	0.012	0.060
-660.959	43.433	-0.103	0.095
-659.945	-30.683	-0.148	0.085
-658.930	-200.000	-0.005	0.469
-657.916	58.113	-0.053	0.052
-656.901	800.000	0.034	-0.114
-655.886	-86.722	0.190	0.059
-654.872	16.985	-0.222	-0.177
-653.857	-4.166	-0.255	-0.178
-652.843	562.276	-0.028	0.069
-651.828	-131.768	-0.193	0.025
-650.814	-200.000	-0.013	-0.206
-649.799	169.368	-0.215	-0.309
-648.784	-147.764	0.299	-0.025
-647.770	28.434	-0.307	-0.261
-646.755	-200.000	-0.043	0.219
-645.741	-180.679	-0.413	0.009
-644.726	-68.273	-0.054	-0.021
-643.711	7.827	0.019	-0.015
-642.697	800.000	-0.086	-0.304
-641.682	584.780	-0.018	0.046
-640.668	-79.970	0.314	-0.106
-639.653	-135.757	0.159	0.019
-638.638	-40.717	-0.053	-0.028
-637.624	87.523	-0.051	0.057
-636.609	3.302	-0.073	-0.054
-635.595	-200.000	-0.006	-0.056
-634.580	-140.125	0.234	0.025
-633.565	57.788	-0.150	-0.147
-632.551	16.013	0.229	-0.181
-631.536	354.663	0.092	0.184
-630.522	-89.020	0.386	-0.115
-629.507	-49.831	0.264	-0.126
-628.492	127.393	0.064	0.081
-627.478	-72.238	-0.049	-0.018
-626.463	72.094	-0.076	-0.079
-625.449	639.841	0.132	-0.338
-624.434	-200.000	-0.010	-0.119
-623.419	77.521	0.149	-0.160
-622.405	-200.000	0.053	-0.259
-621.390	-200.000	-0.049	-0.396
-620.376	-8.154	0.314	-0.212
-619.361	800.000	0.014	0.039
-618.346	-171.793	-0.327	0.011
-617.332	-12.029	-0.117	0.077
-616.317	528.016	-0.095	0.224
-615.303	533.829	0.116	-0.276
-614.288	174.222	-0.194	-0.282
-613.273	800.000	0.035	0.115
-612.259	-1.679	0.338	0.239
-611.244	-130.137	0.133	0.018
-610.230	-200.000	0.004	-0.126
-609.215	246.792	0.031	0.053
-608.201	115.051	-0.048	-0.059
-607.186	-3.485	-0.170	0.119
-606.171	137.169	0.264	0.346
-605.157	800.000	0.020	0.055
-604.142	-127.203	-0.074	-0.011
-603.128	800.000	0.063	-0.201
-602.113	-180.627	0.306	0.006
-601.098	-64.865	-0.147	0.060
-600.084	226.508	-0.115	0.187
-599.069	800.000	0.031	0.100
-598.055	127.464	0.192	-0.245
-597.040	-93.191	0.082	-0.023
-596.025	117.151	-0.119	-0.147
-595.011	39.833	-0.300	0.271
-593.996	-42.148	-0.195	0.100
-592.982	-200.000	-0.002	0.096
-591.967	82.668	0.043	0.047
-590.952	-95.891	-0.216	-0.058
-589.938	-135.037	0.190	0.023
-588.923	219.493	-0.111	0.178
-587.909	327.796	-0.119	0.229
-586.894	247.593	-0.112	-0.190
-585.879	364.023	0.136	-0.274
-584.865	331.819	0.276	-0.533
-583.850	394.597	-0.061	0.128
-582.836	-131.316	0.353	-0.047
-581.821	21.235	0.146	-0.119
-580.806	62.507	-0.210	-0.210
-579.792	-124.984	-0.253	0.039
-578.777	2.454	0.217	0.158
-577.763	292.377	-0.124	0.226
-576.748	11.441	0.256	0.197
-575.733	-68.076	0.129	-0.050
-574.719	-89.492	-0.273	0.081
-573.704	-138.512	0.243	-0.027
-572.690	39.632	-0.190	-0.171
-571.675	619.252	0.018	0.044
-570.661	-0.388	0.199	-0.142
-569.646	91.869	0.120	-0.135
-568.631	85.870	0.212	-0.234
-567.617	124.952	-0.330	-0.417
-566.602	-200.000	0.056	-0.287
-565.588	-200.000	0.011	-0.155
-564.573	90.185	-0.268	-0.300
-563.558	-39.040	-0.189	0.099
-562.544	-113.473	-0.205	0.040
-561.529	125.475	-0.140	0.177
-560.515	-76.761	-0.253	0.089
-559.500	-60.827	0.211	0.090
-558.485	-144.491	0.004	0.000
-557.471	418.871	-0.053	0.114
-556.456	142.462	-0.186	-0.247
-555.442	-10.744	-0.259	-0.172
-554.427	49.128	0.131	0.123
-553.412	-11.046	0.178	-0.118
-552.398	-106.204	-0.195	0.044
-551.383	-187.663	0.252	0.003
-550.369	-27.187	-0.197	0.115
-549.354	74.571	-0.040	-0.042
-548.339	65.184	0.104	-0.106
-547.325	-112.415	-0.104	0.021
-546.310	762.964	0.047	-0.127
-545.296	-77.338	0.225	-0.078
-544.281	-92.522	0.259	-0.073
-543.266	543.400	-0.126	0.300
-542.252	-10.773	-0.089	0.059
-541.237	-200.000	0.020	-0.147
-540.223	-43.411	-0.371	-0.188
-539.208	-75.306	-0.159	0.057
-538.193	291.498	-0.164	0.298
-537.179	144.337	-0.024	-0.032
-536.164	544.065	-0.016	0.038
-535.150	-78.466	-0.233	-0.080
-534.135	239.398	0.190	0.316
-533.121	-92.748	0.178	-0.050
-532.106	71.419	-0.103	-0.107
-531.091	-44.818	0.215	-0.107
-530.077	-200.000	0.001	0.024
-529.062	100.580	-0.076	-0.089
-528.048	800.000	-0.039	0.112
-527.033	-19.925	0.157	0.097
-526.018	-30.694	-0.201	-0.114
-525.004	-73.971	0.057	-0.021
-523.989	266.638	0.131	0.229
-522.975	-200.000	-0.030	0.400
-521.960	800.000	-0.056	-0.178
-520.945	-40.535	0.381	-0.198
-519.931	44.435	-0.097	-0.089
-518.916	34.767	-0.117	-0.103
-517.902	-91.426	0.308	0.088
-516.887	97.397	0.076	-0.088
-515.872	42.972	0.173	-0.158
-514.858	-168.103	0.322	0.013
-513.843	-72.607	0.150	-0.055
-512.829	-109.829	-0.197	-0.041
-511.814	800.000	-0.066	0.273
-510.799	-171.279	0.219	-0.007
-509.785	-200.000	-0.029	-0.237
-508.770	30.705	0.100	0.085
-507.756	337.349	-0.103	0.200
-506.741	183.157	-0.099	0.147
-505.726	128.772	0.116	0.148
-504.712	800.000	0.044	0.126
-503.697	-20.178	0.034	-0.021
-502.683	17.782	-0.060	0.048
-501.668	111.720	0.188	-0.227
-500.653	788.882	-0.109	0.300
-499.639	425.993	0.077	-0.166
-498.624	265.423	0.061	-0.106
-497.610	90.263	0.333	0.372
-496.595	-88.118	-0.078	0.023
-495.581	24.834	0.213	0.176
-494.566	67.888	0.319	-0.327
-493.551	-70.137	-0.185	0.070
-492.537	-7.775	-0.153	-0.104
-491.522	-98.480	0.254	-0.065
-490.508	-45.093	-0.057	0.028
-489.493	-70.991	-0.592	-0.223
-488.478	-117.941	0.200	-0.036
-487.464	70.149	0.243	0.251
-486.449	-26.465	0.302	0.177
-485.435	-42.795	0.266	0.135
-484.420	-200.000	0.032	-0.186
-483.405	102.859	-0.044	0.051
-482.391	-88.769	-0.384	-0.114
-481.376	207.376	-0.088	-0.138
-480.362	131.173	0.057	-0.073
-479.347	-54.715	0.180	0.081
-478.332	-29.756	-0.199	-0.114
-477.318	-11.890	0.158	-0.103
-476.303	59.163	-0.220	-0.217
-475.289	-30.333	-0.007	0.004
-474.274	-18.499	0.110	0.069
-473.259	-200.000	-0.027	0.337
-472.245	84.734	0.287	-0.314
-471.230	-156.041	0.309	-0.020
-470.216	800.000	-0.083	0.267
-469.201	-200.000	0.025	0.140
-468.186	-70.464	-0.224	-0.085
-467.172	-200.000	0.002	0.343
-466.157	11.568	-0.405	-0.310
-465.143	-200.000	0.006	0.068
-464.128	800.000	0.055	-0.166
-463.113	-134.787	0.176	-0.021
-462.099	-59.885	0.426	-0.182
-461.084	68.123	-0.082	-0.084
-460.070	-99.919	-0.251	-0.063
-459.055	-116.615	-0.093	0.017
-458.040	538.243	0.135	0.319
-457.026	800.000	0.045	-0.130
-456.011	-200.000	-0.005	-0.138
-454.997	-200.000	-0.042	0.274
-453.982	103.573	0.116	-0.136
-452.968	-71.288	-0.291	0.109
-451.953	-40.170	-0.281	-0.146
-450.938	155.131	-0.155	0.213
-449.924	-34.501	-0.079	0.043
-448.909	306.879	-0.151	0.281
-447.895	-200.000	0.019	-0.200
-446.880	393.330	-0.036	0.074
-445.865	84.620	-0.064	-0.069
-444.851	-40.422	0.087	-0.045
-443.836	-37.917	-0.157	-0.083
-442.822	800.000	-0.082	0.313
-441.807	294.475	0.163	0.297
-440.792	-88.558	0.371	-0.110
-439.778	131.560	0.143	0.184
-438.763	-112.936	0.440	-0.087
-437.749	245.250	0.255	0.429
-436.734	-96.496	-0.184	-0.048
-435.719	-69.913	0.386	0.147
-434.705	-116.502	-0.492	-0.091
-433.690	502.948	0.038	0.088
-432.676	-200.000	-0.017	0.160
-431.661	112.049	0.097	0.116
-430.646	-129.806	0.128	0.018
-429.632	-166.705	0.225	-0.009
-428.617	62.464	-0.279	0.278
-427.603	558.973	-0.048	0.115
-426.588	-200.000	0.010	0.118
-425.573	0.231	0.180	-0.128
-424.559	-43.981	0.176	0.088
-423.544	-118.922	-0.182	-0.032
-422.530	-100.823	0.167	-0.041
-421.515	-134.009	0.152	0.019
-420.500	800.000	-0.016	-0.052
-419.486	34.179	0.229	0.199
-418.471	143.619	-0.201	-0.267
-417.457	189.628	0.149	0.223
-416.442	37.611	0.082	0.072
-415.428	142.804	-0.155	0.206
-414.413	-97.586	0.212	0.055
-413.398	-200.000	0.011	0.152
-412.384	-133.841	-0.266	0.033
-411.369	490.649	0.105	-0.239
-410.355	34.995	0.133	0.116
-409.340	44.795	0.082	0.075
-408.325	76.676	0.129	0.137
-407.311	-200.000	0.012	0.092
-406.296	-29.788	0.147	-0.083
-405.282	-74.362	-0.245	-0.088
-404.267	-200.000	-0.004	0.490
-403.252	6.227	-0.327	0.241
-402.238	-133.748	0.054	0.007
-401.223	564.306	-0.078	-0.189
-400.209	-133.597	-0.224	0.028
-399.194	800.000	-0.021	0.080
-398.179	800.000	-0.117	-0.346
-397.165	-105.122	-0.388	-0.088
-396.150	100.769	-0.232	-0.269
-395.136	-171.271	-0.078	-0.003
-394.121	-149.565	0.264	-0.021
-393.106	274.001	-0.038	-0.068
-392.092	21.768	0.129	0.105
-391.077	-200.000	0.040	-0.192
-390.063	-73.713	-0.302	0.109
-389.048	210.727	-0.018	0.029
-388.033	95.983	-0.365	0.415
-387.019	-15.758	-0.040	0.025
-386.004	-200.000	0.012	-0.184
-384.990	-140.570	0.123	-0.013
-383.975	-160.545	-0.030	-0.002
-382.960	4.726	-0.125	-0.092
-381.946	610.864	0.095	-0.236
-380.931	415.762	-0.099	-0.210
-379.917	385.307	0.167	-0.342
-378.902	-113.424	0.104	0.020
-377.888	-77.681	-0.320	-0.110
-376.873	800.000	0.039	0.133
-375.858	34.989	0.174	-0.152
-374.844	-85.452	-0.159	0.049
-373.829	261.011	-0.119	-0.205
-372.815	85.572	-0.068	-0.074
-371.800	-200.000	-0.008	-0.051
-370.785	800.000	-0.074	-0.294
-369.771	-153.782	-0.131	0.009
-368.756	-8.678	0.349	-0.233
-367.742	70.779	0.132	0.136
-366.727	-199.057	0.154	-0.001
-365.712	-102.900	-0.159	-0.038
-364.698	339.252	-0.144	-0.279
-363.683	-200.000	-0.002	0.139
-362.669	359.170	-0.070	-0.140
-361.654	116.929	0.013	0.016
-360.639	-125.898	-0.120	-0.018
-359.625	247.834	0.103	0.173
-358.610	-97.386	0.211	0.055
-357.596	800.000	0.050	-0.179
-356.581	-105.224	-0.322	-0.073
-355.566	-4.125	0.221	0.152
-354.552	-121.112	-0.544	-0.091
-353.537	-150.794	0.335	0.025
-352.523	235.912	0.149	0.245
-351.508	745.401	0.092	0.247
-350.493	54.957	0.122	0.117
-349.479	71.804	-0.350	-0.361
-348.464	-93.285	0.152	-0.042
-347.450	84.780	-0.112	0.122
-346.435	-101.995	0.212	-0.051
-345.420	-190.702	0.150	-0.002
-344.406	-113.354	0.149	-0.029
-343.391	0.772	0.117	-0.084
-342.377	-67.025	0.156	0.061
-341.362	800.000	-0.078	0.327
-340.348	-54.247	-0.254	0.114
-339.333	57.928	-0.132	0.128
-338.318	-106.233	-0.328	0.073
-337.304	25.904	0.106	0.088
-336.289	351.478	0.226	0.445
-335.275	-143.254	0.179	0.017
-334.260	-80.143	0.151	-0.050
-333.245	800.000	-0.072	-0.243
-332.231	321.390	0.057	0.108
-331.216	800.000	0.046	0.161
-330.202	800.000	0.017	-0.050
-329.187	-200.000	-0.040	-0.315
-328.172	-46.817	-0.338	-0.164
-327.158	800.000	-0.079	0.217
-326.143	59.703	-0.199	0.195
-325.129	179.726	0.125	-0.181
-324.114	-143.458	0.258	-0.024
-323.099	800.000	0.069	0.289
-322.085	-78.427	0.171	0.058
-321.070	800.000	-0.023	-0.084
-320.056	6.626	-0.305	0.225
-319.041	261.481	0.030	0.052
-318.026	-200.000	-0.009	0.216
-317.012	-136.423	0.200	-0.023
-315.997	-19.810	0.215	-0.132
-314.983	-113.647	-0.193	0.037
-313.968	290.747	0.076	-0.138
-312.953	800.000	-0.010	0.044
-311.939	15.483	-0.347	0.271
-310.924	132.756	-0.205	-0.262
-309.910	34.187	-0.163	-0.141
-308.895	281.149	0.166	0.296
-307.880	203.502	0.121	-0.185
-306.866	-51.702	-0.238	-0.110
-305.851	-200.000	0.056	-0.290
-304.837	800.000	-0.063	0.180
-303.822	30.388	0.165	0.140
-302.807	-114.466	0.315	-0.060
-301.793	25.842	-0.200	0.165
-300.778	-200.000	-0.005	-0.176
-299.764	-200.000	-0.026	-0.114
-298.749	345.641	0.156	-0.304
-297.735	800.000	-0.133	0.387
-296.720	278.982	0.091	0.161
-295.705	62.945	-0.164	0.163
-294.691	104.692	-0.044	0.051
-293.676	-200.000	0.005	0.325
-292.662	-81.002	-0.161	0.053
-291.647	-166.060	-0.424	-0.018
-290.632	-200.000	0.026	-0.113
-289.618	443.596	0.099	-0.215
-288.603	71.299	-0.127	0.131
-287.589	379.874	0.066	-0.134
-286.574	-40.781	0.261	0.134
-285.559	-200.000	0.004	-0.128
-284.545	-124.185	-0.147	-0.023
-283.530	-200.000	-0.004	-0.401
-282.516	-200.000	0.061	0.368
-281.501	-32.026	-0.046	-0.026
-280.486	-200.000	-0.034	-0.159
-279.472	306.297	-0.092	0.169
-278.457	201.398	-0.062	-0.094
-277.443	59.354	0.132	0.129
-276.428	99.160	-0.272	-0.311
-275.413	194.425	0.092	0.138
-274.399	-200.000	-0.255	0.001
-273.384	-200.000	-0.003	-0.018
-272.370	-139.032	-0.332	0.036
-271.355	377.555	-0.083	0.168
-270.340	454.349	-0.112	-0.245
-269.326	800.000	-0.081	-0.276
-268.311	91.875	0.162	-0.181
-267.297	-103.896	0.257	0.059
-266.282	4.218	-0.307	0.223
-265.267	134.126	-0.110	0.141
-264.253	-200.000	0.003	0.036
-263.238	-105.794	0.274	-0.061
-262.224	-45.168	0.119	0.059
-261.209	800.000	-0.050	-0.194
-260.195	-44.715	0.329	0.163
-259.180	-79.674	-0.203	-0.068
-258.165	-200.000	0.056	-0.340
-257.151	-200.000	0.013	-0.156
-256.136	-200.000	0.027	-0.118
-255.122	207.425	0.148	-0.229
-254.107	388.705	-0.170	-0.348
-253.092	-200.000	-0.058	0.304
-252.078	215.222	0.158	-0.248
-251.063	415.173	0.195	0.413
-250.049	-105.184	0.247	-0.056
-249.034	-200.000	0.012	0.253
-248.019	-200.000	0.038	0.180
-247.005	-200.000	0.014	0.253
-245.990	384.835	0.127	0.258
-244.976	8.558	-0.238	-0.177
-243.961	800.000	-0.035	0.107
-242.946	35.127	-0.129	-0.112
-241.932	-140.842	-0.224	-0.023
-240.917	800.000	-0.123	0.355
-239.903	800.000	-0.073	0.228
-238.888	-42.213	0.224	0.113
-237.873	132.048	0.169	0.215
-236.859	-200.000	0.008	-0.075
-235.844	57.055	0.253	0.244
-234.830	-61.640	-0.296	-0.123
-233.815	-100.382	-0.322	0.079
-232.800	547.352	-0.033	0.078
-231.786	-89.440	0.242	-0.071
-230.771	55.216	-0.101	-0.097
-229.757	-72.422	0.127	-0.046
-228.742	-55.475	0.126	-0.056
-227.727	800.000	0.015	-0.043
-226.713	-101.055	0.385	0.094
-225.698	800.000	-0.025	-0.082
-224.684	-6.744	-0.202	0.136
-223.669	12.639	0.057	-0.043
-222.655	-34.949	-0.312	-0.168
-221.640	109.452	0.153	0.181
-220.625	-34.420	0.162	-0.088
-219.611	382.354	0.063	0.127
-218.596	190.210	0.202	-0.300
-217.582	-71.393	0.141	-0.052
-216.567	-120.820	-0.299	-0.050
-215.552	-189.290	0.022	-0.000
-214.538	-15.022	-0.216	-0.137
-213.523	353.111	-0.084	0.164
-212.509	688.325	-0.099	-0.257
-211.494	-67.782	0.053	-0.021
-210.479	5.779	0.256	0.188
-209.465	-200.000	0.028	0.199
-208.450	-200.000	-0.013	0.070
-207.436	-156.837	-0.246	-0.015
-206.421	-86.859	0.048	0.015
-205.406	-85.409	0.285	0.088
-204.392	-200.000	-0.072	0.336
-203.377	140.317	-0.100	0.131
-202.363	175.588	-0.364	-0.521
-201.348	800.000	-0.164	-0.459
-200.333	90.750	-0.204	0.225
-199.319	-95.879	0.097	0.026
-198.304	-52.790	-0.055	-0.025
-197.290	-200.000	0.013	-0.306
-196.275	-37.700	0.084	0.044
-195.260	243.625	0.112	0.186
-194.246	-200.000	-0.016	0.080
-193.231	562.690	0.039	0.094
-192.217	26.645	-0.216	0.179
-191.202	-66.559	0.196	-0.077
-190.187	18.634	0.112	-0.089
-189.173	-200.000	-0.026	-0.163
-188.158	-0.625	0.229	0.161
-187.144	-134.450	0.179	-0.022
-186.129	-74.493	0.251	0.089
-185.114	-144.036	-0.285	-0.026
-184.100	-32.958	-0.367	-0.201
-183.085	196.943	0.137	-0.207
-182.071	121.171	-0.152	-0.187
-181.056	800.000	-0.033	-0.142
-180.042	317.072	-0.137	0.255
-179.027	119.248	-0.230	0.281
-178.012	-200.000	0.022	0.405
-176.998	120.514	-0.086	0.105
-175.983	80.327	-0.209	-0.222
-174.969	-180.791	-0.294	-0.006
-173.954	106.358	0.098	0.115
-172.939	-88.325	-0.112	0.033
-171.925	-5.212	-0.270	-0.183
-170.910	-151.455	-0.161	0.012
-169.896	60.009	0.082	0.080
-168.881	-143.354	-0.249	-0.024
-167.866	800.000	-0.066	0.255
-166.852	-72.157	0.453	-0.166
-165.837	-108.046	-0.172	-0.037
-164.823	709.849	0.038	0.100
-163.808	188.668	0.068	0.100
-162.793	-78.477	-0.237	0.080
-161.779	74.071	0.230	0.238
-160.764	-56.193	-0.106	-0.047
-159.750	19.919	0.265	-0.211
-158.735	594.379	0.058	0.142
-157.720	261.922	-0.167	0.285
-156.706	1.403	0.310	0.220
-155.691	-123.717	-0.070	-0.011
-154.677	99.134	0.205	-0.233
-153.662	-137.521	-0.109	0.012
-152.647	-200.000	0.037	-0.369
-151.633	9.506	0.123	-0.092
-150.618	16.907	-0.196	0.153
-149.604	-36.133	0.077	0.041
-148.589	134.628	-0.121	-0.155
-147.574	-200.000	-0.014	-0.102
-146.560	-138.798	-0.431	0.046
-145.545	-92.379	-0.166	0.046
-144.531	128.754	0.145	-0.182
-143.516	-78.068	-0.188	-0.064
-142.502	-200.000	-0.016	0.432
-141.487	35.252	0.042	-0.036
-140.472	800.000	-0.097	0.283
-139.458	-147.875	0.387	0.032
-138.443	53.753	-0.193	0.183
-137.429	-200.000	-0.010	-0.325
-136.414	-200.000	0.045	0.224
-135.399	174.476	-0.144	0.206
-134.385	-200.000	-0.037	0.184
-133.370	767.724	-0.065	-0.174
-132.356	800.000	-0.009	-0.026
-131.341	187.358	0.068	-0.100
-130.326	-200.000	-0.110	0.480
-129.312	-96.575	-0.135	-0.035
-128.297	35.178	0.108	-0.093
-127.283	158.318	0.048	0.066
-126.268	-59.611	-0.280	-0.118
-125.253	164.352	0.056	-0.077
-124.239	-200.000	-0.032	0.270
-123.224	800.000	0.063	0.245
-122.210	-200.000	0.041	0.209
-121.195	-200.000	0.004	-0.250
