DTS Sentinel unit serial number:	SN413079Multiplexer serial number:	ORYXHardware model number:	OX4-SRSoftware version number:	ORYX F/W v4.00 Oryx Data Collector v3.7.2.0data status	okinstallation	princeton_trtdifferential loss correction	single-endedforward channel	channel 1reverse channel	N/Adate	2019/09/11time	15:32:11forward acquisition time	60.00reverse acquisition time	0.00gamma	496.2192k internal	0.2291k external	0.2291temperature offset calibration	0.9988default loss term (dB/km)	0.3790temperature slope calibration	1.0000multiplexer offset coefficient	1.0000multiplexer slope coefficient	1.0000fibre end	0.00T internal ref (°C)	42.87T ext. ref 1 (°C)	0.99T ext. ref 2 (°C)	35.95length (m)	temperature (°C)	Stokes	anti-Stokes-747.200	130.224	0.180	0.237
-746.185	-9.403	0.119	0.081
-745.171	800.000	0.029	0.112
-744.156	-152.168	0.534	0.040
-743.142	-200.000	0.002	0.184
-742.127	195.651	-0.124	0.194
-741.112	-200.000	-0.018	-0.123
-740.098	272.798	-0.374	0.676
-739.083	-163.877	0.066	0.003
-738.069	800.000	-0.059	0.248
-737.054	590.236	-0.066	0.166
-736.039	74.999	-0.142	-0.153
-735.025	-75.432	0.136	-0.050
-734.010	53.246	0.116	0.113
-732.996	1.570	-0.287	-0.212
-731.981	227.660	-0.042	0.070
-730.966	-5.468	-0.247	-0.173
-729.952	-138.783	0.112	-0.012
-728.937	-74.371	-0.208	0.077
-727.923	274.441	0.085	0.153
-726.908	257.796	-0.082	0.144
-725.894	-102.422	-0.365	0.090
-724.879	7.383	-0.038	-0.029
-723.864	-89.357	0.134	-0.040
-722.850	-25.631	-0.526	-0.318
-721.835	49.514	-0.205	-0.197
-720.821	-39.532	-0.159	-0.085
-719.806	31.646	-0.200	-0.176
-718.791	619.170	0.039	0.100
-717.777	-200.000	0.013	0.071
-716.762	800.000	-0.074	-0.243
-715.748	442.915	0.109	-0.243
-714.733	-200.000	0.004	-0.156
-713.718	-151.558	-0.112	0.008
-712.704	-25.110	0.183	-0.111
-711.689	21.420	0.117	0.097
-710.675	-68.306	-0.183	0.073
-709.660	-46.449	0.184	0.092
-708.645	-92.218	0.514	0.148
-707.631	-4.409	0.064	-0.045
-706.616	375.012	-0.052	-0.108
-705.602	-200.000	0.027	-0.319
-704.587	-200.000	-0.013	-0.215
-703.572	-102.431	-0.290	0.071
-702.558	-125.846	-0.239	0.037
-701.543	194.636	0.108	0.167
-700.529	-55.211	0.196	-0.090
-699.514	-33.736	-0.159	0.090
-698.499	800.000	-0.043	0.166
-697.485	-200.000	-0.018	0.176
-696.470	-200.000	-0.011	-0.506
-695.456	352.996	0.171	-0.346
-694.441	-51.395	-0.169	0.081
-693.426	85.657	0.093	0.104
-692.412	-117.534	-0.164	-0.030
-691.397	-129.166	0.335	-0.048
-690.383	-36.485	-0.362	-0.199
-689.368	-200.000	-0.021	-0.148
-688.354	800.000	0.014	0.045
-687.339	98.610	0.080	-0.094
-686.324	86.887	-0.159	0.179
-685.310	-3.318	-0.232	0.165
-684.295	-125.608	0.157	-0.024
-683.281	-200.000	0.004	-0.200
-682.266	147.804	-0.046	0.063
-681.251	-1.075	-0.160	0.115
-680.237	551.616	0.068	-0.167
-679.222	30.243	0.121	-0.106
-678.208	313.862	-0.136	-0.261
-677.193	-200.000	-0.006	-0.044
-676.178	279.694	0.136	0.248
-675.164	-67.679	-0.042	-0.017
-674.149	112.328	-0.120	0.148
-673.135	-65.036	-0.295	0.122
-672.120	84.829	0.223	0.250
-671.105	289.133	0.111	-0.206
-670.091	132.574	0.150	-0.198
-669.076	-117.523	-0.327	-0.060
-668.062	800.000	-0.085	-0.322
-667.047	26.915	0.128	0.109
-666.032	74.912	-0.189	-0.203
-665.018	-159.976	-0.266	-0.015
-664.003	755.044	-0.137	-0.380
-662.989	248.674	0.066	0.114
-661.974	-129.933	-0.076	0.011
-660.959	-66.166	0.404	0.164
-659.945	-46.347	-0.196	-0.098
-658.930	-58.335	-0.495	0.220
-657.916	175.577	-0.122	-0.181
-656.901	-74.077	-0.036	-0.013
-655.886	88.868	-0.133	0.151
-654.872	-200.000	0.017	-0.253
-653.857	-200.000	0.053	-0.293
-652.843	-3.997	-0.251	0.178
-651.828	461.031	-0.244	0.554
-650.814	-200.000	-0.005	0.186
-649.799	-200.000	0.031	-0.183
-648.784	-72.460	0.117	0.044
-647.770	-140.941	-0.086	0.009
-646.755	42.523	-0.111	0.103
-645.741	52.412	0.018	-0.017
-644.726	-107.041	-0.323	-0.073
-643.711	-97.434	0.220	-0.058
-642.697	487.636	-0.115	0.267
-641.682	-6.277	-0.405	0.282
-640.668	-37.811	0.126	0.068
-639.653	29.662	0.224	0.195
-638.638	800.000	-0.128	-0.537
-637.624	-200.000	0.024	0.147
-636.609	118.609	-0.144	-0.181
-635.595	-93.498	0.210	0.059
-634.580	3.323	-0.173	-0.128
-633.565	800.000	0.107	0.441
-632.551	-127.138	-0.083	0.012
-631.536	417.337	-0.004	0.009
-630.522	-200.000	-0.007	-0.171
-629.507	45.496	0.162	-0.152
-628.492	-76.627	-0.398	-0.142
-627.478	565.680	-0.105	-0.259
-626.463	-90.192	0.121	0.036
-625.449	352.634	0.093	-0.187
-624.434	551.321	0.072	0.175
-623.419	183.815	0.131	0.197
-622.405	800.000	0.023	-0.091
-621.390	82.400	0.106	-0.118
-620.376	-200.000	-0.041	0.232
-619.361	-200.000	0.011	-0.170
-618.346	800.000	-0.081	-0.243
-617.332	470.623	-0.022	0.051
-616.317	-200.000	0.024	-0.282
-615.303	357.665	-0.141	-0.287
-614.288	-49.680	0.207	0.100
-613.273	800.000	0.078	0.252
-612.259	-115.381	0.086	0.016
-611.244	800.000	-0.130	-0.382
-610.230	-99.850	0.159	0.040
-609.215	800.000	-0.039	-0.151
-608.201	-133.662	-0.316	0.040
-607.186	252.150	-0.152	-0.264
-606.171	611.427	0.226	0.577
-605.157	-55.305	0.188	0.086
-604.142	121.350	-0.092	-0.117
-603.128	142.739	-0.252	-0.342
-602.113	132.520	0.138	0.181
-601.098	-43.807	-0.077	-0.039
-600.084	-35.359	0.321	0.178
-599.069	-200.000	0.034	-0.232
-598.055	656.914	0.108	-0.282
-597.040	-153.330	-0.128	0.009
-596.025	-68.853	-0.211	0.083
-595.011	115.938	-0.032	0.040
-593.996	800.000	0.072	0.262
-592.982	106.564	0.134	0.162
-591.967	-125.025	-0.142	-0.022
-590.952	-79.964	0.381	0.130
-589.938	-43.244	0.122	0.063
-588.923	-93.472	-0.586	-0.165
-587.909	164.087	-0.170	0.243
-586.894	-200.000	0.011	0.282
-585.879	-200.000	0.010	0.341
-584.865	-200.000	0.034	0.211
-583.850	-200.000	-0.017	0.268
-582.836	83.607	-0.093	-0.103
-581.821	697.880	0.043	-0.114
-580.806	-200.000	0.072	-0.496
-579.792	184.794	0.105	-0.159
-578.777	4.817	0.277	-0.207
-577.763	800.000	0.060	0.220
-576.748	-200.000	-0.050	0.230
-575.733	-81.025	0.231	0.078
-574.719	475.160	0.090	-0.206
-573.704	-60.755	0.111	0.048
-572.690	29.809	-0.195	0.169
-571.675	-200.000	0.003	0.144
-570.661	92.943	0.045	-0.051
-569.646	36.869	0.093	-0.084
-568.631	-136.153	0.276	0.033
-567.617	356.068	-0.162	-0.328
-566.602	-126.977	-0.158	-0.024
-565.588	-123.730	0.118	0.019
-564.573	46.453	-0.210	-0.198
-563.558	-98.863	0.129	-0.033
-562.544	-200.000	-0.070	-0.385
-561.529	-106.169	0.146	-0.033
-560.515	-22.053	0.266	0.164
-559.500	255.846	0.159	0.277
-558.485	41.776	0.136	-0.126
-557.471	73.310	-0.020	0.021
-556.456	-88.590	-0.304	0.092
-555.442	22.495	-0.113	0.094
-554.427	-122.471	0.193	-0.032
-553.412	137.635	-0.086	0.115
-552.398	-90.199	-0.101	0.030
-551.383	800.000	-0.086	-0.326
-550.369	101.704	-0.103	-0.122
-549.354	121.838	-0.100	0.127
-548.339	-105.478	0.208	0.048
-547.325	233.124	-0.131	-0.218
-546.310	-104.455	-0.244	-0.057
-545.296	-200.000	-0.022	0.233
-544.281	-200.000	0.047	0.210
-543.266	36.061	0.041	-0.037
-542.252	-147.868	0.107	0.009
-541.237	-200.000	-0.033	-0.151
-540.223	800.000	0.162	0.464
-539.208	800.000	0.009	-0.025
-538.193	-200.000	-0.012	-0.130
-537.179	800.000	0.164	0.471
-536.164	-200.000	0.028	0.322
-535.150	-84.457	-0.251	0.080
-534.135	134.516	0.280	0.369
-533.121	-122.679	-0.159	0.026
-532.106	-172.648	-0.095	0.003
-531.091	-200.000	-0.049	-0.332
-530.077	-101.398	-0.098	-0.024
-529.062	-200.000	-0.010	0.183
-528.048	-200.000	0.008	0.303
-527.033	-83.156	-0.112	0.037
-526.018	-14.810	0.342	-0.223
-525.004	-125.638	0.147	-0.023
-523.989	37.134	-0.299	0.269
-522.975	-177.417	-0.114	0.003
-521.960	105.995	0.112	0.135
-520.945	238.214	-0.179	0.301
-519.931	793.078	0.133	0.372
-518.916	800.000	0.065	-0.283
-517.902	-200.000	0.012	-0.602
-516.887	16.033	-0.157	0.125
-515.872	-31.595	-0.110	-0.063
-514.858	-188.000	-0.146	-0.002
-513.843	222.173	-0.130	0.212
-512.829	-97.058	-0.135	-0.036
-511.814	-200.000	-0.009	0.162
-510.799	344.652	0.108	0.215
-509.785	12.203	-0.204	-0.159
-508.770	-62.197	-0.081	0.034
-507.756	0.114	-0.232	0.167
-506.741	800.000	0.015	0.044
-505.726	504.316	0.100	0.234
-504.712	-74.885	-0.369	0.134
-503.697	-200.000	-0.017	-0.172
-502.683	-57.109	-0.251	-0.112
-501.668	26.890	-0.122	0.104
-500.653	-81.465	-0.365	0.122
-499.639	-98.889	0.114	0.029
-498.624	-83.531	0.217	-0.070
-497.610	-83.750	0.301	0.097
-496.595	800.000	0.070	0.217
-495.581	519.908	-0.050	0.119
-494.566	-200.000	-0.007	0.102
-493.551	115.590	0.285	0.354
-492.537	-0.848	-0.229	0.165
-491.522	-84.999	0.162	0.052
-490.508	-9.770	0.198	0.134
-489.493	-200.000	-0.013	-0.084
-488.478	800.000	0.102	0.407
-487.464	-106.418	0.515	-0.117
-486.449	-200.000	-0.048	-0.273
-485.435	295.874	-0.095	0.177
-484.420	800.000	0.033	-0.126
-483.405	152.590	-0.179	-0.248
-482.391	-108.388	-0.132	-0.029
-481.376	171.541	-0.038	0.055
-480.362	-106.981	-0.122	-0.027
-479.347	-45.367	-0.138	-0.070
-478.332	120.542	-0.102	0.129
-477.318	486.220	0.033	0.076
-476.303	-200.000	-0.028	-0.137
-475.289	800.000	-0.069	0.218
-474.274	-0.702	0.207	0.148
-473.259	184.959	0.181	-0.272
-472.245	116.599	-0.160	-0.198
-471.230	357.487	-0.172	-0.347
-470.216	489.193	0.074	0.172
-469.201	800.000	-0.030	-0.088
-468.186	116.122	0.066	-0.082
-467.172	-84.796	-0.154	-0.049
-466.157	-35.975	-0.095	-0.052
-465.143	335.501	0.108	0.212
-464.128	-200.000	0.007	0.100
-463.113	44.020	-0.254	-0.236
-462.099	245.320	-0.108	0.184
-461.084	-107.113	0.041	-0.009
-460.070	446.167	-0.157	0.350
-459.055	-138.444	0.380	-0.042
-458.040	149.115	-0.064	-0.088
-457.026	95.553	-0.090	-0.103
-456.011	-17.689	0.211	0.134
-454.997	88.450	-0.105	0.118
-453.982	81.506	0.153	0.168
-452.968	-117.690	-0.280	-0.051
-451.953	-62.090	-0.110	-0.047
-450.938	286.618	0.140	0.256
-449.924	-146.546	0.098	-0.009
-448.909	-200.000	0.008	0.235
-447.895	-62.374	-0.235	-0.099
-446.880	57.412	-0.148	-0.146
-445.865	106.608	0.052	-0.062
-444.851	161.804	0.099	-0.140
-443.836	617.341	-0.097	-0.245
-442.822	-35.898	-0.163	0.089
-441.807	17.926	-0.095	0.076
-440.792	389.210	-0.124	-0.260
-439.778	-112.599	0.096	-0.019
-438.763	-190.733	-0.064	-0.001
-437.749	-120.632	0.433	-0.074
-436.734	-200.000	0.047	0.221
-435.719	-200.000	0.021	-0.439
-434.705	601.365	-0.060	0.152
-433.690	48.435	-0.267	0.253
-432.676	-99.879	-0.133	0.034
-431.661	-132.081	0.447	-0.059
-430.646	137.150	-0.030	0.040
-429.632	-200.000	0.012	-0.072
-428.617	330.739	0.075	-0.146
-427.603	800.000	-0.103	-0.333
-426.588	15.891	-0.125	-0.099
-425.573	-200.000	-0.053	0.262
-424.559	-168.617	-0.377	-0.014
-423.544	135.992	0.117	-0.154
-422.530	-132.688	0.141	0.018
-421.515	-140.236	-0.127	-0.013
-420.500	114.555	0.042	-0.052
-419.486	-196.895	-0.362	0.002
-418.471	-29.037	0.056	0.033
-417.457	389.320	0.054	-0.113
-416.442	671.889	-0.117	0.307
-415.428	800.000	-0.064	0.270
-414.413	-16.259	0.504	-0.323
-413.398	4.348	-0.278	-0.206
-412.384	-118.375	-0.143	0.026
-411.369	117.272	-0.154	0.192
-410.355	178.778	0.054	0.080
-409.340	62.591	-0.105	-0.106
-408.325	800.000	0.028	0.109
-407.311	-200.000	-0.003	0.141
-406.296	64.988	0.273	-0.278
-405.282	166.666	0.115	-0.164
-404.267	800.000	-0.023	0.088
-403.252	657.277	-0.071	-0.184
-402.238	-200.000	0.016	-0.302
-401.223	-200.000	0.000	0.134
-400.209	72.947	0.190	-0.200
-399.194	42.950	0.095	-0.087
-398.179	-200.000	0.060	-0.303
-397.165	-194.356	0.344	-0.003
-396.150	633.951	0.050	-0.128
-395.136	582.697	-0.088	0.219
-394.121	-200.000	0.020	0.219
-393.106	6.647	-0.229	0.172
-392.092	-31.404	-0.237	-0.135
-391.077	-116.474	-0.339	0.063
-390.063	-200.000	0.006	0.254
-389.048	-115.671	0.272	-0.051
-388.033	164.315	-0.056	0.079
-387.019	-162.236	-0.373	-0.019
-386.004	-145.727	0.369	-0.033
-384.990	-3.244	-0.243	-0.171
-383.975	345.744	0.181	0.360
-382.960	-22.802	0.137	-0.083
-381.946	48.424	-0.140	-0.133
-380.931	-7.800	-0.323	-0.220
-379.917	435.991	-0.153	0.336
-378.902	800.000	-0.024	-0.079
-377.888	58.592	-0.307	-0.304
-376.873	256.655	0.187	-0.324
-375.858	47.276	0.124	-0.117
-374.844	-200.000	-0.074	-0.337
-373.829	165.241	0.118	0.168
-372.815	168.013	0.065	0.094
-371.800	-165.464	0.197	0.009
-370.785	0.985	0.160	0.116
-369.771	231.381	-0.113	0.186
-368.756	-93.320	0.287	-0.080
-367.742	71.755	0.319	-0.334
-366.727	-200.000	-0.018	-0.115
-365.712	800.000	-0.058	0.201
-364.698	-172.480	0.237	0.008
-363.683	800.000	0.038	0.159
-362.669	-53.980	-0.175	-0.081
-361.654	-9.545	0.050	-0.034
-360.639	-39.645	-0.180	0.095
-359.625	-101.692	-0.080	-0.020
-358.610	37.675	0.347	-0.311
-357.596	192.501	-0.017	0.026
-356.581	-22.003	-0.336	-0.206
-355.566	132.541	-0.140	-0.182
-354.552	800.000	0.058	-0.217
-353.537	800.000	0.027	0.080
-352.523	35.129	-0.172	0.152
-351.508	369.682	0.056	0.114
-350.493	-67.366	-0.248	-0.098
-349.479	-104.864	0.085	-0.020
-348.464	800.000	-0.093	0.353
-347.450	26.857	-0.100	0.085
-346.435	-122.790	0.158	-0.026
-345.420	-140.153	-0.484	0.051
-344.406	-68.693	0.253	-0.099
-343.391	-2.850	0.081	0.057
-342.377	-164.593	-0.387	0.018
-341.362	209.409	-0.075	-0.119
-340.348	-190.721	-0.206	-0.002
-339.333	314.020	-0.164	-0.310
-338.318	-96.527	0.177	-0.047
-337.304	210.027	0.129	0.204
-336.289	-200.000	0.023	0.133
-335.275	152.522	-0.102	-0.140
-334.260	49.137	-0.125	-0.119
-333.245	31.444	0.315	0.272
-332.231	-200.000	-0.004	0.134
-331.216	66.015	-0.263	0.269
-330.202	-200.000	0.004	0.039
-329.187	79.903	0.118	-0.128
-328.172	-55.413	0.076	-0.035
-327.158	800.000	0.068	0.230
-326.143	-98.935	0.208	0.053
-325.129	800.000	-0.111	-0.360
-324.114	-42.516	-0.228	-0.117
-323.099	-55.581	-0.281	-0.127
-322.085	-150.021	0.340	-0.027
-321.070	-130.881	-0.422	0.057
-320.056	800.000	0.121	-0.449
-319.041	-200.000	-0.036	0.463
-318.026	-38.833	-0.124	0.066
-317.012	210.872	0.303	-0.479
-315.997	31.776	-0.111	-0.096
-314.983	-95.045	-0.128	0.035
-313.968	-141.680	0.029	-0.003
-312.953	9.448	0.227	-0.173
-311.939	800.000	0.026	-0.074
-310.924	443.075	0.081	-0.178
-309.910	-27.162	-0.296	-0.174
-308.895	283.043	0.063	-0.114
-307.880	-200.000	0.041	0.216
-306.866	220.407	-0.089	0.143
-305.851	296.448	-0.137	-0.253
-304.837	-12.146	-0.166	0.109
-303.822	-200.000	-0.003	0.321
-302.807	800.000	0.056	-0.208
-301.793	507.792	0.096	-0.224
-300.778	800.000	-0.016	-0.047
-299.764	800.000	0.027	-0.078
-298.749	-200.000	-0.023	0.221
-297.735	61.997	0.226	-0.226
-296.720	-200.000	-0.003	0.035
-295.705	-70.623	-0.116	0.044
-294.691	-200.000	0.014	0.258
-293.676	8.649	0.076	-0.057
-292.662	-185.244	0.242	0.004
-291.647	-21.102	0.270	-0.166
-290.632	-149.596	0.182	0.014
-289.618	757.143	-0.112	-0.305
-288.603	-200.000	0.031	-0.455
-287.589	-200.000	0.008	0.086
-286.574	170.869	-0.105	0.151
-285.559	-106.848	0.160	-0.036
-284.545	39.271	-0.325	-0.293
-283.530	7.678	-0.237	-0.179
-282.516	-152.318	-0.016	-0.001
-281.501	800.000	0.050	0.154
-280.486	49.811	0.224	0.212
-279.472	594.812	0.126	-0.313
-278.457	-1.047	-0.226	-0.161
-277.443	650.203	-0.112	-0.289
-276.428	-109.749	0.302	0.064
-275.413	-54.106	0.169	-0.077
-274.399	-200.000	-0.043	-0.255
-273.384	-72.474	0.408	-0.152
-272.370	-164.019	0.046	0.002
-271.355	-23.322	0.073	-0.044
-270.340	-25.072	-0.090	-0.054
-269.326	-25.108	0.118	0.070
-268.311	-165.376	-0.100	-0.004
-267.297	-88.945	-0.279	-0.083
-266.282	-200.000	-0.044	-0.325
-265.267	-74.314	-0.104	0.038
-264.253	610.806	0.077	-0.194
-263.238	255.286	0.067	0.115
-262.224	-200.000	0.020	0.090
-261.209	-127.289	0.194	0.029
-260.195	800.000	-0.054	-0.224
-259.180	312.487	-0.136	-0.256
-258.165	25.407	-0.074	-0.061
-257.151	-58.049	0.376	-0.165
-256.136	-17.468	0.241	-0.153
-255.122	-118.546	-0.131	-0.023
-254.107	-117.917	-0.251	-0.045
-253.092	14.740	-0.098	-0.077
-252.078	162.060	0.098	0.138
-251.063	-69.859	0.222	-0.085
-250.049	202.633	0.170	0.263
-249.034	-72.572	0.130	-0.048
-248.019	653.591	0.091	-0.234
-247.005	800.000	-0.011	-0.047
-245.990	-200.000	-0.047	0.415
-244.976	166.726	0.166	0.236
-243.961	-200.000	0.017	0.170
-242.946	-60.498	0.337	0.144
-241.932	141.546	-0.154	0.205
-240.917	263.616	0.041	0.072
-239.903	38.039	-0.133	0.119
-238.888	800.000	-0.070	0.229
-237.873	27.171	-0.271	-0.228
-236.859	-200.000	-0.030	-0.215
-235.844	-200.000	-0.038	-0.358
-234.830	-34.917	0.191	0.105
-233.815	-118.244	-0.023	0.004
-232.800	-141.413	0.044	0.004
-231.786	-200.000	0.039	-0.288
-230.771	-128.462	-0.376	-0.054
-229.757	338.154	-0.151	0.295
-228.742	800.000	-0.023	0.080
-227.727	205.558	0.031	-0.048
-226.713	-35.043	-0.331	-0.181
-225.698	-200.000	-0.051	0.339
-224.684	-82.908	0.285	0.092
-223.669	-1.310	0.053	0.037
-222.655	252.163	-0.111	-0.190
-221.640	-55.486	0.194	-0.087
-220.625	-71.700	0.185	0.069
-219.611	-80.148	-0.107	0.036
-218.596	800.000	-0.030	0.108
-217.582	-62.647	0.238	0.099
-216.567	800.000	-0.047	-0.167
-215.552	651.175	0.030	-0.078
-214.538	-51.056	-0.050	-0.024
-213.523	13.667	0.197	0.154
-212.509	20.944	0.015	-0.012
-211.494	-56.558	-0.428	-0.190
-210.479	640.628	-0.044	0.113
-209.465	93.801	-0.109	0.124
-208.450	489.285	0.088	0.202
-207.436	-57.226	0.308	-0.136
-206.421	800.000	-0.075	-0.249
-205.406	800.000	0.053	-0.150
-204.392	-80.032	0.234	-0.079
-203.377	397.897	-0.093	0.196
-202.363	-55.539	0.164	-0.074
-201.348	57.321	0.202	-0.198
-200.333	70.933	-0.121	0.126
-199.319	-12.077	-0.132	0.087
-198.304	132.935	0.182	0.236
-197.290	-56.113	-0.117	0.052
-196.275	57.342	0.242	0.237
-195.260	232.581	-0.082	-0.135
-194.246	42.323	0.430	0.392
-193.231	59.430	-0.034	0.033
-192.217	-145.847	0.284	0.025
-191.202	311.465	-0.173	0.325
-190.187	800.000	0.035	0.127
-189.173	-48.385	-0.328	0.158
-188.158	-153.426	-0.354	0.025
-187.144	220.965	0.226	-0.363
-186.129	-11.593	0.426	-0.280
-185.114	10.639	0.134	0.102
-184.100	19.838	0.335	0.270
-183.085	65.263	0.159	-0.161
-182.071	84.414	0.093	0.102
-181.056	51.835	0.211	0.201
-180.042	134.980	-0.182	0.237
-179.027	111.020	-0.146	0.177
-178.012	-84.209	0.418	0.133
-176.998	-143.991	-0.338	0.032
-175.983	238.078	-0.106	-0.176
-174.969	777.909	-0.168	0.460
-173.954	-65.597	0.159	0.064
-172.939	-200.000	-0.009	-0.475
-171.925	118.619	-0.325	-0.402
-170.910	-62.158	0.236	0.099
-169.896	205.854	-0.091	0.142
-168.881	-30.303	0.253	-0.144
-167.866	-200.000	0.048	0.273
-166.852	800.000	-0.085	0.252
-165.837	-52.679	-0.184	0.085
-164.823	-88.856	-0.271	-0.081
-163.808	-200.000	0.008	-0.270
-162.793	533.925	-0.078	0.184
-161.779	-35.733	-0.204	0.111
-160.764	-149.095	0.178	0.014
-159.750	-168.462	0.279	0.011
-158.735	-200.000	-0.038	-0.404
-157.720	634.137	-0.092	0.232
-156.706	-109.231	-0.111	0.024
-155.691	-13.356	0.161	-0.105
-154.677	-121.068	0.434	0.073
-153.662	1.506	0.022	-0.016
-152.647	-200.000	0.039	0.228
-151.633	-200.000	0.011	0.187
-150.618	27.721	-0.181	-0.152
-149.604	-200.000	-0.096	-0.673
-148.589	-85.251	-0.362	0.113
-147.574	-200.000	0.011	-0.066
-146.560	-200.000	-0.014	0.070
-145.545	168.350	-0.070	0.099
-144.531	49.957	0.227	0.214
-143.516	-130.501	0.162	0.022
-142.502	-200.000	0.063	0.317
-141.487	3.527	-0.145	-0.106
-140.472	-5.849	0.188	-0.129
-139.458	-170.906	0.218	0.007
-138.443	-43.329	0.317	-0.160
-137.429	800.000	-0.058	-0.195
-136.414	-57.169	-0.239	0.105
-135.399	-200.000	-0.020	0.341
-134.385	-200.000	0.012	0.101
-133.370	33.624	-0.226	0.197
-132.356	74.439	0.096	-0.101
-131.341	800.000	0.086	-0.252
-130.326	199.036	0.166	0.254
-129.312	-182.039	0.528	0.010
-128.297	-45.421	0.212	-0.105
-127.283	278.888	0.140	-0.249
-126.268	5.149	-0.285	0.210
-125.253	800.000	-0.059	0.167
-124.239	155.204	-0.040	0.055
-123.224	501.567	-0.077	0.179
-122.210	-200.000	-0.018	0.212
-121.195	158.970	0.087	0.121
