DTS Sentinel unit serial number:	SN413079Multiplexer serial number:	ORYXHardware model number:	OX4-SRSoftware version number:	ORYX F/W v4.00 Oryx Data Collector v3.7.2.0data status	okinstallation	princeton_trtdifferential loss correction	single-endedforward channel	channel 1reverse channel	N/Adate	2019/09/19time	04:18:35forward acquisition time	60.00reverse acquisition time	0.00gamma	496.2192k internal	0.2342k external	0.2342temperature offset calibration	1.0015default loss term (dB/km)	0.3790temperature slope calibration	1.0000multiplexer offset coefficient	1.0000multiplexer slope coefficient	1.0000fibre end	0.00T internal ref (°C)	20.28T ext. ref 1 (°C)	0.63T ext. ref 2 (°C)	13.58length (m)	temperature (°C)	Stokes	anti-Stokes-747.200	630.064	0.107	-0.270
-746.185	177.871	-0.044	0.064
-745.171	109.637	0.208	0.249
-744.156	33.089	0.242	0.210
-743.142	428.551	-0.041	0.089
-742.127	-68.973	-0.206	0.080
-741.112	177.778	-0.102	0.149
-740.098	647.214	0.067	0.171
-739.083	800.000	0.029	-0.090
-738.069	330.125	0.077	0.148
-737.054	124.901	0.184	0.233
-736.039	-86.273	-0.389	-0.120
-735.025	-56.273	0.241	-0.107
-734.010	3.465	-0.161	0.117
-732.996	9.579	-0.164	0.125
-731.981	-2.785	-0.126	0.088
-730.966	-90.249	-0.249	0.072
-729.952	-95.254	-0.086	-0.023
-728.937	222.016	-0.142	-0.229
-727.923	-200.000	0.018	-0.203
-726.908	800.000	0.091	-0.286
-725.894	95.072	-0.231	-0.264
-724.879	-200.000	-0.025	-0.298
-723.864	466.235	0.044	-0.098
-722.850	266.061	-0.141	-0.246
-721.835	764.948	-0.033	-0.088
-720.821	254.971	-0.078	-0.133
-719.806	197.352	0.014	0.021
-718.791	173.064	0.175	0.252
-717.777	-200.000	0.024	0.190
-716.762	-200.000	-0.049	0.253
-715.748	348.400	0.156	0.308
-714.733	-22.952	-0.039	0.023
-713.718	74.017	0.166	0.174
-712.704	-200.000	-0.012	-0.190
-711.689	-200.000	0.030	-0.234
-710.675	-20.715	0.152	-0.093
-709.660	17.668	0.257	-0.204
-708.645	-129.816	0.183	0.025
-707.631	-200.000	-0.029	0.151
-706.616	-26.089	-0.250	0.147
-705.602	264.897	0.042	0.074
-704.587	0.324	0.106	0.075
-703.572	800.000	0.068	0.287
-702.558	40.558	0.205	-0.184
-701.543	-200.000	-0.024	-0.166
-700.529	226.376	-0.082	-0.134
-699.514	-25.301	-0.207	-0.123
-698.499	-127.693	0.368	-0.053
-697.485	-74.287	-0.309	-0.112
-696.470	216.680	-0.270	-0.429
-695.456	-134.147	0.521	0.064
-694.441	800.000	-0.023	0.089
-693.426	-200.000	0.004	0.208
-692.412	123.070	0.223	0.279
-691.397	-27.230	-0.178	-0.104
-690.383	-200.000	-0.076	-0.458
-689.368	-88.325	0.227	-0.068
-688.354	-200.000	-0.010	-0.208
-687.339	107.113	-0.086	0.102
-686.324	-54.546	-0.170	0.077
-685.310	31.469	0.260	0.223
-684.295	339.426	0.100	0.195
-683.281	31.506	-0.096	0.083
-682.266	-200.000	-0.008	0.159
-681.251	-139.335	-0.329	-0.035
-680.237	-128.543	-0.059	-0.008
-679.222	-25.893	0.257	-0.151
-678.208	-84.095	0.070	-0.022
-677.193	-125.034	0.242	-0.037
-676.178	-200.000	-0.001	-0.037
-675.164	-200.000	-0.000	-0.202
-674.149	800.000	-0.054	0.210
-673.135	283.629	-0.040	-0.072
-672.120	537.469	-0.064	0.152
-671.105	294.416	0.223	-0.407
-670.091	571.146	-0.138	0.334
-669.076	800.000	0.116	-0.360
-668.062	-200.000	0.021	0.121
-667.047	63.379	0.155	0.155
-666.032	-24.735	0.199	-0.118
-665.018	800.000	-0.068	-0.247
-664.003	-200.000	-0.025	-0.171
-662.989	92.802	-0.183	-0.206
-661.974	-200.000	0.011	-0.344
-660.959	-75.872	-0.081	0.029
-659.945	-179.411	-0.358	-0.008
-658.930	-200.000	-0.020	0.304
-657.916	-200.000	0.009	-0.188
-656.901	22.093	0.265	0.216
-655.886	-200.000	0.013	0.124
-654.872	-200.000	-0.024	0.118
-653.857	800.000	-0.116	-0.377
-652.843	-200.000	-0.001	-0.071
-651.828	-39.427	-0.207	0.108
-650.814	-41.737	0.110	-0.057
-649.799	-12.158	-0.259	-0.169
-648.784	407.099	-0.112	0.235
-647.770	126.072	0.061	0.077
-646.755	239.181	-0.111	-0.184
-645.741	64.408	0.184	0.185
-644.726	120.936	-0.081	0.100
-643.711	143.736	-0.095	-0.126
-642.697	-102.382	0.221	-0.053
-641.682	-140.245	-0.206	-0.022
-640.668	15.860	-0.072	0.056
-639.653	109.877	0.221	-0.264
-638.638	40.336	0.079	-0.071
-637.624	-76.167	0.065	0.023
-636.609	5.665	0.267	-0.197
-635.595	-7.592	0.202	0.136
-634.580	232.004	-0.105	-0.172
-633.565	-98.611	0.182	-0.046
-632.551	-42.553	0.187	-0.095
-631.536	-200.000	0.031	0.302
-630.522	800.000	-0.023	-0.066
-629.507	-200.000	-0.024	-0.138
-628.492	-61.595	-0.125	-0.052
-627.478	-105.061	-0.138	0.031
-626.463	-200.000	0.038	-0.222
-625.449	-183.800	-0.289	-0.005
-624.434	-23.220	-0.068	-0.041
-623.419	800.000	0.113	0.325
-622.405	-31.382	0.215	0.120
-621.390	-99.660	0.106	-0.027
-620.376	8.256	-0.097	-0.072
-619.361	-200.000	-0.013	-0.066
-618.346	800.000	-0.102	0.352
-617.332	-184.431	-0.128	0.002
-616.317	182.551	-0.143	0.210
-615.303	-190.517	-0.111	0.001
-614.288	-26.182	-0.314	-0.184
-613.273	182.823	-0.161	0.237
-612.259	-200.000	0.018	-0.282
-611.244	94.774	-0.254	-0.288
-610.230	308.268	0.183	0.341
-609.215	25.695	-0.218	0.181
-608.201	11.753	-0.135	-0.103
-607.186	90.099	-0.190	-0.212
-606.171	-200.000	-0.030	0.314
-605.157	800.000	0.087	0.250
-604.142	-200.000	-0.040	-0.195
-603.128	110.551	-0.120	-0.144
-602.113	800.000	-0.057	-0.225
-601.098	800.000	-0.022	0.090
-600.084	187.281	-0.107	-0.158
-599.069	-9.675	-0.386	-0.256
-598.055	-59.037	0.218	0.094
-597.040	-123.299	0.176	-0.028
-596.025	-200.000	0.017	-0.326
-595.011	396.245	-0.219	-0.455
-593.996	800.000	-0.043	0.154
-592.982	-130.477	-0.325	-0.044
-591.967	-200.000	0.006	0.203
-590.952	-57.495	0.211	0.092
-589.938	37.186	-0.214	0.189
-588.923	800.000	-0.015	-0.042
-587.909	488.285	-0.099	-0.224
-586.894	-95.086	0.169	-0.045
-585.879	-138.839	0.269	-0.029
-584.865	-200.000	0.016	0.150
-583.850	800.000	0.042	0.172
-582.836	-67.142	0.095	0.037
-581.821	-94.971	-0.165	-0.044
-580.806	800.000	0.021	0.089
-579.792	-200.000	0.006	-0.154
-578.777	196.996	-0.131	-0.199
-577.763	334.369	0.110	0.212
-576.748	93.399	-0.014	-0.015
-575.733	-200.000	0.033	-0.159
-574.719	-81.992	-0.086	0.028
-573.704	88.288	0.063	-0.070
-572.690	20.522	-0.042	-0.034
-571.675	65.698	-0.331	-0.334
-570.661	374.704	0.190	0.384
-569.646	39.367	-0.169	0.151
-568.631	15.288	0.170	0.133
-567.617	47.520	0.181	0.168
-566.602	94.520	0.127	-0.143
-565.588	-45.191	-0.349	0.172
-564.573	800.000	0.061	0.259
-563.558	-200.000	0.035	0.213
-562.544	-70.823	0.095	0.036
-561.529	-128.589	-0.254	-0.036
-560.515	15.660	0.237	0.185
-559.500	85.729	0.058	0.064
-558.485	-92.928	-0.249	0.069
-557.471	-200.000	0.010	-0.138
-556.456	-32.957	0.308	0.170
-555.442	32.762	-0.125	-0.107
-554.427	162.937	-0.247	-0.344
-553.412	-62.962	0.212	-0.087
-552.398	17.337	-0.283	0.224
-551.383	-48.221	0.164	-0.078
-550.369	31.245	0.130	-0.111
-549.354	800.000	-0.031	-0.115
-548.339	-200.000	0.047	0.466
-547.325	110.962	0.089	0.106
-546.310	-100.118	-0.532	-0.132
-545.296	-119.464	-0.087	-0.015
-544.281	-151.865	0.271	0.020
-543.266	-82.831	0.162	-0.052
-542.252	-47.542	0.239	-0.115
-541.237	-95.610	0.498	0.133
-540.223	85.932	-0.127	0.139
-539.208	-121.592	0.178	-0.029
-538.193	800.000	-0.051	0.213
-537.179	29.294	-0.265	0.224
-536.164	-200.000	-0.066	-0.363
-535.150	800.000	-0.086	-0.318
-534.135	800.000	-0.057	0.174
-533.121	-3.536	-0.166	-0.115
-532.106	-22.709	-0.310	-0.186
-531.091	40.905	-0.173	-0.155
-530.077	-63.701	-0.436	-0.178
-529.062	261.005	0.199	-0.342
-528.048	52.699	0.279	-0.265
-527.033	-24.914	-0.359	0.212
-526.018	-200.000	-0.041	0.398
-525.004	800.000	-0.071	-0.200
-523.989	-111.937	0.211	0.042
-522.975	-184.262	0.223	-0.004
-521.960	64.735	-0.150	0.150
-520.945	138.851	-0.097	-0.127
-519.931	-18.906	-0.158	-0.098
-518.916	800.000	0.035	0.126
-517.902	800.000	0.079	0.258
-516.887	96.805	-0.034	-0.039
-515.872	209.125	0.139	0.216
-514.858	800.000	-0.264	-0.764
-513.843	-4.322	-0.285	-0.196
-512.829	339.188	-0.037	-0.072
-511.814	-58.891	0.376	0.161
-510.799	141.202	0.237	0.311
-509.785	123.471	0.184	-0.229
-508.770	-167.852	-0.014	-0.001
-507.756	-115.823	0.282	-0.052
-506.741	-113.091	-0.166	-0.032
-505.726	306.347	-0.086	-0.159
-504.712	-117.791	-0.310	0.055
-503.697	64.453	-0.216	-0.216
-502.683	221.645	0.226	-0.361
-501.668	800.000	0.057	-0.213
-500.653	168.063	-0.139	0.196
-499.639	84.921	-0.103	-0.112
-498.624	-200.000	0.030	-0.149
-497.610	91.800	0.165	0.184
-496.595	1.827	0.285	0.204
-495.581	1.987	0.323	0.231
-494.566	-200.000	0.018	0.166
-493.551	100.756	-0.194	0.224
-492.537	800.000	0.061	0.166
-491.522	425.416	0.108	0.231
-490.508	-159.155	0.278	-0.016
-489.493	800.000	0.074	-0.216
-488.478	-53.365	0.150	-0.068
-487.464	93.000	-0.180	-0.201
-486.449	744.966	-0.030	-0.081
-485.435	-88.667	0.076	0.022
-484.420	-43.156	0.132	0.066
-483.405	-29.780	-0.138	0.078
-482.391	-146.852	-0.239	0.020
-481.376	-73.629	0.514	-0.186
-480.362	187.907	-0.172	-0.255
-479.347	0.509	0.079	-0.056
-478.332	-75.529	-0.211	0.074
-477.318	-200.000	0.053	0.342
-476.303	3.994	-0.076	-0.055
-475.289	71.195	-0.142	-0.146
-474.274	-200.000	-0.015	0.195
-473.259	339.819	0.104	-0.202
-472.245	155.002	0.237	-0.323
-471.230	34.247	-0.240	-0.207
-470.216	-200.000	-0.066	-0.368
-469.201	448.991	-0.091	0.198
-468.186	-97.854	0.123	0.031
-467.172	800.000	0.092	-0.344
-466.157	800.000	-0.101	-0.282
-465.143	800.000	0.090	-0.281
-464.128	108.290	-0.211	-0.249
-463.113	-161.803	0.372	0.019
-462.099	-200.000	-0.068	0.306
-461.084	-75.589	-0.224	0.079
-460.070	-200.000	0.025	-0.347
-459.055	324.324	-0.127	-0.240
-458.040	-87.518	0.405	-0.121
-457.026	-5.361	-0.231	0.157
-456.011	-23.953	0.172	-0.102
-454.997	-176.565	-0.320	-0.008
-453.982	558.070	0.041	0.098
-452.968	800.000	0.119	-0.423
-451.953	176.961	-0.223	0.322
-450.938	-147.382	-0.174	0.015
-449.924	-88.651	-0.231	0.068
-448.909	636.291	-0.066	-0.166
-447.895	800.000	0.031	-0.094
-446.880	84.242	-0.251	0.271
-445.865	-200.000	0.002	-0.362
-444.851	135.116	-0.211	-0.272
-443.836	91.314	0.149	-0.165
-442.822	294.737	0.156	0.282
-441.807	16.267	-0.197	0.154
-440.792	-111.870	-0.108	0.022
-439.778	-42.054	0.218	-0.110
-438.763	-83.805	-0.231	0.073
-437.749	40.489	0.305	0.272
-436.734	56.321	-0.160	-0.154
-435.719	-13.110	-0.084	0.054
-434.705	34.795	0.123	0.107
-433.690	-158.177	0.258	0.015
-432.676	83.866	0.092	0.099
-431.661	12.884	0.255	0.195
-430.646	72.141	0.293	-0.302
-429.632	40.343	-0.098	0.088
-428.617	-144.581	0.475	-0.043
-427.603	-0.851	-0.359	0.251
-426.588	636.178	0.057	0.142
-425.573	-154.713	-0.261	0.017
-424.559	-127.994	0.059	0.008
-423.544	-200.000	-0.014	0.068
-422.530	138.452	-0.057	-0.074
-421.515	89.502	0.321	-0.354
-420.500	58.026	-0.152	0.147
-419.486	-21.731	-0.455	-0.274
-418.471	184.242	0.158	-0.232
-417.457	129.600	0.160	-0.203
-416.442	-56.088	0.349	-0.154
-415.428	-200.000	-0.009	0.110
-414.413	-200.000	-0.024	-0.136
-413.398	589.902	-0.115	0.281
-412.384	-200.000	-0.006	-0.071
-411.369	252.292	-0.184	0.310
-410.355	-32.179	0.343	-0.189
-409.340	215.709	0.109	-0.171
-408.325	-32.878	0.232	0.127
-407.311	116.382	0.112	0.136
-406.296	27.849	-0.333	0.277
-405.282	325.424	0.180	-0.341
-404.267	-200.000	-0.022	-0.301
-403.252	147.733	-0.034	0.046
-402.238	-146.240	0.115	-0.010
-401.223	68.692	0.133	-0.135
-400.209	800.000	-0.039	0.109
-399.194	-47.213	0.414	0.200
-398.179	800.000	-0.112	0.412
-397.165	800.000	-0.057	0.185
-396.150	168.085	0.096	0.135
-395.136	-80.005	0.418	0.138
-394.121	96.724	-0.138	-0.157
-393.106	460.360	-0.021	0.046
-392.092	-99.483	-0.423	-0.105
-391.077	-133.383	-0.146	-0.018
-390.063	76.527	0.225	-0.235
-389.048	349.304	0.153	0.299
-388.033	800.000	0.017	-0.055
-387.019	-200.000	0.293	0.000
-386.004	-41.826	-0.189	-0.095
-384.990	-18.161	-0.325	0.201
-383.975	-87.126	0.339	0.102
-382.960	-192.316	0.071	0.001
-381.946	39.145	-0.189	0.167
-380.931	267.319	-0.118	0.204
-379.917	-55.163	-0.087	-0.039
-378.902	-191.403	-0.333	0.003
-377.888	-200.000	0.004	0.088
-376.873	603.052	0.028	0.069
-375.858	-46.158	0.126	-0.061
-374.844	-54.784	-0.252	-0.112
-373.829	-200.000	-0.013	-0.108
-372.815	-200.000	-0.042	0.219
-371.800	94.447	0.189	-0.212
-370.785	-200.000	-0.042	-0.184
-369.771	800.000	0.056	-0.167
-368.756	-171.110	0.198	0.007
-367.742	-140.669	-0.118	0.012
-366.727	56.750	0.290	-0.278
-365.712	249.855	0.192	-0.321
-364.698	-200.000	-0.041	0.274
-363.683	331.857	0.109	0.207
-362.669	202.091	-0.095	-0.144
-361.654	349.798	-0.066	-0.129
-360.639	153.629	0.230	0.310
-359.625	256.217	-0.091	0.154
-358.610	-66.190	0.253	-0.100
-357.596	-100.482	-0.003	-0.001
-356.581	-19.817	0.133	-0.081
-355.566	81.209	-0.203	-0.217
-354.552	421.992	-0.072	-0.152
-353.537	119.406	0.260	0.317
-352.523	800.000	0.095	0.338
-351.508	-4.962	-0.138	-0.094
-350.493	800.000	-0.105	-0.306
-349.479	102.927	-0.157	0.181
-348.464	464.159	-0.056	0.124
-347.450	475.893	0.075	-0.168
-346.435	68.681	0.358	0.362
-345.420	-151.507	0.482	0.035
-344.406	50.824	0.089	0.083
-343.391	-100.403	0.208	-0.051
-342.377	-93.461	0.350	0.096
-341.362	800.000	-0.120	-0.330
-340.348	-84.808	-0.219	0.068
-339.333	112.816	-0.134	-0.160
-338.318	-97.765	0.094	0.024
-337.304	93.471	0.063	-0.071
-336.289	447.101	0.072	0.156
-335.275	-101.001	0.172	-0.042
-334.260	6.297	-0.090	-0.066
-333.245	-30.324	0.071	-0.040
-332.231	-51.026	-0.105	-0.048
-331.216	-71.292	0.182	-0.067
-330.202	20.892	-0.034	-0.027
-329.187	-104.813	-0.269	0.061
-328.172	126.240	-0.177	-0.220
-327.158	-171.168	0.125	0.004
-326.143	269.325	0.101	-0.174
-325.129	-2.233	0.258	0.178
-324.114	-200.000	-0.001	-0.019
-323.099	637.249	0.146	0.366
-322.085	22.866	0.052	-0.042
-321.070	-60.582	-0.219	0.091
-320.056	16.963	-0.068	0.053
-319.041	50.736	0.085	-0.080
-318.026	-122.781	-0.184	-0.029
-317.012	-60.978	0.201	0.084
-315.997	-50.008	0.103	-0.048
-314.983	-200.000	-0.004	0.152
-313.968	283.129	0.124	-0.219
-312.953	448.354	-0.113	-0.244
-311.939	521.502	-0.100	0.230
-310.924	-2.234	-0.171	-0.118
-309.910	579.832	0.150	0.362
-308.895	-5.899	-0.218	0.147
-307.880	-63.261	0.589	-0.239
-306.866	-14.057	0.329	-0.209
-305.851	-76.879	-0.066	-0.023
-304.837	-200.000	-0.007	-0.353
-303.822	246.916	-0.043	-0.072
-302.807	-200.000	-0.016	-0.134
-301.793	219.713	-0.061	-0.097
-300.778	64.500	-0.137	-0.136
-299.764	659.071	-0.120	-0.303
-298.749	800.000	0.076	0.297
-297.735	-45.028	-0.197	-0.096
-296.720	800.000	0.044	0.145
-295.705	-78.368	0.028	0.010
-294.691	144.490	-0.203	0.266
-293.676	343.735	-0.070	0.136
-292.662	-96.112	0.329	0.086
-291.647	766.152	0.098	0.263
-290.632	66.400	-0.267	0.267
-289.618	-6.602	0.376	0.252
-288.603	-200.000	0.019	0.148
-287.589	-70.816	0.185	0.069
-286.574	361.301	-0.109	-0.215
-285.559	306.389	-0.086	-0.157
-284.545	-70.457	0.136	-0.051
-283.530	27.844	0.106	0.088
-282.516	800.000	0.104	0.306
-281.501	718.937	0.052	-0.136
-280.486	109.032	0.093	0.109
-279.472	279.517	-0.104	0.182
-278.457	792.142	-0.079	0.213
-277.443	-48.854	0.225	0.106
-276.428	92.080	-0.054	0.059
-275.413	-200.000	0.001	-0.095
-274.399	64.437	0.042	0.042
-273.384	108.378	-0.165	0.193
-272.370	61.108	0.042	-0.041
-271.355	4.819	-0.094	-0.068
-270.340	-83.959	0.278	-0.087
-269.326	-200.000	-0.030	0.139
-268.311	-200.000	-0.021	0.114
-267.297	800.000	0.021	-0.088
-266.282	-109.048	-0.183	0.038
-265.267	185.374	-0.030	0.044
-264.253	-200.000	-0.005	0.141
-263.238	800.000	-0.081	-0.250
-262.224	10.696	-0.144	-0.108
-261.209	53.299	-0.175	0.165
-260.195	-17.424	-0.184	-0.114
-259.180	-200.000	0.050	-0.448
-258.165	-198.861	0.109	-0.001
-257.151	45.901	0.105	0.096
-256.136	-56.520	-0.293	-0.128
-255.122	144.771	0.095	0.124
-254.107	-165.222	-0.216	0.009
-253.092	-48.409	-0.272	-0.129
-252.078	649.042	-0.052	0.131
-251.063	18.835	-0.010	-0.008
-250.049	-200.000	0.064	0.378
-249.034	373.892	0.071	0.141
-248.019	800.000	0.084	0.234
-247.005	-13.930	-0.110	-0.070
-245.990	621.859	0.030	-0.075
-244.976	323.305	0.076	-0.143
-243.961	317.510	0.023	0.043
-242.946	77.807	0.024	-0.025
-241.932	216.138	-0.057	-0.090
-240.917	57.486	-0.203	0.195
-239.903	204.479	0.146	0.222
-238.888	-50.542	-0.209	-0.097
-237.873	38.690	-0.279	0.244
-236.859	17.144	-0.285	0.222
-235.844	90.095	0.128	-0.141
-234.830	-92.632	-0.280	-0.077
-233.815	800.000	-0.130	-0.401
-232.800	31.116	0.061	-0.052
-231.786	76.456	0.174	-0.181
-230.771	-200.000	-0.021	0.139
-229.757	66.448	-0.209	0.209
-228.742	800.000	-0.096	0.358
-227.727	-110.291	-0.231	-0.047
-226.713	-113.610	-0.314	-0.060
-225.698	-200.000	0.024	0.315
-224.684	136.509	-0.220	-0.282
-223.669	-88.150	0.006	-0.002
-222.655	76.380	-0.102	0.107
-221.640	-200.000	-0.009	-0.052
-220.625	-200.000	-0.078	-0.703
-219.611	-93.882	-0.152	-0.041
-218.596	-200.000	-0.001	0.021
-217.582	-86.706	0.324	-0.097
-216.567	-123.976	-0.294	0.045
-215.552	-88.932	-0.233	-0.068
-214.538	139.156	0.230	0.296
-213.523	800.000	-0.073	0.286
-212.509	800.000	0.140	-0.427
-211.494	-22.497	0.172	-0.102
-210.479	-129.778	0.324	-0.044
-209.465	-125.803	0.284	0.042
-208.450	-109.965	0.354	0.073
-207.436	-200.000	-0.006	0.219
-206.421	-200.000	-0.018	-0.091
-205.406	-88.663	-0.053	-0.015
-204.392	88.554	-0.222	-0.242
-203.377	87.436	-0.071	0.077
-202.363	335.026	-0.060	0.115
-201.348	73.276	-0.166	-0.170
-200.333	16.629	0.198	0.153
-199.319	274.126	-0.031	-0.053
-198.304	-200.000	0.005	0.318
-197.290	-23.673	0.308	0.181
-196.275	-200.000	-0.024	0.489
-195.260	739.087	0.068	0.179
-194.246	177.703	0.159	0.228
-193.231	157.438	-0.099	-0.134
-192.217	800.000	-0.082	0.297
-191.202	-23.486	-0.142	-0.084
-190.187	-102.449	-0.160	0.038
-189.173	-200.000	-0.003	0.275
-188.158	176.102	-0.088	0.125
-187.144	-53.469	-0.443	-0.199
-186.129	41.115	0.135	0.120
-185.114	-30.406	0.360	-0.200
-184.100	548.782	-0.151	-0.355
-183.085	149.098	-0.111	-0.147
-182.071	157.629	-0.106	0.144
-181.056	-97.811	-0.076	0.019
-180.042	-129.532	-0.248	-0.034
-179.027	339.945	0.117	-0.224
-178.012	-89.868	0.178	0.051
-176.998	800.000	0.061	0.169
-175.983	27.600	0.071	0.059
-174.969	19.076	0.061	0.048
-173.954	-200.000	-0.029	0.202
-172.939	-200.000	-0.026	-0.122
-171.925	49.550	0.195	-0.180
-170.910	-103.035	-0.163	0.038
-169.896	-27.882	0.105	-0.059
-168.881	48.653	-0.216	0.198
-167.866	-200.000	-0.002	0.287
-166.852	-28.839	0.235	-0.132
-165.837	-159.310	-0.123	-0.007
-164.823	64.658	-0.040	-0.039
-163.808	10.926	-0.070	-0.052
-162.793	326.689	0.124	-0.232
-161.779	-68.957	-0.475	-0.179
-160.764	-200.000	-0.056	0.256
-159.750	281.247	0.166	0.291
-158.735	-144.607	0.212	-0.019
-157.720	-200.000	0.001	-0.087
-156.706	800.000	0.099	-0.277
-155.691	-11.903	0.217	-0.140
-154.677	-39.884	0.407	0.208
-153.662	-200.000	-0.024	0.435
-152.647	771.842	-0.058	0.153
-151.633	-102.490	0.229	-0.054
-150.618	519.343	0.049	0.113
-149.604	-71.884	0.186	0.068
-148.589	-69.048	0.227	0.086
-147.574	-200.000	-0.039	0.223
-146.560	-123.332	0.373	0.058
-145.545	-131.795	-0.355	0.046
-144.531	-26.255	0.186	0.107
-143.516	152.174	-0.068	0.091
-142.502	135.564	-0.117	-0.149
-141.487	453.532	0.132	0.285
-140.472	-200.000	0.024	0.279
-139.458	175.584	0.194	0.275
-138.443	-60.171	-0.306	0.128
-137.429	-173.988	0.333	0.010
-136.414	408.340	-0.031	-0.064
-135.399	-200.000	-0.008	0.180
-134.385	-96.378	0.171	-0.044
-133.370	117.742	0.064	0.078
-132.356	264.602	0.054	-0.092
-131.341	-8.587	0.279	0.183
-130.326	-151.616	-0.216	0.016
-129.312	1.831	0.324	0.228
-128.297	-19.025	0.084	0.051
-127.283	-175.382	-0.102	0.003
-126.268	162.187	-0.194	0.266
-125.253	800.000	0.030	-0.088
-124.239	-200.000	0.039	-0.228
-123.224	800.000	0.092	-0.291
-122.210	-200.000	-0.035	-0.186
-121.195	1.113	0.222	0.155
-120.180	-139.025	0.156	-0.016
