DTS Sentinel unit serial number:	SN413079Multiplexer serial number:	ORYXHardware model number:	OX4-SRSoftware version number:	ORYX F/W v4.00 Oryx Data Collector v3.7.2.0data status	okinstallation	princeton_trtdifferential loss correction	single-endedforward channel	channel 1reverse channel	N/Adate	2019/09/11time	20:44:11forward acquisition time	60.00reverse acquisition time	0.00gamma	496.2192k internal	0.2306k external	0.2306temperature offset calibration	1.0045default loss term (dB/km)	0.3790temperature slope calibration	1.0000multiplexer offset coefficient	1.0000multiplexer slope coefficient	1.0000fibre end	0.00T internal ref (°C)	37.16T ext. ref 1 (°C)	1.54T ext. ref 2 (°C)	30.92length (m)	temperature (°C)	Stokes	anti-Stokes-747.200	-37.890	0.432	-0.234
-746.185	434.963	0.087	0.192
-745.171	-21.745	-0.032	-0.020
-744.156	-200.000	-0.024	0.555
-743.142	-48.371	0.130	0.064
-742.127	245.167	0.091	0.155
-741.112	-200.000	0.065	-0.397
-740.098	-95.756	0.099	0.027
-739.083	635.306	-0.068	0.175
-738.069	-200.000	-0.054	0.418
-737.054	-200.000	0.040	0.186
-736.039	34.369	0.196	-0.174
-735.025	-200.000	0.068	0.336
-734.010	-65.724	-0.095	0.039
-732.996	-8.444	0.079	-0.054
-731.981	63.758	-0.090	-0.092
-730.966	-90.853	-0.430	0.126
-729.952	40.101	-0.171	-0.156
-728.937	140.214	0.129	-0.172
-727.923	-158.339	0.106	0.006
-726.908	-51.017	-0.213	-0.102
-725.894	-156.537	-0.212	0.013
-724.879	-111.552	-0.111	0.023
-723.864	-1.008	0.215	0.155
-722.850	-200.000	-0.056	-0.501
-721.835	800.000	-0.079	-0.256
-720.821	13.657	-0.118	-0.093
-719.806	800.000	-0.070	-0.273
-718.791	-200.000	0.032	0.398
-717.777	-200.000	-0.036	-0.441
-716.762	-131.281	-0.174	-0.024
-715.748	-8.360	-0.217	-0.148
-714.733	187.384	-0.062	-0.093
-713.718	800.000	-0.031	0.124
-712.704	26.958	-0.331	-0.282
-711.689	6.468	-0.451	-0.341
-710.675	-163.252	-0.112	0.005
-709.660	-200.000	-0.010	0.152
-708.645	-200.000	-0.167	0.000
-707.631	190.472	-0.203	0.310
-706.616	592.569	-0.064	-0.162
-705.602	235.770	-0.194	0.326
-704.587	-139.673	-0.215	-0.023
-703.572	-156.106	-0.247	-0.016
-702.558	169.995	-0.159	0.230
-701.543	800.000	-0.036	0.118
-700.529	800.000	-0.050	-0.151
-699.514	-200.000	0.046	-0.306
-698.499	-108.394	-0.201	0.044
-697.485	-200.000	-0.010	-0.116
-696.470	22.072	0.482	0.400
-695.456	623.498	-0.030	-0.076
-694.441	448.637	0.178	0.398
-693.426	800.000	-0.124	-0.396
-692.412	58.149	0.397	0.395
-691.397	-128.204	-0.266	0.039
-690.383	584.481	0.193	-0.480
-689.368	800.000	-0.094	-0.284
-688.354	-173.303	-0.064	-0.002
-687.339	62.645	0.091	0.092
-686.324	-32.402	0.088	-0.050
-685.310	-59.813	0.208	-0.091
-684.295	74.870	0.234	0.250
-683.281	-153.124	-0.174	-0.012
-682.266	116.626	0.090	-0.112
-681.251	454.649	0.072	0.162
-680.237	-200.000	-0.055	-0.299
-679.222	-186.341	0.108	-0.002
-678.208	-25.674	-0.175	-0.105
-677.193	449.476	-0.055	-0.124
-676.178	-200.000	-0.024	0.195
-675.164	-200.000	0.214	-0.001
-674.149	-156.971	-0.148	0.009
-673.135	332.069	0.104	0.203
-672.120	125.502	0.073	-0.094
-671.105	-0.357	0.210	0.151
-670.091	622.816	-0.109	-0.279
-669.076	15.200	-0.107	0.085
-668.062	34.140	-0.098	-0.087
-667.047	67.285	-0.180	0.186
-666.032	-126.919	-0.133	0.020
-665.018	388.824	-0.112	0.235
-664.003	-42.653	0.353	-0.182
-662.989	-111.341	-0.061	0.013
-661.974	-126.757	-0.202	-0.030
-660.959	395.792	0.117	-0.247
-659.945	785.171	-0.040	0.110
-658.930	-87.298	0.321	-0.099
-657.916	800.000	0.092	-0.292
-656.901	-200.000	0.057	-0.340
-655.886	352.318	0.040	-0.081
-654.872	5.120	-0.322	-0.241
-653.857	428.149	-0.057	-0.126
-652.843	163.984	-0.098	0.140
-651.828	137.208	-0.187	0.248
-650.814	330.553	-0.124	0.242
-649.799	57.756	0.096	-0.096
-648.784	234.967	0.159	0.266
-647.770	133.180	-0.190	-0.248
-646.755	-95.814	-0.266	-0.072
-645.741	46.397	0.112	-0.106
-644.726	-30.250	0.141	0.081
-643.711	-119.573	-0.044	0.008
-642.697	38.373	0.034	0.030
-641.682	120.755	0.111	-0.139
-640.668	101.790	-0.098	0.116
-639.653	93.222	-0.204	0.233
-638.638	-139.892	0.388	-0.042
-637.624	781.791	0.110	0.305
-636.609	800.000	0.063	0.244
-635.595	800.000	0.084	-0.270
-634.580	199.328	-0.133	-0.207
-633.565	233.675	-0.100	-0.166
-632.551	800.000	-0.065	0.184
-631.536	-92.573	-0.203	0.058
-630.522	-105.434	0.169	-0.039
-629.507	-107.969	0.267	-0.059
-628.492	-200.000	0.006	-0.137
-627.478	262.391	0.140	0.247
-626.463	-66.608	-0.150	0.060
-625.449	800.000	-0.096	0.271
-624.434	-110.958	-0.351	0.073
-623.419	-56.854	-0.160	-0.072
-622.405	-65.960	0.137	-0.055
-621.390	-104.146	0.171	-0.040
-620.376	-90.474	-0.062	0.018
-619.361	-96.266	-0.322	-0.086
-618.346	114.890	0.231	-0.285
-617.332	-34.137	0.183	0.102
-616.317	41.690	0.021	-0.019
-615.303	152.874	-0.205	-0.283
-614.288	435.311	0.051	-0.112
-613.273	800.000	-0.067	0.208
-612.259	-200.000	0.007	0.052
-611.244	70.545	0.017	-0.018
-610.230	-196.367	-0.115	0.001
-609.215	-54.273	0.193	-0.089
-608.201	-100.459	0.088	-0.022
-607.186	-51.782	-0.461	0.217
-606.171	800.000	-0.052	-0.202
-605.157	16.010	-0.217	-0.173
-604.142	642.528	0.055	0.141
-603.128	-148.909	-0.103	0.008
-602.113	295.280	-0.018	-0.033
-601.098	-67.804	0.304	0.120
-600.084	44.163	0.207	-0.192
-599.069	323.677	-0.193	-0.372
-598.055	12.109	-0.159	-0.124
-597.040	-190.713	0.245	0.003
-596.025	-200.000	0.016	0.199
-595.011	66.387	-0.170	0.175
-593.996	-200.000	0.001	-0.045
-592.982	108.981	0.028	0.033
-591.967	357.307	0.059	0.118
-590.952	41.874	-0.106	0.097
-589.938	-147.382	-0.434	0.037
-588.923	-9.951	0.206	-0.139
-587.909	60.046	0.299	-0.299
-586.894	-32.489	0.204	-0.115
-585.879	-149.466	-0.175	-0.014
-584.865	-83.470	-0.180	0.058
-583.850	469.473	0.130	-0.295
-582.836	127.009	0.112	0.144
-581.821	96.461	-0.304	-0.352
-580.806	169.987	-0.042	0.061
-579.792	-111.664	0.053	-0.011
-578.777	-138.780	-0.159	0.017
-577.763	34.741	0.193	0.170
-576.748	800.000	-0.022	0.065
-575.733	-16.154	0.175	0.112
-574.719	800.000	0.061	-0.193
-573.704	-19.423	-0.056	-0.035
-572.690	-200.000	-0.011	-0.204
-571.675	585.323	-0.077	-0.191
-570.661	800.000	0.010	0.038
-569.646	800.000	0.039	0.127
-568.631	-200.000	0.031	0.340
-567.617	-125.259	-0.204	0.032
-566.602	211.724	0.083	0.133
-565.588	-43.606	0.077	-0.039
-564.573	-61.304	0.185	0.079
-563.558	-66.088	0.168	-0.068
-562.544	-200.000	0.031	0.450
-561.529	-191.591	-0.230	-0.002
-560.515	-196.349	-0.274	0.002
-559.500	182.302	0.148	-0.220
-558.485	800.000	-0.017	0.053
-557.471	200.408	0.049	-0.076
-556.456	-112.229	-0.386	-0.078
-555.442	732.779	0.152	0.410
-554.427	-149.997	-0.122	0.010
-553.412	-135.223	-0.196	-0.024
-552.398	-97.819	0.169	-0.044
-551.383	-200.000	-0.011	0.243
-550.369	800.000	-0.119	0.414
-549.354	-52.923	-0.286	0.133
-548.339	129.282	0.117	-0.151
-547.325	-43.023	0.198	-0.101
-546.310	24.563	0.143	0.120
-545.296	336.468	0.118	-0.232
-544.281	-77.774	-0.139	-0.048
-543.266	-100.890	-0.101	0.025
-542.252	-90.695	-0.367	-0.107
-541.237	121.284	-0.178	-0.224
-540.223	490.775	-0.055	0.127
-539.208	-200.000	-0.009	0.253
-538.193	146.073	0.236	0.319
-537.179	-114.493	-0.197	-0.038
-536.164	-198.200	-0.182	-0.001
-535.150	-200.000	0.011	0.263
-534.135	76.175	0.143	-0.152
-533.121	-16.343	-0.384	-0.246
-532.106	4.028	0.164	-0.121
-531.091	-200.000	-0.040	0.281
-530.077	-73.024	0.089	0.033
-529.062	44.850	-0.171	0.158
-528.048	-123.179	0.168	-0.027
-527.033	-142.660	-0.255	0.025
-526.018	-81.525	0.167	0.056
-525.004	-200.000	-0.231	0.000
-523.989	65.688	-0.186	-0.190
-522.975	168.063	-0.125	0.179
-521.960	539.198	-0.089	-0.213
-520.945	162.289	0.163	0.230
-519.931	-94.692	-0.313	0.086
-518.916	-112.085	0.174	-0.035
-517.902	-200.000	0.044	0.228
-516.887	-43.279	0.346	0.177
-515.872	-200.000	-0.010	0.062
-514.858	-200.000	-0.020	-0.385
-513.843	97.190	-0.056	0.064
-512.829	-200.000	-0.004	0.024
-511.814	163.997	-0.072	-0.102
-510.799	720.540	0.025	-0.067
-509.785	-200.000	-0.059	-0.270
-508.770	66.837	-0.085	-0.088
-507.756	-49.297	-0.180	0.087
-506.741	-200.000	-0.015	0.151
-505.726	13.378	-0.077	-0.060
-504.712	396.569	-0.050	-0.106
-503.697	800.000	-0.077	-0.298
-502.683	510.934	0.054	0.126
-501.668	-100.694	-0.272	0.068
-500.653	-94.057	0.094	-0.026
-499.639	177.028	0.084	-0.123
-498.624	57.732	-0.294	-0.289
-497.610	-200.000	0.001	0.164
-496.595	800.000	-0.015	-0.059
-495.581	68.091	0.193	-0.199
-494.566	-200.000	0.017	0.163
-493.551	800.000	0.037	0.128
-492.537	-47.294	0.141	-0.069
-491.522	-79.788	-0.230	-0.078
-490.508	-181.643	-0.132	0.003
-489.493	-52.965	0.047	0.022
-488.478	-82.287	0.111	-0.036
-487.464	-200.000	0.047	0.396
-486.449	299.195	0.312	-0.578
-485.435	-55.606	0.300	-0.135
-484.420	-57.308	0.194	0.086
-483.405	-200.000	-0.002	-0.074
-482.391	330.625	-0.092	-0.179
-481.376	-8.584	0.222	0.150
-480.362	80.405	0.078	0.084
-479.347	-116.995	0.243	-0.045
-478.332	7.539	0.091	0.069
-477.318	-31.318	0.195	0.111
-476.303	-15.496	0.201	0.129
-475.289	170.828	0.110	-0.159
-474.274	800.000	0.049	-0.166
-473.259	315.224	0.035	0.066
-472.245	214.198	-0.251	0.400
-471.230	800.000	-0.051	-0.166
-470.216	101.792	-0.060	0.071
-469.201	-81.518	-0.284	-0.094
-468.186	800.000	0.081	0.291
-467.172	-86.246	-0.417	0.129
-466.157	35.207	0.248	0.219
-465.143	-132.640	-0.362	0.047
-464.128	-123.384	0.057	0.009
-463.113	102.297	0.092	0.108
-462.099	411.290	-0.043	-0.092
-461.084	39.050	0.205	-0.184
-460.070	89.341	0.212	-0.238
-459.055	-58.069	0.293	-0.129
-458.040	20.745	-0.283	-0.230
-457.026	800.000	0.104	0.317
-456.011	262.527	0.261	0.455
-454.997	-36.650	0.182	0.098
-453.982	-151.818	-0.262	0.019
-452.968	-93.547	0.065	0.018
-451.953	485.630	-0.020	0.047
-450.938	-36.570	-0.256	-0.139
-449.924	-200.000	-0.024	0.181
-448.909	68.000	-0.024	0.025
-447.895	-69.328	0.249	-0.096
-446.880	633.275	-0.037	0.094
-445.865	-132.882	-0.259	-0.033
-444.851	55.568	-0.176	0.172
-443.836	-78.066	-0.291	0.101
-442.822	461.917	0.177	-0.397
-441.807	-87.582	0.173	0.053
-440.792	800.000	-0.096	-0.360
-439.778	63.171	-0.056	0.056
-438.763	91.836	-0.088	0.100
-437.749	579.708	-0.034	0.082
-436.734	-103.857	0.233	-0.055
-435.719	140.023	0.140	0.186
-434.705	360.870	-0.196	0.394
-433.690	-3.658	0.227	0.158
-432.676	-43.397	0.062	-0.031
-431.661	-81.700	-0.145	-0.048
-430.646	-95.884	-0.236	0.063
-429.632	-157.389	-0.119	0.007
-428.617	-200.000	0.029	-0.344
-427.603	-123.790	0.215	0.034
-426.588	28.839	0.106	-0.091
-425.573	6.316	0.200	-0.149
-424.559	-42.300	-0.345	-0.177
-423.544	800.000	-0.080	-0.252
-422.530	-38.348	0.144	-0.076
-421.515	-58.240	0.052	0.023
-420.500	-84.006	0.205	-0.066
-419.486	-200.000	0.091	-0.403
-418.471	-200.000	-0.001	-0.529
-417.457	-119.118	0.135	-0.024
-416.442	189.244	0.127	0.191
-415.428	-145.224	-0.546	0.050
-414.413	800.000	-0.089	0.348
-413.398	-60.477	0.143	-0.061
-412.384	-1.389	0.090	-0.063
-411.369	44.881	0.068	-0.063
-410.355	-111.412	-0.127	0.026
-409.340	194.912	0.060	-0.091
-408.325	800.000	-0.044	-0.146
-407.311	28.194	-0.241	0.204
-406.296	-74.500	0.427	-0.155
-405.282	-14.145	0.149	0.097
-404.267	-28.792	-0.241	-0.139
-403.252	-128.412	-0.128	-0.018
-402.238	-33.427	-0.163	0.090
-401.223	54.528	0.200	0.193
-400.209	-155.227	-0.253	-0.017
-399.194	-19.823	0.188	0.117
-398.179	634.577	0.049	0.125
-397.165	-34.556	-0.042	-0.023
-396.150	125.793	-0.295	-0.374
-395.136	-123.923	0.178	-0.028
-394.121	-114.398	0.490	0.095
-393.106	-200.000	0.002	0.095
-392.092	58.962	-0.189	-0.186
-391.077	-200.000	-0.024	0.181
-390.063	543.586	0.066	0.158
-389.048	-173.669	-0.127	-0.004
-388.033	0.188	-0.106	-0.076
-387.019	287.019	-0.044	-0.080
-386.004	800.000	0.074	0.258
-384.990	633.712	-0.171	0.434
-383.975	127.929	-0.204	0.261
-382.960	-200.000	0.009	-0.173
-381.946	46.094	0.201	-0.187
-380.931	335.604	0.100	-0.194
-379.917	-74.077	0.049	-0.018
-378.902	-12.563	-0.268	-0.176
-377.888	122.454	0.115	-0.144
-376.873	132.580	-0.249	0.321
-375.858	590.096	-0.063	0.155
-374.844	-200.000	-0.003	0.072
-373.829	54.264	-0.038	-0.037
-372.815	-200.000	-0.036	0.466
-371.800	623.588	0.075	0.190
-370.785	80.135	0.082	0.088
-369.771	-57.338	0.331	-0.146
-368.756	-200.000	0.029	0.155
-367.742	-47.768	0.285	0.138
-366.727	59.536	0.089	0.088
-365.712	-142.775	0.111	-0.011
-364.698	-200.000	0.003	-0.037
-363.683	-37.636	-0.138	0.074
-362.669	-200.000	-0.022	-0.310
-361.654	40.948	0.169	-0.153
-360.639	-68.430	0.235	-0.091
-359.625	-17.926	-0.156	0.098
-358.610	800.000	0.057	0.237
-357.596	-51.376	-0.171	0.080
-356.581	-116.446	-0.130	-0.024
-355.566	-45.000	0.085	-0.042
-354.552	-107.078	0.209	-0.046
-353.537	170.242	-0.183	-0.262
-352.523	31.237	-0.234	0.202
-351.508	800.000	-0.068	0.209
-350.493	98.360	0.316	-0.365
-349.479	-85.659	0.467	0.145
-348.464	127.879	-0.124	0.158
-347.450	-135.995	-0.062	0.007
-346.435	-32.172	-0.078	0.044
-345.420	65.105	-0.206	0.209
-344.406	800.000	-0.056	0.191
-343.391	77.115	-0.185	0.196
-342.377	615.733	-0.071	-0.177
-341.362	-91.891	-0.316	0.090
-340.348	25.489	-0.216	0.180
-339.333	49.803	0.249	0.235
-338.318	-69.866	0.154	-0.059
-337.304	-88.564	-0.141	-0.042
-336.289	-128.364	-0.059	-0.008
-335.275	-163.543	0.338	0.016
-334.260	168.412	-0.248	-0.353
-333.245	-71.651	-0.393	-0.147
-332.231	76.111	-0.320	0.339
-331.216	-93.528	0.140	-0.039
-330.202	800.000	0.089	0.337
-329.187	-111.973	-0.127	0.026
-328.172	-200.000	0.012	0.252
-327.158	800.000	0.033	0.141
-326.143	-166.992	0.471	-0.019
-325.129	-109.616	-0.168	-0.036
-324.114	-57.938	-0.283	0.124
-323.099	5.748	-0.068	0.050
-322.085	192.950	0.091	0.137
-321.070	105.605	-0.113	-0.134
-320.056	-200.000	0.009	-0.139
-319.041	447.448	0.075	-0.166
-318.026	-3.570	0.041	0.029
-317.012	-200.000	-0.005	-0.043
-315.997	-200.000	-0.002	0.444
-314.983	-43.956	-0.135	-0.068
-313.968	-41.063	-0.163	-0.084
-312.953	-113.630	0.153	0.030
-311.939	800.000	0.074	0.222
-310.924	122.046	0.235	-0.294
-309.910	-167.384	0.025	-0.001
-308.895	261.882	-0.020	-0.035
-307.880	-194.077	0.210	-0.002
-306.866	-23.884	0.274	0.164
-305.851	96.054	-0.158	-0.181
-304.837	122.687	-0.221	0.276
-303.822	-29.286	-0.089	-0.051
-302.807	604.445	-0.068	-0.169
-301.793	-183.123	0.115	-0.002
-300.778	800.000	-0.026	0.099
-299.764	-125.377	-0.230	-0.035
-298.749	-200.000	-0.008	0.322
-297.735	-200.000	0.008	-0.252
-296.720	-200.000	0.058	-0.413
-295.705	-200.000	0.038	-0.363
-294.691	-174.070	0.253	0.007
-293.676	-124.907	-0.225	-0.035
-292.662	800.000	0.042	0.118
-291.647	60.708	-0.110	-0.109
-290.632	-200.000	-0.003	-0.023
-289.618	-169.908	0.272	-0.010
-288.603	-36.203	0.137	-0.074
-287.589	-116.770	-0.043	-0.008
-286.574	-145.332	0.084	0.008
-285.559	-111.054	0.168	0.035
-284.545	41.403	0.084	-0.076
-283.530	720.435	-0.104	0.276
-282.516	497.692	-0.079	0.181
-281.501	174.285	-0.116	-0.168
-280.486	358.095	-0.195	0.388
-279.472	549.427	-0.043	-0.104
-278.457	50.225	0.108	0.102
-277.443	220.149	-0.040	0.064
-276.428	-2.794	0.133	-0.093
-275.413	382.876	0.123	0.252
-274.399	-22.717	-0.424	0.256
-273.384	167.284	0.099	0.141
-272.370	766.741	0.089	-0.243
-271.355	-95.862	0.552	0.147
-270.340	-106.054	0.187	-0.042
-269.326	-200.000	-0.038	0.240
-268.311	-19.888	-0.105	-0.064
-267.297	28.981	-0.167	-0.142
-266.282	85.545	-0.055	0.060
-265.267	-26.964	0.273	-0.159
-264.253	178.133	-0.065	-0.095
-263.238	-93.347	0.213	0.059
-262.224	800.000	0.061	-0.194
-261.209	-200.000	0.014	0.145
-260.195	-34.350	0.081	-0.044
-259.180	-94.318	-0.184	-0.050
-258.165	294.360	0.111	0.202
-257.151	-46.397	-0.151	0.074
-256.136	236.448	0.088	0.146
-255.122	52.393	0.061	-0.058
-254.107	-156.863	0.049	-0.003
-253.092	-44.831	-0.132	-0.066
-252.078	-200.000	0.019	0.109
-251.063	800.000	-0.026	-0.106
-250.049	30.110	-0.198	-0.168
-249.034	13.131	0.102	-0.079
-248.019	-200.000	0.017	-0.419
-247.005	177.097	-0.109	0.158
-245.990	800.000	-0.100	-0.382
-244.976	-200.000	-0.001	-0.192
-243.961	-71.325	0.169	-0.063
-242.946	-200.000	0.084	0.498
-241.932	18.496	-0.124	-0.099
-240.917	72.081	0.206	0.214
-239.903	-187.972	-0.210	-0.003
-238.888	149.779	-0.194	-0.262
-237.873	800.000	0.027	0.091
-236.859	64.428	-0.126	-0.126
-235.844	-200.000	0.001	-0.095
-234.830	-200.000	-0.054	-0.353
-233.815	234.594	0.046	0.076
-232.800	141.887	-0.156	-0.206
-231.786	63.582	0.062	-0.062
-230.771	396.993	-0.095	-0.198
-229.757	455.352	0.046	0.101
-228.742	90.011	-0.202	-0.225
-227.727	-86.432	-0.255	-0.078
-226.713	-130.809	0.014	0.002
-225.698	237.986	-0.165	-0.273
-224.684	156.697	-0.201	0.277
-223.669	19.873	0.081	0.065
-222.655	-152.771	0.238	-0.017
-221.640	334.536	0.146	0.282
-220.625	32.933	-0.211	-0.182
-219.611	-200.000	-0.004	-0.235
-218.596	123.828	-0.045	0.057
-217.582	-124.016	0.337	-0.053
-216.567	-13.414	0.043	-0.028
-215.552	-34.052	0.168	0.092
-214.538	386.224	0.114	0.234
-213.523	-107.872	-0.068	0.015
-212.509	246.813	-0.099	-0.167
-211.494	800.000	-0.114	-0.357
-210.479	-89.574	0.210	-0.061
-209.465	-67.371	0.598	-0.234
-208.450	-153.610	0.155	-0.011
-207.436	-72.120	0.460	0.170
-206.421	-200.000	-0.015	0.280
-205.406	800.000	0.083	0.232
-204.392	483.453	0.097	-0.221
-203.377	800.000	0.063	0.228
-202.363	-151.028	0.173	0.013
-201.348	433.341	-0.087	-0.189
-200.333	-200.000	0.007	-0.144
-199.319	-6.376	-0.534	0.363
-198.304	-99.582	0.339	-0.085
-197.290	739.363	0.020	0.053
-196.275	-75.803	-0.331	0.117
-195.260	-200.000	-0.026	0.229
-194.246	-200.000	-0.001	-0.065
-193.231	-58.060	0.227	-0.098
-192.217	108.533	0.319	0.379
-191.202	-200.000	-0.021	-0.116
-190.187	-200.000	-0.017	0.129
-189.173	800.000	0.036	0.121
-188.158	360.870	-0.138	-0.274
-187.144	-135.989	0.208	-0.024
-186.129	-200.000	0.019	-0.173
-185.114	-34.276	0.038	-0.021
-184.100	-24.912	0.070	-0.042
-183.085	800.000	-0.110	0.346
-182.071	58.713	0.111	-0.108
-181.056	-45.501	-0.283	-0.139
-180.042	196.437	0.145	-0.219
-179.027	800.000	0.090	-0.367
-178.012	76.287	0.194	-0.205
-176.998	-79.470	0.346	-0.116
-175.983	-72.646	-0.174	-0.064
-174.969	-86.336	-0.152	-0.046
-173.954	-2.144	-0.217	0.152
-172.939	-200.000	0.034	0.177
-171.925	-96.783	-0.375	-0.098
-170.910	98.526	-0.285	-0.327
-169.896	-200.000	0.042	0.188
-168.881	-63.872	-0.230	0.093
-167.866	-200.000	-0.037	-0.215
-166.852	259.097	0.101	-0.173
-165.837	-3.975	0.231	-0.159
-164.823	122.622	-0.144	0.179
-163.808	9.782	0.118	-0.089
-162.793	-200.000	0.012	0.083
-161.779	800.000	0.094	-0.277
-160.764	-78.644	0.142	0.048
-159.750	-200.000	-0.012	-0.083
-158.735	-200.000	-0.055	-0.403
-157.720	40.922	-0.100	-0.090
-156.706	-200.000	-0.060	0.349
-155.691	-105.555	-0.025	0.006
-154.677	-146.509	0.241	-0.021
-153.662	184.592	0.080	-0.117
-152.647	800.000	0.115	0.366
-151.633	-200.000	-0.019	-0.200
-150.618	-86.451	0.341	0.104
-149.604	258.046	0.072	-0.122
-148.589	226.404	0.051	0.083
-147.574	-48.668	0.265	0.127
-146.560	336.860	-0.118	0.228
-145.545	77.283	0.110	0.116
-144.531	-200.000	0.008	-0.141
-143.516	-169.193	0.229	-0.008
-142.502	529.325	-0.105	0.246
-141.487	303.357	0.086	0.159
-140.472	-200.000	-0.020	-0.157
-139.458	-121.903	-0.277	-0.045
-138.443	-200.000	-0.049	-0.277
-137.429	-121.447	0.539	-0.089
-136.414	-79.799	-0.179	-0.060
-135.399	123.782	0.282	0.352
-134.385	-45.895	-0.027	0.013
-133.370	128.915	0.168	0.212
-132.356	223.786	0.148	-0.237
-131.341	-9.146	0.097	0.065
-130.326	-34.543	-0.158	0.086
-129.312	-93.659	0.189	0.052
-128.297	194.974	0.149	0.225
-127.283	-200.000	-0.005	-0.065
-126.268	1.167	-0.286	0.204
-125.253	-200.000	-0.001	0.436
-124.239	199.968	-0.127	0.193
-123.224	-132.190	0.087	0.011
-122.210	800.000	-0.061	-0.258
