DTS Sentinel unit serial number:	SN413079Multiplexer serial number:	ORYXHardware model number:	OX4-SRSoftware version number:	ORYX F/W v4.00 Oryx Data Collector v3.7.2.0data status	okinstallation	princeton_trtdifferential loss correction	single-endedforward channel	channel 1reverse channel	N/Adate	2019/09/15time	16:06:35forward acquisition time	60.00reverse acquisition time	0.00gamma	496.2192k internal	0.2291k external	0.2291temperature offset calibration	0.9938default loss term (dB/km)	0.3790temperature slope calibration	1.0000multiplexer offset coefficient	1.0000multiplexer slope coefficient	1.0000fibre end	0.00T internal ref (°C)	43.02T ext. ref 1 (°C)	5.37T ext. ref 2 (°C)	40.40length (m)	temperature (°C)	Stokes	anti-Stokes-747.200	-163.071	0.199	-0.010
-746.185	-200.000	-0.032	0.586
-745.171	800.000	-0.115	0.382
-744.156	-50.833	0.306	0.148
-743.142	-39.945	0.306	0.164
-742.127	16.974	0.287	0.233
-741.112	43.248	0.195	0.183
-740.098	-10.771	0.216	-0.146
-739.083	-61.989	0.119	0.051
-738.069	-109.494	-0.033	-0.007
-737.054	340.381	-0.080	-0.160
-736.039	-64.886	-0.194	0.080
-735.025	-22.812	0.255	0.157
-734.010	202.807	-0.189	0.299
-732.996	-12.028	-0.163	0.109
-731.981	236.133	0.124	-0.210
-730.966	359.458	0.200	-0.409
-729.952	-200.000	0.039	-0.234
-728.937	377.064	-0.105	0.219
-727.923	-59.692	-0.194	0.085
-726.908	-200.000	0.045	0.346
-725.894	194.330	0.100	-0.155
-724.879	800.000	0.082	-0.261
-723.864	800.000	-0.066	0.262
-722.850	165.281	-0.111	-0.161
-721.835	156.742	-0.132	-0.187
-720.821	-114.596	0.134	-0.026
-719.806	-65.793	-0.262	0.107
-718.791	-57.207	-0.127	0.057
-717.777	-87.127	-0.330	0.103
-716.762	265.931	0.153	0.273
-715.748	105.349	0.130	-0.157
-714.733	-200.000	-0.037	-0.281
-713.718	173.921	-0.102	-0.150
-712.704	-200.000	0.084	-0.000
-711.689	800.000	0.060	0.175
-710.675	11.240	-0.106	-0.083
-709.660	-21.202	0.248	-0.155
-708.645	271.391	-0.028	-0.050
-707.631	800.000	-0.036	0.115
-706.616	-36.998	-0.392	0.215
-705.602	41.132	-0.219	-0.202
-704.587	-117.211	-0.392	0.073
-703.572	201.846	-0.081	0.128
-702.558	-200.000	0.014	-0.097
-701.543	126.969	0.060	-0.078
-700.529	-200.000	0.002	-0.074
-699.514	-46.844	-0.268	0.134
-698.499	800.000	-0.047	-0.145
-697.485	-93.920	0.121	-0.034
-696.470	-156.767	0.065	-0.004
-695.456	-112.673	-0.145	-0.029
-694.441	-45.502	0.173	0.088
-693.426	-15.863	-0.097	-0.063
-692.412	-10.814	-0.140	-0.095
-691.397	-110.581	0.254	-0.054
-690.383	800.000	-0.049	0.154
-689.368	-33.470	0.131	-0.074
-688.354	800.000	0.090	0.306
-687.339	-126.966	0.242	0.036
-686.324	-50.076	-0.176	-0.085
-685.310	42.064	0.068	-0.063
-684.295	286.491	-0.098	-0.181
-683.281	-28.772	0.202	0.119
-682.266	-16.948	-0.262	0.169
-681.251	-34.646	-0.167	0.094
-680.237	-100.160	0.123	0.031
-679.222	556.138	0.099	0.243
-678.208	55.067	0.064	0.063
-677.193	150.860	0.027	-0.038
-676.178	9.730	0.089	-0.069
-675.164	-200.000	-0.014	0.168
-674.149	190.461	-0.090	0.138
-673.135	-130.839	0.205	0.028
-672.120	-141.281	-0.299	-0.031
-671.105	-200.000	-0.003	0.062
-670.091	364.121	-0.080	0.164
-669.076	-77.579	0.198	0.070
-668.062	-64.442	-0.161	-0.067
-667.047	372.544	-0.079	0.164
-666.032	-200.000	-0.001	0.069
-665.018	-200.000	0.015	0.098
-664.003	800.000	-0.034	0.133
-662.989	800.000	0.080	0.235
-661.974	800.000	0.052	-0.224
-660.959	3.808	0.194	-0.145
-659.945	-200.000	-0.025	-0.116
-658.930	460.912	0.089	0.203
-657.916	800.000	-0.025	0.072
-656.901	20.240	0.167	-0.137
-655.886	311.505	-0.086	0.165
-654.872	-200.000	-0.002	-0.154
-653.857	-200.000	0.016	-0.122
-652.843	418.095	0.055	0.120
-651.828	183.799	0.219	-0.330
-650.814	800.000	0.073	-0.213
-649.799	224.318	0.026	0.043
-648.784	-200.000	0.005	-0.060
-647.770	54.740	-0.172	-0.169
-646.755	-119.854	0.111	0.019
-645.741	162.998	-0.069	0.099
-644.726	-200.000	-0.037	-0.244
-643.711	800.000	0.046	-0.205
-642.697	-200.000	0.017	0.079
-641.682	378.029	-0.105	-0.220
-640.668	169.276	-0.136	0.198
-639.653	34.540	0.084	-0.075
-638.638	261.879	0.137	-0.242
-637.624	-52.438	0.166	-0.078
-636.609	800.000	0.047	0.190
-635.595	474.433	0.059	0.135
-634.580	-38.661	0.377	0.203
-633.565	175.133	-0.139	-0.206
-632.551	43.524	-0.174	-0.162
-631.536	243.167	0.083	-0.142
-630.522	317.775	-0.163	-0.315
-629.507	-114.441	0.364	0.071
-628.492	-200.000	-0.073	-0.501
-627.478	-100.878	-0.069	-0.017
-626.463	-48.511	0.147	-0.072
-625.449	-43.722	0.053	-0.027
-624.434	-110.755	0.345	-0.073
-623.419	800.000	-0.097	-0.307
-622.405	99.204	-0.148	-0.175
-621.390	-42.130	0.275	0.144
-620.376	800.000	0.047	-0.143
-619.361	-200.000	0.038	-0.219
-618.346	200.587	0.084	-0.131
-617.332	1.929	0.394	-0.289
-616.317	-200.000	-0.008	-0.206
-615.303	438.466	0.126	0.280
-614.288	-34.445	0.083	-0.046
-613.273	353.188	-0.138	0.279
-612.259	-10.969	-0.178	0.120
-611.244	-119.249	0.079	0.014
-610.230	120.993	0.072	0.092
-609.215	170.022	0.125	0.181
-608.201	-81.833	0.376	0.125
-607.186	45.911	-0.165	-0.156
-606.171	-77.165	0.080	-0.028
-605.157	-200.000	0.013	0.151
-604.142	-14.538	-0.089	-0.058
-603.128	63.483	-0.127	-0.130
-602.113	-200.000	-0.022	0.235
-601.098	115.850	-0.281	-0.350
-600.084	-200.000	-0.022	-0.178
-599.069	-3.008	0.203	0.144
-598.055	633.761	0.044	0.113
-597.040	800.000	-0.023	0.084
-596.025	45.004	-0.330	0.310
-595.011	-53.578	-0.185	-0.086
-593.996	-37.821	0.162	0.088
-592.982	18.893	0.089	0.073
-591.967	111.701	-0.192	-0.236
-590.952	137.509	0.101	0.135
-589.938	-107.385	0.375	0.084
-588.923	41.836	0.046	0.042
-587.909	10.739	-0.172	-0.133
-586.894	-136.282	-0.255	0.030
-585.879	550.160	-0.174	0.424
-584.865	-200.000	-0.012	-0.129
-583.850	800.000	-0.091	-0.321
-582.836	251.346	-0.161	-0.278
-581.821	-19.687	-0.232	-0.146
-580.806	-150.493	0.261	-0.020
-579.792	-129.965	0.148	0.021
-578.777	-153.377	-0.355	-0.025
-577.763	444.073	0.115	0.257
-576.748	-68.598	-0.171	-0.067
-575.733	-200.000	0.000	-0.146
-574.719	-200.000	-0.043	-0.257
-573.704	87.121	-0.212	-0.239
-572.690	-200.000	-0.025	-0.228
-571.675	-56.075	-0.180	-0.082
-570.661	-88.168	-0.061	0.019
-569.646	36.568	-0.152	0.136
-568.631	-72.951	-0.121	-0.045
-567.617	205.872	-0.144	-0.228
-566.602	498.164	0.094	-0.221
-565.588	439.674	0.006	-0.013
-564.573	-139.679	0.117	0.013
-563.558	-118.666	-0.084	0.015
-562.544	800.000	0.069	-0.246
-561.529	-117.120	0.150	-0.028
-560.515	27.825	0.483	-0.414
-559.500	800.000	0.027	-0.120
-558.485	25.363	-0.133	0.113
-557.471	231.411	-0.101	0.169
-556.456	179.547	-0.233	0.346
-555.442	-85.956	-0.400	-0.126
-554.427	-117.819	-0.165	-0.030
-553.412	-32.826	0.208	-0.118
-552.398	-19.396	-0.271	-0.171
-551.383	166.871	0.065	0.093
-550.369	800.000	0.032	0.110
-549.354	-200.000	0.008	-0.253
-548.339	800.000	-0.126	-0.524
-547.325	-102.646	-0.150	-0.036
-546.310	-200.000	-0.038	0.216
-545.296	-68.263	-0.195	0.077
-544.281	-22.711	-0.303	-0.186
-543.266	152.883	0.069	-0.096
-542.252	76.452	0.078	-0.084
-541.237	68.930	0.300	0.314
-540.223	-200.000	0.022	0.298
-539.208	-200.000	-0.020	-0.203
-538.193	194.049	-0.120	0.184
-537.179	-92.918	-0.417	0.118
-536.164	231.675	0.101	0.168
-535.150	-200.000	-0.012	0.179
-534.135	84.803	-0.038	-0.042
-533.121	25.688	-0.243	0.205
-532.106	-40.318	0.039	-0.021
-531.091	-128.827	-0.471	0.067
-530.077	162.814	0.176	-0.251
-529.062	-74.605	0.280	0.102
-528.048	-170.341	-0.102	-0.004
-527.033	211.711	-0.074	-0.118
-526.018	-113.081	-0.055	0.011
-525.004	-200.000	-0.046	0.222
-523.989	397.017	-0.019	-0.041
-522.975	61.245	-0.202	-0.204
-521.960	40.851	-0.262	0.240
-520.945	-69.303	-0.218	0.085
-519.931	340.448	0.197	0.390
-518.916	-23.170	-0.100	0.061
-517.902	1.933	0.096	-0.070
-516.887	-51.289	-0.357	0.170
-515.872	800.000	-0.045	0.197
-514.858	800.000	-0.043	0.151
-513.843	-97.146	0.319	-0.085
-512.829	-47.289	-0.168	0.083
-511.814	221.414	0.075	0.123
-510.799	-93.606	-0.282	0.079
-509.785	559.485	-0.073	0.178
-508.770	800.000	0.074	-0.254
-507.756	90.325	-0.084	0.096
-506.741	63.584	-0.272	-0.277
-505.726	-71.056	-0.172	0.066
-504.712	498.645	0.233	0.543
-503.697	142.709	0.149	0.200
-502.683	-200.000	-0.018	-0.107
-501.668	249.529	-0.192	-0.331
-500.653	266.292	0.098	-0.174
-499.639	-55.334	-0.381	0.173
-498.624	-61.468	-0.049	0.021
-497.610	-113.007	-0.291	-0.058
-496.595	-103.476	0.145	0.035
-495.581	-62.452	0.015	0.006
-494.566	-6.407	0.047	0.033
-493.551	800.000	0.082	0.320
-492.537	61.259	-0.187	0.189
-491.522	-200.000	0.000	-0.157
-490.508	-14.135	0.287	0.188
-489.493	143.041	0.140	-0.189
-488.478	112.620	0.088	-0.109
-487.464	-107.778	0.165	-0.037
-486.449	-200.000	0.020	-0.088
-485.435	-1.273	-0.255	-0.182
-484.420	-128.203	-0.192	-0.028
-483.405	-126.004	-0.251	0.038
-482.391	-13.131	0.182	-0.120
-481.376	-168.539	-0.175	0.007
-480.362	470.422	-0.055	-0.126
-479.347	-70.964	0.337	-0.128
-478.332	298.087	0.149	-0.277
-477.318	-57.900	-0.139	0.061
-476.303	-80.786	0.303	0.102
-475.289	141.289	0.149	0.199
-474.274	41.117	-0.153	-0.140
-473.259	-133.207	0.206	0.026
-472.245	143.954	-0.113	-0.152
-471.230	28.643	0.305	-0.261
-470.216	428.038	0.098	-0.214
-469.201	170.395	-0.006	0.009
-468.186	-200.000	-0.001	-0.320
-467.172	-152.088	-0.235	-0.017
-466.157	-200.000	0.019	0.119
-465.143	-155.885	-0.224	-0.014
-464.128	-200.000	-0.007	-0.037
-463.113	163.723	0.118	0.168
-462.099	63.385	0.203	-0.206
-461.084	-152.311	-0.157	0.012
-460.070	33.110	-0.189	-0.166
-459.055	256.779	0.059	-0.102
-458.040	-122.714	-0.152	-0.025
-457.026	-200.000	-0.043	-0.405
-456.011	800.000	-0.044	0.126
-454.997	-200.000	-0.004	0.138
-453.982	800.000	0.056	0.167
-452.968	-200.000	-0.010	0.242
-451.953	800.000	0.037	0.133
-450.938	242.683	-0.107	0.182
-449.924	11.095	-0.152	0.118
-448.909	-55.685	-0.108	-0.049
-447.895	-200.000	0.040	0.251
-446.880	429.152	-0.053	-0.116
-445.865	-168.381	0.243	-0.009
-444.851	-200.000	0.027	0.255
-443.836	398.547	-0.074	-0.156
-442.822	303.168	0.180	-0.337
-441.807	315.025	-0.143	0.273
-440.792	-27.263	-0.236	0.139
-439.778	-61.571	-0.160	0.068
-438.763	34.173	0.030	-0.026
-437.749	-115.064	0.304	-0.058
-436.734	800.000	-0.048	-0.202
-435.719	258.820	-0.146	-0.255
-434.705	-182.015	-0.136	0.003
-433.690	366.431	0.092	0.188
-432.676	-86.643	-0.304	-0.094
-431.661	-200.000	0.017	-0.253
-430.646	346.846	0.064	-0.126
-429.632	-44.812	0.170	-0.086
-428.617	15.944	-0.131	-0.104
-427.603	800.000	-0.002	0.006
-426.588	-200.000	-0.085	-0.494
-425.573	80.090	-0.153	0.167
-424.559	152.226	-0.136	-0.187
-423.544	21.140	0.100	-0.082
-422.530	-6.540	-0.097	-0.067
-421.515	104.006	-0.044	0.052
-420.500	-66.306	-0.227	-0.091
-419.486	59.224	0.224	0.223
-418.471	459.617	0.112	0.252
-417.457	-124.648	0.213	-0.033
-416.442	43.270	-0.055	-0.051
-415.428	-200.000	0.003	0.139
-414.413	220.412	-0.112	-0.181
-413.398	-200.000	-0.052	-0.376
-412.384	-14.953	0.155	-0.100
-411.369	-200.000	0.014	-0.304
-410.355	246.814	-0.148	0.252
-409.340	214.276	0.163	-0.261
-408.325	347.080	-0.073	0.146
-407.311	-77.677	0.084	-0.029
-406.296	-179.340	0.143	0.003
-405.282	130.714	0.022	-0.028
-404.267	-200.000	0.003	0.069
-403.252	723.615	-0.118	0.319
-402.238	-83.704	-0.112	-0.036
-401.223	-121.833	-0.207	0.034
-400.209	143.795	0.088	0.119
-399.194	422.224	0.010	0.021
-398.179	-200.000	-0.006	-0.224
-397.165	-166.227	0.293	0.013
-396.150	800.000	0.035	0.146
-395.136	-200.000	0.017	0.222
-394.121	-168.777	0.169	0.006
-393.106	-147.193	-0.244	-0.021
-392.092	800.000	0.033	-0.107
-391.077	3.912	-0.125	-0.093
-390.063	40.292	0.194	0.177
-389.048	36.382	0.156	0.139
-388.033	-110.607	0.233	-0.049
-387.019	627.997	0.059	-0.151
-386.004	-200.000	-0.182	0.000
-384.990	621.174	-0.126	0.319
-383.975	-49.762	0.056	-0.027
-382.960	-11.712	0.164	0.109
-381.946	800.000	0.107	0.330
-380.931	-200.000	-0.017	-0.090
-379.917	8.656	-0.302	-0.229
-378.902	800.000	-0.113	0.366
-377.888	-200.000	0.016	0.457
-376.873	-88.054	0.090	-0.027
-375.858	563.310	0.045	0.110
-374.844	764.860	0.072	-0.198
-373.829	80.362	-0.059	-0.065
-372.815	-156.532	-0.368	-0.023
-371.800	-200.000	0.086	-0.391
-370.785	-92.108	0.081	-0.023
-369.771	-108.412	-0.341	0.074
-368.756	-148.279	0.085	-0.007
-367.742	31.330	0.159	-0.137
-366.727	36.591	-0.040	-0.035
-365.712	204.449	-0.104	0.162
-364.698	-190.740	-0.438	-0.005
-363.683	644.726	0.047	0.120
-362.669	-35.797	-0.066	-0.036
-361.654	84.221	0.282	0.311
-360.639	739.500	0.111	-0.299
-359.625	-85.238	0.125	0.039
-358.610	800.000	0.033	-0.093
-357.596	228.161	-0.132	-0.217
-356.581	-26.185	0.166	0.099
-355.566	800.000	-0.047	0.160
-354.552	-200.000	-0.005	-0.145
-353.537	-200.000	0.027	0.164
-352.523	19.018	0.278	-0.225
-351.508	248.258	0.148	-0.252
-350.493	619.673	0.037	0.094
-349.479	-67.600	-0.241	0.095
-348.464	-145.555	0.252	0.023
-347.450	-200.000	0.014	-0.067
-346.435	-40.905	0.197	-0.103
-345.420	363.734	0.134	0.271
-344.406	205.485	0.037	-0.058
-343.391	610.045	0.116	-0.293
-342.377	-177.980	-0.115	-0.003
-341.362	-105.860	0.410	0.093
-340.348	52.780	-0.161	0.155
-339.333	359.690	0.102	0.205
-338.318	538.332	-0.168	-0.402
-337.304	136.166	-0.091	-0.119
-336.289	-200.000	-0.043	-0.239
-335.275	-81.935	0.379	0.125
-334.260	800.000	-0.092	-0.296
-333.245	-159.640	-0.305	-0.017
-332.231	483.292	0.096	0.220
-331.216	-109.627	0.332	-0.071
-330.202	361.873	-0.134	-0.270
-329.187	-20.966	0.312	-0.193
-328.172	170.424	-0.148	0.213
-327.158	-200.000	0.035	0.196
-326.143	800.000	0.031	-0.131
-325.129	-12.967	0.040	-0.026
-324.114	149.068	0.127	0.174
-323.099	-200.000	0.030	0.231
-322.085	-54.617	-0.333	0.152
-321.070	224.289	0.141	0.229
-320.056	-200.000	-0.031	0.396
-319.041	-15.977	0.235	0.151
-318.026	-1.306	0.217	0.154
-317.012	-200.000	-0.049	-0.287
-315.997	-200.000	0.022	-0.292
-314.983	-170.605	0.159	0.006
-313.968	-43.106	-0.053	-0.027
-312.953	39.659	-0.137	-0.123
-311.939	-31.649	-0.200	0.113
-310.924	-116.565	-0.070	0.013
-309.910	-30.766	-0.401	0.229
-308.895	166.933	-0.255	0.365
-307.880	211.616	0.043	0.068
-306.866	-200.000	-0.048	0.226
-305.851	-200.000	0.022	0.244
-304.837	315.440	-0.104	-0.197
-303.822	274.595	-0.061	-0.108
-302.807	-18.497	-0.045	0.028
-301.793	-111.031	0.140	-0.029
-300.778	72.380	0.080	0.084
-299.764	-34.976	0.278	0.153
-298.749	-151.327	-0.203	0.015
-297.735	-121.286	-0.259	-0.044
-296.720	144.799	-0.158	0.213
-295.705	85.122	0.231	0.255
-294.691	-7.772	0.111	0.076
-293.676	-105.951	0.085	0.019
-292.662	-131.424	-0.180	0.024
-291.647	187.720	-0.039	0.058
-290.632	-33.138	-0.161	-0.090
-289.618	347.058	0.044	0.088
-288.603	16.355	0.304	-0.241
-287.589	-116.726	-0.266	0.049
-286.574	-97.863	0.169	0.044
-285.559	-93.623	0.192	0.053
-284.545	-6.413	0.039	0.027
-283.530	157.228	0.042	-0.059
-282.516	141.419	0.203	0.270
-281.501	-200.000	0.070	-0.345
-280.486	-27.953	0.180	-0.105
-279.472	-39.135	0.034	-0.018
-278.457	65.234	0.056	-0.057
-277.443	-200.000	-0.011	0.172
-276.428	800.000	0.066	0.255
-275.413	-60.511	0.083	0.035
-274.399	-52.761	-0.144	0.067
-273.384	-59.794	0.175	0.075
-272.370	317.623	0.036	0.069
-271.355	144.587	0.179	-0.240
-270.340	-57.689	-0.270	-0.119
-269.326	-157.382	0.406	-0.025
-268.311	-200.000	-0.520	0.001
-267.297	-142.275	0.174	0.017
-266.282	-200.000	0.008	0.118
-265.267	72.051	0.121	-0.127
-264.253	-16.376	-0.167	-0.106
-263.238	97.927	-0.187	0.216
-262.224	78.329	-0.219	-0.235
-261.209	-50.086	0.113	0.054
-260.195	-200.000	0.054	0.427
-259.180	-124.500	-0.260	0.041
-258.165	356.668	0.072	0.144
-257.151	-84.814	-0.194	0.061
-256.136	63.439	-0.146	0.147
-255.122	719.085	0.101	-0.269
-254.107	156.764	0.171	0.237
-253.092	130.746	0.060	-0.077
-252.078	-200.000	0.002	0.163
-251.063	13.532	-0.165	0.129
-250.049	-182.230	0.249	-0.005
-249.034	93.332	-0.048	-0.054
-248.019	8.352	-0.078	-0.059
-247.005	-56.108	-0.079	0.035
-245.990	-200.000	-0.018	0.136
-244.976	-132.725	0.567	-0.073
-243.961	-1.325	-0.223	-0.158
-242.946	137.820	-0.222	-0.293
-241.932	800.000	0.045	-0.168
-240.917	-13.947	-0.158	0.103
-239.903	150.750	-0.153	0.208
-238.888	562.790	0.047	-0.114
-237.873	800.000	-0.025	-0.075
-236.859	-163.376	0.227	0.011
-235.844	-51.380	0.272	-0.128
-234.830	49.923	0.055	0.052
-233.815	41.336	-0.128	-0.116
-232.800	353.701	0.184	0.366
-231.786	-87.100	0.322	-0.098
-230.771	170.795	-0.134	0.193
-229.757	800.000	-0.039	-0.111
-228.742	-177.475	-0.281	-0.007
-227.727	-27.498	0.372	-0.217
-226.713	-72.427	0.275	0.102
-225.698	-34.880	-0.175	-0.096
-224.684	-200.000	-0.014	-0.136
-223.669	-200.000	0.025	0.244
-222.655	-173.045	0.237	0.007
-221.640	4.549	0.180	0.132
-220.625	199.425	-0.078	0.119
-219.611	117.798	-0.051	-0.063
-218.596	-200.000	-0.008	-0.233
-217.582	1.813	-0.128	0.092
-216.567	-86.663	0.399	-0.123
-215.552	36.292	-0.140	-0.124
-214.538	708.117	-0.037	0.098
-213.523	93.764	0.041	0.046
-212.509	40.168	-0.303	0.273
-211.494	603.630	-0.062	0.154
-210.479	62.935	0.203	0.204
-209.465	214.766	-0.170	0.270
-208.450	85.964	-0.227	0.251
-207.436	7.649	0.166	-0.125
-206.421	127.193	-0.114	-0.146
-205.406	-167.381	-0.179	0.007
-204.392	-115.293	0.387	-0.073
-203.377	-200.000	0.076	-0.359
-202.363	323.329	-0.055	0.104
-201.348	-200.000	0.002	-0.012
-200.333	44.828	-0.126	0.116
-199.319	260.732	0.100	0.174
-198.304	182.845	-0.253	-0.374
-197.290	-106.330	-0.119	0.027
-196.275	-113.461	0.257	0.051
-195.260	-119.959	0.212	-0.036
-194.246	148.951	-0.077	0.105
-193.231	-46.110	0.224	-0.110
-192.217	581.004	0.041	-0.101
-191.202	-155.269	-0.117	0.008
-190.187	800.000	0.073	0.239
-189.173	800.000	-0.029	0.103
-188.158	-92.702	0.070	0.020
-187.144	-200.000	0.016	0.073
-186.129	490.679	0.165	0.378
-185.114	116.691	-0.195	-0.240
-184.100	717.650	-0.086	0.229
-183.085	62.593	0.155	0.155
-182.071	-160.822	0.262	0.014
-181.056	662.461	-0.013	-0.035
-180.042	187.132	-0.172	-0.257
-179.027	92.439	-0.161	0.182
-178.012	800.000	0.110	0.408
-176.998	232.169	0.075	0.122
-175.983	-200.000	-0.016	0.193
-174.969	-107.578	0.244	0.053
-173.954	-164.938	-0.276	0.012
-172.939	-200.000	-0.028	-0.185
-171.925	322.853	-0.151	0.289
-170.910	800.000	-0.078	0.226
-169.896	151.287	0.046	0.063
-168.881	83.797	0.235	0.256
-167.866	-200.000	-0.002	0.227
-166.852	125.986	0.217	-0.275
-165.837	-44.009	0.173	-0.087
-164.823	379.279	0.228	-0.467
-163.808	-200.000	0.058	-0.421
-162.793	-111.721	-0.188	0.038
-161.779	-129.500	-0.323	0.045
-160.764	74.806	0.275	0.289
-159.750	-7.467	0.173	-0.117
-158.735	800.000	0.027	0.095
-157.720	-200.000	0.015	0.289
-156.706	6.801	0.214	-0.159
-155.691	-200.000	0.300	0.001
-154.677	-120.918	-0.206	0.035
-153.662	0.181	0.166	-0.119
-152.647	-101.259	0.154	0.038
-151.633	-200.000	-0.032	-0.381
-150.618	-106.911	0.405	-0.090
-149.604	707.422	0.048	-0.126
-148.589	46.690	0.177	-0.165
-147.574	103.205	0.148	0.174
-146.560	107.317	0.070	0.083
-145.545	-75.035	0.094	0.034
-144.531	606.064	-0.050	-0.125
-143.516	-200.000	0.010	-0.094
-142.502	159.707	-0.213	-0.296
-141.487	-138.685	0.192	0.021
-140.472	800.000	-0.108	-0.332
-139.458	-64.478	0.072	0.029
-138.443	23.347	0.176	-0.144
-137.429	560.295	0.074	0.179
-136.414	-184.260	0.139	-0.002
-135.399	-73.673	-0.201	0.073
-134.385	23.209	0.191	0.156
-133.370	-117.224	0.234	-0.043
-132.356	154.710	-0.108	-0.149
-131.341	245.830	0.169	0.284
-130.326	800.000	0.027	0.108
-129.312	-106.629	-0.256	0.057
-128.297	-200.000	0.023	-0.350
-127.283	293.450	-0.102	0.186
-126.268	-200.000	-0.004	0.436
-125.253	33.509	0.172	0.149
-124.239	-24.766	-0.167	0.099
-123.224	205.865	-0.071	-0.110
-122.210	69.737	0.071	0.073
-121.195	-200.000	-0.090	-0.442
