DTS Sentinel unit serial number:	SN413079Multiplexer serial number:	ORYXHardware model number:	OX4-SRSoftware version number:	ORYX F/W v4.00 Oryx Data Collector v3.7.2.0data status	okinstallation	princeton_trtdifferential loss correction	single-endedforward channel	channel 1reverse channel	N/Adate	2019/09/10time	20:08:11forward acquisition time	60.00reverse acquisition time	0.00gamma	496.2192k internal	0.2325k external	0.2325temperature offset calibration	0.9937default loss term (dB/km)	0.3790temperature slope calibration	1.0000multiplexer offset coefficient	1.0000multiplexer slope coefficient	1.0000fibre end	0.00T internal ref (°C)	32.47T ext. ref 1 (°C)	-0.30T ext. ref 2 (°C)	25.42length (m)	temperature (°C)	Stokes	anti-Stokes-747.200	-11.911	-0.106	0.070
-746.185	96.482	0.138	0.159
-745.171	304.431	0.132	0.246
-744.156	151.288	-0.240	0.329
-743.142	800.000	-0.033	0.123
-742.127	-200.000	0.004	0.078
-741.112	-38.313	0.091	-0.049
-740.098	-116.274	-0.096	-0.018
-739.083	59.847	-0.208	0.207
-738.069	-91.872	-0.184	-0.053
-737.054	-101.056	-0.056	0.014
-736.039	-161.213	0.390	0.020
-735.025	-89.980	0.155	0.046
-734.010	-61.090	-0.631	0.269
-732.996	-196.003	-0.386	0.003
-731.981	-182.438	0.103	-0.002
-730.966	-200.000	-0.001	0.069
-729.952	0.006	-0.184	0.132
-728.937	-200.000	0.011	-0.161
-727.923	-151.718	-0.088	-0.007
-726.908	-118.627	-0.160	0.029
-725.894	-200.000	-0.376	0.000
-724.879	-176.971	-0.307	-0.008
-723.864	34.478	-0.120	-0.106
-722.850	-83.075	0.149	-0.048
-721.835	-148.344	-0.233	-0.019
-720.821	-151.436	-0.201	0.015
-719.806	177.134	-0.155	0.228
-718.791	800.000	0.107	-0.426
-717.777	800.000	-0.083	-0.326
-716.762	527.643	-0.013	0.031
-715.748	-200.000	-0.004	0.080
-714.733	-92.672	0.305	0.086
-713.718	278.558	-0.109	0.196
-712.704	-200.000	0.034	0.187
-711.689	457.556	0.130	-0.290
-710.675	-43.510	0.070	0.035
-709.660	53.079	0.184	0.178
-708.645	-88.294	0.200	-0.060
-707.631	-200.000	0.001	-0.108
-706.616	666.717	-0.103	-0.269
-705.602	675.681	0.095	-0.247
-704.587	112.035	0.181	-0.220
-703.572	-33.394	-0.074	0.041
-702.558	-200.000	-0.007	0.337
-701.543	-14.824	0.175	-0.113
-700.529	800.000	-0.075	0.261
-699.514	-21.919	0.255	-0.156
-698.499	60.139	-0.228	0.227
-697.485	-1.001	0.087	0.062
-696.470	230.930	-0.211	-0.348
-695.456	-13.829	-0.137	-0.089
-694.441	-200.000	-0.016	0.111
-693.426	108.229	0.086	-0.104
-692.412	-200.000	-0.019	-0.211
-691.397	121.522	0.185	0.232
-690.383	49.514	-0.184	0.174
-689.368	-129.746	-0.321	0.045
-688.354	800.000	0.108	0.343
-687.339	-27.520	-0.123	-0.072
-686.324	-34.527	-0.324	-0.178
-685.310	24.072	-0.232	-0.193
-684.295	90.363	0.096	0.108
-683.281	-125.733	0.096	0.015
-682.266	-79.639	-0.221	0.075
-681.251	-46.592	-0.257	0.127
-680.237	-30.465	0.313	0.179
-679.222	24.317	-0.074	0.061
-678.208	-200.000	0.018	0.133
-677.193	301.001	-0.199	-0.370
-676.178	-200.000	-0.026	-0.153
-675.164	-200.000	0.002	0.083
-674.149	142.616	-0.107	0.143
-673.135	-28.795	-0.089	-0.051
-672.120	544.408	-0.203	0.488
-671.105	227.988	0.261	0.428
-670.091	84.221	0.201	-0.221
-669.076	-200.000	0.027	0.139
-668.062	-101.552	-0.238	0.058
-667.047	-200.000	-0.001	0.163
-666.032	-200.000	-0.007	-0.136
-665.018	-200.000	-0.002	0.252
-664.003	489.630	-0.015	0.036
-662.989	-200.000	-0.012	0.147
-661.974	-200.000	-0.025	0.287
-660.959	-25.366	0.208	-0.124
-659.945	73.410	0.149	-0.157
-658.930	-56.330	-0.096	-0.043
-657.916	-96.260	-0.137	0.036
-656.901	-66.335	0.252	-0.101
-655.886	125.310	0.114	-0.145
-654.872	208.773	0.052	0.081
-653.857	-200.000	-0.068	0.324
-652.843	800.000	0.068	0.196
-651.828	343.910	-0.127	0.250
-650.814	-127.904	0.369	0.053
-649.799	5.679	0.221	-0.164
-648.784	-88.409	-0.434	-0.130
-647.770	23.454	-0.135	-0.112
-646.755	-94.851	-0.113	0.031
-645.741	-200.000	-0.019	-0.442
-644.726	-89.050	0.297	0.088
-643.711	474.018	0.075	-0.170
-642.697	85.912	-0.165	0.182
-641.682	-46.019	0.126	0.062
-640.668	59.045	0.080	-0.079
-639.653	-200.000	0.019	-0.224
-638.638	237.763	-0.066	-0.111
-637.624	-132.870	0.370	0.047
-636.609	-141.332	-0.039	-0.004
-635.595	242.652	0.075	-0.126
-634.580	205.163	0.151	0.236
-633.565	-113.697	0.214	-0.042
-632.551	95.292	-0.199	-0.228
-631.536	-117.868	0.061	-0.011
-630.522	13.052	-0.033	-0.025
-629.507	-192.248	-0.101	-0.001
-628.492	800.000	0.018	-0.075
-627.478	800.000	0.102	0.287
-626.463	-122.541	-0.214	-0.035
-625.449	-84.130	0.201	-0.064
-624.434	44.199	0.102	0.094
-623.419	8.593	-0.132	0.100
-622.405	-200.000	0.009	-0.190
-621.390	-28.528	-0.149	0.086
-620.376	-34.338	0.107	0.059
-619.361	21.838	-0.434	0.355
-618.346	114.710	-0.095	-0.116
-617.332	800.000	-0.065	-0.231
-616.317	94.638	-0.127	0.145
-615.303	-53.759	0.229	-0.105
-614.288	800.000	0.145	-0.484
-613.273	-128.324	0.137	0.020
-612.259	282.526	-0.146	0.262
-611.244	182.146	-0.184	0.272
-610.230	31.824	0.209	-0.180
-609.215	-200.000	-0.039	-0.201
-608.201	103.284	-0.201	0.236
-607.186	-103.299	-0.104	0.025
-606.171	102.049	-0.142	-0.166
-605.157	98.814	0.154	-0.178
-604.142	30.093	-0.105	-0.090
-603.128	-7.282	-0.182	0.124
-602.113	449.228	-0.161	0.357
-601.098	294.918	-0.040	-0.074
-600.084	-11.104	-0.129	-0.086
-599.069	-129.091	-0.072	-0.010
-598.055	-200.000	0.004	0.032
-597.040	-40.756	0.285	0.148
-596.025	800.000	0.015	0.050
-595.011	800.000	-0.069	-0.215
-593.996	406.871	-0.140	-0.297
-592.982	84.245	-0.108	-0.119
-591.967	492.755	-0.046	0.106
-590.952	800.000	0.023	0.097
-589.938	-179.232	0.260	0.006
-588.923	-86.274	-0.386	0.119
-587.909	-200.000	-0.012	-0.187
-586.894	-125.302	-0.395	-0.060
-585.879	53.984	-0.065	0.063
-584.865	800.000	0.026	0.107
-583.850	-131.207	0.399	-0.053
-582.836	-95.493	-0.133	0.036
-581.821	-200.000	-0.013	-0.187
-580.806	-107.240	-0.042	-0.009
-579.792	-74.582	-0.111	-0.040
-578.777	-135.098	0.106	0.013
-577.763	30.770	0.222	0.190
-576.748	-25.762	0.157	0.093
-575.733	-127.870	-0.141	0.020
-574.719	138.275	-0.093	0.122
-573.704	236.607	0.191	-0.316
-572.690	19.214	-0.229	0.184
-571.675	71.895	-0.204	0.213
-570.661	-200.000	0.061	-0.274
-569.646	-76.905	0.142	-0.050
-568.631	-13.899	-0.049	-0.032
-567.617	462.898	0.121	0.270
-566.602	22.838	0.227	-0.186
-565.588	-165.984	-0.409	-0.018
-564.573	410.334	0.055	0.117
-563.558	-200.000	-0.019	-0.165
-562.544	442.628	-0.055	0.121
-561.529	-200.000	0.037	-0.181
-560.515	6.189	-0.200	-0.148
-559.500	-54.628	-0.350	-0.158
-558.485	-200.000	0.020	-0.180
-557.471	-185.505	0.262	-0.004
-556.456	-78.250	-0.136	-0.047
-555.442	125.430	-0.197	-0.249
-554.427	293.147	-0.061	0.111
-553.412	-33.975	0.100	-0.055
-552.398	800.000	-0.014	-0.045
-551.383	-32.604	-0.081	0.045
-550.369	230.663	-0.141	0.231
-549.354	47.959	0.044	0.041
-548.339	-41.738	-0.164	-0.084
-547.325	99.237	0.182	-0.211
-546.310	-106.949	0.351	-0.078
-545.296	470.554	0.128	-0.289
-544.281	-200.000	0.029	0.226
-543.266	-83.590	-0.138	-0.044
-542.252	-200.000	-0.028	0.213
-541.237	-49.552	-0.147	-0.070
-540.223	-102.903	-0.371	0.088
-539.208	538.867	-0.075	-0.179
-538.193	-33.334	0.177	0.098
-537.179	684.381	0.044	0.114
-536.164	800.000	0.064	0.228
-535.150	-123.459	0.049	0.008
-534.135	-0.909	-0.143	0.102
-533.121	-150.894	-0.302	0.023
-532.106	213.738	-0.207	-0.328
-531.091	47.740	0.159	0.149
-530.077	33.604	0.089	-0.078
-529.062	-68.336	-0.474	-0.184
-528.048	472.972	0.066	0.150
-527.033	40.191	-0.087	0.078
-526.018	42.687	-0.021	-0.019
-525.004	-65.301	0.273	-0.110
-523.989	244.216	-0.087	-0.145
-522.975	109.212	-0.231	-0.277
-521.960	453.493	-0.113	0.251
-520.945	-200.000	-0.082	0.519
-519.931	-145.260	-0.121	-0.011
-518.916	-124.497	-0.233	-0.036
-517.902	-200.000	0.047	-0.310
-516.887	-200.000	-0.018	-0.290
-515.872	35.186	0.150	-0.132
-514.858	40.340	0.132	-0.119
-513.843	-61.314	0.218	0.092
-512.829	-54.802	0.154	0.070
-511.814	119.812	0.251	-0.311
-510.799	277.460	0.018	0.031
-509.785	-81.484	0.264	-0.087
-508.770	-57.636	0.517	-0.226
-507.756	65.849	0.118	-0.120
-506.741	-200.000	0.052	-0.335
-505.726	800.000	0.023	0.087
-504.712	-6.161	-0.218	-0.149
-503.697	42.119	0.177	0.161
-502.683	-146.979	-0.209	-0.018
-501.668	-94.323	0.475	-0.130
-500.653	-77.066	-0.257	0.090
-499.639	-113.178	-0.110	0.022
-498.624	290.094	-0.144	0.261
-497.610	-200.000	0.016	-0.221
-496.595	-200.000	-0.001	-0.122
-495.581	724.740	-0.084	-0.223
-494.566	22.490	0.252	0.206
-493.551	42.143	-0.148	-0.135
-492.537	-200.000	-0.006	0.139
-491.522	-10.426	0.251	0.166
-490.508	-14.718	0.137	-0.088
-489.493	-92.752	-0.135	-0.038
-488.478	-69.005	0.281	0.108
-487.464	-200.000	-0.016	0.122
-486.449	-141.744	0.300	-0.030
-485.435	-119.695	-0.378	0.065
-484.420	-126.735	0.059	0.009
-483.405	-91.419	-0.221	-0.063
-482.391	31.353	0.160	-0.137
-481.376	186.987	0.117	0.174
-480.362	-15.176	-0.142	-0.091
-479.347	124.205	-0.075	-0.094
-478.332	615.701	-0.162	-0.405
-477.318	-7.536	-0.315	0.213
-476.303	-200.000	0.016	-0.159
-475.289	800.000	-0.016	0.047
-474.274	-40.063	-0.132	0.069
-473.259	-101.401	0.192	0.047
-472.245	-11.743	0.096	0.063
-471.230	800.000	0.042	-0.131
-470.216	-88.710	0.296	0.088
-469.201	-78.537	0.124	-0.042
-468.186	-200.000	-0.015	0.167
-467.172	548.039	-0.091	-0.219
-466.157	425.009	0.063	-0.135
-465.143	63.530	-0.227	0.228
-464.128	250.172	-0.077	0.130
-463.113	-75.781	-0.283	0.100
-462.099	14.719	-0.301	-0.235
-461.084	800.000	0.085	0.242
-460.070	-200.000	-0.005	-0.056
-459.055	-200.000	-0.008	0.124
-458.040	-52.263	0.075	-0.035
-457.026	-137.058	0.100	0.011
-456.011	67.293	-0.236	-0.240
-454.997	-200.000	-0.021	-0.181
-453.982	145.184	-0.210	-0.280
-452.968	-47.200	0.058	-0.028
-451.953	-40.943	0.165	0.085
-450.938	-200.000	-0.013	-0.097
-449.924	-200.000	-0.098	0.540
-448.909	-153.442	-0.331	0.023
-447.895	0.365	-0.303	0.216
-446.880	43.853	0.119	0.108
-445.865	174.526	0.029	-0.042
-444.851	249.388	-0.085	-0.143
-443.836	62.759	0.120	-0.119
-442.822	-65.782	-0.204	-0.081
-441.807	9.012	-0.218	0.164
-440.792	-200.000	-0.023	-0.306
-439.778	-95.825	0.158	-0.042
-438.763	2.534	-0.189	0.137
-437.749	-54.725	-0.052	0.023
-436.734	20.793	0.259	-0.209
-435.719	-13.361	-0.055	-0.035
-434.705	-200.000	-0.057	-0.469
-433.690	39.911	0.136	-0.122
-432.676	8.361	0.085	-0.064
-431.661	30.500	-0.133	0.114
-430.646	185.223	0.030	0.045
-429.632	800.000	0.125	0.395
-428.617	800.000	0.035	0.135
-427.603	266.600	0.130	-0.227
-426.588	110.677	-0.167	-0.200
-425.573	-157.275	-0.059	-0.004
-424.559	-127.612	-0.164	-0.024
-423.544	-200.000	-0.016	0.392
-422.530	-17.734	-0.162	-0.102
-421.515	-174.808	0.434	0.012
-420.500	-49.771	0.416	-0.197
-419.486	-110.546	-0.072	0.015
-418.471	9.696	0.269	0.203
-417.457	-57.941	0.206	-0.090
-416.442	-165.774	0.050	0.002
-415.428	171.325	0.025	-0.035
-414.413	11.839	0.137	0.105
-413.398	52.940	0.098	-0.093
-412.384	-1.871	0.109	0.077
-411.369	-106.532	0.436	-0.097
-410.355	-44.305	0.213	0.106
-409.340	716.291	0.083	0.219
-408.325	439.895	-0.112	-0.243
-407.311	-200.000	-0.026	0.236
-406.296	153.717	0.232	-0.317
-405.282	-200.000	0.011	-0.085
-404.267	800.000	0.106	0.349
-403.252	69.275	0.135	0.138
-402.238	27.332	-0.163	-0.136
-401.223	-200.000	0.035	-0.156
-400.209	800.000	-0.073	-0.249
-399.194	97.325	-0.239	-0.273
-398.179	800.000	0.104	-0.330
-397.165	-17.543	0.298	-0.186
-396.150	90.162	-0.422	-0.469
-395.136	108.678	-0.120	-0.143
-394.121	-200.000	0.021	0.153
-393.106	800.000	-0.022	-0.083
-392.092	800.000	0.109	0.325
-391.077	-73.925	-0.136	-0.049
-390.063	-89.242	-0.380	0.112
-389.048	-124.890	-0.210	-0.032
-388.033	-68.922	-0.055	-0.021
-387.019	457.647	-0.024	-0.053
-386.004	126.459	0.131	0.166
-384.990	91.065	0.059	0.066
-383.975	-200.000	0.022	0.170
-382.960	-57.462	-0.158	0.069
-381.946	-200.000	0.018	-0.271
-380.931	-116.677	0.300	0.055
-379.917	-76.258	0.039	-0.014
-378.902	456.719	-0.134	-0.296
-377.888	-200.000	0.075	0.328
-376.873	-24.145	0.173	0.103
-375.858	-200.000	0.039	0.271
-374.844	107.616	0.119	0.141
-373.829	-108.732	-0.160	-0.034
-372.815	378.880	0.175	-0.355
-371.800	738.058	-0.116	-0.309
-370.785	-71.044	0.288	-0.108
-369.771	-22.596	-0.100	0.060
-368.756	-56.705	0.290	-0.127
-367.742	-200.000	-0.006	-0.075
-366.727	-22.171	0.145	-0.088
-365.712	-22.586	-0.182	0.109
-364.698	162.178	-0.043	0.061
-363.683	440.731	0.059	0.128
-362.669	176.648	-0.174	0.251
-361.654	-39.209	0.051	-0.026
-360.639	-43.776	0.380	-0.190
-359.625	159.710	0.087	-0.121
-358.610	-88.237	0.197	-0.058
-357.596	708.025	-0.150	0.395
-356.581	800.000	-0.043	0.130
-355.566	703.434	-0.183	0.480
-354.552	-46.231	-0.233	-0.114
-353.537	117.690	-0.237	0.290
-352.523	-126.996	0.111	0.016
-351.508	-132.725	-0.113	-0.014
-350.493	-75.945	-0.465	0.163
-349.479	-85.730	-0.191	-0.059
-348.464	800.000	0.054	0.223
-347.450	-200.000	0.061	0.303
-346.435	72.142	-0.061	-0.063
-345.420	-115.414	-0.382	0.071
-344.406	568.320	-0.145	0.350
-343.391	211.985	-0.059	-0.092
-342.377	4.201	0.273	-0.198
-341.362	-200.000	0.029	-0.266
-340.348	-67.738	-0.170	0.066
-339.333	29.259	-0.122	-0.103
-338.318	-132.986	-0.287	0.036
-337.304	-121.776	-0.246	-0.040
-336.289	35.923	-0.155	-0.135
-335.275	800.000	0.040	0.163
-334.260	-200.000	0.003	0.159
-333.245	-188.773	0.202	-0.002
-332.231	-12.143	-0.289	-0.188
-331.216	800.000	0.036	-0.126
-330.202	-52.935	-0.081	0.037
-329.187	604.907	0.048	0.118
-328.172	531.199	0.140	0.329
-327.158	-92.939	0.362	0.100
-326.143	16.479	-0.223	0.175
-325.129	-50.625	0.199	0.093
-324.114	9.049	-0.175	-0.131
-323.099	83.460	0.282	-0.305
-322.085	160.355	-0.116	-0.160
-321.070	-18.792	-0.220	-0.136
-320.056	-74.246	0.282	0.101
-319.041	158.128	0.163	-0.224
-318.026	108.800	-0.057	0.067
-317.012	-200.000	-0.009	-0.114
-315.997	-200.000	0.010	-0.340
-314.983	-4.702	-0.092	-0.063
-313.968	-200.000	-0.007	0.116
-312.953	339.840	-0.193	-0.373
-311.939	497.656	0.071	0.161
-310.924	800.000	0.038	-0.149
-309.910	18.854	-0.147	0.117
-308.895	-134.788	-0.310	-0.037
-307.880	800.000	-0.026	-0.108
-306.866	-129.041	0.194	-0.027
-305.851	-200.000	-0.020	0.094
-304.837	-149.810	-0.182	0.014
-303.822	-200.000	-0.005	0.153
-302.807	-17.746	0.133	0.083
-301.793	800.000	-0.039	0.117
-300.778	-153.259	0.560	-0.039
-299.764	-41.893	0.359	-0.182
-298.749	-14.979	-0.119	-0.076
-297.735	-81.641	0.110	-0.036
-296.720	-200.000	0.007	0.149
-295.705	-4.877	-0.081	-0.055
-294.691	129.131	-0.130	-0.165
-293.676	-31.101	0.246	0.138
-292.662	-40.766	0.333	-0.171
-291.647	19.032	0.117	-0.093
-290.632	44.894	0.167	-0.152
-289.618	158.053	-0.010	-0.014
-288.603	-92.640	0.206	0.057
-287.589	800.000	-0.099	0.327
-286.574	-200.000	-0.021	0.172
-285.559	-142.756	0.558	-0.054
-284.545	247.355	0.123	-0.206
-283.530	-200.000	0.024	-0.145
-282.516	629.397	0.121	-0.304
-281.501	-43.352	-0.317	0.159
-280.486	36.270	0.147	-0.128
-279.472	-34.286	0.187	0.102
-278.457	-108.220	0.234	-0.050
-277.443	260.799	0.154	0.264
-276.428	-165.611	0.236	0.010
-275.413	-24.348	0.324	-0.191
-274.399	-105.504	0.103	0.023
-273.384	68.669	-0.137	-0.139
-272.370	-98.334	0.171	-0.043
-271.355	800.000	0.037	-0.106
-270.340	-107.055	-0.075	0.016
-269.326	67.869	-0.224	0.227
-268.311	-65.760	0.087	-0.035
-267.297	-53.109	0.343	0.156
-266.282	527.857	0.043	0.101
-265.267	-108.879	0.322	-0.068
-264.253	264.963	0.111	-0.191
-263.238	-200.000	0.013	0.306
-262.224	-200.000	-0.062	0.352
-261.209	-121.224	-0.282	-0.047
-260.195	463.415	0.065	-0.144
-259.180	-200.000	0.077	-0.419
-258.165	142.586	-0.102	-0.134
-257.151	18.130	-0.128	0.101
-256.136	-13.852	0.076	0.049
-255.122	-87.443	-0.217	0.065
-254.107	54.389	-0.240	-0.229
-253.092	-200.000	0.025	-0.244
-252.078	-48.261	0.026	0.012
-251.063	-74.792	-0.057	0.020
-250.049	-78.787	-0.122	0.041
-249.034	-200.000	-0.051	-0.435
-248.019	370.829	-0.073	-0.147
-247.005	-92.181	-0.229	0.064
-245.990	180.696	0.133	0.193
-244.976	307.056	0.048	0.089
-243.961	102.408	0.080	0.093
-242.946	281.867	0.098	0.174
-241.932	800.000	-0.103	0.397
-240.917	800.000	0.067	0.185
-239.903	59.312	0.222	-0.216
-238.888	-115.227	-0.385	-0.072
-237.873	800.000	0.074	-0.265
-236.859	-23.860	-0.049	-0.029
-235.844	42.458	-0.047	0.042
-234.830	-154.317	0.116	0.008
-233.815	-143.223	0.115	-0.011
-232.800	-100.085	0.121	0.030
-231.786	-106.749	-0.114	-0.025
-230.771	77.932	-0.047	-0.049
-229.757	759.060	0.055	0.149
-228.742	800.000	0.086	-0.296
-227.727	-200.000	-0.009	0.210
-226.713	73.005	0.054	0.056
-225.698	-200.000	-0.088	0.393
-224.684	-200.000	-0.021	-0.255
-223.669	121.529	-0.134	-0.165
-222.655	383.349	0.169	0.345
-221.640	-34.676	0.252	0.136
-220.625	-149.192	-0.049	-0.004
-219.611	753.409	-0.121	0.323
-218.596	164.526	-0.114	0.158
-217.582	-65.941	0.217	-0.086
-216.567	245.243	-0.141	0.234
-215.552	-54.165	-0.241	0.108
-214.538	228.602	0.088	0.143
-213.523	296.209	-0.019	0.034
-212.509	-11.628	-0.323	0.210
-211.494	-200.000	0.001	-0.054
-210.479	800.000	0.066	0.249
-209.465	-200.000	0.008	0.093
-208.450	-111.004	0.074	0.015
-207.436	47.165	-0.189	0.174
-206.421	-109.227	0.120	0.025
-205.406	-200.000	0.048	0.429
-204.392	-83.559	-0.580	0.183
-203.377	147.341	-0.073	-0.097
-202.363	-85.840	0.250	0.076
-201.348	-27.062	0.247	-0.142
-200.333	-91.659	0.159	0.045
-199.319	-88.155	0.047	-0.014
-198.304	-153.740	0.582	-0.039
-197.290	52.269	-0.206	-0.194
-196.275	-121.406	-0.161	0.026
-195.260	-23.499	0.427	0.253
-194.246	-200.000	0.010	0.345
-193.231	-177.324	-0.289	-0.007
-192.217	-200.000	-0.055	-0.314
-191.202	161.179	0.220	-0.304
-190.187	-200.000	0.033	-0.235
-189.173	52.995	-0.034	-0.032
-188.158	-163.738	-0.352	0.016
-187.144	-141.694	-0.195	0.019
-186.129	-200.000	-0.027	0.177
-185.114	107.368	-0.319	0.375
-184.100	29.586	0.043	0.036
-183.085	14.304	0.331	0.254
-182.071	270.016	-0.168	0.292
-181.056	42.195	0.028	-0.025
-180.042	-200.000	0.034	-0.174
-179.027	131.714	-0.295	0.374
-178.012	434.043	-0.026	0.056
-176.998	-200.000	0.031	0.268
-175.983	-94.745	0.106	0.029
-174.969	-85.537	-0.088	-0.027
-173.954	-158.620	0.332	0.019
-172.939	-40.350	0.270	-0.139
-171.925	515.928	0.062	0.142
-170.910	148.002	0.196	0.261
-169.896	-200.000	-0.012	0.169
-168.881	282.156	-0.225	0.398
-167.866	-59.441	0.058	0.025
-166.852	44.818	-0.133	0.121
-165.837	523.036	0.101	0.233
-164.823	306.677	0.118	0.217
-163.808	-57.333	-0.143	0.062
-162.793	-52.846	0.187	0.085
-161.779	576.112	-0.055	-0.133
-160.764	63.379	-0.104	-0.102
-159.750	59.924	0.114	0.111
-158.735	-152.126	-0.244	-0.017
-157.720	196.552	0.030	0.044
-156.706	38.896	0.179	-0.157
-155.691	-4.111	-0.250	-0.171
-154.677	91.191	-0.055	0.061
-153.662	-113.030	0.107	0.021
-152.647	800.000	-0.058	-0.193
-151.633	121.394	-0.186	0.229
-150.618	-86.033	0.138	0.042
-149.604	-103.521	-0.260	-0.060
-148.589	-151.707	0.193	-0.014
-147.574	194.988	0.023	0.034
-146.560	18.020	0.286	0.225
-145.545	-110.777	0.093	0.019
-144.531	44.732	0.362	-0.329
-143.516	17.084	-0.082	-0.064
-142.502	153.340	0.064	-0.086
-141.487	-103.135	-0.167	0.039
-140.472	-141.876	-0.112	0.011
-139.458	-161.113	-0.202	0.010
-138.443	-91.356	0.259	-0.073
-137.429	296.601	0.195	0.353
-136.414	-200.000	0.020	0.089
-135.399	-200.000	0.088	0.461
-134.385	-200.000	0.077	0.412
-133.370	-135.297	-0.453	0.053
-132.356	75.533	-0.164	0.171
-131.341	-130.899	0.209	0.028
-130.326	-72.920	0.203	0.073
-129.312	224.310	0.139	0.222
-128.297	-25.533	-0.185	-0.108
-127.283	-117.696	0.311	-0.055
-126.268	110.658	-0.060	0.071
-125.253	800.000	-0.029	-0.113
-124.239	800.000	-0.046	0.136
-123.224	-37.009	-0.075	-0.040
-122.210	-200.000	-0.100	-0.506
-121.195	64.751	-0.154	0.153
