DTS Sentinel unit serial number:	SN413079Multiplexer serial number:	ORYXHardware model number:	OX4-SRSoftware version number:	ORYX F/W v4.00 Oryx Data Collector v3.7.2.0data status	okinstallation	princeton_trtdifferential loss correction	single-endedforward channel	channel 1reverse channel	N/Adate	2019/09/17time	20:58:35forward acquisition time	60.00reverse acquisition time	0.00gamma	496.2192k internal	0.2333k external	0.2333temperature offset calibration	0.9979default loss term (dB/km)	0.3790temperature slope calibration	1.0000multiplexer offset coefficient	1.0000multiplexer slope coefficient	1.0000fibre end	0.00T internal ref (°C)	28.75T ext. ref 1 (°C)	0.21T ext. ref 2 (°C)	20.23length (m)	temperature (°C)	Stokes	anti-Stokes-747.200	800.000	0.120	0.388
-746.185	-183.999	-0.417	0.007
-745.171	-172.653	0.195	0.006
-744.156	9.613	0.046	-0.035
-743.142	384.573	0.166	-0.344
-742.127	13.273	0.202	0.157
-741.112	751.237	0.144	-0.389
-740.098	-34.482	0.105	-0.058
-739.083	697.108	0.049	0.131
-738.069	-74.494	-0.569	0.206
-737.054	-200.000	-0.012	-0.055
-736.039	91.516	-0.227	-0.256
-735.025	-47.140	0.119	0.058
-734.010	-103.209	-0.322	-0.076
-732.996	-118.993	-0.281	0.050
-731.981	-200.000	0.006	-0.527
-730.966	136.226	0.217	0.285
-729.952	85.859	-0.092	0.102
-728.937	772.450	-0.061	0.166
-727.923	78.284	-0.196	-0.210
-726.908	321.948	0.132	-0.252
-725.894	180.984	-0.117	0.173
-724.879	-102.173	-0.355	-0.086
-723.864	-200.000	-0.012	-0.207
-722.850	531.910	-0.092	0.220
-721.835	800.000	0.025	-0.087
-720.821	800.000	0.091	0.279
-719.806	-93.936	0.102	0.028
-718.791	-43.321	-0.413	-0.210
-717.777	339.084	-0.065	-0.127
-716.762	-140.850	0.216	-0.022
-715.748	-112.329	-0.335	0.067
-714.733	-200.000	0.024	0.133
-713.718	-40.696	-0.151	-0.078
-712.704	259.325	0.088	0.152
-711.689	-144.511	0.288	0.027
-710.675	446.104	0.157	-0.347
-709.660	-198.394	-0.249	-0.001
-708.645	-13.033	0.043	-0.028
-707.631	-200.000	-0.089	-0.449
-706.616	-200.000	0.074	-0.389
-705.602	-74.802	0.339	-0.122
-704.587	-200.000	-0.018	0.215
-703.572	121.735	0.113	0.141
-702.558	515.656	-0.105	-0.246
-701.543	800.000	0.053	-0.177
-700.529	-56.848	-0.121	0.054
-699.514	-34.496	0.312	0.171
-698.499	375.249	-0.121	-0.248
-697.485	-77.388	0.122	-0.043
-696.470	114.756	0.168	0.206
-695.456	783.726	-0.078	0.213
-694.441	-22.634	-0.165	-0.100
-693.426	-200.000	-0.062	0.322
-692.412	-115.941	-0.056	-0.010
-691.397	55.286	-0.221	-0.215
-690.383	-51.328	-0.322	0.151
-689.368	83.728	-0.313	0.343
-688.354	-101.580	-0.075	0.018
-687.339	-155.637	-0.480	0.031
-686.324	151.578	0.235	0.321
-685.310	192.755	0.243	0.369
-684.295	-0.265	-0.207	0.147
-683.281	148.305	0.055	0.074
-682.266	-112.248	0.126	0.025
-681.251	-40.342	-0.241	0.126
-680.237	353.307	0.164	-0.325
-679.222	800.000	-0.116	-0.486
-678.208	-154.212	-0.369	-0.025
-677.193	-66.763	-0.087	-0.035
-676.178	64.929	-0.194	-0.196
-675.164	256.339	-0.153	-0.263
-674.149	433.558	0.050	-0.108
-673.135	28.892	0.082	0.070
-672.120	800.000	-0.099	0.359
-671.105	8.303	0.037	0.028
-670.091	-52.678	0.356	-0.165
-669.076	-200.000	0.006	-0.115
-668.062	546.761	0.038	-0.091
-667.047	620.737	-0.034	-0.086
-666.032	158.053	0.089	0.124
-665.018	-79.314	0.038	-0.013
-664.003	-193.506	-0.144	-0.001
-662.989	752.973	0.021	-0.058
-661.974	-35.574	-0.040	-0.022
-660.959	-200.000	0.044	0.253
-659.945	543.581	-0.079	-0.189
-658.930	-102.130	-0.099	0.024
-657.916	778.826	-0.030	0.082
-656.901	-200.000	-0.002	0.344
-655.886	-106.458	0.493	0.110
-654.872	144.773	-0.170	0.227
-653.857	119.388	0.210	0.260
-652.843	-200.000	-0.088	-0.430
-651.828	-83.159	0.578	-0.186
-650.814	800.000	-0.053	0.218
-649.799	225.452	0.227	-0.369
-648.784	50.086	0.130	-0.123
-647.770	639.096	0.038	0.096
-646.755	800.000	0.036	0.101
-645.741	-200.000	-0.020	0.155
-644.726	-162.806	-0.210	0.010
-643.711	-113.746	0.215	-0.042
-642.697	-135.253	-0.115	-0.014
-641.682	602.547	0.080	0.199
-640.668	449.300	-0.108	-0.238
-639.653	23.550	0.107	0.088
-638.638	-48.654	-0.245	-0.118
-637.624	-37.544	-0.175	0.094
-636.609	-200.000	0.028	-0.233
-635.595	504.900	-0.072	-0.167
-634.580	-171.918	-0.208	-0.007
-633.565	342.800	0.110	-0.216
-632.551	48.113	-0.096	0.090
-631.536	-129.450	0.164	-0.023
-630.522	-92.072	0.137	-0.039
-629.507	188.235	-0.139	-0.209
-628.492	-200.000	0.018	-0.477
-627.478	-200.000	-0.009	-0.061
-626.463	-200.000	-0.002	0.014
-625.449	271.401	0.001	0.002
-624.434	-200.000	0.060	0.285
-623.419	-200.000	-0.051	-0.254
-622.405	309.241	0.066	-0.124
-621.390	-200.000	0.012	0.067
-620.376	61.547	0.195	0.195
-619.361	-200.000	-0.004	-0.205
-618.346	46.771	-0.067	-0.063
-617.332	-200.000	-0.003	0.082
-616.317	-125.974	0.169	0.025
-615.303	-112.161	-0.211	0.042
-614.288	104.892	-0.069	-0.081
-613.273	-94.391	-0.184	-0.050
-612.259	76.882	0.300	-0.319
-611.244	27.470	0.065	0.055
-610.230	-35.901	-0.249	-0.135
-609.215	800.000	0.038	-0.134
-608.201	112.133	-0.077	-0.094
-607.186	-128.890	0.104	-0.015
-606.171	-68.838	-0.022	-0.008
-605.157	-200.000	0.008	0.144
-604.142	311.938	0.244	0.458
-603.128	45.780	0.046	0.043
-602.113	-83.937	-0.322	0.102
-601.098	-200.000	0.053	-0.240
-600.084	-85.048	-0.263	-0.082
-599.069	61.878	-0.090	0.090
-598.055	32.294	0.143	-0.123
-597.040	-80.873	-0.123	0.041
-596.025	-25.105	-0.156	0.093
-595.011	-200.000	-0.016	-0.080
-593.996	198.172	0.090	-0.138
-592.982	-200.000	-0.053	0.267
-591.967	-37.304	-0.182	-0.097
-590.952	701.353	-0.128	-0.336
-589.938	99.263	0.180	0.208
-588.923	153.957	0.135	0.185
-587.909	-171.451	-0.168	-0.006
-586.894	800.000	0.024	0.087
-585.879	-200.000	0.026	0.219
-584.865	-58.296	-0.335	0.146
-583.850	-26.220	-0.219	0.128
-582.836	245.329	0.129	-0.217
-581.821	-200.000	0.023	0.137
-580.806	397.249	0.095	0.199
-579.792	-200.000	0.036	-0.261
-578.777	214.544	0.135	0.214
-577.763	23.857	0.197	-0.162
-576.748	-29.191	-0.160	0.092
-575.733	506.072	-0.077	0.178
-574.719	141.462	0.205	0.271
-573.704	-51.387	0.247	0.115
-572.690	-62.360	-0.104	0.043
-571.675	217.366	-0.124	-0.197
-570.661	-77.296	0.438	0.152
-569.646	-200.000	0.007	0.099
-568.631	800.000	0.025	-0.103
-567.617	-20.082	-0.279	0.172
-566.602	-89.429	0.016	0.005
-565.588	166.769	-0.124	-0.175
-564.573	85.527	-0.330	-0.362
-563.558	-10.314	0.118	-0.078
-562.544	-87.908	-0.354	0.106
-561.529	-61.680	-0.268	-0.112
-560.515	800.000	-0.081	-0.245
-559.500	37.642	0.148	0.132
-558.485	-200.000	0.018	-0.140
-557.471	-9.905	0.124	0.082
-556.456	-85.155	-0.279	-0.087
-555.442	-200.000	-0.063	-0.286
-554.427	800.000	-0.011	0.046
-553.412	28.971	-0.268	-0.227
-552.398	-200.000	0.004	0.023
-551.383	91.601	0.139	-0.156
-550.369	-121.476	0.208	0.035
-549.354	-200.000	-0.024	-0.154
-548.339	800.000	0.049	-0.180
-547.325	-200.000	-0.017	-0.207
-546.310	259.352	-0.096	0.166
-545.296	-72.522	0.257	-0.095
-544.281	-58.697	-0.265	-0.115
-543.266	-99.839	0.160	0.040
-542.252	-200.000	-0.010	-0.203
-541.237	-200.000	0.013	-0.275
-540.223	-132.460	0.161	-0.021
-539.208	51.571	-0.204	0.194
-538.193	-200.000	0.054	0.331
-537.179	-46.781	0.080	-0.039
-536.164	-200.000	-0.081	-0.378
-535.150	-85.655	-0.287	-0.089
-534.135	73.559	0.162	0.170
-533.121	-91.288	-0.337	0.096
-532.106	-114.265	-0.495	0.095
-531.091	-200.000	-0.027	-0.398
-530.077	34.005	-0.458	-0.397
-529.062	-78.473	-0.196	0.067
-528.048	-173.618	0.172	0.005
-527.033	9.710	-0.092	-0.069
-526.018	13.963	-0.326	0.253
-525.004	155.548	-0.146	-0.200
-523.989	-11.148	-0.269	0.177
-522.975	-15.430	0.121	0.077
-521.960	125.202	-0.157	-0.198
-520.945	175.821	0.052	-0.075
-519.931	-58.648	-0.316	-0.136
-518.916	24.367	-0.265	0.218
-517.902	-200.000	-0.005	-0.180
-516.887	-200.000	0.014	0.112
-515.872	266.606	0.173	0.302
-514.858	65.280	-0.172	-0.173
-513.843	800.000	0.035	0.136
-512.829	144.272	-0.055	-0.074
-511.814	635.390	0.164	0.415
-510.799	-99.955	0.532	0.132
-509.785	-200.000	0.084	-0.391
-508.770	-200.000	0.050	-0.448
-507.756	-200.000	0.022	0.248
-506.741	90.393	-0.129	0.144
-505.726	163.178	-0.105	0.147
-504.712	-134.205	-0.213	0.026
-503.697	119.447	-0.089	-0.109
-502.683	171.128	-0.058	-0.083
-501.668	317.014	-0.065	0.122
-500.653	-122.004	-0.090	0.015
-499.639	-48.998	0.274	-0.131
-498.624	-22.982	0.474	-0.285
-497.610	-7.167	-0.276	-0.187
-496.595	-200.000	-0.053	-0.339
-495.581	-162.544	-0.135	0.007
-494.566	154.149	-0.126	-0.172
-493.551	67.525	0.030	-0.030
-492.537	800.000	0.045	-0.193
-491.522	800.000	0.088	0.251
-490.508	-117.511	0.156	-0.028
-489.493	27.289	-0.056	0.047
-488.478	81.014	-0.266	0.286
-487.464	32.691	-0.252	0.217
-486.449	311.003	0.039	0.072
-485.435	-200.000	-0.264	-0.001
-484.420	-134.565	0.152	0.018
-483.405	67.073	-0.253	-0.257
-482.391	-46.981	-0.354	-0.172
-481.376	-200.000	0.023	0.139
-480.362	35.757	0.027	0.024
-479.347	-200.000	0.000	0.007
-478.332	-200.000	-0.011	-0.226
-477.318	769.308	-0.058	0.156
-476.303	-200.000	0.036	-0.239
-475.289	-118.628	0.086	-0.015
-474.274	290.507	-0.023	-0.042
-473.259	-200.000	0.011	-0.111
-472.245	800.000	-0.067	-0.270
-471.230	106.226	0.325	-0.382
-470.216	-77.170	0.093	0.032
-469.201	-200.000	-0.001	-0.072
-468.186	800.000	0.047	0.192
-467.172	59.134	-0.087	0.085
-466.157	136.431	-0.178	0.231
-465.143	65.918	0.076	-0.076
-464.128	149.199	-0.099	0.133
-463.113	-2.881	0.263	0.183
-462.099	-200.000	0.039	-0.277
-461.084	-43.019	0.190	0.096
-460.070	77.329	0.243	-0.257
-459.055	61.180	-0.208	0.205
-458.040	-200.000	-0.002	0.219
-457.026	-72.115	-0.220	-0.081
-456.011	63.291	0.073	-0.072
-454.997	-200.000	0.010	0.054
-453.982	-200.000	0.010	0.170
-452.968	-144.437	0.023	-0.002
-451.953	-3.896	0.072	0.049
-450.938	-81.016	0.049	0.016
-449.924	-200.000	0.030	0.301
-448.909	79.834	-0.113	0.121
-447.895	-65.137	0.242	-0.097
-446.880	-6.396	-0.330	-0.224
-445.865	800.000	-0.053	0.157
-444.851	-12.442	-0.310	0.201
-443.836	-199.853	0.376	-0.002
-442.822	-200.000	-0.002	-0.234
-441.807	-106.707	0.235	-0.052
-440.792	-40.759	0.318	-0.163
-439.778	607.095	0.020	-0.049
-438.763	41.033	0.274	0.245
-437.749	218.262	0.125	0.198
-436.734	144.132	-0.111	-0.147
-435.719	-48.779	-0.113	-0.054
-434.705	79.068	0.117	-0.124
-433.690	132.319	0.133	0.170
-432.676	-106.970	-0.256	-0.056
-431.661	-87.049	-0.356	-0.108
-430.646	-136.083	0.315	-0.037
-429.632	-19.137	0.351	0.217
-428.617	800.000	-0.012	0.041
-427.603	-54.094	0.188	0.085
-426.588	53.063	-0.077	-0.073
-425.573	95.552	0.249	-0.282
-424.559	-69.185	0.275	0.105
-423.544	-200.000	-0.007	0.046
-422.530	800.000	-0.035	-0.137
-421.515	4.549	0.063	-0.046
-420.500	-149.399	0.306	0.024
-419.486	-22.185	0.076	0.046
-418.471	40.839	0.201	0.180
-417.457	-200.000	-0.001	0.144
-416.442	-45.950	-0.013	0.006
-415.428	-200.000	0.000	-0.011
-414.413	449.272	0.119	0.261
-413.398	3.215	0.227	0.164
-412.384	-75.438	0.229	-0.081
-411.369	5.335	0.237	-0.174
-410.355	-145.754	-0.103	-0.009
-409.340	-19.021	-0.065	0.040
-408.325	-55.659	0.154	-0.068
-407.311	304.615	0.077	-0.142
-406.296	79.466	-0.165	0.176
-405.282	-200.000	-0.012	0.214
-404.267	-40.605	0.060	-0.031
-403.252	34.658	0.072	-0.063
-402.238	800.000	0.104	0.284
-401.223	222.977	0.094	0.151
-400.209	32.709	-0.069	0.060
-399.194	-200.000	0.007	-0.344
-398.179	530.949	-0.171	0.400
-397.165	-36.368	-0.215	0.115
-396.150	123.345	-0.174	0.217
-395.136	-79.169	-0.215	0.072
-394.121	253.322	0.182	0.308
-393.106	44.726	0.150	0.137
-392.092	44.637	0.131	-0.119
-391.077	-200.000	0.007	0.166
-390.063	-200.000	-0.046	-0.328
-389.048	800.000	-0.059	0.205
-388.033	-153.147	-0.008	0.001
-387.019	127.035	-0.174	-0.218
-386.004	-200.000	-0.075	-0.332
-384.990	-200.000	0.003	0.101
-383.975	800.000	0.140	0.480
-382.960	383.719	0.073	-0.149
-381.946	-72.151	0.294	-0.108
-380.931	161.050	0.157	0.218
-379.917	-110.832	0.125	-0.026
-378.902	169.741	0.049	-0.070
-377.888	800.000	0.049	-0.175
-376.873	-200.000	0.048	-0.213
-375.858	-37.125	0.019	-0.010
-374.844	-75.242	-0.203	0.072
-373.829	81.168	0.193	-0.206
-372.815	-128.325	-0.117	0.017
-371.800	-200.000	0.050	0.310
-370.785	-80.655	-0.188	0.062
-369.771	412.339	-0.025	0.052
-368.756	-200.000	-0.054	0.281
-367.742	209.837	-0.173	-0.269
-366.727	547.940	-0.093	-0.221
-365.712	-200.000	0.009	0.135
-364.698	597.857	-0.134	-0.329
-363.683	312.151	-0.039	-0.072
-362.669	-2.932	0.105	0.073
-361.654	-31.586	0.106	0.059
-360.639	79.580	0.174	0.185
-359.625	260.034	0.086	-0.147
-358.610	63.231	0.080	0.079
-357.596	-83.297	-0.090	0.029
-356.581	-97.250	0.058	0.015
-355.566	-74.476	-0.215	-0.077
-354.552	-0.558	0.095	-0.067
-353.537	-200.000	-0.031	0.362
-352.523	83.918	-0.335	0.362
-351.508	-18.320	0.108	0.067
-350.493	196.187	0.164	0.247
-349.479	-100.863	-0.230	-0.056
-348.464	-6.510	-0.357	0.241
-347.450	800.000	-0.036	-0.124
-346.435	-159.817	-0.127	-0.007
-345.420	20.043	-0.199	0.159
-344.406	61.490	0.134	0.132
-343.391	-163.404	0.395	-0.019
-342.377	-200.000	-0.024	-0.124
-341.362	-80.083	0.207	0.069
-340.348	45.068	-0.075	0.068
-339.333	800.000	-0.081	-0.229
-338.318	-25.191	0.247	-0.145
-337.304	800.000	-0.060	-0.207
-336.289	-200.000	-0.025	0.324
-335.275	2.513	0.213	-0.153
-334.260	-200.000	0.039	0.221
-333.245	-200.000	0.013	0.099
-332.231	445.296	0.092	-0.200
-331.216	127.940	-0.114	-0.143
-330.202	74.837	-0.125	-0.130
-329.187	-156.921	0.385	-0.023
-328.172	-51.843	-0.300	0.138
-327.158	-1.295	0.127	-0.089
-326.143	64.743	-0.077	-0.077
-325.129	519.501	0.044	-0.101
-324.114	487.415	0.095	0.213
-323.099	-200.000	0.058	0.330
-322.085	25.172	-0.085	0.070
-321.070	343.358	-0.063	-0.122
-320.056	-200.000	0.001	-0.152
-319.041	325.038	0.060	-0.114
-318.026	132.612	-0.101	-0.128
-317.012	109.044	0.188	-0.222
-315.997	-102.460	-0.216	0.051
-314.983	-92.968	0.202	0.056
-313.968	182.022	0.116	-0.169
-312.953	-38.779	0.287	-0.149
-311.939	800.000	-0.043	-0.124
-310.924	301.321	0.240	0.438
-309.910	146.515	0.187	0.249
-308.895	641.239	0.095	0.239
-307.880	271.296	0.088	0.154
-306.866	-200.000	-0.005	-0.154
-305.851	-11.497	-0.212	-0.138
-304.837	-2.083	0.127	-0.089
-303.822	51.976	0.333	0.314
-302.807	722.031	-0.126	0.331
-301.793	-41.357	0.069	0.035
-300.778	-83.696	0.012	0.004
-299.764	-61.216	0.403	0.168
-298.749	-200.000	-0.001	0.144
-297.735	-200.000	-0.057	-0.472
-296.720	4.335	-0.185	0.134
-295.705	800.000	-0.025	-0.078
-294.691	-141.495	0.271	-0.027
-293.676	-8.455	-0.008	-0.005
-292.662	-105.656	-0.359	-0.080
-291.647	-38.462	0.107	0.056
-290.632	354.020	0.170	-0.334
-289.618	-200.000	-0.010	0.245
-288.603	220.637	-0.089	-0.141
-287.589	-200.000	-0.004	0.028
-286.574	800.000	-0.023	0.062
-285.559	5.282	-0.116	-0.085
-284.545	63.444	0.167	0.165
-283.530	-127.384	-0.135	-0.019
-282.516	138.839	-0.108	0.140
-281.501	-200.000	-0.030	0.158
-280.486	-17.135	-0.289	-0.180
-279.472	-200.000	0.051	0.319
-278.457	110.536	0.243	0.289
-277.443	-200.000	-0.060	-0.320
-276.428	47.408	0.131	0.120
-275.413	800.000	0.047	0.186
-274.399	77.106	-0.044	0.047
-273.384	-200.000	-0.008	0.229
-272.370	3.776	0.046	0.033
-271.355	353.013	-0.078	0.153
-270.340	206.792	-0.123	-0.189
-269.326	78.755	0.092	-0.097
-268.311	172.658	0.034	-0.048
-267.297	79.853	0.123	0.131
-266.282	165.158	0.097	0.135
-265.267	-95.755	-0.128	-0.034
-264.253	8.077	0.088	-0.066
-263.238	490.529	0.077	0.174
-262.224	-179.751	-0.332	0.007
-261.209	-27.346	0.176	0.101
-260.195	-200.000	0.006	-0.072
-259.180	-51.608	-0.101	0.046
-258.165	227.263	0.040	0.064
-257.151	-200.000	-0.048	0.277
-256.136	-200.000	0.011	-0.251
-255.122	-183.780	-0.330	0.006
-254.107	-68.157	0.231	-0.089
-253.092	-181.240	-0.316	-0.006
-252.078	-129.329	0.181	0.025
-251.063	194.944	-0.090	0.134
-250.049	-31.281	-0.286	-0.159
-249.034	77.520	0.160	-0.167
-248.019	-7.907	0.115	-0.077
-247.005	-12.996	0.280	-0.180
-245.990	-200.000	0.032	0.227
-244.976	-6.718	0.086	0.058
-243.961	-187.921	-0.146	0.002
-242.946	-200.000	-0.012	-0.170
-241.932	-89.341	-0.145	0.042
-240.917	-200.000	-0.081	-0.403
-239.903	-36.659	-0.161	-0.085
-238.888	-200.000	-0.011	-0.117
-237.873	-64.059	0.373	0.150
-236.859	-200.000	0.017	0.114
-235.844	-110.780	-0.162	-0.033
-234.830	-35.404	-0.299	0.160
-233.815	-138.394	0.321	-0.035
-232.800	57.144	0.106	-0.102
-231.786	-200.000	0.050	0.242
-230.771	-91.912	0.252	0.071
-229.757	-141.487	-0.260	-0.026
-228.742	14.031	0.183	0.141
-227.727	-86.815	-0.221	0.067
-226.713	363.806	0.174	0.344
-225.698	-200.000	0.030	-0.282
-224.684	71.314	-0.246	-0.252
-223.669	800.000	-0.006	-0.017
-222.655	-62.203	-0.105	-0.043
-221.640	112.304	0.141	-0.168
-220.625	-140.120	-0.065	0.007
-219.611	-200.000	-0.002	0.062
-218.596	-200.000	0.018	-0.192
-217.582	250.470	-0.135	-0.225
-216.567	800.000	0.074	0.233
-215.552	-200.000	-0.033	0.227
-214.538	-165.313	-0.200	0.009
-213.523	800.000	-0.059	-0.247
-212.509	267.572	-0.096	-0.165
-211.494	71.555	-0.172	-0.176
-210.479	38.803	-0.162	-0.143
-209.465	-80.818	0.199	-0.065
-208.450	-66.801	0.167	0.065
-207.436	187.617	0.085	0.125
-206.421	-8.404	0.133	-0.088
-205.406	413.409	-0.105	-0.220
-204.392	-200.000	-0.039	0.238
-203.377	112.373	0.242	0.288
-202.363	729.460	-0.034	-0.090
-201.348	-200.000	-0.007	0.213
-200.333	216.225	0.184	-0.288
-199.319	-127.281	-0.149	-0.021
-198.304	-200.000	-0.009	0.398
-197.290	-31.146	-0.290	0.161
-196.275	-42.873	0.345	0.173
-195.260	8.300	0.152	0.112
-194.246	397.761	0.104	0.214
-193.231	-200.000	0.086	-0.584
-192.217	800.000	-0.126	-0.416
-191.202	-144.619	0.172	-0.016
-190.187	521.675	-0.045	-0.104
-189.173	-200.000	0.042	-0.188
-188.158	800.000	0.073	-0.242
-187.144	-142.343	-0.319	-0.031
-186.129	-8.118	0.188	0.125
-185.114	-105.126	-0.483	0.109
-184.100	111.823	-0.292	-0.346
-183.085	325.216	-0.170	-0.320
-182.071	800.000	-0.096	0.370
-181.056	-200.000	-0.026	0.623
-180.042	163.650	-0.069	-0.095
-179.027	-200.000	-0.034	0.147
-178.012	-73.195	0.279	0.100
-176.998	800.000	0.060	-0.244
-175.983	-84.869	-0.052	0.016
-174.969	409.240	0.127	0.265
-173.954	292.751	0.074	-0.132
-172.939	285.643	-0.118	0.210
-171.925	-164.227	0.087	-0.004
-170.910	-65.058	0.265	0.105
-169.896	-200.000	-0.033	0.194
-168.881	30.687	0.168	-0.141
-167.866	50.713	0.230	-0.214
-166.852	-198.353	0.173	0.001
-165.837	199.416	0.088	-0.133
-164.823	800.000	-0.054	-0.170
-163.808	-200.000	-0.052	0.457
-162.793	30.350	-0.106	0.089
-161.779	-39.336	-0.201	-0.104
-160.764	117.253	0.297	-0.359
-159.750	165.399	-0.170	0.236
-158.735	167.163	-0.086	-0.120
-157.720	72.026	0.088	-0.090
-156.706	-200.000	-0.008	0.213
-155.691	800.000	-0.058	0.205
-154.677	-13.590	-0.175	-0.111
-153.662	312.586	0.172	0.317
-152.647	-64.711	-0.176	0.070
-151.633	-131.911	0.076	0.010
-150.618	-103.548	0.419	0.097
-149.604	-81.067	-0.202	0.066
-148.589	46.584	-0.210	-0.191
-147.574	23.065	0.302	-0.243
-146.560	567.398	0.051	0.123
-145.545	800.000	0.070	0.279
-144.531	-90.881	0.289	0.082
-143.516	-67.667	-0.286	-0.110
-142.502	31.624	0.149	-0.126
-141.487	-107.247	0.020	-0.004
-140.472	-66.093	-0.165	-0.064
-139.458	48.397	-0.347	0.319
-138.443	-112.651	0.208	0.041
-137.429	177.915	0.180	-0.258
-136.414	800.000	-0.053	-0.184
-135.399	109.938	0.143	0.168
-134.385	-84.642	0.214	-0.066
-133.370	-58.767	0.099	0.042
-132.356	-86.656	-0.027	0.008
-131.341	-18.441	0.242	0.149
-130.326	377.230	0.036	-0.072
-129.312	-96.956	-0.233	-0.060
-128.297	-200.000	0.015	0.180
-127.283	-144.453	0.206	0.019
-126.268	-63.857	0.091	0.037
-125.253	-127.003	0.151	-0.022
-124.239	-132.677	0.398	-0.050
-123.224	198.867	0.154	0.232
-122.210	-165.409	0.140	0.006
-121.195	89.635	-0.189	-0.207
