DTS Sentinel unit serial number:	SN413079Multiplexer serial number:	ORYXHardware model number:	OX4-SRSoftware version number:	ORYX F/W v4.00 Oryx Data Collector v3.7.2.0data status	okinstallation	princeton_trtdifferential loss correction	single-endedforward channel	channel 1reverse channel	N/Adate	2019/09/16time	16:26:35forward acquisition time	60.00reverse acquisition time	0.00gamma	496.2192k internal	0.2294k external	0.2294temperature offset calibration	0.9960default loss term (dB/km)	0.3790temperature slope calibration	1.0000multiplexer offset coefficient	1.0000multiplexer slope coefficient	1.0000fibre end	0.00T internal ref (°C)	40.31T ext. ref 1 (°C)	15.06T ext. ref 2 (°C)	34.13length (m)	temperature (°C)	Stokes	anti-Stokes-747.200	-200.000	0.021	-0.230
-746.185	-57.789	-0.129	0.058
-745.171	-69.348	-0.185	0.073
-744.156	-15.040	0.053	0.035
-743.142	107.595	0.104	-0.126
-742.127	-137.465	0.356	0.041
-741.112	-102.312	0.103	0.025
-740.098	-48.244	-0.469	-0.231
-739.083	-94.596	-0.273	0.076
-738.069	269.807	-0.077	-0.137
-737.054	779.174	-0.109	-0.304
-736.039	-1.564	0.267	0.192
-735.025	-119.701	0.297	0.053
-734.010	800.000	-0.040	0.155
-732.996	-200.000	0.014	0.126
-731.981	800.000	-0.071	-0.229
-730.966	-200.000	-0.005	0.167
-729.952	-200.000	-0.002	0.146
-728.937	-27.654	-0.282	-0.167
-727.923	-200.000	0.016	-0.154
-726.908	-126.515	0.181	-0.028
-725.894	-68.919	0.048	0.019
-724.879	162.492	0.101	-0.145
-723.864	38.585	0.316	-0.288
-722.850	-200.000	0.047	-0.343
-721.835	800.000	-0.042	-0.151
-720.821	-22.875	-0.324	-0.200
-719.806	29.426	0.223	0.193
-718.791	800.000	-0.087	0.313
-717.777	800.000	0.091	0.323
-716.762	-10.150	0.345	-0.234
-715.748	93.413	-0.201	0.232
-714.733	-200.000	0.026	0.164
-713.718	191.764	0.062	0.095
-712.704	-72.994	-0.384	0.144
-711.689	-42.363	-0.125	0.065
-710.675	-5.318	-0.142	-0.100
-709.660	24.697	-0.127	-0.107
-708.645	-76.538	-0.128	0.046
-707.631	-169.497	0.269	-0.010
-706.616	-200.000	-0.015	0.164
-705.602	-170.945	0.164	-0.006
-704.587	800.000	0.096	-0.335
-703.572	-112.293	0.338	-0.069
-702.558	-133.688	-0.276	0.035
-701.543	-91.161	-0.190	0.056
-700.529	-111.139	0.390	-0.082
-699.514	67.616	0.054	0.057
-698.499	-87.764	0.269	-0.083
-697.485	-136.493	-0.075	-0.009
-696.470	-40.266	0.136	0.072
-695.456	800.000	0.091	-0.284
-694.441	54.412	-0.197	-0.194
-693.426	-108.090	-0.189	0.042
-692.412	20.378	-0.326	-0.269
-691.397	800.000	-0.104	0.368
-690.383	-200.000	-0.046	-0.404
-689.368	15.686	-0.276	-0.222
-688.354	124.721	-0.087	-0.112
-687.339	800.000	0.082	-0.357
-686.324	-63.241	-0.194	0.082
-685.310	87.027	0.031	-0.035
-684.295	141.598	0.182	0.246
-683.281	69.250	0.227	0.239
-682.266	-200.000	0.043	0.413
-681.251	-103.923	0.435	0.104
-680.237	-92.216	-0.112	0.032
-679.222	27.562	-0.185	-0.159
-678.208	-154.082	-0.044	0.003
-677.193	-13.034	-0.089	0.059
-676.178	-41.029	-0.120	0.063
-675.164	-99.032	-0.138	0.036
-674.149	-200.000	-0.021	0.204
-673.135	800.000	-0.077	-0.263
-672.120	800.000	-0.113	0.326
-671.105	-82.633	-0.229	0.076
-670.091	117.480	-0.103	-0.129
-669.076	189.744	0.150	0.229
-668.062	-186.482	-0.319	-0.005
-667.047	31.931	-0.095	0.083
-666.032	-60.972	-0.068	-0.029
-665.018	45.966	-0.083	0.079
-664.003	268.737	0.076	-0.136
-662.989	131.728	-0.179	0.235
-661.974	-182.465	0.290	0.005
-660.959	-123.668	-0.436	-0.070
-659.945	-37.769	0.027	-0.014
-658.930	-82.791	-0.151	-0.050
-657.916	800.000	-0.100	0.430
-656.901	8.370	-0.058	0.044
-655.886	-31.415	0.258	0.148
-654.872	-30.962	-0.320	0.184
-653.857	-200.000	0.038	0.213
-652.843	164.339	-0.102	-0.147
-651.828	-150.323	-0.222	0.017
-650.814	-200.000	0.045	0.243
-649.799	257.312	0.073	0.127
-648.784	506.753	-0.102	-0.241
-647.770	110.721	-0.156	-0.192
-646.755	19.726	0.271	0.222
-645.741	-4.899	-0.264	-0.186
-644.726	123.707	0.051	0.065
-643.711	-58.953	-0.189	0.083
-642.697	-59.212	-0.212	0.093
-641.682	-123.820	0.177	0.028
-640.668	32.914	-0.064	-0.056
-639.653	-45.801	-0.375	-0.189
-638.638	265.773	-0.079	-0.140
-637.624	430.191	-0.083	0.182
-636.609	800.000	0.032	-0.113
-635.595	-186.156	0.223	-0.003
-634.580	-200.000	-0.036	-0.241
-633.565	-128.002	0.263	-0.039
-632.551	282.226	-0.048	0.087
-631.536	-141.867	-0.174	-0.018
-630.522	216.218	-0.090	0.145
-629.507	-132.170	-0.302	-0.040
-628.492	165.813	0.048	-0.069
-627.478	116.601	-0.234	-0.292
-626.463	-24.167	0.173	-0.105
-625.449	-73.465	-0.046	-0.017
-624.434	-200.000	-0.004	0.209
-623.419	83.810	-0.052	-0.058
-622.405	-200.000	-0.013	-0.149
-621.390	-200.000	-0.021	-0.275
-620.376	-7.109	0.120	0.083
-619.361	-200.000	0.007	-0.211
-618.346	96.698	-0.162	-0.188
-617.332	-4.310	-0.258	-0.181
-616.317	164.872	-0.319	0.458
-615.303	-71.370	0.203	0.077
-614.288	77.946	-0.081	0.088
-613.273	-135.211	-0.201	-0.025
-612.259	420.877	0.080	0.174
-611.244	-200.000	-0.049	-0.324
-610.230	-51.637	-0.129	0.061
-609.215	244.467	0.177	-0.303
-608.201	619.284	0.082	0.209
-607.186	35.075	0.153	-0.136
-606.171	551.528	0.194	-0.474
-605.157	82.661	0.105	0.116
-604.142	-97.503	0.258	0.068
-603.128	142.336	0.040	0.054
-602.113	10.927	0.113	-0.088
-601.098	-95.125	0.192	0.053
-600.084	141.012	-0.173	0.233
-599.069	74.228	0.264	-0.282
-598.055	66.086	-0.336	0.347
-597.040	-31.834	-0.360	0.205
-596.025	41.509	0.021	-0.019
-595.011	-104.626	0.275	-0.064
-593.996	176.858	0.149	-0.221
-592.982	69.859	0.071	0.075
-591.967	800.000	0.060	-0.197
-590.952	32.401	-0.244	-0.214
-589.938	-121.240	-0.145	0.025
-588.923	-79.291	-0.136	-0.047
-587.909	-14.893	-0.095	-0.062
-586.894	9.483	-0.081	-0.062
-585.879	800.000	-0.048	-0.195
-584.865	-197.013	0.263	0.002
-583.850	264.191	-0.141	-0.250
-582.836	800.000	0.036	-0.160
-581.821	171.499	0.136	0.198
-580.806	-41.975	0.058	0.030
-579.792	-47.219	-0.372	0.184
-578.777	374.547	-0.114	0.237
-577.763	157.660	0.208	0.293
-576.748	224.382	-0.034	0.056
-575.733	-200.000	0.033	0.161
-574.719	84.611	0.199	-0.221
-573.704	-108.914	0.275	-0.060
-572.690	800.000	0.069	-0.241
-571.675	-122.842	-0.211	0.035
-570.661	-36.810	0.205	0.112
-569.646	266.726	0.104	-0.184
-568.631	-200.000	0.026	0.161
-567.617	33.402	0.164	0.144
-566.602	-82.783	0.143	-0.047
-565.588	398.494	0.261	-0.555
-564.573	-80.008	0.340	0.116
-563.558	32.041	-0.170	0.149
-562.544	-15.845	0.029	0.019
-561.529	-200.000	0.027	0.304
-560.515	15.462	-0.236	0.188
-559.500	7.813	-0.067	-0.051
-558.485	-200.000	0.006	0.091
-557.471	713.201	-0.191	-0.514
-556.456	189.543	-0.114	-0.173
-555.442	-109.898	0.175	0.037
-554.427	-134.902	-0.019	0.002
-553.412	-20.915	-0.062	-0.039
-552.398	800.000	-0.063	0.242
-551.383	-200.000	0.021	-0.174
-550.369	800.000	0.072	0.230
-549.354	328.061	-0.172	0.335
-548.339	-175.715	0.080	0.002
-547.325	-74.077	-0.121	-0.045
-546.310	-61.491	-0.051	0.022
-545.296	-180.961	0.425	-0.009
-544.281	411.229	0.182	0.392
-543.266	-200.000	0.004	-0.456
-542.252	-200.000	-0.014	-0.178
-541.237	54.410	-0.037	0.037
-540.223	-156.946	0.161	-0.010
-539.208	-140.842	-0.386	-0.040
-538.193	-200.000	0.012	-0.213
-537.179	-17.920	0.049	0.031
-536.164	-200.000	-0.002	0.169
-535.150	184.689	0.156	0.235
-534.135	-31.659	0.172	-0.098
-533.121	96.654	-0.198	-0.230
-532.106	4.444	-0.369	-0.274
-531.091	-93.057	0.359	-0.101
-530.077	75.539	-0.166	0.178
-529.062	-24.044	-0.033	-0.020
-528.048	-96.433	-0.082	-0.022
-527.033	314.232	-0.033	-0.062
-526.018	-200.000	0.005	-0.272
-525.004	-40.213	-0.237	0.125
-523.989	-91.470	0.089	-0.026
-522.975	147.626	0.203	0.277
-521.960	800.000	0.051	0.186
-520.945	-36.391	-0.160	-0.088
-519.931	310.697	-0.093	0.177
-518.916	-70.938	0.103	0.039
-517.902	120.643	-0.202	-0.255
-516.887	-138.656	0.262	-0.029
-515.872	412.588	-0.127	0.273
-514.858	615.868	-0.095	0.240
-513.843	-71.293	-0.032	-0.012
-512.829	-112.551	0.151	0.031
-511.814	198.415	0.092	-0.143
-510.799	772.281	-0.091	0.252
-509.785	-92.657	-0.071	0.020
-508.770	47.825	-0.226	0.213
-507.756	-90.070	0.055	0.016
-506.741	-88.120	-0.271	0.082
-505.726	-53.581	-0.138	0.064
-504.712	-170.271	-0.056	-0.002
-503.697	-89.247	-0.463	-0.138
-502.683	-63.583	0.247	0.103
-501.668	110.689	-0.211	0.258
-500.653	-106.804	0.097	-0.022
-499.639	65.252	0.091	-0.094
-498.624	-200.000	-0.016	-0.123
-497.610	800.000	0.045	0.185
-496.595	12.781	0.108	-0.085
-495.581	-100.963	0.212	0.053
-494.566	800.000	-0.007	-0.023
-493.551	69.392	-0.017	-0.017
-492.537	-149.850	-0.145	0.012
-491.522	323.873	0.127	-0.245
-490.508	-200.000	-0.018	-0.363
-489.493	800.000	0.131	-0.417
-488.478	-184.196	-0.146	-0.002
-487.464	-173.619	0.251	-0.008
-486.449	176.112	0.080	0.118
-485.435	-76.440	-0.245	-0.087
-484.420	800.000	-0.053	-0.167
-483.405	800.000	0.056	0.214
-482.391	44.533	-0.053	0.049
-481.376	21.377	-0.246	-0.203
-480.362	-200.000	-0.046	0.300
-479.347	-89.859	-0.257	0.076
-478.332	-93.051	0.288	-0.081
-477.318	800.000	-0.010	-0.030
-476.303	-60.258	0.111	0.048
-475.289	-142.575	0.191	0.019
-474.274	45.941	0.215	-0.202
-473.259	64.203	-0.150	-0.153
-472.245	-74.664	-0.161	-0.058
-471.230	67.609	-0.222	0.229
-470.216	205.307	0.183	0.288
-469.201	-151.897	0.070	0.005
-468.186	17.436	-0.199	-0.160
-467.172	-200.000	0.025	-0.157
-466.157	-181.824	-0.127	0.002
-465.143	800.000	-0.077	0.313
-464.128	214.642	-0.053	0.085
-463.113	-92.461	-0.072	0.021
-462.099	-165.215	0.281	-0.013
-461.084	-77.186	-0.480	0.169
-460.070	-61.690	0.037	0.016
-459.055	-70.168	-0.166	0.064
-458.040	-177.243	0.050	0.001
-457.026	356.245	-0.105	-0.212
-456.011	-12.888	-0.393	-0.259
-454.997	800.000	-0.054	0.205
-453.982	-115.769	-0.146	0.028
-452.968	58.803	0.017	0.017
-451.953	-10.785	-0.288	-0.192
-450.938	8.127	-0.111	0.084
-449.924	-93.095	0.380	0.107
-448.909	44.151	-0.188	0.174
-447.895	-118.770	-0.085	-0.015
-446.880	-134.497	-0.121	-0.015
-445.865	257.822	0.080	0.140
-444.851	-200.000	-0.007	0.232
-443.836	-29.554	0.160	-0.092
-442.822	-44.602	-0.114	0.057
-441.807	385.626	0.094	-0.196
-440.792	-97.116	0.207	0.055
-439.778	388.455	0.063	0.132
-438.763	75.282	0.091	0.097
-437.749	751.377	0.095	-0.260
-436.734	-200.000	0.010	0.122
-435.719	17.772	-0.193	0.155
-434.705	15.269	0.149	0.118
-433.690	223.555	-0.171	0.278
-432.676	-194.261	-0.066	0.001
-431.661	63.839	0.124	-0.126
-430.646	641.051	0.024	-0.062
-429.632	668.913	0.110	-0.286
-428.617	434.306	0.035	0.077
-427.603	207.407	0.078	-0.123
-426.588	262.081	0.244	-0.427
-425.573	-99.572	-0.175	0.044
-424.559	-28.741	-0.104	0.061
-423.544	-33.697	-0.109	-0.061
-422.530	70.917	0.232	-0.242
-421.515	20.852	0.061	0.050
-420.500	92.035	-0.120	0.137
-419.486	-58.797	-0.108	0.047
-418.471	142.383	-0.039	0.053
-417.457	-200.000	0.242	-0.001
-416.442	148.584	-0.178	0.243
-415.428	-142.051	-0.156	0.016
-414.413	-116.488	-0.173	-0.032
-413.398	631.336	0.056	-0.143
-412.384	-93.034	0.191	0.054
-411.369	59.111	-0.220	-0.218
-410.355	-54.996	-0.019	0.008
-409.340	295.324	-0.166	0.306
-408.325	-200.000	0.010	-0.164
-407.311	-151.565	-0.100	0.007
-406.296	-112.880	0.120	0.024
-405.282	-26.378	-0.097	0.058
-404.267	-81.070	0.298	0.100
-403.252	-200.000	0.062	0.000
-402.238	-200.000	0.007	-0.304
-401.223	-31.512	-0.226	-0.128
-400.209	-28.763	0.185	0.107
-399.194	-200.000	0.089	0.470
-398.179	-41.301	-0.032	0.017
-397.165	800.000	0.040	-0.143
-396.150	-75.658	0.239	-0.086
-395.136	-86.864	-0.279	0.086
-394.121	247.282	0.060	-0.103
-393.106	800.000	0.053	-0.161
-392.092	-80.382	0.261	0.088
-391.077	84.518	0.097	0.107
-390.063	-200.000	-0.037	0.286
-389.048	397.105	-0.149	-0.314
-388.033	126.874	-0.130	0.166
-387.019	35.706	-0.154	-0.136
-386.004	-27.558	0.151	-0.088
-384.990	-200.000	-0.010	-0.134
-383.975	36.955	0.269	-0.240
-382.960	51.436	0.297	-0.285
-381.946	529.086	0.129	-0.307
-380.931	17.368	0.114	0.091
-379.917	-108.663	0.044	-0.010
-378.902	33.763	0.160	-0.140
-377.888	-106.420	-0.185	-0.042
-376.873	-60.237	0.228	-0.098
-375.858	-51.393	0.285	0.134
-374.844	193.509	-0.154	0.236
-373.829	-161.980	-0.167	-0.009
-372.815	459.961	0.143	-0.320
-371.800	172.896	-0.060	-0.088
-370.785	-51.378	0.160	0.075
-369.771	-200.000	0.006	0.037
-368.756	-137.780	-0.231	-0.026
-367.742	-200.000	0.033	-0.235
-366.727	800.000	0.094	0.268
-365.712	-200.000	-0.009	-0.280
-364.698	800.000	-0.071	0.262
-363.683	151.504	0.026	-0.036
-362.669	226.568	-0.088	0.145
-361.654	-200.000	-0.006	-0.420
-360.639	-200.000	0.011	-0.058
-359.625	-173.010	-0.102	-0.003
-358.610	185.568	-0.096	-0.143
-357.596	-147.251	-0.292	-0.025
-356.581	-200.000	0.019	-0.396
-355.566	221.575	0.163	0.264
-354.552	-21.460	0.170	-0.104
-353.537	-200.000	-0.012	0.121
-352.523	15.911	0.190	0.151
-351.508	104.624	0.131	-0.156
-350.493	-23.476	-0.175	0.106
-349.479	264.311	0.034	-0.059
-348.464	82.407	0.091	0.099
-347.450	-200.000	0.045	0.243
-346.435	-26.933	-0.131	-0.077
-345.420	-15.110	0.154	0.099
-344.406	-200.000	-0.165	-0.001
-343.391	-144.025	0.108	0.010
-342.377	-105.654	0.103	0.023
-341.362	-91.013	-0.246	0.071
-340.348	-97.772	0.143	0.037
-339.333	-74.930	0.314	0.113
-338.318	111.427	-0.173	-0.210
-337.304	529.970	0.055	0.131
-336.289	-77.780	0.050	0.017
-335.275	252.422	-0.051	-0.087
-334.260	-18.064	0.180	0.114
-333.245	-30.322	-0.072	-0.041
-332.231	-122.699	0.197	0.032
-331.216	135.680	-0.132	-0.173
-330.202	800.000	0.016	-0.052
-329.187	-165.408	0.416	-0.018
-328.172	341.851	-0.224	0.440
-327.158	-200.000	-0.008	0.041
-326.143	106.646	0.229	-0.273
-325.129	80.966	-0.058	-0.063
-324.114	800.000	-0.008	-0.026
-323.099	94.503	-0.142	-0.162
-322.085	417.920	-0.063	0.134
-321.070	155.344	0.203	0.281
-320.056	242.184	-0.069	-0.116
-319.041	-13.937	0.223	-0.145
-318.026	-72.254	0.227	-0.085
-317.012	22.150	-0.087	-0.071
-315.997	800.000	0.081	-0.277
-314.983	687.859	0.077	-0.203
-313.968	-200.000	-0.002	0.169
-312.953	-154.075	0.453	-0.031
-311.939	408.493	0.048	0.101
-310.924	-22.122	0.338	0.206
-309.910	800.000	-0.073	0.207
-308.895	-67.487	0.112	0.044
-307.880	-41.219	-0.175	0.091
-306.866	-200.000	0.075	0.474
-305.851	12.546	0.309	-0.239
-304.837	-53.282	-0.231	-0.106
-303.822	-148.878	-0.326	-0.027
-302.807	-147.155	0.385	0.033
-301.793	-159.740	0.468	0.026
-300.778	64.214	-0.102	0.103
-299.764	-200.000	0.017	0.323
-298.749	-111.221	-0.059	-0.012
-297.735	800.000	0.006	-0.019
-296.720	-200.000	0.063	0.336
-295.705	60.456	-0.050	-0.050
-294.691	33.684	-0.224	-0.196
-293.676	-66.360	-0.273	0.109
-292.662	-123.335	-0.197	-0.032
-291.647	23.867	-0.281	-0.232
-290.632	-106.227	-0.431	-0.097
-289.618	-1.216	-0.089	-0.063
-288.603	-70.871	-0.332	-0.126
-287.589	-200.000	0.003	0.159
-286.574	-200.000	-0.032	-0.190
-285.559	-74.728	-0.258	-0.093
-284.545	-200.000	0.095	-0.433
-283.530	-53.042	0.072	0.033
-282.516	41.123	-0.252	0.228
-281.501	567.715	0.058	-0.143
-280.486	-68.619	0.090	0.035
-279.472	-163.144	-0.137	0.007
-278.457	-16.103	-0.207	0.132
-277.443	226.008	0.141	-0.230
-276.428	391.351	-0.069	0.144
-275.413	800.000	0.033	0.112
-274.399	-75.577	0.097	-0.035
-273.384	-30.279	-0.170	-0.097
-272.370	-157.956	-0.167	0.010
-271.355	503.142	-0.083	0.193
-270.340	446.653	0.031	0.068
-269.326	-200.000	0.002	-0.026
-268.311	-87.598	0.231	0.070
-267.297	-128.800	-0.153	-0.022
-266.282	-61.854	-0.123	0.052
-265.267	29.421	0.328	0.280
-264.253	-10.623	-0.274	-0.182
-263.238	-134.394	-0.346	-0.043
-262.224	800.000	0.065	0.220
-261.209	-113.409	-0.213	-0.042
-260.195	88.530	-0.111	0.124
-259.180	800.000	0.064	0.263
-258.165	-32.821	0.159	-0.088
-257.151	-51.847	0.297	0.138
-256.136	-200.000	0.018	0.100
-255.122	158.288	0.210	-0.293
-254.107	-45.371	-0.190	-0.095
-253.092	305.311	0.124	-0.231
-252.078	-83.448	-0.151	0.049
-251.063	800.000	0.083	0.270
-250.049	93.144	-0.084	-0.095
-249.034	77.671	-0.248	-0.265
-248.019	-35.872	-0.186	0.101
-247.005	-111.924	-0.284	-0.058
-245.990	-69.342	0.476	0.183
-244.976	386.989	-0.138	0.285
-243.961	800.000	0.026	0.074
-242.946	50.994	0.395	0.376
-241.932	-200.000	0.016	-0.135
-240.917	-200.000	-0.014	-0.135
-239.903	-200.000	0.007	0.279
-238.888	-200.000	-0.015	0.183
-237.873	7.318	0.263	-0.197
-236.859	116.266	0.050	-0.061
-235.844	-23.716	0.109	0.065
-234.830	-200.000	0.030	-0.251
-233.815	-200.000	-0.005	-0.072
-232.800	79.294	0.326	-0.350
-231.786	27.689	0.130	0.110
-230.771	20.490	0.094	-0.076
-229.757	17.123	-0.198	0.158
-228.742	135.761	-0.116	0.151
-227.727	60.677	-0.072	-0.072
-226.713	-18.460	0.137	-0.086
-225.698	-68.903	0.281	-0.109
-224.684	10.486	0.231	0.176
-223.669	291.673	-0.041	0.075
-222.655	265.957	0.054	0.094
-221.640	50.866	0.292	0.277
-220.625	-47.972	0.052	0.025
-219.611	-200.000	-0.020	-0.281
-218.596	-131.338	-0.181	-0.024
-217.582	212.555	0.007	-0.011
-216.567	52.447	0.116	0.111
-215.552	800.000	0.120	0.373
-214.538	340.398	0.136	-0.265
-213.523	800.000	-0.089	-0.354
-212.509	-52.864	-0.060	0.028
-211.494	-106.111	0.399	0.090
-210.479	-43.986	0.700	0.352
-209.465	-72.405	0.035	-0.013
-208.450	-122.804	-0.314	-0.051
-207.436	393.850	0.062	0.130
-206.421	800.000	0.125	0.364
-205.406	-200.000	-0.014	-0.161
-204.392	247.286	0.125	0.212
-203.377	55.861	-0.160	-0.155
-202.363	-33.864	-0.240	0.133
-201.348	-63.731	-0.154	-0.063
-200.333	-104.309	-0.543	0.126
-199.319	155.064	-0.091	0.125
-198.304	-56.242	-0.265	-0.118
-197.290	563.487	-0.114	-0.275
-196.275	-25.548	0.151	-0.089
-195.260	301.192	-0.036	-0.067
-194.246	-129.052	-0.285	0.040
-193.231	-200.000	0.018	0.220
-192.217	113.612	-0.211	0.256
-191.202	-200.000	0.054	-0.371
-190.187	-132.379	-0.026	0.003
-189.173	133.740	-0.178	0.231
-188.158	-107.720	0.138	0.030
-187.144	399.559	0.175	0.366
-186.129	800.000	0.066	0.184
-185.114	355.781	0.074	0.148
-184.100	34.544	0.115	0.100
-183.085	-200.000	-0.020	-0.107
-182.071	-75.482	-0.011	-0.004
-181.056	51.917	-0.045	-0.043
-180.042	34.421	0.196	-0.171
-179.027	770.811	0.044	0.120
-178.012	-118.944	-0.412	-0.072
-176.998	-30.358	-0.033	0.019
-175.983	800.000	-0.071	-0.238
-174.969	310.348	0.045	-0.084
-173.954	14.301	0.057	0.044
-172.939	-93.536	-0.403	-0.111
-171.925	208.884	0.035	-0.055
-170.910	-200.000	-0.013	-0.073
-169.896	231.910	0.166	0.273
-168.881	-102.156	-0.071	0.017
-167.866	59.394	0.265	-0.261
-166.852	-107.666	0.339	-0.074
-165.837	48.642	-0.092	0.086
-164.823	17.584	-0.221	0.175
-163.808	-200.000	-0.011	-0.068
-162.793	-149.290	0.407	-0.032
-161.779	66.030	0.258	-0.262
-160.764	-19.724	-0.200	0.124
-159.750	280.123	0.027	0.048
-158.735	99.913	-0.147	0.170
-157.720	327.336	-0.052	0.099
-156.706	-180.483	0.220	0.005
-155.691	-68.966	-0.173	0.067
-154.677	530.824	-0.051	0.121
-153.662	800.000	-0.036	-0.121
-152.647	-200.000	-0.039	0.333
-151.633	48.416	0.229	-0.215
-150.618	499.384	-0.051	-0.119
-149.604	800.000	-0.029	0.095
-148.589	-200.000	-0.010	-0.223
-147.574	140.538	0.086	0.114
-146.560	-22.703	-0.251	0.152
-145.545	-200.000	-0.013	0.103
-144.531	-37.093	-0.070	-0.038
-143.516	-200.000	0.007	-0.046
-142.502	-200.000	0.001	0.087
-141.487	-200.000	-0.005	0.266
-140.472	-30.961	-0.128	0.072
-139.458	203.711	-0.077	0.118
-138.443	-137.745	0.332	-0.037
-137.429	-200.000	-0.019	0.221
-136.414	-12.408	0.278	0.181
-135.399	-125.228	-0.088	0.013
-134.385	-52.764	-0.244	-0.112
-133.370	299.679	0.223	0.410
-132.356	71.556	0.269	0.279
-131.341	229.659	0.051	-0.084
-130.326	10.270	0.097	-0.074
-129.312	-63.816	0.285	-0.116
-128.297	800.000	-0.064	-0.178
-127.283	-135.258	-0.270	-0.032
-126.268	-80.265	-0.124	0.041
-125.253	-200.000	0.002	-0.380
-124.239	800.000	0.033	-0.140
-123.224	22.926	-0.090	-0.073
-122.210	800.000	0.030	0.125
-121.195	-106.082	-0.149	0.033
