DTS Sentinel unit serial number:	SN413079Multiplexer serial number:	ORYXHardware model number:	OX4-SRSoftware version number:	ORYX F/W v4.00 Oryx Data Collector v3.7.2.0data status	okinstallation	princeton_trtdifferential loss correction	single-endedforward channel	channel 1reverse channel	N/Adate	2019/09/16time	22:58:35forward acquisition time	60.00reverse acquisition time	0.00gamma	496.2192k internal	0.2325k external	0.2325temperature offset calibration	0.9958default loss term (dB/km)	0.3790temperature slope calibration	1.0000multiplexer offset coefficient	1.0000multiplexer slope coefficient	1.0000fibre end	0.00T internal ref (°C)	30.37T ext. ref 1 (°C)	0.09T ext. ref 2 (°C)	23.98length (m)	temperature (°C)	Stokes	anti-Stokes-747.200	121.930	-0.036	0.046
-746.185	67.690	-0.266	0.274
-745.171	-5.106	0.239	-0.166
-744.156	-200.000	0.054	0.333
-743.142	-76.341	0.301	0.107
-742.127	800.000	-0.091	0.282
-741.112	-200.000	-0.043	0.208
-740.098	-200.000	-0.079	0.360
-739.083	-200.000	0.017	0.424
-738.069	-8.752	-0.106	0.072
-737.054	-168.190	0.160	0.006
-736.039	-94.259	0.090	-0.025
-735.025	72.601	0.375	0.395
-734.010	169.382	-0.123	0.178
-732.996	2.366	0.152	0.111
-731.981	63.899	0.228	-0.231
-730.966	800.000	-0.023	-0.067
-729.952	-74.215	-0.188	-0.069
-728.937	117.681	-0.110	-0.136
-727.923	314.297	-0.134	0.254
-726.908	-200.000	-0.060	-0.350
-725.894	198.387	0.129	0.199
-724.879	-200.000	0.014	-0.336
-723.864	-200.000	0.019	0.102
-722.850	140.405	0.280	-0.372
-721.835	-103.775	-0.116	0.027
-720.821	800.000	-0.066	-0.222
-719.806	12.328	0.200	-0.155
-718.791	-9.501	0.076	0.051
-717.777	5.792	-0.033	0.024
-716.762	-76.531	-0.289	0.102
-715.748	800.000	0.107	-0.350
-714.733	-157.844	0.228	-0.014
-713.718	350.105	0.295	0.588
-712.704	-200.000	0.025	-0.292
-711.689	-92.770	-0.191	0.054
-710.675	-58.053	0.130	-0.057
-709.660	188.183	0.215	-0.323
-708.645	-200.000	0.003	-0.027
-707.631	77.873	0.198	0.213
-706.616	800.000	-0.058	-0.169
-705.602	55.769	0.144	-0.141
-704.587	-77.076	0.118	-0.042
-703.572	800.000	0.054	-0.227
-702.558	-89.388	0.176	0.052
-701.543	-200.000	-0.044	-0.229
-700.529	217.092	-0.139	-0.222
-699.514	39.497	-0.134	0.121
-698.499	-92.934	-0.182	-0.051
-697.485	-200.000	-0.037	-0.182
-696.470	126.198	-0.068	-0.086
-695.456	-81.703	0.245	-0.081
-694.441	-200.000	0.042	-0.495
-693.426	800.000	-0.069	0.197
-692.412	96.989	0.062	-0.072
-691.397	-22.194	-0.065	-0.040
-690.383	84.757	-0.197	0.217
-689.368	204.182	0.131	0.204
-688.354	567.584	-0.028	-0.070
-687.339	775.559	0.007	0.020
-686.324	-48.721	-0.306	0.148
-685.310	627.444	0.106	-0.269
-684.295	-157.645	0.417	-0.025
-683.281	-48.798	0.160	-0.077
-682.266	26.737	0.224	-0.189
-681.251	161.969	-0.029	-0.040
-680.237	65.018	0.150	0.153
-679.222	5.042	-0.057	0.042
-678.208	30.133	0.278	-0.239
-677.193	-86.977	0.148	-0.045
-676.178	-200.000	0.002	-0.089
-675.164	800.000	0.034	0.122
-674.149	9.093	-0.293	-0.222
-673.135	331.623	0.057	-0.111
-672.120	-200.000	0.019	0.084
-671.105	508.193	-0.092	-0.215
-670.091	184.881	0.069	0.103
-669.076	221.313	-0.153	-0.247
-668.062	-200.000	-0.008	-0.208
-667.047	376.432	0.084	-0.173
-666.032	-108.504	-0.300	-0.065
-665.018	216.473	-0.197	0.315
-664.003	-61.371	-0.278	-0.118
-662.989	240.114	0.218	0.365
-661.974	-89.889	-0.305	0.090
-660.959	-200.000	-0.147	0.001
-659.945	-200.000	-0.007	-0.075
-658.930	-56.727	-0.075	-0.033
-657.916	800.000	-0.074	-0.212
-656.901	-142.055	-0.378	0.038
-655.886	-114.229	0.494	-0.096
-654.872	800.000	0.075	0.330
-653.857	-54.603	-0.338	0.154
-652.843	612.337	0.084	-0.211
-651.828	-143.866	-0.144	-0.014
-650.814	-200.000	0.030	-0.377
-649.799	-147.929	-0.145	-0.012
-648.784	-57.435	-0.060	0.027
-647.770	-106.153	-0.189	0.043
-646.755	-200.000	0.017	0.185
-645.741	800.000	0.004	-0.012
-644.726	-126.064	-0.215	0.032
-643.711	-75.705	-0.099	-0.035
-642.697	-16.585	0.182	0.116
-641.682	-200.000	-0.043	0.379
-640.668	-85.282	-0.250	-0.078
-639.653	426.953	0.125	-0.271
-638.638	-69.080	-0.187	0.073
-637.624	-72.190	0.277	0.103
-636.609	-200.000	0.008	0.156
-635.595	-65.887	-0.026	-0.010
-634.580	-11.828	0.116	0.076
-633.565	346.305	-0.171	-0.338
-632.551	51.428	-0.134	0.128
-631.536	-123.630	0.081	0.013
-630.522	35.387	-0.042	0.037
-629.507	800.000	0.094	-0.272
-628.492	220.468	0.165	-0.265
-627.478	-7.436	-0.237	0.161
-626.463	185.200	-0.155	0.231
-625.449	-74.929	0.091	-0.033
-624.434	527.407	-0.026	-0.062
-623.419	-61.165	0.241	-0.102
-622.405	-78.128	0.234	0.081
-621.390	-123.397	0.224	-0.036
-620.376	-200.000	-0.010	-0.166
-619.361	5.742	-0.229	-0.170
-618.346	-21.114	-0.152	0.093
-617.332	185.951	0.055	0.083
-616.317	-200.000	0.012	0.237
-615.303	-9.484	-0.230	0.154
-614.288	407.960	0.184	-0.390
-613.273	800.000	-0.100	0.360
-612.259	800.000	0.043	-0.130
-611.244	-141.882	0.194	0.019
-610.230	699.298	-0.039	0.104
-609.215	253.482	-0.070	0.120
-608.201	21.848	-0.237	0.194
-607.186	800.000	-0.224	0.640
-606.171	69.942	-0.118	-0.122
-605.157	698.436	0.038	0.100
-604.142	182.534	-0.192	-0.284
-603.128	486.287	-0.018	0.041
-602.113	-94.698	0.280	0.076
-601.098	-114.629	-0.184	-0.035
-600.084	-200.000	0.005	-0.284
-599.069	-200.000	-0.001	0.016
-598.055	-0.237	0.147	0.105
-597.040	-19.925	0.124	-0.077
-596.025	-4.837	0.150	-0.104
-595.011	-200.000	0.014	-0.088
-593.996	-25.910	0.047	0.028
-592.982	162.103	0.154	0.217
-591.967	-200.000	-0.017	-0.181
-590.952	336.686	-0.106	0.207
-589.938	65.032	-0.317	-0.321
-588.923	88.515	0.018	-0.020
-587.909	206.169	-0.153	-0.239
-586.894	773.935	0.046	-0.126
-585.879	-59.455	0.215	0.093
-584.865	-42.030	-0.059	0.030
-583.850	368.935	0.124	0.251
-582.836	23.994	-0.030	0.025
-581.821	-43.506	0.171	-0.087
-580.806	-96.700	-0.369	0.097
-579.792	-55.285	0.107	0.048
-578.777	-96.644	-0.302	0.080
-577.763	91.283	-0.064	-0.072
-576.748	-116.388	-0.129	0.024
-575.733	-164.806	-0.164	0.007
-574.719	-69.377	0.218	0.084
-573.704	32.735	-0.279	0.242
-572.690	-131.416	-0.111	-0.015
-571.675	-167.546	-0.261	-0.010
-570.661	800.000	-0.120	0.461
-569.646	31.231	-0.204	-0.175
-568.631	-115.311	0.184	0.035
-567.617	329.988	-0.050	0.097
-566.602	266.369	-0.150	-0.262
-565.588	800.000	0.104	-0.451
-564.573	-110.498	0.294	-0.061
-563.558	-61.752	0.312	-0.131
-562.544	97.279	-0.147	0.169
-561.529	800.000	0.086	-0.275
-560.515	-35.053	-0.235	-0.128
-559.500	-200.000	0.009	0.126
-558.485	-117.219	-0.217	0.040
-557.471	-200.000	0.007	0.208
-556.456	800.000	-0.044	0.127
-555.442	-40.844	0.175	-0.091
-554.427	130.172	-0.027	0.034
-553.412	-70.444	-0.139	0.053
-552.398	776.951	-0.187	-0.512
-551.383	-64.343	-0.153	0.062
-550.369	-25.932	-0.143	0.084
-549.354	-200.000	-0.001	-0.259
-548.339	-57.680	-0.149	-0.065
-547.325	-37.299	-0.165	-0.088
-546.310	800.000	0.085	-0.240
-545.296	-34.714	0.170	0.093
-544.281	10.247	0.394	0.300
-543.266	8.987	-0.100	0.075
-542.252	198.108	-0.028	-0.042
-541.237	-139.389	0.189	0.020
-540.223	800.000	0.059	-0.236
-539.208	-43.313	-0.113	0.057
-538.193	800.000	0.089	-0.258
-537.179	246.755	0.108	-0.182
-536.164	350.912	-0.047	0.093
-535.150	333.449	-0.080	-0.155
-534.135	-200.000	-0.024	0.158
-533.121	800.000	0.125	-0.465
-532.106	800.000	-0.037	-0.161
-531.091	-200.000	-0.033	-0.444
-530.077	-88.586	0.127	0.038
-529.062	-32.703	-0.163	-0.091
-528.048	-50.665	-0.166	-0.078
-527.033	-200.000	0.318	0.001
-526.018	-200.000	0.026	0.203
-525.004	-123.122	0.360	0.058
-523.989	-200.000	-0.023	0.143
-522.975	24.157	0.140	0.116
-521.960	503.838	0.066	-0.153
-520.945	-104.154	-0.206	0.048
-519.931	1.431	0.310	0.223
-518.916	-200.000	-0.009	-0.116
-517.902	800.000	-0.096	0.367
-516.887	155.433	0.052	0.072
-515.872	155.229	-0.198	-0.272
-514.858	26.482	-0.086	0.072
-513.843	119.067	0.196	0.243
-512.829	-200.000	0.015	-0.144
-511.814	-159.928	-0.190	0.010
-510.799	-37.288	0.410	-0.219
-509.785	279.340	0.125	-0.223
-508.770	-1.603	-0.268	0.189
-507.756	55.234	0.178	0.173
-506.741	-81.749	-0.192	-0.063
-505.726	71.435	0.285	-0.296
-504.712	-200.000	-0.029	-0.178
-503.697	-148.897	-0.206	-0.017
-502.683	267.907	0.045	0.079
-501.668	244.000	-0.102	-0.171
-500.653	-96.708	-0.046	0.012
-499.639	199.134	0.089	-0.137
-498.624	-40.735	0.166	0.086
-497.610	-42.329	-0.269	-0.137
-496.595	26.988	-0.092	-0.077
-495.581	-115.943	-0.306	-0.057
-494.566	441.136	0.139	0.304
-493.551	64.173	0.067	-0.067
-492.537	-62.439	0.181	-0.075
-491.522	-29.504	0.051	0.029
-490.508	307.033	0.094	0.175
-489.493	61.985	0.124	-0.123
-488.478	-145.219	-0.201	0.018
-487.464	-163.442	-0.549	-0.026
-486.449	-106.641	-0.138	-0.031
-485.435	-92.041	-0.442	0.125
-484.420	290.448	-0.212	0.384
-483.405	-200.000	0.036	0.269
-482.391	-41.105	0.182	-0.094
-481.376	51.422	0.239	-0.226
-480.362	-35.561	-0.103	0.056
-479.347	-76.242	-0.267	0.094
-478.332	-89.332	-0.161	0.047
-477.318	88.706	0.219	0.243
-476.303	393.008	0.109	0.227
-475.289	294.389	0.066	-0.120
-474.274	-136.090	-0.218	0.026
-473.259	-90.291	0.168	-0.049
-472.245	412.115	0.100	0.211
-471.230	-21.017	0.199	-0.122
-470.216	-84.243	-0.080	-0.025
-469.201	800.000	-0.067	0.208
-468.186	-66.535	0.192	-0.076
-467.172	659.193	0.078	-0.201
-466.157	-200.000	0.068	-0.000
-465.143	408.052	0.053	-0.111
-464.128	-76.660	-0.198	0.069
-463.113	-200.000	0.032	0.166
-462.099	-6.752	-0.152	-0.103
-461.084	356.546	0.125	-0.248
-460.070	-155.407	-0.152	-0.010
-459.055	-84.636	-0.412	-0.130
-458.040	265.406	-0.070	0.122
-457.026	-200.000	0.006	0.241
-456.011	-59.801	0.082	-0.035
-454.997	-60.735	-0.316	-0.134
-453.982	-200.000	0.001	-0.033
-452.968	-120.419	0.219	-0.037
-451.953	-174.651	-0.208	0.006
-450.938	175.247	0.083	0.120
-449.924	300.385	0.113	0.208
-448.909	-200.000	0.015	0.068
-447.895	370.635	-0.120	0.242
-446.880	-200.000	0.101	0.513
-445.865	-21.685	-0.136	0.083
-444.851	116.489	-0.355	-0.434
-443.836	-200.000	0.040	-0.180
-442.822	-200.000	-0.013	0.219
-441.807	-200.000	-0.021	0.198
-440.792	-138.730	0.292	0.032
-439.778	103.944	0.228	-0.267
-438.763	-155.962	0.186	0.012
-437.749	58.387	0.183	0.179
-436.734	143.973	0.070	0.093
-435.719	-194.282	0.070	0.001
-434.705	-12.044	0.116	0.076
-433.690	-152.236	-0.162	0.012
-432.676	-200.000	-0.008	-0.147
-431.661	-113.327	0.312	-0.061
-430.646	15.403	-0.079	0.062
-429.632	-200.000	0.045	-0.345
-428.617	-200.000	-0.016	-0.310
-427.603	380.377	-0.061	-0.126
-426.588	-200.000	0.018	-0.335
-425.573	72.329	0.082	-0.085
-424.559	-102.854	0.256	-0.061
-423.544	-200.000	0.005	0.034
-422.530	170.477	-0.087	0.124
-421.515	1.552	-0.145	-0.104
-420.500	-200.000	0.019	-0.294
-419.486	322.684	-0.084	-0.160
-418.471	760.584	0.075	0.203
-417.457	-131.865	-0.222	0.029
-416.442	-31.919	-0.132	-0.073
-415.428	-67.362	-0.193	0.075
-414.413	8.827	0.274	0.206
-413.398	413.303	-0.168	0.355
-412.384	-110.697	0.164	-0.034
-411.369	-200.000	0.033	0.199
-410.355	-135.951	-0.202	0.024
-409.340	-13.311	0.096	-0.062
-408.325	2.491	0.084	-0.061
-407.311	622.472	0.087	-0.217
-406.296	-25.461	0.090	0.053
-405.282	-62.993	0.235	-0.097
-404.267	-200.000	0.026	-0.226
-403.252	800.000	-0.098	-0.297
-402.238	800.000	0.054	0.200
-401.223	56.085	-0.054	0.052
-400.209	-61.893	-0.217	-0.090
-399.194	-118.286	0.312	0.055
-398.179	-2.437	0.148	-0.104
-397.165	17.958	0.165	-0.131
-396.150	-124.853	0.259	-0.040
-395.136	182.762	0.139	-0.204
-394.121	-78.047	-0.402	0.138
-393.106	-66.058	0.228	0.091
-392.092	42.055	0.055	0.050
-391.077	-88.506	-0.112	-0.033
-390.063	-200.000	-0.041	0.232
-389.048	-100.364	0.272	0.067
-388.033	-46.796	0.175	0.085
-387.019	800.000	-0.062	0.240
-386.004	7.144	-0.206	0.153
-384.990	-200.000	0.047	0.302
-383.975	-200.000	-0.027	-0.293
-382.960	9.766	0.219	-0.165
-381.946	-15.846	0.060	-0.038
-380.931	324.526	-0.137	0.261
-379.917	5.778	0.085	-0.063
-378.902	89.113	0.161	0.178
-377.888	800.000	-0.109	-0.341
-376.873	-200.000	0.015	0.079
-375.858	50.993	0.048	-0.045
-374.844	-61.080	-0.140	-0.059
-373.829	-133.872	-0.159	0.020
-372.815	-134.789	0.441	0.053
-371.800	4.435	-0.160	0.117
-370.785	-180.091	-0.140	0.003
-369.771	0.991	-0.444	-0.317
-368.756	-70.376	0.097	0.036
-367.742	141.269	0.105	0.138
-366.727	-153.788	-0.233	-0.016
-365.712	-200.000	-0.067	-0.307
-364.698	-200.000	0.049	0.268
-363.683	-55.070	-0.111	-0.050
-362.669	800.000	0.073	-0.263
-361.654	-200.000	-0.056	-0.276
-360.639	122.456	0.188	-0.234
-359.625	-79.502	-0.331	0.111
-358.610	800.000	-0.130	-0.367
-357.596	-200.000	-0.022	0.160
-356.581	112.847	0.052	-0.062
-355.566	185.246	0.108	-0.159
-354.552	-200.000	-0.026	0.158
-353.537	-32.673	-0.256	0.141
-352.523	-200.000	0.038	-0.207
-351.508	189.556	-0.150	-0.224
-350.493	39.843	-0.110	-0.098
-349.479	-116.096	0.205	-0.038
-348.464	482.792	0.071	0.161
-347.450	117.909	0.229	0.281
-346.435	-32.275	-0.082	0.046
-345.420	-91.098	0.325	0.093
-344.406	664.307	0.049	0.125
-343.391	91.664	0.090	-0.100
-342.377	90.288	-0.178	-0.198
-341.362	-131.247	-0.274	0.036
-340.348	-85.067	0.375	0.117
-339.333	28.649	-0.153	-0.128
-338.318	42.198	0.108	0.097
-337.304	470.542	0.031	-0.069
-336.289	161.580	-0.193	0.268
-335.275	-74.644	-0.146	-0.052
-334.260	550.107	0.053	-0.127
-333.245	800.000	-0.067	-0.276
-332.231	767.003	0.087	0.235
-331.216	475.626	-0.019	0.042
-330.202	-36.284	0.382	-0.205
-329.187	-16.900	0.089	0.056
-328.172	605.399	0.077	0.190
-327.158	800.000	0.077	0.227
-326.143	389.845	0.092	0.190
-325.129	154.508	0.075	-0.103
-324.114	608.249	-0.045	-0.110
-323.099	-120.051	0.171	0.029
-322.085	-102.008	0.311	0.074
-321.070	-200.000	0.037	-0.307
-320.056	236.224	0.022	0.037
-319.041	225.619	-0.177	-0.285
-318.026	193.452	-0.073	-0.110
-317.012	800.000	-0.038	0.116
-315.997	-200.000	0.006	0.361
-314.983	800.000	0.094	0.289
-313.968	-43.668	0.144	-0.072
-312.953	-52.821	-0.122	-0.056
-311.939	800.000	-0.083	0.278
-310.924	-200.000	0.017	-0.096
-309.910	-154.594	-0.238	0.016
-308.895	392.519	0.084	-0.172
-307.880	7.723	-0.208	-0.155
-306.866	-109.082	-0.208	0.044
-305.851	-87.933	0.051	-0.015
-304.837	546.028	0.114	-0.269
-303.822	-96.731	0.218	0.057
-302.807	43.145	0.088	-0.080
-301.793	-64.508	0.085	0.034
-300.778	-158.197	0.163	-0.009
-299.764	7.217	-0.327	-0.242
-298.749	-200.000	0.006	0.127
-297.735	51.800	0.199	-0.188
-296.720	183.088	0.224	-0.328
-295.705	-48.468	-0.041	-0.020
-294.691	623.913	0.087	-0.218
-293.676	800.000	0.047	-0.136
-292.662	-200.000	0.035	-0.212
-291.647	-169.828	0.246	-0.009
-290.632	-152.926	-0.347	-0.024
-289.618	-105.707	-0.050	0.011
-288.603	29.263	0.152	0.128
-287.589	432.295	-0.211	-0.453
-286.574	305.161	0.176	-0.323
-285.559	-200.000	0.022	0.138
-284.545	119.528	-0.228	0.280
-283.530	-120.639	0.162	-0.027
-282.516	771.266	-0.030	-0.082
-281.501	-41.684	0.189	0.096
-280.486	-68.470	0.144	0.055
-279.472	132.374	0.158	0.202
-278.457	-43.643	0.173	0.087
-277.443	-200.000	-0.033	0.229
-276.428	125.873	0.102	-0.127
-275.413	81.861	-0.029	-0.031
-274.399	507.140	-0.057	-0.132
-273.384	-200.000	0.014	-0.144
-272.370	82.847	0.162	0.174
-271.355	-123.012	-0.251	0.040
-270.340	-140.396	-0.194	-0.020
-269.326	-124.629	0.081	-0.012
-268.311	-111.166	-0.300	0.061
-267.297	422.789	-0.156	0.332
-266.282	291.156	0.123	0.222
-265.267	23.979	0.254	-0.208
-264.253	37.499	-0.150	-0.132
-263.238	-151.755	-0.242	0.018
-262.224	582.057	0.013	-0.032
-261.209	800.000	0.042	0.169
-260.195	43.062	0.044	-0.039
-259.180	-170.211	-0.230	-0.008
-258.165	-92.191	0.119	-0.033
-257.151	55.355	-0.170	0.162
-256.136	352.856	0.031	-0.062
-255.122	324.966	-0.041	-0.078
-254.107	800.000	0.081	-0.248
-253.092	193.269	-0.128	0.192
-252.078	111.183	-0.375	0.447
-251.063	215.075	0.149	-0.234
-250.049	-64.085	0.063	-0.026
-249.034	-22.496	0.077	0.046
-248.019	36.043	-0.142	-0.123
-247.005	52.895	-0.220	0.208
-245.990	31.076	0.242	-0.205
-244.976	800.000	-0.034	-0.105
-243.961	45.243	0.212	0.193
-242.946	-200.000	0.020	0.175
-241.932	140.032	-0.143	0.187
-240.917	-188.778	0.133	0.002
-239.903	800.000	0.068	-0.237
-238.888	306.836	-0.129	-0.238
-237.873	205.712	0.050	0.077
-236.859	81.339	0.080	-0.086
-235.844	134.193	-0.231	0.297
-234.830	-105.817	0.309	0.069
-233.815	-200.000	0.011	0.051
-232.800	86.510	-0.119	0.130
-231.786	-101.820	0.318	0.076
-230.771	-129.942	-0.327	0.044
-229.757	-112.325	0.035	-0.007
-228.742	-200.000	0.011	-0.082
-227.727	422.492	0.093	-0.198
-226.713	-108.669	0.167	-0.035
-225.698	37.041	0.184	0.161
-224.684	-172.971	-0.239	-0.007
-223.669	716.192	0.052	-0.138
-222.655	239.345	-0.112	-0.184
-221.640	-200.000	0.037	0.292
-220.625	800.000	0.059	0.232
-219.611	26.171	-0.109	-0.090
-218.596	294.250	0.094	-0.170
-217.582	-92.995	0.262	-0.072
-216.567	-200.000	-0.004	-0.068
-215.552	569.440	-0.055	-0.133
-214.538	44.397	-0.132	-0.119
-213.523	-200.000	0.012	0.367
-212.509	26.506	-0.217	-0.179
-211.494	-55.316	-0.288	0.128
-210.479	800.000	0.061	0.177
-209.465	-5.419	-0.280	-0.190
-208.450	66.726	0.266	0.267
-207.436	-200.000	0.007	0.189
-206.421	-200.000	-0.002	-0.085
-205.406	800.000	-0.040	0.137
-204.392	257.348	-0.190	-0.322
-203.377	72.453	0.203	0.209
-202.363	-7.364	-0.266	0.178
-201.348	-98.130	-0.172	0.044
-200.333	-123.938	0.199	0.031
-199.319	-137.630	0.180	-0.020
-198.304	-88.856	-0.205	0.060
-197.290	-156.566	-0.072	-0.004
-196.275	609.222	0.057	0.141
-195.260	-16.953	0.074	0.046
-194.246	-200.000	0.048	-0.488
-193.231	637.755	-0.152	0.381
-192.217	-150.687	0.124	0.009
-191.202	41.760	0.170	-0.152
-190.187	-200.000	0.032	0.341
-189.173	-200.000	-0.043	0.268
-188.158	-200.000	-0.002	-0.120
-187.144	800.000	0.015	0.064
-186.129	-139.035	-0.150	0.016
-185.114	187.730	-0.215	0.317
-184.100	642.310	-0.098	0.245
-183.085	-102.326	-0.256	0.061
-182.071	-103.189	-0.037	0.009
-181.056	95.485	0.070	0.078
-180.042	-152.423	0.186	0.013
-179.027	-16.747	0.367	-0.229
-178.012	-200.000	0.014	0.225
-176.998	28.064	0.148	0.123
-175.983	-143.573	-0.323	-0.030
-174.969	-0.261	0.104	-0.073
-173.954	-200.000	0.014	-0.310
-172.939	800.000	0.058	0.249
-171.925	-200.000	-0.012	0.260
-170.910	-141.342	0.367	-0.037
-169.896	167.358	0.028	0.039
-168.881	92.208	-0.177	-0.197
-167.866	800.000	-0.071	-0.220
-166.852	-63.059	0.264	-0.108
-165.837	-132.001	0.252	0.032
-164.823	-27.936	-0.230	-0.131
-163.808	800.000	-0.040	0.141
-162.793	-133.222	0.174	0.022
-161.779	46.710	-0.318	-0.291
-160.764	-24.839	0.238	-0.140
-159.750	-90.396	0.157	-0.045
-158.735	-200.000	0.004	0.076
-157.720	-200.000	-0.199	-0.001
-156.706	-179.169	0.370	-0.008
-155.691	-64.764	-0.096	0.038
-154.677	-57.330	0.076	0.033
-153.662	322.650	0.106	0.200
-152.647	22.846	0.125	0.101
-151.633	182.679	-0.162	0.236
-150.618	-19.745	0.143	-0.087
-149.604	800.000	0.027	0.096
-148.589	12.587	0.123	-0.093
-147.574	276.694	0.188	-0.330
-146.560	800.000	0.079	0.339
-145.545	211.316	-0.173	-0.268
-144.531	800.000	-0.067	-0.267
-143.516	-200.000	0.046	-0.246
-142.502	445.717	-0.036	-0.078
-141.487	-5.820	-0.045	0.030
-140.472	800.000	0.003	-0.013
-139.458	242.550	0.021	-0.035
-138.443	800.000	-0.034	0.136
-137.429	-171.048	0.137	0.005
-136.414	688.221	-0.077	0.199
-135.399	142.981	0.153	0.200
-134.385	8.041	-0.115	0.085
-133.370	-200.000	-0.027	-0.164
-132.356	525.017	-0.103	0.240
-131.341	-83.133	-0.162	-0.051
-130.326	17.358	-0.141	0.111
-129.312	-72.843	-0.249	-0.090
-128.297	-137.535	-0.116	-0.013
-127.283	800.000	0.017	0.064
-126.268	-27.046	0.201	0.116
-125.253	202.184	0.036	-0.055
-124.239	100.296	-0.281	0.321
-123.224	800.000	-0.055	-0.174
-122.210	194.310	0.053	-0.079
-121.195	372.278	-0.074	-0.147
-120.180	-4.473	0.171	0.117
