DTS Sentinel unit serial number:	SN413079Multiplexer serial number:	ORYXHardware model number:	OX4-SRSoftware version number:	ORYX F/W v4.00 Oryx Data Collector v3.7.2.0data status	okinstallation	princeton_trtdifferential loss correction	single-endedforward channel	channel 1reverse channel	N/Adate	2019/09/15time	00:14:35forward acquisition time	60.00reverse acquisition time	0.00gamma	496.2192k internal	0.2320k external	0.2320temperature offset calibration	0.9990default loss term (dB/km)	0.3790temperature slope calibration	1.0000multiplexer offset coefficient	1.0000multiplexer slope coefficient	1.0000fibre end	0.00T internal ref (°C)	32.19T ext. ref 1 (°C)	4.58T ext. ref 2 (°C)	27.19length (m)	temperature (°C)	Stokes	anti-Stokes-747.200	-10.510	-0.223	0.150
-746.185	-3.497	0.312	0.220
-745.171	-7.947	0.175	0.119
-744.156	-115.522	0.103	0.020
-743.142	396.856	-0.039	0.082
-742.127	82.267	-0.375	0.412
-741.112	-167.559	-0.049	0.002
-740.098	5.800	-0.267	0.200
-739.083	-200.000	0.018	0.164
-738.069	611.291	0.155	0.391
-737.054	240.023	0.104	-0.176
-736.039	800.000	-0.074	-0.320
-735.025	632.924	-0.076	0.196
-734.010	-116.044	-0.068	-0.013
-732.996	169.650	-0.178	0.258
-731.981	466.869	-0.154	0.350
-730.966	369.357	0.041	0.084
-729.952	251.225	0.106	-0.183
-728.937	196.187	-0.072	0.111
-727.923	708.717	0.134	-0.358
-726.908	-200.000	-0.002	-0.193
-725.894	521.405	-0.079	0.186
-724.879	-85.377	0.139	0.044
-723.864	43.682	-0.109	0.101
-722.850	230.071	-0.055	-0.090
-721.835	417.183	0.031	0.067
-720.821	54.594	-0.238	-0.232
-719.806	524.682	-0.110	-0.260
-718.791	-200.000	-0.018	-0.231
-717.777	246.393	-0.063	0.108
-716.762	-200.000	0.053	-0.410
-715.748	800.000	-0.075	-0.316
-714.733	128.807	0.113	0.145
-713.718	17.423	-0.147	0.118
-712.704	-117.582	0.054	0.010
-711.689	800.000	0.075	0.325
-710.675	-200.000	0.005	-0.324
-709.660	-79.411	-0.083	0.028
-708.645	-200.000	0.040	-0.305
-707.631	505.778	0.180	-0.422
-706.616	-88.229	-0.225	0.068
-705.602	800.000	-0.098	0.338
-704.587	-109.773	0.255	-0.054
-703.572	143.638	-0.184	-0.248
-702.558	-200.000	-0.035	-0.252
-701.543	-184.617	-0.339	0.006
-700.529	137.597	-0.233	-0.307
-699.514	-3.514	0.206	0.144
-698.499	-200.000	-0.017	-0.080
-697.485	-147.402	0.136	0.012
-696.470	-41.727	0.134	-0.070
-695.456	348.105	0.028	0.055
-694.441	555.173	0.067	-0.162
-693.426	-82.369	-0.108	-0.036
-692.412	-50.048	-0.152	0.073
-691.397	-200.000	0.017	0.236
-690.383	-200.000	0.009	0.227
-689.368	-42.154	0.068	-0.035
-688.354	43.627	0.100	-0.092
-687.339	-28.448	-0.141	0.082
-686.324	42.330	-0.125	0.115
-685.310	44.900	-0.094	-0.087
-684.295	248.421	-0.228	0.389
-683.281	-69.294	-0.066	0.025
-682.266	-200.000	-0.352	-0.000
-681.251	800.000	0.052	-0.189
-680.237	-18.848	0.039	0.025
-679.222	-53.424	-0.120	0.055
-678.208	-200.000	0.010	0.098
-677.193	-200.000	-0.015	0.099
-676.178	156.986	-0.167	-0.233
-675.164	-79.717	-0.068	0.023
-674.149	209.368	0.059	-0.094
-673.135	-65.253	-0.157	-0.064
-672.120	800.000	-0.017	-0.059
-671.105	-200.000	0.002	-0.221
-670.091	44.568	0.127	-0.118
-669.076	206.703	-0.120	-0.188
-668.062	-70.590	0.283	-0.108
-667.047	222.383	0.121	0.196
-666.032	612.847	-0.065	0.165
-665.018	800.000	-0.071	0.200
-664.003	-199.009	-0.147	0.001
-662.989	-28.081	-0.399	0.233
-661.974	-125.591	-0.227	0.035
-660.959	-54.023	0.227	-0.104
-659.945	95.692	-0.140	-0.162
-658.930	400.789	0.078	-0.166
-657.916	7.885	0.196	-0.148
-656.901	-98.821	0.218	-0.056
-655.886	-42.491	0.160	0.082
-654.872	351.858	0.119	-0.237
-653.857	51.395	0.165	-0.157
-652.843	-86.289	0.201	0.062
-651.828	168.107	-0.182	0.261
-650.814	310.827	-0.039	0.073
-649.799	251.693	-0.131	0.225
-648.784	-200.000	0.017	-0.144
-647.770	62.638	-0.233	0.234
-646.755	-200.000	-0.024	0.321
-645.741	30.735	-0.287	-0.248
-644.726	159.910	0.068	-0.095
-643.711	190.230	-0.212	0.320
-642.697	-96.482	0.244	-0.065
-641.682	41.551	0.112	-0.102
-640.668	-200.000	0.011	0.115
-639.653	800.000	0.065	0.193
-638.638	75.653	-0.045	0.048
-637.624	25.477	-0.149	-0.125
-636.609	319.771	0.095	-0.182
-635.595	-30.438	-0.062	-0.036
-634.580	137.229	0.049	0.065
-633.565	-4.300	-0.082	-0.057
-632.551	-88.699	0.326	-0.097
-631.536	202.420	0.221	-0.344
-630.522	138.187	0.162	0.214
-629.507	-12.014	-0.206	0.136
-628.492	800.000	0.043	-0.185
-627.478	-149.595	-0.361	0.029
-626.463	116.178	0.246	-0.304
-625.449	-87.020	-0.299	-0.092
-624.434	-4.113	-0.336	-0.234
-623.419	-121.723	0.186	-0.031
-622.405	-82.995	0.247	-0.080
-621.390	-82.066	0.415	-0.136
-620.376	123.832	-0.145	0.183
-619.361	-200.000	-0.072	-0.332
-618.346	262.635	-0.163	0.284
-617.332	14.216	-0.207	-0.162
-616.317	133.045	-0.129	0.168
-615.303	800.000	-0.033	-0.106
-614.288	800.000	0.091	-0.365
-613.273	800.000	-0.072	-0.256
-612.259	-0.027	-0.174	0.125
-611.244	800.000	-0.078	0.249
-610.230	-123.087	-0.229	-0.037
-609.215	-38.430	0.329	0.175
-608.201	-153.521	-0.198	-0.014
-607.186	-172.282	-0.072	-0.002
-606.171	-200.000	0.066	0.306
-605.157	212.434	-0.045	0.071
-604.142	-39.952	0.161	-0.084
-603.128	-59.192	0.052	0.022
-602.113	-4.322	0.305	0.212
-601.098	407.478	0.073	0.155
-600.084	218.432	0.066	-0.106
-599.069	-3.873	0.259	0.181
-598.055	119.298	-0.333	-0.414
-597.040	-200.000	-0.042	0.200
-596.025	-97.396	0.028	0.007
-595.011	-102.669	0.315	-0.076
-593.996	316.721	-0.090	-0.170
-592.982	49.181	0.061	-0.058
-591.967	800.000	0.078	-0.237
-590.952	-74.123	0.080	0.029
-589.938	800.000	-0.049	-0.189
-588.923	129.988	-0.076	0.098
-587.909	-132.451	-0.095	0.012
-586.894	-200.000	-0.017	-0.251
-585.879	351.880	0.084	-0.167
-584.865	39.918	0.144	0.130
-583.850	61.383	-0.142	-0.142
-582.836	-200.000	0.006	0.156
-581.821	185.055	0.093	0.138
-580.806	-165.705	0.142	-0.006
-579.792	37.178	-0.167	-0.148
-578.777	49.741	0.175	-0.165
-577.763	800.000	0.092	0.256
-576.748	800.000	-0.053	0.197
-575.733	-200.000	-0.023	0.290
-574.719	-31.351	-0.090	-0.051
-573.704	-61.468	-0.165	0.070
-572.690	-200.000	0.005	-0.089
-571.675	257.501	-0.169	0.292
-570.661	337.569	-0.099	0.194
-569.646	-26.217	-0.241	0.142
-568.631	800.000	-0.039	0.124
-567.617	-52.902	0.050	-0.023
-566.602	376.993	0.115	0.237
-565.588	8.023	-0.108	-0.082
-564.573	-88.916	0.045	0.013
-563.558	182.580	0.257	-0.380
-562.544	-21.476	0.131	0.080
-561.529	402.655	0.084	0.178
-560.515	-128.764	-0.131	-0.018
-559.500	-200.000	0.006	-0.225
-558.485	-125.885	0.280	-0.042
-557.471	-23.372	0.126	-0.076
-556.456	41.310	0.100	0.090
-555.442	616.238	-0.209	-0.525
-554.427	800.000	-0.040	-0.133
-553.412	-200.000	0.005	0.231
-552.398	-61.025	0.101	0.043
-551.383	-72.606	-0.246	-0.091
-550.369	-200.000	-0.008	-0.124
-549.354	259.775	-0.101	-0.175
-548.339	122.954	0.088	0.111
-547.325	700.590	-0.044	-0.116
-546.310	494.389	-0.085	-0.196
-545.296	-69.759	0.314	0.120
-544.281	354.621	0.061	0.121
-543.266	-38.080	0.143	0.076
-542.252	-200.000	-0.038	-0.195
-541.237	-20.083	0.132	0.082
-540.223	-41.379	-0.458	0.236
-539.208	307.656	0.135	0.252
-538.193	-200.000	-0.056	0.279
-537.179	-121.109	-0.378	0.064
-536.164	169.603	0.165	-0.237
-535.150	800.000	-0.032	0.095
-534.135	1.074	0.065	0.047
-533.121	138.257	0.099	-0.130
-532.106	6.133	-0.063	-0.047
-531.091	-135.126	0.097	-0.012
-530.077	277.342	0.050	0.090
-529.062	-147.906	0.269	-0.023
-528.048	32.916	-0.220	-0.191
-527.033	628.651	0.042	-0.106
-526.018	327.494	0.112	0.216
-525.004	-49.296	-0.369	0.177
-523.989	8.126	-0.025	-0.018
-522.975	-36.183	0.080	0.043
-521.960	-200.000	0.007	0.047
-520.945	80.239	-0.220	0.237
-519.931	-0.584	0.083	0.059
-518.916	241.148	-0.052	-0.087
-517.902	-176.944	0.297	-0.008
-516.887	-116.395	-0.211	-0.039
-515.872	89.612	0.062	-0.069
-514.858	-200.000	-0.013	-0.148
-513.843	89.275	0.074	0.082
-512.829	-77.959	0.339	-0.117
-511.814	-31.707	0.326	0.183
-510.799	800.000	0.092	-0.325
-509.785	223.105	-0.038	-0.062
-508.770	718.528	0.058	0.154
-507.756	800.000	0.096	0.298
-506.741	356.196	0.073	-0.146
-505.726	84.281	-0.028	-0.031
-504.712	-200.000	-0.040	0.179
-503.697	-5.117	-0.160	-0.110
-502.683	175.390	0.144	-0.209
-501.668	-27.256	0.214	-0.125
-500.653	18.714	-0.126	-0.101
-499.639	195.597	0.040	-0.060
-498.624	800.000	-0.047	-0.147
-497.610	-200.000	-0.004	-0.226
-496.595	-0.271	-0.109	0.078
-495.581	-183.520	-0.312	0.005
-494.566	109.211	0.079	0.094
-493.551	460.858	0.181	-0.405
-492.537	-22.624	0.332	-0.201
-491.522	13.677	-0.164	0.127
-490.508	-84.658	0.316	-0.100
-489.493	-200.000	-0.003	0.345
-488.478	43.298	-0.099	-0.090
-487.464	800.000	-0.098	-0.321
-486.449	5.623	0.158	0.117
-485.435	281.943	0.130	-0.233
-484.420	458.704	-0.138	0.307
-483.405	237.455	0.154	0.255
-482.391	-42.003	-0.188	0.096
-481.376	-76.212	-0.196	0.069
-480.362	45.134	-0.108	0.100
-479.347	-147.611	-0.209	-0.018
-478.332	800.000	-0.072	0.235
-477.318	138.175	0.197	-0.259
-476.303	85.866	0.171	0.189
-475.289	-200.000	-0.015	0.193
-474.274	-200.000	0.023	-0.152
-473.259	-110.106	0.191	-0.040
-472.245	800.000	0.043	-0.149
-471.230	-153.167	0.207	-0.014
-470.216	518.667	0.028	0.065
-469.201	-115.956	-0.109	-0.020
-468.186	-174.008	-0.183	0.005
-467.172	167.049	-0.091	0.129
-466.157	-85.408	0.125	0.039
-465.143	-11.210	-0.215	0.142
-464.128	-200.000	0.023	0.212
-463.113	198.474	-0.158	0.242
-462.099	-200.000	-0.084	0.416
-461.084	138.053	-0.051	0.066
-460.070	30.030	-0.292	-0.249
-459.055	-200.000	-0.036	-0.222
-458.040	-200.000	-0.004	-0.088
-457.026	-178.577	0.331	0.008
-456.011	663.807	-0.065	0.169
-454.997	53.713	-0.029	-0.028
-453.982	384.001	0.053	0.110
-452.968	103.344	-0.171	-0.201
-451.953	800.000	0.050	-0.167
-450.938	-30.901	0.258	-0.145
-449.924	-132.407	0.056	0.007
-448.909	45.896	0.218	0.202
-447.895	118.759	0.107	0.132
-446.880	36.048	0.045	-0.040
-445.865	-200.000	0.011	-0.144
-444.851	16.017	0.080	0.063
-443.836	-200.000	-0.037	-0.230
-442.822	-200.000	-0.011	0.180
-441.807	-133.928	-0.176	-0.022
-440.792	-172.679	0.376	0.012
-439.778	-200.000	0.016	0.086
-438.763	-23.700	-0.271	0.162
-437.749	-118.699	-0.111	0.019
-436.734	224.749	-0.167	-0.270
-435.719	336.976	0.044	-0.085
-434.705	-59.520	0.294	-0.126
-433.690	-170.443	0.281	0.010
-432.676	298.922	0.044	-0.081
-431.661	-81.544	-0.352	0.115
-430.646	800.000	0.023	-0.091
-429.632	-200.000	0.015	-0.146
-428.617	305.945	0.119	-0.221
-427.603	42.485	0.143	-0.130
-426.588	222.286	-0.035	0.057
-425.573	-20.352	-0.120	0.073
-424.559	298.858	0.063	0.117
-423.544	800.000	0.062	0.270
-422.530	-200.000	0.088	-0.503
-421.515	-200.000	0.043	-0.571
-420.500	800.000	0.078	-0.255
-419.486	800.000	-0.058	-0.162
-418.471	86.096	-0.169	-0.186
-417.457	72.924	-0.043	0.045
-416.442	51.518	0.132	-0.125
-415.428	800.000	0.100	-0.334
-414.413	-148.107	-0.477	-0.039
-413.398	-200.000	0.004	0.133
-412.384	12.985	0.161	0.124
-411.369	-99.968	0.051	0.013
-410.355	147.706	-0.060	0.080
-409.340	-119.983	-0.213	-0.036
-408.325	-74.066	0.246	-0.089
-407.311	-143.072	0.144	-0.014
-406.296	359.036	0.063	0.126
-405.282	528.197	0.136	-0.320
-404.267	-87.449	0.452	0.136
-403.252	-23.715	-0.051	0.031
-402.238	13.386	-0.170	0.131
-401.223	800.000	-0.056	-0.170
-400.209	-63.836	-0.132	0.054
-399.194	532.308	0.129	-0.304
-398.179	20.442	-0.280	-0.226
-397.165	92.887	0.114	0.128
-396.150	-8.333	-0.087	-0.059
-395.136	104.544	0.152	-0.178
-394.121	220.882	0.100	0.160
-393.106	800.000	-0.030	-0.114
-392.092	18.719	-0.083	0.066
-391.077	-124.225	-0.333	0.052
-390.063	-6.022	0.072	-0.049
-389.048	270.994	0.029	0.051
-388.033	14.232	-0.129	0.100
-387.019	187.413	-0.066	0.098
-386.004	-118.030	0.164	0.029
-384.990	-114.246	-0.532	-0.102
-383.975	570.157	0.082	-0.199
-382.960	334.825	-0.136	-0.262
-381.946	800.000	-0.084	0.238
-380.931	290.028	-0.158	0.286
-379.917	-116.554	-0.381	0.070
-378.902	143.613	0.045	-0.060
-377.888	-200.000	-0.016	0.199
-376.873	-200.000	0.066	0.301
-375.858	-67.799	-0.087	0.034
-374.844	703.816	0.029	-0.075
-373.829	487.626	0.143	-0.324
-372.815	-125.965	0.225	-0.034
-371.800	80.297	0.025	0.026
-370.785	-98.161	-0.007	-0.002
-369.771	800.000	-0.016	-0.044
-368.756	-80.444	-0.348	0.116
-367.742	68.636	-0.228	-0.233
-366.727	-200.000	0.057	0.458
-365.712	98.091	0.139	-0.159
-364.698	-57.356	0.161	-0.070
-363.683	-200.000	0.063	-0.304
-362.669	-200.000	0.038	-0.238
-361.654	-200.000	0.033	0.277
-360.639	-1.612	-0.191	0.134
-359.625	14.127	0.078	-0.060
-358.610	800.000	0.031	0.137
-357.596	57.126	0.139	-0.135
-356.581	89.272	-0.243	-0.270
-355.566	800.000	-0.018	-0.058
-354.552	-26.546	0.088	0.051
-353.537	35.578	0.008	-0.007
-352.523	-4.840	-0.110	0.076
-351.508	-79.352	-0.233	0.079
-350.493	-99.867	-0.130	-0.032
-349.479	-200.000	0.169	-0.001
-348.464	-119.572	-0.329	-0.057
-347.450	12.656	0.403	-0.310
-346.435	168.219	-0.130	-0.184
-345.420	-86.750	0.100	0.030
-344.406	-127.528	-0.234	0.034
-343.391	-81.260	0.099	-0.032
-342.377	25.773	-0.296	-0.246
-341.362	800.000	-0.067	-0.216
-340.348	184.971	0.099	-0.146
-339.333	384.193	0.068	-0.139
-338.318	-129.745	0.183	0.025
-337.304	79.164	-0.096	0.102
-336.289	117.543	-0.065	-0.080
-335.275	-21.535	-0.342	-0.207
-334.260	199.031	0.212	0.323
-333.245	-151.285	0.097	0.007
-332.231	71.218	-0.137	0.141
-331.216	800.000	-0.004	0.014
-330.202	-200.000	0.038	0.189
-329.187	-98.611	-0.267	0.068
-328.172	800.000	0.107	0.355
-327.158	209.254	0.106	-0.165
-326.143	-43.439	0.131	-0.066
-325.129	-53.199	0.023	-0.010
-324.114	40.112	0.113	0.101
-323.099	-142.018	-0.166	-0.016
-322.085	36.643	0.023	0.020
-321.070	-6.350	-0.139	0.095
-320.056	516.785	0.082	0.191
-319.041	-200.000	0.052	0.356
-318.026	109.710	-0.083	0.099
-317.012	14.514	-0.338	0.262
-315.997	16.934	0.290	0.228
-314.983	110.489	0.153	-0.183
-313.968	8.332	0.250	-0.187
-312.953	-95.329	-0.304	-0.081
-311.939	-80.407	-0.076	0.025
-310.924	-27.507	0.366	0.211
-309.910	90.646	-0.080	-0.089
-308.895	41.065	-0.167	0.150
-307.880	145.940	0.110	-0.147
-306.866	198.791	0.101	0.153
-305.851	-200.000	-0.002	0.068
-304.837	-169.528	-0.101	-0.004
-303.822	-148.290	-0.054	-0.004
-302.807	-162.803	-0.320	-0.016
-301.793	394.465	0.146	-0.303
-300.778	488.908	-0.156	-0.353
-299.764	-111.881	-0.178	0.036
-298.749	-108.620	-0.186	0.040
-297.735	731.996	0.066	-0.174
-296.720	434.907	0.063	-0.136
-295.705	-12.102	-0.219	-0.142
-294.691	-38.153	0.231	-0.122
-293.676	-103.815	0.267	0.062
-292.662	-191.148	0.124	-0.001
-291.647	104.454	0.213	0.249
-290.632	503.156	0.089	-0.205
-289.618	319.124	-0.028	-0.052
-288.603	147.674	-0.009	0.012
-287.589	152.973	-0.254	0.345
-286.574	54.109	-0.093	0.089
-285.559	168.698	0.104	-0.147
-284.545	-172.916	-0.224	0.007
-283.530	176.785	-0.270	-0.390
-282.516	-200.000	-0.002	0.227
-281.501	286.877	0.098	0.175
-280.486	-200.000	-0.041	0.336
-279.472	289.517	0.093	0.168
-278.457	-5.593	-0.135	-0.092
-277.443	52.598	0.238	0.225
-276.428	364.066	0.146	0.291
-275.413	-200.000	0.050	0.283
-274.399	-55.315	-0.087	-0.039
-273.384	-23.467	-0.314	0.187
-272.370	-89.713	0.273	-0.079
-271.355	800.000	-0.073	0.289
-270.340	-111.078	-0.188	0.038
-269.326	17.406	-0.094	0.074
-268.311	726.128	-0.013	0.035
-267.297	-137.673	-0.248	0.028
-266.282	-129.198	0.231	-0.032
-265.267	-95.614	0.280	0.075
-264.253	800.000	0.093	0.339
-263.238	-58.055	0.214	-0.093
-262.224	-77.497	0.207	-0.071
-261.209	-27.562	-0.206	-0.119
-260.195	800.000	-0.122	0.364
-259.180	-7.884	-0.131	-0.088
-258.165	-136.083	0.144	-0.017
-257.151	410.468	0.099	0.208
-256.136	-200.000	-0.016	-0.295
-255.122	-200.000	0.019	-0.212
-254.107	100.738	-0.142	-0.164
-253.092	294.319	-0.146	0.265
-252.078	29.350	-0.126	0.107
-251.063	800.000	-0.060	0.210
-250.049	-200.000	-0.017	-0.201
-249.034	683.838	0.102	-0.264
-248.019	-101.447	-0.348	0.084
-247.005	-77.720	0.177	0.061
-245.990	4.164	-0.131	-0.095
-244.976	40.228	-0.339	-0.302
-243.961	161.990	0.106	0.148
-242.946	-48.715	-0.035	-0.017
-241.932	171.044	0.114	0.162
-240.917	-117.438	-0.265	-0.048
-239.903	-107.874	0.316	0.068
-238.888	800.000	0.051	0.165
-237.873	-49.451	0.069	0.033
-236.859	-13.110	0.357	-0.230
-235.844	19.072	0.149	0.118
-234.830	-200.000	0.008	0.249
-233.815	-200.000	0.021	0.094
-232.800	149.371	0.201	0.269
-231.786	278.253	-0.072	-0.128
-230.771	-129.672	0.208	0.028
-229.757	-81.355	0.263	-0.086
-228.742	-23.654	0.104	-0.062
-227.727	-166.225	-0.249	0.010
-226.713	311.233	0.115	-0.213
-225.698	408.551	0.095	-0.199
-224.684	79.809	0.168	-0.179
-223.669	753.871	0.043	-0.114
-222.655	-200.000	-0.002	0.273
-221.640	41.256	-0.131	0.117
-220.625	159.283	0.102	-0.141
-219.611	-200.000	-0.095	-0.447
-218.596	800.000	-0.078	-0.281
-217.582	-141.057	0.037	-0.004
-216.567	287.205	-0.110	0.197
-215.552	-93.285	0.278	0.076
-214.538	-200.000	0.017	-0.202
-213.523	-200.000	-0.007	0.125
-212.509	800.000	0.077	0.311
-211.494	77.866	0.198	0.209
-210.479	63.544	0.140	0.139
-209.465	32.853	-0.264	0.226
-208.450	249.464	0.129	0.216
-207.436	-109.540	0.164	-0.034
-206.421	163.983	-0.032	-0.044
-205.406	-129.437	-0.166	-0.023
-204.392	-153.372	0.299	-0.021
-203.377	244.993	-0.110	0.184
-202.363	-200.000	0.004	0.062
-201.348	-200.000	0.031	-0.267
-200.333	-120.984	-0.153	-0.025
-199.319	-76.128	-0.368	0.129
-198.304	-200.000	-0.016	0.275
-197.290	-60.926	0.350	-0.147
-196.275	800.000	0.081	-0.286
-195.260	-200.000	-0.038	0.246
-194.246	-181.942	-0.290	-0.005
-193.231	-200.000	-0.001	-0.075
-192.217	-200.000	-0.005	-0.267
-191.202	-25.937	0.287	-0.167
-190.187	204.283	0.176	0.270
-189.173	800.000	-0.028	0.117
-188.158	-172.462	-0.077	0.002
-187.144	-52.494	-0.438	0.200
-186.129	-146.687	-0.099	0.008
-185.114	567.908	-0.047	0.114
-184.100	-200.000	0.396	0.000
-183.085	584.910	-0.092	0.224
-182.071	-65.504	-0.274	-0.109
-181.056	-117.525	0.354	0.063
-180.042	-200.000	-0.014	0.246
-179.027	267.254	-0.136	-0.235
-178.012	-116.685	0.140	0.025
-176.998	50.497	0.174	0.163
-175.983	81.419	0.174	0.187
-174.969	-94.985	-0.213	0.057
-173.954	800.000	0.093	-0.279
-172.939	-200.000	-0.029	-0.188
-171.925	-108.783	0.145	-0.031
-170.910	-182.581	-0.085	0.002
-169.896	-47.020	-0.109	0.053
-168.881	-131.621	-0.347	0.045
-167.866	75.472	-0.150	-0.156
-166.852	-200.000	0.003	0.044
-165.837	333.674	0.090	-0.172
-164.823	56.031	0.044	0.042
-163.808	-186.765	0.024	0.000
-162.793	800.000	0.049	-0.197
-161.779	-200.000	-0.084	0.000
-160.764	-200.000	-0.009	-0.055
-159.750	-200.000	0.035	0.170
-158.735	-136.835	-0.292	-0.033
-157.720	25.049	0.129	0.106
-156.706	-39.781	0.088	0.045
-155.691	52.328	-0.113	0.106
-154.677	-15.671	0.238	-0.150
-153.662	-71.628	-0.141	0.052
-152.647	-39.871	-0.207	0.107
-151.633	-76.039	-0.120	-0.042
-150.618	312.951	0.087	0.162
-149.604	-62.456	-0.337	-0.139
-148.589	-132.024	-0.086	0.011
-147.574	-200.000	0.013	-0.091
-146.560	-152.703	0.216	0.015
-145.545	-110.659	0.041	-0.008
-144.531	515.619	-0.124	0.287
-143.516	76.715	-0.163	0.170
-142.502	571.798	-0.058	-0.140
-141.487	146.061	-0.170	0.225
-140.472	36.206	0.087	-0.075
-139.458	800.000	0.031	0.094
-138.443	-200.000	-0.032	0.312
-137.429	800.000	-0.062	-0.193
-136.414	88.456	-0.144	0.158
-135.399	354.628	0.047	0.093
-134.385	44.348	0.136	-0.123
-133.370	485.949	0.141	-0.316
-132.356	57.529	-0.205	-0.198
-131.341	-50.339	0.129	-0.060
-130.326	192.927	-0.186	-0.278
-129.312	67.685	0.204	-0.205
-128.297	-164.280	-0.205	-0.009
-127.283	110.385	0.043	0.051
-126.268	-196.014	-0.137	0.001
-125.253	-200.000	0.019	0.102
-124.239	-83.844	0.260	-0.082
-123.224	-105.752	0.033	0.007
-122.210	16.859	-0.254	-0.199
-121.195	-96.729	0.271	-0.070
-120.180	-200.000	-0.022	-0.239
