DTS Sentinel unit serial number:	SN413079Multiplexer serial number:	ORYXHardware model number:	OX4-SRSoftware version number:	ORYX F/W v4.00 Oryx Data Collector v3.7.2.0data status	okinstallation	princeton_trtdifferential loss correction	single-endedforward channel	channel 1reverse channel	N/Adate	2019/09/19time	10:06:36forward acquisition time	60.00reverse acquisition time	0.00gamma	496.2192k internal	0.2339k external	0.2339temperature offset calibration	1.0008default loss term (dB/km)	0.3790temperature slope calibration	1.0000multiplexer offset coefficient	1.0000multiplexer slope coefficient	1.0000fibre end	0.00T internal ref (°C)	23.87T ext. ref 1 (°C)	0.68T ext. ref 2 (°C)	19.71length (m)	temperature (°C)	Stokes	anti-Stokes-747.200	35.822	0.129	-0.113
-746.185	-81.593	0.172	-0.057
-745.171	-42.913	-0.292	-0.149
-744.156	-200.000	0.019	0.205
-743.142	329.833	-0.164	0.317
-742.127	-156.870	0.222	-0.014
-741.112	-200.000	0.050	0.509
-740.098	-176.994	-0.189	-0.005
-739.083	-93.609	0.177	-0.049
-738.069	-200.000	-0.055	0.297
-737.054	231.883	0.026	0.043
-736.039	-94.924	-0.139	0.038
-735.025	-87.313	-0.129	-0.039
-734.010	-5.600	-0.116	0.080
-732.996	61.070	-0.052	0.052
-731.981	-157.235	0.239	0.015
-730.966	-200.000	0.026	-0.290
-729.952	353.318	0.079	-0.158
-728.937	-173.234	-0.071	-0.002
-727.923	-178.493	-0.134	0.003
-726.908	129.474	0.140	0.179
-725.894	55.823	-0.155	0.151
-724.879	-200.000	-0.049	-0.222
-723.864	-171.748	0.095	-0.003
-722.850	68.064	0.231	-0.237
-721.835	-49.528	0.322	-0.153
-720.821	-200.000	0.009	0.059
-719.806	444.756	-0.015	0.032
-718.791	-85.123	0.090	-0.028
-717.777	-15.674	-0.347	0.222
-716.762	-4.130	-0.161	-0.112
-715.748	800.000	-0.076	-0.235
-714.733	-200.000	0.032	0.206
-713.718	-200.000	-0.014	-0.133
-712.704	35.998	0.167	-0.147
-711.689	0.126	-0.190	-0.136
-710.675	-105.369	-0.343	-0.078
-709.660	-127.344	0.223	0.032
-708.645	12.368	-0.041	0.032
-707.631	45.439	0.319	-0.295
-706.616	508.834	0.083	-0.193
-705.602	167.843	-0.171	-0.243
-704.587	-55.103	-0.053	0.024
-703.572	-195.252	-0.156	0.001
-702.558	233.200	-0.067	-0.111
-701.543	195.572	-0.036	-0.055
-700.529	32.708	-0.140	-0.121
-699.514	-1.707	0.296	0.209
-698.499	-83.408	0.231	-0.074
-697.485	52.250	-0.172	0.164
-696.470	-148.234	-0.140	-0.012
-695.456	-96.892	-0.214	-0.056
-694.441	791.232	-0.070	-0.193
-693.426	53.264	-0.175	-0.168
-692.412	-117.283	0.244	0.044
-691.397	-28.882	-0.053	0.030
-690.383	184.240	0.091	0.134
-689.368	800.000	-0.069	-0.283
-688.354	151.508	-0.090	-0.122
-687.339	9.659	0.441	0.334
-686.324	-138.705	0.089	-0.010
-685.310	-166.295	-0.348	0.015
-684.295	-76.675	-0.167	-0.059
-683.281	731.873	-0.079	0.213
-682.266	-126.854	0.158	-0.023
-681.251	-42.461	-0.204	-0.104
-680.237	-200.000	-0.051	0.285
-679.222	404.607	-0.109	0.229
-678.208	278.771	0.256	0.456
-677.193	5.966	-0.244	0.181
-676.178	24.872	0.162	0.134
-675.164	195.386	-0.142	-0.215
-674.149	33.002	0.234	-0.203
-673.135	-166.748	-0.277	-0.011
-672.120	-200.000	-0.038	-0.262
-671.105	-176.457	0.029	-0.001
-670.091	-78.246	0.160	-0.055
-669.076	800.000	0.059	-0.173
-668.062	158.453	0.062	0.086
-667.047	-37.022	0.107	0.057
-666.032	-122.224	0.221	0.036
-665.018	-149.228	0.123	-0.010
-664.003	-46.204	-0.114	0.056
-662.989	-92.868	-0.271	-0.076
-661.974	-39.428	0.278	-0.146
-660.959	-169.009	0.047	0.002
-659.945	439.832	-0.054	-0.117
-658.930	43.341	0.291	0.266
-657.916	-200.000	-0.013	-0.112
-656.901	249.470	-0.172	-0.291
-655.886	-189.150	0.494	-0.006
-654.872	-104.605	-0.309	0.071
-653.857	253.587	0.156	0.267
-652.843	-52.289	-0.412	-0.191
-651.828	800.000	0.105	0.342
-650.814	-83.480	-0.151	0.048
-649.799	636.835	0.081	-0.206
-648.784	79.841	-0.272	-0.292
-647.770	-48.379	0.320	0.154
-646.755	67.124	-0.061	-0.062
-645.741	268.857	0.061	-0.107
-644.726	38.140	-0.105	-0.093
-643.711	475.765	-0.057	0.130
-642.697	800.000	-0.012	0.043
-641.682	-158.298	-0.269	0.016
-640.668	-58.180	-0.073	0.032
-639.653	299.336	-0.259	0.476
-638.638	-200.000	0.041	0.207
-637.624	-200.000	-0.046	0.244
-636.609	-147.113	-0.203	0.017
-635.595	671.911	-0.015	0.038
-634.580	-50.603	-0.217	0.102
-633.565	-79.798	0.251	-0.084
-632.551	-147.534	-0.430	-0.036
-631.536	58.060	0.139	0.136
-630.522	-3.288	0.124	-0.086
-629.507	80.965	-0.256	-0.276
-628.492	105.655	0.135	0.160
-627.478	-49.121	0.367	0.175
-626.463	-169.417	-0.094	-0.003
-625.449	152.285	-0.113	-0.154
-624.434	101.348	0.100	-0.116
-623.419	800.000	-0.161	-0.452
-622.405	800.000	-0.061	-0.177
-621.390	-83.232	-0.180	0.058
-620.376	-41.349	-0.169	0.087
-619.361	800.000	-0.083	-0.290
-618.346	26.385	-0.292	0.244
-617.332	111.839	-0.257	-0.309
-616.317	-200.000	0.002	0.030
-615.303	-200.000	-0.001	-0.106
-614.288	-32.884	-0.258	-0.143
-613.273	185.305	-0.206	0.306
-612.259	140.906	-0.067	-0.089
-611.244	-20.026	0.237	0.146
-610.230	352.994	0.007	0.015
-609.215	7.201	-0.141	-0.105
-608.201	6.887	0.176	-0.131
-607.186	-200.000	0.000	-0.119
-606.171	-98.560	0.309	-0.079
-605.157	-164.854	-0.224	-0.010
-604.142	479.069	0.109	-0.247
-603.128	-200.000	-0.011	-0.200
-602.113	458.607	0.114	0.252
-601.098	123.750	-0.117	-0.146
-600.084	-49.391	-0.384	0.183
-599.069	146.974	0.140	-0.188
-598.055	746.508	0.035	-0.094
-597.040	800.000	-0.095	-0.358
-596.025	309.486	-0.045	-0.083
-595.011	186.714	-0.089	-0.132
-593.996	-200.000	-0.005	0.031
-592.982	180.310	-0.116	-0.170
-591.967	-65.142	-0.239	0.096
-590.952	-161.045	0.174	0.009
-589.938	-165.245	-0.186	-0.008
-588.923	21.909	0.159	-0.129
-587.909	-76.783	0.168	0.059
-586.894	-84.414	-0.217	-0.068
-585.879	-116.270	-0.255	0.047
-584.865	-145.260	0.201	0.018
-583.850	-36.455	-0.267	-0.143
-582.836	800.000	0.145	-0.461
-581.821	397.572	-0.179	-0.373
-580.806	15.101	-0.103	-0.081
-579.792	391.279	-0.142	0.293
-578.777	533.069	0.083	0.195
-577.763	5.297	-0.170	0.125
-576.748	116.734	0.118	-0.145
-575.733	73.856	-0.185	-0.193
-574.719	-165.796	0.188	0.008
-573.704	-200.000	-0.034	0.201
-572.690	-200.000	-0.003	0.027
-571.675	47.780	-0.196	0.183
-570.661	-115.076	0.320	-0.061
-569.646	-153.178	0.140	0.010
-568.631	546.945	-0.143	0.341
-567.617	103.697	0.232	-0.271
-566.602	14.306	-0.200	-0.155
-565.588	270.779	-0.056	-0.098
-564.573	800.000	-0.016	0.070
-563.558	-200.000	-0.009	-0.086
-562.544	-44.043	0.097	-0.048
-561.529	-13.129	-0.163	0.106
-560.515	145.714	0.062	0.083
-559.500	101.998	-0.181	0.211
-558.485	262.427	-0.101	-0.174
-557.471	105.740	-0.119	-0.140
-556.456	800.000	0.044	-0.150
-555.442	800.000	-0.010	0.037
-554.427	-71.973	-0.086	-0.032
-553.412	14.230	0.112	-0.087
-552.398	-56.524	-0.214	0.095
-551.383	-200.000	0.037	-0.186
-550.369	-59.026	-0.119	-0.051
-549.354	-117.927	-0.237	0.042
-548.339	-58.499	0.190	0.082
-547.325	-156.017	0.021	-0.001
-546.310	231.816	-0.006	-0.010
-545.296	136.939	0.056	0.072
-544.281	-98.638	-0.033	0.008
-543.266	157.807	-0.227	0.313
-542.252	9.410	-0.255	-0.192
-541.237	134.926	0.148	-0.191
-540.223	-200.000	0.037	-0.197
-539.208	-200.000	0.057	-0.299
-538.193	-200.000	0.030	0.224
-537.179	-34.248	0.018	0.010
-536.164	405.124	0.091	0.190
-535.150	-200.000	-0.021	0.222
-534.135	147.127	0.132	0.177
-533.121	-200.000	-0.042	-0.196
-532.106	336.170	0.141	-0.272
-531.091	122.753	0.162	0.202
-530.077	15.764	0.011	-0.009
-529.062	140.685	-0.167	0.220
-528.048	15.468	0.142	-0.111
-527.033	-43.325	-0.473	-0.238
-526.018	-38.392	0.209	0.110
-525.004	-8.495	-0.054	0.036
-523.989	-200.000	0.238	-0.000
-522.975	-89.454	0.256	-0.075
-521.960	-23.296	-0.142	0.085
-520.945	-57.146	0.200	-0.088
-519.931	114.341	0.115	0.139
-518.916	-102.019	0.221	-0.053
-517.902	81.454	0.050	0.054
-516.887	800.000	-0.103	0.430
-515.872	493.504	-0.067	-0.153
-514.858	184.056	-0.096	-0.141
-513.843	-200.000	-0.015	0.445
-512.829	-200.000	-0.037	-0.339
-511.814	-88.557	-0.148	0.044
-510.799	6.660	0.065	-0.048
-509.785	-116.580	0.202	-0.037
-508.770	-158.295	-0.267	-0.015
-507.756	800.000	0.061	-0.176
-506.741	88.692	0.015	-0.017
-505.726	14.249	0.159	-0.123
-504.712	800.000	-0.088	0.243
-503.697	-200.000	0.015	-0.080
-502.683	-200.000	-0.049	-0.358
-501.668	195.361	0.150	0.226
-500.653	800.000	-0.066	0.249
-499.639	-200.000	-0.023	0.152
-498.624	59.885	0.174	-0.171
-497.610	667.734	0.137	-0.353
-496.595	194.766	-0.144	-0.217
-495.581	-55.189	-0.276	-0.123
-494.566	74.142	-0.060	0.063
-493.551	-200.000	-0.068	0.438
-492.537	-147.212	0.089	0.008
-491.522	-200.000	0.013	-0.148
-490.508	201.323	0.093	0.143
-489.493	-115.020	0.134	0.025
-488.478	-101.277	0.182	0.044
-487.464	-69.348	-0.183	0.070
-486.449	55.401	0.395	0.380
-485.435	28.713	0.242	-0.204
-484.420	800.000	0.019	-0.056
-483.405	56.279	-0.182	0.176
-482.391	96.184	0.061	-0.069
-481.376	800.000	-0.073	-0.220
-480.362	-200.000	0.025	-0.159
-479.347	779.381	0.163	0.442
-478.332	-57.743	-0.288	0.125
-477.318	233.180	-0.119	-0.195
-476.303	-8.967	0.106	0.070
-475.289	332.914	0.107	0.205
-474.274	-200.000	0.014	0.170
-473.259	174.067	-0.183	-0.262
-472.245	385.911	0.035	-0.071
-471.230	51.642	0.143	0.135
-470.216	17.480	-0.175	-0.138
-469.201	284.622	0.145	0.258
-468.186	54.885	-0.101	0.096
-467.172	-124.891	-0.043	0.007
-466.157	594.233	-0.041	0.100
-465.143	-37.813	-0.320	0.169
-464.128	-56.098	0.120	0.053
-463.113	595.969	0.066	-0.162
-462.099	222.370	-0.181	0.289
-461.084	328.143	-0.078	-0.149
-460.070	-41.725	0.063	-0.032
-459.055	-17.650	-0.202	0.126
-458.040	-33.639	0.135	0.074
-457.026	-133.783	0.123	-0.015
-456.011	-14.926	-0.331	0.210
-454.997	-15.673	0.148	0.094
-453.982	57.160	-0.048	0.047
-452.968	-200.000	0.014	-0.336
-451.953	115.169	0.172	-0.208
-450.938	-158.064	-0.205	-0.012
-449.924	-23.774	-0.287	-0.171
-448.909	-15.263	-0.363	-0.230
-447.895	800.000	-0.074	0.274
-446.880	566.296	-0.155	0.373
-445.865	9.574	0.166	-0.125
-444.851	536.454	-0.186	0.437
-443.836	-143.379	0.224	-0.021
-442.822	52.192	-0.166	0.157
-441.807	100.887	-0.080	0.092
-440.792	-200.000	0.030	-0.193
-439.778	69.265	-0.186	0.190
-438.763	196.990	0.119	0.179
-437.749	-185.515	-0.333	0.005
-436.734	170.199	0.146	0.207
-435.719	561.893	0.078	-0.186
-434.705	-165.875	0.242	0.010
-433.690	239.219	0.074	0.122
-432.676	186.356	0.163	0.240
-431.661	57.369	0.043	-0.041
-430.646	124.442	-0.129	-0.161
-429.632	379.598	-0.051	-0.103
-428.617	-200.000	-0.198	0.001
-427.603	-200.000	0.016	-0.189
-426.588	22.237	-0.096	-0.078
-425.573	-200.000	0.046	-0.293
-424.559	-200.000	-0.000	0.057
-423.544	193.399	-0.031	0.046
-422.530	10.417	-0.156	0.117
-421.515	-88.415	0.163	-0.048
-420.500	-31.729	-0.076	0.042
-419.486	-66.154	0.210	-0.083
-418.471	-32.645	0.372	0.205
-417.457	214.233	0.079	0.123
-416.442	-200.000	0.062	-0.320
-415.428	206.031	0.112	-0.173
-414.413	161.177	0.086	0.120
-413.398	-84.932	0.109	-0.034
-412.384	-169.082	-0.296	0.011
-411.369	-68.850	0.167	-0.064
-410.355	-200.000	0.014	-0.073
-409.340	-200.000	-0.070	0.489
-408.325	-36.598	0.337	0.180
-407.311	-169.221	-0.186	0.007
-406.296	-200.000	-0.004	0.087
-405.282	800.000	0.059	-0.199
-404.267	-200.000	-0.017	0.705
-403.252	-123.143	0.189	0.030
-402.238	270.980	-0.068	0.119
-401.223	33.539	-0.223	-0.191
-400.209	27.539	0.096	0.080
-399.194	-200.000	0.021	0.138
-398.179	-164.890	-0.129	-0.006
-397.165	21.381	0.163	0.131
-396.150	-159.566	-0.291	-0.016
-395.136	-57.414	0.141	0.061
-394.121	800.000	-0.030	0.093
-393.106	40.388	0.261	0.232
-392.092	44.769	-0.138	-0.125
-391.077	141.151	0.193	-0.253
-390.063	-9.212	0.108	0.071
-389.048	-55.800	-0.295	0.130
-388.033	-90.555	0.273	0.078
-387.019	5.478	-0.226	-0.165
-386.004	16.287	0.106	-0.083
-384.990	69.301	0.108	-0.110
-383.975	476.750	0.044	-0.098
-382.960	-38.635	-0.402	0.210
-381.946	-22.311	0.392	0.235
-380.931	31.986	0.348	0.296
-379.917	409.785	0.070	0.146
-378.902	-56.284	0.173	-0.076
-377.888	-8.676	-0.201	0.134
-376.873	-127.636	0.150	0.022
-375.858	147.648	0.320	0.427
-374.844	188.389	-0.072	-0.107
-373.829	-54.176	0.204	-0.092
-372.815	96.962	-0.134	0.152
-371.800	58.696	0.217	0.211
-370.785	-139.414	-0.226	-0.024
-369.771	15.613	-0.088	0.068
-368.756	-200.000	0.013	-0.185
-367.742	-200.000	-0.021	0.378
-366.727	38.168	0.250	0.220
-365.712	-200.000	-0.010	-0.068
-364.698	800.000	0.084	0.281
-363.683	-200.000	-0.004	0.236
-362.669	-132.984	-0.308	0.039
-361.654	800.000	-0.013	0.055
-360.639	-200.000	-0.361	-0.000
-359.625	-117.590	-0.030	0.005
-358.610	-200.000	-0.019	-0.127
-357.596	218.436	-0.057	0.090
-356.581	253.632	-0.100	-0.168
-355.566	800.000	0.052	0.163
-354.552	-17.527	-0.367	-0.228
-353.537	800.000	-0.064	0.187
-352.523	800.000	0.058	-0.200
-351.508	-200.000	0.015	0.164
-350.493	232.299	-0.083	-0.135
-349.479	-17.162	0.064	-0.040
-348.464	-93.803	-0.228	-0.062
-347.450	66.624	-0.156	-0.156
-346.435	178.701	-0.087	0.125
-345.420	-123.125	-0.147	-0.023
-344.406	-0.060	0.072	0.050
-343.391	41.699	-0.218	0.195
-342.377	-31.735	0.187	-0.104
-341.362	-115.804	-0.155	0.029
-340.348	584.593	-0.068	-0.165
-339.333	-89.319	-0.190	-0.055
-338.318	653.775	0.114	0.288
-337.304	-200.000	-0.001	-0.041
-336.289	-119.856	0.215	0.036
-335.275	800.000	0.032	-0.127
-334.260	180.272	-0.080	-0.115
-333.245	-72.723	0.305	0.111
-332.231	406.141	-0.122	0.253
-331.216	-79.455	0.478	-0.160
-330.202	800.000	0.064	-0.277
-329.187	119.281	-0.066	0.081
-328.172	800.000	0.054	-0.197
-327.158	194.216	0.126	0.188
-326.143	314.220	0.112	0.209
-325.129	-145.227	0.190	0.017
-324.114	183.367	0.059	0.086
-323.099	-68.953	-0.326	0.124
-322.085	248.330	0.236	0.395
-321.070	38.846	0.261	-0.230
-320.056	25.209	0.114	0.093
-319.041	167.255	-0.169	-0.236
-318.026	-86.737	0.093	-0.028
-317.012	-200.000	0.016	-0.102
-315.997	149.339	0.102	0.136
-314.983	-27.787	-0.209	-0.119
-313.968	-70.965	-0.283	-0.105
-312.953	31.485	0.205	0.174
-311.939	-130.824	-0.352	0.047
-310.924	-154.081	-0.319	-0.021
-309.910	-200.000	-0.036	0.393
-308.895	-95.012	0.024	-0.006
-307.880	-200.000	-0.000	-0.130
-306.866	122.002	-0.165	-0.203
-305.851	-183.625	0.431	-0.007
-304.837	505.290	0.128	-0.291
-303.822	112.290	-0.182	0.217
-302.807	-115.787	0.205	0.038
-301.793	209.742	0.067	0.104
-300.778	34.785	-0.222	-0.191
-299.764	-175.909	0.220	0.006
-298.749	-12.972	-0.162	-0.104
-297.735	115.432	-0.122	-0.147
-296.720	-60.544	-0.119	0.050
-295.705	105.144	0.116	0.135
-294.691	-200.000	-0.084	0.000
-293.676	-200.000	0.044	-0.224
-292.662	-200.000	0.041	-0.200
-291.647	326.344	-0.204	-0.386
-290.632	18.685	0.224	-0.177
-289.618	232.806	-0.037	-0.059
-288.603	84.017	-0.339	0.365
-287.589	492.158	-0.157	0.354
-286.574	-78.748	0.229	0.077
-285.559	32.806	0.258	0.220
-284.545	-142.970	0.323	-0.031
-283.530	-114.774	0.037	-0.007
-282.516	-29.180	-0.132	-0.075
-281.501	-200.000	0.003	-0.294
-280.486	8.208	0.102	-0.076
-279.472	-3.138	-0.086	-0.059
-278.457	374.284	0.051	-0.102
-277.443	-47.335	-0.177	-0.085
-276.428	57.691	0.085	-0.082
-275.413	-200.000	-0.015	-0.122
-274.399	211.235	-0.140	-0.217
-273.384	-127.325	-0.455	-0.065
-272.370	57.119	-0.211	0.203
-271.355	-57.162	0.303	0.131
-270.340	-200.000	-0.015	0.095
-269.326	800.000	-0.037	0.115
-268.311	4.691	0.123	0.089
-267.297	328.781	0.081	0.153
-266.282	47.486	-0.131	0.120
-265.267	-84.557	0.100	-0.031
-264.253	276.748	-0.176	-0.308
-263.238	-25.831	-0.083	0.048
-262.224	169.546	-0.206	-0.290
-261.209	163.438	0.084	0.116
-260.195	627.500	0.084	-0.208
-259.180	194.317	-0.069	0.102
-258.165	45.687	0.140	0.127
-257.151	383.143	0.122	0.248
-256.136	34.826	-0.120	-0.103
-255.122	-108.677	0.097	0.020
-254.107	453.842	-0.009	-0.019
-253.092	-200.000	-0.013	0.075
-252.078	-134.791	0.112	0.013
-251.063	-7.587	-0.134	-0.089
-250.049	80.205	-0.232	0.246
-249.034	-83.516	0.310	-0.098
-248.019	456.644	-0.152	-0.333
-247.005	-52.370	0.183	-0.083
-245.990	-130.193	-0.054	-0.007
-244.976	-23.657	0.133	0.078
-243.961	56.955	-0.223	-0.214
-242.946	286.303	0.197	-0.350
-241.932	-125.458	0.851	-0.127
-240.917	-72.715	-0.174	0.063
-239.903	-43.143	0.049	0.024
-238.888	316.267	0.029	0.054
-237.873	-200.000	0.037	-0.339
-236.859	-153.620	0.199	-0.014
-235.844	376.313	0.062	-0.125
-234.830	-75.833	0.250	0.087
-233.815	52.830	0.048	-0.045
-232.800	-25.465	0.098	-0.057
-231.786	393.517	-0.027	-0.056
-230.771	42.840	0.136	-0.122
-229.757	387.033	0.203	0.412
-228.742	-200.000	-0.031	-0.387
-227.727	159.519	-0.245	-0.335
-226.713	-28.769	0.269	-0.152
-225.698	-55.111	-0.432	-0.191
-224.684	-58.428	0.311	0.133
-223.669	800.000	0.053	-0.198
-222.655	-1.754	0.083	-0.058
-221.640	300.862	0.085	-0.155
-220.625	252.716	-0.182	0.305
-219.611	-57.602	-0.243	0.105
-218.596	-200.000	0.016	-0.121
-217.582	643.550	0.035	-0.088
-216.567	383.528	-0.155	0.313
-215.552	3.845	-0.154	0.111
-214.538	-200.000	0.036	0.157
-213.523	-200.000	-0.034	0.319
-212.509	-200.000	-0.040	-0.174
-211.494	65.630	0.073	0.073
-210.479	-45.966	0.054	-0.026
-209.465	458.877	0.073	0.161
-208.450	93.289	0.152	0.169
-207.436	-129.996	0.137	-0.018
-206.421	190.691	-0.035	-0.052
-205.406	76.795	0.142	0.148
-204.392	-38.905	0.171	-0.088
-203.377	-90.127	0.055	-0.016
-202.363	-92.712	0.147	-0.040
-201.348	129.462	-0.106	-0.133
-200.333	-71.954	-0.291	0.106
-199.319	-200.000	0.023	-0.100
-198.304	22.338	0.195	-0.157
-197.290	125.309	-0.136	-0.169
-196.275	-149.958	0.287	-0.022
-195.260	-200.000	-0.070	0.687
-194.246	-200.000	-0.008	-0.289
-193.231	-127.564	-0.177	0.025
-192.217	-138.109	0.237	0.026
-191.202	800.000	0.033	0.139
-190.187	800.000	-0.062	-0.167
-189.173	800.000	-0.081	-0.226
-188.158	800.000	0.097	-0.300
-187.144	157.137	-0.065	0.088
-186.129	83.419	-0.171	-0.183
-185.114	152.480	-0.052	0.070
-184.100	800.000	0.042	0.170
-183.085	8.757	0.258	-0.191
-182.071	-20.316	0.122	-0.074
-181.056	604.163	-0.079	-0.192
-180.042	459.947	0.022	0.049
-179.027	121.856	0.102	0.125
-178.012	-101.639	0.312	0.074
-176.998	800.000	-0.114	-0.383
-175.983	695.988	-0.063	-0.163
-174.969	-32.734	0.317	-0.173
-173.954	800.000	0.093	-0.255
-172.939	-200.000	-0.004	-0.164
-171.925	96.367	0.489	0.548
-170.910	-134.195	-0.273	0.033
-169.896	296.272	0.081	0.146
-168.881	-34.198	0.227	0.122
-167.866	-200.000	0.029	-0.301
-166.852	-21.309	0.074	-0.044
-165.837	609.791	0.045	-0.111
-164.823	-110.687	-0.059	-0.012
-163.808	800.000	0.086	0.369
-162.793	-195.521	0.384	-0.003
-161.779	3.646	-0.143	-0.102
-160.764	-67.852	-0.317	0.122
-159.750	-169.681	-0.251	-0.009
-158.735	158.720	0.087	-0.118
-157.720	-0.157	0.176	-0.123
-156.706	94.584	0.178	0.198
-155.691	-8.557	0.252	-0.166
-154.677	54.962	-0.063	0.059
-153.662	-200.000	-0.006	0.099
-152.647	-81.910	-0.113	-0.036
-151.633	-200.000	0.021	0.122
-150.618	98.757	0.092	0.105
-149.604	119.956	-0.171	0.207
-148.589	37.070	-0.293	-0.254
-147.574	-146.395	0.331	0.028
-146.560	-18.574	-0.073	0.045
-145.545	-15.187	-0.210	-0.131
-144.531	116.738	0.061	-0.073
-143.516	-88.389	-0.274	0.080
-142.502	59.076	-0.011	0.011
-141.487	800.000	-0.067	0.253
-140.472	800.000	0.028	-0.117
-139.458	-200.000	0.004	0.187
-138.443	800.000	0.040	-0.165
-137.429	-200.000	0.085	-0.370
-136.414	-48.572	0.226	-0.107
-135.399	-200.000	-0.005	0.224
-134.385	-34.173	-0.276	-0.149
-133.370	800.000	-0.099	0.316
-132.356	-158.674	-0.028	-0.002
-131.341	-187.813	0.416	0.005
-130.326	70.228	0.062	-0.062
-129.312	-200.000	-0.044	0.242
-128.297	-129.688	0.262	-0.035
-127.283	-103.658	-0.213	-0.049
-126.268	-69.746	0.245	0.091
-125.253	-200.000	0.019	0.214
-124.239	131.786	-0.214	-0.270
-123.224	-42.434	0.024	-0.012
-122.210	64.340	0.152	0.150
-121.195	347.289	0.047	0.091
