DTS Sentinel unit serial number:	SN413079Multiplexer serial number:	ORYXHardware model number:	OX4-SRSoftware version number:	ORYX F/W v4.00 Oryx Data Collector v3.7.2.0data status	okinstallation	princeton_trtdifferential loss correction	single-endedforward channel	channel 1reverse channel	N/Adate	2019/09/12time	02:20:11forward acquisition time	60.00reverse acquisition time	0.00gamma	496.2192k internal	0.2321k external	0.2321temperature offset calibration	1.0080default loss term (dB/km)	0.3790temperature slope calibration	1.0000multiplexer offset coefficient	1.0000multiplexer slope coefficient	1.0000fibre end	0.00T internal ref (°C)	32.56T ext. ref 1 (°C)	2.09T ext. ref 2 (°C)	26.44length (m)	temperature (°C)	Stokes	anti-Stokes-747.200	800.000	-0.075	0.331
-746.185	8.535	-0.053	0.040
-745.171	-0.761	0.240	0.172
-744.156	-200.000	-0.004	-0.050
-743.142	-99.938	0.221	-0.056
-742.127	-43.556	-0.089	-0.046
-741.112	3.355	0.136	0.100
-740.098	261.194	0.145	0.254
-739.083	-153.635	0.305	0.021
-738.069	-88.898	-0.293	0.088
-737.054	23.881	-0.069	0.058
-736.039	-80.580	-0.256	0.086
-735.025	-200.000	0.038	0.229
-734.010	729.650	-0.042	0.113
-732.996	129.810	-0.143	0.185
-731.981	-47.092	-0.061	0.030
-730.966	-141.564	-0.119	-0.012
-729.952	-200.000	0.001	0.018
-728.937	-140.939	-0.111	0.011
-727.923	-1.443	0.287	-0.204
-726.908	299.975	-0.014	-0.026
-725.894	-51.730	-0.235	0.111
-724.879	214.398	0.101	-0.162
-723.864	-200.000	-0.045	0.274
-722.850	183.747	-0.085	-0.127
-721.835	131.038	-0.170	0.221
-720.821	224.881	0.171	-0.279
-719.806	92.273	0.260	0.296
-718.791	800.000	-0.117	0.339
-717.777	-108.231	-0.061	-0.013
-716.762	48.841	0.186	-0.177
-715.748	261.467	-0.062	-0.108
-714.733	-127.846	-0.093	0.014
-713.718	-200.000	0.040	0.183
-712.704	-54.850	-0.525	0.239
-711.689	-130.836	-0.275	0.037
-710.675	-77.098	0.326	-0.115
-709.660	-135.678	-0.192	0.023
-708.645	327.547	0.059	0.114
-707.631	32.974	0.088	-0.077
-706.616	-177.877	-0.167	0.004
-705.602	800.000	0.074	0.262
-704.587	-94.844	-0.249	-0.068
-703.572	46.138	-0.078	0.073
-702.558	247.884	0.078	0.133
-701.543	-52.966	0.269	-0.125
-700.529	583.237	0.110	-0.273
-699.514	-29.813	0.097	-0.056
-698.499	-36.107	-0.258	0.141
-697.485	-200.000	-0.025	0.194
-696.470	-128.480	0.055	0.008
-695.456	37.620	0.262	-0.235
-694.441	426.345	0.056	-0.123
-693.426	140.324	0.090	0.120
-692.412	800.000	-0.029	-0.107
-691.397	429.466	0.093	-0.203
-690.383	-200.000	0.010	0.284
-689.368	-200.000	0.002	0.124
-688.354	-74.277	-0.283	0.103
-687.339	363.519	0.084	0.170
-686.324	800.000	0.056	-0.217
-685.310	238.233	-0.051	-0.086
-684.295	-98.134	0.306	-0.079
-683.281	557.486	0.197	-0.479
-682.266	-80.191	-0.202	0.068
-681.251	-85.033	0.113	-0.036
-680.237	-90.411	0.230	-0.067
-679.222	-200.000	-0.196	0.001
-678.208	470.114	0.071	-0.161
-677.193	800.000	0.151	-0.481
-676.178	484.216	-0.149	-0.342
-675.164	31.638	0.159	-0.138
-674.149	-68.018	0.448	-0.176
-673.135	7.606	-0.143	-0.108
-672.120	-200.000	0.032	-0.574
-671.105	800.000	-0.098	0.321
-670.091	131.917	0.182	-0.236
-669.076	426.643	0.114	0.249
-668.062	6.132	-0.224	-0.167
-667.047	534.712	-0.030	0.071
-666.032	-115.772	0.410	-0.077
-665.018	-39.449	0.047	0.025
-664.003	180.968	0.086	-0.127
-662.989	258.650	-0.039	-0.068
-661.974	800.000	-0.111	0.354
-660.959	223.074	0.126	0.204
-659.945	-31.473	0.100	-0.057
-658.930	-83.279	0.224	-0.073
-657.916	-113.702	0.240	0.047
-656.901	-200.000	0.017	0.160
-655.886	-200.000	-0.005	-0.145
-654.872	800.000	0.101	-0.288
-653.857	-4.337	-0.185	0.129
-652.843	-43.956	0.279	0.141
-651.828	5.196	-0.183	-0.136
-650.814	-53.950	0.157	-0.072
-649.799	-200.000	-0.033	-0.246
-648.784	-200.000	0.008	0.045
-647.770	-35.281	-0.168	-0.092
-646.755	-200.000	0.091	-0.000
-645.741	-90.521	0.324	0.094
-644.726	800.000	0.036	-0.103
-643.711	107.523	-0.147	-0.176
-642.697	431.694	-0.156	-0.340
-641.682	-114.176	-0.185	0.036
-640.668	361.723	-0.140	0.283
-639.653	256.028	-0.091	-0.158
-638.638	-200.000	-0.044	-0.433
-637.624	-200.000	0.060	0.388
-636.609	69.189	0.048	-0.050
-635.595	62.780	0.110	-0.111
-634.580	-200.000	-0.021	-0.198
-633.565	-200.000	0.132	-0.000
-632.551	315.504	-0.111	-0.211
-631.536	12.366	0.228	0.177
-630.522	-200.000	0.049	-0.227
-629.507	12.222	-0.296	-0.229
-628.492	596.105	0.090	-0.225
-627.478	209.360	0.237	-0.374
-626.463	-66.809	-0.077	0.031
-625.449	542.742	-0.095	-0.227
-624.434	108.654	-0.189	0.227
-623.419	-162.170	-0.154	0.008
-622.405	-106.979	0.373	0.083
-621.390	800.000	0.058	-0.196
-620.376	-175.503	-0.345	0.009
-619.361	800.000	0.072	-0.222
-618.346	-31.411	0.209	-0.118
-617.332	800.000	0.067	0.247
-616.317	-200.000	-0.040	-0.185
-615.303	-44.278	-0.296	-0.149
-614.288	-114.583	0.319	-0.061
-613.273	-57.017	0.096	-0.043
-612.259	33.460	0.531	-0.464
-611.244	-200.000	-0.019	-0.244
-610.230	135.926	-0.112	0.146
-609.215	-119.317	0.239	0.042
-608.201	-128.644	0.309	-0.044
-607.186	-130.263	0.263	-0.036
-606.171	-200.000	-0.055	0.257
-605.157	-92.331	0.102	-0.029
-604.142	-101.536	-0.233	-0.057
-603.128	-184.400	-0.332	-0.005
-602.113	-200.000	-0.026	0.171
-601.098	-19.831	-0.095	-0.059
-600.084	152.699	0.120	-0.165
-599.069	-163.947	0.101	-0.005
-598.055	302.668	0.160	0.298
-597.040	68.135	0.165	-0.170
-596.025	-60.217	-0.135	0.058
-595.011	-90.367	0.240	0.070
-593.996	-30.695	0.134	-0.076
-592.982	90.947	-0.219	-0.246
-591.967	-200.000	-0.046	0.272
-590.952	800.000	0.047	0.134
-589.938	-200.000	0.014	-0.210
-588.923	-80.636	0.218	-0.073
-587.909	160.587	0.106	-0.148
-586.894	-40.088	0.189	-0.099
-585.879	-132.078	-0.189	0.025
-584.865	-200.000	-0.039	0.396
-583.850	733.232	-0.045	0.122
-582.836	304.881	-0.105	-0.197
-581.821	-29.977	0.178	-0.102
-580.806	-56.321	-0.142	-0.063
-579.792	-69.432	-0.229	-0.088
-578.777	-200.000	-0.003	0.195
-577.763	-32.878	0.097	-0.054
-576.748	188.062	-0.145	0.217
-575.733	-133.529	-0.345	0.043
-574.719	-200.000	-0.073	-0.388
-573.704	501.285	0.134	0.311
-572.690	800.000	-0.055	0.180
-571.675	79.249	-0.232	-0.249
-570.661	-200.000	-0.077	-0.358
-569.646	405.365	-0.056	-0.118
-568.631	-183.675	0.279	0.005
-567.617	-133.508	0.206	0.026
-566.602	-46.347	0.070	0.034
-565.588	-118.126	-0.082	-0.015
-564.573	800.000	0.100	-0.323
-563.558	-146.085	-0.231	0.020
-562.544	-16.905	-0.063	-0.040
-561.529	10.564	0.047	0.036
-560.515	256.295	-0.095	0.164
-559.500	-2.138	-0.242	-0.171
-558.485	-5.830	-0.007	-0.005
-557.471	-80.445	-0.254	-0.085
-556.456	-105.376	-0.335	0.077
-555.442	187.066	0.108	0.161
-554.427	88.354	0.057	-0.064
-553.412	800.000	-0.081	0.324
-552.398	-171.132	0.393	-0.013
-551.383	-200.000	0.012	-0.387
-550.369	-72.545	-0.179	0.066
-549.354	354.065	0.055	-0.109
-548.339	132.032	0.259	-0.334
-547.325	-32.663	-0.177	-0.099
-546.310	-3.442	-0.189	0.132
-545.296	-94.783	-0.168	0.046
-544.281	86.680	-0.148	-0.164
-543.266	-200.000	0.007	-0.111
-542.252	183.007	0.018	-0.027
-541.237	129.726	-0.013	0.017
-540.223	-55.568	0.070	-0.032
-539.208	128.285	-0.149	-0.190
-538.193	149.615	0.223	-0.303
-537.179	-32.023	-0.146	-0.082
-536.164	30.712	-0.045	0.039
-535.150	-200.000	-0.058	-0.355
-534.135	-133.391	-0.384	-0.048
-533.121	-11.373	0.151	0.100
-532.106	-53.884	0.157	0.072
-531.091	92.304	0.043	0.048
-530.077	-40.058	0.108	0.056
-529.062	-28.093	0.092	0.053
-528.048	-15.769	-0.078	-0.050
-527.033	337.233	-0.129	-0.251
-526.018	36.416	-0.164	-0.145
-525.004	251.218	-0.054	0.092
-523.989	5.397	0.148	-0.109
-522.975	-89.185	-0.117	0.035
-521.960	51.474	0.200	0.190
-520.945	800.000	0.072	0.284
-519.931	-72.422	0.128	0.047
-518.916	3.731	-0.153	-0.112
-517.902	-94.318	-0.243	0.067
-516.887	572.778	0.106	0.260
-515.872	390.064	0.122	-0.253
-514.858	-200.000	-0.006	-0.142
-513.843	-19.626	-0.156	0.096
-512.829	-157.853	-0.136	0.008
-511.814	-200.000	0.003	-0.130
-510.799	-30.119	-0.200	0.114
-509.785	-200.000	-0.016	0.319
-508.770	-36.655	-0.070	-0.038
-507.756	396.703	-0.121	0.252
-506.741	70.012	0.064	-0.066
-505.726	-22.321	0.095	0.058
-504.712	123.589	0.280	-0.352
-503.697	-40.155	-0.156	-0.082
-502.683	-121.958	0.235	-0.039
-501.668	-145.278	0.122	0.011
-500.653	92.268	0.097	0.109
-499.639	119.261	0.160	0.198
-498.624	38.674	-0.098	-0.088
-497.610	50.208	0.268	0.254
-496.595	-13.313	-0.050	0.033
-495.581	800.000	-0.043	-0.129
-494.566	137.593	-0.097	-0.127
-493.551	27.048	-0.096	0.081
-492.537	-127.417	0.331	-0.048
-491.522	800.000	-0.017	-0.049
-490.508	-66.259	-0.230	0.092
-489.493	69.751	0.266	0.274
-488.478	250.030	0.196	-0.334
-487.464	-147.545	0.071	0.006
-486.449	419.843	0.120	-0.257
-485.435	-9.681	-0.134	0.089
-484.420	-171.490	-0.038	0.001
-483.405	-140.010	-0.262	0.028
-482.391	400.708	0.134	-0.281
-481.376	800.000	-0.040	-0.173
-480.362	89.301	-0.103	-0.115
-479.347	-200.000	0.011	0.091
-478.332	-73.760	-0.285	0.104
-477.318	70.260	0.230	0.237
-476.303	33.034	-0.190	-0.165
-475.289	1.301	-0.230	-0.166
-474.274	-65.718	0.454	0.182
-473.259	175.696	-0.175	-0.254
-472.245	-128.531	-0.372	-0.053
-471.230	-8.379	0.069	0.046
-470.216	158.420	0.061	0.085
-469.201	-7.175	-0.133	0.090
-468.186	-200.000	0.034	-0.168
-467.172	148.688	0.107	0.145
-466.157	800.000	0.059	0.194
-465.143	22.712	0.250	0.205
-464.128	-56.787	-0.349	0.154
-463.113	48.772	0.123	0.115
-462.099	145.892	0.099	0.132
-461.084	-200.000	-0.058	-0.256
-460.070	-57.351	0.228	-0.100
-459.055	-200.000	-0.009	-0.407
-458.040	-127.688	-0.086	0.012
-457.026	-109.779	-0.197	-0.041
-456.011	-144.077	0.205	0.019
-454.997	321.525	-0.035	0.066
-453.982	463.163	0.074	-0.166
-452.968	-16.250	-0.228	0.145
-451.953	195.842	-0.087	-0.132
-450.938	-110.541	-0.410	0.085
-449.924	-64.675	0.217	0.088
-448.909	744.041	0.141	0.380
-447.895	462.844	-0.017	-0.038
-446.880	346.603	-0.059	-0.117
-445.865	-58.175	0.184	-0.080
-444.851	-188.268	0.132	0.002
-443.836	-200.000	-0.040	-0.175
-442.822	-162.480	0.055	0.003
-441.807	-200.000	-0.038	0.379
-440.792	-200.000	0.042	0.345
-439.778	180.692	0.225	0.329
-438.763	653.393	-0.126	0.322
-437.749	800.000	-0.119	-0.357
-436.734	800.000	-0.019	-0.073
-435.719	-75.233	0.194	-0.069
-434.705	-200.000	-0.025	-0.279
-433.690	165.752	0.094	0.132
-432.676	-43.299	-0.235	-0.119
-431.661	9.468	-0.053	-0.040
-430.646	69.215	0.133	-0.136
-429.632	800.000	0.076	-0.273
-428.617	-88.763	-0.164	0.049
-427.603	-64.185	0.174	-0.071
-426.588	65.448	0.166	0.168
-425.573	-200.000	0.002	0.067
-424.559	-116.003	-0.391	-0.073
-423.544	30.938	-0.020	0.017
-422.530	71.010	0.123	0.127
-421.515	-64.451	0.236	-0.096
-420.500	-200.000	0.023	0.271
-419.486	-34.843	0.150	0.082
-418.471	9.869	-0.309	-0.234
-417.457	-200.000	0.038	-0.173
-416.442	731.915	0.087	0.233
-415.428	217.961	0.082	-0.131
-414.413	4.867	0.222	0.163
-413.398	-35.601	0.273	0.148
-412.384	800.000	0.106	-0.387
-411.369	232.345	-0.122	0.200
-410.355	193.402	-0.096	-0.146
-409.340	-34.109	0.051	0.028
-408.325	-1.065	-0.255	0.180
-407.311	-72.173	-0.247	-0.092
-406.296	-200.000	-0.020	0.117
-405.282	34.582	0.239	0.208
-404.267	800.000	-0.083	-0.240
-403.252	61.524	0.107	-0.106
-402.238	43.184	-0.135	-0.123
-401.223	117.193	0.073	0.089
-400.209	109.230	0.184	-0.220
-399.194	-13.512	-0.258	-0.167
-398.179	57.858	-0.117	0.114
-397.165	43.029	-0.381	0.347
-396.150	347.156	-0.062	0.121
-395.136	-130.174	0.335	0.046
-394.121	103.893	0.386	0.453
-393.106	-59.376	-0.202	0.087
-392.092	-200.000	0.038	-0.200
-391.077	-200.000	0.044	-0.286
-390.063	800.000	-0.115	-0.359
-389.048	800.000	-0.057	-0.222
-388.033	172.854	0.069	0.099
-387.019	800.000	0.025	-0.070
-386.004	800.000	-0.031	-0.098
-384.990	512.806	0.035	-0.080
-383.975	235.763	-0.073	-0.120
-382.960	-83.844	0.077	0.024
-381.946	-171.812	-0.192	0.006
-380.931	-142.029	-0.109	0.011
-379.917	202.490	-0.157	0.241
-378.902	63.005	-0.153	0.152
-377.888	62.909	0.082	0.082
-376.873	-200.000	-0.022	0.229
-375.858	-200.000	-0.028	-0.140
-374.844	-200.000	-0.027	0.327
-373.829	-138.026	0.182	-0.020
-372.815	800.000	0.051	-0.161
-371.800	-200.000	-0.003	-0.186
-370.785	-200.000	-0.046	0.270
-369.771	-9.440	-0.060	-0.040
-368.756	250.069	0.132	0.224
-367.742	65.182	-0.131	0.132
-366.727	-106.881	-0.472	0.104
-365.712	338.422	-0.049	0.095
-364.698	-31.717	-0.282	-0.158
-363.683	497.572	0.167	0.383
-362.669	-81.334	0.244	-0.080
-361.654	-19.378	-0.263	-0.162
-360.639	4.173	-0.200	0.146
-359.625	-200.000	-0.002	0.154
-358.610	-66.949	0.200	-0.079
-357.596	423.408	-0.293	-0.626
-356.581	-43.784	-0.394	0.197
-355.566	110.735	-0.191	0.229
-354.552	203.229	-0.065	0.100
-353.537	-86.941	0.160	0.049
-352.523	386.120	-0.132	0.272
-351.508	458.132	-0.066	0.146
-350.493	4.445	-0.114	-0.083
-349.479	-94.811	-0.030	-0.008
-348.464	683.932	-0.077	0.199
-347.450	105.568	-0.141	-0.166
-346.435	-144.838	-0.268	0.024
-345.420	30.124	0.432	-0.367
-344.406	800.000	-0.037	0.137
-343.391	-93.900	-0.384	0.105
-342.377	800.000	0.072	0.259
-341.362	201.967	-0.019	0.029
-340.348	30.989	0.158	0.135
-339.333	-68.279	0.173	-0.067
-338.318	-7.993	-0.289	-0.194
-337.304	174.753	-0.256	0.369
-336.289	53.627	-0.149	0.142
-335.275	-200.000	-0.030	-0.289
-334.260	-79.678	0.309	-0.104
-333.245	14.926	0.117	-0.091
-332.231	592.609	-0.111	-0.272
-331.216	-200.000	0.024	-0.146
-330.202	-68.072	0.129	0.050
-329.187	-41.656	-0.248	-0.127
-328.172	177.628	-0.089	-0.129
-327.158	21.792	0.203	-0.164
-326.143	800.000	-0.141	0.492
-325.129	457.955	-0.086	-0.189
-324.114	310.433	-0.044	0.082
-323.099	-79.276	0.177	0.060
-322.085	-200.000	-0.013	0.073
-321.070	-141.089	0.336	-0.034
-320.056	24.011	0.106	-0.087
-319.041	-27.474	-0.181	0.105
-318.026	-76.400	0.264	0.092
-317.012	-153.738	-0.135	0.009
-315.997	269.660	-0.028	-0.049
-314.983	386.563	0.158	-0.325
-313.968	77.952	0.230	0.244
-312.953	28.533	0.292	0.246
-311.939	260.534	-0.046	0.079
-310.924	69.255	0.391	0.399
-309.910	25.251	0.211	-0.174
-308.895	39.154	0.158	0.141
-307.880	-67.133	0.391	-0.153
-306.866	-156.861	-0.255	-0.016
-305.851	-200.000	-0.049	-0.253
-304.837	91.198	0.289	0.323
-303.822	-24.609	-0.091	0.054
-302.807	-63.486	0.096	0.039
-301.793	-200.000	0.005	-0.066
-300.778	-135.656	-0.092	0.011
-299.764	-200.000	-0.059	-0.270
-298.749	774.366	0.050	-0.137
-297.735	-78.850	0.271	-0.092
-296.720	-81.043	0.174	0.057
-295.705	-64.261	-0.394	0.160
-294.691	800.000	-0.091	0.291
-293.676	-200.000	-0.049	0.244
-292.662	124.440	-0.260	0.325
-291.647	422.177	-0.035	-0.074
-290.632	-200.000	0.003	0.404
-289.618	125.985	-0.198	0.249
-288.603	-200.000	-0.002	0.357
-287.589	418.247	-0.160	0.339
-286.574	800.000	-0.090	0.298
-285.559	-26.196	0.143	-0.084
-284.545	20.580	0.046	-0.037
-283.530	-200.000	0.006	-0.068
-282.516	-200.000	-0.023	-0.202
-281.501	800.000	-0.029	-0.124
-280.486	21.129	0.154	-0.124
-279.472	17.522	-0.275	-0.217
-278.457	56.632	-0.135	0.130
-277.443	-105.100	0.292	-0.066
-276.428	-143.185	-0.208	-0.020
-275.413	800.000	-0.049	0.163
-274.399	66.090	0.178	0.180
-273.384	-200.000	-0.023	-0.172
-272.370	262.233	-0.111	-0.190
-271.355	800.000	0.057	0.196
-270.340	800.000	-0.124	0.365
-269.326	702.845	0.099	-0.258
-268.311	-15.123	0.023	0.015
-267.297	800.000	-0.076	-0.219
-266.282	-126.784	0.215	0.032
-265.267	-174.534	-0.270	-0.008
-264.253	-56.685	-0.056	-0.024
-263.238	800.000	0.037	0.141
-262.224	-72.705	-0.059	0.022
-261.209	-200.000	0.059	0.260
-260.195	-88.384	0.315	0.093
-259.180	-23.323	0.119	-0.071
-258.165	-40.427	0.159	0.082
-257.151	237.019	-0.176	0.290
-256.136	800.000	-0.062	-0.243
-255.122	287.839	-0.171	0.307
-254.107	13.898	0.155	-0.120
-253.092	-200.000	-0.038	-0.293
-252.078	-83.410	-0.286	-0.091
-251.063	-155.169	0.366	0.024
-250.049	21.286	0.122	-0.098
-249.034	-19.153	-0.135	0.083
-248.019	-143.876	0.082	-0.008
-247.005	-127.112	-0.288	0.042
-245.990	-200.000	-0.043	0.198
-244.976	-143.883	0.196	-0.018
-243.961	247.821	-0.120	0.202
-242.946	-89.954	-0.337	-0.098
-241.932	510.276	-0.081	0.186
-240.917	-77.588	-0.605	0.208
-239.903	-158.027	0.506	-0.030
-238.888	-200.000	-0.007	0.452
-237.873	-200.000	0.006	-0.124
-236.859	-62.756	0.248	0.102
-235.844	-200.000	-0.196	-0.001
-234.830	22.733	-0.137	-0.111
-233.815	59.198	0.248	-0.241
-232.800	422.634	-0.110	-0.235
-231.786	161.546	-0.047	-0.065
-230.771	-176.435	0.304	0.008
-229.757	-75.546	0.213	0.075
-228.742	-124.555	-0.116	-0.018
-227.727	-200.000	0.017	-0.148
-226.713	-116.070	0.255	-0.047
-225.698	207.837	-0.082	-0.127
-224.684	-27.365	-0.212	-0.122
-223.669	10.857	0.147	0.111
-222.655	-162.430	-0.222	-0.011
-221.640	-61.740	0.151	-0.063
-220.625	206.194	0.173	0.267
-219.611	-200.000	0.002	0.013
-218.596	-111.151	0.438	-0.089
-217.582	-82.760	0.159	0.051
-216.567	-11.966	-0.101	0.066
-215.552	800.000	0.038	0.162
-214.538	-60.167	-0.172	0.072
-213.523	278.101	-0.112	-0.198
-212.509	-19.221	-0.236	-0.145
-211.494	17.986	0.142	-0.112
-210.479	154.269	-0.192	0.260
-209.465	800.000	-0.065	-0.190
-208.450	-121.606	0.223	0.037
-207.436	-200.000	-0.022	0.166
-206.421	-200.000	-0.028	-0.231
-205.406	-100.412	-0.141	-0.035
-204.392	56.235	-0.036	0.035
-203.377	800.000	0.078	0.247
-202.363	-124.692	0.429	0.066
-201.348	75.670	-0.162	-0.170
-200.333	293.677	-0.071	0.128
-199.319	-111.145	0.346	-0.070
-198.304	605.189	0.047	0.115
-197.290	56.690	0.211	0.203
-196.275	-200.000	0.018	0.428
-195.260	-29.438	0.082	-0.046
-194.246	199.805	-0.182	-0.277
-193.231	123.433	-0.227	-0.281
-192.217	-5.435	-0.090	-0.061
-191.202	-88.596	-0.115	-0.034
-190.187	351.772	0.119	0.232
-189.173	95.913	0.094	-0.106
-188.158	-3.282	0.362	0.250
-187.144	-3.588	0.149	0.103
-186.129	77.544	0.159	0.167
-185.114	100.942	-0.096	-0.110
-184.100	-128.535	-0.237	0.033
-183.085	-200.000	-0.017	-0.171
-182.071	-200.000	-0.003	0.091
-181.056	800.000	0.019	0.075
-180.042	-200.000	-0.018	-0.260
-179.027	125.649	-0.286	0.357
-178.012	180.147	0.169	0.244
-176.998	-69.382	0.123	-0.047
-175.983	-86.275	0.049	-0.015
-174.969	450.019	-0.116	-0.253
-173.954	-137.175	-0.266	0.030
-172.939	-1.021	0.095	-0.067
-171.925	-200.000	0.039	0.259
-170.910	224.550	-0.087	-0.139
-169.896	-200.000	-0.002	-0.264
-168.881	800.000	-0.026	0.107
-167.866	24.265	0.339	0.276
-166.852	366.754	0.129	0.257
-165.837	-200.000	-0.029	-0.172
-164.823	-18.362	-0.103	0.063
-163.808	800.000	0.078	0.272
-162.793	800.000	-0.032	0.108
-161.779	-103.421	0.263	0.061
-160.764	800.000	0.018	0.067
-159.750	-115.761	0.249	-0.046
-158.735	-149.243	-0.113	0.009
-157.720	-30.455	0.187	0.105
-156.706	-42.687	-0.178	0.089
-155.691	800.000	-0.045	-0.168
-154.677	-52.775	0.045	-0.021
-153.662	473.092	-0.145	-0.323
-152.647	-173.273	-0.300	-0.009
-151.633	15.881	0.511	-0.398
-150.618	800.000	0.038	0.160
-149.604	800.000	0.128	-0.358
-148.589	-53.189	0.048	0.022
-147.574	7.747	-0.137	-0.101
-146.560	80.480	-0.312	-0.332
-145.545	178.493	-0.072	0.104
-144.531	593.395	0.101	0.246
-143.516	800.000	0.125	0.350
-142.502	539.616	-0.125	0.292
-141.487	-67.671	0.350	-0.135
-140.472	430.192	-0.093	-0.199
-139.458	109.712	0.051	0.060
-138.443	243.224	-0.092	0.152
-137.429	355.348	-0.136	0.268
-136.414	800.000	0.004	-0.015
-135.399	76.339	-0.120	-0.125
-134.385	-200.000	0.055	0.410
-133.370	-79.503	-0.234	-0.078
-132.356	733.142	0.123	0.325
-131.341	-92.548	0.214	-0.059
-130.326	106.854	0.114	-0.134
-129.312	200.458	0.066	0.100
-128.297	-133.508	-0.343	-0.042
-127.283	148.585	-0.126	0.167
-126.268	-200.000	-0.025	0.268
-125.253	-55.026	-0.049	-0.022
-124.239	-162.340	0.367	0.018
-123.224	800.000	0.056	0.192
-122.210	-200.000	0.033	0.201
-121.195	-13.891	-0.341	0.218
