DTS Sentinel unit serial number:	SN413079Multiplexer serial number:	ORYXHardware model number:	OX4-SRSoftware version number:	ORYX F/W v4.00 Oryx Data Collector v3.7.2.0data status	okinstallation	princeton_trtdifferential loss correction	single-endedforward channel	channel 1reverse channel	N/Adate	2019/09/17time	04:26:35forward acquisition time	60.00reverse acquisition time	0.00gamma	496.2192k internal	0.2323k external	0.2323temperature offset calibration	0.9963default loss term (dB/km)	0.3790temperature slope calibration	1.0000multiplexer offset coefficient	1.0000multiplexer slope coefficient	1.0000fibre end	0.00T internal ref (°C)	29.73T ext. ref 1 (°C)	0.14T ext. ref 2 (°C)	24.20length (m)	temperature (°C)	Stokes	anti-Stokes-747.200	18.091	0.170	0.137
-746.185	-172.642	-0.177	-0.006
-745.171	-17.384	0.075	-0.047
-744.156	800.000	0.065	0.208
-743.142	-83.462	-0.316	0.102
-742.127	-53.719	-0.407	-0.188
-741.112	-68.543	0.211	0.083
-740.098	0.492	-0.285	0.205
-739.083	-21.942	0.226	-0.139
-738.069	800.000	-0.085	-0.275
-737.054	106.426	0.155	-0.185
-736.039	-110.561	-0.272	0.057
-735.025	273.180	0.085	0.152
-734.010	-54.310	-0.246	-0.113
-732.996	19.230	0.063	-0.051
-731.981	-95.325	-0.224	0.061
-730.966	152.554	-0.111	0.154
-729.952	-200.000	-0.028	0.254
-728.937	-96.380	-0.325	-0.087
-727.923	-63.101	-0.114	0.048
-726.908	29.152	0.115	-0.098
-725.894	-125.379	-0.188	-0.029
-724.879	201.928	-0.050	-0.077
-723.864	-200.000	0.027	0.228
-722.850	-200.000	0.046	0.311
-721.835	800.000	-0.038	-0.118
-720.821	-161.515	0.232	-0.012
-719.806	-34.511	-0.176	-0.097
-718.791	-39.422	-0.224	-0.119
-717.777	-153.461	-0.261	0.018
-716.762	-200.000	0.002	0.124
-715.748	-189.248	-0.148	-0.002
-714.733	-47.438	0.227	0.111
-713.718	-62.828	0.052	-0.022
-712.704	63.379	0.080	-0.081
-711.689	-122.063	-0.221	0.037
-710.675	-200.000	0.010	-0.184
-709.660	-150.089	0.159	0.012
-708.645	-60.192	0.221	-0.095
-707.631	24.819	-0.204	-0.170
-706.616	12.554	-0.035	-0.028
-705.602	304.938	0.066	-0.124
-704.587	-176.491	-0.491	-0.013
-703.572	-102.079	0.115	0.028
-702.558	28.621	0.079	0.067
-701.543	27.296	0.015	-0.013
-700.529	-78.452	-0.411	0.142
-699.514	-5.083	-0.085	-0.059
-698.499	108.572	0.227	0.274
-697.485	68.893	0.117	0.121
-696.470	800.000	0.060	0.243
-695.456	-117.516	0.139	-0.025
-694.441	-200.000	-0.043	0.346
-693.426	800.000	0.066	0.209
-692.412	-133.167	0.225	-0.029
-691.397	-89.807	0.161	0.047
-690.383	-180.229	-0.167	0.004
-689.368	800.000	-0.090	-0.271
-688.354	10.259	0.323	0.248
-687.339	-26.047	0.111	0.066
-686.324	-200.000	-0.049	-0.227
-685.310	195.550	-0.102	-0.156
-684.295	79.063	0.296	-0.319
-683.281	800.000	0.089	0.309
-682.266	237.583	-0.084	0.141
-681.251	-200.000	0.058	-0.290
-680.237	371.315	-0.031	-0.064
-679.222	712.563	0.051	0.136
-678.208	652.799	-0.149	-0.386
-677.193	800.000	0.163	-0.456
-676.178	-138.856	-0.497	0.054
-675.164	-52.784	0.157	-0.073
-674.149	323.170	0.150	-0.288
-673.135	-139.082	-0.256	0.028
-672.120	-200.000	-0.002	0.630
-671.105	240.652	0.190	0.319
-670.091	-25.175	-0.253	0.151
-669.076	30.938	0.101	-0.087
-668.062	-123.898	-0.100	-0.016
-667.047	-43.092	-0.059	-0.030
-666.032	-200.000	0.045	-0.216
-665.018	-26.826	-0.174	0.102
-664.003	-200.000	-0.014	-0.210
-662.989	-47.707	-0.074	-0.036
-661.974	368.139	0.061	-0.125
-660.959	-47.055	0.213	0.105
-659.945	-91.291	-0.370	0.106
-658.930	261.150	0.138	0.241
-657.916	-200.000	0.002	-0.010
-656.901	-48.474	-0.259	0.125
-655.886	-39.374	0.181	0.095
-654.872	12.889	0.137	0.107
-653.857	16.745	0.200	0.159
-652.843	-200.000	0.009	-0.446
-651.828	127.510	-0.100	0.128
-650.814	-200.000	0.007	0.112
-649.799	4.558	-0.065	0.048
-648.784	97.017	0.158	-0.182
-647.770	-63.854	-0.222	0.091
-646.755	254.219	-0.141	0.243
-645.741	74.460	-0.080	0.085
-644.726	589.073	0.129	0.319
-643.711	326.717	0.222	-0.427
-642.697	-200.000	0.014	-0.241
-641.682	103.248	-0.139	-0.163
-640.668	146.318	-0.152	-0.206
-639.653	-200.000	-0.011	0.127
-638.638	-150.637	-0.138	0.011
-637.624	800.000	-0.041	-0.172
-636.609	-23.454	0.178	0.107
-635.595	79.444	0.102	-0.111
-634.580	124.639	-0.076	-0.097
-633.565	144.809	-0.256	0.344
-632.551	-84.588	0.119	0.038
-631.536	92.812	-0.338	-0.383
-630.522	-130.576	-0.397	0.054
-629.507	-200.000	-0.065	-0.307
-628.492	-167.219	-0.216	0.009
-627.478	-65.839	0.123	-0.049
-626.463	-84.736	0.217	-0.069
-625.449	777.860	0.091	-0.249
-624.434	800.000	0.036	-0.126
-623.419	-120.619	-0.203	-0.034
-622.405	-85.671	-0.361	-0.113
-621.390	616.139	-0.104	-0.262
-620.376	6.055	-0.159	0.118
-619.361	-39.066	-0.079	-0.042
-618.346	-200.000	0.005	0.046
-617.332	352.286	0.172	0.343
-616.317	31.425	0.069	-0.060
-615.303	-23.139	-0.113	-0.069
-614.288	267.605	0.104	0.182
-613.273	172.042	-0.183	0.265
-612.259	-65.641	0.103	0.042
-611.244	29.779	0.112	-0.096
-610.230	356.405	-0.130	0.260
-609.215	-200.000	-0.050	-0.264
-608.201	-200.000	-0.003	0.135
-607.186	-151.681	0.237	-0.018
-606.171	-15.097	0.098	-0.063
-605.157	446.951	-0.064	-0.141
-604.142	302.151	0.193	0.359
-603.128	-200.000	0.007	0.133
-602.113	-125.566	0.286	-0.044
-601.098	-157.751	-0.196	0.012
-600.084	0.911	-0.162	-0.117
-599.069	35.645	0.164	-0.144
-598.055	575.885	-0.144	0.353
-597.040	-117.880	0.264	-0.048
-596.025	184.724	-0.092	0.137
-595.011	800.000	-0.071	0.229
-593.996	650.839	-0.108	-0.277
-592.982	-44.004	-0.389	-0.196
-591.967	-78.313	0.347	-0.120
-590.952	214.789	0.092	0.146
-589.938	184.052	0.210	0.313
-588.923	64.989	-0.078	-0.079
-587.909	-92.115	0.393	0.111
-586.894	770.214	0.077	0.212
-585.879	344.156	0.115	0.227
-584.865	800.000	0.057	0.203
-583.850	72.725	-0.071	0.074
-582.836	-85.214	-0.474	0.149
-581.821	380.456	-0.131	-0.269
-580.806	-200.000	-0.074	0.375
-579.792	-113.881	-0.178	0.035
-578.777	800.000	0.077	0.232
-577.763	100.555	0.036	0.042
-576.748	-11.674	-0.149	0.098
-575.733	168.457	-0.107	-0.154
-574.719	-200.000	-0.080	0.547
-573.704	-39.846	0.049	0.026
-572.690	-200.000	0.068	-0.299
-571.675	-43.204	-0.186	0.094
-570.661	-101.285	-0.077	0.019
-569.646	-22.244	0.181	0.110
-568.631	800.000	-0.082	-0.324
-567.617	-176.677	0.393	-0.010
-566.602	-200.000	-0.011	-0.344
-565.588	-108.236	0.200	-0.043
-564.573	-200.000	0.032	-0.218
-563.558	114.997	0.089	0.109
-562.544	-103.038	0.062	0.015
-561.529	110.597	-0.211	0.254
-560.515	42.575	-0.151	0.138
-559.500	-200.000	0.003	-0.051
-558.485	-200.000	0.022	-0.222
-557.471	-3.076	-0.129	-0.090
-556.456	800.000	0.196	-0.603
-555.442	-152.132	-0.431	-0.031
-554.427	741.194	0.091	0.245
-553.412	-200.000	-0.072	0.356
-552.398	-200.000	-0.024	-0.292
-551.383	-200.000	-0.020	-0.100
-550.369	-200.000	-0.018	-0.229
-549.354	4.943	-0.178	0.131
-548.339	-200.000	-0.034	0.195
-547.325	-92.134	-0.102	0.029
-546.310	-49.272	0.201	0.096
-545.296	-126.900	-0.378	-0.056
-544.281	-114.208	-0.126	0.024
-543.266	56.634	-0.103	0.101
-542.252	766.848	-0.015	0.041
-541.237	-8.832	0.319	0.214
-540.223	-170.576	0.234	0.008
-539.208	329.403	-0.042	0.082
-538.193	21.238	-0.222	0.181
-537.179	-69.105	-0.200	-0.077
-536.164	-107.945	-0.218	-0.047
-535.150	150.927	-0.132	0.180
-534.135	-200.000	-0.001	-0.147
-533.121	-17.637	-0.122	-0.077
-532.106	-38.994	-0.401	-0.211
-531.091	214.953	0.054	0.086
-530.077	100.095	-0.127	-0.148
-529.062	176.912	-0.213	-0.310
-528.048	800.000	-0.072	0.234
-527.033	800.000	0.076	0.216
-526.018	-16.860	0.276	-0.175
-525.004	800.000	0.100	0.298
-523.989	-200.000	-0.016	0.360
-522.975	-85.009	-0.096	-0.030
-521.960	42.442	0.059	-0.054
-520.945	-128.051	-0.290	-0.042
-519.931	673.009	0.125	0.325
-518.916	425.598	-0.119	-0.256
-517.902	-200.000	0.070	0.362
-516.887	35.504	0.036	0.032
-515.872	-60.613	-0.248	0.105
-514.858	-119.325	0.317	0.055
-513.843	-200.000	-0.021	-0.093
-512.829	70.297	0.135	0.139
-511.814	-49.353	-0.225	0.108
-510.799	800.000	-0.095	-0.331
-509.785	-26.293	-0.290	0.170
-508.770	-200.000	0.001	0.132
-507.756	324.384	0.118	0.226
-506.741	623.896	0.082	0.206
-505.726	78.943	-0.168	-0.180
-504.712	-72.703	0.236	-0.087
-503.697	144.013	0.241	-0.321
-502.683	208.999	-0.066	-0.104
-501.668	117.941	-0.099	-0.122
-500.653	-71.273	0.112	-0.042
-499.639	237.689	0.092	0.153
-498.624	393.087	-0.210	0.436
-497.610	68.686	0.101	0.104
-496.595	-47.705	-0.197	-0.096
-495.581	146.787	-0.149	-0.200
-494.566	800.000	0.125	0.413
-493.551	354.528	-0.115	-0.229
-492.537	-111.726	0.048	0.010
-491.522	-200.000	-0.057	0.325
-490.508	177.934	-0.166	0.242
-489.493	-67.545	-0.211	-0.083
-488.478	162.808	0.180	0.253
-487.464	-200.000	-0.009	0.206
-486.449	43.586	0.437	0.400
-485.435	-200.000	-0.038	0.224
-484.420	58.611	-0.237	-0.233
-483.405	173.372	0.107	-0.155
-482.391	800.000	-0.046	-0.201
-481.376	-106.256	0.447	-0.100
-480.362	153.181	0.036	0.049
-479.347	-117.136	-0.045	-0.008
-478.332	589.057	0.102	-0.251
-477.318	-122.355	-0.080	0.013
-476.303	-200.000	-0.001	-0.151
-475.289	-108.498	0.090	0.019
-474.274	38.680	0.120	0.107
-473.259	95.391	-0.173	0.197
-472.245	-66.129	-0.423	-0.168
-471.230	143.258	0.097	-0.129
-470.216	-89.999	-0.121	0.035
-469.201	138.421	0.107	-0.140
-468.186	-77.093	-0.212	-0.074
-467.172	-43.676	-0.259	-0.130
-466.157	-4.801	0.046	0.032
-465.143	260.499	-0.102	-0.176
-464.128	-67.454	0.238	0.093
-463.113	306.720	-0.236	0.439
-462.099	-200.000	0.015	-0.079
-461.084	-43.091	-0.112	-0.056
-460.070	93.342	0.106	-0.120
-459.055	59.953	0.326	-0.321
-458.040	38.272	0.158	-0.140
-457.026	-124.921	0.245	0.038
-456.011	315.135	0.099	0.187
-454.997	39.716	-0.212	0.190
-453.982	-200.000	-0.062	-0.381
-452.968	253.011	-0.080	0.137
-451.953	-59.888	-0.162	-0.069
-450.938	-4.728	-0.141	0.097
-449.924	59.768	-0.155	0.153
-448.909	26.296	0.224	-0.187
-447.895	-25.232	0.117	0.069
-446.880	-50.612	-0.116	0.054
-445.865	-200.000	-0.001	0.052
-444.851	181.863	-0.137	0.201
-443.836	140.312	-0.155	-0.204
-442.822	-200.000	-0.010	0.227
-441.807	-84.658	-0.305	-0.096
-440.792	-71.722	0.106	-0.040
-439.778	21.718	-0.219	0.178
-438.763	800.000	-0.047	0.147
-437.749	-200.000	-0.065	-0.332
-436.734	21.997	-0.110	-0.089
-435.719	30.302	0.213	0.182
-434.705	800.000	-0.052	0.171
-433.690	144.639	0.086	-0.115
-432.676	-101.627	0.078	-0.019
-431.661	-200.000	0.024	0.195
-430.646	654.601	0.057	-0.147
-429.632	174.079	-0.087	-0.125
-428.617	-200.000	0.056	-0.288
-427.603	-14.485	-0.400	-0.256
-426.588	-34.083	-0.236	-0.129
-425.573	391.390	-0.132	-0.272
-424.559	91.958	-0.228	0.256
-423.544	-200.000	0.032	-0.202
-422.530	-83.894	0.410	-0.130
-421.515	43.541	-0.204	0.186
-420.500	-63.719	0.150	-0.061
-419.486	-200.000	0.011	0.260
-418.471	-79.415	-0.083	0.028
-417.457	169.113	0.091	0.129
-416.442	82.378	0.362	-0.391
-415.428	18.255	-0.266	-0.212
-414.413	-33.583	0.034	-0.019
-413.398	-124.541	-0.314	0.049
-412.384	21.038	0.169	0.137
-411.369	46.455	-0.157	-0.145
-410.355	-12.260	0.206	-0.134
-409.340	-4.326	-0.339	0.234
-408.325	800.000	0.063	0.225
-407.311	551.768	0.116	-0.277
-406.296	-5.586	0.247	0.169
-405.282	-38.423	0.165	-0.087
-404.267	-16.752	-0.077	-0.049
-403.252	-154.935	0.084	0.006
-402.238	401.211	0.113	0.237
-401.223	753.087	0.135	-0.364
-400.209	800.000	0.107	-0.387
-399.194	-77.339	-0.179	0.062
-398.179	-10.581	-0.191	-0.126
-397.165	-2.175	0.102	0.072
-396.150	-97.387	0.117	0.030
-395.136	107.686	0.251	0.297
-394.121	-84.268	0.453	0.143
-393.106	-200.000	0.001	-0.101
-392.092	270.688	0.122	0.213
-391.077	-98.860	-0.130	-0.033
-390.063	-200.000	0.006	0.162
-389.048	76.897	-0.388	0.410
-388.033	44.677	0.208	0.191
-387.019	118.725	-0.131	-0.162
-386.004	-48.212	0.311	-0.150
-384.990	27.461	-0.117	-0.098
-383.975	88.979	-0.167	0.185
-382.960	30.307	-0.125	0.107
-381.946	208.815	0.091	-0.142
-380.931	-148.600	0.207	0.017
-379.917	80.655	-0.181	0.194
-378.902	99.913	0.049	0.057
-377.888	49.646	0.096	0.090
-376.873	800.000	-0.043	0.125
-375.858	415.570	-0.063	0.134
-374.844	-46.913	0.266	-0.129
-373.829	-200.000	-0.018	0.109
-372.815	-30.237	0.418	-0.236
-371.800	87.729	-0.180	0.198
-370.785	-200.000	-0.513	-0.001
-369.771	-60.850	-0.318	0.134
-368.756	446.082	0.126	-0.275
-367.742	-65.807	0.028	0.011
-366.727	800.000	-0.058	-0.194
-365.712	-60.774	-0.168	0.071
-364.698	-54.562	-0.143	0.064
-363.683	-118.976	0.061	0.011
-362.669	338.794	0.092	-0.179
-361.654	108.719	-0.124	0.147
-360.639	-200.000	-0.044	-0.262
-359.625	-104.577	0.265	0.061
-358.610	150.174	0.158	-0.213
-357.596	76.484	-0.187	-0.197
-356.581	-189.745	-0.198	0.002
-355.566	-86.295	0.185	-0.057
-354.552	800.000	0.076	-0.234
-353.537	-132.338	0.189	-0.024
-352.523	-104.304	0.126	0.029
-351.508	-1.955	-0.267	0.186
-350.493	-70.407	-0.060	0.023
-349.479	800.000	0.044	-0.180
-348.464	-167.488	0.130	-0.005
-347.450	-67.775	-0.105	-0.041
-346.435	-62.331	0.207	0.086
-345.420	-120.241	-0.099	0.017
-344.406	-140.160	-0.134	-0.014
-343.391	-67.242	0.104	0.041
-342.377	13.724	0.218	0.168
-341.362	-200.000	0.037	-0.201
-340.348	-118.854	0.345	-0.060
-339.333	-98.734	0.183	-0.046
-338.318	-57.930	0.187	-0.081
-337.304	800.000	0.068	0.255
-336.289	-14.988	-0.125	0.080
-335.275	547.099	-0.165	0.393
-334.260	800.000	0.055	0.222
-333.245	-82.670	-0.301	0.097
-332.231	-36.971	0.249	-0.133
-331.216	-47.609	-0.199	0.096
-330.202	-88.808	0.349	0.103
-329.187	71.083	0.249	0.256
-328.172	-1.626	-0.051	0.036
-327.158	326.731	-0.121	-0.231
-326.143	-23.504	0.136	0.081
-325.129	-92.208	0.226	-0.063
-324.114	-200.000	-0.022	0.113
-323.099	-122.246	-0.053	-0.009
-322.085	-63.911	0.065	-0.027
-321.070	-200.000	0.007	0.154
-320.056	-200.000	0.023	-0.287
-319.041	-200.000	0.016	-0.237
-318.026	800.000	-0.030	0.086
-317.012	-61.400	0.189	-0.079
-315.997	669.027	-0.057	-0.145
-314.983	-200.000	-0.015	0.098
-313.968	-126.096	-0.140	0.021
-312.953	89.307	0.353	0.390
-311.939	-109.711	-0.093	-0.019
-310.924	15.225	0.221	0.172
-309.910	9.079	-0.271	-0.203
-308.895	35.650	-0.218	-0.190
-307.880	-119.385	0.262	0.045
-306.866	-200.000	-0.020	0.221
-305.851	-160.313	0.331	0.018
-304.837	-115.808	0.079	-0.015
-303.822	-200.000	-0.003	0.211
-302.807	-200.000	-0.076	-0.349
-301.793	-82.768	-0.123	-0.039
-300.778	-200.000	0.001	-0.136
-299.764	56.131	-0.023	-0.022
-298.749	-53.631	0.288	0.131
-297.735	198.616	0.107	0.163
-296.720	800.000	0.046	0.167
-295.705	-74.039	-0.382	-0.137
-294.691	98.577	0.185	-0.211
-293.676	800.000	0.051	0.156
-292.662	-65.903	0.076	0.030
-291.647	185.294	0.270	-0.397
-290.632	-200.000	-0.014	-0.568
-289.618	-200.000	-0.030	-0.439
-288.603	41.736	0.131	-0.117
-287.589	-52.554	-0.448	0.205
-286.574	47.530	-0.178	-0.164
-285.559	311.292	-0.064	0.120
-284.545	800.000	-0.070	-0.242
-283.530	-82.532	0.098	0.032
-282.516	53.605	-0.068	0.065
-281.501	-200.000	-0.019	-0.266
-280.486	245.051	0.185	0.308
-279.472	-87.763	0.201	0.060
-278.457	800.000	0.075	-0.207
-277.443	-200.000	0.345	0.002
-276.428	4.173	-0.179	0.130
-275.413	-74.836	0.091	-0.032
-274.399	341.837	0.080	0.155
-273.384	-23.218	0.049	-0.029
-272.370	508.281	-0.064	-0.146
-271.355	-121.874	0.399	0.065
-270.340	-200.000	0.022	-0.121
-269.326	281.608	0.055	-0.097
-268.311	-108.748	0.175	0.037
-267.297	3.062	-0.129	0.093
-266.282	172.418	-0.155	-0.221
-265.267	12.372	0.068	0.052
-264.253	-18.707	0.169	0.104
-263.238	-200.000	-0.014	-0.198
-262.224	-136.265	0.087	-0.010
-261.209	162.963	-0.051	0.071
-260.195	370.011	-0.130	-0.260
-259.180	-108.548	-0.059	-0.013
-258.165	19.228	0.140	-0.111
-257.151	-6.786	0.334	-0.225
-256.136	5.526	-0.093	-0.068
-255.122	800.000	0.003	0.009
-254.107	-134.587	0.354	0.043
-253.092	-62.023	-0.014	-0.006
-252.078	-11.877	-0.141	-0.092
-251.063	-200.000	-0.046	-0.269
-250.049	-58.215	-0.131	0.057
-249.034	59.762	0.023	-0.023
-248.019	65.658	0.245	-0.246
-247.005	383.668	-0.015	0.031
-245.990	-143.980	-0.273	0.025
-244.976	595.522	0.016	-0.038
-243.961	591.795	0.068	-0.166
-242.946	-44.074	0.087	0.043
-241.932	-39.854	0.181	0.094
-240.917	-200.000	0.048	0.282
-239.903	-109.405	0.284	-0.059
-238.888	-89.320	0.205	0.060
-237.873	-200.000	-0.049	-0.278
-236.859	-200.000	-0.027	0.311
-235.844	353.865	-0.178	0.350
-234.830	800.000	0.152	0.438
-233.815	-118.001	-0.298	0.053
-232.800	28.207	-0.194	-0.162
-231.786	-200.000	0.023	-0.199
-230.771	-153.785	0.280	0.019
-229.757	546.432	-0.048	0.114
-228.742	42.694	-0.145	0.131
-227.727	109.691	-0.238	-0.282
-226.713	2.106	0.131	0.094
-225.698	800.000	-0.024	-0.083
-224.684	800.000	-0.049	-0.138
-223.669	-105.358	-0.149	-0.034
-222.655	800.000	-0.079	-0.226
-221.640	800.000	0.107	-0.391
-220.625	159.666	0.020	-0.028
-219.611	-47.353	0.137	0.066
-218.596	65.510	0.302	0.303
-217.582	-154.685	0.136	-0.009
-216.567	-18.081	-0.104	0.064
-215.552	117.449	0.186	-0.226
-214.538	266.675	0.097	-0.167
-213.523	-200.000	0.016	-0.134
-212.509	-168.170	-0.518	-0.020
-211.494	800.000	0.088	-0.285
-210.479	141.703	0.130	-0.170
-209.465	204.585	-0.259	0.397
-208.450	-200.000	0.006	-0.203
-207.436	45.322	0.115	-0.105
-206.421	-200.000	-0.025	-0.113
-205.406	62.501	0.305	0.301
-204.392	221.729	0.200	0.317
-203.377	501.610	-0.086	-0.197
-202.363	-200.000	0.058	0.339
-201.348	51.423	0.073	0.069
-200.333	-100.489	0.165	0.040
-199.319	300.700	-0.172	-0.314
-198.304	146.360	0.070	-0.093
-197.290	800.000	0.080	0.302
-196.275	-200.000	-0.002	-0.077
-195.260	9.565	-0.202	0.151
-194.246	-200.000	0.080	-0.669
-193.231	281.145	-0.072	-0.127
-192.217	217.038	-0.107	-0.169
-191.202	66.494	-0.127	0.128
-190.187	409.959	-0.039	0.083
-189.173	-47.758	-0.059	-0.028
-188.158	19.509	-0.285	-0.227
-187.144	111.168	0.151	0.180
-186.129	41.571	-0.193	-0.172
-185.114	-51.466	0.142	0.065
-184.100	293.257	0.132	0.238
-183.085	-133.138	0.262	0.033
-182.071	-200.000	-0.036	-0.334
-181.056	5.152	0.124	0.090
-180.042	19.769	-0.082	-0.065
-179.027	-22.606	0.396	0.236
-178.012	-200.000	0.008	-0.106
-176.998	-20.091	0.060	0.037
-175.983	213.343	0.076	0.119
-174.969	-9.604	0.056	0.037
-173.954	-60.712	0.224	-0.094
-172.939	131.171	-0.077	0.098
-171.925	101.621	0.130	0.150
-170.910	490.727	-0.089	0.200
-169.896	800.000	0.049	0.150
-168.881	-200.000	0.032	-0.278
-167.866	-200.000	0.027	0.157
-166.852	-200.000	0.064	0.381
-165.837	-28.138	-0.271	0.155
-164.823	-200.000	0.021	0.209
-163.808	-126.111	0.118	-0.018
-162.793	-200.000	0.001	-0.108
-161.779	256.026	-0.011	-0.018
-160.764	453.784	-0.010	0.021
-159.750	37.592	-0.206	0.181
-158.735	271.885	-0.206	-0.358
-157.720	36.166	-0.102	0.088
-156.706	-9.114	-0.087	0.058
-155.691	217.981	0.113	-0.177
-154.677	247.999	-0.071	0.118
-153.662	133.413	0.174	0.222
-152.647	-164.500	-0.347	0.016
-151.633	-200.000	-0.062	-0.295
-150.618	120.226	-0.220	-0.269
-149.604	447.192	-0.075	-0.162
-148.589	52.027	0.387	-0.363
-147.574	-0.828	-0.037	0.026
-146.560	19.465	-0.072	-0.057
-145.545	-200.000	-0.024	0.186
-144.531	486.213	-0.059	0.132
-143.516	800.000	0.063	0.224
-142.502	800.000	-0.063	0.242
-141.487	530.897	0.038	0.088
-140.472	-200.000	0.052	-0.241
-139.458	800.000	0.009	-0.036
-138.443	-122.791	0.162	-0.026
-137.429	800.000	-0.028	-0.082
-136.414	44.733	0.091	-0.082
-135.399	341.715	0.073	0.141
-134.385	-100.840	0.262	0.064
-133.370	-39.827	0.101	-0.052
-132.356	-200.000	-0.025	0.114
-131.341	203.910	-0.046	0.070
-130.326	-97.016	-0.175	0.045
-129.312	122.126	-0.187	0.230
-128.297	-200.000	-0.029	0.330
-127.283	87.517	-0.077	-0.084
-126.268	-114.233	0.195	-0.037
-125.253	-89.719	0.081	-0.023
-124.239	800.000	-0.065	0.223
-123.224	-24.626	-0.042	0.025
-122.210	800.000	-0.025	-0.088
-121.195	-200.000	0.021	0.109
-120.180	72.223	-0.197	0.202
