DTS Sentinel unit serial number:	SN413079Multiplexer serial number:	ORYXHardware model number:	OX4-SRSoftware version number:	ORYX F/W v4.00 Oryx Data Collector v3.7.2.0data status	okinstallation	princeton_trtdifferential loss correction	single-endedforward channel	channel 1reverse channel	N/Adate	2019/09/16time	04:58:35forward acquisition time	60.00reverse acquisition time	0.00gamma	496.2192k internal	0.2332k external	0.2332temperature offset calibration	0.9986default loss term (dB/km)	0.3790temperature slope calibration	1.0000multiplexer offset coefficient	1.0000multiplexer slope coefficient	1.0000fibre end	0.00T internal ref (°C)	27.12T ext. ref 1 (°C)	10.98T ext. ref 2 (°C)	21.88length (m)	temperature (°C)	Stokes	anti-Stokes-747.200	83.805	-0.167	-0.184
-746.185	519.787	0.090	-0.213
-745.171	-63.158	0.032	0.013
-744.156	-200.000	-0.008	0.164
-743.142	-200.000	-0.023	0.112
-742.127	-157.421	-0.331	0.020
-741.112	800.000	-0.056	-0.218
-740.098	-138.950	0.262	0.029
-739.083	-153.200	0.181	-0.013
-738.069	-89.250	-0.126	0.037
-737.054	-10.124	-0.291	-0.194
-736.039	800.000	0.104	-0.319
-735.025	122.211	0.245	-0.307
-734.010	-159.017	-0.105	0.006
-732.996	4.842	-0.285	0.211
-731.981	69.513	-0.195	-0.202
-730.966	61.305	0.112	-0.112
-729.952	508.398	0.041	-0.097
-728.937	800.000	-0.028	-0.119
-727.923	-65.732	-0.257	-0.103
-726.908	-134.027	-0.185	-0.023
-725.894	800.000	0.043	-0.123
-724.879	-145.756	0.064	-0.006
-723.864	-133.812	-0.111	-0.014
-722.850	323.575	-0.113	0.216
-721.835	5.931	0.236	0.176
-720.821	139.901	-0.048	-0.063
-719.806	-45.132	0.227	-0.114
-718.791	74.252	-0.212	-0.224
-717.777	59.361	0.309	-0.306
-716.762	-54.880	-0.557	-0.253
-715.748	58.033	0.295	-0.291
-714.733	-200.000	-0.027	-0.205
-713.718	-101.964	0.381	-0.092
-712.704	800.000	0.040	-0.118
-711.689	-56.697	-0.141	0.062
-710.675	-200.000	0.009	-0.138
-709.660	169.283	0.247	0.354
-708.645	-200.000	-0.057	0.417
-707.631	-9.315	0.271	-0.182
-706.616	-6.824	0.099	0.068
-705.602	-5.111	-0.214	-0.148
-704.587	-176.814	-0.053	0.001
-703.572	43.461	0.246	-0.226
-702.558	66.832	-0.051	0.052
-701.543	-200.000	-0.041	0.350
-700.529	800.000	0.041	0.121
-699.514	126.159	-0.260	-0.330
-698.499	33.177	-0.150	0.130
-697.485	431.291	-0.133	0.290
-696.470	46.608	-0.130	-0.121
-695.456	-126.302	-0.239	0.036
-694.441	290.127	-0.136	-0.248
-693.426	-200.000	0.001	0.161
-692.412	-200.000	-0.020	-0.205
-691.397	-200.000	0.032	-0.166
-690.383	34.704	-0.036	0.031
-689.368	168.000	-0.051	0.073
-688.354	107.879	0.146	-0.175
-687.339	800.000	-0.007	-0.023
-686.324	-200.000	-0.031	0.332
-685.310	-200.000	-0.037	-0.299
-684.295	800.000	0.032	-0.126
-683.281	-79.870	-0.192	-0.065
-682.266	-35.490	-0.131	-0.071
-681.251	388.314	-0.196	-0.407
-680.237	141.180	-0.201	-0.267
-679.222	800.000	-0.018	0.060
-678.208	800.000	-0.032	-0.110
-677.193	378.585	0.038	-0.078
-676.178	-146.442	0.195	0.017
-675.164	-75.352	-0.448	0.160
-674.149	29.273	-0.200	-0.170
-673.135	57.173	-0.177	-0.174
-672.120	14.910	-0.246	-0.193
-671.105	103.930	-0.024	0.028
-670.091	-52.373	0.239	0.111
-669.076	-200.000	-0.012	-0.138
-668.062	-63.233	-0.256	0.106
-667.047	-200.000	0.033	-0.340
-666.032	692.180	-0.164	-0.431
-665.018	-158.862	-0.407	-0.023
-664.003	789.219	0.075	0.207
-662.989	-49.741	-0.212	0.101
-661.974	-200.000	-0.010	-0.052
-660.959	178.830	-0.096	-0.141
-659.945	134.345	0.140	-0.182
-658.930	361.955	-0.066	-0.133
-657.916	185.981	-0.148	-0.221
-656.901	-111.344	-0.158	-0.032
-655.886	328.593	-0.112	-0.216
-654.872	755.957	-0.116	-0.315
-653.857	-110.730	-0.024	-0.005
-652.843	-56.970	0.142	0.063
-651.828	-54.844	-0.354	-0.160
-650.814	-180.402	0.197	-0.004
-649.799	800.000	0.020	-0.079
-648.784	-121.608	0.102	-0.017
-647.770	-117.901	0.210	-0.038
-646.755	800.000	0.029	-0.083
-645.741	15.241	0.317	-0.249
-644.726	-200.000	-0.022	-0.142
-643.711	-200.000	0.020	-0.106
-642.697	683.943	0.062	-0.161
-641.682	-170.560	0.082	0.003
-640.668	-200.000	-0.055	0.316
-639.653	57.559	0.096	-0.094
-638.638	-2.961	-0.214	0.150
-637.624	106.379	0.208	0.247
-636.609	-122.276	0.431	-0.071
-635.595	800.000	0.065	0.196
-634.580	137.303	0.171	0.224
-633.565	108.492	-0.133	0.159
-632.551	-0.611	0.515	0.366
-631.536	-200.000	-0.013	0.362
-630.522	-87.418	0.268	-0.081
-629.507	-125.998	-0.233	0.035
-628.492	264.060	0.062	0.107
-627.478	3.263	0.105	-0.076
-626.463	-155.964	0.171	0.011
-625.449	-33.603	0.194	-0.107
-624.434	17.776	-0.133	-0.106
-623.419	195.036	-0.116	-0.176
-622.405	-200.000	-0.005	0.104
-621.390	-116.596	0.125	-0.023
-620.376	721.064	0.088	0.234
-619.361	-200.000	0.054	0.273
-618.346	-200.000	0.040	0.235
-617.332	800.000	0.110	0.362
-616.317	-0.683	0.152	-0.108
-615.303	-109.931	-0.423	-0.089
-614.288	33.634	0.001	-0.001
-613.273	-60.385	-0.120	0.051
-612.259	271.863	0.083	-0.147
-611.244	-200.000	0.018	0.100
-610.230	-58.370	0.196	0.085
-609.215	-111.623	-0.407	-0.083
-608.201	-200.000	0.044	0.456
-607.186	-200.000	0.000	0.067
-606.171	-16.306	0.235	0.149
-605.157	-200.000	-0.020	0.150
-604.142	327.325	-0.080	-0.153
-603.128	154.288	-0.067	-0.092
-602.113	488.605	-0.112	-0.256
-601.098	-59.589	0.046	-0.020
-600.084	-94.764	-0.240	-0.065
-599.069	258.576	-0.076	0.130
-598.055	224.428	0.163	-0.263
-597.040	246.326	-0.131	-0.221
-596.025	-49.208	0.266	-0.127
-595.011	-121.871	-0.307	-0.051
-593.996	101.901	0.040	0.046
-592.982	-200.000	0.061	-0.314
-591.967	800.000	0.004	-0.014
-590.952	173.384	-0.061	-0.088
-589.938	179.973	-0.137	0.200
-588.923	-158.657	0.080	0.005
-587.909	-188.756	-0.082	-0.001
-586.894	-67.095	-0.242	-0.096
-585.879	-107.739	0.027	0.006
-584.865	-69.718	0.207	0.079
-583.850	-200.000	0.002	-0.171
-582.836	-132.410	0.295	0.038
-581.821	-158.034	-0.316	0.019
-580.806	-145.058	-0.392	0.036
-579.792	-160.763	0.036	-0.002
-578.777	-77.524	0.071	0.025
-577.763	-72.432	0.163	-0.060
-576.748	-56.204	0.245	0.109
-575.733	800.000	0.089	-0.356
-574.719	-65.777	-0.155	-0.062
-573.704	395.213	-0.211	-0.439
-572.690	208.834	-0.116	0.182
-571.675	24.085	0.103	-0.085
-570.661	-100.538	0.222	0.055
-569.646	-200.000	-0.025	0.283
-568.631	22.196	-0.113	0.092
-567.617	60.028	0.154	0.152
-566.602	-107.113	0.159	-0.035
-565.588	-160.736	-0.284	0.015
-564.573	-108.495	0.411	-0.088
-563.558	77.999	-0.107	0.114
-562.544	-142.651	-0.153	-0.015
-561.529	395.638	0.081	-0.168
-560.515	-82.108	0.185	0.060
-559.500	743.371	0.129	-0.346
-558.485	329.392	0.137	0.264
-557.471	10.813	0.082	-0.063
-556.456	257.473	-0.060	-0.104
-555.442	-142.059	0.241	0.024
-554.427	-58.127	-0.275	-0.120
-553.412	74.105	-0.290	0.304
-552.398	-200.000	-0.006	-0.202
-551.383	-200.000	0.018	0.127
-550.369	800.000	-0.054	0.150
-549.354	-24.542	-0.251	0.149
-548.339	213.836	0.223	0.352
-547.325	-104.236	-0.308	-0.071
-546.310	800.000	0.031	-0.088
-545.296	-20.426	-0.110	-0.068
-544.281	62.690	0.119	-0.119
-543.266	-50.150	0.119	-0.056
-542.252	-95.072	0.057	0.015
-541.237	-200.000	0.020	0.091
-540.223	-59.256	0.160	0.069
-539.208	11.999	-0.199	-0.153
-538.193	-13.266	0.135	-0.087
-537.179	-97.306	0.476	-0.124
-536.164	-108.451	-0.203	-0.044
-535.150	-200.000	0.044	-0.419
-534.135	-200.000	0.041	-0.257
-533.121	-200.000	-0.016	0.246
-532.106	99.400	-0.318	-0.367
-531.091	-24.935	-0.368	0.218
-530.077	-200.000	0.023	-0.368
-529.062	-103.764	-0.160	0.037
-528.048	-89.808	0.251	0.073
-527.033	-0.403	-0.140	-0.099
-526.018	50.485	0.087	0.082
-525.004	-132.323	-0.204	0.026
-523.989	237.406	-0.126	0.208
-522.975	-89.517	-0.167	-0.049
-521.960	-200.000	0.047	0.316
-520.945	4.364	0.339	-0.248
-519.931	10.898	0.270	-0.205
-518.916	-87.512	-0.232	0.070
-517.902	-60.980	-0.060	0.025
-516.887	800.000	0.187	0.552
-515.872	722.489	0.052	0.137
-514.858	98.654	0.258	0.297
-513.843	123.473	-0.134	0.167
-512.829	-6.731	-0.180	0.122
-511.814	-175.582	0.318	-0.009
-510.799	-200.000	-0.038	0.177
-509.785	-133.217	-0.102	-0.013
-508.770	296.701	-0.076	0.138
-507.756	-96.459	-0.292	-0.077
-506.741	800.000	-0.073	0.244
-505.726	800.000	0.090	0.318
-504.712	-54.998	0.243	-0.109
-503.697	791.089	0.054	0.147
-502.683	206.948	-0.056	0.087
-501.668	800.000	0.006	0.017
-500.653	-200.000	-0.006	-0.147
-499.639	-45.022	-0.236	0.117
-498.624	-14.750	-0.222	0.142
-497.610	671.918	0.082	-0.210
-496.595	86.014	-0.032	0.035
-495.581	-50.673	0.288	-0.135
-494.566	118.908	0.123	0.151
-493.551	237.927	0.151	-0.250
-492.537	44.391	-0.088	-0.081
-491.522	-200.000	-0.067	-0.419
-490.508	103.651	0.325	-0.380
-489.493	427.740	0.164	-0.353
-488.478	675.360	0.116	0.300
-487.464	-40.822	-0.163	-0.084
-486.449	-134.502	0.351	0.043
-485.435	-64.506	0.263	0.107
-484.420	14.927	-0.306	-0.239
-483.405	43.801	-0.223	-0.203
-482.391	203.877	-0.107	-0.166
-481.376	800.000	0.030	-0.129
-480.362	800.000	-0.122	-0.338
-479.347	-63.120	-0.060	0.025
-478.332	-200.000	-0.004	0.034
-477.318	-200.000	0.004	0.031
-476.303	40.611	-0.115	-0.103
-475.289	89.851	0.158	0.175
-474.274	580.150	0.160	0.390
-473.259	800.000	-0.137	-0.419
-472.245	22.751	0.069	-0.056
-471.230	800.000	0.026	-0.095
-470.216	9.494	-0.147	-0.110
-469.201	99.042	0.212	0.244
-468.186	-70.067	-0.168	-0.063
-467.172	-148.890	-0.136	-0.011
-466.157	24.517	-0.118	-0.097
-465.143	800.000	-0.046	-0.127
-464.128	-183.051	-0.258	-0.005
-463.113	-5.259	0.157	0.107
-462.099	-10.121	-0.194	0.128
-461.084	-102.739	0.266	-0.063
-460.070	-134.900	-0.287	-0.035
-459.055	800.000	0.027	0.099
-458.040	102.733	0.074	0.086
-457.026	-47.133	-0.065	0.032
-456.011	-63.031	-0.076	-0.031
-454.997	-200.000	0.021	-0.182
-453.982	-200.000	-0.002	0.216
-452.968	-62.607	-0.281	0.116
-451.953	-119.072	0.199	0.035
-450.938	0.780	-0.305	-0.217
-449.924	308.733	-0.129	0.240
-448.909	118.176	-0.026	-0.032
-447.895	29.181	0.180	-0.152
-446.880	-75.332	-0.186	-0.066
-445.865	-81.226	0.204	0.067
-444.851	-200.000	0.093	-0.473
-443.836	187.277	0.078	0.116
-442.822	454.585	0.157	-0.345
-441.807	-67.217	0.082	0.032
-440.792	496.903	-0.126	-0.287
-439.778	562.114	-0.094	-0.225
-438.763	-197.811	-0.243	-0.001
-437.749	-79.655	-0.147	0.049
-436.734	-129.038	-0.353	0.049
-435.719	62.134	-0.036	0.036
-434.705	-100.039	-0.400	-0.099
-433.690	-200.000	-0.013	0.208
-432.676	-47.475	-0.237	0.114
-431.661	430.343	-0.036	-0.078
-430.646	-20.007	0.039	0.024
-429.632	150.513	0.137	-0.185
-428.617	106.061	0.124	0.146
-427.603	245.654	0.035	-0.058
-426.588	-148.950	-0.182	0.015
-425.573	-149.067	0.079	-0.006
-424.559	800.000	0.071	-0.205
-423.544	800.000	-0.148	-0.413
-422.530	95.363	0.175	0.198
-421.515	445.897	0.134	-0.292
-420.500	-200.000	-0.007	0.086
-419.486	800.000	-0.087	0.374
-418.471	55.812	-0.142	-0.137
-417.457	116.074	-0.152	-0.185
-416.442	-64.515	0.293	-0.118
-415.428	83.264	-0.179	0.193
-414.413	-102.898	-0.176	0.042
-413.398	0.665	-0.109	-0.077
-412.384	25.870	-0.063	0.052
-411.369	-49.212	-0.177	0.084
-410.355	-200.000	-0.054	0.341
-409.340	163.364	-0.136	0.189
-408.325	-135.262	0.136	-0.016
-407.311	-101.451	-0.069	0.017
-406.296	800.000	-0.048	0.205
-405.282	-200.000	-0.011	0.077
-404.267	-200.000	0.083	-0.558
-403.252	377.727	-0.081	-0.165
-402.238	-200.000	-0.019	-0.320
-401.223	-50.164	-0.216	-0.101
-400.209	-60.249	0.173	0.073
-399.194	-42.103	-0.078	0.040
-398.179	79.233	0.146	-0.155
-397.165	338.160	0.078	-0.151
-396.150	-200.000	-0.006	0.204
-395.136	-200.000	0.073	0.338
-394.121	74.214	0.109	0.113
-393.106	316.987	0.114	0.214
-392.092	-29.368	0.268	0.152
-391.077	-187.843	-0.141	0.002
-390.063	-164.072	0.103	-0.005
-389.048	-200.000	-0.003	0.053
-388.033	-200.000	-0.026	-0.259
-387.019	276.594	-0.078	-0.138
-386.004	245.959	0.070	-0.117
-384.990	-98.519	-0.091	0.023
-383.975	579.383	-0.023	0.056
-382.960	177.652	-0.150	0.218
-381.946	-200.000	-0.033	-0.218
-380.931	-200.000	-0.039	-0.407
-379.917	187.739	0.172	0.254
-378.902	-102.518	0.033	0.008
-377.888	1.131	-0.149	-0.106
-376.873	-0.182	0.288	0.203
-375.858	-68.380	-0.198	-0.076
-374.844	-200.000	0.003	-0.023
-373.829	102.056	-0.061	0.070
-372.815	85.765	-0.197	-0.214
-371.800	345.942	0.058	-0.114
-370.785	-134.336	-0.415	0.050
-369.771	-95.981	-0.256	-0.067
-368.756	64.064	-0.211	0.210
-367.742	800.000	-0.030	-0.095
-366.727	800.000	-0.075	0.261
-365.712	35.141	-0.085	0.074
-364.698	-200.000	-0.004	-0.131
-363.683	-38.259	-0.336	0.177
-362.669	47.593	0.161	0.149
-361.654	170.221	0.069	-0.098
-360.639	54.043	0.223	-0.212
-359.625	-200.000	0.019	0.226
-358.610	299.760	-0.133	0.242
-357.596	-200.000	0.004	-0.055
-356.581	-200.000	0.005	0.161
-355.566	800.000	-0.026	0.101
-354.552	-200.000	0.016	0.144
-353.537	53.133	-0.027	0.026
-352.523	-134.651	0.416	-0.050
-351.508	496.547	-0.130	-0.297
-350.493	9.336	0.040	-0.030
-349.479	139.796	0.184	-0.240
-348.464	164.441	-0.146	-0.203
-347.450	-174.335	-0.274	-0.008
-346.435	-200.000	-0.368	0.001
-345.420	206.148	0.087	-0.135
-344.406	800.000	-0.049	-0.170
-343.391	66.973	0.335	0.338
-342.377	96.184	-0.082	-0.093
-341.362	23.180	0.181	-0.147
-340.348	12.831	-0.156	-0.119
-339.333	-126.678	0.140	-0.020
-338.318	-200.000	0.018	0.168
-337.304	-186.830	0.309	-0.004
-336.289	-167.993	-0.300	0.012
-335.275	12.772	-0.128	-0.098
-334.260	800.000	0.008	0.025
-333.245	267.854	0.047	-0.081
-332.231	-51.882	0.209	-0.096
-331.216	-140.250	-0.137	-0.014
-330.202	800.000	-0.051	-0.191
-329.187	560.735	0.100	0.239
-328.172	-42.742	0.180	0.091
-327.158	-54.914	-0.228	0.102
-326.143	-69.908	-0.274	-0.103
-325.129	-152.948	-0.102	0.007
-324.114	150.005	0.090	-0.121
-323.099	-24.599	0.285	-0.168
-322.085	85.434	-0.042	-0.045
-321.070	-200.000	-0.005	0.257
-320.056	-200.000	-0.012	-0.062
-319.041	-200.000	-0.046	0.313
-318.026	-29.563	-0.259	0.147
-317.012	26.395	-0.068	0.056
-315.997	-200.000	0.040	0.243
-314.983	-57.538	-0.510	-0.221
-313.968	599.029	0.039	-0.096
-312.953	-20.299	-0.167	0.102
-311.939	17.773	-0.079	-0.062
-310.924	-172.594	-0.213	-0.007
-309.910	221.334	-0.018	0.028
-308.895	-200.000	0.015	0.294
-307.880	-180.208	-0.084	-0.002
-306.866	-95.005	0.143	-0.038
-305.851	-69.969	-0.206	-0.078
-304.837	330.505	0.112	-0.213
-303.822	-200.000	-0.023	-0.194
-302.807	-91.640	-0.138	0.039
-301.793	-78.486	0.244	-0.082
-300.778	800.000	-0.030	0.092
-299.764	47.095	-0.054	0.050
-298.749	-6.017	-0.045	0.031
-297.735	195.147	0.250	0.375
-296.720	-200.000	-0.022	0.327
-295.705	800.000	0.065	-0.200
-294.691	800.000	0.072	0.255
-293.676	-200.000	-0.033	-0.444
-292.662	-87.256	-0.236	0.071
-291.647	800.000	0.061	0.184
-290.632	-149.870	0.452	-0.035
-289.618	800.000	0.089	-0.372
-288.603	373.587	0.115	-0.231
-287.589	570.832	-0.073	-0.175
-286.574	-88.485	0.224	0.066
-285.559	-123.914	-0.151	-0.024
-284.545	83.171	-0.062	-0.066
-283.530	505.210	-0.024	-0.054
-282.516	128.775	-0.103	0.130
-281.501	410.654	-0.094	-0.196
-280.486	287.494	0.119	0.213
-279.472	-24.257	0.142	0.084
-278.457	-45.182	-0.252	0.124
-277.443	-133.545	-0.274	0.034
-276.428	-5.898	-0.094	0.064
-275.413	151.513	-0.182	0.244
-274.399	-151.858	0.174	-0.013
-273.384	-200.000	0.018	0.085
-272.370	390.790	0.117	-0.240
-271.355	-91.502	0.121	-0.034
-270.340	-200.000	-0.147	-0.000
-269.326	-200.000	0.006	0.140
-268.311	-56.043	0.170	0.075
-267.297	-200.000	-0.046	-0.283
-266.282	-39.124	0.120	0.062
-265.267	57.266	0.352	-0.340
-264.253	800.000	0.073	-0.287
-263.238	53.704	-0.061	-0.058
-262.224	-79.903	-0.438	-0.145
-261.209	107.049	0.130	0.153
-260.195	-144.916	-0.094	0.008
-259.180	41.860	-0.062	0.056
-258.165	800.000	-0.037	-0.156
-257.151	47.735	0.073	-0.067
-256.136	111.915	-0.220	0.262
-255.122	-200.000	-0.013	0.190
-254.107	-70.271	-0.202	-0.076
-253.092	-98.432	0.165	0.042
-252.078	-197.194	-0.185	-0.001
-251.063	139.347	0.053	0.069
-250.049	-200.000	-0.008	-0.202
-249.034	11.570	0.141	-0.107
-248.019	-50.574	0.062	0.029
-247.005	800.000	-0.085	0.328
-245.990	-50.543	-0.260	0.121
-244.976	138.751	0.074	-0.096
-243.961	67.321	0.126	-0.127
-242.946	97.890	-0.116	-0.132
-241.932	-160.188	-0.427	-0.023
-240.917	-95.360	0.141	0.037
-239.903	-200.000	-0.063	-0.285
-238.888	108.284	-0.152	-0.178
-237.873	800.000	-0.026	-0.089
-236.859	31.005	0.044	0.038
-235.844	-200.000	0.012	0.383
-234.830	-84.795	0.124	-0.038
-233.815	91.448	-0.179	0.198
-232.800	-86.801	0.401	0.121
-231.786	23.662	0.279	-0.226
-230.771	-37.264	0.208	0.110
-229.757	58.263	0.152	0.147
-228.742	800.000	-0.025	0.098
-227.727	-155.481	0.334	0.021
-226.713	-79.177	0.264	0.088
-225.698	-200.000	0.032	0.254
-224.684	-100.589	0.175	-0.043
-223.669	209.805	0.044	-0.068
-222.655	-200.000	-0.027	-0.128
-221.640	293.519	-0.046	0.082
-220.625	800.000	-0.025	-0.082
-219.611	-129.050	0.153	0.021
-218.596	-35.140	-0.305	0.164
-217.582	16.768	0.105	0.082
-216.567	56.032	0.023	-0.022
-215.552	-129.873	0.294	-0.040
-214.538	78.627	0.223	-0.235
-213.523	131.872	0.065	0.082
-212.509	-200.000	0.008	-0.057
-211.494	-169.469	0.157	0.006
-210.479	-130.123	0.364	-0.049
-209.465	800.000	0.028	-0.090
-208.450	41.337	0.268	0.239
-207.436	-166.500	0.414	-0.017
-206.421	-45.973	0.167	0.081
-205.406	800.000	-0.032	-0.094
-204.392	127.853	0.187	-0.234
-203.377	3.629	0.198	0.142
-202.363	-51.621	0.190	-0.087
-201.348	-126.364	-0.135	-0.020
-200.333	259.553	0.039	0.065
-199.319	-103.383	-0.159	-0.037
-198.304	-112.798	-0.335	-0.065
-197.290	28.716	0.119	0.099
-196.275	-145.076	-0.094	-0.008
-195.260	-200.000	-0.044	0.262
-194.246	8.739	-0.330	-0.245
-193.231	229.039	-0.091	0.146
-192.217	42.396	-0.106	-0.094
-191.202	800.000	0.013	-0.038
-190.187	-3.587	-0.273	0.187
-189.173	-49.518	-0.114	-0.054
-188.158	460.033	-0.026	0.057
-187.144	57.009	0.229	-0.220
-186.129	-1.770	-0.212	0.147
-185.114	34.354	-0.081	0.070
-184.100	201.363	0.192	0.291
-183.085	-4.062	-0.044	0.030
-182.071	-45.590	0.092	0.045
-181.056	319.967	-0.160	0.299
-180.042	304.792	0.047	-0.085
-179.027	53.167	-0.145	0.136
-178.012	-124.497	-0.121	0.019
-176.998	800.000	-0.093	0.287
-175.983	800.000	0.027	-0.089
-174.969	44.597	0.176	0.159
-173.954	-103.741	-0.237	-0.055
-172.939	-61.253	0.428	-0.177
-171.925	64.405	0.340	-0.337
-170.910	75.533	0.157	0.163
-169.896	-34.014	-0.345	0.187
-168.881	-183.266	0.222	-0.004
-167.866	-7.189	0.262	0.174
-166.852	-200.000	-0.054	0.314
-165.837	-101.534	0.210	0.050
-164.823	678.236	0.026	0.065
-163.808	-0.698	0.108	0.075
-162.793	-92.041	-0.534	0.149
-161.779	769.587	0.036	-0.097
-160.764	-169.622	0.057	-0.002
-159.750	134.753	0.157	-0.200
-158.735	800.000	-0.058	-0.159
-157.720	-200.000	-0.022	-0.253
-156.706	-200.000	0.032	-0.218
-155.691	800.000	0.006	-0.017
-154.677	317.886	0.111	0.207
-153.662	117.141	-0.038	0.046
-152.647	-26.455	-0.302	-0.174
-151.633	800.000	0.066	0.222
-150.618	-200.000	-0.026	0.271
-149.604	-29.401	0.320	-0.180
-148.589	800.000	0.019	-0.080
-147.574	78.702	0.171	0.180
-146.560	-87.383	0.157	-0.047
-145.545	800.000	-0.063	-0.174
-144.531	-77.500	0.337	-0.115
-143.516	318.137	-0.148	-0.276
-142.502	231.663	-0.123	-0.198
-141.487	761.029	0.040	0.105
-140.472	106.453	0.094	-0.109
-139.458	123.436	-0.026	-0.033
-138.443	-104.645	-0.361	-0.082
-137.429	70.922	0.133	0.135
-136.414	204.247	0.088	-0.134
-135.399	-14.522	0.098	0.062
-134.385	800.000	0.099	-0.291
-133.370	-64.966	-0.162	-0.064
-132.356	-200.000	0.028	-0.222
-131.341	-135.616	-0.400	-0.047
-130.326	-76.938	0.223	0.076
-129.312	-110.740	0.163	0.033
-128.297	800.000	0.050	-0.160
-127.283	363.197	0.138	-0.272
-126.268	-11.542	-0.146	0.094
-125.253	-151.090	-0.037	0.003
-124.239	95.507	0.063	0.070
-123.224	110.524	0.030	-0.035
-122.210	273.205	0.047	0.082
