DTS Sentinel unit serial number:	SN413079Multiplexer serial number:	ORYXHardware model number:	OX4-SRSoftware version number:	ORYX F/W v4.00 Oryx Data Collector v3.7.2.0data status	okinstallation	princeton_trtdifferential loss correction	single-endedforward channel	channel 1reverse channel	N/Adate	2019/09/18time	07:22:35forward acquisition time	60.00reverse acquisition time	0.00gamma	496.2192k internal	0.2340k external	0.2340temperature offset calibration	0.9978default loss term (dB/km)	0.3790temperature slope calibration	1.0000multiplexer offset coefficient	1.0000multiplexer slope coefficient	1.0000fibre end	0.00T internal ref (°C)	23.19T ext. ref 1 (°C)	0.20T ext. ref 2 (°C)	17.54length (m)	temperature (°C)	Stokes	anti-Stokes-747.200	800.000	0.134	0.389
-746.185	-191.732	-0.390	-0.004
-745.171	-57.633	-0.431	0.190
-744.156	218.713	0.128	0.205
-743.142	125.920	0.039	0.049
-742.127	793.011	-0.099	-0.272
-741.112	60.975	0.070	0.070
-740.098	-33.239	0.137	-0.076
-739.083	800.000	0.034	0.102
-738.069	536.263	-0.036	0.085
-737.054	-200.000	0.034	0.412
-736.039	-143.165	-0.202	0.019
-735.025	800.000	0.078	0.244
-734.010	-116.018	-0.388	0.072
-732.996	-11.619	-0.186	-0.122
-731.981	330.305	-0.177	-0.341
-730.966	-35.505	-0.188	0.103
-729.952	493.650	-0.040	0.092
-728.937	257.562	-0.220	-0.379
-727.923	-37.734	-0.338	0.180
-726.908	-5.741	0.013	0.009
-725.894	-46.337	-0.342	-0.168
-724.879	-129.030	-0.091	0.013
-723.864	800.000	0.104	0.319
-722.850	-70.306	-0.373	0.142
-721.835	450.767	-0.167	-0.370
-720.821	-200.000	-0.047	-0.227
-719.806	-74.738	-0.151	-0.054
-718.791	-58.699	-0.202	-0.088
-717.777	-28.977	-0.233	0.134
-716.762	139.902	-0.276	0.364
-715.748	-124.643	0.162	0.025
-714.733	-133.627	0.293	-0.037
-713.718	-200.000	0.014	0.242
-712.704	800.000	-0.083	-0.239
-711.689	32.493	-0.242	-0.210
-710.675	-95.088	0.112	0.030
-709.660	-108.329	0.239	0.052
-708.645	-113.244	0.266	-0.052
-707.631	-123.703	-0.304	0.048
-706.616	-200.000	-0.034	0.328
-705.602	538.714	0.074	0.176
-704.587	-87.621	-0.268	0.081
-703.572	796.994	-0.037	0.103
-702.558	-59.547	0.048	-0.020
-701.543	-80.708	0.216	-0.072
-700.529	6.104	-0.088	0.065
-699.514	-200.000	0.021	-0.147
-698.499	-150.270	-0.318	-0.025
-697.485	-40.690	0.194	-0.100
-696.470	-5.732	0.078	-0.054
-695.456	-14.297	0.354	0.228
-694.441	800.000	-0.041	0.161
-693.426	-14.337	-0.232	0.150
-692.412	110.392	0.064	-0.077
-691.397	-70.046	-0.242	0.092
-690.383	234.194	0.060	-0.099
-689.368	-45.164	0.251	-0.125
-688.354	574.356	-0.029	0.072
-687.339	72.223	0.251	0.261
-686.324	-20.557	0.441	0.271
-685.310	746.626	-0.084	0.227
-684.295	1.106	-0.221	-0.159
-683.281	-91.218	-0.307	-0.088
-682.266	-200.000	-0.001	-0.168
-681.251	105.024	0.091	0.107
-680.237	-53.415	-0.078	0.036
-679.222	-170.082	-0.242	-0.009
-678.208	-36.134	-0.176	-0.095
-677.193	-124.500	0.330	-0.051
-676.178	-133.638	0.182	0.023
-675.164	-98.956	0.204	-0.052
-674.149	-107.946	-0.205	-0.045
-673.135	247.049	0.136	-0.230
-672.120	-195.930	-0.214	0.002
-671.105	-11.278	0.309	0.203
-670.091	79.846	-0.237	-0.255
-669.076	800.000	-0.057	0.179
-668.062	80.267	-0.285	-0.306
-667.047	547.710	0.060	-0.144
-666.032	0.958	0.132	-0.095
-665.018	166.734	-0.082	0.116
-664.003	-65.611	-0.270	0.108
-662.989	-200.000	-0.001	0.204
-661.974	67.733	-0.075	0.077
-660.959	-48.747	-0.154	-0.074
-659.945	-200.000	0.026	-0.452
-658.930	-27.314	-0.324	-0.189
-657.916	532.857	-0.137	-0.325
-656.901	-78.094	0.097	0.033
-655.886	67.647	0.058	-0.059
-654.872	-10.755	-0.418	-0.276
-653.857	-200.000	0.161	0.711
-652.843	209.967	-0.158	0.248
-651.828	-62.950	-0.076	0.031
-650.814	112.290	-0.099	-0.120
-649.799	49.329	-0.159	-0.149
-648.784	-32.053	0.179	-0.100
-647.770	-163.636	-0.508	0.024
-646.755	64.913	-0.160	0.162
-645.741	-170.025	-0.326	0.012
-644.726	47.932	0.105	0.098
-643.711	-73.053	-0.215	0.079
-642.697	-135.369	0.103	0.012
-641.682	-200.000	0.051	0.626
-640.668	-200.000	-0.076	-0.586
-639.653	-200.000	-0.108	0.000
-638.638	800.000	0.048	0.168
-637.624	-19.550	0.247	-0.152
-636.609	-76.626	-0.147	0.051
-635.595	-104.720	-0.167	0.038
-634.580	800.000	0.081	0.227
-633.565	-160.732	-0.277	-0.015
-632.551	-8.818	0.219	-0.147
-631.536	-92.239	0.102	0.029
-630.522	166.378	-0.145	0.205
-629.507	-78.361	-0.122	0.042
-628.492	-30.048	-0.144	-0.082
-627.478	-54.455	0.140	-0.063
-626.463	-129.261	-0.148	0.021
-625.449	11.184	-0.205	-0.157
-624.434	-169.817	-0.083	0.003
-623.419	-200.000	0.023	0.101
-622.405	95.794	0.173	-0.197
-621.390	-74.908	-0.215	-0.077
-620.376	7.201	-0.081	-0.060
-619.361	800.000	-0.080	-0.236
-618.346	137.875	0.096	-0.126
-617.332	-200.000	0.010	-0.179
-616.317	311.235	-0.073	-0.136
-615.303	1.582	-0.098	0.070
-614.288	-200.000	0.032	-0.219
-613.273	800.000	-0.062	-0.176
-612.259	47.219	0.059	-0.055
-611.244	137.697	0.148	-0.193
-610.230	120.150	-0.078	-0.097
-609.215	-200.000	-0.009	0.127
-608.201	-157.604	0.239	0.014
-607.186	42.905	0.028	0.026
-606.171	7.837	-0.199	-0.149
-605.157	267.760	0.121	-0.212
-604.142	425.506	0.081	0.174
-603.128	-114.844	0.384	0.073
-602.113	49.754	0.271	0.255
-601.098	-67.454	-0.204	-0.080
-600.084	529.195	-0.076	0.178
-599.069	185.522	0.199	0.294
-598.055	800.000	0.066	-0.194
-597.040	-200.000	0.018	-0.084
-596.025	81.470	0.230	-0.248
-595.011	800.000	-0.092	0.265
-593.996	800.000	-0.002	-0.005
-592.982	-200.000	-0.033	0.228
-591.967	-52.124	-0.152	0.071
-590.952	173.415	-0.016	0.023
-589.938	-200.000	0.035	0.212
-588.923	-143.357	0.303	-0.029
-587.909	-37.101	-0.421	0.225
-586.894	-36.589	0.223	0.119
-585.879	-54.382	-0.294	-0.133
-584.865	65.225	0.243	-0.245
-583.850	-200.000	-0.003	0.055
-582.836	-15.748	-0.367	-0.233
-581.821	-145.856	0.035	0.003
-580.806	8.572	-0.161	-0.121
-579.792	110.506	0.037	-0.044
-578.777	-200.000	0.005	0.087
-577.763	-8.813	0.269	-0.180
-576.748	3.003	0.235	0.170
-575.733	-200.000	-0.006	0.034
-574.719	800.000	-0.037	-0.109
-573.704	800.000	0.015	-0.058
-572.690	-200.000	-0.029	-0.137
-571.675	283.508	0.078	-0.139
-570.661	-200.000	0.025	0.219
-569.646	78.563	0.283	0.301
-568.631	-114.931	0.093	-0.018
-567.617	206.690	-0.033	-0.051
-566.602	800.000	0.109	0.307
-565.588	800.000	-0.024	0.087
-564.573	112.719	0.042	-0.051
-563.558	-200.000	-0.029	0.304
-562.544	65.110	0.176	-0.177
-561.529	109.375	-0.234	-0.278
-560.515	800.000	0.011	0.034
-559.500	800.000	-0.080	-0.233
-558.485	-142.460	0.215	-0.021
-557.471	-90.152	-0.150	0.043
-556.456	-110.357	-0.196	0.041
-555.442	-71.205	-0.074	-0.028
-554.427	-200.000	-0.015	-0.091
-553.412	-200.000	-0.018	0.085
-552.398	-30.545	0.463	0.261
-551.383	-134.034	-0.269	0.033
-550.369	800.000	0.101	-0.280
-549.354	-200.000	0.002	-0.022
-548.339	-82.609	-0.494	0.159
-547.325	71.419	0.022	-0.023
-546.310	53.170	0.146	0.139
-545.296	-27.899	-0.131	0.076
-544.281	36.256	-0.206	-0.180
-543.266	-37.535	-0.081	-0.043
-542.252	-115.954	-0.130	-0.024
-541.237	-84.239	-0.079	0.025
-540.223	94.802	-0.115	-0.130
-539.208	87.429	0.023	0.026
-538.193	58.122	-0.175	0.171
-537.179	42.095	0.032	-0.029
-536.164	-150.750	-0.136	0.010
-535.150	48.039	-0.139	0.129
-534.135	200.675	0.091	-0.140
-533.121	-52.314	-0.126	0.058
-532.106	-200.000	0.024	0.308
-531.091	104.761	0.050	0.059
-530.077	172.137	-0.151	0.216
-529.062	533.703	0.069	0.163
-528.048	-200.000	0.007	-0.148
-527.033	-73.102	0.099	0.036
-526.018	196.907	0.145	-0.219
-525.004	-114.157	-0.117	0.022
-523.989	554.182	0.098	-0.234
-522.975	-147.428	-0.365	-0.031
-521.960	122.661	-0.060	0.075
-520.945	209.082	0.090	0.140
-519.931	544.313	0.105	0.250
-518.916	-200.000	-0.036	-0.164
-517.902	262.641	0.079	-0.135
-516.887	-200.000	0.003	-0.142
-515.872	-73.891	-0.266	-0.096
-514.858	81.238	0.085	-0.091
-513.843	-200.000	-0.020	-0.162
-512.829	556.380	-0.047	-0.112
-511.814	358.672	0.134	-0.266
-510.799	-108.102	0.257	-0.055
-509.785	-57.230	-0.157	0.069
-508.770	800.000	-0.021	0.070
-507.756	-200.000	-0.008	0.193
-506.741	-166.015	-0.035	0.001
-505.726	800.000	-0.065	0.249
-504.712	-39.161	-0.280	-0.146
-503.697	800.000	-0.055	-0.168
-502.683	178.897	-0.060	0.086
-501.668	-200.000	-0.005	-0.124
-500.653	-200.000	0.038	-0.221
-499.639	-117.924	-0.421	0.075
-498.624	-52.333	0.289	-0.133
-497.610	6.457	-0.157	-0.116
-496.595	326.632	-0.187	-0.355
-495.581	711.494	-0.088	-0.230
-494.566	392.987	0.115	0.237
-493.551	-15.008	-0.220	-0.140
-492.537	-153.381	-0.303	0.021
-491.522	-43.715	0.205	0.103
-490.508	44.235	-0.151	0.138
-489.493	800.000	-0.037	0.152
-488.478	439.373	-0.054	-0.118
-487.464	240.755	-0.077	-0.128
-486.449	303.973	-0.066	0.121
-485.435	-200.000	-0.013	-0.070
-484.420	-140.482	0.249	-0.026
-483.405	452.893	0.127	0.278
-482.391	-187.739	0.273	-0.004
-481.376	199.931	-0.233	0.355
-480.362	-8.198	0.083	-0.055
-479.347	33.524	-0.103	-0.089
-478.332	216.449	0.148	0.233
-477.318	-151.420	-0.274	0.020
-476.303	-71.716	-0.244	-0.090
-475.289	796.611	0.095	0.259
-474.274	-200.000	0.011	-0.100
-473.259	800.000	0.038	0.116
-472.245	478.451	0.045	0.101
-471.230	-122.619	0.201	-0.032
-470.216	-200.000	0.013	0.143
-469.201	623.396	0.121	0.303
-468.186	387.000	-0.115	-0.236
-467.172	-200.000	0.095	-0.555
-466.157	-38.063	0.165	0.087
-465.143	-200.000	-0.013	-0.116
-464.128	-109.886	-0.097	0.020
-463.113	-132.607	-0.255	-0.032
-462.099	279.145	-0.118	0.208
-461.084	-48.940	0.245	0.117
-460.070	50.903	0.126	-0.118
-459.055	-200.000	0.012	0.211
-458.040	800.000	0.120	-0.449
-457.026	-111.489	-0.278	-0.056
-456.011	-200.000	0.057	-0.250
-454.997	-146.342	0.265	-0.023
-453.982	-10.912	-0.522	0.342
-452.968	-200.000	0.014	-0.259
-451.953	-63.452	-0.310	0.126
-450.938	-138.718	-0.157	0.017
-449.924	-67.354	0.158	0.062
-448.909	27.744	0.285	-0.238
-447.895	13.474	-0.203	-0.156
-446.880	800.000	-0.036	0.116
-445.865	-200.000	0.075	-0.336
-444.851	-25.864	0.349	-0.204
-443.836	151.306	-0.021	-0.029
-442.822	-200.000	0.009	0.350
-441.807	800.000	0.058	-0.199
-440.792	89.380	0.231	0.255
-439.778	-200.000	-0.028	-0.147
-438.763	109.602	-0.237	0.281
-437.749	-200.000	-0.010	0.096
-436.734	-192.215	-0.280	-0.003
-435.719	-200.000	0.044	-0.496
-434.705	-39.199	-0.229	0.119
-433.690	-96.576	-0.086	0.023
-432.676	-75.871	-0.141	-0.050
-431.661	-200.000	-0.007	0.292
-430.646	-200.000	0.011	0.304
-429.632	1.555	0.083	0.059
-428.617	371.542	0.083	-0.167
-427.603	-7.477	-0.060	-0.040
-426.588	-200.000	-0.006	0.333
-425.573	414.948	0.058	0.122
-424.559	133.239	0.119	0.152
-423.544	-200.000	0.015	0.242
-422.530	-135.604	-0.343	-0.040
-421.515	-108.688	-0.201	0.043
-420.500	-177.798	-0.229	-0.005
-419.486	-139.641	-0.125	0.013
-418.471	-28.428	0.211	0.120
-417.457	-29.937	0.235	0.132
-416.442	-22.336	0.271	0.163
-415.428	-200.000	-0.001	0.157
-414.413	-25.473	-0.124	-0.073
-413.398	800.000	-0.114	0.465
-412.384	4.697	-0.028	0.020
-411.369	-129.456	-0.108	-0.015
-410.355	313.288	0.101	-0.187
-409.340	51.415	0.072	-0.068
-408.325	-73.973	-0.137	-0.049
-407.311	-83.461	0.094	0.030
-406.296	-62.907	-0.586	-0.240
-405.282	-176.870	-0.249	0.006
-404.267	-47.810	0.234	-0.112
-403.252	-200.000	0.002	-0.081
-402.238	-27.338	0.334	0.192
-401.223	-200.000	0.025	0.337
-400.209	800.000	0.017	0.050
-399.194	-200.000	0.011	-0.184
-398.179	-133.463	-0.202	0.025
-397.165	800.000	-0.106	0.316
-396.150	-200.000	-0.001	-0.203
-395.136	63.048	-0.091	-0.090
-394.121	342.459	-0.045	0.087
-393.106	444.499	0.137	-0.298
-392.092	800.000	-0.065	-0.205
-391.077	256.649	0.127	-0.215
-390.063	-200.000	-0.019	0.484
-389.048	-37.231	0.136	-0.072
-388.033	22.910	0.129	-0.105
-387.019	-200.000	-0.014	-0.135
-386.004	200.912	-0.150	0.228
-384.990	-62.727	0.391	-0.160
-383.975	800.000	0.052	0.203
-382.960	-200.000	0.050	0.249
-381.946	800.000	-0.068	0.273
-380.931	-15.766	-0.118	0.075
-379.917	800.000	0.050	-0.174
-378.902	-200.000	-0.004	-0.123
-377.888	-35.961	-0.241	-0.129
-376.873	800.000	0.063	-0.180
-375.858	-35.702	-0.121	0.065
-374.844	-200.000	0.047	0.228
-373.829	494.302	-0.087	-0.197
-372.815	-125.044	0.243	0.037
-371.800	-117.822	0.160	0.028
-370.785	-200.000	-0.011	0.159
-369.771	-1.650	0.224	-0.156
-368.756	-90.303	-0.281	-0.080
-367.742	185.457	-0.022	0.032
-366.727	122.292	0.049	0.061
-365.712	257.746	-0.031	0.053
-364.698	406.833	0.065	-0.135
-363.683	-200.000	-0.053	-0.230
-362.669	-23.061	0.046	0.027
-361.654	175.930	0.175	-0.251
-360.639	-31.640	0.149	0.083
-359.625	48.968	-0.101	-0.094
-358.610	16.491	-0.069	0.054
-357.596	-197.271	-0.042	-0.000
-356.581	-83.120	-0.172	-0.055
-355.566	442.163	0.174	-0.377
-354.552	800.000	-0.058	-0.179
-353.537	163.590	0.050	0.069
-352.523	-106.530	0.364	-0.080
-351.508	-142.630	-0.180	0.017
-350.493	535.963	0.086	-0.203
-349.479	-17.620	-0.152	0.094
-348.464	118.893	0.219	-0.267
-347.450	-134.647	-0.200	-0.024
-346.435	362.367	-0.076	0.151
-345.420	-59.442	0.360	-0.153
-344.406	-200.000	-0.003	-0.015
-343.391	-132.203	0.228	0.029
-342.377	-57.205	-0.102	-0.044
-341.362	18.376	0.305	-0.241
-340.348	-95.174	0.283	0.075
-339.333	248.540	-0.059	-0.099
-338.318	129.676	0.081	-0.102
-337.304	141.327	-0.279	0.364
-336.289	169.732	0.204	0.287
-335.275	65.979	0.266	0.266
-334.260	-173.043	-0.093	-0.003
-333.245	-25.390	-0.094	-0.055
-332.231	111.889	0.039	-0.046
-331.216	46.349	0.109	0.099
-330.202	-93.012	0.258	-0.071
-329.187	-133.034	0.089	0.011
-328.172	-200.000	-0.004	0.027
-327.158	-77.847	0.012	-0.004
-326.143	31.292	-0.201	0.170
-325.129	106.523	-0.026	-0.030
-324.114	64.035	0.022	0.022
-323.099	-200.000	0.008	-0.049
-322.085	800.000	-0.137	0.441
-321.070	-190.845	-0.268	-0.003
-320.056	298.745	0.072	0.131
-319.041	247.151	-0.124	-0.206
-318.026	32.653	0.355	-0.303
-317.012	800.000	-0.081	0.242
-315.997	-93.369	-0.543	0.148
-314.983	-0.702	-0.163	0.114
-313.968	800.000	-0.012	0.038
-312.953	569.848	0.022	0.052
-311.939	-113.595	0.357	0.069
-310.924	-200.000	0.006	0.053
-309.910	25.336	-0.243	0.199
-308.895	-200.000	-0.012	0.084
-307.880	-200.000	-0.008	0.180
-306.866	-20.003	-0.234	-0.142
-305.851	-11.374	-0.110	0.071
-304.837	-95.020	-0.167	-0.045
-303.822	-200.000	-0.048	-0.232
-302.807	67.797	0.083	-0.083
-301.793	-200.000	0.016	-0.116
-300.778	-164.897	-0.324	0.014
-299.764	85.035	-0.067	0.072
-298.749	-42.835	-0.122	0.061
-297.735	-163.571	0.440	0.020
-296.720	11.388	-0.063	-0.047
-295.705	800.000	0.075	0.310
-294.691	3.081	0.244	-0.175
-293.676	193.305	-0.171	-0.255
-292.662	-54.268	-0.221	-0.099
-291.647	110.142	0.315	-0.373
-290.632	181.319	0.143	0.207
-289.618	-113.307	-0.383	0.074
-288.603	538.337	0.109	-0.255
-287.589	-51.395	-0.163	-0.075
-286.574	-200.000	0.007	0.315
-285.559	203.792	-0.068	-0.104
-284.545	-78.626	0.358	-0.121
-283.530	800.000	-0.087	-0.252
-282.516	-90.074	-0.064	-0.018
-281.501	-121.066	-0.080	0.013
-280.486	-200.000	-0.007	0.165
-279.472	764.633	0.111	0.297
-278.457	-200.000	-0.007	0.398
-277.443	800.000	0.095	-0.391
-276.428	-100.923	-0.120	-0.029
-275.413	545.788	0.113	0.267
-274.399	-112.276	0.096	0.019
-273.384	96.651	0.100	0.113
-272.370	-113.794	0.180	-0.034
-271.355	145.654	0.112	0.147
-270.340	633.633	0.070	-0.174
-269.326	-11.514	-0.231	-0.149
-268.311	-35.496	0.095	-0.051
-267.297	13.838	0.065	0.049
-266.282	-168.314	0.424	0.016
-265.267	134.324	0.117	0.149
-264.253	800.000	0.035	-0.146
-263.238	-16.304	-0.309	0.193
-262.224	-39.104	-0.184	0.095
-261.209	325.791	0.059	0.110
-260.195	-152.460	0.313	-0.022
-259.180	-42.929	0.153	-0.077
-258.165	-34.206	-0.234	-0.127
-257.151	800.000	-0.086	0.262
-256.136	23.339	0.054	-0.044
-255.122	2.350	-0.240	-0.171
-254.107	103.264	0.072	-0.083
-253.092	-200.000	-0.051	-0.238
-252.078	184.187	0.102	-0.149
-251.063	-44.400	-0.116	-0.057
-250.049	-33.697	0.070	-0.038
-249.034	17.210	0.109	0.085
-248.019	-200.000	-0.054	0.333
-247.005	-84.476	-0.258	-0.080
-245.990	263.436	0.173	0.296
-244.976	60.639	0.261	-0.254
-243.961	433.521	0.136	0.289
-242.946	-41.431	0.289	0.146
-241.932	162.121	0.050	-0.069
-240.917	-103.274	0.429	0.100
-239.903	-38.030	-0.122	0.064
-238.888	-200.000	-0.007	-0.044
-237.873	38.305	0.154	0.135
-236.859	-200.000	-0.026	-0.303
-235.844	441.099	-0.134	-0.287
-234.830	-79.819	0.136	0.045
-233.815	167.555	0.095	0.133
-232.800	-0.067	0.330	0.231
-231.786	-98.632	-0.237	-0.060
-230.771	-60.515	-0.212	-0.089
-229.757	29.592	0.070	-0.058
-228.742	-136.667	-0.255	0.029
-227.727	-200.000	-0.001	0.010
-226.713	201.044	-0.090	-0.136
-225.698	-23.849	0.131	-0.077
-224.684	274.942	-0.155	0.269
-223.669	-37.418	-0.185	-0.097
-222.655	674.882	0.133	-0.338
-221.640	-67.581	0.302	-0.116
-220.625	47.940	0.056	0.052
-219.611	426.871	0.107	-0.227
-218.596	-90.138	-0.281	-0.080
-217.582	66.953	0.048	-0.048
-216.567	-68.108	-0.285	-0.109
-215.552	310.088	-0.102	-0.187
-214.538	-200.000	-0.020	-0.148
-213.523	-200.000	-0.051	0.244
-212.509	97.973	-0.095	-0.107
-211.494	-200.000	-0.054	-0.282
-210.479	800.000	-0.033	0.141
-209.465	-200.000	0.046	-0.259
-208.450	-103.854	0.422	0.097
-207.436	-8.224	0.295	0.195
-206.421	-67.247	0.149	-0.058
-205.406	328.755	0.156	-0.294
-204.392	-53.650	0.081	0.036
-203.377	-120.450	0.374	0.062
-202.363	-139.702	-0.196	0.020
-201.348	226.605	-0.182	0.290
-200.333	-41.234	-0.218	-0.110
-199.319	800.000	0.060	-0.164
-198.304	326.427	0.194	-0.365
-197.290	135.307	-0.152	-0.195
-196.275	800.000	-0.108	-0.360
-195.260	-145.977	0.178	0.015
-194.246	17.393	-0.161	0.126
-193.231	-104.213	-0.140	-0.032
-192.217	-200.000	-0.087	0.692
-191.202	-73.384	0.108	0.039
-190.187	-51.317	-0.248	0.114
-189.173	-106.213	0.479	0.105
-188.158	-95.617	0.286	-0.075
-187.144	-56.906	-0.228	0.099
-186.129	0.919	-0.379	-0.266
-185.114	179.000	-0.246	-0.353
-184.100	438.401	0.116	0.249
-183.085	-200.000	-0.010	-0.082
-182.071	-54.626	0.270	-0.120
-181.056	100.142	0.185	0.211
-180.042	24.553	0.091	-0.074
-179.027	-200.000	-0.006	-0.152
-178.012	93.635	0.137	0.152
-176.998	-200.000	0.068	0.385
-175.983	790.948	0.115	0.309
-174.969	-108.893	-0.181	0.038
-173.954	310.247	0.100	0.184
-172.939	305.313	0.113	0.205
-171.925	-46.928	0.061	-0.029
-170.910	-200.000	0.046	-0.248
-169.896	-169.201	-0.155	0.006
-168.881	-72.705	0.152	0.055
-167.866	-71.381	-0.025	0.009
-166.852	-64.028	0.306	0.122
-165.837	263.092	0.171	0.292
-164.823	-200.000	-0.023	-0.269
-163.808	41.459	-0.068	0.060
-162.793	-106.361	0.203	-0.045
-161.779	45.385	-0.158	-0.143
-160.764	259.558	0.119	-0.201
-159.750	13.115	0.126	0.096
-158.735	-16.380	-0.242	-0.151
-157.720	-200.000	0.572	0.000
-156.706	51.754	-0.261	0.243
-155.691	331.340	0.045	0.085
-154.677	-121.382	0.598	-0.098
-153.662	43.873	-0.111	0.100
-152.647	-151.356	-0.153	0.011
-151.633	-52.073	-0.140	0.064
-150.618	-60.404	0.208	-0.087
-149.604	-200.000	-0.078	0.342
-148.589	-200.000	0.063	0.342
-147.574	-24.835	-0.228	0.133
-146.560	800.000	-0.037	0.141
-145.545	113.027	-0.037	-0.044
-144.531	800.000	0.094	-0.278
-143.516	781.513	-0.124	0.334
-142.502	48.344	-0.084	0.077
-141.487	-124.034	0.220	-0.034
-140.472	14.547	-0.281	-0.215
-139.458	-200.000	0.027	0.351
-138.443	-200.000	0.015	0.277
-137.429	800.000	0.083	0.309
-136.414	-135.991	0.427	-0.049
-135.399	-93.868	0.225	-0.061
-134.385	277.519	0.162	-0.282
-133.370	-15.882	0.181	-0.113
-132.356	7.225	-0.110	0.081
-131.341	-194.951	-0.118	-0.001
-130.326	-168.474	-0.451	-0.017
-129.312	-62.414	-0.398	-0.162
-128.297	-85.921	-0.285	-0.086
-127.283	114.173	-0.215	-0.256
-126.268	800.000	0.068	0.222
-125.253	-149.486	-0.040	-0.003
-124.239	-110.760	-0.070	-0.014
-123.224	800.000	-0.176	0.549
-122.210	-155.380	-0.080	0.005
