DTS Sentinel unit serial number:	SN413079Multiplexer serial number:	ORYXHardware model number:	OX4-SRSoftware version number:	ORYX F/W v4.00 Oryx Data Collector v3.7.2.0data status	okinstallation	princeton_trtdifferential loss correction	single-endedforward channel	channel 1reverse channel	N/Adate	2019/09/12time	19:56:34forward acquisition time	15.00reverse acquisition time	0.00gamma	496.2192k internal	0.2323k external	0.2323temperature offset calibration	1.0144default loss term (dB/km)	0.3790temperature slope calibration	1.0000multiplexer offset coefficient	1.0000multiplexer slope coefficient	1.0000fibre end	0.00T internal ref (°C)	31.81T ext. ref 1 (°C)	3.46T ext. ref 2 (°C)	26.33length (m)	temperature (°C)	Stokes	anti-Stokes-747.200	77.712	0.103	-0.111
-746.185	800.000	-0.046	0.137
-745.171	-39.608	-0.532	0.281
-744.156	-84.280	-1.071	0.342
-743.142	-14.909	-1.043	-0.676
-742.127	280.636	-0.152	-0.274
-741.112	-200.000	0.060	0.271
-740.098	-83.931	0.159	-0.051
-739.083	9.707	0.395	-0.302
-738.069	-200.000	0.176	1.076
-737.054	-71.283	1.027	0.389
-736.039	255.310	0.397	-0.686
-735.025	307.218	-0.636	-1.196
-734.010	732.879	0.162	0.438
-732.996	131.980	0.136	-0.177
-731.981	14.798	0.180	0.142
-730.966	197.518	0.642	-0.990
-729.952	-9.897	-0.473	-0.317
-728.937	-200.000	0.116	-0.560
-727.923	-55.056	-0.397	-0.180
-726.908	402.627	-0.108	0.228
-725.894	553.735	0.457	1.108
-724.879	150.593	-0.385	-0.527
-723.864	-200.000	-0.109	0.553
-722.850	729.148	-0.203	-0.547
-721.835	-189.804	-0.183	0.002
-720.821	-200.000	0.082	-0.708
-719.806	-200.000	-0.032	-0.272
-718.791	-8.322	-0.356	0.242
-717.777	-75.862	-0.214	-0.076
-716.762	205.072	0.337	-0.528
-715.748	95.778	-0.172	0.199
-714.733	-88.758	-0.540	-0.162
-713.718	-43.170	0.250	0.128
-712.704	61.472	-0.431	0.433
-711.689	-200.000	-0.127	-0.834
-710.675	-200.000	-0.095	-0.453
-709.660	800.000	0.175	0.579
-708.645	-200.000	0.036	0.422
-707.631	140.673	0.183	-0.243
-706.616	-200.000	-0.177	-1.065
-705.602	97.049	-0.240	0.277
-704.587	-200.000	-0.124	0.877
-703.572	800.000	-0.149	-0.474
-702.558	-89.271	0.660	-0.196
-701.543	800.000	0.204	0.570
-700.529	151.811	-0.730	-1.003
-699.514	-100.790	0.240	0.060
-698.499	-200.000	0.080	0.753
-697.485	-78.995	0.305	0.105
-696.470	800.000	-0.119	-0.386
-695.456	125.520	0.202	-0.257
-694.441	-200.000	0.093	0.634
-693.426	-95.093	0.126	0.034
-692.412	-200.000	-0.033	0.765
-691.397	-200.000	-0.000	0.027
-690.383	178.619	0.033	0.048
-689.368	-200.000	-0.112	0.663
-688.354	-100.410	0.676	-0.169
-687.339	-108.434	-0.191	0.042
-686.324	-8.397	-0.406	0.275
-685.310	131.034	-0.253	-0.327
-684.295	203.883	0.199	0.311
-683.281	388.231	0.022	-0.047
-682.266	188.432	-0.487	0.733
-681.251	-37.625	0.785	0.421
-680.237	144.654	0.248	-0.333
-679.222	-72.082	1.867	0.698
-678.208	-163.623	-0.311	0.015
-677.193	216.486	0.700	-1.121
-676.178	71.012	0.498	0.520
-675.164	83.227	-0.744	-0.815
-674.149	-200.000	0.034	-0.465
-673.135	84.151	-0.202	-0.222
-672.120	-69.826	0.578	0.222
-671.105	800.000	-0.105	0.378
-670.091	-200.000	-0.090	-0.624
-669.076	-44.650	0.438	-0.220
-668.062	-144.423	0.683	-0.064
-667.047	299.493	0.231	-0.428
-666.032	495.733	0.143	0.330
-665.018	-72.376	0.627	0.234
-664.003	800.000	-0.263	-0.784
-662.989	83.678	0.596	-0.654
-661.974	355.943	-0.127	-0.254
-660.959	723.564	0.277	0.742
-659.945	-49.697	-0.535	-0.256
-658.930	-28.920	0.346	-0.200
-657.916	-28.608	-0.065	0.038
-656.901	800.000	0.196	0.597
-655.886	-75.372	0.611	0.219
-654.872	-200.000	0.010	0.455
-653.857	776.336	-0.245	-0.675
-652.843	800.000	-0.310	0.894
-651.828	-50.059	0.163	0.078
-650.814	-46.921	1.446	0.711
-649.799	800.000	0.084	-0.302
-648.784	-165.437	0.831	-0.037
-647.770	-200.000	-0.039	0.359
-646.755	-162.178	0.654	-0.033
-645.741	-93.901	0.150	0.042
-644.726	-67.604	-0.396	0.156
-643.711	102.383	-0.648	-0.762
-642.697	-60.553	0.632	-0.270
-641.682	-72.714	-0.423	-0.157
-640.668	-97.968	0.726	0.188
-639.653	-90.502	-0.674	-0.196
-638.638	424.529	0.258	0.558
-637.624	68.317	-0.371	0.382
-636.609	-5.489	-0.132	0.091
-635.595	108.349	-0.100	0.120
-634.580	243.373	-0.330	0.557
-633.565	-112.871	0.109	0.022
-632.551	-200.000	0.066	-0.545
-631.536	-27.225	0.376	0.220
-630.522	276.256	-0.599	1.069
-629.507	45.651	0.647	0.601
-628.492	-115.008	-0.654	0.125
-627.478	162.978	-0.161	-0.227
-626.463	272.098	-0.092	-0.164
-625.449	606.222	-0.195	0.489
-624.434	56.789	-0.421	-0.412
-623.419	-65.455	-0.452	0.182
-622.405	-68.524	-0.401	0.156
-621.390	-18.490	-0.601	-0.377
-620.376	19.381	0.450	-0.364
-619.361	-106.149	-0.263	0.059
-618.346	800.000	0.151	0.437
-617.332	314.496	-0.306	-0.580
-616.317	-14.363	0.328	-0.212
-615.303	99.816	-0.417	-0.485
-614.288	800.000	-0.175	0.565
-613.273	38.204	-0.630	0.564
-612.259	-116.088	0.213	-0.040
-611.244	311.023	0.136	0.255
-610.230	-44.345	0.971	0.489
-609.215	800.000	-0.030	0.085
-608.201	82.201	-0.426	-0.464
-607.186	-84.329	-0.489	0.155
-606.171	120.917	-0.128	0.160
-605.157	1.088	-0.152	0.109
-604.142	-200.000	0.051	0.526
-603.128	800.000	0.053	-0.187
-602.113	511.611	-0.187	-0.438
-601.098	343.301	-0.122	-0.240
-600.084	524.446	-0.490	-1.156
-599.069	51.425	0.224	0.214
-598.055	-27.996	-0.751	0.437
-597.040	-25.344	-0.603	0.358
-596.025	-200.000	0.031	-0.450
-595.011	-73.175	0.692	-0.254
-593.996	-41.870	-0.526	0.270
-592.982	155.622	0.316	0.437
-591.967	570.911	-0.276	-0.674
-590.952	168.845	-0.120	0.172
-589.938	-200.000	0.030	0.698
-588.923	98.315	0.267	0.309
-587.909	796.596	0.022	0.061
-586.894	-200.000	0.102	-0.587
-585.879	-200.000	0.037	0.384
-584.865	96.083	-0.123	0.141
-583.850	-59.955	0.743	-0.319
-582.836	-193.188	0.560	0.005
-581.821	-36.072	0.851	-0.461
-580.806	-200.000	0.070	-0.314
-579.792	-190.456	-0.293	-0.003
-578.777	-68.026	0.330	-0.129
-577.763	-107.592	0.219	0.048
-576.748	-87.997	0.592	-0.178
-575.733	-200.000	0.006	0.724
-574.719	112.938	-0.569	-0.691
-573.704	-101.682	-0.224	-0.054
-572.690	-200.000	-0.072	0.547
-571.675	800.000	-0.206	0.710
-570.661	-200.000	0.064	-0.644
-569.646	-200.000	0.022	0.466
-568.631	-63.688	0.388	-0.159
-567.617	51.384	-0.163	-0.155
-566.602	370.918	0.240	-0.488
-565.588	158.700	0.051	0.070
-564.573	55.879	-0.872	-0.848
-563.558	122.942	0.197	0.248
-562.544	274.918	0.275	-0.489
-561.529	-45.282	0.149	-0.074
-560.515	800.000	0.140	-0.480
-559.500	-200.000	-0.103	0.952
-558.485	-72.347	-0.698	-0.259
-557.471	-200.000	0.044	0.343
-556.456	6.326	0.131	0.098
-555.442	-86.001	-0.330	0.102
-554.427	250.260	-0.104	0.177
-553.412	-128.215	-0.089	-0.013
-552.398	-200.000	-0.004	0.311
-551.383	-71.543	-0.789	0.296
-550.369	-200.000	0.057	0.572
-549.354	1.504	0.296	-0.214
-548.339	67.736	0.640	0.655
-547.325	80.495	0.500	0.540
-546.310	800.000	0.105	0.384
-545.296	26.035	-0.061	0.051
-544.281	800.000	0.188	-0.807
-543.266	-123.472	0.469	0.075
-542.252	-117.483	-0.815	-0.148
-541.237	-12.675	-0.400	0.261
-540.223	98.528	-0.085	0.098
-539.208	800.000	-0.170	0.678
-538.193	-54.809	0.364	0.165
-537.179	56.023	0.086	0.084
-536.164	28.685	0.256	0.217
-535.150	47.052	-0.683	0.637
-534.135	-11.431	-0.645	-0.425
-533.121	17.865	-0.260	-0.207
-532.106	-104.228	-0.315	-0.073
-531.091	56.646	-0.442	0.431
-530.077	-200.000	-0.035	0.650
-529.062	4.243	0.618	-0.454
-528.048	-91.606	-0.352	-0.100
-527.033	-200.000	0.018	0.568
-526.018	-89.346	-0.674	0.199
-525.004	-123.260	-0.816	-0.131
-523.989	48.714	-0.209	-0.197
-522.975	-2.358	-0.807	0.566
-521.960	120.154	0.446	0.554
-520.945	247.619	0.211	-0.356
-519.931	-42.692	-0.642	0.327
-518.916	-17.551	0.528	0.332
-517.902	-173.232	-0.444	0.014
-516.887	-28.782	0.644	-0.370
-515.872	254.903	0.936	1.604
-514.858	589.780	-0.153	-0.379
-513.843	-200.000	-0.025	-0.363
-512.829	273.568	0.155	0.274
-511.814	-200.000	-0.011	-0.062
-510.799	-36.312	0.331	0.179
-509.785	59.454	-0.792	-0.781
-508.770	36.091	-0.330	0.291
-507.756	-200.000	0.120	0.546
-506.741	-52.057	-0.376	-0.175
-505.726	-200.000	-0.094	0.446
-504.712	-89.457	-0.299	0.088
-503.697	-115.210	1.478	0.280
-502.683	402.113	-0.286	-0.601
-501.668	-128.013	-0.249	-0.036
-500.653	299.895	-0.271	0.501
-499.639	-16.056	0.343	-0.218
-498.624	-13.472	0.543	0.352
-497.610	596.411	0.350	0.866
-496.595	-92.968	-0.308	0.086
-495.581	-77.991	-0.574	0.198
-494.566	-116.301	-0.411	0.076
-493.551	24.088	0.608	-0.502
-492.537	-21.950	0.577	-0.351
-491.522	51.726	0.311	0.296
-490.508	74.747	0.306	0.322
-489.493	9.436	0.666	0.504
-488.478	-200.000	0.017	-0.743
-487.464	49.782	0.768	-0.723
-486.449	-93.726	0.451	0.124
-485.435	97.350	0.242	0.278
-484.420	196.691	-0.356	0.543
-483.405	-75.901	-0.542	-0.192
-482.391	28.158	-0.545	-0.460
-481.376	800.000	-0.191	0.727
-480.362	101.914	-0.230	0.268
-479.347	800.000	0.293	-1.193
-478.332	-200.000	0.023	0.223
-477.318	682.252	-0.206	-0.536
-476.303	800.000	0.201	-0.636
-475.289	-88.291	0.495	-0.148
-474.274	67.166	0.372	0.379
-473.259	-200.000	0.065	-0.549
-472.245	216.236	0.054	0.086
-471.230	-200.000	-0.029	0.566
-470.216	-68.695	0.265	-0.103
-469.201	11.389	0.772	0.591
-468.186	-90.069	-0.765	0.223
-467.172	-200.000	-0.036	-0.974
-466.157	266.561	-0.244	-0.425
-465.143	-105.621	-0.456	-0.103
-464.128	-111.731	0.354	0.072
-463.113	-40.088	-0.279	0.145
-462.099	502.130	-0.233	-0.538
-461.084	-98.790	0.159	-0.040
-460.070	-1.500	-0.434	-0.305
-459.055	800.000	-0.238	-0.755
-458.040	150.387	0.143	0.194
-457.026	-200.000	0.011	-0.404
-456.011	-107.193	-0.180	-0.040
-454.997	-200.000	-0.036	0.667
-453.982	-200.000	0.002	-0.212
-452.968	26.339	-0.085	0.071
-451.953	-196.590	0.067	0.000
-450.938	-7.246	-0.382	0.258
-449.924	77.607	-0.527	-0.561
-448.909	-122.369	-0.122	0.020
-447.895	-39.762	0.373	0.195
-446.880	-142.965	-0.193	0.019
-445.865	-200.000	-0.134	-1.289
-444.851	6.297	0.762	0.564
-443.836	-101.954	-0.213	0.051
-442.822	298.034	-0.242	-0.443
-441.807	-105.676	0.589	0.133
-440.792	541.997	-0.085	0.203
-439.778	99.587	0.401	0.463
-438.763	-114.774	-0.399	-0.076
-437.749	-137.989	0.458	-0.051
-436.734	800.000	0.162	-0.489
-435.719	32.595	-0.704	-0.607
-434.705	-65.811	0.614	-0.245
-433.690	201.716	0.509	-0.782
-432.676	242.269	0.497	-0.830
-431.661	800.000	0.031	0.097
-430.646	-91.920	0.456	0.129
-429.632	-200.000	-0.234	-1.049
-428.617	-104.762	-0.380	0.087
-427.603	-169.679	0.336	0.012
-426.588	800.000	-0.283	0.976
-425.573	800.000	-0.102	-0.355
-424.559	-141.161	-0.366	0.037
-423.544	119.761	0.244	-0.302
-422.530	43.009	-0.667	-0.607
-421.515	469.310	0.500	-1.119
-420.500	483.102	0.291	-0.660
-419.486	527.726	-0.288	0.677
-418.471	-51.470	0.783	-0.365
-417.457	-15.716	0.023	0.015
-416.442	89.112	-0.211	0.234
-415.428	423.269	0.398	0.853
-414.413	269.356	-0.166	-0.291
-413.398	800.000	0.051	0.194
-412.384	292.782	-0.386	0.701
-411.369	-89.431	-0.078	0.023
-410.355	-97.226	-0.855	-0.222
-409.340	-35.632	-0.334	0.181
-408.325	124.193	0.785	0.983
-407.311	-90.760	0.669	0.192
-406.296	687.329	0.332	0.866
-405.282	41.457	0.580	-0.523
-404.267	106.259	0.115	0.136
-403.252	-50.597	-0.766	0.360
-402.238	-200.000	-0.056	-0.542
-401.223	800.000	-0.388	-1.284
-400.209	741.587	-0.127	-0.339
-399.194	-111.979	0.317	0.064
-398.179	-200.000	-0.049	-0.283
-397.165	800.000	-0.164	-0.554
-396.150	-61.656	0.459	0.192
-395.136	228.774	-0.603	-0.979
-394.121	-200.000	-0.116	-0.636
-393.106	39.548	-0.293	-0.262
-392.092	-200.000	-0.136	0.619
-391.077	800.000	0.224	-0.782
-390.063	153.377	0.413	0.563
-389.048	524.927	-0.269	0.630
-388.033	800.000	-0.188	0.732
-387.019	-63.357	0.181	0.074
-386.004	800.000	-0.116	-0.361
-384.990	-9.518	0.379	-0.252
-383.975	-116.977	0.427	0.078
-382.960	-75.736	-0.451	-0.159
-381.946	549.118	0.155	0.369
-380.931	-200.000	-0.005	-0.443
-379.917	-119.471	0.780	-0.135
-378.902	-128.745	0.639	0.090
-377.888	-151.607	-0.387	-0.028
-376.873	280.586	0.342	0.608
-375.858	-64.278	0.448	0.182
-374.844	1.449	-0.716	0.513
-373.829	800.000	0.070	-0.283
-372.815	-72.071	-0.162	-0.060
-371.800	215.456	-0.071	0.113
-370.785	192.608	0.115	0.173
-369.771	-69.626	-0.350	-0.133
-368.756	-131.539	-0.809	-0.106
-367.742	-200.000	0.014	-0.089
-366.727	-147.806	-0.754	0.063
-365.712	571.244	-0.223	0.540
-364.698	-142.824	-0.384	-0.037
-363.683	-34.622	0.387	-0.211
-362.669	-200.000	0.157	1.041
-361.654	-63.043	-0.176	-0.072
-360.639	87.008	0.338	-0.372
-359.625	-113.649	0.361	-0.070
-358.610	-105.442	0.736	0.166
-357.596	17.089	0.664	0.523
-356.581	124.359	-0.597	-0.746
-355.566	-59.941	-0.445	-0.189
-354.552	-54.967	0.968	-0.434
-353.537	-200.000	-0.046	0.271
-352.523	148.645	0.160	-0.215
-351.508	302.370	-0.211	-0.388
-350.493	-200.000	-0.018	-0.448
-349.479	800.000	0.236	-0.685
-348.464	-164.449	0.428	0.019
-347.450	-200.000	0.023	-0.127
-346.435	418.102	0.267	-0.568
-345.420	-96.923	0.220	-0.057
-344.406	-200.000	-0.020	-0.296
-343.391	-200.000	0.010	0.374
-342.377	-200.000	0.079	0.431
-341.362	-161.503	-0.313	0.016
-340.348	-113.652	-0.863	0.168
-339.333	-10.832	-0.046	-0.030
-338.318	-55.459	0.563	-0.251
-337.304	-126.558	-0.588	0.087
-336.289	-117.609	0.320	-0.057
-335.275	38.891	0.390	-0.346
-334.260	96.645	-0.101	-0.115
-333.245	800.000	-0.217	-0.766
-332.231	22.190	0.662	-0.537
-331.216	-94.828	0.263	-0.071
-330.202	262.774	0.324	0.559
-329.187	-200.000	-0.082	-0.359
-328.172	-200.000	-0.002	0.582
-327.158	-200.000	-0.135	-0.639
-326.143	-200.000	0.011	0.389
-325.129	561.287	-0.125	0.299
-324.114	-75.204	-0.713	-0.253
-323.099	-116.646	1.082	-0.198
-322.085	-200.000	-0.007	0.301
-321.070	-41.607	0.311	-0.159
-320.056	188.637	-0.647	0.961
-319.041	-200.000	0.024	0.524
-318.026	-200.000	-0.147	-0.825
-317.012	142.173	0.100	0.132
-315.997	-200.000	-0.034	-0.381
-314.983	144.876	-0.214	-0.284
-313.968	345.881	-0.389	-0.760
-312.953	800.000	0.185	-0.580
-311.939	800.000	-0.038	-0.157
-310.924	8.448	-0.162	-0.121
-309.910	-87.653	0.583	-0.175
-308.895	66.266	0.136	0.137
-307.880	-109.859	0.224	0.047
-306.866	20.275	-0.351	0.282
-305.851	471.391	0.210	0.469
-304.837	-200.000	0.005	0.450
-303.822	-200.000	-0.036	-0.261
-302.807	800.000	0.215	0.619
-301.793	-112.168	-0.154	-0.031
-300.778	-58.075	-0.780	-0.338
-299.764	302.114	0.245	0.450
-298.749	68.793	-0.710	0.724
-297.735	770.282	0.171	-0.462
-296.720	-64.271	-0.347	-0.140
-295.705	-48.055	-0.861	0.413
-294.691	737.779	-0.200	-0.532
-293.676	-0.371	0.329	-0.232
-292.662	-135.828	0.471	-0.055
-291.647	46.033	-0.430	-0.394
-290.632	126.496	-0.058	-0.072
-289.618	-200.000	0.041	0.483
-288.603	383.116	0.478	-0.976
-287.589	0.281	-0.369	-0.262
-286.574	-161.809	-0.890	0.045
-285.559	-32.758	0.556	0.307
-284.545	255.438	-0.231	0.393
-283.530	-200.000	0.133	-0.653
-282.516	-108.249	0.303	0.065
-281.501	-200.000	0.064	-0.604
-280.486	-200.000	0.081	-0.405
-279.472	-141.505	0.725	0.073
-278.457	-47.239	-0.365	0.176
-277.443	-72.322	-0.855	0.314
-276.428	-79.496	0.265	0.089
-275.413	800.000	-0.260	0.814
-274.399	10.487	0.932	0.704
-273.384	102.047	-0.536	-0.621
-272.370	800.000	0.142	0.538
-271.355	116.915	-0.472	-0.574
-270.340	-200.000	0.154	-0.824
-269.326	-89.242	-0.798	-0.233
-268.311	-36.765	0.098	0.052
-267.297	800.000	-0.251	0.724
-266.282	-123.400	-0.574	0.091
-265.267	-58.865	-0.900	-0.386
-264.253	-103.853	0.225	-0.052
-263.238	-134.146	0.316	0.039
-262.224	-21.933	0.363	0.219
-261.209	61.503	0.536	-0.528
-260.195	221.698	-0.338	0.539
-259.180	25.810	0.525	-0.433
-258.165	-200.000	-0.001	-0.920
-257.151	800.000	-0.219	0.787
-256.136	353.535	-0.205	0.403
-255.122	-63.691	-0.408	0.166
-254.107	504.731	-0.134	-0.307
-253.092	213.429	-0.130	-0.204
-252.078	-83.879	-0.257	-0.081
-251.063	186.273	0.253	0.373
-250.049	-83.825	0.218	0.069
-249.034	-88.194	0.928	0.275
-248.019	-200.000	0.131	0.637
-247.005	-200.000	-0.030	-0.366
-245.990	320.688	-0.219	-0.412
-244.976	35.486	0.227	0.198
-243.961	244.481	0.292	0.485
-242.946	12.658	0.447	-0.342
-241.932	12.961	0.464	0.356
-240.917	-86.710	0.493	-0.149
-239.903	462.690	0.260	-0.575
-238.888	-46.309	-0.274	-0.134
-237.873	157.081	0.378	0.517
-236.859	-31.661	-0.369	-0.205
-235.844	-99.728	-0.213	0.053
-234.830	-151.645	-0.408	0.030
-233.815	420.097	0.182	-0.386
-232.800	-200.000	-0.028	0.334
-231.786	480.879	-0.372	0.835
-230.771	-108.756	0.556	-0.118
-229.757	382.470	0.161	-0.327
-228.742	86.694	-0.271	0.296
-227.727	60.793	-0.218	0.214
-226.713	173.422	0.102	-0.146
-225.698	56.294	0.240	-0.231
-224.684	-200.000	-0.116	0.682
-223.669	38.115	-0.292	0.257
-222.655	299.821	-0.120	-0.219
-221.640	160.335	-0.093	0.128
-220.625	-56.358	-0.553	-0.243
-219.611	200.000	0.306	-0.464
-218.596	800.000	0.079	-0.226
-217.582	-16.866	-0.342	-0.214
-216.567	-155.098	-0.209	-0.014
-215.552	-88.275	0.419	0.124
-214.538	-111.287	0.475	0.096
-213.523	-97.762	0.673	-0.172
-212.509	-98.469	-0.235	-0.060
-211.494	-122.549	0.592	-0.095
-210.479	640.232	-0.093	0.234
-209.465	-86.903	-0.396	0.119
-208.450	800.000	0.147	-0.600
-207.436	273.318	-0.392	0.685
-206.421	-129.051	0.718	-0.099
-205.406	149.223	-0.538	-0.721
-204.392	-91.284	-0.889	0.251
-203.377	800.000	0.086	-0.305
-202.363	-200.000	0.066	0.829
-201.348	-167.233	0.171	-0.007
-200.333	193.241	0.395	0.590
-199.319	-58.433	0.460	0.198
-198.304	-200.000	0.027	0.137
-197.290	-13.310	-0.173	0.111
-196.275	73.966	0.512	0.531
-195.260	-49.805	0.152	-0.071
-194.246	89.386	0.559	0.616
-193.231	193.515	0.309	0.463
-192.217	589.561	0.176	-0.428
-191.202	-118.876	0.884	0.154
-190.187	-113.592	0.281	0.054
-189.173	68.526	-0.257	0.261
-188.158	70.729	0.457	0.468
-187.144	-137.062	-0.143	-0.016
-186.129	233.589	-0.309	-0.502
-185.114	-200.000	0.003	0.465
-184.100	-2.091	-0.694	-0.481
-183.085	240.912	-0.266	0.438
-182.071	83.590	0.223	0.241
-181.056	800.000	0.114	-0.405
-180.042	-200.000	-0.050	-0.276
-179.027	-36.309	0.290	-0.154
-178.012	-200.000	-0.151	-0.877
-176.998	-71.778	0.503	-0.185
-175.983	-122.677	-0.259	-0.041
-174.969	-79.392	-0.951	-0.318
-173.954	-200.000	-0.120	-0.726
-172.939	800.000	0.045	0.193
-171.925	-144.282	0.847	-0.078
-170.910	66.307	-0.146	0.147
-169.896	42.797	-0.483	0.434
-168.881	800.000	-0.288	-0.926
-167.866	-200.000	0.011	-0.187
-166.852	-145.291	-0.442	0.039
-165.837	800.000	0.206	0.607
-164.823	670.648	-0.303	0.775
-163.808	-200.000	-0.015	0.198
-162.793	-78.325	-0.693	-0.235
-161.779	-101.384	0.256	-0.062
-160.764	-200.000	0.017	0.340
-159.750	800.000	0.346	1.292
-158.735	800.000	0.111	-0.449
-157.720	75.149	0.525	-0.546
-156.706	-200.000	-0.009	-0.133
-155.691	-12.541	0.665	0.428
-154.677	168.736	-0.226	0.317
-153.662	-42.965	-0.518	0.259
-152.647	335.028	0.253	-0.483
-151.633	-121.318	0.091	-0.015
-150.618	-96.096	-0.364	0.095
-149.604	50.860	-0.432	0.404
-148.589	115.357	0.473	-0.570
-147.574	-24.047	-0.243	-0.143
-146.560	64.628	0.333	0.331
-145.545	-28.418	0.113	0.064
-144.531	-200.000	-0.010	-0.908
-143.516	-193.783	-0.517	0.004
-142.502	-2.373	-1.073	-0.742
-141.487	-200.000	-0.045	0.713
-140.472	191.576	-0.142	0.211
-139.458	-1.396	-0.560	0.390
-138.443	287.080	-0.345	-0.615
-137.429	31.484	0.442	0.374
-136.414	800.000	-0.079	-0.249
-135.399	-90.608	0.967	0.276
-134.385	72.488	-0.939	0.965
-133.370	129.209	-0.296	0.373
-132.356	708.673	-0.207	-0.541
-131.341	-106.539	0.193	-0.042
-130.326	-200.000	0.057	-0.834
-129.312	448.626	-0.226	-0.491
-128.297	71.042	0.092	-0.094
-127.283	147.934	-0.249	-0.331
-126.268	519.973	-0.254	0.587
-125.253	-23.185	0.143	-0.085
-124.239	13.285	0.344	-0.263
-123.224	-200.000	0.037	-0.616
-122.210	-137.026	0.629	0.071
-121.195	-17.259	0.612	0.380
