DTS Sentinel unit serial number:	SN413079Multiplexer serial number:	ORYXHardware model number:	OX4-SRSoftware version number:	ORYX F/W v4.00 Oryx Data Collector v3.7.2.0data status	okinstallation	princeton_trtdifferential loss correction	single-endedforward channel	channel 1reverse channel	N/Adate	2019/09/11time	04:20:11forward acquisition time	60.00reverse acquisition time	0.00gamma	496.2192k internal	0.2331k external	0.2331temperature offset calibration	0.9927default loss term (dB/km)	0.3790temperature slope calibration	1.0000multiplexer offset coefficient	1.0000multiplexer slope coefficient	1.0000fibre end	0.00T internal ref (°C)	29.56T ext. ref 1 (°C)	-0.27T ext. ref 2 (°C)	23.33length (m)	temperature (°C)	Stokes	anti-Stokes-747.200	-111.517	-0.459	0.094
-746.185	800.000	0.131	0.385
-745.171	-30.768	-0.214	0.122
-744.156	-200.000	-0.008	0.298
-743.142	-16.549	-0.126	-0.081
-742.127	-115.668	0.145	-0.027
-741.112	-123.000	-0.133	-0.022
-740.098	247.713	0.069	0.117
-739.083	800.000	0.011	-0.038
-738.069	630.885	0.061	0.156
-737.054	-49.857	0.105	0.050
-736.039	159.003	0.121	0.169
-735.025	154.974	0.174	0.240
-734.010	-135.303	-0.206	-0.025
-732.996	800.000	0.066	-0.234
-731.981	457.705	-0.110	0.246
-730.966	-167.588	0.277	0.011
-729.952	-200.000	0.031	-0.205
-728.937	-27.231	-0.233	0.136
-727.923	112.700	-0.170	-0.207
-726.908	-200.000	0.015	-0.218
-725.894	-200.000	-0.019	-0.129
-724.879	-17.912	0.196	-0.124
-723.864	-57.018	-0.229	-0.102
-722.850	37.463	0.181	-0.162
-721.835	-200.000	-0.031	-0.283
-720.821	-117.253	0.097	-0.018
-719.806	453.680	-0.178	0.397
-718.791	-96.872	-0.324	0.085
-717.777	-2.288	-0.218	-0.154
-716.762	-69.939	-0.142	0.055
-715.748	800.000	0.014	-0.044
-714.733	-51.906	-0.167	0.078
-713.718	-21.727	-0.120	0.073
-712.704	800.000	-0.108	-0.335
-711.689	-130.580	0.061	-0.008
-710.675	-44.075	-0.261	0.132
-709.660	120.090	0.067	0.084
-708.645	800.000	0.056	-0.246
-707.631	-68.438	-0.102	-0.040
-706.616	196.243	0.063	-0.097
-705.602	91.196	0.219	0.247
-704.587	130.470	-0.152	-0.195
-703.572	-200.000	0.039	0.245
-702.558	192.942	-0.042	0.063
-701.543	171.345	0.074	0.106
-700.529	-200.000	0.072	0.425
-699.514	123.968	-0.014	0.018
-698.499	204.085	-0.112	-0.174
-697.485	24.408	-0.041	0.034
-696.470	-129.205	0.195	-0.027
-695.456	-200.000	0.008	0.185
-694.441	-113.092	-0.034	-0.007
-693.426	-26.100	0.163	0.096
-692.412	800.000	-0.043	0.121
-691.397	107.395	-0.065	0.077
-690.383	65.202	0.105	-0.107
-689.368	-163.090	-0.257	0.012
-688.354	450.962	-0.069	-0.154
-687.339	86.123	-0.175	0.194
-686.324	800.000	0.100	-0.362
-685.310	-200.000	-0.056	-0.299
-684.295	800.000	0.020	0.062
-683.281	55.925	-0.132	-0.128
-682.266	109.663	-0.127	-0.153
-681.251	-99.920	-0.315	-0.079
-680.237	329.388	-0.160	0.309
-679.222	-175.499	0.152	-0.004
-678.208	129.960	-0.140	0.180
-677.193	-35.858	0.261	0.142
-676.178	27.464	-0.083	0.070
-675.164	800.000	0.043	-0.180
-674.149	222.571	0.095	0.153
-673.135	-146.026	-0.259	0.023
-672.120	696.802	0.075	0.197
-671.105	15.715	0.339	-0.268
-670.091	800.000	-0.017	-0.064
-669.076	-121.820	0.281	0.047
-668.062	-155.469	0.364	-0.024
-667.047	236.671	0.097	-0.161
-666.032	-171.455	0.196	-0.007
-665.018	-120.432	-0.075	0.013
-664.003	-83.592	-0.253	-0.081
-662.989	33.816	-0.091	-0.080
-661.974	-160.257	-0.277	-0.015
-660.959	-101.946	0.253	-0.061
-659.945	-17.828	-0.279	-0.176
-658.930	-96.525	-0.369	-0.098
-657.916	-152.691	-0.272	-0.019
-656.901	497.916	-0.001	-0.003
-655.886	-125.284	-0.301	0.046
-654.872	-18.232	0.150	-0.094
-653.857	-129.837	-0.124	-0.017
-652.843	-200.000	0.011	0.130
-651.828	-5.061	0.159	0.110
-650.814	95.066	0.047	-0.054
-649.799	-123.929	-0.119	-0.019
-648.784	-95.981	-0.120	-0.032
-647.770	-78.128	-0.199	0.068
-646.755	-200.000	-0.001	0.165
-645.741	-15.130	-0.157	0.101
-644.726	-63.795	0.208	-0.085
-643.711	800.000	0.076	0.309
-642.697	784.001	0.026	-0.070
-641.682	40.332	-0.347	0.313
-640.668	-200.000	0.060	0.271
-639.653	-103.338	-0.276	0.065
-638.638	-28.673	0.268	-0.155
-637.624	-44.418	0.260	-0.130
-636.609	157.989	-0.082	-0.114
-635.595	-200.000	-0.020	0.164
-634.580	259.876	-0.229	-0.397
-633.565	-48.701	0.091	-0.044
-632.551	295.600	-0.085	0.155
-631.536	205.649	0.197	-0.306
-630.522	-70.124	-0.220	-0.084
-629.507	752.713	-0.044	-0.118
-628.492	-36.362	0.065	-0.035
-627.478	-13.319	-0.181	0.117
-626.463	-129.656	-0.161	-0.022
-625.449	43.589	0.062	-0.057
-624.434	7.079	0.125	0.094
-623.419	-200.000	0.056	0.286
-622.405	-200.000	-0.016	0.080
-621.390	-200.000	-0.006	0.237
-620.376	499.487	-0.085	0.196
-619.361	244.771	-0.142	-0.239
-618.346	4.331	-0.188	-0.138
-617.332	-59.345	-0.152	0.066
-616.317	-79.354	-0.302	-0.102
-615.303	-200.000	0.001	-0.231
-614.288	-170.757	-0.224	0.008
-613.273	339.053	-0.096	0.187
-612.259	82.061	0.092	0.100
-611.244	-60.606	0.147	-0.062
-610.230	800.000	-0.016	-0.058
-609.215	-28.272	-0.139	0.081
-608.201	170.956	-0.232	-0.334
-607.186	-118.257	0.318	0.057
-606.171	-200.000	-0.004	0.112
-605.157	55.623	-0.164	-0.159
-604.142	-45.962	-0.262	-0.129
-603.128	205.640	0.088	0.136
-602.113	-87.294	-0.050	0.015
-601.098	-200.000	-0.053	-0.329
-600.084	-25.697	-0.263	-0.155
-599.069	118.705	0.185	-0.228
-598.055	-50.785	0.294	0.139
-597.040	-127.655	0.303	-0.044
-596.025	-200.000	0.025	0.148
-595.011	-19.678	-0.112	0.069
-593.996	-13.503	-0.150	-0.097
-592.982	220.231	0.090	-0.144
-591.967	-200.000	0.004	-0.378
-590.952	-200.000	-0.002	-0.175
-589.938	601.351	-0.053	-0.133
-588.923	25.479	0.061	0.051
-587.909	-38.007	0.102	-0.054
-586.894	-200.000	-0.023	-0.143
-585.879	-200.000	-0.023	0.133
-584.865	-200.000	-0.011	0.128
-583.850	-108.016	0.132	0.029
-582.836	-29.551	0.002	0.001
-581.821	21.739	-0.150	-0.123
-580.806	-99.384	0.478	-0.120
-579.792	800.000	-0.077	-0.237
-578.777	40.074	-0.168	-0.151
-577.763	-169.983	0.573	-0.020
-576.748	-200.000	-0.038	-0.252
-575.733	-60.760	-0.137	-0.058
-574.719	-200.000	0.012	0.232
-573.704	41.513	-0.094	0.085
-572.690	-10.368	-0.066	0.044
-571.675	-9.233	0.189	-0.126
-570.661	542.304	0.081	0.192
-569.646	-27.820	0.412	-0.239
-568.631	-200.000	0.035	-0.164
-567.617	367.780	0.131	-0.265
-566.602	293.794	0.134	-0.244
-565.588	-40.023	-0.112	0.058
-564.573	-13.478	0.189	0.123
-563.558	800.000	0.110	0.388
-562.544	182.334	0.034	-0.050
-561.529	-109.147	-0.413	-0.088
-560.515	374.530	-0.187	0.380
-559.500	-200.000	-0.033	-0.414
-558.485	182.004	0.130	-0.191
-557.471	-26.545	0.270	0.158
-556.456	207.167	-0.126	-0.197
-555.442	-200.000	0.053	-0.312
-554.427	114.832	-0.103	0.125
-553.412	-105.170	0.246	-0.056
-552.398	546.611	-0.033	-0.078
-551.383	456.089	-0.126	-0.279
-550.369	-23.229	0.211	-0.127
-549.354	586.032	-0.071	0.174
-548.339	20.469	0.033	0.026
-547.325	90.493	0.219	-0.244
-546.310	-72.249	-0.212	-0.078
-545.296	-135.557	-0.195	0.023
-544.281	-138.324	-0.275	0.030
-543.266	-82.225	0.227	-0.074
-542.252	-66.593	-0.169	-0.067
-541.237	-28.062	-0.184	-0.106
-540.223	-200.000	0.006	-0.049
-539.208	-162.636	0.121	-0.006
-538.193	-106.670	0.089	0.020
-537.179	-121.911	-0.168	0.028
-536.164	-112.082	-0.368	-0.074
-535.150	-111.054	-0.116	0.024
-534.135	-98.800	0.224	0.057
-533.121	-155.045	0.168	0.011
-532.106	-200.000	-0.010	0.144
-531.091	69.955	0.165	0.170
-530.077	45.047	0.073	0.067
-529.062	53.396	0.206	-0.197
-528.048	12.781	0.042	0.032
-527.033	412.292	-0.041	-0.086
-526.018	11.379	-0.273	-0.209
-525.004	203.819	0.170	-0.263
-523.989	31.018	-0.084	-0.072
-522.975	22.540	0.178	0.146
-521.960	-200.000	0.002	0.337
-520.945	29.280	-0.238	0.202
-519.931	-124.794	-0.291	-0.045
-518.916	-200.000	0.016	-0.179
-517.902	-23.545	-0.119	0.071
-516.887	-66.181	0.141	0.056
-515.872	217.376	-0.164	-0.261
-514.858	468.545	0.122	-0.274
-513.843	243.263	-0.200	-0.335
-512.829	-23.805	-0.082	0.049
-511.814	586.802	-0.085	-0.209
-510.799	-123.727	0.123	-0.019
-509.785	28.646	0.165	0.139
-508.770	-53.062	0.344	-0.158
-507.756	642.818	-0.113	0.287
-506.741	3.889	-0.213	-0.155
-505.726	-81.984	0.378	-0.123
-504.712	-47.325	0.253	0.123
-503.697	-200.000	-0.025	-0.437
-502.683	-86.767	-0.191	0.058
-501.668	-200.000	-0.016	0.097
-500.653	-200.000	-0.021	0.133
-499.639	-200.000	0.005	0.130
-498.624	-200.000	-0.002	0.072
-497.610	800.000	-0.089	0.317
-496.595	-18.195	-0.295	-0.184
-495.581	59.290	0.244	-0.239
-494.566	21.424	-0.181	-0.146
-493.551	-75.375	-0.232	0.082
-492.537	-58.019	0.329	-0.143
-491.522	-42.720	-0.081	-0.041
-490.508	-200.000	0.044	0.272
-489.493	-99.153	0.338	0.085
-488.478	-186.962	0.194	0.003
-487.464	-27.612	-0.194	-0.112
-486.449	-106.033	-0.230	-0.051
-485.435	190.425	-0.143	-0.214
-484.420	20.470	-0.180	-0.145
-483.405	-85.324	-0.268	-0.083
-482.391	-129.811	-0.147	-0.020
-481.376	800.000	0.045	0.148
-480.362	62.169	0.093	-0.093
-479.347	-12.670	0.168	-0.109
-478.332	-31.210	0.056	-0.031
-477.318	20.236	-0.068	-0.055
-476.303	130.989	-0.376	-0.480
-475.289	800.000	-0.082	0.312
-474.274	16.789	-0.118	0.093
-473.259	46.273	0.182	0.168
-472.245	183.438	-0.019	-0.028
-471.230	5.091	0.138	-0.101
-470.216	108.153	0.082	-0.097
-469.201	123.644	0.095	0.119
-468.186	13.951	-0.052	0.040
-467.172	-200.000	0.056	-0.247
-466.157	209.157	-0.177	-0.277
-465.143	296.664	0.032	0.059
-464.128	800.000	-0.152	0.555
-463.113	-59.296	-0.140	0.060
-462.099	-149.394	0.141	-0.011
-461.084	329.067	0.031	-0.060
-460.070	-94.538	0.331	-0.090
-459.055	65.171	0.096	-0.096
-458.040	335.309	-0.099	-0.191
-457.026	-134.780	0.091	0.011
-456.011	65.955	0.160	-0.161
-454.997	-31.427	-0.351	0.196
-453.982	800.000	0.069	0.226
-452.968	60.988	-0.317	-0.313
-451.953	32.571	0.137	-0.118
-450.938	-37.508	-0.167	-0.089
-449.924	-103.629	0.316	-0.074
-448.909	-200.000	0.021	-0.110
-447.895	-37.272	0.142	-0.076
-446.880	-82.165	-0.530	0.172
-445.865	-144.732	-0.193	0.018
-444.851	-52.489	0.068	-0.031
-443.836	-9.443	0.252	0.168
-442.822	-180.586	0.204	-0.004
-441.807	65.306	0.126	0.127
-440.792	800.000	0.092	0.396
-439.778	-24.895	-0.272	0.161
-438.763	332.636	-0.095	-0.182
-437.749	-200.000	-0.028	0.259
-436.734	-200.000	0.053	0.262
-435.719	60.810	0.223	0.220
-434.705	719.791	0.143	0.378
-433.690	27.667	0.167	-0.139
-432.676	800.000	0.090	-0.378
-431.661	-200.000	-0.022	-0.411
-430.646	-200.000	0.018	-0.150
-429.632	-16.664	-0.407	0.256
-428.617	-73.087	0.179	-0.065
-427.603	41.501	-0.093	-0.084
-426.588	-86.526	-0.336	-0.102
-425.573	39.080	0.137	0.122
-424.559	10.315	-0.278	-0.210
-423.544	-5.832	0.251	0.171
-422.530	-98.072	0.184	-0.047
-421.515	154.328	-0.194	0.264
-420.500	245.168	0.062	0.103
-419.486	171.295	-0.045	0.065
-418.471	-134.420	-0.163	-0.020
-417.457	775.185	0.045	0.123
-416.442	-28.317	0.198	-0.114
-415.428	634.876	-0.038	-0.095
-414.413	790.897	-0.052	-0.143
-413.398	-10.713	0.041	0.027
-412.384	-200.000	0.004	-0.146
-411.369	-61.952	-0.089	-0.037
-410.355	57.424	-0.119	0.116
-409.340	-200.000	-0.057	0.345
-408.325	-13.158	0.196	0.126
-407.311	-200.000	-0.029	0.245
-406.296	202.535	-0.065	0.100
-405.282	-82.308	0.419	0.135
-404.267	333.223	0.078	-0.150
-403.252	-58.151	-0.352	-0.152
-402.238	-66.130	0.255	-0.101
-401.223	-104.029	0.095	0.022
-400.209	150.792	-0.163	-0.220
-399.194	327.407	0.118	-0.224
-398.179	780.042	-0.170	0.462
-397.165	-200.000	-0.007	0.112
-396.150	-200.000	0.060	-0.261
-395.136	104.742	0.118	-0.138
-394.121	49.674	0.189	0.177
-393.106	303.027	-0.033	0.061
-392.092	-97.336	-0.195	0.051
-391.077	-200.000	0.022	0.142
-390.063	150.761	0.198	-0.268
-389.048	-153.260	0.131	-0.009
-388.033	-153.075	-0.299	0.021
-387.019	415.963	0.099	0.210
-386.004	77.781	-0.121	0.128
-384.990	-70.440	0.166	0.062
-383.975	-200.000	-0.013	-0.221
-382.960	4.710	0.270	0.197
-381.946	216.566	0.050	-0.078
-380.931	-70.937	-0.324	-0.121
-379.917	-100.327	0.194	0.048
-378.902	-16.721	-0.069	-0.043
-377.888	67.266	-0.203	-0.205
-376.873	-200.000	0.042	0.303
-375.858	-200.000	-0.062	0.329
-374.844	-64.574	0.091	-0.036
-373.829	-67.875	0.423	-0.164
-372.815	46.004	0.377	0.346
-371.800	-200.000	-0.018	0.292
-370.785	60.648	-0.209	0.205
-369.771	-200.000	-0.005	-0.032
-368.756	62.103	-0.316	-0.312
-367.742	-109.078	-0.149	-0.031
-366.727	522.301	0.015	0.034
-365.712	-32.373	0.501	0.277
-364.698	-153.274	0.043	-0.003
-363.683	-200.000	-0.016	0.335
-362.669	-34.291	-0.208	0.113
-361.654	427.658	-0.051	-0.110
-360.639	-5.477	-0.214	0.145
-359.625	-200.000	0.002	0.075
-358.610	800.000	0.159	-0.482
-357.596	214.419	0.008	0.013
-356.581	-130.737	-0.124	-0.016
-355.566	279.947	0.069	-0.122
-354.552	-31.185	0.216	0.121
-353.537	-116.718	0.339	0.062
-352.523	513.302	-0.043	-0.100
-351.508	-10.102	0.205	-0.135
-350.493	490.573	-0.128	0.290
-349.479	-200.000	0.004	0.153
-348.464	-97.080	0.256	-0.066
-347.450	218.434	-0.109	-0.172
-346.435	-78.657	0.227	-0.077
-345.420	-89.746	0.445	-0.129
-344.406	640.464	0.098	0.248
-343.391	420.405	0.136	-0.289
-342.377	-200.000	0.017	0.179
-341.362	-200.000	-0.029	-0.181
-340.348	26.256	-0.244	0.202
-339.333	564.203	0.058	-0.140
-338.318	-82.485	0.176	-0.057
-337.304	-200.000	0.003	-0.100
-336.289	-41.204	-0.188	0.096
-335.275	-27.102	-0.151	-0.087
-334.260	-200.000	-0.042	0.351
-333.245	78.393	-0.367	-0.388
-332.231	-122.297	-0.278	-0.045
-331.216	800.000	0.078	0.338
-330.202	-200.000	-0.076	0.333
-329.187	-83.996	-0.204	-0.064
-328.172	-195.033	-0.255	-0.002
-327.158	124.336	-0.145	-0.181
-326.143	451.621	0.093	0.202
-325.129	37.518	0.202	0.177
-324.114	800.000	0.136	0.472
-323.099	140.602	-0.074	-0.097
-322.085	-63.887	0.126	0.051
-321.070	-200.000	0.018	0.145
-320.056	20.514	0.174	-0.139
-319.041	37.307	-0.153	-0.134
-318.026	442.340	-0.083	0.180
-317.012	800.000	-0.034	0.126
-315.997	163.403	-0.056	-0.077
-314.983	14.112	-0.023	0.018
-313.968	-200.000	-0.033	-0.152
-312.953	252.637	0.048	-0.081
-311.939	-151.733	0.208	-0.015
-310.924	148.321	-0.123	0.165
-309.910	51.097	0.058	-0.054
-308.895	386.408	-0.190	0.388
-307.880	800.000	0.086	0.288
-306.866	800.000	0.025	-0.084
-305.851	349.116	0.113	0.220
-304.837	257.800	-0.174	0.297
-303.822	128.680	0.196	-0.247
-302.807	800.000	-0.033	0.140
-301.793	-51.115	-0.127	0.059
-300.778	-47.638	-0.369	0.177
-299.764	-8.049	-0.321	-0.214
-298.749	-127.847	-0.327	0.047
-297.735	-36.229	-0.189	-0.101
-296.720	206.927	0.146	-0.225
-295.705	91.965	-0.169	-0.188
-294.691	-100.265	-0.333	-0.082
-293.676	800.000	0.075	0.320
-292.662	800.000	-0.074	0.305
-291.647	286.147	-0.190	-0.339
-290.632	181.236	0.101	0.147
-289.618	-200.000	-0.013	-0.173
-288.603	-55.161	-0.072	-0.032
-287.589	50.007	0.168	0.156
-286.574	93.767	0.033	0.037
-285.559	64.437	0.148	-0.147
-284.545	58.154	0.166	-0.161
-283.530	800.000	-0.178	0.537
-282.516	-200.000	-0.063	0.420
-281.501	-52.833	0.171	-0.078
-280.486	104.231	-0.282	-0.328
-279.472	141.499	0.262	-0.343
-278.457	-200.000	0.043	-0.204
-277.443	411.340	0.081	0.170
-276.428	-47.842	-0.132	0.063
-275.413	155.037	0.331	0.450
-274.399	83.744	0.220	0.237
-273.384	-200.000	0.024	0.218
-272.370	-84.726	0.300	0.093
-271.355	-200.000	0.014	0.242
-270.340	23.298	0.310	0.252
-269.326	-2.874	0.126	0.087
-268.311	-104.418	0.095	0.022
-267.297	178.653	-0.092	-0.133
-266.282	65.158	0.199	-0.199
-265.267	-158.468	-0.132	-0.008
-264.253	-127.932	-0.120	0.017
-263.238	27.789	0.171	0.143
-262.224	-103.232	0.331	-0.077
-261.209	71.137	-0.364	-0.373
-260.195	373.333	-0.179	0.359
-259.180	-116.875	-0.241	-0.044
-258.165	-50.134	0.229	-0.107
-257.151	301.748	0.055	0.100
-256.136	71.014	0.170	0.174
-255.122	-73.625	-0.226	0.081
-254.107	-20.560	0.180	0.109
-253.092	-75.668	-0.134	-0.047
-252.078	180.842	0.143	-0.208
-251.063	-134.826	0.154	0.018
-250.049	330.394	-0.067	0.127
-249.034	24.707	-0.261	0.213
-248.019	86.598	0.147	-0.160
-247.005	-1.042	-0.237	-0.166
-245.990	-135.981	0.166	0.019
-244.976	-168.482	-0.432	0.016
-243.961	-200.000	-0.028	0.127
-242.946	-177.794	-0.325	-0.008
-241.932	283.001	-0.144	0.255
-240.917	-159.525	-0.108	-0.006
-239.903	215.135	-0.116	0.181
-238.888	-108.876	-0.153	0.032
-237.873	514.113	-0.027	0.061
-236.859	800.000	0.054	0.212
-235.844	-69.082	0.188	-0.071
-234.830	-41.062	0.124	-0.063
-233.815	-37.004	-0.123	-0.065
-232.800	-174.409	0.261	0.007
-231.786	9.982	-0.220	-0.165
-230.771	-200.000	-0.070	0.376
-229.757	-200.000	-0.066	0.307
-228.742	-133.154	-0.233	-0.029
-227.727	78.884	0.212	0.224
-226.713	-98.678	-0.275	0.069
-225.698	3.781	-0.093	0.067
-224.684	405.123	-0.155	-0.322
-223.669	-118.008	-0.104	-0.018
-222.655	-48.564	-0.320	0.152
-221.640	-85.081	-0.162	-0.050
-220.625	-200.000	0.013	-0.193
-219.611	170.801	-0.225	0.317
-218.596	244.272	0.126	-0.209
-217.582	-200.000	0.014	-0.202
-216.567	800.000	0.115	-0.376
-215.552	320.822	-0.104	-0.194
-214.538	671.514	0.033	-0.085
-213.523	372.602	0.080	-0.160
-212.509	-63.129	0.155	-0.063
-211.494	14.080	-0.191	-0.146
-210.479	155.167	-0.176	0.239
-209.465	34.677	0.223	0.192
-208.450	800.000	0.081	0.312
-207.436	-42.010	0.279	0.141
-206.421	270.150	0.096	0.166
-205.406	-22.616	0.131	0.078
-204.392	-21.216	0.164	0.099
-203.377	-83.668	0.201	-0.063
-202.363	118.410	0.093	-0.113
-201.348	800.000	0.066	0.215
-200.333	-15.231	-0.232	0.147
-199.319	-200.000	0.029	0.175
-198.304	800.000	-0.025	0.084
-197.290	33.202	-0.356	-0.305
-196.275	47.693	-0.079	-0.073
-195.260	-200.000	0.058	-0.304
-194.246	-92.177	0.288	-0.080
-193.231	99.518	-0.222	0.253
-192.217	-83.188	0.288	-0.091
-191.202	-82.948	0.116	-0.037
-190.187	42.791	-0.202	-0.182
-189.173	768.739	0.068	-0.181
-188.158	-200.000	-0.009	-0.099
-187.144	322.968	0.088	-0.166
-186.129	54.409	-0.312	-0.296
-185.114	279.907	0.040	0.070
-184.100	800.000	-0.075	-0.253
-183.085	352.828	0.131	0.255
-182.071	-171.333	0.211	-0.007
-181.056	800.000	-0.058	0.173
-180.042	66.316	0.171	-0.171
-179.027	-94.461	0.252	0.068
-178.012	800.000	0.122	0.498
-176.998	-60.648	0.396	-0.166
-175.983	-200.000	-0.026	-0.211
-174.969	-71.016	0.278	-0.103
-173.954	-114.979	-0.158	-0.030
-172.939	-98.890	0.082	0.021
-171.925	-151.983	0.508	-0.036
-170.910	8.280	-0.347	-0.256
-169.896	127.744	-0.030	0.038
-168.881	56.292	0.186	-0.178
-167.866	-200.000	-0.024	-0.119
-166.852	115.388	0.025	0.030
-165.837	-89.263	0.190	-0.055
-164.823	-56.982	0.227	0.099
-163.808	11.756	0.139	0.105
-162.793	-140.682	0.465	-0.047
-161.779	-188.832	-0.148	0.002
-160.764	-35.690	-0.359	-0.192
-159.750	800.000	0.017	0.053
-158.735	400.157	-0.042	-0.086
-157.720	59.278	-0.057	0.056
-156.706	-136.257	-0.204	-0.023
-155.691	89.539	0.151	-0.166
-154.677	162.510	0.160	0.220
-153.662	-200.000	-0.057	-0.276
-152.647	-71.511	-0.226	0.083
-151.633	383.367	0.064	0.129
-150.618	-200.000	-0.097	-0.000
-149.604	800.000	-0.023	0.070
-148.589	-165.889	0.208	-0.009
-147.574	4.345	0.092	-0.066
-146.560	216.761	-0.139	0.218
-145.545	-103.397	0.288	0.067
-144.531	800.000	-0.125	0.378
-143.516	50.449	0.276	-0.256
-142.502	83.724	0.254	-0.272
-141.487	-83.303	0.111	-0.035
-140.472	800.000	-0.058	0.208
-139.458	-62.571	0.231	-0.094
-138.443	-200.000	0.008	0.136
-137.429	88.797	-0.117	-0.128
-136.414	-200.000	-0.002	0.455
-135.399	427.770	0.061	-0.130
-134.385	-136.617	0.394	0.045
-133.370	-19.222	0.201	-0.123
-132.356	800.000	0.077	0.307
-131.341	160.456	-0.153	-0.210
-130.326	-52.636	-0.202	-0.092
-129.312	-150.048	0.384	0.029
-128.297	114.932	-0.289	0.346
-127.283	-200.000	0.003	-0.110
-126.268	-148.569	0.146	0.012
-125.253	-62.204	0.196	-0.080
-124.239	293.824	0.178	0.319
-123.224	-162.522	0.300	-0.015
-122.210	800.000	0.047	-0.169
-121.195	-35.561	0.374	0.199
