DTS Sentinel unit serial number:	SN413079Multiplexer serial number:	ORYXHardware model number:	OX4-SRSoftware version number:	ORYX F/W v4.00 Oryx Data Collector v3.7.2.0data status	okinstallation	princeton_trtdifferential loss correction	single-endedforward channel	channel 1reverse channel	N/Adate	2019/09/14time	23:22:35forward acquisition time	60.00reverse acquisition time	0.00gamma	496.2192k internal	0.2320k external	0.2320temperature offset calibration	0.9995default loss term (dB/km)	0.3790temperature slope calibration	1.0000multiplexer offset coefficient	1.0000multiplexer slope coefficient	1.0000fibre end	0.00T internal ref (°C)	32.37T ext. ref 1 (°C)	4.64T ext. ref 2 (°C)	27.41length (m)	temperature (°C)	Stokes	anti-Stokes-747.200	-116.290	-0.020	-0.004
-746.185	-45.248	-0.065	-0.032
-745.171	-62.375	-0.267	-0.112
-744.156	627.036	-0.050	0.128
-743.142	413.113	-0.033	-0.071
-742.127	-16.085	-0.107	0.069
-741.112	-138.198	-0.139	0.016
-740.098	-75.097	0.160	0.058
-739.083	-75.017	0.244	0.088
-738.069	200.473	0.166	0.258
-737.054	597.566	0.046	0.115
-736.039	-200.000	-0.002	-0.139
-735.025	-80.211	0.405	0.137
-734.010	137.339	-0.144	0.191
-732.996	121.022	-0.213	0.268
-731.981	800.000	-0.081	0.352
-730.966	-40.247	-0.125	0.066
-729.952	-53.543	0.291	-0.135
-728.937	-101.696	-0.306	0.075
-727.923	-176.484	-0.278	0.007
-726.908	-103.054	0.067	-0.016
-725.894	378.009	-0.055	-0.113
-724.879	-200.000	0.023	0.191
-723.864	72.909	-0.042	0.044
-722.850	-105.976	-0.316	-0.072
-721.835	-78.752	0.150	-0.052
-720.821	-200.000	0.014	-0.324
-719.806	-58.066	0.038	-0.017
-718.791	55.618	-0.144	0.141
-717.777	-200.000	-0.002	-0.320
-716.762	-200.000	0.002	-0.011
-715.748	-200.000	0.002	-0.225
-714.733	-27.552	-0.230	0.135
-713.718	151.745	0.055	-0.076
-712.704	34.927	-0.238	0.210
-711.689	-187.003	0.116	0.002
-710.675	-181.517	-0.109	0.002
-709.660	147.985	-0.115	0.157
-708.645	-200.000	-0.043	-0.332
-707.631	-18.523	-0.273	-0.172
-706.616	800.000	-0.077	-0.228
-705.602	-200.000	-0.010	-0.047
-704.587	-200.000	0.031	-0.242
-703.572	800.000	-0.096	-0.399
-702.558	12.443	-0.148	-0.115
-701.543	-200.000	0.001	0.073
-700.529	-200.000	0.006	-0.309
-699.514	-17.141	-0.226	-0.144
-698.499	0.489	0.142	-0.102
-697.485	800.000	-0.046	-0.147
-696.470	-85.984	-0.252	0.079
-695.456	-200.000	-0.003	-0.048
-694.441	749.125	0.029	0.079
-693.426	-136.590	0.121	0.014
-692.412	-103.185	-0.357	0.085
-691.397	7.095	0.151	-0.114
-690.383	-20.748	0.312	-0.193
-689.368	-156.667	0.406	0.025
-688.354	-52.289	0.300	0.140
-687.339	-129.307	0.224	0.031
-686.324	-200.000	-0.058	-0.000
-685.310	6.484	-0.191	0.144
-684.295	-47.744	-0.324	0.158
-683.281	197.949	0.157	0.241
-682.266	0.956	-0.181	0.131
-681.251	800.000	-0.081	-0.304
-680.237	800.000	-0.006	0.020
-679.222	147.043	0.072	-0.098
-678.208	800.000	-0.150	0.461
-677.193	393.882	0.053	-0.111
-676.178	-200.000	-0.037	0.192
-675.164	-200.000	-0.020	-0.112
-674.149	-200.000	-0.021	-0.177
-673.135	27.066	-0.146	0.124
-672.120	-106.538	-0.183	0.041
-671.105	800.000	0.015	0.051
-670.091	499.324	0.037	0.087
-669.076	28.656	-0.140	-0.120
-668.062	-42.028	0.170	-0.088
-667.047	-56.496	-0.126	0.056
-666.032	-200.000	0.014	-0.344
-665.018	-105.185	-0.257	0.059
-664.003	-84.870	0.346	0.110
-662.989	-29.805	-0.207	0.119
-661.974	-200.000	-0.002	-0.138
-660.959	-200.000	0.032	0.191
-659.945	332.480	-0.086	0.167
-658.930	-104.532	-0.045	0.011
-657.916	-32.966	-0.111	-0.062
-656.901	-200.000	-0.003	0.082
-655.886	96.254	-0.171	0.197
-654.872	240.293	-0.037	-0.063
-653.857	236.561	-0.097	-0.162
-652.843	-200.000	0.014	0.184
-651.828	280.976	0.092	0.167
-650.814	-25.366	0.070	-0.042
-649.799	-101.684	-0.453	0.111
-648.784	-10.363	0.103	0.069
-647.770	421.950	0.091	0.198
-646.755	288.455	-0.086	-0.157
-645.741	265.104	-0.119	-0.209
-644.726	-65.632	0.154	0.062
-643.711	-200.000	0.318	0.001
-642.697	800.000	-0.115	-0.428
-641.682	158.136	-0.032	0.045
-640.668	-83.789	-0.150	-0.048
-639.653	-98.092	0.121	0.031
-638.638	62.761	-0.151	0.152
-637.624	800.000	-0.045	-0.142
-636.609	-200.000	-0.037	-0.327
-635.595	-200.000	-0.024	-0.289
-634.580	-194.991	-0.170	0.001
-633.565	-58.763	-0.072	-0.031
-632.551	182.819	0.111	-0.166
-631.536	-157.124	-0.159	-0.010
-630.522	185.559	-0.060	-0.090
-629.507	577.176	-0.044	0.107
-628.492	73.093	0.064	-0.067
-627.478	472.062	0.116	-0.262
-626.463	-87.683	0.153	0.046
-625.449	-109.836	-0.127	-0.027
-624.434	-3.556	-0.089	-0.062
-623.419	-52.174	0.146	0.068
-622.405	24.305	0.075	-0.062
-621.390	89.294	0.091	0.102
-620.376	-200.000	0.015	0.218
-619.361	206.085	0.058	-0.091
-618.346	800.000	0.025	-0.080
-617.332	32.182	0.052	0.045
-616.317	800.000	-0.079	-0.243
-615.303	150.724	-0.207	-0.283
-614.288	-115.857	0.073	0.014
-613.273	799.183	-0.060	-0.167
-612.259	-200.000	0.052	-0.500
-611.244	-200.000	-0.013	-0.187
-610.230	-200.000	0.012	-0.118
-609.215	-169.169	-0.054	-0.002
-608.201	-49.331	-0.052	-0.025
-607.186	601.451	-0.075	-0.188
-606.171	148.599	0.197	0.268
-605.157	-132.407	0.193	0.025
-604.142	-147.440	0.256	0.022
-603.128	-200.000	-0.031	0.161
-602.113	-26.355	-0.181	-0.107
-601.098	-200.000	0.025	-0.365
-600.084	-33.231	-0.146	-0.081
-599.069	-200.000	-0.008	0.080
-598.055	-200.000	-0.017	-0.275
-597.040	-200.000	-0.079	-0.378
-596.025	-70.480	-0.103	-0.039
-595.011	-18.805	0.188	0.118
-593.996	540.434	-0.055	0.132
-592.982	300.778	0.057	-0.106
-591.967	800.000	0.064	-0.263
-590.952	-0.523	-0.204	-0.145
-589.938	-149.166	0.404	0.033
-588.923	463.338	0.108	0.242
-587.909	-167.016	-0.285	0.012
-586.894	-69.736	0.406	0.156
-585.879	-200.000	0.013	-0.132
-584.865	23.498	-0.188	-0.155
-583.850	51.309	0.178	0.170
-582.836	24.991	-0.176	-0.146
-581.821	-50.925	-0.357	-0.169
-580.806	-121.977	0.142	0.024
-579.792	674.998	0.048	0.126
-578.777	-73.271	-0.219	-0.081
-577.763	413.348	-0.118	-0.252
-576.748	-92.858	0.214	0.060
-575.733	634.384	-0.051	0.131
-574.719	800.000	-0.016	0.065
-573.704	-91.309	-0.078	0.023
-572.690	-96.946	0.272	-0.072
-571.675	307.454	-0.091	0.170
-570.661	-109.633	0.096	-0.020
-569.646	-200.000	0.022	-0.147
-568.631	-107.605	0.282	0.062
-567.617	-94.078	0.088	0.024
-566.602	-114.649	-0.352	-0.068
-565.588	-200.000	-0.015	-0.204
-564.573	57.837	0.304	-0.298
-563.558	146.883	0.083	-0.113
-562.544	-166.506	0.051	-0.002
-561.529	188.015	0.159	0.239
-560.515	35.336	-0.091	0.080
-559.500	119.262	-0.175	0.218
-558.485	421.459	-0.043	0.092
-557.471	-102.113	-0.284	0.069
-556.456	338.732	-0.198	0.387
-555.442	-69.346	-0.275	-0.106
-554.427	235.143	0.229	0.379
-553.412	66.359	-0.141	-0.144
-552.398	-200.000	-0.020	-0.171
-551.383	75.496	-0.079	-0.084
-550.369	-61.879	-0.259	-0.109
-549.354	464.360	-0.062	-0.140
-548.339	507.858	0.147	-0.342
-547.325	-12.528	0.056	-0.037
-546.310	-200.000	0.000	-0.176
-545.296	-200.000	0.000	-0.365
-544.281	67.475	-0.148	0.152
-543.266	-189.555	0.091	-0.001
-542.252	-200.000	0.084	-0.583
-541.237	794.904	-0.060	-0.166
-540.223	92.524	-0.191	0.216
-539.208	-200.000	0.028	-0.256
-538.193	29.235	0.205	-0.175
-537.179	-93.972	0.049	-0.014
-536.164	-200.000	0.000	-0.007
-535.150	529.186	-0.080	0.190
-534.135	-200.000	-0.056	-0.313
-533.121	-123.517	0.282	0.045
-532.106	146.902	-0.036	-0.048
-531.091	69.040	0.314	0.324
-530.077	-55.049	0.269	0.121
-529.062	58.737	0.232	0.228
-528.048	-11.584	0.134	-0.088
-527.033	-46.861	0.124	0.061
-526.018	800.000	0.076	0.220
-525.004	9.099	-0.496	0.375
-523.989	-66.118	0.059	0.024
-522.975	155.869	-0.085	0.118
-521.960	-26.692	-0.258	-0.151
-520.945	23.463	0.069	0.057
-519.931	284.545	0.172	0.310
-518.916	-120.862	0.104	0.018
-517.902	130.173	0.264	0.339
-516.887	-132.760	0.033	-0.004
-515.872	14.278	0.270	-0.211
-514.858	-146.483	0.145	-0.013
-513.843	-200.000	0.020	0.173
-512.829	262.207	0.018	0.031
-511.814	200.397	-0.079	0.122
-510.799	298.179	-0.132	-0.244
-509.785	62.634	-0.195	-0.195
-508.770	-200.000	-0.038	0.432
-507.756	-71.428	-0.288	0.108
-506.741	-138.801	-0.410	-0.045
-505.726	-150.931	0.138	0.010
-504.712	-100.031	0.080	0.020
-503.697	-200.000	-0.029	0.130
-502.683	800.000	0.066	-0.194
-501.668	458.740	0.077	-0.172
-500.653	170.922	0.180	0.259
-499.639	171.394	-0.311	0.447
-498.624	-15.109	-0.030	0.019
-497.610	-200.000	-0.148	-0.000
-496.595	316.407	-0.061	0.116
-495.581	-36.339	0.279	0.151
-494.566	-119.854	-0.181	0.031
-493.551	800.000	-0.052	0.179
-492.537	-58.492	0.378	0.164
-491.522	284.947	0.172	-0.310
-490.508	440.238	-0.091	0.199
-489.493	94.690	0.172	-0.196
-488.478	800.000	-0.035	0.105
-487.464	-133.598	0.254	0.032
-486.449	13.634	0.053	-0.041
-485.435	297.119	0.156	-0.286
-484.420	-28.563	0.201	-0.116
-483.405	225.050	-0.285	-0.461
-482.391	-200.000	0.013	-0.067
-481.376	-89.607	-0.276	-0.081
-480.362	-200.000	0.004	0.116
-479.347	-6.803	0.243	0.165
-478.332	800.000	-0.122	0.363
-477.318	-82.244	-0.280	0.091
-476.303	-40.518	-0.456	-0.237
-475.289	-170.074	-0.240	-0.009
-474.274	-200.000	0.004	0.381
-473.259	-118.111	-0.194	0.035
-472.245	-120.305	0.153	0.026
-471.230	-101.570	0.309	-0.075
-470.216	-200.000	-0.072	0.342
-469.201	100.032	0.041	-0.047
-468.186	112.687	0.079	0.096
-467.172	35.530	-0.119	0.105
-466.157	36.612	0.400	0.353
-465.143	292.492	-0.065	0.118
-464.128	800.000	0.149	-0.449
-463.113	-49.779	-0.241	0.115
-462.099	13.620	-0.105	-0.082
-461.084	-36.318	0.271	0.146
-460.070	800.000	0.046	-0.144
-459.055	346.641	-0.115	-0.226
-458.040	156.075	0.213	-0.294
-457.026	381.121	-0.040	-0.083
-456.011	232.149	-0.177	0.291
-454.997	178.307	-0.125	-0.182
-453.982	388.732	-0.056	-0.116
-452.968	-21.750	-0.192	-0.117
-451.953	57.836	0.134	-0.132
-450.938	-76.676	-0.243	-0.085
-449.924	687.526	0.076	0.198
-448.909	-38.452	0.240	0.127
-447.895	-16.516	-0.356	0.226
-446.880	-200.000	0.008	0.079
-445.865	-52.576	0.261	0.120
-444.851	800.000	0.095	0.338
-443.836	-200.000	-0.003	0.414
-442.822	800.000	0.080	0.326
-441.807	-47.328	-0.066	-0.032
-440.792	124.136	0.067	-0.084
-439.778	-40.434	-0.309	-0.161
-438.763	-141.627	-0.041	0.004
-437.749	45.108	-0.129	0.118
-436.734	194.629	0.166	0.252
-435.719	73.723	0.146	-0.153
-434.705	183.264	-0.073	-0.108
-433.690	-18.891	0.268	0.166
-432.676	123.943	0.121	0.152
-431.661	5.338	-0.339	0.250
-430.646	306.474	-0.166	0.309
-429.632	-100.602	0.173	-0.043
-428.617	-127.614	-0.237	-0.034
-427.603	-200.000	0.062	-0.622
-426.588	-78.557	-0.091	-0.031
-425.573	-200.000	0.017	-0.127
-424.559	738.059	-0.088	-0.237
-423.544	63.190	-0.096	0.096
-422.530	81.261	-0.160	0.173
-421.515	-98.301	0.268	0.069
-420.500	-148.054	0.078	0.006
-419.486	239.913	-0.262	-0.435
-418.471	-38.661	0.380	-0.200
-417.457	-24.465	0.200	-0.119
-416.442	-123.007	-0.378	-0.061
-415.428	4.794	-0.113	-0.083
-414.413	-198.264	0.115	0.001
-413.398	33.614	-0.291	0.252
-412.384	12.380	-0.171	0.132
-411.369	68.294	0.138	0.141
-410.355	120.653	0.153	0.190
-409.340	-107.434	-0.174	-0.038
-408.325	-167.200	0.167	0.007
-407.311	144.198	-0.194	0.258
-406.296	31.974	-0.042	-0.036
-405.282	-112.970	-0.197	0.039
-404.267	-17.635	0.170	-0.106
-403.252	471.717	-0.038	-0.085
-402.238	800.000	0.082	-0.236
-401.223	52.315	-0.346	-0.330
-400.209	10.535	0.215	0.163
-399.194	-200.000	-0.011	0.444
-398.179	800.000	-0.055	0.230
-397.165	800.000	-0.112	-0.483
-396.150	336.576	-0.056	0.109
-395.136	-95.601	-0.240	-0.064
-394.121	47.126	-0.105	-0.098
-393.106	-38.159	-0.156	-0.082
-392.092	-120.431	-0.285	-0.048
-391.077	-66.320	0.125	0.049
-390.063	84.071	-0.050	-0.055
-389.048	-152.596	-0.209	-0.015
-388.033	-200.000	-0.022	0.350
-387.019	-8.504	-0.197	-0.132
-386.004	-83.627	-0.270	0.086
-384.990	-20.388	-0.259	0.159
-383.975	-80.269	0.155	-0.052
-382.960	-147.575	0.175	0.015
-381.946	111.044	-0.203	0.244
-380.931	-200.000	-0.051	-0.293
-379.917	280.043	-0.140	0.249
-378.902	221.185	0.082	-0.131
-377.888	61.992	-0.256	0.255
-376.873	-133.854	0.246	0.030
-375.858	-87.556	0.364	0.110
-374.844	10.111	-0.052	-0.040
-373.829	800.000	-0.125	0.365
-372.815	-200.000	-0.066	0.301
-371.800	216.463	-0.176	0.279
-370.785	189.732	0.178	-0.265
-369.771	11.705	-0.031	-0.024
-368.756	800.000	-0.055	-0.161
-367.742	704.206	0.060	-0.158
-366.727	-141.346	0.287	-0.029
-365.712	244.860	-0.164	0.275
-364.698	-200.000	0.010	0.103
-363.683	239.089	0.194	0.322
-362.669	110.428	-0.063	0.075
-361.654	-90.696	-0.348	-0.100
-360.639	-28.200	0.015	0.008
-359.625	800.000	0.063	-0.214
-358.610	-200.000	-0.033	-0.417
-357.596	134.598	0.180	-0.233
-356.581	800.000	-0.060	0.198
-355.566	-84.146	-0.454	-0.144
-354.552	102.608	0.177	0.207
-353.537	76.834	-0.032	0.034
-352.523	113.325	0.301	-0.364
-351.508	-200.000	0.018	-0.182
-350.493	306.543	-0.093	0.173
-349.479	70.470	0.133	0.137
-348.464	211.447	0.161	-0.253
-347.450	-182.297	-0.140	0.003
-346.435	-5.857	-0.215	0.146
-345.420	800.000	0.057	0.175
-344.406	-123.895	-0.357	0.056
-343.391	5.110	0.090	0.066
-342.377	426.589	-0.028	-0.060
-341.362	298.287	-0.048	-0.088
-340.348	-186.371	0.323	-0.005
-339.333	-107.158	0.092	0.020
-338.318	26.428	0.196	-0.163
-337.304	-200.000	0.040	0.218
-336.289	-200.000	-0.363	-0.001
-335.275	158.996	0.185	0.256
-334.260	-96.346	-0.200	-0.053
-333.245	-200.000	0.017	-0.111
-332.231	800.000	-0.110	0.318
-331.216	-200.000	-0.006	-0.073
-330.202	-144.356	0.130	0.012
-329.187	-20.430	-0.178	-0.109
-328.172	-81.493	-0.240	0.078
-327.158	49.159	0.081	-0.076
-326.143	-40.164	0.278	0.144
-325.129	-1.818	0.258	0.181
-324.114	-66.346	0.094	-0.037
-323.099	-200.000	0.002	-0.119
-322.085	-200.000	0.046	-0.237
-321.070	-90.897	-0.136	0.039
-320.056	-107.862	-0.105	-0.023
-319.041	-11.035	0.184	-0.121
-318.026	423.373	0.040	-0.085
-317.012	665.237	0.064	-0.164
-315.997	619.935	0.183	-0.457
-314.983	-200.000	-0.003	-0.066
-313.968	-200.000	-0.004	0.136
-312.953	12.142	0.388	-0.297
-311.939	-200.000	0.026	0.143
-310.924	-20.451	-0.213	-0.130
-309.910	800.000	-0.039	-0.148
-308.895	-200.000	0.017	-0.248
-307.880	139.093	-0.121	0.158
-306.866	-92.792	-0.120	0.033
-305.851	-98.991	-0.206	0.052
-304.837	-77.249	-0.355	-0.123
-303.822	800.000	0.065	0.223
-302.807	-34.975	0.085	-0.046
-301.793	7.536	0.175	0.130
-300.778	5.508	0.140	0.103
-299.764	-101.158	0.101	0.024
-298.749	412.011	0.159	-0.336
-297.735	-200.000	0.021	0.262
-296.720	68.611	0.051	-0.051
-295.705	14.244	-0.268	0.208
-294.691	-133.816	0.206	-0.025
-293.676	545.580	-0.121	-0.288
-292.662	654.484	-0.088	0.224
-291.647	-172.673	-0.191	-0.006
-290.632	-6.784	0.330	0.223
-289.618	81.512	-0.358	0.385
-288.603	-120.015	0.119	0.020
-287.589	-86.406	-0.171	0.052
-286.574	-200.000	-0.006	0.121
-285.559	-102.043	0.334	0.080
-284.545	-132.719	-0.255	-0.032
-283.530	-200.000	0.020	-0.102
-282.516	-40.510	-0.118	-0.061
-281.501	-200.000	-0.019	-0.231
-280.486	-67.125	-0.027	-0.010
-279.472	-126.223	-0.159	-0.024
-278.457	126.466	0.170	0.214
-277.443	800.000	0.123	0.371
-276.428	-146.332	0.138	-0.012
-275.413	-111.241	-0.436	-0.088
-274.399	412.212	-0.101	0.213
-273.384	-132.967	0.281	0.035
-272.370	-127.021	0.249	-0.036
-271.355	192.736	-0.084	-0.127
-270.340	15.843	0.313	0.244
-269.326	-108.211	0.338	0.072
-268.311	75.882	-0.199	-0.209
-267.297	405.594	0.097	0.203
-266.282	-10.309	0.092	0.061
-265.267	-200.000	0.008	-0.259
-264.253	21.802	-0.192	-0.155
-263.238	-200.000	0.050	-0.257
-262.224	-35.324	-0.144	-0.077
-261.209	-45.984	0.183	0.090
-260.195	-116.335	-0.183	-0.034
-259.180	-200.000	0.026	-0.274
-258.165	95.550	0.301	0.341
-257.151	55.225	0.017	-0.016
-256.136	800.000	-0.107	0.367
-255.122	137.827	0.242	-0.314
-254.107	49.742	-0.059	-0.055
-253.092	-75.676	0.177	0.062
-252.078	157.109	-0.135	-0.185
-251.063	535.603	0.048	0.112
-250.049	-65.835	-0.313	0.124
-249.034	-200.000	0.005	-0.127
-248.019	282.227	-0.083	-0.148
-247.005	17.441	-0.053	-0.041
-245.990	800.000	0.100	-0.273
-244.976	15.992	-0.211	0.165
-243.961	537.431	0.094	-0.222
-242.946	-200.000	0.019	-0.089
-241.932	-200.000	-0.032	-0.148
-240.917	800.000	0.122	0.388
-239.903	48.285	0.292	0.271
-238.888	34.910	0.210	0.182
-237.873	-33.094	-0.295	0.162
-236.859	157.821	-0.178	0.245
-235.844	-96.306	0.430	0.113
-234.830	69.203	-0.098	-0.100
-233.815	-73.264	-0.492	-0.179
-232.800	-200.000	-0.012	0.166
-231.786	-200.000	-0.037	0.169
-230.771	-96.443	0.231	0.061
-229.757	-117.168	-0.245	0.044
-228.742	-200.000	-0.021	-0.138
-227.727	-113.198	0.132	-0.026
-226.713	800.000	0.089	-0.263
-225.698	211.526	-0.126	0.196
-224.684	62.992	0.324	0.322
-223.669	470.516	0.042	-0.094
-222.655	-66.666	0.414	0.163
-221.640	800.000	-0.084	-0.319
-220.625	390.043	-0.119	-0.244
-219.611	800.000	0.026	-0.072
-218.596	176.674	-0.051	0.074
-217.582	-134.487	0.214	0.026
-216.567	-47.235	-0.210	-0.102
-215.552	488.655	-0.074	0.166
-214.538	800.000	-0.063	-0.212
-213.523	-38.484	-0.439	0.230
-212.509	8.442	-0.108	-0.080
-211.494	-123.853	0.412	0.064
-210.479	359.266	-0.161	-0.320
-209.465	40.582	0.180	-0.161
-208.450	-200.000	-0.050	0.271
-207.436	113.365	-0.089	-0.106
-206.421	-200.000	-0.038	-0.181
-205.406	-58.357	0.165	-0.071
-204.392	-171.204	0.317	-0.011
-203.377	-200.000	-0.048	0.415
-202.363	-200.000	-0.031	0.457
-201.348	91.185	0.140	-0.155
-200.333	241.073	0.234	0.386
-199.319	-187.731	-0.280	0.004
-198.304	96.484	0.198	0.224
-197.290	-107.532	0.116	-0.025
-196.275	16.067	-0.185	-0.144
-195.260	-101.059	0.120	-0.029
-194.246	-200.000	0.008	-0.057
-193.231	800.000	-0.007	0.028
-192.217	-61.133	0.112	-0.047
-191.202	-140.765	0.255	-0.026
-190.187	800.000	0.119	-0.366
-189.173	0.689	-0.321	-0.227
-188.158	-75.856	0.369	0.130
-187.144	-200.000	0.017	0.105
-186.129	800.000	0.114	0.323
-185.114	94.303	-0.128	0.144
-184.100	-46.423	0.139	-0.068
-183.085	-86.997	0.264	-0.080
-182.071	109.463	-0.105	0.124
-181.056	-12.885	-0.208	-0.134
-180.042	-122.407	0.175	0.028
-179.027	211.782	0.035	0.055
-178.012	-66.445	-0.243	0.095
-176.998	-93.521	0.434	0.119
-175.983	465.248	0.075	-0.166
-174.969	-72.032	0.119	0.044
-173.954	-151.791	-0.155	0.011
-172.939	128.483	-0.150	-0.189
-171.925	-106.561	0.234	0.052
-170.910	504.960	-0.113	-0.258
-169.896	49.453	-0.241	0.224
-168.881	333.246	-0.117	-0.224
-167.866	-64.764	0.281	0.112
-166.852	-99.750	0.209	0.052
-165.837	800.000	0.076	-0.272
-164.823	-138.328	0.255	-0.028
-163.808	-69.807	0.038	-0.014
-162.793	-96.313	-0.219	0.057
-161.779	95.447	-0.154	0.173
-160.764	-103.186	0.305	-0.071
-159.750	43.687	0.116	-0.105
-158.735	-155.215	-0.349	0.023
-157.720	-200.000	0.053	0.285
-156.706	559.727	0.057	-0.135
-155.691	-200.000	-0.033	0.186
-154.677	396.746	-0.047	0.096
-153.662	800.000	0.165	-0.467
-152.647	-200.000	-0.017	0.234
-151.633	-165.153	-0.194	-0.008
-150.618	704.517	0.097	0.252
-149.604	-200.000	0.033	0.181
-148.589	-24.228	0.207	0.122
-147.574	-172.623	0.350	-0.011
-146.560	-183.212	-0.355	0.006
-145.545	365.515	-0.042	0.084
-144.531	-85.846	0.322	-0.099
-143.516	-93.117	-0.253	0.070
-142.502	-149.456	0.149	-0.012
-141.487	7.796	0.313	0.231
-140.472	-200.000	-0.022	-0.214
-139.458	-156.218	-0.271	-0.017
-138.443	-143.996	0.060	0.006
-137.429	-119.203	-0.130	0.022
-136.414	-200.000	-0.048	0.317
-135.399	-87.823	0.039	0.012
-134.385	-64.098	0.214	-0.086
-133.370	96.865	-0.098	-0.111
-132.356	-200.000	-0.031	0.250
-131.341	-200.000	0.006	-0.056
-130.326	800.000	0.086	-0.272
-129.312	295.617	0.012	-0.021
-128.297	156.276	-0.041	-0.056
-127.283	800.000	0.047	-0.194
-126.268	203.193	-0.044	-0.067
-125.253	25.849	-0.062	-0.051
-124.239	343.185	-0.156	0.302
-123.224	103.968	0.109	0.126
-122.210	800.000	-0.071	0.242
