DTS Sentinel unit serial number:	SN413079Multiplexer serial number:	ORYXHardware model number:	OX4-SRSoftware version number:	ORYX F/W v4.00 Oryx Data Collector v3.7.2.0data status	okinstallation	princeton_trtdifferential loss correction	single-endedforward channel	channel 1reverse channel	N/Adate	2019/09/18time	11:38:35forward acquisition time	60.00reverse acquisition time	0.00gamma	496.2192k internal	0.2325k external	0.2325temperature offset calibration	0.9977default loss term (dB/km)	0.3790temperature slope calibration	1.0000multiplexer offset coefficient	1.0000multiplexer slope coefficient	1.0000fibre end	0.00T internal ref (°C)	30.80T ext. ref 1 (°C)	0.45T ext. ref 2 (°C)	27.86length (m)	temperature (°C)	Stokes	anti-Stokes-747.200	-129.887	0.375	0.052
-746.185	-60.736	-0.497	0.213
-745.171	-149.003	-0.094	0.008
-744.156	-200.000	0.020	0.178
-743.142	-2.461	-0.368	0.260
-742.127	-73.369	-0.222	0.082
-741.112	-50.281	0.093	-0.045
-740.098	310.716	0.068	-0.129
-739.083	800.000	0.127	-0.368
-738.069	-120.253	0.117	-0.020
-737.054	-83.165	0.255	0.083
-736.039	0.114	-0.372	-0.267
-735.025	-86.813	0.378	0.117
-734.010	-200.000	0.032	0.201
-732.996	306.155	-0.083	-0.156
-731.981	79.981	-0.072	0.078
-730.966	-71.383	0.224	0.085
-729.952	170.443	-0.220	0.318
-728.937	86.427	-0.201	0.223
-727.923	66.238	-0.348	-0.357
-726.908	673.898	-0.120	-0.314
-725.894	-107.752	-0.128	-0.028
-724.879	89.008	0.279	0.313
-723.864	43.776	-0.335	-0.309
-722.850	259.015	0.051	0.089
-721.835	-151.434	-0.236	-0.018
-720.821	780.277	0.115	-0.318
-719.806	89.296	-0.242	-0.272
-718.791	-107.225	-0.078	-0.017
-717.777	-91.763	0.272	-0.078
-716.762	100.828	-0.298	-0.349
-715.748	-156.424	0.293	-0.018
-714.733	312.540	-0.029	-0.056
-713.718	373.507	0.080	-0.165
-712.704	-200.000	0.242	0.001
-711.689	275.569	-0.165	-0.294
-710.675	171.673	-0.144	0.209
-709.660	-82.765	-0.179	0.058
-708.645	-22.400	-0.263	-0.160
-707.631	-135.600	0.255	-0.030
-706.616	-72.393	-0.254	0.095
-705.602	-116.665	0.165	0.031
-704.587	31.764	-0.332	-0.288
-703.572	40.343	0.050	-0.046
-702.558	-101.085	0.247	-0.061
-701.543	-112.820	0.381	0.076
-700.529	-18.364	-0.050	0.032
-699.514	-200.000	-0.015	0.233
-698.499	-6.229	0.258	-0.177
-697.485	213.362	-0.122	-0.193
-696.470	-77.462	0.205	0.072
-695.456	-27.218	0.250	-0.147
-694.441	-23.761	0.096	-0.058
-693.426	-200.000	0.023	-0.348
-692.412	266.649	0.101	-0.178
-691.397	27.429	-0.123	-0.105
-690.383	13.928	-0.374	-0.293
-689.368	-97.350	0.206	-0.054
-688.354	-110.371	0.145	0.030
-687.339	-157.159	0.236	-0.014
-686.324	-67.366	-0.149	0.059
-685.310	800.000	0.078	0.312
-684.295	-98.416	-0.197	-0.051
-683.281	143.197	0.199	-0.267
-682.266	-200.000	-0.019	0.103
-681.251	656.510	-0.096	-0.249
-680.237	211.237	-0.144	-0.228
-679.222	-200.000	0.025	-0.114
-678.208	150.882	-0.070	0.096
-677.193	140.418	0.247	-0.329
-676.178	560.985	-0.177	-0.431
-675.164	-200.000	-0.011	-0.137
-674.149	25.721	-0.288	0.241
-673.135	109.780	0.128	0.154
-672.120	112.878	0.194	0.237
-671.105	125.715	0.187	0.237
-670.091	13.087	0.253	-0.197
-669.076	-183.207	-0.123	0.002
-668.062	-52.641	0.236	-0.110
-667.047	34.225	0.106	-0.093
-666.032	36.193	0.135	-0.120
-665.018	-163.094	-0.365	-0.018
-664.003	-11.391	0.320	0.212
-662.989	800.000	0.027	0.107
-661.974	467.449	0.081	-0.182
-660.959	193.508	0.100	-0.152
-659.945	-124.053	0.141	0.022
-658.930	143.250	0.142	0.191
-657.916	-30.233	-0.125	0.071
-656.901	800.000	0.041	0.167
-655.886	455.153	-0.123	0.274
-654.872	-35.888	0.306	0.166
-653.857	106.405	-0.026	-0.030
-652.843	-17.755	0.070	0.044
-651.828	800.000	0.086	-0.252
-650.814	800.000	-0.065	-0.204
-649.799	-200.000	-0.034	0.208
-648.784	-57.522	-0.332	-0.146
-647.770	-72.651	-0.091	-0.034
-646.755	-86.703	0.281	-0.087
-645.741	66.972	-0.279	-0.286
-644.726	553.809	0.113	-0.272
-643.711	-32.926	0.240	-0.134
-642.697	-141.076	0.441	0.045
-641.682	-106.741	-0.302	-0.067
-640.668	521.900	0.104	-0.246
-639.653	-200.000	0.043	0.257
-638.638	58.009	0.032	0.032
-637.624	92.197	0.073	-0.082
-636.609	800.000	0.086	0.240
-635.595	-73.625	-0.184	-0.067
-634.580	800.000	0.107	-0.419
-633.565	94.888	-0.168	-0.192
-632.551	-200.000	-0.007	0.056
-631.536	13.111	0.113	-0.088
-630.522	-200.000	-0.007	0.083
-629.507	-47.871	0.303	0.147
-628.492	-7.141	-0.227	0.155
-627.478	-113.567	-0.226	-0.044
-626.463	-115.774	-0.435	0.082
-625.449	63.502	0.164	-0.165
-624.434	-23.369	0.078	-0.047
-623.419	19.652	-0.224	-0.181
-622.405	-200.000	-0.005	0.056
-621.390	62.529	0.160	-0.160
-620.376	-135.931	-0.260	-0.031
-619.361	432.125	-0.085	-0.186
-618.346	-167.757	0.189	0.008
-617.332	-104.243	-0.191	0.044
-616.317	-91.066	0.142	0.041
-615.303	-88.517	0.186	-0.056
-614.288	-48.059	-0.288	-0.140
-613.273	-146.293	-0.070	-0.006
-612.259	12.685	-0.265	-0.205
-611.244	49.384	-0.056	-0.053
-610.230	-28.949	-0.258	-0.149
-609.215	96.793	-0.088	-0.101
-608.201	48.671	-0.137	0.129
-607.186	180.207	-0.047	0.069
-606.171	-110.391	-0.255	0.053
-605.157	-0.729	-0.193	-0.137
-604.142	-59.712	-0.228	0.098
-603.128	246.203	0.179	0.303
-602.113	48.701	0.112	0.105
-601.098	-60.243	-0.114	0.049
-600.084	-200.000	0.094	0.429
-599.069	-200.000	-0.002	0.245
-598.055	35.205	-0.233	0.205
-597.040	544.155	0.054	0.130
-596.025	-154.992	-0.182	0.012
-595.011	4.833	0.163	0.120
-593.996	212.953	0.240	-0.379
-592.982	137.736	0.087	-0.115
-591.967	-37.361	-0.327	-0.175
-590.952	800.000	0.040	-0.133
-589.938	-8.215	0.039	-0.026
-588.923	-200.000	-0.011	0.333
-587.909	46.542	0.068	-0.063
-586.894	-200.000	0.017	-0.127
-585.879	800.000	0.076	0.280
-584.865	390.179	-0.091	-0.189
-583.850	73.407	0.184	0.194
-582.836	86.394	-0.035	-0.039
-581.821	47.922	-0.144	-0.135
-580.806	277.578	0.101	-0.181
-579.792	32.501	-0.078	0.068
-578.777	46.827	0.152	0.142
-577.763	694.297	-0.155	-0.408
-576.748	-59.413	-0.148	-0.064
-575.733	507.612	0.070	0.162
-574.719	-200.000	0.012	0.057
-573.704	-1.286	0.286	-0.203
-572.690	-144.675	-0.331	0.031
-571.675	-117.353	-0.406	-0.074
-570.661	74.190	0.110	0.116
-569.646	800.000	0.125	-0.463
-568.631	30.816	0.203	-0.175
-567.617	-200.000	-0.032	0.170
-566.602	-200.000	-0.022	0.312
-565.588	-54.362	0.142	0.064
-564.573	-128.528	-0.247	-0.035
-563.558	800.000	-0.028	0.080
-562.544	-194.385	-0.191	-0.002
-561.529	228.395	0.051	0.083
-560.515	104.578	0.084	-0.099
-559.500	-54.447	-0.411	0.187
-558.485	123.448	-0.265	0.333
-557.471	-38.414	-0.357	-0.189
-556.456	-200.000	0.056	0.330
-555.442	27.197	0.231	-0.195
-554.427	-157.709	0.156	0.009
-553.412	632.494	0.107	0.272
-552.398	-70.005	0.297	0.113
-551.383	215.456	-0.098	0.156
-550.369	-78.899	-0.112	0.038
-549.354	199.475	0.078	-0.120
-548.339	338.646	-0.107	0.208
-547.325	556.034	-0.200	0.483
-546.310	693.931	0.119	0.313
-545.296	195.489	-0.116	-0.176
-544.281	69.977	-0.028	0.029
-543.266	-164.328	0.532	0.024
-542.252	571.204	0.110	0.269
-541.237	-165.650	-0.289	-0.013
-540.223	3.498	0.185	-0.135
-539.208	-104.182	-0.169	0.039
-538.193	-21.978	0.295	-0.179
-537.179	696.515	0.031	-0.082
-536.164	37.444	-0.310	0.275
-535.150	233.986	-0.146	0.240
-534.135	61.520	-0.232	-0.231
-533.121	-65.524	-0.178	-0.071
-532.106	-16.003	0.174	0.111
-531.091	800.000	0.080	0.256
-530.077	410.517	0.123	0.262
-529.062	800.000	0.037	0.101
-528.048	-139.815	-0.085	0.009
-527.033	34.055	0.476	-0.415
-526.018	-200.000	-0.005	-0.068
-525.004	171.243	0.066	-0.095
-523.989	800.000	-0.067	0.290
-522.975	-96.380	0.173	-0.046
-521.960	54.468	0.054	0.052
-520.945	-159.840	-0.177	0.010
-519.931	-94.225	-0.113	-0.031
-518.916	17.674	0.350	0.279
-517.902	-81.602	-0.193	0.063
-516.887	800.000	-0.065	-0.209
-515.872	522.735	0.145	-0.340
-514.858	30.700	0.156	0.134
-513.843	-31.359	0.100	0.056
-512.829	113.732	-0.265	0.322
-511.814	351.106	-0.142	-0.281
-510.799	165.334	-0.131	-0.186
-509.785	125.848	-0.118	-0.149
-508.770	-18.832	-0.240	0.149
-507.756	83.396	-0.067	0.073
-506.741	-200.000	-0.008	0.136
-505.726	-200.000	0.002	0.031
-504.712	355.392	-0.192	0.382
-503.697	800.000	-0.119	0.333
-502.683	25.175	-0.205	-0.170
-501.668	-97.999	0.256	-0.066
-500.653	33.350	-0.205	-0.178
-499.639	-200.000	-0.013	-0.120
-498.624	-85.398	0.100	-0.031
-497.610	800.000	0.042	-0.118
-496.595	-48.198	-0.257	-0.124
-495.581	800.000	0.063	0.180
-494.566	-84.048	-0.221	0.070
-493.551	-62.265	0.276	0.115
-492.537	-200.000	0.008	0.124
-491.522	-200.000	-0.006	-0.353
-490.508	-164.335	-0.245	0.011
-489.493	-57.043	0.125	-0.055
-488.478	-176.314	-0.196	-0.005
-487.464	-200.000	0.035	-0.318
-486.449	517.908	-0.089	-0.208
-485.435	-97.798	-0.219	-0.057
-484.420	-52.477	-0.229	0.106
-483.405	187.193	0.121	-0.180
-482.391	-120.257	-0.209	0.036
-481.376	191.249	0.114	0.172
-480.362	800.000	-0.042	0.161
-479.347	-59.772	0.171	-0.073
-478.332	579.743	-0.117	-0.286
-477.318	-103.850	-0.315	0.074
-476.303	217.057	-0.085	-0.135
-475.289	37.743	-0.301	0.267
-474.274	800.000	0.062	-0.219
-473.259	-32.865	0.161	-0.090
-472.245	-136.687	0.210	-0.024
-471.230	-71.466	-0.183	-0.068
-470.216	436.940	-0.064	0.138
-469.201	-26.982	-0.081	0.047
-468.186	265.526	0.176	-0.306
-467.172	128.264	0.235	-0.298
-466.157	-200.000	-0.005	0.043
-465.143	-105.237	0.255	0.058
-464.128	95.647	0.309	-0.352
-463.113	-22.290	-0.137	-0.083
-462.099	287.365	-0.129	-0.232
-461.084	252.139	-0.169	-0.287
-460.070	6.181	0.193	-0.143
-459.055	65.937	0.083	-0.084
-458.040	71.680	0.288	0.298
-457.026	800.000	0.152	-0.449
-456.011	714.029	0.056	-0.147
-454.997	45.006	0.220	-0.203
-453.982	-118.669	0.292	0.051
-452.968	-139.157	0.239	-0.026
-451.953	302.346	0.055	-0.101
-450.938	-200.000	0.045	0.365
-449.924	-114.420	-0.215	-0.041
-448.909	233.054	-0.113	0.185
-447.895	17.413	0.157	0.125
-446.880	-102.226	-0.169	-0.040
-445.865	-85.369	0.307	0.096
-444.851	312.452	0.062	0.115
-443.836	800.000	-0.162	-0.629
-442.822	255.330	-0.164	-0.281
-441.807	-46.172	0.142	-0.070
-440.792	-44.474	-0.171	-0.085
-439.778	25.347	0.063	0.052
-438.763	800.000	-0.037	0.103
-437.749	-85.471	-0.289	0.090
-436.734	84.656	-0.218	0.238
-435.719	-141.645	-0.391	0.039
-434.705	800.000	-0.105	-0.308
-433.690	-200.000	0.000	0.031
-432.676	509.565	0.251	0.580
-431.661	-149.785	0.064	0.005
-430.646	-200.000	-0.028	0.147
-429.632	-126.678	0.291	0.043
-428.617	-99.303	-0.367	0.092
-427.603	33.002	-0.169	-0.146
-426.588	24.830	-0.252	-0.208
-425.573	105.140	0.058	0.068
-424.559	-118.187	0.156	0.028
-423.544	27.419	-0.124	0.104
-422.530	334.373	-0.128	0.247
-421.515	-138.950	-0.182	0.020
-420.500	-118.265	0.226	0.040
-419.486	134.038	-0.053	-0.068
-418.471	662.862	-0.130	0.335
-417.457	-200.000	-0.013	-0.068
-416.442	-200.000	0.018	0.291
-415.428	123.061	0.276	0.344
-414.413	361.544	-0.109	0.218
-413.398	124.204	0.169	0.212
-412.384	-26.292	0.282	0.165
-411.369	-108.770	-0.255	-0.054
-410.355	-16.044	0.039	-0.025
-409.340	-135.701	0.314	0.037
-408.325	-121.153	-0.103	0.017
-407.311	-200.000	0.009	0.133
-406.296	-59.795	-0.083	0.035
-405.282	-200.000	-0.073	-0.352
-404.267	-16.839	-0.338	0.213
-403.252	-120.918	0.358	0.060
-402.238	30.932	0.636	0.543
-401.223	-24.519	-0.180	-0.106
-400.209	-99.373	0.145	0.036
-399.194	153.034	0.169	-0.230
-398.179	-63.683	0.057	-0.023
-397.165	20.361	-0.018	0.014
-396.150	137.611	0.042	-0.055
-395.136	268.335	-0.040	-0.069
-394.121	332.234	0.132	-0.254
-393.106	-141.674	0.317	0.032
-392.092	248.362	-0.039	-0.065
-391.077	-200.000	0.004	-0.296
-390.063	128.426	0.259	-0.328
-389.048	-200.000	0.001	0.212
-388.033	267.256	-0.092	0.160
-387.019	800.000	-0.115	-0.418
-386.004	-72.110	0.044	0.016
-384.990	-200.000	0.031	-0.255
-383.975	16.574	0.291	-0.229
-382.960	-40.739	-0.081	-0.042
-381.946	-128.080	0.221	0.032
-380.931	20.506	-0.135	0.109
-379.917	800.000	-0.106	-0.339
-378.902	-48.336	0.289	0.138
-377.888	800.000	-0.039	0.158
-376.873	-200.000	0.014	-0.132
-375.858	-54.475	-0.180	-0.081
-374.844	371.788	0.071	-0.144
-373.829	468.192	0.051	0.115
-372.815	800.000	-0.020	0.073
-371.800	4.587	-0.188	-0.137
-370.785	142.483	0.052	0.068
-369.771	-112.411	0.376	-0.075
-368.756	-113.463	-0.182	0.035
-367.742	-200.000	0.001	-0.066
-366.727	219.886	0.196	-0.313
-365.712	27.059	-0.211	-0.176
-364.698	-112.873	0.274	-0.054
-363.683	702.463	-0.029	-0.075
-362.669	-103.482	0.153	-0.036
-361.654	73.076	0.105	-0.109
-360.639	-200.000	-0.006	0.224
-359.625	-200.000	0.032	-0.158
-358.610	738.641	0.045	-0.120
-357.596	-4.055	0.326	0.225
-356.581	-200.000	-0.006	0.149
-355.566	-199.464	-0.218	0.001
-354.552	305.522	0.181	-0.334
-353.537	-167.150	0.344	0.014
-352.523	800.000	-0.042	0.168
-351.508	420.321	-0.110	-0.235
-350.493	-86.325	-0.502	0.154
-349.479	800.000	-0.072	-0.291
-348.464	-200.000	0.003	0.037
-347.450	800.000	-0.038	0.116
-346.435	5.804	-0.292	-0.215
-345.420	49.389	0.078	-0.073
-344.406	-200.000	-0.005	0.186
-343.391	122.616	0.155	0.192
-342.377	800.000	-0.087	0.259
-341.362	-105.432	0.461	-0.104
-340.348	-200.000	0.040	0.206
-339.333	-122.132	-0.301	-0.049
-338.318	37.908	0.167	-0.147
-337.304	-200.000	-0.027	-0.229
-336.289	-48.563	-0.042	0.020
-335.275	-111.363	-0.042	-0.009
-334.260	27.915	0.056	-0.047
-333.245	800.000	0.050	0.149
-332.231	63.337	-0.078	0.077
-331.216	60.293	-0.124	0.121
-330.202	-200.000	-0.037	0.213
-329.187	-200.000	0.006	0.246
-328.172	-11.611	-0.096	-0.063
-327.158	-24.553	-0.248	0.146
-326.143	165.349	0.158	-0.221
-325.129	800.000	-0.101	-0.437
-324.114	74.439	0.059	-0.062
-323.099	-200.000	-0.000	0.163
-322.085	-86.513	0.169	-0.051
-321.070	-27.990	-0.239	-0.138
-320.056	-23.411	0.291	-0.174
-319.041	-3.018	-0.340	0.236
-318.026	-92.827	-0.410	0.114
-317.012	-200.000	0.002	0.084
-315.997	-200.000	0.037	0.207
-314.983	800.000	-0.034	-0.146
-313.968	167.808	0.113	-0.160
-312.953	76.150	0.147	-0.154
-311.939	-95.758	0.038	-0.010
-310.924	29.885	0.170	-0.144
-309.910	-83.317	0.229	-0.073
-308.895	-172.175	-0.352	0.011
-307.880	-2.139	-0.252	0.175
-306.866	456.812	-0.089	0.197
-305.851	-200.000	-0.031	0.138
-304.837	-171.119	0.135	0.005
-303.822	-63.777	0.242	0.098
-302.807	-200.000	-0.013	0.089
-301.793	648.924	0.090	0.227
-300.778	-62.678	0.168	0.069
-299.764	-35.933	0.317	-0.170
-298.749	166.259	-0.280	-0.394
-297.735	-18.159	0.091	0.056
-296.720	166.887	0.136	-0.192
-295.705	-200.000	-0.081	-0.355
-294.691	285.950	-0.090	0.161
-293.676	-200.000	-0.013	-0.136
-292.662	504.737	-0.095	-0.219
-291.647	74.831	-0.351	-0.367
-290.632	-200.000	0.043	-0.212
-289.618	-133.617	0.365	0.045
-288.603	-35.935	0.316	-0.169
-287.589	-87.644	0.080	0.024
-286.574	-135.751	-0.102	-0.012
-285.559	226.815	0.075	0.121
-284.545	-98.949	-0.262	0.066
-283.530	134.592	0.068	-0.088
-282.516	-200.000	0.008	-0.087
-281.501	-200.000	0.198	-0.000
-280.486	800.000	0.044	-0.156
-279.472	0.313	-0.043	0.030
-278.457	30.678	0.343	0.291
-277.443	-200.000	-0.006	0.295
-276.428	43.474	0.210	-0.190
-275.413	-53.759	-0.152	0.069
-274.399	-46.309	-0.289	-0.141
-273.384	36.962	0.261	-0.229
-272.370	-91.439	-0.386	-0.109
-271.355	-99.267	-0.185	0.046
-270.340	800.000	0.034	-0.127
-269.326	164.185	-0.050	-0.070
-268.311	-200.000	0.053	0.279
-267.297	-43.825	-0.032	0.016
-266.282	316.358	0.067	0.126
-265.267	260.185	-0.198	0.339
-264.253	-173.985	0.212	0.006
-263.238	113.557	-0.072	-0.087
-262.224	-109.165	0.202	0.043
-261.209	352.662	-0.055	-0.107
-260.195	-161.787	0.084	-0.004
-259.180	-200.000	-0.032	-0.337
-258.165	163.190	0.112	0.156
-257.151	-16.933	0.358	0.224
-256.136	-200.000	-0.004	-0.337
-255.122	800.000	-0.029	0.098
-254.107	187.163	0.059	-0.088
-253.092	116.362	0.059	-0.071
-252.078	480.702	0.005	-0.011
-251.063	284.736	0.072	0.128
-250.049	179.179	-0.154	0.222
-249.034	-105.502	0.483	-0.109
-248.019	-180.557	-0.375	0.008
-247.005	-18.734	-0.115	0.071
-245.990	-166.900	0.162	-0.007
-244.976	124.522	0.253	-0.315
-243.961	354.541	0.040	-0.079
-242.946	800.000	-0.086	0.310
-241.932	800.000	0.145	0.478
-240.917	-11.482	0.159	-0.104
-239.903	-133.735	-0.336	0.042
-238.888	-17.363	-0.462	0.288
-237.873	455.939	0.122	0.268
-236.859	-1.946	0.428	0.298
-235.844	671.029	0.132	-0.338
-234.830	312.358	0.188	0.348
-233.815	-87.614	-0.185	-0.055
-232.800	160.841	-0.095	-0.131
-231.786	-35.363	-0.144	-0.078
-230.771	-107.200	-0.345	-0.075
-229.757	82.379	0.152	-0.163
-228.742	-113.835	-0.273	-0.052
-227.727	370.078	0.045	-0.091
-226.713	206.250	0.129	0.199
-225.698	-99.572	-0.136	-0.034
-224.684	-116.909	0.382	0.069
-223.669	-200.000	-0.005	-0.065
-222.655	-42.978	0.115	-0.058
-221.640	-80.252	0.246	0.081
-220.625	-200.000	-0.010	-0.052
-219.611	-200.000	-0.034	0.148
-218.596	-67.857	0.158	0.061
-217.582	-79.716	0.341	0.113
-216.567	-175.221	-0.031	0.001
-215.552	-99.871	-0.331	-0.082
-214.538	-119.743	0.210	0.036
-213.523	432.498	-0.131	-0.281
-212.509	173.172	0.130	-0.186
-211.494	112.531	-0.136	-0.162
-210.479	-88.591	0.107	0.031
-209.465	-200.000	-0.028	-0.254
-208.450	458.391	-0.052	0.114
-207.436	22.059	0.121	0.098
-206.421	-52.159	0.191	0.087
-205.406	-31.954	-0.231	-0.128
-204.392	125.812	-0.214	-0.267
-203.377	-200.000	-0.002	0.102
-202.363	220.150	-0.126	0.200
-201.348	-153.878	0.267	0.018
-200.333	-163.356	0.086	-0.004
-199.319	7.671	0.174	-0.129
-198.304	-87.005	-0.056	-0.017
-197.290	75.195	-0.238	0.247
-196.275	210.835	0.155	-0.241
-195.260	37.900	0.198	-0.174
-194.246	-200.000	0.037	0.161
-193.231	800.000	-0.035	-0.098
-192.217	200.583	-0.105	0.160
-191.202	-106.549	-0.087	-0.019
-190.187	-95.230	0.423	0.112
-189.173	-100.203	0.150	-0.037
-188.158	8.150	0.114	0.085
-187.144	111.097	0.099	-0.118
-186.129	69.541	0.146	0.149
-185.114	-200.000	0.027	-0.160
-184.100	380.900	0.061	0.123
-183.085	-91.836	0.002	-0.001
-182.071	-103.464	-0.462	-0.107
-181.056	-56.409	0.171	-0.075
-180.042	672.527	-0.090	0.230
-179.027	-126.411	0.243	0.036
-178.012	130.595	-0.126	0.160
-176.998	800.000	0.031	0.113
-175.983	217.647	-0.171	0.268
-174.969	-82.535	-0.347	0.111
-173.954	-200.000	-0.015	-0.118
-172.939	-200.000	-0.012	0.314
-171.925	-200.000	-0.071	-0.324
-170.910	134.017	-0.301	0.385
-169.896	518.945	0.087	-0.200
-168.881	1.599	0.101	0.072
-167.866	-94.333	-0.387	0.104
-166.852	-135.733	0.260	-0.030
-165.837	-200.000	0.004	-0.272
-164.823	-88.663	-0.312	0.092
-163.808	-80.250	-0.387	0.128
-162.793	-106.416	0.223	-0.049
-161.779	458.269	0.105	0.230
-160.764	112.641	-0.101	-0.121
-159.750	131.066	0.250	0.317
-158.735	136.334	-0.268	0.344
-157.720	-25.039	-0.169	0.099
-156.706	800.000	0.025	0.081
-155.691	233.026	0.106	0.172
-154.677	-200.000	-0.007	0.130
-153.662	18.220	0.307	-0.242
-152.647	-59.759	0.239	0.101
-151.633	25.323	-0.226	0.185
-150.618	-127.133	-0.170	-0.025
-149.604	267.357	-0.137	0.237
-148.589	167.732	-0.050	0.070
-147.574	0.473	0.439	-0.309
-146.560	204.004	-0.074	-0.114
-145.545	623.725	-0.006	0.014
-144.531	-200.000	0.001	0.342
-143.516	359.710	-0.039	-0.077
-142.502	-200.000	0.037	0.355
-141.487	-183.459	-0.186	-0.003
-140.472	-200.000	-0.004	-0.079
-139.458	-110.764	-0.253	0.051
-138.443	71.050	-0.051	0.052
-137.429	-157.978	-0.177	-0.010
-136.414	73.672	-0.106	0.110
-135.399	-58.298	-0.235	0.101
-134.385	-200.000	-0.019	-0.223
-133.370	-96.063	0.172	0.045
-132.356	158.903	0.177	0.242
-131.341	-135.689	0.481	0.056
-130.326	215.220	0.065	-0.101
-129.312	-109.623	-0.278	0.058
-128.297	-13.323	-0.232	-0.148
-127.283	81.534	0.172	0.183
-126.268	92.751	0.086	0.096
-125.253	57.320	0.192	-0.184
-124.239	-94.912	-0.203	0.054
-123.224	96.973	-0.354	0.399
-122.210	-96.505	-0.075	-0.020
-121.195	800.000	0.012	0.045
