DTS Sentinel unit serial number:	SN413079Multiplexer serial number:	ORYXHardware model number:	OX4-SRSoftware version number:	ORYX F/W v4.00 Oryx Data Collector v3.7.2.0data status	okinstallation	princeton_trtdifferential loss correction	single-endedforward channel	channel 1reverse channel	N/Adate	2019/09/16time	20:42:35forward acquisition time	60.00reverse acquisition time	0.00gamma	496.2192k internal	0.2324k external	0.2324temperature offset calibration	0.9956default loss term (dB/km)	0.3790temperature slope calibration	1.0000multiplexer offset coefficient	1.0000multiplexer slope coefficient	1.0000fibre end	0.00T internal ref (°C)	32.41T ext. ref 1 (°C)	0.08T ext. ref 2 (°C)	26.12length (m)	temperature (°C)	Stokes	anti-Stokes-747.200	148.631	0.119	0.162
-746.185	95.430	-0.306	0.353
-745.171	62.626	-0.048	0.049
-744.156	800.000	-0.090	0.265
-743.142	-200.000	-0.021	-0.105
-742.127	-65.267	-0.438	0.178
-741.112	790.514	-0.015	0.042
-740.098	-77.850	-0.331	0.115
-739.083	-200.000	0.027	0.146
-738.069	123.490	-0.283	0.358
-737.054	-33.701	0.186	-0.103
-736.039	271.393	0.049	0.087
-735.025	-172.656	0.361	0.011
-734.010	74.171	0.206	-0.218
-732.996	4.908	-0.166	0.124
-731.981	-157.829	-0.321	-0.019
-730.966	-200.000	-0.054	0.316
-729.952	85.314	0.157	-0.174
-728.937	-128.008	-0.272	0.039
-727.923	-135.401	0.298	-0.036
-726.908	-63.300	-0.179	-0.075
-725.894	180.111	-0.053	-0.078
-724.879	-87.781	0.099	0.030
-723.864	-85.498	0.096	0.030
-722.850	800.000	-0.056	0.199
-721.835	131.159	0.139	0.179
-720.821	374.281	-0.043	-0.089
-719.806	68.771	-0.154	0.159
-718.791	219.184	-0.086	-0.139
-717.777	610.784	-0.055	-0.139
-716.762	-34.175	0.108	0.060
-715.748	-60.206	0.451	0.194
-714.733	361.161	-0.105	-0.212
-713.718	267.411	0.098	-0.173
-712.704	-35.080	-0.325	-0.178
-711.689	800.000	0.077	-0.261
-710.675	18.450	0.170	-0.137
-709.660	-45.384	-0.166	-0.083
-708.645	97.243	0.047	-0.055
-707.631	20.431	0.021	-0.017
-706.616	-98.208	-0.320	0.083
-705.602	-200.000	-0.008	0.088
-704.587	586.243	-0.030	0.075
-703.572	21.069	-0.083	-0.068
-702.558	497.214	-0.026	0.061
-701.543	147.386	-0.373	0.506
-700.529	136.314	-0.097	0.127
-699.514	33.204	0.163	-0.143
-698.499	-200.000	0.005	-0.319
-697.485	99.569	-0.120	0.140
-696.470	-43.623	-0.037	0.019
-695.456	-73.605	0.487	0.179
-694.441	231.960	-0.234	-0.386
-693.426	800.000	0.011	0.039
-692.412	13.769	-0.211	0.166
-691.397	47.539	-0.197	-0.185
-690.383	-120.963	0.182	0.031
-689.368	-200.000	0.006	-0.420
-688.354	-120.059	0.019	-0.003
-687.339	6.529	-0.124	0.093
-686.324	-45.571	0.226	-0.113
-685.310	-200.000	-0.019	0.215
-684.295	139.769	-0.136	-0.181
-683.281	-9.907	-0.055	0.037
-682.266	81.962	0.240	-0.262
-681.251	17.643	0.239	-0.191
-680.237	-8.604	0.029	0.020
-679.222	-35.861	0.059	0.032
-678.208	-57.903	0.157	0.069
-677.193	366.338	0.050	-0.103
-676.178	90.920	0.239	0.270
-675.164	298.333	-0.180	-0.333
-674.149	-159.506	0.165	0.009
-673.135	-200.000	-0.058	0.406
-672.120	-131.421	0.208	0.028
-671.105	-91.716	0.137	-0.039
-670.091	-200.000	-0.023	0.411
-669.076	800.000	-0.094	0.345
-668.062	800.000	0.036	0.156
-667.047	-100.659	0.092	-0.023
-666.032	572.611	0.173	-0.423
-665.018	-200.000	-0.003	0.056
-664.003	-53.763	0.125	0.057
-662.989	285.067	-0.139	-0.252
-661.974	-131.897	0.281	-0.037
-660.959	-200.000	-0.044	0.425
-659.945	800.000	-0.076	0.220
-658.930	156.986	0.048	-0.067
-657.916	-26.506	-0.108	0.064
-656.901	0.346	-0.078	-0.056
-655.886	268.714	-0.054	0.095
-654.872	154.202	-0.095	-0.131
-653.857	-200.000	0.016	0.128
-652.843	-153.308	-0.253	0.018
-651.828	765.240	0.100	-0.273
-650.814	-75.959	-0.236	0.084
-649.799	84.660	-0.173	-0.190
-648.784	-37.691	0.323	-0.173
-647.770	-200.000	0.009	-0.353
-646.755	248.129	0.154	-0.261
-645.741	756.647	-0.114	-0.311
-644.726	-39.433	-0.158	-0.084
-643.711	-176.443	-0.364	-0.009
-642.697	-22.046	-0.197	0.121
-641.682	-101.958	0.221	-0.054
-640.668	800.000	-0.020	-0.088
-639.653	-185.897	-0.270	0.004
-638.638	-200.000	-0.017	0.304
-637.624	76.661	-0.195	0.208
-636.609	107.900	0.051	-0.061
-635.595	-32.282	-0.190	0.107
-634.580	264.805	0.177	0.311
-633.565	-200.000	0.065	0.299
-632.551	80.966	-0.115	0.125
-631.536	125.742	-0.142	0.180
-630.522	-22.893	0.361	0.219
-629.507	-145.900	0.116	-0.010
-628.492	142.622	-0.055	0.074
-627.478	-94.634	-0.122	0.033
-626.463	17.087	-0.228	-0.182
-625.449	-22.449	0.422	-0.257
-624.434	355.429	0.116	0.232
-623.419	42.329	-0.110	0.100
-622.405	800.000	0.086	-0.355
-621.390	-200.000	0.058	0.317
-620.376	743.759	-0.173	-0.467
-619.361	-200.000	0.030	-0.163
-618.346	-200.000	0.013	-0.284
-617.332	-92.303	-0.252	-0.071
-616.317	202.000	-0.093	0.144
-615.303	-64.254	0.239	-0.098
-614.288	38.382	0.275	0.246
-613.273	37.391	-0.091	-0.081
-612.259	149.875	-0.071	0.097
-611.244	-200.000	0.034	0.150
-610.230	120.591	0.072	-0.090
-609.215	111.381	0.169	0.204
-608.201	115.855	0.068	-0.084
-607.186	-79.486	-0.079	-0.027
-606.171	-200.000	0.005	-0.050
-605.157	-40.895	-0.130	0.068
-604.142	800.000	0.041	0.115
-603.128	-200.000	-0.008	0.048
-602.113	-111.743	0.022	0.005
-601.098	-170.198	-0.301	-0.011
-600.084	-51.298	0.295	-0.139
-599.069	61.902	0.035	-0.035
-598.055	-200.000	0.019	0.112
-597.040	-200.000	0.044	-0.198
-596.025	81.686	0.080	-0.087
-595.011	-37.116	0.186	0.100
-593.996	-72.027	-0.447	0.167
-592.982	-12.593	-0.253	0.166
-591.967	646.484	0.057	-0.146
-590.952	-13.149	0.262	0.171
-589.938	-99.939	-0.328	0.082
-588.923	80.014	-0.172	0.185
-587.909	160.394	0.142	0.199
-586.894	3.650	0.155	0.113
-585.879	726.897	-0.061	0.163
-584.865	64.752	0.220	-0.223
-583.850	-69.526	-0.120	-0.046
-582.836	155.199	-0.225	0.311
-581.821	2.522	-0.213	-0.155
-580.806	-83.280	0.398	0.128
-579.792	130.033	0.224	-0.287
-578.777	800.000	0.032	0.093
-577.763	61.217	-0.340	0.338
-576.748	-31.328	-0.474	-0.268
-575.733	-167.347	0.344	-0.014
-574.719	-9.731	0.366	0.245
-573.704	-200.000	-0.045	0.229
-572.690	-5.186	0.177	-0.122
-571.675	-200.000	-0.015	0.229
-570.661	-200.000	-0.029	0.382
-569.646	-200.000	0.045	0.277
-568.631	101.903	-0.111	0.130
-567.617	-44.617	-0.086	-0.043
-566.602	-123.801	-0.179	-0.028
-565.588	36.042	0.049	0.043
-564.573	800.000	0.072	-0.296
-563.558	800.000	0.063	0.175
-562.544	797.226	-0.120	0.332
-561.529	-16.518	-0.150	-0.095
-560.515	49.651	0.379	0.358
-559.500	192.925	-0.224	-0.339
-558.485	-200.000	-0.007	0.155
-557.471	61.224	0.119	0.118
-556.456	-200.000	0.024	-0.170
-555.442	99.806	0.331	-0.385
-554.427	-4.337	0.204	-0.141
-553.412	800.000	0.036	0.147
-552.398	-200.000	0.044	0.320
-551.383	375.468	0.029	-0.059
-550.369	-75.283	0.142	0.051
-549.354	111.455	0.048	-0.058
-548.339	800.000	-0.059	0.207
-547.325	294.621	0.080	0.146
-546.310	151.393	0.086	0.117
-545.296	-171.370	0.295	-0.010
-544.281	-65.426	-0.116	-0.047
-543.266	296.683	0.062	0.113
-542.252	25.778	-0.066	0.055
-541.237	86.058	-0.169	-0.186
-540.223	379.414	-0.081	0.165
-539.208	320.023	-0.209	-0.397
-538.193	800.000	-0.052	-0.175
-537.179	-200.000	-0.027	-0.129
-536.164	800.000	0.118	-0.377
-535.150	-132.416	0.167	-0.022
-534.135	-200.000	0.030	0.210
-533.121	166.650	-0.138	0.196
-532.106	285.626	-0.073	-0.132
-531.091	-200.000	-0.011	-0.082
-530.077	-10.062	0.069	-0.046
-529.062	-133.787	-0.328	-0.041
-528.048	-99.543	-0.126	-0.032
-527.033	-118.697	-0.181	0.032
-526.018	-200.000	0.016	0.288
-525.004	-132.280	0.220	0.028
-523.989	-200.000	0.039	0.185
-522.975	-59.011	-0.075	-0.033
-521.960	-189.339	-0.264	-0.003
-520.945	-1.113	-0.168	-0.119
-519.931	-166.835	0.310	0.013
-518.916	246.571	-0.073	-0.123
-517.902	29.797	0.083	0.071
-516.887	122.817	0.192	-0.240
-515.872	-200.000	0.002	-0.265
-514.858	195.997	0.166	-0.253
-513.843	-139.506	0.056	0.006
-512.829	800.000	0.045	-0.151
-511.814	-180.862	0.285	-0.006
-510.799	497.091	-0.135	0.310
-509.785	-189.985	0.385	0.004
-508.770	19.006	0.196	0.157
-507.756	-144.660	0.174	-0.016
-506.741	277.086	-0.059	0.105
-505.726	-145.193	-0.188	-0.017
-504.712	-10.093	-0.140	0.093
-503.697	800.000	-0.083	0.263
-502.683	31.915	0.304	0.262
-501.668	-115.608	0.310	0.058
-500.653	-59.108	0.237	-0.102
-499.639	-80.133	0.259	-0.087
-498.624	393.130	-0.047	-0.099
-497.610	-200.000	-0.026	0.181
-496.595	-118.270	-0.278	-0.050
-495.581	-95.129	-0.151	0.041
-494.566	800.000	0.081	-0.302
-493.551	539.582	-0.163	-0.387
-492.537	-25.216	-0.145	-0.086
-491.522	795.747	-0.024	-0.065
-490.508	12.878	-0.084	0.065
-489.493	-141.205	0.300	-0.031
-488.478	-65.914	-0.024	-0.010
-487.464	117.106	-0.150	-0.184
-486.449	21.077	0.284	-0.230
-485.435	705.164	-0.039	0.104
-484.420	-56.426	0.405	-0.180
-483.405	-200.000	0.010	-0.356
-482.391	151.135	0.124	0.168
-481.376	-200.000	-0.033	0.192
-480.362	47.975	0.140	0.131
-479.347	-78.256	0.191	-0.065
-478.332	-173.736	0.242	-0.007
-477.318	-104.494	-0.108	-0.025
-476.303	115.261	0.110	0.135
-475.289	-129.077	-0.608	-0.085
-474.274	411.916	-0.117	-0.249
-473.259	-200.000	-0.054	0.368
-472.245	-85.891	0.276	-0.085
-471.230	61.441	0.125	0.124
-470.216	-17.229	-0.136	-0.086
-469.201	-28.632	-0.092	-0.053
-468.186	-200.000	0.074	0.430
-467.172	-200.000	-0.001	-0.048
-466.157	800.000	-0.096	0.359
-465.143	-41.645	0.285	-0.146
-464.128	-200.000	-0.025	0.263
-463.113	-200.000	0.005	0.218
-462.099	-200.000	-0.020	0.308
-461.084	-101.727	-0.146	-0.035
-460.070	175.171	0.122	-0.176
-459.055	-53.522	0.085	0.039
-458.040	51.546	-0.085	-0.081
-457.026	-200.000	0.002	-0.136
-456.011	-88.746	-0.118	-0.035
-454.997	-80.186	-0.203	-0.068
-453.982	-35.508	0.446	0.242
-452.968	800.000	-0.071	-0.200
-451.953	13.788	-0.163	0.127
-450.938	17.582	-0.235	-0.187
-449.924	2.875	-0.213	0.154
-448.909	359.530	0.091	0.181
-447.895	-128.616	-0.067	0.009
-446.880	0.083	0.075	-0.053
-445.865	-184.805	-0.201	-0.003
-444.851	-104.995	-0.452	0.103
-443.836	800.000	-0.040	0.127
-442.822	800.000	0.047	0.132
-441.807	-200.000	0.015	0.369
-440.792	-85.728	0.057	-0.018
-439.778	-80.615	-0.179	-0.059
-438.763	211.862	0.091	-0.143
-437.749	-200.000	-0.050	-0.332
-436.734	-85.676	0.133	0.041
-435.719	513.183	-0.036	0.085
-434.705	-200.000	0.015	-0.323
-433.690	-50.381	0.393	-0.185
-432.676	-200.000	-0.026	-0.166
-431.661	-200.000	-0.066	0.331
-430.646	-18.805	-0.260	-0.161
-429.632	167.641	-0.135	-0.191
-428.617	83.922	0.126	0.137
-427.603	-200.000	-0.004	-0.366
-426.588	-5.761	0.265	-0.181
-425.573	79.284	0.208	-0.223
-424.559	-200.000	-0.030	-0.150
-423.544	-200.000	0.003	0.022
-422.530	-200.000	0.053	-0.237
-421.515	-165.238	-0.083	-0.004
-420.500	-91.889	0.045	-0.013
-419.486	-54.915	-0.322	-0.145
-418.471	-81.271	-0.274	-0.090
-417.457	114.331	-0.137	0.166
-416.442	-162.302	0.042	-0.002
-415.428	-24.794	0.479	0.283
-414.413	800.000	0.101	-0.287
-413.398	-200.000	0.017	-0.102
-412.384	-200.000	-0.002	-0.168
-411.369	765.703	-0.055	-0.149
-410.355	89.945	-0.102	0.114
-409.340	47.906	-0.172	-0.160
-408.325	9.142	0.083	-0.062
-407.311	-200.000	-0.011	-0.105
-406.296	141.124	-0.268	-0.353
-405.282	800.000	0.022	-0.092
-404.267	-200.000	-0.044	-0.274
-403.252	350.066	-0.172	-0.338
-402.238	-200.000	-0.029	-0.299
-401.223	376.899	0.063	0.127
-400.209	-90.347	-0.418	-0.121
-399.194	-102.422	0.166	-0.040
-398.179	468.297	-0.075	0.167
-397.165	524.352	0.040	-0.093
-396.150	40.545	-0.374	-0.336
-395.136	69.871	-0.058	0.060
-394.121	-45.567	-0.067	-0.033
-393.106	70.549	-0.172	-0.177
-392.092	116.874	0.247	-0.302
-391.077	62.811	-0.167	-0.167
-390.063	68.008	0.042	0.042
-389.048	-200.000	-0.024	0.220
-388.033	-13.578	0.005	-0.003
-387.019	-114.903	0.247	0.047
-386.004	-176.782	-0.235	0.006
-384.990	-100.823	0.360	0.088
-383.975	634.436	0.179	0.451
-382.960	-109.636	0.096	-0.020
-381.946	800.000	-0.113	0.313
-380.931	191.204	-0.168	-0.251
-379.917	172.782	0.108	0.155
-378.902	445.344	0.115	-0.251
-377.888	54.744	-0.123	0.118
-376.873	-15.007	-0.172	0.110
-375.858	800.000	-0.070	0.227
-374.844	-68.469	0.266	-0.103
-373.829	-158.445	0.155	0.009
-372.815	800.000	0.104	0.311
-371.800	-41.561	0.112	0.057
-370.785	108.846	0.038	-0.045
-369.771	-123.752	-0.065	0.010
-368.756	-93.812	-0.150	0.041
-367.742	22.689	-0.231	0.188
-366.727	158.230	-0.220	-0.304
-365.712	-66.203	-0.353	0.140
-364.698	-160.734	0.165	0.009
-363.683	582.508	0.091	-0.222
-362.669	397.925	-0.047	-0.099
-361.654	-64.660	0.198	-0.080
-360.639	-28.325	0.305	-0.175
-359.625	-14.970	0.106	0.068
-358.610	-55.527	-0.068	-0.030
-357.596	367.212	0.024	-0.048
-356.581	-200.000	-0.020	-0.153
-355.566	-119.559	0.245	0.042
-354.552	224.234	0.197	0.316
-353.537	306.384	0.057	0.106
-352.523	-200.000	0.025	0.402
-351.508	331.922	-0.078	0.150
-350.493	117.675	-0.254	0.311
-349.479	-26.993	0.253	0.147
-348.464	-200.000	-0.001	-0.121
-347.450	-0.428	-0.129	-0.091
-346.435	594.290	-0.072	0.176
-345.420	146.063	-0.092	0.123
-344.406	408.562	0.055	0.116
-343.391	392.479	-0.078	0.161
-342.377	-200.000	0.007	0.361
-341.362	214.265	0.049	-0.077
-340.348	-200.000	-0.024	-0.378
-339.333	-148.934	-0.315	0.025
-338.318	-181.765	0.144	-0.003
-337.304	261.367	0.046	0.079
-336.289	53.087	-0.190	0.180
-335.275	63.899	-0.134	-0.134
-334.260	108.816	-0.059	-0.070
-333.245	800.000	0.166	0.484
-332.231	7.620	0.129	-0.096
-331.216	175.109	-0.191	-0.275
-330.202	40.865	0.049	-0.044
-329.187	-200.000	0.020	-0.194
-328.172	-82.114	-0.056	-0.018
-327.158	-200.000	-0.027	-0.131
-326.143	51.175	-0.202	0.190
-325.129	80.391	0.121	0.129
-324.114	-39.890	0.104	0.054
-323.099	-200.000	-0.002	-0.070
-322.085	203.852	0.298	-0.458
-321.070	-150.811	-0.150	0.011
-320.056	-129.896	0.301	-0.041
-319.041	68.063	-0.249	0.253
-318.026	251.562	-0.161	0.273
-317.012	-93.473	0.170	0.047
-315.997	182.113	0.145	-0.212
-314.983	259.009	0.068	0.116
-313.968	203.252	0.091	-0.140
-312.953	-85.015	-0.169	0.053
-311.939	-200.000	0.017	0.208
-310.924	800.000	-0.071	0.240
-309.910	699.595	0.080	0.209
-308.895	467.356	-0.044	-0.098
-307.880	417.379	0.146	-0.309
-306.866	82.071	0.185	-0.199
-305.851	-143.955	-0.161	-0.015
-304.837	-200.000	0.022	-0.194
-303.822	25.315	-0.236	-0.194
-302.807	-18.849	-0.235	0.145
-301.793	49.742	0.070	-0.065
-300.778	-60.168	0.072	0.030
-299.764	-200.000	0.012	0.171
-298.749	-200.000	-0.032	-0.385
-297.735	-108.581	-0.128	-0.027
-296.720	-121.201	0.138	0.023
-295.705	17.030	0.251	-0.197
-294.691	-139.638	-0.201	0.021
-293.676	11.444	0.228	-0.173
-292.662	800.000	-0.045	-0.151
-291.647	-146.544	0.164	0.014
-290.632	-35.001	-0.260	0.140
-289.618	41.758	-0.206	0.185
-288.603	-12.327	0.188	-0.122
-287.589	-79.039	-0.270	0.091
-286.574	354.452	0.075	-0.147
-285.559	-92.995	0.158	0.044
-284.545	167.891	-0.117	-0.165
-283.530	800.000	-0.099	-0.306
-282.516	-94.191	0.288	0.078
-281.501	-45.112	-0.338	-0.167
-280.486	46.506	-0.100	-0.092
-279.472	-200.000	-0.007	-0.082
-278.457	-126.865	0.117	0.017
-277.443	-200.000	0.011	-0.129
-276.428	63.316	-0.101	-0.101
-275.413	-200.000	0.018	0.103
-274.399	643.172	-0.098	0.248
-273.384	-200.000	-0.037	-0.278
-272.370	23.316	0.218	-0.177
-271.355	145.998	0.206	0.274
-270.340	72.986	0.228	0.236
-269.326	-200.000	-0.008	-0.074
-268.311	666.988	0.210	-0.537
-267.297	-200.000	-0.013	-0.143
-266.282	-107.912	0.151	-0.033
-265.267	-158.546	0.173	-0.010
-264.253	467.101	0.020	-0.045
-263.238	800.000	-0.108	0.384
-262.224	800.000	-0.027	-0.085
-261.209	800.000	-0.033	0.101
-260.195	93.345	0.243	0.272
-259.180	-5.746	-0.261	-0.177
-258.165	199.550	-0.069	0.105
-257.151	-84.109	-0.074	-0.023
-256.136	97.455	-0.055	-0.062
-255.122	4.395	-0.187	-0.136
-254.107	-189.634	0.483	0.006
-253.092	12.394	-0.143	0.109
-252.078	-78.168	-0.080	-0.027
-251.063	-200.000	0.305	0.000
-250.049	800.000	0.039	0.143
-249.034	-102.353	-0.349	0.083
-248.019	-200.000	0.008	0.186
-247.005	-200.000	0.041	-0.280
-245.990	-108.090	0.125	0.027
-244.976	496.841	-0.087	0.198
-243.961	-123.057	0.479	0.076
-242.946	653.989	-0.049	-0.125
-241.932	-65.813	-0.036	0.014
-240.917	183.620	-0.081	0.118
-239.903	10.407	-0.102	0.077
-238.888	315.078	0.191	0.355
-237.873	-200.000	-0.000	-0.030
-236.859	287.817	0.096	-0.172
-235.844	800.000	0.053	-0.211
-234.830	-47.864	0.271	-0.130
-233.815	324.222	0.055	-0.103
-232.800	-200.000	-0.016	0.266
-231.786	-2.142	-0.238	0.165
-230.771	-16.269	0.156	0.098
-229.757	217.694	-0.052	-0.082
-228.742	128.224	0.252	0.317
-227.727	-22.387	-0.401	-0.240
-226.713	-200.000	0.008	-0.156
-225.698	35.734	0.226	-0.197
-224.684	440.756	0.118	-0.255
-223.669	27.188	0.201	-0.167
-222.655	-64.598	-0.167	0.067
-221.640	81.977	-0.112	-0.120
-220.625	26.344	-0.167	-0.138
-219.611	468.342	0.113	-0.251
-218.596	-200.000	-0.008	-0.367
-217.582	4.346	0.085	-0.062
-216.567	327.833	0.078	0.147
-215.552	196.148	-0.182	-0.274
-214.538	-71.664	0.124	-0.046
-213.523	-200.000	-0.050	-0.280
-212.509	-27.163	-0.244	-0.141
-211.494	-25.465	-0.349	0.204
-210.479	-70.612	-0.200	-0.075
-209.465	13.997	-0.307	-0.236
-208.450	-200.000	0.019	0.140
-207.436	-187.238	0.134	0.002
-206.421	-200.000	0.041	0.387
-205.406	195.400	-0.069	0.104
-204.392	84.660	-0.216	0.234
-203.377	-69.077	0.181	0.069
-202.363	-99.768	-0.282	-0.070
-201.348	-200.000	-0.036	0.285
-200.333	55.999	0.262	0.251
-199.319	-200.000	0.006	-0.261
-198.304	555.235	-0.126	-0.299
-197.290	-3.702	-0.195	0.134
-196.275	-200.000	0.004	0.037
-195.260	177.674	0.292	0.420
-194.246	357.346	-0.163	0.322
-193.231	800.000	0.036	-0.112
-192.217	34.084	-0.166	0.143
-191.202	345.046	0.108	-0.209
-190.187	126.938	0.162	-0.203
-189.173	-57.817	0.394	0.170
-188.158	-43.617	-0.163	-0.081
-187.144	-30.730	0.174	-0.097
-186.129	174.919	-0.101	0.145
-185.114	4.405	-0.259	0.188
-184.100	-200.000	-0.021	-0.165
-183.085	-153.906	0.339	0.023
-182.071	57.557	0.091	0.088
-181.056	0.132	-0.122	0.086
-180.042	800.000	0.017	-0.066
-179.027	-200.000	-0.013	-0.210
-178.012	-91.465	-0.198	-0.056
-176.998	-66.700	0.027	-0.011
-175.983	-84.530	-0.422	0.131
-174.969	396.379	0.093	0.191
-173.954	-97.060	0.231	-0.060
-172.939	-65.562	-0.037	0.015
-171.925	347.831	0.053	0.103
-170.910	-122.332	0.201	0.032
-169.896	-54.974	0.088	-0.039
-168.881	-105.961	-0.293	0.065
-167.866	-13.830	-0.153	0.098
-166.852	57.239	0.116	-0.112
-165.837	-200.000	-0.007	-0.062
-164.823	-48.569	-0.112	-0.053
-163.808	-28.783	-0.180	0.102
-162.793	-200.000	0.008	0.078
-161.779	-18.468	-0.184	-0.113
-160.764	-62.409	-0.317	0.130
-159.750	-200.000	0.013	0.234
-158.735	545.964	0.096	0.226
-157.720	-90.196	-0.179	0.051
-156.706	433.848	0.090	0.193
-155.691	253.841	-0.126	0.213
-154.677	468.064	0.080	-0.178
-153.662	12.294	0.173	-0.131
-152.647	-200.000	-0.038	0.282
-151.633	371.308	-0.083	0.166
-150.618	800.000	-0.011	-0.035
-149.604	102.588	-0.116	-0.133
-148.589	175.457	0.180	0.257
-147.574	-122.660	0.267	-0.043
-146.560	76.956	0.337	0.353
-145.545	-200.000	0.026	-0.128
-144.531	725.553	-0.103	-0.270
-143.516	1.854	0.259	-0.184
-142.502	14.762	0.087	0.067
-141.487	-200.000	-0.010	0.217
-140.472	131.942	0.173	0.220
-139.458	24.783	-0.148	0.121
-138.443	91.338	0.110	0.122
-137.429	2.781	0.432	0.309
-136.414	-100.026	0.535	-0.131
-135.399	-200.000	0.002	0.039
-134.385	800.000	-0.061	0.182
-133.370	-120.617	-0.193	-0.032
-132.356	-81.184	0.508	-0.166
-131.341	543.518	0.120	0.281
-130.326	382.993	-0.102	-0.207
-129.312	44.548	0.091	-0.082
-128.297	200.535	-0.032	-0.049
-127.283	-200.000	-0.007	-0.086
-126.268	-102.392	-0.318	0.075
-125.253	-191.680	-0.190	0.002
-124.239	131.746	-0.381	0.483
-123.224	-200.000	0.018	0.093
-122.210	253.556	0.213	0.358
-121.195	-200.000	0.021	0.318
