DTS Sentinel unit serial number:	SN413079Multiplexer serial number:	ORYXHardware model number:	OX4-SRSoftware version number:	ORYX F/W v4.00 Oryx Data Collector v3.7.2.0data status	okinstallation	princeton_trtdifferential loss correction	single-endedforward channel	channel 1reverse channel	N/Adate	2019/09/12time	00:28:11forward acquisition time	60.00reverse acquisition time	0.00gamma	496.2192k internal	0.2318k external	0.2318temperature offset calibration	1.0076default loss term (dB/km)	0.3790temperature slope calibration	1.0000multiplexer offset coefficient	1.0000multiplexer slope coefficient	1.0000fibre end	0.00T internal ref (°C)	33.44T ext. ref 1 (°C)	2.08T ext. ref 2 (°C)	27.83length (m)	temperature (°C)	Stokes	anti-Stokes-747.200	-200.000	-0.037	0.263
-746.185	-7.866	-0.185	-0.127
-745.171	800.000	-0.117	0.443
-744.156	-200.000	-0.056	0.287
-743.142	267.697	0.099	-0.176
-742.127	-93.331	-0.122	-0.034
-741.112	-200.000	0.012	-0.068
-740.098	800.000	0.103	0.291
-739.083	-200.000	-0.002	0.344
-738.069	-200.000	0.004	0.200
-737.054	154.735	-0.084	-0.117
-736.039	661.276	-0.015	-0.040
-735.025	-200.000	0.034	0.331
-734.010	-195.583	-0.312	-0.002
-732.996	-131.363	0.144	-0.019
-731.981	800.000	-0.076	0.241
-730.966	-102.108	-0.145	-0.035
-729.952	-34.147	-0.125	-0.070
-728.937	-200.000	0.006	-0.136
-727.923	639.617	-0.123	0.317
-726.908	-90.348	-0.108	0.032
-725.894	-150.322	-0.102	-0.008
-724.879	-200.000	0.046	-0.243
-723.864	-173.461	-0.207	-0.006
-722.850	212.059	-0.095	-0.151
-721.835	118.785	-0.151	0.188
-720.821	312.007	-0.095	-0.181
-719.806	32.010	-0.171	0.149
-718.791	579.518	-0.140	0.346
-717.777	-50.037	-0.416	-0.199
-716.762	31.081	0.308	-0.267
-715.748	183.156	0.010	-0.015
-714.733	51.104	-0.078	-0.075
-713.718	800.000	0.072	0.206
-712.704	27.449	-0.179	0.152
-711.689	-200.000	-0.041	-0.430
-710.675	40.849	0.234	-0.214
-709.660	-140.730	0.245	-0.026
-708.645	208.208	0.203	-0.321
-707.631	-23.787	0.099	-0.060
-706.616	102.364	0.242	-0.286
-705.602	-200.000	0.013	0.378
-704.587	800.000	0.023	0.084
-703.572	29.454	0.106	0.091
-702.558	-200.000	0.046	0.434
-701.543	-57.936	-0.321	-0.142
-700.529	69.613	-0.293	-0.305
-699.514	-190.474	-0.115	0.001
-698.499	69.040	-0.102	-0.106
-697.485	800.000	-0.062	-0.252
-696.470	88.789	-0.174	-0.195
-695.456	209.581	0.071	-0.113
-694.441	48.065	-0.116	-0.110
-693.426	-200.000	-0.011	-0.118
-692.412	355.955	-0.026	0.052
-691.397	238.052	-0.121	-0.203
-690.383	529.842	-0.051	-0.122
-689.368	-200.000	-0.005	0.115
-688.354	179.844	-0.104	-0.154
-687.339	13.312	0.081	-0.063
-686.324	-200.000	0.073	-0.363
-685.310	-32.917	-0.335	-0.188
-684.295	142.504	0.142	-0.190
-683.281	-200.000	0.063	0.315
-682.266	-112.670	-0.085	-0.017
-681.251	637.582	0.134	-0.343
-680.237	-158.199	-0.183	-0.011
-679.222	-43.845	-0.083	0.042
-678.208	191.569	-0.077	0.117
-677.193	-7.860	-0.127	-0.087
-676.178	-106.964	0.302	-0.068
-675.164	147.380	-0.114	0.154
-674.149	-122.162	0.164	0.027
-673.135	800.000	-0.055	-0.200
-672.120	70.823	-0.173	-0.181
-671.105	161.540	-0.034	0.048
-670.091	-65.002	-0.152	0.062
-669.076	-183.698	-0.134	-0.002
-668.062	-2.976	0.283	0.199
-667.047	35.277	0.222	-0.196
-666.032	482.602	-0.125	-0.288
-665.018	-200.000	-0.011	0.171
-664.003	800.000	0.110	0.316
-662.989	800.000	-0.131	0.402
-661.974	800.000	0.029	0.100
-660.959	-200.000	0.022	-0.165
-659.945	-200.000	-0.009	0.416
-658.930	800.000	0.028	0.084
-657.916	-200.000	0.042	0.190
-656.901	690.672	0.012	-0.032
-655.886	-132.181	-0.459	-0.060
-654.872	-172.981	0.369	0.012
-653.857	211.195	-0.164	0.260
-652.843	6.746	0.094	-0.071
-651.828	-129.223	-0.112	0.016
-650.814	-25.174	0.285	-0.170
-649.799	-66.373	0.186	-0.075
-648.784	-73.003	-0.252	-0.093
-647.770	-200.000	0.001	0.023
-646.755	81.474	-0.179	-0.195
-645.741	6.667	0.060	0.045
-644.726	-159.417	-0.210	0.012
-643.711	800.000	0.092	0.377
-642.697	-200.000	-0.057	-0.305
-641.682	-200.000	0.020	0.130
-640.668	-32.249	0.413	-0.233
-639.653	192.395	0.128	-0.194
-638.638	-200.000	-0.026	-0.550
-637.624	-131.625	0.079	0.010
-636.609	-200.000	0.001	-0.184
-635.595	172.761	-0.228	-0.331
-634.580	53.265	-0.148	-0.143
-633.565	-200.000	-0.038	-0.364
-632.551	473.070	0.093	-0.211
-631.536	576.350	-0.063	0.154
-630.522	-200.000	0.007	-0.067
-629.507	-40.393	-0.270	0.141
-628.492	-200.000	-0.011	-0.147
-627.478	-91.153	0.228	0.066
-626.463	26.041	-0.216	0.182
-625.449	-148.785	-0.123	-0.010
-624.434	234.785	-0.015	-0.025
-623.419	142.324	-0.091	0.121
-622.405	800.000	-0.110	-0.401
-621.390	297.812	-0.097	-0.180
-620.376	-200.000	-0.014	-0.279
-619.361	800.000	-0.073	-0.213
-618.346	565.997	-0.058	0.142
-617.332	-117.451	-0.234	-0.043
-616.317	98.279	-0.328	0.381
-615.303	-90.237	0.266	-0.078
-614.288	144.212	-0.104	-0.140
-613.273	-200.000	-0.030	0.319
-612.259	-23.300	0.197	0.120
-611.244	-15.017	-0.385	0.248
-610.230	3.827	0.361	0.265
-609.215	5.048	-0.025	0.019
-608.201	-175.335	-0.261	0.007
-607.186	649.873	-0.095	-0.245
-606.171	136.481	0.174	-0.228
-605.157	138.011	0.081	-0.107
-604.142	-200.000	0.001	-0.032
-603.128	800.000	-0.100	-0.317
-602.113	-200.000	-0.018	-0.232
-601.098	83.930	0.215	-0.236
-600.084	240.452	-0.064	-0.107
-599.069	193.709	0.096	0.146
-598.055	149.448	0.115	0.156
-597.040	-97.654	0.256	-0.067
-596.025	292.465	0.061	0.112
-595.011	-161.292	0.434	0.023
-593.996	507.805	-0.100	-0.232
-592.982	740.943	0.051	0.138
-591.967	312.850	0.154	0.292
-590.952	-200.000	-0.025	-0.242
-589.938	-81.433	-0.338	-0.112
-588.923	-63.437	-0.123	-0.051
-587.909	-200.000	0.014	0.223
-586.894	581.112	-0.144	-0.354
-585.879	800.000	-0.124	0.352
-584.865	693.271	-0.118	0.311
-583.850	-61.395	-0.132	-0.056
-582.836	359.887	-0.061	0.122
-581.821	800.000	0.046	0.184
-580.806	166.213	0.070	0.099
-579.792	800.000	0.098	0.407
-578.777	-200.000	0.020	0.184
-577.763	28.035	-0.109	0.092
-576.748	-200.000	-0.097	0.562
-575.733	396.258	-0.017	0.036
-574.719	-155.546	-0.370	0.024
-573.704	-196.735	-0.412	-0.003
-572.690	37.816	0.174	0.155
-571.675	113.236	0.239	0.292
-570.661	38.212	-0.137	-0.122
-569.646	-147.284	-0.258	-0.022
-568.631	-200.000	-0.036	0.179
-567.617	800.000	-0.027	-0.101
-566.602	-200.000	0.067	-0.410
-565.588	-4.940	-0.104	0.072
-564.573	-97.862	-0.123	-0.032
-563.558	107.679	0.164	-0.196
-562.544	-200.000	0.009	0.324
-561.529	355.609	-0.189	0.377
-560.515	-60.168	-0.397	0.170
-559.500	703.326	-0.042	-0.111
-558.485	441.735	-0.158	-0.347
-557.471	357.268	-0.063	-0.127
-556.456	185.928	0.157	-0.235
-555.442	35.779	-0.163	0.144
-554.427	-200.000	0.000	0.130
-553.412	-23.960	-0.127	-0.077
-552.398	-4.518	-0.182	-0.126
-551.383	-4.221	0.252	0.175
-550.369	189.726	0.080	0.120
-549.354	-77.524	0.254	0.089
-548.339	-47.332	-0.182	0.089
-547.325	800.000	0.049	0.140
-546.310	-138.382	0.128	-0.014
-545.296	-48.334	0.222	0.108
-544.281	-131.791	-0.373	0.049
-543.266	536.208	-0.107	0.256
-542.252	800.000	-0.061	0.181
-541.237	23.711	-0.239	-0.197
-540.223	-200.000	0.008	0.309
-539.208	-200.000	0.034	0.270
-538.193	-136.858	0.098	0.011
-537.179	-61.672	0.116	-0.049
-536.164	-91.518	-0.179	0.051
-535.150	-200.000	-0.069	0.306
-534.135	-23.766	0.247	-0.149
-533.121	-200.000	0.028	-0.301
-532.106	800.000	-0.038	-0.130
-531.091	-5.989	0.193	0.132
-530.077	-200.000	0.030	-0.212
-529.062	136.123	0.139	-0.182
-528.048	271.091	0.132	-0.234
-527.033	-129.031	-0.041	0.006
-526.018	175.259	-0.061	0.089
-525.004	221.882	-0.163	-0.263
-523.989	-114.056	0.521	-0.101
-522.975	120.346	0.083	-0.104
-521.960	-200.000	-0.003	-0.026
-520.945	-110.362	0.385	-0.080
-519.931	9.592	0.215	0.164
-518.916	-24.491	-0.249	0.149
-517.902	161.372	-0.082	-0.116
-516.887	-40.840	0.124	-0.065
-515.872	237.893	-0.098	-0.163
-514.858	-137.059	0.199	0.023
-513.843	800.000	-0.030	-0.096
-512.829	-124.388	0.164	-0.026
-511.814	-143.594	0.322	0.031
-510.799	800.000	0.041	0.116
-509.785	539.290	0.047	0.112
-508.770	-112.417	-0.158	-0.032
-507.756	800.000	0.005	-0.014
-506.741	-138.706	0.312	-0.034
-505.726	-87.054	0.114	0.035
-504.712	123.276	0.148	0.185
-503.697	56.264	0.092	0.090
-502.683	419.894	0.028	0.060
-501.668	-154.555	-0.221	0.015
-500.653	-200.000	0.050	-0.348
-499.639	-170.258	0.103	-0.004
-498.624	30.745	0.142	-0.122
-497.610	-39.337	-0.048	-0.025
-496.595	-51.974	-0.265	0.124
-495.581	-200.000	-0.037	-0.565
-494.566	-200.000	0.009	-0.207
-493.551	84.150	-0.248	0.271
-492.537	-71.849	-0.197	0.073
-491.522	55.376	0.064	-0.062
-490.508	-27.273	-0.084	-0.049
-489.493	-200.000	0.006	0.043
-488.478	-154.717	-0.256	0.017
-487.464	125.295	0.017	0.022
-486.449	82.985	-0.105	-0.115
-485.435	800.000	-0.104	0.324
-484.420	-72.809	0.156	0.058
-483.405	283.378	0.004	0.008
-482.391	800.000	0.049	0.153
-481.376	-56.007	-0.163	-0.073
-480.362	-200.000	0.029	0.271
-479.347	-8.004	-0.073	0.049
-478.332	435.486	0.021	-0.046
-477.318	800.000	0.028	0.080
-476.303	152.897	0.155	0.212
-475.289	-125.415	0.192	-0.029
-474.274	-106.730	-0.243	0.054
-473.259	800.000	-0.058	0.201
-472.245	-55.598	-0.172	-0.077
-471.230	134.590	0.224	-0.291
-470.216	57.734	-0.068	-0.066
-469.201	-43.748	0.366	0.184
-468.186	-68.751	-0.095	-0.037
-467.172	-200.000	-0.006	0.311
-466.157	-187.669	-0.230	-0.003
-465.143	49.080	0.006	0.005
-464.128	800.000	-0.061	0.199
-463.113	-143.357	0.047	0.005
-462.099	54.604	0.188	-0.182
-461.084	200.520	-0.125	0.192
-460.070	-43.791	0.038	0.019
-459.055	401.484	-0.089	-0.188
-458.040	-193.334	0.111	0.001
-457.026	-200.000	-0.008	-0.077
-456.011	-200.000	-0.012	0.122
-454.997	106.460	-0.098	0.117
-453.982	309.880	0.049	-0.092
-452.968	-64.717	-0.154	-0.062
-451.953	105.380	0.328	0.388
-450.938	-61.702	-0.177	0.074
-449.924	-149.454	-0.284	-0.023
-448.909	-125.214	0.240	-0.037
-447.895	111.421	-0.197	-0.238
-446.880	-68.921	0.218	0.084
-445.865	-138.988	0.186	0.020
-444.851	-132.730	-0.306	0.039
-443.836	-110.372	0.191	0.040
-442.822	102.295	-0.232	-0.271
-441.807	-9.942	-0.363	0.242
-440.792	-200.000	0.026	0.131
-439.778	800.000	0.037	-0.110
-438.763	-153.119	0.240	0.017
-437.749	104.020	-0.197	0.231
-436.734	-200.000	-0.007	-0.087
-435.719	8.022	0.053	0.040
-434.705	-40.201	0.212	-0.110
-433.690	13.301	-0.163	0.126
-432.676	800.000	-0.097	0.343
-431.661	8.934	-0.211	0.159
-430.646	614.413	0.100	-0.250
-429.632	800.000	-0.097	0.277
-428.617	109.038	0.046	0.055
-427.603	15.035	0.169	0.132
-426.588	-69.411	-0.087	-0.034
-425.573	106.627	-0.135	0.160
-424.559	654.727	0.110	-0.283
-423.544	747.485	0.032	0.085
-422.530	137.824	0.188	0.247
-421.515	-29.064	0.073	-0.042
-420.500	-95.694	0.248	0.066
-419.486	249.186	-0.124	-0.210
-418.471	-200.000	-0.046	0.238
-417.457	-110.549	-0.100	-0.021
-416.442	-77.658	-0.160	-0.055
-415.428	441.354	-0.074	0.162
-414.413	32.310	0.302	0.261
-413.398	-137.845	-0.086	0.010
-412.384	800.000	0.039	0.170
-411.369	43.589	0.128	-0.117
-410.355	-10.143	0.164	0.109
-409.340	6.134	0.054	-0.040
-408.325	-200.000	-0.391	-0.001
-407.311	224.873	0.079	-0.128
-406.296	-124.669	-0.155	0.024
-405.282	-200.000	0.012	-0.236
-404.267	242.203	-0.093	-0.155
-403.252	-23.272	0.352	0.211
-402.238	-34.727	-0.354	0.193
-401.223	37.019	0.139	0.123
-400.209	-200.000	-0.050	0.284
-399.194	113.551	0.088	-0.106
-398.179	800.000	-0.062	-0.212
-397.165	-176.533	-0.170	0.004
-396.150	-167.771	-0.281	0.011
-395.136	137.727	0.132	0.172
-394.121	21.481	0.228	-0.185
-393.106	-21.772	0.113	-0.069
-392.092	-200.000	-0.004	-0.282
-391.077	150.498	-0.177	-0.240
-390.063	8.366	0.117	-0.088
-389.048	112.059	0.150	0.181
-388.033	-139.692	-0.268	-0.028
-387.019	-47.770	-0.164	0.079
-386.004	800.000	-0.046	-0.141
-384.990	-96.594	-0.162	-0.043
-383.975	-200.000	-0.053	-0.301
-382.960	34.357	0.127	0.110
-381.946	-200.000	0.021	0.370
-380.931	40.800	-0.131	0.118
-379.917	336.581	0.127	-0.247
-378.902	-11.656	-0.120	0.079
-377.888	47.850	0.065	-0.061
-376.873	-200.000	0.051	0.305
-375.858	205.404	0.046	0.072
-374.844	78.969	0.225	-0.240
-373.829	-200.000	0.028	-0.168
-372.815	-67.167	0.156	0.061
-371.800	-87.456	-0.380	-0.115
-370.785	-135.913	-0.171	0.020
-369.771	800.000	0.017	0.058
-368.756	-200.000	-0.004	0.085
-367.742	15.348	-0.220	0.172
-366.727	-68.615	0.237	-0.091
-365.712	237.472	-0.194	-0.320
-364.698	763.993	-0.055	-0.149
-363.683	53.855	-0.112	0.107
-362.669	-99.934	-0.293	-0.073
-361.654	-200.000	0.052	0.617
-360.639	-90.971	-0.261	-0.075
-359.625	-157.698	-0.094	-0.006
-358.610	-200.000	0.003	-0.048
-357.596	102.341	0.319	-0.371
-356.581	47.207	0.294	0.272
-355.566	160.641	0.197	-0.274
-354.552	-134.606	-0.197	0.024
-353.537	-73.027	0.210	0.077
-352.523	800.000	-0.148	0.417
-351.508	-32.803	-0.294	-0.163
-350.493	151.930	0.151	-0.206
-349.479	105.031	0.073	-0.086
-348.464	171.186	0.111	0.159
-347.450	-200.000	0.060	0.304
-346.435	-200.000	-0.017	-0.136
-345.420	-70.573	0.243	0.092
-344.406	110.855	-0.045	-0.054
-343.391	541.749	0.091	0.217
-342.377	55.916	0.116	0.112
-341.362	83.157	-0.221	0.239
-340.348	153.320	0.197	-0.269
-339.333	-200.000	0.024	-0.218
-338.318	-148.736	-0.295	0.024
-337.304	-150.624	0.189	-0.014
-336.289	604.765	0.011	-0.027
-335.275	-200.000	0.053	0.423
-334.260	129.633	0.062	-0.079
-333.245	-158.063	-0.072	0.004
-332.231	121.664	0.280	-0.347
-331.216	-200.000	-0.008	0.066
-330.202	-78.720	0.072	0.024
-329.187	151.248	0.109	-0.148
-328.172	-200.000	0.020	-0.390
-327.158	-105.644	-0.253	-0.057
-326.143	-62.983	-0.215	0.088
-325.129	-127.417	0.272	0.039
-324.114	699.248	0.131	-0.342
-323.099	310.481	0.066	-0.124
-322.085	196.628	-0.058	0.088
-321.070	-200.000	-0.011	-0.096
-320.056	512.723	-0.164	0.381
-319.041	161.363	0.138	0.191
-318.026	-200.000	-0.015	0.296
-317.012	472.937	-0.066	0.148
-315.997	-200.000	-0.020	0.271
-314.983	384.169	0.169	-0.345
-313.968	-36.513	0.251	-0.134
-312.953	164.618	-0.125	0.175
-311.939	-114.604	-0.198	-0.038
-310.924	32.952	0.201	0.173
-309.910	-11.238	-0.314	-0.206
-308.895	42.361	0.322	0.291
-307.880	757.891	-0.079	0.214
-306.866	-115.739	-0.276	0.051
-305.851	800.000	0.084	0.289
-304.837	-32.614	0.054	-0.030
-303.822	-146.146	-0.206	-0.018
-302.807	-160.381	-0.332	0.018
-301.793	70.387	-0.210	-0.216
-300.778	102.644	-0.062	-0.072
-299.764	68.225	0.294	0.299
-298.749	78.918	0.150	-0.159
-297.735	181.590	0.173	-0.254
-296.720	-200.000	-0.073	0.323
-295.705	147.326	-0.032	-0.043
-294.691	3.169	-0.100	0.072
-293.676	384.171	0.216	0.443
-292.662	-41.854	-0.120	-0.061
-291.647	21.903	0.087	0.071
-290.632	-200.000	0.016	-0.120
-289.618	50.071	0.259	-0.243
-288.603	-17.871	0.040	-0.025
-287.589	-139.842	0.286	-0.030
-286.574	164.649	0.372	-0.522
-285.559	220.089	-0.078	-0.124
-284.545	-98.103	0.190	-0.049
-283.530	-200.000	-0.011	0.145
-282.516	565.067	-0.068	0.164
-281.501	-137.848	0.258	0.029
-280.486	800.000	0.060	0.198
-279.472	590.348	-0.055	0.134
-278.457	34.231	0.255	-0.221
-277.443	-115.469	-0.098	0.018
-276.428	12.753	-0.319	-0.245
-275.413	-43.787	-0.229	-0.115
-274.399	34.194	-0.106	0.092
-273.384	-200.000	-0.002	-0.125
-272.370	-164.542	-0.176	0.008
-271.355	44.921	-0.161	-0.147
-270.340	-49.669	-0.130	-0.062
-269.326	-128.448	0.077	-0.011
-268.311	-41.134	-0.437	-0.224
-267.297	120.241	-0.215	-0.266
-266.282	-200.000	-0.014	-0.183
-265.267	-91.382	0.208	-0.059
-264.253	347.242	-0.147	-0.288
-263.238	800.000	0.074	0.274
-262.224	800.000	0.088	0.278
-261.209	122.261	-0.089	0.111
-260.195	500.846	-0.124	-0.284
-259.180	161.711	-0.222	-0.308
-258.165	405.784	0.068	0.141
-257.151	396.345	0.093	0.192
-256.136	-129.106	0.238	0.033
-255.122	264.404	0.061	0.105
-254.107	324.964	0.187	-0.354
-253.092	-130.655	-0.378	-0.051
-252.078	-59.772	0.066	0.028
-251.063	470.309	-0.107	0.239
-250.049	-84.078	-0.218	-0.069
-249.034	-19.541	-0.222	0.137
-248.019	398.846	0.128	-0.265
-247.005	-62.797	0.164	0.067
-245.990	800.000	-0.057	0.183
-244.976	-35.013	-0.317	0.172
-243.961	-6.985	-0.257	0.173
-242.946	186.589	0.062	0.092
-241.932	-44.130	-0.242	0.121
-240.917	99.192	0.146	-0.168
-239.903	-49.566	-0.141	-0.066
-238.888	-114.766	-0.165	0.031
-237.873	40.066	0.344	0.307
-236.859	120.153	-0.175	0.216
-235.844	-200.000	-0.025	0.201
-234.830	800.000	-0.046	0.183
-233.815	191.007	0.114	-0.171
-232.800	800.000	-0.071	-0.236
-231.786	-5.464	0.260	-0.177
-230.771	554.813	0.103	-0.245
-229.757	-29.871	-0.226	-0.128
-228.742	21.793	-0.118	-0.095
-227.727	27.664	-0.136	0.113
-226.713	-108.785	0.282	-0.060
-225.698	-200.000	0.027	-0.158
-224.684	-200.000	0.020	-0.180
-223.669	292.489	0.136	0.246
-222.655	244.984	0.052	0.086
-221.640	12.303	0.323	0.247
-220.625	-175.458	-0.091	-0.002
-219.611	234.795	-0.121	-0.199
-218.596	78.374	-0.092	0.098
-217.582	-4.278	0.164	0.112
-216.567	-165.130	0.276	-0.012
-215.552	55.362	0.135	0.129
-214.538	-169.963	-0.078	-0.003
-213.523	86.884	0.207	0.227
-212.509	-80.161	-0.379	-0.126
-211.494	151.756	-0.100	0.136
-210.479	722.325	0.059	0.155
-209.465	12.509	-0.194	0.148
-208.450	86.376	0.264	-0.288
-207.436	-157.070	-0.132	-0.008
-206.421	149.568	0.081	-0.108
-205.406	-114.398	-0.286	-0.055
-204.392	58.302	0.075	-0.073
-203.377	-200.000	-0.018	-0.154
-202.363	-62.891	0.303	0.124
-201.348	-119.099	0.070	-0.012
-200.333	-147.715	0.333	0.028
-199.319	-42.708	-0.259	0.131
-198.304	328.592	0.176	0.335
-197.290	-160.730	0.273	0.014
-196.275	-83.872	0.322	-0.102
-195.260	240.896	0.026	0.042
-194.246	3.006	0.176	0.126
-193.231	177.940	0.077	-0.112
-192.217	182.603	0.136	-0.199
-191.202	62.514	-0.220	-0.218
-190.187	-200.000	0.046	-0.260
-189.173	139.684	0.029	-0.038
-188.158	-100.560	-0.219	-0.054
-187.144	800.000	0.078	0.221
-186.129	400.549	0.078	0.163
-185.114	112.367	-0.174	0.208
-184.100	-13.116	0.398	-0.256
-183.085	-200.000	0.001	0.200
-182.071	-136.001	-0.158	-0.018
-181.056	35.713	-0.119	0.103
-180.042	1.332	-0.241	-0.171
-179.027	-200.000	0.015	-0.162
-178.012	83.225	0.079	-0.086
-176.998	76.262	-0.115	0.120
-175.983	-135.891	0.116	-0.014
-174.969	347.643	0.121	-0.235
-173.954	-200.000	-0.010	-0.070
-172.939	198.655	-0.087	-0.132
-171.925	-200.000	-0.058	-0.573
-170.910	58.318	0.191	0.185
-169.896	90.419	0.268	0.297
-168.881	-123.088	0.284	0.045
-167.866	189.569	0.224	-0.332
-166.852	-24.187	0.038	0.022
-165.837	-90.309	-0.102	0.029
-164.823	-32.029	0.172	-0.095
-163.808	-75.657	0.139	-0.049
-162.793	-200.000	0.082	-0.365
-161.779	343.768	-0.099	-0.191
-160.764	212.970	0.088	-0.137
-159.750	-200.000	0.009	-0.095
-158.735	-200.000	-0.005	0.162
-157.720	800.000	-0.021	-0.078
-156.706	379.043	0.271	-0.548
-155.691	-76.451	0.095	0.033
-154.677	-150.737	0.378	-0.028
-153.662	151.788	0.150	0.202
-152.647	-170.419	-0.277	0.010
-151.633	-3.443	-0.167	-0.115
-150.618	30.196	0.059	0.050
-149.604	128.293	-0.087	0.110
-148.589	-27.449	0.083	0.047
-147.574	-77.587	-0.110	-0.038
-146.560	81.003	0.148	0.158
-145.545	78.117	0.050	0.053
-144.531	118.145	0.026	0.031
-143.516	-200.000	-0.046	0.258
-142.502	-72.717	0.236	-0.086
-141.487	800.000	0.119	0.386
-140.472	-122.038	-0.557	0.090
-139.458	587.751	0.062	-0.151
-138.443	-100.492	-0.125	0.031
-137.429	92.387	-0.268	-0.298
-136.414	-91.777	-0.210	0.059
-135.399	-41.094	0.262	0.133
-134.385	36.138	-0.323	0.281
-133.370	-122.806	0.210	-0.033
-132.356	-45.740	0.144	-0.070
-131.341	-29.558	0.207	-0.117
-130.326	-13.013	-0.115	-0.074
-129.312	114.978	-0.075	-0.090
-128.297	-93.901	0.220	-0.060
-127.283	-10.139	-0.109	0.072
-126.268	-69.520	0.251	-0.095
-125.253	-23.373	0.067	0.040
-124.239	800.000	0.071	0.222
-123.224	73.652	0.280	-0.290
-122.210	-200.000	-0.044	-0.195
-121.195	-97.230	-0.273	0.070
