DTS Sentinel unit serial number:	SN413079Multiplexer serial number:	ORYXHardware model number:	OX4-SRSoftware version number:	ORYX F/W v4.00 Oryx Data Collector v3.7.2.0data status	okinstallation	princeton_trtdifferential loss correction	single-endedforward channel	channel 1reverse channel	N/Adate	2019/09/13time	03:50:35forward acquisition time	60.00reverse acquisition time	0.00gamma	496.2192k internal	0.2332k external	0.2332temperature offset calibration	1.0159default loss term (dB/km)	0.3790temperature slope calibration	1.0000multiplexer offset coefficient	1.0000multiplexer slope coefficient	1.0000fibre end	0.00T internal ref (°C)	27.12T ext. ref 1 (°C)	4.07T ext. ref 2 (°C)	21.41length (m)	temperature (°C)	Stokes	anti-Stokes-747.200	-200.000	-0.028	-0.472
-746.185	-25.165	-0.144	0.086
-745.171	800.000	0.090	-0.276
-744.156	606.019	-0.060	-0.151
-743.142	91.182	0.123	-0.138
-742.127	-200.000	0.019	0.260
-741.112	77.205	0.074	-0.079
-740.098	-131.194	-0.156	-0.021
-739.083	-84.238	-0.302	-0.096
-738.069	800.000	0.066	-0.254
-737.054	-25.116	0.354	-0.211
-736.039	-118.686	-0.243	0.043
-735.025	65.689	0.159	0.162
-734.010	358.177	-0.086	-0.172
-732.996	125.034	-0.107	0.136
-731.981	449.591	-0.052	-0.116
-730.966	-200.000	-0.009	0.176
-729.952	-119.604	-0.091	0.016
-728.937	-200.000	0.067	0.397
-727.923	40.114	-0.402	-0.363
-726.908	-200.000	0.020	-0.426
-725.894	97.311	0.127	0.146
-724.879	-4.982	-0.092	0.064
-723.864	-200.000	0.003	-0.298
-722.850	-200.000	0.043	-0.276
-721.835	-95.726	0.084	-0.022
-720.821	-82.809	-0.275	-0.089
-719.806	-54.071	0.271	-0.124
-718.791	382.656	-0.071	-0.146
-717.777	-132.420	-0.117	-0.015
-716.762	-200.000	-0.044	-0.208
-715.748	-35.671	-0.258	-0.141
-714.733	-200.000	0.034	-0.267
-713.718	-200.000	-0.013	-0.215
-712.704	800.000	-0.174	-0.608
-711.689	-73.697	-0.076	-0.028
-710.675	-173.268	0.096	-0.003
-709.660	437.189	-0.040	-0.087
-708.645	148.540	-0.009	0.012
-707.631	195.926	0.068	-0.103
-706.616	-10.977	-0.112	-0.074
-705.602	306.410	0.086	-0.161
-704.587	117.514	0.320	0.395
-703.572	800.000	0.081	-0.230
-702.558	-99.279	-0.206	0.052
-701.543	128.504	0.113	-0.145
-700.529	-200.000	0.040	-0.224
-699.514	800.000	0.057	-0.167
-698.499	800.000	-0.027	0.117
-697.485	-137.880	-0.494	0.056
-696.470	-66.217	0.044	0.018
-695.456	-142.719	-0.191	-0.019
-694.441	467.029	0.156	-0.352
-693.426	-11.603	-0.030	0.020
-692.412	-123.437	0.271	-0.043
-691.397	-44.793	0.130	0.065
-690.383	71.135	-0.095	-0.099
-689.368	-175.326	0.038	-0.001
-688.354	202.602	-0.171	-0.265
-687.339	-164.308	-0.220	-0.010
-686.324	229.296	-0.117	-0.192
-685.310	800.000	0.058	0.208
-684.295	20.676	0.194	0.157
-683.281	-96.346	-0.155	0.041
-682.266	-200.000	-0.048	0.226
-681.251	800.000	-0.127	-0.359
-680.237	-200.000	0.041	-0.203
-679.222	769.906	-0.207	-0.564
-678.208	-73.075	-0.130	0.048
-677.193	91.681	-0.238	0.269
-676.178	-111.426	-0.297	0.061
-675.164	-23.322	0.054	0.033
-674.149	248.843	-0.120	-0.204
-673.135	24.681	-0.308	-0.256
-672.120	203.737	0.112	-0.174
-671.105	-200.000	-0.068	-0.520
-670.091	494.027	0.216	-0.498
-669.076	-132.380	-0.364	-0.047
-668.062	-200.000	0.017	0.131
-667.047	22.912	-0.410	-0.337
-666.032	800.000	0.029	-0.105
-665.018	158.921	0.136	0.190
-664.003	-43.995	-0.282	0.142
-662.989	-200.000	-0.020	0.384
-661.974	37.057	-0.224	-0.199
-660.959	191.225	0.311	-0.469
-659.945	461.866	0.183	-0.409
-658.930	800.000	-0.071	-0.247
-657.916	676.063	0.022	-0.057
-656.901	4.471	0.139	0.102
-655.886	-108.728	-0.126	-0.027
-654.872	-200.000	0.020	-0.170
-653.857	-200.000	-0.014	-0.151
-652.843	-196.681	0.064	0.000
-651.828	-73.989	-0.158	0.057
-650.814	-65.664	0.231	-0.093
-649.799	-200.000	-0.012	0.185
-648.784	-96.158	-0.088	0.023
-647.770	800.000	-0.069	-0.252
-646.755	-83.994	0.278	0.089
-645.741	-200.000	0.000	0.202
-644.726	-29.575	-0.095	0.054
-643.711	-200.000	-0.020	0.256
-642.697	179.915	-0.188	0.276
-641.682	-137.769	0.164	0.018
-640.668	-30.120	0.105	-0.060
-639.653	-200.000	0.000	-0.241
-638.638	388.732	-0.103	-0.214
-637.624	443.867	0.059	-0.129
-636.609	377.885	0.114	0.233
-635.595	800.000	-0.097	-0.341
-634.580	-99.577	0.206	-0.052
-633.565	-158.089	-0.152	0.009
-632.551	506.196	0.056	0.129
-631.536	-200.000	0.008	-0.087
-630.522	37.182	0.129	0.115
-629.507	-0.344	-0.122	0.087
-628.492	-200.000	-0.002	0.145
-627.478	-160.077	-0.024	-0.001
-626.463	109.451	0.111	-0.133
-625.449	-155.065	0.383	0.025
-624.434	-72.482	-0.579	-0.214
-623.419	357.880	-0.077	0.153
-622.405	800.000	-0.025	-0.083
-621.390	-165.999	-0.093	-0.004
-620.376	-200.000	0.011	-0.120
-619.361	-200.000	0.035	-0.222
-618.346	328.639	-0.165	-0.317
-617.332	109.551	0.208	0.249
-616.317	34.806	0.186	-0.163
-615.303	-30.903	0.185	-0.105
-614.288	-107.857	0.178	-0.039
-613.273	-200.000	-0.031	0.661
-612.259	-27.417	0.034	0.020
-611.244	53.123	-0.146	0.140
-610.230	-78.244	-0.238	-0.082
-609.215	10.877	-0.288	0.220
-608.201	-30.316	0.375	-0.213
-607.186	-118.273	-0.278	0.049
-606.171	120.497	0.022	-0.028
-605.157	247.463	0.064	0.109
-604.142	-200.000	0.034	-0.151
-603.128	23.122	0.227	-0.186
-602.113	601.528	0.147	0.365
-601.098	231.920	0.193	0.316
-600.084	-114.062	0.236	0.046
-599.069	56.120	-0.194	-0.189
-598.055	-41.688	0.350	0.180
-597.040	-56.231	-0.135	0.060
-596.025	249.929	-0.018	-0.031
-595.011	-176.508	-0.154	-0.004
-593.996	-137.257	-0.168	0.019
-592.982	365.952	0.096	-0.193
-591.967	-200.000	-0.005	-0.189
-590.952	-12.646	-0.394	-0.257
-589.938	-94.178	-0.382	-0.105
-588.923	-37.171	-0.369	-0.198
-587.909	359.022	-0.055	-0.110
-586.894	-200.000	0.002	-0.052
-585.879	37.635	-0.239	0.212
-584.865	-171.620	-0.334	0.011
-583.850	440.950	0.015	0.033
-582.836	45.277	0.274	0.252
-581.821	123.346	0.259	0.325
-580.806	-138.929	0.295	-0.032
-579.792	651.375	0.056	-0.143
-578.777	-95.497	0.167	-0.045
-577.763	-104.082	-0.197	0.046
-576.748	800.000	0.063	-0.234
-575.733	-143.972	0.087	-0.008
-574.719	95.257	0.061	0.070
-573.704	-200.000	0.068	0.300
-572.690	-55.118	-0.153	0.069
-571.675	30.888	0.182	-0.156
-570.661	535.388	0.045	-0.106
-569.646	70.503	0.092	-0.095
-568.631	-200.000	0.021	-0.109
-567.617	173.050	0.182	-0.262
-566.602	641.495	-0.041	0.104
-565.588	-34.823	0.317	-0.173
-564.573	96.411	-0.082	0.093
-563.558	-136.589	-0.351	-0.041
-562.544	-8.205	-0.133	0.089
-561.529	-200.000	-0.001	0.049
-560.515	273.733	-0.221	-0.391
-559.500	160.288	-0.102	-0.142
-558.485	411.873	0.022	0.046
-557.471	-80.280	0.431	0.144
-556.456	109.593	0.107	0.128
-555.442	-103.961	0.333	0.077
-554.427	249.556	0.057	0.096
-553.412	64.280	0.065	0.066
-552.398	-200.000	-0.011	-0.173
-551.383	-200.000	0.016	-0.230
-550.369	-69.371	-0.093	-0.036
-549.354	-99.877	0.165	-0.041
-548.339	-141.733	-0.352	0.035
-547.325	-66.225	0.165	0.066
-546.310	14.401	-0.279	0.217
-545.296	666.689	-0.085	-0.220
-544.281	-200.000	0.039	0.333
-543.266	-20.256	0.059	-0.036
-542.252	71.064	0.062	-0.064
-541.237	287.839	0.073	0.131
-540.223	-111.691	-0.102	-0.021
-539.208	72.136	-0.097	0.101
-538.193	800.000	0.095	-0.343
-537.179	50.129	-0.141	-0.133
-536.164	102.175	0.133	-0.155
-535.150	18.613	-0.176	-0.140
-534.135	55.244	0.196	-0.189
-533.121	145.402	-0.126	0.169
-532.106	800.000	0.016	-0.066
-531.091	-136.428	0.114	-0.013
-530.077	191.350	0.202	0.304
-529.062	-200.000	-0.030	-0.169
-528.048	75.418	0.164	0.172
-527.033	413.822	0.122	0.260
-526.018	-57.445	0.464	0.203
-525.004	-200.000	-0.005	-0.051
-523.989	12.397	-0.050	0.039
-522.975	20.963	-0.191	0.155
-521.960	-200.000	-0.012	0.250
-520.945	23.253	-0.371	-0.304
-519.931	253.294	0.189	0.321
-518.916	-73.539	0.100	0.036
-517.902	-200.000	0.009	0.243
-516.887	-78.178	-0.531	0.182
-515.872	-186.386	0.349	-0.005
-514.858	88.275	-0.431	-0.477
-513.843	-109.327	0.109	-0.023
-512.829	-185.537	-0.479	0.007
-511.814	98.633	0.039	0.044
-510.799	-134.986	-0.149	0.018
-509.785	-77.853	-0.089	-0.031
-508.770	-200.000	-0.006	0.117
-507.756	-62.133	0.118	-0.049
-506.741	147.175	0.065	-0.087
-505.726	-141.233	-0.261	0.026
-504.712	-200.000	-0.018	-0.414
-503.697	-129.508	-0.216	-0.030
-502.683	319.761	-0.108	-0.204
-501.668	-67.063	-0.062	0.025
-500.653	-8.267	-0.184	-0.124
-499.639	506.012	-0.038	-0.087
-498.624	-60.583	-0.115	0.049
-497.610	-111.411	-0.460	-0.093
-496.595	13.167	0.452	-0.349
-495.581	94.917	0.177	-0.201
-494.566	-30.810	-0.339	0.191
-493.551	25.677	0.124	0.102
-492.537	-200.000	0.052	0.391
-491.522	-125.240	-0.334	0.051
-490.508	-54.389	0.170	0.077
-489.493	5.937	0.322	0.237
-488.478	-8.653	0.176	-0.117
-487.464	-200.000	-0.019	0.176
-486.449	-200.000	0.008	-0.130
-485.435	800.000	0.139	-0.397
-484.420	18.894	-0.119	0.095
-483.405	1.724	0.280	-0.201
-482.391	769.539	-0.169	0.458
-481.376	118.093	0.032	-0.040
-480.362	-49.946	0.212	-0.100
-479.347	-200.000	-0.015	-0.126
-478.332	-77.790	0.013	-0.004
-477.318	283.129	0.228	0.407
-476.303	257.304	0.023	-0.039
-475.289	74.592	-0.165	-0.173
-474.274	-68.981	0.047	0.018
-473.259	162.582	0.063	-0.089
-472.245	211.963	-0.183	-0.286
-471.230	-200.000	0.040	-0.289
-470.216	-200.000	-0.006	-0.127
-469.201	41.699	0.110	-0.099
-468.186	613.562	0.062	0.153
-467.172	-120.497	-0.231	0.039
-466.157	77.197	0.176	0.186
-465.143	254.204	0.179	0.305
-464.128	582.390	0.117	-0.286
-463.113	-200.000	0.030	-0.135
-462.099	227.411	-0.053	-0.086
-461.084	-27.315	0.063	0.037
-460.070	800.000	-0.039	0.163
-459.055	-3.736	0.327	0.226
-458.040	-87.286	-0.190	-0.057
-457.026	-200.000	0.009	0.119
-456.011	-41.287	0.077	0.040
-454.997	-144.348	-0.244	0.023
-453.982	-72.489	-0.377	0.139
-452.968	-200.000	-0.048	0.311
-451.953	-118.777	-0.063	-0.011
-450.938	-98.710	0.390	-0.099
-449.924	-200.000	-0.041	0.235
-448.909	144.040	-0.053	0.070
-447.895	-192.561	0.243	-0.002
-446.880	27.976	0.054	0.045
-445.865	75.390	-0.186	0.195
-444.851	-12.034	-0.126	-0.082
-443.836	-28.051	0.134	0.077
-442.822	11.785	-0.169	-0.129
-441.807	-200.000	-0.041	-0.257
-440.792	-16.001	0.043	-0.027
-439.778	-9.412	0.183	0.122
-438.763	-108.783	0.301	0.064
-437.749	-144.971	0.136	0.012
-436.734	5.227	0.384	-0.281
-435.719	97.903	0.027	0.031
-434.705	333.773	0.133	0.255
-433.690	42.305	-0.418	0.377
-432.676	-99.357	-0.149	-0.037
-431.661	539.954	0.066	-0.157
-430.646	-179.884	0.393	0.008
-429.632	-200.000	0.226	0.000
-428.617	-16.291	0.055	0.034
-427.603	-24.374	-0.088	0.052
-426.588	-100.545	0.102	0.025
-425.573	42.515	-0.065	-0.059
-424.559	-76.449	-0.452	-0.158
-423.544	-119.498	0.176	0.030
-422.530	-11.978	0.276	-0.180
-421.515	-200.000	-0.014	-0.115
-420.500	0.903	0.196	-0.140
-419.486	-138.906	-0.250	0.027
-418.471	-200.000	0.021	-0.215
-417.457	170.158	0.195	-0.277
-416.442	142.872	-0.181	-0.238
-415.428	89.053	-0.275	-0.304
-414.413	-153.839	0.259	-0.018
-413.398	99.472	0.077	-0.089
-412.384	-153.702	-0.182	-0.012
-411.369	-159.636	0.481	0.026
-410.355	-200.000	0.005	-0.083
-409.340	322.371	-0.048	-0.092
-408.325	324.822	0.111	-0.210
-407.311	-10.572	0.057	-0.037
-406.296	-17.085	-0.251	-0.157
-405.282	-200.000	-0.032	-0.213
-404.267	391.358	0.128	0.264
-403.252	201.561	-0.081	0.123
-402.238	18.270	-0.188	-0.149
-401.223	-154.486	-0.020	-0.001
-400.209	-20.855	-0.073	-0.044
-399.194	800.000	-0.041	0.163
-398.179	-16.634	-0.289	-0.182
-397.165	-24.430	-0.082	0.048
-396.150	-140.915	0.132	-0.013
-395.136	-200.000	0.018	-0.097
-394.121	94.917	0.139	0.157
-393.106	45.544	0.076	0.069
-392.092	-200.000	0.017	-0.172
-391.077	800.000	0.030	0.105
-390.063	24.402	-0.065	0.053
-389.048	-14.987	-0.063	0.040
-388.033	-140.342	0.311	-0.032
-387.019	30.098	0.022	0.019
-386.004	-112.246	0.277	-0.055
-384.990	-200.000	-0.000	-0.107
-383.975	29.156	0.224	0.189
-382.960	-190.161	-0.025	0.000
-381.946	800.000	0.028	-0.077
-380.931	-121.583	0.226	-0.037
-379.917	-105.989	-0.211	-0.047
-378.902	112.849	0.163	-0.195
-377.888	185.798	-0.100	-0.147
-376.873	-74.596	0.074	0.026
-375.858	-78.751	-0.302	-0.102
-374.844	-71.853	0.283	0.104
-373.829	-200.000	-0.001	0.156
-372.815	-200.000	-0.033	0.338
-371.800	-29.457	-0.228	-0.129
-370.785	20.088	-0.263	-0.211
-369.771	301.297	0.184	-0.337
-368.756	-118.817	-0.210	-0.037
-367.742	-200.000	0.019	0.089
-366.727	-200.000	0.044	0.195
-365.712	-44.380	-0.300	0.149
-364.698	29.563	0.214	0.181
-363.683	800.000	-0.039	0.120
-362.669	-180.236	-0.322	-0.007
-361.654	-92.886	-0.191	-0.053
-360.639	-139.580	-0.191	-0.020
-359.625	-174.023	0.310	-0.009
-358.610	-103.798	0.277	0.064
-357.596	-200.000	0.009	-0.073
-356.581	496.473	0.056	0.127
-355.566	-18.741	0.200	0.124
-354.552	502.189	-0.261	-0.598
-353.537	74.472	0.249	-0.259
-352.523	132.765	-0.041	0.053
-351.508	-108.707	-0.289	0.061
-350.493	-116.016	-0.084	0.016
-349.479	156.226	0.146	0.200
-348.464	20.708	0.119	-0.096
-347.450	96.699	-0.132	0.150
-346.435	800.000	-0.051	-0.140
-345.420	12.414	-0.229	0.175
-344.406	92.247	0.134	0.149
-343.391	-200.000	0.091	-0.419
-342.377	156.174	0.101	0.138
-341.362	-14.206	-0.263	-0.168
-340.348	128.315	-0.230	0.290
-339.333	-200.000	0.017	0.102
-338.318	-18.140	0.290	0.180
-337.304	485.942	-0.164	-0.371
-336.289	-5.517	-0.153	0.104
-335.275	28.070	-0.101	0.085
-334.260	2.284	0.099	-0.071
-333.245	-63.610	-0.059	0.024
-332.231	229.815	0.089	0.144
-331.216	-151.311	-0.155	0.011
-330.202	-200.000	-0.042	-0.458
-329.187	68.634	-0.162	0.164
-328.172	-33.023	0.168	0.092
-327.158	158.283	0.017	-0.024
-326.143	58.665	0.039	-0.038
-325.129	158.206	0.139	0.191
-324.114	-85.519	-0.137	-0.042
-323.099	119.621	-0.106	0.130
-322.085	-31.342	-0.294	0.164
-321.070	-55.463	0.317	-0.141
-320.056	-86.129	0.215	0.066
-319.041	-110.607	0.140	0.029
-318.026	219.711	-0.089	-0.140
-317.012	42.582	-0.274	-0.246
-315.997	-182.397	0.082	-0.002
-314.983	57.312	0.194	0.187
-313.968	800.000	-0.052	0.189
-312.953	46.573	0.206	-0.189
-311.939	-129.281	0.400	0.055
-310.924	-144.378	0.101	-0.009
-309.910	246.284	0.117	-0.195
-308.895	344.734	0.163	-0.317
-307.880	160.178	0.149	0.206
-306.866	-200.000	0.031	0.214
-305.851	-200.000	0.007	0.237
-304.837	-40.737	-0.127	0.065
-303.822	0.259	0.118	-0.083
-302.807	-140.789	-0.288	-0.029
-301.793	-200.000	0.014	0.252
-300.778	-200.000	0.007	-0.100
-299.764	-65.372	0.227	-0.090
-298.749	-138.314	0.111	0.012
-297.735	-200.000	-0.074	-0.385
-296.720	76.836	-0.256	0.269
-295.705	305.669	-0.117	0.215
-294.691	800.000	-0.111	-0.406
-293.676	220.052	0.128	-0.203
-292.662	-90.752	-0.286	-0.081
-291.647	61.100	0.145	-0.143
-290.632	-159.676	0.218	0.012
-289.618	-76.501	0.254	0.088
-288.603	-7.940	0.274	-0.183
-287.589	67.773	-0.130	-0.132
-286.574	800.000	0.049	-0.166
-285.559	-103.547	0.283	0.066
-284.545	263.609	0.081	-0.140
-283.530	-70.088	0.298	0.112
-282.516	800.000	-0.065	-0.224
-281.501	-71.057	-0.265	0.098
-280.486	16.160	0.109	0.085
-279.472	-200.000	0.010	0.114
-278.457	273.752	0.095	-0.166
-277.443	-94.650	0.128	-0.034
-276.428	800.000	-0.064	0.267
-275.413	-59.539	0.437	-0.185
-274.399	184.051	-0.097	0.142
-273.384	53.756	-0.162	-0.153
-272.370	26.631	-0.075	0.062
-271.355	171.112	-0.163	-0.231
-270.340	-82.643	-0.182	0.058
-269.326	-22.854	0.043	-0.026
-268.311	273.587	-0.061	0.106
-267.297	-110.194	-0.066	0.013
-266.282	468.671	0.142	0.315
-265.267	-200.000	0.055	0.273
-264.253	146.001	0.176	0.233
-263.238	-119.648	-0.230	0.039
-262.224	-21.032	-0.081	-0.049
-261.209	-200.000	-0.037	-0.229
-260.195	-74.224	0.184	0.066
-259.180	475.154	-0.131	0.292
-258.165	671.553	0.045	0.116
-257.151	103.267	-0.057	-0.066
-256.136	-200.000	0.030	0.178
-255.122	414.687	0.057	-0.120
-254.107	-132.705	0.318	-0.040
-253.092	67.452	0.136	-0.137
-252.078	408.686	-0.032	0.067
-251.063	-163.885	0.257	0.012
-250.049	-200.000	0.055	0.252
-249.034	-108.254	0.085	0.018
-248.019	43.379	-0.297	0.268
-247.005	252.599	0.184	0.309
-245.990	800.000	-0.102	0.364
-244.976	-52.250	-0.058	-0.026
-243.961	-168.809	-0.127	-0.005
-242.946	-15.366	-0.309	0.195
-241.932	-200.000	0.008	0.141
-240.917	-22.230	-0.337	0.202
-239.903	-113.267	-0.099	0.019
-238.888	317.873	0.123	-0.230
-237.873	-143.499	-0.129	-0.012
-236.859	-185.245	-0.242	0.004
-235.844	-43.782	-0.027	-0.013
-234.830	495.652	0.036	0.082
-233.815	301.873	0.218	-0.397
-232.800	218.170	0.227	-0.357
-231.786	-200.000	-0.013	-0.367
-230.771	-61.459	-0.249	-0.103
-229.757	479.894	0.054	0.120
-228.742	-83.393	-0.097	-0.031
-227.727	-106.591	-0.086	-0.019
-226.713	-108.095	-0.277	-0.059
-225.698	94.558	-0.235	-0.263
-224.684	-200.000	0.049	0.362
-223.669	526.561	0.109	-0.254
-222.655	-69.728	0.198	0.075
-221.640	-37.385	-0.195	0.102
-220.625	800.000	0.124	-0.346
-219.611	-88.099	0.168	-0.050
-218.596	486.811	-0.086	0.193
-217.582	-84.402	-0.121	-0.038
-216.567	-109.200	0.162	0.034
-215.552	517.071	-0.015	0.034
-214.538	-149.324	-0.051	0.004
-213.523	560.633	0.044	-0.104
-212.509	564.756	0.082	0.196
-211.494	800.000	-0.066	0.247
-210.479	-200.000	0.024	-0.155
-209.465	28.460	-0.105	-0.087
-208.450	-200.000	0.027	-0.296
-207.436	-114.840	-0.120	-0.023
-206.421	263.576	-0.121	0.207
-205.406	-200.000	-0.009	0.112
-204.392	64.383	-0.191	-0.190
-203.377	310.561	-0.097	-0.178
-202.363	-110.339	-0.305	-0.063
-201.348	177.784	0.086	-0.123
-200.333	-26.187	0.065	0.038
-199.319	-200.000	-0.035	0.342
-198.304	-34.937	-0.182	0.098
-197.290	311.891	0.118	0.218
-196.275	-99.773	-0.181	-0.045
-195.260	163.197	-0.102	-0.141
-194.246	-100.767	0.134	-0.032
-193.231	-129.446	-0.113	-0.015
-192.217	-88.383	0.231	-0.068
-191.202	-200.000	-0.057	-0.315
-190.187	210.397	-0.102	0.158
-189.173	204.604	-0.157	0.239
-188.158	249.886	-0.004	-0.007
-187.144	800.000	-0.064	-0.219
-186.129	-100.718	-0.496	-0.120
-185.114	146.400	0.055	0.073
-184.100	-104.167	-0.134	0.031
-183.085	-83.938	-0.251	-0.079
-182.071	234.602	0.174	-0.283
-181.056	106.515	-0.062	0.072
-180.042	612.487	0.148	0.364
-179.027	-25.034	0.026	0.015
-178.012	-200.000	0.017	0.120
-176.998	-70.218	0.142	0.053
-175.983	-48.658	-0.273	0.129
-174.969	15.347	-0.243	-0.188
-173.954	-200.000	0.075	0.331
-172.939	800.000	0.075	-0.265
-171.925	204.498	-0.051	-0.077
-170.910	-62.851	0.285	0.116
-169.896	-200.000	0.039	0.352
-168.881	308.389	-0.030	-0.056
-167.866	-87.024	0.324	0.097
-166.852	67.037	0.146	0.147
-165.837	118.612	-0.116	-0.141
-164.823	-18.490	0.230	-0.141
-163.808	341.777	-0.155	0.298
-162.793	194.482	0.109	0.163
-161.779	15.796	0.142	0.110
-160.764	86.026	-0.213	0.230
-159.750	-36.996	-0.215	-0.113
-158.735	114.123	-0.131	-0.157
-157.720	800.000	-0.118	0.362
-156.706	184.148	-0.201	0.293
-155.691	4.816	-0.146	-0.105
-154.677	758.610	-0.004	0.011
-153.662	-75.355	0.202	-0.071
-152.647	800.000	0.091	0.262
-151.633	104.219	-0.139	-0.161
-150.618	146.016	-0.145	-0.191
-149.604	800.000	0.065	0.196
-148.589	-151.380	0.496	0.036
-147.574	679.881	-0.083	0.212
-146.560	-182.015	0.429	-0.008
-145.545	136.529	-0.179	0.230
-144.531	-200.000	0.051	0.334
-143.516	-95.788	-0.262	-0.069
-142.502	-104.673	0.158	-0.036
-141.487	-117.497	-0.186	0.033
-140.472	-200.000	-0.015	0.248
-139.458	-77.999	-0.267	-0.090
-138.443	-82.961	-0.164	0.052
-137.429	-105.433	0.146	0.033
-136.414	67.488	0.270	0.270
-135.399	-200.000	-0.011	0.147
-134.385	125.362	-0.142	-0.176
-133.370	-110.610	0.416	0.084
-132.356	-64.974	0.168	0.067
-131.341	800.000	-0.066	-0.205
-130.326	-200.000	-0.006	-0.025
-129.312	-200.000	-0.064	-0.279
-128.297	800.000	0.103	0.301
-127.283	800.000	0.081	-0.234
-126.268	66.013	-0.162	0.161
-125.253	-140.874	0.140	-0.014
-124.239	221.088	0.038	0.059
-123.224	-83.778	-0.083	-0.026
-122.210	-87.252	0.232	-0.069
