DTS Sentinel unit serial number:	SN413079Multiplexer serial number:	ORYXHardware model number:	OX4-SRSoftware version number:	ORYX F/W v4.00 Oryx Data Collector v3.7.2.0data status	okinstallation	princeton_trtdifferential loss correction	single-endedforward channel	channel 1reverse channel	N/Adate	2019/09/18time	05:30:35forward acquisition time	60.00reverse acquisition time	0.00gamma	496.2192k internal	0.2339k external	0.2339temperature offset calibration	0.9975default loss term (dB/km)	0.3790temperature slope calibration	1.0000multiplexer offset coefficient	1.0000multiplexer slope coefficient	1.0000fibre end	0.00T internal ref (°C)	23.42T ext. ref 1 (°C)	0.18T ext. ref 2 (°C)	16.97length (m)	temperature (°C)	Stokes	anti-Stokes-747.200	99.987	-0.089	0.103
-746.185	-144.161	0.247	-0.023
-745.171	-148.687	0.375	0.031
-744.156	61.307	0.243	-0.242
-743.142	22.822	0.192	0.158
-742.127	687.608	0.034	-0.088
-741.112	-125.679	-0.177	0.027
-740.098	169.563	-0.292	0.418
-739.083	-13.601	-0.106	-0.069
-738.069	-63.042	-0.102	-0.042
-737.054	284.655	0.198	0.358
-736.039	256.822	-0.122	-0.211
-735.025	-81.574	-0.156	0.052
-734.010	-200.000	0.055	-0.267
-732.996	-200.000	0.078	-0.348
-731.981	141.222	-0.120	0.160
-730.966	43.002	-0.193	-0.176
-729.952	-147.122	-0.168	0.014
-728.937	-40.600	-0.041	0.021
-727.923	28.755	-0.100	0.084
-726.908	0.566	-0.391	-0.280
-725.894	-200.000	0.013	-0.353
-724.879	800.000	0.054	-0.166
-723.864	-129.259	-0.437	0.061
-722.850	187.579	-0.314	0.469
-721.835	-63.267	-0.165	0.068
-720.821	-153.958	0.390	-0.027
-719.806	236.747	-0.131	-0.218
-718.791	-75.231	-0.440	0.157
-717.777	800.000	-0.017	0.073
-716.762	625.122	-0.084	0.213
-715.748	-126.299	-0.202	-0.030
-714.733	-200.000	0.014	-0.192
-713.718	-200.000	0.017	0.222
-712.704	-200.000	0.014	0.091
-711.689	30.738	-0.171	0.147
-710.675	-39.690	0.216	0.113
-709.660	-200.000	-0.002	-0.142
-708.645	-200.000	0.063	0.282
-707.631	-77.721	-0.200	0.069
-706.616	328.311	-0.097	0.187
-705.602	-135.734	0.155	0.018
-704.587	-200.000	-0.064	-0.369
-703.572	6.449	-0.309	0.229
-702.558	154.218	0.042	0.058
-701.543	159.991	0.127	-0.177
-700.529	376.432	-0.028	0.058
-699.514	800.000	0.125	-0.455
-698.499	-200.000	-0.004	-0.149
-697.485	-150.702	0.197	0.015
-696.470	40.355	0.062	-0.055
-695.456	-82.820	0.183	0.059
-694.441	316.437	-0.167	0.316
-693.426	-145.185	-0.277	-0.025
-692.412	21.392	0.367	-0.299
-691.397	222.727	-0.097	-0.156
-690.383	-200.000	0.004	0.075
-689.368	357.329	0.184	-0.366
-688.354	-200.000	-0.000	-0.181
-687.339	-200.000	0.011	0.084
-686.324	491.874	0.067	-0.154
-685.310	-68.825	-0.108	0.042
-684.295	-80.472	0.296	-0.099
-683.281	800.000	0.011	0.037
-682.266	-1.546	0.144	-0.101
-681.251	489.619	0.091	-0.208
-680.237	-39.472	0.092	-0.048
-679.222	-200.000	-0.026	-0.475
-678.208	-155.649	0.169	-0.011
-677.193	8.461	-0.272	0.205
-676.178	-64.709	-0.130	-0.053
-675.164	-136.769	-0.281	-0.032
-674.149	-9.882	0.196	0.130
-673.135	-200.000	0.004	0.266
-672.120	26.458	-0.281	0.235
-671.105	61.771	-0.083	-0.082
-670.091	63.552	-0.086	0.087
-669.076	-19.001	0.183	-0.114
-668.062	612.763	-0.054	-0.136
-667.047	-57.626	-0.152	0.067
-666.032	-127.277	0.144	-0.021
-665.018	436.673	-0.037	0.081
-664.003	-89.785	-0.191	-0.056
-662.989	-16.557	-0.159	0.100
-661.974	293.096	0.210	-0.384
-660.959	236.781	-0.119	-0.197
-659.945	726.777	0.056	0.149
-658.930	-34.173	0.305	-0.167
-657.916	93.971	0.056	-0.063
-656.901	-200.000	-0.002	0.361
-655.886	800.000	-0.076	-0.295
-654.872	-2.649	0.179	0.125
-653.857	125.085	-0.199	0.251
-652.843	-70.636	0.099	-0.037
-651.828	800.000	-0.052	-0.199
-650.814	-200.000	0.001	-0.297
-649.799	-82.545	-0.119	-0.038
-648.784	-200.000	-0.007	0.170
-647.770	55.418	0.047	0.045
-646.755	-27.198	-0.202	-0.118
-645.741	-24.582	0.043	-0.026
-644.726	191.469	0.019	0.028
-643.711	190.742	0.240	-0.361
-642.697	247.524	0.066	0.112
-641.682	478.329	-0.131	0.296
-640.668	-150.005	-0.219	0.017
-639.653	-53.360	-0.263	0.121
-638.638	-75.804	-0.234	-0.083
-637.624	-4.832	0.154	-0.106
-636.609	418.009	-0.183	0.390
-635.595	-200.000	0.008	0.154
-634.580	-186.629	0.379	-0.005
-633.565	-123.544	0.183	0.029
-632.551	21.671	0.134	-0.109
-631.536	44.380	-0.094	-0.086
-630.522	319.332	0.245	-0.464
-629.507	800.000	0.129	0.438
-628.492	228.114	0.117	0.190
-627.478	-200.000	-0.004	-0.037
-626.463	115.435	0.154	0.187
-625.449	-200.000	-0.051	-0.323
-624.434	-101.741	0.295	0.071
-623.419	129.310	0.072	-0.092
-622.405	-200.000	-0.032	-0.380
-621.390	82.901	-0.260	-0.283
-620.376	285.594	-0.176	-0.318
-619.361	-94.144	-0.115	0.031
-618.346	-200.000	0.014	-0.356
-617.332	98.340	-0.266	-0.306
-616.317	-164.983	0.080	0.004
-615.303	223.275	0.148	-0.239
-614.288	800.000	0.068	-0.197
-613.273	52.164	-0.096	-0.091
-612.259	87.920	-0.170	-0.188
-611.244	-157.669	-0.177	0.011
-610.230	105.757	-0.018	-0.021
-609.215	-200.000	-0.039	-0.207
-608.201	800.000	-0.068	-0.229
-607.186	-0.467	0.220	-0.156
-606.171	-91.433	-0.047	0.014
-605.157	-61.018	-0.246	0.104
-604.142	-200.000	0.003	0.017
-603.128	-157.514	0.158	0.009
-602.113	-25.893	-0.227	-0.133
-601.098	-200.000	-0.055	-0.315
-600.084	-160.008	0.289	0.016
-599.069	-27.017	0.159	-0.092
-598.055	255.272	-0.113	-0.194
-597.040	-200.000	0.117	-0.658
-596.025	-88.746	0.148	0.044
-595.011	-114.378	-0.440	0.084
-593.996	500.230	0.069	-0.159
-592.982	85.336	0.225	0.246
-591.967	133.662	-0.079	0.102
-590.952	105.792	0.074	0.088
-589.938	-103.752	-0.269	-0.063
-588.923	800.000	-0.124	-0.422
-587.909	-200.000	-0.009	-0.230
-586.894	-103.375	-0.057	0.013
-585.879	800.000	0.034	-0.135
-584.865	165.665	-0.160	0.226
-583.850	-77.300	0.189	-0.065
-582.836	-200.000	0.022	-0.186
-581.821	800.000	-0.063	0.260
-580.806	81.025	-0.238	0.256
-579.792	-17.331	-0.097	-0.061
-578.777	-4.661	0.047	-0.032
-577.763	-200.000	0.064	0.375
-576.748	66.847	-0.125	0.127
-575.733	133.333	-0.277	0.357
-574.719	-73.081	-0.054	0.020
-573.704	86.366	-0.244	-0.268
-572.690	-12.701	-0.292	0.190
-571.675	-200.000	0.066	-0.292
-570.661	800.000	-0.072	-0.286
-569.646	104.654	-0.202	-0.237
-568.631	-200.000	0.007	-0.042
-567.617	431.692	0.042	0.091
-566.602	-131.158	0.241	-0.032
-565.588	283.963	-0.128	0.230
-564.573	5.674	0.138	-0.102
-563.558	-160.308	0.108	0.006
-562.544	-150.059	0.238	-0.018
-561.529	-200.000	0.022	-0.177
-560.515	151.719	-0.090	-0.122
-559.500	-200.000	-0.009	-0.404
-558.485	78.572	-0.130	0.138
-557.471	493.471	-0.161	-0.368
-556.456	800.000	-0.072	0.227
-555.442	192.828	0.121	0.182
-554.427	-68.871	0.227	-0.087
-553.412	-200.000	0.014	-0.221
-552.398	-200.000	0.018	0.393
-551.383	800.000	0.160	0.484
-550.369	-82.498	0.233	0.075
-549.354	800.000	0.060	-0.197
-548.339	-200.000	0.006	-0.784
-547.325	79.260	-0.068	0.073
-546.310	427.275	-0.119	-0.255
-545.296	-63.009	-0.293	-0.120
-544.281	279.932	-0.103	0.182
-543.266	45.778	0.018	-0.016
-542.252	-112.208	0.006	0.001
-541.237	800.000	0.082	0.282
-540.223	-64.888	-0.286	0.115
-539.208	-63.173	-0.168	0.069
-538.193	-101.264	0.337	-0.082
-537.179	182.711	-0.089	-0.131
-536.164	-33.176	-0.155	0.086
-535.150	69.414	0.164	0.168
-534.135	327.935	-0.078	0.148
-533.121	104.674	0.156	-0.183
-532.106	369.505	-0.241	-0.485
-531.091	240.973	-0.152	0.253
-530.077	-117.848	0.360	0.064
-529.062	-44.759	0.223	-0.111
-528.048	-65.807	-0.212	-0.084
-527.033	747.958	-0.074	0.199
-526.018	136.660	-0.032	-0.041
-525.004	-140.406	-0.478	0.050
-523.989	57.931	-0.299	0.291
-522.975	107.964	0.134	-0.158
-521.960	158.837	-0.101	-0.140
-520.945	43.323	-0.083	-0.075
-519.931	-101.947	-0.086	-0.021
-518.916	800.000	-0.033	-0.114
-517.902	-200.000	0.028	-0.183
-516.887	13.121	0.105	-0.081
-515.872	800.000	0.088	0.365
-514.858	-11.842	0.072	0.047
-513.843	-184.070	-0.181	-0.003
-512.829	109.305	-0.209	0.249
-511.814	55.315	0.180	-0.173
-510.799	-138.831	0.262	-0.028
-509.785	-18.492	0.250	-0.155
-508.770	-76.091	-0.052	0.018
-507.756	215.510	-0.178	0.281
-506.741	67.775	-0.149	-0.152
-505.726	50.877	-0.093	0.088
-504.712	-200.000	0.010	-0.286
-503.697	-196.176	0.197	-0.001
-502.683	347.365	-0.108	-0.211
-501.668	113.319	-0.068	-0.082
-500.653	110.838	0.035	-0.042
-499.639	-61.506	-0.140	0.058
-498.624	800.000	-0.035	0.105
-497.610	-70.204	0.090	-0.034
-496.595	-46.554	0.291	0.142
-495.581	-21.217	-0.074	-0.045
-494.566	-160.539	0.347	0.018
-493.551	97.702	-0.067	0.077
-492.537	345.498	0.237	0.462
-491.522	-99.619	-0.159	-0.040
-490.508	-19.920	-0.126	0.078
-489.493	10.299	0.114	-0.086
-488.478	-75.848	0.299	0.105
-487.464	-42.070	-0.384	-0.195
-486.449	-121.669	0.328	-0.054
-485.435	195.070	0.081	0.122
-484.420	12.422	-0.156	-0.119
-483.405	2.348	0.111	-0.079
-482.391	-149.515	0.248	0.019
-481.376	-94.805	-0.294	-0.079
-480.362	392.914	0.091	0.189
-479.347	-103.927	0.349	-0.081
-478.332	-81.868	0.214	-0.069
-477.318	616.682	-0.154	-0.383
-476.303	-80.376	-0.111	-0.037
-475.289	792.580	-0.088	-0.240
-474.274	-102.056	0.242	-0.058
-473.259	0.254	0.072	0.051
-472.245	-12.983	-0.296	-0.191
-471.230	255.494	-0.228	-0.388
-470.216	209.696	-0.033	-0.052
-469.201	124.833	-0.125	-0.156
-468.186	-104.028	0.105	-0.024
-467.172	-200.000	-0.003	-0.188
-466.157	103.256	-0.033	0.039
-465.143	-200.000	0.026	-0.221
-464.128	800.000	0.068	-0.191
-463.113	-200.000	0.047	0.231
-462.099	726.981	-0.063	0.166
-461.084	-200.000	0.004	-0.177
-460.070	315.740	0.016	0.031
-459.055	-200.000	-0.003	-0.066
-458.040	427.209	-0.082	-0.176
-457.026	800.000	-0.030	0.124
-456.011	-33.103	0.077	-0.042
-454.997	-59.084	-0.244	-0.104
-453.982	-16.194	-0.059	-0.037
-452.968	-125.267	-0.059	0.009
-451.953	-163.701	0.398	0.019
-450.938	-57.207	-0.299	0.131
-449.924	-181.351	0.099	0.002
-448.909	575.230	-0.052	0.126
-447.895	-200.000	0.036	0.465
-446.880	-46.744	0.300	0.145
-445.865	800.000	0.049	-0.203
-444.851	115.623	0.239	-0.290
-443.836	98.714	-0.109	-0.125
-442.822	204.439	0.198	0.304
-441.807	-82.794	-0.032	-0.010
-440.792	-39.109	-0.222	0.116
-439.778	-200.000	-0.019	0.200
-438.763	-31.857	-0.290	0.161
-437.749	-93.166	-0.123	-0.034
-436.734	57.894	0.133	-0.129
-435.719	800.000	0.105	-0.324
-434.705	41.833	-0.290	0.261
-433.690	-109.228	0.280	0.059
-432.676	800.000	-0.027	0.081
-431.661	180.025	-0.248	-0.360
-430.646	33.362	0.292	-0.251
-429.632	313.214	0.040	-0.075
-428.617	800.000	-0.019	0.068
-427.603	-133.311	-0.325	0.041
-426.588	-86.430	0.303	0.092
-425.573	131.247	0.070	0.089
-424.559	-200.000	-0.001	-0.059
-423.544	1.642	-0.220	0.157
-422.530	-84.762	-0.096	0.030
-421.515	142.366	-0.227	0.298
-420.500	40.485	0.334	0.298
-419.486	20.368	-0.148	0.119
-418.471	148.210	0.095	-0.127
-417.457	91.017	0.109	-0.121
-416.442	49.714	-0.183	-0.170
-415.428	39.025	0.077	0.068
-414.413	-67.184	0.043	-0.017
-413.398	-26.063	0.414	-0.241
-412.384	-58.483	-0.343	0.147
-411.369	-34.272	-0.188	-0.102
-410.355	48.707	0.271	-0.251
-409.340	171.035	-0.120	0.171
-408.325	248.477	0.133	-0.222
-407.311	-3.608	0.206	-0.142
-406.296	-33.334	0.077	-0.042
-405.282	-14.995	0.343	-0.218
-404.267	-50.878	-0.186	-0.086
-403.252	-74.545	-0.005	0.002
-402.238	-91.519	-0.081	-0.023
-401.223	303.537	0.218	-0.400
-400.209	-84.858	-0.308	0.096
-399.194	-55.652	-0.173	0.077
-398.179	-87.533	0.168	-0.050
-397.165	-27.535	-0.104	-0.060
-396.150	-177.872	0.080	0.002
-395.136	4.542	-0.217	0.158
-394.121	800.000	0.109	-0.297
-393.106	-55.689	-0.416	0.184
-392.092	-75.292	-0.151	0.053
-391.077	252.804	-0.071	0.119
-390.063	-19.819	-0.113	-0.069
-389.048	-94.557	-0.131	-0.035
-388.033	364.871	0.070	-0.139
-387.019	-95.615	-0.169	0.045
-386.004	-120.954	0.201	-0.033
-384.990	215.619	0.154	0.242
-383.975	114.876	0.212	0.255
-382.960	800.000	-0.102	0.300
-381.946	146.923	-0.045	0.060
-380.931	34.623	0.179	0.154
-379.917	107.716	0.201	-0.237
-378.902	-200.000	0.020	0.164
-377.888	800.000	-0.137	0.383
-376.873	287.220	-0.136	-0.243
-375.858	-179.371	-0.131	-0.003
-374.844	79.342	-0.128	0.136
-373.829	119.571	-0.117	0.143
-372.815	-99.433	-0.473	-0.118
-371.800	-113.070	0.161	-0.031
-370.785	-18.475	-0.066	0.041
-369.771	59.898	-0.012	0.012
-368.756	158.528	0.056	0.077
-367.742	-128.740	0.310	-0.043
-366.727	800.000	-0.025	0.072
-365.712	365.873	-0.082	0.163
-364.698	-200.000	-0.069	-0.301
-363.683	206.412	-0.137	0.211
-362.669	85.786	0.088	0.096
-361.654	-200.000	-0.050	0.292
-360.639	-99.763	0.122	-0.030
-359.625	-153.426	-0.178	-0.012
-358.610	-200.000	-0.021	-0.120
-357.596	-200.000	-0.014	0.181
-356.581	-90.289	-0.124	0.036
-355.566	234.310	-0.122	0.199
-354.552	-118.948	0.213	-0.037
-353.537	32.017	-0.269	-0.229
-352.523	-154.306	0.192	-0.013
-351.508	-200.000	0.014	0.109
-350.493	-84.880	-0.071	0.022
-349.479	-118.138	0.320	0.056
-348.464	61.448	-0.134	-0.132
-347.450	-125.603	0.094	-0.014
-346.435	-200.000	0.103	0.453
-345.420	43.645	0.165	0.149
-344.406	-200.000	0.015	-0.165
-343.391	-49.491	-0.074	-0.035
-342.377	-20.379	-0.059	0.036
-341.362	800.000	0.055	-0.162
-340.348	32.987	0.117	0.100
-339.333	-155.678	0.244	0.015
-338.318	33.324	0.196	0.168
-337.304	-179.870	-0.401	-0.008
-336.289	-112.674	-0.061	0.012
-335.275	-123.274	-0.447	0.071
-334.260	-7.849	0.213	-0.142
-333.245	-103.345	0.079	0.018
-332.231	800.000	-0.020	0.084
-331.216	184.933	0.056	-0.082
-330.202	12.869	-0.120	-0.091
-329.187	800.000	0.042	-0.146
-328.172	-93.565	0.262	-0.071
-327.158	305.182	0.149	0.273
-326.143	263.753	-0.212	0.364
-325.129	147.365	-0.062	0.083
-324.114	-135.742	0.037	-0.004
-323.099	-200.000	0.008	0.053
-322.085	386.805	0.027	0.054
-321.070	122.551	0.106	0.131
-320.056	800.000	0.002	0.006
-319.041	-57.413	-0.117	0.051
-318.026	228.121	0.124	-0.199
-317.012	190.341	-0.070	0.103
-315.997	-183.437	-0.191	0.003
-314.983	25.768	0.191	0.157
-313.968	800.000	-0.037	0.160
-312.953	288.146	-0.105	0.187
-311.939	800.000	-0.064	0.240
-310.924	800.000	-0.054	-0.151
-309.910	277.065	-0.162	-0.284
-308.895	-200.000	0.040	0.180
-307.880	-129.097	0.029	0.004
-306.866	800.000	0.011	0.045
-305.851	-103.209	0.232	-0.054
-304.837	83.608	0.071	-0.077
-303.822	800.000	0.074	-0.222
-302.807	-200.000	0.035	-0.175
-301.793	-127.438	0.140	0.020
-300.778	800.000	0.104	0.313
-299.764	-200.000	-0.007	0.091
-298.749	321.220	-0.147	-0.276
-297.735	25.982	-0.163	0.134
-296.720	-177.824	0.246	-0.006
-295.705	-82.920	0.302	0.096
-294.691	-91.598	0.056	-0.016
-293.676	237.977	-0.096	0.157
-292.662	-44.224	-0.357	-0.177
-291.647	40.765	-0.142	0.126
-290.632	141.787	0.225	-0.294
-289.618	358.671	-0.092	0.181
-288.603	-157.596	-0.328	-0.019
-287.589	-32.308	0.133	0.073
-286.574	-200.000	-0.115	0.539
-285.559	-200.000	0.008	-0.169
-284.545	-200.000	-0.001	0.014
-283.530	800.000	-0.021	-0.076
-282.516	800.000	0.073	0.266
-281.501	-164.342	-0.257	-0.012
-280.486	580.510	-0.067	0.163
-279.472	33.121	0.158	-0.135
-278.457	231.048	-0.114	0.183
-277.443	800.000	0.038	-0.134
-276.428	-135.242	0.161	-0.019
-275.413	593.921	0.104	0.253
-274.399	-13.996	0.170	0.108
-273.384	-152.179	-0.125	-0.009
-272.370	-200.000	-0.011	-0.123
-271.355	491.228	-0.038	-0.085
-270.340	163.090	-0.192	-0.266
-269.326	800.000	0.071	0.288
-268.311	215.071	0.053	-0.083
-267.297	-102.917	0.283	0.066
-266.282	800.000	0.066	0.196
-265.267	755.814	0.082	0.219
-264.253	39.407	0.143	0.126
-263.238	-16.088	0.088	-0.055
-262.224	-200.000	-0.047	0.372
-261.209	-115.821	-0.458	0.084
-260.195	257.795	0.199	-0.337
-259.180	-57.408	-0.201	0.087
-258.165	78.559	-0.217	-0.228
-257.151	-73.340	0.433	-0.156
-256.136	391.567	-0.121	0.247
-255.122	-51.398	-0.027	0.012
-254.107	800.000	0.117	-0.319
-253.092	56.030	-0.096	0.092
-252.078	138.067	0.088	0.113
-251.063	226.115	-0.202	0.322
-250.049	243.417	0.186	0.307
-249.034	-200.000	0.006	0.140
-248.019	-200.000	-0.036	0.219
-247.005	81.483	-0.184	-0.196
-245.990	-58.251	-0.209	0.089
-244.976	222.877	-0.064	0.101
-243.961	649.169	-0.195	0.491
-242.946	-108.391	-0.249	0.053
-241.932	65.591	0.175	-0.175
-240.917	-37.521	-0.345	-0.181
-239.903	-56.611	0.170	0.074
-238.888	-114.076	-0.364	0.069
-237.873	34.749	0.323	0.278
-236.859	-173.423	-0.360	-0.011
-235.844	-6.927	-0.117	-0.078
-234.830	-179.980	-0.085	-0.002
-233.815	126.936	-0.211	0.263
-232.800	-33.693	0.349	0.189
-231.786	174.145	0.080	0.114
-230.771	800.000	0.058	-0.232
-229.757	44.106	0.175	-0.157
-228.742	-200.000	-0.013	-0.130
-227.727	182.871	0.237	-0.344
-226.713	-156.830	-0.275	0.017
-225.698	685.102	0.079	0.202
-224.684	-70.907	0.080	-0.030
-223.669	405.149	-0.069	0.143
-222.655	-200.000	0.033	-0.205
-221.640	105.280	-0.050	0.058
-220.625	-12.118	0.113	0.072
-219.611	-200.000	-0.035	-0.175
-218.596	190.271	0.129	-0.190
-217.582	-141.843	0.041	-0.004
-216.567	44.281	0.271	0.244
-215.552	800.000	0.023	0.070
-214.538	-200.000	-0.003	0.217
-213.523	-136.722	0.380	0.043
-212.509	-19.032	0.123	0.075
-211.494	800.000	0.039	0.149
-210.479	-58.992	-0.016	0.007
-209.465	171.551	-0.196	0.277
-208.450	-44.772	-0.091	-0.044
-207.436	315.253	-0.268	-0.496
-206.421	-152.939	0.188	0.013
-205.406	23.448	0.097	0.078
-204.392	-23.313	-0.378	-0.223
-203.377	-200.000	-0.059	-0.294
-202.363	71.877	-0.146	-0.149
-201.348	49.136	-0.131	-0.121
-200.333	377.890	-0.169	0.338
-199.319	-180.926	0.021	0.000
-198.304	-200.000	-0.009	-0.362
-197.290	-57.693	0.247	0.106
-196.275	457.162	0.016	0.035
-195.260	800.000	0.015	-0.043
-194.246	4.086	0.099	0.071
-193.231	19.669	-0.155	-0.123
-192.217	2.775	-0.151	-0.108
-191.202	-82.884	0.356	-0.113
-190.187	-99.014	-0.235	0.059
-189.173	-121.670	-0.258	-0.042
-188.158	69.434	0.095	-0.096
-187.144	-163.081	0.075	0.004
-186.129	6.378	0.076	0.055
-185.114	408.228	0.220	0.456
-184.100	-75.925	-0.049	-0.017
-183.085	44.176	0.251	0.226
-182.071	-158.913	0.428	-0.024
-181.056	-49.799	0.345	-0.161
-180.042	-3.920	0.192	0.131
-179.027	-138.173	0.220	-0.024
-178.012	42.982	-0.144	-0.129
-176.998	-200.000	-0.011	-0.096
-175.983	403.625	0.073	0.151
-174.969	428.924	0.223	0.473
-173.954	99.873	-0.140	0.159
-172.939	56.774	-0.094	-0.090
-171.925	476.863	0.087	0.192
-170.910	-48.992	0.329	0.154
-169.896	222.685	-0.070	-0.111
-168.881	-170.418	-0.286	-0.010
-167.866	-200.000	0.027	-0.280
-166.852	402.744	0.047	0.096
-165.837	-200.000	0.034	0.243
-164.823	-28.844	-0.321	-0.181
-163.808	-45.790	0.297	0.144
-162.793	-200.000	-0.004	-0.252
-161.779	21.890	-0.039	-0.031
-160.764	396.194	0.065	0.133
-159.750	41.302	0.232	0.206
-158.735	-200.000	0.049	0.469
-157.720	-56.845	0.272	0.118
-156.706	-40.125	0.246	-0.126
-155.691	491.694	-0.037	0.082
-154.677	-200.000	0.026	0.131
-153.662	-110.706	0.318	-0.064
-152.647	200.129	0.214	-0.321
-151.633	371.046	-0.067	-0.133
-150.618	237.828	0.185	-0.301
-149.604	-153.604	0.134	-0.009
-148.589	-35.030	0.201	0.107
-147.574	-26.204	-0.333	-0.192
-146.560	172.080	0.078	0.109
-145.545	124.305	-0.032	-0.039
-144.531	-134.273	0.217	-0.026
-143.516	-6.100	0.126	-0.084
-142.502	-106.190	-0.237	0.052
-141.487	-58.102	-0.047	0.020
-140.472	800.000	0.048	0.146
-139.458	115.848	-0.026	0.031
-138.443	-137.113	0.201	-0.022
-137.429	-148.003	0.133	0.011
-136.414	55.729	0.198	-0.188
-135.399	-200.000	0.054	-0.301
-134.385	800.000	0.097	0.282
-133.370	-60.510	0.188	0.078
-132.356	100.393	-0.102	-0.116
-131.341	54.314	0.276	0.260
-130.326	800.000	-0.046	0.172
-129.312	-22.144	0.205	0.122
-128.297	-200.000	0.019	0.206
-127.283	800.000	0.025	0.092
-126.268	560.208	0.012	0.029
-125.253	-179.123	0.346	0.008
-124.239	10.702	-0.106	-0.079
-123.224	7.384	0.129	0.094
-122.210	-72.655	0.113	0.041
-121.195	-76.766	-0.119	0.041
