DTS Sentinel unit serial number:	SN413079Multiplexer serial number:	ORYXHardware model number:	OX4-SRSoftware version number:	ORYX F/W v4.00 Oryx Data Collector v3.7.2.0data status	okinstallation	princeton_trtdifferential loss correction	single-endedforward channel	channel 1reverse channel	N/Adate	2019/09/16time	23:06:35forward acquisition time	60.00reverse acquisition time	0.00gamma	496.2192k internal	0.2325k external	0.2325temperature offset calibration	0.9958default loss term (dB/km)	0.3790temperature slope calibration	1.0000multiplexer offset coefficient	1.0000multiplexer slope coefficient	1.0000fibre end	0.00T internal ref (°C)	30.25T ext. ref 1 (°C)	0.08T ext. ref 2 (°C)	23.91length (m)	temperature (°C)	Stokes	anti-Stokes-747.200	8.275	-0.219	0.166
-746.185	-18.867	-0.189	0.119
-745.171	-36.665	-0.199	0.108
-744.156	-100.252	0.141	-0.035
-743.142	-200.000	-0.014	-0.089
-742.127	39.863	-0.112	0.101
-741.112	-94.093	-0.226	0.062
-740.098	800.000	0.077	0.249
-739.083	-140.094	-0.343	0.036
-738.069	303.844	0.136	0.254
-737.054	37.731	0.245	0.220
-736.039	645.503	0.085	-0.219
-735.025	-30.357	0.428	-0.245
-734.010	-129.459	0.046	-0.006
-732.996	800.000	0.054	-0.205
-731.981	-49.513	-0.081	0.039
-730.966	-200.000	0.029	-0.255
-729.952	75.253	0.130	-0.139
-728.937	256.400	-0.044	-0.077
-727.923	58.404	-0.187	-0.184
-726.908	240.718	0.106	-0.179
-725.894	-200.000	-0.049	-0.525
-724.879	350.673	0.021	0.042
-723.864	98.488	-0.039	0.045
-722.850	-200.000	-0.030	-0.165
-721.835	-140.438	-0.392	0.041
-720.821	378.530	-0.066	-0.136
-719.806	52.219	-0.072	0.069
-718.791	28.868	-0.302	-0.258
-717.777	-79.846	-0.486	0.165
-716.762	800.000	0.040	-0.127
-715.748	-200.000	0.021	-0.180
-714.733	-200.000	0.013	-0.171
-713.718	-103.248	-0.219	-0.052
-712.704	174.568	-0.176	-0.256
-711.689	800.000	-0.048	0.198
-710.675	-31.970	0.241	-0.136
-709.660	-64.157	0.082	-0.034
-708.645	143.664	0.017	-0.023
-707.631	-37.710	-0.420	0.225
-706.616	-200.000	0.091	-0.409
-705.602	-56.365	0.141	-0.063
-704.587	-2.695	-0.378	-0.267
-703.572	-200.000	-0.036	0.169
-702.558	144.395	-0.237	0.319
-701.543	-17.647	0.227	0.143
-700.529	-186.523	0.105	-0.002
-699.514	-18.678	0.175	-0.110
-698.499	-200.000	0.002	-0.277
-697.485	-200.000	-0.031	-0.225
-696.470	97.219	-0.193	0.223
-695.456	197.752	0.103	0.158
-694.441	800.000	-0.050	-0.185
-693.426	800.000	0.089	-0.249
-692.412	11.120	-0.079	0.061
-691.397	-134.495	-0.349	0.043
-690.383	-192.144	-0.290	0.003
-689.368	800.000	0.030	-0.128
-688.354	182.419	0.042	0.062
-687.339	-30.706	-0.120	-0.069
-686.324	272.441	0.259	-0.460
-685.310	-120.017	0.183	0.032
-684.295	-108.747	0.288	0.062
-683.281	23.771	0.199	-0.165
-682.266	-200.000	0.047	-0.338
-681.251	-115.526	-0.310	0.059
-680.237	-200.000	-0.003	-0.229
-679.222	-5.943	-0.165	0.113
-678.208	-108.290	-0.068	-0.015
-677.193	212.349	0.046	0.074
-676.178	-4.945	-0.017	0.012
-675.164	800.000	-0.017	-0.050
-674.149	539.307	0.040	-0.095
-673.135	-45.903	-0.205	0.102
-672.120	-136.469	-0.001	0.000
-671.105	-50.890	-0.072	0.034
-670.091	537.525	0.071	-0.170
-669.076	-188.723	-0.353	0.004
-668.062	71.986	-0.206	-0.216
-667.047	156.600	0.063	0.087
-666.032	54.274	0.322	-0.312
-665.018	5.537	0.156	0.116
-664.003	47.945	-0.159	0.149
-662.989	-200.000	0.031	0.268
-661.974	272.827	0.125	0.222
-660.959	-200.000	0.001	-0.041
-659.945	115.290	0.063	0.077
-658.930	-120.570	0.256	0.044
-657.916	-8.740	0.330	-0.223
-656.901	-90.561	0.220	0.064
-655.886	235.082	-0.016	0.027
-654.872	8.526	0.198	-0.150
-653.857	84.883	0.012	-0.013
-652.843	-200.000	-0.022	-0.345
-651.828	-160.033	-0.223	-0.012
-650.814	-113.502	0.148	0.029
-649.799	19.563	-0.025	-0.020
-648.784	-200.000	-0.017	-0.116
-647.770	-25.262	-0.249	-0.148
-646.755	-88.720	-0.156	0.047
-645.741	291.177	0.076	0.139
-644.726	33.945	-0.160	-0.140
-643.711	-58.528	-0.218	-0.095
-642.697	34.838	0.155	0.137
-641.682	-5.816	0.366	0.252
-640.668	800.000	-0.113	-0.337
-639.653	0.341	-0.056	-0.040
-638.638	265.540	0.064	-0.113
-637.624	127.871	0.127	0.163
-636.609	518.065	-0.025	0.058
-635.595	220.037	-0.091	-0.146
-634.580	367.212	0.057	-0.116
-633.565	-137.684	-0.393	0.044
-632.551	119.857	0.070	-0.087
-631.536	-72.982	0.059	-0.022
-630.522	-125.814	0.134	0.020
-629.507	-200.000	0.001	-0.302
-628.492	40.713	0.144	-0.130
-627.478	2.958	-0.267	0.195
-626.463	493.536	0.096	-0.221
-625.449	39.052	0.187	-0.168
-624.434	-200.000	-0.010	0.159
-623.419	800.000	-0.040	-0.137
-622.405	-1.165	0.209	0.149
-621.390	13.483	0.070	0.054
-620.376	-160.336	0.196	0.011
-619.361	-115.739	-0.172	0.032
-618.346	142.501	0.209	0.278
-617.332	-78.573	0.185	-0.063
-616.317	-65.100	-0.273	-0.111
-615.303	-142.109	0.384	-0.038
-614.288	-200.000	-0.011	-0.059
-613.273	-92.256	0.220	0.062
-612.259	-200.000	-0.035	-0.319
-611.244	800.000	0.053	-0.184
-610.230	18.053	-0.170	-0.136
-609.215	15.266	-0.186	0.146
-608.201	-148.708	-0.327	-0.027
-607.186	42.926	-0.107	0.098
-606.171	1.934	0.080	-0.058
-605.157	-200.000	0.034	0.165
-604.142	800.000	-0.038	-0.152
-603.128	52.954	-0.180	0.173
-602.113	-80.425	-0.158	0.053
-601.098	-109.050	-0.174	-0.037
-600.084	115.443	-0.033	0.040
-599.069	92.245	-0.183	-0.207
-598.055	-110.790	-0.288	-0.060
-597.040	250.713	-0.142	-0.243
-596.025	-63.220	-0.010	-0.004
-595.011	48.046	0.136	0.127
-593.996	800.000	-0.099	-0.325
-592.982	-7.866	0.366	-0.248
-591.967	663.992	-0.068	-0.177
-590.952	800.000	-0.104	-0.438
-589.938	-200.000	0.004	0.136
-588.923	-186.061	-0.129	0.002
-587.909	85.269	0.150	-0.165
-586.894	800.000	0.078	-0.280
-585.879	357.524	-0.071	-0.142
-584.865	-32.006	-0.193	-0.108
-583.850	-1.519	-0.126	0.089
-582.836	24.357	-0.173	-0.143
-581.821	138.289	0.044	0.058
-580.806	361.082	0.074	-0.149
-579.792	124.527	0.054	0.068
-578.777	-10.226	0.281	-0.187
-577.763	-55.067	-0.235	-0.106
-576.748	-70.298	-0.145	-0.055
-575.733	-62.355	0.049	-0.020
-574.719	-154.686	-0.095	0.006
-573.704	120.027	0.195	-0.242
-572.690	800.000	-0.135	0.387
-571.675	21.796	-0.177	0.145
-570.661	-200.000	-0.030	-0.164
-569.646	-186.324	-0.178	0.003
-568.631	-153.883	-0.169	-0.012
-567.617	203.558	-0.068	0.105
-566.602	-113.220	-0.238	0.047
-565.588	800.000	-0.035	-0.102
-564.573	-8.182	0.017	-0.012
-563.558	-192.875	0.059	-0.001
-562.544	800.000	0.130	-0.397
-561.529	-200.000	-0.047	-0.281
-560.515	46.060	-0.246	0.228
-559.500	-91.558	0.052	-0.015
-558.485	-33.026	-0.187	0.104
-557.471	-96.193	-0.166	0.044
-556.456	-200.000	-0.017	0.167
-555.442	61.915	0.110	0.110
-554.427	404.132	0.074	0.155
-553.412	800.000	-0.014	0.049
-552.398	136.800	-0.084	0.110
-551.383	100.539	-0.160	0.186
-550.369	-12.274	0.165	-0.108
-549.354	800.000	-0.088	-0.360
-548.339	-200.000	-0.014	0.089
-547.325	-110.159	-0.172	0.036
-546.310	-153.609	-0.206	0.014
-545.296	800.000	0.031	-0.133
-544.281	-200.000	-0.054	-0.283
-543.266	-200.000	-0.009	-0.191
-542.252	800.000	0.078	-0.279
-541.237	-157.653	0.317	0.019
-540.223	26.744	-0.151	0.127
-539.208	-129.819	0.139	-0.019
-538.193	-112.089	-0.403	-0.081
-537.179	435.097	0.129	-0.280
-536.164	38.881	0.249	0.223
-535.150	800.000	-0.109	-0.355
-534.135	87.360	0.082	-0.091
-533.121	476.192	-0.115	0.260
-532.106	-40.664	0.359	0.186
-531.091	-200.000	-0.058	0.265
-530.077	337.473	-0.153	0.298
-529.062	88.816	-0.108	-0.121
-528.048	-116.874	-0.094	-0.017
-527.033	-120.492	-0.303	-0.051
-526.018	800.000	0.019	0.064
-525.004	694.756	-0.096	-0.253
-523.989	-200.000	-0.421	-0.000
-522.975	-163.894	0.211	0.010
-521.960	-200.000	-0.060	0.349
-520.945	800.000	-0.095	0.300
-519.931	-143.796	0.242	0.023
-518.916	-67.758	-0.073	0.028
-517.902	-60.076	-0.256	0.109
-516.887	-200.000	0.012	0.269
-515.872	800.000	-0.044	0.181
-514.858	800.000	0.083	0.254
-513.843	111.068	0.215	0.259
-512.829	-177.770	0.324	-0.008
-511.814	-96.417	-0.065	0.017
-510.799	325.350	0.037	-0.071
-509.785	800.000	0.057	0.169
-508.770	70.787	-0.213	0.220
-507.756	138.777	-0.188	-0.247
-506.741	-200.000	0.000	0.222
-505.726	-50.153	-0.207	0.098
-504.712	292.163	0.062	-0.113
-503.697	-44.597	0.176	0.088
-502.683	24.739	-0.108	0.089
-501.668	800.000	0.034	0.113
-500.653	454.138	0.105	0.232
-499.639	-97.342	-0.369	0.096
-498.624	33.529	0.215	0.186
-497.610	-13.387	-0.193	-0.125
-496.595	-58.650	0.281	-0.122
-495.581	-96.311	-0.677	0.179
-494.566	45.501	-0.183	-0.169
-493.551	-5.650	-0.179	-0.123
-492.537	-89.598	0.019	-0.005
-491.522	-200.000	-0.012	-0.175
-490.508	-200.000	-0.027	0.163
-489.493	95.288	0.141	-0.160
-488.478	-200.000	-0.030	-0.312
-487.464	35.695	0.036	-0.032
-486.449	-62.035	0.113	-0.047
-485.435	347.536	0.112	-0.221
-484.420	411.553	-0.046	0.097
-483.405	-121.292	0.085	0.014
-482.391	-200.000	-0.000	0.185
-481.376	-200.000	-0.030	-0.152
-480.362	52.803	0.135	-0.129
-479.347	-200.000	-0.076	-0.625
-478.332	-193.825	0.166	0.001
-477.318	-133.404	0.158	0.020
-476.303	-200.000	0.028	0.141
-475.289	-70.269	0.203	-0.077
-474.274	212.798	-0.194	-0.305
-473.259	-154.411	0.173	-0.012
-472.245	-76.868	0.126	0.044
-471.230	-111.667	-0.092	-0.019
-470.216	60.748	-0.197	0.195
-469.201	204.007	0.125	-0.194
-468.186	467.028	-0.159	0.356
-467.172	-200.000	0.004	-0.062
-466.157	53.229	0.106	0.102
-465.143	800.000	0.089	0.337
-464.128	-200.000	0.025	0.242
-463.113	333.572	-0.037	0.072
-462.099	-200.000	-0.018	-0.138
-461.084	-102.116	-0.193	-0.046
-460.070	-55.030	-0.275	-0.123
-459.055	-64.650	-0.260	0.105
-458.040	-200.000	-0.006	0.361
-457.026	25.223	0.172	0.142
-456.011	17.467	-0.202	0.160
-454.997	-136.376	0.081	-0.009
-453.982	-132.132	0.284	0.037
-452.968	41.773	0.206	0.186
-451.953	-125.387	0.136	-0.021
-450.938	29.967	0.193	-0.164
-449.924	-200.000	-0.062	-0.344
-448.909	-92.510	-0.249	0.070
-447.895	295.754	0.017	-0.031
-446.880	11.986	0.192	0.147
-445.865	229.122	-0.106	0.172
-444.851	26.945	0.168	-0.141
-443.836	2.441	-0.218	0.157
-442.822	-8.931	-0.115	-0.077
-441.807	121.636	-0.219	-0.273
-440.792	-42.082	-0.106	0.054
-439.778	443.190	-0.073	0.159
-438.763	44.364	0.163	-0.149
-437.749	-115.934	-0.421	-0.078
-436.734	-200.000	-0.003	-0.079
-435.719	-13.154	-0.231	0.150
-434.705	800.000	-0.128	0.393
-433.690	-200.000	-0.078	-0.544
-432.676	-109.212	-0.224	0.047
-431.661	-200.000	-0.010	-0.280
-430.646	-200.000	0.014	0.201
-429.632	127.238	0.143	0.181
-428.617	219.397	0.118	0.188
-427.603	-142.605	0.299	-0.029
-426.588	-111.159	0.228	0.047
-425.573	-124.551	-0.120	-0.019
-424.559	-134.551	0.344	-0.042
-423.544	11.172	0.263	0.200
-422.530	229.579	-0.073	-0.119
-421.515	-57.396	-0.411	-0.180
-420.500	484.945	-0.128	-0.289
-419.486	-134.512	-0.161	0.020
-418.471	-200.000	-0.017	-0.121
-417.457	205.927	0.091	-0.141
-416.442	58.973	-0.256	-0.251
-415.428	28.273	0.182	0.153
-414.413	-99.823	0.105	-0.026
-413.398	382.436	0.040	0.082
-412.384	248.895	0.111	-0.187
-411.369	-43.342	-0.184	-0.093
-410.355	546.877	0.077	0.183
-409.340	800.000	-0.010	0.035
-408.325	-21.593	-0.200	0.121
-407.311	118.819	-0.123	-0.152
-406.296	-88.324	0.366	0.109
-405.282	-3.326	-0.428	0.297
-404.267	-87.261	0.147	0.045
-403.252	73.782	0.066	0.069
-402.238	245.953	-0.036	0.061
-401.223	800.000	-0.116	0.352
-400.209	-200.000	0.059	0.261
-399.194	-200.000	-0.005	-0.301
-398.179	-104.353	0.229	-0.053
-397.165	-200.000	-0.026	0.150
-396.150	-200.000	-0.046	-0.267
-395.136	7.585	0.132	0.098
-394.121	-77.129	0.203	0.071
-393.106	-200.000	-0.034	-0.237
-392.092	-80.729	0.204	-0.067
-391.077	-134.638	-0.054	0.007
-390.063	-68.442	-0.134	-0.052
-389.048	-6.530	-0.085	-0.058
-388.033	59.074	0.305	0.299
-387.019	-200.000	0.011	0.112
-386.004	47.478	0.227	-0.210
-384.990	-200.000	-0.033	-0.212
-383.975	-200.000	-0.029	0.157
-382.960	800.000	-0.077	0.241
-381.946	-7.558	0.133	0.090
-380.931	188.580	-0.214	-0.319
-379.917	-171.385	-0.272	0.009
-378.902	490.427	-0.066	-0.151
-377.888	-91.015	0.280	-0.080
-376.873	-90.503	-0.106	0.030
-375.858	517.291	0.044	0.102
-374.844	40.138	-0.175	0.156
-373.829	-10.632	0.164	-0.108
-372.815	188.982	-0.131	-0.195
-371.800	45.362	0.158	0.145
-370.785	30.212	-0.062	0.052
-369.771	297.997	0.132	0.242
-368.756	426.962	-0.160	0.344
-367.742	27.396	0.159	-0.133
-366.727	-174.786	0.209	-0.006
-365.712	12.773	-0.115	0.088
-364.698	-95.201	0.129	-0.035
-363.683	-200.000	-0.015	0.120
-362.669	109.267	0.097	0.116
-361.654	800.000	-0.033	-0.128
-360.639	-139.505	-0.198	-0.021
-359.625	84.051	0.236	0.256
-358.610	-151.974	0.103	0.007
-357.596	800.000	-0.047	-0.177
-356.581	-157.845	0.152	0.009
-355.566	6.374	0.181	0.133
-354.552	45.619	-0.097	0.089
-353.537	-128.833	-0.056	-0.008
-352.523	-73.946	-0.185	0.067
-351.508	-200.000	0.028	-0.149
-350.493	-32.640	0.100	-0.055
-349.479	800.000	0.049	0.162
-348.464	80.673	-0.254	-0.272
-347.450	134.948	-0.124	0.159
-346.435	-58.401	0.111	-0.048
-345.420	-170.823	-0.218	-0.007
-344.406	-63.633	0.175	-0.071
-343.391	800.000	-0.113	-0.444
-342.377	168.056	0.073	0.104
-341.362	689.883	0.095	-0.246
-340.348	-89.500	0.235	-0.069
-339.333	62.039	0.147	-0.145
-338.318	-75.485	-0.191	-0.067
-337.304	-77.832	0.045	0.015
-336.289	525.786	-0.072	0.168
-335.275	-6.966	0.359	0.242
-334.260	146.760	-0.096	0.129
-333.245	-3.530	-0.190	-0.131
-332.231	-136.455	0.318	0.037
-331.216	800.000	-0.012	0.054
-330.202	-121.696	0.314	-0.052
-329.187	303.180	-0.125	-0.229
-328.172	800.000	0.049	0.196
-327.158	-27.015	-0.454	0.263
-326.143	306.961	0.123	0.228
-325.129	537.798	-0.116	0.273
-324.114	-111.664	-0.131	0.026
-323.099	-50.272	0.175	0.082
-322.085	-103.034	-0.130	-0.031
-321.070	21.723	0.061	0.049
-320.056	430.970	-0.066	-0.142
-319.041	-34.291	0.206	0.112
-318.026	-121.495	-0.337	0.056
-317.012	373.646	-0.149	-0.300
-315.997	-200.000	0.019	-0.382
-314.983	-143.884	0.414	0.039
-313.968	321.700	0.171	-0.322
-312.953	800.000	-0.016	0.065
-311.939	-200.000	-0.048	0.224
-310.924	-19.785	-0.091	0.056
-309.910	-48.984	0.076	-0.036
-308.895	82.968	-0.003	0.003
-307.880	-200.000	0.022	0.291
-306.866	-3.079	0.167	-0.116
-305.851	-200.000	-0.006	0.183
-304.837	155.730	0.097	-0.133
-303.822	-36.114	0.031	0.017
-302.807	-200.000	0.013	0.197
-301.793	800.000	-0.056	0.238
-300.778	405.026	-0.131	0.273
-299.764	223.581	0.123	0.196
-298.749	-200.000	0.085	0.377
-297.735	-122.701	0.393	0.063
-296.720	800.000	-0.042	0.140
-295.705	-141.549	0.034	-0.003
-294.691	211.911	0.029	-0.045
-293.676	29.543	0.051	-0.043
-292.662	150.917	-0.067	-0.090
-291.647	-138.253	0.457	-0.050
-290.632	-152.493	0.397	0.028
-289.618	7.624	0.046	-0.034
-288.603	91.033	-0.127	-0.142
-287.589	-0.636	0.182	0.128
-286.574	-200.000	0.008	-0.265
-285.559	800.000	0.057	-0.195
-284.545	-109.122	-0.250	0.053
-283.530	15.783	0.089	-0.069
-282.516	-29.386	-0.129	-0.073
-281.501	8.251	0.127	0.094
-280.486	-200.000	0.007	-0.323
-279.472	574.718	0.123	-0.298
-278.457	31.315	-0.129	-0.110
-277.443	553.983	0.070	-0.167
-276.428	-142.676	-0.095	-0.009
-275.413	-80.833	0.487	-0.160
-274.399	70.680	-0.158	0.162
-273.384	42.027	0.147	-0.133
-272.370	-91.048	-0.395	0.112
-271.355	-171.517	0.200	0.007
-270.340	150.530	-0.012	-0.016
-269.326	235.910	0.321	-0.526
-268.311	-166.888	-0.121	-0.005
-267.297	281.940	0.010	0.018
-266.282	800.000	0.031	-0.115
-265.267	-71.832	0.213	-0.078
-264.253	149.782	-0.043	-0.058
-263.238	-111.981	0.310	0.062
-262.224	156.159	-0.139	0.189
-261.209	75.430	0.233	0.244
-260.195	-200.000	0.045	-0.314
-259.180	-51.464	-0.240	-0.111
-258.165	-138.500	0.315	0.034
-257.151	522.669	-0.165	0.384
-256.136	-139.231	-0.188	-0.020
-255.122	-7.420	-0.108	0.073
-254.107	83.379	0.042	0.045
-253.092	-183.487	-0.316	0.005
-252.078	-156.473	0.116	-0.007
-251.063	15.853	0.100	0.078
-250.049	-200.000	-0.036	-0.263
-249.034	-19.741	0.081	0.050
-248.019	800.000	-0.102	0.388
-247.005	-92.096	0.527	-0.147
-245.990	800.000	0.073	-0.223
-244.976	271.971	-0.067	0.118
-243.961	63.903	-0.175	0.174
-242.946	-89.019	0.235	0.069
-241.932	-34.284	-0.032	0.017
-240.917	135.052	-0.103	-0.133
-239.903	100.859	0.180	0.207
-238.888	800.000	-0.117	0.493
-237.873	-77.242	-0.282	0.097
-236.859	-97.455	0.208	-0.054
-235.844	800.000	-0.046	0.149
-234.830	-122.429	0.206	0.033
-233.815	75.705	-0.155	-0.162
-232.800	-41.339	-0.233	-0.119
-231.786	-75.497	0.315	0.111
-230.771	-102.890	-0.177	0.042
-229.757	156.140	0.057	-0.078
-228.742	393.561	-0.183	0.377
-227.727	-70.163	-0.157	-0.059
-226.713	79.742	0.107	-0.114
-225.698	-121.706	-0.218	-0.036
-224.684	-200.000	0.032	0.232
-223.669	-74.711	0.325	-0.115
-222.655	-200.000	0.032	0.155
-221.640	-135.847	-0.378	-0.044
-220.625	104.718	0.107	-0.125
-219.611	-200.000	-0.002	0.149
-218.596	-84.803	-0.124	-0.038
-217.582	-172.833	0.240	0.007
-216.567	-117.519	0.193	-0.034
-215.552	73.546	-0.186	-0.193
-214.538	-43.827	0.167	-0.083
-213.523	-17.135	0.120	0.075
-212.509	409.649	0.033	-0.070
-211.494	7.487	0.090	-0.066
-210.479	800.000	-0.052	-0.146
-209.465	28.276	0.092	0.076
-208.450	286.919	-0.142	0.254
-207.436	96.245	0.187	-0.211
-206.421	-38.033	-0.150	0.079
-205.406	-185.221	0.260	0.004
-204.392	56.038	0.120	-0.115
-203.377	-48.772	0.095	0.045
-202.363	-43.708	-0.115	0.057
-201.348	97.435	0.125	-0.142
-200.333	800.000	0.077	-0.331
-199.319	-50.104	-0.240	-0.112
-198.304	800.000	-0.048	0.133
-197.290	-200.000	0.041	0.181
-196.275	159.955	0.130	-0.179
-195.260	-19.828	0.133	0.081
-194.246	800.000	0.103	-0.305
-193.231	17.044	0.098	0.076
-192.217	-111.961	-0.252	0.050
-191.202	-107.659	-0.137	-0.030
-190.187	37.482	0.129	-0.113
-189.173	-168.696	-0.271	-0.010
-188.158	698.398	-0.051	-0.133
-187.144	800.000	0.151	-0.512
-186.129	79.850	-0.270	0.286
-185.114	-68.353	-0.078	-0.030
-184.100	70.404	0.245	0.250
-183.085	384.259	-0.096	0.195
-182.071	153.237	-0.086	-0.116
-181.056	-116.402	-0.063	0.011
-180.042	479.987	0.033	0.074
-179.027	-67.881	0.111	-0.043
-178.012	-200.000	0.010	0.043
-176.998	-200.000	-0.019	0.456
-175.983	603.608	0.102	0.250
-174.969	-98.294	-0.170	-0.043
-173.954	-138.308	0.140	-0.015
-172.939	-200.000	0.041	0.265
-171.925	-200.000	-0.020	0.122
-170.910	-55.312	-0.174	0.077
-169.896	280.091	-0.061	-0.107
-168.881	-128.388	0.205	-0.029
-167.866	194.675	0.136	-0.203
-166.852	-53.384	0.281	-0.127
-165.837	-127.787	-0.352	0.050
-164.823	-121.166	0.171	0.028
-163.808	-78.284	-0.257	-0.087
-162.793	282.947	-0.148	-0.263
-161.779	800.000	-0.038	0.147
-160.764	204.303	0.075	-0.115
-159.750	-68.716	-0.073	-0.028
-158.735	-9.138	0.383	0.252
-157.720	-88.064	0.409	-0.121
-156.706	-200.000	0.009	0.082
-155.691	-114.686	-0.207	0.039
-154.677	-185.479	-0.146	0.002
-153.662	33.229	-0.254	0.217
-152.647	-85.742	0.186	0.057
-151.633	313.399	0.177	0.328
-150.618	220.206	0.229	-0.362
-149.604	233.859	0.091	0.148
-148.589	69.036	-0.110	0.111
-147.574	376.119	-0.161	-0.323
-146.560	-65.810	0.090	-0.036
-145.545	-132.720	-0.144	-0.018
-144.531	155.201	0.153	0.208
-143.516	-200.000	0.010	-0.127
-142.502	268.111	0.045	0.078
-141.487	800.000	0.061	-0.195
-140.472	13.760	0.212	0.163
-139.458	127.635	-0.031	-0.039
-138.443	-200.000	-0.012	-0.386
-137.429	21.826	0.235	0.188
-136.414	-38.297	-0.177	-0.092
-135.399	-200.000	-0.014	0.102
-134.385	-200.000	0.017	-0.226
-133.370	-11.662	-0.283	-0.183
-132.356	800.000	0.170	-0.517
-131.341	-200.000	-0.032	0.474
-130.326	-143.263	-0.360	-0.034
-129.312	-137.934	-0.212	0.023
-128.297	800.000	-0.069	-0.295
-127.283	197.277	0.033	0.049
-126.268	-90.201	-0.070	0.020
-125.253	-20.772	-0.133	0.080
-124.239	649.499	-0.044	0.110
-123.224	800.000	0.072	-0.214
-122.210	-1.496	0.217	0.151
-121.195	263.780	-0.183	-0.314
