DTS Sentinel unit serial number:	SN413079Multiplexer serial number:	ORYXHardware model number:	OX4-SRSoftware version number:	ORYX F/W v4.00 Oryx Data Collector v3.7.2.0data status	okinstallation	princeton_trtdifferential loss correction	single-endedforward channel	channel 1reverse channel	N/Adate	2019/09/12time	04:36:11forward acquisition time	60.00reverse acquisition time	0.00gamma	496.2192k internal	0.2324k external	0.2324temperature offset calibration	1.0125default loss term (dB/km)	0.3790temperature slope calibration	1.0000multiplexer offset coefficient	1.0000multiplexer slope coefficient	1.0000fibre end	0.00T internal ref (°C)	31.61T ext. ref 1 (°C)	2.87T ext. ref 2 (°C)	26.95length (m)	temperature (°C)	Stokes	anti-Stokes-747.200	-200.000	-0.044	-0.269
-746.185	-200.000	0.077	0.400
-745.171	-70.627	-0.229	-0.087
-744.156	-8.671	-0.269	0.182
-743.142	-176.624	0.178	0.005
-742.127	267.770	-0.108	0.191
-741.112	-58.022	-0.115	-0.051
-740.098	-200.000	-0.005	0.064
-739.083	-200.000	-0.012	0.209
-738.069	800.000	0.061	0.236
-737.054	-33.309	-0.253	0.141
-736.039	21.588	-0.407	-0.334
-735.025	-200.000	0.015	0.301
-734.010	-128.089	-0.345	0.050
-732.996	-82.525	-0.227	0.074
-731.981	419.080	-0.080	-0.172
-730.966	-53.188	-0.148	-0.069
-729.952	-41.488	0.270	-0.140
-728.937	800.000	-0.049	-0.198
-727.923	-157.742	-0.060	-0.004
-726.908	-200.000	-0.031	-0.161
-725.894	59.540	0.135	-0.135
-724.879	-200.000	-0.044	-0.371
-723.864	-200.000	0.100	0.484
-722.850	311.524	-0.041	-0.077
-721.835	18.620	-0.404	-0.326
-720.821	44.230	-0.226	-0.209
-719.806	176.038	0.141	-0.206
-718.791	-134.692	0.100	0.012
-717.777	214.452	-0.066	-0.105
-716.762	62.414	0.181	0.182
-715.748	800.000	0.032	-0.133
-714.733	516.498	-0.176	0.414
-713.718	200.224	-0.042	0.065
-712.704	-27.139	0.289	0.170
-711.689	101.784	0.045	0.053
-710.675	97.577	0.103	-0.119
-709.660	5.228	-0.329	0.245
-708.645	-200.000	0.000	-0.194
-707.631	-200.000	-0.067	-0.369
-706.616	-172.970	0.167	0.005
-705.602	26.806	-0.245	0.207
-704.587	-51.542	-0.198	-0.093
-703.572	342.382	0.097	-0.191
-702.558	-73.160	-0.126	0.046
-701.543	-47.034	0.061	-0.030
-700.529	800.000	0.055	-0.203
-699.514	28.144	0.066	-0.056
-698.499	134.573	-0.059	-0.077
-697.485	-200.000	0.111	-0.496
-696.470	362.296	-0.150	0.303
-695.456	-10.609	-0.163	0.109
-694.441	17.854	0.319	-0.256
-693.426	-24.385	0.132	0.079
-692.412	-18.496	-0.065	-0.041
-691.397	73.851	0.314	-0.332
-690.383	-122.818	-0.157	-0.026
-689.368	329.010	0.123	-0.239
-688.354	-200.000	0.016	0.210
-687.339	-200.000	0.017	0.181
-686.324	-37.048	0.349	0.188
-685.310	-82.656	-0.383	-0.125
-684.295	243.497	-0.114	0.192
-683.281	359.523	-0.085	-0.171
-682.266	-122.426	-0.079	-0.013
-681.251	-53.271	-0.212	-0.098
-680.237	-172.754	0.349	-0.011
-679.222	135.286	0.219	0.286
-678.208	62.706	-0.298	0.300
-677.193	63.491	0.063	0.064
-676.178	-200.000	-0.001	-0.300
-675.164	-107.435	-0.218	-0.048
-674.149	800.000	0.077	-0.243
-673.135	409.333	0.139	-0.297
-672.120	315.593	0.126	-0.239
-671.105	-200.000	0.000	-0.169
-670.091	56.037	0.118	0.116
-669.076	-89.770	0.128	-0.038
-668.062	-200.000	-0.006	0.064
-667.047	654.398	-0.036	-0.093
-666.032	-53.869	0.260	-0.119
-665.018	157.713	-0.058	-0.080
-664.003	-71.602	-0.195	0.073
-662.989	252.351	-0.080	-0.137
-661.974	45.350	-0.117	0.109
-660.959	197.433	-0.069	0.106
-659.945	53.259	-0.228	-0.220
-658.930	-25.778	0.011	0.007
-657.916	-150.621	0.157	-0.012
-656.901	-125.361	-0.395	-0.061
-655.886	-200.000	-0.071	-0.360
-654.872	-176.882	-0.358	-0.009
-653.857	27.132	-0.173	-0.146
-652.843	-200.000	0.045	0.419
-651.828	-4.741	-0.197	-0.137
-650.814	306.903	-0.110	-0.206
-649.799	-200.000	-0.027	0.139
-648.784	65.874	0.170	0.173
-647.770	166.548	-0.348	0.496
-646.755	102.517	-0.171	0.201
-645.741	-200.000	0.029	0.269
-644.726	800.000	0.056	0.227
-643.711	-200.000	-0.004	-0.087
-642.697	-58.753	-0.209	0.091
-641.682	-61.125	-0.383	-0.163
-640.668	-200.000	0.012	-0.228
-639.653	414.685	-0.116	-0.248
-638.638	191.287	-0.308	-0.465
-637.624	22.845	0.090	0.074
-636.609	-77.032	0.223	0.078
-635.595	-103.506	0.134	-0.032
-634.580	-132.976	-0.058	0.007
-633.565	-46.502	0.179	-0.088
-632.551	49.055	-0.149	-0.141
-631.536	-200.000	-0.006	0.046
-630.522	750.386	0.041	0.112
-629.507	-113.010	0.291	-0.058
-628.492	85.552	0.076	0.084
-627.478	273.796	-0.061	0.109
-626.463	89.352	0.234	0.263
-625.449	-200.000	-0.027	-0.293
-624.434	683.618	0.121	-0.318
-623.419	302.573	-0.028	0.053
-622.405	800.000	0.029	0.109
-621.390	347.415	0.132	-0.260
-620.376	777.170	-0.097	-0.267
-619.361	800.000	-0.059	-0.243
-618.346	169.373	-0.103	0.148
-617.332	-200.000	0.024	-0.127
-616.317	-40.791	0.116	-0.060
-615.303	800.000	0.031	-0.110
-614.288	274.781	0.053	-0.094
-613.273	288.248	0.228	-0.414
-612.259	115.321	-0.205	-0.251
-611.244	613.653	-0.044	0.112
-610.230	-200.000	-0.065	0.347
-609.215	-200.000	-0.033	0.378
-608.201	-117.601	0.150	-0.027
-607.186	82.826	-0.176	-0.192
-606.171	199.053	0.159	0.244
-605.157	-200.000	0.013	-0.195
-604.142	363.564	0.090	-0.181
-603.128	77.403	-0.377	0.403
-602.113	-200.000	0.011	0.396
-601.098	800.000	0.083	0.307
-600.084	2.099	0.039	-0.029
-599.069	-54.675	-0.317	0.144
-598.055	-200.000	-0.024	0.243
-597.040	227.847	0.070	-0.115
-596.025	-56.037	0.121	-0.054
-595.011	-200.000	0.035	0.281
-593.996	71.128	0.217	-0.226
-592.982	60.572	-0.282	0.280
-591.967	-86.800	-0.326	-0.100
-590.952	-169.889	-0.326	0.012
-589.938	800.000	0.070	0.289
-588.923	-13.236	-0.196	-0.128
-587.909	177.794	0.146	-0.213
-586.894	77.053	0.155	0.165
-585.879	-96.443	-0.403	0.107
-584.865	134.398	-0.164	0.214
-583.850	459.042	-0.110	-0.244
-582.836	75.696	-0.101	-0.107
-581.821	591.590	0.135	-0.334
-580.806	656.585	-0.091	-0.235
-579.792	544.136	-0.155	-0.372
-578.777	132.215	0.096	0.124
-577.763	-90.477	0.185	-0.054
-576.748	-9.998	-0.199	-0.133
-575.733	85.687	-0.219	-0.241
-574.719	-21.185	0.160	0.098
-573.704	-61.078	0.070	-0.030
-572.690	-97.288	-0.115	-0.030
-571.675	-88.734	-0.165	0.049
-570.661	-200.000	-0.016	-0.166
-569.646	-51.973	0.151	0.070
-568.631	-18.498	-0.356	-0.223
-567.617	-93.633	-0.091	-0.025
-566.602	800.000	-0.054	-0.181
-565.588	-102.842	-0.377	0.090
-564.573	640.949	0.099	0.253
-563.558	25.689	0.144	-0.120
-562.544	144.557	-0.065	-0.087
-561.529	800.000	0.073	-0.296
-560.515	-144.813	0.006	0.001
-559.500	178.694	0.057	-0.083
-558.485	800.000	0.010	-0.033
-557.471	-83.009	-0.113	-0.036
-556.456	-19.853	-0.082	-0.051
-555.442	-100.185	-0.108	-0.027
-554.427	23.985	-0.155	0.128
-553.412	-60.078	0.291	0.125
-552.398	-200.000	-0.020	0.236
-551.383	-80.500	0.191	-0.064
-550.369	75.562	-0.150	0.159
-549.354	-63.247	0.167	0.069
-548.339	108.900	0.245	0.293
-547.325	-17.172	0.117	0.074
-546.310	800.000	-0.159	-0.636
-545.296	-200.000	0.043	-0.293
-544.281	-155.159	-0.182	-0.012
-543.266	-200.000	0.006	0.067
-542.252	-200.000	0.032	0.317
-541.237	-71.658	-0.142	0.053
-540.223	-60.820	-0.175	0.074
-539.208	-53.787	0.296	-0.135
-538.193	-200.000	0.006	-0.079
-537.179	351.932	0.152	0.302
-536.164	59.538	0.076	-0.075
-535.150	-46.919	0.242	0.119
-534.135	110.692	-0.058	0.070
-533.121	800.000	-0.017	0.065
-532.106	800.000	0.041	-0.140
-531.091	94.709	-0.218	-0.248
-530.077	-69.682	0.332	-0.127
-529.062	438.180	-0.144	-0.315
-528.048	99.715	0.133	-0.154
-527.033	800.000	-0.018	-0.064
-526.018	80.825	-0.136	-0.146
-525.004	-47.503	-0.165	0.080
-523.989	-52.974	0.115	0.053
-522.975	128.049	-0.097	-0.124
-521.960	-42.011	-0.196	0.100
-520.945	778.998	0.057	0.156
-519.931	96.643	-0.080	0.092
-518.916	800.000	0.038	0.121
-517.902	483.899	0.104	0.237
-516.887	377.864	-0.127	-0.260
-515.872	800.000	0.098	-0.317
-514.858	474.991	-0.112	0.252
-513.843	-116.868	-0.091	-0.017
-512.829	-200.000	0.045	0.313
-511.814	-200.000	-0.034	0.169
-510.799	365.897	-0.104	0.210
-509.785	765.744	-0.146	0.397
-508.770	-111.304	-0.102	0.021
-507.756	79.257	0.181	-0.194
-506.741	-54.155	-0.149	-0.068
-505.726	2.465	0.112	0.081
-504.712	664.291	0.075	-0.193
-503.697	800.000	0.076	0.229
-502.683	-75.983	0.187	0.066
-501.668	-35.195	0.143	-0.078
-500.653	124.376	0.203	0.256
-499.639	-157.511	0.262	-0.016
-498.624	-96.261	-0.287	0.076
-497.610	470.819	-0.028	0.062
-496.595	49.303	-0.358	-0.336
-495.581	465.031	0.062	-0.138
-494.566	385.182	0.075	-0.154
-493.551	23.901	-0.169	0.139
-492.537	-200.000	-0.035	-0.386
-491.522	97.227	0.113	-0.129
-490.508	-64.007	0.197	-0.081
-489.493	478.700	-0.153	0.346
-488.478	20.756	0.233	0.189
-487.464	168.459	0.141	0.201
-486.449	-200.000	0.000	-0.073
-485.435	-32.965	0.223	-0.124
-484.420	19.094	0.112	-0.090
-483.405	27.323	0.065	0.055
-482.391	682.457	0.021	0.055
-481.376	128.549	0.252	-0.320
-480.362	-74.980	-0.170	0.061
-479.347	72.158	0.017	0.017
-478.332	-200.000	0.017	0.114
-477.318	-200.000	0.032	0.469
-476.303	800.000	-0.084	0.309
-475.289	28.685	0.130	-0.110
-474.274	-59.364	-0.191	-0.082
-473.259	-177.383	0.314	0.008
-472.245	-58.187	-0.260	0.113
-471.230	-114.633	0.262	0.050
-470.216	-20.524	-0.174	-0.107
-469.201	-134.829	0.427	-0.052
-468.186	19.540	-0.302	0.243
-467.172	629.624	0.057	0.145
-466.157	-118.325	-0.169	-0.030
-465.143	-142.613	0.357	0.035
-464.128	-200.000	0.040	-0.293
-463.113	-200.000	0.265	0.001
-462.099	-2.049	-0.340	-0.238
-461.084	631.582	0.152	-0.385
-460.070	-63.791	-0.065	-0.027
-459.055	-200.000	0.023	-0.135
-458.040	800.000	0.038	0.149
-457.026	-109.068	-0.359	0.076
-456.011	-200.000	0.010	0.138
-454.997	-145.342	0.138	0.012
-453.982	320.675	-0.115	0.219
-452.968	-96.980	-0.237	-0.062
-451.953	-171.386	-0.171	-0.006
-450.938	660.053	-0.089	-0.228
-449.924	463.836	0.137	0.305
-448.909	800.000	0.046	0.127
-447.895	731.554	-0.101	0.269
-446.880	-105.711	-0.080	0.018
-445.865	61.472	-0.077	0.076
-444.851	-200.000	0.018	0.111
-443.836	-200.000	-0.020	0.106
-442.822	214.207	-0.069	-0.109
-441.807	-108.084	0.157	0.034
-440.792	-144.457	0.056	0.005
-439.778	-11.564	-0.141	-0.093
-438.763	361.622	0.062	0.124
-437.749	-56.370	0.126	0.056
-436.734	-116.972	-0.134	0.025
-435.719	237.955	-0.160	0.264
-434.705	137.311	0.200	0.261
-433.690	-164.197	-0.482	-0.022
-432.676	110.264	-0.126	-0.151
-431.661	-150.225	0.438	-0.034
-430.646	131.771	-0.155	0.198
-429.632	-28.635	0.183	-0.105
-428.617	515.506	-0.137	-0.320
-427.603	800.000	0.038	-0.148
-426.588	66.443	-0.197	-0.199
-425.573	-19.261	0.097	-0.060
-424.559	-200.000	-0.046	-0.292
-423.544	-150.496	0.090	-0.007
-422.530	15.643	-0.174	-0.136
-421.515	42.391	-0.153	-0.138
-420.500	127.543	-0.105	-0.133
-419.486	12.080	0.070	0.054
-418.471	57.730	-0.085	0.083
-417.457	-73.853	0.232	-0.084
-416.442	-200.000	0.059	0.294
-415.428	564.346	0.100	-0.240
-414.413	29.382	0.082	-0.069
-413.398	-200.000	-0.071	-0.310
-412.384	194.674	-0.055	0.084
-411.369	800.000	0.022	0.064
-410.355	-185.756	0.159	0.002
-409.340	-129.358	-0.170	-0.024
-408.325	-100.882	0.230	-0.056
-407.311	-200.000	-0.027	0.122
-406.296	349.708	0.147	-0.290
-405.282	-70.471	0.370	0.140
-404.267	11.194	0.023	0.017
-403.252	129.560	0.187	-0.238
-402.238	-74.965	0.243	-0.087
-401.223	312.879	0.089	-0.167
-400.209	-11.458	0.297	-0.195
-399.194	-200.000	-0.013	0.088
-398.179	-200.000	0.016	-0.255
-397.165	22.604	-0.111	-0.090
-396.150	110.806	-0.142	-0.170
-395.136	-37.115	0.174	-0.093
-394.121	246.627	-0.037	-0.063
-393.106	716.216	-0.169	-0.446
-392.092	780.092	-0.091	0.248
-391.077	-200.000	0.021	0.171
-390.063	-73.389	-0.087	0.032
-389.048	-89.622	0.353	0.103
-388.033	190.801	0.104	0.155
-387.019	-105.142	0.203	-0.046
-386.004	-200.000	-0.008	-0.143
-384.990	27.959	-0.291	0.244
-383.975	-200.000	0.009	0.059
-382.960	550.025	0.046	-0.111
-381.946	119.421	0.244	0.300
-380.931	76.730	0.069	-0.073
-379.917	800.000	0.029	-0.088
-378.902	-192.604	0.091	0.001
-377.888	0.012	0.150	-0.106
-376.873	32.143	-0.138	0.119
-375.858	800.000	-0.139	-0.432
-374.844	102.115	-0.189	0.220
-373.829	-140.509	-0.210	0.022
-372.815	-200.000	-0.008	0.097
-371.800	-137.587	0.287	-0.032
-370.785	-101.316	-0.187	-0.045
-369.771	800.000	0.072	0.267
-368.756	-200.000	-0.036	0.213
-367.742	800.000	-0.064	0.269
-366.727	26.883	-0.103	0.086
-365.712	-108.275	0.261	0.056
-364.698	421.808	0.063	0.135
-363.683	-71.610	0.093	0.034
-362.669	-200.000	-0.022	0.104
-361.654	800.000	0.081	0.288
-360.639	800.000	-0.111	0.470
-359.625	-66.570	-0.175	0.069
-358.610	-17.983	-0.166	-0.104
-357.596	121.955	-0.086	-0.107
-356.581	-200.000	-0.002	-0.085
-355.566	-25.232	-0.163	-0.096
-354.552	-92.978	-0.133	0.037
-353.537	-200.000	-0.002	0.118
-352.523	-200.000	0.028	-0.159
-351.508	71.591	-0.116	-0.120
-350.493	-135.081	0.283	-0.034
-349.479	102.323	-0.282	-0.327
-348.464	331.340	0.075	-0.144
-347.450	-200.000	-0.018	-0.083
-346.435	-200.000	-0.210	-0.000
-345.420	800.000	-0.038	0.118
-344.406	-200.000	-0.015	0.235
-343.391	-200.000	-0.003	0.119
-342.377	-200.000	-0.019	0.316
-341.362	131.601	-0.069	-0.089
-340.348	110.716	0.311	0.371
-339.333	-23.561	-0.353	-0.211
-338.318	-200.000	-0.002	-0.192
-337.304	0.968	0.170	0.121
-336.289	220.568	-0.101	0.162
-335.275	-200.000	-0.033	-0.211
-334.260	800.000	0.061	0.198
-333.245	-34.962	0.238	-0.129
-332.231	284.007	-0.072	-0.128
-331.216	-152.857	-0.179	-0.013
-330.202	302.946	0.011	0.020
-329.187	-39.928	-0.439	-0.228
-328.172	-90.512	0.314	-0.090
-327.158	-200.000	-0.078	-0.341
-326.143	-81.586	0.164	0.054
-325.129	800.000	0.052	0.200
-324.114	800.000	0.017	0.059
-323.099	-140.971	0.153	0.016
-322.085	-144.329	0.091	0.008
-321.070	-68.863	-0.284	0.109
-320.056	-17.745	0.286	-0.178
-319.041	-200.000	-0.045	0.485
-318.026	-171.536	-0.134	0.004
-317.012	752.647	-0.048	0.128
-315.997	-91.841	0.049	-0.014
-314.983	144.941	0.139	0.185
-313.968	460.969	-0.117	-0.258
-312.953	-97.587	0.170	0.044
-311.939	103.055	0.092	0.106
-310.924	366.639	-0.141	-0.281
-309.910	35.248	0.156	0.136
-308.895	-144.244	-0.377	0.035
-307.880	-144.639	0.574	-0.052
-306.866	-188.348	-0.416	0.005
-305.851	-200.000	-0.041	-0.192
-304.837	-123.779	0.506	0.079
-303.822	-9.764	-0.111	-0.073
-302.807	107.766	-0.103	-0.121
-301.793	-43.080	0.188	-0.095
-300.778	-69.548	-0.281	-0.107
-299.764	-200.000	0.021	0.113
-298.749	34.003	0.176	-0.152
-297.735	253.142	0.105	-0.177
-296.720	800.000	-0.051	0.182
-295.705	30.783	0.068	0.057
-294.691	800.000	0.006	-0.025
-293.676	-50.353	-0.230	0.108
-292.662	-107.758	-0.067	0.014
-291.647	-119.826	-0.068	-0.012
-290.632	209.531	-0.158	-0.246
-289.618	46.481	0.101	0.093
-288.603	191.847	0.265	0.396
-287.589	-200.000	-0.040	0.194
-286.574	-187.492	0.258	0.003
-285.559	-108.883	-0.167	0.035
-284.545	-26.882	0.082	-0.048
-283.530	299.787	-0.173	0.316
-282.516	-166.929	-0.106	-0.004
-281.501	116.396	-0.150	0.182
-280.486	800.000	0.037	-0.129
-279.472	-107.869	-0.337	0.073
-278.457	-200.000	0.046	-0.205
-277.443	-200.000	0.059	-0.280
-276.428	330.722	0.187	0.357
-275.413	800.000	0.101	-0.407
-274.399	-138.192	-0.485	0.053
-273.384	28.978	0.191	-0.161
-272.370	78.474	0.047	0.049
-271.355	96.471	-0.105	0.119
-270.340	-200.000	-0.011	0.201
-269.326	48.542	0.373	-0.346
-268.311	511.770	0.080	0.185
-267.297	-92.181	-0.099	-0.028
-266.282	72.175	0.143	-0.148
-265.267	-41.722	-0.127	0.064
-264.253	-200.000	-0.052	-0.366
-263.238	-47.246	0.136	0.066
-262.224	-44.248	-0.297	-0.147
-261.209	-2.476	0.131	-0.091
-260.195	110.442	-0.233	0.277
-259.180	-30.428	-0.236	0.133
-258.165	-200.000	0.027	-0.250
-257.151	-25.657	0.303	0.177
-256.136	-200.000	0.010	-0.095
-255.122	-59.868	0.349	-0.148
-254.107	133.799	-0.157	-0.202
-253.092	-200.000	-0.061	0.323
-252.078	20.544	-0.071	-0.057
-251.063	-200.000	-0.007	-0.154
-250.049	83.515	-0.027	0.029
-249.034	431.472	0.016	-0.035
-248.019	120.485	0.014	0.017
-247.005	-44.681	-0.065	-0.032
-245.990	-130.309	0.027	-0.004
-244.976	33.899	0.064	0.055
-243.961	83.920	-0.325	0.352
-242.946	-114.910	0.154	-0.029
-241.932	-60.342	-0.220	0.093
-240.917	217.364	-0.136	0.215
-239.903	21.701	-0.292	0.235
-238.888	-200.000	-0.040	-0.182
-237.873	-64.670	-0.121	-0.049
-236.859	-200.000	-0.024	0.297
-235.844	71.200	0.071	0.073
-234.830	-52.090	-0.209	0.096
-233.815	20.583	0.058	-0.046
-232.800	724.460	0.092	0.242
-231.786	-32.960	-0.247	0.135
-230.771	234.414	-0.072	0.118
-229.757	-141.956	0.166	-0.016
-228.742	-125.257	-0.199	0.030
-227.727	800.000	0.029	-0.107
-226.713	-200.000	0.006	-0.259
-225.698	46.230	0.188	0.172
-224.684	-61.213	0.132	-0.055
-223.669	32.456	0.400	-0.342
-222.655	-56.441	-0.232	-0.102
-221.640	-200.000	-0.015	0.076
-220.625	25.002	0.180	-0.148
-219.611	146.702	0.079	0.105
-218.596	-9.110	-0.140	0.093
-217.582	200.591	0.083	-0.127
-216.567	-200.000	-0.013	-0.208
-215.552	80.801	0.149	0.159
-214.538	-200.000	-0.002	-0.035
-213.523	-8.485	0.306	-0.203
-212.509	-71.813	-0.039	0.014
-211.494	54.720	0.062	-0.060
-210.479	-122.410	0.204	0.033
-209.465	-81.034	-0.207	-0.068
-208.450	38.051	0.102	0.089
-207.436	1.116	0.215	-0.152
-206.421	800.000	0.098	-0.304
-205.406	-140.160	0.451	0.047
-204.392	528.598	-0.180	0.421
-203.377	8.859	0.107	-0.080
-202.363	-188.659	0.504	-0.006
-201.348	-90.851	0.021	-0.006
-200.333	220.210	-0.089	0.141
-199.319	-15.865	-0.090	-0.057
-198.304	-24.578	-0.162	0.095
-197.290	800.000	-0.075	0.273
-196.275	250.964	-0.094	0.158
-195.260	50.849	0.149	-0.140
-194.246	47.431	-0.142	0.131
-193.231	31.034	0.102	-0.087
-192.217	276.529	0.154	0.270
-191.202	-86.752	0.223	-0.067
-190.187	188.363	0.047	0.069
-189.173	-40.483	0.354	-0.182
-188.158	-36.051	-0.238	-0.127
-187.144	213.544	-0.202	-0.316
-186.129	800.000	0.040	-0.110
-185.114	-78.069	0.026	0.009
-184.100	-139.560	0.303	-0.032
-183.085	-49.913	0.171	0.080
-182.071	-200.000	0.018	-0.146
-181.056	-182.835	-0.192	-0.003
-180.042	800.000	-0.015	-0.052
-179.027	-53.746	0.257	0.116
-178.012	-34.393	0.022	0.012
-176.998	191.363	0.193	0.288
-175.983	-130.340	-0.182	-0.024
-174.969	-200.000	0.008	0.036
-173.954	-200.000	-0.031	-0.274
-172.939	187.296	0.167	0.246
-171.925	-71.213	-0.176	0.065
-170.910	-154.002	-0.338	0.023
-169.896	-200.000	0.007	-0.283
-168.881	-200.000	0.038	0.183
-167.866	-200.000	-0.057	0.380
-166.852	105.791	0.092	-0.107
-165.837	202.745	0.081	0.124
-164.823	378.463	-0.055	0.111
-163.808	-200.000	0.002	-0.390
-162.793	-88.201	-0.214	-0.063
-161.779	800.000	-0.044	-0.162
-160.764	-200.000	-0.085	0.416
-159.750	-73.020	-0.150	-0.054
-158.735	-156.955	0.334	-0.020
-157.720	-200.000	0.009	-0.553
-156.706	-52.361	-0.116	0.053
-155.691	-200.000	0.044	0.297
-154.677	800.000	0.068	-0.217
-153.662	669.026	-0.044	-0.113
-152.647	-11.884	-0.167	-0.108
-151.633	-6.161	-0.026	-0.017
-150.618	118.242	0.163	-0.198
-149.604	-81.426	-0.321	-0.104
-148.589	57.046	0.156	0.150
-147.574	-200.000	-0.015	-0.071
-146.560	-117.397	-0.345	-0.062
-145.545	800.000	0.094	-0.311
-144.531	40.393	0.123	-0.110
-143.516	-120.925	0.166	-0.028
-142.502	-77.562	-0.222	0.076
-141.487	-67.204	0.224	-0.087
-140.472	249.564	0.162	-0.270
-139.458	68.709	-0.127	0.129
-138.443	252.996	0.040	0.068
-137.429	-198.849	-0.173	-0.001
-136.414	530.866	0.210	-0.489
-135.399	220.854	0.044	0.070
-134.385	493.063	0.081	0.182
-133.370	800.000	0.048	-0.188
-132.356	14.154	-0.173	0.133
-131.341	-55.782	-0.044	0.019
-130.326	-172.760	0.337	-0.010
-129.312	-200.000	0.053	-0.488
-128.297	-155.066	-0.241	0.016
-127.283	-161.973	-0.133	0.007
-126.268	-200.000	-0.009	0.051
-125.253	-97.975	-0.419	0.107
-124.239	-150.622	-0.111	0.008
-123.224	-115.264	0.305	-0.057
-122.210	-200.000	0.028	-0.151
