DTS Sentinel unit serial number:	SN413079Multiplexer serial number:	ORYXHardware model number:	OX4-SRSoftware version number:	ORYX F/W v4.00 Oryx Data Collector v3.7.2.0data status	okinstallation	princeton_trtdifferential loss correction	single-endedforward channel	channel 1reverse channel	N/Adate	2019/09/15time	23:54:35forward acquisition time	60.00reverse acquisition time	0.00gamma	496.2192k internal	0.2333k external	0.2333temperature offset calibration	0.9967default loss term (dB/km)	0.3790temperature slope calibration	1.0000multiplexer offset coefficient	1.0000multiplexer slope coefficient	1.0000fibre end	0.00T internal ref (°C)	27.92T ext. ref 1 (°C)	9.32T ext. ref 2 (°C)	21.80length (m)	temperature (°C)	Stokes	anti-Stokes-747.200	-57.270	0.230	0.102
-746.185	800.000	0.117	0.372
-745.171	-200.000	-0.047	-0.239
-744.156	-200.000	0.033	0.360
-743.142	-101.964	0.442	-0.107
-742.127	800.000	-0.088	0.336
-741.112	385.765	-0.093	0.193
-740.098	306.225	0.173	0.325
-739.083	72.416	-0.288	0.302
-738.069	-121.699	0.342	0.057
-737.054	-78.972	0.268	-0.092
-736.039	-200.000	-0.010	-0.190
-735.025	-200.000	0.042	0.263
-734.010	-200.000	-0.046	0.440
-732.996	27.935	-0.033	0.028
-731.981	444.265	-0.023	0.051
-730.966	54.822	-0.248	-0.241
-729.952	-200.000	-0.029	0.153
-728.937	429.195	-0.170	-0.369
-727.923	800.000	0.017	-0.061
-726.908	101.718	-0.032	0.038
-725.894	-87.636	-0.575	-0.175
-724.879	-103.352	0.130	0.031
-723.864	138.460	0.211	0.279
-722.850	-200.000	0.001	0.045
-721.835	31.129	-0.223	-0.192
-720.821	800.000	0.013	-0.056
-719.806	-74.213	0.358	0.130
-718.791	180.210	-0.045	0.066
-717.777	-200.000	-0.032	0.269
-716.762	217.981	0.039	-0.063
-715.748	-20.705	-0.339	0.209
-714.733	-10.540	-0.163	0.109
-713.718	-45.077	-0.369	-0.185
-712.704	-200.000	-0.052	-0.273
-711.689	-200.000	0.013	0.359
-710.675	60.866	-0.159	-0.159
-709.660	153.307	-0.185	-0.255
-708.645	13.968	0.166	0.129
-707.631	-48.674	0.216	-0.104
-706.616	145.955	-0.056	-0.075
-705.602	146.146	-0.114	0.154
-704.587	-200.000	-0.016	0.079
-703.572	-15.143	0.020	-0.013
-702.558	125.043	0.164	0.208
-701.543	-139.420	-0.234	0.025
-700.529	428.051	-0.122	0.264
-699.514	-41.577	0.212	0.109
-698.499	-146.046	0.150	0.013
-697.485	-96.528	0.249	-0.066
-696.470	-130.613	-0.203	-0.028
-695.456	-147.003	-0.084	-0.007
-694.441	800.000	0.050	-0.187
-693.426	-133.940	0.070	-0.009
-692.412	-92.863	0.158	0.044
-691.397	170.880	-0.040	-0.058
-690.383	-53.017	0.063	-0.029
-689.368	-76.125	-0.425	-0.151
-688.354	387.406	0.184	-0.382
-687.339	-163.469	0.136	-0.006
-686.324	-129.357	-0.163	-0.023
-685.310	-53.686	-0.080	0.037
-684.295	-116.338	0.141	-0.026
-683.281	-160.537	-0.237	0.013
-682.266	-200.000	0.012	0.071
-681.251	-92.164	-0.185	-0.052
-680.237	155.542	0.076	0.106
-679.222	800.000	0.119	-0.404
-678.208	87.389	0.209	-0.232
-677.193	73.853	0.142	-0.149
-676.178	311.331	-0.173	0.325
-675.164	571.769	0.141	0.344
-674.149	800.000	-0.048	-0.142
-673.135	109.476	0.134	-0.161
-672.120	-200.000	0.000	-0.093
-671.105	-200.000	-0.013	-0.107
-670.091	154.582	0.042	0.058
-669.076	-11.424	-0.144	-0.095
-668.062	492.182	0.031	-0.071
-667.047	-21.719	-0.242	-0.148
-666.032	49.272	-0.251	0.236
-665.018	-124.944	0.057	0.009
-664.003	-14.273	-0.261	-0.169
-662.989	-21.004	-0.197	-0.121
-661.974	22.808	-0.225	0.185
-660.959	800.000	-0.024	0.066
-659.945	45.973	-0.351	-0.325
-658.930	800.000	-0.028	0.121
-657.916	-13.161	-0.217	0.141
-656.901	800.000	0.039	-0.126
-655.886	-107.125	-0.306	-0.068
-654.872	308.834	-0.057	0.107
-653.857	370.970	0.151	0.306
-652.843	411.495	0.111	-0.237
-651.828	-5.305	0.122	0.084
-650.814	180.433	-0.270	0.397
-649.799	253.763	-0.129	-0.220
-648.784	-200.000	0.006	0.116
-647.770	-98.707	-0.142	0.036
-646.755	800.000	0.036	0.110
-645.741	360.607	0.055	-0.110
-644.726	-57.553	-0.300	-0.132
-643.711	633.847	0.122	0.309
-642.697	188.613	-0.076	0.114
-641.682	-110.955	-0.302	-0.062
-640.668	241.942	0.059	0.099
-639.653	-19.204	-0.339	-0.211
-638.638	9.300	-0.200	-0.152
-637.624	125.615	-0.190	-0.240
-636.609	-125.854	0.113	-0.017
-635.595	271.097	-0.189	0.334
-634.580	-32.507	-0.259	0.144
-633.565	98.243	-0.161	0.186
-632.551	-133.274	0.232	0.029
-631.536	-57.227	0.134	0.059
-630.522	196.022	0.040	0.060
-629.507	-25.200	0.155	0.092
-628.492	-14.864	-0.155	-0.099
-627.478	-86.350	-0.328	0.101
-626.463	-44.712	-0.175	-0.088
-625.449	26.386	-0.127	-0.106
-624.434	-72.620	-0.227	0.084
-623.419	800.000	-0.078	-0.340
-622.405	-64.438	0.216	0.088
-621.390	38.523	-0.164	0.146
-620.376	-200.000	0.020	-0.145
-619.361	53.674	-0.329	-0.316
-618.346	-39.136	-0.277	0.146
-617.332	154.672	0.008	0.012
-616.317	69.764	0.110	0.114
-615.303	-149.110	0.197	-0.016
-614.288	730.223	0.037	0.099
-613.273	-200.000	-0.022	-0.277
-612.259	208.482	0.121	0.190
-611.244	99.134	-0.140	-0.162
-610.230	-200.000	-0.030	-0.301
-609.215	298.314	-0.053	0.097
-608.201	349.533	-0.165	0.325
-607.186	-200.000	-0.013	0.356
-606.171	800.000	0.025	-0.103
-605.157	496.747	-0.043	-0.098
-604.142	42.598	0.186	-0.170
-603.128	53.239	0.114	-0.109
-602.113	-80.107	-0.286	-0.096
-601.098	-200.000	0.007	-0.255
-600.084	-143.002	0.036	-0.003
-599.069	-200.000	-0.032	0.191
-598.055	-200.000	0.005	-0.196
-597.040	28.318	-0.299	0.253
-596.025	62.529	-0.199	0.199
-595.011	-129.629	0.056	0.008
-593.996	800.000	0.013	-0.057
-592.982	-200.000	-0.073	0.459
-591.967	87.115	-0.175	-0.194
-590.952	20.963	0.361	-0.293
-589.938	55.313	0.070	-0.068
-588.923	-122.128	-0.340	-0.056
-587.909	-74.128	0.238	0.086
-586.894	-82.216	-0.036	-0.012
-585.879	63.608	0.285	-0.286
-584.865	-176.206	0.104	-0.003
-583.850	256.597	0.080	-0.137
-582.836	-179.993	-0.172	0.004
-581.821	374.570	0.136	0.276
-580.806	-200.000	0.022	-0.167
-579.792	24.871	-0.073	-0.060
-578.777	121.149	-0.127	0.158
-577.763	-143.646	0.237	-0.023
-576.748	-200.000	-0.023	0.212
-575.733	36.735	-0.046	0.041
-574.719	-29.865	-0.161	-0.092
-573.704	-111.521	0.390	-0.079
-572.690	-16.434	0.079	-0.050
-571.675	37.145	0.104	-0.092
-570.661	-121.613	-0.392	0.065
-569.646	-158.187	-0.062	0.004
-568.631	-135.509	0.068	-0.008
-567.617	-119.171	-0.366	0.064
-566.602	-200.000	0.037	-0.471
-565.588	-53.505	-0.267	0.122
-564.573	-73.287	-0.060	0.022
-563.558	-100.100	-0.255	0.063
-562.544	-32.697	0.221	-0.123
-561.529	-71.943	0.517	0.192
-560.515	-145.011	0.102	-0.009
-559.500	764.531	0.066	0.179
-558.485	329.661	-0.040	0.076
-557.471	-147.127	-0.067	-0.006
-556.456	800.000	-0.024	0.099
-555.442	-200.000	-0.063	0.294
-554.427	-200.000	-0.000	0.115
-553.412	-9.376	0.270	-0.180
-552.398	25.211	-0.093	-0.077
-551.383	8.847	0.146	0.110
-550.369	-160.624	-0.348	0.019
-549.354	-187.182	0.452	0.006
-548.339	-125.084	-0.143	-0.022
-547.325	-200.000	0.035	0.170
-546.310	58.189	-0.247	0.242
-545.296	-107.418	-0.245	0.054
-544.281	-84.702	0.380	-0.119
-543.266	-24.737	0.065	0.039
-542.252	-88.582	-0.276	-0.082
-541.237	-112.992	0.291	0.057
-540.223	92.659	0.040	0.045
-539.208	-200.000	-0.008	0.218
-538.193	178.215	-0.103	0.149
-537.179	116.995	0.230	0.281
-536.164	-200.000	-0.040	0.219
-535.150	-16.210	-0.206	-0.131
-534.135	-200.000	-0.009	0.091
-533.121	-200.000	0.001	0.052
-532.106	-131.033	0.391	-0.052
-531.091	399.061	0.064	-0.134
-530.077	-149.203	0.058	-0.005
-529.062	30.992	0.020	-0.017
-528.048	-200.000	0.010	0.257
-527.033	-200.000	0.026	-0.299
-526.018	800.000	0.084	-0.354
-525.004	10.220	0.158	0.120
-523.989	800.000	0.045	-0.177
-522.975	-62.714	-0.054	-0.022
-521.960	766.864	0.065	0.177
-520.945	423.401	0.089	0.190
-519.931	-200.000	0.005	0.083
-518.916	-59.893	0.225	0.096
-517.902	-123.588	-0.265	0.042
-516.887	800.000	0.053	-0.209
-515.872	77.653	0.133	-0.141
-514.858	-200.000	-0.032	-0.191
-513.843	417.759	0.101	-0.216
-512.829	190.072	-0.190	-0.284
-511.814	28.877	0.149	-0.126
-510.799	-200.000	0.014	-0.242
-509.785	-83.333	0.449	0.143
-508.770	-78.960	0.081	-0.028
-507.756	-200.000	-0.073	-0.322
-506.741	-87.884	0.267	0.080
-505.726	4.503	0.244	0.179
-504.712	470.613	-0.139	-0.312
-503.697	362.288	-0.045	0.089
-502.683	-200.000	-0.033	-0.273
-501.668	-87.116	0.269	-0.082
-500.653	70.071	-0.156	0.161
-499.639	337.726	-0.111	0.216
-498.624	-45.189	0.267	0.132
-497.610	-90.362	-0.046	-0.013
-496.595	60.189	0.124	-0.122
-495.581	-200.000	0.018	0.336
-494.566	-76.782	0.247	-0.086
-493.551	800.000	-0.028	-0.114
-492.537	13.426	-0.162	0.125
-491.522	-64.777	0.133	-0.054
-490.508	81.519	-0.061	0.066
-489.493	397.284	-0.092	-0.192
-488.478	-174.751	0.477	-0.013
-487.464	800.000	-0.114	-0.367
-486.449	-200.000	0.039	0.419
-485.435	-200.000	-0.021	0.202
-484.420	157.292	0.194	0.267
-483.405	94.222	-0.287	0.325
-482.391	-200.000	-0.008	-0.198
-481.376	-118.738	-0.391	-0.069
-480.362	-200.000	0.000	-0.031
-479.347	-19.887	-0.277	-0.170
-478.332	800.000	0.038	0.159
-477.318	123.444	-0.196	0.245
-476.303	-89.834	-0.116	-0.034
-475.289	-99.697	0.349	0.087
-474.274	-125.631	0.375	-0.057
-473.259	211.430	-0.148	-0.232
-472.245	-123.768	-0.408	0.064
-471.230	109.154	0.096	-0.114
-470.216	184.433	0.228	-0.336
-469.201	46.783	0.216	-0.200
-468.186	-85.676	-0.264	-0.082
-467.172	800.000	0.146	-0.449
-466.157	800.000	-0.051	-0.198
-465.143	9.200	0.217	0.163
-464.128	29.355	0.074	-0.063
-463.113	201.396	-0.092	-0.141
-462.099	-200.000	0.022	0.173
-461.084	-144.447	0.280	0.026
-460.070	455.405	-0.087	0.191
-459.055	99.956	-0.216	0.249
-458.040	-38.295	0.097	0.051
-457.026	174.134	-0.086	0.123
-456.011	-102.033	-0.105	0.025
-454.997	-200.000	-0.022	0.278
-453.982	800.000	-0.134	-0.510
-452.968	-65.770	0.328	-0.131
-451.953	194.623	-0.126	-0.190
-450.938	-6.094	-0.346	-0.235
-449.924	13.263	-0.107	0.082
-448.909	-106.528	-0.268	-0.059
-447.895	-200.000	-0.053	0.232
-446.880	-83.180	-0.110	0.035
-445.865	-92.514	0.169	-0.047
-444.851	471.064	0.046	0.104
-443.836	-74.319	0.232	0.083
-442.822	67.867	-0.154	-0.156
-441.807	30.555	-0.030	-0.025
-440.792	-200.000	-0.002	-0.085
-439.778	-106.655	-0.270	-0.060
-438.763	383.557	0.096	-0.197
-437.749	800.000	0.073	-0.215
-436.734	-106.216	-0.258	-0.058
-435.719	650.826	-0.150	0.382
-434.705	326.404	0.128	-0.243
-433.690	-112.345	0.417	-0.083
-432.676	168.444	0.108	0.154
-431.661	237.054	-0.085	0.140
-430.646	140.907	-0.073	0.095
-429.632	-200.000	0.064	0.280
-428.617	-134.812	-0.090	-0.011
-427.603	-200.000	-0.016	-0.473
-426.588	-200.000	0.014	-0.063
-425.573	-67.317	0.027	-0.011
-424.559	249.314	0.212	-0.357
-423.544	-18.858	0.236	0.146
-422.530	-153.181	-0.055	0.004
-421.515	318.221	-0.140	0.264
-420.500	-41.541	0.160	0.082
-419.486	-87.798	-0.118	0.035
-418.471	69.463	-0.075	0.077
-417.457	-200.000	0.062	-0.322
-416.442	212.219	-0.099	0.156
-415.428	-95.511	0.066	-0.018
-414.413	681.000	-0.012	0.031
-413.398	-200.000	0.021	0.106
-412.384	-200.000	0.010	0.102
-411.369	93.239	0.079	-0.089
-410.355	-37.442	0.117	0.062
-409.340	-97.798	0.044	-0.011
-408.325	-200.000	0.057	-0.256
-407.311	-100.679	0.136	-0.033
-406.296	-135.529	-0.022	-0.003
-405.282	-31.017	-0.145	0.081
-404.267	104.648	-0.088	0.103
-403.252	360.075	0.103	-0.204
-402.238	-89.940	-0.158	0.046
-401.223	39.119	-0.138	0.122
-400.209	-127.374	-0.185	0.027
-399.194	-14.447	0.135	-0.086
-398.179	105.014	0.111	0.130
-397.165	-174.862	0.194	0.005
-396.150	-20.599	0.268	-0.163
-395.136	-53.903	-0.197	0.089
-394.121	-200.000	0.019	-0.126
-393.106	-182.218	-0.229	-0.004
-392.092	123.736	0.191	0.238
-391.077	800.000	-0.049	-0.134
-390.063	800.000	0.029	0.119
-389.048	-142.758	-0.181	-0.017
-388.033	159.742	0.281	0.389
-387.019	276.928	0.155	0.273
-386.004	41.148	-0.176	-0.158
-384.990	-40.241	0.124	-0.064
-383.975	800.000	0.068	-0.270
-382.960	-56.434	0.048	-0.021
-381.946	444.767	-0.139	-0.303
-380.931	-200.000	-0.023	0.145
-379.917	-60.688	0.289	0.121
-378.902	-132.586	0.250	0.032
-377.888	-69.880	0.077	0.029
-376.873	367.978	-0.184	0.369
-375.858	48.728	0.305	0.284
-374.844	-45.261	0.172	-0.085
-373.829	-38.477	0.123	0.064
-372.815	-39.540	0.112	-0.058
-371.800	-42.656	0.187	-0.094
-370.785	-200.000	-0.055	-0.479
-369.771	73.136	0.090	-0.093
-368.756	-104.969	-0.099	0.022
-367.742	-61.447	0.157	-0.065
-366.727	-134.060	-0.031	0.004
-365.712	24.726	0.031	-0.025
-364.698	800.000	0.019	0.057
-363.683	-145.876	-0.114	0.010
-362.669	353.351	0.144	-0.282
-361.654	87.585	-0.211	-0.232
-360.639	97.792	-0.350	-0.398
-359.625	294.659	-0.079	-0.143
-358.610	-83.341	0.066	0.021
-357.596	-144.694	-0.320	0.029
-356.581	248.893	0.127	-0.212
-355.566	-6.434	0.329	0.222
-354.552	210.589	0.281	0.438
-353.537	160.610	-0.087	-0.120
-352.523	800.000	-0.054	-0.227
-351.508	800.000	0.093	-0.305
-350.493	249.591	-0.088	-0.148
-349.479	142.575	0.139	-0.183
-348.464	32.426	-0.054	0.046
-347.450	-131.667	-0.213	0.028
-346.435	-67.829	0.308	0.119
-345.420	-89.980	0.397	0.115
-344.406	-3.235	-0.326	0.225
-343.391	30.758	-0.141	0.119
-342.377	-200.000	0.071	0.369
-341.362	275.940	0.041	-0.072
-340.348	74.959	-0.114	-0.119
-339.333	199.829	-0.094	0.142
-338.318	800.000	-0.103	-0.311
-337.304	-78.313	-0.206	-0.070
-336.289	88.182	0.236	0.259
-335.275	-83.153	0.130	0.041
-334.260	46.581	-0.070	0.064
-333.245	-120.357	-0.250	0.042
-332.231	-200.000	-0.013	-0.299
-331.216	-162.957	-0.214	-0.010
-330.202	37.577	0.340	0.299
-329.187	523.352	0.065	-0.151
-328.172	-98.939	0.190	-0.048
-327.158	-11.875	-0.192	-0.125
-326.143	-12.965	0.174	-0.112
-325.129	-200.000	0.016	0.098
-324.114	41.906	0.203	0.182
-323.099	-171.980	-0.071	-0.002
-322.085	-135.794	-0.095	0.011
-321.070	-97.087	-0.169	-0.044
-320.056	800.000	-0.098	0.318
-319.041	-99.066	-0.116	-0.029
-318.026	-135.446	0.221	0.026
-317.012	647.112	-0.137	-0.347
-315.997	511.098	-0.031	-0.072
-314.983	16.120	-0.188	0.147
-313.968	-147.696	-0.189	-0.016
-312.953	-1.962	-0.184	-0.128
-311.939	373.918	-0.108	-0.217
-310.924	515.824	0.058	-0.134
-309.910	-6.719	0.379	-0.255
-308.895	-200.000	-0.004	-0.240
-307.880	800.000	-0.095	0.383
-306.866	88.581	-0.105	-0.115
-305.851	52.563	0.100	-0.094
-304.837	-200.000	0.004	0.041
-303.822	-200.000	-0.006	-0.043
-302.807	-200.000	-0.032	0.165
-301.793	-158.704	-0.085	-0.005
-300.778	-200.000	0.006	-0.173
-299.764	-190.239	0.170	0.002
-298.749	800.000	0.058	0.209
-297.735	253.007	-0.133	0.224
-296.720	-22.612	-0.127	0.076
-295.705	198.508	-0.146	0.220
-294.691	-13.930	-0.182	-0.116
-293.676	461.582	-0.116	-0.255
-292.662	-200.000	-0.049	-0.236
-291.647	-67.441	-0.037	-0.014
-290.632	16.591	-0.310	0.242
-289.618	-42.916	-0.148	0.074
-288.603	241.622	0.104	0.172
-287.589	129.358	-0.137	0.173
-286.574	-12.744	0.142	0.092
-285.559	-57.682	-0.158	-0.069
-284.545	20.878	-0.254	0.203
-283.530	169.962	-0.099	-0.140
-282.516	113.750	0.100	0.119
-281.501	216.457	-0.130	-0.204
-280.486	800.000	0.089	-0.245
-279.472	43.157	-0.083	0.075
-278.457	-130.929	-0.139	-0.018
-277.443	614.062	-0.133	0.329
-276.428	800.000	-0.056	0.220
-275.413	25.411	-0.311	0.255
-274.399	-123.980	0.156	0.024
-273.384	-132.086	-0.475	-0.061
-272.370	131.489	0.184	0.233
-271.355	58.142	0.080	-0.077
-270.340	-139.950	0.092	0.010
-269.326	69.662	-0.215	-0.218
-268.311	66.159	0.316	0.316
-267.297	81.727	0.255	-0.273
-266.282	82.779	-0.164	0.176
-265.267	800.000	0.070	0.197
-264.253	66.911	-0.065	0.065
-263.238	44.427	0.172	-0.156
-262.224	326.624	-0.080	-0.150
-261.209	-50.592	0.102	-0.048
-260.195	-28.701	-0.155	0.088
-259.180	800.000	-0.047	-0.201
-258.165	64.643	0.066	-0.066
-257.151	72.166	0.197	0.203
-256.136	340.065	0.082	-0.158
-255.122	-200.000	-0.016	0.131
-254.107	163.210	0.024	0.034
-253.092	229.989	0.079	-0.128
-252.078	-63.943	0.095	-0.038
-251.063	-158.382	0.232	0.013
-250.049	-125.852	-0.326	0.049
-249.034	-159.017	-0.107	0.006
-248.019	164.140	-0.095	-0.131
-247.005	-53.923	-0.431	-0.194
-245.990	800.000	0.038	0.134
-244.976	-115.301	0.193	0.036
-243.961	-104.882	0.207	0.047
-242.946	20.261	-0.240	0.191
-241.932	-90.041	0.181	-0.052
-240.917	-158.162	0.073	0.004
-239.903	-200.000	-0.005	0.212
-238.888	-36.789	0.321	-0.170
-237.873	-15.068	-0.020	-0.013
-236.859	353.714	-0.028	-0.055
-235.844	800.000	0.098	0.392
-234.830	520.356	-0.085	-0.197
-233.815	28.974	-0.088	0.074
-232.800	-200.000	0.095	-0.411
-231.786	101.814	0.348	-0.400
-230.771	800.000	-0.151	-0.418
-229.757	-200.000	-0.006	-0.191
-228.742	64.736	0.174	0.173
-227.727	58.184	-0.088	-0.085
-226.713	-99.303	-0.444	-0.110
-225.698	-34.164	0.290	0.157
-224.684	-139.157	-0.308	-0.033
-223.669	800.000	0.027	0.074
-222.655	-83.605	-0.111	-0.035
-221.640	36.677	-0.185	0.161
-220.625	800.000	0.041	0.150
-219.611	-132.868	0.353	0.044
-218.596	-200.000	0.017	-0.229
-217.582	-200.000	0.025	-0.176
-216.567	619.365	0.006	0.014
-215.552	-51.924	-0.099	-0.045
-214.538	-94.066	-0.131	0.035
-213.523	-32.551	0.415	-0.228
-212.509	219.882	-0.115	0.181
-211.494	-14.489	0.362	-0.229
-210.479	27.122	-0.097	0.080
-209.465	-200.000	-0.012	-0.091
-208.450	-84.429	0.288	0.090
-207.436	297.437	0.201	-0.364
-206.421	-12.315	-0.201	0.130
-205.406	-80.797	0.519	0.170
-204.392	-33.598	-0.416	-0.226
-203.377	343.422	-0.114	0.219
-202.363	-56.381	-0.142	0.062
-201.348	336.665	0.117	0.223
-200.333	-200.000	-0.033	-0.256
-199.319	117.978	0.047	0.057
-198.304	223.365	0.279	0.443
-197.290	-129.797	-0.267	0.036
-196.275	171.236	0.069	-0.097
-195.260	102.920	0.065	-0.075
-194.246	263.506	-0.143	0.245
-193.231	59.169	-0.151	0.146
-192.217	-200.000	0.015	-0.077
-191.202	-39.061	-0.101	-0.052
-190.187	114.896	-0.156	-0.187
-189.173	118.758	-0.134	-0.162
-188.158	466.068	-0.074	-0.164
-187.144	-200.000	-0.020	0.124
-186.129	386.013	0.117	0.237
-185.114	6.451	0.147	0.107
-184.100	403.630	-0.134	-0.278
-183.085	452.365	0.091	0.198
-182.071	-57.817	-0.162	0.070
-181.056	-13.206	0.100	0.064
-180.042	-96.449	-0.117	-0.030
-179.027	-35.435	0.353	0.189
-178.012	-200.000	0.015	0.110
-176.998	210.737	0.272	0.421
-175.983	109.810	0.114	0.134
-174.969	-34.365	0.205	0.111
-173.954	-103.530	-0.175	0.040
-172.939	747.681	-0.077	0.203
-171.925	-24.647	0.079	0.046
-170.910	61.610	-0.070	-0.069
-169.896	128.410	0.165	-0.206
-168.881	800.000	0.031	-0.123
-167.866	-15.904	-0.286	0.179
-166.852	-37.112	0.017	0.009
-165.837	118.841	0.148	0.180
-164.823	-200.000	0.036	0.273
-163.808	85.806	-0.184	0.199
-162.793	-19.897	-0.122	-0.074
-161.779	800.000	0.104	0.418
-160.764	-124.713	0.388	0.059
-159.750	265.524	0.098	-0.167
-158.735	-34.180	0.369	-0.199
-157.720	-85.677	0.245	-0.075
-156.706	122.674	-0.290	-0.357
-155.691	-2.447	-0.153	0.105
-154.677	-200.000	-0.046	0.496
-153.662	17.103	-0.300	-0.234
-152.647	-54.157	0.316	-0.141
-151.633	744.906	-0.047	0.125
-150.618	-49.102	0.198	-0.093
-149.604	7.167	-0.102	-0.075
-148.589	84.544	0.187	-0.201
-147.574	-200.000	-0.048	-0.343
-146.560	79.117	-0.119	-0.125
-145.545	800.000	0.114	-0.310
-144.531	507.029	-0.076	0.173
-143.516	67.665	0.264	0.265
-142.502	800.000	-0.066	-0.257
-141.487	92.271	-0.272	-0.301
-140.472	-146.176	-0.225	0.019
-139.458	409.487	0.069	-0.143
-138.443	-200.000	0.017	-0.362
-137.429	800.000	0.059	-0.220
-136.414	216.321	0.085	0.132
-135.399	164.041	-0.060	0.083
-134.385	458.061	0.183	0.400
-133.370	-44.098	-0.442	-0.218
-132.356	800.000	-0.017	-0.047
-131.341	-52.622	-0.273	-0.124
-130.326	345.685	0.079	-0.153
-129.312	-200.000	0.045	-0.248
-128.297	800.000	-0.047	0.174
-127.283	-35.632	0.146	0.078
-126.268	51.940	-0.250	0.233
-125.253	-184.277	0.051	-0.001
-124.239	-200.000	-0.015	0.290
-123.224	257.160	-0.049	0.083
-122.210	-38.151	-0.170	-0.089
-121.195	504.749	0.133	-0.303
