DTS Sentinel unit serial number:	SN413079Multiplexer serial number:	ORYXHardware model number:	OX4-SRSoftware version number:	ORYX F/W v4.00 Oryx Data Collector v3.7.2.0data status	okinstallation	princeton_trtdifferential loss correction	single-endedforward channel	channel 1reverse channel	N/Adate	2019/09/12time	02:16:11forward acquisition time	60.00reverse acquisition time	0.00gamma	496.2192k internal	0.2321k external	0.2321temperature offset calibration	1.0078default loss term (dB/km)	0.3790temperature slope calibration	1.0000multiplexer offset coefficient	1.0000multiplexer slope coefficient	1.0000fibre end	0.00T internal ref (°C)	32.62T ext. ref 1 (°C)	2.07T ext. ref 2 (°C)	26.33length (m)	temperature (°C)	Stokes	anti-Stokes-747.200	800.000	0.010	0.038
-746.185	-200.000	0.023	0.218
-745.171	-127.520	-0.349	-0.051
-744.156	-200.000	0.009	0.111
-743.142	135.260	-0.328	0.430
-742.127	800.000	-0.164	0.510
-741.112	403.757	-0.113	-0.241
-740.098	-26.412	-0.119	0.071
-739.083	-110.291	0.374	-0.079
-738.069	228.722	0.124	0.205
-737.054	-200.000	-0.031	-0.244
-736.039	-25.792	0.207	0.123
-735.025	58.588	0.198	0.196
-734.010	-134.065	-0.236	-0.030
-732.996	-200.000	0.038	-0.219
-731.981	-81.453	-0.261	-0.087
-730.966	83.001	-0.074	-0.082
-729.952	242.229	0.166	-0.280
-728.937	50.686	0.195	0.187
-727.923	182.206	-0.062	-0.093
-726.908	-200.000	0.012	-0.285
-725.894	22.869	0.191	-0.158
-724.879	148.121	0.150	0.205
-723.864	10.490	-0.132	-0.101
-722.850	-106.936	-0.357	0.080
-721.835	-24.042	0.437	-0.264
-720.821	5.910	0.148	0.111
-719.806	-129.452	-0.042	-0.006
-718.791	82.738	-0.283	-0.311
-717.777	-72.149	-0.236	-0.088
-716.762	-200.000	-0.002	0.073
-715.748	-130.657	-0.228	0.031
-714.733	175.446	0.064	-0.094
-713.718	-170.900	-0.059	-0.002
-712.704	-69.388	-0.222	-0.086
-711.689	423.188	0.016	-0.034
-710.675	-108.126	-0.056	-0.012
-709.660	-88.406	-0.154	-0.046
-708.645	413.232	0.044	0.095
-707.631	-1.327	-0.166	0.119
-706.616	-57.924	-0.073	0.032
-705.602	800.000	0.114	-0.404
-704.587	-73.629	-0.265	-0.098
-703.572	800.000	-0.022	0.083
-702.558	-75.794	0.210	-0.075
-701.543	-79.100	-0.351	-0.120
-700.529	-200.000	0.023	0.108
-699.514	-200.000	-0.021	0.172
-698.499	25.011	-0.066	-0.055
-697.485	91.310	-0.148	0.168
-696.470	-9.811	-0.109	0.074
-695.456	-186.336	-0.314	-0.005
-694.441	202.212	-0.088	-0.137
-693.426	-4.773	0.271	-0.189
-692.412	38.598	-0.185	0.167
-691.397	57.249	0.118	0.116
-690.383	-68.448	-0.327	0.128
-689.368	-77.626	-0.109	-0.038
-688.354	302.203	-0.101	-0.189
-687.339	-113.018	-0.329	0.065
-686.324	-200.000	0.000	-0.093
-685.310	297.913	-0.091	-0.169
-684.295	800.000	0.091	-0.321
-683.281	-43.575	-0.423	-0.215
-682.266	800.000	-0.067	0.223
-681.251	-58.809	0.190	0.083
-680.237	-200.000	-0.034	-0.368
-679.222	-125.245	0.109	-0.017
-678.208	63.275	-0.175	-0.177
-677.193	-131.960	-0.342	-0.045
-676.178	27.251	0.085	-0.072
-675.164	35.293	-0.158	-0.140
-674.149	-152.400	0.059	-0.004
-673.135	85.540	-0.096	-0.106
-672.120	309.759	-0.075	0.142
-671.105	-10.292	-0.065	-0.043
-670.091	143.806	-0.156	0.209
-669.076	-52.008	-0.142	-0.067
-668.062	-71.944	-0.245	-0.092
-667.047	536.501	0.150	-0.360
-666.032	-109.567	-0.170	-0.036
-665.018	317.170	-0.162	0.309
-664.003	296.256	0.127	0.235
-662.989	-98.667	-0.240	-0.062
-661.974	35.294	-0.124	-0.110
-660.959	-200.000	0.083	-0.437
-659.945	-101.868	0.246	-0.060
-658.930	-167.193	0.072	-0.003
-657.916	-200.000	-0.037	-0.337
-656.901	5.581	-0.257	0.191
-655.886	-200.000	0.057	-0.363
-654.872	286.288	0.214	-0.389
-653.857	-85.540	0.298	-0.094
-652.843	107.627	-0.150	-0.180
-651.828	29.800	-0.082	-0.070
-650.814	77.927	0.201	0.215
-649.799	181.810	0.340	-0.504
-648.784	-200.000	-0.000	0.250
-647.770	800.000	-0.034	0.148
-646.755	-35.939	-0.065	0.035
-645.741	-165.233	0.153	-0.007
-644.726	-128.922	-0.307	0.043
-643.711	92.787	0.081	0.092
-642.697	-200.000	-0.023	0.144
-641.682	800.000	0.027	-0.106
-640.668	103.695	0.100	-0.119
-639.653	-131.202	-0.304	-0.041
-638.638	-21.641	-0.205	-0.126
-637.624	467.584	-0.069	-0.156
-636.609	209.356	0.159	0.250
-635.595	-133.186	-0.139	0.018
-634.580	-200.000	0.022	0.116
-633.565	-150.518	0.196	-0.015
-632.551	-148.199	-0.144	-0.012
-631.536	2.799	-0.034	-0.025
-630.522	-51.720	0.308	-0.145
-629.507	-200.000	0.013	-0.146
-628.492	87.692	0.051	-0.057
-627.478	69.410	0.097	0.101
-626.463	-127.413	-0.082	0.012
-625.449	-200.000	-0.005	0.052
-624.434	43.421	-0.278	-0.255
-623.419	498.199	-0.042	-0.097
-622.405	-129.725	0.093	-0.013
-621.390	-200.000	0.018	-0.173
-620.376	-107.326	-0.226	0.050
-619.361	48.475	-0.157	0.148
-618.346	24.605	0.213	-0.178
-617.332	72.683	0.120	-0.126
-616.317	800.000	0.171	-0.496
-615.303	553.089	0.056	-0.134
-614.288	-122.040	0.025	0.004
-613.273	278.539	0.184	-0.330
-612.259	184.371	0.130	0.193
-611.244	-200.000	0.046	0.231
-610.230	-103.584	-0.314	0.074
-609.215	800.000	0.061	-0.193
-608.201	533.927	-0.040	-0.095
-607.186	-30.388	0.096	-0.055
-606.171	800.000	-0.016	-0.045
-605.157	-19.200	-0.021	0.013
-604.142	231.815	0.186	0.307
-603.128	131.997	0.141	0.182
-602.113	-91.012	0.075	0.022
-601.098	-200.000	0.031	-0.203
-600.084	800.000	0.024	-0.087
-599.069	518.286	-0.095	-0.223
-598.055	-47.496	0.155	0.076
-597.040	-200.000	0.041	-0.333
-596.025	-200.000	-0.044	-0.263
-595.011	-127.913	-0.034	-0.005
-593.996	-55.788	0.248	0.111
-592.982	159.855	-0.087	0.122
-591.967	79.426	-0.117	-0.126
-590.952	420.843	0.080	0.172
-589.938	179.488	0.204	-0.300
-588.923	-135.969	-0.344	-0.041
-587.909	-106.915	0.369	0.082
-586.894	283.322	-0.027	-0.049
-585.879	37.931	-0.401	0.358
-584.865	5.537	-0.269	0.199
-583.850	-200.000	-0.012	0.129
-582.836	-200.000	-0.029	0.244
-581.821	-200.000	0.025	-0.208
-580.806	-124.547	-0.234	0.037
-579.792	-200.000	0.011	-0.179
-578.777	133.254	-0.162	-0.211
-577.763	800.000	0.086	0.260
-576.748	10.512	0.088	-0.068
-575.733	-68.217	-0.085	-0.033
-574.719	-200.000	-0.005	0.055
-573.704	143.872	-0.036	-0.048
-572.690	-133.429	0.423	-0.053
-571.675	-128.518	-0.318	-0.045
-570.661	19.711	0.157	-0.127
-569.646	78.761	0.025	0.027
-568.631	-41.658	-0.125	-0.065
-567.617	-2.983	-0.177	-0.124
-566.602	-200.000	0.045	-0.345
-565.588	260.736	0.194	-0.337
-564.573	165.348	-0.226	-0.320
-563.558	-84.279	-0.326	0.103
-562.544	800.000	-0.120	-0.361
-561.529	263.156	0.048	-0.084
-560.515	-200.000	-0.046	0.203
-559.500	3.789	-0.137	0.101
-558.485	-27.709	0.178	0.104
-557.471	210.748	0.108	-0.171
-556.456	578.304	0.086	-0.210
-555.442	198.967	-0.120	-0.184
-554.427	800.000	0.096	0.396
-553.412	-200.000	0.028	0.128
-552.398	-128.837	-0.189	0.027
-551.383	800.000	-0.071	0.268
-550.369	-109.577	-0.472	0.100
-549.354	18.978	-0.098	-0.079
-548.339	197.031	0.062	0.095
-547.325	-17.318	-0.371	0.234
-546.310	-200.000	-0.014	0.229
-545.296	-200.000	-0.034	0.161
-544.281	239.294	-0.084	-0.140
-543.266	-161.492	0.123	-0.006
-542.252	800.000	-0.074	-0.206
-541.237	57.790	-0.080	0.079
-540.223	-200.000	0.045	-0.390
-539.208	-200.000	0.039	-0.289
-538.193	-16.998	-0.097	-0.062
-537.179	-200.000	-0.023	-0.187
-536.164	664.328	-0.131	-0.339
-535.150	-130.624	-0.154	0.021
-534.135	-108.908	0.199	-0.043
-533.121	-200.000	0.025	-0.123
-532.106	6.215	-0.299	-0.223
-531.091	-200.000	-0.042	-0.256
-530.077	98.954	0.187	0.216
-529.062	-200.000	-0.031	0.180
-528.048	-67.541	0.304	0.120
-527.033	-113.160	-0.343	0.068
-526.018	-31.606	0.144	-0.081
-525.004	800.000	-0.021	0.060
-523.989	-97.395	-0.302	0.079
-522.975	-200.000	-0.049	0.217
-521.960	622.872	-0.109	-0.274
-520.945	83.143	0.115	-0.126
-519.931	-97.738	-0.286	-0.074
-518.916	-200.000	0.030	0.324
-517.902	92.638	0.107	0.121
-516.887	569.754	0.040	-0.098
-515.872	690.550	-0.039	-0.102
-514.858	205.743	-0.104	0.161
-513.843	92.639	0.125	0.141
-512.829	-14.120	-0.258	0.167
-511.814	85.040	-0.248	0.272
-510.799	800.000	-0.036	-0.142
-509.785	-140.011	-0.311	0.033
-508.770	346.952	-0.154	0.304
-507.756	407.077	0.123	0.259
-506.741	800.000	0.060	0.225
-505.726	-4.912	0.153	-0.105
-504.712	-200.000	-0.013	-0.301
-503.697	-129.439	-0.315	0.044
-502.683	214.628	-0.057	-0.091
-501.668	800.000	0.066	-0.226
-500.653	136.794	-0.225	0.295
-499.639	-200.000	0.006	-0.127
-498.624	-102.370	-0.293	0.070
-497.610	-200.000	-0.009	0.298
-496.595	-163.307	0.165	0.008
-495.581	-200.000	-0.012	-0.218
-494.566	123.755	-0.354	-0.444
-493.551	435.909	0.064	0.139
-492.537	800.000	-0.038	-0.129
-491.522	-200.000	0.027	-0.149
-490.508	800.000	0.046	-0.168
-489.493	16.983	0.216	-0.171
-488.478	-147.558	-0.168	0.014
-487.464	-200.000	0.053	-0.352
-486.449	-5.714	0.136	-0.093
-485.435	-200.000	0.018	0.370
-484.420	224.296	0.182	0.294
-483.405	-83.079	0.276	0.089
-482.391	-81.284	0.108	0.036
-481.376	-200.000	0.006	-0.302
-480.362	800.000	-0.041	-0.118
-479.347	-6.035	0.404	-0.276
-478.332	220.344	-0.111	0.178
-477.318	739.929	0.043	-0.115
-476.303	-200.000	0.034	-0.339
-475.289	-4.178	-0.196	0.136
-474.274	210.643	-0.109	0.172
-473.259	476.680	-0.097	0.218
-472.245	181.006	-0.021	-0.031
-471.230	800.000	0.066	0.289
-470.216	-26.283	0.305	0.179
-469.201	-200.000	-0.097	0.455
-468.186	97.910	0.089	0.103
-467.172	800.000	-0.051	0.149
-466.157	-68.315	0.079	0.031
-465.143	112.072	-0.201	0.243
-464.128	276.749	-0.074	0.132
-463.113	-200.000	0.005	0.207
-462.099	9.719	-0.249	0.188
-461.084	3.049	0.025	0.018
-460.070	315.472	0.100	-0.189
-459.055	-15.141	-0.277	0.177
-458.040	361.441	-0.052	0.105
-457.026	133.867	0.151	0.195
-456.011	-22.408	-0.225	-0.136
-454.997	46.290	0.165	-0.153
-453.982	-122.238	0.120	-0.020
-452.968	800.000	0.051	0.143
-451.953	-32.033	-0.047	-0.026
-450.938	223.162	0.187	0.302
-449.924	-200.000	0.002	-0.228
-448.909	-200.000	0.015	0.089
-447.895	-200.000	-0.011	0.479
-446.880	27.940	-0.216	0.182
-445.865	205.636	-0.076	-0.119
-444.851	-200.000	0.055	0.274
-443.836	-6.157	0.083	0.057
-442.822	696.915	0.165	-0.432
-441.807	211.344	0.127	-0.200
-440.792	125.769	0.321	-0.405
-439.778	54.194	0.098	-0.095
-438.763	800.000	0.037	0.138
-437.749	71.097	0.035	-0.036
-436.734	28.866	-0.185	-0.156
-435.719	-200.000	0.004	0.210
-434.705	-182.417	-0.251	0.005
-433.690	-200.000	-0.024	0.118
-432.676	-23.987	-0.093	0.056
-431.661	-200.000	0.013	0.169
-430.646	-128.291	0.195	-0.028
-429.632	-49.189	0.163	-0.078
-428.617	-200.000	-0.006	-0.233
-427.603	137.493	0.085	0.110
-426.588	-158.628	0.119	0.007
-425.573	-82.810	-0.364	0.117
-424.559	-2.011	-0.028	0.020
-423.544	-8.663	-0.204	-0.137
-422.530	163.238	-0.171	0.239
-421.515	-91.849	-0.272	0.077
-420.500	-53.251	0.128	0.059
-419.486	-200.000	-0.017	0.223
-418.471	-59.510	-0.292	-0.125
-417.457	89.967	0.114	-0.127
-416.442	4.038	0.188	0.137
-415.428	-60.722	0.246	-0.104
-414.413	312.318	-0.068	0.128
-413.398	174.322	-0.263	0.379
-412.384	8.676	0.278	-0.209
-411.369	-59.862	0.384	0.164
-410.355	-200.000	-0.022	-0.178
-409.340	-200.000	-0.006	-0.297
-408.325	-94.385	0.249	0.068
-407.311	-200.000	0.008	-0.187
-406.296	157.864	0.197	-0.272
-405.282	182.925	-0.026	-0.038
-404.267	-200.000	-0.005	-0.035
-403.252	-200.000	-0.005	0.061
-402.238	29.863	-0.107	0.091
-401.223	117.781	-0.214	-0.263
-400.209	-33.756	-0.170	0.093
-399.194	113.016	-0.195	0.236
-398.179	800.000	-0.055	0.234
-397.165	37.073	-0.077	0.068
-396.150	558.230	-0.030	-0.073
-395.136	-101.426	0.182	0.044
-394.121	29.945	0.060	-0.051
-393.106	141.959	-0.139	-0.184
-392.092	-121.562	-0.024	-0.004
-391.077	-47.063	0.200	0.097
-390.063	-200.000	0.009	-0.146
-389.048	-46.697	0.279	0.136
-388.033	800.000	0.058	0.180
-387.019	-61.219	-0.265	-0.111
-386.004	-200.000	0.022	-0.208
-384.990	258.293	-0.182	-0.313
-383.975	9.549	0.254	0.192
-382.960	273.433	0.234	0.412
-381.946	-200.000	-0.002	0.590
-380.931	299.914	-0.079	-0.145
-379.917	-0.707	-0.180	-0.127
-378.902	-200.000	-0.084	0.391
-377.888	-180.733	0.162	0.003
-376.873	-19.343	-0.211	0.130
-375.858	-200.000	-0.012	0.094
-374.844	-200.000	0.030	-0.162
-373.829	-114.175	-0.275	0.053
-372.815	-200.000	-0.026	-0.149
-371.800	-161.653	-0.140	0.007
-370.785	680.472	0.031	-0.081
-369.771	-123.085	-0.122	0.019
-368.756	0.984	0.182	-0.130
-367.742	800.000	-0.067	0.207
-366.727	574.701	0.016	0.038
-365.712	-142.008	0.347	-0.034
-364.698	201.307	0.124	-0.191
-363.683	-40.799	0.359	0.185
-362.669	-126.505	-0.144	0.021
-361.654	481.145	-0.017	0.038
-360.639	139.977	0.193	0.253
-359.625	-1.187	0.110	-0.077
-358.610	186.124	-0.124	0.184
-357.596	-32.373	0.103	-0.057
-356.581	-82.698	-0.428	0.138
-355.566	144.355	0.155	0.207
-354.552	-62.516	0.332	-0.137
-353.537	57.027	-0.092	-0.090
-352.523	17.631	-0.222	-0.176
-351.508	-200.000	-0.018	-0.109
-350.493	800.000	0.036	0.152
-349.479	35.042	-0.210	-0.183
-348.464	306.548	-0.052	-0.097
-347.450	-102.463	0.323	-0.077
-346.435	-48.021	0.324	0.156
-345.420	279.463	-0.139	-0.246
-344.406	-200.000	0.011	0.150
-343.391	51.072	-0.101	-0.095
-342.377	-105.422	-0.222	-0.050
-341.362	-6.949	-0.080	0.054
-340.348	83.133	-0.017	-0.018
-339.333	-200.000	0.002	0.031
-338.318	-4.420	-0.184	0.127
-337.304	479.793	0.155	-0.349
-336.289	-73.312	-0.339	-0.123
-335.275	-200.000	0.023	-0.259
-334.260	-28.702	-0.135	0.077
-333.245	-200.000	0.020	0.102
-332.231	800.000	0.032	-0.120
-331.216	-200.000	-0.009	0.254
-330.202	24.157	-0.102	-0.084
-329.187	64.511	-0.227	-0.228
-328.172	482.674	-0.046	-0.104
-327.158	43.891	0.130	-0.118
-326.143	60.266	0.249	0.245
-325.129	-160.436	-0.373	0.020
-324.114	0.192	-0.230	-0.163
-323.099	-19.649	-0.474	0.292
-322.085	1.575	0.297	-0.213
-321.070	630.027	0.047	0.119
-320.056	17.178	-0.116	0.091
-319.041	-57.886	-0.206	-0.089
-318.026	-126.690	-0.171	-0.025
-317.012	-116.565	-0.378	-0.069
-315.997	301.183	-0.014	0.026
-314.983	-200.000	0.015	0.120
-313.968	288.309	-0.047	-0.084
-312.953	598.536	-0.009	-0.023
-311.939	-58.410	-0.095	0.041
-310.924	-78.978	0.193	0.065
-309.910	87.122	0.206	0.226
-308.895	-44.269	-0.380	-0.189
-307.880	-159.077	0.467	-0.026
-306.866	800.000	0.055	0.160
-305.851	800.000	0.084	0.231
-304.837	369.102	0.108	0.218
-303.822	-117.998	-0.202	-0.036
-302.807	-163.341	0.104	0.005
-301.793	131.729	-0.108	0.138
-300.778	-83.718	-0.239	0.076
-299.764	-169.634	0.116	0.004
-298.749	650.575	0.033	0.084
-297.735	679.783	0.071	0.185
-296.720	800.000	0.053	0.205
-295.705	-9.067	-0.212	-0.141
-294.691	-200.000	0.016	-0.280
-293.676	120.705	-0.284	-0.350
-292.662	587.376	0.092	0.224
-291.647	165.235	0.152	0.214
-290.632	384.628	0.047	0.096
-289.618	-200.000	-0.006	0.281
-288.603	-200.000	0.005	0.284
-287.589	92.465	0.235	0.263
-286.574	-1.166	0.315	-0.221
-285.559	800.000	-0.101	-0.317
-284.545	-48.375	0.104	0.050
-283.530	-63.230	0.097	0.040
-282.516	375.062	0.079	-0.161
-281.501	-76.124	-0.341	-0.119
-280.486	-26.681	-0.192	0.112
-279.472	-82.551	0.044	-0.014
-278.457	296.912	0.141	0.258
-277.443	-28.730	0.170	0.097
-276.428	-155.993	-0.241	0.015
-275.413	-76.895	0.331	-0.115
-274.399	-82.227	0.085	0.027
-273.384	-115.009	0.197	-0.037
-272.370	5.499	0.040	-0.030
-271.355	-40.786	0.058	0.030
-270.340	-149.880	0.264	0.021
-269.326	-104.973	-0.129	0.029
-268.311	-200.000	-0.033	0.381
-267.297	311.461	0.005	0.010
-266.282	584.862	0.084	0.205
-265.267	40.662	-0.152	-0.136
-264.253	-137.131	-0.297	0.034
-263.238	-200.000	0.104	0.485
-262.224	63.897	-0.070	-0.070
-261.209	-200.000	0.036	0.203
-260.195	52.281	-0.236	0.224
-259.180	-200.000	0.002	-0.011
-258.165	-128.660	0.358	-0.050
-257.151	304.837	0.166	0.305
-256.136	-98.465	-0.214	0.054
-255.122	-200.000	0.024	-0.483
-254.107	21.481	0.066	-0.053
-253.092	381.706	0.090	0.183
-252.078	206.699	0.106	0.164
-251.063	-57.552	0.261	0.114
-250.049	-92.132	-0.219	-0.061
-249.034	541.687	0.071	-0.169
-248.019	-200.000	0.003	-0.111
-247.005	562.090	0.058	0.139
-245.990	159.993	0.062	-0.086
-244.976	-9.658	-0.248	-0.164
-243.961	-165.647	0.166	0.007
-242.946	-200.000	0.010	-0.070
-241.932	117.135	-0.170	0.207
-240.917	10.506	0.160	0.121
-239.903	-70.332	0.037	0.014
-238.888	27.016	0.120	0.100
-237.873	-200.000	-0.030	0.194
-236.859	329.296	0.185	-0.353
-235.844	13.793	-0.178	0.137
-234.830	-200.000	-0.025	-0.189
-233.815	4.701	0.053	-0.039
-232.800	51.176	0.078	0.073
-231.786	209.783	-0.154	0.240
-230.771	280.310	0.054	0.096
-229.757	-136.773	0.367	-0.042
-228.742	88.409	0.215	-0.237
-227.727	166.578	0.167	-0.235
-226.713	63.485	0.252	0.251
-225.698	-29.542	-0.106	0.060
-224.684	472.391	0.255	0.569
-223.669	376.475	0.025	0.050
-222.655	800.000	0.102	-0.398
-221.640	-200.000	0.050	-0.322
-220.625	-200.000	0.079	-0.356
-219.611	800.000	0.131	0.429
-218.596	187.038	0.105	-0.155
-217.582	-153.923	-0.218	0.015
-216.567	-90.974	0.133	-0.038
-215.552	-167.023	0.198	-0.008
-214.538	-141.850	0.344	-0.034
-213.523	203.634	0.153	-0.235
-212.509	-133.359	-0.155	0.019
-211.494	-18.263	-0.237	-0.147
-210.479	-88.523	0.282	0.083
-209.465	103.395	0.100	-0.117
-208.450	143.417	-0.202	-0.266
-207.436	-142.367	0.376	0.037
-206.421	216.853	0.087	0.138
-205.406	209.755	-0.021	-0.033
-204.392	-30.308	0.399	0.224
-203.377	94.887	0.032	-0.036
-202.363	-200.000	0.004	0.116
-201.348	335.058	-0.161	-0.309
-200.333	108.471	0.159	-0.188
-199.319	436.419	-0.051	0.109
-198.304	427.436	0.117	-0.250
-197.290	-7.096	-0.094	0.063
-196.275	-152.558	0.033	-0.002
-195.260	-200.000	-0.007	-0.071
-194.246	-200.000	-0.069	-0.426
-193.231	800.000	-0.099	-0.333
-192.217	278.852	-0.135	-0.239
-191.202	-41.228	-0.318	-0.162
-190.187	-149.307	-0.273	0.022
-189.173	-72.712	0.236	-0.086
-188.158	-116.265	-0.164	-0.030
-187.144	-200.000	0.043	0.232
-186.129	-200.000	0.018	0.288
-185.114	243.136	0.118	0.195
-184.100	181.868	0.118	-0.172
-183.085	-200.000	0.041	-0.223
-182.071	19.431	-0.148	-0.118
-181.056	327.728	0.021	-0.040
-180.042	-200.000	0.088	-0.419
-179.027	-73.475	0.487	-0.176
-178.012	-200.000	0.019	0.210
-176.998	594.334	-0.066	0.160
-175.983	-116.205	-0.141	0.026
-174.969	-107.730	-0.101	0.022
-173.954	111.998	0.120	0.144
-172.939	81.780	0.085	-0.091
-171.925	236.983	-0.104	0.170
-170.910	-97.754	0.095	0.024
-169.896	-114.729	-0.020	-0.004
-168.881	186.186	-0.160	0.235
-167.866	31.509	-0.093	-0.079
-166.852	-74.095	-0.340	-0.122
-165.837	525.519	0.052	-0.121
-164.823	-60.468	0.106	0.045
-163.808	-128.549	0.077	0.011
-162.793	45.008	-0.117	0.107
-161.779	-23.046	0.050	0.030
-160.764	11.404	0.088	0.066
-159.750	-82.981	0.391	0.125
-158.735	-200.000	0.018	-0.432
-157.720	-94.571	-0.040	0.011
-156.706	51.362	-0.118	0.110
-155.691	800.000	0.042	-0.114
-154.677	53.260	0.115	0.109
-153.662	-183.675	0.130	-0.002
-152.647	154.329	0.083	0.113
-151.633	800.000	-0.094	-0.257
-150.618	800.000	-0.001	0.003
-149.604	-101.756	-0.156	-0.037
-148.589	-56.981	0.208	-0.091
-147.574	-200.000	0.114	-0.611
-146.560	800.000	-0.029	0.094
-145.545	19.678	0.203	0.161
-144.531	56.642	0.102	-0.098
-143.516	-105.496	0.144	0.032
-142.502	328.678	0.215	0.407
-141.487	800.000	-0.030	0.103
-140.472	-102.483	0.100	0.024
-139.458	219.972	-0.121	-0.191
-138.443	366.893	-0.099	0.198
-137.429	22.260	0.154	0.124
-136.414	-114.848	0.321	-0.060
-135.399	-193.188	-0.275	0.002
-134.385	800.000	-0.067	0.231
-133.370	164.586	-0.059	0.082
-132.356	-111.634	0.047	-0.009
-131.341	800.000	-0.098	-0.313
-130.326	291.692	0.036	-0.065
-129.312	800.000	-0.093	-0.391
-128.297	-46.917	-0.115	-0.055
-127.283	-138.147	0.210	-0.023
-126.268	8.577	-0.248	-0.185
-125.253	-200.000	-0.006	-0.075
-124.239	-28.847	-0.147	-0.083
-123.224	-37.826	0.098	0.052
-122.210	-80.354	0.214	0.071
-121.195	177.906	-0.017	0.024
