DTS Sentinel unit serial number:	SN413079Multiplexer serial number:	ORYXHardware model number:	OX4-SRSoftware version number:	ORYX F/W v4.00 Oryx Data Collector v3.7.2.0data status	okinstallation	princeton_trtdifferential loss correction	single-endedforward channel	channel 1reverse channel	N/Adate	2019/09/11time	18:24:11forward acquisition time	60.00reverse acquisition time	0.00gamma	496.2192k internal	0.2290k external	0.2290temperature offset calibration	1.0005default loss term (dB/km)	0.3790temperature slope calibration	1.0000multiplexer offset coefficient	1.0000multiplexer slope coefficient	1.0000fibre end	0.00T internal ref (°C)	43.94T ext. ref 1 (°C)	1.15T ext. ref 2 (°C)	38.18length (m)	temperature (°C)	Stokes	anti-Stokes-747.200	-14.922	-0.112	0.074
-746.185	-32.482	-0.173	0.099
-745.171	-110.465	-0.147	0.031
-744.156	-87.476	-0.069	-0.021
-743.142	629.832	-0.055	0.143
-742.127	163.312	0.063	-0.091
-741.112	-73.221	-0.225	-0.084
-740.098	542.784	-0.094	0.231
-739.083	800.000	-0.012	-0.048
-738.069	24.219	0.399	0.338
-737.054	-16.157	-0.208	0.135
-736.039	736.648	0.063	0.174
-735.025	-27.823	0.121	0.072
-734.010	-156.746	-0.190	-0.012
-732.996	-97.162	0.130	-0.035
-731.981	220.551	-0.235	-0.386
-730.966	-86.582	0.414	-0.130
-729.952	252.150	0.020	0.035
-728.937	153.540	-0.145	-0.203
-727.923	-122.758	0.253	-0.042
-726.908	547.108	-0.171	0.420
-725.894	-200.000	-0.001	0.062
-724.879	-46.661	-0.571	0.286
-723.864	228.979	0.107	0.178
-722.850	-37.567	0.321	-0.175
-721.835	91.394	0.165	-0.190
-720.821	-200.000	0.030	0.194
-719.806	-12.812	0.116	0.077
-718.791	-103.686	-0.098	-0.024
-717.777	-13.450	-0.144	-0.095
-716.762	59.844	-0.249	0.251
-715.748	-200.000	-0.011	0.349
-714.733	-41.755	-0.263	-0.138
-713.718	-66.944	0.248	-0.100
-712.704	800.000	-0.136	-0.533
-711.689	-54.380	0.191	0.089
-710.675	-26.287	-0.494	0.296
-709.660	367.016	-0.127	0.263
-708.645	57.484	0.107	-0.107
-707.631	-200.000	0.013	-0.186
-706.616	-200.000	-0.007	-0.212
-705.602	-135.615	0.254	-0.031
-704.587	68.779	0.141	0.148
-703.572	800.000	0.099	0.323
-702.558	-200.000	0.041	0.257
-701.543	251.562	-0.186	-0.324
-700.529	3.816	0.095	-0.071
-699.514	800.000	0.035	-0.113
-698.499	800.000	0.028	-0.103
-697.485	800.000	-0.201	-0.570
-696.470	-200.000	0.010	-0.045
-695.456	117.932	-0.108	0.136
-694.441	-72.601	0.291	0.110
-693.426	72.987	0.267	-0.285
-692.412	-81.662	-0.189	-0.063
-691.397	-53.691	-0.214	-0.100
-690.383	-118.672	-0.492	-0.089
-689.368	-38.153	-0.050	0.027
-688.354	-11.486	0.116	0.078
-687.339	2.664	0.085	-0.063
-686.324	25.675	0.239	-0.203
-685.310	-74.473	0.135	-0.050
-684.295	25.115	0.228	-0.193
-683.281	634.984	-0.197	-0.511
-682.266	410.071	-0.092	0.198
-681.251	248.556	0.217	0.375
-680.237	-53.864	0.020	0.009
-679.222	-200.000	-0.026	0.115
-678.208	111.212	0.241	-0.296
-677.193	87.245	-0.076	0.086
-676.178	730.402	-0.127	-0.347
-675.164	-60.503	0.111	0.048
-674.149	399.751	-0.028	0.059
-673.135	-200.000	0.022	-0.291
-672.120	-200.000	-0.015	0.120
-671.105	-78.716	0.232	0.081
-670.091	-200.000	0.080	0.388
-669.076	-200.000	-0.053	0.374
-668.062	-41.176	0.263	0.139
-667.047	-93.045	0.256	0.073
-666.032	108.688	0.114	0.139
-665.018	-99.761	0.196	0.050
-664.003	418.330	-0.042	0.093
-662.989	-19.743	0.052	-0.033
-661.974	-105.009	-0.223	-0.052
-660.959	-173.527	-0.144	-0.004
-659.945	178.600	0.203	-0.303
-658.930	-69.723	0.108	-0.042
-657.916	45.895	-0.322	-0.304
-656.901	-161.651	-0.164	-0.009
-655.886	510.742	-0.033	-0.078
-654.872	-200.000	0.034	-0.359
-653.857	-106.437	0.228	0.052
-652.843	405.620	0.144	0.310
-651.828	-1.219	-0.208	0.150
-650.814	-75.704	-0.268	-0.097
-649.799	-95.474	-0.241	-0.066
-648.784	64.596	-0.130	0.134
-647.770	800.000	-0.038	0.145
-646.755	36.737	0.272	0.245
-645.741	-200.000	-0.035	0.270
-644.726	-200.000	0.047	0.273
-643.711	-200.000	-0.007	-0.165
-642.697	-161.672	-0.112	0.006
-641.682	-5.625	-0.170	0.119
-640.668	-200.000	-0.030	-0.249
-639.653	129.173	0.060	0.078
-638.638	-200.000	-0.030	-0.150
-637.624	-200.000	0.012	-0.125
-636.609	-200.000	-0.018	0.204
-635.595	800.000	-0.035	0.145
-634.580	671.444	0.068	0.181
-633.565	58.502	-0.079	-0.079
-632.551	-200.000	-0.034	-0.356
-631.536	50.564	0.206	0.198
-630.522	-113.900	0.211	0.042
-629.507	-200.000	-0.015	0.238
-628.492	-200.000	-0.011	-0.063
-627.478	-11.050	-0.197	-0.133
-626.463	86.627	-0.022	0.025
-625.449	475.048	0.096	0.220
-624.434	-200.000	0.017	0.096
-623.419	18.138	-0.082	-0.067
-622.405	-80.762	-0.297	-0.101
-621.390	-200.000	0.016	0.258
-620.376	-90.438	-0.189	0.056
-619.361	800.000	-0.047	0.158
-618.346	-43.838	-0.095	-0.049
-617.332	-39.698	-0.089	0.048
-616.317	-200.000	0.012	-0.176
-615.303	248.700	-0.102	0.175
-614.288	-135.842	-0.288	-0.035
-613.273	-139.092	0.212	0.023
-612.259	800.000	-0.051	-0.177
-611.244	-9.457	-0.175	-0.119
-610.230	593.092	-0.114	-0.287
-609.215	-117.913	-0.126	0.023
-608.201	-39.223	0.249	-0.133
-607.186	465.804	0.100	-0.228
-606.171	-68.830	0.114	0.045
-605.157	109.323	-0.129	0.157
-604.142	2.525	-0.197	-0.145
-603.128	8.965	-0.268	-0.206
-602.113	-16.291	-0.360	0.233
-601.098	-200.000	0.074	-0.332
-600.084	-7.318	-0.218	-0.151
-599.069	-6.695	-0.029	-0.020
-598.055	-200.000	-0.016	-0.233
-597.040	800.000	0.033	-0.136
-596.025	579.934	-0.043	-0.107
-595.011	-151.622	-0.272	-0.020
-593.996	-127.877	0.211	-0.031
-592.982	158.490	-0.189	-0.267
-591.967	-200.000	0.106	-0.583
-590.952	35.365	0.226	0.202
-589.938	-187.952	0.306	0.004
-588.923	-146.608	-0.192	-0.017
-587.909	48.546	0.042	0.040
-586.894	9.158	0.224	-0.172
-585.879	-58.503	-0.292	-0.129
-584.865	-86.659	0.066	0.021
-583.850	518.483	-0.014	-0.034
-582.836	25.056	-0.116	0.098
-581.821	800.000	0.078	-0.236
-580.806	-200.000	-0.016	-0.098
-579.792	-100.895	0.310	0.078
-578.777	-200.000	0.001	-0.244
-577.763	800.000	-0.096	0.305
-576.748	-200.000	0.014	0.111
-575.733	-38.429	0.377	-0.203
-574.719	800.000	0.066	0.231
-573.704	-86.024	0.254	0.080
-572.690	-200.000	0.006	-0.312
-571.675	-61.166	-0.314	-0.135
-570.661	-200.000	0.075	0.451
-569.646	57.845	-0.187	0.186
-568.631	-36.569	-0.186	0.102
-567.617	15.654	-0.212	-0.170
-566.602	-88.277	0.185	-0.056
-565.588	92.196	-0.250	-0.287
-564.573	157.478	0.074	0.104
-563.558	-200.000	0.006	-0.330
-562.544	322.322	0.110	0.213
-561.529	641.022	-0.020	0.051
-560.515	-114.152	0.271	0.053
-559.500	-200.000	0.008	0.079
-558.485	143.023	0.053	-0.072
-557.471	52.291	-0.039	-0.038
-556.456	-8.702	-0.127	0.087
-555.442	-73.643	-0.125	0.046
-554.427	-54.158	0.181	0.084
-553.412	-29.219	0.099	-0.058
-552.398	-72.099	0.250	0.094
-551.383	-65.584	0.147	-0.060
-550.369	-169.672	0.010	0.000
-549.354	-14.067	0.146	0.096
-548.339	218.700	0.138	-0.224
-547.325	11.055	0.128	-0.099
-546.310	-14.958	-0.152	0.099
-545.296	-200.000	-0.004	0.235
-544.281	-26.956	0.358	0.213
-543.266	-129.940	-0.250	-0.035
-542.252	3.127	-0.308	-0.227
-541.237	-22.057	-0.186	-0.115
-540.223	-179.504	0.171	-0.004
-539.208	186.632	0.082	-0.125
-538.193	130.216	-0.101	-0.131
-537.179	-100.164	0.380	-0.096
-536.164	-21.866	0.033	0.021
-535.150	-100.866	0.128	0.032
-534.135	367.094	-0.185	-0.379
-533.121	-50.114	0.204	-0.098
-532.106	68.400	-0.250	-0.261
-531.091	375.509	-0.060	0.124
-530.077	123.419	0.085	-0.108
-529.062	-200.000	-0.012	-0.105
-528.048	-77.946	0.176	0.062
-527.033	127.168	-0.235	0.303
-526.018	678.692	0.100	0.264
-525.004	79.461	0.122	-0.133
-523.989	190.195	-0.124	0.189
-522.975	-200.000	-0.028	0.293
-521.960	-200.000	-0.000	-0.156
-520.945	-24.389	0.476	0.288
-519.931	800.000	-0.072	-0.211
-518.916	800.000	0.061	-0.219
-517.902	-89.203	-0.204	0.061
-516.887	-200.000	0.015	0.093
-515.872	17.779	0.142	0.115
-514.858	800.000	-0.047	0.184
-513.843	1.234	-0.386	-0.281
-512.829	-63.713	-0.213	-0.088
-511.814	206.963	0.085	-0.134
-510.799	-145.947	-0.316	0.028
-509.785	-152.990	-0.410	0.029
-508.770	-21.108	0.273	0.170
-507.756	-200.000	0.051	0.294
-506.741	-50.274	0.081	0.039
-505.726	88.136	0.173	-0.194
-504.712	-200.000	-0.006	0.125
-503.697	-147.367	0.469	-0.040
-502.683	320.514	-0.077	-0.149
-501.668	-9.329	-0.224	-0.152
-500.653	800.000	-0.074	-0.275
-499.639	-140.539	0.116	0.012
-498.624	-200.000	-0.020	0.144
-497.610	800.000	-0.035	-0.105
-496.595	-156.365	0.351	0.022
-495.581	-120.757	-0.141	-0.024
-494.566	-200.000	-0.036	-0.217
-493.551	-95.036	-0.181	0.050
-492.537	73.946	0.124	-0.132
-491.522	518.283	0.045	0.107
-490.508	-61.510	-0.207	-0.088
-489.493	-72.033	-0.081	0.031
-488.478	2.314	-0.106	-0.078
-487.464	60.368	-0.176	0.177
-486.449	159.496	0.042	0.060
-485.435	-7.892	-0.253	-0.173
-484.420	159.236	0.191	0.269
-483.405	-11.864	0.303	-0.202
-482.391	-60.437	-0.138	-0.060
-481.376	95.786	0.208	0.240
-480.362	97.852	0.225	-0.262
-479.347	66.167	0.155	-0.160
-478.332	199.774	0.149	-0.232
-477.318	-24.853	0.030	0.018
-476.303	70.544	-0.173	0.181
-475.289	25.545	-0.075	0.063
-474.274	-200.000	0.024	0.348
-473.259	369.776	-0.246	0.505
-472.245	55.895	0.153	-0.150
-471.230	212.889	0.109	-0.175
-470.216	-200.000	0.026	0.268
-469.201	-200.000	0.019	0.128
-468.186	9.614	-0.179	0.138
-467.172	190.612	0.137	0.209
-466.157	-53.011	0.370	0.172
-465.143	-35.392	0.146	0.080
-464.128	47.347	-0.163	0.154
-463.113	556.359	-0.056	-0.138
-462.099	-63.099	-0.257	0.108
-461.084	-3.506	-0.031	0.022
-460.070	104.183	-0.027	0.032
-459.055	-164.673	-0.158	-0.007
-458.040	-6.849	-0.189	0.130
-457.026	334.372	-0.097	-0.191
-456.011	55.482	-0.045	-0.045
-454.997	-39.289	-0.084	-0.045
-453.982	287.339	0.129	0.236
-452.968	29.545	0.172	-0.148
-451.953	-58.851	-0.197	0.086
-450.938	-45.294	-0.238	0.120
-449.924	237.251	-0.184	0.309
-448.909	-120.134	-0.080	-0.014
-447.895	-47.316	-0.099	0.049
-446.880	-200.000	-0.015	-0.071
-445.865	-145.967	-0.119	-0.011
-444.851	-22.232	-0.332	-0.204
-443.836	-105.545	-0.554	-0.127
-442.822	-200.000	0.045	0.250
-441.807	260.207	0.099	0.174
-440.792	39.723	-0.057	-0.052
-439.778	-175.949	-0.209	-0.006
-438.763	154.391	-0.137	0.190
-437.749	320.790	-0.115	0.221
-436.734	800.000	-0.096	0.311
-435.719	379.063	-0.026	0.054
-434.705	-64.769	0.456	0.187
-433.690	23.676	-0.107	-0.089
-432.676	800.000	-0.042	-0.129
-431.661	-200.000	0.028	-0.174
-430.646	-200.000	-0.011	0.073
-429.632	-200.000	0.006	0.164
-428.617	192.377	0.108	-0.164
-427.603	-145.157	0.370	-0.034
-426.588	23.757	0.238	0.198
-425.573	95.301	0.057	0.066
-424.559	-200.000	0.027	-0.299
-423.544	-40.996	0.267	-0.140
-422.530	-200.000	-0.009	-0.105
-421.515	-113.040	0.223	0.045
-420.500	-195.285	0.303	0.002
-419.486	40.370	0.279	0.254
-418.471	-4.174	-0.052	-0.037
-417.457	-200.000	0.013	-0.271
-416.442	-200.000	0.037	0.169
-415.428	-79.368	-0.202	-0.069
-414.413	-107.605	0.112	0.025
-413.398	214.083	-0.094	-0.150
-412.384	-200.000	0.013	-0.225
-411.369	-89.461	0.117	-0.035
-410.355	84.307	0.157	-0.174
-409.340	-27.635	0.155	-0.091
-408.325	262.761	-0.053	-0.093
-407.311	-26.067	-0.292	0.173
-406.296	-200.000	0.001	-0.108
-405.282	84.037	-0.010	-0.011
-404.267	-90.165	-0.405	-0.119
-403.252	280.979	-0.024	0.044
-402.238	800.000	0.082	-0.345
-401.223	58.594	0.119	0.118
-400.209	-200.000	-0.017	0.152
-399.194	13.170	-0.146	0.114
-398.179	-30.399	0.231	0.133
-397.165	-91.605	0.228	-0.066
-396.150	20.128	-0.140	0.115
-395.136	-200.000	0.022	0.193
-394.121	-120.170	-0.050	-0.009
-393.106	67.439	-0.185	-0.190
-392.092	800.000	-0.039	-0.169
-391.077	-200.000	0.002	-0.022
-390.063	740.139	0.095	-0.257
-389.048	-200.000	0.022	-0.154
-388.033	-200.000	0.033	-0.168
-387.019	109.575	0.212	0.257
-386.004	114.618	-0.155	-0.190
-384.990	239.786	0.182	0.306
-383.975	-200.000	-0.033	-0.243
-382.960	-62.979	0.128	-0.054
-381.946	-170.913	0.204	0.007
-380.931	-51.087	-0.221	0.105
-379.917	-71.172	0.141	-0.053
-378.902	-112.525	0.154	0.031
-377.888	-200.000	0.010	0.356
-376.873	-200.000	-0.001	-0.206
-375.858	645.761	-0.042	0.109
-374.844	83.552	0.099	0.109
-373.829	85.429	0.120	-0.133
-372.815	-109.164	0.174	-0.037
-371.800	51.578	0.198	0.190
-370.785	-97.212	0.125	0.033
-369.771	-26.127	0.082	-0.049
-368.756	-80.091	0.081	0.027
-367.742	-77.104	0.355	-0.125
-366.727	566.169	-0.060	-0.146
-365.712	100.288	-0.134	-0.157
-364.698	46.695	0.217	-0.203
-363.683	-27.805	0.348	0.204
-362.669	111.985	-0.133	-0.163
-361.654	-79.443	-0.102	0.035
-360.639	-57.365	0.373	-0.165
-359.625	-11.078	0.223	-0.149
-358.610	-59.883	0.437	0.189
-357.596	8.176	0.188	-0.142
-356.581	175.540	0.206	0.301
-355.566	-14.647	0.150	-0.097
-354.552	-5.711	-0.036	0.025
-353.537	23.816	0.237	-0.197
-352.523	312.476	0.067	-0.127
-351.508	-200.000	-0.034	-0.168
-350.493	40.553	-0.129	-0.117
-349.479	94.710	-0.276	-0.317
-348.464	-88.914	0.177	-0.053
-347.450	-200.000	0.060	-0.366
-346.435	-132.717	-0.054	0.007
-345.420	159.611	-0.214	0.300
-344.406	-165.105	0.179	-0.008
-343.391	-156.816	0.212	-0.013
-342.377	-37.982	-0.122	0.065
-341.362	-18.704	-0.118	0.074
-340.348	-69.243	-0.023	0.009
-339.333	800.000	-0.059	0.208
-338.318	-52.274	-0.098	0.046
-337.304	-95.997	-0.160	-0.043
-336.289	800.000	-0.031	-0.086
-335.275	-200.000	0.095	0.424
-334.260	105.272	-0.131	-0.156
-333.245	282.767	-0.051	-0.092
-332.231	-1.376	-0.231	0.164
-331.216	-200.000	0.020	-0.088
-330.202	-22.882	0.081	0.049
-329.187	485.834	-0.032	0.074
-328.172	115.968	0.103	-0.127
-327.158	-152.370	0.529	0.038
-326.143	-200.000	-0.003	-0.503
-325.129	-90.361	0.284	0.083
-324.114	-102.511	0.130	0.031
-323.099	12.101	-0.053	-0.041
-322.085	684.267	0.042	0.110
-321.070	130.110	-0.098	0.126
-320.056	-200.000	-0.014	-0.063
-319.041	-200.000	0.037	-0.329
-318.026	-94.227	0.324	0.089
-317.012	-65.355	-0.147	0.059
-315.997	171.498	0.225	0.325
-314.983	78.369	-0.085	-0.092
-313.968	28.265	-0.182	0.155
-312.953	75.734	0.200	-0.212
-311.939	135.089	-0.106	0.139
-310.924	-21.510	0.223	0.137
-309.910	43.210	-0.119	0.109
-308.895	323.924	0.209	-0.402
-307.880	-57.636	0.229	0.101
-306.866	49.221	-0.294	0.278
-305.851	-163.585	-0.034	-0.002
-304.837	-55.750	0.109	0.049
-303.822	114.842	-0.178	-0.219
-302.807	-7.418	-0.112	0.077
-301.793	800.000	-0.013	-0.043
-300.778	-200.000	-0.026	-0.237
-299.764	25.830	-0.059	0.049
-298.749	-81.464	-0.108	-0.036
-297.735	-200.000	-0.005	-0.302
-296.720	215.066	-0.170	-0.272
-295.705	-42.191	0.083	-0.043
-294.691	-200.000	0.004	0.406
-293.676	-93.925	0.029	0.008
-292.662	-34.896	-0.135	-0.074
-291.647	-8.389	0.190	0.129
-290.632	-200.000	-0.025	-0.130
-289.618	-200.000	-0.004	-0.105
-288.603	800.000	-0.108	-0.338
-287.589	-200.000	0.042	0.200
-286.574	-200.000	0.024	0.406
-285.559	108.594	-0.078	0.093
-284.545	-200.000	0.001	-0.023
-283.530	436.536	0.102	-0.224
-282.516	-77.982	-0.203	0.070
-281.501	-0.158	-0.169	-0.121
-280.486	-159.193	-0.222	-0.013
-279.472	-124.261	-0.209	-0.033
-278.457	-200.000	-0.011	0.235
-277.443	-158.850	0.131	-0.008
-276.428	-97.175	0.199	-0.052
-275.413	148.259	-0.240	0.326
-274.399	800.000	0.072	-0.221
-273.384	-33.092	0.225	0.126
-272.370	800.000	0.045	0.163
-271.355	240.788	-0.047	-0.079
-270.340	287.998	0.082	-0.149
-269.326	-33.866	-0.089	0.049
-268.311	204.657	-0.122	-0.191
-267.297	79.677	0.231	-0.249
-266.282	-200.000	-0.075	0.330
-265.267	-167.864	-0.393	-0.016
-264.253	-46.129	-0.397	0.197
-263.238	-35.731	0.310	0.169
-262.224	-200.000	-0.008	-0.118
-261.209	218.734	0.014	-0.022
-260.195	34.326	0.141	-0.123
-259.180	-144.633	0.049	-0.005
-258.165	102.223	0.184	-0.216
-257.151	-189.213	-0.227	0.003
-256.136	520.434	0.094	0.222
-255.122	-81.321	-0.375	-0.124
-254.107	-6.865	-0.274	0.187
-253.092	153.194	-0.183	0.252
-252.078	-43.018	0.175	0.089
-251.063	-71.065	-0.311	-0.117
-250.049	-161.794	-0.103	-0.005
-249.034	-65.365	0.174	-0.070
-248.019	-75.677	-0.316	-0.113
-247.005	653.570	-0.101	-0.260
-245.990	77.532	-0.172	-0.184
-244.976	227.788	0.079	0.128
-243.961	800.000	0.004	0.013
-242.946	800.000	-0.083	-0.295
-241.932	-200.000	-0.025	0.311
-240.917	-121.356	-0.175	0.029
-239.903	-200.000	0.032	0.196
-238.888	32.890	-0.199	-0.173
-237.873	3.286	0.180	-0.131
-236.859	-181.166	0.415	-0.008
-235.844	-79.151	0.198	0.067
-234.830	150.730	-0.089	-0.121
-233.815	87.799	-0.452	0.503
-232.800	728.167	-0.060	0.159
-231.786	49.362	-0.108	-0.102
-230.771	-80.407	-0.339	0.114
-229.757	-3.393	-0.114	-0.080
-228.742	-200.000	-0.015	-0.069
-227.727	-37.041	-0.198	0.107
-226.713	1.055	0.327	0.235
-225.698	800.000	-0.058	0.250
-224.684	140.111	-0.185	-0.245
-223.669	-200.000	-0.018	0.087
-222.655	386.637	-0.141	-0.291
-221.640	800.000	-0.066	-0.189
-220.625	-200.000	-0.007	0.032
-219.611	-200.000	0.022	0.121
-218.596	-102.994	-0.198	-0.047
-217.582	12.692	-0.011	-0.008
-216.567	190.630	0.112	0.170
-215.552	246.449	-0.088	0.150
-214.538	-83.643	0.221	-0.071
-213.523	163.997	-0.010	0.013
-212.509	-200.000	-0.002	0.109
-211.494	570.356	0.091	0.222
-210.479	-145.948	-0.157	0.014
-209.465	-159.319	0.210	0.012
-208.450	-104.346	-0.190	0.044
-207.436	3.370	-0.113	0.083
-206.421	297.528	0.071	-0.131
-205.406	800.000	-0.188	-0.540
-204.392	54.255	-0.413	-0.398
-203.377	196.071	0.099	-0.151
-202.363	280.878	0.067	-0.120
-201.348	-124.498	0.218	-0.034
-200.333	-56.255	-0.150	0.067
-199.319	26.261	0.216	0.181
-198.304	-59.919	0.082	0.035
-197.290	800.000	-0.071	-0.234
-196.275	800.000	0.162	0.450
-195.260	10.260	0.136	0.103
-194.246	45.755	-0.172	-0.160
-193.231	-200.000	-0.029	0.132
-192.217	-58.489	0.407	-0.177
-191.202	-42.619	-0.092	0.047
-190.187	86.659	0.223	-0.247
-189.173	-20.475	-0.223	-0.138
-188.158	521.278	0.082	0.193
-187.144	-88.948	-0.141	0.042
-186.129	137.240	0.012	0.016
-185.114	2.440	-0.211	0.153
-184.100	52.925	-0.099	0.095
-183.085	-156.319	0.578	-0.036
-182.071	76.888	0.146	0.155
-181.056	-200.000	0.005	-0.147
-180.042	-113.197	0.171	-0.034
-179.027	-144.991	-0.183	0.017
-178.012	-126.294	-0.171	-0.026
-176.998	200.248	0.226	0.347
-175.983	-69.558	-0.037	0.014
-174.969	82.957	-0.062	-0.068
-173.954	-92.769	0.361	-0.101
-172.939	92.199	0.018	-0.020
-171.925	-131.679	-0.058	-0.008
-170.910	-200.000	0.029	-0.190
-169.896	327.832	0.101	-0.193
-168.881	51.379	0.096	-0.091
-167.866	-81.345	-0.081	0.027
-166.852	-130.188	-0.056	-0.008
-165.837	772.129	0.081	0.221
-164.823	-200.000	0.009	0.200
-163.808	297.773	0.095	0.175
-162.793	-158.529	0.163	0.009
-161.779	84.261	0.033	0.036
-160.764	-29.109	-0.088	-0.051
-159.750	249.285	-0.257	0.436
-158.735	-44.645	0.526	0.263
-157.720	800.000	0.009	0.029
-156.706	29.475	-0.029	0.024
-155.691	165.716	-0.210	0.298
-154.677	289.256	-0.139	0.252
-153.662	-34.643	-0.297	-0.163
-152.647	204.667	-0.067	-0.103
-151.633	-200.000	0.010	0.270
-150.618	65.547	-0.060	0.061
-149.604	800.000	0.055	0.158
-148.589	-19.055	0.133	-0.082
-147.574	-200.000	0.091	-0.429
-146.560	278.792	0.155	0.277
-145.545	65.571	-0.184	0.187
-144.531	-200.000	0.033	0.355
-143.516	-133.757	-0.262	0.033
-142.502	800.000	0.061	-0.207
-141.487	-200.000	0.033	0.173
-140.472	-27.098	0.185	0.108
-139.458	-123.216	0.351	-0.056
-138.443	800.000	-0.045	0.149
-137.429	-55.225	0.135	-0.061
-136.414	-86.576	0.158	0.048
-135.399	-107.253	0.332	-0.073
-134.385	-44.319	-0.178	0.089
-133.370	76.493	-0.119	0.127
-132.356	100.366	-0.146	0.170
-131.341	76.124	0.200	0.212
-130.326	-109.436	-0.088	0.019
-129.312	-89.680	0.114	-0.034
-128.297	224.372	-0.122	-0.197
-127.283	-200.000	-0.008	0.314
-126.268	-40.109	0.095	0.049
-125.253	22.780	0.212	0.174
-124.239	-200.000	-0.016	0.231
-123.224	-31.287	-0.156	0.088
-122.210	-88.065	-0.167	-0.050
-121.195	390.014	0.201	0.417
