DTS Sentinel unit serial number:	SN413079Multiplexer serial number:	ORYXHardware model number:	OX4-SRSoftware version number:	ORYX F/W v4.00 Oryx Data Collector v3.7.2.0data status	okinstallation	princeton_trtdifferential loss correction	single-endedforward channel	channel 1reverse channel	N/Adate	2019/09/13time	22:42:35forward acquisition time	60.00reverse acquisition time	0.00gamma	496.2192k internal	0.2334k external	0.2334temperature offset calibration	1.0087default loss term (dB/km)	0.3790temperature slope calibration	1.0000multiplexer offset coefficient	1.0000multiplexer slope coefficient	1.0000fibre end	0.00T internal ref (°C)	27.62T ext. ref 1 (°C)	3.23T ext. ref 2 (°C)	21.68length (m)	temperature (°C)	Stokes	anti-Stokes-747.200	-73.676	-0.144	0.053
-746.185	222.286	0.242	0.391
-745.171	373.238	-0.145	0.297
-744.156	16.031	-0.057	-0.045
-743.142	24.312	0.132	-0.110
-742.127	245.309	-0.168	0.284
-741.112	-23.431	0.246	0.149
-740.098	62.993	-0.216	0.217
-739.083	-98.879	-0.198	0.051
-738.069	10.003	0.075	0.057
-737.054	-200.000	-0.002	0.296
-736.039	189.932	-0.259	-0.390
-735.025	800.000	-0.058	-0.174
-734.010	-200.000	0.006	0.107
-732.996	6.270	-0.330	-0.246
-731.981	166.199	-0.155	-0.220
-730.966	287.440	-0.085	-0.154
-729.952	118.533	0.172	-0.213
-728.937	54.562	-0.184	-0.179
-727.923	23.727	-0.132	0.109
-726.908	76.699	-0.316	0.337
-725.894	800.000	-0.046	-0.158
-724.879	36.804	-0.319	-0.283
-723.864	-86.274	-0.146	0.045
-722.850	-200.000	0.003	-0.306
-721.835	39.449	-0.092	-0.083
-720.821	145.333	-0.136	-0.183
-719.806	640.544	-0.125	-0.319
-718.791	-83.095	-0.176	0.057
-717.777	-4.208	0.083	-0.058
-716.762	-200.000	-0.034	0.285
-715.748	-103.257	0.142	-0.034
-714.733	254.923	-0.139	-0.240
-713.718	-139.278	-0.077	0.008
-712.704	-200.000	0.051	-0.275
-711.689	196.899	-0.088	0.135
-710.675	223.209	0.175	-0.283
-709.660	170.356	-0.118	-0.170
-708.645	73.100	0.157	0.164
-707.631	635.769	0.142	0.363
-706.616	130.589	-0.061	0.079
-705.602	800.000	-0.035	-0.100
-704.587	59.071	0.025	-0.025
-703.572	-71.365	-0.250	0.094
-702.558	800.000	0.136	-0.428
-701.543	230.032	-0.233	0.383
-700.529	-0.236	-0.172	-0.123
-699.514	92.766	0.095	0.108
-698.499	-171.488	-0.274	0.009
-697.485	202.953	-0.039	-0.060
-696.470	-171.875	0.356	0.012
-695.456	-200.000	0.049	-0.231
-694.441	2.966	0.066	-0.048
-693.426	-42.476	0.042	0.022
-692.412	-58.686	-0.210	-0.091
-691.397	-200.000	0.021	-0.368
-690.383	800.000	0.021	0.080
-689.368	7.517	-0.141	-0.106
-688.354	31.364	0.079	0.068
-687.339	130.094	0.098	0.126
-686.324	64.284	0.047	0.048
-685.310	-33.640	0.220	0.122
-684.295	100.210	0.185	0.216
-683.281	-200.000	-0.030	0.154
-682.266	-200.000	0.006	0.139
-681.251	-106.245	0.063	0.014
-680.237	-200.000	0.008	-0.195
-679.222	-103.062	-0.072	-0.017
-678.208	800.000	-0.122	-0.400
-677.193	-200.000	-0.026	-0.144
-676.178	389.924	-0.118	0.245
-675.164	158.400	0.070	0.097
-674.149	-20.272	0.157	0.097
-673.135	-200.000	-0.010	0.175
-672.120	-120.903	0.260	-0.044
-671.105	-100.017	-0.424	0.106
-670.091	180.699	-0.112	0.164
-669.076	-200.000	-0.059	-0.262
-668.062	-92.506	-0.028	-0.008
-667.047	800.000	-0.065	-0.206
-666.032	-200.000	-0.007	-0.189
-665.018	-49.451	-0.028	0.013
-664.003	295.949	-0.133	-0.244
-662.989	800.000	0.141	-0.489
-661.974	18.820	0.214	-0.172
-660.959	-102.804	-0.110	-0.026
-659.945	13.057	-0.264	0.204
-658.930	-200.000	-0.015	0.198
-657.916	-200.000	0.023	0.357
-656.901	-128.015	0.144	0.021
-655.886	-97.784	-0.458	-0.119
-654.872	395.346	0.263	-0.549
-653.857	188.567	-0.250	-0.375
-652.843	-200.000	-0.004	-0.039
-651.828	800.000	0.023	-0.073
-650.814	800.000	-0.050	-0.208
-649.799	64.161	0.152	0.153
-648.784	-101.865	-0.310	-0.075
-647.770	-154.370	0.343	0.023
-646.755	-200.000	-0.032	-0.321
-645.741	20.787	0.173	-0.140
-644.726	367.559	-0.077	-0.156
-643.711	800.000	0.094	-0.387
-642.697	15.178	0.113	0.089
-641.682	58.869	-0.208	0.204
-640.668	299.950	-0.146	0.269
-639.653	-126.981	0.188	-0.028
-638.638	113.770	0.244	-0.297
-637.624	800.000	-0.011	-0.039
-636.609	27.183	-0.124	-0.104
-635.595	-31.055	0.102	0.057
-634.580	-200.000	0.035	-0.208
-633.565	-114.747	-0.192	-0.037
-632.551	160.807	-0.047	0.065
-631.536	-64.658	-0.055	0.022
-630.522	800.000	-0.031	0.131
-629.507	-200.000	0.011	0.081
-628.492	-76.747	0.138	0.048
-627.478	-29.457	0.140	-0.080
-626.463	-91.331	0.298	-0.085
-625.449	-65.803	-0.181	0.073
-624.434	247.175	0.073	0.124
-623.419	123.925	0.206	0.259
-622.405	-123.004	-0.297	0.048
-621.390	-46.286	-0.225	0.110
-620.376	652.078	-0.123	-0.316
-619.361	-51.976	0.047	0.022
-618.346	-200.000	0.032	-0.234
-617.332	800.000	0.009	0.026
-616.317	111.776	-0.237	0.286
-615.303	83.007	-0.091	0.099
-614.288	-156.132	0.422	0.027
-613.273	16.274	0.328	0.259
-612.259	-106.603	-0.412	-0.092
-611.244	-39.270	0.038	0.020
-610.230	150.188	0.121	-0.164
-609.215	-72.704	-0.420	-0.155
-608.201	-108.937	0.078	-0.017
-607.186	95.407	-0.182	-0.208
-606.171	73.326	-0.115	-0.120
-605.157	-40.465	-0.245	0.127
-604.142	800.000	0.055	0.153
-603.128	123.020	0.214	0.268
-602.113	-200.000	0.038	0.397
-601.098	166.830	0.057	0.081
-600.084	535.578	0.053	0.125
-599.069	-200.000	0.038	-0.233
-598.055	-17.353	-0.180	0.113
-597.040	-178.479	0.311	0.007
-596.025	800.000	0.008	-0.024
-595.011	192.600	0.118	-0.178
-593.996	-85.288	-0.328	0.102
-592.982	218.203	0.136	0.218
-591.967	303.578	-0.177	-0.328
-590.952	-186.356	0.254	0.004
-589.938	-61.451	-0.215	0.090
-588.923	-50.278	-0.321	0.152
-587.909	-200.000	-0.045	-0.277
-586.894	-4.722	0.448	-0.309
-585.879	47.892	0.070	-0.065
-584.865	-115.409	0.246	0.046
-583.850	-12.366	0.137	0.090
-582.836	-200.000	-0.038	-0.663
-581.821	-123.326	-0.080	0.013
-580.806	-16.692	-0.101	0.064
-579.792	134.992	-0.123	0.160
-578.777	-126.689	0.390	-0.058
-577.763	-63.800	-0.322	-0.132
-576.748	103.111	0.030	0.035
-575.733	-200.000	0.000	-0.405
-574.719	-200.000	0.035	0.196
-573.704	115.147	0.024	0.029
-572.690	-162.161	0.200	-0.010
-571.675	212.767	0.066	-0.104
-570.661	-157.047	0.282	0.017
-569.646	136.926	-0.131	0.171
-568.631	-200.000	0.007	-0.042
-567.617	-69.793	0.310	0.118
-566.602	-110.514	0.127	0.026
-565.588	134.457	-0.151	-0.196
-564.573	108.325	-0.196	0.233
-563.558	800.000	-0.050	0.195
-562.544	-200.000	-0.045	-0.403
-561.529	-200.000	0.041	-0.453
-560.515	-200.000	0.037	0.384
-559.500	-200.000	0.006	-0.440
-558.485	34.528	-0.118	0.103
-557.471	-200.000	0.037	0.224
-556.456	-28.167	-0.185	-0.106
-555.442	774.735	-0.031	0.086
-554.427	34.433	-0.148	0.129
-553.412	-104.388	-0.085	-0.020
-552.398	33.573	0.123	-0.107
-551.383	9.739	0.178	-0.135
-550.369	142.020	-0.111	-0.147
-549.354	800.000	0.079	-0.294
-548.339	-148.287	0.443	-0.036
-547.325	-76.504	0.058	-0.020
-546.310	800.000	0.021	-0.087
-545.296	91.613	-0.028	0.032
-544.281	-107.155	0.233	0.051
-543.266	-200.000	0.035	0.491
-542.252	-137.698	-0.032	-0.004
-541.237	-149.223	-0.070	-0.006
-540.223	167.075	-0.129	-0.183
-539.208	481.660	0.212	-0.481
-538.193	800.000	-0.111	-0.376
-537.179	-200.000	0.005	-0.101
-536.164	-200.000	-0.043	0.188
-535.150	11.455	-0.096	-0.074
-534.135	-108.719	-0.264	0.056
-533.121	800.000	0.029	0.091
-532.106	-200.000	0.004	0.257
-531.091	-146.252	-0.229	0.020
-530.077	-58.729	-0.298	-0.129
-529.062	16.457	0.123	0.097
-528.048	-200.000	-0.008	0.225
-527.033	-104.622	-0.308	-0.071
-526.018	-200.000	0.029	-0.136
-525.004	-152.869	-0.342	-0.024
-523.989	-116.045	-0.141	-0.026
-522.975	11.117	-0.130	-0.099
-521.960	-93.672	-0.035	0.010
-520.945	-78.282	-0.146	-0.050
-519.931	-14.877	0.412	-0.264
-518.916	-200.000	0.064	-0.344
-517.902	11.928	-0.063	0.048
-516.887	357.770	0.087	0.172
-515.872	70.957	0.082	-0.085
-514.858	116.339	0.051	0.063
-513.843	-200.000	0.025	-0.198
-512.829	-200.000	0.043	0.278
-511.814	800.000	0.089	0.292
-510.799	180.113	0.050	-0.073
-509.785	-19.160	0.251	-0.156
-508.770	800.000	-0.053	-0.163
-507.756	62.971	0.057	-0.056
-506.741	-31.700	0.230	-0.128
-505.726	353.650	-0.069	0.136
-504.712	-165.912	0.401	0.017
-503.697	448.896	0.012	-0.026
-502.683	170.770	-0.100	-0.143
-501.668	-4.995	-0.117	-0.080
-500.653	-69.128	0.200	0.077
-499.639	-200.000	-0.019	0.244
-498.624	-144.112	-0.354	-0.033
-497.610	-200.000	0.011	-0.100
-496.595	-91.085	-0.214	-0.061
-495.581	-200.000	0.029	-0.278
-494.566	127.157	0.109	-0.137
-493.551	276.560	-0.126	-0.223
-492.537	36.558	0.008	-0.007
-491.522	268.990	-0.087	0.152
-490.508	42.378	-0.063	-0.057
-489.493	-62.029	0.262	0.109
-488.478	-200.000	-0.028	0.133
-487.464	800.000	-0.052	-0.190
-486.449	800.000	-0.091	0.317
-485.435	185.535	0.075	0.111
-484.420	-166.264	0.179	-0.008
-483.405	800.000	-0.067	-0.264
-482.391	135.484	0.052	-0.068
-481.376	141.199	-0.047	-0.062
-480.362	-66.391	-0.387	0.153
-479.347	414.350	-0.115	0.243
-478.332	-74.343	0.490	0.176
-477.318	-200.000	0.025	0.330
-476.303	396.352	-0.110	0.228
-475.289	28.774	0.166	-0.140
-474.274	126.185	0.215	-0.270
-473.259	-26.965	0.107	-0.062
-472.245	244.001	-0.120	-0.201
-471.230	-88.963	0.191	0.056
-470.216	-131.809	-0.348	0.045
-469.201	-71.995	-0.201	0.074
-468.186	226.720	-0.133	0.214
-467.172	365.060	0.161	0.322
-466.157	291.383	-0.083	-0.150
-465.143	-70.287	0.282	-0.106
-464.128	800.000	0.037	0.151
-463.113	-158.863	0.426	0.024
-462.099	62.206	-0.211	-0.209
-461.084	-200.000	0.057	0.263
-460.070	772.237	0.076	-0.207
-459.055	668.332	0.061	-0.156
-458.040	253.461	0.065	-0.111
-457.026	168.794	0.106	-0.151
-456.011	80.127	-0.079	-0.084
-454.997	800.000	-0.037	-0.121
-453.982	-91.374	-0.287	0.082
-452.968	-137.670	0.326	-0.036
-451.953	800.000	-0.041	-0.135
-450.938	17.579	0.190	-0.150
-449.924	607.210	0.101	0.250
-448.909	578.573	-0.236	0.575
-447.895	-146.792	-0.149	0.013
-446.880	-57.578	-0.249	-0.109
-445.865	7.376	0.212	-0.158
-444.851	-20.078	-0.423	0.259
-443.836	451.416	-0.137	-0.300
-442.822	-121.730	-0.512	-0.084
-441.807	17.771	-0.143	-0.113
-440.792	-69.133	-0.436	0.167
-439.778	405.474	0.117	0.246
-438.763	96.253	0.231	-0.263
-437.749	-150.855	0.301	-0.023
-436.734	-141.970	-0.201	-0.020
-435.719	-200.000	0.028	-0.271
-434.705	800.000	-0.034	-0.122
-433.690	-43.958	-0.268	0.134
-432.676	800.000	-0.024	0.092
-431.661	-79.034	0.114	0.038
-430.646	-83.505	0.124	0.039
-429.632	-92.836	-0.230	0.064
-428.617	160.980	-0.201	-0.279
-427.603	-18.994	-0.125	-0.077
-426.588	-16.164	0.125	0.079
-425.573	-178.356	0.104	0.002
-424.559	87.267	0.067	-0.073
-423.544	36.228	0.080	0.070
-422.530	79.285	0.273	0.291
-421.515	-69.182	-0.061	-0.023
-420.500	100.780	-0.039	0.045
-419.486	322.653	0.032	0.061
-418.471	-110.734	-0.008	-0.002
-417.457	-63.078	-0.266	-0.109
-416.442	9.592	-0.322	-0.242
-415.428	800.000	0.074	-0.253
-414.413	800.000	-0.012	0.036
-413.398	23.227	-0.090	0.073
-412.384	128.653	0.097	-0.123
-411.369	335.206	0.025	0.047
-410.355	-109.051	0.239	-0.051
-409.340	-6.670	-0.215	0.145
-408.325	562.955	0.088	0.212
-407.311	444.201	0.108	-0.235
-406.296	-65.685	0.087	-0.034
-405.282	-185.528	0.282	-0.004
-404.267	326.345	-0.137	0.260
-403.252	-200.000	-0.030	0.183
-402.238	-200.000	0.052	-0.331
-401.223	-149.837	0.243	0.019
-400.209	33.498	-0.217	0.187
-399.194	-200.000	0.052	-0.235
-398.179	-158.615	-0.321	0.018
-397.165	160.036	-0.061	0.084
-396.150	-67.832	0.120	-0.047
-395.136	800.000	0.083	0.312
-394.121	-119.251	-0.370	-0.064
-393.106	-78.497	0.271	0.092
-392.092	322.480	0.097	-0.183
-391.077	292.692	-0.120	0.217
-390.063	-200.000	0.011	0.050
-389.048	800.000	-0.057	0.204
-388.033	290.096	-0.077	0.138
-387.019	-79.970	0.334	-0.111
-386.004	800.000	0.060	0.176
-384.990	-100.108	0.192	-0.047
-383.975	-200.000	-0.014	-0.117
-382.960	-145.334	-0.035	0.003
-381.946	319.505	0.041	-0.078
-380.931	-20.908	0.354	0.215
-379.917	-17.192	-0.121	-0.075
-378.902	-123.783	0.413	0.065
-377.888	108.575	0.154	-0.183
-376.873	-200.000	0.237	-0.001
-375.858	-200.000	0.001	0.072
-374.844	800.000	-0.032	0.128
-373.829	384.126	-0.121	-0.248
-372.815	363.074	-0.019	-0.039
-371.800	-91.742	0.027	-0.008
-370.785	-140.226	0.124	-0.013
-369.771	-200.000	0.007	0.156
-368.756	800.000	-0.076	0.224
-367.742	-37.883	0.216	0.114
-366.727	-158.364	-0.158	0.009
-365.712	166.551	-0.094	-0.132
-364.698	-96.611	0.235	0.061
-363.683	-154.089	0.169	-0.011
-362.669	37.674	0.115	-0.101
-361.654	42.878	0.243	-0.219
-360.639	78.155	-0.137	0.144
-359.625	8.226	0.309	-0.230
-358.610	-5.468	-0.250	0.170
-357.596	-34.208	0.199	0.108
-356.581	12.043	-0.220	-0.168
-355.566	-74.506	-0.209	0.075
-354.552	-200.000	0.010	0.268
-353.537	12.641	0.229	-0.175
-352.523	-94.724	0.148	0.040
-351.508	394.344	0.210	0.434
-350.493	-200.000	0.123	-0.599
-349.479	-84.312	-0.187	0.059
-348.464	210.593	0.134	0.209
-347.450	-154.010	-0.204	-0.014
-346.435	248.833	0.103	0.172
-345.420	89.930	0.109	-0.121
-344.406	323.893	-0.157	0.297
-343.391	370.462	-0.133	-0.268
-342.377	800.000	-0.059	0.232
-341.362	310.671	-0.136	0.252
-340.348	800.000	-0.074	-0.292
-339.333	-200.000	0.025	0.114
-338.318	-2.015	0.206	0.144
-337.304	800.000	-0.076	0.237
-336.289	20.078	-0.135	-0.108
-335.275	590.613	-0.064	-0.156
-334.260	582.750	-0.042	0.103
-333.245	86.405	-0.166	0.181
-332.231	-54.766	-0.086	-0.038
-331.216	781.262	0.144	-0.390
-330.202	800.000	0.023	0.090
-329.187	-110.418	-0.080	0.016
-328.172	-200.000	-0.015	-0.111
-327.158	151.786	0.246	-0.332
-326.143	-130.322	0.309	-0.042
-325.129	65.640	-0.074	-0.074
-324.114	-10.587	-0.161	0.106
-323.099	-200.000	-0.001	0.011
-322.085	-155.710	0.073	0.005
-321.070	-184.814	-0.232	0.004
-320.056	265.153	0.106	0.183
-319.041	702.738	0.098	0.255
-318.026	170.554	-0.168	0.238
-317.012	703.631	-0.077	0.201
-315.997	-144.391	-0.122	0.011
-314.983	-69.462	0.179	-0.068
-313.968	-86.252	0.228	-0.069
-312.953	338.418	-0.213	-0.409
-311.939	35.143	-0.170	0.148
-310.924	800.000	-0.093	0.327
-309.910	10.652	0.071	0.053
-308.895	-84.087	0.117	-0.037
-307.880	-51.021	-0.176	-0.081
-306.866	-200.000	-0.045	0.240
-305.851	463.374	-0.093	0.206
-304.837	-51.862	-0.151	-0.069
-303.822	800.000	0.032	0.115
-302.807	92.530	0.118	0.132
-301.793	163.673	0.211	-0.294
-300.778	-200.000	-0.009	-0.147
-299.764	-200.000	-0.063	0.302
-298.749	197.555	0.025	0.038
-297.735	-69.938	0.135	-0.051
-296.720	9.275	0.193	0.144
-295.705	-59.498	0.119	-0.051
-294.691	-187.125	-0.029	0.000
-293.676	800.000	-0.075	0.207
-292.662	77.862	0.084	-0.089
-291.647	616.882	0.033	-0.081
-290.632	-48.683	-0.162	-0.077
-289.618	-200.000	-0.011	-0.169
-288.603	-129.063	0.131	-0.018
-287.589	-35.132	-0.067	-0.036
-286.574	756.875	0.045	-0.121
-285.559	297.688	0.149	-0.271
-284.545	243.502	-0.103	-0.171
-283.530	408.312	0.168	0.350
-282.516	-41.160	-0.371	0.189
-281.501	235.493	0.273	-0.445
-280.486	95.831	0.157	-0.177
-279.472	-200.000	-0.032	0.181
-278.457	161.893	-0.032	0.044
-277.443	-112.978	0.227	0.044
-276.428	126.833	-0.202	-0.252
-275.413	-200.000	0.015	-0.234
-274.399	184.567	0.106	-0.156
-273.384	-15.506	-0.282	-0.178
-272.370	728.309	-0.018	0.047
-271.355	-83.972	-0.066	0.021
-270.340	710.077	0.103	0.268
-269.326	61.831	0.120	0.118
-268.311	-200.000	0.015	-0.120
-267.297	79.265	-0.212	0.224
-266.282	140.608	0.181	-0.236
-265.267	18.151	-0.490	0.385
-264.253	-71.614	-0.191	0.071
-263.238	-187.363	-0.064	-0.001
-262.224	305.287	0.163	0.299
-261.209	-2.821	0.140	0.097
-260.195	-200.000	0.018	0.169
-259.180	-113.681	0.293	-0.056
-258.165	146.149	-0.136	-0.180
-257.151	14.720	0.226	-0.174
-256.136	19.887	-0.217	-0.172
-255.122	12.498	0.295	-0.224
-254.107	-200.000	0.029	-0.134
-253.092	271.549	-0.086	0.150
-252.078	-116.556	-0.291	0.053
-251.063	533.314	-0.054	-0.127
-250.049	-114.031	-0.380	0.073
-249.034	-130.124	-0.097	-0.013
-248.019	-200.000	0.012	0.119
-247.005	69.685	0.118	-0.119
-245.990	-200.000	0.007	0.176
-244.976	-103.697	0.199	0.046
-243.961	27.922	-0.078	0.065
-242.946	-92.385	0.240	-0.067
-241.932	-99.002	-0.301	-0.075
-240.917	800.000	-0.052	0.187
-239.903	406.098	0.262	-0.544
-238.888	135.441	-0.112	-0.143
-237.873	800.000	0.042	-0.137
-236.859	-200.000	0.017	0.089
-235.844	-53.563	-0.067	0.030
-234.830	-200.000	0.023	-0.131
-233.815	16.594	-0.251	-0.196
-232.800	-81.679	0.268	-0.087
-231.786	-138.269	-0.158	-0.017
-230.771	283.655	-0.022	0.039
-229.757	-107.550	0.324	0.070
-228.742	791.403	-0.074	0.201
-227.727	-56.383	-0.135	-0.059
-226.713	-200.000	-0.038	0.224
-225.698	175.959	-0.119	-0.171
-224.684	-126.565	-0.045	0.007
-223.669	-101.397	-0.086	-0.021
-222.655	800.000	0.027	-0.090
-221.640	800.000	0.120	-0.358
-220.625	147.499	0.185	0.245
-219.611	163.842	0.207	0.287
-218.596	491.879	0.098	-0.222
-217.582	-124.145	0.181	0.028
-216.567	800.000	-0.078	-0.225
-215.552	95.624	-0.101	0.113
-214.538	-200.000	-0.033	-0.318
-213.523	-49.524	-0.323	-0.152
-212.509	800.000	0.034	-0.129
-211.494	-200.000	0.090	-0.502
-210.479	321.355	-0.064	-0.120
-209.465	-139.988	-0.355	0.037
-208.450	295.761	0.068	0.123
-207.436	800.000	-0.041	0.175
-206.421	-104.147	0.093	0.021
-205.406	684.262	-0.126	0.323
-204.392	161.795	0.142	0.196
-203.377	-200.000	-0.013	0.219
-202.363	323.911	-0.153	0.288
-201.348	-4.156	0.106	-0.072
-200.333	194.072	0.054	-0.081
-199.319	-65.344	-0.104	-0.041
-198.304	233.546	0.072	0.117
-197.290	152.025	0.079	0.106
-196.275	-57.204	-0.280	0.121
-195.260	-50.885	-0.230	0.106
-194.246	113.538	0.106	0.127
-193.231	-55.017	0.058	0.026
-192.217	-200.000	-0.010	0.220
-191.202	731.604	0.103	0.270
-190.187	-63.523	0.451	0.182
-189.173	627.617	-0.075	0.187
-188.158	-16.560	-0.126	-0.079
-187.144	59.710	-0.112	-0.109
-186.129	216.897	-0.143	0.224
-185.114	654.212	-0.132	0.334
-184.100	-200.000	-0.218	-0.000
-183.085	-118.429	0.316	-0.055
-182.071	800.000	0.057	0.209
-181.056	301.963	-0.104	0.189
-180.042	52.195	0.157	-0.148
-179.027	631.886	-0.022	-0.056
-178.012	-82.379	-0.227	-0.073
-176.998	-31.115	-0.195	0.108
-175.983	-99.795	-0.189	0.047
-174.969	-49.922	-0.178	0.083
-173.954	800.000	-0.075	0.219
-172.939	13.849	0.083	-0.063
-171.925	-200.000	0.003	-0.113
-170.910	687.028	0.095	0.243
-169.896	-200.000	0.046	0.367
-168.881	-109.948	-0.393	-0.081
-167.866	66.138	0.109	0.109
-166.852	596.812	0.074	-0.181
-165.837	14.261	-0.220	-0.169
-164.823	-141.325	-0.164	-0.016
-163.808	800.000	-0.050	-0.183
-162.793	284.431	0.174	0.308
-161.779	294.952	-0.030	-0.054
-160.764	331.082	0.068	0.128
-159.750	800.000	-0.017	-0.055
-158.735	158.084	0.147	0.200
-157.720	34.642	-0.098	-0.084
-156.706	1.942	0.085	-0.060
-155.691	-80.277	-0.061	-0.020
-154.677	546.961	-0.009	0.020
-153.662	571.019	0.094	-0.225
-152.647	-94.128	0.048	0.013
-151.633	-35.850	-0.059	-0.032
-150.618	800.000	0.086	-0.313
-149.604	-65.564	0.298	-0.118
-148.589	64.988	0.297	-0.295
-147.574	-72.690	-0.048	0.017
-146.560	477.657	-0.055	0.123
-145.545	625.399	0.076	0.188
-144.531	106.831	0.261	0.304
-143.516	-20.109	0.144	0.087
-142.502	-200.000	0.025	-0.370
-141.487	277.029	0.089	0.155
-140.472	-200.000	-0.028	0.246
-139.458	-200.000	-0.031	0.221
-138.443	88.355	-0.097	0.106
-137.429	-200.000	-0.026	0.174
-136.414	81.656	-0.247	-0.263
-135.399	-200.000	0.018	0.241
-134.385	800.000	0.112	-0.359
-133.370	49.711	-0.203	0.188
-132.356	-200.000	-0.147	-0.710
-131.341	-51.577	-0.203	-0.093
-130.326	-91.988	-0.275	0.076
-129.312	-200.000	0.005	0.105
-128.297	672.023	-0.170	-0.431
-127.283	-200.000	0.009	0.072
-126.268	56.449	-0.081	0.077
-125.253	-121.405	0.418	0.068
-124.239	24.707	0.271	0.220
-123.224	3.293	-0.277	0.198
-122.210	727.698	-0.085	-0.221
-121.195	800.000	0.096	0.369
