DTS Sentinel unit serial number:	SN413079Multiplexer serial number:	ORYXHardware model number:	OX4-SRSoftware version number:	ORYX F/W v4.00 Oryx Data Collector v3.7.2.0data status	okinstallation	princeton_trtdifferential loss correction	single-endedforward channel	channel 1reverse channel	N/Adate	2019/09/19time	11:22:35forward acquisition time	60.00reverse acquisition time	0.00gamma	496.2192k internal	0.2338k external	0.2338temperature offset calibration	1.0010default loss term (dB/km)	0.3790temperature slope calibration	1.0000multiplexer offset coefficient	1.0000multiplexer slope coefficient	1.0000fibre end	0.00T internal ref (°C)	25.25T ext. ref 1 (°C)	0.79T ext. ref 2 (°C)	20.94length (m)	temperature (°C)	Stokes	anti-Stokes-747.200	-18.157	-0.187	0.117
-746.185	800.000	0.063	-0.209
-745.171	538.353	0.122	0.291
-744.156	249.104	0.017	0.028
-743.142	290.536	-0.113	0.207
-742.127	-200.000	-0.060	0.277
-741.112	-28.067	0.060	0.035
-740.098	-64.906	-0.073	0.030
-739.083	72.059	0.135	-0.141
-738.069	-200.000	-0.067	0.512
-737.054	-92.311	0.208	-0.059
-736.039	-110.247	-0.471	-0.098
-735.025	181.310	0.199	0.293
-734.010	-34.260	-0.351	-0.193
-732.996	-37.111	-0.042	0.023
-731.981	48.838	0.143	0.135
-730.966	644.732	-0.048	-0.123
-729.952	327.169	-0.053	-0.102
-728.937	-166.007	-0.200	-0.009
-727.923	-62.759	0.243	-0.101
-726.908	58.095	-0.255	0.251
-725.894	-30.587	0.199	-0.113
-724.879	93.467	0.289	0.328
-723.864	-110.501	0.338	-0.070
-722.850	-15.025	-0.084	0.054
-721.835	-200.000	0.040	-0.190
-720.821	-98.453	-0.362	0.093
-719.806	-53.847	-0.369	-0.169
-718.791	6.590	-0.345	-0.257
-717.777	38.097	0.095	-0.085
-716.762	-200.000	0.017	-0.177
-715.748	-76.363	-0.168	-0.059
-714.733	335.676	0.027	-0.053
-713.718	41.086	0.360	-0.326
-712.704	198.088	0.037	-0.057
-711.689	90.131	-0.095	-0.106
-710.675	-160.108	-0.086	0.005
-709.660	348.496	0.226	0.446
-708.645	100.809	0.068	0.080
-707.631	45.700	-0.277	0.257
-706.616	19.856	-0.161	0.130
-705.602	346.412	-0.110	-0.217
-704.587	-58.921	-0.212	0.092
-703.572	-200.000	0.011	0.382
-702.558	651.396	0.109	0.279
-701.543	800.000	0.020	-0.082
-700.529	-181.304	-0.221	0.004
-699.514	-170.277	-0.151	-0.005
-698.499	42.025	-0.312	-0.284
-697.485	-25.458	-0.270	-0.160
-696.470	39.161	-0.401	0.359
-695.456	-106.944	0.400	-0.089
-694.441	-106.193	0.135	-0.030
-693.426	245.775	-0.040	0.068
-692.412	382.061	0.079	0.162
-691.397	153.534	0.155	-0.213
-690.383	29.287	-0.100	0.085
-689.368	-125.292	0.235	-0.036
-688.354	-200.000	-0.006	0.115
-687.339	-200.000	-0.013	0.292
-686.324	250.241	-0.153	0.261
-685.310	380.807	0.056	0.115
-684.295	-84.556	-0.358	0.113
-683.281	-77.803	-0.074	0.025
-682.266	31.620	0.120	0.103
-681.251	-200.000	-0.367	-0.000
-680.237	-200.000	-0.010	-0.153
-679.222	-52.560	-0.271	-0.125
-678.208	-106.263	-0.397	-0.089
-677.193	-200.000	0.024	0.279
-676.178	-43.368	0.172	-0.087
-675.164	421.728	0.073	-0.156
-674.149	-36.351	-0.191	0.103
-673.135	-200.000	-0.007	0.091
-672.120	-200.000	-0.003	-0.409
-671.105	165.490	-0.130	-0.184
-670.091	73.605	-0.302	0.316
-669.076	800.000	0.030	-0.092
-668.062	-90.055	-0.248	0.072
-667.047	-200.000	0.009	-0.169
-666.032	-200.000	0.029	-0.181
-665.018	-60.060	-0.290	0.124
-664.003	800.000	-0.065	-0.221
-662.989	528.994	-0.139	0.327
-661.974	85.047	0.212	0.232
-660.959	279.224	0.066	-0.117
-659.945	-179.151	-0.368	0.008
-658.930	148.589	0.273	-0.369
-657.916	-39.387	0.081	-0.043
-656.901	-69.851	-0.184	-0.070
-655.886	-52.154	0.176	-0.082
-654.872	218.770	-0.184	0.294
-653.857	-200.000	0.066	0.305
-652.843	-200.000	0.037	-0.273
-651.828	706.170	0.072	-0.191
-650.814	37.368	-0.172	-0.152
-649.799	24.752	0.146	0.121
-648.784	-66.975	0.102	-0.040
-647.770	-10.056	0.212	0.141
-646.755	-85.123	-0.327	-0.102
-645.741	-39.817	-0.407	0.213
-644.726	279.564	0.100	-0.179
-643.711	274.599	-0.117	-0.207
-642.697	-1.250	-0.265	-0.187
-641.682	38.281	0.153	-0.136
-640.668	-200.000	0.021	-0.410
-639.653	-200.000	-0.039	0.187
-638.638	324.493	0.132	-0.252
-637.624	-200.000	0.018	-0.131
-636.609	-20.017	-0.198	-0.122
-635.595	27.304	-0.226	-0.190
-634.580	-4.405	-0.067	-0.047
-633.565	-200.000	-0.019	0.103
-632.551	-200.000	0.015	-0.118
-631.536	140.727	-0.298	-0.393
-630.522	-30.670	-0.100	0.057
-629.507	-0.514	0.107	0.076
-628.492	47.224	0.251	-0.234
-627.478	47.076	-0.107	-0.100
-626.463	-10.357	-0.266	-0.176
-625.449	-133.199	0.050	0.006
-624.434	447.178	-0.101	0.221
-623.419	174.861	-0.034	0.050
-622.405	74.926	0.138	0.146
-621.390	35.536	0.038	0.033
-620.376	114.342	0.148	-0.180
-619.361	800.000	-0.042	0.155
-618.346	-200.000	-0.036	-0.257
-617.332	64.226	-0.088	-0.088
-616.317	800.000	0.015	0.044
-615.303	-131.394	-0.222	0.029
-614.288	22.477	0.275	-0.224
-613.273	-200.000	0.046	0.209
-612.259	-200.000	0.009	-0.141
-611.244	-200.000	0.059	-0.474
-610.230	163.531	-0.106	0.149
-609.215	-108.441	0.069	-0.015
-608.201	-29.549	0.114	-0.065
-607.186	347.226	0.140	0.275
-606.171	151.487	0.124	0.169
-605.157	-191.983	-0.051	0.000
-604.142	-134.256	-0.238	-0.029
-603.128	-200.000	0.010	-0.125
-602.113	103.890	-0.032	0.037
-601.098	800.000	-0.044	0.135
-600.084	-176.235	0.127	0.003
-599.069	370.039	-0.024	-0.049
-598.055	106.071	-0.193	0.228
-597.040	800.000	-0.110	-0.459
-596.025	-53.258	-0.330	-0.151
-595.011	-79.922	0.221	-0.074
-593.996	176.137	0.081	0.118
-592.982	525.013	-0.098	-0.229
-591.967	301.419	0.033	0.060
-590.952	512.681	-0.118	-0.275
-589.938	1.909	-0.071	-0.051
-588.923	-200.000	0.064	0.352
-587.909	800.000	-0.175	0.484
-586.894	800.000	0.082	-0.237
-585.879	147.558	-0.026	0.035
-584.865	-29.560	-0.213	0.121
-583.850	-77.073	-0.077	0.027
-582.836	-129.229	0.226	0.031
-581.821	-200.000	0.004	0.291
-580.806	45.114	-0.168	-0.155
-579.792	-48.364	-0.155	-0.074
-578.777	132.715	-0.041	-0.052
-577.763	800.000	-0.020	0.086
-576.748	572.657	0.169	-0.410
-575.733	50.727	-0.110	-0.103
-574.719	-200.000	0.099	0.000
-573.704	-200.000	0.006	-0.080
-572.690	92.501	0.216	0.243
-571.675	231.569	-0.120	-0.197
-570.661	145.313	-0.200	-0.266
-569.646	-200.000	-0.002	0.024
-568.631	-1.776	0.300	-0.210
-567.617	-173.401	0.016	0.000
-566.602	61.029	0.231	-0.228
-565.588	61.035	0.153	-0.151
-564.573	-121.119	0.226	0.038
-563.558	340.730	0.089	0.173
-562.544	94.147	-0.119	0.135
-561.529	-200.000	0.000	0.096
-560.515	-200.000	-0.063	-0.616
-559.500	6.549	0.054	0.040
-558.485	7.122	0.168	-0.125
-557.471	136.111	0.147	-0.191
-556.456	-116.653	0.129	-0.024
-555.442	-67.105	0.065	-0.026
-554.427	-28.103	0.198	0.114
-553.412	-200.000	-0.048	-0.469
-552.398	-111.315	0.542	0.110
-551.383	601.827	-0.060	-0.148
-550.369	-86.160	-0.169	0.052
-549.354	-136.675	-0.188	-0.022
-548.339	370.134	0.099	-0.201
-547.325	369.507	-0.088	-0.178
-546.310	203.674	0.155	-0.239
-545.296	-84.736	-0.417	0.131
-544.281	17.567	-0.148	-0.117
-543.266	-19.532	-0.177	0.109
-542.252	38.863	-0.104	0.092
-541.237	525.692	0.177	-0.414
-540.223	-17.150	-0.198	0.124
-539.208	-200.000	0.074	-0.391
-538.193	-116.990	0.119	0.022
-537.179	126.676	-0.187	-0.235
-536.164	-49.928	0.059	-0.028
-535.150	132.826	-0.258	-0.331
-534.135	800.000	-0.047	-0.184
-533.121	-200.000	0.008	-0.150
-532.106	-132.412	-0.091	0.012
-531.091	13.394	0.026	-0.020
-530.077	-200.000	0.005	-0.103
-529.062	473.503	-0.039	0.086
-528.048	-16.390	-0.218	0.138
-527.033	-200.000	0.026	-0.205
-526.018	-200.000	-0.002	0.130
-525.004	389.480	-0.084	0.174
-523.989	800.000	-0.038	-0.117
-522.975	-26.130	0.118	0.069
-521.960	800.000	0.053	-0.195
-520.945	86.106	-0.081	-0.088
-519.931	-200.000	-0.007	0.083
-518.916	-200.000	0.041	-0.241
-517.902	-200.000	0.016	0.180
-516.887	-110.196	0.204	-0.042
-515.872	160.521	0.197	0.274
-514.858	123.539	0.079	0.098
-513.843	800.000	-0.049	0.156
-512.829	188.299	0.174	-0.259
-511.814	-92.369	0.113	0.032
-510.799	-200.000	0.014	-0.172
-509.785	-200.000	0.009	0.074
-508.770	-18.389	0.279	0.173
-507.756	-94.994	-0.073	0.020
-506.741	627.909	-0.101	0.255
-505.726	-108.893	-0.495	0.105
-504.712	-200.000	0.008	-0.062
-503.697	-92.586	0.244	-0.068
-502.683	800.000	-0.095	0.270
-501.668	-5.935	-0.332	0.226
-500.653	472.301	0.116	0.259
-499.639	38.452	-0.183	0.162
-498.624	800.000	0.087	0.265
-497.610	12.561	0.071	-0.055
-496.595	-200.000	-0.047	-0.205
-495.581	-4.636	0.220	0.151
-494.566	-6.218	-0.113	-0.076
-493.551	-86.732	-0.318	0.097
-492.537	800.000	-0.019	0.057
-491.522	-46.765	0.151	0.073
-490.508	462.592	-0.087	-0.193
-489.493	147.340	0.072	-0.096
-488.478	-79.851	0.355	0.118
-487.464	-200.000	0.017	-0.348
-486.449	-89.088	-0.097	0.028
-485.435	88.716	-0.226	-0.249
-484.420	-103.337	-0.177	0.041
-483.405	800.000	0.027	-0.098
-482.391	440.884	-0.036	-0.078
-481.376	800.000	-0.078	-0.231
-480.362	-72.575	0.191	-0.070
-479.347	-200.000	0.026	0.331
-478.332	-111.852	0.075	-0.015
-477.318	166.570	0.171	0.240
-476.303	197.995	-0.172	0.261
-475.289	800.000	-0.061	0.176
-474.274	-67.526	-0.191	-0.075
-473.259	146.554	-0.065	-0.086
-472.245	-145.698	0.249	-0.022
-471.230	202.527	0.028	0.043
-470.216	-107.387	-0.103	-0.023
-469.201	105.120	-0.150	0.176
-468.186	-130.732	0.033	-0.004
-467.172	59.095	-0.321	-0.313
-466.157	-45.540	-0.156	0.077
-465.143	-200.000	0.046	-0.223
-464.128	63.913	-0.298	-0.297
-463.113	-121.454	-0.150	0.025
-462.099	-30.571	-0.273	-0.154
-461.084	-200.000	0.047	0.304
-460.070	25.070	0.358	-0.295
-459.055	-125.936	0.107	0.016
-458.040	-165.189	0.082	0.004
-457.026	74.530	0.205	0.214
-456.011	33.395	0.072	-0.062
-454.997	11.671	0.092	-0.070
-453.982	703.267	0.044	0.115
-452.968	-56.214	-0.152	0.067
-451.953	101.271	0.008	0.009
-450.938	-37.212	-0.250	0.133
-449.924	-77.806	0.500	0.171
-448.909	-119.041	0.299	0.052
-447.895	-200.000	0.006	0.125
-446.880	-134.764	0.128	-0.015
-445.865	-200.000	0.000	0.220
-444.851	-200.000	-0.018	0.133
-443.836	-75.580	-0.189	0.067
-442.822	-103.193	0.329	-0.077
-441.807	354.230	-0.085	0.167
-440.792	197.138	-0.166	-0.251
-439.778	186.283	0.073	0.108
-438.763	158.307	-0.262	-0.360
-437.749	-133.909	0.136	-0.017
-436.734	-200.000	0.038	0.194
-435.719	-127.474	0.452	0.065
-434.705	151.826	-0.146	-0.198
-433.690	-200.000	0.001	-0.007
-432.676	61.949	0.196	-0.194
-431.661	27.085	-0.225	0.187
-430.646	-57.590	0.240	-0.104
-429.632	-200.000	0.057	-0.275
-428.617	167.697	0.214	-0.302
-427.603	-172.677	-0.359	0.011
-426.588	-56.776	-0.365	-0.160
-425.573	-30.502	0.273	-0.154
-424.559	209.539	-0.104	0.162
-423.544	800.000	-0.059	-0.163
-422.530	209.626	0.023	0.035
-421.515	70.664	-0.103	-0.106
-420.500	-200.000	0.020	-0.131
-419.486	-26.956	0.101	-0.058
-418.471	460.370	-0.109	0.241
-417.457	-200.000	-0.067	0.364
-416.442	-140.702	0.164	0.017
-415.428	-46.139	0.088	0.043
-414.413	-8.500	-0.262	-0.174
-413.398	800.000	-0.104	-0.307
-412.384	-32.527	0.080	-0.044
-411.369	-106.562	0.205	0.045
-410.355	-12.865	-0.190	-0.123
-409.340	328.841	-0.162	-0.308
-408.325	-14.056	0.250	-0.160
-407.311	-84.589	0.199	-0.062
-406.296	-200.000	-0.011	-0.223
-405.282	-80.338	0.289	0.096
-404.267	-98.541	0.196	0.050
-403.252	26.634	-0.135	-0.112
-402.238	-25.003	-0.237	0.139
-401.223	800.000	-0.077	-0.261
-400.209	800.000	-0.016	0.063
-399.194	-1.923	0.307	0.213
-398.179	-73.069	-0.146	-0.053
-397.165	-42.497	0.058	0.029
-396.150	224.275	0.093	-0.149
-395.136	800.000	-0.018	-0.057
-394.121	-42.635	-0.098	0.049
-393.106	-122.482	-0.169	0.027
-392.092	192.423	-0.145	0.217
-391.077	165.432	-0.343	-0.480
-390.063	-105.634	0.297	-0.067
-389.048	76.648	0.224	-0.235
-388.033	187.477	0.069	0.101
-387.019	-200.000	0.078	0.425
-386.004	229.428	-0.149	0.240
-384.990	-16.394	-0.129	0.081
-383.975	663.989	0.207	-0.528
-382.960	-74.233	0.161	-0.057
-381.946	800.000	-0.053	0.224
-380.931	-108.478	0.129	0.028
-379.917	-200.000	-0.035	0.400
-378.902	800.000	-0.020	0.056
-377.888	-141.071	0.025	0.003
-376.873	155.505	-0.140	0.191
-375.858	-115.981	0.248	-0.046
-374.844	479.427	-0.100	0.225
-373.829	153.931	0.247	0.335
-372.815	-61.847	0.075	0.031
-371.800	60.690	-0.082	-0.080
-370.785	288.207	0.211	0.377
-369.771	800.000	-0.074	0.231
-368.756	800.000	0.114	0.445
-367.742	800.000	-0.019	-0.067
-366.727	-39.368	0.090	0.047
-365.712	34.339	0.079	0.068
-364.698	-93.360	-0.063	-0.017
-363.683	-117.772	0.243	-0.043
-362.669	213.849	0.064	0.100
-361.654	-133.425	0.065	0.008
-360.639	255.981	-0.079	0.133
-359.625	-200.000	0.051	-0.359
-358.610	216.273	-0.172	-0.270
-357.596	-100.393	-0.119	-0.029
-356.581	38.920	0.185	-0.163
-355.566	-200.000	-0.004	0.027
-354.552	-200.000	-0.053	-0.373
-353.537	-139.707	0.026	-0.003
-352.523	-200.000	0.023	-0.123
-351.508	800.000	0.091	-0.338
-350.493	502.750	0.119	0.273
-349.479	-200.000	-0.009	-0.296
-348.464	-200.000	-0.002	0.109
-347.450	-77.366	-0.087	0.030
-346.435	440.261	-0.085	0.183
-345.420	-137.181	0.501	-0.056
-344.406	-9.774	0.220	0.144
-343.391	109.956	-0.041	-0.049
-342.377	-127.226	-0.163	0.024
-341.362	609.456	-0.149	0.367
-340.348	-181.576	-0.339	-0.007
-339.333	-200.000	-0.019	0.150
-338.318	-116.813	0.099	-0.018
-337.304	-39.758	-0.197	0.102
-336.289	-118.385	0.300	0.053
-335.275	-200.000	0.048	0.256
-334.260	57.055	-0.284	0.273
-333.245	270.834	-0.159	0.276
-332.231	228.002	0.168	-0.271
-331.216	-121.901	-0.201	0.033
-330.202	338.169	0.148	0.285
-329.187	-200.000	0.016	0.336
-328.172	-61.545	-0.296	0.123
-327.158	-200.000	0.011	-0.340
-326.143	-200.000	-0.025	0.138
-325.129	-32.632	0.295	-0.162
-324.114	-55.002	-0.285	0.127
-323.099	371.417	0.075	0.150
-322.085	-200.000	0.031	0.135
-321.070	800.000	-0.072	-0.236
-320.056	95.411	-0.155	-0.174
-319.041	-200.000	0.034	0.231
-318.026	106.176	-0.051	-0.059
-317.012	-66.612	-0.112	-0.044
-315.997	-9.535	-0.291	0.192
-314.983	-44.567	-0.231	0.114
-313.968	-200.000	-0.008	-0.127
-312.953	-158.783	-0.104	-0.006
-311.939	-34.815	-0.311	0.168
-310.924	-25.120	-0.262	0.153
-309.910	-4.062	-0.133	-0.091
-308.895	-114.814	-0.195	-0.037
-307.880	-45.351	0.186	-0.091
-306.866	-124.944	-0.178	-0.027
-305.851	89.810	0.207	0.228
-304.837	800.000	-0.077	0.330
-303.822	593.468	-0.065	-0.158
-302.807	-167.283	-0.271	-0.011
-301.793	160.206	0.112	-0.154
-300.778	-116.691	0.209	0.038
-299.764	767.536	-0.070	-0.188
-298.749	-21.553	-0.298	-0.179
-297.735	-79.716	-0.386	0.128
-296.720	-200.000	-0.012	-0.232
-295.705	-200.000	0.036	0.321
-294.691	159.864	0.101	0.139
-293.676	105.354	-0.096	0.112
-292.662	-200.000	-0.046	0.259
-291.647	-160.182	-0.193	0.010
-290.632	800.000	0.044	0.159
-289.618	41.030	0.062	0.055
-288.603	-200.000	-0.021	0.117
-287.589	-65.408	0.259	-0.103
-286.574	64.999	-0.065	-0.065
-285.559	-34.535	-0.197	-0.106
-284.545	800.000	0.049	0.142
-283.530	-94.158	0.123	0.033
-282.516	-200.000	-0.010	-0.086
-281.501	-63.148	-0.007	-0.003
-280.486	-200.000	0.001	-0.235
-279.472	-41.401	-0.414	-0.210
-278.457	293.550	-0.034	0.061
-277.443	-50.594	0.151	-0.070
-276.428	144.053	0.300	-0.395
-275.413	800.000	-0.136	0.496
-274.399	800.000	-0.110	0.312
-273.384	-106.589	-0.077	0.017
-272.370	-24.932	-0.163	0.095
-271.355	210.357	-0.175	0.271
-270.340	613.801	-0.099	0.244
-269.326	-122.566	0.326	-0.052
-268.311	5.113	-0.191	-0.139
-267.297	-90.864	-0.084	-0.024
-266.282	-127.905	-0.236	0.033
-265.267	-0.084	0.128	-0.090
-264.253	-34.253	-0.081	0.044
-263.238	-39.685	0.288	0.148
-262.224	-200.000	0.056	-0.311
-261.209	-96.189	0.247	-0.064
-260.195	-188.506	-0.080	-0.001
-259.180	157.754	0.254	0.347
-258.165	-32.154	-0.358	0.197
-257.151	800.000	0.070	0.205
-256.136	-183.772	0.325	-0.005
-255.122	-78.401	0.129	0.044
-254.107	800.000	-0.075	0.246
-253.092	167.042	0.059	-0.082
-252.078	-200.000	-0.002	0.027
-251.063	-165.740	0.296	-0.013
-250.049	123.079	-0.070	-0.086
-249.034	-136.589	-0.103	-0.012
-248.019	800.000	0.106	-0.289
-247.005	104.817	0.061	-0.071
-245.990	-54.134	-0.192	0.086
-244.976	-200.000	0.019	0.088
-243.961	86.138	0.085	0.092
-242.946	-200.000	-0.034	0.183
-241.932	-104.509	0.110	0.025
-240.917	-13.425	-0.090	-0.057
-239.903	-129.733	-0.185	-0.025
-238.888	-11.573	0.166	0.108
-237.873	229.372	0.117	0.189
-236.859	648.719	0.122	0.308
-235.844	79.715	0.140	0.147
-234.830	82.458	0.188	-0.201
-233.815	-10.346	-0.135	0.088
-232.800	327.852	0.100	0.188
-231.786	-200.000	-0.026	0.237
-230.771	-82.171	0.352	0.113
-229.757	297.903	-0.057	-0.102
-228.742	165.830	0.044	-0.061
-227.727	-79.914	0.111	0.037
-226.713	157.146	-0.153	0.208
-225.698	76.436	0.220	-0.229
-224.684	-99.101	0.104	0.026
-223.669	800.000	0.023	0.094
-222.655	-172.128	0.034	0.001
-221.640	-200.000	0.025	0.182
-220.625	-87.255	-0.070	-0.021
-219.611	22.686	-0.136	-0.110
-218.596	-41.152	0.137	0.070
-217.582	471.403	0.080	0.176
-216.567	40.134	-0.050	0.044
-215.552	-95.361	0.018	0.005
-214.538	-200.000	-0.005	0.106
-213.523	146.598	-0.109	-0.145
-212.509	-200.000	0.030	-0.281
-211.494	800.000	0.087	-0.297
-210.479	-52.312	0.090	-0.041
-209.465	1.824	0.330	-0.234
-208.450	-200.000	-0.024	0.176
-207.436	800.000	-0.061	0.218
-206.421	2.793	-0.132	-0.094
-205.406	186.650	0.148	-0.216
-204.392	-156.487	-0.109	-0.007
-203.377	168.900	0.169	-0.237
-202.363	-200.000	-0.056	0.438
-201.348	-119.801	-0.279	0.047
-200.333	800.000	0.112	-0.305
-199.319	27.826	0.121	-0.100
-198.304	148.235	-0.116	0.154
-197.290	-30.954	0.340	0.188
-196.275	-107.975	-0.092	-0.020
-195.260	-180.684	0.352	-0.007
-194.246	-144.404	-0.148	-0.013
-193.231	462.730	0.010	-0.022
-192.217	424.236	0.211	0.445
-191.202	-200.000	0.001	0.201
-190.187	115.079	0.220	-0.264
-189.173	-200.000	-0.078	0.710
-188.158	120.045	0.280	-0.341
-187.144	103.544	-0.058	-0.066
-186.129	-70.672	-0.297	0.110
-185.114	410.684	0.066	-0.138
-184.100	102.948	-0.078	0.090
-183.085	176.385	-0.051	-0.073
-182.071	-200.000	-0.032	0.315
-181.056	37.467	-0.043	0.037
-180.042	-171.145	0.203	0.007
-179.027	-108.796	0.317	0.067
-178.012	-51.601	0.117	-0.054
-176.998	40.909	-0.084	-0.075
-175.983	90.731	-0.030	0.033
-174.969	-200.000	-0.006	-0.070
-173.954	-200.000	-0.016	-0.226
-172.939	254.837	-0.042	0.070
-171.925	148.575	-0.176	-0.233
-170.910	-49.841	0.185	0.086
-169.896	39.524	-0.213	0.187
-168.881	168.504	-0.084	0.118
-167.866	715.664	-0.090	-0.233
-166.852	-45.096	0.393	0.192
-165.837	-200.000	-0.084	0.387
-164.823	-60.484	-0.268	-0.112
-163.808	800.000	0.033	-0.100
-162.793	7.758	-0.394	0.290
-161.779	800.000	0.118	-0.381
-160.764	-49.880	0.378	0.176
-159.750	-10.010	-0.161	0.105
-158.735	272.554	0.060	0.104
-157.720	-127.606	0.182	-0.026
-156.706	-26.541	-0.104	0.060
-155.691	800.000	-0.067	-0.186
-154.677	-200.000	0.018	-0.179
-153.662	-200.000	-0.080	0.357
-152.647	303.537	0.037	-0.067
-151.633	446.826	0.129	-0.278
-150.618	66.273	-0.255	0.254
-149.604	-200.000	-0.019	0.293
-148.589	40.699	-0.071	0.062
-147.574	338.221	0.145	-0.277
-146.560	95.680	-0.139	-0.156
-145.545	-115.674	-0.103	0.019
-144.531	111.074	-0.116	0.137
-143.516	-54.662	-0.069	0.031
-142.502	-175.335	0.201	0.005
-141.487	-200.000	-0.022	0.356
-140.472	106.199	0.169	0.196
-139.458	25.773	-0.234	0.191
-138.443	-128.404	-0.469	-0.065
-137.429	112.290	0.283	0.335
-136.414	415.111	-0.242	0.505
-135.399	-149.868	0.326	0.025
-134.385	-69.932	-0.237	-0.089
-133.370	-91.016	0.146	-0.041
-132.356	-169.104	0.064	-0.002
-131.341	154.630	0.271	0.365
-130.326	69.648	0.335	-0.338
-129.312	800.000	0.092	-0.317
-128.297	-82.849	0.183	-0.058
-127.283	-70.944	0.240	-0.089
-126.268	569.100	-0.147	-0.349
-125.253	157.846	-0.122	-0.166
-124.239	-65.456	-0.212	-0.084
-123.224	87.365	0.188	-0.204
-122.210	271.220	-0.164	-0.283
