DTS Sentinel unit serial number:	SN413079Multiplexer serial number:	ORYXHardware model number:	OX4-SRSoftware version number:	ORYX F/W v4.00 Oryx Data Collector v3.7.2.0data status	okinstallation	princeton_trtdifferential loss correction	single-endedforward channel	channel 1reverse channel	N/Adate	2019/09/15time	00:06:35forward acquisition time	60.00reverse acquisition time	0.00gamma	496.2192k internal	0.2320k external	0.2320temperature offset calibration	0.9992default loss term (dB/km)	0.3790temperature slope calibration	1.0000multiplexer offset coefficient	1.0000multiplexer slope coefficient	1.0000fibre end	0.00T internal ref (°C)	32.19T ext. ref 1 (°C)	4.57T ext. ref 2 (°C)	27.19length (m)	temperature (°C)	Stokes	anti-Stokes-747.200	513.831	0.044	-0.103
-746.185	784.018	0.062	0.171
-745.171	-200.000	0.015	-0.078
-744.156	800.000	0.099	0.300
-743.142	92.333	-0.292	-0.333
-742.127	54.169	0.141	0.137
-741.112	-200.000	-0.000	0.122
-740.098	307.325	-0.129	0.243
-739.083	118.306	0.015	0.019
-738.069	159.982	0.194	0.273
-737.054	-200.000	0.072	0.399
-736.039	-144.972	-0.436	-0.040
-735.025	397.581	-0.038	0.079
-734.010	688.756	-0.035	-0.094
-732.996	-141.477	-0.228	-0.023
-731.981	178.811	-0.117	-0.174
-730.966	141.385	-0.042	-0.056
-729.952	-200.000	-0.047	0.300
-728.937	588.201	0.080	0.200
-727.923	190.129	-0.112	-0.171
-726.908	-118.228	-0.284	-0.051
-725.894	-194.854	-0.359	-0.003
-724.879	433.506	0.121	0.265
-723.864	-200.000	0.007	-0.240
-722.850	800.000	-0.100	-0.301
-721.835	-89.197	0.137	-0.041
-720.821	800.000	0.071	-0.248
-719.806	-2.373	-0.101	-0.072
-718.791	-200.000	0.008	-0.065
-717.777	-200.000	-0.275	0.000
-716.762	-68.630	-0.363	0.142
-715.748	45.706	0.107	0.100
-714.733	-200.000	-0.002	0.049
-713.718	-25.440	-0.231	-0.138
-712.704	-24.867	-0.094	-0.056
-711.689	365.388	0.131	0.267
-710.675	140.784	0.047	0.063
-709.660	-10.013	0.035	-0.023
-708.645	4.423	0.082	-0.061
-707.631	48.280	-0.117	0.110
-706.616	-105.645	0.182	0.042
-705.602	6.901	0.199	0.150
-704.587	-98.369	0.293	-0.076
-703.572	-130.055	-0.199	0.027
-702.558	-200.000	0.010	-0.161
-701.543	-126.270	-0.194	0.029
-700.529	-157.494	-0.205	0.012
-699.514	292.852	0.043	-0.080
-698.499	41.415	-0.105	0.096
-697.485	-140.674	-0.456	-0.048
-696.470	252.398	0.212	0.364
-695.456	95.349	0.065	-0.075
-694.441	800.000	0.120	-0.344
-693.426	-100.208	-0.142	-0.036
-692.412	123.932	0.045	-0.056
-691.397	-200.000	-0.007	0.052
-690.383	295.939	0.019	-0.036
-689.368	-46.419	-0.374	-0.185
-688.354	267.721	0.051	0.090
-687.339	-200.000	-0.006	0.081
-686.324	-37.258	0.093	-0.050
-685.310	279.475	-0.169	-0.305
-684.295	-200.000	0.034	0.186
-683.281	9.720	0.249	-0.191
-682.266	-87.647	-0.179	-0.055
-681.251	-30.027	-0.181	0.104
-680.237	-200.000	0.024	0.305
-679.222	48.237	0.113	-0.107
-678.208	800.000	0.004	0.012
-677.193	197.665	-0.129	-0.198
-676.178	800.000	0.062	-0.238
-675.164	-200.000	0.024	-0.294
-674.149	-126.878	-0.110	-0.016
-673.135	-58.283	0.111	0.049
-672.120	-113.201	-0.343	0.068
-671.105	-144.252	0.175	0.016
-670.091	674.095	-0.091	0.237
-669.076	-72.778	-0.256	-0.095
-668.062	154.516	-0.070	-0.097
-667.047	-200.000	-0.015	0.100
-666.032	341.460	0.057	0.112
-665.018	-170.240	0.050	-0.002
-664.003	800.000	0.048	0.138
-662.989	117.519	-0.199	-0.247
-661.974	-200.000	-0.011	0.105
-660.959	163.933	-0.129	0.183
-659.945	-91.358	0.422	-0.122
-658.930	176.705	-0.226	0.331
-657.916	33.477	-0.212	0.186
-656.901	51.467	-0.298	-0.286
-655.886	-116.668	-0.346	-0.064
-654.872	-118.360	0.048	-0.009
-653.857	-200.000	-0.027	0.200
-652.843	800.000	0.021	0.067
-651.828	-88.494	-0.101	-0.030
-650.814	-23.415	0.264	-0.160
-649.799	-23.413	-0.080	-0.048
-648.784	-115.420	0.056	-0.011
-647.770	49.848	0.106	-0.101
-646.755	110.466	-0.115	0.139
-645.741	-200.000	-0.010	-0.103
-644.726	40.457	0.290	0.263
-643.711	-28.205	0.244	-0.142
-642.697	-41.855	0.262	-0.135
-641.682	-39.333	0.277	-0.146
-640.668	-33.488	-0.331	-0.184
-639.653	22.434	0.183	0.151
-638.638	-192.070	-0.183	-0.002
-637.624	-116.995	-0.252	0.046
-636.609	-200.000	-0.002	-0.109
-635.595	-93.343	0.161	-0.045
-634.580	-90.504	0.188	-0.055
-633.565	-17.626	-0.260	-0.165
-632.551	471.700	0.107	-0.243
-631.536	-83.461	0.211	-0.068
-630.522	150.359	0.036	-0.050
-629.507	800.000	0.101	-0.332
-628.492	391.279	-0.108	-0.225
-627.478	348.360	-0.122	0.242
-626.463	152.086	-0.072	0.099
-625.449	-79.578	0.109	0.037
-624.434	-80.714	-0.208	-0.070
-623.419	542.888	0.094	-0.226
-622.405	-143.148	0.119	0.012
-621.390	516.329	0.145	0.341
-620.376	404.381	0.085	0.180
-619.361	673.908	-0.046	-0.121
-618.346	-59.374	-0.274	0.119
-617.332	170.619	-0.224	-0.323
-616.317	503.741	0.110	0.257
-615.303	332.804	-0.092	-0.179
-614.288	129.752	0.091	-0.117
-613.273	-110.481	0.124	-0.026
-612.259	-1.417	-0.109	-0.077
-611.244	-41.567	-0.127	-0.066
-610.230	20.189	-0.162	-0.132
-609.215	228.778	-0.089	0.146
-608.201	-200.000	0.059	-0.275
-607.186	-200.000	-0.034	-0.301
-606.171	-200.000	-0.008	-0.060
-605.157	-200.000	0.012	0.185
-604.142	-200.000	-0.023	-0.234
-603.128	-103.098	0.232	0.055
-602.113	312.050	-0.184	-0.347
-601.098	-200.000	-0.047	-0.241
-600.084	163.771	-0.134	0.189
-599.069	-118.722	-0.154	-0.027
-598.055	-181.432	-0.219	0.004
-597.040	31.235	0.161	-0.139
-596.025	-43.528	0.278	0.141
-595.011	800.000	-0.084	0.305
-593.996	-49.317	-0.245	-0.118
-592.982	-200.000	0.022	-0.114
-591.967	-66.459	0.329	-0.131
-590.952	-101.383	0.384	-0.094
-589.938	123.273	-0.056	-0.070
-588.923	13.142	0.234	-0.182
-587.909	36.245	0.067	-0.060
-586.894	-22.518	-0.237	0.144
-585.879	-144.893	-0.225	0.021
-584.865	-145.436	-0.181	-0.016
-583.850	-74.328	0.216	0.078
-582.836	18.063	-0.179	-0.143
-581.821	700.351	0.084	0.221
-580.806	-135.524	-0.218	0.026
-579.792	-187.965	-0.068	-0.001
-578.777	-200.000	0.044	-0.207
-577.763	800.000	-0.023	-0.099
-576.748	235.466	-0.193	-0.320
-575.733	154.388	-0.036	0.050
-574.719	340.667	0.189	0.371
-573.704	-114.854	-0.229	-0.044
-572.690	508.074	0.079	0.184
-571.675	73.835	0.062	-0.065
-570.661	-91.254	-0.189	-0.054
-569.646	-145.749	-0.232	0.021
-568.631	-148.118	0.143	-0.012
-567.617	-150.863	-0.228	-0.017
-566.602	147.463	0.122	0.164
-565.588	-200.000	0.002	-0.099
-564.573	-200.000	-0.041	0.340
-563.558	-105.324	-0.271	0.062
-562.544	800.000	0.066	-0.249
-561.529	143.223	0.037	0.050
-560.515	515.824	0.152	-0.356
-559.500	-200.000	0.027	0.177
-558.485	26.977	0.269	0.227
-557.471	-200.000	-0.062	-0.330
-556.456	-200.000	-0.073	0.354
-555.442	-200.000	-0.028	0.133
-554.427	-93.117	-0.198	0.055
-553.412	-158.693	-0.459	-0.026
-552.398	800.000	0.009	0.032
-551.383	-13.219	0.152	0.099
-550.369	-87.411	-0.415	-0.126
-549.354	-26.621	-0.056	0.033
-548.339	-19.110	0.260	0.162
-547.325	-200.000	-0.046	0.339
-546.310	245.737	-0.265	-0.448
-545.296	-41.676	-0.275	0.141
-544.281	747.236	0.093	0.251
-543.266	-200.000	0.044	0.292
-542.252	416.753	0.087	-0.187
-541.237	42.192	-0.178	0.162
-540.223	-25.284	-0.125	0.074
-539.208	-200.000	-0.001	-0.151
-538.193	800.000	0.065	0.186
-537.179	231.734	-0.065	-0.106
-536.164	18.012	0.210	0.168
-535.150	800.000	0.117	-0.396
-534.135	38.556	0.083	-0.074
-533.121	-79.505	-0.249	0.084
-532.106	-124.786	0.339	0.053
-531.091	141.581	0.148	-0.197
-530.077	-56.033	0.359	0.161
-529.062	3.324	0.415	-0.303
-528.048	-111.598	-0.315	0.064
-527.033	-105.813	-0.098	0.022
-526.018	40.669	0.194	-0.176
-525.004	-110.599	0.158	-0.033
-523.989	207.102	-0.132	0.206
-522.975	-200.000	0.020	-0.186
-521.960	147.589	0.099	-0.134
-520.945	-43.364	0.188	0.095
-519.931	-109.120	-0.178	-0.038
-518.916	-136.802	-0.260	-0.030
-517.902	-111.293	0.333	-0.068
-516.887	-49.067	0.240	-0.115
-515.872	-200.000	0.003	-0.154
-514.858	-70.326	-0.094	-0.036
-513.843	-120.778	-0.115	-0.019
-512.829	49.169	0.191	-0.180
-511.814	-40.344	-0.122	-0.063
-510.799	-135.238	0.094	-0.011
-509.785	60.694	-0.070	0.069
-508.770	549.232	-0.062	-0.149
-507.756	782.781	-0.049	-0.135
-506.741	285.723	0.088	-0.159
-505.726	-53.941	0.149	-0.068
-504.712	30.777	-0.204	-0.175
-503.697	89.796	-0.141	0.158
-502.683	800.000	0.080	0.271
-501.668	-48.540	0.289	0.139
-500.653	11.073	-0.068	-0.052
-499.639	73.579	0.122	-0.128
-498.624	97.872	-0.068	-0.078
-497.610	11.141	0.090	0.069
-496.595	207.784	-0.087	-0.137
-495.581	-60.995	-0.042	0.018
-494.566	62.827	-0.139	0.139
-493.551	-141.696	0.348	-0.035
-492.537	-200.000	-0.006	-0.100
-491.522	-53.405	-0.351	-0.161
-490.508	-200.000	-0.090	-0.505
-489.493	441.887	0.035	0.076
-488.478	-200.000	0.089	-0.491
-487.464	-62.511	0.232	0.096
-486.449	-186.457	-0.082	-0.001
-485.435	800.000	0.037	0.130
-484.420	-88.793	0.222	-0.066
-483.405	34.249	-0.272	0.237
-482.391	64.873	0.045	-0.045
-481.376	124.187	0.143	-0.180
-480.362	-200.000	-0.003	-0.129
-479.347	-147.068	0.234	0.020
-478.332	-193.315	0.168	-0.001
-477.318	-113.902	-0.368	0.072
-476.303	-62.898	-0.124	-0.051
-475.289	1.719	-0.207	0.149
-474.274	800.000	-0.015	0.060
-473.259	139.570	0.228	0.300
-472.245	254.128	-0.200	0.342
-471.230	358.061	0.103	-0.205
-470.216	-123.450	-0.347	0.055
-469.201	513.291	-0.154	0.359
-468.186	-82.486	0.149	-0.049
-467.172	-114.850	-0.147	-0.028
-466.157	-76.892	-0.172	0.060
-465.143	-58.597	-0.178	0.077
-464.128	-200.000	0.010	-0.253
-463.113	800.000	0.057	-0.248
-462.099	800.000	-0.068	-0.247
-461.084	800.000	0.086	-0.327
-460.070	-79.470	0.077	0.026
-459.055	800.000	-0.088	-0.274
-458.040	-200.000	0.044	-0.479
-457.026	147.474	-0.125	-0.168
-456.011	-68.462	-0.401	-0.156
-454.997	17.782	0.144	-0.115
-453.982	-200.000	-0.007	-0.083
-452.968	-200.000	0.029	-0.161
-451.953	247.860	0.152	-0.256
-450.938	800.000	0.064	0.265
-449.924	-200.000	-0.008	-0.206
-448.909	-138.034	-0.358	-0.040
-447.895	-27.650	0.232	0.135
-446.880	800.000	0.044	-0.135
-445.865	264.199	0.044	-0.077
-444.851	-136.130	-0.271	0.032
-443.836	-200.000	-0.033	0.337
-442.822	-200.000	0.065	0.442
-441.807	191.664	0.007	-0.011
-440.792	358.534	-0.027	-0.054
-439.778	-75.904	-0.277	-0.098
-438.763	-118.488	-0.092	-0.016
-437.749	101.586	-0.080	0.093
-436.734	800.000	0.038	0.153
-435.719	124.694	0.091	-0.114
-434.705	249.281	0.114	-0.193
-433.690	-200.000	0.005	0.319
-432.676	626.586	-0.060	-0.152
-431.661	-71.605	0.266	-0.099
-430.646	793.772	-0.080	0.220
-429.632	-200.000	0.022	0.247
-428.617	-200.000	-0.001	0.462
-427.603	-200.000	0.040	0.181
-426.588	-29.892	0.340	0.193
-425.573	-129.245	0.220	-0.031
-424.559	750.621	-0.049	-0.131
-423.544	-109.234	-0.139	0.029
-422.530	466.800	0.076	-0.171
-421.515	-135.065	-0.341	0.041
-420.500	-200.000	0.042	0.212
-419.486	110.420	-0.045	0.054
-418.471	129.269	-0.064	-0.082
-417.457	264.156	0.087	-0.151
-416.442	576.651	-0.065	-0.158
-415.428	672.276	-0.091	-0.235
-414.413	274.073	-0.177	-0.312
-413.398	-130.420	-0.049	0.007
-412.384	3.731	-0.132	-0.096
-411.369	332.827	0.030	0.058
-410.355	218.493	-0.203	-0.324
-409.340	-200.000	-0.035	-0.173
-408.325	357.262	-0.089	-0.177
-407.311	-5.105	-0.246	0.169
-406.296	133.574	-0.028	-0.036
-405.282	-3.313	-0.062	0.043
-404.267	556.935	0.088	-0.212
-403.252	150.133	-0.270	0.365
-402.238	-200.000	-0.084	0.406
-401.223	474.496	0.116	0.261
-400.209	-61.740	0.153	-0.064
-399.194	124.810	-0.070	0.088
-398.179	-200.000	-0.008	0.087
-397.165	-200.000	-0.010	0.079
-396.150	260.404	0.104	0.180
-395.136	96.072	0.132	-0.150
-394.121	-172.014	-0.355	-0.011
-393.106	-107.621	0.340	-0.074
-392.092	66.370	0.146	-0.148
-391.077	-27.171	-0.128	0.074
-390.063	109.475	0.121	0.145
-389.048	-35.796	0.272	-0.147
-388.033	2.013	-0.322	0.232
-387.019	-200.000	-0.042	-0.471
-386.004	800.000	-0.068	-0.271
-384.990	399.804	-0.105	-0.219
-383.975	-74.399	0.345	-0.124
-382.960	554.071	-0.100	0.239
-381.946	322.964	0.040	-0.076
-380.931	-102.594	0.330	0.079
-379.917	-84.917	0.369	-0.116
-378.902	581.751	-0.089	0.217
-377.888	208.194	-0.014	0.021
-376.873	67.937	-0.248	0.253
-375.858	240.194	-0.112	-0.186
-374.844	182.560	0.180	-0.264
-373.829	-200.000	-0.010	0.112
-372.815	-116.645	-0.259	-0.048
-371.800	-133.286	-0.104	0.013
-370.785	800.000	-0.047	0.135
-369.771	90.494	-0.149	0.166
-368.756	44.288	-0.188	0.172
-367.742	-67.399	0.210	0.082
-366.727	7.648	0.377	-0.281
-365.712	33.220	0.237	0.205
-364.698	-136.731	-0.323	0.037
-363.683	207.831	0.095	0.147
-362.669	800.000	-0.046	0.171
-361.654	255.765	0.157	0.268
-360.639	716.438	0.074	-0.197
-359.625	573.366	-0.113	0.275
-358.610	15.717	0.236	0.185
-357.596	65.077	-0.191	-0.192
-356.581	53.501	0.202	0.193
-355.566	-140.539	-0.143	0.015
-354.552	577.519	-0.090	-0.219
-353.537	189.431	0.078	-0.117
-352.523	800.000	0.048	0.173
-351.508	-104.807	0.345	-0.079
-350.493	-176.376	0.023	0.001
-349.479	-200.000	-0.019	-0.140
-348.464	-200.000	0.026	-0.278
-347.450	-38.553	0.177	-0.093
-346.435	72.275	-0.031	-0.032
-345.420	-118.133	-0.080	0.014
-344.406	-58.061	-0.289	-0.125
-343.391	-17.952	-0.342	-0.213
-342.377	-156.472	0.220	0.014
-341.362	228.142	0.116	-0.188
-340.348	-38.373	0.042	-0.022
-339.333	-59.082	-0.377	-0.162
-338.318	26.453	-0.124	0.103
-337.304	264.845	-0.078	0.136
-336.289	125.173	0.276	0.347
-335.275	226.160	0.097	0.157
-334.260	10.228	-0.120	0.091
-333.245	-63.244	-0.054	-0.022
-332.231	746.784	-0.108	0.290
-331.216	-124.028	0.091	0.014
-330.202	269.895	-0.055	0.095
-329.187	6.542	-0.216	0.160
-328.172	-200.000	-0.022	-0.099
-327.158	-200.000	0.051	0.230
-326.143	650.358	-0.055	-0.139
-325.129	-1.724	0.236	-0.166
-324.114	86.591	0.220	-0.241
-323.099	800.000	0.046	-0.182
-322.085	-2.889	0.170	-0.118
-321.070	-29.630	-0.157	-0.089
-320.056	-200.000	-0.027	-0.293
-319.041	467.704	0.018	-0.039
-318.026	-122.969	0.462	-0.074
-317.012	800.000	0.131	0.521
-315.997	-95.387	0.147	0.039
-314.983	0.077	0.242	-0.172
-313.968	-70.610	-0.312	-0.117
-312.953	-90.436	-0.168	-0.048
-311.939	-115.679	0.138	-0.026
-310.924	648.107	-0.078	0.199
-309.910	-41.910	0.329	0.168
-308.895	-126.481	-0.161	-0.024
-307.880	148.629	0.175	0.235
-306.866	176.194	-0.163	0.235
-305.851	97.250	-0.081	0.092
-304.837	-24.276	0.264	0.157
-303.822	-89.085	-0.223	-0.065
-302.807	-200.000	0.019	-0.121
-301.793	-125.391	-0.191	0.029
-300.778	132.356	-0.174	-0.223
-299.764	800.000	0.018	-0.060
-298.749	155.532	-0.093	-0.127
-297.735	-200.000	0.033	0.448
-296.720	800.000	-0.093	0.303
-295.705	225.942	-0.062	-0.099
-294.691	46.084	0.123	0.113
-293.676	120.434	-0.134	0.166
-292.662	25.314	-0.323	-0.267
-291.647	346.355	0.151	-0.295
-290.632	-41.220	-0.350	-0.179
-289.618	-11.461	0.032	0.021
-288.603	417.426	-0.103	-0.218
-287.589	-93.615	0.233	-0.064
-286.574	632.065	-0.055	0.137
-285.559	154.436	0.205	0.280
-284.545	-200.000	0.005	0.125
-283.530	800.000	-0.069	-0.257
-282.516	-49.338	0.164	0.078
-281.501	-103.499	0.100	0.023
-280.486	124.945	0.128	0.160
-279.472	-9.392	-0.174	-0.115
-278.457	-60.701	-0.270	-0.114
-277.443	-124.408	-0.198	0.031
-276.428	-11.149	-0.286	-0.187
-275.413	399.556	0.049	0.102
-274.399	40.702	0.048	-0.043
-273.384	-192.285	0.315	-0.003
-272.370	-67.242	-0.261	0.102
-271.355	168.662	0.200	0.283
-270.340	-46.735	0.247	0.120
-269.326	240.240	-0.095	-0.158
-268.311	500.300	0.105	-0.241
-267.297	-200.000	-0.054	0.311
-266.282	34.198	0.190	0.164
-265.267	800.000	-0.014	-0.041
-264.253	-200.000	-0.030	0.418
-263.238	67.932	0.150	0.152
-262.224	-200.000	-0.035	-0.183
-261.209	-64.303	0.196	0.079
-260.195	-123.757	-0.039	0.006
-259.180	31.052	0.051	-0.043
-258.165	13.809	-0.245	0.189
-257.151	171.320	-0.147	-0.210
-256.136	-154.378	0.420	0.028
-255.122	-200.000	0.040	0.219
-254.107	23.041	0.145	-0.118
-253.092	114.457	-0.285	0.344
-252.078	475.299	-0.043	0.097
-251.063	31.766	0.122	-0.104
-250.049	-65.689	-0.420	0.167
-249.034	-200.000	0.012	-0.111
-248.019	800.000	-0.060	0.192
-247.005	-71.068	0.142	-0.053
-245.990	71.683	0.125	0.129
-244.976	-19.013	0.059	0.036
-243.961	-108.983	-0.404	-0.085
-242.946	-200.000	0.054	0.421
-241.932	156.634	0.092	0.126
-240.917	-183.802	0.105	-0.002
-239.903	800.000	0.038	0.123
-238.888	-200.000	-0.012	0.129
-237.873	800.000	0.136	0.419
-236.859	-39.283	-0.093	-0.048
-235.844	22.528	-0.241	-0.195
-234.830	52.867	0.125	0.118
-233.815	40.847	0.176	0.157
-232.800	-54.505	0.225	-0.101
-231.786	342.785	0.231	0.447
-230.771	-14.917	-0.040	0.026
-229.757	219.395	-0.123	0.196
-228.742	-93.496	0.219	0.060
-227.727	532.675	0.105	-0.246
-226.713	-81.655	-0.182	-0.059
-225.698	360.652	0.153	-0.304
-224.684	-149.540	0.144	-0.011
-223.669	800.000	0.046	-0.179
-222.655	271.824	0.114	0.199
-221.640	220.353	0.166	-0.263
-220.625	-104.712	-0.162	-0.037
-219.611	-200.000	0.033	0.206
-218.596	131.337	-0.102	0.130
-217.582	-65.027	0.204	-0.082
-216.567	46.774	-0.043	-0.040
-215.552	-54.249	-0.200	-0.090
-214.538	97.301	0.053	-0.061
-213.523	325.622	-0.091	0.172
-212.509	-58.462	-0.178	0.076
-211.494	-32.358	0.223	-0.123
-210.479	-20.532	0.259	-0.158
-209.465	44.927	-0.129	-0.118
-208.450	201.412	0.126	-0.192
-207.436	-80.420	0.093	-0.031
-206.421	77.819	0.148	-0.156
-205.406	-191.054	0.581	-0.006
-204.392	-55.934	-0.407	0.180
-203.377	465.548	0.056	0.124
-202.363	-69.340	0.414	-0.157
-201.348	-200.000	0.050	0.223
-200.333	-57.219	-0.227	-0.099
-199.319	133.374	-0.077	0.099
-198.304	800.000	0.045	-0.173
-197.290	-112.834	-0.309	0.061
-196.275	-200.000	-0.074	0.348
-195.260	-128.010	0.252	0.036
-194.246	388.366	-0.125	0.256
-193.231	197.912	-0.087	0.132
-192.217	-49.374	0.330	0.156
-191.202	135.741	0.038	0.050
-190.187	-32.981	-0.194	-0.106
-189.173	541.929	-0.137	0.323
-188.158	-40.320	-0.181	-0.093
-187.144	78.070	-0.167	-0.176
-186.129	-77.388	0.064	0.022
-185.114	-143.833	-0.026	-0.002
-184.100	-1.380	0.223	0.156
-183.085	800.000	-0.032	0.095
-182.071	86.303	0.085	0.092
-181.056	-14.761	-0.089	0.057
-180.042	119.186	0.154	0.189
-179.027	432.615	-0.095	0.203
-178.012	-19.824	-0.201	-0.123
-176.998	-67.695	-0.234	-0.091
-175.983	510.381	0.148	0.340
-174.969	-16.570	-0.149	-0.094
-173.954	-50.222	-0.167	0.078
-172.939	59.164	0.200	-0.195
-171.925	-9.416	0.354	0.234
-170.910	800.000	-0.047	-0.177
-169.896	-64.016	0.028	0.011
-168.881	-200.000	-0.012	0.055
-167.866	-56.805	-0.215	0.094
-166.852	372.344	0.075	-0.150
-165.837	159.426	-0.117	0.161
-164.823	322.378	0.154	-0.290
-163.808	-36.072	-0.211	0.113
-162.793	-76.539	-0.144	0.050
-161.779	800.000	0.109	0.337
-160.764	-4.231	0.196	-0.134
-159.750	123.106	-0.087	0.107
-158.735	-200.000	0.032	-0.240
-157.720	-200.000	-0.052	-0.256
-156.706	416.842	-0.091	-0.192
-155.691	-72.916	0.481	0.175
-154.677	51.506	-0.242	0.227
-153.662	-98.809	0.277	0.070
-152.647	-200.000	0.144	-0.000
-151.633	-140.832	-0.258	0.026
-150.618	706.170	0.035	-0.092
-149.604	197.825	0.185	0.280
-148.589	67.365	-0.370	-0.373
-147.574	-88.967	-0.377	0.110
-146.560	147.941	0.151	-0.201
-145.545	-141.815	0.247	-0.024
-144.531	800.000	0.033	0.101
-143.516	420.080	0.047	0.099
-142.502	-53.953	-0.177	0.080
-141.487	-174.480	-0.021	0.001
-140.472	-53.143	0.119	0.054
-139.458	-139.622	0.405	-0.043
-138.443	-130.491	-0.094	-0.013
-137.429	225.018	0.087	-0.139
-136.414	800.000	0.046	-0.184
-135.399	-142.973	0.039	-0.004
-134.385	-200.000	-0.017	0.202
-133.370	10.100	-0.222	0.167
-132.356	-126.723	0.500	0.073
-131.341	39.884	0.045	0.040
-130.326	800.000	-0.012	0.041
-129.312	552.053	-0.081	-0.191
-128.297	-23.851	0.061	0.036
-127.283	-181.045	0.203	0.004
-126.268	182.902	0.137	-0.200
-125.253	-107.865	0.312	-0.067
-124.239	-12.857	0.089	0.057
-123.224	48.056	0.095	0.088
-122.210	-200.000	-0.008	0.138
