DTS Sentinel unit serial number:	SN413079Multiplexer serial number:	ORYXHardware model number:	OX4-SRSoftware version number:	ORYX F/W v4.00 Oryx Data Collector v3.7.2.0data status	okinstallation	princeton_trtdifferential loss correction	single-endedforward channel	channel 1reverse channel	N/Adate	2019/09/13time	15:10:35forward acquisition time	60.00reverse acquisition time	0.00gamma	496.2192k internal	0.2302k external	0.2302temperature offset calibration	1.0158default loss term (dB/km)	0.3790temperature slope calibration	1.0000multiplexer offset coefficient	1.0000multiplexer slope coefficient	1.0000fibre end	0.00T internal ref (°C)	35.61T ext. ref 1 (°C)	4.72T ext. ref 2 (°C)	30.80length (m)	temperature (°C)	Stokes	anti-Stokes-747.200	-9.037	-0.034	-0.024
-746.185	-200.000	0.041	0.240
-745.171	708.767	-0.032	0.086
-744.156	-200.000	-0.018	0.120
-743.142	347.808	-0.111	-0.222
-742.127	-200.000	0.008	0.088
-741.112	-30.654	-0.151	0.087
-740.098	22.896	-0.053	0.044
-739.083	159.159	0.170	-0.241
-738.069	719.523	-0.100	0.272
-737.054	26.472	0.164	0.139
-736.039	-8.237	0.168	-0.115
-735.025	800.000	-0.048	0.206
-734.010	-7.225	-0.281	-0.194
-732.996	-73.950	-0.216	0.080
-731.981	90.701	-0.117	-0.133
-730.966	87.289	-0.380	-0.428
-729.952	252.903	-0.160	-0.278
-728.937	-200.000	-0.239	0.000
-727.923	-200.000	0.058	0.349
-726.908	800.000	-0.047	-0.155
-725.894	-40.963	-0.194	-0.102
-724.879	92.150	0.231	0.265
-723.864	139.672	-0.164	-0.220
-722.850	-129.523	-0.257	0.036
-721.835	-55.427	0.164	-0.075
-720.821	64.374	-0.309	-0.317
-719.806	800.000	0.064	-0.196
-718.791	-135.412	-0.172	0.021
-717.777	9.827	0.235	0.181
-716.762	79.605	-0.066	0.072
-715.748	-200.000	0.064	-0.356
-714.733	-38.318	-0.262	0.141
-713.718	-82.758	0.205	0.067
-712.704	-200.000	-0.040	-0.269
-711.689	186.627	-0.207	0.313
-710.675	-55.646	-0.262	-0.119
-709.660	758.577	-0.088	-0.243
-708.645	800.000	-0.151	-0.435
-707.631	-46.409	-0.315	0.157
-706.616	-111.496	-0.364	0.075
-705.602	100.386	0.050	0.059
-704.587	-122.713	-0.305	-0.050
-703.572	-200.000	-0.017	-0.107
-702.558	-18.316	-0.422	-0.269
-701.543	118.981	-0.107	-0.135
-700.529	400.176	0.081	0.174
-699.514	268.875	0.126	-0.225
-698.499	612.305	-0.074	-0.188
-697.485	-200.000	-0.014	0.236
-696.470	-27.253	-0.359	0.212
-695.456	-121.498	0.162	0.027
-694.441	800.000	0.049	-0.144
-693.426	166.702	-0.172	-0.249
-692.412	203.620	-0.251	-0.394
-691.397	-200.000	-0.056	-0.366
-690.383	-200.000	0.051	-0.238
-689.368	-70.554	-0.129	-0.050
-688.354	30.555	-0.174	-0.151
-687.339	-200.000	0.010	0.098
-686.324	19.646	-0.045	0.037
-685.310	-26.205	-0.289	0.173
-684.295	-200.000	-0.021	-0.152
-683.281	-190.008	-0.079	-0.001
-682.266	210.548	0.143	-0.228
-681.251	228.111	0.106	0.175
-680.237	-200.000	0.004	-0.023
-679.222	-52.060	0.486	0.229
-678.208	-200.000	-0.042	0.352
-677.193	-18.290	-0.200	0.127
-676.178	226.866	-0.110	0.182
-675.164	-60.688	-0.147	0.063
-674.149	396.552	0.103	-0.218
-673.135	-81.192	0.223	0.075
-672.120	-200.000	-0.007	-0.086
-671.105	800.000	0.054	-0.174
-670.091	-53.522	-0.415	-0.193
-669.076	-16.412	0.235	-0.152
-668.062	-200.000	0.051	0.413
-667.047	-200.000	0.022	-0.164
-666.032	-57.601	-0.439	-0.195
-665.018	149.868	0.195	0.268
-664.003	-7.971	-0.294	-0.201
-662.989	39.906	-0.244	-0.223
-661.974	-200.000	0.077	-0.415
-660.959	-145.105	0.092	-0.008
-659.945	-110.213	-0.108	0.023
-658.930	-111.691	-0.103	-0.021
-657.916	-45.896	-0.228	0.114
-656.901	-200.000	0.044	-0.230
-655.886	-200.000	-0.034	0.198
-654.872	292.919	0.071	-0.132
-653.857	-88.603	-0.155	-0.047
-652.843	156.956	-0.110	-0.155
-651.828	-53.159	-0.282	-0.132
-650.814	15.961	-0.183	0.146
-649.799	31.726	0.193	-0.169
-648.784	448.077	0.138	-0.309
-647.770	-92.926	-0.024	0.007
-646.755	-36.446	-0.271	-0.148
-645.741	-144.084	-0.094	-0.009
-644.726	800.000	0.047	0.201
-643.711	-111.618	0.142	0.029
-642.697	63.046	0.116	0.117
-641.682	198.882	0.110	0.172
-640.668	-65.685	-0.145	0.059
-639.653	327.997	0.079	0.155
-638.638	77.864	-0.185	0.201
-637.624	-34.486	-0.148	0.082
-636.609	800.000	-0.067	0.282
-635.595	294.164	-0.077	0.143
-634.580	-200.000	0.115	-0.000
-633.565	146.815	-0.139	-0.190
-632.551	-200.000	-0.013	0.107
-631.536	800.000	-0.043	-0.159
-630.522	-200.000	-0.102	-0.493
-629.507	-12.803	-0.186	0.123
-628.492	384.181	-0.024	-0.050
-627.478	-200.000	-0.004	-0.241
-626.463	-49.211	0.305	-0.148
-625.449	38.949	0.289	0.262
-624.434	-200.000	0.047	0.339
-623.419	-200.000	0.049	-0.224
-622.405	4.772	-0.240	-0.179
-621.390	-175.444	-0.206	-0.006
-620.376	-167.846	0.223	0.009
-619.361	141.362	-0.080	-0.108
-618.346	-46.799	0.076	-0.038
-617.332	-50.675	-0.482	0.230
-616.317	-34.311	0.399	-0.222
-615.303	-54.959	0.094	0.043
-614.288	-109.382	0.263	0.056
-613.273	-16.980	-0.144	0.092
-612.259	636.340	-0.145	-0.373
-611.244	239.392	0.082	-0.138
-610.230	410.739	-0.164	-0.354
-609.215	104.793	0.056	0.067
-608.201	-200.000	-0.025	0.125
-607.186	-119.206	0.213	0.038
-606.171	-77.487	0.403	-0.142
-605.157	431.891	0.056	-0.122
-604.142	-200.000	0.013	-0.368
-603.128	-74.031	-0.223	0.082
-602.113	42.680	-0.147	-0.136
-601.098	800.000	0.094	-0.350
-600.084	-110.622	-0.335	-0.070
-599.069	53.040	0.085	-0.082
-598.055	720.222	-0.065	-0.176
-597.040	-200.000	0.016	-0.091
-596.025	-46.055	-0.077	-0.038
-595.011	35.750	-0.153	0.136
-593.996	686.086	0.046	0.121
-592.982	696.222	0.138	-0.367
-591.967	193.526	-0.218	0.335
-590.952	-91.875	0.292	0.084
-589.938	73.614	-0.151	-0.160
-588.923	-25.595	0.401	-0.240
-587.909	-106.156	-0.098	0.022
-586.894	-107.540	-0.301	0.067
-585.879	331.080	0.032	0.062
-584.865	-200.000	0.017	0.120
-583.850	800.000	0.031	-0.129
-582.836	800.000	-0.066	-0.209
-581.821	-135.376	-0.146	-0.018
-580.806	-91.454	-0.246	-0.071
-579.792	-58.559	-0.152	0.067
-578.777	-200.000	0.083	0.416
-577.763	177.658	-0.178	0.263
-576.748	-200.000	-0.101	-0.453
-575.733	800.000	0.028	-0.110
-574.719	396.352	-0.082	-0.173
-573.704	-200.000	-0.005	-0.106
-572.690	67.348	0.244	0.252
-571.675	-200.000	0.052	0.484
-570.661	-6.921	0.076	0.052
-569.646	800.000	0.043	-0.154
-568.631	27.268	-0.205	0.174
-567.617	-10.574	0.126	0.085
-566.602	-60.046	0.132	0.057
-565.588	-29.298	0.240	-0.139
-564.573	800.000	-0.043	0.152
-563.558	52.569	-0.233	0.225
-562.544	800.000	0.025	0.111
-561.529	5.266	0.286	0.213
-560.515	123.496	-0.220	-0.280
-559.500	-200.000	-0.019	0.163
-558.485	104.374	0.280	-0.334
-557.471	-200.000	0.006	0.319
-556.456	-25.742	-0.268	0.160
-555.442	-37.949	-0.177	-0.095
-554.427	-156.819	-0.328	-0.020
-553.412	-106.582	0.193	0.043
-552.398	-198.924	0.307	-0.002
-551.383	-200.000	0.037	0.316
-550.369	19.129	-0.265	-0.215
-549.354	-121.360	0.148	-0.025
-548.339	66.429	0.025	-0.026
-547.325	-176.807	0.070	-0.002
-546.310	29.013	-0.193	-0.166
-545.296	407.978	-0.241	-0.515
-544.281	-200.000	0.048	-0.259
-543.266	7.210	-0.189	-0.143
-542.252	-80.110	-0.054	-0.018
-541.237	17.818	0.154	0.124
-540.223	114.531	0.207	0.255
-539.208	99.363	0.123	-0.144
-538.193	-39.998	-0.244	-0.129
-537.179	67.647	-0.127	0.132
-536.164	-139.101	0.217	0.024
-535.150	62.689	0.209	-0.212
-534.135	-160.666	0.159	0.009
-533.121	259.834	0.076	-0.133
-532.106	-69.218	-0.045	-0.017
-531.091	51.867	0.094	0.091
-530.077	-33.307	-0.275	0.154
-529.062	741.122	0.130	0.353
-528.048	-200.000	0.018	-0.114
-527.033	634.830	0.019	0.049
-526.018	-31.700	-0.287	0.162
-525.004	-93.833	0.243	0.068
-523.989	-51.308	-0.066	-0.031
-522.975	-85.937	0.231	-0.072
-521.960	549.150	-0.053	-0.128
-520.945	-200.000	-0.021	-0.274
-519.931	125.153	-0.032	0.040
-518.916	-173.549	-0.274	-0.008
-517.902	-200.000	0.000	-0.250
-516.887	-82.356	-0.340	-0.112
-515.872	215.379	0.143	-0.229
-514.858	169.170	0.125	0.181
-513.843	430.972	0.021	0.047
-512.829	-66.385	-0.301	-0.121
-511.814	-41.636	-0.278	-0.144
-510.799	475.327	-0.047	-0.108
-509.785	-146.874	-0.296	0.026
-508.770	238.895	0.129	0.217
-507.756	23.016	-0.102	0.084
-506.741	9.828	0.148	-0.114
-505.726	-200.000	-0.000	0.145
-504.712	800.000	-0.107	0.303
-503.697	-200.000	-0.026	-0.156
-502.683	4.038	-0.184	0.136
-501.668	-26.245	0.311	-0.184
-500.653	-44.180	-0.084	-0.043
-499.639	-128.438	-0.273	0.039
-498.624	-161.154	0.186	0.010
-497.610	-200.000	0.025	0.478
-496.595	800.000	-0.047	0.202
-495.581	-56.376	0.084	0.038
-494.566	159.743	-0.074	-0.104
-493.551	-102.049	-0.269	0.065
-492.537	-200.000	0.021	0.197
-491.522	477.018	0.026	0.060
-490.508	247.010	-0.173	-0.294
-489.493	-54.724	0.052	-0.024
-488.478	-83.554	0.218	-0.070
-487.464	-60.783	0.114	-0.049
-486.449	323.564	0.143	-0.276
-485.435	-88.633	-0.281	-0.084
-484.420	-200.000	0.009	-0.077
-483.405	-173.793	-0.121	-0.004
-482.391	-24.409	0.283	-0.170
-481.376	92.555	0.024	-0.028
-480.362	-23.809	-0.163	0.098
-479.347	-84.336	-0.225	0.072
-478.332	-137.995	-0.018	0.002
-477.318	27.483	0.202	-0.172
-476.303	142.524	-0.053	0.071
-475.289	-127.621	0.137	-0.020
-474.274	-200.000	-0.027	-0.122
-473.259	-200.000	-0.018	-0.197
-472.245	72.514	-0.064	-0.067
-471.230	-29.504	-0.160	-0.092
-470.216	-57.686	-0.263	0.116
-469.201	-200.000	0.029	0.495
-468.186	-200.000	0.008	0.145
-467.172	-36.881	0.144	0.078
-466.157	-54.678	0.179	-0.082
-465.143	607.499	0.097	0.245
-464.128	-200.000	0.047	0.258
-463.113	-13.159	0.118	-0.077
-462.099	-0.904	-0.150	-0.107
-461.084	-200.000	0.005	-0.110
-460.070	164.008	0.177	0.251
-459.055	578.336	-0.048	0.117
-458.040	108.029	0.279	-0.335
-457.026	-75.188	0.175	-0.063
-456.011	-200.000	-0.004	-0.033
-454.997	-98.980	0.410	-0.105
-453.982	427.454	0.037	-0.079
-452.968	119.650	0.037	-0.046
-451.953	-23.239	-0.166	0.100
-450.938	766.547	-0.029	0.078
-449.924	276.620	0.105	-0.187
-448.909	800.000	-0.088	-0.386
-447.895	-8.766	0.081	0.055
-446.880	283.739	-0.157	0.285
-445.865	-33.328	0.191	-0.107
-444.851	-146.510	0.209	0.018
-443.836	-23.603	-0.043	0.026
-442.822	-142.338	-0.278	-0.028
-441.807	-65.726	-0.136	-0.055
-440.792	-84.786	-0.517	0.164
-439.778	158.343	-0.209	-0.292
-438.763	-200.000	0.035	-0.235
-437.749	-200.000	0.038	-0.283
-436.734	15.831	-0.053	-0.042
-435.719	-116.721	-0.386	-0.071
-434.705	323.654	0.050	0.097
-433.690	-30.816	-0.209	0.119
-432.676	-200.000	0.003	0.292
-431.661	800.000	0.030	-0.103
-430.646	157.835	-0.247	-0.344
-429.632	7.792	0.224	0.169
-428.617	-140.039	-0.462	0.049
-427.603	58.412	-0.070	0.069
-426.588	787.809	0.113	0.312
-425.573	-43.144	-0.220	-0.112
-424.559	-113.276	0.239	0.047
-423.544	-128.552	0.544	0.078
-422.530	299.426	0.079	0.146
-421.515	-164.753	-0.072	0.003
-420.500	-200.000	0.018	-0.110
-419.486	800.000	-0.045	0.126
-418.471	345.756	0.157	0.310
-417.457	-132.231	0.190	-0.025
-416.442	25.208	-0.198	-0.166
-415.428	-75.572	-0.205	0.073
-414.413	377.300	0.035	0.072
-413.398	668.221	-0.062	-0.160
-412.384	-74.272	-0.169	0.061
-411.369	-181.093	-0.044	0.001
-410.355	613.814	0.009	0.024
-409.340	373.423	0.032	-0.066
-408.325	7.628	-0.203	0.153
-407.311	22.147	-0.239	-0.196
-406.296	-58.512	-0.117	0.051
-405.282	-129.976	-0.055	0.008
-404.267	-155.256	0.241	-0.016
-403.252	-81.577	0.314	0.104
-402.238	-200.000	0.042	-0.222
-401.223	597.784	-0.105	-0.262
-400.209	-129.923	-0.292	0.040
-399.194	-200.000	0.052	-0.458
-398.179	-200.000	-0.034	-0.376
-397.165	-200.000	0.054	-0.314
-396.150	-200.000	-0.002	-0.231
-395.136	-71.107	-0.311	-0.117
-394.121	-100.048	-0.196	0.049
-393.106	800.000	-0.170	0.472
-392.092	-200.000	0.012	-0.059
-391.077	-68.410	-0.055	0.021
-390.063	-60.151	-0.149	0.064
-389.048	-94.229	0.069	-0.019
-388.033	140.611	0.117	-0.156
-387.019	-56.072	0.429	0.192
-386.004	411.516	-0.108	-0.231
-384.990	26.666	0.259	-0.218
-383.975	-196.599	-0.318	-0.002
-382.960	800.000	-0.029	-0.089
-381.946	-200.000	0.025	0.179
-380.931	381.268	0.012	-0.024
-379.917	-129.302	0.137	0.019
-378.902	87.318	0.211	0.234
-377.888	-100.356	0.125	-0.031
-376.873	395.388	-0.176	-0.370
-375.858	593.687	-0.031	0.077
-374.844	250.465	0.109	-0.186
-373.829	-120.748	0.159	-0.027
-372.815	117.207	0.208	0.257
-371.800	-200.000	-0.019	0.175
-370.785	-200.000	-0.012	0.071
-369.771	-42.172	-0.297	-0.153
-368.756	-200.000	0.010	-0.113
-367.742	800.000	-0.062	-0.218
-366.727	800.000	0.066	0.196
-365.712	-200.000	-0.050	0.236
-364.698	-176.003	-0.318	-0.008
-363.683	115.135	-0.336	-0.412
-362.669	34.158	0.126	-0.110
-361.654	173.154	0.291	0.421
-360.639	-200.000	-0.023	0.239
-359.625	700.084	0.030	0.079
-358.610	-13.022	0.084	0.055
-357.596	477.175	0.093	0.212
-356.581	57.818	0.148	-0.146
-355.566	-200.000	0.005	-0.035
-354.552	117.456	-0.227	-0.280
-353.537	-179.336	0.325	0.007
-352.523	800.000	-0.036	-0.115
-351.508	-77.287	0.223	0.078
-350.493	10.439	0.107	-0.082
-349.479	-8.366	0.065	-0.044
-348.464	138.658	0.189	-0.249
-347.450	-32.108	-0.101	0.056
-346.435	91.201	-0.336	0.379
-345.420	-200.000	0.013	0.208
-344.406	-200.000	0.037	0.332
-343.391	-73.083	0.254	0.093
-342.377	-200.000	-0.044	0.416
-341.362	-37.786	0.178	-0.095
-340.348	800.000	-0.087	-0.246
-339.333	-12.168	-0.465	-0.305
-338.318	-29.142	0.145	-0.084
-337.304	-122.944	0.460	-0.074
-336.289	-104.975	-0.133	0.031
-335.275	359.387	0.086	0.173
-334.260	-18.975	-0.158	-0.099
-333.245	-200.000	0.051	0.519
-332.231	232.187	0.065	-0.106
-331.216	88.011	0.086	-0.095
-330.202	-150.213	0.134	-0.010
-329.187	-131.524	-0.151	-0.020
-328.172	-77.603	0.258	0.089
-327.158	-47.281	0.150	-0.073
-326.143	220.628	0.099	-0.159
-325.129	-13.271	0.096	0.063
-324.114	-200.000	0.042	-0.290
-323.099	-10.205	0.071	0.048
-322.085	87.572	0.065	-0.072
-321.070	-117.258	0.132	-0.024
-320.056	695.327	-0.043	0.114
-319.041	379.982	0.058	0.118
-318.026	113.701	-0.115	-0.140
-317.012	186.661	-0.164	-0.245
-315.997	-34.698	-0.249	0.136
-314.983	-200.000	0.015	0.309
-313.968	-128.999	-0.127	0.018
-312.953	465.773	0.155	-0.348
-311.939	168.456	-0.051	-0.073
-310.924	-88.446	0.208	-0.062
-309.910	193.387	0.114	0.172
-308.895	-0.773	-0.167	-0.118
-307.880	97.646	-0.415	0.477
-306.866	-88.882	-0.189	0.056
-305.851	111.603	-0.164	0.199
-304.837	53.625	0.074	-0.071
-303.822	-200.000	0.025	-0.134
-302.807	-75.673	-0.366	0.130
-301.793	38.513	0.212	0.190
-300.778	509.416	0.102	-0.237
-299.764	-200.000	-0.023	-0.106
-298.749	63.306	-0.159	0.160
-297.735	-103.874	-0.269	-0.063
-296.720	-5.614	0.249	0.171
-295.705	13.027	-0.203	-0.158
-294.691	111.834	-0.115	-0.139
-293.676	54.103	-0.152	-0.146
-292.662	-58.031	0.094	0.041
-291.647	198.494	-0.194	0.297
-290.632	800.000	-0.045	-0.147
-289.618	-8.562	-0.221	-0.148
-288.603	-124.446	0.179	-0.028
-287.589	-57.442	0.182	0.080
-286.574	-76.571	0.167	0.059
-285.559	27.679	-0.199	0.168
-284.545	-66.882	-0.052	0.021
-283.530	170.334	0.125	-0.179
-282.516	283.189	-0.147	0.264
-281.501	-25.473	0.270	0.160
-280.486	32.702	-0.048	0.042
-279.472	31.757	-0.073	0.063
-278.457	445.498	0.126	0.277
-277.443	-200.000	-0.010	0.099
-276.428	-141.413	0.050	-0.005
-275.413	16.244	0.106	0.084
-274.399	-45.728	0.463	-0.229
-273.384	-67.978	0.248	0.097
-272.370	-89.063	-0.189	-0.056
-271.355	-104.358	-0.280	-0.065
-270.340	-177.800	-0.323	-0.008
-269.326	499.486	0.124	0.286
-268.311	-131.367	0.304	-0.040
-267.297	-147.333	-0.238	-0.020
-266.282	-80.015	-0.137	0.046
-265.267	243.267	-0.075	-0.126
-264.253	98.609	0.123	0.141
-263.238	-89.469	-0.165	0.048
-262.224	-200.000	0.008	-0.307
-261.209	145.019	0.090	0.120
-260.195	-105.147	-0.217	0.050
-259.180	47.691	-0.361	-0.336
-258.165	-17.897	-0.076	-0.048
-257.151	42.262	-0.118	0.107
-256.136	800.000	-0.052	0.181
-255.122	17.151	0.320	0.254
-254.107	-200.000	-0.001	-0.053
-253.092	-28.713	0.157	-0.090
-252.078	-76.129	0.339	0.119
-251.063	-200.000	-0.025	0.340
-250.049	-153.120	-0.128	0.009
-249.034	167.779	-0.136	0.194
-248.019	70.307	-0.024	-0.024
-247.005	-116.596	0.202	-0.037
-245.990	64.439	-0.133	-0.134
-244.976	-91.638	-0.143	0.041
-243.961	531.134	-0.069	-0.162
-242.946	66.136	0.229	-0.232
-241.932	800.000	0.157	0.474
-240.917	387.292	0.152	0.313
-239.903	800.000	0.080	-0.344
-238.888	95.680	-0.143	0.163
-237.873	-200.000	-0.030	0.188
-236.859	190.241	-0.079	0.118
-235.844	-200.000	-0.019	0.104
-234.830	-200.000	0.018	-0.193
-233.815	42.196	-0.132	0.120
-232.800	464.534	0.115	0.258
-231.786	-76.879	0.224	0.078
-230.771	682.087	-0.010	0.025
-229.757	-62.297	0.372	-0.155
-228.742	275.576	0.049	-0.088
-227.727	-200.000	-0.038	-0.169
-226.713	-111.620	-0.271	0.055
-225.698	-17.769	-0.174	0.109
-224.684	-200.000	-0.013	-0.202
-223.669	390.575	0.025	0.052
-222.655	-83.663	0.337	0.107
-221.640	-200.000	0.032	0.149
-220.625	-24.666	-0.030	-0.018
-219.611	-122.491	0.242	-0.039
-218.596	-76.249	-0.237	0.083
-217.582	-200.000	-0.002	-0.330
-216.567	-0.883	-0.094	-0.066
-215.552	-88.185	-0.050	0.015
-214.538	-135.668	-0.212	0.025
-213.523	52.987	0.116	0.111
-212.509	-50.712	0.306	0.144
-211.494	508.231	0.113	-0.262
-210.479	176.812	0.087	-0.127
-209.465	-158.088	0.379	0.022
-208.450	-200.000	-0.006	-0.050
-207.436	-200.000	0.014	0.309
-206.421	734.190	-0.083	-0.223
-205.406	-65.975	0.206	-0.082
-204.392	203.689	-0.171	0.265
-203.377	800.000	0.105	0.377
-202.363	-3.495	0.051	0.036
-201.348	343.857	-0.081	-0.158
-200.333	-128.734	0.075	-0.011
-199.319	-200.000	0.029	0.440
-198.304	229.910	0.073	-0.119
-197.290	102.464	0.087	-0.102
-196.275	-64.870	0.334	-0.135
-195.260	-75.890	-0.075	-0.026
-194.246	55.941	-0.218	-0.211
-193.231	-148.569	0.231	0.019
-192.217	95.281	0.177	0.201
-191.202	800.000	0.050	-0.168
-190.187	68.512	0.210	0.215
-189.173	369.720	0.085	-0.172
-188.158	800.000	-0.087	0.259
-187.144	56.867	0.208	-0.202
-186.129	24.477	0.085	-0.070
-185.114	150.142	0.285	0.386
-184.100	7.406	-0.152	-0.113
-183.085	-97.550	-0.141	-0.036
-182.071	-66.565	0.323	0.128
-181.056	218.917	-0.145	-0.231
-180.042	44.059	-0.072	0.066
-179.027	-200.000	-0.009	0.392
-178.012	15.625	0.158	-0.124
-176.998	-200.000	0.001	0.106
-175.983	-125.876	-0.079	0.012
-174.969	186.150	-0.201	-0.298
-173.954	800.000	0.048	0.174
-172.939	-176.890	0.456	-0.011
-171.925	-89.268	-0.249	0.073
-170.910	21.422	-0.116	-0.094
-169.896	135.119	0.092	0.119
-168.881	-200.000	0.019	0.187
-167.866	353.669	0.068	-0.135
-166.852	-174.227	-0.315	-0.009
-165.837	340.764	-0.091	-0.177
-164.823	-200.000	-0.035	-0.224
-163.808	-200.000	0.025	0.240
-162.793	96.807	-0.245	0.279
-161.779	-48.637	-0.121	-0.058
-160.764	-12.470	0.179	0.117
-159.750	-31.076	0.226	0.127
-158.735	-152.036	0.144	0.010
-157.720	-200.000	0.041	0.254
-156.706	-122.603	0.020	-0.003
-155.691	-200.000	-0.026	-0.219
-154.677	306.169	-0.125	-0.231
-153.662	-57.349	0.384	-0.168
-152.647	334.215	-0.035	0.067
-151.633	68.175	-0.107	0.109
-150.618	250.242	0.221	0.373
-149.604	-52.969	0.187	-0.086
-148.589	103.469	0.053	0.062
-147.574	96.568	0.305	0.347
-146.560	40.121	0.144	0.129
-145.545	-92.968	0.259	0.072
-144.531	-31.363	0.158	-0.088
-143.516	-97.370	-0.181	0.047
-142.502	137.504	-0.138	-0.180
-141.487	-81.565	-0.368	0.120
-140.472	38.863	-0.356	0.317
-139.458	39.371	0.139	0.124
-138.443	-166.199	0.202	-0.009
-137.429	202.083	-0.079	0.122
-136.414	0.298	-0.198	-0.141
-135.399	107.056	0.151	-0.179
-134.385	-111.810	-0.036	0.007
-133.370	159.000	0.025	-0.034
-132.356	-27.938	0.098	-0.057
-131.341	-200.000	0.000	-0.158
-130.326	123.813	0.238	0.297
-129.312	742.826	-0.007	-0.018
-128.297	-42.858	-0.037	-0.019
-127.283	800.000	0.137	0.385
-126.268	-104.624	-0.254	-0.058
-125.253	-200.000	0.039	0.186
-124.239	-40.457	-0.275	-0.142
-123.224	-43.460	0.274	0.138
-122.210	-34.978	0.108	-0.059
