DTS Sentinel unit serial number:	SN413079Multiplexer serial number:	ORYXHardware model number:	OX4-SRSoftware version number:	ORYX F/W v4.00 Oryx Data Collector v3.7.2.0data status	okinstallation	princeton_trtdifferential loss correction	single-endedforward channel	channel 1reverse channel	N/Adate	2019/09/18time	21:10:35forward acquisition time	60.00reverse acquisition time	0.00gamma	496.2192k internal	0.2341k external	0.2341temperature offset calibration	1.0018default loss term (dB/km)	0.3790temperature slope calibration	1.0000multiplexer offset coefficient	1.0000multiplexer slope coefficient	1.0000fibre end	0.00T internal ref (°C)	26.05T ext. ref 1 (°C)	0.83T ext. ref 2 (°C)	18.01length (m)	temperature (°C)	Stokes	anti-Stokes-747.200	-36.573	0.292	-0.157
-746.185	17.617	0.039	-0.031
-745.171	160.422	0.085	0.119
-744.156	-4.342	0.031	-0.022
-743.142	67.654	0.134	-0.138
-742.127	51.444	0.269	-0.256
-741.112	800.000	-0.045	0.169
-740.098	-137.578	-0.409	0.046
-739.083	-61.922	0.215	-0.090
-738.069	529.870	-0.008	0.018
-737.054	54.959	-0.241	0.234
-736.039	-46.246	-0.060	0.029
-735.025	-39.787	0.436	0.228
-734.010	88.007	0.052	-0.058
-732.996	41.387	-0.413	0.374
-731.981	-82.181	-0.173	-0.057
-730.966	364.845	-0.063	0.127
-729.952	-145.757	-0.248	0.022
-728.937	576.044	-0.120	0.294
-727.923	331.923	0.145	0.280
-726.908	118.904	-0.195	0.241
-725.894	294.605	-0.162	-0.297
-724.879	-116.814	0.003	0.001
-723.864	-134.784	-0.236	-0.029
-722.850	800.000	0.082	-0.278
-721.835	11.454	-0.235	-0.181
-720.821	18.244	-0.080	0.064
-719.806	-127.723	-0.254	-0.037
-718.791	188.741	-0.098	-0.147
-717.777	800.000	0.130	0.386
-716.762	-67.100	0.153	0.061
-715.748	-50.520	-0.194	0.092
-714.733	-44.807	-0.160	-0.080
-713.718	575.044	-0.078	0.190
-712.704	-93.560	-0.322	-0.089
-711.689	23.706	0.134	-0.111
-710.675	-107.227	-0.093	-0.020
-709.660	657.867	0.093	-0.238
-708.645	131.216	0.195	-0.251
-707.631	201.483	-0.053	-0.081
-706.616	-87.257	0.386	-0.117
-705.602	636.142	-0.082	-0.210
-704.587	800.000	-0.086	-0.249
-703.572	-159.564	-0.167	0.009
-702.558	30.024	-0.259	-0.221
-701.543	238.056	0.227	-0.377
-700.529	128.160	-0.155	-0.198
-699.514	-178.947	0.259	0.006
-698.499	-90.375	0.233	0.068
-697.485	-33.884	-0.161	-0.089
-696.470	-71.818	0.183	0.068
-695.456	-200.000	-0.066	0.364
-694.441	211.751	-0.045	0.070
-693.426	-27.230	-0.276	0.161
-692.412	-45.208	-0.269	0.134
-691.397	-70.733	0.492	0.186
-690.383	130.385	-0.127	-0.162
-689.368	-79.694	-0.101	0.034
-688.354	34.257	-0.108	-0.094
-687.339	629.187	-0.035	-0.088
-686.324	504.925	0.090	0.208
-685.310	-149.463	-0.216	-0.017
-684.295	-38.968	-0.095	0.050
-683.281	-81.659	0.133	-0.044
-682.266	-57.449	0.433	-0.190
-681.251	-69.553	0.125	0.048
-680.237	800.000	0.011	-0.050
-679.222	572.151	0.048	0.116
-678.208	212.980	0.104	-0.164
-677.193	-200.000	0.005	0.082
-676.178	-127.812	0.186	-0.027
-675.164	316.150	-0.114	-0.214
-674.149	397.034	0.133	0.277
-673.135	-86.813	0.045	-0.014
-672.120	800.000	-0.075	0.276
-671.105	319.386	0.116	0.219
-670.091	33.970	-0.249	-0.217
-669.076	800.000	0.086	0.301
-668.062	3.026	-0.066	0.048
-667.047	800.000	-0.161	-0.452
-666.032	258.756	0.150	0.259
-665.018	-51.240	0.468	0.219
-664.003	9.982	-0.256	0.194
-662.989	199.980	0.091	0.140
-661.974	84.917	-0.293	-0.320
-660.959	536.637	0.107	0.253
-659.945	136.667	-0.216	-0.281
-658.930	800.000	0.049	-0.135
-657.916	-44.110	0.252	-0.127
-656.901	88.898	-0.071	-0.078
-655.886	-126.554	-0.110	0.016
-654.872	445.271	-0.038	-0.083
-653.857	-170.167	-0.186	-0.007
-652.843	-200.000	-0.031	-0.213
-651.828	-89.235	-0.083	-0.025
-650.814	-200.000	-0.044	-0.200
-649.799	358.694	-0.036	-0.072
-648.784	-51.338	0.080	-0.037
-647.770	800.000	-0.177	-0.493
-646.755	200.518	0.075	-0.115
-645.741	-37.352	0.029	-0.015
-644.726	800.000	0.024	0.091
-643.711	-12.537	0.114	0.074
-642.697	-200.000	-0.001	-0.238
-641.682	45.267	-0.222	-0.205
-640.668	-105.390	0.243	-0.055
-639.653	111.641	0.217	-0.261
-638.638	162.663	0.168	0.235
-637.624	-101.100	0.338	0.083
-636.609	-157.157	-0.202	-0.012
-635.595	-113.712	-0.238	-0.046
-634.580	-156.603	-0.509	0.032
-633.565	800.000	0.051	-0.194
-632.551	-134.984	-0.364	0.044
-631.536	-135.523	0.068	0.008
-630.522	-55.510	-0.361	0.161
-629.507	16.362	-0.231	-0.182
-628.492	-200.000	-0.000	-0.390
-627.478	7.476	-0.424	0.316
-626.463	34.507	-0.083	0.072
-625.449	-64.270	-0.020	-0.008
-624.434	188.491	-0.101	0.151
-623.419	145.151	0.109	0.145
-622.405	40.547	-0.196	-0.176
-621.390	147.650	-0.074	-0.099
-620.376	51.766	-0.207	-0.196
-619.361	88.313	0.275	-0.304
-618.346	355.048	-0.151	0.299
-617.332	-100.157	-0.237	-0.059
-616.317	800.000	0.064	0.238
-615.303	-200.000	-0.037	0.249
-614.288	23.014	0.129	-0.105
-613.273	-27.302	-0.444	-0.258
-612.259	374.491	0.120	-0.243
-611.244	47.370	-0.198	0.184
-610.230	-116.371	0.186	-0.034
-609.215	-176.623	-0.240	-0.006
-608.201	-67.349	-0.169	0.066
-607.186	390.687	-0.059	0.121
-606.171	-3.311	-0.289	0.200
-605.157	-87.347	-0.393	0.119
-604.142	540.714	-0.174	0.412
-603.128	112.917	-0.107	0.129
-602.113	-124.361	-0.065	-0.010
-601.098	74.580	-0.019	-0.020
-600.084	40.556	-0.321	0.289
-599.069	-127.102	-0.171	0.025
-598.055	174.859	-0.171	-0.247
-597.040	-200.000	-0.014	-0.250
-596.025	439.892	0.218	-0.474
-595.011	-63.921	-0.089	-0.036
-593.996	462.098	-0.128	0.284
-592.982	-200.000	-0.013	-0.126
-591.967	84.187	-0.215	0.234
-590.952	-132.575	0.134	0.017
-589.938	-200.000	-0.003	-0.078
-588.923	800.000	0.077	0.307
-587.909	-200.000	-0.096	-0.000
-586.894	-57.820	-0.061	0.027
-585.879	-116.967	0.245	-0.045
-584.865	536.732	-0.072	0.169
-583.850	53.049	0.181	-0.172
-582.836	-59.412	0.292	-0.125
-581.821	-88.871	-0.103	-0.030
-580.806	-86.163	-0.065	0.020
-579.792	163.952	-0.124	0.173
-578.777	442.435	0.054	0.118
-577.763	336.521	-0.091	0.176
-576.748	-27.353	0.015	0.008
-575.733	425.649	-0.038	0.082
-574.719	441.404	-0.042	0.091
-573.704	215.863	-0.113	-0.178
-572.690	336.514	0.055	-0.107
-571.675	-21.634	-0.065	-0.039
-570.661	4.476	-0.304	-0.222
-569.646	85.524	-0.138	-0.151
-568.631	64.786	-0.044	0.044
-567.617	293.866	-0.248	0.450
-566.602	-107.120	0.175	0.038
-565.588	66.018	0.213	0.215
-564.573	572.733	0.073	-0.176
-563.558	-78.733	-0.285	0.097
-562.544	-200.000	0.051	0.245
-561.529	142.385	-0.068	0.090
-560.515	449.651	0.059	0.129
-559.500	-147.190	-0.136	-0.012
-558.485	-200.000	-0.040	0.188
-557.471	-43.263	-0.237	0.119
-556.456	55.835	-0.129	0.124
-555.442	-200.000	-0.042	0.310
-554.427	-28.545	-0.417	-0.239
-553.412	-1.335	0.107	-0.075
-552.398	-200.000	0.016	-0.209
-551.383	18.209	-0.145	-0.115
-550.369	-51.887	-0.188	-0.087
-549.354	-109.151	0.226	-0.048
-548.339	800.000	0.094	0.356
-547.325	-200.000	0.007	0.084
-546.310	-184.551	0.126	0.002
-545.296	122.083	-0.100	-0.124
-544.281	-104.487	-0.333	-0.077
-543.266	-94.845	0.192	0.052
-542.252	-167.814	0.210	-0.008
-541.237	800.000	-0.104	-0.303
-540.223	-88.153	-0.411	0.123
-539.208	800.000	-0.047	-0.185
-538.193	-200.000	-0.026	-0.260
-537.179	95.765	-0.156	0.177
-536.164	-200.000	-0.001	0.124
-535.150	-200.000	0.019	-0.249
-534.135	234.260	-0.099	-0.163
-533.121	-10.910	-0.234	0.154
-532.106	237.056	-0.056	-0.091
-531.091	13.549	0.057	-0.044
-530.077	-119.368	-0.032	-0.006
-529.062	-200.000	-0.039	0.188
-528.048	-136.186	0.031	0.004
-527.033	-129.738	-0.129	-0.018
-526.018	-173.727	-0.288	-0.009
-525.004	-200.000	0.006	-0.089
-523.989	6.622	0.089	0.066
-522.975	-200.000	-0.002	0.266
-521.960	-48.993	-0.115	-0.055
-520.945	218.601	-0.100	0.158
-519.931	152.569	-0.035	-0.048
-518.916	629.113	0.100	0.251
-517.902	-9.662	0.078	-0.052
-516.887	88.456	0.212	-0.234
-515.872	28.202	-0.322	0.270
-514.858	31.261	-0.060	0.051
-513.843	-200.000	0.001	-0.053
-512.829	-128.600	-0.181	0.025
-511.814	-80.623	0.083	-0.028
-510.799	-161.620	0.316	0.016
-509.785	93.374	-0.084	-0.094
-508.770	215.558	0.100	-0.158
-507.756	143.162	-0.095	0.125
-506.741	-31.105	0.269	0.150
-505.726	199.156	0.123	-0.186
-504.712	51.041	0.058	-0.055
-503.697	19.469	0.110	-0.088
-502.683	245.711	0.025	-0.042
-501.668	-130.947	-0.167	-0.022
-500.653	-169.636	-0.101	-0.004
-499.639	32.273	-0.275	0.236
-498.624	-200.000	0.010	-0.229
-497.610	-21.677	0.264	0.160
-496.595	-9.431	-0.211	-0.140
-495.581	800.000	0.010	-0.032
-494.566	105.315	-0.193	0.226
-493.551	800.000	-0.084	-0.326
-492.537	-38.780	0.186	-0.097
-491.522	-200.000	0.008	-0.296
-490.508	-125.040	0.252	0.038
-489.493	0.210	-0.257	-0.182
-488.478	78.795	-0.094	-0.100
-487.464	-15.285	-0.105	0.066
-486.449	-104.988	-0.087	-0.020
-485.435	-29.916	-0.276	-0.156
-484.420	218.405	-0.020	-0.031
-483.405	-200.000	-0.016	-0.266
-482.391	-200.000	0.011	-0.267
-481.376	-200.000	-0.028	0.289
-480.362	118.452	-0.233	-0.285
-479.347	-96.174	-0.425	-0.112
-478.332	98.141	-0.118	-0.135
-477.318	451.302	0.058	-0.128
-476.303	370.646	-0.174	-0.349
-475.289	-200.000	0.052	-0.416
-474.274	20.901	-0.091	-0.073
-473.259	-63.966	-0.192	0.078
-472.245	-12.148	0.319	-0.207
-471.230	193.542	-0.147	-0.221
-470.216	-72.815	0.018	-0.006
-469.201	-82.771	-0.235	0.075
-468.186	238.055	0.105	-0.173
-467.172	-3.236	-0.105	-0.072
-466.157	103.428	0.074	-0.086
-465.143	334.632	0.059	0.113
-464.128	324.885	-0.084	0.159
-463.113	-0.871	0.057	-0.040
-462.099	-67.910	0.338	-0.131
-461.084	62.255	0.153	0.151
-460.070	-200.000	0.008	0.191
-459.055	800.000	0.031	0.109
-458.040	-173.074	-0.313	0.010
-457.026	-200.000	-0.026	-0.123
-456.011	-124.786	0.128	0.020
-454.997	189.347	0.119	0.177
-453.982	490.738	0.081	0.184
-452.968	-200.000	0.009	-0.224
-451.953	88.328	0.083	0.091
-450.938	380.833	0.140	-0.284
-449.924	-13.522	-0.117	-0.075
-448.909	-164.157	-0.145	0.007
-447.895	65.576	0.242	-0.242
-446.880	-71.551	0.136	-0.050
-445.865	-200.000	0.026	-0.185
-444.851	-124.206	0.158	0.025
-443.836	-53.240	-0.195	-0.089
-442.822	253.728	0.191	0.324
-441.807	8.357	-0.210	-0.157
-440.792	-90.311	-0.201	-0.058
-439.778	181.990	0.151	-0.221
-438.763	618.530	0.061	0.152
-437.749	-71.843	0.087	-0.032
-436.734	-26.982	0.179	-0.103
-435.719	-200.000	0.003	-0.050
-434.705	-200.000	-0.033	0.344
-433.690	-134.288	0.359	0.044
-432.676	121.253	-0.050	-0.061
-431.661	-17.491	0.150	-0.094
-430.646	246.841	-0.136	-0.227
-429.632	395.411	-0.017	-0.035
-428.617	188.079	0.139	0.205
-427.603	800.000	0.153	-0.658
-426.588	-108.141	0.215	-0.046
-425.573	496.589	-0.046	0.104
-424.559	439.153	-0.070	0.151
-423.544	800.000	0.025	-0.074
-422.530	18.175	-0.266	0.210
-421.515	-200.000	0.016	-0.172
-420.500	181.515	0.154	-0.224
-419.486	-80.149	0.033	0.011
-418.471	-109.577	-0.173	0.036
-417.457	106.610	0.219	0.258
-416.442	-200.000	-0.079	0.407
-415.428	-130.920	0.060	0.008
-414.413	249.221	-0.193	0.323
-413.398	800.000	-0.054	-0.159
-412.384	773.077	0.069	-0.186
-411.369	-200.000	-0.022	-0.357
-410.355	18.444	0.265	-0.210
-409.340	800.000	0.060	-0.253
-408.325	-112.229	0.270	-0.054
-407.311	76.723	0.070	-0.073
-406.296	-141.522	0.165	-0.017
-405.282	195.291	-0.033	0.050
-404.267	-200.000	-0.016	0.177
-403.252	-42.903	0.217	0.109
-402.238	-90.058	-0.234	-0.067
-401.223	-101.009	-0.331	0.080
-400.209	38.231	0.466	-0.410
-399.194	152.544	-0.108	-0.145
-398.179	-200.000	0.008	0.086
-397.165	-197.481	0.183	-0.001
-396.150	355.824	-0.065	0.129
-395.136	800.000	0.068	0.291
-394.121	800.000	0.036	-0.100
-393.106	-51.019	0.390	-0.181
-392.092	17.136	0.123	0.096
-391.077	-9.862	-0.164	-0.108
-390.063	-76.417	0.349	0.121
-389.048	302.130	0.100	0.182
-388.033	-200.000	0.075	0.426
-387.019	800.000	0.050	0.182
-386.004	119.898	0.110	-0.135
-384.990	133.685	-0.129	-0.165
-383.975	183.400	0.127	0.186
-382.960	-184.290	0.141	0.002
-381.946	-22.113	0.162	0.097
-380.931	284.531	-0.116	-0.206
-379.917	-200.000	0.009	0.096
-378.902	-200.000	0.003	0.257
-377.888	-122.661	0.370	-0.059
-376.873	-78.430	0.244	0.083
-375.858	-16.869	-0.080	0.050
-374.844	140.449	0.085	-0.110
-373.829	-89.966	0.121	0.035
-372.815	-200.000	0.057	0.377
-371.800	73.292	-0.113	0.116
-370.785	-103.015	0.419	-0.098
-369.771	25.275	-0.135	0.111
-368.756	-200.000	-0.029	0.182
-367.742	319.087	0.150	0.280
-366.727	484.518	0.190	-0.426
-365.712	-124.654	0.051	0.008
-364.698	-69.741	0.275	-0.104
-363.683	432.161	-0.100	-0.214
-362.669	800.000	-0.070	0.195
-361.654	-110.042	0.276	0.057
-360.639	166.629	-0.178	0.250
-359.625	800.000	0.026	-0.102
-358.610	-200.000	-0.035	-0.296
-357.596	-3.728	0.100	-0.069
-356.581	94.696	-0.047	-0.053
-355.566	-200.000	-0.040	0.234
-354.552	125.651	-0.173	0.215
-353.537	-54.337	0.047	-0.021
-352.523	-108.294	0.321	0.068
-351.508	800.000	-0.036	-0.116
-350.493	172.525	0.076	0.108
-349.479	-36.564	-0.150	-0.080
-348.464	-46.755	-0.120	-0.058
-347.450	800.000	-0.081	0.307
-346.435	123.858	0.096	0.119
-345.420	96.918	-0.264	0.299
-344.406	-123.969	-0.210	0.033
-343.391	101.890	-0.256	-0.295
-342.377	-47.528	0.202	-0.097
-341.362	-60.963	-0.112	-0.047
-340.348	-200.000	-0.001	-0.166
-339.333	149.988	0.153	-0.204
-338.318	193.316	0.120	-0.179
-337.304	150.844	0.141	0.190
-336.289	59.657	-0.177	0.173
-335.275	301.446	0.134	-0.244
-334.260	-95.307	-0.564	-0.150
-333.245	113.838	0.139	-0.166
-332.231	-121.980	0.293	0.048
-331.216	-200.000	-0.024	-0.152
-330.202	-86.088	0.404	-0.123
-329.187	-121.937	-0.169	0.027
-328.172	132.282	-0.163	-0.207
-327.158	-200.000	-0.032	0.236
-326.143	-36.138	0.070	0.037
-325.129	-142.338	-0.315	-0.031
-324.114	137.998	-0.126	0.163
-323.099	-15.670	0.125	0.078
-322.085	-200.000	-0.035	0.264
-321.070	-23.794	0.174	0.103
-320.056	-200.000	0.010	-0.130
-319.041	120.907	-0.019	0.023
-318.026	800.000	0.138	-0.380
-317.012	800.000	-0.031	0.111
-315.997	-130.239	0.315	-0.042
-314.983	555.335	-0.027	-0.063
-313.968	-11.951	0.280	0.181
-312.953	-200.000	-0.014	-0.125
-311.939	43.426	-0.113	-0.102
-310.924	-51.775	-0.123	0.056
-309.910	-200.000	-0.001	-0.162
-308.895	255.376	0.087	0.147
-307.880	-200.000	0.030	0.275
-306.866	-61.771	0.211	-0.087
-305.851	15.634	-0.089	-0.069
-304.837	-200.000	0.025	0.236
-303.822	-125.824	0.157	0.023
-302.807	409.813	0.099	0.207
-301.793	115.201	0.303	0.364
-300.778	7.672	-0.113	0.083
-299.764	-145.263	0.127	0.011
-298.749	8.834	0.181	0.135
-297.735	188.124	0.298	-0.438
-296.720	800.000	-0.050	-0.141
-295.705	44.257	-0.107	0.096
-294.691	149.389	0.014	0.018
-293.676	139.314	0.053	0.069
-292.662	-15.431	-0.199	0.125
-291.647	-5.612	-0.099	0.067
-290.632	-86.669	0.477	0.144
-289.618	-125.270	0.461	-0.069
-288.603	-155.192	0.103	-0.007
-287.589	-135.128	0.167	0.020
-286.574	228.289	0.196	0.315
-285.559	-48.255	0.308	-0.146
-284.545	184.592	0.233	-0.341
-283.530	599.347	0.201	0.491
-282.516	-200.000	0.042	0.351
-281.501	-81.542	0.233	-0.075
-280.486	-148.160	0.205	0.017
-279.472	-154.638	-0.357	-0.023
-278.457	6.046	0.156	0.114
-277.443	800.000	-0.154	0.448
-276.428	180.795	0.087	-0.126
-275.413	-100.941	0.170	-0.041
-274.399	-177.754	0.315	-0.007
-273.384	181.751	0.120	-0.173
-272.370	226.422	-0.093	0.149
-271.355	-56.067	0.286	0.125
-270.340	506.556	-0.108	0.246
-269.326	83.623	0.179	0.192
-268.311	-69.294	-0.255	0.096
-267.297	-200.000	0.035	0.195
-266.282	-27.610	0.182	0.104
-265.267	671.451	-0.026	-0.067
-264.253	-200.000	-0.059	-0.367
-263.238	-200.000	-0.007	-0.142
-262.224	800.000	-0.158	-0.515
-261.209	87.425	-0.193	0.210
-260.195	95.997	0.085	0.096
-259.180	327.985	0.152	0.288
-258.165	302.858	0.060	-0.109
-257.151	321.444	0.112	0.209
-256.136	160.448	0.022	-0.030
-255.122	-200.000	0.023	-0.279
-254.107	-200.000	0.015	-0.079
-253.092	99.988	-0.099	-0.113
-252.078	800.000	0.111	0.337
-251.063	-104.389	-0.253	-0.058
-250.049	-147.648	0.265	0.022
-249.034	148.931	0.006	0.008
-248.019	195.151	-0.084	-0.125
-247.005	-99.675	-0.324	-0.080
-245.990	-38.906	0.473	0.245
-244.976	-200.000	-0.003	-0.107
-243.961	579.371	0.117	0.281
-242.946	-105.695	0.070	0.015
-241.932	800.000	-0.041	0.166
-240.917	-187.927	-0.343	0.004
-239.903	-103.818	0.098	-0.022
-238.888	-200.000	0.017	-0.110
-237.873	-116.283	0.322	-0.059
-236.859	-200.000	-0.018	0.308
-235.844	270.992	-0.108	-0.187
-234.830	-200.000	0.123	0.000
-233.815	-187.798	0.397	-0.005
-232.800	118.382	-0.159	-0.193
-231.786	65.441	0.135	-0.134
-230.771	-88.903	-0.233	0.068
-229.757	800.000	0.086	-0.289
-228.742	454.357	-0.129	-0.280
-227.727	-200.000	-0.055	-0.256
-226.713	-200.000	0.015	0.302
-225.698	-133.351	0.233	-0.029
-224.684	-127.317	0.193	0.028
-223.669	-200.000	0.044	-0.230
-222.655	-153.181	-0.247	0.017
-221.640	79.902	-0.188	-0.199
-220.625	215.455	0.174	0.270
-219.611	520.454	0.064	0.147
-218.596	-143.620	-0.084	-0.008
-217.582	-138.821	0.161	-0.017
-216.567	-80.823	0.176	0.057
-215.552	51.420	-0.284	-0.265
-214.538	-171.601	-0.314	-0.010
-213.523	-67.948	0.211	0.081
-212.509	88.341	-0.020	-0.022
-211.494	-200.000	0.038	-0.242
-210.479	280.372	0.051	0.090
-209.465	-70.450	0.355	0.132
-208.450	245.762	-0.202	0.334
-207.436	-134.709	0.062	0.007
-206.421	-129.909	-0.245	0.033
-205.406	-200.000	0.103	-0.464
-204.392	-200.000	0.040	-0.189
-203.377	81.135	-0.110	-0.116
-202.363	-64.941	-0.151	-0.060
-201.348	-109.851	0.317	-0.065
-200.333	-200.000	-0.059	0.359
-199.319	406.592	0.116	0.241
-198.304	178.030	-0.076	-0.109
-197.290	-48.210	0.261	0.124
-196.275	211.601	0.048	-0.075
-195.260	-131.520	-0.418	0.054
-194.246	-61.043	-0.281	0.116
-193.231	-69.216	-0.387	0.146
-192.217	-200.000	-0.017	-0.162
-191.202	763.518	0.050	0.132
-190.187	-24.243	-0.258	0.151
-189.173	621.619	-0.043	-0.107
-188.158	-117.153	0.083	0.015
-187.144	-65.274	0.164	0.065
-186.129	-156.319	-0.081	-0.005
-185.114	261.883	-0.028	0.047
-184.100	-35.789	0.154	-0.082
-183.085	-200.000	-0.018	0.168
-182.071	85.978	0.182	0.197
-181.056	800.000	0.042	0.131
-180.042	161.230	0.081	-0.111
-179.027	-114.936	-0.380	-0.071
-178.012	57.052	-0.104	-0.099
-176.998	258.405	-0.059	0.100
-175.983	-200.000	0.014	-0.098
-174.969	533.399	0.050	0.117
-173.954	-200.000	0.080	0.391
-172.939	67.539	-0.058	0.058
-171.925	-16.509	0.219	-0.136
-170.910	28.659	-0.321	-0.266
-169.896	360.429	-0.081	-0.158
-168.881	138.622	0.040	0.052
-167.866	90.162	-0.153	0.168
-166.852	-200.000	-0.009	-0.125
-165.837	-10.053	0.205	-0.133
-164.823	66.910	-0.183	0.182
-163.808	392.660	-0.073	-0.149
-162.793	-22.479	-0.244	0.145
-161.779	-67.817	0.187	-0.071
-160.764	225.225	0.037	0.059
-159.750	221.658	-0.247	0.389
-158.735	-72.017	-0.434	-0.158
-157.720	-90.348	0.204	-0.058
-156.706	-189.929	0.438	0.005
-155.691	800.000	-0.021	-0.059
-154.677	301.009	-0.133	-0.241
-153.662	296.992	-0.023	-0.041
-152.647	-82.100	0.269	0.086
-151.633	-200.000	0.033	0.530
-150.618	-116.410	-0.253	0.046
-149.604	79.638	0.104	0.110
-148.589	-200.000	0.052	0.353
-147.574	-136.355	-0.245	-0.028
-146.560	104.355	0.124	0.142
-145.545	-126.697	0.100	0.014
-144.531	-83.821	-0.295	-0.092
-143.516	90.422	0.205	-0.225
-142.502	-125.269	0.252	-0.038
-141.487	36.239	-0.299	-0.258
-140.472	159.830	-0.203	0.277
-139.458	138.696	0.127	0.163
-138.443	-84.294	0.073	-0.023
-137.429	800.000	-0.033	-0.104
-136.414	-200.000	-0.027	0.166
-135.399	16.306	0.035	-0.027
-134.385	-32.370	-0.189	-0.103
-133.370	227.065	-0.173	-0.274
-132.356	-107.402	0.237	0.051
-131.341	-110.243	-0.249	-0.051
-130.326	-35.727	0.359	0.190
-129.312	-67.635	-0.223	-0.085
-128.297	299.043	0.043	-0.077
-127.283	-164.948	0.151	-0.007
-126.268	184.895	0.108	-0.157
-125.253	199.525	-0.029	0.044
-124.239	800.000	0.070	0.218
-123.224	-15.977	0.170	-0.106
-122.210	78.816	-0.252	-0.264
