DTS Sentinel unit serial number:	SN413079Multiplexer serial number:	ORYXHardware model number:	OX4-SRSoftware version number:	ORYX F/W v4.00 Oryx Data Collector v3.7.2.0data status	okinstallation	princeton_trtdifferential loss correction	single-endedforward channel	channel 1reverse channel	N/Adate	2019/09/12time	16:08:11forward acquisition time	60.00reverse acquisition time	0.00gamma	496.2192k internal	0.2299k external	0.2299temperature offset calibration	1.0086default loss term (dB/km)	0.3790temperature slope calibration	1.0000multiplexer offset coefficient	1.0000multiplexer slope coefficient	1.0000fibre end	0.00T internal ref (°C)	38.58T ext. ref 1 (°C)	2.53T ext. ref 2 (°C)	31.39length (m)	temperature (°C)	Stokes	anti-Stokes-747.200	330.014	0.045	0.089
-746.185	-200.000	0.049	0.276
-745.171	-8.993	-0.208	-0.142
-744.156	351.862	-0.174	0.351
-743.142	227.387	0.241	0.400
-742.127	-153.853	-0.111	0.008
-741.112	-123.024	-0.264	0.043
-740.098	-200.000	-0.043	0.315
-739.083	800.000	0.010	0.035
-738.069	272.497	-0.039	0.070
-737.054	800.000	0.020	0.059
-736.039	-200.000	0.013	-0.155
-735.025	-121.862	0.200	-0.034
-734.010	67.750	-0.164	0.171
-732.996	-56.349	-0.238	0.108
-731.981	662.787	0.064	-0.168
-730.966	-162.384	0.164	0.008
-729.952	-85.772	-0.189	-0.060
-728.937	-9.979	0.192	0.130
-727.923	30.268	0.030	-0.026
-726.908	-200.000	0.035	-0.248
-725.894	-26.433	-0.199	0.119
-724.879	49.110	0.065	-0.063
-723.864	-200.000	-0.039	0.310
-722.850	-66.660	0.302	-0.122
-721.835	800.000	0.053	-0.152
-720.821	-61.821	-0.102	0.044
-719.806	311.063	-0.169	0.324
-718.791	-69.203	-0.108	0.042
-717.777	388.006	-0.090	-0.191
-716.762	-60.379	-0.097	-0.042
-715.748	800.000	-0.096	0.276
-714.733	-200.000	0.040	0.329
-713.718	43.920	-0.251	0.234
-712.704	382.597	-0.209	-0.437
-711.689	31.645	0.114	-0.100
-710.675	163.270	0.083	0.118
-709.660	-200.000	-0.018	0.177
-708.645	-7.604	0.235	0.162
-707.631	658.146	0.113	0.297
-706.616	46.176	-0.187	-0.176
-705.602	647.233	0.018	-0.047
-704.587	208.431	-0.157	0.250
-703.572	800.000	0.137	0.412
-702.558	-50.874	-0.171	-0.082
-701.543	-200.000	0.046	-0.278
-700.529	142.051	-0.048	0.064
-699.514	800.000	-0.037	-0.166
-698.499	-42.228	0.173	0.090
-697.485	-200.000	0.043	-0.294
-696.470	52.994	0.114	0.111
-695.456	6.930	0.063	0.047
-694.441	-36.915	0.089	0.049
-693.426	-200.000	-0.007	0.306
-692.412	322.660	0.042	-0.082
-691.397	92.321	-0.263	-0.302
-690.383	-200.000	0.009	-0.198
-689.368	800.000	0.016	-0.058
-688.354	-70.672	0.134	-0.052
-687.339	-200.000	0.023	0.277
-686.324	1.811	0.052	-0.038
-685.310	401.146	0.234	0.500
-684.295	59.348	0.183	0.183
-683.281	-91.512	-0.341	0.099
-682.266	399.954	-0.136	-0.291
-681.251	42.342	-0.198	-0.183
-680.237	220.898	-0.199	-0.325
-679.222	-48.611	-0.067	0.033
-678.208	243.453	0.080	-0.137
-677.193	-197.441	-0.203	-0.001
-676.178	-33.425	-0.179	-0.101
-675.164	-122.746	0.262	0.043
-674.149	-83.623	-0.144	-0.047
-673.135	-200.000	-0.015	-0.241
-672.120	-200.000	-0.003	0.254
-671.105	-200.000	-0.010	-0.341
-670.091	-30.489	-0.427	-0.247
-669.076	120.523	-0.290	-0.366
-668.062	-200.000	0.070	-0.381
-667.047	-200.000	-0.070	-0.322
-666.032	-200.000	0.002	0.088
-665.018	111.917	-0.334	-0.411
-664.003	321.422	0.045	-0.088
-662.989	-200.000	-0.051	-0.406
-661.974	800.000	0.052	-0.191
-660.959	246.968	-0.093	-0.160
-659.945	-161.829	-0.038	0.002
-658.930	800.000	0.010	-0.046
-657.916	154.845	0.159	0.223
-656.901	800.000	-0.063	-0.256
-655.886	193.607	-0.167	0.257
-654.872	35.959	0.211	0.189
-653.857	11.030	-0.253	0.197
-652.843	800.000	0.048	0.141
-651.828	-105.293	-0.412	-0.096
-650.814	-167.685	-0.178	0.007
-649.799	163.392	0.156	-0.223
-648.784	-200.000	-0.001	-0.289
-647.770	117.679	0.244	0.306
-646.755	-200.000	-0.012	-0.309
-645.741	-200.000	-0.010	0.198
-644.726	94.908	0.195	0.225
-643.711	184.397	-0.070	-0.105
-642.697	43.047	-0.246	-0.228
-641.682	-145.201	-0.077	-0.007
-640.668	-9.151	0.285	0.194
-639.653	-88.443	-0.062	0.019
-638.638	-89.623	0.153	-0.046
-637.624	-200.000	0.017	0.168
-636.609	34.815	-0.189	-0.168
-635.595	630.959	0.042	-0.108
-634.580	-200.000	0.007	-0.265
-633.565	-181.894	-0.345	-0.007
-632.551	245.021	-0.195	0.333
-631.536	-110.676	-0.113	0.024
-630.522	72.398	0.138	0.146
-629.507	40.578	0.211	-0.193
-628.492	224.538	0.065	0.107
-627.478	142.421	-0.137	0.184
-626.463	423.538	0.020	-0.043
-625.449	-198.777	0.186	0.001
-624.434	800.000	-0.045	-0.138
-623.419	146.435	-0.175	0.239
-622.405	283.690	0.098	0.179
-621.390	-10.316	-0.136	0.092
-620.376	-160.536	-0.374	-0.020
-619.361	-51.856	0.321	-0.152
-618.346	219.019	0.110	0.178
-617.332	-139.582	0.244	-0.026
-616.317	-150.879	0.163	0.013
-615.303	-155.919	0.299	0.019
-614.288	-60.890	0.185	0.080
-613.273	-119.379	-0.045	0.008
-612.259	-41.273	0.075	-0.039
-611.244	59.055	0.059	-0.059
-610.230	-62.308	-0.021	-0.009
-609.215	125.121	-0.114	0.146
-608.201	-200.000	0.084	-0.383
-607.186	800.000	0.073	0.243
-606.171	-200.000	0.008	-0.236
-605.157	800.000	-0.064	-0.220
-604.142	-119.938	0.183	0.032
-603.128	-108.384	0.293	0.064
-602.113	-183.925	0.220	0.004
-601.098	25.688	-0.191	-0.162
-600.084	-56.546	0.039	0.017
-599.069	179.322	-0.179	0.265
-598.055	53.593	0.068	-0.066
-597.040	793.446	-0.237	-0.660
-596.025	-126.533	-0.222	-0.033
-595.011	-2.013	0.058	-0.041
-593.996	-154.756	0.132	-0.009
-592.982	800.000	-0.020	0.086
-591.967	-11.463	-0.051	-0.034
-590.952	276.676	0.104	-0.188
-589.938	34.643	0.140	-0.124
-588.923	-8.321	-0.246	0.168
-587.909	-200.000	0.035	0.259
-586.894	-200.000	-0.011	0.112
-585.879	648.637	-0.065	0.167
-584.865	-25.096	0.271	0.163
-583.850	800.000	-0.098	-0.312
-582.836	15.784	-0.158	-0.126
-581.821	18.736	0.124	-0.101
-580.806	-92.466	-0.174	-0.050
-579.792	-84.407	-0.360	0.115
-578.777	-200.000	0.014	-0.085
-577.763	-161.419	0.042	-0.002
-576.748	-200.000	0.033	0.274
-575.733	-2.396	0.182	0.129
-574.719	157.626	-0.245	0.344
-573.704	173.708	-0.029	-0.042
-572.690	593.381	-0.062	-0.155
-571.675	-12.622	-0.041	0.027
-570.661	-88.396	-0.141	0.043
-569.646	228.901	0.028	-0.046
-568.631	-200.000	0.026	-0.142
-567.617	124.133	-0.087	-0.110
-566.602	91.687	0.046	0.053
-565.588	-47.887	-0.147	0.072
-564.573	-135.184	0.334	0.041
-563.558	-155.880	0.526	0.034
-562.544	104.995	0.089	0.107
-561.529	74.614	-0.266	-0.283
-560.515	800.000	0.035	-0.110
-559.500	-127.245	0.142	0.021
-558.485	-48.888	-0.158	-0.077
-557.471	45.792	-0.131	0.123
-556.456	405.384	-0.017	-0.037
-555.442	78.612	-0.092	-0.100
-554.427	134.689	-0.201	0.264
-553.412	-64.875	0.214	-0.088
-552.398	-132.714	-0.137	-0.018
-551.383	-95.284	0.288	-0.078
-550.369	-171.987	0.343	-0.011
-549.354	197.123	-0.041	-0.063
-548.339	-77.122	0.157	-0.056
-547.325	55.657	0.235	-0.230
-546.310	-200.000	0.016	-0.256
-545.296	-2.174	0.329	-0.234
-544.281	-25.764	0.040	0.024
-543.266	-76.608	-0.189	0.067
-542.252	76.335	0.174	0.186
-541.237	17.431	-0.104	-0.084
-540.223	-90.426	-0.473	-0.139
-539.208	-200.000	0.009	0.198
-538.193	800.000	-0.030	0.112
-537.179	-43.901	0.258	0.131
-536.164	-122.206	0.029	0.005
-535.150	350.735	-0.097	-0.194
-534.135	95.674	0.328	0.379
-533.121	800.000	-0.069	0.302
-532.106	-79.972	-0.201	-0.068
-531.091	35.487	-0.124	-0.110
-530.077	123.869	0.175	0.223
-529.062	299.225	0.083	-0.155
-528.048	-200.000	0.016	0.223
-527.033	63.325	-0.083	0.084
-526.018	-121.411	-0.141	-0.024
-525.004	-200.000	-0.007	0.071
-523.989	-92.388	0.324	0.092
-522.975	-26.319	-0.124	-0.073
-521.960	18.889	0.198	0.160
-520.945	-64.209	0.285	-0.117
-519.931	453.948	-0.070	-0.157
-518.916	162.782	-0.124	0.176
-517.902	31.101	-0.043	0.037
-516.887	800.000	-0.015	-0.042
-515.872	-71.007	0.163	0.062
-514.858	401.404	-0.114	0.242
-513.843	-122.948	0.143	0.023
-512.829	-46.402	-0.130	-0.065
-511.814	-89.204	0.076	-0.023
-510.799	-76.605	0.307	0.109
-509.785	-166.246	-0.233	-0.010
-508.770	-53.869	-0.102	0.047
-507.756	-4.461	-0.126	0.088
-506.741	-200.000	0.004	-0.143
-505.726	800.000	-0.024	-0.096
-504.712	800.000	-0.058	-0.168
-503.697	118.504	-0.261	0.326
-502.683	-69.164	-0.370	-0.144
-501.668	-16.875	-0.233	-0.149
-500.653	-96.842	0.327	-0.087
-499.639	-200.000	0.035	-0.183
-498.624	-92.792	0.209	0.059
-497.610	379.987	0.110	0.229
-496.595	-86.715	-0.149	0.046
-495.581	-200.000	0.309	0.001
-494.566	-45.900	0.126	0.063
-493.551	-103.008	-0.504	-0.121
-492.537	714.413	-0.136	0.365
-491.522	37.001	-0.069	0.062
-490.508	800.000	-0.046	-0.129
-489.493	-94.413	-0.174	-0.048
-488.478	152.255	-0.020	0.027
-487.464	36.397	-0.121	-0.108
-486.449	-122.873	-0.060	-0.010
-485.435	66.701	0.104	-0.107
-484.420	-88.171	-0.168	0.051
-483.405	-84.521	-0.420	0.134
-482.391	595.285	0.137	0.343
-481.376	-32.239	-0.248	0.140
-480.362	177.176	-0.140	-0.206
-479.347	212.711	-0.127	-0.203
-478.332	324.628	-0.139	0.268
-477.318	-176.584	0.217	-0.006
-476.303	-20.237	0.297	-0.185
-475.289	-55.722	0.197	0.089
-474.274	-12.428	0.256	0.169
-473.259	800.000	0.121	0.529
-472.245	110.050	-0.089	-0.108
-471.230	-51.045	0.041	-0.019
-470.216	800.000	0.121	-0.364
-469.201	-200.000	0.022	0.138
-468.186	-63.576	-0.408	0.169
-467.172	499.493	-0.148	-0.344
-466.157	30.241	-0.099	-0.086
-465.143	800.000	0.028	-0.120
-464.128	161.507	-0.125	-0.177
-463.113	-200.000	-0.020	-0.274
-462.099	-200.000	0.020	0.295
-461.084	141.054	0.127	-0.170
-460.070	23.664	-0.063	0.052
-459.055	102.272	-0.170	0.201
-458.040	-200.000	0.004	-0.254
-457.026	800.000	0.160	0.460
-456.011	119.041	-0.116	0.145
-454.997	-75.718	0.175	0.063
-453.982	-100.080	-0.518	0.130
-452.968	545.704	-0.022	0.054
-451.953	-133.926	0.166	0.021
-450.938	420.139	-0.080	-0.173
-449.924	90.508	-0.045	-0.051
-448.909	33.062	0.262	0.229
-447.895	-54.676	0.274	-0.125
-446.880	-200.000	-0.071	-0.333
-445.865	176.587	0.123	-0.180
-444.851	800.000	0.059	0.248
-443.836	-106.330	0.178	0.040
-442.822	85.982	-0.196	0.217
-441.807	-88.517	-0.257	0.077
-440.792	-119.095	-0.137	0.024
-439.778	227.600	0.099	-0.162
-438.763	323.346	0.102	-0.196
-437.749	-200.000	0.006	0.161
-436.734	-116.063	-0.252	-0.047
-435.719	102.262	-0.215	0.254
-434.705	697.394	0.048	-0.126
-433.690	-33.485	0.314	0.175
-432.676	-200.000	0.061	0.271
-431.661	-13.598	0.127	-0.083
-430.646	800.000	-0.087	-0.241
-429.632	800.000	-0.047	-0.185
-428.617	-200.000	0.018	-0.108
-427.603	-91.777	0.290	-0.083
-426.588	-152.405	0.203	0.015
-425.573	-200.000	-0.069	0.363
-424.559	-53.614	0.203	0.093
-423.544	800.000	-0.014	-0.047
-422.530	-200.000	0.021	-0.104
-421.515	328.837	0.087	0.168
-420.500	47.720	0.193	-0.182
-419.486	526.095	0.105	-0.249
-418.471	-62.179	0.118	0.050
-417.457	-25.186	-0.192	-0.115
-416.442	-45.509	-0.211	-0.105
-415.428	-200.000	0.041	0.196
-414.413	-81.915	0.213	0.070
-413.398	-23.750	-0.124	-0.075
-412.384	-105.096	-0.144	0.033
-411.369	800.000	-0.036	0.141
-410.355	-200.000	0.055	0.303
-409.340	200.431	0.099	0.153
-408.325	135.502	-0.210	0.276
-407.311	30.887	0.224	-0.193
-406.296	-52.325	0.072	-0.034
-405.282	-35.004	0.090	-0.049
-404.267	132.612	-0.189	0.246
-403.252	800.000	-0.051	0.180
-402.238	800.000	-0.029	-0.122
-401.223	205.632	0.173	0.271
-400.209	26.544	-0.555	-0.467
-399.194	220.591	-0.269	-0.434
-398.179	800.000	-0.056	-0.181
-397.165	446.111	-0.052	-0.115
-396.150	177.106	-0.086	0.127
-395.136	241.504	-0.131	-0.221
-394.121	5.658	0.095	-0.071
-393.106	-200.000	0.019	-0.094
-392.092	-200.000	0.060	-0.394
-391.077	-13.107	0.259	-0.170
-390.063	12.508	-0.057	0.045
-389.048	292.405	0.141	0.259
-388.033	-114.894	0.117	-0.022
-387.019	181.263	0.122	0.180
-386.004	-16.352	0.144	0.092
-384.990	-200.000	0.026	-0.333
-383.975	-200.000	-0.009	0.127
-382.960	-118.432	-0.264	-0.047
-381.946	-68.042	-0.162	-0.064
-380.931	79.193	0.173	-0.187
-379.917	20.928	0.113	-0.092
-378.902	-200.000	0.001	-0.164
-377.888	-47.009	0.138	0.068
-376.873	3.413	-0.285	0.209
-375.858	-42.281	-0.307	0.157
-374.844	-200.000	-0.008	-0.093
-373.829	-52.890	-0.136	-0.063
-372.815	-200.000	0.020	0.310
-371.800	-101.938	0.227	-0.055
-370.785	353.846	0.139	-0.277
-369.771	-137.899	0.223	-0.025
-368.756	-156.318	-0.173	0.011
-367.742	-38.511	0.262	-0.139
-366.727	430.457	-0.005	0.011
-365.712	232.660	-0.132	-0.218
-364.698	145.843	0.081	0.110
-363.683	121.933	0.040	0.050
-362.669	-183.666	0.101	-0.002
-361.654	-44.678	-0.127	-0.064
-360.639	434.592	0.041	-0.090
-359.625	143.781	0.156	-0.209
-358.610	152.762	-0.126	0.174
-357.596	-153.431	-0.292	-0.020
-356.581	175.412	0.024	0.034
-355.566	239.741	0.136	0.227
-354.552	42.251	-0.112	-0.102
-353.537	524.639	0.122	-0.288
-352.523	-192.650	0.101	0.001
-351.508	-45.376	0.216	-0.108
-350.493	-45.350	0.377	-0.188
-349.479	-109.360	0.141	0.030
-348.464	-51.510	-0.306	-0.144
-347.450	-43.749	0.178	0.090
-346.435	32.911	0.075	0.065
-345.420	-109.494	-0.363	0.077
-344.406	-85.228	-0.394	-0.124
-343.391	60.710	0.083	0.082
-342.377	-24.494	-0.211	0.126
-341.362	119.074	-0.032	-0.040
-340.348	25.964	0.036	-0.030
-339.333	-62.316	0.147	0.062
-338.318	-151.730	0.120	-0.009
-337.304	-150.374	0.240	0.019
-336.289	168.106	-0.127	0.182
-335.275	57.385	-0.187	0.184
-334.260	138.948	0.209	0.276
-333.245	800.000	0.035	0.124
-332.231	69.740	0.070	0.073
-331.216	-20.692	0.179	0.110
-330.202	-187.634	-0.417	0.006
-329.187	1.526	-0.200	0.144
-328.172	-133.998	-0.223	0.028
-327.158	72.247	0.194	0.203
-326.143	-200.000	-0.007	-0.065
-325.129	-27.377	0.332	0.194
-324.114	11.950	-0.188	-0.145
-323.099	70.847	-0.175	0.182
-322.085	-65.961	-0.339	-0.136
-321.070	-103.052	-0.350	-0.083
-320.056	46.343	-0.228	0.212
-319.041	-119.174	0.183	-0.032
-318.026	658.553	-0.084	0.218
-317.012	32.701	-0.129	-0.112
-315.997	-13.443	-0.175	0.114
-314.983	-98.015	-0.075	-0.019
-313.968	660.330	0.049	0.125
-312.953	111.225	0.089	-0.108
-311.939	800.000	-0.072	-0.219
-310.924	129.440	-0.013	0.017
-309.910	-36.848	0.042	0.023
-308.895	119.130	-0.090	0.111
-307.880	336.876	0.179	-0.349
-306.866	78.038	-0.131	-0.140
-305.851	800.000	0.070	0.249
-304.837	-102.824	-0.247	-0.059
-303.822	-113.029	0.248	0.049
-302.807	-150.265	0.207	0.016
-301.793	-82.077	-0.292	-0.095
-300.778	800.000	0.107	0.327
-299.764	800.000	0.042	0.157
-298.749	-0.148	-0.096	-0.068
-297.735	518.259	0.034	0.080
-296.720	-48.409	0.185	-0.090
-295.705	-200.000	-0.034	-0.215
-294.691	-74.154	0.044	-0.016
-293.676	-0.724	-0.103	-0.073
-292.662	-13.363	0.140	-0.091
-291.647	158.577	0.191	0.265
-290.632	134.168	0.212	-0.276
-289.618	-88.857	0.190	0.056
-288.603	-55.351	-0.182	0.082
-287.589	-200.000	0.022	0.105
-286.574	-200.000	-0.048	-0.409
-285.559	83.341	-0.150	-0.164
-284.545	800.000	-0.083	-0.230
-283.530	626.817	-0.204	0.515
-282.516	43.426	-0.149	-0.137
-281.501	800.000	0.069	0.238
-280.486	-42.383	0.095	-0.049
-279.472	-85.990	0.157	-0.049
-278.457	-131.592	-0.322	-0.042
-277.443	28.896	0.104	-0.088
-276.428	-200.000	0.035	0.400
-275.413	-84.240	0.227	0.072
-274.399	10.906	-0.031	0.023
-273.384	-67.010	-0.038	-0.015
-272.370	-78.430	-0.207	0.071
-271.355	-86.410	0.135	-0.042
-270.340	-0.540	-0.117	0.083
-269.326	-200.000	0.001	-0.058
-268.311	-200.000	-0.008	-0.042
-267.297	144.210	0.217	0.290
-266.282	-108.942	0.238	-0.051
-265.267	800.000	0.087	-0.245
-264.253	-100.734	-0.125	-0.031
-263.238	-99.590	-0.282	-0.071
-262.224	39.432	-0.206	0.184
-261.209	275.532	-0.040	-0.072
-260.195	53.486	-0.294	-0.283
-259.180	-77.399	0.269	-0.094
-258.165	-200.000	0.032	-0.167
-257.151	732.161	-0.050	-0.135
-256.136	-122.788	-0.158	0.026
-255.122	51.264	0.118	0.112
-254.107	98.198	0.049	-0.057
-253.092	293.447	-0.080	0.146
-252.078	-90.606	0.221	0.064
-251.063	-70.836	-0.288	0.109
-250.049	-168.206	0.303	-0.012
-249.034	-38.643	-0.172	-0.091
-248.019	34.892	-0.020	-0.017
-247.005	-31.677	0.013	0.007
-245.990	274.342	0.042	0.074
-244.976	-98.436	-0.015	-0.004
-243.961	224.951	-0.115	0.186
-242.946	316.461	0.247	0.466
-241.932	-100.549	-0.262	-0.065
-240.917	-93.760	-0.306	-0.084
-239.903	800.000	0.047	-0.200
-238.888	-3.578	-0.211	0.147
-237.873	-200.000	-0.053	0.285
-236.859	-41.364	-0.153	0.079
-235.844	562.227	-0.179	-0.433
-234.830	67.175	-0.150	0.153
-233.815	58.148	0.093	-0.091
-232.800	251.583	-0.163	-0.277
-231.786	13.935	0.107	0.083
-230.771	-200.000	0.029	0.307
-229.757	120.892	0.311	-0.387
-228.742	279.049	0.019	0.035
-227.727	-200.000	-0.019	-0.095
-226.713	402.806	0.128	0.270
-225.698	22.714	0.086	0.070
-224.684	462.545	0.111	-0.248
-223.669	-102.256	-0.222	-0.053
-222.655	165.969	0.102	-0.145
-221.640	-200.000	0.024	0.254
-220.625	131.376	0.043	-0.055
-219.611	15.319	-0.252	0.198
-218.596	-200.000	0.005	0.086
-217.582	-131.506	0.285	0.038
-216.567	-200.000	-0.018	-0.342
-215.552	-173.917	0.161	-0.005
-214.538	-168.778	0.215	-0.008
-213.523	288.035	0.088	0.160
-212.509	-123.855	0.299	0.047
-211.494	800.000	-0.032	-0.138
-210.479	259.259	-0.220	-0.379
-209.465	800.000	0.088	0.254
-208.450	299.008	-0.088	0.162
-207.436	122.557	-0.171	-0.214
-206.421	-200.000	-0.001	0.026
-205.406	-67.918	0.204	0.079
-204.392	134.919	-0.184	0.239
-203.377	-200.000	-0.027	-0.251
-202.363	46.785	-0.133	-0.124
-201.348	708.706	-0.018	-0.048
-200.333	-20.441	0.067	-0.041
-199.319	-200.000	-0.073	-0.358
-198.304	-200.000	-0.010	-0.074
-197.290	-26.541	0.105	-0.061
-196.275	123.336	0.182	0.228
-195.260	-10.566	0.136	0.090
-194.246	162.440	0.092	-0.129
-193.231	800.000	-0.117	-0.361
-192.217	-102.983	-0.166	-0.039
-191.202	-90.228	0.252	-0.073
-190.187	98.200	0.131	-0.150
-189.173	-39.724	-0.096	0.050
-188.158	786.024	0.057	-0.157
-187.144	-200.000	0.009	-0.149
-186.129	-43.223	0.214	-0.108
-185.114	429.280	0.055	0.120
-184.100	-200.000	-0.011	-0.297
-183.085	-16.656	0.232	0.147
-182.071	64.025	0.034	-0.035
-181.056	-40.317	0.149	-0.078
-180.042	-200.000	0.101	0.473
-179.027	-122.551	0.216	-0.035
-178.012	-22.159	0.171	-0.103
-176.998	-4.266	-0.132	0.091
-175.983	-200.000	0.033	0.151
-174.969	19.275	0.148	0.118
-173.954	-200.000	0.005	0.163
-172.939	-200.000	0.014	-0.097
-171.925	-50.888	-0.181	0.085
-170.910	105.363	0.144	0.170
-169.896	75.484	0.128	-0.135
-168.881	98.648	-0.181	0.208
-167.866	-192.916	-0.292	-0.003
-166.852	272.256	0.090	0.159
-165.837	149.910	-0.067	0.090
-164.823	-88.575	-0.132	0.039
-163.808	-200.000	-0.273	0.001
-162.793	172.542	-0.208	-0.299
-161.779	-200.000	0.009	-0.180
-160.764	-26.747	0.441	-0.257
-159.750	-118.709	-0.212	0.037
-158.735	-200.000	0.017	-0.088
-157.720	-51.270	-0.620	0.289
-156.706	-106.837	-0.375	0.083
-155.691	-104.150	0.215	-0.050
-154.677	-200.000	0.015	-0.104
-153.662	-76.859	0.290	0.101
-152.647	-187.788	-0.284	-0.004
-151.633	-101.906	0.274	-0.066
-150.618	696.854	-0.006	-0.015
-149.604	800.000	0.117	-0.439
-148.589	719.106	0.073	-0.193
-147.574	94.462	-0.102	0.116
-146.560	-200.000	-0.017	-0.083
-145.545	-4.128	0.128	-0.088
-144.531	800.000	0.143	0.401
-143.516	-64.422	0.231	-0.094
-142.502	691.392	0.086	0.225
-141.487	174.732	-0.127	-0.184
-140.472	800.000	0.016	0.053
-139.458	336.659	-0.147	0.285
-138.443	-200.000	0.032	0.161
-137.429	-44.297	-0.220	-0.110
-136.414	62.288	-0.125	-0.125
-135.399	62.333	-0.296	-0.295
-134.385	140.376	-0.065	0.085
-133.370	4.991	-0.181	-0.133
-132.356	800.000	-0.048	-0.199
-131.341	3.623	-0.226	-0.165
-130.326	800.000	-0.068	0.256
-129.312	-67.224	0.053	-0.021
-128.297	133.747	0.141	0.182
-127.283	209.473	-0.017	0.026
-126.268	-6.207	0.089	0.060
-125.253	423.119	0.148	-0.316
-124.239	9.684	-0.307	-0.232
-123.224	-46.513	-0.357	0.174
-122.210	227.930	0.125	-0.203
-121.195	-139.839	0.297	0.031
