DTS Sentinel unit serial number:	SN413079Multiplexer serial number:	ORYXHardware model number:	OX4-SRSoftware version number:	ORYX F/W v4.00 Oryx Data Collector v3.7.2.0data status	okinstallation	princeton_trtdifferential loss correction	single-endedforward channel	channel 1reverse channel	N/Adate	2019/09/17time	18:34:35forward acquisition time	60.00reverse acquisition time	0.00gamma	496.2192k internal	0.2290k external	0.2290temperature offset calibration	0.9959default loss term (dB/km)	0.3790temperature slope calibration	1.0000multiplexer offset coefficient	1.0000multiplexer slope coefficient	1.0000fibre end	0.00T internal ref (°C)	42.84T ext. ref 1 (°C)	0.31T ext. ref 2 (°C)	35.70length (m)	temperature (°C)	Stokes	anti-Stokes-747.200	-131.363	0.227	0.031
-746.185	-29.126	0.374	0.220
-745.171	-14.992	0.147	0.096
-744.156	16.631	0.117	-0.095
-743.142	616.219	0.029	-0.074
-742.127	-200.000	-0.080	0.411
-741.112	-200.000	-0.022	0.231
-740.098	-65.308	-0.322	0.133
-739.083	-105.327	-0.170	0.040
-738.069	17.970	-0.139	0.113
-737.054	-137.461	-0.216	0.025
-736.039	85.848	0.066	0.074
-735.025	-78.598	-0.107	0.037
-734.010	-200.000	-0.003	-0.196
-732.996	195.058	0.082	-0.128
-731.981	-62.981	-0.062	0.026
-730.966	800.000	0.044	-0.193
-729.952	302.695	0.059	0.111
-728.937	65.555	0.143	0.148
-727.923	481.011	0.131	-0.304
-726.908	157.300	0.120	-0.171
-725.894	222.983	-0.084	-0.138
-724.879	-52.694	0.184	-0.087
-723.864	278.517	-0.199	-0.363
-722.850	-46.473	-0.334	0.168
-721.835	800.000	-0.089	0.362
-720.821	432.298	0.127	-0.282
-719.806	365.749	-0.182	0.375
-718.791	-200.000	0.016	0.149
-717.777	-32.660	0.036	0.021
-716.762	800.000	-0.060	-0.196
-715.748	-198.895	-0.289	0.002
-714.733	-120.772	-0.189	-0.033
-713.718	104.009	0.175	-0.211
-712.704	800.000	0.040	-0.165
-711.689	58.445	-0.134	-0.134
-710.675	441.006	0.060	0.133
-709.660	127.876	0.198	-0.257
-708.645	-157.564	-0.049	0.003
-707.631	-20.594	0.103	-0.064
-706.616	-63.399	-0.035	0.015
-705.602	-178.826	0.357	0.008
-704.587	-182.764	-0.239	-0.004
-703.572	84.872	0.214	-0.240
-702.558	-35.483	-0.113	0.063
-701.543	-27.488	-0.030	0.018
-700.529	-74.818	0.156	-0.057
-699.514	-200.000	0.073	0.439
-698.499	7.608	-0.161	0.123
-697.485	800.000	0.031	-0.097
-696.470	196.859	-0.096	-0.149
-695.456	752.630	0.115	0.318
-694.441	-135.225	0.314	-0.039
-693.426	-87.096	-0.239	0.074
-692.412	-80.846	-0.201	0.068
-691.397	192.332	-0.088	0.135
-690.383	-17.294	0.057	0.037
-689.368	25.974	-0.262	0.223
-688.354	-200.000	0.023	-0.393
-687.339	376.274	0.183	-0.383
-686.324	-200.000	0.012	0.267
-685.310	146.589	0.133	0.182
-684.295	-173.782	-0.033	-0.001
-683.281	30.472	-0.142	-0.124
-682.266	800.000	0.062	-0.213
-681.251	-200.000	-0.001	0.040
-680.237	60.606	-0.231	-0.234
-679.222	-148.382	-0.239	-0.020
-678.208	-47.695	0.198	0.098
-677.193	-131.069	0.084	-0.011
-676.178	284.009	0.066	0.122
-675.164	-51.486	-0.267	0.128
-674.149	-200.000	0.096	-0.545
-673.135	634.481	-0.087	0.225
-672.120	-65.574	0.307	0.126
-671.105	168.559	-0.029	-0.042
-670.091	334.755	0.092	-0.182
-669.076	-39.483	0.101	0.054
-668.062	-126.227	-0.344	0.053
-667.047	-200.000	-0.003	0.040
-666.032	110.450	-0.080	0.098
-665.018	-70.609	0.070	0.027
-664.003	748.628	0.118	-0.326
-662.989	231.923	0.061	-0.103
-661.974	111.442	-0.276	-0.340
-660.959	-37.222	0.028	0.015
-659.945	-200.000	-0.007	0.060
-658.930	-200.000	0.030	0.240
-657.916	-51.959	0.369	0.175
-656.901	-200.000	-0.019	-0.232
-655.886	-55.536	0.109	0.050
-654.872	289.960	-0.079	0.146
-653.857	427.920	0.050	0.111
-652.843	-200.000	0.003	0.274
-651.828	140.248	0.068	-0.092
-650.814	-200.000	-0.054	-0.301
-649.799	-185.267	0.233	-0.004
-648.784	-120.826	-0.123	-0.021
-647.770	-200.000	0.021	0.130
-646.755	-68.710	-0.292	-0.115
-645.741	-200.000	0.001	-0.229
-644.726	45.479	0.156	0.147
-643.711	202.219	-0.252	-0.397
-642.697	-91.573	-0.314	0.091
-641.682	443.422	-0.074	0.167
-640.668	53.931	0.137	0.134
-639.653	151.715	0.090	-0.125
-638.638	208.412	-0.150	0.240
-637.624	-135.744	-0.105	-0.013
-636.609	-93.611	0.309	-0.087
-635.595	63.559	-0.216	0.221
-634.580	59.445	0.145	-0.146
-633.565	-141.183	-0.232	-0.024
-632.551	349.226	-0.076	0.153
-631.536	281.405	-0.087	-0.159
-630.522	800.000	0.023	0.079
-629.507	43.635	0.184	0.172
-628.492	19.593	-0.165	0.135
-627.478	7.087	0.216	-0.164
-626.463	-80.909	0.329	-0.111
-625.449	-165.338	-0.052	-0.002
-624.434	-29.825	0.233	0.135
-623.419	800.000	-0.024	-0.087
-622.405	-200.000	-0.036	-0.175
-621.390	578.250	-0.087	0.218
-620.376	-58.396	-0.190	0.084
-619.361	167.100	-0.233	0.337
-618.346	-121.324	-0.304	-0.052
-617.332	20.883	0.009	-0.008
-616.317	14.796	-0.191	-0.152
-615.303	-200.000	0.041	-0.236
-614.288	371.898	-0.071	0.146
-613.273	628.073	0.101	0.261
-612.259	84.260	-0.024	-0.027
-611.244	466.024	-0.191	0.437
-610.230	-174.972	0.157	-0.004
-609.215	-32.208	-0.077	0.044
-608.201	-200.000	0.027	0.132
-607.186	-82.058	-0.245	-0.082
-606.171	-135.665	-0.162	-0.020
-605.157	272.264	0.172	0.310
-604.142	-200.000	0.010	0.117
-603.128	343.525	0.074	0.148
-602.113	-152.000	0.198	0.015
-601.098	-16.550	0.297	-0.192
-600.084	87.096	0.208	-0.234
-599.069	-200.000	-0.025	-0.118
-598.055	-73.155	0.098	-0.037
-597.040	-78.672	-0.321	-0.112
-596.025	-66.074	-0.050	0.020
-595.011	247.295	-0.189	-0.325
-593.996	389.762	0.073	0.154
-592.982	87.675	-0.216	0.243
-591.967	8.031	0.303	0.231
-590.952	107.677	0.030	0.037
-589.938	-113.874	0.159	0.031
-588.923	-200.000	-0.039	0.258
-587.909	-16.121	0.425	-0.275
-586.894	-200.000	-0.006	-0.260
-585.879	-56.138	0.245	0.111
-584.865	800.000	0.035	-0.100
-583.850	-200.000	-0.022	0.336
-582.836	-200.000	-0.012	-0.180
-581.821	-19.989	-0.092	0.058
-580.806	-115.204	-0.432	-0.083
-579.792	-111.828	-0.270	0.056
-578.777	-17.606	-0.129	-0.083
-577.763	800.000	0.030	0.117
-576.748	-5.903	0.122	0.085
-575.733	278.633	-0.102	0.184
-574.719	-200.000	-0.037	-0.176
-573.704	328.281	0.102	-0.198
-572.690	-200.000	-0.012	0.133
-571.675	74.976	-0.240	-0.258
-570.661	269.978	-0.063	-0.112
-569.646	-26.594	0.274	-0.164
-568.631	-200.000	-0.053	-0.663
-567.617	-93.202	0.178	0.050
-566.602	-127.290	0.446	-0.066
-565.588	50.814	-0.084	0.081
-564.573	521.821	-0.136	-0.326
-563.558	177.376	0.130	-0.193
-562.544	17.029	-0.158	-0.128
-561.529	31.358	-0.079	-0.069
-560.515	800.000	-0.051	-0.152
-559.500	-200.000	-0.030	0.168
-558.485	-128.730	-0.113	0.016
-557.471	800.000	-0.009	0.038
-556.456	99.166	-0.162	-0.191
-555.442	-200.000	-0.006	-0.053
-554.427	65.674	-0.118	0.122
-553.412	-200.000	-0.059	0.401
-552.398	-200.000	0.027	0.396
-551.383	17.171	-0.303	0.244
-550.369	246.110	-0.062	0.107
-549.354	-200.000	0.052	0.292
-548.339	-125.326	-0.507	0.079
-547.325	-93.545	-0.104	0.029
-546.310	-71.093	-0.136	-0.052
-545.296	800.000	-0.032	-0.105
-544.281	72.182	0.114	-0.120
-543.266	-200.000	-0.035	-0.364
-542.252	733.205	-0.041	-0.111
-541.237	-106.004	0.352	0.080
-540.223	62.569	0.252	-0.256
-539.208	-113.684	-0.292	0.058
-538.193	102.162	0.221	-0.263
-537.179	-96.138	0.199	-0.054
-536.164	-200.000	-0.041	0.272
-535.150	357.796	0.040	0.082
-534.135	-200.000	-0.055	0.294
-533.121	117.257	-0.198	0.247
-532.106	32.597	-0.106	-0.093
-531.091	260.268	-0.113	0.198
-530.077	-200.000	-0.053	0.342
-529.062	-200.000	-0.043	0.415
-528.048	329.131	-0.165	0.322
-527.033	-86.304	-0.261	0.082
-526.018	-30.536	0.186	0.107
-525.004	-22.231	-0.509	0.313
-523.989	55.887	-0.170	0.167
-522.975	97.889	-0.260	0.304
-521.960	288.674	0.119	-0.219
-520.945	-200.000	0.006	-0.049
-519.931	800.000	-0.064	-0.181
-518.916	-95.975	-0.099	0.027
-517.902	-181.409	-0.162	-0.003
-516.887	371.434	-0.133	-0.273
-515.872	173.907	-0.017	-0.026
-514.858	-200.000	-0.041	0.218
-513.843	2.196	-0.223	0.163
-512.829	800.000	0.031	-0.103
-511.814	170.984	0.181	-0.263
-510.799	800.000	0.070	0.209
-509.785	155.722	0.146	0.204
-508.770	48.247	-0.209	0.199
-507.756	41.384	0.070	0.065
-506.741	13.600	0.076	-0.060
-505.726	-95.012	-0.105	0.029
-504.712	16.192	-0.074	0.059
-503.697	800.000	-0.092	0.298
-502.683	-124.784	-0.291	0.046
-501.668	387.435	0.128	-0.270
-500.653	350.482	0.082	-0.165
-499.639	69.635	0.182	-0.190
-498.624	800.000	0.052	-0.212
-497.610	167.356	-0.094	-0.135
-496.595	544.469	0.084	0.203
-495.581	22.277	0.196	-0.163
-494.566	-0.660	0.108	-0.078
-493.551	-32.858	0.192	0.108
-492.537	800.000	-0.063	-0.225
-491.522	-24.797	-0.089	-0.054
-490.508	59.726	0.040	0.040
-489.493	-200.000	0.018	-0.231
-488.478	53.707	-0.156	-0.152
-487.464	-200.000	-0.028	0.517
-486.449	-200.000	0.005	0.271
-485.435	-120.000	-0.121	0.021
-484.420	-200.000	0.005	0.099
-483.405	-69.778	0.230	-0.089
-482.391	-24.317	-0.115	-0.070
-481.376	-200.000	0.007	0.136
-480.362	81.337	-0.084	0.093
-479.347	-146.000	-0.130	-0.012
-478.332	172.004	0.073	-0.106
-477.318	-95.608	0.384	0.104
-476.303	748.562	0.016	0.044
-475.289	-200.000	0.033	0.165
-474.274	518.276	-0.018	0.042
-473.259	-200.000	0.009	-0.124
-472.245	-75.914	-0.102	-0.037
-471.230	-46.115	-0.171	-0.085
-470.216	-84.150	-0.301	-0.097
-469.201	-80.374	0.260	-0.088
-468.186	-28.102	0.103	-0.060
-467.172	14.586	-0.312	0.247
-466.157	708.594	-0.039	0.104
-465.143	123.069	0.118	-0.150
-464.128	-146.768	-0.212	-0.019
-463.113	-27.368	-0.077	-0.045
-462.099	514.875	-0.049	0.116
-461.084	76.003	0.128	-0.137
-460.070	694.005	-0.156	-0.413
-459.055	75.245	-0.206	0.220
-458.040	-200.000	-0.010	-0.323
-457.026	-145.384	-0.205	-0.019
-456.011	-139.638	0.250	-0.027
-454.997	-132.743	0.152	-0.020
-453.982	-10.000	-0.328	-0.221
-452.968	-200.000	-0.048	-0.251
-451.953	224.892	-0.082	0.135
-450.938	-22.734	0.551	-0.337
-449.924	53.852	0.314	0.305
-448.909	-200.000	-0.009	0.234
-447.895	800.000	0.088	-0.259
-446.880	-92.654	0.085	0.024
-445.865	159.569	0.188	0.264
-444.851	-200.000	0.004	0.060
-443.836	-200.000	0.016	0.106
-442.822	800.000	0.110	0.322
-441.807	319.182	0.154	-0.296
-440.792	-200.000	0.018	0.111
-439.778	800.000	0.057	-0.197
-438.763	-17.588	0.309	-0.197
-437.749	-200.000	-0.052	-0.279
-436.734	-36.089	-0.254	0.139
-435.719	-132.461	0.145	0.019
-434.705	97.580	-0.240	-0.279
-433.690	43.642	-0.152	0.140
-432.676	-200.000	0.055	0.279
-431.661	11.108	-0.210	-0.162
-430.646	-133.267	-0.259	-0.033
-429.632	-169.542	-0.221	0.008
-428.617	699.898	0.032	0.085
-427.603	-87.574	0.415	0.127
-426.588	506.496	0.091	-0.214
-425.573	-91.914	-0.356	0.102
-424.559	195.898	-0.042	0.064
-423.544	306.995	0.119	0.225
-422.530	-87.489	-0.220	0.067
-421.515	-200.000	0.004	-0.026
-420.500	800.000	0.057	-0.190
-419.486	-52.153	0.186	0.087
-418.471	44.662	-0.177	-0.165
-417.457	-200.000	-0.018	0.126
-416.442	-73.358	-0.096	0.035
-415.428	-94.429	0.145	0.040
-414.413	-70.286	-0.247	0.095
-413.398	357.781	-0.050	0.100
-412.384	227.480	0.091	-0.149
-411.369	-146.658	0.256	0.022
-410.355	65.800	0.073	0.075
-409.340	-200.000	-0.006	0.458
-408.325	800.000	0.048	0.181
-407.311	-121.882	-0.174	-0.029
-406.296	-163.497	0.123	-0.006
-405.282	-142.386	-0.113	-0.011
-404.267	-163.153	-0.266	0.013
-403.252	800.000	0.130	0.442
-402.238	333.087	0.100	-0.196
-401.223	-67.065	0.178	0.071
-400.209	208.015	0.093	-0.146
-399.194	-200.000	0.026	-0.322
-398.179	22.085	0.172	-0.142
-397.165	167.039	0.123	0.176
-396.150	432.526	0.061	0.133
-395.136	35.692	0.130	-0.115
-394.121	-114.352	-0.028	0.005
-393.106	107.227	0.135	-0.162
-392.092	322.582	-0.144	-0.277
-391.077	-42.536	-0.402	-0.207
-390.063	-12.219	0.165	-0.109
-389.048	-51.264	0.289	0.137
-388.033	-152.962	0.063	0.004
-387.019	44.763	-0.087	0.081
-386.004	-77.291	0.242	-0.085
-384.990	-27.619	-0.464	-0.272
-383.975	-159.565	0.239	0.013
-382.960	22.476	-0.131	-0.108
-381.946	309.676	-0.100	-0.189
-380.931	800.000	-0.037	-0.123
-379.917	400.862	0.090	0.190
-378.902	-53.192	0.146	-0.068
-377.888	-200.000	-0.028	0.181
-376.873	356.707	-0.094	0.189
-375.858	627.510	-0.032	0.081
-374.844	440.387	-0.084	0.185
-373.829	779.593	0.016	0.045
-372.815	2.970	-0.039	0.029
-371.800	43.006	-0.260	-0.240
-370.785	326.185	0.166	0.320
-369.771	800.000	0.111	0.394
-368.756	122.078	0.181	0.228
-367.742	-75.832	0.134	-0.048
-366.727	-59.760	0.136	-0.059
-365.712	334.518	-0.145	0.284
-364.698	800.000	-0.011	-0.034
-363.683	-87.494	-0.137	-0.042
-362.669	-117.285	0.226	-0.041
-361.654	-52.608	-0.116	0.054
-360.639	163.213	0.232	-0.329
-359.625	99.339	0.206	0.240
-358.610	-200.000	-0.025	0.149
-357.596	800.000	-0.093	-0.265
-356.581	215.671	-0.102	-0.164
-355.566	28.112	0.240	-0.205
-354.552	247.683	0.175	-0.299
-353.537	-123.164	-0.027	-0.004
-352.523	64.201	-0.291	-0.295
-351.508	-109.447	-0.511	-0.109
-350.493	653.607	0.115	-0.299
-349.479	-181.667	0.337	0.007
-348.464	-156.041	0.267	0.017
-347.450	20.506	0.252	-0.205
-346.435	-148.118	0.347	0.029
-345.420	-22.940	0.154	-0.094
-344.406	106.725	-0.132	-0.158
-343.391	-37.429	0.358	0.193
-342.377	209.373	0.081	-0.129
-341.362	115.969	0.185	-0.228
-340.348	-200.000	0.079	-0.460
-339.333	800.000	-0.070	-0.255
-338.318	-200.000	0.001	-0.127
-337.304	-36.814	0.100	-0.054
-336.289	-200.000	0.017	-0.265
-335.275	-200.000	-0.012	0.145
-334.260	105.705	0.123	-0.147
-333.245	-36.157	0.048	0.026
-332.231	23.548	0.157	0.130
-331.216	-36.836	0.435	0.235
-330.202	-146.778	0.295	-0.026
-329.187	33.119	-0.148	-0.129
-328.172	-5.825	0.024	0.017
-327.158	688.312	-0.058	-0.154
-326.143	-12.398	-0.262	-0.173
-325.129	391.359	-0.118	0.247
-324.114	66.993	0.074	0.076
-323.099	-93.927	0.306	0.085
-322.085	99.299	0.108	-0.126
-321.070	249.469	0.146	-0.249
-320.056	800.000	0.067	0.289
-319.041	800.000	0.011	-0.041
-318.026	-72.170	-0.059	0.022
-317.012	448.160	0.052	-0.114
-315.997	-200.000	0.018	-0.097
-314.983	19.027	0.198	0.160
-313.968	-200.000	-0.008	-0.372
-312.953	659.850	0.026	-0.066
-311.939	-62.326	0.259	0.109
-310.924	-200.000	0.015	-0.096
-309.910	-200.000	0.040	-0.228
-308.895	-13.473	-0.105	-0.069
-307.880	-187.776	-0.248	-0.003
-306.866	800.000	0.057	0.176
-305.851	-24.694	-0.213	0.127
-304.837	-17.426	0.120	0.076
-303.822	-94.481	-0.230	-0.063
-302.807	91.132	-0.164	0.186
-301.793	-19.048	0.202	-0.127
-300.778	471.825	-0.093	-0.210
-299.764	-92.727	-0.320	0.090
-298.749	-84.717	0.071	-0.023
-297.735	-175.359	0.103	-0.003
-296.720	-18.956	0.129	0.081
-295.705	-23.784	-0.139	0.084
-294.691	-15.602	-0.184	-0.118
-293.676	-11.627	0.231	-0.153
-292.662	530.548	-0.058	-0.137
-291.647	-67.483	-0.336	-0.133
-290.632	288.021	-0.090	0.164
-289.618	289.404	-0.211	0.385
-288.603	-156.295	0.169	-0.011
-287.589	-153.850	0.168	0.012
-286.574	-150.691	-0.101	0.008
-285.559	-171.021	-0.209	-0.007
-284.545	-62.130	-0.294	0.123
-283.530	-200.000	0.178	0.000
-282.516	275.876	-0.091	-0.163
-281.501	-65.547	0.114	-0.046
-280.486	-200.000	0.013	0.193
-279.472	-140.727	-0.303	0.031
-278.457	137.578	-0.125	0.164
-277.443	-200.000	-0.002	0.012
-276.428	50.396	0.275	0.262
-275.413	-144.250	-0.258	0.024
-274.399	-147.906	0.160	0.013
-273.384	44.198	0.153	-0.141
-272.370	-56.970	0.049	-0.022
-271.355	194.675	-0.183	-0.280
-270.340	-101.973	-0.156	0.038
-269.326	363.526	0.144	-0.291
-268.311	-25.668	0.137	0.081
-267.297	738.864	0.040	-0.109
-266.282	470.573	0.071	-0.159
-265.267	-155.983	-0.091	0.006
-264.253	800.000	0.064	0.182
-263.238	-200.000	-0.003	-0.224
-262.224	-200.000	-0.414	-0.000
-261.209	-200.000	0.027	0.149
-260.195	140.992	0.151	-0.200
-259.180	307.970	-0.119	-0.223
-258.165	-200.000	-0.006	-0.090
-257.151	249.634	0.158	-0.269
-256.136	239.066	-0.054	-0.090
-255.122	56.813	-0.194	0.190
-254.107	800.000	0.084	0.289
-253.092	800.000	0.009	-0.031
-252.078	-134.562	0.046	-0.006
-251.063	-11.350	-0.166	-0.110
-250.049	-111.205	0.506	-0.104
-249.034	217.864	0.129	0.207
-248.019	-17.828	0.296	-0.186
-247.005	800.000	-0.045	-0.153
-245.990	800.000	0.155	-0.617
-244.976	-10.080	-0.154	0.103
-243.961	-24.226	0.091	-0.054
-242.946	-158.863	0.311	0.018
-241.932	-144.968	0.212	-0.019
-240.917	800.000	0.085	-0.341
-239.903	108.354	0.114	-0.137
-238.888	-10.266	0.047	-0.032
-237.873	10.878	0.222	-0.170
-236.859	-50.166	0.141	-0.067
-235.844	-159.617	-0.360	-0.020
-234.830	5.444	-0.163	-0.121
-233.815	-137.264	0.188	-0.022
-232.800	173.826	0.183	-0.265
-231.786	-30.154	-0.205	0.117
-230.771	50.061	0.130	-0.123
-229.757	-109.730	0.058	-0.012
-228.742	-180.025	0.069	0.001
-227.727	-86.174	0.230	0.071
-226.713	364.893	-0.057	-0.116
-225.698	43.630	-0.202	0.186
-224.684	-200.000	0.002	-0.093
-223.669	108.223	-0.180	0.215
-222.655	16.911	-0.203	0.162
-221.640	-84.453	-0.369	0.117
-220.625	-150.192	0.184	-0.014
-219.611	-0.867	0.075	0.053
-218.596	162.086	-0.099	-0.139
-217.582	-200.000	-0.002	-0.302
-216.567	-71.263	0.092	-0.035
-215.552	-77.536	-0.086	0.030
-214.538	-153.402	0.296	-0.021
-213.523	32.932	-0.123	0.107
-212.509	755.244	0.042	0.113
-211.494	-200.000	0.039	0.276
-210.479	-200.000	-0.021	0.184
-209.465	-145.271	0.124	-0.011
-208.450	221.131	-0.103	0.167
-207.436	-44.983	0.228	-0.114
-206.421	15.168	0.294	0.231
-205.406	-94.508	-0.068	-0.019
-204.392	-80.556	-0.236	0.079
-203.377	-200.000	-0.004	0.118
-202.363	17.394	0.169	0.134
-201.348	-200.000	0.013	-0.069
-200.333	-200.000	0.046	-0.210
-199.319	477.938	-0.070	-0.159
-198.304	542.368	0.088	0.210
-197.290	154.244	-0.094	0.129
-196.275	625.082	0.101	0.255
-195.260	90.694	-0.147	0.165
-194.246	-150.732	-0.317	-0.024
-193.231	-200.000	-0.018	0.132
-192.217	508.582	-0.028	-0.066
-191.202	-177.760	0.109	-0.003
-190.187	-72.375	0.049	0.018
-189.173	48.226	-0.008	-0.008
-188.158	-54.440	-0.224	0.102
-187.144	331.278	0.070	0.135
-186.129	135.129	0.141	0.184
-185.114	22.453	0.219	0.179
-184.100	-58.468	0.230	0.100
-183.085	5.764	0.252	-0.186
-182.071	108.601	-0.216	0.258
-181.056	-123.629	-0.415	0.066
-180.042	88.976	0.074	0.082
-179.027	-79.601	0.140	0.047
-178.012	562.552	-0.061	-0.149
-176.998	260.464	-0.060	-0.103
-175.983	743.358	-0.095	-0.255
-174.969	264.596	-0.156	0.272
-173.954	-200.000	-0.036	-0.192
-172.939	-98.513	-0.379	0.097
-171.925	-43.496	-0.171	-0.087
-170.910	-38.441	-0.191	0.101
-169.896	-200.000	-0.002	-0.035
-168.881	-117.738	0.019	0.003
-167.866	-69.956	0.296	0.113
-166.852	-200.000	0.054	0.287
-165.837	92.399	-0.168	0.190
-164.823	-49.707	0.083	-0.039
-163.808	592.744	0.076	0.189
-162.793	100.958	0.049	-0.057
-161.779	133.899	0.150	0.195
-160.764	-111.576	0.120	-0.024
-159.750	-144.998	0.096	-0.009
-158.735	-83.480	-0.144	-0.046
-157.720	81.610	0.106	-0.115
-156.706	-126.579	-0.306	0.045
-155.691	44.733	-0.196	-0.181
-154.677	800.000	0.045	-0.136
-153.662	70.284	0.027	0.028
-152.647	-200.000	0.053	0.476
-151.633	3.735	0.048	-0.035
-150.618	203.212	0.153	0.237
-149.604	-200.000	-0.008	0.518
-148.589	189.270	0.139	0.209
-147.574	146.188	0.048	-0.065
-146.560	-96.132	-0.149	0.040
-145.545	-46.001	-0.187	-0.092
-144.531	-65.448	-0.025	0.010
-143.516	800.000	0.126	0.386
-142.502	-32.875	0.237	0.132
-141.487	39.305	-0.137	-0.123
-140.472	-157.829	0.478	-0.028
-139.458	-200.000	0.007	0.059
-138.443	-200.000	0.035	0.300
-137.429	-95.539	-0.302	0.081
-136.414	-185.858	0.311	0.005
-135.399	15.017	0.260	0.204
-134.385	-142.547	-0.126	0.012
-133.370	-16.176	0.164	-0.105
-132.356	-200.000	0.033	-0.200
-131.341	215.986	-0.167	-0.265
-130.326	109.180	-0.173	-0.207
-129.312	-200.000	0.055	-0.253
-128.297	800.000	-0.022	0.071
-127.283	790.463	-0.068	0.187
-126.268	-200.000	-0.017	0.117
-125.253	-2.696	-0.306	0.214
-124.239	207.619	0.144	-0.226
-123.224	800.000	-0.072	0.221
-122.210	-1.324	-0.150	0.106
-121.195	-10.388	-0.013	0.008
