DTS Sentinel unit serial number:	SN413079Multiplexer serial number:	ORYXHardware model number:	OX4-SRSoftware version number:	ORYX F/W v4.00 Oryx Data Collector v3.7.2.0data status	okinstallation	princeton_trtdifferential loss correction	single-endedforward channel	channel 1reverse channel	N/Adate	2019/09/19time	03:38:35forward acquisition time	60.00reverse acquisition time	0.00gamma	496.2192k internal	0.2344k external	0.2344temperature offset calibration	1.0021default loss term (dB/km)	0.3790temperature slope calibration	1.0000multiplexer offset coefficient	1.0000multiplexer slope coefficient	1.0000fibre end	0.00T internal ref (°C)	20.56T ext. ref 1 (°C)	0.65T ext. ref 2 (°C)	14.31length (m)	temperature (°C)	Stokes	anti-Stokes-747.200	133.655	0.137	0.177
-746.185	-32.344	0.189	0.106
-745.171	653.127	-0.098	0.252
-744.156	-165.680	-0.271	-0.012
-743.142	-68.985	-0.402	-0.155
-742.127	-63.506	-0.123	0.051
-741.112	-200.000	0.064	0.462
-740.098	-200.000	-0.002	0.329
-739.083	669.570	0.039	-0.102
-738.069	-148.810	-0.405	0.033
-737.054	-42.932	-0.208	-0.106
-736.039	-4.256	-0.272	-0.188
-735.025	-46.251	0.253	0.125
-734.010	800.000	0.028	0.117
-732.996	226.255	0.133	0.215
-731.981	-149.758	0.334	0.026
-730.966	783.498	0.052	0.142
-729.952	-165.995	-0.191	0.008
-728.937	112.271	-0.095	0.115
-727.923	-66.910	-0.078	-0.031
-726.908	800.000	-0.052	-0.164
-725.894	-139.865	-0.635	0.067
-724.879	87.237	-0.100	0.110
-723.864	25.296	0.275	0.229
-722.850	-5.286	0.185	0.127
-721.835	437.667	-0.084	-0.182
-720.821	264.444	-0.109	-0.189
-719.806	143.676	0.148	-0.197
-718.791	-110.207	-0.290	-0.060
-717.777	-109.883	0.292	0.061
-716.762	4.120	0.216	-0.158
-715.748	-82.916	-0.240	0.077
-714.733	-175.753	0.296	-0.008
-713.718	-200.000	0.055	-0.267
-712.704	-100.754	0.116	0.029
-711.689	-78.820	-0.101	-0.034
-710.675	-200.000	-0.010	0.070
-709.660	-178.473	0.243	0.006
-708.645	71.622	-0.085	-0.088
-707.631	226.266	0.171	-0.278
-706.616	-64.324	-0.166	-0.068
-705.602	12.837	-0.332	0.256
-704.587	800.000	0.098	0.281
-703.572	10.572	0.022	0.017
-702.558	-179.458	0.213	-0.005
-701.543	-200.000	-0.050	0.289
-700.529	-200.000	0.055	0.266
-699.514	-50.414	-0.471	0.222
-698.499	-200.000	-0.034	-0.333
-697.485	141.753	-0.237	0.313
-696.470	-79.461	-0.113	0.038
-695.456	800.000	-0.094	0.350
-694.441	131.547	0.197	-0.253
-693.426	234.993	-0.243	-0.400
-692.412	16.307	-0.130	0.102
-691.397	-35.250	0.083	0.045
-690.383	304.942	0.082	-0.152
-689.368	-24.081	-0.202	0.120
-688.354	800.000	-0.064	-0.196
-687.339	800.000	0.092	-0.378
-686.324	28.428	0.106	0.089
-685.310	10.828	0.110	0.084
-684.295	-75.139	-0.082	0.029
-683.281	0.015	0.102	0.073
-682.266	-103.762	-0.056	0.013
-681.251	-200.000	0.004	0.228
-680.237	-200.000	0.007	0.148
-679.222	-87.209	-0.113	-0.034
-678.208	-41.550	-0.136	0.070
-677.193	-0.745	0.073	0.052
-676.178	-30.101	-0.296	-0.168
-675.164	202.892	-0.087	-0.135
-674.149	156.581	0.033	-0.045
-673.135	116.525	-0.131	-0.161
-672.120	-200.000	0.064	-0.285
-671.105	800.000	0.158	-0.516
-670.091	-32.398	0.168	0.093
-669.076	53.508	-0.135	-0.129
-668.062	-200.000	-0.028	-0.339
-667.047	-111.170	-0.099	0.020
-666.032	271.212	0.103	-0.181
-665.018	-70.524	0.441	0.167
-664.003	-44.440	-0.306	0.153
-662.989	95.600	-0.120	-0.137
-661.974	71.673	0.153	0.158
-660.959	-200.000	-0.014	0.363
-659.945	-200.000	-0.040	0.184
-658.930	774.410	-0.010	-0.026
-657.916	800.000	0.060	0.238
-656.901	-127.400	0.292	-0.042
-655.886	-12.414	-0.429	-0.279
-654.872	-200.000	-0.031	0.338
-653.857	260.205	0.189	0.326
-652.843	-55.864	0.222	0.099
-651.828	204.387	-0.067	-0.104
-650.814	-200.000	0.022	-0.194
-649.799	17.943	0.231	0.183
-648.784	65.022	-0.167	0.169
-647.770	-200.000	-0.017	0.164
-646.755	-122.760	0.025	-0.004
-645.741	38.325	0.117	-0.104
-644.726	800.000	0.053	0.222
-643.711	-105.836	0.150	-0.034
-642.697	-200.000	-0.060	0.331
-641.682	-126.347	0.460	0.068
-640.668	-153.248	-0.317	-0.022
-639.653	283.512	-0.079	0.142
-638.638	9.357	-0.161	0.121
-637.624	557.706	0.079	-0.189
-636.609	800.000	-0.023	0.088
-635.595	-119.000	0.286	0.050
-634.580	-113.080	-0.263	-0.052
-633.565	220.802	-0.122	-0.196
-632.551	-106.675	-0.364	-0.081
-631.536	-84.551	-0.382	0.120
-630.522	-200.000	-0.052	-0.241
-629.507	800.000	-0.076	-0.280
-628.492	-129.638	0.177	0.024
-627.478	-200.000	0.001	0.072
-626.463	-0.902	-0.189	0.134
-625.449	800.000	0.056	0.218
-624.434	800.000	-0.087	-0.331
-623.419	-29.939	0.049	-0.028
-622.405	629.057	0.069	0.173
-621.390	-200.000	0.010	-0.240
-620.376	-33.435	0.045	-0.025
-619.361	103.548	-0.052	0.061
-618.346	-200.000	-0.000	0.055
-617.332	142.236	-0.214	-0.282
-616.317	414.035	0.085	-0.179
-615.303	136.444	0.137	-0.178
-614.288	-118.404	0.228	0.040
-613.273	-30.249	0.195	0.110
-612.259	31.681	-0.117	0.100
-611.244	-200.000	0.047	0.232
-610.230	159.457	0.132	-0.183
-609.215	800.000	-0.079	-0.270
-608.201	133.432	-0.194	0.250
-607.186	44.587	0.061	0.056
-606.171	800.000	0.058	-0.174
-605.157	-175.916	0.210	0.006
-604.142	800.000	0.050	-0.189
-603.128	-87.675	-0.113	-0.034
-602.113	-200.000	0.047	0.284
-601.098	-200.000	-0.017	-0.467
-600.084	414.280	0.110	0.233
-599.069	70.281	-0.147	-0.151
-598.055	-4.365	0.463	-0.319
-597.040	-200.000	-0.019	-0.306
-596.025	756.840	0.061	-0.163
-595.011	24.850	0.237	0.195
-593.996	785.312	0.106	0.288
-592.982	796.005	0.174	-0.477
-591.967	490.054	-0.033	-0.076
-590.952	-97.949	-0.207	-0.053
-589.938	130.235	-0.182	-0.232
-588.923	-92.740	0.100	-0.028
-587.909	-91.364	0.258	-0.073
-586.894	-33.936	0.264	-0.144
-585.879	-21.280	-0.470	0.286
-584.865	-200.000	-0.013	-0.277
-583.850	-200.000	-0.021	-0.129
-582.836	11.485	-0.252	0.192
-581.821	-34.377	-0.120	0.065
-580.806	-87.354	-0.238	-0.072
-579.792	-98.089	-0.360	0.092
-578.777	-119.570	-0.399	-0.069
-577.763	-63.669	-0.199	-0.081
-576.748	337.277	0.196	0.379
-575.733	-200.000	-0.016	0.157
-574.719	402.233	-0.140	-0.292
-573.704	-200.000	0.031	-0.290
-572.690	-161.884	-0.116	-0.006
-571.675	-200.000	0.066	-0.339
-570.661	107.140	0.141	-0.166
-569.646	-62.194	0.091	0.038
-568.631	-104.087	0.105	0.024
-567.617	-200.000	-0.053	0.314
-566.602	-200.000	0.061	0.382
-565.588	-57.791	0.063	-0.027
-564.573	208.677	0.088	-0.136
-563.558	536.087	0.076	-0.180
-562.544	299.190	0.064	0.118
-561.529	-200.000	-0.011	0.389
-560.515	653.589	-0.135	0.345
-559.500	56.342	-0.164	-0.158
-558.485	93.853	-0.177	0.200
-557.471	334.551	0.088	0.169
-556.456	586.872	-0.167	-0.408
-555.442	396.896	0.057	-0.118
-554.427	-13.029	-0.165	0.107
-553.412	134.792	0.078	-0.101
-552.398	-71.815	-0.440	-0.163
-551.383	800.000	0.086	0.324
-550.369	111.674	-0.161	0.193
-549.354	13.854	-0.237	-0.183
-548.339	-200.000	-0.010	0.366
-547.325	-120.215	-0.102	0.017
-546.310	103.574	-0.200	0.234
-545.296	138.337	-0.140	0.183
-544.281	604.171	0.106	0.262
-543.266	-200.000	0.003	0.318
-542.252	-90.647	-0.211	-0.061
-541.237	-200.000	0.007	-0.262
-540.223	-42.481	0.182	-0.092
-539.208	-65.988	-0.141	0.056
-538.193	39.272	0.096	-0.086
-537.179	-200.000	-0.026	-0.283
-536.164	-77.369	-0.263	-0.091
-535.150	265.660	0.082	0.142
-534.135	63.720	0.329	-0.328
-533.121	248.178	0.063	-0.106
-532.106	50.682	-0.143	-0.134
-531.091	-102.319	-0.204	-0.049
-530.077	199.721	-0.115	0.176
-529.062	-68.357	-0.100	-0.038
-528.048	-100.827	-0.255	-0.062
-527.033	211.337	-0.102	0.160
-526.018	-200.000	0.083	0.499
-525.004	-200.000	-0.008	0.052
-523.989	498.893	-0.078	-0.178
-522.975	-35.907	0.134	0.072
-521.960	800.000	-0.082	-0.316
-520.945	479.726	-0.044	0.100
-519.931	262.787	-0.255	0.440
-518.916	32.700	0.265	0.228
-517.902	48.269	0.158	0.147
-516.887	437.799	0.113	0.244
-515.872	-200.000	0.025	-0.196
-514.858	-12.719	0.299	-0.194
-513.843	-121.376	0.062	0.010
-512.829	-79.038	0.172	-0.058
-511.814	-200.000	0.036	0.200
-510.799	-200.000	0.007	0.057
-509.785	480.680	-0.062	0.138
-508.770	-200.000	0.010	-0.118
-507.756	28.526	-0.141	-0.118
-506.741	-136.760	0.336	0.038
-505.726	-92.427	0.106	0.029
-504.712	508.838	0.081	-0.187
-503.697	16.752	-0.054	-0.043
-502.683	-200.000	-0.093	-0.405
-501.668	4.881	0.396	-0.289
-500.653	-57.889	-0.125	0.054
-499.639	-200.000	-0.014	0.223
-498.624	315.262	0.088	0.165
-497.610	-200.000	-0.001	0.098
-496.595	-11.755	0.220	0.143
-495.581	-200.000	0.049	0.214
-494.566	-71.216	-0.166	-0.062
-493.551	-67.733	0.107	0.041
-492.537	-19.963	0.313	0.191
-491.522	-21.255	-0.309	0.187
-490.508	-168.169	-0.100	-0.004
-489.493	580.433	-0.089	0.216
-488.478	-200.000	-0.318	0.001
-487.464	41.695	-0.126	0.113
-486.449	-200.000	0.014	0.076
-485.435	200.640	0.048	-0.073
-484.420	-200.000	-0.040	0.324
-483.405	-83.014	0.350	0.112
-482.391	98.639	0.177	0.203
-481.376	110.436	-0.160	-0.191
-480.362	644.136	0.076	-0.193
-479.347	153.484	0.121	-0.164
-478.332	-200.000	0.006	0.200
-477.318	800.000	-0.083	-0.313
-476.303	-73.485	0.208	-0.075
-475.289	-77.614	-0.218	-0.075
-474.274	48.537	0.149	-0.139
-473.259	-109.563	0.108	-0.023
-472.245	29.859	0.153	-0.129
-471.230	0.649	-0.049	0.035
-470.216	102.023	0.105	-0.122
-469.201	-56.649	-0.445	0.195
-468.186	-200.000	0.009	-0.232
-467.172	-2.051	0.094	0.066
-466.157	-200.000	-0.038	0.388
-465.143	-28.654	-0.250	0.142
-464.128	-65.485	-0.290	0.115
-463.113	-84.049	-0.147	-0.046
-462.099	32.386	-0.198	-0.170
-461.084	-200.000	-0.001	0.207
-460.070	-115.540	-0.089	0.017
-459.055	-10.964	-0.224	-0.147
-458.040	-65.709	0.172	0.068
-457.026	253.119	-0.053	-0.090
-456.011	48.735	-0.086	0.080
-454.997	10.725	-0.279	-0.211
-453.982	130.078	-0.030	-0.038
-452.968	646.483	0.019	0.047
-451.953	110.523	-0.210	0.250
-450.938	-92.005	-0.146	0.041
-449.924	87.085	0.358	-0.391
-448.909	-194.596	-0.124	0.001
-447.895	570.759	-0.152	-0.367
-446.880	98.083	0.260	0.297
-445.865	270.188	-0.096	-0.168
-444.851	-106.182	0.571	0.127
-443.836	-44.950	-0.293	0.144
-442.822	340.593	-0.066	-0.127
-441.807	-200.000	-0.011	0.125
-440.792	-11.179	-0.093	-0.061
-439.778	426.759	0.210	0.448
-438.763	47.007	-0.239	-0.220
-437.749	-182.232	-0.281	-0.005
-436.734	-194.521	0.103	-0.001
-435.719	-200.000	-0.010	0.141
-434.705	-158.191	0.263	0.015
-433.690	-80.367	0.253	0.083
-432.676	283.252	0.105	-0.186
-431.661	101.718	-0.131	0.151
-430.646	-200.000	-0.009	-0.253
-429.632	-117.283	-0.413	0.074
-428.617	-25.834	-0.240	0.140
-427.603	90.431	0.043	-0.047
-426.588	308.139	0.177	-0.326
-425.573	325.352	-0.150	-0.283
-424.559	-200.000	0.037	-0.202
-423.544	-119.417	-0.236	-0.041
-422.530	-200.000	-0.100	0.444
-421.515	75.950	-0.080	-0.083
-420.500	-53.975	-0.047	0.021
-419.486	158.860	0.104	-0.142
-418.471	151.733	-0.166	-0.224
-417.457	-70.039	0.228	-0.086
-416.442	-10.851	-0.259	-0.169
-415.428	-96.230	-0.186	0.049
-414.413	-77.261	0.192	-0.066
-413.398	-127.261	-0.299	0.043
-412.384	-200.000	0.001	-0.279
-411.369	-46.137	-0.396	-0.193
-410.355	10.446	-0.086	0.065
-409.340	31.806	-0.130	-0.110
-408.325	-200.000	0.009	-0.049
-407.311	800.000	0.061	0.236
-406.296	-26.414	0.130	0.075
-405.282	728.095	-0.095	-0.251
-404.267	-200.000	-0.001	-0.242
-403.252	-106.022	0.253	0.056
-402.238	22.125	0.198	0.159
-401.223	679.024	-0.011	-0.029
-400.209	-200.000	-0.025	-0.247
-399.194	-200.000	-0.032	-0.150
-398.179	-89.868	-0.319	-0.092
-397.165	800.000	0.030	-0.101
-396.150	472.802	-0.079	-0.176
-395.136	47.808	-0.176	-0.163
-394.121	-135.886	0.112	0.013
-393.106	50.622	0.211	0.197
-392.092	-42.778	0.474	-0.238
-391.077	-200.000	0.009	0.224
-390.063	-68.230	0.102	-0.039
-389.048	-18.626	-0.061	-0.037
-388.033	747.309	0.016	0.042
-387.019	289.333	-0.060	0.107
-386.004	205.305	0.110	0.169
-384.990	-92.324	-0.238	-0.066
-383.975	-138.956	0.204	0.022
-382.960	9.041	0.194	-0.145
-381.946	-52.254	-0.126	-0.058
-380.931	127.185	0.132	-0.165
-379.917	-200.000	0.002	-0.057
-378.902	800.000	-0.028	0.098
-377.888	200.393	0.042	0.064
-376.873	-200.000	-0.002	0.131
-375.858	800.000	-0.066	0.202
-374.844	172.870	0.076	-0.108
-373.829	494.712	0.158	-0.358
-372.815	334.860	-0.103	-0.196
-371.800	98.676	0.165	0.188
-370.785	-160.345	0.084	-0.004
-369.771	-200.000	-0.003	0.040
-368.756	215.963	0.070	-0.109
-367.742	-163.310	0.200	0.009
-366.727	-200.000	-0.028	-0.374
-365.712	123.637	0.190	-0.235
-364.698	-200.000	-0.046	-0.380
-363.683	-52.489	-0.234	0.107
-362.669	-200.000	-0.006	0.214
-361.654	678.796	-0.200	0.513
-360.639	-147.344	0.126	-0.011
-359.625	-137.651	0.427	-0.047
-358.610	-34.679	0.235	0.127
-357.596	800.000	0.020	0.070
-356.581	-70.355	0.237	-0.089
-355.566	-162.775	0.494	-0.024
-354.552	769.691	0.127	-0.341
-353.537	-76.702	0.052	-0.018
-352.523	130.474	-0.130	0.165
-351.508	3.636	0.267	-0.192
-350.493	282.892	-0.104	-0.184
-349.479	800.000	0.088	-0.271
-348.464	206.696	0.136	0.208
-347.450	708.579	-0.065	0.169
-346.435	800.000	0.087	0.298
-345.420	-200.000	-0.036	0.212
-344.406	522.965	-0.097	0.225
-343.391	-92.541	-0.298	0.082
-342.377	-42.491	-0.335	0.168
-341.362	-200.000	-0.034	0.214
-340.348	800.000	0.089	0.275
-339.333	800.000	-0.093	-0.302
-338.318	199.111	0.123	-0.185
-337.304	-154.979	-0.304	0.020
-336.289	291.427	0.139	0.248
-335.275	-72.240	0.157	-0.057
-334.260	125.668	-0.182	0.227
-333.245	-178.495	-0.302	-0.007
-332.231	800.000	0.005	0.013
-331.216	51.277	-0.180	-0.169
-330.202	12.261	0.117	0.089
-329.187	800.000	-0.049	-0.186
-328.172	785.341	0.154	-0.416
-327.158	62.475	0.166	0.163
-326.143	-21.797	0.125	-0.075
-325.129	-46.750	-0.316	0.152
-324.114	6.177	-0.187	-0.137
-323.099	-36.816	0.183	0.097
-322.085	-125.632	-0.129	-0.019
-321.070	150.077	-0.062	0.082
-320.056	91.500	0.173	-0.191
-319.041	-41.181	-0.107	-0.055
-318.026	-200.000	-0.023	0.164
-317.012	67.056	0.088	-0.088
-315.997	-153.861	-0.209	-0.014
-314.983	-43.370	0.397	0.197
-313.968	-151.108	-0.355	0.026
-312.953	40.591	-0.396	0.351
-311.939	11.926	0.120	-0.091
-310.924	-169.087	0.091	-0.003
-309.910	-200.000	-0.048	-0.275
-308.895	800.000	0.121	0.344
-307.880	-200.000	-0.001	-0.044
-306.866	-120.564	-0.242	0.040
-305.851	800.000	0.087	0.277
-304.837	-200.000	0.023	0.192
-303.822	800.000	0.022	-0.067
-302.807	-103.664	-0.209	-0.048
-301.793	-19.905	-0.079	0.048
-300.778	-116.513	0.478	0.087
-299.764	577.441	-0.023	-0.055
-298.749	-27.489	0.251	-0.144
-297.735	312.183	-0.191	0.352
-296.720	486.515	-0.103	-0.231
-295.705	-48.983	-0.222	0.105
-294.691	85.350	-0.199	-0.215
-293.676	800.000	0.048	-0.159
-292.662	-200.000	0.014	0.134
-291.647	-136.641	-0.200	-0.023
-290.632	-200.000	0.026	0.136
-289.618	-200.000	-0.002	0.028
-288.603	-71.582	-0.170	0.062
-287.589	-6.015	0.045	-0.031
-286.574	-200.000	0.012	0.123
-285.559	-200.000	0.014	0.066
-284.545	426.418	0.131	0.277
-283.530	344.202	-0.034	-0.065
-282.516	-200.000	-0.001	-0.192
-281.501	-6.189	0.128	-0.086
-280.486	250.625	0.190	0.318
-279.472	122.677	0.229	-0.281
-278.457	-200.000	0.013	0.126
-277.443	17.347	0.332	0.259
-276.428	-59.430	0.283	-0.120
-275.413	222.516	0.100	0.158
-274.399	800.000	-0.110	0.321
-273.384	-65.952	-0.215	-0.085
-272.370	356.964	-0.161	-0.316
-271.355	385.098	0.149	-0.302
-270.340	-200.000	-0.041	-0.416
-269.326	8.497	0.115	0.085
-268.311	-56.940	-0.116	0.050
-267.297	-80.821	0.293	0.096
-266.282	329.366	0.190	0.359
-265.267	199.870	-0.180	-0.271
-264.253	222.223	-0.147	-0.233
-263.238	-137.985	0.274	0.030
-262.224	800.000	-0.057	0.158
-261.209	-8.189	-0.282	-0.186
-260.195	-48.153	-0.169	-0.080
-259.180	-126.966	-0.287	-0.041
-258.165	35.669	-0.248	0.214
-257.151	-172.134	-0.239	0.008
-256.136	-112.791	0.393	0.077
-255.122	23.695	0.250	-0.202
-254.107	800.000	0.107	0.390
-253.092	320.203	0.115	0.214
-252.078	-128.729	0.271	-0.037
-251.063	-11.438	0.211	-0.136
-250.049	481.783	0.075	0.168
-249.034	-130.586	0.139	0.018
-248.019	219.970	-0.156	0.245
-247.005	-47.791	-0.170	-0.081
-245.990	-94.681	0.176	0.047
-244.976	633.936	0.066	0.164
-243.961	-200.000	-0.034	-0.338
-242.946	-200.000	0.025	0.327
-241.932	-1.172	-0.306	-0.212
-240.917	45.931	-0.103	0.093
-239.903	91.018	-0.152	-0.167
-238.888	-4.614	-0.278	-0.189
-237.873	463.832	0.075	-0.164
-236.859	-140.356	0.203	0.021
-235.844	-91.295	0.262	0.074
-234.830	151.291	0.180	-0.241
-233.815	-86.868	0.448	-0.134
-232.800	202.762	0.019	-0.028
-231.786	29.880	-0.047	0.039
-230.771	-136.306	0.087	-0.010
-229.757	66.198	0.116	0.116
-228.742	-80.916	0.125	0.041
-227.727	127.331	-0.105	0.131
-226.713	-35.821	0.230	0.122
-225.698	267.912	0.122	0.210
-224.684	25.963	-0.185	0.151
-223.669	172.199	0.183	-0.258
-222.655	-61.974	0.379	-0.156
-221.640	340.246	-0.038	0.073
-220.625	336.318	-0.198	-0.377
-219.611	-36.775	0.146	-0.077
-218.596	-118.089	0.054	-0.009
-217.582	-200.000	0.041	0.247
-216.567	59.131	0.244	0.235
-215.552	-30.869	0.284	0.158
-214.538	800.000	-0.052	0.145
-213.523	-138.813	0.276	0.029
-212.509	-160.131	-0.192	-0.010
-211.494	-73.259	-0.279	0.100
-210.479	748.333	-0.058	0.154
-209.465	16.807	0.260	0.202
-208.450	-77.372	-0.193	-0.066
-207.436	-42.856	-0.234	-0.117
-206.421	-200.000	-0.001	0.169
-205.406	-121.249	0.398	-0.065
-204.392	-159.538	0.185	-0.010
-203.377	-200.000	-0.009	-0.101
-202.363	-50.803	-0.296	-0.136
-201.348	-153.816	0.242	-0.016
-200.333	-73.037	-0.239	-0.086
-199.319	-80.757	-0.275	0.089
-198.304	-132.388	0.193	0.024
-197.290	-64.652	-0.276	-0.110
-196.275	6.908	0.294	-0.215
-195.260	27.162	-0.255	-0.210
-194.246	267.193	-0.153	0.261
-193.231	-54.124	-0.173	-0.077
-192.217	-51.186	0.155	-0.071
-191.202	-82.865	0.021	-0.007
-190.187	-111.086	-0.111	-0.022
-189.173	123.689	0.151	-0.186
-188.158	-200.000	0.011	0.063
-187.144	-25.706	-0.223	0.129
-186.129	-96.465	0.198	0.051
-185.114	-106.000	0.190	0.042
-184.100	308.357	0.092	0.168
-183.085	-66.917	0.319	0.123
-182.071	-200.000	-0.009	-0.078
-181.056	-104.643	-0.121	0.027
-180.042	-27.051	0.151	0.086
-179.027	80.091	-0.163	0.172
-178.012	-200.000	-0.019	-0.124
-176.998	-36.184	-0.507	0.268
-175.983	-57.733	0.230	0.099
-174.969	-200.000	0.066	-0.435
-173.954	-180.482	0.395	-0.008
-172.939	-139.073	0.275	-0.029
-171.925	-107.185	-0.195	0.042
-170.910	86.789	-0.096	0.104
-169.896	-200.000	0.046	-0.259
-168.881	800.000	-0.116	-0.418
-167.866	-127.211	-0.200	-0.029
-166.852	-200.000	-0.024	-0.143
-165.837	-2.941	-0.211	0.144
-164.823	-200.000	-0.014	-0.148
-163.808	-16.350	0.286	-0.178
-162.793	-200.000	-0.042	0.195
-161.779	-3.270	0.027	0.019
-160.764	800.000	0.110	-0.331
-159.750	-200.000	-0.038	-0.327
-158.735	-35.121	-0.111	-0.059
-157.720	350.523	0.036	-0.069
-156.706	40.762	0.289	0.255
-155.691	-59.243	0.237	0.100
-154.677	-8.407	-0.168	0.110
-153.662	-92.202	0.200	0.055
-152.647	15.813	-0.254	0.195
-151.633	451.728	-0.151	0.326
-150.618	800.000	-0.085	-0.288
-149.604	145.558	0.018	-0.024
-148.589	-118.588	0.033	-0.006
-147.574	-200.000	-0.012	-0.212
-146.560	800.000	0.066	-0.250
-145.545	-169.678	-0.285	-0.010
-144.531	-200.000	-0.044	-0.241
-143.516	-67.429	0.313	-0.120
-142.502	23.726	-0.110	-0.089
-141.487	511.762	0.114	-0.259
-140.472	-24.799	0.300	-0.174
-139.458	-117.523	-0.403	0.071
-138.443	8.362	0.152	0.112
-137.429	-137.435	0.051	-0.006
-136.414	-28.604	0.271	0.153
-135.399	63.591	0.145	-0.143
-134.385	38.433	0.149	0.130
-133.370	-23.628	-0.215	0.126
-132.356	-200.000	-0.040	0.253
-131.341	-82.561	0.260	-0.083
-130.326	51.753	-0.196	0.182
-129.312	42.865	-0.047	0.042
-128.297	379.902	0.069	-0.138
-127.283	-28.146	-0.319	0.180
-126.268	-134.038	-0.137	0.017
-125.253	-15.171	-0.215	-0.135
-124.239	-86.574	0.141	-0.042
-123.224	17.326	0.306	0.237
-122.210	98.745	0.260	-0.293
-121.195	-187.206	-0.234	0.003
