DTS Sentinel unit serial number:	SN413079Multiplexer serial number:	ORYXHardware model number:	OX4-SRSoftware version number:	ORYX F/W v4.00 Oryx Data Collector v3.7.2.0data status	okinstallation	princeton_trtdifferential loss correction	single-endedforward channel	channel 1reverse channel	N/Adate	2019/09/18time	22:18:35forward acquisition time	60.00reverse acquisition time	0.00gamma	496.2192k internal	0.2341k external	0.2341temperature offset calibration	1.0017default loss term (dB/km)	0.3790temperature slope calibration	1.0000multiplexer offset coefficient	1.0000multiplexer slope coefficient	1.0000fibre end	0.00T internal ref (°C)	24.37T ext. ref 1 (°C)	0.80T ext. ref 2 (°C)	18.17length (m)	temperature (°C)	Stokes	anti-Stokes-747.200	453.101	0.070	-0.154
-746.185	120.434	0.211	0.263
-745.171	-68.492	-0.056	0.022
-744.156	-151.221	-0.230	-0.017
-743.142	-12.199	0.109	0.071
-742.127	527.636	-0.108	0.254
-741.112	444.205	-0.031	-0.067
-740.098	-43.070	-0.334	-0.169
-739.083	-48.952	-0.280	-0.134
-738.069	-200.000	-0.002	0.072
-737.054	-52.869	-0.328	0.152
-736.039	100.846	-0.103	0.119
-735.025	61.189	-0.146	0.145
-734.010	-44.187	0.247	-0.124
-732.996	-142.341	-0.339	0.033
-731.981	-121.531	-0.252	0.042
-730.966	-93.925	0.367	-0.101
-729.952	115.822	-0.189	0.231
-728.937	-200.000	-0.037	-0.295
-727.923	-62.099	-0.039	0.016
-726.908	-28.793	-0.039	0.022
-725.894	-200.000	0.004	-0.192
-724.879	800.000	0.054	0.225
-723.864	-64.687	-0.177	-0.072
-722.850	50.356	0.100	-0.095
-721.835	154.787	-0.101	-0.139
-720.821	-92.919	0.318	0.089
-719.806	149.793	-0.112	-0.152
-718.791	-200.000	-0.004	0.198
-717.777	110.365	0.292	0.352
-716.762	-9.776	-0.175	0.117
-715.748	-74.995	-0.358	-0.128
-714.733	28.902	0.452	0.383
-713.718	-200.000	0.023	0.213
-712.704	741.826	-0.073	-0.196
-711.689	489.722	0.087	0.199
-710.675	331.920	0.099	0.192
-709.660	62.998	0.154	-0.154
-708.645	512.511	-0.084	0.196
-707.631	-200.000	-0.114	-0.579
-706.616	-8.024	-0.264	-0.178
-705.602	240.251	-0.127	-0.211
-704.587	-200.000	0.004	-0.314
-703.572	-57.249	-0.249	0.110
-702.558	-125.038	0.113	-0.017
-701.543	681.430	-0.125	-0.326
-700.529	104.628	0.031	0.036
-699.514	10.836	-0.071	-0.054
-698.499	32.939	-0.111	-0.096
-697.485	800.000	-0.092	-0.302
-696.470	468.099	-0.092	-0.207
-695.456	202.397	0.077	0.119
-694.441	16.531	-0.125	0.099
-693.426	14.201	-0.211	0.164
-692.412	-0.608	-0.008	-0.006
-691.397	208.866	0.120	0.188
-690.383	62.149	0.075	-0.075
-689.368	-152.331	0.242	-0.017
-688.354	352.014	-0.024	-0.048
-687.339	645.332	-0.172	0.440
-686.324	-90.541	-0.248	0.072
-685.310	-200.000	-0.000	-0.298
-684.295	-1.402	-0.168	-0.118
-683.281	94.181	0.294	0.333
-682.266	769.718	-0.098	-0.268
-681.251	-200.000	-0.004	0.065
-680.237	-162.536	-0.200	0.010
-679.222	800.000	0.080	0.295
-678.208	259.692	-0.199	0.344
-677.193	800.000	0.043	0.180
-676.178	-200.000	-0.053	-0.440
-675.164	560.055	0.132	-0.318
-674.149	-104.437	-0.456	-0.105
-673.135	0.289	0.156	-0.111
-672.120	32.402	-0.240	0.207
-671.105	800.000	-0.097	-0.280
-670.091	-200.000	-0.057	-0.274
-669.076	377.863	-0.107	0.218
-668.062	-33.487	-0.068	-0.037
-667.047	92.481	-0.139	-0.156
-666.032	-200.000	0.023	-0.319
-665.018	135.232	0.190	0.246
-664.003	-200.000	-0.005	-0.293
-662.989	-64.559	0.296	0.120
-661.974	800.000	0.125	-0.524
-660.959	56.628	-0.283	0.275
-659.945	635.632	-0.117	0.296
-658.930	68.112	0.068	0.070
-657.916	227.403	-0.030	-0.049
-656.901	-36.693	-0.114	0.061
-655.886	-47.362	0.227	-0.110
-654.872	-83.038	0.062	0.020
-653.857	56.295	0.261	0.254
-652.843	117.025	0.097	0.118
-651.828	70.246	-0.105	-0.108
-650.814	800.000	-0.115	-0.413
-649.799	35.068	0.309	-0.270
-648.784	-167.793	0.111	-0.004
-647.770	-119.817	-0.041	-0.007
-646.755	800.000	0.044	-0.146
-645.741	-49.193	-0.284	-0.135
-644.726	-200.000	0.035	-0.473
-643.711	1.026	0.086	0.062
-642.697	-22.244	-0.312	0.189
-641.682	-49.761	-0.111	-0.053
-640.668	37.263	-0.196	-0.173
-639.653	42.965	-0.157	-0.142
-638.638	-21.402	-0.067	-0.041
-637.624	-44.935	-0.294	0.146
-636.609	-106.187	-0.070	-0.016
-635.595	122.161	-0.212	0.265
-634.580	747.874	-0.065	-0.175
-633.565	-88.188	0.244	0.073
-632.551	710.132	-0.004	0.012
-631.536	-40.197	-0.102	0.053
-630.522	41.183	-0.154	0.139
-629.507	11.992	0.168	0.129
-628.492	800.000	0.090	0.250
-627.478	-200.000	0.050	-0.390
-626.463	369.678	-0.080	-0.163
-625.449	-48.993	0.373	0.178
-624.434	281.314	-0.124	0.221
-623.419	53.750	0.353	0.338
-622.405	16.012	0.095	0.075
-621.390	800.000	0.068	0.188
-620.376	450.468	-0.101	-0.222
-619.361	-144.544	0.255	0.024
-618.346	-200.000	0.005	-0.134
-617.332	-115.892	-0.571	0.106
-616.317	6.401	0.177	0.131
-615.303	-49.791	0.144	0.068
-614.288	-123.522	-0.065	-0.010
-613.273	558.612	-0.221	0.531
-612.259	-200.000	-0.002	0.105
-611.244	70.379	-0.245	-0.253
-610.230	80.459	-0.271	-0.291
-609.215	-62.423	0.128	-0.053
-608.201	47.729	0.208	0.194
-607.186	-61.308	-0.140	-0.059
-606.171	-200.000	-0.012	0.086
-605.157	800.000	0.098	-0.301
-604.142	58.809	-0.088	0.087
-603.128	-121.390	-0.591	0.098
-602.113	613.819	0.034	0.086
-601.098	-200.000	0.001	0.150
-600.084	-6.620	-0.084	0.057
-599.069	653.916	-0.057	0.146
-598.055	20.620	0.122	-0.098
-597.040	-69.145	-0.196	-0.075
-596.025	114.662	0.102	-0.124
-595.011	-120.678	0.192	-0.032
-593.996	-55.197	-0.216	-0.097
-592.982	800.000	0.033	0.107
-591.967	-181.205	-0.492	0.010
-590.952	-125.801	0.214	0.032
-589.938	-47.317	-0.087	0.042
-588.923	37.327	-0.194	-0.171
-587.909	233.947	-0.064	0.106
-586.894	800.000	-0.092	-0.263
-585.879	448.683	-0.097	0.213
-584.865	-62.462	0.335	-0.139
-583.850	-133.344	-0.214	0.027
-582.836	800.000	0.040	0.119
-581.821	-200.000	-0.006	-0.201
-580.806	-82.407	-0.029	-0.009
-579.792	-168.654	-0.226	0.009
-578.777	-102.667	-0.304	-0.072
-577.763	-200.000	-0.006	-0.073
-576.748	332.136	0.044	0.084
-575.733	-110.552	-0.115	-0.024
-574.719	-176.550	-0.090	-0.002
-573.704	183.317	-0.116	-0.171
-572.690	44.043	-0.227	-0.207
-571.675	140.952	-0.160	-0.210
-570.661	-126.305	0.128	-0.019
-569.646	-112.834	-0.273	0.054
-568.631	-157.577	0.333	-0.020
-567.617	-126.289	0.131	0.020
-566.602	-134.744	0.254	-0.031
-565.588	-146.426	0.274	0.024
-564.573	800.000	-0.040	0.175
-563.558	188.404	-0.144	0.214
-562.544	35.452	0.190	-0.166
-561.529	-200.000	-0.024	-0.275
-560.515	-102.838	0.083	-0.020
-559.500	-200.000	-0.013	-0.285
-558.485	122.356	0.202	0.251
-557.471	62.201	-0.125	0.124
-556.456	-200.000	-0.025	-0.121
-555.442	-200.000	-0.006	-0.068
-554.427	94.897	-0.044	-0.050
-553.412	-122.719	0.194	0.031
-552.398	-200.000	0.014	-0.216
-551.383	-200.000	-0.021	-0.210
-550.369	754.204	-0.165	-0.443
-549.354	-200.000	0.015	-0.236
-548.339	448.580	-0.089	-0.196
-547.325	-200.000	-0.045	0.249
-546.310	-2.153	-0.026	0.018
-545.296	800.000	-0.016	0.052
-544.281	-74.890	0.246	0.088
-543.266	-75.186	0.256	0.091
-542.252	-0.828	0.125	0.088
-541.237	-15.408	0.474	0.301
-540.223	-200.000	0.019	-0.184
-539.208	63.016	0.094	-0.093
-538.193	-196.989	0.242	-0.002
-537.179	-200.000	-0.020	0.368
-536.164	-22.122	0.066	-0.040
-535.150	-200.000	0.029	0.188
-534.135	700.639	0.171	-0.447
-533.121	-200.000	0.040	-0.210
-532.106	419.491	0.020	0.042
-531.091	793.227	-0.097	0.264
-530.077	88.502	-0.044	0.049
-529.062	-169.259	-0.143	-0.005
-528.048	800.000	0.035	0.098
-527.033	-16.794	0.092	-0.058
-526.018	19.579	0.303	-0.243
-525.004	24.129	-0.023	0.019
-523.989	-123.099	0.098	-0.016
-522.975	4.314	0.283	0.206
-521.960	-200.000	-0.008	0.288
-520.945	-191.288	-0.474	-0.005
-519.931	800.000	0.019	-0.064
-518.916	85.648	-0.153	-0.167
-517.902	-32.698	-0.152	0.084
-516.887	-105.118	-0.234	-0.053
-515.872	-101.079	0.127	-0.031
-514.858	-45.786	-0.305	-0.150
-513.843	5.242	-0.268	0.196
-512.829	-69.687	0.159	-0.060
-511.814	-42.984	-0.014	-0.007
-510.799	-74.417	0.195	0.070
-509.785	-200.000	-0.006	0.161
-508.770	-151.075	-0.039	-0.003
-507.756	194.926	-0.146	-0.220
-506.741	14.231	-0.185	-0.143
-505.726	89.453	0.137	-0.152
-504.712	236.649	-0.047	0.078
-503.697	154.339	0.187	-0.254
-502.683	432.313	-0.175	0.376
-501.668	108.497	-0.169	-0.201
-500.653	-88.531	-0.048	-0.014
-499.639	-141.073	0.143	0.014
-498.624	-40.123	0.182	0.094
-497.610	576.214	0.142	0.344
-496.595	-200.000	0.029	0.382
-495.581	-200.000	0.021	0.238
-494.566	87.174	-0.050	0.055
-493.551	-32.945	0.245	0.135
-492.537	-38.843	0.222	0.116
-491.522	-87.693	-0.094	-0.028
-490.508	-160.756	-0.247	0.013
-489.493	-29.379	0.161	-0.092
-488.478	-178.910	-0.275	0.006
-487.464	543.388	-0.152	0.360
-486.449	57.759	0.321	-0.311
-485.435	263.918	-0.073	0.126
-484.420	-200.000	0.050	0.292
-483.405	800.000	0.044	0.183
-482.391	486.285	0.158	-0.357
-481.376	-72.764	-0.169	0.062
-480.362	151.518	-0.197	-0.266
-479.347	463.977	0.163	-0.361
-478.332	32.891	0.135	0.116
-477.318	-122.784	0.266	0.043
-476.303	-61.568	0.197	-0.082
-475.289	-111.526	-0.162	0.033
-474.274	-11.290	0.149	0.097
-473.259	669.645	0.073	-0.186
-472.245	-106.944	-0.257	-0.056
-471.230	126.985	-0.284	0.357
-470.216	-200.000	-0.051	-0.296
-469.201	455.728	0.091	0.200
-468.186	-21.178	-0.046	-0.028
-467.172	-200.000	0.012	-0.207
-466.157	-5.719	-0.262	-0.178
-465.143	653.504	-0.055	-0.140
-464.128	196.603	0.202	-0.305
-463.113	100.504	-0.066	-0.076
-462.099	81.954	-0.120	-0.129
-461.084	-15.486	0.232	0.147
-460.070	800.000	0.053	0.165
-459.055	-200.000	0.002	0.139
-458.040	431.001	0.169	-0.364
-457.026	20.655	0.207	0.166
-456.011	-55.898	0.353	-0.156
-454.997	800.000	0.056	-0.217
-453.982	-93.354	0.114	-0.031
-452.968	-81.707	0.270	-0.088
-451.953	-200.000	-0.010	-0.148
-450.938	-58.802	-0.060	0.026
-449.924	-1.825	-0.138	0.096
-448.909	800.000	0.141	-0.420
-447.895	800.000	0.046	0.140
-446.880	800.000	0.074	0.213
-445.865	-182.806	0.244	-0.004
-444.851	292.779	0.055	-0.099
-443.836	314.539	0.028	-0.052
-442.822	508.056	0.121	0.277
-441.807	149.902	0.182	-0.244
-440.792	-29.244	0.164	-0.093
-439.778	-32.234	0.266	-0.147
-438.763	-13.244	0.258	-0.166
-437.749	3.422	-0.030	-0.021
-436.734	-58.052	-0.264	-0.114
-435.719	445.988	-0.069	0.151
-434.705	167.754	0.092	0.130
-433.690	-200.000	-0.075	-0.389
-432.676	371.838	0.150	0.301
-431.661	-200.000	-0.023	0.313
-430.646	463.553	0.079	0.175
-429.632	800.000	0.060	-0.183
-428.617	85.291	0.206	-0.224
-427.603	57.629	-0.409	0.396
-426.588	-41.052	-0.254	0.130
-425.573	-158.993	0.302	-0.017
-424.559	-148.955	0.044	-0.003
-423.544	1.952	0.199	-0.142
-422.530	800.000	-0.156	0.501
-421.515	-66.297	0.324	0.127
-420.500	-200.000	-0.076	0.570
-419.486	-13.004	-0.131	0.084
-418.471	-80.114	-0.141	0.047
-417.457	-25.585	0.091	-0.053
-416.442	772.706	-0.109	0.295
-415.428	-200.000	-0.043	-0.350
-414.413	-182.696	0.318	0.006
-413.398	68.253	-0.154	0.156
-412.384	-46.453	-0.276	-0.134
-411.369	-109.241	-0.292	0.061
-410.355	484.242	-0.053	-0.118
-409.340	41.587	-0.003	-0.003
-408.325	19.758	-0.096	-0.077
-407.311	-200.000	0.067	0.511
-406.296	-122.732	0.122	0.020
-405.282	-67.069	0.338	0.132
-404.267	13.667	0.059	-0.045
-403.252	52.599	0.363	0.343
-402.238	-200.000	0.063	0.369
-401.223	800.000	-0.045	-0.164
-400.209	8.687	0.132	-0.099
-399.194	574.193	-0.028	0.069
-398.179	800.000	-0.086	-0.243
-397.165	-128.012	0.116	-0.016
-396.150	-121.026	0.416	-0.069
-395.136	254.128	0.122	-0.206
-394.121	-106.072	-0.163	-0.036
-393.106	-23.902	0.345	0.204
-392.092	178.191	-0.071	-0.102
-391.077	-165.420	0.399	-0.017
-390.063	-200.000	-0.038	-0.207
-389.048	13.265	-0.084	0.065
-388.033	170.969	-0.197	0.279
-387.019	483.016	-0.060	-0.134
-386.004	-200.000	0.022	-0.182
-384.990	800.000	0.051	-0.141
-383.975	373.489	-0.073	-0.147
-382.960	-200.000	-0.093	-0.448
-381.946	171.074	0.119	0.168
-380.931	343.919	0.097	-0.188
-379.917	-84.683	0.406	0.126
-378.902	-117.681	0.093	0.017
-377.888	247.626	-0.075	-0.125
-376.873	-200.000	0.003	-0.184
-375.858	-50.833	-0.270	-0.126
-374.844	512.979	-0.080	0.183
-373.829	-20.193	-0.102	0.062
-372.815	686.253	-0.086	-0.222
-371.800	609.692	0.049	0.120
-370.785	-200.000	-0.060	-0.469
-369.771	800.000	0.074	0.316
-368.756	-107.995	0.338	0.073
-367.742	225.285	-0.053	0.084
-366.727	800.000	-0.010	0.041
-365.712	-166.110	0.161	-0.007
-364.698	-96.896	-0.183	-0.047
-363.683	29.070	-0.204	0.171
-362.669	800.000	0.032	-0.095
-361.654	-136.526	-0.149	-0.017
-360.639	-61.126	0.198	0.083
-359.625	-129.359	0.248	0.034
-358.610	-106.615	0.195	-0.043
-357.596	-11.431	-0.243	0.158
-356.581	-51.347	0.398	0.184
-355.566	488.146	-0.072	0.162
-354.552	59.155	-0.273	-0.266
-353.537	-95.174	0.371	-0.099
-352.523	-200.000	-0.015	0.181
-351.508	643.478	-0.038	-0.097
-350.493	800.000	0.025	0.075
-349.479	-107.896	-0.366	0.079
-348.464	-200.000	-0.027	0.350
-347.450	-81.248	-0.213	-0.069
-346.435	-115.836	-0.153	0.028
-345.420	-24.533	-0.143	-0.084
-344.406	612.211	-0.177	0.438
-343.391	519.741	-0.140	-0.325
-342.377	-11.652	-0.079	0.051
-341.362	-72.458	-0.398	-0.145
-340.348	12.945	0.034	-0.026
-339.333	-164.197	0.227	-0.010
-338.318	800.000	-0.071	-0.299
-337.304	96.521	-0.261	0.295
-336.289	-132.588	-0.051	-0.006
-335.275	800.000	-0.150	-0.460
-334.260	234.190	0.221	-0.359
-333.245	-88.118	0.279	-0.083
-332.231	365.778	0.070	0.138
-331.216	78.290	0.078	-0.082
-330.202	-200.000	-0.024	0.130
-329.187	800.000	0.096	0.332
-328.172	-200.000	0.008	0.098
-327.158	133.587	0.212	0.270
-326.143	-2.817	0.203	0.140
-325.129	-88.060	0.138	-0.041
-324.114	-94.271	0.109	-0.029
-323.099	-200.000	-0.014	0.149
-322.085	-9.508	0.023	-0.015
-321.070	-64.235	-0.446	-0.179
-320.056	-28.366	-0.242	-0.137
-319.041	69.660	-0.154	-0.157
-318.026	37.316	0.274	-0.240
-317.012	641.555	0.046	-0.115
-315.997	-200.000	-0.032	-0.288
-314.983	-98.795	0.295	0.074
-313.968	-146.601	0.331	0.028
-312.953	800.000	0.057	-0.206
-311.939	-132.212	0.066	0.008
-310.924	-37.646	-0.201	-0.106
-309.910	-24.608	0.158	-0.093
-308.895	-200.000	-0.062	-0.371
-307.880	-51.316	-0.118	-0.054
-306.866	316.259	-0.071	-0.132
-305.851	-200.000	-0.031	-0.157
-304.837	800.000	0.107	-0.389
-303.822	615.184	-0.157	0.389
-302.807	306.157	0.153	-0.280
-301.793	-115.635	-0.153	-0.028
-300.778	-200.000	-0.001	-0.185
-299.764	42.510	0.181	0.162
-298.749	-200.000	-0.044	0.232
-297.735	-94.746	-0.222	-0.059
-296.720	53.289	-0.081	-0.077
-295.705	35.839	0.473	0.409
-294.691	-200.000	-0.016	-0.091
-293.676	611.446	-0.084	0.206
-292.662	-171.476	-0.483	-0.016
-291.647	-2.690	0.078	-0.054
-290.632	800.000	0.059	-0.161
-289.618	539.050	-0.075	-0.176
-288.603	-38.227	-0.152	0.079
-287.589	25.640	-0.092	-0.076
-286.574	10.813	0.173	0.130
-285.559	-13.015	-0.269	-0.172
-284.545	17.811	-0.123	-0.096
-283.530	126.414	0.102	0.127
-282.516	800.000	0.124	-0.383
-281.501	800.000	0.079	-0.306
-280.486	-15.390	0.168	0.106
-279.472	1.232	-0.194	0.137
-278.457	800.000	0.070	-0.249
-277.443	-97.568	0.160	-0.041
-276.428	-92.991	0.263	-0.072
-275.413	56.304	-0.285	0.272
-274.399	28.719	-0.061	0.051
-273.384	-200.000	-0.008	0.042
-272.370	-110.872	-0.221	0.045
-271.355	-150.323	-0.210	-0.016
-270.340	800.000	-0.141	-0.466
-269.326	-200.000	0.009	0.073
-268.311	706.916	-0.044	-0.114
-267.297	312.065	-0.177	-0.326
-266.282	-68.109	0.285	-0.109
-265.267	133.122	-0.156	0.198
-264.253	226.398	-0.029	0.046
-263.238	141.435	0.191	0.249
-262.224	-11.199	-0.183	0.118
-261.209	-151.145	-0.152	-0.011
-260.195	38.428	0.128	0.112
-259.180	-31.393	0.216	0.119
-258.165	215.462	-0.146	0.228
-257.151	317.597	0.075	0.140
-256.136	-136.279	-0.214	-0.025
-255.122	-200.000	-0.030	0.133
-254.107	-131.033	0.439	0.058
-253.092	266.070	-0.121	-0.208
-252.078	53.727	0.178	0.168
-251.063	-180.085	-0.375	0.008
-250.049	71.572	-0.150	0.153
-249.034	156.460	-0.117	0.159
-248.019	165.093	0.039	-0.054
-247.005	-134.593	0.204	-0.024
-245.990	-91.879	0.177	-0.049
-244.976	-122.514	-0.155	0.025
-243.961	800.000	0.073	0.261
-242.946	-74.947	0.100	-0.035
-241.932	800.000	-0.054	0.155
-240.917	57.052	0.140	0.134
-239.903	-9.081	0.168	-0.110
-238.888	130.063	-0.174	-0.219
-237.873	800.000	-0.077	0.245
-236.859	276.324	0.140	0.245
-235.844	-200.000	0.059	-0.277
-234.830	-44.351	0.226	0.111
-233.815	-200.000	-0.017	0.134
-232.800	-200.000	0.004	-0.030
-231.786	-200.000	0.001	0.181
-230.771	363.703	0.116	0.229
-229.757	318.019	0.105	0.196
-228.742	145.075	-0.123	0.161
-227.727	142.794	0.206	0.268
-226.713	-46.338	0.289	-0.139
-225.698	-108.115	-0.608	0.129
-224.684	76.733	0.025	-0.026
-223.669	-200.000	0.020	0.097
-222.655	6.102	-0.311	-0.226
-221.640	-67.970	-0.085	-0.032
-220.625	-175.399	-0.328	-0.009
-219.611	800.000	-0.096	-0.351
-218.596	24.708	-0.382	-0.311
-217.582	243.089	0.092	-0.151
-216.567	-129.482	0.050	0.007
-215.552	96.475	0.145	0.163
-214.538	360.112	-0.042	0.082
-213.523	77.288	-0.123	0.128
-212.509	800.000	-0.041	-0.143
-211.494	121.452	-0.183	0.224
-210.479	-200.000	-0.060	0.433
-209.465	84.678	0.103	0.111
-208.450	-200.000	0.007	-0.033
-207.436	-30.714	0.152	-0.084
-206.421	-61.457	0.167	0.069
-205.406	-3.490	-0.359	0.245
-204.392	-200.000	0.011	-0.123
-203.377	481.893	-0.083	-0.185
-202.363	85.116	0.137	0.148
-201.348	-200.000	-0.019	0.300
-200.333	-127.101	-0.023	-0.003
-199.319	291.884	-0.045	-0.081
-198.304	33.322	-0.072	0.061
-197.290	-131.665	0.111	0.014
-196.275	127.628	0.072	-0.090
-195.260	-55.823	0.173	0.076
-194.246	-200.000	-0.004	0.329
-193.231	503.453	-0.119	-0.271
-192.217	82.193	0.222	-0.237
-191.202	-143.505	-0.296	-0.028
-190.187	-68.046	-0.163	0.062
-189.173	141.647	-0.210	-0.273
-188.158	288.896	-0.130	0.231
-187.144	800.000	0.035	0.141
-186.129	-152.344	0.064	-0.005
-185.114	-200.000	-0.263	0.000
-184.100	511.166	0.036	0.083
-183.085	800.000	-0.083	0.259
-182.071	137.375	0.102	0.130
-181.056	800.000	-0.052	-0.149
-180.042	-200.000	0.032	0.137
-179.027	-200.000	-0.007	-0.080
-178.012	302.281	-0.036	0.065
-176.998	365.663	0.035	-0.070
-175.983	-200.000	-0.007	0.157
-174.969	-46.262	-0.283	0.136
-173.954	-21.823	-0.130	0.077
-172.939	800.000	0.036	0.133
-171.925	-138.645	0.399	0.043
-170.910	-141.730	-0.247	0.024
-169.896	785.606	0.117	-0.314
-168.881	800.000	0.094	-0.304
-167.866	800.000	-0.060	-0.222
-166.852	-25.445	-0.235	-0.136
-165.837	-141.659	0.276	-0.027
-164.823	-200.000	-0.037	0.164
-163.808	133.339	0.164	-0.208
-162.793	-87.411	-0.162	0.048
-161.779	30.830	-0.091	0.076
-160.764	693.008	-0.057	0.147
-159.750	336.488	-0.172	0.328
-158.735	-34.102	0.149	-0.080
-157.720	800.000	0.050	-0.168
-156.706	-96.797	0.192	0.049
-155.691	-37.790	0.037	-0.019
-154.677	-38.522	0.156	-0.081
-153.662	-188.000	-0.148	0.002
-152.647	60.419	0.137	-0.133
-151.633	16.015	-0.229	0.177
-150.618	-200.000	0.040	0.397
-149.604	-60.515	-0.229	-0.095
-148.589	-47.656	-0.141	-0.067
-147.574	-155.295	-0.349	0.022
-146.560	-37.558	-0.272	0.142
-145.545	800.000	-0.123	0.346
-144.531	800.000	0.049	-0.169
-143.516	219.604	-0.091	0.142
-142.502	608.941	-0.071	0.172
-141.487	-200.000	-0.023	-0.355
-140.472	23.530	0.313	-0.252
-139.458	110.903	0.177	-0.208
-138.443	-200.000	0.062	0.367
-137.429	-200.000	-0.026	0.170
-136.414	-44.110	0.459	-0.226
-135.399	-72.527	0.258	0.093
-134.385	-144.959	-0.346	0.031
-133.370	-200.000	0.013	0.070
-132.356	-69.755	-0.121	-0.045
-131.341	-5.634	-0.210	-0.141
-130.326	-57.005	-0.197	0.085
-129.312	-145.507	0.176	-0.016
-128.297	7.740	0.137	-0.101
-127.283	800.000	0.036	-0.101
-126.268	-132.589	0.237	-0.030
-125.253	-200.000	-0.086	-0.377
-124.239	-112.373	0.148	0.029
-123.224	0.188	-0.203	0.142
-122.210	-136.043	0.152	0.017
