DTS Sentinel unit serial number:	SN413079Multiplexer serial number:	ORYXHardware model number:	OX4-SRSoftware version number:	ORYX F/W v4.00 Oryx Data Collector v3.7.2.0data status	okinstallation	princeton_trtdifferential loss correction	single-endedforward channel	channel 1reverse channel	N/Adate	2019/09/16time	11:14:35forward acquisition time	60.00reverse acquisition time	0.00gamma	496.2192k internal	0.2299k external	0.2299temperature offset calibration	0.9969default loss term (dB/km)	0.3790temperature slope calibration	1.0000multiplexer offset coefficient	1.0000multiplexer slope coefficient	1.0000fibre end	0.00T internal ref (°C)	37.17T ext. ref 1 (°C)	12.84T ext. ref 2 (°C)	33.20length (m)	temperature (°C)	Stokes	anti-Stokes-747.200	25.523	-0.224	-0.190
-746.185	8.948	0.158	0.122
-745.171	203.128	-0.112	0.177
-744.156	528.291	0.164	0.394
-743.142	-32.875	-0.075	-0.043
-742.127	202.280	0.123	-0.193
-741.112	152.147	-0.104	-0.144
-740.098	-121.544	-0.233	-0.040
-739.083	-200.000	0.002	0.009
-738.069	-105.096	-0.312	-0.073
-737.054	800.000	-0.020	0.077
-736.039	800.000	0.026	-0.112
-735.025	800.000	0.129	0.435
-734.010	-60.107	-0.122	-0.053
-732.996	800.000	0.094	-0.365
-731.981	406.137	-0.113	-0.244
-730.966	-99.759	0.220	-0.056
-729.952	-200.000	-0.050	-0.300
-728.937	477.126	0.179	-0.414
-727.923	800.000	0.048	-0.209
-726.908	236.026	-0.129	-0.217
-725.894	221.396	-0.121	-0.198
-724.879	-58.797	0.053	-0.023
-723.864	11.127	0.092	-0.072
-722.850	65.040	-0.202	-0.208
-721.835	-39.236	-0.390	0.209
-720.821	-47.148	0.131	-0.065
-719.806	363.176	0.157	0.321
-718.791	-97.360	-0.063	-0.017
-717.777	-95.661	-0.103	0.028
-716.762	-32.782	0.201	0.114
-715.748	427.356	-0.141	0.310
-714.733	203.515	-0.065	0.102
-713.718	51.842	0.097	-0.094
-712.704	142.280	-0.077	-0.105
-711.689	-58.831	-0.162	0.071
-710.675	-174.959	-0.220	-0.006
-709.660	390.482	-0.247	-0.522
-708.645	424.063	-0.034	0.075
-707.631	159.390	0.094	-0.133
-706.616	7.919	-0.023	-0.017
-705.602	-84.896	-0.076	-0.024
-704.587	289.020	-0.035	0.065
-703.572	-69.770	-0.259	-0.101
-702.558	627.524	-0.036	-0.092
-701.543	-200.000	-0.160	-0.000
-700.529	-200.000	0.027	-0.136
-699.514	800.000	-0.072	-0.247
-698.499	-65.796	0.077	-0.031
-697.485	117.790	-0.094	-0.117
-696.470	98.508	-0.043	-0.051
-695.456	51.918	-0.247	0.239
-694.441	32.343	-0.285	-0.251
-693.426	-200.000	-0.019	-0.238
-692.412	-59.234	0.046	-0.020
-691.397	-13.215	-0.277	-0.183
-690.383	-22.925	0.392	0.241
-689.368	114.059	-0.194	0.240
-688.354	612.913	0.084	0.215
-687.339	-144.752	-0.088	0.008
-686.324	4.710	0.310	-0.232
-685.310	44.262	0.166	-0.155
-684.295	437.809	0.093	-0.206
-683.281	-200.000	-0.025	0.159
-682.266	-200.000	0.002	0.181
-681.251	-200.000	-0.042	0.196
-680.237	173.799	0.112	-0.165
-679.222	-39.348	-0.061	0.033
-678.208	288.015	-0.068	-0.126
-677.193	269.074	-0.040	-0.071
-676.178	-144.281	-0.251	-0.024
-675.164	4.381	-0.123	-0.092
-674.149	83.186	0.148	0.164
-673.135	-63.756	-0.216	0.090
-672.120	-25.693	0.188	0.113
-671.105	-66.624	0.123	0.050
-670.091	-53.573	-0.062	-0.029
-669.076	-51.025	-0.161	0.077
-668.062	-127.099	-0.261	0.039
-667.047	207.857	0.057	-0.090
-666.032	-37.837	-0.108	-0.059
-665.018	-137.035	0.164	0.019
-664.003	-200.000	0.021	0.098
-662.989	-200.000	-0.267	-0.001
-661.974	-200.000	0.010	-0.160
-660.959	-200.000	-0.012	0.151
-659.945	278.050	-0.073	0.133
-658.930	800.000	0.035	0.113
-657.916	355.428	0.045	-0.091
-656.901	154.060	-0.084	-0.117
-655.886	3.271	-0.120	0.089
-654.872	-200.000	0.021	-0.194
-653.857	52.090	0.164	-0.159
-652.843	-146.125	-0.491	0.044
-651.828	800.000	0.032	0.121
-650.814	-86.193	-0.152	0.048
-649.799	384.115	0.072	0.152
-648.784	-161.760	-0.048	0.002
-647.770	-80.281	0.248	-0.084
-646.755	800.000	-0.034	-0.116
-645.741	-134.755	-0.214	-0.026
-644.726	500.181	0.111	0.261
-643.711	-200.000	-0.006	-0.074
-642.697	-146.579	-0.308	-0.027
-641.682	101.972	-0.051	-0.060
-640.668	727.958	0.039	0.105
-639.653	-200.000	-0.016	-0.100
-638.638	54.755	-0.178	-0.175
-637.624	-45.134	0.241	-0.122
-636.609	-174.661	0.455	-0.013
-635.595	-79.375	-0.182	0.063
-634.580	330.859	0.103	-0.203
-633.565	-76.835	-0.219	0.078
-632.551	-92.120	-0.362	-0.104
-631.536	800.000	0.074	-0.306
-630.522	-33.863	0.071	0.040
-629.507	-148.888	0.156	-0.013
-628.492	-200.000	0.004	-0.069
-627.478	35.738	-0.121	0.108
-626.463	800.000	0.043	0.169
-625.449	-200.000	-0.020	-0.311
-624.434	-93.029	0.104	-0.029
-623.419	6.994	0.029	0.022
-622.405	-167.528	-0.192	-0.008
-621.390	800.000	-0.055	-0.184
-620.376	-200.000	0.023	0.315
-619.361	15.719	0.254	0.203
-618.346	165.845	0.200	-0.288
-617.332	-200.000	-0.034	-0.270
-616.317	-200.000	-0.063	0.369
-615.303	-118.768	-0.104	-0.019
-614.288	-99.452	-0.195	0.050
-613.273	-38.917	-0.126	-0.067
-612.259	6.402	0.296	0.223
-611.244	-64.294	-0.225	-0.093
-610.230	800.000	-0.062	-0.176
-609.215	-190.127	-0.319	-0.004
-608.201	0.074	-0.117	0.084
-607.186	-116.530	-0.137	0.026
-606.171	800.000	-0.128	0.383
-605.157	-200.000	0.016	-0.094
-604.142	352.195	-0.061	0.122
-603.128	447.338	0.101	-0.225
-602.113	-45.271	-0.273	0.138
-601.098	-33.283	-0.298	-0.167
-600.084	68.789	0.069	-0.072
-599.069	-200.000	-0.011	0.273
-598.055	-200.000	0.012	-0.141
-597.040	35.010	-0.508	-0.451
-596.025	6.069	-0.077	-0.058
-595.011	27.910	0.126	0.108
-593.996	463.113	0.047	0.107
-592.982	-108.484	-0.089	-0.019
-591.967	309.916	0.028	0.053
-590.952	-67.668	-0.138	0.055
-589.938	609.315	0.082	-0.208
-588.923	387.249	0.053	-0.110
-587.909	133.614	0.233	-0.306
-586.894	51.748	0.066	0.064
-585.879	-16.427	0.068	-0.044
-584.865	73.371	-0.077	-0.082
-583.850	-40.736	0.053	0.028
-582.836	-137.075	0.394	0.046
-581.821	295.625	0.123	0.228
-580.806	-80.393	0.296	-0.100
-579.792	38.464	0.277	0.250
-578.777	563.287	-0.131	-0.323
-577.763	-200.000	0.006	0.034
-576.748	136.365	-0.036	-0.048
-575.733	-71.101	0.172	-0.065
-574.719	469.625	-0.137	0.312
-573.704	356.711	-0.115	0.232
-572.690	-75.255	0.252	-0.091
-571.675	311.433	0.109	-0.208
-570.661	800.000	0.083	-0.260
-569.646	-200.000	0.004	0.109
-568.631	-49.750	-0.113	-0.055
-567.617	-22.564	0.401	-0.246
-566.602	332.651	0.091	0.179
-565.588	311.810	-0.163	-0.309
-564.573	-7.124	-0.110	0.076
-563.558	27.336	0.154	-0.131
-562.544	310.968	0.059	0.112
-561.529	-200.000	0.026	0.158
-560.515	278.059	0.194	-0.350
-559.500	-145.433	0.238	-0.022
-558.485	800.000	-0.100	0.336
-557.471	-3.512	0.167	-0.118
-556.456	-140.445	-0.325	0.034
-555.442	683.788	0.071	0.188
-554.427	-200.000	0.055	0.266
-553.412	-53.933	0.298	0.137
-552.398	-54.645	-0.352	-0.161
-551.383	-200.000	0.064	0.473
-550.369	631.348	0.069	0.176
-549.354	-191.960	-0.188	-0.002
-548.339	-200.000	-0.060	-0.327
-547.325	8.335	0.173	-0.132
-546.310	-8.777	0.150	-0.102
-545.296	313.113	-0.154	-0.293
-544.281	-200.000	-0.007	0.067
-543.266	-7.715	-0.166	-0.113
-542.252	800.000	0.079	-0.272
-541.237	86.760	-0.313	0.350
-540.223	-47.340	-0.071	-0.035
-539.208	249.334	0.109	-0.188
-538.193	-200.000	-0.048	-0.356
-537.179	35.798	0.119	-0.106
-536.164	-200.000	0.012	-0.218
-535.150	93.373	0.204	-0.234
-534.135	-181.129	0.119	-0.002
-533.121	-95.448	-0.318	-0.086
-532.106	159.293	-0.066	0.093
-531.091	74.005	-0.215	0.229
-530.077	-200.000	-0.017	-0.168
-529.062	-200.000	0.011	0.200
-528.048	-62.686	-0.101	-0.042
-527.033	-52.456	0.218	-0.102
-526.018	800.000	-0.110	0.318
-525.004	400.652	0.071	0.151
-523.989	61.352	-0.089	0.090
-522.975	219.927	-0.093	0.151
-521.960	-122.316	0.264	-0.044
-520.945	145.911	0.161	0.219
-519.931	-34.070	-0.352	-0.196
-518.916	-111.411	0.175	-0.036
-517.902	239.841	0.141	0.237
-516.887	44.330	-0.092	-0.086
-515.872	-200.000	-0.011	-0.081
-514.858	-200.000	-0.062	0.291
-513.843	220.038	-0.097	-0.157
-512.829	-7.546	0.160	-0.110
-511.814	134.910	-0.135	-0.178
-510.799	162.855	0.046	-0.066
-509.785	-200.000	-0.026	0.245
-508.770	83.986	0.099	-0.109
-507.756	78.436	0.285	-0.308
-506.741	-155.987	-0.235	0.015
-505.726	-122.951	0.132	0.021
-504.712	85.438	0.039	0.043
-503.697	69.953	-0.200	-0.209
-502.683	513.288	-0.071	0.168
-501.668	-50.035	0.188	0.090
-500.653	-100.833	0.075	0.019
-499.639	-63.391	0.278	0.116
-498.624	22.889	0.159	0.131
-497.610	-120.112	-0.075	0.013
-496.595	-76.083	0.225	-0.080
-495.581	-86.950	0.110	-0.034
-494.566	800.000	0.098	0.382
-493.551	93.837	-0.035	-0.040
-492.537	301.721	-0.121	-0.225
-491.522	-178.419	-0.169	0.004
-490.508	800.000	0.035	-0.129
-489.493	-200.000	-0.003	0.310
-488.478	106.780	0.119	0.143
-487.464	-39.671	0.187	-0.099
-486.449	-200.000	0.003	-0.344
-485.435	-200.000	-0.032	0.167
-484.420	-200.000	0.021	0.164
-483.405	30.393	0.146	0.126
-482.391	-1.842	-0.168	0.120
-481.376	-76.240	-0.299	-0.106
-480.362	581.938	-0.118	0.293
-479.347	-144.180	0.047	0.004
-478.332	-108.353	0.057	-0.012
-477.318	154.536	0.104	-0.145
-476.303	-173.812	0.092	0.003
-475.289	-100.786	-0.143	0.035
-474.274	800.000	-0.035	-0.102
-473.259	298.804	-0.115	-0.213
-472.245	-137.684	-0.138	-0.016
-471.230	209.095	0.152	0.241
-470.216	91.295	0.144	0.163
-469.201	-200.000	0.012	0.127
-468.186	-82.293	0.326	-0.107
-467.172	-200.000	-0.064	-0.346
-466.157	-200.000	-0.035	0.484
-465.143	-38.985	0.237	0.126
-464.128	141.487	-0.077	0.102
-463.113	-185.444	0.248	0.004
-462.099	-77.704	0.076	-0.027
-461.084	800.000	-0.129	0.488
-460.070	-34.901	-0.351	-0.194
-459.055	179.257	-0.169	0.249
-458.040	-127.165	0.378	-0.056
-457.026	-19.192	0.410	0.257
-456.011	-200.000	0.012	-0.455
-454.997	35.076	0.039	0.035
-453.982	-113.039	-0.134	0.027
-452.968	-76.912	0.221	0.078
-451.953	36.397	0.237	0.211
-450.938	-70.057	-0.389	0.149
-449.924	-85.116	-0.265	0.084
-448.909	373.505	0.108	0.222
-447.895	-200.000	0.024	-0.239
-446.880	-100.365	-0.279	0.070
-445.865	124.359	0.169	-0.214
-444.851	-200.000	-0.016	-0.196
-443.836	-79.529	0.351	0.120
-442.822	97.481	-0.236	-0.273
-441.807	469.779	0.048	-0.108
-440.792	-87.332	0.192	-0.059
-439.778	85.420	0.354	-0.392
-438.763	24.406	0.145	-0.121
-437.749	-18.232	-0.233	-0.147
-436.734	800.000	0.043	0.185
-435.719	-200.000	-0.017	0.158
-434.705	-200.000	-0.030	-0.297
-433.690	-16.039	-0.069	-0.044
-432.676	99.315	0.236	0.275
-431.661	442.359	0.073	0.161
-430.646	800.000	0.066	0.197
-429.632	-55.143	-0.381	0.173
-428.617	-200.000	-0.007	0.164
-427.603	-72.364	-0.136	-0.051
-426.588	800.000	-0.067	0.193
-425.573	800.000	-0.062	-0.241
-424.559	-136.621	-0.296	-0.034
-423.544	429.513	0.046	0.101
-422.530	-40.543	-0.240	0.125
-421.515	500.483	0.048	-0.111
-420.500	800.000	0.085	-0.345
-419.486	-71.456	-0.138	-0.052
-418.471	-19.257	0.110	0.069
-417.457	121.110	-0.039	0.050
-416.442	-95.198	-0.298	0.081
-415.428	-66.834	0.068	-0.027
-414.413	-158.942	-0.241	0.014
-413.398	-27.241	-0.415	-0.243
-412.384	60.643	-0.240	-0.240
-411.369	-102.956	-0.218	-0.052
-410.355	183.654	0.269	0.400
-409.340	99.752	-0.221	-0.258
-408.325	-89.547	-0.120	-0.035
-407.311	-200.000	-0.090	-0.476
-406.296	-200.000	0.039	-0.262
-405.282	47.146	-0.252	-0.236
-404.267	-49.624	0.146	0.070
-403.252	160.960	0.047	-0.066
-402.238	-200.000	-0.029	0.168
-401.223	240.769	-0.010	0.016
-400.209	-58.475	0.135	0.059
-399.194	-153.132	-0.237	0.017
-398.179	800.000	0.045	0.158
-397.165	-108.136	-0.130	0.028
-396.150	-41.071	-0.161	-0.083
-395.136	-83.281	0.500	-0.162
-394.121	-93.913	0.764	0.211
-393.106	-107.749	-0.288	0.063
-392.092	261.378	0.076	0.132
-391.077	-105.511	-0.268	-0.061
-390.063	-200.000	0.020	0.348
-389.048	336.584	-0.134	0.262
-388.033	-200.000	0.031	-0.209
-387.019	105.502	0.102	-0.121
-386.004	800.000	-0.025	-0.079
-384.990	207.084	-0.214	0.336
-383.975	59.477	0.085	0.085
-382.960	414.435	0.064	-0.138
-381.946	210.134	-0.120	0.189
-380.931	753.441	0.057	0.154
-379.917	800.000	0.087	0.281
-378.902	-200.000	0.012	0.257
-377.888	217.037	-0.182	0.292
-376.873	-80.908	0.180	0.060
-375.858	-169.889	0.067	-0.002
-374.844	-200.000	0.005	-0.036
-373.829	164.466	0.020	0.028
-372.815	481.132	0.133	-0.304
-371.800	-22.510	0.204	0.124
-370.785	-10.414	-0.129	0.086
-369.771	-69.224	-0.029	0.011
-368.756	220.831	-0.138	0.223
-367.742	-200.000	-0.031	-0.205
-366.727	-0.460	0.055	-0.039
-365.712	-157.091	0.468	-0.029
-364.698	-200.000	-0.008	-0.256
-363.683	438.282	-0.142	0.310
-362.669	80.843	0.126	0.137
-361.654	-88.638	-0.259	0.078
-360.639	-175.478	0.474	-0.013
-359.625	-200.000	0.050	0.403
-358.610	-200.000	0.011	0.059
-357.596	45.509	0.182	-0.169
-356.581	73.716	-0.099	-0.104
-355.566	307.727	0.094	-0.177
-354.552	800.000	0.116	0.467
-353.537	-80.768	0.169	0.056
-352.523	-119.928	-0.310	0.054
-351.508	10.639	-0.258	-0.198
-350.493	-200.000	-0.002	0.379
-349.479	29.079	-0.206	0.175
-348.464	800.000	-0.039	0.156
-347.450	-200.000	-0.003	-0.285
-346.435	-96.173	0.178	-0.047
-345.420	-200.000	-0.025	-0.242
-344.406	140.176	-0.195	-0.258
-343.391	19.583	-0.261	-0.211
-342.377	169.987	0.064	-0.092
-341.362	145.542	0.173	0.233
-340.348	-200.000	-0.004	-0.111
-339.333	-165.018	-0.080	-0.004
-338.318	800.000	0.035	-0.111
-337.304	-59.958	0.101	-0.043
-336.289	272.487	-0.061	-0.108
-335.275	-158.618	0.319	-0.018
-334.260	115.162	-0.066	0.081
-333.245	156.967	-0.062	0.086
-332.231	-200.000	-0.007	-0.218
-331.216	-200.000	0.001	-0.407
-330.202	-200.000	-0.004	-0.353
-329.187	78.889	-0.301	-0.323
-328.172	-200.000	0.013	-0.077
-327.158	-140.392	-0.298	-0.031
-326.143	800.000	0.052	-0.166
-325.129	-200.000	-0.007	-0.049
-324.114	27.050	0.176	-0.148
-323.099	-200.000	-0.005	0.162
-322.085	-136.868	0.239	-0.028
-321.070	393.974	0.040	-0.083
-320.056	296.451	-0.124	0.228
-319.041	-61.073	0.113	0.048
-318.026	-91.066	0.149	0.043
-317.012	-81.624	0.209	-0.069
-315.997	-111.644	0.216	-0.044
-314.983	-78.824	-0.188	-0.064
-313.968	106.266	-0.268	0.318
-312.953	49.110	-0.166	-0.157
-311.939	649.369	-0.132	0.338
-310.924	212.045	0.117	0.184
-309.910	280.242	-0.133	-0.239
-308.895	-6.132	0.115	-0.079
-307.880	-77.860	0.152	0.052
-306.866	-200.000	-0.044	-0.258
-305.851	800.000	0.014	0.062
-304.837	-20.920	0.160	0.098
-303.822	-18.579	0.228	-0.143
-302.807	-109.881	-0.500	0.105
-301.793	-200.000	-0.034	0.310
-300.778	43.683	-0.221	0.203
-299.764	195.199	0.077	-0.118
-298.749	-20.840	0.166	0.102
-297.735	52.619	0.164	-0.157
-296.720	551.208	-0.077	0.184
-295.705	-200.000	-0.046	-0.320
-294.691	-200.000	0.055	-0.265
-293.676	-200.000	-0.001	0.150
-292.662	-137.854	-0.241	-0.027
-291.647	-77.846	0.339	0.117
-290.632	651.681	-0.096	-0.246
-289.618	800.000	0.055	0.160
-288.603	119.151	0.234	-0.290
-287.589	86.950	-0.337	-0.374
-286.574	496.404	-0.127	0.292
-285.559	172.382	-0.089	0.129
-284.545	800.000	0.045	-0.182
-283.530	800.000	-0.024	0.086
-282.516	105.406	0.416	-0.492
-281.501	-111.538	-0.118	0.024
-280.486	-39.254	-0.284	0.149
-279.472	-26.378	-0.197	0.116
-278.457	-38.544	0.304	0.161
-277.443	-74.943	0.242	0.087
-276.428	-73.860	-0.187	0.068
-275.413	-54.610	-0.051	0.023
-274.399	359.114	0.067	-0.134
-273.384	800.000	0.069	-0.263
-272.370	-200.000	-0.048	0.402
-271.355	-50.938	-0.053	0.025
-270.340	153.834	0.195	-0.267
-269.326	-200.000	0.029	0.141
-268.311	-200.000	-0.026	0.161
-267.297	-200.000	-0.001	-0.009
-266.282	102.021	-0.153	-0.179
-265.267	-25.372	-0.161	-0.095
-264.253	-200.000	0.029	-0.337
-263.238	-200.000	-0.003	-0.130
-262.224	-150.496	0.176	0.013
-261.209	-6.060	0.026	-0.018
-260.195	-200.000	-0.002	0.153
-259.180	214.432	0.135	0.214
-258.165	33.103	0.240	-0.208
-257.151	-42.943	0.227	-0.115
-256.136	-71.482	0.253	0.095
-255.122	-67.287	-0.292	0.115
-254.107	-45.264	-0.126	-0.063
-253.092	-200.000	0.027	-0.252
-252.078	20.451	0.204	0.165
-251.063	118.997	-0.188	-0.233
-250.049	-100.201	0.280	-0.070
-249.034	-63.463	0.269	0.111
-248.019	-58.376	-0.147	0.064
-247.005	100.275	0.058	-0.067
-245.990	781.973	0.164	0.448
-244.976	-161.257	-0.173	0.009
-243.961	409.759	-0.154	-0.326
-242.946	338.415	0.064	-0.124
-241.932	743.002	0.040	-0.109
-240.917	490.095	0.066	0.150
-239.903	-200.000	-0.021	0.115
-238.888	391.917	-0.076	0.159
-237.873	779.312	0.054	-0.148
-236.859	246.223	0.064	0.108
-235.844	99.497	0.253	-0.292
-234.830	-200.000	0.020	-0.267
-233.815	26.648	-0.121	0.101
-232.800	800.000	-0.078	-0.284
-231.786	117.775	-0.134	0.165
-230.771	295.844	0.058	0.106
-229.757	800.000	-0.025	0.095
-228.742	-136.779	-0.105	-0.012
-227.727	157.206	0.158	0.219
-226.713	-151.905	0.149	-0.011
-225.698	1.496	-0.161	-0.116
-224.684	-166.445	-0.250	-0.010
-223.669	-200.000	0.006	0.240
-222.655	-16.936	0.211	-0.133
-221.640	772.914	-0.057	-0.155
-220.625	-9.719	-0.387	-0.258
-219.611	800.000	0.037	0.122
-218.596	-200.000	0.028	-0.249
-217.582	-135.520	0.322	-0.038
-216.567	-105.821	0.210	0.047
-215.552	53.007	0.518	0.495
-214.538	-29.803	-0.254	0.145
-213.523	800.000	-0.036	0.105
-212.509	250.886	-0.115	0.195
-211.494	-200.000	-0.024	0.172
-210.479	567.383	0.048	-0.117
-209.465	-175.207	-0.232	-0.006
-208.450	-158.141	0.290	0.017
-207.436	-78.119	-0.233	-0.080
-206.421	-128.913	-0.252	0.035
-205.406	-85.672	-0.311	0.097
-204.392	39.803	-0.126	0.113
-203.377	36.406	0.236	-0.208
-202.363	-58.446	0.107	0.046
-201.348	800.000	0.020	-0.074
-200.333	-144.931	-0.206	-0.019
-199.319	27.069	-0.196	-0.165
-198.304	107.247	0.089	0.106
-197.290	800.000	-0.063	-0.235
-196.275	-128.327	0.238	-0.034
-195.260	-179.845	0.140	-0.003
-194.246	800.000	0.066	0.223
-193.231	800.000	0.021	0.069
-192.217	-6.213	-0.188	0.128
-191.202	393.264	-0.147	0.305
-190.187	306.802	-0.114	-0.211
-189.173	22.986	0.287	0.235
-188.158	800.000	0.035	0.122
-187.144	101.065	0.200	0.232
-186.129	145.137	-0.235	-0.313
-185.114	-99.213	-0.265	-0.067
-184.100	-99.175	0.118	-0.030
-183.085	234.306	-0.104	-0.172
-182.071	580.742	-0.106	0.259
-181.056	-200.000	-0.008	-0.107
-180.042	95.169	-0.089	-0.102
-179.027	56.411	-0.116	-0.112
-178.012	375.955	-0.076	0.155
-176.998	531.689	-0.026	-0.063
-175.983	-42.540	-0.324	-0.165
-174.969	105.573	-0.118	-0.139
-173.954	-29.232	0.084	-0.048
-172.939	619.432	-0.013	0.033
-171.925	-200.000	0.003	0.217
-170.910	-200.000	0.001	0.039
-169.896	75.146	-0.059	0.062
-168.881	38.199	0.112	-0.099
-167.866	479.119	-0.025	0.057
-166.852	-83.877	-0.341	-0.108
-165.837	160.533	-0.087	0.122
-164.823	594.473	0.108	0.267
-163.808	490.793	-0.066	-0.151
-162.793	264.789	0.270	0.470
-161.779	-76.957	-0.262	0.091
-160.764	239.695	-0.178	0.296
-159.750	9.984	-0.006	0.004
-158.735	-2.944	-0.096	-0.067
-157.720	-200.000	0.033	-0.209
-156.706	-104.565	0.235	-0.054
-155.691	266.119	0.098	-0.170
-154.677	140.276	0.160	-0.211
-153.662	-200.000	0.079	0.401
-152.647	151.358	-0.143	0.195
-151.633	800.000	-0.005	0.020
-150.618	-160.931	0.271	0.014
-149.604	-128.835	0.115	-0.016
-148.589	759.808	-0.041	0.110
-147.574	315.720	0.114	0.214
-146.560	-1.275	-0.121	0.085
-145.545	-200.000	-0.047	0.268
-144.531	-32.453	-0.169	0.094
-143.516	-61.018	0.300	0.126
-142.502	-59.414	-0.138	-0.059
-141.487	-43.001	-0.278	-0.140
-140.472	594.023	-0.104	-0.257
-139.458	280.577	-0.044	0.078
-138.443	17.714	0.117	0.093
-137.429	800.000	0.099	-0.342
-136.414	-17.712	0.237	0.148
-135.399	53.374	-0.104	0.099
-134.385	244.707	-0.070	0.118
-133.370	-122.606	-0.440	0.071
-132.356	800.000	-0.018	0.063
-131.341	-6.593	0.225	-0.152
-130.326	242.762	0.093	-0.156
-129.312	-82.970	-0.268	-0.086
-128.297	497.567	-0.148	0.338
-127.283	99.550	-0.095	0.109
-126.268	-200.000	0.022	0.109
-125.253	-75.210	0.302	0.107
-124.239	-28.912	0.367	-0.210
-123.224	32.992	0.054	-0.046
-122.210	627.064	0.076	0.192
