DTS Sentinel unit serial number:	SN413079Multiplexer serial number:	ORYXHardware model number:	OX4-SRSoftware version number:	ORYX F/W v4.00 Oryx Data Collector v3.7.2.0data status	okinstallation	princeton_trtdifferential loss correction	single-endedforward channel	channel 1reverse channel	N/Adate	2019/09/18time	08:10:36forward acquisition time	60.00reverse acquisition time	0.00gamma	496.2192k internal	0.2337k external	0.2337temperature offset calibration	0.9977default loss term (dB/km)	0.3790temperature slope calibration	1.0000multiplexer offset coefficient	1.0000multiplexer slope coefficient	1.0000fibre end	0.00T internal ref (°C)	23.83T ext. ref 1 (°C)	0.21T ext. ref 2 (°C)	19.57length (m)	temperature (°C)	Stokes	anti-Stokes-747.200	800.000	0.100	0.318
-746.185	-200.000	-0.010	-0.118
-745.171	163.457	-0.150	-0.212
-744.156	-200.000	-0.024	0.000
-743.142	-148.400	-0.017	0.001
-742.127	261.212	-0.264	0.459
-741.112	-76.472	-0.377	0.133
-740.098	59.022	-0.068	0.067
-739.083	-51.478	0.133	0.063
-738.069	157.025	-0.073	0.101
-737.054	571.549	0.060	-0.146
-736.039	-68.167	-0.343	-0.134
-735.025	185.497	0.117	0.175
-734.010	52.353	-0.142	0.136
-732.996	-200.000	-0.089	-0.418
-731.981	-39.657	-0.273	0.144
-730.966	114.315	0.133	0.162
-729.952	31.953	-0.146	0.127
-728.937	-120.706	-0.024	-0.004
-727.923	202.447	-0.148	0.229
-726.908	-83.145	-0.061	0.020
-725.894	-136.529	-0.310	-0.036
-724.879	40.524	0.142	0.128
-723.864	145.106	-0.167	-0.223
-722.850	-83.991	-0.124	-0.039
-721.835	40.253	-0.180	0.163
-720.821	439.662	-0.123	-0.269
-719.806	3.354	-0.156	-0.114
-718.791	52.985	0.141	0.135
-717.777	-111.089	0.472	-0.097
-716.762	-200.000	-0.020	-0.216
-715.748	224.957	-0.105	-0.170
-714.733	393.490	-0.056	0.118
-713.718	-200.000	-0.091	-0.437
-712.704	118.631	-0.053	-0.065
-711.689	-41.839	-0.077	0.040
-710.675	463.407	-0.016	0.036
-709.660	-200.000	0.035	-0.300
-708.645	126.521	-0.111	-0.141
-707.631	595.209	0.071	-0.175
-706.616	208.306	-0.072	0.113
-705.602	-135.167	-0.250	-0.030
-704.587	-146.624	-0.180	-0.016
-703.572	-82.600	0.209	0.068
-702.558	0.820	-0.481	-0.345
-701.543	224.275	-0.225	-0.364
-700.529	-49.633	0.106	0.051
-699.514	490.834	-0.231	-0.529
-698.499	-172.705	-0.219	0.007
-697.485	301.761	-0.172	-0.318
-696.470	-16.978	-0.161	-0.102
-695.456	800.000	0.040	-0.144
-694.441	-200.000	0.005	0.061
-693.426	-112.640	-0.145	-0.029
-692.412	-46.244	-0.169	0.083
-691.397	-200.000	-0.030	-0.327
-690.383	11.911	0.099	-0.076
-689.368	173.765	0.044	0.063
-688.354	269.243	-0.243	0.427
-687.339	800.000	-0.093	-0.318
-686.324	373.627	-0.093	-0.189
-685.310	453.407	-0.163	-0.362
-684.295	-29.834	-0.185	-0.105
-683.281	800.000	-0.096	0.286
-682.266	-43.463	-0.213	0.108
-681.251	55.760	-0.100	0.097
-680.237	800.000	-0.052	0.176
-679.222	-9.253	-0.177	0.119
-678.208	-154.973	-0.125	0.008
-677.193	800.000	0.041	0.137
-676.178	-91.667	-0.309	-0.088
-675.164	253.442	0.055	-0.094
-674.149	800.000	0.008	0.024
-673.135	-8.728	-0.266	0.179
-672.120	-125.184	-0.161	-0.025
-671.105	-123.695	-0.259	-0.041
-670.091	126.148	0.185	0.235
-669.076	-200.000	0.008	-0.203
-668.062	-70.780	-0.212	-0.080
-667.047	165.523	-0.170	-0.240
-666.032	79.693	0.095	0.102
-665.018	-66.533	0.241	0.096
-664.003	-88.183	-0.179	-0.054
-662.989	-40.920	-0.288	-0.149
-661.974	160.377	-0.092	0.129
-660.959	738.513	0.078	-0.210
-659.945	152.515	-0.021	-0.029
-658.930	-140.720	-0.213	0.022
-657.916	731.753	0.143	0.381
-656.901	214.306	0.196	0.311
-655.886	-200.000	-0.016	0.291
-654.872	-71.967	-0.241	-0.090
-653.857	-200.000	-0.008	-0.301
-652.843	61.769	0.296	-0.294
-651.828	-35.015	-0.147	-0.080
-650.814	-200.000	0.050	-0.448
-649.799	-138.176	-0.108	0.012
-648.784	58.894	0.106	0.104
-647.770	-200.000	-0.015	0.142
-646.755	62.873	-0.308	-0.308
-645.741	-200.000	0.004	-0.262
-644.726	108.176	-0.065	-0.077
-643.711	342.379	-0.068	0.133
-642.697	-200.000	0.015	-0.345
-641.682	800.000	-0.049	-0.191
-640.668	44.621	-0.183	-0.168
-639.653	72.782	-0.198	0.207
-638.638	311.323	-0.086	0.161
-637.624	-200.000	-0.021	-0.178
-636.609	-67.188	0.143	0.056
-635.595	621.116	0.046	0.115
-634.580	40.541	-0.092	0.083
-633.565	-200.000	0.033	-0.213
-632.551	146.758	-0.157	-0.210
-631.536	243.825	-0.024	0.040
-630.522	168.521	-0.089	0.127
-629.507	-26.161	-0.297	-0.174
-628.492	228.764	-0.039	0.063
-627.478	-200.000	0.016	0.199
-626.463	-48.961	-0.126	0.060
-625.449	-200.000	-0.054	-0.258
-624.434	-71.872	0.238	0.089
-623.419	-78.674	0.158	-0.054
-622.405	-21.768	-0.370	-0.225
-621.390	630.969	0.057	-0.144
-620.376	-105.867	0.207	0.047
-619.361	-24.630	0.134	-0.079
-618.346	-97.932	-0.209	-0.054
-617.332	-200.000	-0.027	-0.285
-616.317	800.000	-0.023	0.068
-615.303	537.621	-0.037	0.088
-614.288	202.257	0.077	-0.118
-613.273	-66.123	-0.352	0.140
-612.259	-44.840	0.430	0.214
-611.244	-51.635	-0.117	-0.054
-610.230	66.792	-0.184	0.187
-609.215	-131.601	-0.167	-0.022
-608.201	67.357	0.126	0.129
-607.186	473.715	0.054	0.122
-606.171	800.000	0.025	0.109
-605.157	56.332	0.095	-0.092
-604.142	5.081	0.322	-0.236
-603.128	-107.677	0.069	0.015
-602.113	-71.132	0.167	0.063
-601.098	-200.000	0.048	0.439
-600.084	73.848	-0.262	0.275
-599.069	-154.833	-0.104	0.007
-598.055	91.557	0.223	-0.250
-597.040	800.000	0.027	-0.089
-596.025	-37.897	-0.257	-0.137
-595.011	-85.403	0.146	0.045
-593.996	-200.000	0.010	-0.114
-592.982	-99.533	-0.181	0.045
-591.967	92.584	-0.073	-0.083
-590.952	-70.721	0.301	-0.114
-589.938	113.853	0.144	-0.175
-588.923	800.000	0.028	-0.089
-587.909	622.326	-0.066	-0.165
-586.894	-39.207	0.068	0.035
-585.879	58.157	-0.190	0.185
-584.865	-144.296	0.560	0.052
-583.850	-200.000	-0.018	0.122
-582.836	-200.000	0.027	-0.226
-581.821	800.000	0.004	-0.013
-580.806	-22.751	0.147	0.088
-579.792	-41.773	0.224	0.115
-578.777	93.149	-0.142	0.160
-577.763	-105.803	-0.158	0.036
-576.748	-200.000	0.057	0.461
-575.733	58.969	-0.259	0.254
-574.719	-200.000	0.061	0.447
-573.704	112.857	0.168	-0.203
-572.690	-200.000	-0.028	0.154
-571.675	-99.406	0.013	0.003
-570.661	-200.000	0.010	-0.099
-569.646	30.457	0.179	0.152
-568.631	543.790	-0.036	0.086
-567.617	220.676	0.152	0.243
-566.602	-200.000	-0.114	0.000
-565.588	-118.005	0.386	-0.069
-564.573	38.403	0.024	-0.021
-563.558	-52.330	-0.093	-0.043
-562.544	235.240	0.180	-0.297
-561.529	-43.232	-0.194	0.098
-560.515	-106.797	-0.234	0.052
-559.500	-136.960	-0.272	0.031
-558.485	-200.000	0.011	-0.163
-557.471	30.866	0.135	-0.115
-556.456	-47.834	0.137	0.066
-555.442	-90.082	-0.328	-0.095
-554.427	60.437	0.206	-0.203
-553.412	96.303	-0.249	-0.284
-552.398	374.624	-0.092	0.186
-551.383	-132.828	0.418	-0.053
-550.369	-108.213	-0.381	-0.082
-549.354	63.647	-0.154	0.154
-548.339	-135.686	-0.343	-0.040
-547.325	-170.876	-0.294	-0.010
-546.310	-121.756	-0.264	-0.043
-545.296	-141.604	0.298	0.030
-544.281	-13.527	-0.184	-0.119
-543.266	-200.000	0.010	-0.140
-542.252	79.604	-0.174	-0.186
-541.237	189.038	-0.118	0.176
-540.223	-7.818	-0.190	-0.128
-539.208	800.000	-0.099	-0.397
-538.193	91.780	0.053	0.059
-537.179	285.743	-0.099	0.177
-536.164	797.120	0.099	-0.273
-535.150	-200.000	0.002	0.015
-534.135	-46.529	0.238	-0.116
-533.121	503.845	0.039	0.089
-532.106	-158.692	0.181	-0.010
-531.091	800.000	0.151	0.476
-530.077	-51.025	0.326	-0.152
-529.062	-112.556	-0.189	0.037
-528.048	-200.000	0.002	-0.035
-527.033	41.469	0.165	0.148
-526.018	-119.710	-0.481	-0.083
-525.004	800.000	0.054	-0.170
-523.989	107.220	0.154	0.182
-522.975	127.783	-0.178	-0.225
-521.960	-102.915	0.289	0.068
-520.945	-78.362	0.180	-0.062
-519.931	29.240	-0.214	-0.181
-518.916	-102.445	-0.165	0.039
-517.902	212.664	0.130	0.205
-516.887	23.337	-0.059	0.048
-515.872	169.089	0.067	0.095
-514.858	-131.329	0.212	-0.028
-513.843	800.000	0.033	0.116
-512.829	373.747	-0.086	0.174
-511.814	-118.921	-0.074	0.013
-510.799	-75.209	-0.179	-0.063
-509.785	121.796	0.026	0.032
-508.770	-144.285	0.307	-0.028
-507.756	-120.005	0.189	0.032
-506.741	60.442	-0.123	0.121
-505.726	379.219	-0.061	0.124
-504.712	-77.139	0.120	-0.042
-503.697	20.043	-0.232	0.186
-502.683	-132.463	-0.408	-0.052
-501.668	-9.477	0.084	-0.056
-500.653	57.540	-0.093	0.090
-499.639	-138.208	-0.248	-0.027
-498.624	144.514	0.043	-0.058
-497.610	-132.474	0.354	-0.045
-496.595	332.756	-0.123	-0.237
-495.581	800.000	-0.087	-0.246
-494.566	-99.409	0.229	-0.057
-493.551	-73.673	-0.192	0.069
-492.537	-66.504	-0.072	-0.028
-491.522	-200.000	0.027	0.236
-490.508	136.299	0.019	0.024
-489.493	639.176	-0.014	-0.036
-488.478	800.000	-0.066	0.210
-487.464	316.753	-0.095	-0.179
-486.449	56.803	-0.128	-0.124
-485.435	81.292	0.169	-0.182
-484.420	800.000	-0.056	0.157
-483.405	438.981	-0.155	0.336
-482.391	-94.923	-0.119	0.032
-481.376	-57.310	-0.130	0.057
-480.362	15.875	-0.137	-0.107
-479.347	-148.079	0.072	-0.006
-478.332	-103.421	-0.254	0.059
-477.318	-29.033	0.279	-0.159
-476.303	800.000	0.075	-0.282
-475.289	-7.368	0.118	0.079
-474.274	33.757	-0.126	-0.109
-473.259	109.333	0.098	-0.117
-472.245	694.326	0.125	-0.327
-471.230	-40.058	-0.199	0.103
-470.216	-200.000	0.024	0.178
-469.201	-164.342	-0.158	0.007
-468.186	800.000	0.085	0.235
-467.172	-18.810	-0.171	-0.106
-466.157	-46.640	-0.107	-0.052
-465.143	-130.692	0.146	-0.020
-464.128	-83.091	-0.233	0.075
-463.113	-82.105	0.099	0.032
-462.099	440.905	0.088	-0.191
-461.084	405.418	0.116	-0.244
-460.070	-200.000	-0.036	-0.172
-459.055	-200.000	0.039	-0.292
-458.040	181.458	-0.352	-0.514
-457.026	466.236	0.080	0.177
-456.011	-7.812	-0.198	-0.133
-454.997	237.169	-0.116	0.191
-453.982	-200.000	-0.014	0.217
-452.968	11.608	0.149	0.114
-451.953	32.880	0.146	-0.125
-450.938	411.319	-0.022	0.047
-449.924	800.000	-0.052	0.220
-448.909	800.000	0.035	-0.122
-447.895	-131.087	0.068	-0.009
-446.880	46.045	0.197	0.181
-445.865	-200.000	-0.065	-0.386
-444.851	-200.000	0.063	-0.317
-443.836	118.923	-0.250	-0.306
-442.822	-61.431	0.118	0.049
-441.807	-53.053	0.050	-0.023
-440.792	-84.692	0.091	-0.028
-439.778	31.400	0.273	-0.233
-438.763	-200.000	-0.037	0.267
-437.749	-87.364	0.300	-0.090
-436.734	113.886	0.239	0.289
-435.719	-69.735	-0.165	0.063
-434.705	110.159	-0.056	-0.067
-433.690	-200.000	-0.006	0.334
-432.676	-200.000	0.049	-0.243
-431.661	192.823	0.061	0.091
-430.646	-16.488	0.014	-0.009
-429.632	135.319	-0.225	-0.290
-428.617	41.514	0.156	-0.140
-427.603	-68.055	0.271	0.105
-426.588	688.958	-0.071	0.185
-425.573	-97.668	-0.225	0.058
-424.559	-61.678	0.304	0.126
-423.544	176.981	-0.236	-0.341
-422.530	281.415	0.098	0.175
-421.515	-13.800	0.244	0.156
-420.500	-23.308	-0.233	-0.139
-419.486	-22.236	0.019	-0.012
-418.471	800.000	0.035	-0.116
-417.457	452.793	-0.112	-0.246
-416.442	60.173	0.133	-0.130
-415.428	-64.827	0.183	0.073
-414.413	-137.451	-0.066	-0.007
-413.398	-200.000	-0.008	-0.065
-412.384	-96.568	0.287	0.075
-411.369	64.170	0.055	0.055
-410.355	5.695	-0.331	0.242
-409.340	21.467	0.216	-0.174
-408.325	62.875	-0.094	-0.093
-407.311	-144.067	-0.266	0.025
-406.296	-200.000	0.057	-0.298
-405.282	-33.797	-0.192	-0.105
-404.267	555.205	-0.061	0.146
-403.252	-200.000	0.010	0.082
-402.238	58.148	-0.100	0.097
-401.223	-24.958	0.166	0.098
-400.209	800.000	0.044	0.132
-399.194	38.051	-0.017	0.015
-398.179	-200.000	0.013	0.062
-397.165	-118.383	0.268	0.047
-396.150	-17.974	-0.136	0.084
-395.136	93.629	-0.235	-0.264
-394.121	-188.279	-0.375	-0.005
-393.106	272.672	0.098	-0.170
-392.092	273.317	-0.052	-0.091
-391.077	-60.300	0.243	0.102
-390.063	13.021	-0.240	0.184
-389.048	-4.952	0.184	0.125
-388.033	-200.000	0.012	-0.322
-387.019	-200.000	-0.037	0.306
-386.004	199.421	-0.139	-0.211
-384.990	223.921	-0.037	0.059
-383.975	58.002	0.264	-0.256
-382.960	113.411	-0.186	-0.224
-381.946	-92.651	0.389	0.108
-380.931	-99.306	-0.287	0.072
-379.917	-84.100	-0.531	0.167
-378.902	-200.000	0.007	-0.069
-377.888	-150.262	-0.320	-0.024
-376.873	-44.780	-0.154	0.076
-375.858	125.951	-0.029	0.036
-374.844	56.139	0.068	0.065
-373.829	-53.929	-0.069	-0.031
-372.815	-200.000	-0.006	-0.048
-371.800	-83.853	-0.229	0.072
-370.785	-4.003	0.156	-0.107
-369.771	-4.240	-0.035	-0.024
-368.756	78.294	0.103	-0.109
-367.742	747.803	-0.065	-0.173
-366.727	-21.977	-0.075	-0.045
-365.712	583.662	-0.056	-0.135
-364.698	-97.176	0.243	-0.063
-363.683	245.313	-0.106	0.176
-362.669	625.883	-0.070	0.174
-361.654	800.000	-0.115	0.332
-360.639	-200.000	-0.011	-0.231
-359.625	-200.000	-0.003	0.047
-358.610	-200.000	0.034	0.175
-357.596	-97.911	0.132	0.034
-356.581	-200.000	0.008	0.047
-355.566	117.748	0.127	0.154
-354.552	324.595	0.208	-0.394
-353.537	-200.000	-0.034	-0.284
-352.523	-200.000	-0.012	-0.204
-351.508	-40.530	0.271	-0.139
-350.493	800.000	-0.130	0.438
-349.479	49.568	-0.153	-0.142
-348.464	-31.212	-0.332	-0.185
-347.450	-90.702	0.144	-0.041
-346.435	-200.000	-0.006	-0.168
-345.420	-139.849	0.327	0.034
-344.406	-200.000	0.050	-0.347
-343.391	-178.028	0.093	-0.002
-342.377	-36.003	-0.262	0.140
-341.362	-200.000	-0.004	-0.019
-340.348	-21.224	-0.419	0.253
-339.333	-163.733	-0.261	-0.012
-338.318	425.020	-0.057	-0.122
-337.304	-200.000	0.012	-0.141
-336.289	52.333	-0.175	-0.165
-335.275	-134.065	0.189	0.023
-334.260	-56.762	-0.211	0.092
-333.245	-134.244	-0.344	0.042
-332.231	-63.867	0.161	-0.065
-331.216	-22.405	-0.205	-0.122
-330.202	-200.000	0.028	0.147
-329.187	64.148	0.081	0.081
-328.172	261.078	0.077	-0.132
-327.158	-44.584	0.256	-0.126
-326.143	241.692	0.224	-0.370
-325.129	0.454	0.113	-0.080
-324.114	-25.464	0.250	0.146
-323.099	800.000	-0.066	0.198
-322.085	150.600	0.265	0.355
-321.070	-200.000	0.010	0.074
-320.056	-83.744	0.251	-0.079
-319.041	-200.000	-0.037	-0.162
-318.026	-200.000	0.022	-0.168
-317.012	285.225	0.161	-0.287
-315.997	72.075	0.065	-0.066
-314.983	-94.660	0.099	-0.027
-313.968	-114.771	-0.221	0.042
-312.953	-159.182	0.292	0.016
-311.939	-8.808	-0.328	0.217
-310.924	53.432	0.153	0.145
-309.910	511.867	-0.172	0.395
-308.895	561.782	0.008	0.019
-307.880	81.321	-0.216	0.230
-306.866	-200.000	-0.015	-0.244
-305.851	-125.466	0.340	0.051
-304.837	-107.073	-0.205	0.045
-303.822	-200.000	-0.023	-0.183
-302.807	139.702	-0.087	0.113
-301.793	-149.852	-0.326	0.025
-300.778	800.000	0.009	-0.038
-299.764	-166.297	-0.088	0.004
-298.749	-21.268	-0.164	-0.099
-297.735	153.167	-0.040	-0.054
-296.720	800.000	0.073	-0.235
-295.705	34.079	0.075	-0.065
-294.691	265.002	-0.074	0.128
-293.676	-200.000	-0.000	-0.168
-292.662	-136.757	-0.259	0.029
-291.647	174.993	0.175	-0.249
-290.632	-200.000	-0.021	-0.199
-289.618	88.562	0.153	-0.168
-288.603	800.000	-0.071	0.240
-287.589	-150.657	0.599	0.045
-286.574	-55.659	0.081	0.036
-285.559	349.856	0.221	-0.430
-284.545	263.941	0.146	-0.250
-283.530	-139.087	-0.147	0.016
-282.516	800.000	-0.055	-0.157
-281.501	-200.000	-0.016	0.193
-280.486	-200.000	-0.069	0.471
-279.472	32.604	0.229	-0.195
-278.457	-78.894	0.089	0.030
-277.443	-200.000	0.045	0.274
-276.428	800.000	0.084	0.245
-275.413	76.803	-0.085	0.089
-274.399	542.877	-0.048	-0.112
-273.384	50.304	0.250	0.233
-272.370	696.218	-0.058	0.150
-271.355	-71.243	0.031	-0.012
-270.340	-200.000	-0.005	-0.391
-269.326	-200.000	-0.020	0.223
-268.311	-88.344	0.169	0.050
-267.297	-200.000	-0.027	0.266
-266.282	-31.151	0.179	0.100
-265.267	68.288	-0.084	0.085
-264.253	-179.360	0.139	0.003
-263.238	-52.452	-0.290	0.132
-262.224	30.684	0.029	0.024
-261.209	20.823	-0.212	-0.169
-260.195	-86.278	0.121	-0.037
-259.180	-200.000	-0.036	-0.214
-258.165	-135.688	-0.163	0.019
-257.151	122.680	-0.138	0.170
-256.136	-60.831	0.279	0.116
-255.122	-200.000	-0.080	0.376
-254.107	-66.834	-0.235	-0.091
-253.092	-200.000	-0.028	-0.225
-252.078	138.215	0.139	-0.179
-251.063	-108.909	0.107	0.022
-250.049	-200.000	-0.008	-0.048
-249.034	-155.247	-0.089	-0.006
-248.019	800.000	0.054	-0.196
-247.005	-200.000	0.004	-0.238
-245.990	43.537	0.090	0.081
-244.976	82.553	0.153	0.164
-243.961	189.247	-0.140	0.207
-242.946	372.121	0.190	-0.380
-241.932	497.634	0.050	0.113
-240.917	278.553	-0.058	0.101
-239.903	47.239	-0.356	0.326
-238.888	800.000	-0.119	0.347
-237.873	-125.490	0.065	-0.010
-236.859	-63.986	0.105	0.042
-235.844	-200.000	-0.003	-0.420
-234.830	800.000	0.036	-0.124
-233.815	480.438	0.099	0.222
-232.800	59.957	-0.094	-0.092
-231.786	-114.014	0.096	0.018
-230.771	-4.439	0.239	-0.162
-229.757	521.745	-0.049	0.114
-228.742	181.589	0.060	0.087
-227.727	-200.000	0.001	0.354
-226.713	800.000	0.065	0.257
-225.698	-200.000	0.037	-0.181
-224.684	337.761	0.051	-0.097
-223.669	181.823	-0.089	-0.128
-222.655	393.804	0.091	0.187
-221.640	87.016	-0.145	-0.158
-220.625	-152.364	0.324	-0.023
-219.611	-200.000	0.121	-0.523
-218.596	-79.476	0.056	-0.019
-217.582	-113.404	-0.245	-0.047
-216.567	-200.000	0.001	0.009
-215.552	-150.204	0.272	0.021
-214.538	-79.487	-0.265	-0.088
-213.523	-56.271	0.098	-0.043
-212.509	-15.601	0.074	0.046
-211.494	189.646	0.043	-0.063
-210.479	287.057	0.054	0.095
-209.465	-135.678	0.319	0.037
-208.450	93.852	0.207	0.230
-207.436	405.907	0.145	0.300
-206.421	-19.801	0.099	0.060
-205.406	-200.000	-0.007	0.122
-204.392	513.667	-0.044	0.101
-203.377	70.764	0.060	-0.061
-202.363	179.604	0.031	0.045
-201.348	-118.877	-0.207	-0.036
-200.333	373.312	0.059	-0.119
-199.319	49.385	-0.184	0.170
-198.304	800.000	0.057	0.189
-197.290	-75.062	-0.151	-0.053
-196.275	800.000	-0.016	0.047
-195.260	32.076	-0.114	0.097
-194.246	499.666	0.061	-0.139
-193.231	-200.000	0.007	0.237
-192.217	-23.652	0.362	0.213
-191.202	286.339	-0.120	0.213
-190.187	10.294	0.289	-0.216
-189.173	406.612	0.201	-0.418
-188.158	-1.523	0.306	0.212
-187.144	-200.000	-0.043	0.290
-186.129	-200.000	0.057	-0.401
-185.114	-126.178	-0.241	-0.035
-184.100	58.982	-0.411	0.397
-183.085	439.049	-0.015	-0.032
-182.071	-105.620	-0.353	-0.078
-181.056	474.174	0.094	0.208
-180.042	-31.481	0.191	0.105
-179.027	-163.339	0.058	0.003
-178.012	-200.000	-0.029	0.141
-176.998	-200.000	-0.025	0.256
-175.983	474.616	0.146	0.323
-174.969	-143.666	0.023	0.002
-173.954	237.506	0.066	0.108
-172.939	800.000	0.061	-0.234
-171.925	-67.126	0.332	0.129
-170.910	-32.630	-0.237	-0.130
-169.896	800.000	0.029	0.081
-168.881	85.807	0.107	-0.115
-167.866	-140.425	0.075	0.008
-166.852	88.422	-0.126	-0.138
-165.837	266.911	-0.232	0.398
-164.823	46.335	0.186	0.169
-163.808	-179.877	0.102	0.002
-162.793	-200.000	0.096	0.576
-161.779	800.000	0.059	-0.225
-160.764	173.564	-0.119	0.169
-159.750	179.474	-0.076	-0.109
-158.735	-172.326	0.428	0.013
-157.720	40.103	-0.229	0.202
-156.706	-200.000	-0.036	0.182
-155.691	-58.523	-0.049	0.021
-154.677	150.791	0.020	-0.026
-153.662	131.289	0.179	0.226
-152.647	89.572	-0.264	-0.289
-151.633	22.242	0.127	0.102
-150.618	-200.000	-0.029	0.297
-149.604	412.776	-0.037	0.076
-148.589	-200.000	-0.056	0.375
-147.574	146.152	-0.045	-0.059
-146.560	58.976	-0.207	0.200
-145.545	-20.932	0.075	-0.045
-144.531	-118.982	-0.108	0.019
-143.516	-200.000	0.006	-0.062
-142.502	-76.106	-0.076	0.026
-141.487	193.027	-0.065	-0.096
-140.472	35.150	-0.218	-0.188
-139.458	690.265	-0.056	-0.145
-138.443	151.308	-0.063	0.084
-137.429	582.022	-0.038	-0.091
-136.414	-155.332	0.130	-0.008
-135.399	5.238	0.271	0.196
-134.385	5.082	-0.149	-0.108
-133.370	41.702	0.113	-0.100
-132.356	-79.051	-0.423	-0.141
-131.341	-200.000	0.004	0.441
-130.326	28.936	0.347	0.288
-129.312	628.397	0.213	0.528
-128.297	464.032	0.068	-0.149
-127.283	232.690	0.027	0.043
-126.268	413.035	0.177	0.369
-125.253	-20.633	-0.291	-0.175
-124.239	-200.000	-0.001	-0.039
-123.224	800.000	0.100	0.364
-122.210	3.818	-0.325	-0.233
-121.195	-129.294	0.173	-0.024
