DTS Sentinel unit serial number:	SN413079Multiplexer serial number:	ORYXHardware model number:	OX4-SRSoftware version number:	ORYX F/W v4.00 Oryx Data Collector v3.7.2.0data status	okinstallation	princeton_trtdifferential loss correction	single-endedforward channel	channel 1reverse channel	N/Adate	2019/09/13time	10:18:35forward acquisition time	60.00reverse acquisition time	0.00gamma	496.2192k internal	0.2323k external	0.2323temperature offset calibration	1.0160default loss term (dB/km)	0.3790temperature slope calibration	1.0000multiplexer offset coefficient	1.0000multiplexer slope coefficient	1.0000fibre end	0.00T internal ref (°C)	30.80T ext. ref 1 (°C)	4.51T ext. ref 2 (°C)	28.07length (m)	temperature (°C)	Stokes	anti-Stokes-747.200	-15.007	-0.151	-0.098
-746.185	35.332	0.161	0.143
-745.171	-200.000	-0.008	-0.056
-744.156	-59.772	-0.293	0.126
-743.142	436.634	-0.022	-0.047
-742.127	-200.000	0.000	-0.053
-741.112	24.548	0.109	0.091
-740.098	-163.819	0.314	0.015
-739.083	597.710	0.109	0.272
-738.069	-200.000	-0.102	0.674
-737.054	11.939	-0.131	-0.102
-736.039	-200.000	-0.041	-0.217
-735.025	-104.438	0.185	-0.043
-734.010	-169.774	-0.289	0.011
-732.996	-71.607	-0.349	-0.131
-731.981	-86.997	-0.089	0.027
-730.966	60.886	-0.124	0.124
-729.952	22.989	-0.303	-0.251
-728.937	-200.000	-0.059	0.278
-727.923	-41.409	-0.234	0.122
-726.908	240.956	0.119	-0.200
-725.894	-200.000	-0.025	-0.311
-724.879	-47.909	-0.199	0.097
-723.864	-139.550	0.127	-0.014
-722.850	-56.921	-0.056	-0.025
-721.835	390.275	0.090	-0.188
-720.821	-97.044	-0.329	-0.087
-719.806	182.669	0.154	0.230
-718.791	57.515	-0.073	-0.072
-717.777	800.000	-0.091	0.391
-716.762	-81.817	0.273	-0.090
-715.748	-200.000	-0.030	-0.314
-714.733	-126.745	-0.055	0.008
-713.718	59.600	-0.201	0.200
-712.704	238.884	-0.156	0.262
-711.689	-188.410	-0.260	-0.003
-710.675	-194.892	-0.153	0.001
-709.660	75.664	0.134	-0.143
-708.645	-108.741	-0.117	0.025
-707.631	-131.797	-0.249	-0.033
-706.616	-45.353	-0.271	0.136
-705.602	800.000	-0.024	0.089
-704.587	800.000	-0.088	0.340
-703.572	-191.753	-0.047	-0.000
-702.558	85.859	0.130	0.144
-701.543	150.995	-0.035	-0.048
-700.529	-98.366	-0.228	0.059
-699.514	800.000	-0.090	-0.254
-698.499	800.000	0.013	0.041
-697.485	-143.198	-0.367	0.036
-696.470	-9.390	0.313	-0.211
-695.456	-200.000	0.005	-0.246
-694.441	196.022	0.040	-0.061
-693.426	238.756	-0.128	0.215
-692.412	576.724	0.077	-0.191
-691.397	-81.808	0.242	-0.080
-690.383	-200.000	0.029	0.130
-689.368	-131.928	-0.120	0.016
-688.354	-200.000	0.003	-0.144
-687.339	-34.165	-0.260	-0.144
-686.324	128.819	0.104	0.134
-685.310	-162.518	-0.471	0.023
-684.295	-130.570	-0.206	-0.028
-683.281	221.373	-0.187	-0.302
-682.266	-28.656	-0.316	0.183
-681.251	786.959	0.096	-0.266
-680.237	767.018	0.022	-0.061
-679.222	800.000	0.047	-0.154
-678.208	256.707	-0.056	0.097
-677.193	-61.174	-0.329	-0.140
-676.178	66.091	-0.256	-0.261
-675.164	800.000	-0.102	-0.375
-674.149	-84.096	-0.109	0.035
-673.135	156.951	-0.070	-0.097
-672.120	400.374	-0.098	0.207
-671.105	639.950	-0.135	0.345
-670.091	403.555	0.162	-0.344
-669.076	-28.638	-0.414	-0.240
-668.062	-117.491	-0.385	-0.070
-667.047	-200.000	0.018	-0.238
-666.032	94.377	0.221	-0.252
-665.018	-111.099	0.291	-0.060
-664.003	-90.041	0.112	-0.033
-662.989	-135.493	0.074	0.009
-661.974	-200.000	0.016	0.110
-660.959	-0.201	-0.359	-0.257
-659.945	3.113	0.163	-0.119
-658.930	-3.520	0.146	-0.102
-657.916	800.000	0.011	0.035
-656.901	800.000	0.031	-0.106
-655.886	265.670	-0.123	-0.217
-654.872	-127.113	-0.263	-0.039
-653.857	-200.000	0.005	-0.238
-652.843	-47.833	0.102	0.050
-651.828	93.111	-0.251	0.285
-650.814	285.711	0.105	-0.191
-649.799	-200.000	-0.055	-0.276
-648.784	-130.796	0.135	-0.018
-647.770	-177.637	0.237	0.006
-646.755	-137.253	0.069	0.008
-645.741	346.839	-0.074	-0.147
-644.726	-60.318	0.172	0.074
-643.711	34.823	0.112	0.099
-642.697	-120.404	-0.211	-0.036
-641.682	12.331	0.131	-0.102
-640.668	56.445	-0.255	0.250
-639.653	-38.363	0.197	-0.105
-638.638	273.692	0.121	-0.215
-637.624	-44.304	-0.301	-0.152
-636.609	-82.926	-0.153	-0.050
-635.595	-14.562	-0.173	-0.112
-634.580	2.326	0.094	-0.068
-633.565	105.440	0.107	0.127
-632.551	-175.725	0.246	0.007
-631.536	-200.000	-0.016	0.246
-630.522	-154.603	0.235	0.016
-629.507	238.002	0.171	0.285
-628.492	135.697	0.330	0.431
-627.478	50.098	-0.183	0.174
-626.463	-114.904	-0.155	0.030
-625.449	303.384	-0.110	-0.205
-624.434	-4.399	-0.219	-0.153
-623.419	-112.010	-0.105	-0.021
-622.405	-7.626	-0.057	0.038
-621.390	-26.835	0.442	0.260
-620.376	-52.669	0.164	-0.076
-619.361	-200.000	-0.039	-0.325
-618.346	529.350	0.005	-0.012
-617.332	-95.288	0.201	-0.054
-616.317	-95.909	0.139	-0.037
-615.303	-49.224	-0.499	-0.240
-614.288	239.550	-0.057	-0.096
-613.273	-108.522	0.355	-0.077
-612.259	-200.000	-0.010	0.162
-611.244	-65.339	0.122	0.049
-610.230	111.170	-0.227	-0.275
-609.215	-99.842	-0.086	-0.022
-608.201	-165.604	-0.122	0.005
-607.186	10.064	0.274	0.209
-606.171	-146.180	-0.177	-0.016
-605.157	-174.950	-0.116	0.003
-604.142	11.793	-0.087	-0.067
-603.128	460.578	-0.061	-0.137
-602.113	18.271	-0.182	-0.146
-601.098	100.118	-0.049	-0.057
-600.084	-200.000	-0.027	-0.145
-599.069	-174.559	0.223	0.006
-598.055	-102.828	-0.134	-0.032
-597.040	-159.139	-0.065	-0.004
-596.025	141.629	-0.046	0.061
-595.011	-134.082	-0.388	-0.048
-593.996	-40.077	-0.031	0.016
-592.982	-130.933	-0.244	0.033
-591.967	-200.000	0.002	0.051
-590.952	-125.904	-0.202	0.031
-589.938	21.183	0.133	-0.108
-588.923	-24.917	-0.072	-0.043
-587.909	44.499	-0.324	0.299
-586.894	46.981	-0.301	0.281
-585.879	-200.000	0.012	0.258
-584.865	800.000	0.049	0.177
-583.850	585.606	-0.102	0.252
-582.836	-154.454	0.272	0.018
-581.821	800.000	0.016	-0.068
-580.806	-84.742	-0.247	-0.078
-579.792	800.000	-0.088	-0.361
-578.777	88.700	0.224	0.249
-577.763	78.197	0.163	0.175
-576.748	103.598	0.179	0.211
-575.733	81.369	0.081	-0.088
-574.719	-14.816	0.364	-0.235
-573.704	102.745	-0.066	0.077
-572.690	-100.353	0.334	-0.083
-571.675	-200.000	-0.037	-0.176
-570.661	-186.617	0.376	-0.005
-569.646	25.230	0.196	-0.163
-568.631	-200.000	-0.007	-0.192
-567.617	-151.981	-0.104	-0.008
-566.602	383.045	-0.113	-0.234
-565.588	800.000	0.077	0.247
-564.573	261.575	-0.233	0.404
-563.558	-200.000	0.086	-0.410
-562.544	9.629	-0.098	-0.074
-561.529	800.000	0.075	0.323
-560.515	129.674	-0.061	-0.078
-559.500	800.000	0.076	0.237
-558.485	-89.864	0.322	0.094
-557.471	124.937	-0.172	0.218
-556.456	336.005	0.151	-0.293
-555.442	-115.172	0.260	-0.049
-554.427	-33.400	-0.197	-0.109
-553.412	-59.350	-0.302	-0.130
-552.398	-72.576	0.296	-0.109
-551.383	77.649	0.035	0.037
-550.369	18.576	-0.331	0.266
-549.354	239.158	-0.131	-0.218
-548.339	74.910	-0.177	0.187
-547.325	67.629	-0.102	-0.104
-546.310	-26.639	0.052	0.031
-545.296	-55.842	-0.207	-0.093
-544.281	347.631	0.090	0.178
-543.266	96.568	0.135	-0.155
-542.252	66.707	0.138	-0.141
-541.237	-127.456	0.259	-0.038
-540.223	418.697	-0.054	-0.116
-539.208	-200.000	-0.049	0.265
-538.193	70.577	0.115	0.120
-537.179	-200.000	0.028	0.363
-536.164	562.848	-0.100	0.243
-535.150	-124.037	-0.176	0.028
-534.135	122.195	-0.030	-0.037
-533.121	2.577	-0.058	0.042
-532.106	41.567	-0.257	0.233
-531.091	-13.278	0.318	0.207
-530.077	174.912	-0.042	-0.060
-529.062	-104.331	-0.283	-0.066
-528.048	316.733	0.097	0.184
-527.033	-127.505	0.184	-0.027
-526.018	-59.013	-0.387	0.167
-525.004	-86.454	0.240	0.074
-523.989	800.000	0.073	0.259
-522.975	36.148	0.125	0.110
-521.960	-200.000	0.034	0.191
-520.945	-47.600	-0.282	0.137
-519.931	-80.498	0.341	-0.114
-518.916	-200.000	-0.034	-0.443
-517.902	800.000	-0.069	-0.285
-516.887	-55.541	-0.270	0.121
-515.872	-200.000	0.020	-0.189
-514.858	-37.895	0.100	-0.053
-513.843	-200.000	0.021	-0.103
-512.829	-112.869	0.470	-0.093
-511.814	34.274	0.175	0.153
-510.799	410.085	-0.098	0.208
-509.785	-103.378	-0.214	0.050
-508.770	175.765	0.161	0.234
-507.756	-178.491	-0.115	0.003
-506.741	-80.627	-0.242	-0.081
-505.726	-57.959	-0.295	-0.129
-504.712	214.772	-0.068	0.107
-503.697	800.000	-0.062	-0.187
-502.683	-200.000	0.056	-0.300
-501.668	-200.000	0.036	-0.240
-500.653	-66.263	0.284	-0.113
-499.639	-37.315	-0.194	-0.103
-498.624	-103.809	0.288	-0.067
-497.610	-114.765	0.194	0.037
-496.595	28.926	-0.263	-0.223
-495.581	-26.071	-0.367	0.216
-494.566	-14.949	0.201	0.129
-493.551	-84.052	-0.262	0.083
-492.537	-67.560	0.277	0.109
-491.522	-162.910	0.153	0.007
-490.508	-166.289	0.398	0.017
-489.493	-24.662	-0.157	0.093
-488.478	112.712	0.064	0.077
-487.464	-200.000	0.008	-0.077
-486.449	213.684	-0.128	0.202
-485.435	-62.994	-0.136	-0.056
-484.420	-151.724	0.208	-0.015
-483.405	800.000	-0.090	-0.263
-482.391	-200.000	-0.018	-0.200
-481.376	339.250	-0.049	-0.095
-480.362	235.958	0.193	-0.318
-479.347	72.386	0.022	0.023
-478.332	-200.000	0.044	-0.196
-477.318	690.512	-0.015	0.040
-476.303	-99.555	0.181	-0.045
-475.289	-200.000	0.031	0.364
-474.274	-21.617	0.369	0.224
-473.259	277.731	-0.109	0.193
-472.245	-126.416	-0.225	0.034
-471.230	72.044	0.183	-0.190
-470.216	90.858	0.302	0.338
-469.201	-49.710	-0.327	-0.155
-468.186	-98.089	0.148	0.038
-467.172	-74.246	0.238	0.086
-466.157	-200.000	0.012	0.099
-465.143	-129.764	0.479	0.066
-464.128	800.000	0.101	-0.432
-463.113	-17.295	-0.157	0.099
-462.099	-62.549	-0.046	-0.019
-461.084	-20.370	0.193	-0.118
-460.070	-62.667	-0.155	-0.064
-459.055	49.067	0.108	0.101
-458.040	145.546	0.098	0.132
-457.026	800.000	-0.010	-0.036
-456.011	800.000	0.088	-0.265
-454.997	32.312	0.069	0.059
-453.982	-200.000	0.006	0.247
-452.968	-140.069	0.304	0.032
-451.953	-35.177	-0.243	0.132
-450.938	-178.378	-0.242	0.006
-449.924	282.942	0.096	-0.171
-448.909	299.535	-0.123	0.226
-447.895	-200.000	0.039	0.232
-446.880	-200.000	-0.039	0.170
-445.865	-102.275	0.196	-0.047
-444.851	21.169	0.124	0.100
-443.836	-200.000	-0.023	-0.157
-442.822	800.000	0.082	0.244
-441.807	800.000	-0.058	0.242
-440.792	44.980	-0.105	0.096
-439.778	172.251	-0.110	0.158
-438.763	17.121	-0.212	0.168
-437.749	-128.512	-0.015	-0.002
-436.734	785.622	0.041	-0.112
-435.719	-33.540	0.263	-0.145
-434.705	149.026	-0.122	0.165
-433.690	69.387	-0.123	-0.127
-432.676	-184.985	-0.104	-0.002
-431.661	-65.895	-0.328	-0.131
-430.646	168.106	-0.068	-0.096
-429.632	-200.000	0.071	0.329
-428.617	-74.554	0.317	0.114
-427.603	800.000	-0.093	-0.352
-426.588	-104.518	0.197	-0.045
-425.573	177.833	-0.260	-0.378
-424.559	6.279	0.174	-0.128
-423.544	11.136	-0.075	0.057
-422.530	79.764	-0.111	-0.119
-421.515	-94.617	0.193	0.052
-420.500	-155.585	-0.255	-0.016
-419.486	-124.239	0.110	-0.017
-418.471	-58.450	0.104	0.045
-417.457	-200.000	-0.067	-0.367
-416.442	-107.407	-0.237	0.052
-415.428	-24.468	0.400	-0.238
-414.413	200.842	-0.127	0.195
-413.398	5.608	0.353	-0.260
-412.384	800.000	-0.081	-0.227
-411.369	-73.540	0.130	-0.047
-410.355	-45.435	0.100	0.049
-409.340	237.485	-0.127	0.210
-408.325	287.164	0.086	-0.155
-407.311	-51.199	-0.355	0.166
-406.296	250.241	0.085	0.143
-405.282	177.756	-0.050	-0.072
-404.267	41.292	-0.134	-0.120
-403.252	-159.974	-0.418	-0.023
-402.238	114.075	0.139	0.168
-401.223	800.000	0.035	0.125
-400.209	-113.872	-0.337	0.065
-399.194	-200.000	0.049	-0.324
-398.179	-84.705	-0.178	-0.056
-397.165	-98.738	0.302	0.077
-396.150	525.927	0.077	-0.181
-395.136	-145.162	0.224	-0.020
-394.121	742.087	-0.012	-0.032
-393.106	800.000	-0.106	-0.340
-392.092	-90.942	0.317	-0.091
-391.077	800.000	-0.070	-0.216
-390.063	21.518	-0.396	0.320
-389.048	-110.965	-0.078	0.016
-388.033	73.691	-0.153	-0.160
-387.019	-105.003	0.359	-0.082
-386.004	-200.000	0.022	-0.141
-384.990	-133.227	0.265	-0.033
-383.975	169.629	0.072	-0.102
-382.960	-134.270	0.162	0.020
-381.946	366.629	-0.033	-0.066
-380.931	269.399	-0.121	-0.212
-379.917	-54.252	0.079	0.036
-378.902	397.062	-0.184	-0.382
-377.888	-133.390	0.432	0.054
-376.873	-101.138	-0.131	-0.032
-375.858	0.417	0.479	0.341
-374.844	-165.116	-0.262	0.012
-373.829	-64.624	-0.348	0.140
-372.815	-47.928	-0.215	0.104
-371.800	-142.072	0.287	-0.028
-370.785	-72.249	0.037	0.014
-369.771	379.802	0.084	-0.170
-368.756	7.917	-0.126	0.094
-367.742	708.831	-0.106	-0.278
-366.727	-78.828	-0.249	-0.084
-365.712	23.478	-0.383	-0.314
-364.698	398.792	0.022	-0.045
-363.683	800.000	0.151	-0.464
-362.669	-128.580	0.274	0.039
-361.654	-200.000	0.023	-0.109
-360.639	535.590	-0.041	-0.096
-359.625	-86.223	-0.205	0.063
-358.610	295.962	0.138	-0.251
-357.596	47.593	-0.093	0.086
-356.581	85.979	0.267	0.292
-355.566	226.207	0.117	0.189
-354.552	25.750	0.174	-0.144
-353.537	65.091	-0.182	0.183
-352.523	-200.000	-0.009	0.153
-351.508	-152.153	-0.086	-0.006
-350.493	800.000	0.010	-0.035
-349.479	437.601	-0.070	0.152
-348.464	-142.011	-0.363	0.036
-347.450	11.334	-0.143	0.109
-346.435	214.697	-0.084	-0.133
-345.420	313.657	-0.096	0.180
-344.406	800.000	-0.092	0.268
-343.391	72.983	0.242	-0.252
-342.377	48.143	0.055	-0.051
-341.362	-39.926	0.099	0.051
-340.348	-200.000	-0.024	0.358
-339.333	-78.040	0.099	-0.034
-338.318	-28.532	-0.190	-0.109
-337.304	800.000	-0.080	0.220
-336.289	-139.646	-0.400	0.042
-335.275	-165.456	0.086	0.004
-334.260	87.062	-0.069	0.076
-333.245	-200.000	0.022	0.122
-332.231	19.773	-0.177	-0.142
-331.216	32.937	-0.120	-0.104
-330.202	159.674	-0.083	0.115
-329.187	-200.000	0.019	0.237
-328.172	-200.000	-0.029	0.147
-327.158	103.817	-0.098	0.114
-326.143	635.239	-0.025	0.062
-325.129	144.791	0.203	-0.270
-324.114	328.617	0.168	-0.321
-323.099	437.504	-0.028	-0.060
-322.085	-200.000	-0.017	-0.149
-321.070	-200.000	-0.073	-0.321
-320.056	151.472	0.053	0.071
-319.041	38.083	0.252	-0.223
-318.026	278.531	-0.153	-0.271
-317.012	-200.000	0.019	-0.134
-315.997	34.613	0.082	-0.071
-314.983	-200.000	-0.061	0.305
-313.968	-150.140	0.201	-0.015
-312.953	-135.856	-0.198	-0.023
-311.939	417.314	-0.058	0.123
-310.924	-3.147	0.523	-0.362
-309.910	6.965	-0.353	-0.261
-308.895	-5.231	-0.140	0.096
-307.880	-200.000	-0.030	-0.355
-306.866	1.858	0.388	0.278
-305.851	-200.000	0.005	0.183
-304.837	-200.000	-0.044	-0.227
-303.822	-200.000	-0.008	0.094
-302.807	-36.555	-0.028	0.015
-301.793	800.000	0.045	-0.140
-300.778	800.000	0.071	-0.235
-299.764	-200.000	-0.041	0.260
-298.749	-39.984	-0.164	0.085
-297.735	-200.000	-0.011	-0.074
-296.720	323.166	0.049	-0.093
-295.705	143.781	0.103	0.136
-294.691	116.685	0.209	0.255
-293.676	-55.779	0.221	-0.098
-292.662	193.944	0.035	0.052
-291.647	-200.000	-0.005	0.050
-290.632	-200.000	0.042	0.234
-289.618	359.281	0.145	0.287
-288.603	-200.000	0.014	-0.095
-287.589	-200.000	-0.052	0.553
-286.574	343.099	0.083	0.160
-285.559	-59.186	0.097	0.041
-284.545	-121.814	-0.318	-0.052
-283.530	-50.149	0.189	-0.089
-282.516	-200.000	-0.009	-0.080
-281.501	-6.697	0.044	-0.030
-280.486	-52.261	0.070	-0.032
-279.472	800.000	-0.151	0.504
-278.457	67.855	-0.139	0.140
-277.443	-61.612	-0.153	-0.064
-276.428	524.422	0.025	-0.059
-275.413	766.331	-0.100	-0.270
-274.399	55.179	0.217	0.208
-273.384	-130.356	0.086	-0.012
-272.370	7.885	-0.194	-0.144
-271.355	-11.439	0.222	-0.145
-270.340	22.982	-0.205	-0.167
-269.326	800.000	-0.039	0.113
-268.311	139.814	-0.247	0.322
-267.297	43.825	0.198	-0.179
-266.282	-200.000	0.038	0.192
-265.267	-71.248	0.300	-0.112
-264.253	-38.774	-0.144	-0.075
-263.238	-80.934	-0.251	-0.083
-262.224	-29.690	-0.150	-0.085
-261.209	-34.131	-0.214	-0.116
-260.195	311.827	-0.087	-0.163
-259.180	248.680	0.093	-0.155
-258.165	-200.000	0.015	-0.380
-257.151	10.397	0.336	0.254
-256.136	95.939	-0.116	-0.131
-255.122	-106.694	0.128	0.028
-254.107	800.000	-0.065	0.215
-253.092	-37.857	-0.080	0.042
-252.078	297.971	-0.120	0.218
-251.063	-200.000	-0.005	0.046
-250.049	28.835	0.246	-0.207
-249.034	424.806	0.193	0.411
-248.019	-126.728	0.427	-0.063
-247.005	-93.004	0.014	-0.004
-245.990	-200.000	0.033	-0.234
-244.976	-22.142	0.099	0.060
-243.961	800.000	0.055	0.170
-242.946	-185.400	-0.158	-0.002
-241.932	-79.055	0.154	-0.052
-240.917	-117.014	0.211	0.038
-239.903	800.000	-0.099	-0.287
-238.888	-112.391	-0.055	0.011
-237.873	179.937	-0.159	-0.231
-236.859	201.151	-0.136	-0.207
-235.844	-200.000	0.031	-0.351
-234.830	-67.375	-0.319	-0.124
-233.815	-200.000	-0.003	0.122
-232.800	178.769	0.046	-0.066
-231.786	-11.536	-0.262	0.170
-230.771	-200.000	0.072	0.473
-229.757	800.000	-0.024	0.067
-228.742	75.681	-0.161	-0.168
-227.727	800.000	-0.050	0.199
-226.713	-125.134	-0.403	-0.061
-225.698	-133.388	-0.033	0.004
-224.684	-58.649	0.054	-0.023
-223.669	-132.620	-0.085	-0.011
-222.655	800.000	-0.068	-0.199
-221.640	4.790	-0.199	-0.144
-220.625	23.610	0.063	0.051
-219.611	-7.449	-0.195	0.130
-218.596	59.577	0.171	0.167
-217.582	-39.666	0.225	-0.116
-216.567	-200.000	-0.022	0.124
-215.552	-172.168	0.205	0.007
-214.538	-136.288	-0.166	-0.019
-213.523	141.811	0.144	-0.189
-212.509	14.348	-0.384	-0.296
-211.494	2.853	-0.064	-0.046
-210.479	-166.652	-0.134	-0.006
-209.465	-95.134	0.141	-0.038
-208.450	372.035	0.070	0.141
-207.436	800.000	-0.080	0.268
-206.421	1.122	-0.125	0.089
-205.406	-200.000	-0.017	0.234
-204.392	-14.872	-0.147	0.094
-203.377	-200.000	0.235	0.000
-202.363	13.435	0.041	-0.031
-201.348	-200.000	0.049	0.367
-200.333	-85.071	0.059	0.018
-199.319	-91.791	0.200	0.056
-198.304	-84.048	-0.227	-0.071
-197.290	641.175	0.058	-0.145
-196.275	-2.370	0.300	0.208
-195.260	-200.000	-0.004	0.128
-194.246	145.793	0.108	-0.143
-193.231	-81.698	0.212	-0.069
-192.217	800.000	0.169	0.462
-191.202	-72.677	-0.174	0.063
-190.187	100.240	-0.106	0.122
-189.173	-72.953	0.202	0.073
-188.158	-47.927	-0.252	0.121
-187.144	-200.000	0.057	-0.290
-186.129	-30.242	-0.159	-0.089
-185.114	-200.000	-0.021	0.107
-184.100	800.000	0.065	0.189
-183.085	-169.342	-0.020	0.001
-182.071	-149.705	-0.145	0.011
-181.056	248.383	0.127	-0.211
-180.042	800.000	0.051	-0.165
-179.027	163.609	0.174	0.242
-178.012	239.259	-0.034	-0.057
-176.998	-22.501	0.174	0.104
-175.983	-117.854	-0.183	0.032
-174.969	800.000	-0.103	-0.289
-173.954	-70.930	-0.181	-0.067
-172.939	800.000	-0.051	-0.208
-171.925	4.318	0.105	0.076
-170.910	-88.392	0.222	0.065
-169.896	81.244	-0.260	0.278
-168.881	720.056	0.008	-0.021
-167.866	-13.212	-0.154	0.099
-166.852	5.311	0.235	-0.171
-165.837	57.690	0.119	-0.115
-164.823	800.000	-0.062	-0.238
-163.808	-140.612	-0.188	0.019
-162.793	-162.275	-0.115	0.006
-161.779	220.149	0.090	-0.143
-160.764	-200.000	-0.020	0.264
-159.750	-200.000	0.048	0.396
-158.735	-130.538	-0.199	0.027
-157.720	-6.415	0.020	0.013
-156.706	-185.776	-0.261	-0.004
-155.691	97.911	0.155	0.175
-154.677	-148.461	-0.134	-0.011
-153.662	165.171	-0.095	-0.132
-152.647	-138.799	-0.193	-0.021
-151.633	-163.399	0.117	-0.006
-150.618	-29.121	0.184	0.104
-149.604	-44.161	-0.085	-0.042
-148.589	184.124	0.022	-0.033
-147.574	800.000	0.056	0.213
-146.560	20.540	0.164	0.131
-145.545	85.489	-0.255	-0.276
-144.531	-98.048	0.385	0.098
-143.516	7.911	-0.266	0.196
-142.502	-200.000	0.091	0.420
-141.487	237.341	0.192	0.315
-140.472	-77.224	-0.158	-0.054
-139.458	429.680	0.031	-0.067
-138.443	-108.378	-0.429	0.091
-137.429	800.000	-0.022	0.077
-136.414	109.026	0.279	0.329
-135.399	-200.000	-0.041	0.301
-134.385	-200.000	0.014	-0.077
-133.370	-200.000	0.011	-0.303
-132.356	-86.628	-0.250	-0.076
-131.341	-81.812	-0.298	-0.096
-130.326	-2.117	0.097	-0.067
-129.312	-124.959	0.374	0.057
-128.297	-139.093	-0.191	0.020
-127.283	-200.000	0.004	0.152
-126.268	63.759	-0.288	0.286
-125.253	-98.085	0.074	0.019
-124.239	136.829	-0.123	-0.158
-123.224	538.767	-0.066	-0.154
-122.210	483.140	0.057	0.127
