DTS Sentinel unit serial number:	SN413079Multiplexer serial number:	ORYXHardware model number:	OX4-SRSoftware version number:	ORYX F/W v4.00 Oryx Data Collector v3.7.2.0data status	okinstallation	princeton_trtdifferential loss correction	single-endedforward channel	channel 1reverse channel	N/Adate	2019/09/12time	00:36:11forward acquisition time	60.00reverse acquisition time	0.00gamma	496.2192k internal	0.2319k external	0.2319temperature offset calibration	1.0074default loss term (dB/km)	0.3790temperature slope calibration	1.0000multiplexer offset coefficient	1.0000multiplexer slope coefficient	1.0000fibre end	0.00T internal ref (°C)	33.37T ext. ref 1 (°C)	2.07T ext. ref 2 (°C)	28.02length (m)	temperature (°C)	Stokes	anti-Stokes-747.200	-200.000	-0.080	0.450
-746.185	-96.354	0.405	-0.109
-745.171	734.625	0.058	0.156
-744.156	61.302	-0.215	0.217
-743.142	-81.547	0.146	-0.049
-742.127	800.000	0.010	-0.046
-741.112	-122.094	0.136	-0.023
-740.098	-200.000	-0.013	0.220
-739.083	45.005	0.120	0.112
-738.069	-200.000	0.000	0.167
-737.054	25.517	-0.175	0.148
-736.039	13.380	-0.125	0.098
-735.025	44.049	-0.408	0.378
-734.010	-165.910	-0.308	0.013
-732.996	-77.822	-0.209	-0.073
-731.981	255.949	-0.158	-0.275
-730.966	-23.846	0.116	0.070
-729.952	-107.601	-0.112	-0.025
-728.937	-86.303	-0.182	-0.057
-727.923	-135.264	0.097	-0.012
-726.908	-8.360	-0.131	0.089
-725.894	393.582	0.056	-0.117
-724.879	118.440	-0.075	0.094
-723.864	287.196	0.073	-0.133
-722.850	-200.000	-0.098	-0.455
-721.835	-125.921	-0.261	0.040
-720.821	782.849	0.212	0.587
-719.806	-51.206	-0.347	0.164
-718.791	-99.836	0.218	-0.055
-717.777	-96.394	-0.313	-0.084
-716.762	159.826	-0.090	-0.127
-715.748	93.202	-0.066	0.076
-714.733	273.191	-0.085	-0.153
-713.718	-200.000	0.004	-0.183
-712.704	-28.904	-0.148	-0.086
-711.689	259.316	0.028	-0.049
-710.675	-118.525	0.326	-0.058
-709.660	330.689	-0.109	-0.212
-708.645	-62.551	-0.111	0.046
-707.631	143.576	0.207	-0.279
-706.616	800.000	-0.037	-0.159
-705.602	-200.000	-0.002	-0.026
-704.587	-59.368	0.164	0.071
-703.572	-100.534	-0.183	-0.046
-702.558	-200.000	0.004	0.367
-701.543	-3.731	0.037	0.026
-700.529	-151.896	-0.226	-0.017
-699.514	-101.664	0.239	0.058
-698.499	800.000	0.084	0.284
-697.485	0.653	-0.169	-0.122
-696.470	-92.711	-0.111	-0.031
-695.456	-181.413	0.345	0.007
-694.441	800.000	-0.071	0.275
-693.426	-174.666	-0.259	0.007
-692.412	-200.000	-0.008	-0.180
-691.397	-100.835	0.321	-0.080
-690.383	-161.529	-0.248	-0.013
-689.368	-77.398	0.364	-0.128
-688.354	-200.000	-0.014	-0.126
-687.339	-200.000	0.016	0.083
-686.324	244.262	0.137	0.232
-685.310	576.457	-0.143	0.352
-684.295	37.357	-0.097	-0.087
-683.281	32.090	0.218	-0.190
-682.266	482.056	-0.074	-0.169
-681.251	800.000	0.075	-0.216
-680.237	-19.429	-0.177	-0.111
-679.222	-55.258	-0.335	0.152
-678.208	-116.787	-0.684	-0.127
-677.193	331.150	0.067	-0.130
-676.178	121.472	-0.218	-0.274
-675.164	11.585	-0.248	-0.192
-674.149	228.230	-0.108	0.178
-673.135	39.466	-0.139	-0.126
-672.120	16.334	-0.158	0.126
-671.105	18.580	-0.310	-0.250
-670.091	7.903	-0.256	-0.194
-669.076	-200.000	0.104	-0.499
-668.062	-124.179	-0.104	0.016
-667.047	800.000	-0.037	-0.113
-666.032	-36.537	-0.245	-0.133
-665.018	35.374	-0.380	0.337
-664.003	-87.185	-0.358	0.110
-662.989	800.000	-0.057	-0.165
-661.974	-57.981	0.174	-0.077
-660.959	-200.000	0.030	0.236
-659.945	-116.032	-0.034	-0.006
-658.930	86.916	0.069	-0.077
-657.916	306.079	0.134	0.252
-656.901	-24.051	0.139	-0.084
-655.886	54.266	0.053	-0.052
-654.872	-74.870	-0.059	0.021
-653.857	287.765	0.048	-0.088
-652.843	-54.275	0.398	0.182
-651.828	-83.320	0.127	-0.041
-650.814	685.053	-0.148	0.390
-649.799	10.674	-0.141	-0.108
-648.784	306.824	0.114	-0.215
-647.770	-147.550	-0.079	0.007
-646.755	800.000	-0.058	0.242
-645.741	81.513	-0.306	0.334
-644.726	-200.000	0.015	0.594
-643.711	183.528	-0.032	-0.047
-642.697	-85.431	-0.264	0.083
-641.682	-200.000	-0.070	0.480
-640.668	-200.000	0.006	0.035
-639.653	-200.000	0.016	0.114
-638.638	-132.079	0.236	-0.031
-637.624	162.927	-0.157	-0.222
-636.609	-200.000	-0.004	0.110
-635.595	120.623	-0.114	-0.143
-634.580	-200.000	0.014	-0.200
-633.565	-173.663	0.203	0.006
-632.551	-200.000	-0.043	-0.213
-631.536	-200.000	-0.017	-0.148
-630.522	-120.892	0.273	0.046
-629.507	-113.294	-0.293	-0.058
-628.492	48.033	0.060	0.057
-627.478	-200.000	-0.033	0.166
-626.463	482.085	0.115	0.264
-625.449	-200.000	-0.461	0.001
-624.434	153.474	-0.156	-0.215
-623.419	615.286	-0.144	-0.363
-622.405	47.207	-0.202	0.189
-621.390	108.425	0.107	-0.129
-620.376	383.239	0.144	0.298
-619.361	-200.000	0.061	0.365
-618.346	-11.587	-0.201	-0.133
-617.332	310.803	0.169	-0.319
-616.317	592.440	0.251	-0.623
-615.303	109.205	0.041	-0.049
-614.288	48.133	-0.129	-0.122
-613.273	-12.984	-0.236	0.155
-612.259	111.471	0.187	-0.227
-611.244	-162.767	0.307	-0.015
-610.230	247.196	-0.192	-0.326
-609.215	-200.000	-0.009	0.376
-608.201	175.855	-0.156	-0.227
-607.186	-42.486	0.201	0.103
-606.171	-90.504	-0.269	-0.078
-605.157	800.000	-0.123	-0.360
-604.142	-83.914	0.192	-0.062
-603.128	25.822	-0.099	0.083
-602.113	339.734	-0.056	-0.109
-601.098	-200.000	0.057	0.286
-600.084	-67.302	-0.359	0.142
-599.069	800.000	-0.090	0.342
-598.055	800.000	-0.014	-0.049
-597.040	-200.000	0.037	0.213
-596.025	243.060	-0.128	-0.215
-595.011	-200.000	0.005	-0.180
-593.996	-120.056	-0.086	-0.015
-592.982	800.000	0.078	0.302
-591.967	59.906	-0.113	-0.112
-590.952	-52.849	-0.075	0.035
-589.938	-200.000	0.012	-0.056
-588.923	-135.480	0.193	-0.023
-587.909	17.195	-0.082	-0.066
-586.894	-200.000	-0.087	0.448
-585.879	131.288	-0.201	0.260
-584.865	47.530	-0.230	-0.216
-583.850	-200.000	-0.016	0.350
-582.836	-96.325	0.247	0.066
-581.821	-133.072	0.330	-0.042
-580.806	-0.672	0.160	-0.114
-579.792	-19.716	-0.216	-0.134
-578.777	800.000	0.111	0.381
-577.763	-44.775	-0.353	0.177
-576.748	127.173	0.175	-0.223
-575.733	-62.019	-0.286	0.120
-574.719	-19.129	-0.387	-0.242
-573.704	-0.251	-0.287	-0.205
-572.690	-200.000	0.032	-0.197
-571.675	174.062	0.075	0.108
-570.661	43.123	-0.243	-0.223
-569.646	206.930	0.078	-0.122
-568.631	297.156	-0.145	-0.268
-567.617	141.371	0.347	-0.462
-566.602	-200.000	-0.023	0.110
-565.588	-33.445	-0.443	0.246
-564.573	-130.491	-0.449	0.061
-563.558	128.961	0.132	0.169
-562.544	800.000	0.085	-0.244
-561.529	800.000	0.084	-0.271
-560.515	377.071	0.133	0.273
-559.500	-72.241	0.191	0.071
-558.485	4.342	0.086	0.063
-557.471	-179.289	0.207	-0.005
-556.456	180.253	-0.097	0.143
-555.442	90.831	-0.046	0.052
-554.427	305.837	0.135	0.252
-553.412	-155.323	-0.084	0.005
-552.398	44.420	-0.108	0.099
-551.383	402.869	0.048	0.102
-550.369	25.977	-0.111	0.093
-549.354	15.531	-0.075	-0.059
-548.339	-33.149	-0.449	-0.250
-547.325	762.211	0.150	-0.410
-546.310	800.000	-0.063	-0.180
-545.296	34.779	-0.228	-0.200
-544.281	211.711	0.106	-0.168
-543.266	-165.224	0.134	-0.006
-542.252	-79.134	-0.084	-0.028
-541.237	-79.471	-0.307	0.104
-540.223	152.750	0.072	-0.099
-539.208	-200.000	-0.001	0.061
-538.193	800.000	0.045	0.155
-537.179	-94.483	0.212	-0.058
-536.164	800.000	0.084	-0.258
-535.150	-200.000	-0.023	0.204
-534.135	-18.849	0.061	-0.038
-533.121	-200.000	-0.039	-0.180
-532.106	144.689	-0.170	0.228
-531.091	-200.000	-0.041	0.297
-530.077	64.462	-0.144	0.146
-529.062	-200.000	-0.022	0.302
-528.048	207.804	-0.074	0.116
-527.033	-200.000	0.111	0.744
-526.018	260.728	-0.103	0.179
-525.004	11.260	-0.122	-0.094
-523.989	-200.000	0.064	-0.451
-522.975	800.000	-0.016	0.062
-521.960	-200.000	-0.006	-0.223
-520.945	-200.000	0.004	-0.034
-519.931	-12.226	-0.133	0.087
-518.916	-200.000	-0.062	-0.469
-517.902	55.239	-0.249	-0.241
-516.887	-81.526	-0.099	-0.033
-515.872	391.822	-0.164	0.342
-514.858	-14.518	-0.163	0.105
-513.843	21.678	0.257	0.210
-512.829	-146.647	-0.065	-0.006
-511.814	57.599	0.156	0.153
-510.799	-2.984	-0.013	0.009
-509.785	107.731	-0.185	-0.221
-508.770	171.294	-0.178	-0.256
-507.756	-141.981	0.214	-0.021
-506.741	215.309	0.134	0.212
-505.726	207.856	0.171	-0.267
-504.712	800.000	-0.043	-0.149
-503.697	-131.832	-0.241	-0.032
-502.683	-104.776	0.321	0.074
-501.668	-55.949	-0.362	0.162
-500.653	-191.718	0.404	0.004
-499.639	622.657	0.072	-0.182
-498.624	-144.878	0.052	0.005
-497.610	161.091	-0.128	-0.179
-496.595	383.417	0.188	-0.387
-495.581	20.297	0.068	-0.055
-494.566	-193.885	-0.301	0.003
-493.551	-200.000	-0.035	-0.218
-492.537	301.553	0.116	-0.215
-491.522	-142.125	0.353	-0.035
-490.508	0.890	-0.172	0.123
-489.493	11.846	-0.139	0.107
-488.478	-60.078	0.288	0.123
-487.464	-200.000	-0.023	-0.147
-486.449	-143.322	-0.232	-0.022
-485.435	-200.000	0.077	-0.342
-484.420	182.339	-0.089	0.131
-483.405	-33.386	-0.209	0.116
-482.391	490.703	0.071	0.163
-481.376	-173.336	-0.109	0.003
-480.362	-2.546	-0.177	-0.124
-479.347	-115.391	0.238	0.045
-478.332	-59.336	-0.130	-0.056
-477.318	-160.200	0.136	-0.007
-476.303	-119.268	-0.111	0.019
-475.289	-141.315	0.103	-0.011
-474.274	24.345	-0.120	0.099
-473.259	800.000	0.042	0.170
-472.245	800.000	-0.072	-0.292
-471.230	-200.000	0.068	-0.369
-470.216	165.868	-0.124	0.175
-469.201	800.000	0.083	-0.283
-468.186	-8.337	0.241	-0.162
-467.172	-162.748	0.422	0.021
-466.157	-3.343	-0.119	-0.083
-465.143	220.925	0.162	0.260
-464.128	800.000	0.067	0.224
-463.113	-200.000	0.010	0.100
-462.099	3.214	0.196	0.143
-461.084	-35.253	0.430	-0.234
-460.070	163.217	-0.142	0.199
-459.055	18.200	-0.154	-0.123
-458.040	631.981	-0.049	0.125
-457.026	-200.000	0.034	-0.171
-456.011	-62.475	0.144	-0.060
-454.997	99.477	-0.166	0.192
-453.982	-200.000	0.004	-0.065
-452.968	-77.682	0.381	0.132
-451.953	-108.116	-0.376	0.081
-450.938	30.708	-0.075	0.064
-449.924	184.866	-0.094	0.140
-448.909	794.689	-0.145	-0.398
-447.895	-118.348	-0.214	0.038
-446.880	-85.070	0.240	0.075
-445.865	-200.000	-0.041	0.193
-444.851	-200.000	-0.023	-0.229
-443.836	-65.418	0.355	-0.143
-442.822	116.038	-0.164	0.201
-441.807	121.557	-0.036	0.045
-440.792	410.447	0.086	0.183
-439.778	-200.000	-0.023	-0.336
-438.763	68.840	0.139	0.143
-437.749	418.159	-0.021	-0.046
-436.734	-200.000	0.016	-0.141
-435.719	800.000	0.007	-0.023
-434.705	22.574	0.260	0.213
-433.690	583.871	0.239	0.585
-432.676	15.548	-0.287	-0.225
-431.661	11.651	-0.206	-0.158
-430.646	73.697	-0.129	-0.135
-429.632	-134.246	-0.297	-0.037
-428.617	308.778	0.083	-0.156
-427.603	66.814	-0.068	0.069
-426.588	-60.677	0.092	0.039
-425.573	20.331	-0.270	-0.218
-424.559	76.098	0.282	0.298
-423.544	-172.102	-0.170	0.005
-422.530	123.478	0.081	-0.101
-421.515	-141.636	0.179	0.018
-420.500	10.227	-0.103	-0.078
-419.486	327.421	-0.101	-0.193
-418.471	320.571	-0.170	-0.323
-417.457	391.585	-0.160	-0.333
-416.442	302.983	0.168	0.311
-415.428	-179.854	-0.118	-0.003
-414.413	-47.770	-0.331	-0.160
-413.398	-200.000	0.079	-0.569
-412.384	511.723	-0.075	-0.175
-411.369	98.182	0.102	-0.117
-410.355	-200.000	-0.011	-0.065
-409.340	-200.000	0.011	0.075
-408.325	-200.000	0.010	-0.172
-407.311	-42.786	-0.107	0.054
-406.296	-98.133	-0.073	0.019
-405.282	183.920	-0.093	0.137
-404.267	-20.402	-0.325	-0.200
-403.252	-18.830	-0.223	-0.139
-402.238	-63.509	-0.367	0.150
-401.223	-73.986	-0.144	-0.052
-400.209	-78.273	0.117	0.040
-399.194	-32.876	-0.139	-0.077
-398.179	75.794	-0.230	-0.243
-397.165	207.976	-0.120	0.187
-396.150	156.099	0.135	-0.186
-395.136	50.737	0.080	-0.076
-394.121	23.751	-0.218	-0.180
-393.106	187.377	-0.107	-0.159
-392.092	-48.686	-0.234	-0.112
-391.077	-72.466	0.258	0.095
-390.063	220.882	0.088	-0.141
-389.048	0.831	-0.077	-0.055
-388.033	151.229	0.175	0.237
-387.019	-160.917	-0.184	0.010
-386.004	-168.484	-0.094	0.004
-384.990	-200.000	0.022	0.136
-383.975	-200.000	0.021	-0.120
-382.960	-200.000	-0.039	-0.197
-381.946	286.509	0.155	-0.279
-380.931	-24.357	-0.059	-0.035
-379.917	-200.000	-0.010	-0.222
-378.902	-200.000	0.052	-0.530
-377.888	-41.732	-0.130	0.066
-376.873	8.046	0.249	-0.187
-375.858	800.000	0.084	0.278
-374.844	284.823	0.130	0.234
-373.829	94.207	0.193	-0.218
-372.815	26.445	0.093	-0.077
-371.800	-18.917	0.085	-0.053
-370.785	-126.114	0.284	-0.042
-369.771	-96.199	0.293	0.078
-368.756	114.771	-0.029	0.035
-367.742	800.000	0.028	0.105
-366.727	17.219	0.304	0.240
-365.712	-200.000	-0.019	-0.178
-364.698	-7.367	-0.237	0.160
-363.683	-169.483	-0.203	-0.007
-362.669	219.029	0.068	0.108
-361.654	-58.146	-0.191	-0.083
-360.639	13.327	-0.116	-0.090
-359.625	-200.000	-0.017	0.344
-358.610	-63.058	-0.167	-0.069
-357.596	714.608	0.129	0.342
-356.581	-191.722	-0.256	0.003
-355.566	55.425	0.273	-0.263
-354.552	39.741	-0.296	-0.264
-353.537	-200.000	-0.013	0.131
-352.523	99.308	0.362	0.417
-351.508	54.918	0.226	0.218
-350.493	28.733	-0.177	-0.149
-349.479	77.644	-0.144	-0.153
-348.464	-124.707	0.151	0.023
-347.450	800.000	0.150	0.442
-346.435	-4.535	-0.408	-0.281
-345.420	800.000	-0.071	0.206
-344.406	-34.431	0.331	0.181
-343.391	62.235	-0.057	0.057
-342.377	-82.889	-0.344	-0.110
-341.362	333.271	0.080	0.155
-340.348	150.755	0.151	0.205
-339.333	363.311	-0.175	0.349
-338.318	183.468	0.138	0.203
-337.304	41.109	0.260	-0.233
-336.289	-49.968	-0.190	-0.090
-335.275	-125.492	0.148	-0.022
-334.260	172.065	-0.178	-0.255
-333.245	4.137	0.080	-0.058
-332.231	706.476	0.144	0.378
-331.216	687.445	-0.063	-0.165
-330.202	800.000	-0.045	0.157
-329.187	-171.891	0.063	-0.002
-328.172	77.306	0.069	0.073
-327.158	-87.934	0.076	-0.023
-326.143	-88.790	0.052	0.015
-325.129	-76.683	-0.147	0.051
-324.114	-142.417	0.329	-0.032
-323.099	-200.000	-0.116	0.701
-322.085	-122.553	0.407	0.066
-321.070	189.325	0.282	0.420
-320.056	-67.523	-0.238	0.093
-319.041	360.258	0.198	-0.395
-318.026	-6.952	-0.148	-0.100
-317.012	22.489	0.067	-0.055
-315.997	161.262	-0.126	-0.175
-314.983	723.341	-0.159	-0.422
-313.968	-57.982	-0.065	0.028
-312.953	602.195	0.189	0.466
-311.939	43.618	0.224	-0.204
-310.924	-112.318	0.161	0.032
-309.910	547.556	-0.074	-0.176
-308.895	-200.000	-0.002	0.026
-307.880	42.378	-0.199	0.180
-306.866	-43.228	0.131	-0.066
-305.851	-200.000	-0.000	0.187
-304.837	800.000	0.014	-0.058
-303.822	193.845	0.084	0.126
-302.807	-38.230	0.176	0.093
-301.793	278.795	-0.174	0.308
-300.778	9.179	0.134	0.101
-299.764	-117.622	-0.161	0.029
-298.749	-11.993	0.216	0.140
-297.735	-11.134	0.422	-0.277
-296.720	100.175	-0.078	-0.090
-295.705	-7.182	0.153	-0.103
-294.691	-34.220	-0.162	0.088
-293.676	-60.258	0.183	-0.077
-292.662	-200.000	-0.049	0.317
-291.647	-172.327	-0.360	0.011
-290.632	800.000	0.040	-0.118
-289.618	-52.068	0.061	-0.028
-288.603	-72.961	-0.238	0.087
-287.589	243.400	0.031	0.052
-286.574	-34.334	0.112	0.061
-285.559	63.858	0.098	0.098
-284.545	758.529	0.120	-0.323
-283.530	22.740	0.021	-0.017
-282.516	268.207	0.153	-0.266
-281.501	-22.026	-0.073	-0.044
-280.486	-98.681	0.199	0.051
-279.472	-21.534	0.177	0.107
-278.457	152.566	-0.122	0.166
-277.443	800.000	0.116	-0.399
-276.428	70.295	0.174	0.179
-275.413	-92.353	-0.090	-0.025
-274.399	-78.331	0.128	0.044
-273.384	-131.821	0.187	-0.024
-272.370	-56.910	-0.223	-0.098
-271.355	333.639	0.153	0.295
-270.340	-200.000	-0.075	0.339
-269.326	231.518	-0.034	-0.055
-268.311	-119.616	0.165	0.028
-267.297	145.849	-0.085	0.113
-266.282	600.059	0.026	0.064
-265.267	-66.487	-0.032	-0.013
-264.253	134.125	0.221	-0.284
-263.238	736.620	0.063	-0.169
-262.224	-88.227	-0.219	-0.065
-261.209	-200.000	0.006	-0.027
-260.195	161.568	-0.029	-0.040
-259.180	-200.000	-0.037	-0.384
-258.165	37.732	0.104	-0.091
-257.151	235.829	0.065	0.107
-256.136	-116.767	-0.134	-0.024
-255.122	-200.000	0.003	0.136
-254.107	-125.584	-0.034	-0.005
-253.092	63.667	-0.050	0.050
-252.078	-200.000	-0.006	0.215
-251.063	135.526	0.133	-0.172
-250.049	-178.147	-0.179	0.004
-249.034	189.841	-0.148	0.220
-248.019	-200.000	0.003	-0.053
-247.005	-75.928	0.219	-0.077
-245.990	601.132	-0.043	0.106
-244.976	-200.000	0.005	0.166
-243.961	-158.178	-0.464	0.027
-242.946	-58.262	-0.075	0.033
-241.932	-76.895	-0.149	-0.052
-240.917	38.075	0.084	0.075
-239.903	-118.446	0.240	-0.042
-238.888	-110.072	0.293	0.061
-237.873	-158.397	-0.284	0.016
-236.859	-200.000	-0.055	0.383
-235.844	-75.641	-0.245	0.086
-234.830	-78.992	0.137	0.046
-233.815	800.000	0.018	-0.052
-232.800	800.000	0.110	-0.352
-231.786	92.243	0.140	-0.156
-230.771	-100.781	-0.199	0.049
-229.757	800.000	-0.040	0.121
-228.742	-164.553	0.218	-0.010
-227.727	165.819	-0.171	0.240
-226.713	-200.000	-0.083	0.454
-225.698	108.751	0.049	-0.058
-224.684	800.000	-0.089	0.280
-223.669	-158.225	0.142	0.008
-222.655	800.000	0.088	0.262
-221.640	-2.603	0.256	-0.177
-220.625	-101.984	0.704	0.168
-219.611	-134.276	-0.219	-0.027
-218.596	-101.524	0.227	-0.055
-217.582	-200.000	-0.008	0.317
-216.567	-163.106	-0.199	-0.010
-215.552	-8.474	0.039	-0.026
-214.538	83.028	0.080	0.086
-213.523	-200.000	-0.011	0.235
-212.509	-131.381	-0.234	0.031
-211.494	-95.081	-0.183	0.049
-210.479	-43.236	-0.041	0.021
-209.465	61.458	-0.135	0.133
-208.450	-200.000	0.031	-0.230
-207.436	-39.212	0.106	-0.055
-206.421	-98.990	0.149	0.037
-205.406	-35.692	0.129	0.069
-204.392	-56.978	0.100	0.044
-203.377	72.241	-0.122	-0.126
-202.363	-4.727	-0.159	0.109
-201.348	-88.883	-0.122	-0.036
-200.333	161.257	0.078	-0.107
-199.319	-115.735	0.451	0.084
-198.304	-112.336	-0.108	0.021
-197.290	109.326	0.289	0.343
-196.275	-123.201	-0.113	-0.018
-195.260	-200.000	0.029	-0.317
-194.246	41.752	-0.048	0.043
-193.231	356.806	0.118	-0.232
-192.217	254.380	0.178	-0.302
-191.202	621.351	-0.038	0.095
-190.187	-34.085	0.118	0.064
-189.173	-200.000	-0.054	-0.328
-188.158	-101.470	0.036	-0.009
-187.144	10.693	0.116	0.088
-186.129	103.301	0.243	-0.282
-185.114	-148.245	0.040	-0.003
-184.100	56.623	0.060	0.058
-183.085	-42.982	0.140	-0.070
-182.071	444.506	0.177	0.385
-181.056	-200.000	-0.037	-0.203
-180.042	-3.706	-0.135	-0.092
-179.027	-200.000	0.010	0.398
-178.012	258.745	0.090	-0.153
-176.998	108.640	-0.227	-0.268
-175.983	82.927	0.199	-0.215
-174.969	-30.637	0.101	-0.057
-173.954	800.000	0.126	0.410
-172.939	163.975	-0.108	0.150
-171.925	-200.000	-0.031	0.368
-170.910	1.423	0.051	0.036
-169.896	-200.000	0.031	-0.301
-168.881	-102.161	-0.054	0.013
-167.866	-200.000	0.011	0.197
-166.852	800.000	-0.063	-0.192
-165.837	-200.000	0.050	-0.235
-164.823	-200.000	0.035	-0.197
-163.808	65.891	0.276	-0.277
-162.793	-5.845	0.282	0.191
-161.779	426.348	-0.085	0.182
-160.764	126.868	0.275	-0.344
-159.750	-83.221	0.352	0.112
-158.735	379.391	-0.094	0.190
-157.720	-89.196	-0.116	-0.034
-156.706	-200.000	-0.008	0.234
-155.691	-178.770	0.441	0.010
-154.677	8.481	-0.174	-0.129
-153.662	113.427	-0.174	0.209
-152.647	-200.000	-0.013	-0.106
-151.633	-64.136	0.057	0.023
-150.618	-200.000	0.070	-0.332
-149.604	785.347	0.022	0.059
-148.589	90.963	-0.110	0.122
-147.574	65.169	0.127	0.127
-146.560	-16.169	0.057	-0.036
-145.545	158.841	0.112	-0.154
-144.531	800.000	-0.052	-0.198
-143.516	-74.063	-0.199	0.071
-142.502	-1.471	0.298	-0.207
-141.487	205.816	0.046	0.070
-140.472	-200.000	0.044	0.236
-139.458	-200.000	-0.007	0.061
-138.443	-163.855	-0.145	0.007
-137.429	2.128	-0.173	0.124
-136.414	-125.083	-0.329	-0.050
-135.399	4.857	0.120	0.087
-134.385	-200.000	0.040	0.219
-133.370	-48.951	0.191	-0.090
-132.356	-66.148	0.149	0.059
-131.341	-119.459	-0.046	0.008
-130.326	-200.000	-0.011	0.240
-129.312	-200.000	0.016	0.081
-128.297	800.000	-0.013	0.049
-127.283	-115.003	-0.145	0.027
-126.268	-166.102	0.109	-0.005
-125.253	-60.653	0.397	-0.166
-124.239	-82.920	0.345	0.110
-123.224	-77.423	-0.192	0.066
-122.210	-147.009	0.314	0.027
-121.195	-200.000	-0.005	-0.056
