DTS Sentinel unit serial number:	SN413079Multiplexer serial number:	ORYXHardware model number:	OX4-SRSoftware version number:	ORYX F/W v4.00 Oryx Data Collector v3.7.2.0data status	okinstallation	princeton_trtdifferential loss correction	single-endedforward channel	channel 1reverse channel	N/Adate	2019/09/13time	03:06:35forward acquisition time	60.00reverse acquisition time	0.00gamma	496.2192k internal	0.2331k external	0.2331temperature offset calibration	1.0162default loss term (dB/km)	0.3790temperature slope calibration	1.0000multiplexer offset coefficient	1.0000multiplexer slope coefficient	1.0000fibre end	0.00T internal ref (°C)	27.39T ext. ref 1 (°C)	4.06T ext. ref 2 (°C)	22.18length (m)	temperature (°C)	Stokes	anti-Stokes-747.200	-81.037	0.512	-0.171
-746.185	171.783	-0.020	-0.029
-745.171	800.000	0.040	-0.127
-744.156	172.825	-0.085	0.124
-743.142	75.193	-0.168	0.178
-742.127	261.529	0.030	0.053
-741.112	28.572	0.110	0.094
-740.098	800.000	-0.057	0.220
-739.083	-142.600	0.141	0.014
-738.069	-200.000	0.006	0.439
-737.054	-200.000	0.005	0.137
-736.039	-200.000	0.041	-0.195
-735.025	335.900	0.045	0.087
-734.010	-126.637	0.270	0.040
-732.996	-28.068	-0.210	-0.122
-731.981	-200.000	-0.073	0.382
-730.966	243.322	0.080	0.135
-729.952	-200.000	-0.030	-0.301
-728.937	800.000	-0.101	-0.379
-727.923	150.665	-0.052	0.071
-726.908	67.313	-0.109	0.112
-725.894	240.981	-0.147	-0.247
-724.879	-13.004	-0.075	-0.049
-723.864	-54.736	-0.154	0.070
-722.850	-200.000	0.030	0.143
-721.835	-9.089	-0.194	0.130
-720.821	141.621	-0.055	-0.073
-719.806	-65.736	-0.368	-0.148
-718.791	0.642	0.231	-0.166
-717.777	6.709	-0.254	-0.190
-716.762	-4.858	-0.113	-0.078
-715.748	58.981	-0.315	0.311
-714.733	800.000	0.048	-0.167
-713.718	-200.000	-0.005	-0.110
-712.704	800.000	-0.037	-0.123
-711.689	-51.922	-0.100	0.047
-710.675	-97.456	-0.379	-0.099
-709.660	-200.000	0.001	-0.066
-708.645	-200.000	-0.006	-0.120
-707.631	351.167	0.035	0.070
-706.616	18.345	-0.150	-0.120
-705.602	156.548	0.096	0.133
-704.587	93.311	-0.041	0.047
-703.572	-8.379	-0.126	0.085
-702.558	66.654	0.065	0.066
-701.543	800.000	-0.023	-0.099
-700.529	121.661	-0.246	0.309
-699.514	17.003	0.059	-0.047
-698.499	-176.858	-0.165	-0.004
-697.485	13.394	0.224	-0.175
-696.470	86.287	-0.162	-0.179
-695.456	8.706	-0.149	-0.113
-694.441	523.623	-0.174	-0.411
-693.426	-20.448	0.200	0.124
-692.412	135.959	-0.196	-0.257
-691.397	800.000	-0.083	-0.263
-690.383	-177.909	-0.005	0.000
-689.368	-101.560	-0.160	-0.039
-688.354	95.167	0.103	0.118
-687.339	-200.000	-0.044	0.211
-686.324	800.000	-0.042	-0.119
-685.310	-45.237	-0.301	-0.150
-684.295	-98.078	-0.203	0.053
-683.281	800.000	-0.039	0.110
-682.266	-71.012	-0.236	-0.089
-681.251	69.958	-0.178	-0.184
-680.237	-23.012	0.075	0.045
-679.222	-102.079	-0.112	-0.027
-678.208	-200.000	-0.008	-0.084
-677.193	-20.247	0.194	-0.120
-676.178	-12.170	0.116	0.076
-675.164	-124.651	-0.310	-0.048
-674.149	-108.842	0.109	-0.023
-673.135	439.110	0.013	-0.029
-672.120	403.121	0.131	-0.276
-671.105	-57.862	0.130	-0.057
-670.091	674.405	-0.103	-0.269
-669.076	61.340	-0.178	-0.178
-668.062	-32.231	0.273	-0.153
-667.047	-10.059	-0.362	-0.241
-666.032	-110.099	-0.140	0.029
-665.018	-73.196	0.266	-0.098
-664.003	-68.470	0.190	0.074
-662.989	-185.018	0.397	0.006
-661.974	69.021	0.244	0.252
-660.959	31.484	-0.251	-0.217
-659.945	-30.660	-0.146	0.083
-658.930	-95.723	0.450	-0.121
-657.916	-200.000	0.039	0.212
-656.901	-200.000	-0.052	0.327
-655.886	-200.000	-0.020	-0.143
-654.872	-200.000	-0.020	-0.185
-653.857	-200.000	0.018	0.175
-652.843	-200.000	-0.082	-0.424
-651.828	489.488	0.147	-0.338
-650.814	-137.133	0.075	0.009
-649.799	12.624	0.199	0.154
-648.784	-175.502	0.316	0.009
-647.770	-200.000	-0.023	-0.175
-646.755	-15.086	-0.428	0.275
-645.741	-200.000	0.011	0.105
-644.726	24.793	0.315	0.261
-643.711	-105.218	-0.148	0.034
-642.697	-200.000	-0.047	0.294
-641.682	-200.000	0.008	0.103
-640.668	-153.722	0.127	0.009
-639.653	-0.949	0.181	-0.128
-638.638	-169.483	-0.438	-0.016
-637.624	-144.554	0.540	0.050
-636.609	800.000	0.057	-0.174
-635.595	-78.809	-0.265	-0.090
-634.580	-88.259	0.204	0.061
-633.565	-200.000	-0.100	0.672
-632.551	-56.578	-0.217	-0.096
-631.536	138.006	-0.046	0.061
-630.522	-185.467	-0.477	0.007
-629.507	472.477	0.100	-0.226
-628.492	211.903	0.165	-0.260
-627.478	129.548	-0.265	0.339
-626.463	-36.413	-0.249	-0.134
-625.449	160.606	0.050	-0.070
-624.434	87.681	0.158	0.175
-623.419	682.425	-0.092	-0.240
-622.405	184.594	-0.271	0.402
-621.390	-36.810	0.432	0.232
-620.376	800.000	0.050	0.172
-619.361	47.945	-0.178	0.166
-618.346	-19.463	0.017	-0.011
-617.332	150.364	0.244	-0.331
-616.317	-90.809	0.087	0.025
-615.303	307.540	0.092	0.172
-614.288	-81.664	0.313	0.103
-613.273	800.000	-0.040	-0.170
-612.259	-125.400	0.221	-0.034
-611.244	-100.645	0.127	0.031
-610.230	-73.994	0.139	-0.051
-609.215	-200.000	-0.011	-0.051
-608.201	121.548	-0.143	0.179
-607.186	-35.475	0.167	0.091
-606.171	-125.896	0.248	-0.037
-605.157	-4.559	-0.173	-0.119
-604.142	800.000	-0.070	0.241
-603.128	61.459	0.043	0.042
-602.113	-51.945	-0.295	0.137
-601.098	139.297	0.051	0.067
-600.084	-64.333	-0.148	-0.060
-599.069	-4.213	0.308	-0.213
-598.055	-106.631	0.150	-0.033
-597.040	800.000	0.149	-0.424
-596.025	-56.076	0.222	-0.099
-595.011	800.000	-0.056	-0.164
-593.996	-136.216	-0.152	-0.018
-592.982	-77.759	-0.244	0.084
-591.967	213.343	-0.024	0.038
-590.952	-99.608	-0.376	-0.094
-589.938	237.357	0.103	-0.171
-588.923	-200.000	0.045	-0.361
-587.909	-148.587	-0.244	-0.020
-586.894	-106.213	0.236	-0.053
-585.879	-200.000	-0.012	-0.097
-584.865	76.329	0.190	-0.202
-583.850	800.000	-0.077	-0.261
-582.836	240.977	-0.151	-0.252
-581.821	-3.150	0.368	-0.256
-580.806	800.000	-0.102	0.293
-579.792	308.673	-0.034	0.063
-578.777	-200.000	-0.020	0.196
-577.763	-200.000	-0.014	-0.117
-576.748	306.105	-0.101	-0.188
-575.733	-7.510	-0.116	0.079
-574.719	14.020	0.023	-0.018
-573.704	-36.670	-0.359	0.193
-572.690	800.000	0.089	-0.387
-571.675	-113.304	0.254	-0.050
-570.661	-200.000	-0.035	0.226
-569.646	800.000	-0.066	-0.192
-568.631	-107.306	0.172	-0.038
-567.617	-25.967	0.076	0.045
-566.602	800.000	-0.036	-0.129
-565.588	77.673	-0.099	-0.105
-564.573	-36.195	-0.375	0.202
-563.558	-200.000	0.044	-0.344
-562.544	761.153	-0.034	0.093
-561.529	71.551	0.040	0.042
-560.515	-158.152	-0.086	0.005
-559.500	-118.968	0.057	-0.010
-558.485	800.000	-0.106	0.341
-557.471	18.411	0.174	-0.139
-556.456	257.962	-0.253	0.434
-555.442	215.870	-0.046	-0.073
-554.427	-53.327	-0.198	0.091
-553.412	-92.435	0.383	0.108
-552.398	96.041	-0.221	0.252
-551.383	-99.244	-0.186	-0.047
-550.369	332.158	-0.074	0.142
-549.354	514.099	0.098	0.228
-548.339	-133.210	-0.103	-0.013
-547.325	18.602	-0.275	-0.219
-546.310	-86.327	0.263	0.081
-545.296	-200.000	0.032	-0.182
-544.281	59.039	-0.182	-0.179
-543.266	474.123	-0.044	-0.099
-542.252	313.568	-0.112	-0.211
-541.237	-51.470	0.114	0.053
-540.223	-47.570	-0.099	0.048
-539.208	-56.852	-0.377	0.166
-538.193	58.285	0.233	0.228
-537.179	-200.000	0.016	0.263
-536.164	-66.226	0.186	-0.074
-535.150	-25.243	0.145	-0.085
-534.135	-23.245	-0.106	0.063
-533.121	12.041	0.093	-0.071
-532.106	473.665	-0.048	-0.109
-531.091	800.000	0.041	0.162
-530.077	171.401	-0.119	-0.171
-529.062	-52.509	-0.134	0.062
-528.048	-150.767	-0.086	0.007
-527.033	-111.327	-0.019	0.004
-526.018	146.716	0.142	-0.191
-525.004	-30.151	-0.322	0.183
-523.989	135.165	0.161	-0.209
-522.975	722.991	0.131	-0.349
-521.960	-104.451	-0.064	-0.015
-520.945	123.012	0.076	-0.095
-519.931	-178.741	0.288	-0.007
-518.916	-24.734	0.229	-0.136
-517.902	-200.000	-0.097	0.000
-516.887	-13.195	-0.177	0.115
-515.872	-55.619	0.166	0.074
-514.858	-200.000	-0.041	0.186
-513.843	-30.254	0.097	-0.055
-512.829	-200.000	-0.124	-0.001
-511.814	-139.748	-0.105	-0.011
-510.799	-200.000	-0.012	-0.055
-509.785	194.887	0.056	0.085
-508.770	-28.329	0.187	-0.107
-507.756	146.302	-0.098	0.132
-506.741	244.352	-0.075	-0.126
-505.726	23.921	0.092	0.076
-504.712	800.000	-0.127	-0.353
-503.697	-59.652	0.272	-0.116
-502.683	649.425	0.078	-0.199
-501.668	143.384	0.120	0.160
-500.653	-200.000	-0.005	-0.155
-499.639	260.077	-0.106	-0.182
-498.624	-200.000	-0.020	-0.098
-497.610	-200.000	-0.004	-0.103
-496.595	-200.000	0.009	0.151
-495.581	35.017	0.085	-0.074
-494.566	370.093	0.080	-0.161
-493.551	-127.890	0.084	-0.012
-492.537	45.038	0.165	-0.151
-491.522	56.024	-0.104	0.100
-490.508	-200.000	0.029	0.205
-489.493	-70.113	0.245	0.093
-488.478	52.481	0.188	0.179
-487.464	-21.902	0.246	0.149
-486.449	-83.252	-0.319	0.102
-485.435	689.056	-0.124	0.323
-484.420	-49.838	-0.185	0.087
-483.405	121.395	-0.151	0.187
-482.391	-200.000	-0.014	0.236
-481.376	-62.899	0.281	0.116
-480.362	800.000	-0.055	0.214
-479.347	259.378	-0.131	-0.225
-478.332	22.296	0.041	0.034
-477.318	-98.301	-0.220	0.056
-476.303	-200.000	0.000	0.057
-475.289	199.641	-0.138	0.210
-474.274	0.917	-0.109	-0.078
-473.259	-200.000	0.030	0.272
-472.245	73.976	0.184	0.192
-471.230	1.369	0.104	0.075
-470.216	634.798	0.010	-0.025
-469.201	-200.000	0.050	0.229
-468.186	-68.070	0.090	0.035
-467.172	-44.979	0.181	0.090
-466.157	162.134	0.051	0.071
-465.143	31.422	-0.184	-0.158
-464.128	11.390	-0.208	-0.159
-463.113	-200.000	0.007	0.222
-462.099	17.350	0.073	-0.058
-461.084	-142.587	0.250	0.024
-460.070	147.516	0.285	-0.382
-459.055	-122.937	0.128	-0.021
-458.040	-101.852	-0.197	-0.048
-457.026	-72.515	-0.080	-0.030
-456.011	174.369	0.303	0.436
-454.997	613.171	0.098	0.244
-453.982	-40.622	-0.214	0.110
-452.968	124.772	-0.042	0.052
-451.953	-92.185	-0.150	-0.042
-450.938	153.309	-0.168	0.229
-449.924	68.387	-0.023	0.023
-448.909	-81.429	-0.253	0.083
-447.895	800.000	-0.145	0.439
-446.880	84.412	-0.158	-0.171
-445.865	-200.000	0.001	-0.373
-444.851	-25.110	-0.109	0.064
-443.836	800.000	0.022	-0.078
-442.822	131.192	-0.161	0.205
-441.807	124.948	0.026	0.033
-440.792	388.954	0.144	0.296
-439.778	6.087	-0.142	-0.105
-438.763	70.467	0.199	0.205
-437.749	-200.000	-0.000	0.137
-436.734	-186.273	0.204	0.003
-435.719	-91.018	0.110	0.031
-434.705	36.041	0.099	-0.086
-433.690	35.910	0.092	-0.081
-432.676	0.626	-0.143	0.102
-431.661	-200.000	0.034	0.155
-430.646	305.173	-0.112	-0.207
-429.632	-200.000	-0.011	0.287
-428.617	800.000	-0.013	-0.051
-427.603	-177.103	-0.150	0.004
-426.588	-1.208	-0.078	-0.055
-425.573	-57.291	-0.159	0.070
-424.559	-93.187	0.181	0.050
-423.544	-200.000	0.028	-0.171
-422.530	-114.357	0.394	0.075
-421.515	-33.975	-0.340	-0.186
-420.500	-200.000	0.069	-0.446
-419.486	-200.000	-0.029	0.237
-418.471	696.826	-0.079	0.207
-417.457	117.838	-0.055	-0.067
-416.442	-99.784	-0.283	0.070
-415.428	-200.000	0.044	0.293
-414.413	-147.893	-0.117	-0.010
-413.398	-126.029	0.167	-0.025
-412.384	-65.537	-0.335	-0.134
-411.369	-200.000	-0.014	0.079
-410.355	130.396	0.122	-0.155
-409.340	89.131	-0.116	0.128
-408.325	800.000	-0.093	-0.321
-407.311	-15.504	0.226	-0.143
-406.296	-200.000	-0.053	0.374
-405.282	34.107	0.228	0.198
-404.267	71.725	-0.140	-0.145
-403.252	432.147	-0.044	0.094
-402.238	151.997	0.128	-0.173
-401.223	-129.177	-0.327	-0.045
-400.209	-80.730	-0.232	0.076
-399.194	271.593	0.038	-0.067
-398.179	-200.000	-0.010	-0.081
-397.165	-98.460	0.303	-0.077
-396.150	-98.631	-0.287	0.073
-395.136	-36.062	0.182	0.098
-394.121	-174.479	-0.298	-0.008
-393.106	-200.000	0.089	-0.588
-392.092	800.000	0.016	0.058
-391.077	151.856	-0.214	-0.289
-390.063	-70.073	-0.328	0.124
-389.048	182.891	-0.029	-0.042
-388.033	-0.172	0.068	0.048
-387.019	-96.410	0.086	-0.023
-386.004	-170.817	0.084	-0.003
-384.990	-200.000	-0.009	0.090
-383.975	-64.380	-0.377	-0.152
-382.960	22.089	-0.307	-0.248
-381.946	-0.151	0.204	0.144
-380.931	35.352	-0.150	0.131
-379.917	531.283	-0.089	0.210
-378.902	-21.837	0.084	0.051
-377.888	-18.004	0.436	-0.271
-376.873	82.465	0.251	-0.271
-375.858	-118.785	0.146	-0.026
-374.844	800.000	-0.098	-0.313
-373.829	-181.323	-0.075	0.001
-372.815	58.030	0.254	-0.246
-371.800	-186.358	-0.116	-0.002
-370.785	443.367	-0.117	0.254
-369.771	619.751	0.073	0.183
-368.756	30.712	-0.139	0.118
-367.742	-36.867	0.109	-0.058
-366.727	-107.621	0.127	-0.027
-365.712	554.718	0.067	-0.161
-364.698	735.811	0.121	-0.322
-363.683	-83.761	0.181	-0.057
-362.669	146.761	-0.142	0.189
-361.654	-75.475	-0.120	0.042
-360.639	-143.564	0.039	-0.004
-359.625	767.072	-0.064	0.173
-358.610	213.650	-0.034	0.053
-357.596	800.000	0.077	-0.246
-356.581	-124.580	-0.345	0.053
-355.566	256.733	-0.184	-0.314
-354.552	-19.911	-0.161	-0.098
-353.537	-94.424	0.089	-0.024
-352.523	800.000	-0.058	-0.177
-351.508	116.734	-0.061	-0.074
-350.493	-35.057	0.076	-0.041
-349.479	117.217	-0.196	0.238
-348.464	-65.441	0.121	-0.048
-347.450	800.000	-0.059	0.173
-346.435	800.000	-0.069	0.294
-345.420	395.398	0.104	-0.216
-344.406	-39.589	0.071	-0.037
-343.391	-77.473	0.272	0.094
-342.377	181.961	0.182	0.265
-341.362	-51.283	0.291	0.135
-340.348	-144.628	0.280	0.026
-339.333	23.726	-0.106	0.087
-338.318	168.711	-0.241	0.340
-337.304	-137.543	0.242	-0.027
-336.289	-200.000	0.008	0.111
-335.275	58.248	0.346	-0.336
-334.260	-200.000	0.022	0.125
-333.245	-100.668	-0.410	0.100
-332.231	20.535	0.033	-0.026
-331.216	136.159	0.299	-0.386
-330.202	-33.615	0.410	0.224
-329.187	241.859	-0.082	0.135
-328.172	-36.737	-0.139	-0.074
-327.158	800.000	0.103	0.316
-326.143	-71.076	0.247	0.092
-325.129	-200.000	-0.064	-0.339
-324.114	-39.852	0.096	-0.049
-323.099	-115.966	0.218	0.040
-322.085	2.302	0.282	0.202
-321.070	69.700	-0.128	-0.131
-320.056	290.190	-0.063	0.113
-319.041	-69.961	-0.102	0.039
-318.026	-140.445	0.362	-0.037
-317.012	568.620	-0.030	0.072
-315.997	78.900	0.221	0.235
-314.983	354.864	-0.100	0.197
-313.968	-35.433	-0.081	0.044
-312.953	276.704	-0.169	0.297
-311.939	-200.000	0.015	-0.098
-310.924	-114.329	0.130	-0.025
-309.910	146.327	0.069	0.092
-308.895	-60.823	0.296	-0.124
-307.880	-23.411	-0.157	0.094
-306.866	-94.887	-0.287	0.077
-305.851	207.527	0.165	0.255
-304.837	-200.000	0.004	-0.068
-303.822	800.000	-0.038	-0.120
-302.807	-200.000	0.041	0.286
-301.793	24.458	-0.281	0.230
-300.778	-129.167	0.492	-0.068
-299.764	-28.320	-0.100	-0.057
-298.749	-79.530	0.162	0.054
-297.735	18.299	-0.153	-0.121
-296.720	-10.008	-0.150	0.099
-295.705	-200.000	-0.000	0.089
-294.691	-119.012	-0.128	0.022
-293.676	239.279	0.021	0.034
-292.662	-156.650	-0.165	-0.010
-291.647	-15.685	-0.066	-0.042
-290.632	-105.790	-0.038	0.009
-289.618	362.431	-0.230	-0.455
-288.603	-112.383	0.201	0.040
-287.589	-9.919	0.239	-0.157
-286.574	-164.850	-0.120	0.005
-285.559	800.000	0.020	-0.088
-284.545	-22.798	0.150	-0.089
-283.530	697.450	0.132	-0.342
-282.516	-200.000	-0.019	-0.187
-281.501	-137.556	0.225	0.025
-280.486	87.215	-0.108	-0.118
-279.472	-89.133	-0.197	0.058
-278.457	24.580	-0.265	0.217
-277.443	-47.655	-0.401	0.192
-276.428	-71.334	0.367	0.136
-275.413	-6.828	0.112	0.075
-274.399	22.870	-0.159	0.129
-273.384	-150.361	0.172	0.013
-272.370	800.000	0.025	0.076
-271.355	98.395	-0.231	-0.263
-270.340	-132.753	-0.125	-0.016
-269.326	427.088	0.050	0.107
-268.311	179.317	-0.061	-0.089
-267.297	-117.885	-0.136	0.024
-266.282	800.000	-0.064	-0.221
-265.267	800.000	0.111	-0.329
-264.253	800.000	-0.052	-0.156
-263.238	138.091	0.035	0.045
-262.224	-87.576	-0.082	0.024
-261.209	-200.000	-0.006	-0.137
-260.195	736.952	-0.049	-0.130
-259.180	407.978	-0.072	-0.150
-258.165	176.985	0.081	0.116
-257.151	-53.744	-0.051	0.023
-256.136	32.697	-0.312	-0.267
-255.122	116.275	0.096	-0.116
-254.107	38.587	0.108	-0.095
-253.092	-97.877	0.140	-0.036
-252.078	63.130	-0.157	-0.155
-251.063	-18.980	-0.288	-0.177
-250.049	800.000	0.059	0.252
-249.034	800.000	0.068	0.294
-248.019	-55.907	-0.217	-0.095
-247.005	-153.850	0.099	-0.007
-245.990	-10.670	0.303	-0.198
-244.976	298.890	-0.101	-0.184
-243.961	800.000	0.108	-0.393
-242.946	47.443	-0.120	0.111
-241.932	-197.140	0.145	-0.001
-240.917	-79.880	0.160	-0.053
-239.903	-200.000	-0.014	-0.126
-238.888	-200.000	0.053	0.270
-237.873	-18.520	-0.217	-0.134
-236.859	-41.487	0.205	-0.104
-235.844	800.000	-0.041	0.158
-234.830	-101.293	-0.152	-0.037
-233.815	46.716	0.140	-0.128
-232.800	716.724	0.053	0.138
-231.786	-200.000	-0.042	0.214
-230.771	-145.168	-0.239	0.021
-229.757	137.521	-0.242	-0.313
-228.742	-200.000	0.056	-0.302
-227.727	44.035	-0.153	-0.138
-226.713	800.000	-0.028	-0.093
-225.698	-200.000	0.004	-0.164
-224.684	182.288	0.127	-0.185
-223.669	-200.000	-0.005	0.219
-222.655	-55.469	-0.179	-0.079
-221.640	800.000	-0.078	-0.234
-220.625	-200.000	0.037	0.161
-219.611	28.328	0.493	-0.410
-218.596	564.911	0.042	0.101
-217.582	-65.013	-0.169	0.067
-216.567	-25.703	0.098	0.057
-215.552	800.000	-0.071	0.254
-214.538	130.443	-0.202	-0.255
-213.523	262.856	-0.086	0.147
-212.509	-32.592	-0.138	0.076
-211.494	597.329	-0.049	0.121
-210.479	-200.000	0.005	-0.080
-209.465	-101.968	0.170	-0.040
-208.450	31.870	0.027	-0.023
-207.436	90.263	0.337	-0.372
-206.421	266.785	0.051	0.087
-205.406	-78.518	-0.221	0.075
-204.392	800.000	-0.052	0.197
-203.377	-48.311	0.082	0.039
-202.363	-72.991	-0.296	-0.107
-201.348	-60.970	0.047	0.019
-200.333	-109.888	0.196	-0.041
-199.319	-97.073	-0.167	-0.043
-198.304	17.451	0.176	-0.137
-197.290	-98.164	0.110	-0.028
-196.275	304.757	0.220	-0.403
-195.260	800.000	0.143	-0.393
-194.246	800.000	0.033	0.098
-193.231	113.390	0.097	-0.115
-192.217	619.109	0.059	0.145
-191.202	-46.343	-0.155	-0.075
-190.187	-61.467	0.055	0.023
-189.173	-156.372	0.104	-0.006
-188.158	-200.000	0.026	0.270
-187.144	196.557	-0.125	0.187
-186.129	45.917	0.142	-0.129
-185.114	301.892	0.090	0.165
-184.100	-71.645	0.358	-0.132
-183.085	-25.925	0.201	-0.116
-182.071	-160.939	-0.421	-0.022
-181.056	2.703	-0.247	0.176
-180.042	-21.762	0.215	0.129
-179.027	-162.958	-0.256	-0.012
-178.012	-137.503	0.056	-0.006
-176.998	-200.000	0.177	-0.000
-175.983	-179.826	-0.182	-0.004
-174.969	-79.430	0.063	-0.021
-173.954	-129.548	-0.287	-0.039
-172.939	-200.000	-0.093	-0.417
-171.925	-200.000	0.024	0.172
-170.910	96.870	0.047	-0.052
-169.896	-70.704	-0.100	-0.037
-168.881	68.506	0.094	0.095
-167.866	301.704	-0.073	0.133
-166.852	-149.116	-0.425	0.034
-165.837	29.656	0.082	-0.069
-164.823	-113.123	-0.129	-0.025
-163.808	-200.000	-0.042	-0.244
-162.793	-198.996	0.356	0.002
-161.779	-81.306	0.371	0.120
-160.764	800.000	-0.063	0.226
-159.750	-200.000	0.057	0.334
-158.735	-65.931	-0.233	0.092
-157.720	-200.000	0.011	-0.178
-156.706	-59.464	0.375	-0.158
-155.691	-178.604	-0.144	-0.003
-154.677	54.115	-0.074	0.070
-153.662	62.283	-0.066	-0.065
-152.647	218.535	0.116	0.182
-151.633	452.310	-0.169	0.367
-150.618	242.741	-0.196	-0.322
-149.604	-200.000	-0.100	-0.445
-148.589	-78.273	0.306	-0.103
-147.574	436.785	-0.103	0.220
-146.560	447.992	-0.061	0.133
-145.545	-200.000	-0.057	0.325
-144.531	-200.000	-0.038	0.243
-143.516	-179.456	0.151	-0.003
-142.502	-200.000	0.018	-0.288
-141.487	101.826	-0.037	0.043
-140.472	226.861	-0.062	0.099
-139.458	-103.996	0.307	-0.070
-138.443	258.138	0.048	-0.081
-137.429	800.000	0.078	0.214
-136.414	2.778	-0.069	0.049
-135.399	-120.031	-0.206	-0.035
-134.385	-3.773	0.133	-0.091
-133.370	693.310	0.074	-0.191
-132.356	76.664	0.309	0.322
-131.341	-143.922	-0.048	-0.004
-130.326	-135.891	-0.082	0.009
-129.312	-95.299	0.108	-0.029
-128.297	-65.767	-0.052	0.020
-127.283	57.223	0.344	-0.329
-126.268	162.650	-0.062	0.085
-125.253	33.052	0.177	-0.150
-124.239	-200.000	0.029	0.144
-123.224	-200.000	-0.022	-0.248
-122.210	10.421	-0.075	0.056
