DTS Sentinel unit serial number:	SN413079Multiplexer serial number:	ORYXHardware model number:	OX4-SRSoftware version number:	ORYX F/W v4.00 Oryx Data Collector v3.7.2.0data status	okinstallation	princeton_trtdifferential loss correction	single-endedforward channel	channel 1reverse channel	N/Adate	2019/09/12time	10:56:11forward acquisition time	60.00reverse acquisition time	0.00gamma	496.2192k internal	0.2295k external	0.2295temperature offset calibration	1.0044default loss term (dB/km)	0.3790temperature slope calibration	1.0000multiplexer offset coefficient	1.0000multiplexer slope coefficient	1.0000fibre end	0.00T internal ref (°C)	38.23T ext. ref 1 (°C)	1.93T ext. ref 2 (°C)	36.50length (m)	temperature (°C)	Stokes	anti-Stokes-747.200	118.682	-0.128	-0.162
-746.185	196.843	0.149	0.232
-745.171	-200.000	0.016	-0.071
-744.156	-200.000	0.013	-0.088
-743.142	63.350	0.152	-0.156
-742.127	393.230	-0.204	0.433
-741.112	-200.000	-0.040	-0.242
-740.098	38.435	-0.316	0.288
-739.083	-200.000	0.057	0.571
-738.069	395.082	-0.094	0.201
-737.054	441.357	0.019	0.042
-736.039	116.513	-0.396	-0.497
-735.025	376.860	0.039	-0.081
-734.010	265.833	0.191	0.340
-732.996	203.180	0.014	0.023
-731.981	437.754	0.007	0.016
-730.966	-144.960	-0.242	0.023
-729.952	533.301	0.036	0.088
-728.937	-200.000	-0.081	-0.430
-727.923	-200.000	-0.042	-0.248
-726.908	83.018	-0.121	-0.135
-725.894	23.703	0.154	0.130
-724.879	-137.098	-0.280	0.033
-723.864	-155.307	0.027	-0.002
-722.850	-49.869	-0.370	-0.180
-721.835	800.000	0.088	-0.283
-720.821	-200.000	-0.006	-0.404
-719.806	128.024	-0.025	0.033
-718.791	81.264	0.032	-0.036
-717.777	-13.178	-0.186	-0.123
-716.762	55.997	0.134	-0.133
-715.748	130.174	0.082	-0.107
-714.733	800.000	-0.067	-0.213
-713.718	68.637	0.076	0.079
-712.704	-200.000	0.014	-0.357
-711.689	800.000	0.058	0.168
-710.675	-195.890	-0.218	-0.002
-709.660	-25.892	-0.296	0.178
-708.645	-130.667	-0.225	0.031
-707.631	-65.467	-0.084	-0.034
-706.616	357.774	0.021	0.043
-705.602	161.090	-0.113	-0.161
-704.587	-56.005	-0.050	-0.023
-703.572	-95.882	0.328	0.089
-702.558	-162.324	0.317	-0.016
-701.543	-200.000	0.023	-0.130
-700.529	14.325	-0.329	-0.262
-699.514	-56.904	0.251	0.113
-698.499	800.000	-0.074	-0.307
-697.485	11.997	-0.328	0.258
-696.470	-200.000	0.032	-0.155
-695.456	800.000	0.125	0.354
-694.441	-62.710	-0.221	-0.093
-693.426	302.260	0.112	-0.211
-692.412	-106.430	-0.176	-0.040
-691.397	-200.000	0.052	-0.268
-690.383	282.977	-0.108	0.197
-689.368	-44.291	-0.111	-0.057
-688.354	-26.264	-0.139	-0.083
-687.339	97.639	-0.154	-0.181
-686.324	-26.210	0.113	0.068
-685.310	-200.000	0.004	0.195
-684.295	-200.000	-0.014	-0.081
-683.281	123.294	-0.111	0.141
-682.266	140.869	-0.142	-0.192
-681.251	-60.068	0.347	0.151
-680.237	254.952	0.134	0.234
-679.222	-200.000	-0.018	0.089
-678.208	-179.641	0.299	-0.007
-677.193	-20.523	0.097	-0.061
-676.178	20.895	-0.027	0.022
-675.164	-120.265	-0.327	-0.057
-674.149	-30.874	-0.115	-0.066
-673.135	371.020	0.088	-0.182
-672.120	-148.427	-0.166	-0.014
-671.105	781.239	-0.030	-0.085
-670.091	-51.184	-0.097	0.046
-669.076	-127.104	-0.139	0.021
-668.062	133.100	0.080	-0.105
-667.047	-200.000	-0.024	-0.268
-666.032	-29.390	-0.195	0.114
-665.018	477.906	-0.014	-0.031
-664.003	347.329	-0.055	0.110
-662.989	-108.260	-0.146	0.032
-661.974	-41.367	-0.244	-0.128
-660.959	14.390	0.197	0.156
-659.945	-40.338	-0.056	-0.030
-658.930	800.000	-0.146	0.419
-657.916	-200.000	-0.046	0.348
-656.901	-130.345	0.339	0.047
-655.886	-76.709	-0.121	0.043
-654.872	56.913	-0.160	-0.159
-653.857	-172.662	0.054	-0.002
-652.843	-21.615	0.370	-0.230
-651.828	-200.000	0.020	0.227
-650.814	18.392	-0.238	0.193
-649.799	-88.818	0.394	0.119
-648.784	114.877	0.161	-0.200
-647.770	344.524	0.193	-0.386
-646.755	-13.206	-0.125	-0.083
-645.741	-23.895	-0.088	0.054
-644.726	648.857	-0.047	-0.123
-643.711	264.585	0.136	0.241
-642.697	-27.253	0.251	-0.149
-641.682	-98.661	0.611	-0.159
-640.668	-95.473	0.149	0.041
-639.653	576.637	-0.132	0.328
-638.638	-94.921	-0.332	-0.091
-637.624	-10.779	0.039	-0.026
-636.609	229.631	-0.050	-0.083
-635.595	800.000	0.050	-0.209
-634.580	-200.000	0.047	-0.453
-633.565	537.219	-0.159	-0.385
-632.551	418.896	-0.159	0.347
-631.536	-28.968	0.149	0.087
-630.522	-20.467	0.273	-0.171
-629.507	-90.704	0.296	-0.087
-628.492	-149.064	-0.323	0.026
-627.478	-172.984	-0.143	0.004
-626.463	105.948	0.083	0.100
-625.449	-34.905	0.223	0.124
-624.434	-108.380	-0.180	0.039
-623.419	9.030	-0.282	0.217
-622.405	-58.976	0.140	0.062
-621.390	427.136	-0.069	-0.152
-620.376	-200.000	-0.006	0.065
-619.361	299.464	-0.156	-0.293
-618.346	-34.004	-0.354	-0.198
-617.332	204.273	-0.031	0.049
-616.317	-200.000	0.000	-0.176
-615.303	69.184	0.088	0.092
-614.288	173.686	0.036	0.053
-613.273	7.235	-0.223	-0.169
-612.259	-200.000	0.002	-0.136
-611.244	378.233	-0.094	0.195
-610.230	-160.566	-0.142	0.008
-609.215	145.075	0.037	-0.050
-608.201	647.798	0.016	-0.042
-607.186	197.281	0.076	0.117
-606.171	-144.530	-0.214	-0.020
-605.157	158.483	-0.162	-0.229
-604.142	293.628	0.201	0.372
-603.128	-46.054	0.122	0.061
-602.113	144.559	-0.107	-0.145
-601.098	132.746	-0.047	-0.062
-600.084	515.529	0.147	0.349
-599.069	82.553	0.201	0.222
-598.055	-200.000	-0.011	0.099
-597.040	51.832	0.193	0.187
-596.025	-33.187	-0.094	0.053
-595.011	-41.736	0.073	-0.038
-593.996	-200.000	-0.024	-0.169
-592.982	547.839	-0.038	0.091
-591.967	35.721	0.148	-0.133
-590.952	-3.962	0.123	0.087
-589.938	-53.390	-0.132	-0.061
-588.923	-95.750	-0.240	-0.065
-587.909	-200.000	0.032	-0.214
-586.894	55.982	-0.079	0.077
-585.879	544.491	0.055	-0.134
-584.865	104.257	0.222	-0.265
-583.850	106.497	0.105	0.126
-582.836	-52.925	0.070	0.033
-581.821	237.132	0.148	-0.249
-580.806	434.373	0.021	0.046
-579.792	285.032	0.040	-0.073
-578.777	-200.000	-0.001	-0.035
-577.763	-121.544	-0.124	0.021
-576.748	-200.000	-0.055	-0.346
-575.733	-167.450	0.277	-0.011
-574.719	53.398	0.164	-0.160
-573.704	304.273	0.168	0.317
-572.690	75.830	0.209	0.224
-571.675	800.000	-0.026	-0.110
-570.661	-153.232	-0.080	0.006
-569.646	-139.323	0.083	-0.009
-568.631	-200.000	-0.048	-0.515
-567.617	603.554	0.090	-0.227
-566.602	-9.523	0.311	0.211
-565.588	389.971	-0.082	-0.173
-564.573	63.075	-0.293	-0.298
-563.558	4.148	-0.065	-0.048
-562.544	800.000	-0.012	-0.043
-561.529	60.634	0.104	-0.104
-560.515	-159.269	-0.176	-0.010
-559.500	-86.586	0.086	0.027
-558.485	515.233	0.060	-0.141
-557.471	525.196	-0.024	0.057
-556.456	13.699	-0.112	-0.089
-555.442	392.593	-0.042	-0.088
-554.427	312.600	0.110	0.209
-553.412	33.631	-0.371	-0.327
-552.398	-17.124	-0.283	0.181
-551.383	-32.993	-0.225	0.127
-550.369	-5.182	-0.249	0.174
-549.354	468.455	0.113	-0.258
-548.339	-12.484	0.058	-0.039
-547.325	146.395	0.175	0.239
-546.310	-145.982	0.243	0.022
-545.296	-200.000	0.047	-0.284
-544.281	166.074	-0.246	-0.353
-543.266	-22.628	0.230	-0.141
-542.252	24.176	-0.204	0.171
-541.237	161.779	0.119	-0.170
-540.223	-119.156	0.154	-0.027
-539.208	72.934	-0.205	-0.217
-538.193	800.000	0.048	-0.143
-537.179	-101.987	0.066	0.016
-536.164	-65.572	-0.163	0.067
-535.150	-52.262	-0.086	0.040
-534.135	108.731	-0.084	0.102
-533.121	-99.088	0.234	0.060
-532.106	296.310	0.035	-0.065
-531.091	800.000	0.038	-0.148
-530.077	697.180	0.097	0.258
-529.062	-83.953	0.051	-0.017
-528.048	-16.657	0.251	0.161
-527.033	-128.790	0.039	0.006
-526.018	-87.815	0.236	-0.072
-525.004	4.240	-0.212	0.158
-523.989	473.772	0.070	-0.160
-522.975	265.942	0.123	-0.217
-521.960	800.000	0.039	0.144
-520.945	-45.064	0.104	-0.053
-519.931	-143.979	0.214	-0.020
-518.916	-68.093	0.168	0.066
-517.902	29.824	-0.284	0.245
-516.887	-91.317	-0.425	-0.123
-515.872	800.000	-0.027	-0.118
-514.858	-200.000	-0.056	0.406
-513.843	250.593	0.155	-0.268
-512.829	-200.000	0.001	-0.188
-511.814	-66.743	0.376	0.151
-510.799	-77.788	0.250	0.088
-509.785	-37.937	-0.034	-0.018
-508.770	177.891	0.113	-0.167
-507.756	70.921	-0.183	0.192
-506.741	61.964	-0.030	-0.030
-505.726	176.489	-0.072	-0.106
-504.712	47.900	-0.126	0.119
-503.697	800.000	0.113	-0.351
-502.683	-1.253	0.293	-0.209
-501.668	102.932	0.203	-0.240
-500.653	-7.367	0.345	0.237
-499.639	-200.000	0.020	0.144
-498.624	-31.167	-0.237	0.135
-497.610	-46.133	0.334	-0.166
-496.595	-200.000	0.015	-0.185
-495.581	-55.327	-0.283	0.129
-494.566	800.000	0.033	0.117
-493.551	-86.925	-0.254	0.078
-492.537	800.000	0.031	0.111
-491.522	-39.278	0.294	-0.156
-490.508	130.446	0.178	-0.231
-489.493	-14.750	-0.094	-0.061
-488.478	-73.824	0.114	0.042
-487.464	-154.382	-0.139	-0.009
-486.449	-200.000	0.030	0.174
-485.435	-59.386	-0.155	-0.067
-484.420	-119.115	-0.192	-0.034
-483.405	431.284	0.088	-0.193
-482.391	-200.000	0.004	-0.198
-481.376	-200.000	-0.052	-0.300
-480.362	-111.837	-0.252	-0.052
-479.347	-200.000	0.020	-0.328
-478.332	-148.948	0.080	-0.007
-477.318	44.180	0.178	0.166
-476.303	-122.212	-0.229	-0.038
-475.289	562.559	-0.138	0.339
-474.274	-200.000	-0.008	-0.351
-473.259	-69.526	0.172	-0.067
-472.245	-200.000	0.017	-0.363
-471.230	-26.977	-0.247	-0.146
-470.216	-200.000	-0.011	-0.051
-469.201	-149.569	0.080	0.006
-468.186	-200.000	0.019	-0.124
-467.172	800.000	-0.013	-0.047
-466.157	800.000	-0.027	0.083
-465.143	-144.233	0.150	-0.014
-464.128	128.844	0.135	0.174
-463.113	19.606	0.061	0.050
-462.099	74.307	0.242	0.257
-461.084	-200.000	-0.046	-0.280
-460.070	-200.000	-0.058	0.280
-459.055	-78.622	0.101	0.035
-458.040	280.807	0.142	-0.256
-457.026	0.959	-0.209	-0.151
-456.011	-84.842	0.363	0.115
-454.997	-200.000	-0.046	0.258
-453.982	161.367	-0.063	0.089
-452.968	-200.000	-0.046	-0.277
-451.953	-200.000	-0.030	0.158
-450.938	-96.057	-0.138	-0.037
-449.924	53.024	-0.388	-0.375
-448.909	17.280	0.256	0.205
-447.895	-21.656	-0.252	-0.155
-446.880	-16.661	-0.126	-0.080
-445.865	57.234	0.127	-0.125
-444.851	-200.000	0.029	0.152
-443.836	-101.869	-0.178	0.043
-442.822	-200.000	0.036	-0.179
-441.807	-200.000	0.032	0.261
-440.792	-200.000	0.076	0.477
-439.778	616.446	0.115	-0.290
-438.763	130.192	-0.039	0.051
-437.749	-99.154	0.084	0.022
-436.734	-45.206	-0.102	-0.051
-435.719	-81.971	0.221	-0.073
-434.705	242.068	0.079	0.134
-433.690	-135.743	0.116	0.014
-432.676	-153.262	-0.227	-0.016
-431.661	800.000	0.113	-0.347
-430.646	-60.901	0.258	-0.110
-429.632	90.193	-0.231	0.261
-428.617	-200.000	0.011	-0.057
-427.603	800.000	-0.062	0.265
-426.588	-73.249	0.064	-0.024
-425.573	-200.000	0.037	0.261
-424.559	6.018	0.058	-0.043
-423.544	558.478	-0.073	0.178
-422.530	-154.145	0.074	0.005
-421.515	-96.223	0.148	-0.040
-420.500	-200.000	-0.026	0.237
-419.486	71.349	-0.226	0.237
-418.471	-200.000	0.024	0.147
-417.457	800.000	0.075	0.305
-416.442	272.174	0.230	0.410
-415.428	-200.000	-0.007	0.220
-414.413	649.184	-0.090	0.232
-413.398	138.097	0.053	-0.070
-412.384	-200.000	-0.009	-0.300
-411.369	54.426	0.254	-0.247
-410.355	-67.262	0.017	-0.007
-409.340	42.121	0.142	-0.130
-408.325	217.889	0.053	0.085
-407.311	800.000	0.040	0.141
-406.296	-171.558	0.220	-0.007
-405.282	-122.420	-0.066	0.011
-404.267	222.643	0.149	0.242
-403.252	-47.609	-0.163	0.080
-402.238	160.392	0.052	0.073
-401.223	800.000	0.019	-0.069
-400.209	567.678	0.055	-0.136
-399.194	800.000	0.077	-0.323
-398.179	-200.000	0.041	0.250
-397.165	425.111	0.009	-0.019
-396.150	-100.453	-0.073	0.018
-395.136	-139.892	-0.185	0.020
-394.121	28.447	-0.087	0.074
-393.106	329.249	-0.077	0.149
-392.092	-89.995	0.078	0.023
-391.077	31.956	-0.125	0.109
-390.063	-76.587	-0.150	-0.053
-389.048	-123.595	0.084	-0.013
-388.033	-103.885	-0.248	-0.058
-387.019	219.918	0.073	0.119
-386.004	800.000	0.138	0.415
-384.990	-80.821	0.102	-0.034
-383.975	-70.821	-0.111	-0.042
-382.960	-118.517	-0.223	0.040
-381.946	-116.676	0.226	0.042
-380.931	-9.453	0.137	0.092
-379.917	-200.000	0.026	0.207
-378.902	-73.052	-0.121	0.045
-377.888	585.313	0.122	-0.301
-376.873	-200.000	0.040	-0.327
-375.858	-200.000	0.005	-0.133
-374.844	-123.981	-0.181	0.029
-373.829	396.501	0.054	-0.113
-372.815	-166.670	-0.157	0.007
-371.800	227.686	0.116	-0.190
-370.785	-200.000	0.001	0.009
-369.771	106.295	-0.194	-0.232
-368.756	75.734	0.102	0.108
-367.742	-97.351	-0.311	-0.082
-366.727	162.496	0.155	-0.219
-365.712	-8.925	-0.204	0.137
-364.698	450.632	-0.053	0.118
-363.683	-2.428	0.081	-0.057
-362.669	-81.884	-0.215	-0.071
-361.654	-52.337	0.125	-0.058
-360.639	-200.000	-0.012	-0.229
-359.625	-144.535	0.289	-0.027
-358.610	800.000	0.088	0.282
-357.596	-200.000	0.032	-0.234
-356.581	265.363	0.086	-0.151
-355.566	-150.098	-0.118	0.009
-354.552	-6.799	0.101	-0.069
-353.537	800.000	-0.043	0.162
-352.523	67.842	0.295	0.304
-351.508	-128.445	0.145	-0.021
-350.493	400.867	0.079	-0.167
-349.479	68.569	0.185	0.191
-348.464	84.421	0.191	0.211
-347.450	230.643	-0.024	-0.040
-346.435	-102.973	-0.224	0.053
-345.420	-200.000	0.001	0.106
-344.406	30.091	-0.114	0.098
-343.391	137.402	-0.176	-0.231
-342.377	800.000	-0.069	0.203
-341.362	461.646	0.098	-0.220
-340.348	-35.232	0.048	-0.026
-339.333	-148.967	0.237	0.019
-338.318	-7.345	-0.187	0.128
-337.304	53.712	-0.142	0.137
-336.289	261.784	0.063	0.110
-335.275	-133.779	-0.344	-0.043
-334.260	-26.895	0.235	0.138
-333.245	800.000	-0.096	-0.333
-332.231	800.000	-0.038	0.137
-331.216	-154.432	-0.322	0.022
-330.202	94.595	0.288	0.330
-329.187	-200.000	-0.025	0.252
-328.172	-151.718	-0.215	0.016
-327.158	800.000	-0.045	0.140
-326.143	30.379	-0.190	0.164
-325.129	241.887	-0.189	-0.318
-324.114	41.643	-0.265	-0.241
-323.099	29.738	0.070	-0.060
-322.085	800.000	-0.078	0.314
-321.070	-35.964	-0.195	0.106
-320.056	-139.229	-0.367	0.040
-319.041	-167.395	0.124	-0.005
-318.026	-200.000	-0.006	0.208
-317.012	-45.540	0.161	-0.080
-315.997	800.000	-0.020	-0.060
-314.983	737.702	0.060	0.163
-313.968	344.029	0.066	0.129
-312.953	-200.000	0.007	-0.070
-311.939	-200.000	-0.032	-0.351
-310.924	3.177	-0.245	0.179
-309.910	109.449	-0.125	0.151
-308.895	-71.988	-0.467	0.175
-307.880	-19.113	0.136	-0.085
-306.866	-149.903	0.148	0.012
-305.851	800.000	0.118	0.349
-304.837	-61.192	0.370	0.157
-303.822	292.807	0.103	0.189
-302.807	-103.130	-0.102	0.024
-301.793	-152.777	0.040	0.003
-300.778	-49.659	0.301	-0.144
-299.764	549.669	-0.031	0.074
-298.749	218.756	-0.088	-0.141
-297.735	-122.004	0.210	0.035
-296.720	199.823	0.068	-0.105
-295.705	69.933	0.276	0.286
-294.691	-200.000	-0.001	-0.039
-293.676	36.505	-0.261	0.231
-292.662	-200.000	-0.022	0.276
-291.647	22.226	0.104	-0.085
-290.632	-152.691	-0.429	-0.031
-289.618	-44.104	-0.434	0.219
-288.603	-92.023	0.339	-0.096
-287.589	66.011	-0.153	0.155
-286.574	800.000	-0.010	0.036
-285.559	201.153	0.033	0.051
-284.545	-200.000	0.025	0.140
-283.530	-200.000	0.009	0.094
-282.516	800.000	0.078	0.294
-281.501	232.751	0.047	0.078
-280.486	477.810	0.023	-0.052
-279.472	-58.803	-0.208	0.090
-278.457	296.362	-0.219	0.402
-277.443	145.249	0.187	0.251
-276.428	-50.248	-0.235	0.112
-275.413	33.721	0.246	0.215
-274.399	12.947	-0.082	-0.064
-273.384	134.687	0.124	-0.161
-272.370	-19.046	0.367	-0.229
-271.355	-35.079	0.283	0.155
-270.340	-200.000	0.006	-0.058
-269.326	-72.552	0.045	-0.017
-268.311	140.522	-0.136	0.180
-267.297	126.901	-0.334	-0.424
-266.282	77.380	-0.121	-0.129
-265.267	-160.158	0.095	-0.005
-264.253	50.750	0.131	-0.125
-263.238	381.136	0.091	-0.187
-262.224	-49.048	0.207	0.099
-261.209	-47.006	0.060	-0.029
-260.195	3.929	-0.165	-0.121
-259.180	171.328	-0.176	0.253
-258.165	800.000	-0.070	-0.281
-257.151	34.136	-0.083	-0.072
-256.136	-140.664	0.092	-0.010
-255.122	3.355	0.123	-0.090
-254.107	-200.000	-0.028	0.130
-253.092	476.152	-0.124	-0.281
-252.078	-119.985	0.163	0.028
-251.063	46.464	-0.104	0.096
-250.049	17.593	0.204	0.162
-249.034	105.772	-0.049	-0.059
-248.019	142.919	-0.161	-0.214
-247.005	24.571	-0.029	0.024
-245.990	24.072	0.074	0.062
-244.976	20.018	-0.063	0.051
-243.961	42.648	-0.268	-0.245
-242.946	800.000	-0.031	0.129
-241.932	-103.976	-0.188	-0.044
-240.917	48.104	-0.073	0.068
-239.903	-200.000	0.005	0.281
-238.888	800.000	-0.101	0.315
-237.873	-85.362	-0.307	0.096
-236.859	-90.040	-0.089	-0.026
-235.844	-134.892	-0.172	-0.021
-234.830	800.000	-0.086	0.267
-233.815	409.251	-0.108	-0.230
-232.800	94.741	0.117	0.134
-231.786	-200.000	-0.034	0.415
-230.771	-69.279	0.138	0.053
-229.757	-200.000	-0.042	-0.350
-228.742	800.000	-0.064	0.240
-227.727	22.578	0.160	-0.131
-226.713	-40.232	0.196	0.102
-225.698	-200.000	0.014	0.148
-224.684	578.154	0.226	-0.554
-223.669	800.000	-0.052	-0.149
-222.655	-99.414	-0.236	0.060
-221.640	800.000	-0.051	-0.159
-220.625	330.946	-0.127	-0.245
-219.611	-20.886	0.124	0.076
-218.596	15.639	-0.102	0.080
-217.582	-200.000	-0.015	-0.109
-216.567	-11.838	-0.118	-0.078
-215.552	187.535	0.145	0.217
-214.538	-30.028	-0.149	0.085
-213.523	153.209	-0.137	-0.188
-212.509	-10.163	0.068	0.045
-211.494	254.803	0.048	0.082
-210.479	-200.000	0.006	-0.227
-209.465	-41.647	0.097	0.050
-208.450	134.419	-0.084	0.109
-207.436	-128.952	0.161	-0.023
-206.421	80.590	0.186	0.200
-205.406	-118.895	-0.362	0.064
-204.392	-200.000	0.001	-0.096
-203.377	-76.492	-0.246	-0.086
-202.363	800.000	-0.032	-0.134
-201.348	-111.053	-0.343	0.071
-200.333	174.479	-0.024	-0.035
-199.319	433.226	0.011	-0.024
-198.304	643.914	-0.030	-0.075
-197.290	66.733	-0.290	0.295
-196.275	33.345	-0.113	0.098
-195.260	-164.130	0.246	-0.011
-194.246	427.003	-0.147	-0.318
-193.231	18.072	-0.374	0.298
-192.217	-131.951	-0.112	0.015
-191.202	297.463	0.265	0.488
-190.187	-200.000	0.015	-0.244
-189.173	800.000	0.074	-0.215
-188.158	448.327	0.106	-0.233
-187.144	800.000	0.121	0.349
-186.129	-165.535	-0.208	0.009
-185.114	-200.000	0.137	-0.640
-184.100	51.046	-0.278	-0.264
-183.085	6.621	0.138	0.103
-182.071	191.892	-0.073	0.111
-181.056	-29.800	-0.169	-0.096
-180.042	-43.996	-0.156	0.078
-179.027	800.000	0.015	0.057
-178.012	-48.900	-0.092	0.044
-176.998	-137.386	-0.161	-0.018
-175.983	-115.724	0.254	0.047
-174.969	-67.535	-0.125	-0.049
-173.954	-134.999	0.290	0.035
-172.939	730.753	-0.035	-0.094
-171.925	286.049	-0.058	-0.105
-170.910	-200.000	-0.012	0.166
-169.896	145.907	-0.244	0.327
-168.881	800.000	0.137	0.441
-167.866	-129.725	-0.123	0.017
-166.852	232.104	-0.071	0.117
-165.837	800.000	0.019	-0.075
-164.823	-125.431	-0.262	0.040
-163.808	-85.073	-0.171	-0.053
-162.793	-101.487	0.235	-0.057
-161.779	-124.044	0.344	0.054
-160.764	-157.825	-0.077	-0.005
-159.750	-123.352	0.146	-0.023
-158.735	-38.406	-0.089	-0.047
-157.720	713.462	0.127	-0.335
-156.706	83.970	0.094	0.102
-155.691	237.602	0.119	-0.198
-154.677	-155.549	-0.121	0.008
-153.662	-82.459	0.223	0.072
-152.647	137.828	-0.134	-0.175
-151.633	94.739	0.036	0.041
-150.618	103.454	0.061	0.071
-149.604	694.179	0.078	0.203
-148.589	-55.344	0.288	-0.129
-147.574	-74.492	-0.161	-0.058
-146.560	16.247	-0.128	0.100
-145.545	-200.000	0.012	0.080
-144.531	-139.709	0.613	-0.065
-143.516	210.585	-0.105	0.165
-142.502	-15.600	-0.115	-0.073
-141.487	-92.882	0.193	0.054
-140.472	340.034	0.090	0.175
-139.458	-12.997	-0.161	-0.105
-138.443	-200.000	-0.008	0.059
-137.429	-200.000	0.041	0.278
-136.414	-7.807	-0.420	-0.283
-135.399	800.000	0.078	-0.243
-134.385	-44.558	0.326	-0.163
-133.370	-200.000	0.074	-0.436
-132.356	-200.000	0.032	-0.154
-131.341	-200.000	0.051	-0.327
-130.326	-81.908	0.181	0.059
-129.312	342.110	-0.074	-0.145
-128.297	98.516	0.235	0.270
-127.283	265.557	-0.110	0.191
-126.268	349.372	0.111	-0.219
-125.253	31.372	-0.312	-0.268
-124.239	58.471	-0.079	-0.078
-123.224	185.872	0.103	0.153
-122.210	-56.484	-0.307	-0.136
-121.195	-184.289	-0.342	-0.006
