DTS Sentinel unit serial number:	SN413079Multiplexer serial number:	ORYXHardware model number:	OX4-SRSoftware version number:	ORYX F/W v4.00 Oryx Data Collector v3.7.2.0data status	okinstallation	princeton_trtdifferential loss correction	single-endedforward channel	channel 1reverse channel	N/Adate	2019/09/18time	11:10:35forward acquisition time	60.00reverse acquisition time	0.00gamma	496.2192k internal	0.2326k external	0.2326temperature offset calibration	0.9977default loss term (dB/km)	0.3790temperature slope calibration	1.0000multiplexer offset coefficient	1.0000multiplexer slope coefficient	1.0000fibre end	0.00T internal ref (°C)	29.61T ext. ref 1 (°C)	0.41T ext. ref 2 (°C)	26.44length (m)	temperature (°C)	Stokes	anti-Stokes-747.200	508.327	0.068	-0.159
-746.185	455.730	-0.042	0.094
-745.171	-121.378	-0.188	0.032
-744.156	800.000	-0.047	0.138
-743.142	-200.000	0.012	0.110
-742.127	219.629	-0.211	0.341
-741.112	-146.645	0.078	-0.007
-740.098	-149.493	-0.244	-0.019
-739.083	301.590	0.126	0.234
-738.069	-109.381	0.126	0.027
-737.054	800.000	0.054	-0.152
-736.039	-61.150	-0.331	-0.141
-735.025	201.490	0.084	0.130
-734.010	-55.753	-0.050	0.022
-732.996	443.048	-0.112	-0.247
-731.981	25.751	-0.072	0.060
-730.966	-200.000	-0.008	0.101
-729.952	240.714	0.161	-0.271
-728.937	22.493	-0.146	0.120
-727.923	252.443	0.113	-0.195
-726.908	58.248	-0.210	0.207
-725.894	-200.000	0.066	0.360
-724.879	-82.204	-0.094	-0.031
-723.864	-77.376	-0.167	0.058
-722.850	154.444	0.200	0.277
-721.835	-29.399	-0.117	0.068
-720.821	13.052	-0.112	-0.088
-719.806	800.000	0.022	-0.091
-718.791	-39.313	-0.149	0.079
-717.777	-200.000	0.033	0.336
-716.762	-102.327	-0.248	-0.060
-715.748	-169.012	-0.120	-0.005
-714.733	-2.570	0.092	-0.065
-713.718	-35.019	0.062	0.034
-712.704	1.816	0.297	0.216
-711.689	5.562	-0.431	-0.321
-710.675	121.553	0.123	0.154
-709.660	-33.832	-0.049	-0.027
-708.645	-67.168	0.239	-0.095
-707.631	-200.000	0.004	-0.047
-706.616	425.773	0.055	0.120
-705.602	-168.994	-0.171	-0.006
-704.587	456.028	-0.074	-0.165
-703.572	-98.523	0.114	-0.029
-702.558	-200.000	-0.008	-0.095
-701.543	7.523	-0.313	-0.236
-700.529	756.908	-0.108	-0.293
-699.514	110.021	-0.052	-0.063
-698.499	-92.186	0.289	-0.082
-697.485	91.755	-0.096	0.108
-696.470	232.377	-0.048	-0.079
-695.456	-34.635	0.266	0.147
-694.441	-200.000	0.013	-0.079
-693.426	-47.300	0.042	0.020
-692.412	-131.366	0.343	0.046
-691.397	-29.636	-0.378	-0.218
-690.383	46.306	-0.273	-0.255
-689.368	-59.740	-0.459	0.198
-688.354	299.730	0.089	-0.165
-687.339	-200.000	0.049	-0.387
-686.324	49.300	-0.046	-0.043
-685.310	-49.474	-0.280	0.134
-684.295	72.840	0.178	-0.187
-683.281	-106.111	-0.202	-0.046
-682.266	125.750	0.161	0.204
-681.251	-145.229	0.142	-0.013
-680.237	800.000	-0.089	0.291
-679.222	12.519	0.050	-0.039
-678.208	162.529	0.062	0.087
-677.193	-65.709	0.323	-0.130
-676.178	-73.956	0.074	0.027
-675.164	-92.702	-0.081	0.023
-674.149	148.474	0.225	-0.305
-673.135	21.739	-0.154	0.126
-672.120	-100.311	0.380	-0.095
-671.105	-64.287	0.153	-0.063
-670.091	-61.559	0.226	-0.096
-669.076	104.299	0.179	0.211
-668.062	74.917	-0.222	-0.235
-667.047	800.000	-0.078	0.272
-666.032	352.132	-0.130	0.258
-665.018	-102.566	-0.224	-0.054
-664.003	67.920	0.145	-0.150
-662.989	275.944	-0.193	-0.345
-661.974	-200.000	0.004	-0.148
-660.959	800.000	-0.019	0.079
-659.945	-148.185	-0.338	-0.028
-658.930	800.000	0.071	0.197
-657.916	-90.031	0.284	-0.083
-656.901	-200.000	-0.056	-0.525
-655.886	549.860	-0.070	-0.170
-654.872	602.791	0.031	-0.078
-653.857	-45.531	-0.235	0.117
-652.843	-200.000	0.004	-0.094
-651.828	-200.000	0.003	-0.058
-650.814	-200.000	0.009	0.233
-649.799	-77.219	0.100	0.035
-648.784	-170.265	-0.254	0.009
-647.770	598.581	0.083	-0.207
-646.755	-85.099	0.147	-0.046
-645.741	-14.104	0.210	0.136
-644.726	412.004	-0.134	0.287
-643.711	23.245	0.118	-0.097
-642.697	-56.029	0.056	0.025
-641.682	229.294	-0.160	0.263
-640.668	-45.366	-0.065	-0.032
-639.653	19.803	-0.054	0.044
-638.638	-84.804	-0.102	-0.032
-637.624	800.000	-0.098	0.404
-636.609	-8.363	-0.254	-0.172
-635.595	-200.000	-0.002	-0.089
-634.580	76.605	0.050	0.053
-633.565	89.542	0.224	-0.251
-632.551	-90.625	0.135	-0.039
-631.536	800.000	0.122	-0.404
-630.522	-126.982	0.320	0.047
-629.507	-200.000	-0.002	0.021
-628.492	-200.000	-0.054	-0.502
-627.478	-112.492	0.077	0.015
-626.463	-47.056	-0.145	-0.071
-625.449	132.072	-0.356	-0.460
-624.434	-117.751	-0.339	-0.061
-623.419	-142.077	0.239	-0.024
-622.405	-194.323	0.121	0.001
-621.390	-200.000	-0.000	-0.203
-620.376	504.727	0.083	0.193
-619.361	-66.141	-0.234	-0.094
-618.346	-6.655	0.052	0.035
-617.332	-53.371	0.196	-0.090
-616.317	-200.000	-0.036	-0.265
-615.303	180.747	0.128	-0.189
-614.288	324.128	-0.074	0.141
-613.273	132.529	0.070	-0.091
-612.259	30.914	-0.195	0.168
-611.244	-50.051	0.268	0.127
-610.230	-132.224	-0.315	-0.041
-609.215	-65.808	0.098	-0.039
-608.201	97.451	-0.097	-0.111
-607.186	-71.695	-0.179	0.067
-606.171	191.824	-0.270	0.408
-605.157	219.085	0.061	0.098
-604.142	12.281	-0.275	0.213
-603.128	-97.295	0.126	0.033
-602.113	53.805	0.058	0.055
-601.098	-200.000	-0.004	0.059
-600.084	-114.989	-0.339	-0.065
-599.069	800.000	0.008	0.024
-598.055	-76.186	-0.229	0.081
-597.040	-40.432	-0.318	0.166
-596.025	194.204	0.133	-0.203
-595.011	0.126	0.275	0.197
-593.996	-200.000	-0.010	-0.122
-592.982	-61.392	0.166	-0.070
-591.967	470.234	0.064	0.144
-590.952	-86.667	0.042	0.013
-589.938	-200.000	0.010	-0.054
-588.923	-46.311	-0.140	-0.069
-587.909	-55.773	0.276	0.124
-586.894	164.116	0.157	-0.221
-585.879	350.893	0.046	-0.091
-584.865	-26.875	-0.137	-0.080
-583.850	531.884	-0.090	-0.213
-582.836	-58.034	-0.232	0.101
-581.821	-0.586	0.306	-0.218
-580.806	-143.209	-0.061	0.006
-579.792	-172.194	-0.158	-0.005
-578.777	-18.348	0.249	-0.156
-577.763	22.631	0.089	0.073
-576.748	-67.027	0.147	-0.058
-575.733	-84.954	0.312	0.098
-574.719	-10.458	0.251	0.167
-573.704	232.028	-0.163	-0.268
-572.690	-200.000	-0.014	-0.229
-571.675	211.046	-0.105	0.165
-570.661	-88.568	-0.213	-0.064
-569.646	298.198	-0.099	0.183
-568.631	-200.000	0.007	0.212
-567.617	650.183	0.057	0.146
-566.602	-82.859	-0.086	0.028
-565.588	117.575	-0.162	-0.200
-564.573	360.189	-0.108	0.216
-563.558	-200.000	-0.014	0.187
-562.544	-67.309	-0.280	0.110
-561.529	122.951	-0.104	-0.131
-560.515	296.400	0.025	-0.046
-559.500	-1.432	0.192	-0.135
-558.485	14.356	-0.194	-0.152
-557.471	109.538	0.275	-0.330
-556.456	1.014	0.146	0.105
-555.442	-33.536	-0.370	-0.204
-554.427	-200.000	0.009	0.461
-553.412	-5.000	0.238	0.164
-552.398	44.726	0.289	-0.266
-551.383	-98.318	-0.057	0.015
-550.369	114.508	0.018	0.022
-549.354	-21.166	0.210	0.129
-548.339	-87.050	-0.335	0.102
-547.325	425.335	-0.157	-0.338
-546.310	-200.000	0.048	0.213
-545.296	182.619	-0.093	-0.138
-544.281	168.077	-0.117	-0.167
-543.266	-105.512	-0.113	0.026
-542.252	-111.638	-0.472	-0.096
-541.237	-65.090	-0.318	-0.128
-540.223	-57.304	0.307	-0.135
-539.208	344.528	0.081	0.159
-538.193	85.218	0.109	0.119
-537.179	-11.197	-0.104	-0.069
-536.164	81.579	0.047	-0.050
-535.150	-200.000	-0.030	-0.312
-534.135	264.008	0.142	0.247
-533.121	-132.582	-0.026	0.003
-532.106	-82.042	0.175	0.057
-531.091	-100.775	-0.403	0.099
-530.077	408.589	0.100	0.211
-529.062	-200.000	-0.018	0.168
-528.048	800.000	0.088	0.289
-527.033	-200.000	0.044	0.357
-526.018	-22.261	-0.213	-0.129
-525.004	192.234	0.068	0.102
-523.989	42.112	-0.182	0.165
-522.975	-40.091	0.084	-0.044
-521.960	97.839	0.195	0.225
-520.945	222.213	-0.088	0.142
-519.931	-101.622	0.475	-0.115
-518.916	-200.000	0.005	-0.055
-517.902	-108.262	-0.063	-0.014
-516.887	190.022	0.052	-0.078
-515.872	181.240	0.085	-0.124
-514.858	9.973	-0.187	0.142
-513.843	-200.000	-0.103	0.479
-512.829	-93.075	-0.043	0.012
-511.814	-200.000	-0.021	0.162
-510.799	-200.000	0.065	0.353
-509.785	-162.534	-0.106	-0.005
-508.770	-82.578	-0.086	0.028
-507.756	-31.648	-0.226	0.127
-506.741	216.204	-0.022	0.034
-505.726	-200.000	0.001	0.135
-504.712	-86.009	-0.271	0.084
-503.697	602.825	0.015	-0.038
-502.683	800.000	-0.042	-0.161
-501.668	800.000	-0.079	-0.243
-500.653	221.788	0.083	-0.133
-499.639	-78.690	-0.170	0.058
-498.624	-58.189	-0.333	-0.145
-497.610	-135.233	-0.165	-0.020
-496.595	-12.445	-0.206	-0.134
-495.581	-200.000	0.035	-0.235
-494.566	88.097	-0.154	0.171
-493.551	-52.054	0.238	-0.111
-492.537	-200.000	0.033	-0.162
-491.522	11.825	-0.111	0.085
-490.508	-47.860	-0.027	0.013
-489.493	68.211	0.071	-0.073
-488.478	-200.000	0.008	-0.170
-487.464	25.163	-0.215	-0.178
-486.449	-142.530	-0.202	-0.020
-485.435	-40.807	0.153	-0.079
-484.420	-7.698	0.364	0.246
-483.405	-5.529	0.067	-0.046
-482.391	-77.354	-0.206	0.071
-481.376	141.640	-0.197	-0.260
-480.362	589.372	-0.207	-0.510
-479.347	160.744	-0.141	-0.197
-478.332	-7.946	0.262	-0.176
-477.318	172.441	-0.130	-0.187
-476.303	-200.000	-0.017	-0.129
-475.289	-200.000	-0.058	-0.460
-474.274	113.587	0.237	-0.288
-473.259	684.149	0.080	-0.209
-472.245	47.079	0.226	0.210
-471.230	-134.153	-0.037	-0.005
-470.216	-170.481	-0.237	0.008
-469.201	-132.565	-0.124	-0.016
-468.186	259.878	0.146	0.252
-467.172	-79.378	-0.200	-0.068
-466.157	-200.000	0.004	0.036
-465.143	-0.446	-0.144	-0.102
-464.128	800.000	0.080	-0.245
-463.113	-161.384	-0.144	-0.007
-462.099	-86.545	0.302	0.092
-461.084	-200.000	-0.003	-0.119
-460.070	24.403	0.220	-0.181
-459.055	30.014	-0.324	-0.276
-458.040	-73.992	0.232	-0.084
-457.026	-200.000	-0.027	0.168
-456.011	-89.744	0.197	-0.058
-454.997	37.676	0.297	0.263
-453.982	-21.111	0.163	-0.099
-452.968	718.590	0.062	-0.164
-451.953	800.000	0.116	-0.416
-450.938	45.746	-0.240	-0.221
-449.924	-200.000	0.021	0.298
-448.909	-147.069	-0.222	0.019
-447.895	-18.370	-0.278	0.173
-446.880	-56.996	0.130	0.057
-445.865	-146.159	0.072	-0.006
-444.851	-200.000	-0.029	0.189
-443.836	-200.000	-0.014	-0.140
-442.822	-42.753	-0.524	-0.266
-441.807	452.020	-0.015	-0.034
-440.792	636.398	0.145	0.367
-439.778	-152.859	0.058	-0.004
-438.763	-66.061	0.194	0.077
-437.749	480.943	-0.103	-0.232
-436.734	-29.827	-0.232	0.132
-435.719	231.831	0.131	0.214
-434.705	-22.991	-0.142	0.085
-433.690	-114.752	-0.092	0.018
-432.676	-200.000	0.014	-0.170
-431.661	73.460	0.136	-0.142
-430.646	-126.641	0.134	0.020
-429.632	-28.724	-0.216	0.124
-428.617	225.531	-0.087	-0.141
-427.603	-130.420	-0.026	-0.003
-426.588	800.000	0.057	0.189
-425.573	16.739	-0.213	-0.168
-424.559	-115.527	0.152	-0.028
-423.544	800.000	0.019	0.062
-422.530	-200.000	0.002	-0.157
-421.515	183.077	0.124	0.183
-420.500	-35.227	-0.160	0.087
-419.486	321.408	-0.128	0.243
-418.471	-1.012	0.232	0.164
-417.457	-108.404	-0.245	0.053
-416.442	800.000	-0.100	0.360
-415.428	42.362	-0.512	-0.463
-414.413	237.340	0.034	-0.056
-413.398	109.769	0.072	-0.086
-412.384	-36.224	0.251	-0.135
-411.369	-200.000	-0.004	-0.133
-410.355	-72.567	0.388	-0.142
-409.340	-72.948	-0.287	0.105
-408.325	-48.449	0.496	0.238
-407.311	-200.000	0.030	0.232
-406.296	44.188	0.159	-0.145
-405.282	-136.593	-0.226	-0.026
-404.267	5.627	-0.124	-0.091
-403.252	39.056	-0.082	-0.073
-402.238	-103.982	-0.323	-0.075
-401.223	-200.000	0.030	-0.264
-400.209	-52.905	-0.187	-0.086
-399.194	-106.976	0.312	0.069
-398.179	-19.127	-0.125	-0.077
-397.165	-56.541	0.253	-0.112
-396.150	-153.127	-0.304	0.021
-395.136	-74.989	0.114	0.041
-394.121	800.000	0.117	0.349
-393.106	800.000	0.074	-0.285
-392.092	800.000	-0.087	-0.284
-391.077	129.668	0.133	0.169
-390.063	303.105	0.046	-0.084
-389.048	-26.188	0.079	-0.046
-388.033	378.813	0.114	-0.231
-387.019	48.214	-0.140	0.130
-386.004	267.319	0.057	-0.100
-384.990	-200.000	0.035	0.242
-383.975	-130.748	-0.177	-0.024
-382.960	-37.074	0.152	-0.081
-381.946	-6.086	-0.085	0.058
-380.931	-64.622	-0.135	-0.054
-379.917	32.650	-0.144	0.124
-378.902	-26.342	0.339	0.198
-377.888	-130.813	-0.051	-0.007
-376.873	257.549	-0.026	0.044
-375.858	569.291	-0.115	0.279
-374.844	43.162	0.135	0.122
-373.829	283.834	-0.083	-0.149
-372.815	392.942	-0.140	0.290
-371.800	-28.585	0.084	-0.048
-370.785	-25.043	-0.181	0.107
-369.771	21.080	0.145	-0.117
-368.756	-200.000	0.022	0.379
-367.742	229.564	0.048	0.078
-366.727	-200.000	0.051	-0.300
-365.712	800.000	-0.055	-0.219
-364.698	-200.000	-0.023	0.247
-363.683	89.991	0.209	-0.233
-362.669	-160.185	0.123	0.007
-361.654	-200.000	-0.000	-0.106
-360.639	-184.330	-0.322	-0.005
-359.625	333.843	-0.088	-0.170
-358.610	-200.000	0.356	0.001
-357.596	441.411	0.088	-0.190
-356.581	-103.979	0.142	-0.033
-355.566	197.844	-0.207	0.314
-354.552	-53.617	-0.241	-0.110
-353.537	800.000	-0.101	0.425
-352.523	248.910	0.163	0.275
-351.508	-200.000	0.012	-0.211
-350.493	99.805	0.163	-0.188
-349.479	-200.000	-0.002	0.528
-348.464	-30.428	0.128	-0.072
-347.450	73.552	-0.260	0.270
-346.435	225.887	0.104	-0.168
-345.420	66.040	0.230	0.232
-344.406	158.281	-0.037	0.051
-343.391	39.566	0.026	-0.023
-342.377	-100.717	0.271	0.066
-341.362	-134.437	-0.010	-0.001
-340.348	-200.000	0.020	-0.230
-339.333	-29.713	0.477	0.270
-338.318	-200.000	-0.026	0.242
-337.304	800.000	-0.075	0.233
-336.289	800.000	-0.110	0.329
-335.275	39.504	-0.245	0.218
-334.260	40.364	-0.126	0.113
-333.245	-130.547	-0.264	-0.035
-332.231	-36.990	0.193	-0.103
-331.216	33.592	-0.135	-0.116
-330.202	-122.317	0.298	0.048
-329.187	177.059	0.214	-0.309
-328.172	800.000	0.047	0.159
-327.158	-85.080	-0.204	0.063
-326.143	-200.000	0.022	-0.264
-325.129	-200.000	0.075	0.332
-324.114	-45.151	0.181	0.089
-323.099	-138.848	0.555	0.060
-322.085	-86.942	0.133	-0.040
-321.070	800.000	-0.098	-0.316
-320.056	-76.697	-0.233	0.081
-319.041	45.401	0.148	-0.135
-318.026	258.050	0.135	0.230
-317.012	48.239	-0.220	-0.204
-315.997	-131.592	0.272	-0.036
-314.983	-177.374	0.116	-0.003
-313.968	283.487	-0.028	-0.050
-312.953	-67.770	-0.138	0.053
-311.939	-104.444	0.128	0.029
-310.924	600.154	-0.073	0.181
-309.910	-80.422	0.209	0.069
-308.895	208.668	-0.043	-0.067
-307.880	387.676	0.188	0.386
-306.866	-118.086	0.392	0.069
-305.851	505.900	-0.091	-0.208
-304.837	238.577	0.158	0.260
-303.822	-200.000	-0.012	0.179
-302.807	-146.385	0.175	-0.015
-301.793	800.000	0.096	0.325
-300.778	418.297	0.075	-0.160
-299.764	-43.616	0.134	-0.067
-298.749	-200.000	-0.010	-0.140
-297.735	-100.982	0.282	0.069
-296.720	-112.033	0.210	-0.042
-295.705	-125.817	0.309	-0.046
-294.691	800.000	0.033	-0.106
-293.676	-200.000	0.012	0.074
-292.662	291.127	-0.040	0.072
-291.647	195.413	0.056	-0.084
-290.632	-95.052	-0.259	-0.069
-289.618	-146.142	0.369	-0.032
-288.603	-112.069	-0.212	-0.042
-287.589	74.321	0.183	-0.191
-286.574	225.224	0.078	0.125
-285.559	-82.690	0.289	0.093
-284.545	-200.000	0.023	-0.386
-283.530	-51.840	0.174	-0.080
-282.516	800.000	0.026	0.107
-281.501	22.248	-0.125	-0.101
-280.486	-29.415	0.305	0.173
-279.472	-41.643	-0.335	0.171
-278.457	212.066	-0.128	0.199
-277.443	-108.651	0.271	0.058
-276.428	14.795	0.054	-0.042
-275.413	140.685	-0.122	0.159
-274.399	-49.224	0.255	0.121
-273.384	-128.697	0.223	-0.031
-272.370	-200.000	-0.005	0.128
-271.355	-105.074	0.312	-0.071
-270.340	-106.122	-0.171	-0.038
-269.326	-24.769	-0.191	-0.112
-268.311	38.458	-0.164	-0.144
-267.297	800.000	-0.071	-0.217
-266.282	52.264	-0.288	-0.272
-265.267	-137.502	0.105	-0.012
-264.253	-120.556	0.112	-0.019
-263.238	-152.829	-0.456	0.032
-262.224	-19.473	-0.202	0.124
-261.209	81.002	-0.188	0.201
-260.195	-200.000	0.037	0.302
-259.180	30.601	0.301	0.255
-258.165	121.922	-0.202	0.249
-257.151	258.202	0.036	-0.061
-256.136	48.170	0.192	-0.177
-255.122	-200.000	-0.016	-0.129
-254.107	-103.302	-0.449	-0.105
-253.092	100.002	-0.084	0.097
-252.078	-65.377	0.057	-0.023
-251.063	-15.664	-0.494	-0.312
-250.049	6.654	0.215	0.158
-249.034	512.187	-0.098	0.226
-248.019	-95.619	0.175	0.046
-247.005	-175.914	-0.291	0.008
-245.990	442.460	0.123	-0.267
-244.976	-200.000	-0.048	-0.254
-243.961	173.350	0.084	-0.120
-242.946	65.840	0.147	-0.147
-241.932	800.000	0.074	0.281
-240.917	-200.000	-0.005	0.080
-239.903	512.203	0.186	0.429
-238.888	800.000	-0.048	-0.199
-237.873	-105.822	-0.071	-0.016
-236.859	158.142	-0.121	-0.166
-235.844	-200.000	-0.014	-0.175
-234.830	800.000	0.055	0.205
-233.815	164.298	-0.310	0.433
-232.800	-200.000	-0.008	0.078
-231.786	800.000	-0.035	-0.107
-230.771	-200.000	-0.016	0.085
-229.757	226.463	-0.122	-0.196
-228.742	104.934	-0.146	-0.170
-227.727	-20.053	0.176	-0.108
-226.713	64.501	-0.099	0.099
-225.698	-83.978	-0.187	0.059
-224.684	-87.146	0.113	-0.034
-223.669	-32.928	0.477	-0.262
-222.655	-63.355	-0.383	0.156
-221.640	-200.000	-0.018	0.079
-220.625	-200.000	-0.034	-0.149
-219.611	49.636	0.123	0.114
-218.596	800.000	0.138	-0.380
-217.582	213.325	0.066	-0.103
-216.567	-29.280	-0.108	-0.061
-215.552	-200.000	0.007	0.336
-214.538	-98.729	0.527	-0.133
-213.523	-79.892	-0.081	0.027
-212.509	183.879	0.180	-0.264
-211.494	-53.863	-0.248	0.112
-210.479	800.000	0.051	0.171
-209.465	-200.000	0.055	-0.282
-208.450	568.220	-0.105	-0.252
-207.436	5.360	0.104	-0.076
-206.421	800.000	-0.081	-0.337
-205.406	-200.000	-0.023	0.167
-204.392	800.000	-0.030	-0.110
-203.377	228.611	0.145	-0.234
-202.363	-115.686	-0.289	-0.053
-201.348	-200.000	-0.023	-0.183
-200.333	-78.347	-0.164	-0.056
-199.319	-101.168	0.236	0.057
-198.304	187.094	0.073	-0.107
-197.290	-26.166	0.051	0.030
-196.275	-200.000	0.004	-0.326
-195.260	16.197	0.166	0.129
-194.246	-165.269	0.323	0.014
-193.231	-90.595	-0.096	0.027
-192.217	-157.118	-0.115	0.007
-191.202	63.602	-0.043	-0.042
-190.187	-131.704	-0.093	-0.012
-189.173	-121.474	-0.213	-0.035
-188.158	5.379	-0.249	-0.181
-187.144	-90.822	0.298	0.085
-186.129	-82.597	-0.129	-0.041
-185.114	366.252	-0.184	0.367
-184.100	-83.504	-0.091	-0.029
-183.085	-156.009	-0.367	0.023
-182.071	-200.000	0.036	0.318
-181.056	233.134	0.254	0.412
-180.042	30.073	-0.124	-0.105
-179.027	-78.738	-0.276	0.093
-178.012	43.766	0.039	0.035
-176.998	-200.000	0.018	0.342
-175.983	575.510	-0.146	0.352
-174.969	-43.860	0.329	-0.163
-173.954	-97.542	0.324	0.083
-172.939	518.419	-0.097	-0.224
-171.925	206.611	0.346	0.531
-170.910	-200.000	0.019	-0.351
-169.896	-147.075	0.173	0.015
-168.881	-71.655	0.386	-0.142
-167.866	-10.330	0.167	0.109
-166.852	-200.000	-0.019	-0.259
-165.837	201.065	-0.118	0.179
-164.823	10.247	-0.268	0.201
-163.808	800.000	-0.071	0.196
-162.793	-19.639	-0.042	0.025
-161.779	-130.268	0.241	-0.032
-160.764	-14.202	-0.112	-0.071
-159.750	154.362	-0.045	0.061
-158.735	-55.726	0.191	-0.084
-157.720	-200.000	0.016	0.274
-156.706	111.483	0.051	0.060
-155.691	206.135	-0.231	0.354
-154.677	-200.000	-0.076	-0.350
-153.662	-170.129	-0.354	-0.012
-152.647	-114.341	-0.245	0.047
-151.633	-159.252	0.261	-0.014
-150.618	800.000	-0.114	-0.318
-149.604	-52.079	0.156	0.072
-148.589	-200.000	-0.025	-0.398
-147.574	-147.673	0.173	0.014
-146.560	-200.000	-0.049	0.267
-145.545	-46.867	0.071	0.034
-144.531	-200.000	0.016	-0.136
-143.516	-17.396	0.139	0.086
-142.502	280.488	-0.184	0.325
-141.487	-200.000	0.038	0.381
-140.472	415.709	-0.053	-0.111
-139.458	-200.000	0.000	0.023
-138.443	-55.904	-0.229	-0.101
-137.429	-200.000	0.085	-0.386
-136.414	121.582	0.115	-0.141
-135.399	145.199	-0.127	-0.168
-134.385	-182.765	0.226	-0.004
-133.370	93.613	0.096	0.107
-132.356	269.766	0.114	0.196
-131.341	353.382	0.016	0.032
-130.326	21.705	-0.192	0.154
-129.312	95.125	0.322	0.362
-128.297	582.223	-0.155	-0.375
-127.283	264.571	0.174	-0.299
-126.268	543.783	0.114	-0.267
-125.253	89.218	0.188	-0.206
-124.239	-184.226	-0.072	0.001
-123.224	-48.673	-0.345	0.163
-122.210	3.796	0.078	0.056
