DTS Sentinel unit serial number:	SN413079Multiplexer serial number:	ORYXHardware model number:	OX4-SRSoftware version number:	ORYX F/W v4.00 Oryx Data Collector v3.7.2.0data status	okinstallation	princeton_trtdifferential loss correction	single-endedforward channel	channel 1reverse channel	N/Adate	2019/09/17time	15:06:36forward acquisition time	60.00reverse acquisition time	0.00gamma	496.2192k internal	0.2295k external	0.2295temperature offset calibration	0.9969default loss term (dB/km)	0.3790temperature slope calibration	1.0000multiplexer offset coefficient	1.0000multiplexer slope coefficient	1.0000fibre end	0.00T internal ref (°C)	37.56T ext. ref 1 (°C)	0.38T ext. ref 2 (°C)	34.21length (m)	temperature (°C)	Stokes	anti-Stokes-747.200	-200.000	-0.037	-0.209
-746.185	-28.988	-0.154	0.090
-745.171	-200.000	-0.315	-0.001
-744.156	-200.000	0.006	0.282
-743.142	134.119	-0.180	0.238
-742.127	443.727	-0.083	0.186
-741.112	-50.854	-0.049	-0.023
-740.098	-114.724	0.268	0.052
-739.083	-40.789	0.167	0.088
-738.069	764.947	-0.093	0.259
-737.054	427.429	-0.043	0.094
-736.039	-200.000	0.003	-0.277
-735.025	13.786	0.167	0.133
-734.010	-169.293	-0.545	0.021
-732.996	-148.785	-0.040	-0.003
-731.981	436.044	0.121	0.269
-730.966	-200.000	-0.022	0.100
-729.952	-200.000	0.074	0.363
-728.937	-44.378	-0.243	0.124
-727.923	-128.740	-0.413	-0.060
-726.908	459.540	0.078	-0.177
-725.894	-92.083	-0.269	0.078
-724.879	-38.861	0.056	0.030
-723.864	-142.789	0.102	0.010
-722.850	613.947	-0.105	0.267
-721.835	54.773	0.336	0.331
-720.821	64.140	-0.292	0.300
-719.806	-61.006	0.113	-0.049
-718.791	-119.875	-0.170	-0.030
-717.777	76.814	-0.120	0.131
-716.762	-200.000	0.017	-0.233
-715.748	-118.770	-0.531	0.096
-714.733	-200.000	-0.050	0.260
-713.718	-13.674	-0.113	-0.075
-712.704	-49.544	0.393	-0.191
-711.689	33.521	-0.374	-0.332
-710.675	0.867	0.170	0.125
-709.660	786.984	0.071	-0.199
-708.645	800.000	0.094	-0.305
-707.631	-59.671	-0.157	0.069
-706.616	572.444	0.048	-0.121
-705.602	-28.756	-0.194	0.114
-704.587	130.902	0.214	-0.280
-703.572	120.496	0.098	0.125
-702.558	20.673	-0.313	0.259
-701.543	228.171	0.040	0.066
-700.529	-137.702	-0.230	0.026
-699.514	-71.555	-0.142	-0.054
-698.499	-41.964	0.165	0.087
-697.485	-200.000	0.025	-0.245
-696.470	-4.089	0.201	0.142
-695.456	80.050	0.174	-0.191
-694.441	49.558	-0.141	0.136
-693.426	-200.000	0.037	-0.277
-692.412	-130.592	-0.118	-0.016
-691.397	-46.006	-0.083	-0.042
-690.383	-158.594	0.229	-0.013
-689.368	132.545	-0.199	-0.262
-688.354	800.000	0.116	-0.457
-687.339	-200.000	-0.022	-0.145
-686.324	-40.892	-0.215	0.113
-685.310	39.641	0.043	0.039
-684.295	-73.778	0.108	-0.040
-683.281	169.923	0.201	-0.293
-682.266	395.481	-0.077	0.163
-681.251	-0.553	-0.091	0.066
-680.237	37.186	0.033	-0.030
-679.222	-61.551	-0.133	-0.057
-678.208	-143.750	-0.188	0.018
-677.193	68.292	0.196	-0.205
-676.178	29.410	0.083	-0.072
-675.164	231.862	-0.083	-0.138
-674.149	-152.823	-0.149	0.011
-673.135	-200.000	-0.013	0.199
-672.120	-167.974	-0.099	0.004
-671.105	8.821	-0.107	-0.082
-670.091	784.813	0.075	0.208
-669.076	753.980	-0.039	0.107
-668.062	-200.000	-0.004	0.043
-667.047	-15.671	-0.155	-0.101
-666.032	-200.000	-0.064	0.306
-665.018	198.742	0.143	-0.222
-664.003	-179.521	0.263	-0.006
-662.989	-47.334	0.157	-0.078
-661.974	-200.000	0.004	-0.187
-660.959	-71.254	0.056	0.022
-659.945	486.472	0.155	-0.361
-658.930	-82.849	-0.245	-0.081
-657.916	-150.601	-0.196	-0.015
-656.901	337.127	-0.048	-0.095
-655.886	171.615	-0.109	-0.159
-654.872	-1.669	-0.161	-0.116
-653.857	-200.000	-0.005	0.154
-652.843	-89.864	0.049	0.015
-651.828	-200.000	0.034	-0.199
-650.814	-111.580	-0.227	0.047
-649.799	-200.000	-0.026	-0.246
-648.784	-116.621	-0.094	0.018
-647.770	124.627	-0.112	-0.144
-646.755	27.648	-0.197	0.169
-645.741	42.689	-0.046	0.042
-644.726	-200.000	0.028	0.156
-643.711	-48.963	0.252	-0.123
-642.697	-138.571	-0.079	0.009
-641.682	-85.982	0.098	-0.031
-640.668	368.710	-0.051	-0.106
-639.653	251.036	0.037	0.064
-638.638	0.391	-0.284	0.206
-637.624	-120.591	-0.111	0.019
-636.609	-200.000	0.008	-0.143
-635.595	81.620	-0.118	0.130
-634.580	-200.000	0.012	-0.128
-633.565	41.167	0.016	0.015
-632.551	154.865	0.033	0.045
-631.536	65.651	0.198	-0.204
-630.522	82.853	-0.190	-0.211
-629.507	-37.402	0.150	0.081
-628.492	126.493	0.194	-0.250
-627.478	221.144	-0.080	-0.130
-626.463	113.324	-0.341	-0.421
-625.449	800.000	-0.099	0.299
-624.434	0.642	0.105	-0.077
-623.419	-10.880	-0.088	0.059
-622.405	13.883	0.157	-0.125
-621.390	-200.000	-0.081	-0.450
-620.376	-133.966	0.515	-0.065
-619.361	-93.091	-0.053	-0.015
-618.346	-200.000	-0.026	0.315
-617.332	-83.762	0.251	0.081
-616.317	225.829	0.088	0.145
-615.303	-200.000	0.023	-0.114
-614.288	-200.000	0.027	-0.245
-613.273	800.000	0.022	-0.094
-612.259	13.276	-0.152	-0.120
-611.244	-200.000	0.022	-0.163
-610.230	42.976	-0.086	0.079
-609.215	-116.121	-0.375	0.071
-608.201	-39.616	-0.355	0.189
-607.186	177.373	-0.064	0.095
-606.171	16.352	0.083	-0.066
-605.157	-85.025	0.185	-0.059
-604.142	128.882	-0.292	-0.379
-603.128	-200.000	-0.076	-0.351
-602.113	800.000	-0.025	-0.097
-601.098	-185.439	0.033	0.001
-600.084	-72.241	0.206	-0.078
-599.069	-18.565	-0.026	0.017
-598.055	-163.696	-0.398	0.019
-597.040	195.468	-0.096	-0.148
-596.025	800.000	-0.100	0.321
-595.011	800.000	-0.037	-0.153
-593.996	109.267	-0.134	0.164
-592.982	-32.475	-0.213	0.121
-591.967	-200.000	0.003	0.078
-590.952	-70.434	0.107	-0.041
-589.938	325.883	0.196	-0.382
-588.923	0.812	-0.034	0.025
-587.909	47.612	-0.222	0.210
-586.894	194.250	-0.046	0.071
-585.879	214.667	0.148	0.238
-584.865	800.000	0.006	0.021
-583.850	-56.408	-0.141	-0.063
-582.836	432.695	0.052	-0.116
-581.821	82.901	0.104	0.115
-580.806	-44.093	0.234	0.119
-579.792	-132.604	0.094	0.012
-578.777	-94.949	-0.127	0.035
-577.763	-34.384	0.121	-0.067
-576.748	334.556	0.067	0.132
-575.733	-30.347	0.207	-0.120
-574.719	-73.175	0.264	-0.098
-573.704	293.177	-0.124	-0.229
-572.690	-62.915	-0.399	-0.168
-571.675	107.238	-0.199	0.241
-570.661	-125.411	0.354	0.055
-569.646	-81.772	0.253	-0.084
-568.631	427.092	-0.120	0.263
-567.617	-47.359	0.369	-0.182
-566.602	321.042	-0.117	-0.225
-565.588	150.520	-0.045	-0.062
-564.573	-104.243	-0.106	-0.025
-563.558	-2.292	0.144	0.102
-562.544	311.046	-0.119	0.226
-561.529	-200.000	0.030	0.181
-560.515	-157.769	0.036	0.002
-559.500	-37.675	-0.074	0.040
-558.485	-27.690	-0.227	0.134
-557.471	-53.327	-0.269	0.125
-556.456	-21.362	0.092	0.057
-555.442	21.576	0.342	0.283
-554.427	89.839	-0.123	0.140
-553.412	-200.000	-0.026	-0.275
-552.398	-200.000	0.029	-0.175
-551.383	-154.656	-0.315	0.021
-550.369	-141.476	-0.098	-0.010
-549.354	-90.576	0.250	-0.073
-548.339	-200.000	-0.044	-0.356
-547.325	316.076	0.037	-0.070
-546.310	-200.000	-0.056	-0.334
-545.296	-125.706	-0.330	-0.051
-544.281	-200.000	-0.014	0.351
-543.266	-41.468	0.178	-0.093
-542.252	-161.074	0.180	-0.010
-541.237	306.610	-0.144	-0.273
-540.223	-200.000	0.045	0.359
-539.208	244.945	0.073	0.125
-538.193	-184.995	-0.181	0.003
-537.179	147.136	0.081	-0.110
-536.164	-74.027	0.277	-0.102
-535.150	-200.000	0.007	0.303
-534.135	-121.901	0.182	-0.030
-533.121	-123.980	0.301	-0.048
-532.106	177.593	-0.120	-0.177
-531.091	-200.000	-0.006	-0.233
-530.077	800.000	0.025	-0.101
-529.062	-30.792	-0.147	0.084
-528.048	-133.874	0.208	-0.026
-527.033	-200.000	-0.039	-0.272
-526.018	-42.304	-0.161	0.083
-525.004	275.583	0.122	-0.219
-523.989	86.854	0.099	-0.111
-522.975	281.844	0.233	0.424
-521.960	-17.078	-0.165	-0.105
-520.945	-200.000	0.013	-0.545
-519.931	-96.179	0.600	-0.162
-518.916	-108.683	-0.293	0.064
-517.902	-162.159	-0.259	-0.013
-516.887	202.561	-0.156	0.243
-515.872	-200.000	0.012	-0.055
-514.858	35.098	-0.260	0.231
-513.843	800.000	-0.092	-0.269
-512.829	-28.563	0.091	-0.053
-511.814	800.000	-0.072	0.283
-510.799	127.817	0.204	-0.263
-509.785	245.721	0.119	0.203
-508.770	-98.028	-0.539	-0.141
-507.756	374.830	0.128	-0.265
-506.741	-137.963	-0.433	-0.049
-505.726	-104.452	-0.401	-0.094
-504.712	-200.000	0.086	0.461
-503.697	-15.833	0.299	0.193
-502.683	70.880	0.168	0.176
-501.668	-3.765	-0.246	-0.173
-500.653	-200.000	-0.001	-0.009
-499.639	80.610	-0.177	0.193
-498.624	-200.000	-0.010	-0.329
-497.610	-200.000	-0.030	0.172
-496.595	19.489	-0.342	-0.278
-495.581	-76.667	-0.077	-0.027
-494.566	-88.841	-0.067	0.020
-493.551	28.401	0.375	-0.321
-492.537	-65.660	0.155	0.063
-491.522	51.913	0.290	-0.280
-490.508	-53.490	-0.034	-0.016
-489.493	-200.000	-0.004	0.176
-488.478	-200.000	0.004	-0.070
-487.464	-131.916	0.199	0.026
-486.449	104.310	-0.266	-0.317
-485.435	-66.192	0.082	0.033
-484.420	800.000	0.058	0.222
-483.405	-200.000	-0.009	0.113
-482.391	6.494	0.280	-0.211
-481.376	170.871	-0.153	-0.221
-480.362	-1.092	0.250	-0.179
-479.347	216.352	-0.093	-0.149
-478.332	135.129	-0.196	0.257
-477.318	-200.000	0.004	0.044
-476.303	800.000	0.039	0.119
-475.289	-77.501	-0.199	0.070
-474.274	-200.000	-0.031	0.140
-473.259	170.470	0.109	-0.157
-472.245	573.748	-0.108	-0.267
-471.230	306.836	0.047	-0.089
-470.216	509.197	-0.138	-0.323
-469.201	10.813	0.264	0.204
-468.186	800.000	0.043	0.155
-467.172	-165.430	-0.079	0.003
-466.157	262.356	0.147	-0.258
-465.143	-79.672	-0.141	0.048
-464.128	346.207	0.202	0.402
-463.113	-200.000	-0.056	-0.388
-462.099	65.395	-0.130	0.133
-461.084	-140.310	-0.209	-0.022
-460.070	-200.000	-0.042	0.359
-459.055	201.371	0.149	0.232
-458.040	-112.838	0.316	0.063
-457.026	279.194	-0.195	0.351
-456.011	800.000	-0.040	0.119
-454.997	-108.644	-0.100	-0.022
-453.982	-200.000	-0.013	-0.082
-452.968	-42.884	-0.085	-0.044
-451.953	-200.000	0.021	-0.492
-450.938	-25.254	0.146	0.088
-449.924	-177.010	0.168	-0.004
-448.909	800.000	0.060	0.209
-447.895	-100.018	-0.307	-0.077
-446.880	800.000	0.040	-0.116
-445.865	-24.253	-0.213	0.128
-444.851	-200.000	-0.016	-0.087
-443.836	-74.398	0.150	0.055
-442.822	-200.000	-0.032	-0.155
-441.807	-155.061	0.271	-0.018
-440.792	221.126	0.021	0.034
-439.778	-32.225	-0.018	0.010
-438.763	-82.782	-0.119	-0.039
-437.749	51.215	0.521	-0.500
-436.734	-200.000	0.013	-0.276
-435.719	3.175	0.150	-0.110
-434.705	800.000	-0.072	-0.204
-433.690	800.000	0.084	0.334
-432.676	-200.000	0.022	0.180
-431.661	-96.420	-0.338	0.090
-430.646	-126.800	0.263	0.039
-429.632	1.567	0.181	-0.131
-428.617	-200.000	-0.013	-0.083
-427.603	225.466	-0.148	0.242
-426.588	-200.000	-0.024	-0.173
-425.573	188.462	0.058	0.088
-424.559	800.000	-0.032	-0.093
-423.544	-38.486	0.277	0.148
-422.530	1.637	-0.213	-0.155
-421.515	-91.863	0.174	0.050
-420.500	219.019	-0.058	-0.094
-419.486	-130.085	0.265	-0.036
-418.471	-49.629	0.315	-0.151
-417.457	800.000	-0.097	0.309
-416.442	800.000	-0.015	-0.065
-415.428	153.750	-0.123	0.169
-414.413	-99.018	-0.115	0.029
-413.398	800.000	0.050	0.143
-412.384	315.669	0.049	-0.094
-411.369	-65.028	0.187	-0.076
-410.355	-102.481	-0.291	-0.070
-409.340	-86.109	0.169	-0.053
-408.325	198.654	0.184	-0.284
-407.311	297.789	-0.077	0.143
-406.296	800.000	-0.095	-0.286
-405.282	-200.000	-0.030	-0.466
-404.267	-200.000	0.010	-0.268
-403.252	-117.815	-0.140	0.025
-402.238	-1.725	0.084	-0.060
-401.223	54.891	0.072	0.070
-400.209	-110.231	-0.250	-0.052
-399.194	84.417	0.327	0.361
-398.179	-176.787	-0.292	0.007
-397.165	121.932	0.227	-0.286
-396.150	8.563	0.295	0.224
-395.136	-192.547	0.146	0.001
-394.121	134.140	-0.351	-0.459
-393.106	-200.000	0.003	0.207
-392.092	24.864	0.242	0.202
-391.077	-167.311	0.246	0.010
-390.063	-64.106	0.010	0.004
-389.048	219.810	0.089	-0.144
-388.033	242.980	0.124	-0.210
-387.019	-31.362	-0.080	-0.045
-386.004	-200.000	0.013	0.269
-384.990	-7.357	-0.273	0.186
-383.975	491.234	0.113	0.261
-382.960	-93.398	0.079	-0.022
-381.946	310.959	-0.116	0.219
-380.931	94.064	-0.094	0.108
-379.917	239.991	0.100	-0.169
-378.902	-22.610	0.135	0.082
-377.888	179.136	-0.021	-0.031
-376.873	-122.058	0.215	0.036
-375.858	196.420	-0.172	0.264
-374.844	-200.000	0.034	-0.284
-373.829	36.099	-0.265	0.235
-372.815	800.000	-0.048	-0.140
-371.800	-51.238	0.135	0.064
-370.785	-134.639	0.279	-0.034
-369.771	-200.000	0.009	-0.273
-368.756	-200.000	0.054	0.472
-367.742	-200.000	-0.105	0.614
-366.727	800.000	-0.006	-0.023
-365.712	174.208	0.184	-0.268
-364.698	-59.528	0.290	-0.125
-363.683	-200.000	-0.015	-0.092
-362.669	-200.000	-0.026	0.133
-361.654	-18.953	-0.169	-0.106
-360.639	-84.265	-0.293	-0.094
-359.625	-136.524	0.149	-0.017
-358.610	126.040	0.048	-0.061
-357.596	517.380	-0.038	-0.091
-356.581	551.071	0.031	-0.075
-355.566	-200.000	0.023	-0.137
-354.552	-200.000	0.021	-0.178
-353.537	-200.000	0.030	0.164
-352.523	166.745	-0.093	-0.132
-351.508	-104.589	0.034	0.008
-350.493	202.883	0.017	0.027
-349.479	-200.000	0.006	-0.084
-348.464	-56.801	-0.200	0.089
-347.450	-104.615	-0.214	-0.050
-346.435	-146.002	-0.041	-0.004
-345.420	-2.241	0.135	0.095
-344.406	-82.950	-0.173	0.056
-343.391	120.275	0.013	0.016
-342.377	737.791	-0.089	0.240
-341.362	-111.131	0.193	0.040
-340.348	-169.058	0.147	0.006
-339.333	-149.518	-0.366	-0.029
-338.318	800.000	-0.132	-0.432
-337.304	-200.000	0.044	0.246
-336.289	-128.267	-0.374	0.054
-335.275	800.000	0.063	0.177
-334.260	258.678	0.101	0.175
-333.245	293.400	0.075	0.138
-332.231	305.973	-0.119	0.222
-331.216	800.000	0.046	0.194
-330.202	-65.466	-0.161	-0.065
-329.187	-200.000	0.021	-0.137
-328.172	502.938	0.128	0.298
-327.158	-200.000	-0.032	-0.154
-326.143	754.871	0.129	0.352
-325.129	800.000	-0.049	0.186
-324.114	-200.000	0.059	-0.272
-323.099	73.701	-0.220	-0.232
-322.085	-200.000	-0.015	-0.268
-321.070	618.619	-0.081	-0.205
-320.056	-40.952	0.099	-0.052
-319.041	-200.000	0.027	-0.122
-318.026	800.000	0.010	0.043
-317.012	285.384	0.055	0.100
-315.997	-200.000	0.018	0.253
-314.983	103.796	0.159	0.188
-313.968	-138.049	-0.126	0.014
-312.953	24.136	0.282	0.234
-311.939	-200.000	0.009	0.276
-310.924	800.000	0.074	0.313
-309.910	800.000	-0.075	-0.266
-308.895	340.677	0.173	-0.340
-307.880	654.139	0.102	0.262
-306.866	-200.000	-0.007	0.072
-305.851	800.000	-0.018	-0.061
-304.837	60.255	-0.157	0.156
-303.822	6.313	-0.305	0.228
-302.807	-200.000	0.023	0.236
-301.793	800.000	0.017	0.059
-300.778	-157.183	0.162	-0.010
-299.764	16.714	0.160	0.127
-298.749	32.312	0.186	0.161
-297.735	243.689	0.143	-0.240
-296.720	3.732	-0.255	0.187
-295.705	-53.451	0.147	-0.068
-294.691	800.000	0.042	0.162
-293.676	-143.150	0.205	-0.020
-292.662	-99.536	-0.122	-0.031
-291.647	226.336	-0.006	-0.009
-290.632	145.081	0.109	0.146
-289.618	800.000	0.032	-0.098
-288.603	-60.147	-0.144	-0.062
-287.589	52.642	0.114	-0.109
-286.574	-88.212	0.048	-0.014
-285.559	800.000	0.058	0.162
-284.545	800.000	-0.030	0.126
-283.530	70.416	0.050	-0.052
-282.516	16.000	0.223	0.176
-281.501	-52.939	-0.042	-0.020
-280.486	-200.000	-0.022	-0.106
-279.472	11.322	0.264	0.203
-278.457	-165.673	0.015	0.001
-277.443	-62.357	0.333	0.139
-276.428	550.779	0.079	0.190
-275.413	480.273	-0.088	-0.201
-274.399	-113.919	0.232	-0.045
-273.384	800.000	0.034	0.119
-272.370	-44.548	-0.093	-0.047
-271.355	270.254	-0.169	-0.298
-270.340	45.350	-0.077	0.071
-269.326	-57.773	-0.358	0.157
-268.311	-124.836	0.241	0.037
-267.297	-46.167	0.078	-0.039
-266.282	75.846	0.089	0.094
-265.267	800.000	0.067	0.192
-264.253	256.214	-0.180	0.310
-263.238	-136.024	-0.168	0.020
-262.224	109.558	0.207	0.249
-261.209	60.705	-0.076	0.076
-260.195	-61.140	0.127	-0.054
-259.180	94.146	0.112	-0.127
-258.165	-9.900	-0.138	0.092
-257.151	50.757	0.104	-0.099
-256.136	15.324	0.051	-0.040
-255.122	0.600	0.128	0.092
-254.107	4.656	0.148	0.109
-253.092	128.688	0.084	-0.107
-252.078	376.340	-0.089	0.181
-251.063	41.818	-0.268	0.244
-250.049	279.161	0.060	0.107
-249.034	-114.253	-0.056	-0.011
-248.019	18.699	-0.322	0.258
-247.005	-200.000	-0.023	0.462
-245.990	800.000	-0.022	0.076
-244.976	-149.170	-0.218	-0.017
-243.961	-109.732	0.086	-0.018
-242.946	-200.000	0.000	0.178
-241.932	800.000	-0.020	-0.065
-240.917	-142.734	-0.425	-0.042
-239.903	-99.257	0.221	-0.056
-238.888	-76.632	0.249	0.088
-237.873	185.492	0.206	-0.307
-236.859	-200.000	0.030	0.137
-235.844	-200.000	-0.013	-0.351
-234.830	800.000	-0.068	0.267
-233.815	-67.561	0.055	0.022
-232.800	341.128	-0.135	-0.264
-231.786	164.972	0.076	0.108
-230.771	40.347	-0.118	0.106
-229.757	-84.530	0.508	-0.161
-228.742	460.184	-0.043	-0.095
-227.727	-200.000	-0.008	-0.104
-226.713	74.815	-0.147	0.155
-225.698	-200.000	-0.006	0.146
-224.684	-3.090	0.178	0.124
-223.669	3.752	-0.236	-0.172
-222.655	182.952	0.088	-0.130
-221.640	-16.998	0.311	0.197
-220.625	-200.000	0.008	-0.076
-219.611	117.609	0.146	-0.180
-218.596	19.477	0.039	0.031
-217.582	800.000	0.065	-0.252
-216.567	800.000	0.086	0.322
-215.552	-127.813	-0.262	0.038
-214.538	574.881	0.080	-0.195
-213.523	-200.000	0.027	0.124
-212.509	39.950	0.215	0.193
-211.494	-200.000	-0.001	0.434
-210.479	-104.239	-0.207	-0.048
-209.465	-113.182	-0.466	0.092
-208.450	7.871	-0.150	0.112
-207.436	-69.888	-0.337	0.129
-206.421	-200.000	-0.023	-0.246
-205.406	179.982	0.206	-0.302
-204.392	-53.572	0.194	-0.089
-203.377	-92.924	-0.257	-0.072
-202.363	800.000	0.084	-0.278
-201.348	-43.831	-0.160	0.081
-200.333	-173.686	0.292	-0.009
-199.319	51.031	-0.071	-0.067
-198.304	91.919	0.157	-0.177
-197.290	-200.000	-0.006	0.274
-196.275	-122.660	-0.393	0.064
-195.260	-94.292	-0.166	0.045
-194.246	-17.009	0.169	0.107
-193.231	-83.826	0.139	0.044
-192.217	-47.182	0.275	0.134
-191.202	162.267	0.079	0.111
-190.187	16.610	-0.132	-0.105
-189.173	494.704	0.058	0.132
-188.158	-154.531	-0.369	0.025
-187.144	-48.092	0.099	0.048
-186.129	-126.613	-0.381	0.056
-185.114	-200.000	0.000	-0.220
-184.100	-133.710	-0.190	-0.024
-183.085	-14.192	-0.198	0.128
-182.071	-106.794	-0.083	-0.019
-181.056	-135.989	-0.098	0.012
-180.042	84.092	0.186	-0.203
-179.027	-200.000	-0.004	0.244
-178.012	-200.000	-0.021	-0.204
-176.998	197.398	0.227	0.346
-175.983	-200.000	-0.012	0.076
-174.969	21.871	-0.298	-0.243
-173.954	320.301	-0.029	-0.054
-172.939	41.394	0.118	0.107
-171.925	-66.391	-0.188	-0.075
-170.910	-141.813	-0.134	-0.013
-169.896	-200.000	0.003	-0.087
-168.881	477.815	0.104	-0.236
-167.866	135.981	0.070	0.091
-166.852	-61.464	0.049	0.020
-165.837	185.019	-0.072	-0.107
-164.823	-45.033	0.177	-0.088
-163.808	-70.347	0.069	0.026
-162.793	54.534	-0.287	-0.277
-161.779	-172.450	-0.113	0.004
-160.764	748.619	-0.040	0.108
-159.750	-150.930	-0.172	0.013
-158.735	2.248	-0.127	0.092
-157.720	-12.183	-0.333	-0.218
-156.706	-45.564	0.186	0.092
-155.691	-87.459	0.286	0.086
-154.677	15.282	-0.131	0.103
-153.662	-19.995	-0.272	-0.168
-152.647	337.495	0.026	-0.050
-151.633	-135.509	0.231	-0.027
-150.618	-200.000	-0.000	-0.153
-149.604	11.653	-0.160	0.122
-148.589	54.117	0.204	0.196
-147.574	-83.059	0.117	-0.038
-146.560	800.000	0.035	0.104
-145.545	-30.795	0.198	-0.112
-144.531	-200.000	-0.024	0.209
-143.516	-86.548	0.120	-0.037
-142.502	68.419	-0.238	-0.244
-141.487	-200.000	-0.012	-0.172
-140.472	-10.385	-0.075	0.050
-139.458	800.000	0.089	0.385
-138.443	-157.914	0.152	0.009
-137.429	800.000	-0.085	0.285
-136.414	116.444	0.196	0.240
-135.399	-62.633	0.207	-0.086
-134.385	-8.517	0.099	-0.066
-133.370	-15.590	-0.382	0.243
-132.356	207.039	0.105	0.163
-131.341	506.079	-0.063	0.146
-130.326	275.200	-0.007	-0.013
-129.312	20.193	0.271	0.218
-128.297	-28.684	-0.143	0.082
-127.283	-26.338	-0.348	-0.204
-126.268	-58.885	-0.111	-0.048
-125.253	71.129	0.066	0.068
-124.239	-11.486	0.421	-0.276
-123.224	47.032	-0.270	-0.250
-122.210	-200.000	0.027	-0.191
-121.195	-200.000	0.043	-0.316
