DTS Sentinel unit serial number:	SN413079Multiplexer serial number:	ORYXHardware model number:	OX4-SRSoftware version number:	ORYX F/W v4.00 Oryx Data Collector v3.7.2.0data status	okinstallation	princeton_trtdifferential loss correction	single-endedforward channel	channel 1reverse channel	N/Adate	2019/09/12time	18:11:34forward acquisition time	15.00reverse acquisition time	0.00gamma	496.2192k internal	0.2317k external	0.2317temperature offset calibration	1.0110default loss term (dB/km)	0.3790temperature slope calibration	1.0000multiplexer offset coefficient	1.0000multiplexer slope coefficient	1.0000fibre end	0.00T internal ref (°C)	33.56T ext. ref 1 (°C)	2.89T ext. ref 2 (°C)	28.23length (m)	temperature (°C)	Stokes	anti-Stokes-747.200	800.000	-0.157	0.503
-746.185	-200.000	0.051	-0.354
-745.171	187.311	-0.100	-0.151
-744.156	-49.932	-0.395	0.190
-743.142	110.397	-0.309	0.376
-742.127	800.000	-0.105	0.357
-741.112	-11.933	-0.121	-0.080
-740.098	-9.480	-0.377	-0.255
-739.083	-125.942	-0.215	-0.033
-738.069	446.699	0.235	0.523
-737.054	-200.000	-0.044	0.306
-736.039	-159.846	-0.794	-0.044
-735.025	-200.000	0.151	-0.794
-734.010	-95.134	-0.054	-0.015
-732.996	-146.235	0.380	-0.034
-731.981	-108.525	0.609	-0.133
-730.966	-50.060	-0.731	-0.350
-729.952	-26.973	-0.174	-0.103
-728.937	16.150	-0.174	0.139
-727.923	-0.047	-0.245	-0.177
-726.908	-39.850	-0.609	-0.322
-725.894	-18.776	0.544	0.343
-724.879	222.165	0.236	-0.385
-723.864	309.569	-0.162	0.306
-722.850	22.972	-0.412	-0.342
-721.835	800.000	-0.171	0.734
-720.821	-200.000	0.023	0.168
-719.806	164.162	0.228	0.325
-718.791	655.288	-0.209	-0.543
-717.777	-76.706	-0.498	0.177
-716.762	460.791	0.344	-0.775
-715.748	800.000	-0.235	0.977
-714.733	49.088	-0.828	0.786
-713.718	-195.687	0.323	0.002
-712.704	800.000	-0.148	0.513
-711.689	-200.000	0.035	0.597
-710.675	188.201	-0.321	0.485
-709.660	-122.725	0.316	-0.052
-708.645	800.000	0.149	0.524
-707.631	-114.828	-0.112	-0.022
-706.616	-90.832	0.699	0.204
-705.602	-141.313	-0.596	-0.061
-704.587	592.255	-0.225	-0.563
-703.572	274.244	0.280	0.501
-702.558	-107.770	0.175	-0.039
-701.543	-108.983	0.513	0.111
-700.529	298.123	0.199	-0.370
-699.514	-129.749	-0.756	-0.105
-698.499	-161.285	-0.441	-0.023
-697.485	317.767	-0.268	0.513
-696.470	-162.422	0.551	0.028
-695.456	-151.101	-0.374	0.028
-694.441	-200.000	-0.021	-0.789
-693.426	53.762	-0.678	-0.658
-692.412	-149.658	-0.513	0.041
-691.397	-169.558	-0.323	-0.012
-690.383	0.649	0.901	0.651
-689.368	91.865	-0.336	-0.382
-688.354	-195.426	-0.648	-0.005
-687.339	156.451	0.089	0.125
-686.324	-97.730	0.876	-0.229
-685.310	178.809	0.325	-0.480
-684.295	215.597	-0.243	-0.389
-683.281	-200.000	0.058	1.127
-682.266	566.055	-0.125	0.307
-681.251	461.475	0.390	-0.878
-680.237	-19.505	-0.515	-0.323
-679.222	-136.359	-0.411	0.048
-678.208	-146.851	0.314	0.027
-677.193	87.577	0.086	-0.096
-676.178	-200.000	-0.018	1.349
-675.164	-106.402	-0.311	0.070
-674.149	226.991	0.385	0.632
-673.135	-200.000	0.040	0.508
-672.120	-68.736	0.832	0.325
-671.105	-90.419	0.244	-0.071
-670.091	-200.000	0.047	0.244
-669.076	283.151	0.135	-0.244
-668.062	-200.000	0.023	0.214
-667.047	-158.758	-1.195	-0.069
-666.032	-26.721	0.358	-0.211
-665.018	-111.003	0.501	-0.104
-664.003	110.608	0.077	0.093
-662.989	220.536	-0.193	-0.312
-661.974	-168.097	-0.572	-0.022
-660.959	-200.000	0.003	0.992
-659.945	-52.261	-0.625	0.293
-658.930	-200.000	0.095	0.609
-657.916	29.312	0.347	0.298
-656.901	-200.000	-0.010	0.048
-655.886	-97.541	0.527	0.138
-654.872	-200.000	-0.004	-0.255
-653.857	329.896	-0.519	1.008
-652.843	-150.401	0.171	0.013
-651.828	-130.607	0.717	-0.098
-650.814	-123.728	-0.086	0.014
-649.799	5.042	-0.459	0.341
-648.784	-111.775	-0.644	-0.132
-647.770	-76.334	-0.577	0.205
-646.755	94.032	-0.654	-0.749
-645.741	800.000	-0.204	-0.829
-644.726	120.565	0.182	-0.229
-643.711	134.599	0.065	0.085
-642.697	800.000	-0.087	0.344
-641.682	-66.551	0.663	-0.265
-640.668	800.000	0.202	-0.682
-639.653	-200.000	0.157	-0.859
-638.638	-191.263	0.533	-0.006
-637.624	-53.891	-0.319	0.147
-636.609	-85.471	-0.560	0.176
-635.595	32.750	0.294	0.257
-634.580	800.000	0.114	0.370
-633.565	6.243	-0.269	0.201
-632.551	133.093	0.117	-0.152
-631.536	-54.976	0.372	-0.169
-630.522	84.855	-0.516	-0.570
-629.507	-200.000	-0.480	0.001
-628.492	45.354	0.210	-0.196
-627.478	117.028	0.517	-0.640
-626.463	-200.000	0.167	-0.963
-625.449	306.925	0.183	-0.344
-624.434	205.127	0.686	-1.074
-623.419	115.486	0.101	0.125
-622.405	-49.715	-0.490	0.235
-621.390	43.764	-0.376	0.347
-620.376	-67.916	0.870	0.342
-619.361	800.000	-0.139	-0.611
-618.346	22.637	0.369	0.304
-617.332	30.937	0.031	0.027
-616.317	33.214	0.382	0.334
-615.303	128.207	0.390	-0.501
-614.288	-105.641	0.721	0.165
-613.273	-111.450	0.639	0.131
-612.259	-4.575	-0.604	0.420
-611.244	-2.155	0.452	-0.320
-610.230	-78.612	-0.737	0.254
-609.215	-176.695	0.336	0.009
-608.201	-17.981	-0.320	0.202
-607.186	-200.000	-0.042	-1.126
-606.171	-6.321	-0.532	-0.365
-605.157	398.215	-0.261	0.550
-604.142	-167.731	-0.902	0.036
-603.128	-200.000	0.022	0.590
-602.113	187.228	0.334	0.501
-601.098	-104.955	-0.533	-0.123
-600.084	36.529	-0.153	-0.136
-599.069	-24.540	-0.932	-0.559
-598.055	-200.000	0.066	-0.697
-597.040	57.510	0.523	-0.515
-596.025	-84.873	-0.486	0.154
-595.011	177.225	-0.483	-0.707
-593.996	40.675	-0.254	0.231
-592.982	-117.601	-0.059	-0.011
-591.967	-32.651	0.370	0.207
-590.952	172.811	-0.108	-0.156
-589.938	352.216	-0.160	-0.318
-588.923	439.651	-0.074	0.162
-587.909	-155.777	-0.543	-0.035
-586.894	-109.275	-0.287	-0.061
-585.879	-147.055	-0.403	0.035
-584.865	-45.540	0.630	-0.314
-583.850	72.382	-0.381	-0.400
-582.836	-124.339	0.494	-0.078
-581.821	-8.002	-0.342	-0.232
-580.806	131.744	0.224	-0.290
-579.792	-31.320	0.390	0.221
-578.777	256.191	0.258	0.446
-577.763	-200.000	-0.009	-0.177
-576.748	92.733	0.574	0.651
-575.733	754.370	0.169	0.459
-574.719	-121.422	-0.621	0.104
-573.704	-63.166	-0.376	-0.156
-572.690	4.207	0.138	0.101
-571.675	-103.964	-0.085	-0.020
-570.661	-89.560	0.813	-0.240
-569.646	268.888	-0.253	0.446
-568.631	499.629	-0.083	-0.192
-567.617	-200.000	-0.161	0.947
-566.602	-141.327	0.488	-0.050
-565.588	-44.604	-0.129	-0.065
-564.573	800.000	-0.178	0.721
-563.558	35.873	0.585	0.518
-562.544	654.867	0.072	0.185
-561.529	526.259	0.286	-0.677
-560.515	12.280	-0.654	0.507
-559.500	-131.190	-0.724	0.097
-558.485	30.340	0.429	-0.369
-557.471	-136.659	0.147	0.017
-556.456	-156.882	0.704	0.043
-555.442	101.470	0.253	-0.296
-554.427	-74.068	0.702	0.256
-553.412	800.000	-0.135	-0.384
-552.398	-200.000	-0.021	0.237
-551.383	46.844	-0.080	0.075
-550.369	800.000	-0.265	0.743
-549.354	26.381	0.254	0.214
-548.339	-143.769	0.379	-0.036
-547.325	38.971	0.739	-0.663
-546.310	392.850	-0.156	0.327
-545.296	243.194	0.146	0.245
-544.281	200.291	0.267	0.412
-543.266	800.000	0.051	0.159
-542.252	-200.000	0.040	-0.977
-541.237	-200.000	0.054	-0.364
-540.223	24.520	-0.625	0.519
-539.208	-200.000	-0.017	-0.161
-538.193	367.583	0.202	0.411
-537.179	-7.346	-0.059	0.040
-536.164	800.000	0.088	-0.264
-535.150	-147.121	-0.543	-0.047
-534.135	-102.438	-0.797	-0.192
-533.121	800.000	0.220	0.717
-532.106	-56.986	-0.496	0.220
-531.091	-144.966	0.377	0.035
-530.077	-21.447	-0.456	0.279
-529.062	-200.000	-0.012	0.581
-528.048	102.723	-0.528	0.620
-527.033	800.000	0.196	-0.712
-526.018	23.868	-0.230	0.190
-525.004	392.354	-0.451	0.942
-523.989	-200.000	0.160	-0.715
-522.975	66.168	0.212	-0.216
-521.960	81.139	0.571	-0.619
-520.945	-66.486	0.721	0.287
-519.931	-43.656	-0.372	0.188
-518.916	5.595	-0.527	0.391
-517.902	53.742	0.339	0.327
-516.887	800.000	-0.094	-0.345
-515.872	-100.612	-0.589	-0.146
-514.858	-200.000	0.075	0.403
-513.843	-130.507	-0.117	-0.016
-512.829	753.693	-0.102	0.276
-511.814	145.657	-0.346	-0.465
-510.799	800.000	0.156	-0.466
-509.785	19.869	0.678	0.548
-508.770	631.118	-0.413	-1.050
-507.756	-77.555	-0.361	0.126
-506.741	6.056	0.955	0.710
-505.726	-151.676	-0.883	-0.065
-504.712	257.922	0.218	0.377
-503.697	212.877	0.681	1.079
-502.683	636.518	-0.071	0.181
-501.668	49.702	-0.488	0.461
-500.653	-154.793	-0.443	-0.029
-499.639	106.406	-0.204	0.242
-498.624	248.009	-0.439	0.744
-497.610	445.235	-0.055	0.120
-496.595	-200.000	0.182	-1.196
-495.581	-131.973	0.093	-0.012
-494.566	-200.000	0.009	0.105
-493.551	-106.762	-0.187	0.042
-492.537	800.000	-0.252	0.889
-491.522	-91.602	0.055	0.016
-490.508	-89.664	0.404	-0.119
-489.493	456.185	0.456	1.014
-488.478	-200.000	0.032	0.372
-487.464	800.000	0.213	0.602
-486.449	-62.522	0.327	0.136
-485.435	-93.999	0.431	-0.119
-484.420	800.000	-0.097	0.332
-483.405	-167.131	0.083	-0.003
-482.391	79.241	-0.517	-0.555
-481.376	85.037	0.172	-0.189
-480.362	-29.599	0.569	0.326
-479.347	800.000	0.064	0.251
-478.332	112.442	-0.187	-0.227
-477.318	-77.306	0.590	0.206
-476.303	800.000	0.038	-0.112
-475.289	-77.816	0.503	-0.174
-474.274	-131.813	-0.260	0.034
-473.259	198.080	-0.370	0.567
-472.245	-200.000	-0.024	0.604
-471.230	-200.000	-0.132	0.843
-470.216	-13.629	0.374	-0.242
-469.201	800.000	0.179	0.582
-468.186	-68.685	-0.110	-0.043
-467.172	-75.366	-0.131	0.047
-466.157	15.208	0.688	0.540
-465.143	-103.163	-1.204	0.285
-464.128	104.026	-0.579	-0.682
-463.113	-144.846	-1.550	-0.142
-462.099	-111.273	-0.649	-0.133
-461.084	-200.000	0.045	-0.439
-460.070	83.638	-0.152	-0.166
-459.055	735.963	-0.213	0.570
-458.040	30.528	-0.485	-0.415
-457.026	-106.531	-0.361	-0.081
-456.011	-29.843	0.835	0.477
-454.997	9.210	-0.536	-0.406
-453.982	-18.910	0.752	-0.468
-452.968	-35.408	0.365	0.199
-451.953	-148.863	-0.754	-0.061
-450.938	800.000	0.118	0.449
-449.924	-141.554	0.923	0.093
-448.909	800.000	0.286	-0.857
-447.895	91.570	0.722	0.812
-446.880	677.562	-0.072	0.188
-445.865	127.391	-0.468	-0.595
-444.851	74.947	-0.298	0.314
-443.836	-200.000	0.198	-0.932
-442.822	-172.807	0.835	0.026
-441.807	21.232	-0.292	-0.237
-440.792	-109.100	-0.056	-0.012
-439.778	-96.267	0.506	0.134
-438.763	78.443	0.417	-0.446
-437.749	-200.000	-0.039	-0.251
-436.734	-91.782	0.156	0.044
-435.719	113.985	0.194	-0.236
-434.705	677.343	0.112	-0.291
-433.690	-110.756	-0.487	-0.101
-432.676	-129.758	0.729	0.100
-431.661	245.765	0.233	-0.392
-430.646	527.227	-0.456	-1.074
-429.632	-6.543	-0.394	0.268
-428.617	-200.000	0.008	-0.737
-427.603	-200.000	-0.064	0.832
-426.588	-150.031	-0.872	-0.068
-425.573	-26.897	0.336	0.196
-424.559	40.637	-0.223	-0.201
-423.544	-18.850	0.548	-0.341
-422.530	172.558	-0.158	0.227
-421.515	263.147	0.218	-0.379
-420.500	7.252	0.140	-0.104
-419.486	127.391	-0.457	0.580
-418.471	304.734	-0.207	-0.384
-417.457	-200.000	0.021	0.133
-416.442	-65.737	0.701	-0.281
-415.428	-200.000	0.035	0.348
-414.413	312.779	0.549	-1.031
-413.398	-200.000	-0.361	0.001
-412.384	8.560	-0.554	0.417
-411.369	-124.421	-0.256	0.040
-410.355	739.736	-0.099	0.265
-409.340	-70.490	0.738	-0.279
-408.325	-200.000	0.008	0.275
-407.311	-200.000	0.150	0.786
-406.296	119.860	-0.107	0.133
-405.282	-117.896	1.075	-0.193
-404.267	-200.000	-0.057	-0.971
-403.252	-51.512	0.261	0.122
-402.238	-55.544	-0.557	0.249
-401.223	-121.433	0.424	0.071
-400.209	-7.852	-0.069	0.046
-399.194	-71.882	-0.798	0.297
-398.179	507.210	-0.415	0.961
-397.165	800.000	-0.140	0.481
-396.150	673.824	0.186	-0.483
-395.136	30.583	-0.856	-0.731
-394.121	-33.692	-0.189	-0.104
-393.106	-124.206	-0.391	-0.061
-392.092	-141.022	-0.242	0.025
-391.077	12.053	-0.576	0.443
-390.063	640.481	-0.076	0.192
-389.048	84.105	-0.134	-0.146
-388.033	-148.524	1.161	0.095
-387.019	136.699	0.616	-0.803
-386.004	-200.000	-0.428	0.001
-384.990	-33.177	0.433	-0.240
-383.975	432.902	0.055	0.120
-382.960	-200.000	-0.035	1.262
-381.946	5.799	-0.321	-0.237
-380.931	-200.000	-0.010	-0.523
-379.917	30.104	-0.196	-0.167
-378.902	-148.575	-0.932	-0.076
-377.888	-32.476	0.899	0.500
-376.873	-200.000	-0.086	-0.780
-375.858	-200.000	0.096	-0.425
-374.844	220.280	-0.375	0.600
-373.829	68.055	0.519	-0.530
-372.815	-111.128	-0.925	-0.189
-371.800	-96.084	-0.444	0.118
-370.785	-200.000	-0.114	-0.772
-369.771	-93.516	-0.913	-0.252
-368.756	-200.000	0.031	-0.998
-367.742	-200.000	0.062	-0.283
-366.727	64.658	0.145	0.146
-365.712	416.180	0.199	-0.423
-364.698	174.674	-0.575	-0.831
-363.683	-47.552	0.714	-0.346
-362.669	800.000	-0.307	-0.991
-361.654	77.690	-0.233	0.247
-360.639	-104.332	0.651	0.150
-359.625	-25.911	-0.453	0.266
-358.610	5.394	0.395	-0.291
-357.596	69.644	-0.108	0.111
-356.581	-16.189	-0.440	-0.279
-355.566	307.376	-0.323	0.601
-354.552	6.620	0.584	0.433
-353.537	0.203	-1.006	-0.715
-352.523	-200.000	0.070	0.450
-351.508	499.663	-0.337	-0.774
-350.493	14.961	-0.281	0.220
-349.479	-166.371	0.732	0.031
-348.464	800.000	-0.163	0.675
-347.450	-115.236	-0.188	-0.035
-346.435	-151.230	0.378	0.028
-345.420	-34.061	-0.356	-0.195
-344.406	15.568	0.422	0.330
-343.391	-175.716	0.553	-0.015
-342.377	-200.000	0.016	-0.370
-341.362	153.976	0.298	-0.407
-340.348	800.000	0.239	-0.720
-339.333	394.767	-0.197	0.410
-338.318	546.818	0.269	0.640
-337.304	-156.007	0.944	0.060
-336.289	90.343	-0.243	-0.271
-335.275	292.590	0.034	0.062
-334.260	-123.905	-0.539	-0.085
-333.245	-31.731	0.864	-0.483
-332.231	-81.736	-0.527	0.172
-331.216	-85.372	-0.846	0.263
-330.202	-122.099	0.522	0.085
-329.187	-107.078	0.335	-0.074
-328.172	657.765	-0.199	-0.509
-327.158	795.174	0.028	0.076
-326.143	-156.776	-0.465	0.029
-325.129	30.312	-0.448	0.381
-324.114	283.057	0.656	-1.173
-323.099	84.202	0.281	0.306
-322.085	306.322	0.168	0.311
-321.070	-94.312	0.481	-0.131
-320.056	800.000	-0.055	-0.155
-319.041	-61.099	0.519	-0.218
-318.026	591.143	0.137	0.337
-317.012	-16.721	0.522	0.329
-315.997	-200.000	0.066	-0.315
-314.983	29.248	0.215	0.182
-313.968	55.656	0.490	0.472
-312.953	715.626	0.079	0.207
-311.939	166.683	-0.093	-0.132
-310.924	-69.989	0.159	0.060
-309.910	-59.776	-0.991	-0.422
-308.895	16.254	-0.172	0.135
-307.880	-138.079	-0.490	-0.054
-306.866	-101.711	-0.632	0.153
-305.851	-113.953	-0.350	0.068
-304.837	214.454	-0.208	-0.328
-303.822	-46.779	0.924	-0.450
-302.807	-191.239	-0.748	0.008
-301.793	-62.414	0.089	-0.037
-300.778	96.222	0.358	-0.408
-299.764	139.089	0.149	0.194
-298.749	-147.685	0.628	0.052
-297.735	168.654	0.352	-0.499
-296.720	-71.040	-0.449	-0.168
-295.705	-97.227	1.090	-0.283
-294.691	-111.291	-0.520	-0.106
-293.676	-98.366	-0.508	0.130
-292.662	17.285	0.213	0.168
-291.647	101.443	0.215	0.249
-290.632	164.502	0.260	-0.365
-289.618	-50.338	-0.491	-0.231
-288.603	-53.268	0.358	-0.164
-287.589	-76.321	-0.209	0.073
-286.574	-100.805	-0.742	-0.182
-285.559	-36.781	-0.580	0.310
-284.545	-26.217	0.043	0.025
-283.530	-172.954	0.598	-0.018
-282.516	255.279	0.200	0.340
-281.501	132.761	-0.145	0.186
-280.486	785.798	0.092	0.251
-279.472	6.266	0.652	0.481
-278.457	2.955	0.830	0.599
-277.443	-92.767	-0.865	-0.241
-276.428	-104.860	-0.575	-0.131
-275.413	60.198	-0.129	0.126
-274.399	-55.121	-1.078	-0.482
-273.384	321.461	0.196	0.372
-272.370	18.987	-0.375	0.299
-271.355	-69.323	0.599	0.229
-270.340	18.642	-0.495	0.394
-269.326	156.142	0.138	0.189
-268.311	74.799	-0.068	-0.071
-267.297	800.000	-0.148	-0.581
-266.282	-59.969	-0.512	-0.217
-265.267	-200.000	0.050	-0.607
-264.253	-141.358	-0.718	0.072
-263.238	369.685	-0.106	0.213
-262.224	55.071	0.126	-0.121
-261.209	468.046	-0.074	0.165
-260.195	-140.984	0.221	0.023
-259.180	-83.681	0.567	0.180
-258.165	572.762	-0.354	-0.857
-257.151	361.527	0.248	0.495
-256.136	800.000	-0.104	0.445
-255.122	-200.000	-0.062	0.933
-254.107	800.000	-0.190	0.803
-253.092	-200.000	-0.058	-0.345
-252.078	800.000	-0.144	-0.398
-251.063	-114.024	0.378	-0.073
-250.049	-33.535	0.642	0.352
-249.034	-148.203	-0.885	0.073
-248.019	-78.204	0.389	-0.133
-247.005	-119.706	-1.365	0.234
-245.990	445.069	0.118	-0.258
-244.976	-112.779	-0.122	-0.024
-243.961	-134.081	0.367	-0.045
-242.946	-200.000	-0.034	0.404
-241.932	-128.592	-0.343	-0.048
-240.917	771.474	0.241	0.651
-239.903	800.000	0.171	0.524
-238.888	45.502	-0.319	-0.292
-237.873	-38.168	0.551	0.290
-236.859	376.393	0.636	1.289
-235.844	505.699	0.216	-0.497
-234.830	-95.279	0.612	0.163
-233.815	-200.000	0.037	0.193
-232.800	-200.000	0.003	0.469
-231.786	-153.832	0.582	0.040
-230.771	-200.000	0.066	-0.454
-229.757	-28.983	0.333	-0.190
-228.742	8.646	0.343	-0.257
-227.727	-2.411	-0.506	-0.352
-226.713	34.929	-0.397	0.345
-225.698	-37.019	0.334	-0.178
-224.684	-110.823	-0.788	0.161
-223.669	-98.761	-0.300	-0.076
-222.655	-188.092	0.424	0.005
-221.640	73.202	-0.352	-0.366
-220.625	80.983	-0.760	-0.814
-219.611	68.591	-0.719	-0.731
-218.596	77.769	0.556	0.588
-217.582	-200.000	0.048	0.368
-216.567	-200.000	0.014	-0.269
-215.552	-125.876	0.580	0.087
-214.538	520.320	0.187	-0.434
-213.523	-200.000	-0.006	0.571
-212.509	-70.183	0.809	0.305
-211.494	214.544	0.135	-0.212
-210.479	402.871	-0.400	0.835
-209.465	-200.000	-0.160	0.701
-208.450	-8.684	-0.331	0.220
-207.436	445.065	0.321	0.699
-206.421	-200.000	-0.033	-0.633
-205.406	-108.719	-0.585	-0.124
-204.392	-179.152	-0.218	0.005
-203.377	-127.763	-0.400	0.057
-202.363	-7.129	0.451	0.303
-201.348	-200.000	0.026	0.147
-200.333	-75.876	-0.494	0.174
-199.319	-200.000	0.016	-0.309
-198.304	-200.000	0.059	-0.283
-197.290	582.930	0.098	0.238
-196.275	50.652	0.256	0.240
-195.260	11.540	0.413	0.314
-194.246	158.415	-0.459	0.631
-193.231	64.041	0.321	0.320
-192.217	720.818	-0.245	0.646
-191.202	800.000	0.204	-0.705
-190.187	-154.041	0.310	-0.021
-189.173	-126.224	-0.455	0.067
-188.158	68.051	-0.430	0.436
-187.144	800.000	0.117	-0.402
-186.129	46.025	-0.182	-0.167
-185.114	515.075	0.178	-0.411
-184.100	-200.000	0.016	-0.093
-183.085	-5.401	0.365	0.248
-182.071	-200.000	0.040	0.454
-181.056	800.000	-0.093	0.286
-180.042	646.217	0.347	-0.879
-179.027	231.099	0.371	0.602
-178.012	-200.000	0.046	-0.849
-176.998	131.048	-0.632	0.803
-175.983	-200.000	0.011	0.267
-174.969	534.752	0.144	-0.338
-173.954	325.495	0.012	0.023
-172.939	-200.000	0.062	0.410
-171.925	-200.000	0.050	0.861
-170.910	-200.000	0.083	0.533
-169.896	800.000	-0.064	0.274
-168.881	800.000	0.270	-0.783
-167.866	-136.966	0.614	-0.070
-166.852	-200.000	-0.014	-0.326
-165.837	529.081	0.275	-0.644
-164.823	-200.000	-0.096	0.429
-163.808	333.288	-0.120	0.230
-162.793	190.406	-0.102	-0.152
-161.779	-80.582	0.739	0.244
-160.764	-92.046	0.276	0.077
-159.750	-85.990	0.781	-0.239
-158.735	-91.968	0.360	-0.101
-157.720	-59.236	0.405	0.173
-156.706	-200.000	0.002	0.501
-155.691	-69.082	-0.535	0.204
-154.677	-115.871	0.614	0.114
-153.662	565.780	-0.362	-0.868
-152.647	-200.000	0.159	-1.675
-151.633	219.887	0.628	-0.995
-150.618	-200.000	0.011	-0.485
-149.604	42.828	0.230	0.208
-148.589	-200.000	0.016	-0.111
-147.574	-200.000	-0.039	0.182
-146.560	-81.849	0.364	-0.118
-145.545	336.448	-0.131	-0.251
-144.531	-148.403	-0.542	0.044
-143.516	185.414	0.125	-0.184
-142.502	-115.829	0.380	-0.070
-141.487	-83.256	0.272	0.087
-140.472	-200.000	-0.014	-0.216
-139.458	1.544	0.452	0.322
-138.443	800.000	0.035	0.114
-137.429	129.446	0.328	-0.414
-136.414	800.000	0.088	-0.366
-135.399	371.845	-0.308	-0.618
-134.385	-32.924	-0.460	-0.252
-133.370	732.801	-0.032	0.086
-132.356	800.000	-0.208	0.889
-131.341	99.916	-0.227	-0.260
-130.326	-29.436	-0.427	0.241
-129.312	-200.000	-0.047	0.401
-128.297	-112.476	-0.625	-0.123
-127.283	-200.000	-0.000	0.220
-126.268	568.509	-0.137	-0.330
-125.253	-200.000	0.015	0.254
-124.239	64.693	-0.455	-0.454
-123.224	566.843	0.201	0.483
-122.210	218.991	0.063	-0.100
-121.195	335.828	-0.546	1.046
