DTS Sentinel unit serial number:	SN413079Multiplexer serial number:	ORYXHardware model number:	OX4-SRSoftware version number:	ORYX F/W v4.00 Oryx Data Collector v3.7.2.0data status	okinstallation	princeton_trtdifferential loss correction	single-endedforward channel	channel 1reverse channel	N/Adate	2019/09/14time	20:14:35forward acquisition time	60.00reverse acquisition time	0.00gamma	496.2192k internal	0.2316k external	0.2316temperature offset calibration	1.0020default loss term (dB/km)	0.3790temperature slope calibration	1.0000multiplexer offset coefficient	1.0000multiplexer slope coefficient	1.0000fibre end	0.00T internal ref (°C)	33.81T ext. ref 1 (°C)	4.85T ext. ref 2 (°C)	28.25length (m)	temperature (°C)	Stokes	anti-Stokes-747.200	800.000	0.084	0.272
-746.185	-78.058	-0.184	-0.064
-745.171	16.226	-0.381	-0.304
-744.156	27.868	-0.206	0.176
-743.142	43.535	0.424	0.393
-742.127	-135.807	-0.053	-0.006
-741.112	637.587	0.046	0.118
-740.098	273.700	-0.151	0.271
-739.083	637.360	0.069	-0.179
-738.069	204.926	0.037	0.058
-737.054	-82.053	-0.085	0.028
-736.039	115.906	0.049	-0.061
-735.025	-0.815	0.120	0.086
-734.010	37.021	0.115	-0.103
-732.996	7.079	-0.114	-0.086
-731.981	-29.055	-0.182	-0.106
-730.966	-56.490	0.100	0.045
-729.952	-19.766	0.194	-0.122
-728.937	486.125	-0.153	-0.354
-727.923	-200.000	-0.238	-0.001
-726.908	374.268	-0.100	-0.205
-725.894	-126.663	0.436	-0.065
-724.879	-18.993	-0.171	-0.108
-723.864	-145.437	0.188	0.017
-722.850	-113.082	0.211	0.042
-721.835	-200.000	0.010	0.417
-720.821	-200.000	-0.067	0.320
-719.806	10.334	-0.240	0.185
-718.791	581.198	0.039	0.098
-717.777	294.164	-0.064	0.118
-716.762	-200.000	0.012	0.249
-715.748	800.000	-0.032	-0.097
-714.733	-74.164	-0.159	0.058
-713.718	75.295	-0.081	0.087
-712.704	326.980	0.134	-0.260
-711.689	-108.247	-0.291	-0.064
-710.675	-147.214	-0.067	-0.006
-709.660	800.000	-0.048	-0.140
-708.645	-90.758	0.151	-0.044
-707.631	-200.000	-0.009	-0.051
-706.616	443.705	-0.109	-0.242
-705.602	-170.334	-0.247	0.009
-704.587	-200.000	0.046	-0.210
-703.572	-127.332	-0.092	-0.014
-702.558	441.897	0.033	-0.073
-701.543	-200.000	0.081	-0.383
-700.529	445.735	0.049	-0.109
-699.514	45.257	-0.041	-0.038
-698.499	-200.000	-0.008	-0.224
-697.485	800.000	-0.053	0.181
-696.470	7.744	0.172	0.130
-695.456	-45.346	0.250	0.125
-694.441	159.222	-0.175	0.246
-693.426	-117.539	-0.216	-0.039
-692.412	628.326	-0.070	-0.180
-691.397	-156.445	-0.097	0.006
-690.383	-200.000	0.243	0.001
-689.368	-104.907	0.079	-0.018
-688.354	-200.000	-0.014	-0.096
-687.339	-200.000	-0.002	-0.087
-686.324	20.824	0.062	0.051
-685.310	471.561	0.085	-0.194
-684.295	-181.396	-0.297	-0.006
-683.281	-122.142	0.166	-0.027
-682.266	243.005	0.063	0.108
-681.251	-121.909	-0.329	-0.055
-680.237	-61.461	0.204	-0.087
-679.222	-150.718	-0.198	-0.015
-678.208	-200.000	0.002	0.084
-677.193	108.501	0.195	-0.235
-676.178	-7.345	-0.104	-0.071
-675.164	-7.899	-0.142	-0.097
-674.149	-139.333	-0.069	-0.008
-673.135	79.114	0.026	0.029
-672.120	-90.177	-0.055	-0.016
-671.105	-200.000	0.017	-0.314
-670.091	-89.947	-0.194	0.057
-669.076	3.000	0.209	-0.153
-668.062	-38.796	-0.150	-0.080
-667.047	800.000	0.063	0.264
-666.032	-135.585	-0.220	-0.026
-665.018	-48.368	-0.044	-0.021
-664.003	151.812	0.120	-0.165
-662.989	-200.000	-0.015	-0.194
-661.974	-22.007	-0.114	-0.070
-660.959	-85.012	0.035	0.011
-659.945	100.697	0.095	0.111
-658.930	-200.000	0.050	-0.222
-657.916	338.185	0.024	-0.047
-656.901	-200.000	0.013	-0.063
-655.886	-200.000	-0.005	-0.172
-654.872	188.994	-0.123	-0.185
-653.857	103.624	-0.243	-0.288
-652.843	800.000	-0.080	0.317
-651.828	-34.749	0.093	0.051
-650.814	-42.533	0.057	-0.029
-649.799	-23.619	-0.068	0.041
-648.784	-0.201	0.082	-0.059
-647.770	-39.847	-0.399	-0.210
-646.755	330.448	-0.040	-0.077
-645.741	274.510	0.085	0.152
-644.726	26.268	-0.148	0.125
-643.711	-158.978	-0.265	0.015
-642.697	-200.000	0.014	-0.107
-641.682	21.698	-0.116	-0.095
-640.668	128.711	-0.357	-0.459
-639.653	-14.225	-0.047	-0.031
-638.638	-13.729	-0.176	0.115
-637.624	-63.903	-0.318	0.131
-636.609	88.872	-0.120	0.134
-635.595	-52.984	-0.140	-0.065
-634.580	-200.000	0.006	0.029
-633.565	158.679	0.167	-0.235
-632.551	-101.654	0.188	-0.046
-631.536	-39.551	0.391	-0.206
-630.522	-14.947	-0.286	0.185
-629.507	-200.000	0.031	-0.154
-628.492	-108.147	-0.159	-0.035
-627.478	-200.000	-0.019	-0.126
-626.463	-103.500	-0.145	-0.034
-625.449	-32.765	0.119	0.067
-624.434	-90.459	-0.241	0.071
-623.419	-200.000	-0.011	0.582
-622.405	135.568	-0.280	-0.368
-621.390	-200.000	0.059	-0.283
-620.376	-200.000	0.060	-0.461
-619.361	800.000	-0.072	-0.285
-618.346	-24.598	-0.135	0.081
-617.332	-77.969	-0.320	-0.111
-616.317	216.352	0.108	0.173
-615.303	-123.213	0.184	-0.030
-614.288	331.867	-0.054	-0.105
-613.273	800.000	-0.104	-0.410
-612.259	9.635	-0.115	-0.088
-611.244	327.168	-0.057	-0.109
-610.230	-200.000	0.035	-0.355
-609.215	-200.000	-0.060	0.342
-608.201	-68.384	0.251	0.098
-607.186	127.397	0.087	-0.111
-606.171	800.000	0.068	-0.280
-605.157	57.481	0.099	0.098
-604.142	-200.000	0.049	-0.235
-603.128	15.174	-0.022	-0.017
-602.113	204.573	0.209	0.326
-601.098	129.239	-0.143	0.184
-600.084	-200.000	-0.027	0.342
-599.069	-200.000	-0.056	-0.293
-598.055	37.997	0.196	-0.176
-597.040	-45.471	-0.263	-0.131
-596.025	575.604	0.038	-0.093
-595.011	27.840	0.173	0.147
-593.996	214.642	0.075	0.120
-592.982	800.000	0.055	0.177
-591.967	0.625	-0.203	0.147
-590.952	53.683	-0.230	-0.223
-589.938	-66.340	-0.008	-0.003
-588.923	94.621	-0.056	-0.064
-587.909	-31.050	-0.099	-0.056
-586.894	-143.531	0.038	-0.004
-585.879	-200.000	-0.007	0.064
-584.865	-200.000	-0.030	0.151
-583.850	-56.608	-0.305	-0.136
-582.836	-186.571	-0.194	-0.003
-581.821	-96.794	-0.154	0.041
-580.806	602.272	0.089	0.224
-579.792	-200.000	0.032	0.223
-578.777	-200.000	-0.010	0.152
-577.763	-200.000	0.043	0.387
-576.748	43.114	-0.244	0.224
-575.733	370.469	-0.048	-0.099
-574.719	5.897	0.312	-0.232
-573.704	800.000	0.022	0.081
-572.690	-200.000	0.038	0.207
-571.675	-58.418	0.259	-0.113
-570.661	-127.969	-0.235	0.034
-569.646	800.000	0.029	-0.125
-568.631	326.384	0.213	-0.410
-567.617	-164.699	0.205	-0.009
-566.602	180.009	-0.092	-0.136
-565.588	-143.664	0.258	0.025
-564.573	-200.000	0.065	-0.411
-563.558	599.011	0.107	0.268
-562.544	800.000	-0.106	0.409
-561.529	-200.000	0.016	0.141
-560.515	-150.398	-0.209	-0.016
-559.500	732.851	0.078	0.210
-558.485	-122.507	-0.234	0.038
-557.471	-200.000	-0.064	-0.339
-556.456	-135.095	0.142	-0.017
-555.442	34.355	-0.069	-0.060
-554.427	-167.821	0.323	0.013
-553.412	78.121	-0.099	0.107
-552.398	35.566	0.086	0.076
-551.383	-200.000	0.012	-0.053
-550.369	115.715	0.082	-0.101
-549.354	-21.324	0.260	-0.159
-548.339	233.942	0.184	-0.304
-547.325	357.771	-0.151	0.304
-546.310	319.696	0.152	-0.290
-545.296	73.977	-0.152	0.160
-544.281	-73.917	-0.173	0.063
-543.266	173.615	-0.232	0.337
-542.252	-200.000	-0.026	-0.150
-541.237	-200.000	0.022	-0.108
-540.223	-84.340	0.384	0.122
-539.208	-33.434	0.249	0.138
-538.193	150.393	0.075	-0.102
-537.179	-200.000	0.018	-0.213
-536.164	-200.000	-0.045	0.481
-535.150	-200.000	-0.039	-0.314
-534.135	-162.180	-0.027	0.001
-533.121	800.000	0.077	0.294
-532.106	7.053	0.144	0.108
-531.091	800.000	0.065	0.201
-530.077	-79.178	-0.180	0.061
-529.062	-200.000	-0.052	-0.513
-528.048	379.488	-0.138	0.283
-527.033	800.000	-0.075	0.266
-526.018	-22.928	0.160	-0.097
-525.004	-40.825	-0.108	-0.056
-523.989	41.984	-0.228	0.208
-522.975	-63.389	-0.034	-0.014
-521.960	74.673	-0.093	-0.098
-520.945	-11.862	-0.045	0.030
-519.931	-55.205	-0.522	0.236
-518.916	136.512	0.210	-0.275
-517.902	59.737	-0.059	-0.058
-516.887	800.000	-0.064	-0.251
-515.872	-200.000	0.028	-0.196
-514.858	16.494	-0.111	0.088
-513.843	-130.393	0.171	-0.023
-512.829	70.278	-0.275	0.285
-511.814	84.731	0.065	0.071
-510.799	-27.003	0.261	0.153
-509.785	761.589	0.044	0.120
-508.770	4.842	0.068	0.050
-507.756	-12.181	-0.088	-0.058
-506.741	87.318	0.080	0.089
-505.726	-115.778	-0.322	-0.061
-504.712	278.423	0.014	-0.026
-503.697	204.528	0.057	0.089
-502.683	-53.434	-0.106	-0.049
-501.668	-59.347	-0.189	-0.082
-500.653	-115.587	-0.452	0.085
-499.639	91.246	0.104	0.117
-498.624	631.746	-0.166	-0.423
-497.610	-200.000	-0.015	-0.086
-496.595	-200.000	0.047	0.227
-495.581	28.990	-0.262	-0.223
-494.566	71.744	-0.121	0.126
-493.551	89.113	0.075	0.084
-492.537	-34.954	-0.169	-0.093
-491.522	800.000	-0.071	-0.235
-490.508	-200.000	0.032	-0.349
-489.493	-38.855	-0.223	-0.118
-488.478	-57.084	-0.347	-0.154
-487.464	-200.000	-0.006	-0.053
-486.449	222.405	0.033	-0.053
-485.435	169.901	-0.126	-0.181
-484.420	156.591	0.176	-0.243
-483.405	-27.992	-0.391	-0.227
-482.391	-200.000	0.005	0.266
-481.376	601.614	-0.070	-0.175
-480.362	-108.282	0.215	-0.047
-479.347	-13.125	0.286	0.186
-478.332	-42.567	0.255	0.130
-477.318	175.018	0.063	0.091
-476.303	242.492	-0.136	-0.228
-475.289	230.981	0.103	-0.170
-474.274	-133.256	0.406	-0.051
-473.259	287.794	-0.115	-0.208
-472.245	94.383	0.108	-0.123
-471.230	12.093	-0.291	0.225
-470.216	-65.383	-0.424	0.171
-469.201	-13.789	-0.101	0.066
-468.186	374.445	0.188	0.384
-467.172	-133.945	0.157	-0.020
-466.157	40.158	-0.206	0.185
-465.143	135.463	0.115	0.150
-464.128	-91.666	-0.204	0.058
-463.113	-200.000	0.006	-0.127
-462.099	-130.141	-0.126	-0.017
-461.084	-111.239	0.261	-0.054
-460.070	110.441	0.010	-0.012
-459.055	-146.184	0.304	-0.027
-458.040	-175.057	0.206	-0.006
-457.026	518.167	0.057	-0.134
-456.011	-54.711	0.065	0.029
-454.997	-125.023	0.292	-0.045
-453.982	399.482	-0.099	-0.208
-452.968	-19.797	0.178	-0.110
-451.953	171.133	0.055	0.079
-450.938	148.267	0.050	0.068
-449.924	-164.005	0.216	-0.010
-448.909	-200.000	-0.048	-0.230
-447.895	418.647	-0.101	-0.215
-446.880	-104.488	-0.394	-0.091
-445.865	688.002	-0.005	0.012
-444.851	161.290	0.064	0.090
-443.836	-2.530	0.298	0.209
-442.822	-46.496	-0.187	-0.092
-441.807	-117.479	0.203	-0.037
-440.792	424.235	-0.124	-0.267
-439.778	93.516	0.264	-0.299
-438.763	-9.636	-0.214	-0.142
-437.749	448.509	0.068	-0.151
-436.734	242.418	-0.033	-0.056
-435.719	-161.019	0.272	0.014
-434.705	800.000	0.053	0.147
-433.690	-129.696	0.343	-0.047
-432.676	80.221	0.117	0.126
-431.661	132.030	0.162	-0.208
-430.646	-39.614	-0.415	-0.217
-429.632	-200.000	-0.024	0.115
-428.617	-169.010	-0.132	0.005
-427.603	-83.640	0.023	-0.007
-426.588	-26.827	-0.173	-0.101
-425.573	86.427	-0.223	0.246
-424.559	329.010	-0.166	0.320
-423.544	-163.914	0.038	-0.002
-422.530	56.246	-0.161	-0.157
-421.515	-200.000	0.006	0.081
-420.500	-83.170	0.172	-0.055
-419.486	-107.463	0.458	-0.100
-418.471	800.000	-0.085	0.297
-417.457	-23.324	-0.280	0.169
-416.442	-200.000	-0.009	-0.156
-415.428	-140.704	0.471	0.049
-414.413	-200.000	-0.027	-0.212
-413.398	-47.182	-0.256	0.125
-412.384	800.000	0.090	0.362
-411.369	-200.000	0.051	-0.224
-410.355	-200.000	0.010	0.095
-409.340	412.115	0.060	0.127
-408.325	-0.478	-0.111	0.079
-407.311	625.589	0.101	0.255
-406.296	-93.466	-0.030	0.008
-405.282	258.929	0.255	-0.440
-404.267	-116.433	0.272	0.050
-403.252	-200.000	-0.029	-0.151
-402.238	-200.000	0.071	-0.392
-401.223	-112.554	0.246	0.049
-400.209	546.679	0.081	0.194
-399.194	-100.216	0.351	-0.087
-398.179	-139.306	-0.280	-0.030
-397.165	800.000	0.030	-0.105
-396.150	48.606	-0.082	0.077
-395.136	-1.754	0.078	0.055
-394.121	-89.376	0.056	-0.017
-393.106	67.228	-0.229	-0.233
-392.092	-106.103	0.354	-0.079
-391.077	607.666	-0.064	-0.159
-390.063	-145.735	0.238	-0.021
-389.048	-4.893	0.395	0.272
-388.033	-32.822	0.075	-0.042
-387.019	126.022	-0.152	0.192
-386.004	800.000	0.004	-0.015
-384.990	72.681	0.102	-0.106
-383.975	318.801	0.112	-0.212
-382.960	800.000	-0.093	-0.354
-381.946	375.429	-0.068	0.139
-380.931	17.089	0.146	0.116
-379.917	165.895	0.021	-0.030
-378.902	-76.797	0.337	-0.118
-377.888	-69.975	0.297	-0.113
-376.873	203.618	-0.247	-0.382
-375.858	-186.322	0.141	-0.002
-374.844	-90.555	0.279	0.080
-373.829	138.828	0.148	0.195
-372.815	800.000	0.132	0.419
-371.800	-78.479	0.043	-0.015
-370.785	800.000	0.047	0.175
-369.771	240.467	-0.085	-0.141
-368.756	109.542	0.145	-0.174
-367.742	631.854	-0.085	0.215
-366.727	92.851	-0.093	0.105
-365.712	80.249	-0.204	0.219
-364.698	-200.000	-0.007	-0.087
-363.683	133.992	0.148	0.191
-362.669	-154.835	0.454	-0.030
-361.654	-78.801	-0.475	0.162
-360.639	-114.132	0.299	0.058
-359.625	800.000	0.071	-0.199
-358.610	-200.000	-0.007	-0.411
-357.596	-4.096	-0.160	0.111
-356.581	-200.000	0.019	0.097
-355.566	-84.608	-0.149	0.047
-354.552	124.393	-0.085	-0.107
-353.537	-200.000	-0.007	-0.059
-352.523	-97.091	-0.462	-0.121
-351.508	19.915	0.113	0.091
-350.493	31.262	-0.198	-0.170
-349.479	-50.833	0.041	0.019
-348.464	-71.088	-0.106	-0.040
-347.450	-200.000	-0.046	-0.248
-346.435	115.165	-0.091	0.111
-345.420	-20.963	0.047	0.029
-344.406	-200.000	0.057	0.283
-343.391	167.001	0.118	0.167
-342.377	-25.442	-0.108	0.064
-341.362	308.425	0.016	0.030
-340.348	-200.000	0.025	0.241
-339.333	-99.051	0.044	-0.011
-338.318	-200.000	-0.003	-0.097
-337.304	-68.493	0.288	0.112
-336.289	-22.748	0.165	0.100
-335.275	156.848	0.101	0.139
-334.260	-0.308	-0.289	-0.205
-333.245	382.419	-0.028	-0.057
-332.231	117.368	-0.172	-0.211
-331.216	612.874	-0.087	-0.218
-330.202	-15.393	-0.161	0.102
-329.187	-104.410	-0.091	0.021
-328.172	97.583	0.039	0.045
-327.158	-200.000	-0.018	-0.161
-326.143	-85.715	-0.122	-0.038
-325.129	134.240	0.179	0.231
-324.114	-110.021	-0.268	0.056
-323.099	-200.000	0.075	0.361
-322.085	-101.499	0.334	0.081
-321.070	-120.855	0.118	0.020
-320.056	800.000	0.079	-0.261
-319.041	-200.000	-0.041	-0.319
-318.026	-133.449	0.203	-0.025
-317.012	-142.840	-0.372	-0.036
-315.997	200.303	-0.105	-0.161
-314.983	-76.989	0.103	0.036
-313.968	-26.806	0.260	0.152
-312.953	-103.763	0.322	-0.075
-311.939	200.069	0.190	-0.291
-310.924	-166.419	-0.143	0.006
-309.910	123.566	0.074	0.092
-308.895	225.129	0.170	0.274
-307.880	41.362	-0.133	-0.120
-306.866	-22.454	0.311	-0.188
-305.851	126.929	0.131	0.165
-304.837	99.863	0.301	0.347
-303.822	366.012	0.059	0.119
-302.807	-87.883	0.222	0.066
-301.793	-200.000	-0.010	0.129
-300.778	233.798	0.059	-0.096
-299.764	-156.631	-0.365	-0.023
-298.749	729.547	0.105	0.278
-297.735	-200.000	-0.018	-0.160
-296.720	-186.551	0.150	0.002
-295.705	261.392	0.209	0.360
-294.691	119.476	0.137	-0.169
-293.676	-49.911	0.255	-0.121
-292.662	-65.339	0.405	0.162
-291.647	165.029	0.043	-0.060
-290.632	395.590	-0.064	-0.134
-289.618	-0.193	0.199	0.141
-288.603	209.270	0.169	-0.263
-287.589	-22.561	-0.409	-0.246
-286.574	-3.088	-0.178	0.123
-285.559	-117.533	0.058	0.010
-284.545	-69.771	-0.226	-0.086
-283.530	-8.118	0.164	0.110
-282.516	-124.958	-0.262	0.040
-281.501	68.945	0.156	-0.159
-280.486	8.309	-0.243	0.182
-279.472	-73.308	0.084	0.031
-278.457	-200.000	0.024	-0.270
-277.443	8.968	-0.246	-0.185
-276.428	88.332	0.060	-0.066
-275.413	-31.327	-0.082	0.046
-274.399	800.000	-0.030	0.082
-273.384	-200.000	0.051	0.386
-272.370	800.000	0.035	0.153
-271.355	-168.977	-0.298	-0.011
-270.340	15.572	0.076	0.059
-269.326	-143.573	-0.278	0.026
-268.311	-174.924	-0.121	-0.003
-267.297	78.499	0.241	0.256
-266.282	280.940	-0.065	0.115
-265.267	94.842	0.203	-0.229
-264.253	-200.000	0.018	0.231
-263.238	-98.231	0.155	0.040
-262.224	-200.000	0.003	-0.286
-261.209	664.346	0.225	0.577
-260.195	26.912	-0.053	0.044
-259.180	-200.000	-0.029	0.132
-258.165	800.000	-0.050	-0.167
-257.151	800.000	0.067	-0.288
-256.136	-61.031	-0.116	-0.049
-255.122	92.790	-0.170	-0.191
-254.107	-115.424	-0.074	-0.014
-253.092	-43.813	-0.038	-0.019
-252.078	55.137	0.240	-0.231
-251.063	-200.000	-0.006	0.070
-250.049	-200.000	-0.055	0.280
-249.034	-200.000	0.021	-0.248
-248.019	153.416	0.062	0.084
-247.005	-132.618	-0.085	0.011
-245.990	800.000	0.101	0.359
-244.976	-139.034	-0.264	0.028
-243.961	-200.000	-0.003	-0.088
-242.946	-56.129	0.176	-0.078
-241.932	58.374	0.156	-0.152
-240.917	-200.000	0.006	0.076
-239.903	-77.295	-0.161	0.056
-238.888	800.000	-0.047	0.185
-237.873	271.159	-0.037	-0.064
-236.859	27.035	0.092	-0.077
-235.844	-137.187	0.087	0.010
-234.830	-106.459	0.274	0.061
-233.815	800.000	0.063	-0.188
-232.800	-118.633	0.339	-0.060
-231.786	-200.000	-0.019	0.229
-230.771	0.927	-0.355	0.253
-229.757	87.003	0.072	-0.079
-228.742	221.880	-0.011	-0.018
-227.727	-28.549	-0.149	0.085
-226.713	40.060	-0.144	-0.129
-225.698	169.114	-0.195	0.276
-224.684	-142.009	0.157	-0.016
-223.669	-78.146	0.521	-0.178
-222.655	800.000	0.052	-0.217
-221.640	-90.888	-0.171	-0.049
-220.625	-200.000	0.044	-0.396
-219.611	140.258	0.318	0.416
-218.596	-143.351	-0.143	-0.014
-217.582	127.522	-0.174	-0.219
-216.567	73.233	0.009	-0.009
-215.552	-145.687	-0.180	0.016
-214.538	-79.342	-0.424	-0.142
-213.523	-200.000	0.009	-0.046
-212.509	-2.651	-0.280	0.195
-211.494	324.150	0.134	0.253
-210.479	20.614	-0.118	-0.095
-209.465	-146.340	0.329	0.029
-208.450	163.296	-0.222	0.309
-207.436	-153.632	0.287	0.020
-206.421	321.309	0.050	0.094
-205.406	-153.968	-0.028	-0.002
-204.392	329.256	0.121	-0.230
-203.377	-99.499	-0.180	-0.045
-202.363	-115.803	-0.122	-0.023
-201.348	-200.000	-0.012	0.066
-200.333	-114.029	-0.115	0.022
-199.319	181.721	0.084	0.123
-198.304	124.889	-0.168	-0.209
-197.290	-43.283	0.204	0.102
-196.275	508.325	-0.150	0.346
-195.260	-20.872	0.101	-0.061
-194.246	800.000	-0.056	0.229
-193.231	-200.000	0.051	0.370
-192.217	-113.161	-0.261	-0.051
-191.202	76.766	-0.170	-0.178
-190.187	-200.000	0.013	0.270
-189.173	-200.000	0.014	0.161
-188.158	49.471	-0.079	-0.074
-187.144	-160.062	-0.279	0.015
-186.129	800.000	0.057	0.243
-185.114	-138.168	-0.170	0.019
-184.100	-30.945	-0.366	-0.205
-183.085	159.960	-0.084	0.116
-182.071	-45.420	-0.206	-0.101
-181.056	-200.000	-0.009	-0.062
-180.042	-112.398	0.307	0.061
-179.027	-0.295	0.236	0.166
-178.012	-107.548	-0.390	0.085
-176.998	138.471	0.294	0.383
-175.983	174.663	0.147	0.210
-174.969	126.449	-0.133	0.167
-173.954	-33.500	-0.202	-0.111
-172.939	-0.876	0.232	-0.163
-171.925	-32.674	0.302	0.166
-170.910	167.273	-0.090	-0.126
-169.896	-6.521	-0.230	-0.155
-168.881	800.000	0.138	-0.379
-167.866	518.248	0.065	0.151
-166.852	190.955	-0.112	0.167
-165.837	800.000	-0.056	0.166
-164.823	-36.144	-0.073	-0.039
-163.808	-123.040	0.151	-0.024
-162.793	-166.237	-0.242	0.010
-161.779	472.617	-0.045	-0.100
-160.764	-136.171	0.195	0.023
-159.750	99.522	0.092	-0.105
-158.735	79.806	-0.174	-0.185
-157.720	-29.890	-0.423	0.239
-156.706	800.000	0.027	0.087
-155.691	76.379	0.184	0.193
-154.677	321.553	0.117	0.221
-153.662	-200.000	0.072	0.409
-152.647	796.144	0.121	-0.329
-151.633	-39.834	-0.114	-0.059
-150.618	133.803	0.142	-0.183
-149.604	-200.000	0.017	-0.159
-148.589	-67.785	0.069	-0.027
-147.574	-90.775	-0.173	-0.049
-146.560	-200.000	-0.004	-0.209
-145.545	53.073	0.056	-0.053
-144.531	-171.862	0.056	0.002
-143.516	230.469	-0.131	-0.212
-142.502	315.246	-0.063	0.118
-141.487	-100.570	0.032	0.008
-140.472	606.027	-0.030	0.074
-139.458	-73.910	0.433	-0.156
-138.443	-4.710	-0.326	0.222
-137.429	-200.000	0.004	0.234
-136.414	-151.434	0.031	0.002
-135.399	240.086	0.061	-0.101
-134.385	-200.000	0.028	-0.333
-133.370	800.000	-0.051	0.188
-132.356	-62.310	0.088	-0.036
-131.341	-200.000	0.007	0.459
-130.326	-169.757	-0.190	-0.007
-129.312	800.000	-0.053	-0.178
-128.297	-200.000	0.083	-0.430
-127.283	78.276	0.193	0.204
-126.268	182.252	-0.199	0.290
-125.253	-48.676	0.077	-0.037
-124.239	-123.031	-0.168	0.027
-123.224	-200.000	0.002	-0.105
-122.210	1.761	0.120	0.086
