DTS Sentinel unit serial number:	SN413079Multiplexer serial number:	ORYXHardware model number:	OX4-SRSoftware version number:	ORYX F/W v4.00 Oryx Data Collector v3.7.2.0data status	okinstallation	princeton_trtdifferential loss correction	single-endedforward channel	channel 1reverse channel	N/Adate	2019/09/15time	12:30:35forward acquisition time	60.00reverse acquisition time	0.00gamma	496.2192k internal	0.2300k external	0.2300temperature offset calibration	0.9984default loss term (dB/km)	0.3790temperature slope calibration	1.0000multiplexer offset coefficient	1.0000multiplexer slope coefficient	1.0000fibre end	0.00T internal ref (°C)	35.16T ext. ref 1 (°C)	5.05T ext. ref 2 (°C)	32.88length (m)	temperature (°C)	Stokes	anti-Stokes-747.200	800.000	0.043	-0.133
-746.185	-126.092	0.245	0.037
-745.171	800.000	0.074	0.239
-744.156	800.000	0.056	0.195
-743.142	-200.000	0.019	-0.257
-742.127	800.000	0.029	-0.094
-741.112	213.898	0.130	0.210
-740.098	-42.978	-0.161	0.083
-739.083	-152.801	-0.173	0.013
-738.069	-200.000	-0.011	0.276
-737.054	-200.000	0.001	0.143
-736.039	-93.055	-0.088	-0.025
-735.025	-200.000	-0.045	0.318
-734.010	-67.979	-0.583	0.232
-732.996	800.000	0.065	0.241
-731.981	61.165	-0.174	0.177
-730.966	4.140	0.069	0.052
-729.952	47.182	-0.175	0.166
-728.937	-6.904	-0.154	-0.107
-727.923	586.306	0.067	-0.167
-726.908	-62.325	-0.388	0.165
-725.894	102.085	-0.103	0.122
-724.879	295.041	0.073	-0.137
-723.864	162.066	-0.254	-0.362
-722.850	39.028	0.144	0.131
-721.835	-54.950	-0.255	-0.117
-720.821	-81.751	-0.204	0.068
-719.806	-12.683	-0.285	-0.189
-718.791	35.651	-0.153	-0.137
-717.777	355.700	-0.016	0.033
-716.762	-200.000	0.006	-0.136
-715.748	195.909	-0.132	-0.204
-714.733	140.082	-0.075	0.101
-713.718	417.942	-0.081	-0.177
-712.704	308.075	0.140	-0.266
-711.689	-179.077	-0.155	-0.004
-710.675	-54.237	0.208	-0.096
-709.660	65.518	0.194	0.200
-708.645	24.339	-0.170	-0.143
-707.631	705.699	0.027	0.072
-706.616	-76.604	-0.359	0.128
-705.602	-33.393	-0.091	0.051
-704.587	90.754	0.053	0.061
-703.572	800.000	-0.027	-0.107
-702.558	530.484	0.069	-0.166
-701.543	-146.910	-0.300	0.026
-700.529	372.854	0.174	-0.359
-699.514	212.939	0.118	0.189
-698.499	-46.064	0.053	0.027
-697.485	-200.000	0.033	-0.183
-696.470	-200.000	0.012	-0.211
-695.456	-200.000	-0.032	-0.144
-694.441	375.956	-0.031	0.064
-693.426	74.226	0.083	0.089
-692.412	0.620	-0.143	-0.104
-691.397	93.950	0.148	-0.171
-690.383	-101.182	-0.369	0.092
-689.368	-95.039	-0.055	-0.015
-688.354	-102.228	0.068	0.017
-687.339	45.102	-0.152	-0.142
-686.324	2.159	0.109	0.080
-685.310	57.485	0.084	0.083
-684.295	-139.639	-0.117	0.013
-683.281	-79.538	-0.116	-0.040
-682.266	53.894	-0.318	0.311
-681.251	-143.754	-0.307	0.030
-680.237	800.000	-0.037	-0.165
-679.222	-200.000	-0.018	-0.236
-678.208	800.000	-0.012	-0.052
-677.193	149.003	-0.146	-0.201
-676.178	-200.000	0.045	0.279
-675.164	54.399	0.266	0.260
-674.149	171.973	-0.110	0.161
-673.135	-61.002	-0.353	-0.152
-672.120	800.000	-0.037	-0.125
-671.105	-56.796	0.200	-0.090
-670.091	800.000	-0.118	-0.337
-669.076	-134.091	-0.073	-0.009
-668.062	-103.510	0.029	-0.007
-667.047	-200.000	0.017	0.102
-666.032	-151.338	0.322	-0.024
-665.018	800.000	0.053	-0.168
-664.003	-12.754	0.262	-0.173
-662.989	421.082	-0.159	-0.347
-661.974	-109.243	-0.099	-0.021
-660.959	129.827	-0.044	0.058
-659.945	57.775	0.164	0.163
-658.930	194.620	0.119	0.183
-657.916	-200.000	-0.016	0.308
-656.901	-200.000	-0.013	0.311
-655.886	20.968	0.196	-0.161
-654.872	800.000	0.099	-0.410
-653.857	-47.061	-0.100	0.049
-652.843	48.468	-0.184	-0.175
-651.828	-42.240	0.210	-0.109
-650.814	800.000	-0.006	-0.017
-649.799	44.121	-0.200	0.186
-648.784	-63.418	0.051	0.021
-647.770	-128.331	0.221	-0.032
-646.755	-13.803	0.249	0.164
-645.741	-80.099	-0.486	0.166
-644.726	800.000	-0.127	-0.386
-643.711	56.428	0.266	-0.263
-642.697	54.890	-0.180	0.176
-641.682	185.842	-0.055	-0.082
-640.668	-29.139	-0.156	0.091
-639.653	-200.000	-0.032	-0.246
-638.638	-76.187	-0.226	-0.081
-637.624	800.000	0.052	0.157
-636.609	49.955	0.189	0.181
-635.595	-200.000	0.004	0.230
-634.580	329.789	-0.090	0.176
-633.565	-135.960	0.210	0.025
-632.551	460.528	0.172	-0.389
-631.536	-200.000	0.023	-0.244
-630.522	800.000	-0.030	-0.132
-629.507	110.056	-0.033	0.040
-628.492	-200.000	0.036	-0.272
-627.478	259.648	-0.077	0.135
-626.463	-106.724	0.059	-0.013
-625.449	-200.000	0.031	-0.526
-624.434	82.637	-0.102	-0.112
-623.419	28.071	-0.138	0.119
-622.405	-120.489	0.478	0.082
-621.390	-126.102	-0.284	0.043
-620.376	677.128	-0.058	-0.153
-619.361	-88.043	-0.338	-0.103
-618.346	170.580	0.099	0.144
-617.332	-200.000	-0.052	0.498
-616.317	800.000	0.024	-0.090
-615.303	619.304	-0.069	-0.177
-614.288	203.409	0.225	-0.352
-613.273	286.375	-0.255	-0.466
-612.259	-179.351	0.451	0.010
-611.244	1.739	-0.205	-0.150
-610.230	456.152	0.034	0.076
-609.215	15.466	0.104	-0.083
-608.201	-96.247	-0.435	-0.117
-607.186	800.000	0.006	-0.019
-606.171	-100.274	-0.253	-0.064
-605.157	-69.592	-0.321	-0.125
-604.142	-107.340	0.148	-0.033
-603.128	76.811	0.168	0.181
-602.113	127.104	-0.178	0.229
-601.098	530.779	0.075	0.179
-600.084	-30.759	-0.140	0.080
-599.069	-68.663	0.228	-0.090
-598.055	-200.000	0.011	-0.133
-597.040	130.965	-0.156	0.203
-596.025	201.938	0.358	-0.559
-595.011	6.075	-0.279	-0.210
-593.996	800.000	-0.040	0.141
-592.982	-200.000	0.030	0.294
-591.967	800.000	-0.087	-0.245
-590.952	-146.646	-0.217	-0.019
-589.938	-116.292	0.044	0.008
-588.923	-200.000	0.048	0.278
-587.909	-200.000	0.026	0.293
-586.894	-200.000	0.242	0.000
-585.879	91.603	0.306	0.349
-584.865	757.871	-0.061	-0.166
-583.850	330.486	-0.080	0.156
-582.836	165.672	-0.108	0.155
-581.821	69.642	-0.032	0.034
-580.806	-109.018	0.091	-0.020
-579.792	112.072	0.192	-0.235
-578.777	-200.000	-0.016	0.329
-577.763	800.000	-0.046	0.182
-576.748	-20.605	-0.116	0.072
-575.733	546.361	-0.057	0.139
-574.719	-200.000	-0.015	-0.084
-573.704	-200.000	0.007	0.097
-572.690	-74.740	-0.065	0.024
-571.675	239.105	-0.046	0.077
-570.661	205.292	-0.098	-0.155
-569.646	-124.401	0.114	-0.018
-568.631	-40.502	0.190	0.100
-567.617	-200.000	-0.027	0.131
-566.602	800.000	0.034	0.122
-565.588	-200.000	0.078	-0.367
-564.573	-22.394	-0.110	0.067
-563.558	212.190	-0.013	-0.021
-562.544	-118.327	0.299	-0.054
-561.529	53.196	-0.096	0.093
-560.515	20.135	0.227	0.185
-559.500	2.887	-0.085	0.062
-558.485	43.428	0.088	0.081
-557.471	-104.624	-0.168	-0.039
-556.456	-68.427	0.348	-0.137
-555.442	-48.189	-0.214	-0.105
-554.427	9.921	0.253	-0.194
-553.412	-200.000	0.003	-0.059
-552.398	-67.615	-0.141	-0.056
-551.383	800.000	0.047	-0.152
-550.369	-115.015	-0.336	-0.065
-549.354	85.177	-0.131	0.146
-548.339	57.982	0.068	-0.067
-547.325	-92.836	0.379	-0.107
-546.310	71.692	-0.176	0.185
-545.296	312.124	0.136	-0.258
-544.281	522.809	0.134	-0.319
-543.266	800.000	0.068	0.257
-542.252	-121.496	0.043	-0.007
-541.237	-113.433	0.414	0.082
-540.223	-103.490	-0.365	0.087
-539.208	78.742	-0.136	-0.147
-538.193	-77.696	0.322	0.113
-537.179	800.000	0.074	-0.238
-536.164	-77.311	-0.237	-0.084
-535.150	-105.924	0.272	0.062
-534.135	800.000	-0.049	-0.196
-533.121	-200.000	0.001	-0.122
-532.106	-48.602	-0.272	0.132
-531.091	366.046	0.080	-0.162
-530.077	-26.303	-0.203	0.121
-529.062	-90.632	0.130	-0.038
-528.048	-117.916	-0.131	0.024
-527.033	-200.000	0.002	0.154
-526.018	103.301	0.152	-0.180
-525.004	119.176	0.053	0.066
-523.989	200.477	-0.277	0.430
-522.975	800.000	0.051	-0.224
-521.960	-90.000	0.061	-0.018
-520.945	-53.413	-0.397	0.184
-519.931	165.374	-0.144	-0.206
-518.916	-138.272	-0.147	-0.016
-517.902	-15.654	0.167	-0.108
-516.887	652.368	-0.050	0.130
-515.872	-181.334	-0.197	0.004
-514.858	-178.642	-0.077	0.002
-513.843	-42.130	0.225	-0.116
-512.829	-200.000	-0.002	-0.065
-511.814	518.198	-0.130	0.307
-510.799	800.000	0.082	0.294
-509.785	-200.000	-0.066	0.321
-508.770	638.457	0.073	0.187
-507.756	-200.000	0.018	-0.375
-506.741	-143.431	-0.094	-0.009
-505.726	-200.000	0.014	-0.170
-504.712	109.595	-0.070	0.085
-503.697	-200.000	0.023	0.140
-502.683	-135.850	0.157	0.019
-501.668	-200.000	0.002	-0.014
-500.653	-86.776	-0.251	0.078
-499.639	-200.000	0.026	-0.393
-498.624	-200.000	-0.236	0.001
-497.610	663.503	0.121	0.316
-496.595	-138.070	-0.352	0.040
-495.581	20.915	-0.228	-0.187
-494.566	413.838	-0.079	0.169
-493.551	104.908	0.159	-0.190
-492.537	-44.464	0.046	-0.023
-491.522	-102.202	-0.057	-0.014
-490.508	-11.011	0.313	-0.209
-489.493	222.003	0.124	0.201
-488.478	578.579	0.046	0.114
-487.464	-200.000	0.007	-0.164
-486.449	-2.784	-0.061	-0.043
-485.435	134.454	-0.105	0.138
-484.420	110.207	0.009	0.011
-483.405	-167.386	-0.283	0.011
-482.391	-6.157	-0.302	-0.208
-481.376	155.989	0.167	0.232
-480.362	-68.575	-0.185	-0.072
-479.347	-65.703	-0.085	0.034
-478.332	748.626	0.077	-0.209
-477.318	697.710	-0.066	-0.175
-476.303	-48.169	0.287	0.140
-475.289	8.302	-0.045	-0.034
-474.274	83.904	-0.129	-0.142
-473.259	-200.000	-0.020	0.162
-472.245	-116.358	0.252	-0.047
-471.230	19.968	0.221	-0.179
-470.216	-84.224	0.284	-0.091
-469.201	-70.694	-0.133	0.051
-468.186	22.149	0.043	-0.036
-467.172	800.000	-0.077	-0.251
-466.157	-125.417	-0.304	-0.047
-465.143	800.000	0.033	0.145
-464.128	-129.289	-0.406	0.057
-463.113	-40.168	-0.184	0.096
-462.099	32.083	-0.243	0.211
-461.084	183.498	0.034	0.051
-460.070	-200.000	-0.001	0.256
-459.055	-78.586	-0.356	-0.123
-458.040	151.262	-0.044	-0.060
-457.026	108.444	-0.125	-0.150
-456.011	30.177	-0.120	0.103
-454.997	470.006	0.053	-0.119
-453.982	-71.844	0.239	-0.090
-452.968	-138.312	-0.139	-0.016
-451.953	12.574	0.121	-0.094
-450.938	76.350	0.010	0.011
-449.924	-200.000	-0.041	0.231
-448.909	-21.149	-0.205	0.126
-447.895	99.486	-0.175	-0.204
-446.880	-63.943	-0.201	-0.083
-445.865	359.204	0.050	0.101
-444.851	-172.219	0.264	-0.009
-443.836	-6.229	-0.217	0.149
-442.822	-119.588	-0.109	0.019
-441.807	32.303	-0.122	0.106
-440.792	-138.471	0.196	0.022
-439.778	-185.517	-0.047	-0.001
-438.763	13.677	0.151	0.118
-437.749	-64.832	0.154	0.063
-436.734	-88.377	0.175	-0.053
-435.719	115.726	0.215	-0.266
-434.705	29.491	-0.150	-0.129
-433.690	-200.000	-0.039	0.267
-432.676	-5.604	0.108	0.075
-431.661	222.739	-0.103	-0.167
-430.646	800.000	-0.092	-0.273
-429.632	140.444	-0.230	-0.306
-428.617	-14.688	0.208	0.135
-427.603	-13.565	0.142	0.093
-426.588	383.311	0.086	-0.179
-425.573	-140.185	-0.126	-0.013
-424.559	800.000	-0.019	0.060
-423.544	81.053	0.132	-0.143
-422.530	264.515	-0.140	-0.245
-421.515	-134.869	-0.180	-0.022
-420.500	-28.504	0.089	-0.052
-419.486	-16.975	-0.111	0.070
-418.471	-87.391	-0.270	-0.082
-417.457	800.000	-0.040	0.164
-416.442	-149.926	-0.050	0.004
-415.428	-50.896	-0.162	-0.077
-414.413	-114.793	-0.205	0.039
-413.398	128.596	0.094	-0.121
-412.384	-161.116	0.032	0.002
-411.369	800.000	-0.180	-0.704
-410.355	16.942	-0.060	-0.048
-409.340	116.338	-0.116	-0.143
-408.325	-121.834	-0.147	0.024
-407.311	800.000	-0.069	-0.233
-406.296	-64.399	0.200	0.082
-405.282	-85.217	0.192	-0.060
-404.267	-138.083	-0.220	-0.025
-403.252	-80.528	0.217	-0.073
-402.238	121.091	0.236	0.296
-401.223	156.234	-0.152	-0.211
-400.209	800.000	0.077	-0.274
-399.194	-48.940	-0.370	0.179
-398.179	-39.470	-0.173	-0.091
-397.165	-200.000	-0.025	-0.149
-396.150	-184.901	0.238	-0.004
-395.136	-200.000	0.014	0.370
-394.121	-200.000	0.005	-0.375
-393.106	-116.783	0.069	-0.013
-392.092	233.075	0.081	-0.133
-391.077	-200.000	-0.072	-0.319
-390.063	-33.447	-0.312	-0.174
-389.048	124.907	-0.228	-0.288
-388.033	-200.000	-0.022	-0.144
-387.019	-114.148	-0.314	0.061
-386.004	153.881	0.081	0.112
-384.990	-46.867	0.253	0.124
-383.975	-30.707	0.271	-0.154
-382.960	-124.667	0.255	0.040
-381.946	471.868	-0.111	0.251
-380.931	-200.000	-0.011	-0.149
-379.917	-46.279	0.144	0.071
-378.902	-188.040	0.150	0.002
-377.888	52.718	-0.249	-0.239
-376.873	800.000	0.108	0.307
-375.858	56.600	0.273	0.267
-374.844	56.960	-0.105	0.103
-373.829	-200.000	0.025	-0.126
-372.815	-200.000	0.011	0.056
-371.800	-165.405	-0.086	-0.004
-370.785	83.638	-0.190	0.208
-369.771	800.000	0.088	0.267
-368.756	-124.329	0.135	-0.021
-367.742	758.816	0.118	-0.321
-366.727	116.594	0.115	0.142
-365.712	-72.419	-0.170	-0.063
-364.698	170.538	0.128	-0.185
-363.683	-200.000	0.057	0.258
-362.669	800.000	0.023	0.066
-361.654	-91.624	-0.355	-0.101
-360.639	117.452	-0.058	-0.071
-359.625	-2.315	-0.218	0.153
-358.610	-33.971	0.180	-0.100
-357.596	800.000	0.092	0.266
-356.581	245.679	-0.258	0.437
-355.566	-112.634	-0.081	0.016
-354.552	631.086	0.043	-0.109
-353.537	-79.647	0.428	0.145
-352.523	-33.487	0.240	0.133
-351.508	-41.537	0.262	0.135
-350.493	608.805	0.169	0.423
-349.479	218.462	0.086	0.138
-348.464	-140.027	0.314	-0.033
-347.450	-200.000	0.007	-0.050
-346.435	-200.000	-0.016	-0.195
-345.420	283.551	0.017	-0.030
-344.406	105.754	0.034	-0.041
-343.391	-8.608	-0.199	-0.134
-342.377	68.223	-0.049	-0.051
-341.362	-200.000	0.001	0.036
-340.348	-24.468	0.198	-0.118
-339.333	73.249	0.198	0.208
-338.318	-200.000	0.032	-0.273
-337.304	-107.119	-0.143	-0.032
-336.289	9.685	-0.154	-0.117
-335.275	208.422	-0.168	0.264
-334.260	-16.311	0.172	-0.110
-333.245	-178.830	0.511	-0.012
-332.231	-108.645	0.130	0.028
-331.216	-94.173	-0.231	-0.064
-330.202	52.673	-0.031	-0.030
-329.187	-197.293	0.268	0.002
-328.172	385.777	0.154	0.319
-327.158	89.658	0.147	-0.165
-326.143	386.296	0.085	0.177
-325.129	375.436	0.062	-0.128
-324.114	-107.613	0.214	-0.047
-323.099	-32.483	-0.223	-0.125
-322.085	-130.713	-0.111	0.015
-321.070	-75.334	-0.092	-0.033
-320.056	29.784	-0.120	0.102
-319.041	-96.776	-0.264	0.070
-318.026	-200.000	0.019	0.374
-317.012	-122.161	-0.303	-0.050
-315.997	800.000	0.023	-0.083
-314.983	-17.064	-0.224	-0.142
-313.968	321.397	0.098	-0.186
-312.953	309.848	0.079	-0.148
-311.939	215.943	-0.117	0.186
-310.924	280.809	0.035	0.062
-309.910	45.196	0.285	0.264
-308.895	-87.273	-0.261	-0.079
-307.880	-200.000	0.005	-0.055
-306.866	-17.075	0.022	0.014
-305.851	-40.279	-0.209	0.109
-304.837	71.674	0.159	0.166
-303.822	-105.824	0.384	-0.087
-302.807	19.172	0.118	0.095
-301.793	-44.461	0.300	-0.151
-300.778	-200.000	-0.022	0.121
-299.764	250.258	-0.163	0.278
-298.749	-13.126	-0.392	0.255
-297.735	34.388	-0.104	0.091
-296.720	388.866	0.119	0.246
-295.705	-200.000	0.000	-0.086
-294.691	-141.985	0.170	-0.017
-293.676	-200.000	-0.005	0.094
-292.662	-172.096	0.315	-0.010
-291.647	-154.354	-0.245	0.016
-290.632	232.271	-0.182	-0.300
-289.618	57.407	-0.168	0.164
-288.603	-166.801	0.408	-0.017
-287.589	190.540	0.065	0.098
-286.574	-133.768	-0.265	0.033
-285.559	526.091	0.109	0.258
-284.545	15.041	-0.103	0.081
-283.530	-82.925	-0.128	0.041
-282.516	-200.000	0.013	-0.272
-281.501	-90.493	0.089	-0.026
-280.486	232.014	0.222	0.365
-279.472	49.714	0.146	0.138
-278.457	-200.000	0.029	0.152
-277.443	-70.115	-0.164	0.063
-276.428	19.619	0.242	-0.195
-275.413	800.000	0.023	0.085
-274.399	-122.515	0.180	-0.029
-273.384	66.338	-0.247	0.252
-272.370	566.825	0.101	-0.246
-271.355	-200.000	-0.037	-0.205
-270.340	800.000	0.024	0.090
-269.326	151.470	-0.120	-0.163
-268.311	257.535	-0.032	-0.054
-267.297	-51.762	0.410	0.191
-266.282	-200.000	-0.094	0.000
-265.267	-196.230	-0.148	-0.001
-264.253	-136.460	0.193	0.022
-263.238	502.938	0.020	0.047
-262.224	77.140	0.095	0.101
-261.209	700.388	-0.155	-0.409
-260.195	800.000	-0.094	-0.379
-259.180	-154.748	0.380	-0.025
-258.165	330.620	0.106	0.205
-257.151	40.145	0.293	0.264
-256.136	-17.017	-0.188	-0.119
-255.122	-92.982	-0.494	0.138
-254.107	57.765	0.189	-0.185
-253.092	110.201	0.249	-0.299
-252.078	-200.000	-0.010	-0.181
-251.063	83.227	-0.069	0.075
-250.049	138.353	0.146	0.191
-249.034	129.657	-0.093	0.119
-248.019	561.502	0.084	0.204
-247.005	21.915	0.124	-0.101
-245.990	77.789	0.417	0.445
-244.976	-200.000	0.034	0.438
-243.961	-127.777	0.267	-0.039
-242.946	137.500	0.146	-0.191
-241.932	-200.000	-0.002	0.142
-240.917	-200.000	-0.024	0.246
-239.903	-185.225	0.292	-0.005
-238.888	-97.454	0.263	0.068
-237.873	-200.000	-0.041	0.441
-236.859	-120.563	0.042	-0.007
-235.844	115.626	0.169	0.207
-234.830	800.000	0.069	0.202
-233.815	-49.140	-0.146	-0.070
-232.800	-200.000	0.016	-0.219
-231.786	-148.048	0.271	0.022
-230.771	-69.156	0.221	-0.085
-229.757	800.000	-0.032	0.121
-228.742	-71.020	-0.290	-0.109
-227.727	-198.391	0.299	-0.002
-226.713	-78.334	0.273	0.094
-225.698	176.366	0.363	-0.527
-224.684	-200.000	0.006	-0.115
-223.669	557.869	-0.109	0.263
-222.655	61.252	-0.153	0.152
-221.640	87.875	-0.149	0.165
-220.625	-200.000	-0.023	-0.294
-219.611	653.303	-0.055	-0.142
-218.596	-49.441	-0.186	0.089
-217.582	94.366	-0.055	-0.063
-216.567	351.969	0.056	0.111
-215.552	154.845	0.173	-0.238
-214.538	476.931	0.077	-0.174
-213.523	-36.713	0.195	-0.105
-212.509	279.796	0.056	-0.099
-211.494	800.000	0.044	0.131
-210.479	515.050	0.035	0.082
-209.465	377.298	-0.113	0.230
-208.450	-34.434	-0.153	0.084
-207.436	198.679	0.013	-0.020
-206.421	-69.298	0.213	-0.082
-205.406	4.507	-0.047	0.035
-204.392	-161.655	0.488	-0.025
-203.377	-200.000	0.018	-0.105
-202.363	190.522	0.064	-0.096
-201.348	-200.000	-0.003	-0.082
-200.333	-200.000	-0.043	-0.361
-199.319	800.000	-0.057	-0.239
-198.304	800.000	0.061	-0.215
-197.290	-46.110	0.220	-0.108
-196.275	800.000	0.096	-0.293
-195.260	-64.023	0.203	0.083
-194.246	-66.450	-0.319	-0.126
-193.231	-200.000	-0.013	0.289
-192.217	502.978	-0.163	0.377
-191.202	-118.562	-0.293	0.052
-190.187	-200.000	0.024	-0.193
-189.173	-63.259	0.290	0.119
-188.158	-200.000	0.032	-0.227
-187.144	-127.986	-0.354	0.051
-186.129	247.371	-0.037	-0.063
-185.114	132.820	0.182	0.234
-184.100	-174.054	-0.067	0.002
-183.085	-48.163	-0.079	0.038
-182.071	191.390	-0.125	0.188
-181.056	-123.457	0.218	0.035
-180.042	432.463	-0.065	0.142
-179.027	417.469	-0.085	-0.181
-178.012	615.698	0.027	-0.067
-176.998	46.289	0.235	0.217
-175.983	-115.897	-0.235	0.044
-174.969	800.000	0.032	0.101
-173.954	-40.181	-0.172	0.089
-172.939	-58.678	0.204	-0.088
-171.925	-94.026	-0.312	0.086
-170.910	3.816	-0.242	0.176
-169.896	40.841	-0.113	0.102
-168.881	800.000	-0.041	-0.126
-167.866	15.732	-0.211	-0.165
-166.852	112.639	-0.091	-0.110
-165.837	68.908	-0.200	-0.204
-164.823	800.000	-0.018	0.070
-163.808	-200.000	0.010	0.110
-162.793	261.694	0.152	-0.262
-161.779	361.156	0.071	-0.142
-160.764	-64.139	-0.314	-0.128
-159.750	369.313	-0.085	0.172
-158.735	800.000	0.078	-0.266
-157.720	349.442	-0.224	0.441
-156.706	800.000	-0.082	0.237
-155.691	-109.432	-0.292	0.061
-154.677	-183.614	0.030	0.001
-153.662	66.645	0.115	0.116
-152.647	-71.903	-0.148	-0.055
-151.633	-39.981	0.130	0.068
-150.618	-37.335	-0.105	-0.056
-149.604	-132.961	0.059	0.007
-148.589	572.950	-0.081	0.196
-147.574	-140.853	-0.231	-0.024
-146.560	168.513	0.085	0.120
-145.545	409.935	-0.058	0.121
-144.531	-42.022	-0.219	0.112
-143.516	-122.232	0.041	-0.007
-142.502	-96.339	-0.444	-0.117
-141.487	588.442	0.060	0.146
-140.472	7.854	-0.396	-0.296
-139.458	-138.572	0.149	-0.016
-138.443	-200.000	-0.024	-0.327
-137.429	-115.723	0.164	0.031
-136.414	9.969	0.253	0.191
-135.399	246.635	0.065	-0.110
-134.385	-59.146	-0.301	-0.129
-133.370	-95.429	-0.343	-0.092
-132.356	-115.890	-0.112	0.021
-131.341	-200.000	-0.010	0.257
-130.326	800.000	-0.067	0.213
-129.312	-182.603	0.301	-0.005
-128.297	-99.369	0.119	0.030
-127.283	-200.000	0.023	-0.224
-126.268	33.107	-0.186	0.161
-125.253	-96.569	0.464	0.122
-124.239	209.299	-0.051	0.080
-123.224	28.590	0.310	0.261
-122.210	163.885	-0.029	0.041
-121.195	-50.418	0.105	-0.050
