DTS Sentinel unit serial number:	SN413079Multiplexer serial number:	ORYXHardware model number:	OX4-SRSoftware version number:	ORYX F/W v4.00 Oryx Data Collector v3.7.2.0data status	okinstallation	princeton_trtdifferential loss correction	single-endedforward channel	channel 1reverse channel	N/Adate	2019/09/14time	21:58:35forward acquisition time	60.00reverse acquisition time	0.00gamma	496.2192k internal	0.2318k external	0.2318temperature offset calibration	1.0006default loss term (dB/km)	0.3790temperature slope calibration	1.0000multiplexer offset coefficient	1.0000multiplexer slope coefficient	1.0000fibre end	0.00T internal ref (°C)	32.69T ext. ref 1 (°C)	4.72T ext. ref 2 (°C)	27.67length (m)	temperature (°C)	Stokes	anti-Stokes-747.200	-164.374	0.308	0.014
-746.185	344.902	-0.081	0.160
-745.171	-107.200	-0.094	0.021
-744.156	-126.813	-0.413	0.062
-743.142	800.000	0.065	0.223
-742.127	800.000	-0.022	0.064
-741.112	-73.438	0.093	-0.034
-740.098	306.147	-0.114	0.214
-739.083	-86.367	0.085	0.026
-738.069	77.679	0.042	0.045
-737.054	700.679	-0.101	-0.270
-736.039	649.840	-0.058	-0.151
-735.025	423.595	0.178	0.387
-734.010	-200.000	0.061	-0.321
-732.996	384.165	0.147	-0.307
-731.981	-69.083	0.239	0.093
-730.966	-200.000	0.008	-0.324
-729.952	-20.533	-0.302	-0.188
-728.937	800.000	-0.085	-0.248
-727.923	95.085	0.131	0.151
-726.908	680.158	0.027	0.070
-725.894	419.796	0.098	-0.213
-724.879	113.758	-0.055	-0.068
-723.864	-42.192	-0.326	-0.169
-722.850	50.051	-0.205	0.195
-721.835	-200.000	0.012	-0.277
-720.821	-200.000	-0.016	-0.240
-719.806	289.350	-0.118	-0.217
-718.791	184.877	0.178	-0.266
-717.777	-200.000	0.026	0.206
-716.762	-27.581	-0.090	0.053
-715.748	64.780	-0.011	0.011
-714.733	-50.714	-0.113	-0.054
-713.718	348.438	0.181	0.361
-712.704	143.285	0.182	-0.245
-711.689	-200.000	-0.034	0.153
-710.675	-146.890	0.082	-0.007
-709.660	27.665	-0.102	0.087
-708.645	-105.544	-0.243	0.056
-707.631	-200.000	-0.051	0.355
-706.616	8.623	-0.229	-0.174
-705.602	800.000	0.083	0.245
-704.587	-134.756	-0.266	0.033
-703.572	-108.419	0.322	-0.070
-702.558	59.898	-0.140	0.140
-701.543	-65.740	-0.159	0.064
-700.529	56.503	0.049	-0.048
-699.514	-200.000	0.013	-0.135
-698.499	392.528	0.042	-0.089
-697.485	-136.607	-0.176	-0.021
-696.470	800.000	-0.042	-0.174
-695.456	219.622	-0.150	-0.243
-694.441	-107.599	0.079	0.017
-693.426	52.892	-0.065	-0.063
-692.412	-67.333	-0.117	0.047
-691.397	-60.236	0.380	0.163
-690.383	-26.350	0.196	0.116
-689.368	-173.251	0.235	-0.007
-688.354	37.703	-0.125	0.112
-687.339	-170.669	0.175	0.006
-686.324	-200.000	0.005	-0.109
-685.310	-103.937	0.344	0.081
-684.295	-200.000	0.005	0.022
-683.281	-79.296	-0.129	-0.044
-682.266	-158.843	0.100	-0.006
-681.251	28.028	-0.059	0.051
-680.237	-200.000	0.020	0.110
-679.222	-147.916	0.034	0.003
-678.208	280.810	-0.098	-0.176
-677.193	-31.838	-0.197	0.112
-676.178	111.669	0.224	-0.272
-675.164	-64.059	0.157	0.065
-674.149	-200.000	0.032	0.278
-673.135	800.000	0.035	-0.146
-672.120	-114.191	0.330	-0.064
-671.105	-85.692	0.239	-0.075
-670.091	-88.192	-0.270	-0.082
-669.076	36.940	-0.121	0.108
-668.062	182.371	-0.167	0.249
-667.047	607.879	0.072	-0.181
-666.032	15.732	-0.074	-0.058
-665.018	260.876	-0.039	-0.068
-664.003	-14.014	0.070	-0.046
-662.989	-87.559	-0.159	-0.049
-661.974	-163.768	-0.374	0.018
-660.959	-200.000	0.009	0.162
-659.945	-110.388	0.275	0.058
-658.930	162.192	0.102	0.144
-657.916	-173.372	-0.394	0.012
-656.901	-200.000	-0.013	0.224
-655.886	-200.000	0.051	-0.551
-654.872	715.216	-0.057	0.152
-653.857	254.773	0.065	-0.112
-652.843	-48.321	-0.134	-0.065
-651.828	112.100	0.117	0.142
-650.814	688.876	-0.083	0.219
-649.799	-200.000	0.008	-0.127
-648.784	-113.843	-0.261	0.051
-647.770	-67.109	-0.212	0.084
-646.755	-152.218	0.221	-0.016
-645.741	800.000	0.020	-0.077
-644.726	-160.232	0.302	-0.016
-643.711	-64.762	0.342	-0.140
-642.697	65.839	0.109	0.111
-641.682	5.388	-0.104	-0.077
-640.668	-20.882	-0.059	-0.036
-639.653	1.317	-0.393	0.285
-638.638	-200.000	0.014	-0.187
-637.624	-35.366	-0.138	-0.076
-636.609	-91.369	-0.304	0.087
-635.595	-200.000	-0.002	-0.048
-634.580	-200.000	-0.045	-0.468
-633.565	-110.952	-0.107	-0.022
-632.551	77.913	0.079	-0.085
-631.536	-63.133	-0.150	-0.062
-630.522	-10.717	0.117	0.078
-629.507	-200.000	0.008	-0.038
-628.492	-200.000	0.002	-0.088
-627.478	131.575	-0.156	-0.202
-626.463	-45.565	0.267	-0.133
-625.449	-61.580	0.277	-0.117
-624.434	-130.049	-0.102	-0.014
-623.419	-200.000	0.050	0.232
-622.405	-118.977	-0.226	0.040
-621.390	495.959	0.034	-0.078
-620.376	-25.612	0.099	-0.059
-619.361	-3.893	0.181	-0.127
-618.346	85.415	0.124	-0.138
-617.332	-200.000	-0.011	-0.050
-616.317	-200.000	0.030	0.225
-615.303	14.096	0.240	-0.188
-614.288	-117.762	0.433	0.078
-613.273	-200.000	0.006	-0.273
-612.259	754.816	0.051	-0.139
-611.244	-121.257	-0.130	0.022
-610.230	88.922	-0.115	0.129
-609.215	-115.766	-0.163	-0.031
-608.201	-200.000	-0.008	-0.341
-607.186	-131.243	-0.009	0.001
-606.171	-12.335	0.248	-0.163
-605.157	-58.431	0.365	-0.160
-604.142	-200.000	-0.036	-0.345
-603.128	503.839	-0.023	-0.054
-602.113	-145.546	-0.185	-0.017
-601.098	255.524	-0.122	-0.211
-600.084	-75.976	-0.379	0.135
-599.069	-13.636	-0.245	-0.160
-598.055	-65.870	0.082	-0.033
-597.040	1.730	0.127	0.092
-596.025	-89.700	0.108	-0.032
-595.011	-200.000	-0.004	-0.108
-593.996	-60.709	-0.123	0.053
-592.982	164.201	0.117	-0.165
-591.967	-69.752	-0.282	-0.108
-590.952	144.076	0.054	-0.072
-589.938	-26.487	-0.201	-0.118
-588.923	20.901	-0.075	-0.061
-587.909	300.212	0.222	-0.412
-586.894	800.000	0.032	-0.119
-585.879	615.672	0.039	-0.099
-584.865	800.000	0.056	-0.227
-583.850	-200.000	0.001	-0.067
-582.836	-25.690	0.172	-0.102
-581.821	800.000	-0.056	-0.159
-580.806	800.000	-0.074	-0.241
-579.792	-58.200	-0.227	0.100
-578.777	55.267	-0.105	-0.102
-577.763	-63.836	-0.213	0.088
-576.748	622.395	-0.123	0.312
-575.733	391.869	-0.157	0.328
-574.719	-93.152	0.125	-0.035
-573.704	644.609	-0.113	-0.291
-572.690	-200.000	0.010	0.173
-571.675	-127.203	0.352	-0.052
-570.661	396.522	-0.036	-0.076
-569.646	-84.023	-0.281	-0.090
-568.631	-59.233	-0.139	0.060
-567.617	-84.711	-0.085	-0.027
-566.602	464.126	-0.095	0.214
-565.588	800.000	-0.119	-0.373
-564.573	455.256	0.188	-0.419
-563.558	-0.808	-0.176	0.126
-562.544	-98.014	0.077	-0.020
-561.529	-69.035	-0.059	0.023
-560.515	-81.201	-0.198	-0.066
-559.500	-144.244	0.365	0.034
-558.485	800.000	-0.099	0.326
-557.471	-200.000	0.007	0.082
-556.456	-10.150	-0.203	-0.135
-555.442	800.000	0.037	0.104
-554.427	800.000	0.072	0.212
-553.412	12.743	0.063	-0.049
-552.398	-47.363	0.139	0.068
-551.383	98.214	0.102	0.118
-550.369	-93.453	-0.215	-0.060
-549.354	185.288	-0.093	0.139
-548.339	-84.012	-0.188	0.060
-547.325	251.642	-0.030	0.052
-546.310	800.000	-0.044	-0.149
-545.296	-200.000	-0.008	0.257
-544.281	188.659	0.160	0.240
-543.266	212.857	-0.071	0.113
-542.252	-36.978	0.220	0.118
-541.237	800.000	-0.088	0.292
-540.223	-77.788	0.310	0.108
-539.208	800.000	-0.064	-0.269
-538.193	-200.000	-0.019	-0.121
-537.179	143.249	-0.179	-0.239
-536.164	-200.000	-0.038	0.447
-535.150	-200.000	-0.002	0.242
-534.135	-2.895	0.403	-0.282
-533.121	90.099	0.172	-0.193
-532.106	15.265	0.379	-0.298
-531.091	-109.048	-0.283	0.061
-530.077	-116.322	-0.418	0.078
-529.062	178.813	0.125	0.183
-528.048	-26.192	0.168	-0.099
-527.033	-58.072	-0.341	0.149
-526.018	147.088	0.227	0.307
-525.004	-159.038	0.164	-0.009
-523.989	-200.000	-0.021	-0.203
-522.975	111.420	0.147	0.178
-521.960	-106.937	0.120	0.027
-520.945	261.654	0.070	0.122
-519.931	-110.463	-0.328	-0.068
-518.916	669.343	-0.068	-0.177
-517.902	-200.000	-0.041	0.184
-516.887	527.406	0.103	0.244
-515.872	-114.967	-0.114	0.022
-514.858	-200.000	-0.010	-0.205
-513.843	-60.135	0.080	-0.034
-512.829	470.693	0.026	0.059
-511.814	-43.193	0.105	-0.053
-510.799	38.455	0.209	-0.187
-509.785	31.905	0.323	0.279
-508.770	5.295	-0.337	0.249
-507.756	290.495	-0.028	-0.051
-506.741	29.705	0.126	0.107
-505.726	149.080	0.186	-0.253
-504.712	-84.374	-0.219	-0.070
-503.697	409.163	0.018	0.039
-502.683	-200.000	-0.009	0.058
-501.668	118.941	-0.133	0.165
-500.653	-70.362	0.126	0.048
-499.639	-11.823	0.282	-0.185
-498.624	143.151	-0.337	0.450
-497.610	287.134	0.053	0.095
-496.595	729.013	-0.065	-0.175
-495.581	185.508	0.104	0.154
-494.566	123.407	-0.208	0.262
-493.551	425.108	-0.053	-0.114
-492.537	-121.862	-0.077	0.013
-491.522	-68.649	0.228	-0.088
-490.508	-56.217	-0.163	-0.073
-489.493	73.076	0.166	0.174
-488.478	-121.149	-0.141	-0.024
-487.464	-200.000	0.023	-0.121
-486.449	45.920	-0.148	-0.137
-485.435	-118.091	-0.380	-0.068
-484.420	800.000	0.038	-0.149
-483.405	10.613	-0.119	0.091
-482.391	-115.691	0.460	0.086
-481.376	536.770	-0.043	0.102
-480.362	800.000	0.046	0.147
-479.347	-200.000	-0.004	-0.091
-478.332	-64.726	-0.276	0.112
-477.318	-33.185	-0.367	0.203
-476.303	365.459	0.057	0.116
-475.289	-37.149	-0.188	0.101
-474.274	-55.211	0.145	-0.065
-473.259	224.869	-0.066	-0.107
-472.245	-200.000	-0.047	0.225
-471.230	8.967	0.030	-0.022
-470.216	145.570	0.189	-0.254
-469.201	6.332	-0.225	0.167
-468.186	64.101	-0.198	0.200
-467.172	-200.000	-0.026	0.233
-466.157	550.028	-0.039	0.093
-465.143	-200.000	-0.043	-0.381
-464.128	-200.000	0.006	0.103
-463.113	208.648	-0.164	-0.257
-462.099	-8.060	0.093	-0.063
-461.084	800.000	-0.012	0.049
-460.070	397.018	0.094	0.197
-459.055	397.242	0.093	-0.195
-458.040	-200.000	0.002	-0.208
-457.026	69.083	0.045	0.046
-456.011	-59.851	-0.034	0.015
-454.997	-200.000	-0.058	0.442
-453.982	-33.924	0.301	-0.166
-452.968	-83.458	0.154	-0.049
-451.953	-200.000	-0.005	0.076
-450.938	13.966	0.299	-0.232
-449.924	-161.021	-0.339	-0.018
-448.909	-67.792	0.027	0.011
-447.895	-200.000	-0.026	0.137
-446.880	800.000	0.028	0.110
-445.865	-116.851	0.151	-0.028
-444.851	-48.129	0.246	0.119
-443.836	-200.000	0.029	-0.142
-442.822	-200.000	-0.018	-0.324
-441.807	49.265	0.086	-0.080
-440.792	-10.150	0.143	0.095
-439.778	-0.037	0.143	0.102
-438.763	101.759	0.093	0.108
-437.749	132.443	0.101	-0.130
-436.734	504.152	-0.003	0.007
-435.719	20.766	0.286	-0.231
-434.705	382.672	-0.153	-0.314
-433.690	30.765	0.242	-0.207
-432.676	800.000	-0.038	-0.150
-431.661	-25.371	-0.078	0.046
-430.646	39.556	-0.283	0.253
-429.632	-200.000	-0.039	0.453
-428.617	82.716	-0.062	0.067
-427.603	-38.646	-0.109	0.057
-426.588	113.327	0.022	0.027
-425.573	-100.729	-0.080	0.020
-424.559	-187.551	-0.114	0.002
-423.544	67.890	0.105	-0.108
-422.530	267.459	0.122	-0.214
-421.515	264.258	0.139	-0.242
-420.500	270.046	-0.052	-0.091
-419.486	43.334	0.189	-0.173
-418.471	134.569	0.019	-0.024
-417.457	800.000	0.078	-0.292
-416.442	73.211	-0.214	-0.223
-415.428	19.986	0.088	0.071
-414.413	-121.050	-0.299	-0.050
-413.398	-200.000	0.054	0.241
-412.384	-150.266	-0.094	-0.007
-411.369	-141.822	-0.128	0.013
-410.355	728.139	-0.046	0.122
-409.340	327.818	0.101	-0.193
-408.325	281.688	0.034	0.060
-407.311	285.009	0.159	0.285
-406.296	161.313	0.221	0.308
-405.282	-7.481	-0.152	0.103
-404.267	562.936	-0.121	0.292
-403.252	38.952	0.169	-0.150
-402.238	152.720	-0.153	-0.209
-401.223	800.000	0.066	-0.204
-400.209	211.040	-0.178	0.279
-399.194	-25.871	-0.038	0.022
-398.179	-108.775	-0.259	-0.055
-397.165	800.000	0.065	0.187
-396.150	312.493	-0.141	0.265
-395.136	70.685	-0.158	-0.163
-394.121	-99.773	-0.121	-0.030
-393.106	30.975	-0.274	0.234
-392.092	4.186	-0.083	0.061
-391.077	432.608	0.099	-0.215
-390.063	-200.000	-0.029	0.155
-389.048	245.688	0.183	0.308
-388.033	-83.105	-0.186	0.060
-387.019	-200.000	-0.020	0.122
-386.004	3.330	0.243	0.176
-384.990	-48.894	0.211	-0.101
-383.975	-29.759	-0.177	0.101
-382.960	47.837	-0.065	-0.061
-381.946	800.000	0.072	-0.252
-380.931	370.541	-0.110	-0.222
-379.917	173.890	-0.149	-0.215
-378.902	-2.080	0.212	0.149
-377.888	-87.190	0.279	-0.085
-376.873	-200.000	0.015	-0.295
-375.858	69.094	0.092	0.094
-374.844	484.060	0.141	0.321
-373.829	-81.410	-0.243	0.080
-372.815	-178.371	-0.371	0.009
-371.800	800.000	-0.060	-0.202
-370.785	-96.395	-0.247	-0.065
-369.771	173.349	0.114	0.164
-368.756	18.566	0.255	-0.203
-367.742	159.728	-0.030	-0.042
-366.727	297.073	-0.070	0.128
-365.712	-200.000	0.003	-0.113
-364.698	-200.000	0.016	0.219
-363.683	-38.431	0.262	0.138
-362.669	34.368	-0.171	0.148
-361.654	48.067	-0.032	-0.030
-360.639	-24.326	0.134	-0.080
-359.625	290.495	-0.129	-0.234
-358.610	-123.358	-0.229	0.036
-357.596	800.000	0.105	0.393
-356.581	-200.000	0.042	0.311
-355.566	289.651	-0.016	0.029
-354.552	301.032	0.144	-0.266
-353.537	-87.990	0.165	0.049
-352.523	188.334	0.277	-0.413
-351.508	800.000	-0.035	-0.107
-350.493	242.174	0.112	0.187
-349.479	-200.000	0.071	0.337
-348.464	-121.925	0.108	-0.018
-347.450	-168.042	0.125	-0.005
-346.435	-80.599	0.206	0.068
-345.420	-104.748	0.219	-0.050
-344.406	12.147	0.037	-0.028
-343.391	-46.497	-0.158	-0.077
-342.377	-1.779	0.080	0.056
-341.362	230.392	0.173	0.282
-340.348	69.027	-0.154	0.158
-339.333	216.629	-0.155	-0.246
-338.318	-56.555	-0.109	-0.048
-337.304	94.361	0.131	0.148
-336.289	-102.620	-0.127	0.030
-335.275	-0.452	-0.163	0.115
-334.260	281.952	-0.069	0.123
-333.245	-95.628	0.354	0.094
-332.231	34.705	-0.214	0.186
-331.216	-200.000	-0.041	-0.291
-330.202	-49.673	0.281	0.133
-329.187	-17.179	-0.219	0.137
-328.172	-88.100	0.169	-0.051
-327.158	49.337	0.152	0.143
-326.143	-72.934	-0.252	0.092
-325.129	692.334	-0.077	0.202
-324.114	20.617	0.136	-0.110
-323.099	164.097	0.118	0.166
-322.085	-65.451	-0.275	0.110
-321.070	183.490	0.119	-0.174
-320.056	97.983	-0.133	-0.152
-319.041	158.146	-0.157	-0.216
-318.026	259.464	0.099	0.171
-317.012	-60.410	-0.155	-0.066
-315.997	375.161	-0.023	-0.047
-314.983	363.431	0.132	-0.263
-313.968	-156.177	-0.024	0.002
-312.953	-200.000	-0.036	-0.179
-311.939	93.633	0.214	0.241
-310.924	-61.607	-0.182	0.076
-309.910	-197.547	-0.164	-0.001
-308.895	336.422	0.160	0.308
-307.880	172.554	0.242	-0.347
-306.866	-200.000	-0.045	0.333
-305.851	-145.374	0.149	-0.013
-304.837	669.585	-0.077	-0.199
-303.822	87.372	-0.089	0.098
-302.807	640.307	0.023	-0.058
-301.793	800.000	-0.069	-0.195
-300.778	-97.754	0.124	-0.032
-299.764	293.056	0.149	0.271
-298.749	712.259	0.024	-0.064
-297.735	-44.038	0.106	-0.053
-296.720	33.273	-0.278	0.240
-295.705	147.306	0.103	0.137
-294.691	235.836	0.141	0.231
-293.676	-200.000	-0.031	-0.199
-292.662	-182.303	-0.127	-0.002
-291.647	-51.089	0.288	0.134
-290.632	800.000	-0.125	-0.345
-289.618	800.000	-0.049	-0.204
-288.603	416.010	-0.117	0.248
-287.589	97.325	-0.134	0.153
-286.574	75.503	0.044	0.046
-285.559	-200.000	0.011	0.071
-284.545	-159.351	-0.261	-0.015
-283.530	-197.126	0.205	-0.001
-282.516	151.805	-0.313	0.423
-281.501	115.145	0.087	0.106
-280.486	-76.029	0.130	0.046
-279.472	-200.000	0.039	0.497
-278.457	-37.450	0.431	-0.229
-277.443	800.000	-0.074	0.255
-276.428	87.485	0.139	-0.153
-275.413	-29.502	-0.318	-0.180
-274.399	-123.266	-0.255	-0.040
-273.384	106.745	-0.278	-0.328
-272.370	800.000	0.109	0.333
-271.355	-200.000	-0.001	0.094
-270.340	-118.465	-0.312	0.055
-269.326	-200.000	-0.032	-0.273
-268.311	-51.797	0.170	0.079
-267.297	141.095	-0.128	-0.169
-266.282	-200.000	-0.027	-0.268
-265.267	78.748	-0.042	0.044
-264.253	800.000	-0.065	0.193
-263.238	34.789	-0.090	-0.078
-262.224	-25.875	-0.159	0.093
-261.209	125.544	0.155	0.195
-260.195	392.006	0.033	0.068
-259.180	-8.621	-0.031	-0.020
-258.165	530.462	-0.076	-0.179
-257.151	-158.100	-0.048	-0.003
-256.136	58.761	0.089	-0.087
-255.122	-41.987	0.134	0.068
-254.107	47.504	-0.168	0.155
-253.092	-113.885	-0.241	-0.046
-252.078	-57.733	0.346	0.150
-251.063	-20.060	-0.065	0.040
-250.049	9.341	0.151	0.114
-249.034	-9.610	-0.411	0.272
-248.019	379.013	-0.202	0.411
-247.005	-158.312	-0.267	-0.015
-245.990	-124.744	0.272	-0.042
-244.976	800.000	-0.097	-0.327
-243.961	304.602	0.085	-0.156
-242.946	-200.000	-0.004	0.029
-241.932	-53.666	-0.272	0.123
-240.917	1.708	-0.044	-0.032
-239.903	-67.965	0.176	-0.068
-238.888	148.705	0.137	-0.184
-237.873	-56.928	0.254	-0.111
-236.859	152.197	-0.104	0.141
-235.844	281.038	0.054	-0.097
-234.830	40.767	0.072	0.064
-233.815	-152.960	-0.085	0.006
-232.800	314.424	-0.055	-0.102
-231.786	-112.948	-0.321	-0.063
-230.771	28.604	0.107	-0.090
-229.757	-200.000	0.012	-0.272
-228.742	3.058	0.066	0.048
-227.727	-68.606	0.415	0.160
-226.713	2.246	0.189	0.136
-225.698	-32.382	-0.211	0.117
-224.684	-120.172	0.269	0.046
-223.669	77.638	0.127	0.134
-222.655	302.387	0.170	0.313
-221.640	-63.047	-0.161	0.066
-220.625	181.237	-0.129	0.187
-219.611	-21.718	-0.214	-0.129
-218.596	-200.000	0.008	0.141
-217.582	-200.000	-0.050	-0.342
-216.567	337.828	-0.096	-0.185
-215.552	-123.349	-0.159	-0.025
-214.538	151.459	-0.229	0.310
-213.523	477.491	-0.119	-0.267
-212.509	-10.921	-0.171	-0.112
-211.494	-200.000	0.001	0.348
-210.479	-113.513	-0.225	-0.044
-209.465	-129.195	0.074	0.010
-208.450	-170.117	0.400	-0.014
-207.436	-21.294	-0.150	0.091
-206.421	7.331	0.331	-0.245
-205.406	-166.285	-0.132	0.006
-204.392	-200.000	0.021	-0.098
-203.377	800.000	-0.056	0.157
-202.363	-200.000	-0.008	-0.065
-201.348	-24.843	0.188	0.111
-200.333	-97.326	0.214	-0.055
-199.319	-200.000	-0.037	-0.230
-198.304	66.040	0.058	0.059
-197.290	-86.909	0.228	-0.069
-196.275	-200.000	0.040	-0.289
-195.260	-12.041	0.148	0.096
-194.246	-90.044	-0.105	0.030
-193.231	-3.839	-0.116	-0.080
-192.217	514.999	0.054	-0.125
-191.202	800.000	0.069	0.297
-190.187	800.000	-0.137	0.443
-189.173	-200.000	-0.013	-0.113
-188.158	71.581	-0.094	-0.097
-187.144	-78.534	-0.074	0.025
-186.129	800.000	0.053	-0.168
-185.114	-84.242	0.257	0.080
-184.100	171.536	-0.124	-0.176
-183.085	-98.558	0.344	-0.087
-182.071	-200.000	0.004	0.245
-181.056	800.000	0.013	0.049
-180.042	-200.000	0.006	0.107
-179.027	-47.854	0.319	-0.153
-178.012	14.052	0.176	-0.136
-176.998	-184.692	-0.123	0.002
-175.983	-200.000	-0.013	-0.158
-174.969	800.000	-0.034	-0.135
-173.954	74.058	0.177	0.184
-172.939	141.945	0.124	-0.163
-171.925	-31.587	-0.183	-0.102
-170.910	-200.000	0.007	-0.033
-169.896	96.422	0.084	-0.095
-168.881	52.059	0.130	0.123
-167.866	717.163	-0.096	-0.253
-166.852	-116.810	-0.301	0.055
-165.837	-166.709	0.104	-0.004
-164.823	238.936	-0.046	-0.076
-163.808	-17.925	0.281	-0.174
-162.793	-46.031	0.037	0.018
-161.779	-134.849	0.342	-0.041
-160.764	-200.000	0.033	-0.167
-159.750	305.224	-0.072	0.133
-158.735	-28.699	0.185	0.106
-157.720	-91.042	-0.077	0.022
-156.706	-200.000	0.003	-0.040
-155.691	-23.161	-0.239	0.142
-154.677	-107.767	0.008	0.002
-153.662	47.213	-0.274	-0.253
-152.647	-58.740	0.163	-0.070
-151.633	800.000	-0.054	0.173
-150.618	-200.000	0.057	0.359
-149.604	240.882	0.104	0.172
-148.589	194.378	-0.087	-0.130
-147.574	32.533	-0.068	0.058
-146.560	167.544	0.068	0.096
-145.545	800.000	0.103	0.386
-144.531	-173.082	-0.209	-0.006
-143.516	-153.080	0.049	-0.003
-142.502	-41.780	-0.177	0.090
-141.487	-200.000	0.006	-0.243
-140.472	-159.017	-0.130	0.007
-139.458	-93.197	0.127	-0.035
-138.443	31.412	-0.090	-0.076
-137.429	-200.000	-0.028	0.141
-136.414	413.306	-0.040	0.084
-135.399	-200.000	0.047	0.255
-134.385	-200.000	-0.056	-0.251
-133.370	-200.000	0.038	0.174
-132.356	-200.000	0.002	-0.229
-131.341	-200.000	-0.006	0.124
-130.326	-200.000	0.010	-0.047
-129.312	162.624	0.238	0.330
-128.297	-0.486	0.354	-0.248
-127.283	15.163	-0.024	0.019
-126.268	-146.647	0.305	-0.026
-125.253	135.324	0.059	0.076
-124.239	-70.429	0.257	-0.096
-123.224	15.750	-0.214	-0.166
-122.210	-152.864	-0.404	0.028
-121.195	-117.379	-0.071	0.013
