DTS Sentinel unit serial number:	SN413079Multiplexer serial number:	ORYXHardware model number:	OX4-SRSoftware version number:	ORYX F/W v4.00 Oryx Data Collector v3.7.2.0data status	okinstallation	princeton_trtdifferential loss correction	single-endedforward channel	channel 1reverse channel	N/Adate	2019/09/13time	17:14:35forward acquisition time	60.00reverse acquisition time	0.00gamma	496.2192k internal	0.2294k external	0.2294temperature offset calibration	1.0140default loss term (dB/km)	0.3790temperature slope calibration	1.0000multiplexer offset coefficient	1.0000multiplexer slope coefficient	1.0000fibre end	0.00T internal ref (°C)	35.64T ext. ref 1 (°C)	4.80T ext. ref 2 (°C)	35.06length (m)	temperature (°C)	Stokes	anti-Stokes-747.200	45.717	0.245	-0.231
-746.185	-200.000	-0.016	0.225
-745.171	165.138	0.088	0.127
-744.156	-200.000	0.001	0.012
-743.142	-200.000	-0.050	-0.356
-742.127	800.000	0.046	0.144
-741.112	94.850	-0.100	-0.117
-740.098	112.078	-0.094	-0.116
-739.083	-178.180	0.052	0.001
-738.069	-7.499	-0.039	0.027
-737.054	-200.000	-0.010	0.122
-736.039	-12.132	-0.150	0.100
-735.025	57.856	0.310	0.311
-734.010	800.000	-0.028	0.097
-732.996	-200.000	-0.011	0.062
-731.981	-114.026	-0.062	0.012
-730.966	800.000	-0.078	0.311
-729.952	-58.363	-0.122	0.054
-728.937	-35.509	-0.336	0.186
-727.923	-18.621	-0.048	0.030
-726.908	74.121	-0.098	0.105
-725.894	145.337	-0.149	-0.204
-724.879	152.164	-0.115	-0.160
-723.864	800.000	-0.056	0.212
-722.850	-100.628	-0.295	0.075
-721.835	-62.448	-0.221	0.094
-720.821	175.329	0.169	0.250
-719.806	-159.913	-0.244	-0.014
-718.791	485.489	0.170	-0.395
-717.777	133.262	0.265	-0.350
-716.762	-200.000	-0.007	-0.208
-715.748	-200.000	0.012	-0.101
-714.733	-148.589	0.124	-0.010
-713.718	-60.219	0.200	0.087
-712.704	-113.072	0.460	-0.093
-711.689	201.627	0.135	-0.213
-710.675	280.938	0.106	-0.193
-709.660	95.401	0.173	0.201
-708.645	83.653	0.261	-0.291
-707.631	-61.251	0.051	-0.022
-706.616	-10.154	-0.285	-0.193
-705.602	373.691	-0.074	-0.155
-704.587	4.434	0.218	0.163
-703.572	-59.644	0.293	-0.128
-702.558	25.593	0.135	0.114
-701.543	-107.219	-0.426	-0.096
-700.529	530.494	0.015	-0.036
-699.514	627.330	-0.099	0.254
-698.499	-200.000	-0.013	0.152
-697.485	-63.981	-0.223	0.093
-696.470	197.249	-0.095	-0.149
-695.456	694.147	-0.092	0.247
-694.441	-200.000	-0.013	-0.155
-693.426	116.154	0.063	-0.079
-692.412	100.093	-0.176	-0.208
-691.397	-32.637	0.116	-0.066
-690.383	-169.460	-0.118	-0.004
-689.368	-200.000	0.050	-0.338
-688.354	240.618	0.217	0.370
-687.339	-20.927	0.150	0.094
-686.324	-120.265	0.116	0.020
-685.310	63.597	0.325	-0.332
-684.295	-97.379	-0.157	0.042
-683.281	-18.398	-0.361	-0.230
-682.266	-200.000	-0.002	-0.287
-681.251	141.224	-0.317	0.428
-680.237	-85.685	-0.309	-0.098
-679.222	-64.258	-0.113	0.047
-678.208	533.202	0.135	0.325
-677.193	27.707	0.052	-0.044
-676.178	-108.621	0.167	0.036
-675.164	95.708	-0.182	-0.212
-674.149	-200.000	-0.041	-0.204
-673.135	-45.660	0.513	-0.259
-672.120	250.237	-0.019	0.033
-671.105	-85.561	-0.261	0.083
-670.091	198.795	-0.142	-0.221
-669.076	-200.000	0.018	-0.317
-668.062	-197.943	-0.162	-0.001
-667.047	-200.000	0.003	-0.162
-666.032	-14.068	0.138	0.091
-665.018	-31.723	-0.206	-0.118
-664.003	129.810	-0.113	0.148
-662.989	636.353	0.068	0.177
-661.974	565.417	-0.089	-0.220
-660.959	80.609	-0.324	-0.356
-659.945	-118.842	-0.259	-0.046
-658.930	-200.000	-0.020	0.255
-657.916	-200.000	0.048	0.426
-656.901	324.927	0.040	-0.077
-655.886	-146.317	-0.196	-0.017
-654.872	-200.000	-0.027	0.396
-653.857	-200.000	0.014	0.114
-652.843	800.000	-0.058	-0.219
-651.828	-72.613	-0.108	0.040
-650.814	-42.507	-0.265	0.138
-649.799	800.000	0.182	-0.567
-648.784	-53.179	-0.152	-0.071
-647.770	5.733	-0.102	0.077
-646.755	-155.492	-0.156	0.010
-645.741	-98.942	-0.401	0.104
-644.726	661.748	0.118	-0.310
-643.711	-200.000	0.005	0.079
-642.697	-91.954	-0.205	0.059
-641.682	289.631	0.135	0.249
-640.668	-45.341	0.111	-0.056
-639.653	-168.028	0.184	0.007
-638.638	-102.826	0.269	0.065
-637.624	-142.698	-0.125	0.012
-636.609	47.988	-0.200	0.190
-635.595	16.884	0.136	-0.109
-634.580	-200.000	0.016	-0.316
-633.565	718.104	0.057	0.154
-632.551	233.144	0.151	0.253
-631.536	-200.000	-0.026	-0.146
-630.522	-112.146	-0.135	0.028
-629.507	62.047	-0.294	0.299
-628.492	218.427	0.106	-0.172
-627.478	-54.022	0.221	0.102
-626.463	754.497	-0.092	-0.253
-625.449	-108.743	-0.128	-0.028
-624.434	-150.790	-0.152	-0.012
-623.419	800.000	0.027	0.104
-622.405	207.243	-0.027	0.043
-621.390	-200.000	0.009	0.310
-620.376	6.090	-0.164	-0.124
-619.361	800.000	0.045	-0.156
-618.346	-33.132	0.392	0.221
-617.332	-31.811	-0.026	0.015
-616.317	41.829	0.155	0.143
-615.303	800.000	0.112	0.389
-614.288	40.986	-0.108	-0.099
-613.273	800.000	-0.034	-0.117
-612.259	800.000	0.067	-0.258
-611.244	800.000	0.051	0.222
-610.230	-17.200	-0.184	0.118
-609.215	181.170	-0.193	-0.289
-608.201	733.287	-0.032	0.086
-607.186	-200.000	-0.020	0.169
-606.171	-11.443	-0.229	-0.153
-605.157	-88.361	0.264	0.080
-604.142	43.782	-0.104	0.097
-603.128	-113.993	-0.367	-0.072
-602.113	-105.206	-0.223	0.052
-601.098	173.319	0.136	-0.200
-600.084	-200.000	0.019	-0.124
-599.069	466.022	-0.111	0.252
-598.055	-104.435	-0.378	0.089
-597.040	-85.879	0.111	0.035
-596.025	-200.000	-0.072	-0.344
-595.011	216.541	0.270	0.437
-593.996	-64.787	-0.023	0.009
-592.982	-129.031	-0.264	0.038
-591.967	-34.538	0.287	-0.160
-590.952	-38.688	0.375	-0.201
-589.938	-13.381	-0.165	0.108
-588.923	499.640	-0.101	-0.236
-587.909	-35.671	-0.270	-0.149
-586.894	217.319	0.079	0.128
-585.879	-69.794	-0.402	0.156
-584.865	-132.457	0.112	0.015
-583.850	-82.131	0.295	-0.098
-582.836	-200.000	-0.021	-0.392
-581.821	280.082	0.106	-0.192
-580.806	168.648	-0.186	-0.270
-579.792	-48.486	-0.109	-0.053
-578.777	-36.889	-0.153	-0.083
-577.763	-70.020	-0.128	0.049
-576.748	-75.901	-0.031	-0.011
-575.733	327.484	-0.240	0.468
-574.719	37.442	-0.295	0.266
-573.704	-7.730	-0.103	-0.071
-572.690	442.644	0.081	-0.180
-571.675	-42.367	-0.246	-0.128
-570.661	81.552	0.078	-0.086
-569.646	-42.212	-0.265	0.137
-568.631	83.634	-0.201	-0.222
-567.617	32.555	-0.352	0.309
-566.602	-138.650	0.197	-0.022
-565.588	800.000	-0.027	-0.077
-564.573	59.637	-0.166	0.166
-563.558	-176.877	0.098	0.003
-562.544	800.000	0.092	-0.369
-561.529	-200.000	-0.008	-0.154
-560.515	-128.718	-0.199	-0.028
-559.500	23.563	0.199	-0.166
-558.485	-200.000	0.010	-0.106
-557.471	636.696	0.067	-0.172
-556.456	-200.000	-0.009	-0.194
-555.442	-87.751	-0.098	0.030
-554.427	-72.495	-0.297	-0.111
-553.412	618.268	0.053	-0.136
-552.398	800.000	-0.020	0.081
-551.383	577.485	0.178	-0.443
-550.369	29.120	0.058	0.050
-549.354	-46.530	-0.072	-0.036
-548.339	44.810	0.108	0.101
-547.325	-49.628	0.453	0.219
-546.310	-37.690	-0.416	-0.225
-545.296	-200.000	0.021	0.197
-544.281	-131.227	-0.209	0.028
-543.266	-41.089	0.270	-0.141
-542.252	-200.000	-0.017	0.197
-541.237	61.162	-0.154	0.156
-540.223	139.190	-0.114	0.152
-539.208	533.650	0.053	0.127
-538.193	-200.000	0.048	0.320
-537.179	-200.000	0.041	0.188
-536.164	-98.644	0.131	0.034
-535.150	218.438	-0.031	-0.050
-534.135	-118.258	-0.371	-0.067
-533.121	-200.000	-0.069	0.424
-532.106	138.495	0.199	-0.265
-531.091	-68.884	0.244	0.096
-530.077	-200.000	-0.015	-0.598
-529.062	-200.000	-0.003	-0.435
-528.048	800.000	0.102	-0.355
-527.033	-163.540	0.133	-0.006
-526.018	-101.773	0.093	0.023
-525.004	427.690	0.103	0.224
-523.989	-100.703	-0.302	-0.076
-522.975	-200.000	0.057	-0.362
-521.960	79.008	0.229	-0.249
-520.945	437.201	0.166	0.366
-519.931	141.530	-0.095	0.128
-518.916	-59.700	0.312	-0.135
-517.902	-34.960	-0.065	0.036
-516.887	800.000	-0.065	-0.214
-515.872	-156.467	0.116	0.007
-514.858	187.498	0.013	0.020
-513.843	-47.357	0.102	-0.050
-512.829	12.522	-0.297	-0.232
-511.814	-200.000	0.003	-0.116
-510.799	-104.246	-0.179	0.042
-509.785	800.000	-0.007	0.020
-508.770	280.046	0.074	0.135
-507.756	105.855	-0.165	-0.198
-506.741	-200.000	-0.039	-0.218
-505.726	-62.161	0.206	0.087
-504.712	-109.478	-0.189	-0.041
-503.697	800.000	-0.058	0.217
-502.683	800.000	0.046	0.144
-501.668	62.929	-0.169	0.172
-500.653	-60.413	-0.349	0.150
-499.639	-120.038	0.123	0.021
-498.624	-109.280	0.313	0.067
-497.610	800.000	0.017	0.064
-496.595	43.471	-0.130	0.121
-495.581	26.149	-0.197	0.167
-494.566	29.910	0.234	0.202
-493.551	-148.657	0.070	-0.006
-492.537	-6.797	0.045	0.031
-491.522	800.000	-0.041	-0.115
-490.508	-7.841	-0.257	0.176
-489.493	-200.000	-0.007	-0.168
-488.478	11.976	-0.300	0.234
-487.464	-200.000	-0.014	0.155
-486.449	334.200	0.059	-0.115
-485.435	-95.188	0.228	-0.062
-484.420	-200.000	0.001	-0.061
-483.405	-125.736	0.225	0.035
-482.391	800.000	-0.091	-0.258
-481.376	800.000	-0.004	-0.013
-480.362	-200.000	-0.025	-0.156
-479.347	-200.000	-0.064	0.000
-478.332	52.478	0.180	0.174
-477.318	-147.323	-0.286	-0.025
-476.303	342.347	-0.061	0.120
-475.289	800.000	-0.041	-0.147
-474.274	-146.306	0.364	-0.032
-473.259	-105.034	-0.097	-0.023
-472.245	-38.202	-0.155	-0.083
-471.230	-95.710	-0.346	0.094
-470.216	161.810	-0.028	-0.039
-469.201	-200.000	-0.031	-0.329
-468.186	12.834	0.272	0.212
-467.172	-13.655	0.166	-0.109
-466.157	115.647	0.185	0.229
-465.143	59.293	-0.033	-0.033
-464.128	-177.339	0.179	0.004
-463.113	-53.566	-0.137	-0.064
-462.099	-97.097	0.181	-0.048
-461.084	-34.431	0.275	0.152
-460.070	-71.450	-0.345	-0.131
-459.055	-12.641	-0.056	-0.037
-458.040	-129.209	-0.106	-0.015
-457.026	-132.114	-0.305	-0.040
-456.011	-133.024	-0.323	0.041
-454.997	214.972	-0.193	0.310
-453.982	621.608	-0.105	-0.267
-452.968	-23.764	-0.189	0.115
-451.953	-49.212	0.396	-0.192
-450.938	-166.907	0.239	-0.010
-449.924	800.000	-0.024	-0.070
-448.909	-124.722	0.165	-0.026
-447.895	-200.000	0.011	0.117
-446.880	-200.000	0.002	0.149
-445.865	-94.072	0.176	-0.049
-444.851	58.853	0.114	-0.113
-443.836	-69.050	0.073	0.028
-442.822	97.801	0.097	-0.113
-441.807	74.604	-0.094	0.100
-440.792	-200.000	-0.026	0.196
-439.778	-200.000	-0.003	0.086
-438.763	-146.735	-0.177	0.016
-437.749	18.155	-0.194	-0.156
-436.734	-61.374	0.224	0.095
-435.719	82.035	-0.131	0.144
-434.705	-133.645	0.268	0.034
-433.690	-143.634	0.299	0.029
-432.676	-75.227	-0.298	-0.108
-431.661	512.098	-0.087	0.205
-430.646	226.100	-0.160	-0.261
-429.632	-200.000	-0.041	0.418
-428.617	-100.750	0.135	-0.034
-427.603	22.224	-0.283	0.233
-426.588	-124.020	0.266	0.042
-425.573	800.000	0.086	-0.252
-424.559	-145.680	0.034	-0.003
-423.544	-143.047	-0.237	-0.023
-422.530	800.000	0.119	0.386
-421.515	8.915	-0.147	-0.112
-420.500	-10.072	-0.229	-0.154
-419.486	-172.840	0.180	0.006
-418.471	191.799	-0.183	0.278
-417.457	800.000	0.098	-0.303
-416.442	-54.617	-0.287	-0.131
-415.428	258.582	-0.053	-0.092
-414.413	-200.000	0.074	-0.351
-413.398	-200.000	0.061	-0.297
-412.384	223.130	-0.133	0.216
-411.369	80.324	-0.024	-0.026
-410.355	-41.813	0.109	0.057
-409.340	-160.978	-0.081	0.004
-408.325	40.615	0.145	-0.131
-407.311	-3.646	-0.015	-0.011
-406.296	-200.000	-0.027	0.217
-405.282	480.308	0.090	0.205
-404.267	-101.925	-0.143	0.035
-403.252	-45.498	-0.106	0.053
-402.238	184.615	0.165	0.247
-401.223	-46.495	-0.185	0.092
-400.209	-1.982	0.129	-0.091
-399.194	-95.579	-0.389	0.105
-398.179	-129.779	0.230	0.032
-397.165	33.938	0.169	-0.148
-396.150	800.000	0.133	-0.374
-395.136	-200.000	-0.025	-0.287
-394.121	250.047	-0.113	0.194
-393.106	38.246	0.207	-0.186
-392.092	-200.000	0.011	0.349
-391.077	-70.679	-0.024	-0.009
-390.063	62.958	0.124	-0.125
-389.048	45.060	-0.158	-0.146
-388.033	-139.748	-0.170	0.018
-387.019	7.964	-0.164	0.124
-386.004	-200.000	-0.002	-0.240
-384.990	800.000	0.089	-0.268
-383.975	147.816	-0.094	-0.127
-382.960	-200.000	-0.009	-0.175
-381.946	60.114	0.190	0.190
-380.931	-6.034	0.175	-0.121
-379.917	-88.877	0.439	0.131
-378.902	-40.430	0.053	0.028
-377.888	-33.758	0.217	0.121
-376.873	-14.167	-0.147	-0.096
-375.858	800.000	-0.117	0.358
-374.844	746.498	0.067	-0.182
-373.829	-120.328	-0.306	0.053
-372.815	-135.349	0.117	-0.014
-371.800	337.091	-0.033	-0.065
-370.785	-131.917	-0.387	0.051
-369.771	42.332	0.177	-0.162
-368.756	39.299	0.143	0.129
-367.742	800.000	0.030	-0.114
-366.727	194.106	-0.033	0.050
-365.712	83.109	-0.026	0.029
-364.698	-200.000	-0.003	0.087
-363.683	800.000	0.085	-0.344
-362.669	-12.622	-0.221	0.145
-361.654	11.652	-0.116	-0.090
-360.639	-200.000	-0.037	-0.377
-359.625	73.937	0.073	0.077
-358.610	170.645	0.109	0.157
-357.596	62.476	-0.123	-0.124
-356.581	18.852	0.285	-0.230
-355.566	726.921	-0.067	0.180
-354.552	-11.002	0.155	0.103
-353.537	227.893	0.124	0.203
-352.523	800.000	-0.038	0.108
-351.508	-25.497	0.064	0.038
-350.493	800.000	-0.086	0.270
-349.479	139.821	0.218	-0.290
-348.464	-200.000	-0.011	0.281
-347.450	-116.349	0.320	-0.060
-346.435	-98.259	0.093	0.024
-345.420	11.069	-0.305	-0.234
-344.406	406.187	-0.090	-0.192
-343.391	-200.000	0.003	-0.086
-342.377	28.190	-0.128	0.109
-341.362	134.525	-0.126	0.164
-340.348	326.152	0.034	0.066
-339.333	-51.859	0.301	0.141
-338.318	-107.796	0.190	0.042
-337.304	89.150	-0.180	0.202
-336.289	-200.000	-0.049	0.493
-335.275	212.659	-0.038	0.061
-334.260	67.724	-0.067	-0.069
-333.245	77.036	0.152	0.163
-332.231	31.826	0.206	0.178
-331.216	800.000	-0.003	-0.015
-330.202	130.438	0.038	0.049
-329.187	-120.121	-0.464	0.080
-328.172	-4.989	0.204	0.141
-327.158	-93.417	-0.173	-0.048
-326.143	97.043	0.038	0.044
-325.129	73.761	-0.098	0.103
-324.114	516.124	0.161	0.378
-323.099	-48.023	-0.197	-0.096
-322.085	113.838	0.114	-0.140
-321.070	-15.813	0.152	0.097
-320.056	325.795	-0.089	0.171
-319.041	24.689	0.148	0.123
-318.026	46.457	-0.100	-0.093
-317.012	800.000	-0.056	0.166
-315.997	-200.000	-0.013	0.094
-314.983	-22.198	-0.352	0.215
-313.968	279.697	0.139	-0.249
-312.953	292.326	-0.082	-0.150
-311.939	376.083	0.032	-0.066
-310.924	-88.975	-0.370	-0.110
-309.910	-200.000	-0.003	-0.130
-308.895	-112.413	-0.193	-0.039
-307.880	-30.530	0.181	-0.103
-306.866	-88.779	-0.075	-0.022
-305.851	800.000	-0.070	-0.209
-304.837	76.003	0.255	0.271
-303.822	-120.936	0.461	-0.078
-302.807	-200.000	-0.039	0.222
-301.793	-200.000	0.013	-0.205
-300.778	-200.000	-0.008	0.368
-299.764	-200.000	0.015	0.173
-298.749	188.554	0.146	-0.220
-297.735	49.734	-0.247	-0.234
-296.720	-200.000	-0.047	0.266
-295.705	-124.477	-0.277	0.043
-294.691	-200.000	-0.003	0.072
-293.676	685.790	0.041	0.109
-292.662	-200.000	0.000	-0.093
-291.647	169.338	0.017	0.024
-290.632	-200.000	0.000	-0.062
-289.618	-9.024	-0.217	-0.146
-288.603	-106.721	-0.110	-0.024
-287.589	-93.811	0.103	-0.029
-286.574	263.921	-0.061	-0.106
-285.559	-10.988	-0.263	-0.175
-284.545	-200.000	0.043	-0.221
-283.530	288.253	-0.057	-0.104
-282.516	98.335	0.218	-0.253
-281.501	-5.917	0.104	0.071
-280.486	800.000	0.117	0.473
-279.472	-40.331	0.411	-0.215
-278.457	-200.000	0.008	-0.058
-277.443	65.855	-0.115	-0.117
-276.428	75.911	-0.072	0.076
-275.413	-52.674	0.179	-0.083
-274.399	-146.728	0.261	0.023
-273.384	-25.945	0.099	0.058
-272.370	668.527	0.069	0.180
-271.355	-12.064	0.276	0.182
-270.340	-197.496	-0.110	-0.001
-269.326	45.728	0.220	-0.204
-268.311	80.086	0.239	-0.258
-267.297	579.652	0.136	-0.333
-266.282	363.307	-0.139	-0.281
-265.267	329.365	0.146	-0.282
-264.253	-36.028	0.389	-0.211
-263.238	800.000	-0.092	0.284
-262.224	-94.695	-0.296	0.081
-261.209	438.375	-0.060	0.130
-260.195	-79.893	0.265	-0.089
-259.180	-118.912	-0.057	0.010
-258.165	-141.055	0.189	-0.019
-257.151	460.984	-0.078	0.174
-256.136	-94.148	0.072	0.020
-255.122	800.000	0.097	0.268
-254.107	-9.280	0.195	-0.131
-253.092	477.604	-0.089	-0.202
-252.078	414.966	0.060	-0.128
-251.063	-51.165	-0.149	0.070
-250.049	14.804	0.245	-0.193
-249.034	800.000	0.101	0.299
-248.019	-97.190	0.140	0.037
-247.005	587.583	-0.071	0.174
-245.990	-200.000	0.034	0.203
-244.976	-178.707	-0.123	-0.003
-243.961	54.834	-0.093	0.090
-242.946	-200.000	-0.020	0.141
-241.932	-16.308	-0.199	-0.126
-240.917	-72.825	0.068	-0.025
-239.903	278.445	-0.125	-0.223
-238.888	31.609	0.289	0.249
-237.873	-68.115	-0.059	-0.023
-236.859	-7.743	-0.055	-0.037
-235.844	11.252	0.222	-0.171
-234.830	-200.000	-0.040	0.276
-233.815	-200.000	-0.003	-0.127
-232.800	75.110	-0.160	0.169
-231.786	-200.000	-0.006	0.051
-230.771	59.277	-0.186	-0.183
-229.757	260.799	-0.186	0.323
-228.742	28.951	-0.169	0.144
-227.727	-83.187	-0.166	0.054
-226.713	490.369	0.113	-0.259
-225.698	75.882	0.062	-0.066
-224.684	-94.207	0.456	-0.125
-223.669	171.345	-0.085	-0.122
-222.655	-35.200	0.178	0.097
-221.640	-195.203	-0.052	-0.000
-220.625	36.151	0.181	0.160
-219.611	-200.000	0.005	0.196
-218.596	149.359	0.099	0.135
-217.582	35.297	0.085	0.074
-216.567	756.530	0.019	-0.053
-215.552	233.937	0.166	0.273
-214.538	147.940	0.207	-0.280
-213.523	-21.329	0.033	0.020
-212.509	-15.334	0.058	0.037
-211.494	-115.150	0.112	-0.021
-210.479	59.854	0.200	0.198
-209.465	-200.000	-0.002	0.016
-208.450	626.426	-0.091	-0.229
-207.436	-154.421	-0.242	0.016
-206.421	64.551	0.158	-0.159
-205.406	685.378	-0.039	0.103
-204.392	173.240	0.042	0.060
-203.377	-200.000	0.062	0.278
-202.363	348.666	-0.102	0.202
-201.348	57.202	-0.244	0.238
-200.333	-200.000	0.008	0.112
-199.319	-117.737	0.217	0.039
-198.304	149.714	0.109	0.148
-197.290	29.046	-0.171	0.146
-196.275	-200.000	-0.016	-0.085
-195.260	-64.762	0.203	-0.082
-194.246	-60.892	0.172	-0.073
-193.231	-200.000	0.015	-0.083
-192.217	100.213	-0.041	-0.047
-191.202	-91.286	0.097	-0.028
-190.187	405.626	-0.091	0.192
-189.173	-133.935	0.166	-0.021
-188.158	-91.062	-0.219	-0.063
-187.144	97.069	0.132	-0.151
-186.129	-200.000	-0.026	-0.123
-185.114	-200.000	-0.165	-0.000
-184.100	149.253	-0.068	-0.093
-183.085	-200.000	0.005	0.253
-182.071	-94.006	-0.362	0.100
-181.056	168.344	0.421	-0.600
-180.042	4.779	0.260	0.191
-179.027	111.479	-0.141	0.170
-178.012	27.317	-0.096	-0.081
-176.998	103.845	-0.056	0.066
-175.983	-200.000	0.028	0.148
-174.969	-200.000	-0.003	-0.210
-173.954	800.000	0.037	0.116
-172.939	84.699	0.045	-0.050
-171.925	-145.644	-0.292	0.026
-170.910	-200.000	-0.010	-0.401
-169.896	-6.737	0.193	0.131
-168.881	800.000	0.065	-0.233
-167.866	-200.000	0.020	-0.238
-166.852	-200.000	-0.006	-0.164
-165.837	18.959	0.141	-0.113
-164.823	-90.607	0.142	-0.041
-163.808	116.573	-0.211	-0.259
-162.793	800.000	-0.019	0.054
-161.779	205.595	-0.100	-0.155
-160.764	120.217	0.115	0.143
-159.750	800.000	-0.046	0.143
-158.735	595.367	-0.087	-0.214
-157.720	-200.000	-0.011	-0.235
-156.706	800.000	0.104	0.345
-155.691	800.000	0.082	0.328
-154.677	-68.277	0.209	0.081
-153.662	800.000	0.051	-0.148
-152.647	194.691	-0.174	0.264
-151.633	-200.000	0.028	0.360
-150.618	7.610	-0.286	-0.213
-149.604	-133.001	-0.249	0.032
-148.589	-132.002	-0.207	-0.027
-147.574	-105.074	0.036	-0.008
-146.560	-200.000	0.031	0.149
-145.545	-155.996	0.242	-0.015
-144.531	-132.629	0.140	-0.018
-143.516	63.359	0.175	0.175
-142.502	391.237	0.115	0.239
-141.487	-200.000	-0.009	0.410
-140.472	800.000	-0.011	-0.042
-139.458	-139.029	0.233	0.025
-138.443	112.094	0.122	0.147
-137.429	266.513	0.175	0.305
-136.414	-6.237	0.251	-0.171
-135.399	758.504	-0.079	0.213
-134.385	17.603	0.205	0.163
-133.370	-3.071	0.048	0.033
-132.356	28.133	0.231	-0.195
-131.341	3.746	0.068	-0.050
-130.326	108.569	0.202	-0.241
-129.312	-79.729	0.100	-0.034
-128.297	-58.255	0.207	-0.090
-127.283	-121.280	0.175	0.029
-126.268	-35.197	-0.194	-0.106
-125.253	-95.167	0.095	-0.026
-124.239	-152.455	-0.173	0.012
-123.224	-200.000	-0.011	-0.212
-122.210	-39.393	-0.162	0.085
-121.195	370.114	0.075	-0.152
