DTS Sentinel unit serial number:	SN413079Multiplexer serial number:	ORYXHardware model number:	OX4-SRSoftware version number:	ORYX F/W v4.00 Oryx Data Collector v3.7.2.0data status	okinstallation	princeton_trtdifferential loss correction	single-endedforward channel	channel 1reverse channel	N/Adate	2019/09/15time	07:54:35forward acquisition time	60.00reverse acquisition time	0.00gamma	496.2192k internal	0.2324k external	0.2324temperature offset calibration	1.0001default loss term (dB/km)	0.3790temperature slope calibration	1.0000multiplexer offset coefficient	1.0000multiplexer slope coefficient	1.0000fibre end	0.00T internal ref (°C)	30.69T ext. ref 1 (°C)	4.97T ext. ref 2 (°C)	26.05length (m)	temperature (°C)	Stokes	anti-Stokes-747.200	407.985	-0.053	0.114
-746.185	-109.087	-0.213	0.046
-745.171	-84.570	-0.214	0.068
-744.156	215.254	0.181	0.290
-743.142	-43.144	0.236	0.120
-742.127	-200.000	0.013	0.428
-741.112	15.904	-0.077	0.061
-740.098	147.196	-0.166	0.226
-739.083	-24.220	0.365	0.220
-738.069	79.697	-0.210	0.227
-737.054	-160.822	0.291	-0.016
-736.039	-50.383	-0.122	-0.058
-735.025	-92.185	0.160	-0.046
-734.010	69.471	-0.124	-0.129
-732.996	-39.279	-0.243	-0.129
-731.981	-195.566	-0.450	-0.003
-730.966	-54.468	0.163	0.074
-729.952	13.342	-0.070	-0.055
-728.937	-200.000	0.035	-0.394
-727.923	-141.926	0.105	-0.011
-726.908	-200.000	-0.059	-0.393
-725.894	-200.000	-0.006	-0.216
-724.879	360.861	-0.131	-0.264
-723.864	-200.000	0.019	-0.269
-722.850	215.598	0.031	-0.049
-721.835	-148.776	-0.081	-0.007
-720.821	73.671	0.131	-0.139
-719.806	67.905	-0.108	0.111
-718.791	-200.000	-0.002	0.025
-717.777	119.724	0.053	-0.066
-716.762	109.789	0.099	0.120
-715.748	-200.000	0.019	-0.309
-714.733	-200.000	-0.014	0.174
-713.718	-1.697	-0.198	-0.140
-712.704	-22.664	-0.214	-0.131
-711.689	-134.938	-0.039	0.005
-710.675	800.000	0.024	0.068
-709.660	-200.000	-0.067	0.303
-708.645	-200.000	0.068	-0.399
-707.631	178.547	0.250	-0.367
-706.616	-200.000	0.011	-0.178
-705.602	-61.367	0.198	-0.084
-704.587	62.045	-0.329	-0.331
-703.572	64.732	-0.265	0.269
-702.558	686.843	0.063	0.167
-701.543	253.050	-0.101	0.174
-700.529	-3.479	0.197	-0.138
-699.514	-130.239	0.247	0.034
-698.499	-200.000	0.011	-0.127
-697.485	-158.369	0.101	0.006
-696.470	-1.081	0.215	-0.154
-695.456	157.151	0.064	-0.090
-694.441	-101.307	-0.218	0.054
-693.426	258.459	0.158	0.274
-692.412	-109.311	-0.208	0.044
-691.397	-31.436	0.099	-0.056
-690.383	310.996	-0.174	0.328
-689.368	278.535	0.193	0.346
-688.354	276.814	0.035	0.063
-687.339	-200.000	0.008	-0.128
-686.324	-200.000	-0.025	-0.187
-685.310	74.025	0.213	-0.225
-684.295	478.478	0.082	0.187
-683.281	-40.183	0.127	-0.067
-682.266	800.000	0.050	-0.181
-681.251	-12.309	0.178	0.117
-680.237	-28.643	0.244	-0.141
-679.222	-200.000	-0.030	0.181
-678.208	76.143	-0.145	0.154
-677.193	-200.000	0.012	-0.085
-676.178	-2.787	-0.204	-0.143
-675.164	147.467	-0.124	-0.168
-674.149	167.246	0.083	0.118
-673.135	800.000	-0.096	0.360
-672.120	456.819	0.116	0.259
-671.105	37.473	0.053	0.047
-670.091	-200.000	-0.035	0.173
-669.076	-200.000	-0.025	-0.269
-668.062	315.416	-0.066	0.126
-667.047	240.506	-0.082	-0.138
-666.032	800.000	-0.039	0.122
-665.018	800.000	0.038	-0.118
-664.003	-137.684	0.238	-0.027
-662.989	-112.632	-0.236	-0.047
-661.974	-105.566	0.136	-0.031
-660.959	-200.000	-0.013	-0.189
-659.945	2.907	0.102	-0.074
-658.930	184.589	-0.157	-0.233
-657.916	-106.655	-0.163	0.037
-656.901	-42.587	-0.141	0.072
-655.886	-200.000	-0.025	0.144
-654.872	214.239	0.144	-0.229
-653.857	12.088	0.188	0.146
-652.843	-179.026	-0.353	0.008
-651.828	117.148	0.158	-0.195
-650.814	671.817	0.196	-0.510
-649.799	250.221	0.121	-0.207
-648.784	-188.774	-0.306	-0.004
-647.770	319.461	-0.062	0.118
-646.755	2.451	-0.182	0.132
-645.741	-29.665	-0.146	-0.084
-644.726	102.085	-0.146	0.171
-643.711	-200.000	0.053	0.313
-642.697	-110.810	0.342	0.071
-641.682	446.506	-0.055	-0.122
-640.668	-200.000	0.011	0.056
-639.653	-200.000	-0.050	-0.404
-638.638	-200.000	-0.067	-0.303
-637.624	-200.000	0.019	-0.340
-636.609	-88.827	0.250	0.075
-635.595	797.414	-0.066	-0.182
-634.580	8.279	-0.276	0.209
-633.565	39.087	-0.220	0.198
-632.551	311.429	0.030	-0.057
-631.536	-165.118	-0.121	-0.005
-630.522	272.901	0.121	-0.215
-629.507	-48.421	-0.305	-0.148
-628.492	800.000	-0.119	0.405
-627.478	-200.000	-0.083	0.488
-626.463	28.047	0.219	0.185
-625.449	34.967	-0.194	-0.171
-624.434	-149.169	0.039	-0.003
-623.419	396.231	-0.031	0.065
-622.405	800.000	-0.098	-0.288
-621.390	338.793	-0.136	-0.266
-620.376	423.182	0.048	0.103
-619.361	-200.000	0.074	-0.395
-618.346	115.988	-0.091	0.112
-617.332	-200.000	-0.008	0.318
-616.317	-30.081	-0.227	-0.129
-615.303	675.779	-0.058	0.152
-614.288	79.127	0.146	0.157
-613.273	-28.957	-0.218	0.126
-612.259	-60.595	0.165	-0.070
-611.244	145.698	-0.159	0.214
-610.230	332.077	-0.107	-0.207
-609.215	88.489	0.009	0.010
-608.201	452.657	-0.072	0.160
-607.186	119.541	0.035	-0.043
-606.171	800.000	0.085	-0.325
-605.157	-200.000	0.000	-0.269
-604.142	800.000	0.018	0.059
-603.128	96.825	0.031	-0.035
-602.113	-106.730	0.065	0.015
-601.098	-1.109	-0.027	-0.019
-600.084	63.532	0.360	0.363
-599.069	296.044	0.087	0.160
-598.055	-63.341	-0.246	-0.102
-597.040	181.063	-0.122	-0.179
-596.025	-164.672	-0.371	-0.017
-595.011	-200.000	0.015	0.110
-593.996	4.873	-0.084	0.062
-592.982	-200.000	-0.022	0.127
-591.967	342.143	-0.065	0.127
-590.952	-111.899	0.377	0.076
-589.938	-88.380	-0.275	0.083
-588.923	94.762	0.187	0.213
-587.909	-10.057	0.177	0.118
-586.894	49.780	-0.200	-0.189
-585.879	-138.303	0.155	-0.017
-584.865	218.174	-0.101	0.162
-583.850	-104.151	-0.288	0.067
-582.836	800.000	-0.035	0.150
-581.821	16.883	0.073	-0.058
-580.806	7.524	-0.396	0.297
-579.792	-34.193	0.256	0.141
-578.777	-200.000	0.004	0.050
-577.763	-22.065	0.142	-0.086
-576.748	-173.570	0.087	0.003
-575.733	775.807	-0.081	0.222
-574.719	-99.253	0.462	0.117
-573.704	-101.042	-0.327	-0.080
-572.690	705.591	-0.118	0.312
-571.675	31.429	-0.194	0.167
-570.661	787.768	0.079	-0.217
-569.646	-200.000	-0.017	0.143
-568.631	-200.000	0.002	0.306
-567.617	-200.000	0.026	-0.332
-566.602	114.228	-0.244	-0.297
-565.588	-24.330	0.341	-0.204
-564.573	-88.153	-0.088	-0.026
-563.558	-71.813	-0.186	0.070
-562.544	30.730	0.099	-0.085
-561.529	-72.382	-0.211	-0.078
-560.515	629.544	-0.083	0.210
-559.500	130.416	-0.191	0.246
-558.485	-65.035	-0.229	-0.093
-557.471	250.213	-0.119	0.203
-556.456	21.036	-0.077	-0.063
-555.442	194.988	-0.087	-0.133
-554.427	275.223	0.084	0.150
-553.412	201.399	-0.108	0.167
-552.398	-139.592	-0.026	-0.003
-551.383	-143.464	0.284	0.027
-550.369	800.000	0.105	-0.307
-549.354	-16.797	0.161	-0.102
-548.339	513.489	-0.074	-0.173
-547.325	-119.726	0.171	-0.030
-546.310	-200.000	0.005	0.222
-545.296	-186.934	-0.296	0.004
-544.281	97.215	-0.270	0.310
-543.266	800.000	-0.044	-0.131
-542.252	-162.568	-0.290	-0.014
-541.237	-200.000	0.039	-0.274
-540.223	-61.125	0.130	0.055
-539.208	-13.919	-0.201	-0.130
-538.193	-82.494	0.085	-0.028
-537.179	-102.447	-0.102	0.024
-536.164	25.794	-0.051	-0.043
-535.150	-45.851	0.336	0.166
-534.135	-135.029	-0.115	0.014
-533.121	141.659	0.041	0.055
-532.106	384.277	0.045	-0.092
-531.091	-151.015	-0.131	0.010
-530.077	-62.907	0.250	-0.104
-529.062	269.267	-0.147	0.258
-528.048	800.000	-0.070	-0.244
-527.033	71.695	-0.138	-0.144
-526.018	800.000	0.094	0.394
-525.004	-13.936	-0.034	0.022
-523.989	99.167	0.086	0.099
-522.975	382.773	-0.162	0.333
-521.960	800.000	0.087	-0.254
-520.945	-105.694	-0.056	0.013
-519.931	59.645	-0.221	-0.218
-518.916	96.365	-0.209	0.240
-517.902	-111.936	0.260	-0.053
-516.887	-200.000	0.000	-0.166
-515.872	74.421	0.194	-0.204
-514.858	19.944	-0.204	0.165
-513.843	157.899	-0.107	-0.149
-512.829	117.870	0.107	-0.132
-511.814	123.206	0.127	0.159
-510.799	800.000	-0.054	-0.190
-509.785	-200.000	0.025	-0.346
-508.770	-47.701	0.133	0.064
-507.756	-21.165	-0.184	-0.113
-506.741	-86.872	-0.590	-0.180
-505.726	-149.219	-0.170	0.014
-504.712	83.963	-0.279	0.305
-503.697	317.531	0.065	-0.122
-502.683	-62.416	-0.168	-0.070
-501.668	800.000	-0.110	0.367
-500.653	107.287	0.157	-0.187
-499.639	-82.198	0.179	-0.058
-498.624	-40.345	-0.125	0.065
-497.610	77.866	-0.032	0.034
-496.595	60.588	0.112	0.111
-495.581	38.690	-0.025	-0.022
-494.566	24.263	-0.098	-0.081
-493.551	800.000	0.075	-0.208
-492.537	183.891	0.274	-0.405
-491.522	260.478	-0.049	0.085
-490.508	-49.727	-0.120	-0.057
-489.493	107.653	0.195	0.232
-488.478	71.880	0.123	0.128
-487.464	43.777	0.152	-0.139
-486.449	-45.040	0.152	0.076
-485.435	89.762	0.172	-0.192
-484.420	-3.759	-0.158	0.110
-483.405	-106.102	-0.299	-0.067
-482.391	-200.000	-0.041	0.187
-481.376	-130.105	0.329	0.045
-480.362	-200.000	0.005	-0.167
-479.347	800.000	0.080	-0.222
-478.332	-108.296	-0.092	-0.020
-477.318	287.912	-0.092	-0.166
-476.303	90.954	0.219	0.245
-475.289	105.200	-0.115	-0.136
-474.274	-85.940	-0.265	-0.082
-473.259	266.923	0.149	-0.261
-472.245	-125.537	-0.184	-0.028
-471.230	-14.446	-0.176	-0.113
-470.216	75.169	0.157	0.165
-469.201	4.517	-0.170	-0.125
-468.186	-39.613	-0.136	0.071
-467.172	51.006	0.135	0.128
-466.157	503.896	0.094	-0.217
-465.143	800.000	-0.022	0.089
-464.128	31.183	0.058	0.050
-463.113	-62.120	0.125	0.052
-462.099	-39.829	-0.209	0.109
-461.084	-200.000	-0.005	-0.313
-460.070	-91.798	-0.302	-0.086
-459.055	108.754	0.190	-0.226
-458.040	12.443	0.207	0.159
-457.026	448.498	0.105	0.232
-456.011	-136.767	-0.153	-0.018
-454.997	741.373	0.018	-0.048
-453.982	-6.466	0.142	0.097
-452.968	-74.142	0.104	0.038
-451.953	266.146	0.153	-0.267
-450.938	-164.320	0.353	0.016
-449.924	-200.000	0.015	-0.066
-448.909	-16.274	-0.118	0.075
-447.895	-200.000	-0.030	-0.391
-446.880	-20.428	0.157	-0.096
-445.865	-63.401	0.136	-0.056
-444.851	-158.425	0.083	-0.005
-443.836	-130.306	-0.123	-0.017
-442.822	-200.000	-0.020	0.105
-441.807	-200.000	-0.039	0.583
-440.792	116.990	-0.034	-0.042
-439.778	130.356	-0.187	-0.239
-438.763	-64.509	-0.098	0.040
-437.749	-200.000	0.001	-0.124
-436.734	-110.291	-0.075	-0.016
-435.719	800.000	0.027	0.106
-434.705	253.339	0.214	0.365
-433.690	-200.000	0.088	0.405
-432.676	800.000	-0.075	-0.213
-431.661	-41.971	0.150	-0.077
-430.646	112.412	-0.265	0.320
-429.632	747.071	-0.124	0.332
-428.617	98.938	0.114	-0.131
-427.603	94.849	-0.104	-0.118
-426.588	82.325	-0.129	0.140
-425.573	30.181	-0.105	-0.089
-424.559	-16.410	0.031	-0.020
-423.544	-133.994	-0.200	-0.025
-422.530	78.846	0.100	-0.107
-421.515	-200.000	-0.005	0.086
-420.500	-62.529	-0.178	0.074
-419.486	343.006	-0.078	0.152
-418.471	-43.647	0.385	0.193
-417.457	299.017	0.164	0.302
-416.442	800.000	0.016	0.061
-415.428	-136.524	-0.327	-0.038
-414.413	25.272	-0.163	-0.135
-413.398	-200.000	0.027	-0.170
-412.384	-200.000	0.220	-0.000
-411.369	-92.838	-0.295	0.082
-410.355	-116.858	0.310	0.057
-409.340	-34.382	0.119	0.065
-408.325	800.000	-0.027	0.099
-407.311	470.036	0.067	0.150
-406.296	-135.462	0.057	0.007
-405.282	58.176	0.210	-0.205
-404.267	12.962	-0.243	-0.188
-403.252	67.670	0.166	0.169
-402.238	-86.198	-0.334	0.103
-401.223	-77.405	-0.079	0.027
-400.209	-200.000	-0.010	0.257
-399.194	-58.400	-0.251	-0.109
-398.179	220.981	-0.065	-0.103
-397.165	101.984	0.108	0.125
-396.150	209.356	0.255	0.398
-395.136	31.845	-0.224	-0.192
-394.121	-81.911	0.249	-0.081
-393.106	-200.000	-0.077	0.354
-392.092	-24.232	-0.014	0.008
-391.077	-128.638	0.259	-0.036
-390.063	-86.142	0.229	0.070
-389.048	65.427	0.136	0.137
-388.033	-200.000	0.036	0.453
-387.019	6.035	0.190	0.140
-386.004	243.434	0.120	-0.200
-384.990	-33.028	0.241	0.133
-383.975	42.719	0.300	-0.272
-382.960	25.905	0.084	-0.069
-381.946	-66.581	0.226	0.089
-380.931	800.000	-0.052	-0.159
-379.917	164.315	-0.125	-0.175
-378.902	-13.731	-0.232	-0.149
-377.888	-73.731	-0.266	-0.096
-376.873	156.855	0.145	-0.200
-375.858	-69.838	-0.303	-0.115
-374.844	-69.427	-0.086	0.033
-373.829	800.000	0.091	-0.285
-372.815	444.904	-0.069	0.151
-371.800	24.116	-0.130	0.107
-370.785	-40.097	-0.147	0.076
-369.771	800.000	-0.086	0.259
-368.756	-124.610	0.134	0.021
-367.742	-200.000	0.037	-0.167
-366.727	-32.519	0.124	0.069
-365.712	-125.112	0.310	-0.047
-364.698	-121.341	-0.061	-0.010
-363.683	-200.000	0.005	0.121
-362.669	234.283	-0.241	0.394
-361.654	529.820	0.035	0.081
-360.639	-132.043	-0.184	-0.024
-359.625	800.000	0.073	-0.311
-358.610	-11.670	-0.167	0.109
-357.596	-200.000	-0.042	-0.237
-356.581	-44.263	0.155	-0.077
-355.566	800.000	-0.083	-0.345
-354.552	-155.833	0.215	0.014
-353.537	135.522	-0.119	0.153
-352.523	124.164	0.038	-0.048
-351.508	-80.394	0.387	-0.128
-350.493	451.677	0.046	0.101
-349.479	-200.000	-0.030	0.145
-348.464	-13.364	0.134	-0.086
-347.450	53.719	0.113	0.107
-346.435	19.990	0.079	0.064
-345.420	-55.124	-0.100	-0.045
-344.406	654.155	0.041	0.104
-343.391	-163.904	-0.421	-0.020
-342.377	245.683	0.250	-0.418
-341.362	69.782	-0.165	0.169
-340.348	-200.000	0.065	0.306
-339.333	-20.050	0.046	-0.028
-338.318	-48.123	0.130	-0.063
-337.304	238.095	0.224	0.370
-336.289	125.989	-0.110	-0.138
-335.275	277.387	-0.140	0.248
-334.260	-77.574	0.260	0.089
-333.245	-200.000	0.015	0.100
-332.231	102.440	0.190	0.221
-331.216	0.582	-0.249	-0.177
-330.202	47.824	0.343	-0.318
-329.187	-62.597	-0.145	-0.060
-328.172	-200.000	0.038	-0.283
-327.158	281.732	0.137	0.243
-326.143	-106.862	-0.164	-0.036
-325.129	-200.000	0.012	0.148
-324.114	399.730	-0.120	-0.250
-323.099	-47.311	-0.113	0.055
-322.085	-125.119	0.083	0.013
-321.070	-4.433	0.094	-0.065
-320.056	-200.000	-0.035	0.526
-319.041	-200.000	0.011	0.089
-318.026	16.720	0.100	0.078
-317.012	800.000	-0.106	-0.302
-315.997	-148.043	-0.120	-0.010
-314.983	-92.401	-0.142	0.040
-313.968	-46.930	-0.180	-0.087
-312.953	10.686	-0.125	0.095
-311.939	-200.000	0.039	-0.222
-310.924	706.177	-0.122	-0.319
-309.910	-72.867	0.112	-0.041
-308.895	-200.000	0.034	0.252
-307.880	-92.083	-0.154	0.043
-306.866	218.052	-0.049	0.078
-305.851	-200.000	-0.019	-0.098
-304.837	-170.017	0.246	0.009
-303.822	547.094	-0.019	0.044
-302.807	-9.874	-0.132	0.087
-301.793	-148.822	-0.169	-0.014
-300.778	-49.090	0.234	0.111
-299.764	143.414	0.137	0.181
-298.749	-98.099	-0.202	-0.052
-297.735	452.525	0.121	-0.265
-296.720	304.874	-0.078	0.143
-295.705	-41.997	0.107	0.054
-294.691	800.000	0.043	-0.173
-293.676	596.209	0.098	0.241
-292.662	67.210	-0.062	-0.063
-291.647	-200.000	0.036	-0.270
-290.632	-34.617	0.107	-0.058
-289.618	-112.538	0.193	-0.038
-288.603	-200.000	0.007	0.161
-287.589	-45.448	0.249	0.123
-286.574	-125.249	0.203	-0.031
-285.559	67.261	0.129	0.130
-284.545	165.808	0.230	0.323
-283.530	-200.000	-0.035	0.172
-282.516	-99.164	0.258	-0.065
-281.501	335.766	0.126	-0.243
-280.486	800.000	-0.050	-0.194
-279.472	800.000	-0.082	-0.273
-278.457	130.314	0.104	-0.132
-277.443	406.958	0.041	0.085
-276.428	603.537	-0.060	0.149
-275.413	46.763	-0.083	0.076
-274.399	-167.904	-0.475	-0.018
-273.384	17.958	0.138	-0.109
-272.370	1.718	-0.365	0.260
-271.355	-133.530	0.317	0.039
-270.340	-200.000	0.004	0.092
-269.326	374.578	-0.122	0.246
-268.311	-123.562	-0.082	-0.013
-267.297	-14.491	-0.125	-0.080
-266.282	800.000	0.007	0.019
-265.267	-152.748	0.162	0.011
-264.253	26.844	0.232	0.193
-263.238	106.035	-0.083	-0.097
-262.224	-14.139	0.128	-0.082
-261.209	800.000	0.070	-0.193
-260.195	56.833	-0.094	-0.091
-259.180	186.756	-0.319	0.471
-258.165	111.107	-0.099	0.118
-257.151	-200.000	0.002	-0.152
-256.136	118.059	0.248	-0.303
-255.122	330.350	0.197	-0.376
-254.107	800.000	-0.131	0.475
-253.092	-122.719	0.174	-0.028
-252.078	800.000	-0.061	-0.239
-251.063	-32.673	0.374	-0.206
-250.049	102.213	-0.070	0.081
-249.034	-91.432	-0.156	0.044
-248.019	-56.210	-0.232	-0.102
-247.005	800.000	-0.017	0.051
-245.990	514.155	-0.127	0.294
-244.976	25.135	0.181	0.149
-243.961	-56.998	0.550	0.240
-242.946	418.977	0.114	-0.242
-241.932	25.688	0.158	-0.130
-240.917	800.000	-0.096	0.290
-239.903	-70.717	-0.227	0.085
-238.888	800.000	-0.027	0.081
-237.873	36.879	0.133	-0.116
-236.859	-153.593	-0.278	0.019
-235.844	-171.672	0.453	-0.015
-234.830	324.179	0.070	0.132
-233.815	-1.056	0.066	0.046
-232.800	-150.860	-0.041	0.003
-231.786	-68.732	0.125	0.048
-230.771	255.426	-0.090	-0.153
-229.757	-53.818	0.189	0.085
-228.742	39.563	0.280	0.248
-227.727	-65.446	0.303	0.120
-226.713	149.934	0.173	-0.233
-225.698	246.342	-0.115	0.192
-224.684	17.139	0.109	0.086
-223.669	-200.000	-0.032	-0.377
-222.655	800.000	0.047	-0.166
-221.640	83.381	-0.061	-0.066
-220.625	-200.000	-0.017	-0.152
-219.611	277.510	-0.065	-0.114
-218.596	-111.738	0.060	-0.012
-217.582	-53.819	0.246	0.111
-216.567	800.000	-0.058	0.165
-215.552	94.949	0.210	-0.236
-214.538	-141.958	-0.302	-0.030
-213.523	800.000	-0.139	0.434
-212.509	-170.753	0.185	-0.006
-211.494	-35.383	-0.197	-0.106
-210.479	-138.751	0.041	0.004
-209.465	543.602	-0.024	0.056
-208.450	461.125	0.072	0.159
-207.436	141.154	-0.242	0.316
-206.421	199.791	0.096	-0.146
-205.406	-200.000	0.025	-0.298
-204.392	-78.432	0.298	0.101
-203.377	-6.712	0.260	-0.175
-202.363	41.948	-0.180	-0.162
-201.348	272.208	0.143	-0.249
-200.333	-50.941	0.119	0.055
-199.319	363.924	-0.109	0.216
-198.304	299.804	-0.111	-0.202
-197.290	800.000	-0.064	-0.246
-196.275	-200.000	0.002	0.182
-195.260	800.000	-0.089	0.304
-194.246	217.436	0.146	-0.229
-193.231	31.654	0.168	0.143
-192.217	7.915	-0.148	-0.110
-191.202	583.166	-0.171	-0.414
-190.187	-200.000	-0.051	-0.329
-189.173	-8.833	-0.187	-0.124
-188.158	6.498	0.243	-0.178
-187.144	-200.000	0.008	0.176
-186.129	-200.000	-0.038	-0.272
-185.114	-165.429	0.324	-0.014
-184.100	-70.288	0.285	-0.107
-183.085	-161.410	-0.301	-0.015
-182.071	-49.128	-0.111	0.053
-181.056	234.439	-0.073	-0.118
-180.042	-15.886	-0.227	-0.143
-179.027	-159.898	-0.484	-0.026
-178.012	543.667	0.053	-0.126
-176.998	-175.654	-0.041	-0.001
-175.983	-81.189	0.316	-0.103
-174.969	195.370	0.135	-0.203
-173.954	18.304	-0.106	-0.083
-172.939	-88.339	0.143	-0.042
-171.925	-13.371	0.107	-0.069
-170.910	45.023	-0.087	-0.079
-169.896	-112.362	0.317	-0.063
-168.881	800.000	0.038	0.126
-167.866	-86.421	-0.280	0.085
-166.852	800.000	-0.009	0.038
-165.837	-200.000	0.010	0.105
-164.823	59.499	-0.093	0.090
-163.808	-98.197	0.249	0.063
-162.793	-200.000	-0.016	0.255
-161.779	-200.000	-0.040	-0.216
-160.764	343.154	0.080	-0.154
-159.750	-83.542	-0.039	-0.012
-158.735	-73.606	0.215	0.077
-157.720	-200.000	0.010	-0.079
-156.706	496.212	0.091	-0.206
-155.691	-81.219	0.007	-0.002
-154.677	-86.629	-0.085	0.026
-153.662	800.000	-0.105	-0.335
-152.647	352.350	-0.118	-0.231
-151.633	22.764	-0.180	-0.145
-150.618	26.559	0.160	-0.132
-149.604	-135.906	0.209	-0.024
-148.589	-40.475	-0.141	-0.072
-147.574	81.092	0.056	-0.059
-146.560	-200.000	-0.029	-0.231
-145.545	11.153	0.169	-0.128
-144.531	190.341	0.077	0.114
-143.516	-118.258	-0.567	0.100
-142.502	42.247	0.266	0.238
-141.487	26.044	0.237	-0.195
-140.472	250.914	-0.124	-0.208
-139.458	-200.000	-0.471	-0.001
-138.443	-87.488	0.048	-0.014
-137.429	-200.000	-0.042	-0.264
-136.414	-26.232	0.118	0.068
-135.399	-117.029	0.094	0.017
-134.385	-119.766	0.118	0.020
-133.370	378.878	-0.097	-0.196
-132.356	-111.860	0.312	0.062
-131.341	-37.233	0.174	0.092
-130.326	-63.274	0.086	-0.035
-129.312	137.834	0.143	0.185
-128.297	115.955	-0.227	0.274
-127.283	-112.651	0.370	0.073
-126.268	-47.797	0.328	-0.156
-125.253	800.000	-0.069	0.224
-124.239	38.529	-0.076	-0.067
-123.224	-16.418	-0.258	-0.161
-122.210	306.196	0.143	-0.261
-121.195	79.074	0.183	0.193
