DTS Sentinel unit serial number:	SN413079Multiplexer serial number:	ORYXHardware model number:	OX4-SRSoftware version number:	ORYX F/W v4.00 Oryx Data Collector v3.7.2.0data status	okinstallation	princeton_trtdifferential loss correction	single-endedforward channel	channel 1reverse channel	N/Adate	2019/09/17time	02:10:35forward acquisition time	60.00reverse acquisition time	0.00gamma	496.2192k internal	0.2324k external	0.2324temperature offset calibration	0.9959default loss term (dB/km)	0.3790temperature slope calibration	1.0000multiplexer offset coefficient	1.0000multiplexer slope coefficient	1.0000fibre end	0.00T internal ref (°C)	29.69T ext. ref 1 (°C)	0.13T ext. ref 2 (°C)	24.61length (m)	temperature (°C)	Stokes	anti-Stokes-747.200	-139.427	-0.099	-0.011
-746.185	-200.000	0.004	0.434
-745.171	-126.182	-0.154	-0.023
-744.156	-200.000	0.015	0.232
-743.142	-51.588	0.162	-0.076
-742.127	260.949	-0.132	0.231
-741.112	-137.179	0.161	0.019
-740.098	-36.665	-0.327	0.178
-739.083	-191.467	0.174	0.002
-738.069	-69.688	0.050	-0.019
-737.054	35.013	0.142	0.126
-736.039	-41.747	-0.298	0.154
-735.025	-71.939	0.334	0.126
-734.010	-19.641	-0.299	-0.187
-732.996	395.542	0.081	-0.171
-731.981	-36.098	0.120	0.065
-730.966	76.398	0.070	0.075
-729.952	34.666	-0.204	-0.180
-728.937	-26.664	-0.092	-0.054
-727.923	-41.061	-0.068	0.036
-726.908	69.417	-0.224	-0.233
-725.894	-200.000	-0.026	-0.250
-724.879	-200.000	0.016	-0.329
-723.864	185.186	0.068	0.102
-722.850	-99.293	-0.236	-0.060
-721.835	-200.000	-0.009	-0.112
-720.821	800.000	0.094	0.269
-719.806	-85.113	-0.142	-0.045
-718.791	-154.635	-0.352	-0.024
-717.777	40.441	0.202	-0.183
-716.762	157.676	-0.050	0.070
-715.748	-49.718	0.129	-0.062
-714.733	52.981	0.297	-0.287
-713.718	32.405	-0.070	-0.061
-712.704	-75.950	0.329	-0.117
-711.689	14.781	0.155	0.122
-710.675	60.472	-0.085	0.085
-709.660	56.239	-0.030	0.029
-708.645	101.296	0.102	-0.120
-707.631	-37.559	0.298	-0.160
-706.616	-47.659	0.268	-0.131
-705.602	-160.326	0.218	0.012
-704.587	4.902	0.336	-0.249
-703.572	-53.282	-0.092	0.042
-702.558	-200.000	0.000	-0.164
-701.543	524.783	-0.125	-0.296
-700.529	800.000	-0.062	-0.205
-699.514	-78.160	-0.143	-0.050
-698.499	166.096	-0.229	-0.327
-697.485	778.173	0.147	-0.406
-696.470	237.278	-0.268	-0.448
-695.456	-147.671	0.029	0.002
-694.441	-197.075	-0.024	-0.000
-693.426	-47.213	0.365	0.179
-692.412	258.582	0.039	0.067
-691.397	-62.980	-0.457	-0.190
-690.383	-200.000	-0.006	-0.188
-689.368	-155.393	-0.090	0.006
-688.354	313.688	-0.158	-0.300
-687.339	92.380	-0.075	-0.085
-686.324	163.516	-0.078	-0.111
-685.310	-200.000	-0.058	0.307
-684.295	-85.639	-0.070	-0.022
-683.281	163.146	0.086	-0.122
-682.266	610.313	-0.051	0.129
-681.251	379.070	-0.019	0.040
-680.237	-200.000	-0.037	0.226
-679.222	-200.000	0.013	0.126
-678.208	800.000	0.051	-0.223
-677.193	-103.610	0.193	0.046
-676.178	-113.491	0.231	-0.045
-675.164	-176.940	-0.406	-0.010
-674.149	36.592	0.200	0.177
-673.135	185.254	0.134	-0.201
-672.120	358.417	-0.168	0.338
-671.105	113.726	0.025	0.030
-670.091	174.332	-0.231	0.336
-669.076	54.206	-0.187	-0.181
-668.062	502.124	-0.077	-0.180
-667.047	-138.287	-0.063	-0.007
-666.032	-121.687	0.166	0.028
-665.018	-56.057	0.131	0.059
-664.003	44.948	0.217	-0.201
-662.989	-36.890	-0.285	-0.154
-661.974	231.792	-0.042	0.069
-660.959	-200.000	0.020	-0.290
-659.945	-39.921	0.350	-0.184
-658.930	369.724	-0.111	0.226
-657.916	800.000	-0.069	0.229
-656.901	-64.808	-0.342	-0.139
-655.886	-7.187	0.217	-0.148
-654.872	317.754	-0.100	-0.191
-653.857	-124.459	-0.029	-0.004
-652.843	52.234	0.126	0.121
-651.828	81.047	0.145	0.157
-650.814	-200.000	0.013	0.168
-649.799	-108.516	0.321	-0.070
-648.784	53.527	0.232	0.224
-647.770	-96.634	-0.232	0.062
-646.755	49.488	-0.196	0.185
-645.741	333.164	-0.159	0.309
-644.726	154.420	0.212	-0.293
-643.711	425.614	-0.090	0.196
-642.697	-58.438	-0.196	0.086
-641.682	-64.547	-0.233	0.095
-640.668	-125.423	-0.098	0.015
-639.653	-200.000	-0.014	0.143
-638.638	340.571	-0.059	0.117
-637.624	79.290	-0.111	-0.120
-636.609	75.690	-0.090	0.096
-635.595	-81.517	-0.131	0.043
-634.580	270.117	-0.016	-0.028
-633.565	-200.000	-0.012	0.143
-632.551	-186.710	-0.143	0.002
-631.536	9.272	0.024	0.018
-630.522	-163.347	-0.355	0.017
-629.507	-200.000	0.031	0.170
-628.492	-200.000	-0.001	0.292
-627.478	-200.000	0.018	0.091
-626.463	-168.112	0.522	-0.020
-625.449	-134.728	0.174	0.021
-624.434	34.313	0.097	0.085
-623.419	135.957	0.160	-0.210
-622.405	-114.610	0.231	-0.044
-621.390	174.619	-0.132	-0.192
-620.376	18.516	0.165	-0.133
-619.361	-18.258	0.038	-0.024
-618.346	-200.000	-0.001	-0.110
-617.332	58.394	0.084	0.083
-616.317	-200.000	-0.026	0.167
-615.303	-139.791	-0.271	-0.029
-614.288	457.989	0.114	-0.255
-613.273	40.822	-0.296	-0.268
-612.259	91.719	-0.098	-0.111
-611.244	70.738	-0.101	0.105
-610.230	800.000	-0.047	-0.158
-609.215	141.700	-0.024	-0.032
-608.201	800.000	0.055	0.213
-607.186	-148.091	0.284	-0.024
-606.171	301.117	0.051	-0.095
-605.157	51.241	-0.057	0.054
-604.142	144.436	0.120	-0.161
-603.128	-200.000	0.017	0.080
-602.113	-200.000	-0.293	0.001
-601.098	-70.954	0.238	0.090
-600.084	-24.184	0.213	-0.128
-599.069	-181.886	-0.093	0.002
-598.055	180.438	0.210	-0.309
-597.040	-32.333	-0.160	-0.090
-596.025	-120.110	0.063	-0.011
-595.011	-109.863	0.399	0.084
-593.996	-61.597	-0.385	0.162
-592.982	84.298	-0.191	-0.210
-591.967	382.506	-0.037	-0.077
-590.952	74.393	0.187	0.197
-589.938	-39.686	0.211	0.111
-588.923	28.025	0.208	-0.176
-587.909	738.860	-0.025	-0.068
-586.894	800.000	-0.078	-0.245
-585.879	-200.000	-0.061	0.294
-584.865	-200.000	0.014	0.091
-583.850	-36.307	0.395	0.214
-582.836	-147.930	-0.558	-0.047
-581.821	8.953	-0.196	0.148
-580.806	7.747	-0.060	0.045
-579.792	-200.000	-0.014	0.169
-578.777	-200.000	0.015	0.132
-577.763	-84.648	0.123	-0.039
-576.748	-33.110	-0.061	-0.034
-575.733	322.788	-0.191	0.365
-574.719	-200.000	-0.021	0.300
-573.704	-88.509	0.327	0.098
-572.690	202.689	0.077	0.119
-571.675	-25.055	-0.167	-0.099
-570.661	-30.100	-0.233	-0.133
-569.646	-186.848	-0.259	-0.004
-568.631	-200.000	0.011	0.200
-567.617	9.202	-0.068	0.051
-566.602	81.227	-0.206	-0.223
-565.588	211.315	0.120	-0.189
-564.573	147.712	0.029	0.039
-563.558	-200.000	0.029	0.290
-562.544	-87.013	0.398	-0.122
-561.529	-39.187	-0.145	-0.076
-560.515	-12.593	-0.206	-0.135
-559.500	-87.362	-0.060	-0.018
-558.485	-137.133	-0.090	-0.010
-557.471	177.200	-0.068	-0.099
-556.456	-126.277	0.121	-0.018
-555.442	-157.326	-0.203	0.012
-554.427	-29.957	0.065	-0.037
-553.412	96.167	0.173	-0.198
-552.398	-38.685	-0.419	-0.222
-551.383	87.025	-0.099	-0.110
-550.369	-200.000	-0.010	0.141
-549.354	-70.512	0.307	-0.116
-548.339	36.111	0.070	-0.061
-547.325	94.222	-0.008	-0.009
-546.310	-200.000	-0.003	0.224
-545.296	309.249	0.065	0.122
-544.281	-27.060	-0.254	-0.148
-543.266	-60.630	-0.103	-0.044
-542.252	70.749	0.072	-0.075
-541.237	-191.000	-0.134	-0.001
-540.223	170.336	0.065	0.094
-539.208	800.000	-0.054	0.182
-538.193	-108.257	-0.201	-0.044
-537.179	139.203	-0.133	0.175
-536.164	-143.903	-0.310	-0.029
-535.150	162.724	-0.154	-0.217
-534.135	-50.770	0.093	-0.044
-533.121	-74.850	-0.166	0.060
-532.106	-19.442	0.147	-0.091
-531.091	-24.965	-0.198	-0.118
-530.077	177.563	0.097	0.141
-529.062	540.673	0.036	0.086
-528.048	25.552	0.454	-0.378
-527.033	-139.349	0.270	-0.029
-526.018	-106.417	0.037	0.008
-525.004	-74.828	0.164	-0.059
-523.989	203.644	0.116	-0.180
-522.975	-183.946	-0.191	0.003
-521.960	-79.406	-0.330	-0.112
-520.945	185.730	-0.087	0.130
-519.931	434.210	-0.129	0.280
-518.916	-200.000	-0.078	-0.378
-517.902	27.598	-0.440	-0.370
-516.887	-115.461	0.246	-0.046
-515.872	-111.478	-0.318	-0.065
-514.858	800.000	0.049	0.156
-513.843	133.603	0.115	0.149
-512.829	-181.612	0.731	-0.014
-511.814	289.544	-0.166	0.301
-510.799	127.783	-0.210	-0.267
-509.785	-97.231	-0.058	-0.015
-508.770	132.783	0.096	0.124
-507.756	-200.000	0.027	0.239
-506.741	49.784	0.262	0.247
-505.726	55.987	-0.111	0.107
-504.712	-86.035	-0.220	0.068
-503.697	-119.457	-0.428	0.074
-502.683	-200.000	0.006	0.076
-501.668	-165.149	-0.134	0.006
-500.653	800.000	-0.018	-0.050
-499.639	188.351	-0.208	-0.311
-498.624	-200.000	-0.024	-0.249
-497.610	-18.139	-0.216	-0.135
-496.595	800.000	-0.074	0.275
-495.581	355.503	-0.069	0.138
-494.566	-200.000	-0.036	-0.191
-493.551	800.000	0.036	0.116
-492.537	-184.821	0.248	0.004
-491.522	10.935	0.223	0.171
-490.508	-41.290	0.124	-0.064
-489.493	186.772	0.179	-0.266
-488.478	-145.236	0.121	0.011
-487.464	181.160	0.112	-0.164
-486.449	-30.494	-0.239	0.135
-485.435	70.016	-0.157	-0.162
-484.420	62.800	-0.104	0.104
-483.405	-8.829	0.203	0.136
-482.391	800.000	-0.040	0.167
-481.376	311.668	0.040	-0.076
-480.362	-200.000	-0.009	0.221
-479.347	800.000	0.069	-0.195
-478.332	-95.672	0.305	0.082
-477.318	-124.970	-0.211	-0.032
-476.303	800.000	0.074	0.217
-475.289	-200.000	-0.008	-0.158
-474.274	457.887	0.134	0.298
-473.259	-28.106	-0.124	0.072
-472.245	91.539	-0.111	0.125
-471.230	159.521	-0.195	-0.271
-470.216	382.881	0.101	-0.207
-469.201	-136.589	-0.163	-0.019
-468.186	-61.857	-0.338	0.141
-467.172	-200.000	-0.002	-0.089
-466.157	-200.000	-0.026	0.171
-465.143	-200.000	-0.033	0.153
-464.128	800.000	-0.051	0.156
-463.113	6.620	0.096	-0.071
-462.099	-178.702	-0.197	-0.005
-461.084	111.197	0.221	0.266
-460.070	-200.000	-0.013	-0.218
-459.055	-134.547	0.210	0.026
-458.040	11.643	-0.219	-0.168
-457.026	-153.092	0.142	-0.010
-456.011	51.200	-0.134	-0.127
-454.997	-9.587	-0.221	-0.147
-453.982	268.576	-0.109	-0.192
-452.968	-67.651	0.267	-0.104
-451.953	-200.000	-0.022	0.187
-450.938	618.576	-0.069	0.173
-449.924	89.666	0.137	-0.153
-448.909	-108.918	0.029	0.006
-447.895	-200.000	-0.002	-0.234
-446.880	-200.000	0.004	-0.107
-445.865	-0.895	-0.305	-0.215
-444.851	-55.103	-0.112	0.051
-443.836	-57.730	-0.478	0.209
-442.822	-123.715	0.526	-0.083
-441.807	498.802	-0.062	0.143
-440.792	-125.444	0.307	-0.047
-439.778	-200.000	0.080	-0.450
-438.763	111.407	0.108	-0.130
-437.749	-22.673	-0.183	-0.111
-436.734	0.642	0.261	0.186
-435.719	150.420	-0.096	0.129
-434.705	-6.530	0.535	-0.363
-433.690	362.621	0.052	-0.104
-432.676	-196.154	-0.127	0.001
-431.661	438.291	-0.019	-0.040
-430.646	3.718	-0.238	0.173
-429.632	-167.716	-0.379	0.015
-428.617	-200.000	-0.000	-0.325
-427.603	139.958	-0.024	0.032
-426.588	-146.257	0.070	-0.006
-425.573	-16.531	0.042	0.027
-424.559	10.046	-0.131	-0.099
-423.544	800.000	0.102	0.291
-422.530	-200.000	-0.078	0.474
-421.515	-200.000	-0.033	-0.154
-420.500	-199.860	0.176	0.001
-419.486	-132.878	0.289	-0.037
-418.471	-200.000	0.044	0.307
-417.457	91.737	0.140	-0.157
-416.442	32.370	-0.091	0.078
-415.428	-35.618	-0.066	-0.036
-414.413	122.497	0.292	-0.363
-413.398	-108.478	0.032	0.007
-412.384	800.000	0.045	-0.146
-411.369	-103.408	-0.040	0.009
-410.355	698.222	-0.076	-0.199
-409.340	-122.839	-0.540	0.087
-408.325	679.177	0.137	0.355
-407.311	-200.000	-0.003	0.059
-406.296	-35.056	0.151	0.082
-405.282	742.712	0.112	-0.300
-404.267	-200.000	-0.026	-0.141
-403.252	-14.037	-0.138	0.089
-402.238	-110.679	-0.048	-0.010
-401.223	-200.000	-0.003	-0.046
-400.209	-167.219	0.207	-0.008
-399.194	21.042	0.204	0.165
-398.179	-69.478	-0.161	-0.061
-397.165	-200.000	0.051	-0.391
-396.150	116.437	0.239	-0.292
-395.136	-200.000	-0.030	-0.362
-394.121	75.514	-0.067	-0.070
-393.106	498.907	0.102	0.235
-392.092	-200.000	-0.017	0.288
-391.077	80.694	0.178	-0.191
-390.063	-51.104	-0.265	0.124
-389.048	-93.821	0.175	0.048
-388.033	-65.057	0.155	-0.062
-387.019	-115.757	0.623	-0.116
-386.004	-78.421	-0.289	0.099
-384.990	-100.226	0.186	0.046
-383.975	-62.752	-0.311	-0.128
-382.960	114.225	0.122	-0.147
-381.946	-111.290	0.224	-0.045
-380.931	-200.000	0.028	-0.128
-379.917	-200.000	0.011	-0.096
-378.902	-84.211	-0.054	-0.017
-377.888	-200.000	-0.022	-0.108
-376.873	800.000	-0.024	-0.102
-375.858	-122.607	0.415	0.067
-374.844	-100.567	0.372	-0.092
-373.829	-152.800	0.206	0.015
-372.815	83.070	0.022	0.024
-371.800	-144.788	-0.283	-0.026
-370.785	665.379	0.114	0.294
-369.771	-200.000	0.055	-0.299
-368.756	-200.000	-0.063	-0.288
-367.742	-200.000	0.041	-0.520
-366.727	-131.564	0.114	-0.015
-365.712	626.558	0.124	-0.312
-364.698	800.000	-0.100	0.325
-363.683	74.064	0.101	-0.106
-362.669	-40.211	-0.271	-0.140
-361.654	182.058	0.084	0.123
-360.639	160.945	0.135	0.187
-359.625	-82.698	0.257	0.083
-358.610	-90.897	0.229	-0.065
-357.596	-200.000	0.005	-0.144
-356.581	-200.000	0.009	0.310
-355.566	800.000	0.051	0.177
-354.552	800.000	-0.048	0.145
-353.537	491.273	0.056	-0.128
-352.523	-91.258	-0.312	0.089
-351.508	348.855	0.153	-0.300
-350.493	-148.371	-0.189	0.015
-349.479	-200.000	0.030	0.437
-348.464	800.000	0.059	0.249
-347.450	-200.000	0.025	0.215
-346.435	550.704	-0.083	-0.197
-345.420	-111.217	-0.405	-0.082
-344.406	197.603	-0.140	-0.212
-343.391	65.703	-0.215	0.216
-342.377	308.207	0.082	0.152
-341.362	-152.374	0.262	0.019
-340.348	-110.374	-0.156	0.032
-339.333	717.840	0.128	0.338
-338.318	189.428	-0.198	0.295
-337.304	77.761	-0.046	0.048
-336.289	259.220	-0.145	-0.249
-335.275	-200.000	0.018	0.190
-334.260	158.268	0.048	-0.066
-333.245	42.886	-0.185	-0.168
-332.231	-128.306	-0.156	0.022
-331.216	-6.393	0.162	0.110
-330.202	-132.687	-0.161	0.020
-329.187	556.133	-0.074	-0.178
-328.172	-95.213	0.312	-0.083
-327.158	279.389	-0.077	0.137
-326.143	11.665	-0.211	-0.161
-325.129	-89.023	-0.226	0.067
-324.114	-145.903	-0.375	-0.033
-323.099	-47.963	-0.262	0.126
-322.085	-67.936	-0.250	-0.097
-321.070	-148.508	0.143	-0.012
-320.056	73.988	-0.113	0.118
-319.041	254.807	-0.114	0.194
-318.026	-200.000	0.016	-0.239
-317.012	-200.000	-0.061	0.285
-315.997	87.486	0.038	0.042
-314.983	-156.723	-0.162	0.010
-313.968	455.161	-0.061	0.135
-312.953	276.802	-0.098	-0.172
-311.939	385.172	-0.095	-0.194
-310.924	32.862	0.145	-0.125
-309.910	481.040	-0.069	-0.156
-308.895	-200.000	0.070	0.320
-307.880	372.003	-0.107	0.216
-306.866	110.677	0.297	-0.355
-305.851	88.000	0.052	0.057
-304.837	-200.000	0.000	0.006
-303.822	-200.000	0.006	0.054
-302.807	-200.000	-0.034	-0.163
-301.793	800.000	0.031	-0.124
-300.778	491.861	-0.070	-0.160
-299.764	393.614	-0.055	0.113
-298.749	-62.749	0.110	-0.045
-297.735	-83.905	0.312	-0.098
-296.720	207.450	0.089	-0.138
-295.705	52.375	-0.151	0.143
-294.691	-63.269	-0.260	0.106
-293.676	800.000	-0.094	-0.277
-292.662	165.721	0.217	0.305
-291.647	-44.696	0.172	0.085
-290.632	-20.559	0.322	0.196
-289.618	-34.416	0.172	0.093
-288.603	-200.000	0.001	0.148
-287.589	29.415	-0.185	-0.156
-286.574	800.000	0.056	0.229
-285.559	-131.215	0.126	0.017
-284.545	-200.000	0.011	-0.130
-283.530	-55.991	0.150	-0.066
-282.516	-200.000	-0.007	0.299
-281.501	-92.532	0.208	-0.058
-280.486	-136.391	-0.184	-0.021
-279.472	-35.624	-0.091	0.049
-278.457	-113.062	0.188	-0.037
-277.443	28.853	-0.144	0.121
-276.428	-130.041	-0.423	-0.057
-275.413	443.351	-0.061	-0.132
-274.399	800.000	-0.023	-0.088
-273.384	2.894	-0.018	0.013
-272.370	-160.024	0.143	-0.008
-271.355	-5.924	0.299	0.203
-270.340	-77.392	0.080	0.028
-269.326	-48.511	0.209	0.100
-268.311	800.000	-0.048	0.177
-267.297	-200.000	-0.011	-0.283
-266.282	56.830	-0.161	-0.156
-265.267	323.449	-0.092	0.173
-264.253	-57.257	0.175	-0.076
-263.238	-116.384	0.478	0.088
-262.224	-31.779	-0.248	0.138
-261.209	800.000	0.082	0.268
-260.195	-200.000	0.055	0.360
-259.180	-16.398	0.201	0.127
-258.165	-200.000	-0.011	-0.289
-257.151	57.491	-0.180	0.174
-256.136	-200.000	0.009	-0.059
-255.122	144.310	-0.120	0.158
-254.107	-61.929	-0.075	0.031
-253.092	-129.443	-0.110	0.015
-252.078	-77.752	0.233	0.080
-251.063	-125.960	0.175	0.026
-250.049	-200.000	0.012	0.086
-249.034	261.766	0.100	0.171
-248.019	-111.627	-0.072	-0.015
-247.005	800.000	-0.025	-0.085
-245.990	-48.416	-0.103	0.049
-244.976	-69.498	0.214	0.081
-243.961	-67.315	0.111	-0.043
-242.946	38.557	0.038	0.033
-241.932	99.993	-0.077	0.088
-240.917	-131.640	0.078	0.010
-239.903	-144.063	0.120	0.011
-238.888	-85.009	0.293	0.091
-237.873	706.583	0.033	0.086
-236.859	-99.993	-0.150	0.037
-235.844	-105.869	-0.118	0.026
-234.830	182.749	0.084	-0.123
-233.815	265.414	-0.085	0.147
-232.800	-99.990	-0.365	-0.090
-231.786	-200.000	0.018	-0.182
-230.771	11.496	-0.158	-0.120
-229.757	-65.021	-0.301	0.120
-228.742	-39.291	0.262	-0.136
-227.727	43.295	0.155	0.140
-226.713	75.861	-0.087	0.091
-225.698	-200.000	-0.004	-0.075
-224.684	-200.000	-0.004	0.051
-223.669	-182.504	0.171	0.003
-222.655	-96.043	0.324	-0.085
-221.640	-50.910	-0.377	-0.175
-220.625	-49.189	-0.176	0.083
-219.611	81.295	0.149	-0.159
-218.596	3.512	-0.301	-0.217
-217.582	-200.000	0.059	0.366
-216.567	42.300	0.158	-0.142
-215.552	263.823	-0.046	0.079
-214.538	-22.097	-0.232	-0.139
-213.523	67.925	0.142	-0.143
-212.509	-127.616	-0.119	-0.017
-211.494	43.678	-0.187	-0.169
-210.479	800.000	0.030	0.107
-209.465	168.602	-0.327	-0.461
-208.450	-97.179	-0.184	-0.047
-207.436	-154.196	0.274	-0.018
-206.421	800.000	0.035	-0.148
-205.406	-200.000	0.041	0.333
-204.392	48.071	-0.339	0.313
-203.377	-86.477	0.178	0.054
-202.363	-93.995	-0.394	-0.107
-201.348	2.704	0.111	-0.079
-200.333	-200.000	-0.022	-0.287
-199.319	-102.311	0.108	0.026
-198.304	130.816	0.138	0.175
-197.290	496.169	0.030	0.068
-196.275	800.000	0.033	-0.138
-195.260	323.952	0.182	0.343
-194.246	-95.144	0.115	-0.031
-193.231	41.306	0.101	0.090
-192.217	87.133	0.266	-0.291
-191.202	-58.157	0.096	-0.041
-190.187	-66.604	0.251	0.098
-189.173	37.497	0.209	-0.183
-188.158	-115.851	0.130	0.024
-187.144	-114.978	-0.456	0.086
-186.129	-123.491	0.154	-0.024
-185.114	-118.338	-0.311	0.055
-184.100	71.779	-0.160	0.164
-183.085	38.516	0.202	0.178
-182.071	577.897	0.064	0.156
-181.056	-88.231	-0.186	-0.055
-180.042	-9.082	0.200	-0.132
-179.027	65.232	0.299	-0.299
-178.012	-63.016	0.318	-0.130
-176.998	283.039	0.150	0.266
-175.983	-4.984	0.247	-0.168
-174.969	207.108	-0.072	-0.111
-173.954	-13.662	-0.217	-0.139
-172.939	-78.421	0.252	0.085
-171.925	-30.909	-0.215	-0.120
-170.910	-150.412	0.172	-0.013
-169.896	68.303	0.096	0.097
-168.881	-200.000	0.020	0.157
-167.866	78.447	-0.250	0.264
-166.852	-149.771	-0.334	-0.026
-165.837	176.243	0.126	-0.181
-164.823	2.538	-0.196	-0.140
-163.808	-114.309	0.134	0.025
-162.793	-43.452	0.466	-0.232
-161.779	-200.000	-0.029	0.367
-160.764	-70.529	-0.276	0.103
-159.750	-124.842	0.373	-0.057
-158.735	-200.000	0.004	0.044
-157.720	-182.148	-0.117	0.002
-156.706	-200.000	-0.028	0.157
-155.691	86.109	-0.054	-0.059
-154.677	250.734	0.052	-0.088
-153.662	-100.068	-0.414	-0.102
-152.647	76.905	0.216	-0.226
-151.633	-48.911	0.053	-0.025
-150.618	-35.103	-0.244	-0.131
-149.604	160.399	0.110	-0.152
-148.589	800.000	-0.062	-0.178
-147.574	-20.617	-0.339	-0.206
-146.560	291.423	-0.055	0.098
-145.545	306.806	-0.103	-0.189
-144.531	63.491	0.158	-0.156
-143.516	324.622	0.105	-0.198
-142.502	800.000	0.026	-0.110
-141.487	123.980	-0.134	0.166
-140.472	445.614	0.147	0.319
-139.458	435.552	0.097	0.209
-138.443	275.446	-0.129	-0.225
-137.429	98.469	0.143	-0.162
-136.414	-76.830	0.265	-0.091
-135.399	174.928	0.097	-0.139
-134.385	236.885	0.261	0.426
-133.370	-68.202	0.364	-0.140
-132.356	47.797	-0.233	-0.214
-131.341	164.984	-0.122	-0.169
-130.326	-200.000	0.006	0.104
-129.312	-96.650	-0.034	-0.009
-128.297	500.413	-0.169	-0.384
-127.283	73.662	-0.136	0.141
-126.268	800.000	-0.039	-0.161
-125.253	187.588	0.116	0.171
-124.239	-178.412	-0.026	-0.001
-123.224	-100.703	0.227	0.055
-122.210	-200.000	-0.030	0.434
