DTS Sentinel unit serial number:	SN413079Multiplexer serial number:	ORYXHardware model number:	OX4-SRSoftware version number:	ORYX F/W v4.00 Oryx Data Collector v3.7.2.0data status	okinstallation	princeton_trtdifferential loss correction	single-endedforward channel	channel 1reverse channel	N/Adate	2019/09/15time	06:30:35forward acquisition time	60.00reverse acquisition time	0.00gamma	496.2192k internal	0.2324k external	0.2324temperature offset calibration	0.9995default loss term (dB/km)	0.3790temperature slope calibration	1.0000multiplexer offset coefficient	1.0000multiplexer slope coefficient	1.0000fibre end	0.00T internal ref (°C)	30.50T ext. ref 1 (°C)	4.81T ext. ref 2 (°C)	25.37length (m)	temperature (°C)	Stokes	anti-Stokes-747.200	88.788	-0.099	0.111
-746.185	-200.000	0.075	0.422
-745.171	12.638	-0.067	-0.052
-744.156	187.628	0.194	0.293
-743.142	261.530	0.148	-0.258
-742.127	9.263	-0.270	0.206
-741.112	-200.000	0.002	-0.171
-740.098	800.000	-0.171	0.528
-739.083	-200.000	0.016	-0.104
-738.069	-200.000	0.000	-0.207
-737.054	-113.319	-0.119	-0.024
-736.039	-40.376	-0.172	0.090
-735.025	390.677	0.176	0.368
-734.010	-115.108	-0.232	0.044
-732.996	-54.294	-0.380	-0.174
-731.981	-33.879	-0.416	-0.231
-730.966	800.000	0.067	-0.245
-729.952	-11.094	0.113	0.075
-728.937	19.428	-0.187	-0.151
-727.923	-200.000	-0.043	-0.213
-726.908	175.694	0.085	-0.124
-725.894	334.567	-0.052	0.102
-724.879	-8.745	0.222	-0.150
-723.864	-200.000	-0.010	0.234
-722.850	800.000	0.039	0.155
-721.835	267.300	-0.217	0.382
-720.821	19.774	-0.078	0.063
-719.806	-200.000	0.056	0.263
-718.791	-161.404	0.157	0.008
-717.777	-9.679	0.115	0.077
-716.762	-200.000	-0.045	0.317
-715.748	7.714	-0.219	-0.165
-714.733	-200.000	0.024	-0.174
-713.718	9.375	-0.122	-0.093
-712.704	-151.559	-0.126	0.009
-711.689	-34.021	0.307	-0.170
-710.675	-120.752	0.206	-0.035
-709.660	-83.037	-0.186	-0.060
-708.645	252.334	0.081	0.138
-707.631	-81.179	-0.257	0.085
-706.616	-137.280	-0.255	0.029
-705.602	800.000	0.073	-0.222
-704.587	-134.795	-0.105	-0.013
-703.572	-12.990	0.076	0.050
-702.558	-59.385	-0.259	-0.112
-701.543	-52.278	0.192	-0.090
-700.529	100.265	0.088	0.103
-699.514	-141.322	-0.405	0.041
-698.499	188.756	-0.112	-0.169
-697.485	-200.000	-0.006	0.112
-696.470	-156.618	0.259	0.016
-695.456	-8.251	0.209	-0.142
-694.441	-182.012	-0.334	-0.006
-693.426	-27.101	0.050	-0.030
-692.412	-34.988	-0.239	-0.131
-691.397	61.790	0.141	-0.141
-690.383	-19.474	-0.306	-0.191
-689.368	176.304	-0.110	-0.161
-688.354	-200.000	0.017	-0.130
-687.339	800.000	-0.009	0.027
-686.324	-200.000	0.066	-0.377
-685.310	-155.404	0.135	-0.009
-684.295	800.000	-0.071	0.215
-683.281	132.936	0.264	0.343
-682.266	-126.302	-0.333	-0.050
-681.251	39.515	-0.357	-0.322
-680.237	-114.629	-0.091	-0.017
-679.222	-200.000	-0.022	0.126
-678.208	-200.000	-0.095	0.468
-677.193	-200.000	-0.009	0.042
-676.178	396.471	-0.140	-0.294
-675.164	72.683	-0.035	-0.037
-674.149	800.000	-0.025	0.091
-673.135	644.631	-0.058	-0.148
-672.120	216.283	0.133	-0.213
-671.105	4.995	-0.124	0.092
-670.091	-76.060	-0.287	0.102
-669.076	800.000	0.031	-0.127
-668.062	559.139	0.122	-0.296
-667.047	-200.000	0.017	0.087
-666.032	-22.811	0.077	-0.047
-665.018	247.386	-0.130	-0.221
-664.003	800.000	-0.040	0.125
-662.989	800.000	0.061	-0.176
-661.974	-200.000	-0.035	-0.377
-660.959	-71.647	0.438	-0.165
-659.945	191.594	0.165	0.251
-658.930	37.998	0.062	0.055
-657.916	-154.498	-0.060	0.004
-656.901	800.000	0.044	0.135
-655.886	-123.048	-0.079	-0.013
-654.872	-74.567	-0.338	0.123
-653.857	-160.904	0.152	0.008
-652.843	323.177	0.157	-0.301
-651.828	-200.000	-0.105	-0.000
-650.814	95.338	0.051	0.058
-649.799	-48.523	-0.316	0.153
-648.784	-200.000	0.006	0.094
-647.770	-48.331	-0.356	-0.173
-646.755	271.133	-0.161	-0.286
-645.741	-152.801	0.305	-0.022
-644.726	17.537	-0.139	0.111
-643.711	-112.289	0.259	0.052
-642.697	532.388	0.155	-0.368
-641.682	562.525	0.120	0.291
-640.668	-49.236	-0.375	-0.180
-639.653	-80.386	-0.090	-0.030
-638.638	-105.551	-0.465	-0.106
-637.624	138.809	0.123	-0.163
-636.609	164.691	-0.175	0.248
-635.595	-200.000	-0.038	0.293
-634.580	-200.000	0.024	0.215
-633.565	-126.718	-0.436	0.065
-632.551	379.174	-0.037	-0.075
-631.536	-55.867	0.121	-0.054
-630.522	-6.975	-0.416	-0.284
-629.507	-200.000	0.004	-0.023
-628.492	-200.000	-0.008	0.314
-627.478	344.035	-0.203	-0.400
-626.463	180.013	0.248	-0.366
-625.449	-200.000	-0.013	0.233
-624.434	766.417	0.059	-0.161
-623.419	-200.000	0.030	-0.137
-622.405	-200.000	-0.038	-0.227
-621.390	-112.681	0.147	0.029
-620.376	234.665	-0.155	0.257
-619.361	69.341	0.098	-0.102
-618.346	690.917	-0.065	0.170
-617.332	120.339	-0.110	-0.137
-616.317	-168.018	-0.070	0.003
-615.303	-131.421	-0.266	0.035
-614.288	-185.637	0.111	-0.002
-613.273	-200.000	-0.033	-0.205
-612.259	-118.448	-0.357	0.063
-611.244	-80.708	0.183	-0.061
-610.230	59.910	-0.211	0.209
-609.215	399.341	-0.100	0.210
-608.201	107.416	-0.068	0.081
-607.186	-77.170	0.274	0.096
-606.171	-86.081	-0.241	0.075
-605.157	-200.000	0.013	-0.139
-604.142	251.230	-0.068	0.116
-603.128	419.407	-0.110	0.235
-602.113	-104.906	0.034	-0.008
-601.098	598.822	0.035	0.087
-600.084	67.285	0.258	0.264
-599.069	274.579	0.101	0.179
-598.055	-24.696	0.321	0.192
-597.040	800.000	0.022	-0.067
-596.025	-19.581	0.124	0.077
-595.011	-113.196	0.391	-0.077
-593.996	-200.000	-0.084	-0.406
-592.982	-74.624	0.173	-0.062
-591.967	-152.243	-0.161	0.012
-590.952	143.189	-0.170	-0.227
-589.938	87.957	0.120	-0.134
-588.923	-200.000	0.027	0.209
-587.909	205.244	0.147	0.230
-586.894	408.101	0.156	0.331
-585.879	134.153	-0.142	0.185
-584.865	-132.784	0.145	0.019
-583.850	329.128	-0.121	-0.234
-582.836	-200.000	0.028	0.144
-581.821	-102.612	0.067	0.016
-580.806	-200.000	-0.193	0.001
-579.792	7.117	0.417	0.312
-578.777	-82.766	-0.321	0.104
-577.763	-76.644	-0.055	0.019
-576.748	-103.563	0.259	-0.061
-575.733	553.567	0.089	-0.215
-574.719	-200.000	0.022	0.322
-573.704	-200.000	-0.032	-0.291
-572.690	-129.382	0.420	0.058
-571.675	-62.042	-0.503	0.211
-570.661	-200.000	0.004	-0.018
-569.646	333.588	-0.169	-0.327
-568.631	161.832	-0.069	0.097
-567.617	-73.747	-0.007	0.002
-566.602	800.000	0.099	0.305
-565.588	-62.262	0.181	0.076
-564.573	800.000	0.028	-0.093
-563.558	73.152	0.199	0.209
-562.544	98.425	-0.239	0.276
-561.529	50.548	-0.194	-0.184
-560.515	-200.000	0.018	-0.413
-559.500	-200.000	0.002	-0.109
-558.485	-12.169	-0.246	0.161
-557.471	-109.384	0.173	0.037
-556.456	-200.000	-0.055	-0.272
-555.442	-156.813	0.172	0.011
-554.427	-89.801	-0.170	0.050
-553.412	68.758	0.168	-0.172
-552.398	-125.860	0.096	-0.015
-551.383	-114.079	-0.154	0.030
-550.369	-59.416	0.282	0.121
-549.354	497.940	-0.056	-0.129
-548.339	34.778	0.107	0.094
-547.325	104.329	0.199	0.234
-546.310	56.329	0.247	0.240
-545.296	-3.295	-0.248	-0.173
-544.281	6.839	-0.168	0.125
-543.266	-200.000	0.009	-0.154
-542.252	800.000	-0.063	-0.207
-541.237	-164.295	-0.431	-0.020
-540.223	108.762	0.209	-0.250
-539.208	-88.516	0.151	0.045
-538.193	-98.092	0.091	0.023
-537.179	127.786	-0.100	0.128
-536.164	-14.854	-0.265	0.170
-535.150	-180.345	-0.267	0.006
-534.135	-140.124	-0.197	-0.021
-533.121	-105.661	0.240	0.054
-532.106	800.000	-0.061	-0.197
-531.091	21.538	-0.020	-0.016
-530.077	776.249	-0.082	-0.224
-529.062	-200.000	-0.004	0.147
-528.048	227.337	0.050	0.081
-527.033	289.761	0.132	0.239
-526.018	-92.415	0.201	0.057
-525.004	-61.806	0.080	0.033
-523.989	-89.535	-0.275	-0.081
-522.975	182.796	0.116	-0.171
-521.960	-93.063	-0.169	-0.047
-520.945	72.849	0.090	0.094
-519.931	-91.587	-0.242	0.069
-518.916	-198.839	-0.279	-0.002
-517.902	-111.482	0.115	0.023
-516.887	74.136	-0.302	0.317
-515.872	800.000	0.032	-0.125
-514.858	16.936	0.274	0.217
-513.843	-200.000	-0.001	-0.055
-512.829	-95.673	0.114	0.031
-511.814	800.000	-0.093	-0.318
-510.799	372.988	-0.051	0.105
-509.785	-200.000	0.033	0.153
-508.770	60.212	0.176	-0.174
-507.756	20.076	-0.053	-0.043
-506.741	-130.661	0.278	-0.037
-505.726	193.652	-0.204	-0.309
-504.712	-200.000	0.015	-0.068
-503.697	-158.949	-0.112	-0.006
-502.683	55.104	0.092	-0.089
-501.668	-38.671	0.259	-0.137
-500.653	-179.733	0.339	-0.007
-499.639	338.019	0.023	-0.044
-498.624	-72.077	-0.288	0.107
-497.610	0.368	0.055	-0.039
-496.595	-181.404	0.058	0.001
-495.581	8.115	0.319	0.239
-494.566	100.654	0.107	-0.124
-493.551	-200.000	0.020	-0.088
-492.537	72.167	-0.182	-0.189
-491.522	-32.761	0.123	-0.068
-490.508	186.350	-0.135	0.201
-489.493	590.914	0.024	0.059
-488.478	147.934	0.137	0.184
-487.464	-17.607	-0.032	-0.020
-486.449	-200.000	0.037	0.222
-485.435	-8.586	0.153	-0.103
-484.420	-112.149	-0.097	0.019
-483.405	-87.324	-0.290	-0.088
-482.391	-142.642	-0.100	0.010
-481.376	-137.479	0.138	-0.016
-480.362	-87.960	0.294	0.088
-479.347	-26.919	-0.125	0.073
-478.332	-200.000	-0.012	-0.108
-477.318	-87.825	-0.272	-0.082
-476.303	85.804	-0.182	-0.200
-475.289	207.643	-0.128	-0.199
-474.274	99.327	-0.226	-0.261
-473.259	-23.547	-0.057	0.034
-472.245	-72.415	0.076	-0.028
-471.230	70.454	0.120	-0.124
-470.216	2.795	0.013	0.009
-469.201	-43.985	0.082	-0.041
-468.186	-108.779	0.418	0.089
-467.172	-66.861	-0.224	0.088
-466.157	30.829	0.251	-0.214
-465.143	-164.654	-0.115	0.005
-464.128	745.602	0.046	0.123
-463.113	-81.606	0.193	-0.063
-462.099	82.050	0.115	0.124
-461.084	0.444	-0.104	0.074
-460.070	9.532	-0.331	0.250
-459.055	99.290	0.277	-0.319
-458.040	-90.203	-0.322	-0.094
-457.026	-200.000	-0.018	-0.122
-456.011	413.167	0.071	-0.151
-454.997	554.577	-0.071	-0.171
-453.982	414.256	0.118	-0.250
-452.968	69.690	-0.045	-0.046
-451.953	-24.736	-0.346	-0.205
-450.938	800.000	-0.149	-0.473
-449.924	177.877	0.111	-0.162
-448.909	-111.346	0.088	-0.018
-447.895	-88.598	-0.376	0.112
-446.880	142.405	-0.048	-0.064
-445.865	800.000	0.030	-0.099
-444.851	-200.000	0.004	0.051
-443.836	433.457	0.108	0.234
-442.822	-200.000	-0.006	0.144
-441.807	800.000	0.109	-0.333
-440.792	114.221	0.240	-0.292
-439.778	124.968	-0.276	0.347
-438.763	-25.229	-0.121	-0.071
-437.749	15.040	-0.119	-0.093
-436.734	-200.000	0.040	-0.186
-435.719	-85.679	-0.231	0.072
-434.705	800.000	-0.128	0.353
-433.690	67.103	0.118	-0.120
-432.676	92.923	0.109	-0.123
-431.661	-152.286	0.416	0.030
-430.646	30.857	-0.120	-0.103
-429.632	-200.000	-0.005	-0.345
-428.617	-50.010	0.122	-0.058
-427.603	-79.766	0.079	-0.027
-426.588	346.777	-0.060	0.118
-425.573	64.758	0.128	-0.129
-424.559	129.196	-0.182	-0.232
-423.544	306.491	0.119	0.221
-422.530	-13.104	0.044	0.029
-421.515	177.679	-0.077	-0.111
-420.500	491.715	0.089	-0.202
-419.486	-115.425	0.284	0.053
-418.471	39.907	0.213	-0.190
-417.457	-170.614	0.225	-0.008
-416.442	332.062	0.150	-0.288
-415.428	-200.000	-0.058	-0.328
-414.413	153.818	-0.059	-0.080
-413.398	-36.844	-0.134	0.072
-412.384	-41.851	0.353	0.180
-411.369	-200.000	-0.005	0.197
-410.355	103.648	0.113	-0.132
-409.340	-188.035	0.166	-0.002
-408.325	-200.000	-0.037	0.311
-407.311	-121.710	0.166	0.027
-406.296	246.972	-0.212	0.357
-405.282	177.095	-0.226	0.328
-404.267	800.000	0.088	0.361
-403.252	274.599	0.126	0.222
-402.238	2.134	-0.305	-0.220
-401.223	280.382	0.146	0.260
-400.209	63.042	-0.132	-0.132
-399.194	237.659	0.141	-0.233
-398.179	101.773	-0.080	-0.093
-397.165	-120.713	0.412	-0.069
-396.150	-200.000	0.036	0.257
-395.136	-46.834	0.163	-0.079
-394.121	800.000	-0.073	-0.224
-393.106	-78.209	-0.368	-0.126
-392.092	21.306	0.257	-0.208
-391.077	-10.132	0.222	-0.147
-390.063	404.713	0.113	-0.238
-389.048	-107.642	-0.214	-0.047
-388.033	13.151	-0.152	0.117
-387.019	-200.000	-0.093	-0.412
-386.004	445.654	-0.229	0.502
-384.990	-135.598	-0.304	0.036
-383.975	-43.097	-0.412	-0.208
-382.960	-43.773	-0.105	0.052
-381.946	800.000	-0.080	-0.323
-380.931	248.784	0.137	0.231
-379.917	-46.019	0.195	-0.096
-378.902	-174.339	0.437	0.013
-377.888	-105.653	-0.356	-0.080
-376.873	-101.406	0.039	-0.009
-375.858	-57.851	0.160	-0.069
-374.844	286.170	0.131	0.236
-373.829	-200.000	-0.013	-0.149
-372.815	800.000	-0.095	-0.270
-371.800	-200.000	-0.011	0.210
-370.785	800.000	-0.077	-0.228
-369.771	259.063	0.037	0.063
-368.756	-200.000	0.009	-0.063
-367.742	115.534	0.128	0.156
-366.727	51.350	-0.197	0.186
-365.712	14.326	0.119	0.092
-364.698	-20.960	0.359	0.219
-363.683	800.000	0.028	0.107
-362.669	200.295	0.137	0.210
-361.654	-8.558	0.045	0.030
-360.639	-200.000	0.036	0.265
-359.625	800.000	-0.055	0.211
-358.610	286.794	0.109	0.196
-357.596	-27.212	-0.206	-0.120
-356.581	32.748	0.175	0.150
-355.566	-64.679	0.132	0.053
-354.552	206.974	-0.140	-0.216
-353.537	-200.000	-0.044	0.432
-352.523	154.618	-0.240	-0.328
-351.508	305.811	0.109	0.201
-350.493	54.487	-0.155	-0.148
-349.479	-20.255	-0.171	0.105
-348.464	39.437	-0.072	-0.064
-347.450	-63.882	0.138	0.056
-346.435	78.991	-0.178	-0.190
-345.420	-2.598	0.225	-0.156
-344.406	-62.514	0.297	0.123
-343.391	63.610	0.031	0.031
-342.377	126.850	0.115	0.145
-341.362	170.592	-0.116	0.165
-340.348	-128.631	-0.261	0.037
-339.333	48.365	0.315	0.293
-338.318	331.630	0.034	0.065
-337.304	-176.536	-0.225	-0.006
-336.289	158.291	-0.265	0.365
-335.275	-200.000	0.001	-0.031
-334.260	-5.692	0.134	0.091
-333.245	357.133	-0.057	0.113
-332.231	800.000	0.041	0.139
-331.216	-186.255	-0.146	0.002
-330.202	-116.262	0.390	-0.072
-329.187	-200.000	-0.009	-0.105
-328.172	-200.000	-0.027	-0.142
-327.158	-0.488	0.133	-0.094
-326.143	800.000	0.016	-0.058
-325.129	800.000	0.104	0.319
-324.114	447.555	-0.081	-0.177
-323.099	-200.000	-0.005	0.241
-322.085	1.599	0.135	-0.097
-321.070	-59.484	0.229	0.098
-320.056	162.731	0.062	-0.087
-319.041	143.467	-0.149	-0.197
-318.026	18.713	0.147	-0.117
-317.012	42.836	0.088	0.079
-315.997	-66.570	-0.293	0.115
-314.983	-200.000	0.006	-0.113
-313.968	-70.352	-0.329	-0.124
-312.953	-66.681	0.293	0.115
-311.939	-71.992	-0.303	-0.112
-310.924	-161.908	-0.107	0.005
-309.910	148.265	0.149	0.200
-308.895	-142.662	-0.271	0.026
-307.880	-200.000	-0.071	-0.320
-306.866	-194.816	0.137	0.001
-305.851	-200.000	0.046	0.304
-304.837	374.523	0.180	0.363
-303.822	800.000	0.047	0.198
-302.807	-27.812	0.163	-0.094
-301.793	285.797	-0.048	0.086
-300.778	-119.040	-0.391	-0.068
-299.764	-152.489	0.135	0.010
-298.749	800.000	0.025	0.078
-297.735	-200.000	0.013	0.111
-296.720	-113.014	0.032	-0.006
-295.705	19.184	0.164	-0.131
-294.691	29.828	-0.243	0.205
-293.676	-196.408	0.096	-0.001
-292.662	-38.116	-0.247	0.130
-291.647	129.206	0.217	-0.275
-290.632	-38.400	-0.181	-0.095
-289.618	-59.908	0.164	-0.069
-288.603	-200.000	-0.030	0.179
-287.589	145.119	0.104	-0.137
-286.574	-200.000	0.033	-0.210
-285.559	202.330	-0.115	-0.176
-284.545	800.000	0.023	-0.082
-283.530	-179.438	-0.343	-0.007
-282.516	-58.110	0.053	0.023
-281.501	-63.399	0.312	-0.127
-280.486	-107.239	-0.354	0.077
-279.472	258.369	-0.025	-0.042
-278.457	-200.000	-0.032	-0.296
-277.443	-108.755	0.205	0.044
-276.428	800.000	-0.039	-0.153
-275.413	75.202	0.047	0.049
-274.399	-41.565	0.170	0.086
-273.384	185.331	0.141	0.207
-272.370	-118.233	-0.260	0.046
-271.355	-50.656	0.468	0.219
-270.340	-71.637	-0.111	-0.041
-269.326	-140.058	-0.036	0.004
-268.311	-115.130	0.379	-0.071
-267.297	-144.206	-0.315	-0.029
-266.282	76.816	0.181	0.190
-265.267	-174.183	0.110	-0.003
-264.253	-137.879	0.066	0.007
-263.238	735.350	0.065	0.173
-262.224	174.553	0.162	-0.232
-261.209	-171.719	-0.220	-0.007
-260.195	-61.774	0.130	-0.054
-259.180	-200.000	0.024	0.106
-258.165	128.496	0.212	-0.268
-257.151	-115.052	0.180	0.034
-256.136	51.557	-0.144	0.136
-255.122	52.139	0.208	-0.197
-254.107	-200.000	-0.047	0.308
-253.092	270.218	0.120	-0.210
-252.078	-19.877	0.043	0.026
-251.063	-53.924	-0.135	-0.061
-250.049	89.969	-0.113	-0.125
-249.034	336.191	-0.105	0.201
-248.019	-119.802	-0.124	0.021
-247.005	7.950	0.234	-0.174
-245.990	140.592	-0.092	-0.120
-244.976	-170.450	0.199	-0.007
-243.961	53.161	-0.148	0.141
-242.946	-200.000	0.050	0.247
-241.932	-82.365	0.094	-0.030
-240.917	-55.930	-0.205	0.090
-239.903	-195.867	0.297	0.002
-238.888	59.330	0.053	-0.052
-237.873	800.000	0.149	0.422
-236.859	142.495	-0.028	-0.037
-235.844	555.672	0.110	0.261
-234.830	800.000	0.038	0.137
-233.815	800.000	-0.071	-0.251
-232.800	-119.597	-0.151	-0.026
-231.786	-177.582	0.346	0.008
-230.771	-65.650	0.183	-0.072
-229.757	-5.334	-0.129	0.088
-228.742	82.975	0.055	-0.059
-227.727	-83.591	-0.202	-0.064
-226.713	800.000	0.072	0.224
-225.698	136.453	0.223	-0.288
-224.684	-17.703	0.380	-0.236
-223.669	-18.868	-0.027	-0.017
-222.655	-200.000	0.001	0.043
-221.640	102.140	0.177	-0.205
-220.625	-29.315	0.126	0.072
-219.611	-29.050	0.119	-0.067
-218.596	9.923	-0.106	0.080
-217.582	19.591	-0.321	0.256
-216.567	-1.170	0.166	0.116
-215.552	-68.427	0.209	0.080
-214.538	-146.118	0.179	-0.016
-213.523	-145.192	0.065	0.006
-212.509	-135.399	-0.211	0.025
-211.494	40.608	0.102	-0.090
-210.479	-27.273	-0.058	-0.033
-209.465	246.024	0.101	0.168
-208.450	256.065	0.019	-0.032
-207.436	-11.670	-0.297	-0.193
-206.421	-32.531	-0.450	-0.248
-205.406	241.054	-0.094	0.155
-204.392	800.000	-0.096	-0.319
-203.377	-4.940	-0.253	-0.172
-202.363	60.299	-0.377	0.369
-201.348	55.734	0.143	-0.137
-200.333	800.000	-0.043	0.126
-199.319	178.997	0.185	0.267
-198.304	-137.697	-0.192	-0.021
-197.290	-81.987	0.209	0.068
-196.275	622.002	0.071	0.177
-195.260	-137.040	-0.096	0.011
-194.246	-11.190	0.088	-0.057
-193.231	-29.445	0.293	0.166
-192.217	84.334	-0.015	0.016
-191.202	-143.368	-0.259	-0.024
-190.187	-3.853	-0.473	0.324
-189.173	10.723	0.219	-0.165
-188.158	6.697	-0.117	-0.086
-187.144	-56.227	-0.202	-0.089
-186.129	800.000	-0.056	-0.207
-185.114	11.873	-0.062	0.047
-184.100	129.169	-0.067	-0.085
-183.085	184.950	-0.138	-0.203
-182.071	-155.596	-0.097	-0.006
-181.056	-200.000	0.009	-0.431
-180.042	-200.000	0.019	0.114
-179.027	800.000	0.090	0.267
-178.012	-54.862	0.280	0.125
-176.998	-112.755	-0.534	0.105
-175.983	-80.687	-0.046	0.015
-174.969	187.760	-0.050	0.074
-173.954	51.841	-0.211	0.198
-172.939	-43.992	0.289	0.144
-171.925	16.019	0.080	-0.062
-170.910	-200.000	-0.011	0.414
-169.896	-151.196	-0.254	-0.019
-168.881	-22.347	0.327	0.196
-167.866	142.597	-0.134	-0.175
-166.852	-200.000	-0.027	-0.178
-165.837	123.304	0.274	-0.339
-164.823	800.000	-0.094	0.398
-163.808	-41.339	0.087	0.044
-162.793	800.000	0.080	-0.299
-161.779	86.430	-0.127	0.138
-160.764	-96.713	-0.159	-0.041
-159.750	-152.110	0.088	-0.006
-158.735	-100.462	-0.249	-0.061
-157.720	53.302	-0.179	0.169
-156.706	162.304	0.141	-0.195
-155.691	-200.000	-0.013	-0.312
-154.677	-200.000	0.010	0.105
-153.662	30.235	-0.090	-0.076
-152.647	-200.000	-0.042	-0.384
-151.633	557.935	0.070	0.167
-150.618	-55.109	0.102	-0.045
-149.604	57.254	-0.204	0.197
-148.589	-184.496	0.112	0.002
-147.574	-200.000	-0.027	0.276
-146.560	-16.242	-0.153	-0.096
-145.545	359.219	0.170	0.336
-144.531	442.981	-0.109	0.235
-143.516	-110.339	-0.293	0.060
-142.502	-50.363	-0.199	0.093
-141.487	-45.575	-0.241	-0.117
-140.472	-110.553	-0.180	0.037
-139.458	800.000	-0.070	0.268
-138.443	36.805	-0.217	0.189
-137.429	103.795	0.129	0.149
-136.414	-200.000	-0.018	-0.200
-135.399	-200.000	-0.032	-0.153
-134.385	-48.512	0.503	-0.238
-133.370	-114.225	0.271	0.052
-132.356	-156.561	-0.340	0.021
-131.341	-114.736	-0.306	-0.058
-130.326	-200.000	-0.025	0.233
-129.312	-101.268	0.457	-0.110
-128.297	87.644	0.144	-0.157
-127.283	71.472	0.103	-0.106
-126.268	437.979	0.077	0.165
-125.253	11.766	0.233	0.176
-124.239	749.920	0.036	-0.097
-123.224	236.408	-0.021	-0.034
-122.210	-200.000	-0.012	0.280
-121.195	-143.235	0.302	0.029
