DTS Sentinel unit serial number:	SN413079Multiplexer serial number:	ORYXHardware model number:	OX4-SRSoftware version number:	ORYX F/W v4.00 Oryx Data Collector v3.7.2.0data status	okinstallation	princeton_trtdifferential loss correction	single-endedforward channel	channel 1reverse channel	N/Adate	2019/09/15time	17:14:35forward acquisition time	60.00reverse acquisition time	0.00gamma	496.2192k internal	0.2291k external	0.2291temperature offset calibration	0.9933default loss term (dB/km)	0.3790temperature slope calibration	1.0000multiplexer offset coefficient	1.0000multiplexer slope coefficient	1.0000fibre end	0.00T internal ref (°C)	44.69T ext. ref 1 (°C)	6.00T ext. ref 2 (°C)	40.33length (m)	temperature (°C)	Stokes	anti-Stokes-747.200	-105.286	-0.466	0.109
-746.185	-73.099	-0.251	0.094
-745.171	-200.000	0.001	0.057
-744.156	142.534	-0.103	-0.141
-743.142	-70.218	-0.143	-0.056
-742.127	54.438	-0.106	-0.105
-741.112	26.228	0.087	-0.074
-740.098	64.231	0.160	0.165
-739.083	-140.990	0.176	-0.018
-738.069	316.425	0.040	0.078
-737.054	105.371	-0.066	0.079
-736.039	-200.000	-0.084	0.475
-735.025	-62.054	0.194	0.083
-734.010	-200.000	0.050	-0.351
-732.996	198.359	-0.125	-0.196
-731.981	655.792	0.026	-0.068
-730.966	-200.000	0.002	-0.192
-729.952	-5.597	-0.272	0.191
-728.937	-193.140	0.068	0.001
-727.923	43.309	-0.145	0.136
-726.908	-200.000	0.020	-0.174
-725.894	-128.430	-0.260	-0.038
-724.879	6.808	0.240	-0.183
-723.864	800.000	0.053	-0.168
-722.850	236.061	-0.190	-0.321
-721.835	-200.000	0.010	0.217
-720.821	90.319	-0.167	-0.192
-719.806	164.673	-0.131	-0.189
-718.791	31.441	-0.056	0.050
-717.777	-87.635	-0.079	0.024
-716.762	261.556	0.100	-0.177
-715.748	670.869	0.098	-0.261
-714.733	27.541	-0.127	0.109
-713.718	104.801	0.080	-0.096
-712.704	-200.000	-0.011	0.209
-711.689	-200.000	-0.014	-0.072
-710.675	800.000	-0.045	-0.148
-709.660	-23.744	0.204	-0.125
-708.645	-149.289	-0.391	0.032
-707.631	0.686	-0.112	-0.082
-706.616	-72.512	-0.208	-0.079
-705.602	800.000	-0.100	0.285
-704.587	-10.666	0.039	0.027
-703.572	-200.000	-0.011	0.094
-702.558	78.231	0.058	-0.064
-701.543	-200.000	0.015	-0.082
-700.529	-82.679	-0.225	-0.074
-699.514	-64.195	-0.139	0.058
-698.499	343.171	-0.065	-0.130
-697.485	-103.772	0.135	-0.032
-696.470	-200.000	0.033	0.252
-695.456	18.280	-0.134	0.109
-694.441	152.099	0.120	0.168
-693.426	140.836	0.134	-0.181
-692.412	-30.013	0.093	0.054
-691.397	-104.821	-0.156	-0.037
-690.383	-102.925	0.168	0.041
-689.368	-200.000	-0.026	0.292
-688.354	-36.839	-0.119	-0.065
-687.339	-132.118	-0.143	-0.019
-686.324	-200.000	-0.001	0.138
-685.310	-200.000	-0.033	0.192
-684.295	585.382	-0.126	0.316
-683.281	-52.314	-0.163	0.077
-682.266	800.000	0.035	0.126
-681.251	-58.711	-0.217	0.096
-680.237	-132.613	-0.074	0.010
-679.222	142.369	0.060	0.081
-678.208	58.630	0.293	-0.294
-677.193	800.000	-0.093	-0.365
-676.178	-28.459	0.136	-0.080
-675.164	135.865	0.189	-0.252
-674.149	370.853	-0.263	0.544
-673.135	-61.337	-0.100	-0.043
-672.120	-102.736	-0.171	-0.042
-671.105	102.696	-0.071	0.084
-670.091	139.911	0.212	0.286
-669.076	116.432	0.237	0.297
-668.062	-31.763	0.331	-0.189
-667.047	-200.000	0.049	0.264
-666.032	593.509	-0.126	0.317
-665.018	-153.524	-0.289	-0.020
-664.003	175.415	0.073	-0.108
-662.989	249.285	-0.112	-0.194
-661.974	65.333	-0.049	-0.050
-660.959	800.000	0.027	-0.114
-659.945	-200.000	0.069	-0.352
-658.930	-200.000	0.008	-0.144
-657.916	-66.401	-0.138	-0.056
-656.901	-108.567	0.182	0.040
-655.886	-98.529	0.137	0.036
-654.872	800.000	-0.080	0.245
-653.857	359.134	0.190	-0.388
-652.843	-200.000	-0.021	-0.160
-651.828	151.849	-0.121	0.169
-650.814	-58.794	0.180	0.079
-649.799	-200.000	-0.024	0.386
-648.784	-200.000	0.147	0.658
-647.770	800.000	-0.037	-0.156
-646.755	-93.694	-0.081	-0.023
-645.741	36.357	-0.241	0.217
-644.726	-15.154	0.344	0.224
-643.711	-200.000	-0.039	0.176
-642.697	362.250	-0.056	-0.114
-641.682	800.000	-0.080	-0.238
-640.668	791.178	0.090	0.253
-639.653	-98.425	0.394	0.103
-638.638	-200.000	0.010	0.197
-637.624	800.000	-0.046	-0.187
-636.609	-81.970	0.181	0.060
-635.595	195.613	-0.089	0.137
-634.580	382.105	-0.148	-0.309
-633.565	7.165	0.156	-0.119
-632.551	100.548	-0.033	-0.039
-631.536	-62.047	-0.354	0.151
-630.522	3.478	-0.292	-0.217
-629.507	329.651	-0.088	-0.172
-628.492	315.205	-0.157	-0.301
-627.478	-200.000	-0.036	0.195
-626.463	-200.000	0.036	-0.189
-625.449	131.779	0.033	-0.043
-624.434	573.648	0.070	0.174
-623.419	51.707	-0.087	-0.084
-622.405	-73.564	0.118	0.044
-621.390	16.708	0.300	0.242
-620.376	-200.000	-0.031	-0.219
-619.361	144.617	-0.154	0.209
-618.346	141.684	0.105	-0.142
-617.332	183.231	0.184	-0.278
-616.317	235.249	-0.095	-0.160
-615.303	430.570	-0.032	0.071
-614.288	158.899	-0.264	-0.374
-613.273	-200.000	-0.104	0.000
-612.259	-200.000	-0.007	-0.138
-611.244	-93.906	-0.163	-0.046
-610.230	-200.000	-0.093	-0.498
-609.215	-200.000	-0.035	0.237
-608.201	-170.347	-0.251	0.009
-607.186	102.887	0.090	-0.107
-606.171	-200.000	0.041	-0.618
-605.157	390.627	-0.095	0.201
-604.142	80.672	0.010	0.011
-603.128	449.024	-0.064	-0.144
-602.113	42.429	0.114	0.106
-601.098	110.114	-0.153	-0.187
-600.084	176.525	-0.134	-0.199
-599.069	-127.338	0.167	-0.025
-598.055	313.443	-0.083	-0.160
-597.040	-49.389	0.319	0.155
-596.025	733.032	-0.058	-0.157
-595.011	-200.000	-0.000	-0.141
-593.996	176.538	-0.125	-0.185
-592.982	-153.268	0.470	0.033
-591.967	800.000	-0.100	0.380
-590.952	6.511	0.062	-0.047
-589.938	49.920	-0.248	0.238
-588.923	-140.733	0.044	-0.005
-587.909	-9.235	-0.027	0.018
-586.894	-134.968	0.174	-0.021
-585.879	-200.000	0.027	0.161
-584.865	798.529	0.059	0.165
-583.850	-200.000	-0.008	-0.217
-582.836	800.000	-0.061	-0.206
-581.821	800.000	0.097	-0.299
-580.806	-200.000	0.016	0.235
-579.792	227.329	0.170	-0.281
-578.777	-47.785	0.056	-0.028
-577.763	800.000	0.027	0.118
-576.748	92.852	0.090	0.103
-575.733	-162.850	-0.416	0.021
-574.719	-20.973	0.177	-0.110
-573.704	-98.250	0.126	-0.033
-572.690	484.694	-0.097	0.225
-571.675	-130.216	0.210	-0.029
-570.661	800.000	-0.053	-0.218
-569.646	60.829	0.073	-0.074
-568.631	-2.191	0.030	0.021
-567.617	-200.000	-0.002	-0.312
-566.602	23.938	-0.286	-0.240
-565.588	273.226	-0.068	0.122
-564.573	65.649	-0.389	-0.401
-563.558	-3.626	0.062	-0.044
-562.544	800.000	0.047	-0.198
-561.529	18.156	0.297	0.241
-560.515	-200.000	0.049	-0.265
-559.500	-124.284	-0.225	-0.036
-558.485	-130.837	-0.064	0.009
-557.471	-136.450	0.234	-0.028
-556.456	27.335	-0.315	-0.269
-555.442	107.055	-0.123	-0.149
-554.427	800.000	0.111	-0.345
-553.412	164.375	0.030	0.043
-552.398	-81.990	-0.242	-0.080
-551.383	-200.000	0.056	-0.303
-550.369	-133.303	0.216	0.028
-549.354	-60.425	0.389	0.168
-548.339	-200.000	0.006	-0.041
-547.325	-200.000	-0.029	0.177
-546.310	800.000	-0.018	0.073
-545.296	2.444	-0.221	-0.163
-544.281	-200.000	-0.006	0.102
-543.266	1.283	0.125	-0.091
-542.252	-142.736	0.282	0.028
-541.237	-77.082	-0.098	0.035
-540.223	800.000	0.060	-0.222
-539.208	11.971	-0.163	-0.127
-538.193	-200.000	-0.033	0.153
-537.179	-143.342	-0.275	-0.027
-536.164	118.137	-0.049	0.062
-535.150	-43.669	-0.235	0.120
-534.135	176.027	0.035	-0.051
-533.121	524.736	0.103	-0.246
-532.106	800.000	0.026	-0.087
-531.091	219.474	-0.134	-0.218
-530.077	-121.472	0.239	0.040
-529.062	361.201	-0.030	0.060
-528.048	-200.000	0.058	0.372
-527.033	346.277	0.149	-0.297
-526.018	-5.291	0.125	-0.087
-525.004	-150.836	0.253	0.019
-523.989	-200.000	0.004	0.125
-522.975	-86.391	0.141	0.044
-521.960	3.485	-0.137	-0.101
-520.945	-82.082	0.178	-0.059
-519.931	800.000	-0.053	-0.208
-518.916	-200.000	0.033	0.357
-517.902	-36.495	-0.358	-0.195
-516.887	272.630	0.028	-0.050
-515.872	-135.957	0.092	0.011
-514.858	-42.462	0.088	0.045
-513.843	148.214	-0.240	-0.329
-512.829	-200.000	0.003	-0.086
-511.814	-200.000	0.035	-0.285
-510.799	106.990	0.031	-0.037
-509.785	-33.815	-0.169	-0.094
-508.770	-8.259	0.172	0.118
-507.756	-63.365	0.041	0.017
-506.741	56.517	-0.176	-0.174
-505.726	26.136	-0.266	-0.225
-504.712	11.234	-0.138	-0.107
-503.697	78.995	0.078	0.085
-502.683	-89.359	-0.162	0.048
-501.668	-200.000	0.007	0.211
-500.653	5.026	0.034	0.025
-499.639	-70.522	0.197	-0.076
-498.624	-200.000	-0.059	0.326
-497.610	162.696	-0.114	-0.163
-496.595	-200.000	0.030	0.429
-495.581	-200.000	0.024	0.401
-494.566	-70.650	-0.247	-0.095
-493.551	52.061	0.163	0.158
-492.537	-187.152	0.096	0.001
-491.522	-200.000	0.039	-0.267
-490.508	164.429	0.226	0.323
-489.493	408.931	-0.083	0.177
-488.478	-35.441	0.175	0.096
-487.464	335.857	-0.025	0.049
-486.449	65.424	0.090	0.092
-485.435	-109.095	-0.036	0.008
-484.420	78.363	-0.263	0.284
-483.405	150.638	0.246	-0.339
-482.391	171.337	0.099	-0.144
-481.376	-38.807	-0.296	0.158
-480.362	-200.000	-0.001	-0.120
-479.347	-123.320	0.282	0.046
-478.332	614.747	-0.070	0.178
-477.318	-119.231	-0.117	-0.021
-476.303	-54.146	0.161	-0.074
-475.289	-34.967	-0.246	0.136
-474.274	800.000	-0.048	-0.143
-473.259	-112.216	-0.132	-0.027
-472.245	-95.121	-0.122	0.033
-471.230	-40.607	-0.187	0.098
-470.216	-200.000	-0.017	-0.143
-469.201	103.916	-0.237	-0.282
-468.186	68.852	-0.126	0.131
-467.172	-116.047	-0.286	-0.054
-466.157	50.945	-0.062	-0.060
-465.143	192.141	0.099	-0.151
-464.128	-8.710	0.191	-0.130
-463.113	-200.000	-0.044	-0.240
-462.099	34.488	-0.170	-0.150
-461.084	127.108	0.062	0.079
-460.070	-71.575	0.020	0.008
-459.055	-200.000	0.013	0.158
-458.040	250.357	-0.082	0.142
-457.026	65.189	0.201	-0.206
-456.011	800.000	0.098	0.296
-454.997	182.532	0.112	0.167
-453.982	-200.000	-0.023	-0.231
-452.968	20.607	-0.129	0.106
-451.953	800.000	0.062	-0.195
-450.938	569.079	0.022	-0.054
-449.924	-33.426	-0.297	-0.166
-448.909	-63.364	-0.085	0.036
-447.895	20.618	-0.101	0.083
-446.880	-95.764	0.298	0.081
-445.865	342.809	-0.109	-0.215
-444.851	800.000	0.026	-0.096
-443.836	-21.994	0.204	0.125
-442.822	-200.000	-0.007	-0.270
-441.807	14.066	0.063	0.049
-440.792	-96.941	0.173	-0.046
-439.778	30.644	0.291	0.252
-438.763	192.189	-0.237	-0.361
-437.749	175.359	0.042	0.061
-436.734	-160.231	0.402	-0.022
-435.719	-106.232	-0.280	0.063
-434.705	552.256	0.066	-0.162
-433.690	50.440	-0.163	0.156
-432.676	-200.000	-0.001	0.100
-431.661	39.368	-0.156	0.141
-430.646	-5.630	0.193	-0.134
-429.632	800.000	0.174	-0.622
-428.617	85.047	-0.090	0.100
-427.603	8.811	-0.179	0.137
-426.588	800.000	-0.073	0.220
-425.573	-139.914	0.050	0.005
-424.559	-18.343	-0.353	-0.223
-423.544	81.796	0.119	-0.130
-422.530	653.566	-0.074	0.192
-421.515	-113.243	-0.290	-0.058
-420.500	19.145	-0.313	0.254
-419.486	-200.000	0.030	0.193
-418.471	144.822	-0.138	-0.186
-417.457	-139.743	0.121	0.013
-416.442	-36.006	0.282	-0.154
-415.428	84.290	0.100	0.110
-414.413	-200.000	-0.015	-0.107
-413.398	-25.904	-0.081	0.048
-412.384	479.558	0.134	-0.308
-411.369	-200.000	0.338	-0.001
-410.355	-168.656	-0.328	0.013
-409.340	-155.226	0.300	-0.020
-408.325	-95.791	0.058	0.016
-407.311	97.125	-0.154	0.179
-406.296	24.981	-0.127	0.107
-405.282	800.000	0.056	0.187
-404.267	199.245	0.118	0.183
-403.252	180.268	0.103	-0.153
-402.238	-39.272	-0.229	0.121
-401.223	29.147	-0.127	0.109
-400.209	-115.446	0.112	-0.021
-399.194	-81.782	-0.231	0.077
-398.179	-200.000	-0.014	0.130
-397.165	136.489	-0.140	-0.185
-396.150	51.981	-0.453	0.436
-395.136	-79.633	0.510	-0.174
-394.121	451.447	-0.098	0.219
-393.106	-26.383	0.339	0.201
-392.092	-115.444	-0.312	-0.059
-391.077	800.000	-0.032	-0.137
-390.063	-159.668	-0.176	0.010
-389.048	800.000	0.110	-0.331
-388.033	52.473	-0.202	0.195
-387.019	-89.311	0.202	-0.060
-386.004	-101.068	-0.145	-0.036
-384.990	-30.536	0.152	0.087
-383.975	70.013	0.232	-0.241
-382.960	141.752	-0.030	-0.040
-381.946	55.431	-0.125	-0.123
-380.931	800.000	0.070	-0.290
-379.917	800.000	-0.045	-0.158
-378.902	4.292	0.128	-0.094
-377.888	-155.938	0.228	-0.015
-376.873	-200.000	-0.019	0.216
-375.858	101.478	0.055	0.065
-374.844	158.890	-0.196	-0.274
-373.829	317.604	-0.021	-0.041
-372.815	-114.397	-0.127	0.025
-371.800	11.769	0.029	-0.023
-370.785	-200.000	0.004	-0.079
-369.771	-158.494	-0.251	0.015
-368.756	-133.051	-0.018	0.002
-367.742	106.442	-0.129	0.155
-366.727	-127.756	0.196	0.029
-365.712	28.205	-0.132	-0.112
-364.698	-200.000	-0.038	0.339
-363.683	-200.000	0.024	-0.151
-362.669	-117.234	-0.508	-0.093
-361.654	-30.652	0.152	0.087
-360.639	-135.931	-0.046	-0.005
-359.625	39.755	0.179	0.162
-358.610	158.416	-0.121	-0.169
-357.596	800.000	-0.134	0.380
-356.581	-112.368	-0.192	-0.039
-355.566	30.672	0.174	-0.150
-354.552	-79.807	0.210	-0.071
-353.537	45.159	-0.178	-0.165
-352.523	-200.000	0.019	-0.147
-351.508	-59.173	0.394	0.171
-350.493	287.395	0.059	0.108
-349.479	168.888	-0.135	0.195
-348.464	-74.065	-0.089	-0.032
-347.450	-95.096	-0.220	0.060
-346.435	-142.338	-0.178	0.018
-345.420	-200.000	0.423	0.001
-344.406	160.923	-0.184	-0.259
-343.391	-172.438	0.254	0.008
-342.377	-23.822	0.157	0.095
-341.362	9.743	0.080	0.061
-340.348	-200.000	0.006	0.165
-339.333	711.254	0.048	0.129
-338.318	-94.256	0.285	0.079
-337.304	-37.484	-0.133	-0.071
-336.289	-96.070	-0.280	-0.075
-335.275	15.298	0.266	0.210
-334.260	133.505	0.071	0.092
-333.245	-141.115	0.210	-0.022
-332.231	106.220	-0.121	0.145
-331.216	-102.411	0.027	0.006
-330.202	-200.000	-0.025	0.124
-329.187	-86.322	0.138	0.043
-328.172	800.000	0.125	-0.367
-327.158	-200.000	-0.001	-0.041
-326.143	800.000	0.028	0.081
-325.129	-66.314	0.088	-0.035
-324.114	-200.000	0.018	0.080
-323.099	-39.584	0.184	-0.097
-322.085	-200.000	0.014	-0.273
-321.070	521.023	0.065	-0.153
-320.056	-156.642	0.236	0.015
-319.041	-193.647	0.280	0.002
-318.026	-200.000	0.049	-0.263
-317.012	248.924	-0.090	0.154
-315.997	-107.814	-0.276	-0.061
-314.983	369.680	0.042	0.085
-313.968	474.969	-0.051	0.115
-312.953	579.164	0.073	-0.180
-311.939	800.000	0.077	0.248
-310.924	140.931	0.186	0.247
-309.910	800.000	-0.052	0.178
-308.895	78.561	-0.261	0.280
-307.880	-165.427	-0.153	-0.007
-306.866	75.721	-0.059	-0.062
-305.851	-97.392	0.067	-0.018
-304.837	270.746	0.189	-0.335
-303.822	-200.000	-0.023	0.224
-302.807	215.848	0.123	0.197
-301.793	-200.000	0.053	0.278
-300.778	94.588	0.066	0.076
-299.764	-200.000	0.026	0.120
-298.749	-158.216	-0.058	-0.003
-297.735	-131.956	0.149	-0.020
-296.720	-200.000	0.024	-0.220
-295.705	8.618	-0.283	-0.214
-294.691	-197.725	-0.226	-0.001
-293.676	-200.000	0.010	-0.312
-292.662	-105.159	-0.146	0.034
-291.647	800.000	-0.054	-0.235
-290.632	32.649	-0.212	0.184
-289.618	800.000	-0.106	0.303
-288.603	800.000	0.023	0.086
-287.589	800.000	-0.059	0.207
-286.574	-32.919	0.115	0.064
-285.559	163.167	0.035	-0.049
-284.545	-121.597	0.407	-0.068
-283.530	-42.324	0.335	-0.172
-282.516	-182.945	-0.296	-0.005
-281.501	49.039	0.068	-0.064
-280.486	-61.585	0.123	-0.052
-279.472	74.433	0.153	-0.162
-278.457	179.845	0.033	-0.049
-277.443	608.472	0.136	0.341
-276.428	-200.000	0.036	0.187
-275.413	-200.000	0.014	-0.078
-274.399	371.819	-0.115	0.235
-273.384	59.179	0.032	-0.032
-272.370	218.063	-0.180	-0.288
-271.355	334.244	0.040	0.078
-270.340	389.105	-0.059	0.122
-269.326	113.829	-0.226	0.277
-268.311	-28.177	0.260	-0.151
-267.297	3.439	0.339	0.248
-266.282	800.000	0.130	0.491
-265.267	-17.393	-0.238	0.150
-264.253	93.439	-0.180	-0.205
-263.238	182.580	0.175	-0.259
-262.224	353.002	0.156	-0.312
-261.209	120.825	0.197	-0.246
-260.195	-19.672	-0.185	-0.115
-259.180	74.469	0.462	-0.488
-258.165	-200.000	0.045	-0.411
-257.151	510.239	0.002	-0.006
-256.136	-175.213	-0.111	0.003
-255.122	-51.002	-0.227	0.107
-254.107	93.444	0.255	0.290
-253.092	-77.430	-0.388	-0.135
-252.078	-3.170	0.170	-0.119
-251.063	-121.131	0.163	0.027
-250.049	800.000	0.097	0.319
-249.034	-200.000	0.019	0.333
-248.019	-108.600	0.237	0.051
-247.005	-121.457	0.221	0.037
-245.990	-132.376	0.236	0.031
-244.976	430.332	0.154	0.334
-243.961	-80.747	-0.162	-0.054
-242.946	-200.000	-0.057	0.297
-241.932	217.598	-0.097	0.155
-240.917	583.237	-0.122	0.300
-239.903	-61.930	-0.139	-0.059
-238.888	-30.305	-0.310	-0.176
-237.873	-130.270	-0.139	0.019
-236.859	452.133	-0.070	0.155
-235.844	-200.000	0.058	0.366
-234.830	475.551	-0.056	-0.126
-233.815	-18.199	-0.124	0.078
-232.800	-200.000	-0.000	0.110
-231.786	-28.966	0.023	0.013
-230.771	58.607	0.316	0.311
-229.757	-74.287	0.487	-0.177
-228.742	15.063	-0.204	-0.160
-227.727	401.671	-0.073	0.153
-226.713	102.927	0.058	-0.068
-225.698	-42.825	-0.026	-0.013
-224.684	-33.456	0.301	-0.167
-223.669	-100.665	-0.237	0.059
-222.655	800.000	-0.092	0.277
-221.640	324.968	-0.112	0.215
-220.625	-9.738	-0.246	0.165
-219.611	386.458	-0.096	0.199
-218.596	-200.000	-0.040	0.187
-217.582	-64.872	0.131	0.053
-216.567	69.312	0.105	0.108
-215.552	-28.638	0.194	-0.112
-214.538	63.449	-0.088	0.089
-213.523	-200.000	0.042	0.228
-212.509	800.000	-0.037	-0.149
-211.494	13.095	-0.303	0.236
-210.479	198.151	0.102	0.157
-209.465	-35.123	0.150	-0.082
-208.450	-76.033	-0.068	0.024
-207.436	-200.000	0.016	0.262
-206.421	-140.775	0.334	0.035
-205.406	800.000	-0.125	0.481
-204.392	-200.000	0.031	0.294
-203.377	-200.000	-0.031	0.188
-202.363	68.205	-0.085	0.087
-201.348	19.696	0.212	-0.171
-200.333	-140.519	-0.197	0.021
-199.319	-7.634	0.046	0.031
-198.304	121.881	0.074	0.093
-197.290	800.000	0.064	-0.259
-196.275	-115.148	-0.191	0.036
-195.260	-147.500	0.050	0.004
-194.246	-124.743	-0.278	-0.043
-193.231	800.000	0.050	-0.215
-192.217	-200.000	0.003	0.054
-191.202	-15.572	0.223	-0.142
-190.187	-84.139	0.191	-0.061
-189.173	-200.000	-0.004	0.261
-188.158	-32.602	0.057	-0.032
-187.144	-75.594	-0.285	0.101
-186.129	-108.398	0.310	-0.067
-185.114	437.473	0.011	-0.025
-184.100	-59.454	-0.338	0.146
-183.085	-200.000	0.035	-0.256
-182.071	93.267	-0.210	0.239
-181.056	514.349	0.103	0.240
-180.042	-25.545	0.140	-0.083
-179.027	-200.000	-0.073	0.399
-178.012	800.000	-0.110	0.347
-176.998	49.100	-0.133	-0.125
-175.983	-93.195	0.197	-0.055
-174.969	-200.000	-0.036	0.180
-173.954	443.561	0.070	-0.154
-172.939	14.470	-0.171	-0.134
-171.925	-200.000	0.029	0.169
-170.910	-200.000	-0.013	-0.094
-169.896	210.309	-0.068	-0.107
-168.881	-200.000	-0.044	-0.205
-167.866	5.875	-0.194	-0.144
-166.852	-91.159	0.047	-0.014
-165.837	-39.107	-0.180	0.095
-164.823	-11.733	0.038	-0.025
-163.808	-11.388	-0.219	-0.144
-162.793	733.562	-0.175	-0.469
-161.779	-19.733	-0.050	-0.031
-160.764	-200.000	0.059	-0.436
-159.750	345.040	0.140	0.274
-158.735	800.000	-0.021	0.092
-157.720	138.084	0.237	0.311
-156.706	182.346	0.186	-0.274
-155.691	-56.092	0.163	-0.073
-154.677	129.339	0.230	0.294
-153.662	-200.000	-0.010	-0.106
-152.647	-99.272	-0.212	-0.054
-151.633	65.878	-0.167	-0.170
-150.618	639.719	0.113	-0.287
-149.604	16.335	-0.194	0.153
-148.589	-17.137	0.028	0.018
-147.574	-91.873	-0.264	0.075
-146.560	269.641	0.118	-0.207
-145.545	234.886	-0.081	-0.133
-144.531	35.024	0.298	0.261
-143.516	48.849	0.100	0.094
-142.502	-77.363	0.141	0.049
-141.487	109.298	0.165	0.197
-140.472	24.886	0.160	0.133
-139.458	-71.062	-0.126	0.048
-138.443	72.742	-0.144	-0.151
-137.429	466.205	0.167	-0.373
-136.414	-92.879	0.201	0.056
-135.399	-58.442	0.132	0.057
-134.385	79.363	-0.171	0.183
-133.370	-200.000	0.048	-0.233
-132.356	-200.000	-0.002	-0.180
-131.341	-200.000	-0.016	0.230
-130.326	-18.054	-0.235	0.147
-129.312	-200.000	-0.107	-0.474
-128.297	-200.000	0.081	0.385
-127.283	-6.143	-0.184	0.126
-126.268	-61.688	-0.032	0.013
-125.253	-52.245	0.053	-0.025
-124.239	-54.256	0.221	0.100
-123.224	35.001	-0.194	-0.170
-122.210	-192.751	-0.474	0.004
-121.195	-200.000	0.043	0.372
