DTS Sentinel unit serial number:	SN413079Multiplexer serial number:	ORYXHardware model number:	OX4-SRSoftware version number:	ORYX F/W v4.00 Oryx Data Collector v3.7.2.0data status	okinstallation	princeton_trtdifferential loss correction	single-endedforward channel	channel 1reverse channel	N/Adate	2019/09/16time	22:42:35forward acquisition time	60.00reverse acquisition time	0.00gamma	496.2192k internal	0.2325k external	0.2325temperature offset calibration	0.9954default loss term (dB/km)	0.3790temperature slope calibration	1.0000multiplexer offset coefficient	1.0000multiplexer slope coefficient	1.0000fibre end	0.00T internal ref (°C)	30.62T ext. ref 1 (°C)	0.08T ext. ref 2 (°C)	24.20length (m)	temperature (°C)	Stokes	anti-Stokes-747.200	364.792	0.175	0.356
-746.185	103.811	0.263	0.312
-745.171	-200.000	-0.043	-0.294
-744.156	161.909	-0.208	0.293
-743.142	31.687	0.183	0.159
-742.127	74.269	-0.186	-0.198
-741.112	-27.244	0.263	-0.155
-740.098	83.987	-0.204	0.225
-739.083	200.924	0.154	-0.238
-738.069	-200.000	-0.000	0.539
-737.054	-35.533	-0.213	-0.117
-736.039	800.000	0.128	-0.402
-735.025	313.151	0.108	0.205
-734.010	246.553	0.282	0.480
-732.996	687.366	-0.050	-0.133
-731.981	199.516	0.233	0.360
-730.966	-198.833	-0.125	-0.001
-729.952	305.282	0.016	0.030
-728.937	482.029	-0.076	-0.173
-727.923	18.417	-0.347	-0.280
-726.908	762.539	0.041	-0.113
-725.894	-200.000	0.046	0.206
-724.879	303.792	-0.066	-0.123
-723.864	-200.000	0.057	0.417
-722.850	-50.988	0.201	-0.095
-721.835	-200.000	-0.041	0.194
-720.821	83.615	0.073	0.080
-719.806	-143.628	-0.076	0.007
-718.791	-200.000	0.012	0.162
-717.777	275.869	0.218	-0.390
-716.762	301.358	-0.097	-0.180
-715.748	158.410	0.115	0.161
-714.733	240.860	-0.118	-0.198
-713.718	800.000	0.080	0.296
-712.704	516.406	-0.072	0.171
-711.689	217.539	-0.009	-0.014
-710.675	41.469	0.093	0.085
-709.660	-200.000	0.033	0.286
-708.645	-117.385	-0.068	-0.012
-707.631	193.435	0.157	0.240
-706.616	-200.000	-0.024	-0.289
-705.602	-79.938	-0.293	-0.099
-704.587	-73.294	-0.220	0.081
-703.572	13.491	0.136	0.106
-702.558	141.690	-0.179	-0.239
-701.543	-200.000	0.016	-0.159
-700.529	-55.923	-0.089	0.040
-699.514	-100.130	0.152	0.038
-698.499	85.566	-0.058	0.065
-697.485	-63.302	-0.189	0.078
-696.470	384.824	-0.080	-0.166
-695.456	-143.789	-0.214	0.020
-694.441	722.181	-0.040	-0.108
-693.426	424.873	0.086	-0.186
-692.412	67.135	-0.203	-0.209
-691.397	-122.302	-0.065	-0.011
-690.383	68.481	-0.344	0.355
-689.368	320.714	0.127	0.243
-688.354	-200.000	-0.048	-0.229
-687.339	-200.000	-0.010	-0.505
-686.324	207.626	-0.028	0.043
-685.310	281.807	0.121	-0.217
-684.295	-101.231	0.280	-0.069
-683.281	-124.076	-0.092	-0.014
-682.266	177.906	-0.138	-0.203
-681.251	-5.852	-0.316	-0.218
-680.237	150.732	-0.054	0.073
-679.222	-53.924	-0.155	-0.071
-678.208	507.685	0.052	0.122
-677.193	168.903	-0.091	0.131
-676.178	39.302	-0.064	0.058
-675.164	220.320	0.114	0.183
-674.149	-35.997	-0.074	-0.040
-673.135	347.866	0.064	-0.126
-672.120	-200.000	0.043	0.210
-671.105	138.076	0.137	0.181
-670.091	9.923	-0.147	-0.112
-669.076	232.052	-0.155	-0.256
-668.062	-18.433	-0.148	0.093
-667.047	-200.000	-0.014	-0.347
-666.032	103.307	0.060	-0.071
-665.018	535.220	-0.082	0.195
-664.003	-189.299	0.209	-0.002
-662.989	-55.073	-0.134	-0.061
-661.974	-79.976	-0.234	-0.079
-660.959	152.541	0.156	-0.214
-659.945	800.000	-0.125	-0.450
-658.930	-65.304	0.186	-0.075
-657.916	222.673	0.090	0.145
-656.901	130.158	-0.107	-0.138
-655.886	-200.000	-0.005	-0.085
-654.872	65.731	0.118	0.120
-653.857	486.587	0.105	-0.241
-652.843	800.000	0.090	-0.277
-651.828	-9.896	0.372	0.249
-650.814	-68.759	0.131	0.051
-649.799	-200.000	-0.007	0.172
-648.784	678.230	-0.075	0.197
-647.770	47.930	0.320	0.301
-646.755	-5.332	0.075	0.052
-645.741	147.123	-0.077	-0.104
-644.726	51.884	-0.336	-0.322
-643.711	-59.117	0.627	-0.272
-642.697	609.228	0.120	0.302
-641.682	260.919	0.098	0.170
-640.668	-200.000	0.005	0.243
-639.653	187.145	0.231	-0.346
-638.638	11.547	0.152	0.117
-637.624	800.000	-0.029	0.108
-636.609	-96.018	0.210	-0.056
-635.595	-27.183	0.370	0.216
-634.580	-200.000	0.011	0.364
-633.565	149.194	0.229	-0.311
-632.551	-200.000	0.003	0.068
-631.536	213.126	0.065	0.103
-630.522	-200.000	0.019	-0.246
-629.507	-107.154	-0.258	-0.057
-628.492	18.838	0.081	-0.065
-627.478	-200.000	-0.027	-0.267
-626.463	-90.332	-0.254	-0.074
-625.449	-85.992	-0.274	-0.085
-624.434	160.312	0.071	0.100
-623.419	-42.024	0.177	-0.091
-622.405	-147.540	0.285	0.024
-621.390	800.000	-0.154	-0.434
-620.376	-4.284	-0.214	0.149
-619.361	-200.000	-0.009	0.162
-618.346	-200.000	0.078	0.465
-617.332	800.000	0.050	0.175
-616.317	800.000	0.011	-0.038
-615.303	-200.000	-0.039	-0.458
-614.288	219.412	-0.137	-0.219
-613.273	624.738	-0.039	-0.100
-612.259	-33.894	-0.144	-0.080
-611.244	159.277	0.121	0.169
-610.230	16.346	-0.183	-0.145
-609.215	69.739	-0.195	-0.201
-608.201	202.884	0.172	-0.267
-607.186	-37.283	-0.187	-0.100
-606.171	-68.160	-0.177	0.069
-605.157	-200.000	0.012	0.277
-604.142	-51.107	-0.167	-0.079
-603.128	30.522	-0.074	0.064
-602.113	330.075	-0.057	-0.110
-601.098	-200.000	0.008	0.190
-600.084	29.549	-0.110	0.094
-599.069	-200.000	-0.010	0.222
-598.055	-44.895	0.272	-0.136
-597.040	166.627	-0.321	-0.456
-596.025	69.155	-0.156	-0.161
-595.011	688.080	0.084	-0.220
-593.996	19.433	-0.201	0.162
-592.982	32.414	-0.190	-0.164
-591.967	268.667	0.102	-0.180
-590.952	-23.334	-0.164	-0.099
-589.938	-200.000	-0.057	0.459
-588.923	-57.441	0.427	0.188
-587.909	378.247	0.128	0.263
-586.894	38.108	-0.189	0.168
-585.879	-124.392	0.136	-0.021
-584.865	557.503	0.149	-0.361
-583.850	-39.090	-0.224	-0.118
-582.836	-200.000	-0.025	0.114
-581.821	48.159	-0.127	0.119
-580.806	63.031	-0.184	0.185
-579.792	-183.454	-0.097	0.002
-578.777	-200.000	0.015	-0.079
-577.763	165.298	-0.194	-0.275
-576.748	800.000	0.113	-0.368
-575.733	-102.478	-0.282	-0.068
-574.719	-28.284	0.236	0.137
-573.704	629.247	-0.110	-0.278
-572.690	-21.811	-0.203	-0.124
-571.675	10.856	0.326	-0.250
-570.661	-35.519	0.390	-0.212
-569.646	-168.615	-0.060	0.002
-568.631	-200.000	-0.017	-0.137
-567.617	246.080	0.117	-0.197
-566.602	-141.077	0.097	0.010
-565.588	116.298	0.197	-0.242
-564.573	202.960	0.047	-0.073
-563.558	-200.000	0.022	0.104
-562.544	-40.402	0.237	0.124
-561.529	157.401	0.040	0.056
-560.515	-152.739	-0.051	0.004
-559.500	-53.453	0.169	-0.078
-558.485	-200.000	-0.025	0.195
-557.471	-18.444	-0.142	0.089
-556.456	-120.583	0.194	0.033
-555.442	35.133	0.250	-0.219
-554.427	-95.522	0.373	0.100
-553.412	-142.922	-0.247	-0.024
-552.398	-78.254	-0.179	0.062
-551.383	-200.000	0.005	0.182
-550.369	-200.000	0.012	-0.076
-549.354	-128.748	-0.216	0.030
-548.339	31.760	-0.340	-0.293
-547.325	-87.613	-0.214	-0.065
-546.310	800.000	0.068	0.264
-545.296	-77.518	0.134	0.047
-544.281	-144.534	0.215	0.020
-543.266	-200.000	0.039	-0.212
-542.252	56.807	-0.087	-0.085
-541.237	800.000	0.059	-0.230
-540.223	451.694	-0.116	-0.255
-539.208	-152.888	-0.244	0.017
-538.193	360.895	-0.113	-0.226
-537.179	190.787	0.088	-0.133
-536.164	66.712	0.154	-0.157
-535.150	-112.146	-0.140	0.028
-534.135	-200.000	0.013	0.102
-533.121	-155.863	-0.416	-0.027
-532.106	-78.884	0.061	0.021
-531.091	76.600	-0.211	0.224
-530.077	-200.000	0.001	-0.228
-529.062	344.289	-0.066	0.130
-528.048	-65.729	0.392	-0.157
-527.033	49.918	-0.247	-0.233
-526.018	-3.444	-0.082	0.057
-525.004	-59.250	0.401	-0.173
-523.989	584.077	-0.030	0.073
-522.975	-200.000	-0.005	0.114
-521.960	-129.898	-0.158	0.022
-520.945	243.536	0.071	-0.119
-519.931	29.475	-0.221	-0.188
-518.916	-200.000	0.118	0.000
-517.902	-174.321	0.315	0.009
-516.887	800.000	-0.028	0.104
-515.872	56.919	-0.151	0.147
-514.858	-158.840	-0.402	-0.023
-513.843	-103.283	0.204	-0.048
-512.829	660.144	0.087	-0.225
-511.814	60.805	-0.029	-0.029
-510.799	-200.000	0.004	0.148
-509.785	-19.050	0.221	-0.138
-508.770	-200.000	0.100	-0.497
-507.756	-62.341	0.046	-0.019
-506.741	127.283	0.048	-0.061
-505.726	6.530	0.161	0.119
-504.712	-57.925	0.288	0.126
-503.697	473.050	-0.066	-0.150
-502.683	-3.120	-0.292	0.203
-501.668	800.000	-0.120	0.423
-500.653	-200.000	0.055	0.391
-499.639	800.000	-0.071	-0.271
-498.624	800.000	-0.066	0.273
-497.610	31.391	-0.220	-0.189
-496.595	396.669	-0.074	-0.154
-495.581	39.632	0.123	-0.110
-494.566	-168.970	0.368	-0.014
-493.551	186.638	0.124	0.185
-492.537	-78.768	0.173	-0.059
-491.522	-200.000	-0.030	0.182
-490.508	-200.000	-0.013	-0.158
-489.493	8.783	-0.104	-0.079
-488.478	-29.884	0.090	0.051
-487.464	-73.020	0.044	-0.016
-486.449	27.633	0.172	0.145
-485.435	-100.722	0.131	0.032
-484.420	-38.194	-0.288	-0.152
-483.405	365.019	-0.066	-0.134
-482.391	106.500	0.198	0.235
-481.376	-200.000	0.040	0.185
-480.362	270.830	-0.088	0.155
-479.347	-58.260	-0.279	-0.121
-478.332	348.444	-0.249	-0.491
-477.318	-189.676	0.224	0.003
-476.303	-4.376	-0.377	-0.260
-475.289	88.687	0.142	-0.157
-474.274	182.256	0.143	-0.211
-473.259	-117.917	-0.108	-0.019
-472.245	-200.000	-0.006	0.068
-471.230	-14.706	0.310	0.199
-470.216	251.872	0.090	-0.153
-469.201	-170.041	-0.268	0.010
-468.186	-189.756	-0.096	0.001
-467.172	11.083	-0.020	0.015
-466.157	-200.000	-0.060	0.384
-465.143	230.426	-0.123	-0.200
-464.128	800.000	0.035	-0.098
-463.113	-65.439	-0.322	0.129
-462.099	91.749	0.045	-0.051
-461.084	292.664	0.147	-0.268
-460.070	-95.213	0.410	-0.110
-459.055	75.560	-0.128	-0.135
-458.040	254.531	0.222	-0.378
-457.026	535.844	-0.117	-0.276
-456.011	715.192	-0.073	-0.193
-454.997	-167.051	-0.169	0.007
-453.982	52.324	0.172	0.164
-452.968	1.968	-0.292	0.210
-451.953	-200.000	-0.022	-0.180
-450.938	-93.103	-0.095	-0.027
-449.924	-200.000	0.008	-0.060
-448.909	157.144	-0.120	0.165
-447.895	328.565	-0.040	0.077
-446.880	-31.002	-0.191	-0.107
-445.865	71.766	-0.021	-0.021
-444.851	-59.609	0.159	0.068
-443.836	-126.936	0.209	0.031
-442.822	-148.310	0.112	-0.009
-441.807	-46.284	-0.228	0.112
-440.792	-99.132	0.232	0.059
-439.778	309.563	0.054	0.101
-438.763	-13.396	0.350	0.226
-437.749	-157.563	-0.140	0.008
-436.734	87.417	0.100	0.111
-435.719	-200.000	0.022	0.143
-434.705	695.264	-0.101	0.264
-433.690	-200.000	-0.028	-0.234
-432.676	-200.000	0.011	0.091
-431.661	558.644	0.116	0.280
-430.646	-37.157	-0.327	-0.174
-429.632	-200.000	0.043	0.338
-428.617	-97.006	0.093	0.024
-427.603	81.658	-0.236	0.255
-426.588	162.238	-0.145	0.203
-425.573	143.073	0.118	0.156
-424.559	203.824	-0.188	0.291
-423.544	733.344	0.096	-0.256
-422.530	34.051	-0.180	0.156
-421.515	495.064	-0.033	0.075
-420.500	800.000	0.126	0.522
-419.486	-200.000	0.016	0.244
-418.471	-140.455	0.093	0.010
-417.457	519.022	-0.183	0.427
-416.442	-53.960	-0.266	-0.121
-415.428	48.328	0.254	-0.237
-414.413	-200.000	0.024	-0.131
-413.398	800.000	0.052	-0.193
-412.384	-200.000	0.002	-0.082
-411.369	-172.363	-0.259	0.008
-410.355	-200.000	0.044	0.559
-409.340	543.314	0.101	0.240
-408.325	-200.000	0.023	0.160
-407.311	700.597	0.063	0.164
-406.296	21.654	0.034	0.027
-405.282	53.908	0.286	0.274
-404.267	-126.383	-0.335	-0.050
-403.252	87.194	0.090	0.099
-402.238	800.000	0.035	0.098
-401.223	220.091	0.144	-0.230
-400.209	-10.929	-0.298	-0.196
-399.194	-12.377	0.255	-0.166
-398.179	-67.943	-0.211	0.082
-397.165	274.583	0.233	0.411
-396.150	-65.704	0.324	-0.129
-395.136	800.000	0.129	-0.381
-394.121	800.000	0.033	-0.113
-393.106	-117.350	-0.101	-0.018
-392.092	-58.327	0.154	0.067
-391.077	82.400	-0.272	0.294
-390.063	-153.116	0.322	-0.023
-389.048	-6.616	0.205	0.139
-388.033	-107.914	0.199	-0.043
-387.019	-171.109	-0.333	-0.011
-386.004	36.088	0.018	-0.016
-384.990	-196.079	0.205	-0.001
-383.975	-7.823	0.135	-0.090
-382.960	14.462	0.070	-0.055
-381.946	441.671	-0.054	-0.118
-380.931	-102.895	-0.166	-0.039
-379.917	-19.636	-0.432	0.266
-378.902	41.612	-0.083	0.074
-377.888	671.940	0.032	0.082
-376.873	-132.983	-0.071	-0.009
-375.858	-6.697	0.261	0.177
-374.844	-42.242	0.249	0.127
-373.829	-200.000	0.009	0.164
-372.815	-161.772	0.453	-0.023
-371.800	-35.522	0.205	0.110
-370.785	-20.151	-0.337	-0.207
-369.771	8.605	-0.097	-0.073
-368.756	-66.432	0.240	0.095
-367.742	800.000	0.071	-0.234
-366.727	134.962	0.234	-0.302
-365.712	-108.322	0.152	-0.033
-364.698	148.231	-0.147	0.197
-363.683	-104.035	0.095	-0.022
-362.669	464.968	0.024	-0.053
-361.654	-200.000	-0.013	0.347
-360.639	-101.481	-0.202	-0.049
-359.625	196.407	-0.023	-0.035
-358.610	-200.000	0.017	0.179
-357.596	314.899	-0.078	0.145
-356.581	-37.275	-0.201	-0.107
-355.566	37.087	0.149	-0.131
-354.552	699.910	0.062	-0.162
-353.537	-200.000	-0.007	0.236
-352.523	-123.153	-0.334	-0.053
-351.508	-78.840	0.114	0.039
-350.493	66.885	0.100	0.101
-349.479	459.564	0.144	0.320
-348.464	800.000	0.068	0.262
-347.450	321.779	-0.083	-0.156
-346.435	-14.338	-0.058	-0.037
-345.420	186.707	-0.090	-0.133
-344.406	520.642	-0.101	-0.236
-343.391	800.000	-0.248	-0.746
-342.377	800.000	0.039	0.116
-341.362	-111.194	-0.093	0.019
-340.348	-200.000	0.010	-0.130
-339.333	6.720	0.146	-0.108
-338.318	-200.000	-0.005	0.209
-337.304	-146.859	-0.211	-0.018
-336.289	574.117	-0.081	0.197
-335.275	-8.973	-0.261	-0.173
-334.260	55.177	0.108	0.103
-333.245	-137.295	0.064	-0.007
-332.231	689.633	-0.034	-0.087
-331.216	-17.722	-0.175	0.109
-330.202	-84.686	0.341	-0.106
-329.187	-200.000	-0.020	-0.115
-328.172	-82.371	-0.139	-0.045
-327.158	-200.000	-0.004	0.046
-326.143	-172.002	-0.266	-0.009
-325.129	386.082	-0.091	-0.186
-324.114	-200.000	0.061	-0.413
-323.099	30.253	0.175	0.149
-322.085	800.000	-0.035	-0.114
-321.070	-47.524	0.097	-0.047
-320.056	-60.031	-0.271	-0.115
-319.041	-166.149	0.154	-0.006
-318.026	766.727	-0.052	0.140
-317.012	800.000	-0.129	-0.358
-315.997	-121.954	0.188	-0.031
-314.983	-45.924	0.037	-0.018
-313.968	-51.768	0.400	-0.185
-312.953	120.830	-0.298	0.367
-311.939	800.000	-0.039	0.165
-310.924	273.560	0.066	0.116
-309.910	142.992	0.205	0.270
-308.895	-70.029	-0.098	-0.037
-307.880	-200.000	0.006	-0.324
-306.866	126.023	-0.067	-0.084
-305.851	-51.057	0.155	-0.072
-304.837	177.450	0.076	0.109
-303.822	-200.000	-0.020	-0.183
-302.807	231.925	-0.084	0.137
-301.793	773.580	-0.050	0.136
-300.778	-144.410	-0.107	-0.010
-299.764	-146.708	0.263	0.023
-298.749	249.610	-0.063	0.106
-297.735	-200.000	0.035	-0.157
-296.720	-82.342	0.163	0.052
-295.705	232.215	0.125	0.203
-294.691	-200.000	-0.065	0.337
-293.676	-28.363	-0.193	0.110
-292.662	-122.729	0.082	0.013
-291.647	53.003	0.254	-0.241
-290.632	-2.028	-0.082	-0.057
-289.618	28.252	0.281	-0.235
-288.603	17.856	-0.125	0.098
-287.589	-59.094	0.336	0.144
-286.574	631.693	0.058	0.146
-285.559	22.807	-0.204	0.166
-284.545	-155.711	0.219	-0.014
-283.530	-35.229	-0.192	0.104
-282.516	82.828	0.192	-0.207
-281.501	44.681	-0.169	0.154
-280.486	-45.082	0.292	0.144
-279.472	-77.917	0.138	0.047
-278.457	-200.000	0.060	-0.319
-277.443	-173.897	0.048	0.001
-276.428	-142.412	-0.147	0.014
-275.413	-200.000	0.067	-0.386
-274.399	-11.818	0.212	0.138
-273.384	-133.280	0.254	-0.032
-272.370	342.950	0.095	-0.184
-271.355	-123.059	-0.262	0.042
-270.340	-200.000	-0.010	0.061
-269.326	619.889	0.033	0.083
-268.311	190.329	-0.063	0.093
-267.297	-126.952	-0.408	0.059
-266.282	9.918	0.111	0.084
-265.267	105.753	0.116	-0.136
-264.253	8.548	0.061	0.045
-263.238	19.704	-0.363	-0.290
-262.224	130.235	-0.073	0.093
-261.209	-93.602	0.379	0.104
-260.195	-129.808	-0.214	0.029
-259.180	18.172	0.137	-0.108
-258.165	-129.129	-0.362	0.050
-257.151	29.694	-0.045	-0.038
-256.136	-113.210	0.328	-0.064
-255.122	120.983	0.098	-0.121
-254.107	775.527	-0.053	-0.143
-253.092	276.965	0.073	0.129
-252.078	20.856	-0.252	0.202
-251.063	-200.000	-0.050	0.280
-250.049	87.838	0.090	-0.099
-249.034	37.391	-0.298	0.261
-248.019	-200.000	-0.003	-0.173
-247.005	-121.284	-0.133	-0.022
-245.990	-53.317	-0.354	0.160
-244.976	-80.874	0.170	0.056
-243.961	-86.511	-0.179	0.054
-242.946	307.486	-0.126	-0.233
-241.932	223.897	0.113	-0.181
-240.917	-146.153	0.076	0.007
-239.903	-21.479	0.235	0.142
-238.888	800.000	-0.062	-0.179
-237.873	-69.922	0.306	0.115
-236.859	168.598	0.034	-0.048
-235.844	-49.066	0.395	0.187
-234.830	-94.915	0.230	0.061
-233.815	-107.237	-0.445	-0.097
-232.800	800.000	-0.058	-0.219
-231.786	659.319	-0.105	0.266
-230.771	489.364	-0.095	-0.215
-229.757	-164.564	-0.100	0.004
-228.742	-26.274	-0.019	-0.011
-227.727	-200.000	0.019	0.290
-226.713	-36.042	0.309	0.165
-225.698	-142.544	0.091	0.009
-224.684	83.071	-0.088	0.094
-223.669	347.840	0.089	0.173
-222.655	-200.000	-0.018	-0.102
-221.640	-27.747	-0.260	0.149
-220.625	-59.532	0.209	0.089
-219.611	-124.943	0.193	0.029
-218.596	800.000	-0.044	0.145
-217.582	-18.555	-0.351	-0.216
-216.567	-200.000	-0.031	-0.137
-215.552	49.465	-0.130	0.121
-214.538	-10.918	0.138	0.090
-213.523	-109.043	-0.403	0.085
-212.509	-163.460	-0.321	-0.015
-211.494	-200.000	-0.048	-0.215
-210.479	-129.113	-0.023	-0.003
-209.465	-98.161	-0.146	0.037
-208.450	800.000	-0.135	0.391
-207.436	314.604	-0.056	0.104
-206.421	800.000	0.026	0.094
-205.406	-200.000	-0.103	-0.523
-204.392	800.000	-0.126	0.351
-203.377	328.329	-0.107	0.203
-202.363	186.845	-0.060	0.088
-201.348	-200.000	0.021	-0.209
-200.333	-200.000	-0.015	-0.173
-199.319	-117.660	0.268	0.048
-198.304	-102.113	-0.372	0.088
-197.290	800.000	-0.042	0.117
-196.275	800.000	0.099	-0.272
-195.260	-135.250	0.082	-0.010
-194.246	-136.603	0.392	-0.045
-193.231	-200.000	-0.047	-0.453
-192.217	-41.064	0.264	-0.135
-191.202	220.482	-0.225	-0.357
-190.187	165.418	0.174	-0.243
-189.173	-200.000	-0.016	-0.072
-188.158	59.454	-0.056	0.055
-187.144	-147.445	-0.350	-0.029
-186.129	90.612	-0.039	0.043
-185.114	705.582	-0.015	0.040
-184.100	110.345	-0.219	0.259
-183.085	-200.000	0.004	0.065
-182.071	-5.744	-0.089	0.060
-181.056	146.979	0.155	-0.206
-180.042	-92.124	-0.195	0.054
-179.027	-166.207	-0.143	0.006
-178.012	74.511	-0.039	0.040
-176.998	103.862	0.200	0.232
-175.983	489.497	0.135	-0.304
-174.969	149.256	-0.163	-0.218
-173.954	-200.000	-0.018	0.298
-172.939	800.000	-0.159	0.551
-171.925	-121.957	0.176	-0.029
-170.910	546.397	0.063	0.149
-169.896	-133.055	-0.376	0.047
-168.881	-128.746	0.277	-0.039
-167.866	115.155	0.138	-0.166
-166.852	-67.905	0.231	-0.089
-165.837	-49.936	-0.222	0.104
-164.823	-105.132	0.406	0.091
-163.808	328.904	0.043	0.082
-162.793	800.000	-0.084	0.330
-161.779	496.662	-0.064	0.146
-160.764	190.977	0.115	-0.171
-159.750	238.367	0.133	0.218
-158.735	704.096	-0.089	0.232
-157.720	781.451	-0.045	0.123
-156.706	-200.000	0.012	-0.099
-155.691	181.260	-0.083	-0.121
-154.677	438.326	0.022	-0.047
-153.662	58.619	-0.051	-0.049
-152.647	-17.330	-0.140	-0.087
-151.633	-17.829	-0.159	-0.098
-150.618	-200.000	0.022	0.294
-149.604	327.259	0.160	-0.302
-148.589	-110.107	-0.191	-0.039
-147.574	800.000	-0.047	-0.148
-146.560	17.706	0.119	0.093
-145.545	800.000	0.060	0.214
-144.531	34.743	-0.327	0.281
-143.516	-200.000	-0.046	-0.237
-142.502	14.164	-0.252	0.194
-141.487	-106.827	0.300	-0.066
-140.472	226.328	-0.065	0.104
-139.458	4.686	-0.232	0.168
-138.443	-200.000	0.016	0.134
-137.429	430.914	0.017	0.037
-136.414	2.825	-0.180	0.129
-135.399	7.175	0.115	-0.085
-134.385	-159.223	0.240	-0.013
-133.370	-102.505	0.186	-0.044
-132.356	231.522	-0.135	0.219
-131.341	188.496	0.116	0.171
-130.326	281.873	0.133	0.234
-129.312	-97.154	-0.100	-0.026
-128.297	-45.050	-0.171	0.084
-127.283	-80.355	0.223	0.074
-126.268	-200.000	0.041	-0.276
-125.253	179.908	0.050	-0.072
-124.239	-34.781	-0.179	0.097
-123.224	393.879	0.025	0.051
-122.210	-200.000	-0.001	0.125
-121.195	-156.762	0.102	-0.006
