DTS Sentinel unit serial number:	SN413079Multiplexer serial number:	ORYXHardware model number:	OX4-SRSoftware version number:	ORYX F/W v4.00 Oryx Data Collector v3.7.2.0data status	okinstallation	princeton_trtdifferential loss correction	single-endedforward channel	channel 1reverse channel	N/Adate	2019/09/18time	16:14:35forward acquisition time	60.00reverse acquisition time	0.00gamma	496.2192k internal	0.2292k external	0.2292temperature offset calibration	0.9995default loss term (dB/km)	0.3790temperature slope calibration	1.0000multiplexer offset coefficient	1.0000multiplexer slope coefficient	1.0000fibre end	0.00T internal ref (°C)	38.36T ext. ref 1 (°C)	0.85T ext. ref 2 (°C)	36.74length (m)	temperature (°C)	Stokes	anti-Stokes-747.200	4.071	-0.161	0.121
-746.185	-97.658	0.266	0.071
-745.171	800.000	0.042	0.182
-744.156	111.940	-0.191	0.236
-743.142	-20.543	-0.401	-0.252
-742.127	287.251	0.197	0.364
-741.112	-200.000	0.030	-0.139
-740.098	-51.471	-0.200	0.096
-739.083	58.252	0.242	0.243
-738.069	9.044	0.125	0.096
-737.054	292.419	-0.102	0.190
-736.039	-200.000	-0.185	-0.001
-735.025	213.475	0.109	0.176
-734.010	361.891	-0.114	-0.235
-732.996	-195.177	0.313	-0.002
-731.981	-74.265	-0.204	-0.075
-730.966	-31.942	0.377	0.216
-729.952	159.242	-0.134	0.191
-728.937	-103.250	-0.209	0.050
-727.923	374.973	-0.111	-0.232
-726.908	-90.158	-0.114	0.034
-725.894	-16.693	-0.313	-0.203
-724.879	-108.522	-0.460	0.101
-723.864	-45.518	-0.327	0.166
-722.850	163.822	0.146	-0.210
-721.835	-133.658	-0.211	-0.027
-720.821	800.000	-0.077	-0.259
-719.806	-0.533	-0.373	-0.271
-718.791	51.636	0.219	0.212
-717.777	-79.091	-0.344	-0.119
-716.762	-107.406	-0.281	-0.063
-715.748	272.855	-0.096	0.173
-714.733	-175.288	0.429	-0.012
-713.718	-115.570	0.178	0.034
-712.704	211.418	-0.031	-0.050
-711.689	59.755	0.117	0.118
-710.675	-42.703	-0.078	0.041
-709.660	-66.347	-0.345	-0.140
-708.645	-200.000	-0.024	-0.211
-707.631	-94.974	0.268	-0.074
-706.616	-200.000	0.014	0.215
-705.602	24.026	-0.073	0.061
-704.587	-44.273	-0.293	-0.150
-703.572	-66.375	-0.158	-0.064
-702.558	-80.190	0.561	0.192
-701.543	133.560	-0.169	0.224
-700.529	-66.452	0.285	0.116
-699.514	-16.441	-0.070	-0.046
-698.499	209.535	-0.072	-0.115
-697.485	-111.640	0.170	0.035
-696.470	-177.017	0.496	0.013
-695.456	-30.200	-0.287	0.167
-694.441	-200.000	0.006	-0.059
-693.426	-34.775	-0.204	0.114
-692.412	-200.000	0.015	-0.265
-691.397	-115.125	0.027	-0.005
-690.383	28.082	-0.112	-0.096
-689.368	-200.000	0.009	0.215
-688.354	800.000	0.061	-0.269
-687.339	-142.823	-0.149	0.015
-686.324	45.652	-0.352	-0.332
-685.310	75.769	0.086	-0.093
-684.295	129.449	0.061	-0.080
-683.281	-64.896	-0.262	0.108
-682.266	-200.000	0.012	-0.254
-681.251	-87.612	0.068	0.021
-680.237	-62.648	0.246	-0.104
-679.222	260.951	0.087	0.154
-678.208	-16.122	0.056	0.036
-677.193	-122.612	0.076	0.013
-676.178	-200.000	-0.014	0.123
-675.164	-164.079	0.235	0.011
-674.149	624.142	0.102	-0.261
-673.135	-157.397	0.401	-0.025
-672.120	489.953	-0.088	0.207
-671.105	114.635	-0.102	0.126
-670.091	-65.241	-0.239	0.098
-669.076	-200.000	-0.009	-0.205
-668.062	309.706	0.042	-0.081
-667.047	118.302	-0.130	0.163
-666.032	94.928	-0.168	-0.195
-665.018	-40.205	-0.186	0.099
-664.003	64.329	0.238	0.244
-662.989	7.601	-0.095	-0.073
-661.974	86.809	0.085	0.095
-660.959	-198.400	0.303	0.002
-659.945	638.623	-0.078	-0.201
-658.930	-200.000	0.029	-0.201
-657.916	-74.187	-0.177	-0.065
-656.901	227.388	0.100	-0.166
-655.886	800.000	-0.042	0.143
-654.872	800.000	-0.072	0.318
-653.857	754.983	0.058	0.161
-652.843	34.022	-0.187	-0.166
-651.828	15.729	-0.190	-0.152
-650.814	123.272	0.140	-0.179
-649.799	-24.665	0.263	-0.159
-648.784	22.137	-0.123	0.102
-647.770	-36.504	-0.143	-0.079
-646.755	18.683	0.111	-0.091
-645.741	593.425	0.139	0.351
-644.726	56.676	0.229	-0.227
-643.711	-108.125	-0.204	-0.045
-642.697	-12.873	0.166	-0.110
-641.682	-145.533	0.363	0.033
-640.668	-127.991	0.222	-0.033
-639.653	67.460	0.114	0.118
-638.638	132.491	0.265	-0.348
-637.624	-36.203	0.143	0.079
-636.609	212.263	-0.069	-0.111
-635.595	-111.646	-0.255	-0.053
-634.580	-99.904	0.122	-0.031
-633.565	-200.000	-0.015	-0.149
-632.551	617.292	-0.073	-0.186
-631.536	15.121	0.225	-0.179
-630.522	-127.919	-0.234	-0.034
-629.507	-200.000	-0.004	0.156
-628.492	636.189	-0.099	-0.257
-627.478	-200.000	0.072	-0.502
-626.463	-35.403	-0.083	0.046
-625.449	123.354	-0.335	-0.428
-624.434	-158.337	0.371	-0.022
-623.419	588.275	0.050	0.125
-622.405	160.148	0.250	-0.355
-621.390	220.139	-0.077	-0.125
-620.376	-200.000	-0.002	-0.193
-619.361	365.441	-0.154	-0.316
-618.346	-42.113	-0.294	0.153
-617.332	91.603	-0.104	0.119
-616.317	-200.000	0.046	-0.235
-615.303	174.376	0.103	-0.151
-614.288	-200.000	0.022	-0.129
-613.273	206.956	-0.058	-0.091
-612.259	-200.000	0.023	-0.412
-611.244	500.090	-0.053	0.124
-610.230	-110.118	-0.290	-0.062
-609.215	-200.000	-0.013	0.094
-608.201	516.918	0.100	0.238
-607.186	-130.227	-0.379	0.052
-606.171	-152.065	0.491	-0.036
-605.157	-120.353	-0.059	0.010
-604.142	14.484	0.277	0.220
-603.128	120.197	-0.015	0.019
-602.113	-200.000	0.039	0.183
-601.098	94.522	-0.262	0.303
-600.084	-200.000	-0.018	0.204
-599.069	800.000	-0.083	0.236
-598.055	340.181	-0.172	-0.342
-597.040	-11.471	-0.193	0.129
-596.025	733.450	0.112	0.304
-595.011	-200.000	-0.022	0.188
-593.996	-170.571	-0.105	-0.004
-592.982	117.383	-0.181	-0.226
-591.967	359.437	0.038	0.078
-590.952	-200.000	0.055	0.280
-589.938	80.146	-0.126	-0.138
-588.923	-200.000	-0.034	-0.197
-587.909	-200.000	0.023	-0.227
-586.894	800.000	-0.145	0.566
-585.879	-200.000	-0.006	0.034
-584.865	360.173	0.091	-0.185
-583.850	54.262	-0.310	-0.304
-582.836	357.062	0.080	-0.162
-581.821	8.946	-0.227	-0.174
-580.806	67.756	-0.158	-0.164
-579.792	-118.375	0.256	0.046
-578.777	631.112	0.032	0.083
-577.763	71.131	0.194	0.205
-576.748	-121.551	0.264	0.045
-575.733	800.000	0.114	0.343
-574.719	3.615	-0.076	0.056
-573.704	126.675	-0.124	-0.160
-572.690	-3.695	-0.124	-0.087
-571.675	-108.022	-0.319	0.070
-570.661	-42.860	0.353	-0.182
-569.646	53.560	-0.102	-0.099
-568.631	-64.283	-0.409	0.169
-567.617	800.000	0.066	0.248
-566.602	-47.689	0.162	0.080
-565.588	-200.000	-0.034	0.211
-564.573	-112.035	0.126	-0.026
-563.558	706.308	0.009	-0.025
-562.544	800.000	0.026	0.097
-561.529	4.941	-0.202	0.151
-560.515	-89.251	0.211	0.063
-559.500	-28.398	-0.203	0.119
-558.485	220.118	-0.276	0.449
-557.471	-34.520	0.117	-0.065
-556.456	800.000	0.045	-0.168
-555.442	56.972	0.180	-0.178
-554.427	-130.732	-0.129	0.018
-553.412	-52.619	-0.243	0.114
-552.398	800.000	0.032	0.106
-551.383	-56.953	0.132	0.059
-550.369	110.590	0.127	0.156
-549.354	-8.072	0.413	-0.282
-548.339	800.000	0.016	-0.069
-547.325	-6.646	-0.088	-0.061
-546.310	-154.583	-0.282	0.019
-545.296	42.054	0.296	0.273
-544.281	-90.858	-0.073	0.021
-543.266	19.276	0.196	-0.160
-542.252	51.230	-0.139	-0.134
-541.237	800.000	-0.065	0.191
-540.223	-90.854	-0.287	0.084
-539.208	-200.000	-0.037	0.292
-538.193	-200.000	-0.060	0.345
-537.179	83.241	0.176	-0.195
-536.164	164.699	0.205	-0.293
-535.150	104.399	-0.037	0.044
-534.135	666.991	0.028	-0.074
-533.121	89.782	-0.233	-0.264
-532.106	10.266	-0.252	0.195
-531.091	-200.000	0.016	0.299
-530.077	-153.111	-0.184	-0.013
-529.062	-11.459	-0.267	-0.178
-528.048	164.821	0.067	-0.096
-527.033	-200.000	-0.044	0.208
-526.018	-132.321	0.099	-0.013
-525.004	122.897	-0.170	-0.216
-523.989	-146.780	-0.177	-0.015
-522.975	261.215	0.109	-0.192
-521.960	800.000	0.079	-0.239
-520.945	134.571	-0.099	0.130
-519.931	-200.000	-0.004	0.206
-518.916	281.662	-0.174	0.316
-517.902	228.573	0.123	-0.204
-516.887	-40.642	-0.203	-0.107
-515.872	-44.716	0.116	-0.059
-514.858	793.205	-0.018	-0.049
-513.843	800.000	-0.040	0.125
-512.829	-108.589	-0.032	-0.007
-511.814	800.000	0.022	-0.064
-510.799	12.327	0.094	0.074
-509.785	23.629	-0.165	0.138
-508.770	-2.923	-0.157	-0.111
-507.756	31.933	0.071	-0.062
-506.741	-94.930	-0.035	0.009
-505.726	-200.000	-0.018	0.122
-504.712	800.000	-0.103	0.295
-503.697	-89.439	-0.183	0.055
-502.683	-147.420	0.166	0.014
-501.668	234.826	0.159	-0.267
-500.653	629.715	0.140	0.358
-499.639	800.000	-0.038	0.157
-498.624	-104.231	-0.140	0.033
-497.610	19.999	0.082	0.067
-496.595	-200.000	-0.046	0.402
-495.581	-64.551	-0.433	0.178
-494.566	-71.304	-0.050	-0.019
-493.551	-97.030	0.189	0.050
-492.537	-200.000	-0.042	-0.461
-491.522	16.725	0.272	0.218
-490.508	363.642	-0.185	0.377
-489.493	-9.471	0.122	-0.083
-488.478	-0.895	0.189	-0.136
-487.464	40.021	-0.023	-0.021
-486.449	625.854	-0.041	0.104
-485.435	-8.571	-0.375	-0.255
-484.420	497.089	0.140	0.325
-483.405	800.000	-0.018	0.057
-482.391	800.000	0.032	-0.110
-481.376	800.000	-0.021	0.073
-480.362	-104.344	-0.248	0.058
-479.347	800.000	-0.055	-0.210
-478.332	94.218	-0.055	-0.063
-477.318	-147.552	-0.220	-0.019
-476.303	30.957	-0.117	0.102
-475.289	-14.606	0.217	-0.141
-474.274	39.174	-0.173	-0.157
-473.259	-151.186	0.272	-0.021
-472.245	-200.000	0.045	-0.263
-471.230	-124.080	-0.153	-0.024
-470.216	800.000	-0.069	-0.203
-469.201	-8.006	-0.156	0.106
-468.186	139.625	-0.123	0.164
-467.172	389.732	0.098	-0.205
-466.157	-99.287	-0.119	0.030
-465.143	396.380	-0.239	0.504
-464.128	-92.922	0.058	0.016
-463.113	28.869	-0.201	0.172
-462.099	603.916	0.122	0.306
-461.084	67.258	-0.066	0.068
-460.070	170.639	-0.087	0.126
-459.055	-78.095	0.202	-0.070
-458.040	7.373	0.055	-0.042
-457.026	-37.362	-0.172	-0.093
-456.011	-200.000	-0.024	-0.435
-454.997	-34.685	-0.165	0.092
-453.982	-87.761	0.253	-0.077
-452.968	33.317	0.228	-0.200
-451.953	-200.000	-0.064	-0.520
-450.938	289.902	0.141	0.259
-449.924	-100.551	0.464	-0.116
-448.909	69.283	-0.122	0.127
-447.895	-151.785	0.110	-0.008
-446.880	-110.743	-0.291	0.061
-445.865	0.588	-0.144	0.104
-444.851	246.879	0.061	0.104
-443.836	-133.726	0.135	-0.017
-442.822	318.953	0.108	0.208
-441.807	-200.000	-0.035	0.247
-440.792	59.905	0.377	0.376
-439.778	-98.142	-0.076	0.020
-438.763	346.996	-0.037	-0.074
-437.749	-165.243	0.239	0.011
-436.734	20.617	0.115	0.094
-435.719	88.635	0.111	-0.125
-434.705	-36.277	-0.159	-0.087
-433.690	-98.169	0.104	0.027
-432.676	-200.000	0.164	0.000
-431.661	-155.135	0.034	0.002
-430.646	739.960	0.053	-0.145
-429.632	800.000	0.049	-0.189
-428.617	75.826	-0.159	0.170
-427.603	-21.628	0.091	0.056
-426.588	-55.150	0.174	0.079
-425.573	101.741	0.145	-0.171
-424.559	-160.118	0.180	0.010
-423.544	-46.548	-0.054	0.027
-422.530	19.953	0.042	-0.034
-421.515	-2.589	-0.089	-0.063
-420.500	339.615	0.078	0.154
-419.486	-200.000	-0.008	-0.050
-418.471	-12.172	0.235	-0.156
-417.457	76.528	0.271	0.290
-416.442	-125.150	0.316	0.049
-415.428	90.673	0.199	-0.226
-414.413	220.438	0.024	-0.039
-413.398	327.727	-0.070	-0.135
-412.384	-200.000	-0.038	0.171
-411.369	0.886	0.163	0.118
-410.355	-30.955	-0.070	-0.040
-409.340	-200.000	-0.009	0.069
-408.325	-46.315	0.348	0.173
-407.311	-91.648	-0.183	-0.053
-406.296	606.000	-0.133	-0.336
-405.282	-200.000	0.035	-0.166
-404.267	-200.000	0.006	-0.354
-403.252	607.000	0.036	0.092
-402.238	-109.953	-0.291	-0.062
-401.223	1.166	-0.131	-0.095
-400.209	-62.508	0.444	0.186
-399.194	-65.613	-0.153	0.062
-398.179	328.639	0.143	-0.277
-397.165	236.597	-0.227	0.379
-396.150	-150.552	0.184	0.014
-395.136	322.506	0.187	-0.359
-394.121	-62.081	0.078	0.033
-393.106	184.962	-0.030	0.045
-392.092	-131.548	-0.205	-0.027
-391.077	36.576	-0.157	-0.140
-390.063	484.708	-0.161	-0.369
-389.048	20.957	-0.147	0.120
-388.033	591.641	0.130	0.325
-387.019	-31.724	-0.104	-0.059
-386.004	-138.480	-0.106	-0.012
-384.990	-200.000	0.020	-0.272
-383.975	-200.000	0.047	0.214
-382.960	-126.589	0.142	0.021
-381.946	-102.636	-0.287	-0.069
-380.931	-200.000	0.018	0.147
-379.917	595.008	0.114	-0.284
-378.902	-200.000	0.006	0.193
-377.888	-45.578	-0.125	0.062
-376.873	800.000	0.103	-0.403
-375.858	6.839	-0.226	-0.170
-374.844	-53.410	0.202	0.093
-373.829	99.840	0.094	-0.110
-372.815	-75.691	0.086	-0.031
-371.800	-125.770	0.242	-0.037
-370.785	800.000	-0.064	0.263
-369.771	-107.623	-0.194	0.043
-368.756	800.000	-0.111	-0.371
-367.742	-123.802	-0.187	-0.030
-366.727	-33.680	-0.277	-0.154
-365.712	-5.827	-0.197	0.136
-364.698	-42.725	-0.324	-0.166
-363.683	20.385	-0.057	0.046
-362.669	84.269	0.142	0.157
-361.654	754.224	0.110	0.300
-360.639	736.658	-0.040	-0.109
-359.625	800.000	0.050	0.181
-358.610	103.388	-0.071	-0.084
-357.596	18.930	0.125	-0.101
-356.581	40.380	-0.119	0.108
-355.566	-14.793	0.137	0.089
-354.552	44.782	-0.049	0.046
-353.537	251.830	0.154	0.264
-352.523	800.000	0.081	0.343
-351.508	-200.000	-0.012	-0.085
-350.493	-21.574	-0.199	0.122
-349.479	-26.346	-0.179	-0.106
-348.464	22.093	-0.139	-0.114
-347.450	156.974	-0.083	-0.115
-346.435	441.546	-0.050	-0.110
-345.420	-200.000	-0.051	0.235
-344.406	-200.000	0.005	0.113
-343.391	86.446	-0.423	0.470
-342.377	14.552	0.224	0.176
-341.362	-200.000	0.048	0.337
-340.348	-171.817	0.270	0.009
-339.333	-10.265	-0.182	0.122
-338.318	800.000	0.035	-0.102
-337.304	162.054	0.110	-0.155
-336.289	5.905	0.344	-0.256
-335.275	43.689	-0.358	-0.330
-334.260	800.000	0.029	-0.119
-333.245	373.840	-0.137	-0.281
-332.231	-2.903	-0.194	-0.136
-331.216	-88.254	-0.139	-0.042
-330.202	2.025	-0.225	-0.164
-329.187	-90.465	0.115	-0.034
-328.172	-126.062	0.106	0.016
-327.158	-72.572	0.261	0.097
-326.143	-200.000	0.012	0.207
-325.129	166.390	-0.325	0.463
-324.114	-46.901	-0.358	0.176
-323.099	756.670	-0.077	-0.211
-322.085	212.994	0.178	0.282
-321.070	-200.000	-0.042	-0.234
-320.056	-94.775	-0.192	0.053
-319.041	113.573	-0.109	-0.134
-318.026	-20.286	0.111	0.069
-317.012	194.081	0.127	-0.194
-315.997	-1.515	0.136	0.096
-314.983	223.286	0.248	-0.403
-313.968	-40.712	-0.190	-0.099
-312.953	41.889	0.056	0.051
-311.939	473.587	-0.108	-0.246
-310.924	-49.578	0.168	0.080
-309.910	-5.957	0.234	-0.161
-308.895	-62.046	0.266	0.112
-307.880	107.242	0.221	0.264
-306.866	80.626	0.165	-0.179
-305.851	-4.686	-0.334	-0.232
-304.837	-35.800	0.261	-0.142
-303.822	191.465	-0.200	-0.303
-302.807	-200.000	0.032	0.196
-301.793	-112.205	0.088	0.018
-300.778	-13.374	-0.544	-0.355
-299.764	800.000	-0.050	0.178
-298.749	800.000	0.202	0.576
-297.735	-14.686	-0.093	-0.060
-296.720	176.821	-0.021	0.031
-295.705	195.240	-0.081	0.123
-294.691	-7.249	0.258	-0.176
-293.676	428.769	-0.104	0.226
-292.662	146.806	0.087	-0.117
-291.647	121.499	-0.023	0.029
-290.632	193.122	0.069	0.104
-289.618	-200.000	-0.011	-0.213
-288.603	334.146	0.040	0.078
-287.589	-61.993	0.229	-0.096
-286.574	3.683	-0.113	-0.083
-285.559	131.873	0.222	0.288
-284.545	165.908	-0.053	0.076
-283.530	404.455	0.042	-0.088
-282.516	133.068	-0.107	-0.140
-281.501	40.396	0.114	0.103
-280.486	138.508	0.121	0.160
-279.472	113.834	0.220	0.268
-278.457	147.349	0.084	-0.113
-277.443	-69.280	0.198	-0.076
-276.428	73.832	-0.061	-0.064
-275.413	-61.908	-0.275	-0.116
-274.399	18.389	0.245	-0.196
-273.384	-160.660	0.317	-0.017
-272.370	185.904	0.112	0.167
-271.355	45.292	-0.362	0.336
-270.340	29.958	0.139	-0.119
-269.326	-114.577	-0.097	0.019
-268.311	-47.928	0.188	-0.091
-267.297	-54.951	-0.121	-0.055
-266.282	-59.425	0.072	0.031
-265.267	-159.846	0.245	0.013
-264.253	800.000	0.064	-0.269
-263.238	41.966	-0.073	-0.067
-262.224	-200.000	0.002	-0.437
-261.209	800.000	-0.039	-0.168
-260.195	-79.297	0.052	-0.018
-259.180	800.000	-0.075	0.244
-258.165	-18.702	-0.255	0.160
-257.151	21.925	0.077	-0.063
-256.136	-136.654	0.315	-0.037
-255.122	-200.000	0.027	0.127
-254.107	56.033	-0.179	-0.175
-253.092	151.637	-0.125	-0.171
-252.078	436.891	0.134	0.292
-251.063	494.646	0.184	0.425
-250.049	111.915	0.061	0.074
-249.034	75.905	-0.118	0.126
-248.019	263.100	0.101	0.176
-247.005	800.000	-0.082	0.238
-245.990	146.866	0.148	-0.200
-244.976	-5.552	0.267	0.184
-243.961	-200.000	-0.011	-0.222
-242.946	-45.574	0.139	-0.069
-241.932	-124.610	0.052	-0.008
-240.917	-99.609	-0.099	-0.025
-239.903	22.208	-0.150	-0.123
-238.888	9.359	0.101	0.077
-237.873	158.327	0.101	-0.141
-236.859	-200.000	-0.020	0.160
-235.844	-49.500	0.106	0.051
-234.830	-98.478	0.352	0.090
-233.815	-200.000	0.004	0.043
-232.800	46.743	0.059	0.055
-231.786	-180.503	-0.245	-0.005
-230.771	-115.782	-0.198	-0.037
-229.757	634.146	-0.070	0.177
-228.742	128.263	-0.219	-0.279
-227.727	-70.308	0.210	0.080
-226.713	67.912	0.184	0.189
-225.698	800.000	-0.112	-0.369
-224.684	-112.963	-0.227	0.045
-223.669	581.656	-0.101	-0.249
-222.655	-69.476	0.296	-0.114
-221.640	800.000	-0.034	-0.106
-220.625	365.641	-0.044	-0.089
-219.611	452.718	-0.146	-0.325
-218.596	-149.975	0.209	0.016
-217.582	-200.000	0.006	-0.189
-216.567	800.000	0.049	0.216
-215.552	56.184	-0.034	-0.033
-214.538	-29.463	0.192	0.110
-213.523	124.647	0.133	-0.168
-212.509	-200.000	0.037	-0.190
-211.494	-148.624	-0.206	-0.017
-210.479	-200.000	-0.004	-0.350
-209.465	-200.000	0.027	0.311
-208.450	313.641	-0.036	0.068
-207.436	144.104	0.019	0.025
-206.421	-192.656	-0.208	0.002
-205.406	429.370	-0.189	-0.410
-204.392	454.531	0.014	-0.030
-203.377	-102.209	0.230	-0.055
-202.363	223.133	-0.069	0.112
-201.348	598.653	-0.142	0.352
-200.333	162.458	-0.027	0.039
-199.319	-200.000	0.055	-0.260
-198.304	497.007	-0.073	0.167
-197.290	-113.068	0.109	0.022
-196.275	226.952	0.149	0.242
-195.260	24.906	-0.137	-0.114
-194.246	305.513	0.165	0.308
-193.231	424.180	0.055	0.119
-192.217	-74.469	-0.238	0.086
-191.202	-200.000	0.020	-0.182
-190.187	144.212	-0.294	-0.393
-189.173	225.072	0.222	-0.359
-188.158	788.533	-0.057	-0.156
-187.144	177.348	-0.282	0.412
-186.129	-200.000	-0.001	0.274
-185.114	-83.210	0.154	-0.049
-184.100	126.955	-0.190	0.241
-183.085	-57.574	0.263	0.116
-182.071	-101.269	-0.209	-0.051
-181.056	-200.000	0.031	-0.181
-180.042	-200.000	0.058	0.307
-179.027	-40.838	0.265	0.137
-178.012	-130.576	-0.165	-0.022
-176.998	-92.765	-0.055	-0.015
-175.983	-175.553	-0.147	0.004
-174.969	-108.386	-0.162	-0.035
-173.954	-148.704	0.126	-0.010
-172.939	93.799	0.360	0.409
-171.925	65.740	-0.211	0.214
-170.910	-65.202	-0.261	0.105
-169.896	198.262	0.044	0.067
-168.881	185.359	-0.034	0.050
-167.866	-75.851	-0.089	-0.032
-166.852	508.546	-0.085	-0.197
-165.837	330.131	-0.138	-0.266
-164.823	-200.000	-0.018	0.083
-163.808	671.699	-0.116	-0.301
-162.793	173.823	0.121	0.175
-161.779	-200.000	0.027	-0.153
-160.764	595.861	0.050	-0.123
-159.750	588.967	-0.181	-0.447
-158.735	800.000	-0.028	0.079
-157.720	-109.353	0.445	0.094
-156.706	-36.615	-0.193	0.104
-155.691	-8.526	0.158	0.106
-154.677	214.183	-0.115	0.182
-153.662	-32.688	0.185	0.103
-152.647	-10.367	0.306	0.203
-151.633	-19.689	-0.116	0.072
-150.618	-158.582	0.106	-0.006
-149.604	106.564	-0.335	0.398
-148.589	-66.915	-0.108	0.043
-147.574	116.311	0.177	0.217
-146.560	800.000	-0.105	0.389
-145.545	-200.000	0.002	-0.103
-144.531	-20.770	0.086	0.053
-143.516	-200.000	-0.025	0.153
-142.502	282.949	0.090	0.162
-141.487	-32.391	0.170	-0.095
-140.472	161.616	-0.093	-0.130
-139.458	-47.076	-0.091	0.045
-138.443	-200.000	-0.042	0.267
-137.429	261.307	-0.057	0.099
-136.414	-38.296	0.232	-0.123
-135.399	-133.797	-0.110	0.014
-134.385	249.208	-0.141	0.239
-133.370	800.000	-0.067	-0.225
-132.356	419.817	-0.068	0.146
-131.341	106.823	0.155	0.183
-130.326	-72.172	0.169	0.063
-129.312	-30.272	0.298	0.169
-128.297	-2.798	-0.270	0.189
-127.283	38.031	0.169	-0.150
-126.268	-200.000	0.012	-0.167
-125.253	-191.060	-0.414	0.004
-124.239	-200.000	0.037	-0.204
-123.224	32.923	0.248	0.214
-122.210	-200.000	-0.093	0.437
-121.195	-200.000	0.008	-0.158
-120.180	91.183	0.039	0.044
