DTS Sentinel unit serial number:	SN413079Multiplexer serial number:	ORYXHardware model number:	OX4-SRSoftware version number:	ORYX F/W v4.00 Oryx Data Collector v3.7.2.0data status	okinstallation	princeton_trtdifferential loss correction	single-endedforward channel	channel 1reverse channel	N/Adate	2019/09/15time	10:18:35forward acquisition time	60.00reverse acquisition time	0.00gamma	496.2192k internal	0.2309k external	0.2309temperature offset calibration	0.9989default loss term (dB/km)	0.3790temperature slope calibration	1.0000multiplexer offset coefficient	1.0000multiplexer slope coefficient	1.0000fibre end	0.00T internal ref (°C)	34.25T ext. ref 1 (°C)	5.02T ext. ref 2 (°C)	29.41length (m)	temperature (°C)	Stokes	anti-Stokes-747.200	107.522	0.108	-0.131
-746.185	-107.500	-0.064	0.014
-745.171	-5.805	0.168	0.117
-744.156	-120.848	-0.051	0.009
-743.142	-85.959	0.257	-0.081
-742.127	-108.195	0.265	0.058
-741.112	511.573	-0.016	-0.037
-740.098	-94.490	-0.482	0.133
-739.083	62.085	-0.117	-0.119
-738.069	339.048	-0.290	0.575
-737.054	626.081	0.033	0.085
-736.039	-125.110	-0.417	-0.065
-735.025	112.351	0.305	0.375
-734.010	649.503	-0.137	-0.357
-732.996	-52.121	0.390	-0.184
-731.981	-200.000	-0.037	0.251
-730.966	-154.038	-0.041	-0.003
-729.952	27.190	0.181	0.154
-728.937	36.847	-0.215	0.193
-727.923	-24.195	-0.327	0.198
-726.908	800.000	-0.105	0.295
-725.894	233.650	0.178	-0.298
-724.879	800.000	-0.031	0.109
-723.864	235.471	0.065	-0.110
-722.850	106.895	-0.108	-0.130
-721.835	77.888	-0.057	-0.062
-720.821	-156.369	-0.285	-0.018
-719.806	-126.594	-0.301	-0.045
-718.791	-6.580	-0.178	-0.123
-717.777	74.528	-0.033	0.035
-716.762	53.167	-0.168	-0.164
-715.748	-43.833	-0.134	0.068
-714.733	-52.838	-0.065	-0.031
-713.718	10.964	0.195	0.152
-712.704	-89.791	-0.159	-0.047
-711.689	-81.017	-0.295	-0.099
-710.675	-77.448	-0.251	0.088
-709.660	413.248	-0.119	0.256
-708.645	800.000	-0.053	-0.166
-707.631	-11.534	0.061	0.041
-706.616	800.000	0.041	-0.115
-705.602	-10.682	-0.200	-0.134
-704.587	-200.000	-0.013	-0.064
-703.572	-18.787	-0.368	-0.233
-702.558	-117.492	-0.321	-0.059
-701.543	-200.000	-0.053	0.239
-700.529	-200.000	0.077	-0.367
-699.514	-25.547	-0.150	-0.090
-698.499	-200.000	0.010	-0.071
-697.485	-93.974	0.337	-0.094
-696.470	8.429	-0.258	-0.197
-695.456	800.000	-0.101	-0.297
-694.441	52.627	-0.152	0.147
-693.426	19.906	-0.212	-0.174
-692.412	-77.711	-0.075	-0.026
-691.397	42.316	-0.209	-0.193
-690.383	-73.847	-0.199	-0.073
-689.368	-7.334	-0.160	0.110
-688.354	-116.093	-0.476	-0.090
-687.339	376.843	0.085	0.175
-686.324	89.621	-0.138	0.156
-685.310	-200.000	0.005	-0.093
-684.295	800.000	0.079	-0.290
-683.281	800.000	-0.054	-0.186
-682.266	-17.510	-0.294	0.187
-681.251	-200.000	0.274	0.001
-680.237	800.000	0.061	-0.251
-679.222	292.727	0.084	-0.155
-678.208	-200.000	-0.009	-0.336
-677.193	-200.000	-0.003	0.034
-676.178	-21.724	0.385	0.237
-675.164	13.057	0.046	-0.036
-674.149	-78.608	0.215	-0.075
-673.135	97.795	0.097	0.114
-672.120	-37.682	0.078	-0.042
-671.105	22.037	-0.367	-0.303
-670.091	83.866	0.220	-0.243
-669.076	800.000	-0.088	-0.352
-668.062	-116.547	-0.030	-0.006
-667.047	-200.000	-0.032	-0.268
-666.032	-104.243	-0.366	-0.086
-665.018	-61.361	0.182	-0.078
-664.003	-115.611	0.009	0.002
-662.989	800.000	0.060	-0.215
-661.974	-89.002	0.180	-0.054
-660.959	401.768	-0.114	-0.242
-659.945	-48.905	0.252	0.122
-658.930	-77.265	-0.260	-0.092
-657.916	396.199	0.108	0.229
-656.901	800.000	-0.035	0.122
-655.886	-53.374	0.355	-0.165
-654.872	-153.030	-0.109	-0.008
-653.857	-39.247	-0.090	-0.048
-652.843	-86.317	-0.182	-0.057
-651.828	800.000	-0.060	-0.214
-650.814	800.000	-0.062	-0.214
-649.799	-139.915	0.135	-0.014
-648.784	91.946	-0.077	0.087
-647.770	-200.000	-0.009	0.341
-646.755	351.024	-0.009	0.017
-645.741	-200.000	-0.051	-0.372
-644.726	-170.404	-0.119	-0.004
-643.711	-115.557	-0.175	-0.033
-642.697	-200.000	-0.025	0.122
-641.682	88.721	0.060	-0.068
-640.668	-133.875	0.157	0.020
-639.653	1.068	0.286	0.208
-638.638	691.544	0.047	-0.126
-637.624	303.112	0.050	-0.094
-636.609	-200.000	-0.019	0.204
-635.595	-109.010	0.195	0.042
-634.580	-166.233	-0.116	-0.005
-633.565	-58.854	0.178	-0.078
-632.551	-200.000	-0.003	0.020
-631.536	-200.000	0.037	-0.318
-630.522	85.514	-0.145	-0.161
-629.507	86.631	-0.111	-0.123
-628.492	-166.209	-0.265	-0.011
-627.478	326.784	0.085	-0.165
-626.463	-200.000	-0.015	-0.345
-625.449	-56.302	-0.282	-0.127
-624.434	-181.446	-0.527	-0.010
-623.419	-80.860	0.286	-0.096
-622.405	35.639	0.131	0.116
-621.390	-37.138	-0.222	-0.120
-620.376	66.874	0.135	-0.139
-619.361	61.410	-0.259	-0.260
-618.346	-96.753	0.137	-0.037
-617.332	171.531	-0.060	-0.087
-616.317	-144.994	0.207	-0.019
-615.303	-61.966	0.194	0.082
-614.288	167.901	0.109	-0.157
-613.273	91.133	0.222	0.251
-612.259	79.451	0.309	0.335
-611.244	78.237	-0.207	0.223
-610.230	438.469	-0.040	-0.087
-609.215	64.921	0.158	-0.161
-608.201	148.346	-0.071	-0.097
-607.186	700.803	-0.043	0.114
-606.171	-200.000	0.009	0.325
-605.157	-133.638	0.230	-0.029
-604.142	257.763	-0.125	-0.218
-603.128	528.656	0.023	-0.054
-602.113	-22.469	-0.263	-0.161
-601.098	38.701	-0.019	0.018
-600.084	-200.000	-0.153	0.000
-599.069	-39.121	-0.162	0.086
-598.055	-93.377	-0.252	-0.071
-597.040	-150.660	-0.281	0.022
-596.025	43.438	-0.162	-0.149
-595.011	800.000	0.039	-0.145
-593.996	800.000	0.084	0.251
-592.982	800.000	0.049	0.153
-591.967	131.889	-0.077	0.100
-590.952	-40.575	-0.185	0.097
-589.938	-200.000	-0.005	-0.078
-588.923	32.481	-0.192	-0.167
-587.909	111.736	-0.198	0.241
-586.894	433.617	0.097	0.213
-585.879	81.873	-0.139	0.152
-584.865	-2.582	-0.198	0.140
-583.850	-200.000	0.025	0.296
-582.836	800.000	0.040	-0.134
-581.821	-200.000	-0.019	0.209
-580.806	-200.000	-0.051	0.262
-579.792	170.177	0.220	-0.318
-578.777	49.318	-0.114	0.108
-577.763	-108.406	-0.135	-0.029
-576.748	-1.439	-0.116	0.083
-575.733	86.751	-0.061	-0.067
-574.719	39.454	-0.166	0.150
-573.704	800.000	0.028	-0.104
-572.690	476.273	0.070	-0.159
-571.675	84.330	-0.056	0.062
-570.661	-75.968	-0.229	-0.082
-569.646	-18.037	-0.212	0.134
-568.631	17.511	0.272	0.218
-567.617	246.963	0.156	-0.265
-566.602	-27.453	0.442	-0.260
-565.588	29.938	0.303	-0.261
-564.573	-200.000	-0.029	0.198
-563.558	32.420	0.187	-0.163
-562.544	-84.462	0.127	0.041
-561.529	-96.233	-0.290	0.078
-560.515	684.385	0.090	0.236
-559.500	784.135	-0.060	0.165
-558.485	51.405	-0.080	-0.077
-557.471	-32.525	0.141	0.079
-556.456	144.744	0.193	0.261
-555.442	-143.581	0.300	0.029
-554.427	-129.374	0.263	0.037
-553.412	-200.000	0.091	-0.407
-552.398	651.280	-0.224	-0.577
-551.383	-200.000	0.010	-0.089
-550.369	280.405	0.080	0.145
-549.354	319.770	-0.039	0.075
-548.339	64.444	-0.096	-0.098
-547.325	11.935	0.228	-0.176
-546.310	257.264	0.073	-0.127
-545.296	-200.000	-0.047	-0.257
-544.281	243.735	-0.079	-0.134
-543.266	800.000	-0.100	-0.304
-542.252	282.554	0.066	-0.118
-541.237	-200.000	0.023	-0.126
-540.223	-161.712	0.237	-0.012
-539.208	-120.310	0.233	-0.040
-538.193	-59.062	0.028	0.012
-537.179	-200.000	-0.034	0.203
-536.164	96.106	-0.166	0.191
-535.150	75.489	0.116	-0.124
-534.135	800.000	-0.074	0.218
-533.121	-200.000	0.009	-0.121
-532.106	30.977	-0.207	-0.178
-531.091	-78.525	-0.399	0.138
-530.077	170.884	-0.097	-0.140
-529.062	70.181	0.104	0.108
-528.048	214.855	0.026	-0.042
-527.033	-12.640	0.289	-0.190
-526.018	-115.638	0.144	-0.027
-525.004	117.713	0.089	0.111
-523.989	800.000	-0.016	0.058
-522.975	-200.000	-0.027	-0.261
-521.960	-200.000	0.017	-0.185
-520.945	-192.163	0.036	-0.000
-519.931	206.391	-0.234	-0.367
-518.916	291.973	0.070	-0.128
-517.902	-9.900	-0.149	0.100
-516.887	-200.000	0.036	0.465
-515.872	292.375	-0.081	-0.149
-514.858	-1.783	0.137	-0.097
-513.843	800.000	0.135	0.378
-512.829	-144.468	-0.155	-0.014
-511.814	-26.814	0.206	-0.121
-510.799	-54.995	-0.228	0.104
-509.785	185.170	-0.209	0.313
-508.770	305.099	0.060	-0.112
-507.756	-78.475	-0.309	-0.106
-506.741	188.357	-0.062	-0.093
-505.726	170.314	0.065	-0.093
-504.712	-151.314	-0.017	0.001
-503.697	162.184	0.155	-0.219
-502.683	-200.000	0.021	0.123
-501.668	44.305	-0.195	0.180
-500.653	38.668	-0.211	0.190
-499.639	800.000	-0.128	0.448
-498.624	42.532	-0.061	-0.056
-497.610	83.162	0.078	-0.085
-496.595	800.000	0.073	-0.294
-495.581	800.000	0.025	0.103
-494.566	-154.343	-0.086	-0.006
-493.551	-55.062	0.300	0.136
-492.537	476.811	-0.054	0.122
-491.522	800.000	-0.047	0.167
-490.508	-16.054	-0.251	0.161
-489.493	-94.800	-0.305	-0.083
-488.478	-200.000	0.019	-0.176
-487.464	391.113	-0.167	-0.350
-486.449	-200.000	0.011	0.150
-485.435	-84.999	-0.174	0.055
-484.420	111.677	0.242	0.294
-483.405	383.184	0.099	0.206
-482.391	700.621	0.186	-0.492
-481.376	-153.605	0.156	-0.011
-480.362	721.565	-0.048	-0.127
-479.347	-127.333	-0.229	0.034
-478.332	192.035	-0.051	-0.078
-477.318	134.233	0.282	-0.367
-476.303	273.899	0.052	-0.093
-475.289	162.613	0.204	-0.288
-474.274	-135.378	-0.224	-0.027
-473.259	-181.577	-0.288	0.006
-472.245	386.957	-0.186	-0.386
-471.230	109.969	0.080	-0.096
-470.216	-63.042	-0.205	0.085
-469.201	800.000	0.111	0.321
-468.186	-148.265	0.277	0.023
-467.172	-181.114	0.266	0.005
-466.157	-66.292	0.179	-0.071
-465.143	-178.462	0.197	0.005
-464.128	94.131	-0.176	-0.201
-463.113	-110.480	0.355	0.074
-462.099	7.935	-0.099	0.075
-461.084	-84.386	-0.329	-0.105
-460.070	800.000	0.091	0.261
-459.055	27.305	-0.051	0.043
-458.040	-161.936	-0.093	0.005
-457.026	88.262	0.340	0.380
-456.011	-57.754	-0.531	0.234
-454.997	252.995	0.051	0.088
-453.982	-95.183	0.181	0.049
-452.968	82.962	-0.103	-0.113
-451.953	-200.000	0.032	-0.164
-450.938	-200.000	0.000	0.004
-449.924	-99.041	-0.170	0.043
-448.909	270.557	-0.001	0.002
-447.895	248.575	-0.082	0.139
-446.880	337.651	0.192	0.375
-445.865	59.969	-0.210	0.209
-444.851	565.197	0.056	-0.136
-443.836	-200.000	0.270	-0.001
-442.822	-32.660	-0.065	-0.036
-441.807	-57.318	-0.243	0.107
-440.792	-63.499	-0.097	0.040
-439.778	-34.138	0.081	-0.045
-438.763	-200.000	-0.000	-0.109
-437.749	-28.555	0.309	-0.178
-436.734	13.247	-0.178	-0.138
-435.719	-43.659	0.065	-0.033
-434.705	-186.800	-0.360	-0.005
-433.690	67.210	0.120	-0.123
-432.676	-20.739	0.093	-0.057
-431.661	-200.000	-0.026	-0.347
-430.646	-82.038	-0.237	-0.078
-429.632	-200.000	-0.012	-0.132
-428.617	800.000	-0.039	-0.144
-427.603	122.472	-0.101	-0.127
-426.588	128.207	-0.123	0.157
-425.573	198.031	-0.048	0.074
-424.559	-85.827	-0.250	0.078
-423.544	-200.000	-0.014	0.336
-422.530	-200.000	0.047	-0.223
-421.515	-64.259	0.163	-0.067
-420.500	729.423	0.054	0.144
-419.486	-66.154	0.355	0.142
-418.471	-200.000	0.229	0.001
-417.457	-73.065	-0.328	0.121
-416.442	800.000	-0.107	0.318
-415.428	508.128	0.144	0.335
-414.413	-129.841	-0.282	0.039
-413.398	165.326	-0.094	0.134
-412.384	-127.344	-0.188	0.027
-411.369	800.000	-0.045	0.128
-410.355	-115.705	0.455	0.085
-409.340	-120.748	-0.250	0.042
-408.325	-112.584	-0.270	0.054
-407.311	-101.722	-0.089	-0.022
-406.296	131.621	-0.103	0.133
-405.282	302.230	0.098	-0.182
-404.267	-200.000	-0.013	-0.190
-403.252	800.000	0.037	-0.102
-402.238	-200.000	-0.057	0.386
-401.223	89.149	-0.151	-0.168
-400.209	-200.000	-0.016	0.236
-399.194	-181.377	-0.209	0.004
-398.179	61.436	-0.039	0.039
-397.165	-200.000	-0.023	-0.169
-396.150	-6.495	0.399	-0.273
-395.136	800.000	0.063	-0.186
-394.121	256.441	-0.184	-0.316
-393.106	-31.154	-0.203	-0.115
-392.092	800.000	-0.115	0.361
-391.077	-200.000	0.025	0.335
-390.063	304.891	0.048	0.089
-389.048	-35.766	0.271	-0.147
-388.033	287.939	0.105	0.191
-387.019	349.596	-0.041	0.082
-386.004	247.778	-0.110	0.187
-384.990	52.387	0.175	-0.168
-383.975	-54.675	0.044	-0.020
-382.960	187.683	0.090	0.134
-381.946	-200.000	-0.036	-0.505
-380.931	-0.781	0.180	0.128
-379.917	275.471	-0.123	-0.219
-378.902	-200.000	-0.044	0.298
-377.888	800.000	-0.097	-0.423
-376.873	-200.000	-0.098	-0.533
-375.858	-157.515	0.186	-0.011
-374.844	490.142	0.134	0.308
-373.829	86.499	0.103	0.114
-372.815	268.677	0.174	-0.306
-371.800	256.908	0.331	-0.569
-370.785	20.849	-0.183	0.149
-369.771	13.396	0.182	0.141
-368.756	65.003	-0.064	0.065
-367.742	362.617	-0.126	-0.254
-366.727	335.994	0.161	-0.313
-365.712	79.472	0.162	0.174
-364.698	357.051	0.106	0.212
-363.683	352.992	-0.100	0.199
-362.669	650.130	0.106	0.271
-361.654	575.566	-0.024	0.058
-360.639	37.995	0.077	-0.068
-359.625	-200.000	-0.012	0.092
-358.610	59.726	-0.158	0.156
-357.596	465.592	-0.134	-0.301
-356.581	325.955	-0.199	-0.381
-355.566	346.847	-0.115	0.227
-354.552	800.000	0.033	-0.098
-353.537	16.094	-0.135	-0.106
-352.523	-39.095	0.388	0.204
-351.508	291.809	-0.173	-0.314
-350.493	-200.000	-0.006	-0.063
-349.479	-153.530	0.221	-0.015
-348.464	-91.046	0.311	0.089
-347.450	14.283	0.179	-0.140
-346.435	-46.442	0.157	-0.077
-345.420	-31.805	0.336	0.188
-344.406	-54.239	-0.143	-0.065
-343.391	-126.940	0.233	-0.034
-342.377	-12.067	-0.242	0.159
-341.362	-147.429	0.226	-0.019
-340.348	195.899	0.072	-0.110
-339.333	193.702	0.120	-0.181
-338.318	426.908	0.137	-0.295
-337.304	-7.256	-0.241	-0.163
-336.289	-21.243	-0.149	0.091
-335.275	-16.914	-0.161	-0.102
-334.260	-148.946	0.457	-0.037
-333.245	7.084	0.099	-0.074
-332.231	-200.000	0.034	0.196
-331.216	-200.000	-0.001	-0.007
-330.202	-145.828	0.200	0.018
-329.187	-5.947	0.043	0.030
-328.172	60.996	0.294	0.292
-327.158	-63.516	-0.128	0.053
-326.143	97.789	0.133	0.153
-325.129	232.920	0.201	-0.330
-324.114	338.790	-0.015	-0.028
-323.099	6.899	-0.114	0.085
-322.085	-185.924	0.384	-0.006
-321.070	-200.000	0.006	-0.149
-320.056	193.882	-0.201	-0.305
-319.041	-200.000	-0.012	-0.201
-318.026	-45.803	-0.260	-0.128
-317.012	-36.177	0.105	0.056
-315.997	800.000	0.038	0.119
-314.983	-106.409	-0.180	-0.040
-313.968	-200.000	-0.035	-0.380
-312.953	-41.507	0.375	0.193
-311.939	-36.758	-0.109	0.058
-310.924	-143.298	0.123	-0.012
-309.910	376.208	0.143	0.292
-308.895	179.721	0.177	-0.259
-307.880	800.000	-0.037	0.137
-306.866	-200.000	0.014	-0.133
-305.851	-90.868	0.233	0.067
-304.837	232.132	0.140	0.229
-303.822	-124.384	-0.097	-0.015
-302.807	-95.523	-0.083	-0.022
-301.793	-55.101	0.356	0.160
-300.778	-200.000	0.010	0.326
-299.764	419.755	0.135	-0.289
-298.749	64.011	-0.215	0.216
-297.735	35.777	-0.440	0.386
-296.720	-200.000	-0.028	0.216
-295.705	-34.412	0.345	0.189
-294.691	-84.564	-0.266	0.084
-293.676	84.235	-0.169	0.184
-292.662	-40.577	0.279	0.144
-291.647	-161.093	0.100	-0.005
-290.632	424.566	-0.079	-0.170
-289.618	-113.452	-0.191	-0.037
-288.603	447.820	-0.068	0.149
-287.589	800.000	-0.159	0.486
-286.574	-161.158	-0.271	0.014
-285.559	-68.583	-0.292	0.113
-284.545	-108.273	-0.144	-0.031
-283.530	-41.698	0.060	0.031
-282.516	-71.073	-0.157	0.059
-281.501	319.754	-0.169	-0.320
-280.486	-200.000	-0.010	-0.155
-279.472	-78.093	-0.187	0.064
-278.457	800.000	0.077	0.314
-277.443	-200.000	-0.026	0.217
-276.428	-54.815	-0.042	0.019
-275.413	-200.000	0.030	0.340
-274.399	155.804	0.117	0.160
-273.384	-1.587	-0.199	0.140
-272.370	-68.645	-0.380	0.147
-271.355	194.294	0.124	-0.187
-270.340	628.815	-0.051	-0.128
-269.326	9.215	-0.028	-0.021
-268.311	-147.062	-0.200	0.017
-267.297	-200.000	0.011	-0.097
-266.282	499.834	0.167	-0.384
-265.267	-167.417	-0.302	-0.012
-264.253	800.000	-0.070	-0.212
-263.238	-200.000	0.020	-0.153
-262.224	-1.232	-0.066	0.046
-261.209	602.317	0.135	-0.333
-260.195	57.216	-0.277	-0.269
-259.180	-16.252	0.097	-0.061
-258.165	-93.202	0.192	0.053
-257.151	4.906	-0.203	0.149
-256.136	69.659	0.091	0.093
-255.122	-100.970	-0.210	0.051
-254.107	-93.350	0.104	0.029
-253.092	-81.463	0.096	0.031
-252.078	-56.266	0.053	0.023
-251.063	800.000	0.034	-0.132
-250.049	-62.019	0.359	0.149
-249.034	24.579	-0.042	0.035
-248.019	-77.745	0.224	-0.077
-247.005	-43.509	-0.326	-0.164
-245.990	-64.375	-0.176	0.071
-244.976	565.544	0.085	-0.205
-243.961	-73.171	-0.107	0.039
-242.946	44.361	-0.072	-0.066
-241.932	-51.896	-0.329	0.153
-240.917	123.964	0.229	-0.286
-239.903	-46.821	-0.276	0.134
-238.888	287.762	-0.157	0.284
-237.873	-152.877	-0.185	0.013
-236.859	-108.256	0.032	0.007
-235.844	-200.000	0.147	0.001
-234.830	23.407	0.257	-0.210
-233.815	-135.107	0.077	0.009
-232.800	800.000	-0.015	-0.053
-231.786	440.828	-0.048	0.104
-230.771	800.000	0.059	0.182
-229.757	334.217	-0.167	0.323
-228.742	800.000	-0.051	0.141
-227.727	-15.877	-0.353	-0.224
-226.713	66.618	-0.127	0.128
-225.698	131.070	-0.135	-0.172
-224.684	-47.587	-0.136	0.066
-223.669	-39.422	0.173	0.091
-222.655	294.894	0.176	0.320
-221.640	138.470	0.046	-0.060
-220.625	-136.954	0.167	-0.019
-219.611	-11.722	0.258	0.168
-218.596	-66.447	-0.228	0.090
-217.582	369.379	0.154	0.309
-216.567	112.819	-0.209	0.252
-215.552	11.378	0.307	0.234
-214.538	800.000	-0.027	-0.114
-213.523	223.270	-0.137	-0.219
-212.509	-25.478	-0.241	-0.142
-211.494	-45.692	0.090	0.044
-210.479	-176.161	0.288	0.008
-209.465	-200.000	0.008	0.127
-208.450	15.198	-0.062	-0.048
-207.436	-169.019	-0.056	-0.002
-206.421	-200.000	-0.019	-0.232
-205.406	-3.289	0.310	0.215
-204.392	649.130	0.074	-0.189
-203.377	-6.760	0.304	-0.205
-202.363	4.051	0.245	0.178
-201.348	-76.117	0.255	0.090
-200.333	-200.000	-0.007	0.240
-199.319	-38.147	-0.206	-0.109
-198.304	15.263	-0.154	0.120
-197.290	115.630	-0.188	-0.228
-196.275	56.321	0.270	-0.261
-195.260	257.809	0.208	0.356
-194.246	112.471	-0.300	0.361
-193.231	43.123	0.142	0.129
-192.217	-105.997	0.232	0.052
-191.202	800.000	-0.080	-0.331
-190.187	561.842	0.182	0.437
-189.173	-102.057	-0.116	-0.028
-188.158	-102.647	0.156	0.037
-187.144	-108.291	0.319	-0.068
-186.129	-134.083	0.103	-0.013
-185.114	0.334	0.301	-0.213
-184.100	800.000	-0.026	-0.075
-183.085	-1.485	0.163	0.114
-182.071	-200.000	0.008	-0.048
-181.056	-160.020	-0.189	-0.010
-180.042	58.529	0.180	0.175
-179.027	-200.000	-0.010	0.043
-178.012	800.000	0.089	-0.302
-176.998	-118.264	-0.452	0.080
-175.983	800.000	-0.021	0.087
-174.969	26.596	-0.076	-0.063
-173.954	-127.920	-0.221	-0.032
-172.939	-53.430	0.092	0.042
-171.925	-4.560	-0.319	-0.219
-170.910	800.000	0.057	0.195
-169.896	350.291	0.046	-0.091
-168.881	800.000	-0.056	0.161
-167.866	300.536	0.093	0.171
-166.852	-200.000	0.004	-0.438
-165.837	-18.201	0.213	0.133
-164.823	-112.113	0.099	0.020
-163.808	-200.000	-0.062	0.328
-162.793	-110.433	-0.238	-0.049
-161.779	-21.442	0.112	-0.068
-160.764	-200.000	0.025	-0.379
-159.750	-95.234	0.212	-0.057
-158.735	800.000	-0.063	0.261
-157.720	-118.499	0.287	-0.051
-156.706	-108.338	-0.192	0.041
-155.691	-104.559	0.104	-0.024
-154.677	-55.436	0.089	0.040
-153.662	-123.325	-0.350	-0.056
-152.647	-200.000	0.003	0.050
-151.633	800.000	-0.084	-0.233
-150.618	-200.000	0.025	0.169
-149.604	17.314	0.048	-0.038
-148.589	800.000	-0.031	-0.131
-147.574	236.535	0.182	0.299
-146.560	-132.360	-0.206	-0.026
-145.545	-200.000	0.035	-0.156
-144.531	19.321	-0.353	0.281
-143.516	5.789	0.212	-0.156
-142.502	800.000	-0.033	-0.094
-141.487	-200.000	-0.033	-0.174
-140.472	800.000	-0.130	0.464
-139.458	149.990	0.217	0.292
-138.443	-80.082	0.048	0.016
-137.429	-147.596	0.214	-0.018
-136.414	-100.827	-0.033	0.008
-135.399	33.046	0.283	0.244
-134.385	98.833	-0.287	-0.328
-133.370	311.195	-0.194	-0.360
-132.356	559.184	-0.048	0.115
-131.341	63.584	-0.181	0.180
-130.326	41.246	-0.175	-0.157
-129.312	800.000	0.122	-0.360
-128.297	-73.546	-0.089	0.032
-127.283	41.438	0.209	-0.187
-126.268	4.159	-0.402	-0.292
-125.253	-73.872	0.150	0.054
-124.239	-91.508	0.153	0.043
-123.224	291.198	0.154	-0.277
-122.210	-6.645	-0.112	0.076
-121.195	278.143	-0.030	0.054
