DTS Sentinel unit serial number:	SN413079Multiplexer serial number:	ORYXHardware model number:	OX4-SRSoftware version number:	ORYX F/W v4.00 Oryx Data Collector v3.7.2.0data status	okinstallation	princeton_trtdifferential loss correction	single-endedforward channel	channel 1reverse channel	N/Adate	2019/09/13time	03:26:35forward acquisition time	60.00reverse acquisition time	0.00gamma	496.2192k internal	0.2331k external	0.2331temperature offset calibration	1.0161default loss term (dB/km)	0.3790temperature slope calibration	1.0000multiplexer offset coefficient	1.0000multiplexer slope coefficient	1.0000fibre end	0.00T internal ref (°C)	27.31T ext. ref 1 (°C)	4.09T ext. ref 2 (°C)	21.83length (m)	temperature (°C)	Stokes	anti-Stokes-747.200	-87.191	-0.073	-0.022
-746.185	-67.511	-0.243	-0.096
-745.171	354.145	0.078	-0.155
-744.156	-180.197	-0.275	-0.006
-743.142	-200.000	-0.080	0.363
-742.127	-22.812	-0.393	0.239
-741.112	-200.000	-0.000	-0.015
-740.098	-55.977	-0.271	-0.122
-739.083	-200.000	0.068	-0.369
-738.069	-117.693	-0.262	-0.047
-737.054	-149.530	-0.197	-0.016
-736.039	-10.279	-0.526	-0.351
-735.025	70.102	0.018	-0.018
-734.010	800.000	-0.101	-0.345
-732.996	229.097	-0.085	-0.139
-731.981	-93.237	-0.172	-0.048
-730.966	-36.616	0.296	0.160
-729.952	-88.309	0.150	0.045
-728.937	-105.583	-0.386	0.088
-727.923	8.645	0.141	-0.106
-726.908	118.623	0.229	-0.285
-725.894	-200.000	0.003	0.048
-724.879	-84.158	-0.245	-0.078
-723.864	3.422	-0.163	0.120
-722.850	-16.692	-0.253	-0.161
-721.835	-40.106	0.151	-0.079
-720.821	-200.000	-0.001	0.108
-719.806	-127.745	0.231	-0.034
-718.791	-14.907	-0.093	-0.060
-717.777	-19.571	0.233	-0.145
-716.762	477.071	-0.014	0.033
-715.748	-200.000	-0.008	-0.307
-714.733	-19.837	0.227	-0.141
-713.718	115.909	-0.170	-0.209
-712.704	172.533	0.185	-0.268
-711.689	-168.272	-0.196	-0.008
-710.675	1.866	0.282	-0.204
-709.660	-200.000	-0.049	-0.241
-708.645	-200.000	-0.031	-0.369
-707.631	-200.000	0.031	0.145
-706.616	-200.000	0.005	-0.161
-705.602	-40.984	-0.294	-0.153
-704.587	-55.979	0.190	0.085
-703.572	-200.000	-0.418	0.000
-702.558	-200.000	-0.046	-0.360
-701.543	-139.572	0.135	0.014
-700.529	-143.964	0.147	-0.014
-699.514	567.355	0.124	0.302
-698.499	-13.492	-0.045	-0.029
-697.485	800.000	0.025	0.102
-696.470	-69.342	0.242	-0.093
-695.456	-43.635	-0.131	0.066
-694.441	288.853	0.114	-0.208
-693.426	-93.846	-0.247	0.068
-692.412	-80.410	-0.122	-0.041
-691.397	-200.000	0.001	0.135
-690.383	-1.088	0.203	0.144
-689.368	32.503	-0.486	-0.422
-688.354	-200.000	-0.001	-0.020
-687.339	-200.000	0.027	0.174
-686.324	-122.965	-0.223	-0.036
-685.310	800.000	-0.082	0.314
-684.295	-73.024	-0.111	-0.041
-683.281	122.601	-0.132	0.166
-682.266	-117.419	0.224	0.041
-681.251	-116.823	0.454	-0.084
-680.237	-74.024	-0.336	-0.122
-679.222	222.855	-0.185	-0.299
-678.208	-42.347	0.164	-0.084
-677.193	24.353	0.160	-0.133
-676.178	-200.000	0.023	0.281
-675.164	21.517	-0.089	0.073
-674.149	-200.000	-0.029	-0.136
-673.135	-200.000	-0.129	0.639
-672.120	-30.992	0.160	-0.090
-671.105	168.756	0.100	-0.143
-670.091	-61.870	0.134	-0.056
-669.076	1.576	-0.391	-0.283
-668.062	656.072	0.068	-0.176
-667.047	514.506	0.122	0.287
-666.032	34.399	-0.083	0.073
-665.018	-200.000	-0.019	-0.227
-664.003	-74.488	-0.117	-0.042
-662.989	-71.333	-0.282	-0.106
-661.974	109.745	-0.294	-0.354
-660.959	240.571	-0.020	0.033
-659.945	-150.074	-0.488	0.038
-658.930	-45.489	-0.158	0.079
-657.916	123.469	-0.144	-0.181
-656.901	189.290	-0.102	0.153
-655.886	-164.951	-0.148	-0.007
-654.872	800.000	-0.118	0.474
-653.857	-87.994	0.090	-0.027
-652.843	199.569	-0.180	0.276
-651.828	-126.773	0.106	0.016
-650.814	-0.795	-0.233	0.166
-649.799	6.078	-0.183	-0.136
-648.784	-92.209	-0.253	0.072
-647.770	-130.309	0.072	0.010
-646.755	-200.000	0.035	-0.171
-645.741	-92.385	0.084	-0.024
-644.726	-14.142	-0.162	-0.105
-643.711	-77.842	-0.068	-0.024
-642.697	-91.000	0.233	-0.067
-641.682	-200.000	-0.023	0.318
-640.668	-200.000	-0.031	-0.303
-639.653	-33.602	0.371	-0.205
-638.638	-89.813	0.120	-0.035
-637.624	-134.381	-0.305	0.037
-636.609	-48.296	0.280	-0.135
-635.595	-200.000	0.026	-0.138
-634.580	-134.991	0.136	0.016
-633.565	95.650	-0.131	0.150
-632.551	-68.093	-0.236	-0.092
-631.536	-89.945	-0.159	-0.047
-630.522	-22.705	-0.225	0.136
-629.507	-200.000	-0.027	-0.154
-628.492	253.330	0.095	0.162
-627.478	-121.733	-0.062	-0.010
-626.463	-18.636	0.193	0.121
-625.449	800.000	0.026	-0.099
-624.434	-200.000	0.026	-0.134
-623.419	-200.000	-0.084	0.400
-622.405	123.803	0.129	-0.162
-621.390	-200.000	0.051	-0.236
-620.376	-113.911	0.273	0.053
-619.361	-103.816	-0.114	-0.027
-618.346	-110.153	-0.194	-0.041
-617.332	194.400	-0.108	-0.164
-616.317	-200.000	0.027	0.188
-615.303	-200.000	-0.007	0.318
-614.288	64.389	0.098	0.099
-613.273	-39.465	0.063	0.033
-612.259	133.570	0.153	-0.198
-611.244	223.783	-0.109	0.176
-610.230	-70.714	0.131	0.049
-609.215	189.744	0.055	-0.082
-608.201	576.291	-0.028	-0.070
-607.186	44.437	0.038	0.035
-606.171	-200.000	0.025	0.293
-605.157	406.369	0.106	0.224
-604.142	-160.758	-0.233	-0.012
-603.128	-200.000	-0.010	0.176
-602.113	-200.000	0.020	0.200
-601.098	-123.682	0.400	-0.063
-600.084	800.000	-0.031	0.122
-599.069	-50.801	-0.184	-0.087
-598.055	-175.723	-0.114	0.003
-597.040	-200.000	0.004	0.159
-596.025	228.063	-0.188	-0.306
-595.011	16.373	0.165	-0.131
-593.996	67.800	-0.225	-0.230
-592.982	-200.000	-0.010	-0.209
-591.967	800.000	-0.035	0.143
-590.952	226.545	0.116	0.188
-589.938	189.157	0.069	-0.103
-588.923	195.394	-0.117	-0.178
-587.909	446.719	-0.036	-0.079
-586.894	-130.577	0.051	-0.007
-585.879	756.963	-0.070	0.189
-584.865	717.194	0.140	-0.373
-583.850	800.000	-0.073	-0.258
-582.836	-187.294	-0.411	0.006
-581.821	258.150	-0.019	0.033
-580.806	115.146	0.105	-0.128
-579.792	611.507	-0.018	-0.044
-578.777	-200.000	-0.014	-0.241
-577.763	342.033	0.068	0.133
-576.748	800.000	-0.062	0.217
-575.733	800.000	0.103	0.367
-574.719	364.233	-0.089	0.180
-573.704	-22.404	0.091	-0.055
-572.690	-134.256	-0.225	0.028
-571.675	-200.000	0.023	0.178
-570.661	344.420	0.066	-0.130
-569.646	643.565	-0.081	0.205
-568.631	-0.569	-0.158	-0.112
-567.617	418.071	0.101	-0.215
-566.602	-28.879	0.179	-0.103
-565.588	-72.086	0.194	0.072
-564.573	-138.091	0.009	-0.001
-563.558	-200.000	-0.022	-0.122
-562.544	89.259	0.147	0.164
-561.529	-63.806	-0.276	0.113
-560.515	-158.825	0.238	-0.014
-559.500	800.000	0.128	0.396
-558.485	-69.095	-0.078	-0.030
-557.471	2.430	0.103	-0.075
-556.456	155.128	0.031	0.042
-555.442	-13.345	-0.210	0.136
-554.427	357.721	0.099	0.198
-553.412	-85.169	0.279	-0.087
-552.398	-200.000	-0.036	0.240
-551.383	-200.000	0.023	0.176
-550.369	-200.000	-0.001	-0.165
-549.354	50.381	0.366	0.346
-548.339	-60.813	0.052	-0.022
-547.325	-200.000	0.012	-0.311
-546.310	-40.634	0.033	0.017
-545.296	293.680	0.115	-0.209
-544.281	-200.000	-0.019	0.167
-543.266	800.000	0.077	0.246
-542.252	800.000	-0.040	-0.158
-541.237	-120.742	0.432	0.073
-540.223	-4.129	-0.216	-0.150
-539.208	228.573	0.177	-0.288
-538.193	-200.000	0.027	-0.173
-537.179	-67.974	-0.153	-0.060
-536.164	328.377	0.038	-0.073
-535.150	-18.835	-0.204	0.127
-534.135	499.019	0.082	-0.188
-533.121	12.142	-0.165	0.126
-532.106	53.887	-0.186	-0.178
-531.091	-131.441	-0.304	0.040
-530.077	-86.390	-0.100	0.031
-529.062	-47.727	-0.268	-0.129
-528.048	-189.675	-0.111	-0.001
-527.033	-66.664	-0.194	0.077
-526.018	-190.337	-0.402	-0.004
-525.004	-166.467	-0.204	-0.009
-523.989	283.725	-0.104	-0.187
-522.975	-200.000	0.005	0.421
-521.960	-38.047	0.118	0.062
-520.945	-88.279	0.353	-0.105
-519.931	-38.204	-0.046	0.024
-518.916	-117.375	0.212	-0.038
-517.902	-79.617	0.224	0.075
-516.887	48.658	-0.333	-0.311
-515.872	-200.000	0.059	-0.277
-514.858	223.680	0.062	0.099
-513.843	638.496	-0.135	-0.341
-512.829	-200.000	-0.030	-0.159
-511.814	-63.086	-0.464	-0.191
-510.799	202.257	-0.219	0.337
-509.785	-92.409	-0.329	-0.092
-508.770	106.426	0.151	0.179
-507.756	-162.131	-0.049	-0.002
-506.741	800.000	-0.031	-0.102
-505.726	-28.789	-0.059	0.034
-504.712	170.701	-0.015	0.021
-503.697	75.859	0.076	-0.080
-502.683	-200.000	-0.025	0.182
-501.668	-101.754	0.241	0.058
-500.653	74.442	-0.213	-0.223
-499.639	35.384	-0.075	-0.066
-498.624	-92.963	0.354	0.098
-497.610	165.972	-0.110	0.156
-496.595	94.150	-0.319	-0.361
-495.581	800.000	-0.067	-0.216
-494.566	18.018	-0.073	-0.058
-493.551	-95.924	-0.091	-0.024
-492.537	-133.705	0.329	-0.041
-491.522	-90.600	0.250	0.072
-490.508	-163.703	0.169	-0.008
-489.493	-91.596	-0.121	0.034
-488.478	81.750	-0.078	-0.084
-487.464	-7.031	-0.186	0.125
-486.449	-200.000	-0.044	0.333
-485.435	-200.000	0.048	-0.228
-484.420	-200.000	-0.019	0.125
-483.405	-121.588	0.198	-0.033
-482.391	-114.991	-0.283	0.054
-481.376	-131.330	0.545	-0.072
-480.362	-69.514	-0.104	0.040
-479.347	800.000	0.109	-0.338
-478.332	27.775	-0.199	0.167
-477.318	-92.616	-0.086	0.024
-476.303	-93.092	0.356	0.099
-475.289	269.838	0.156	0.273
-474.274	231.037	-0.165	-0.270
-473.259	-200.000	-0.038	0.371
-472.245	-90.087	-0.366	-0.106
-471.230	3.121	-0.091	0.066
-470.216	-48.768	0.216	0.103
-469.201	360.615	0.061	0.121
-468.186	-60.999	-0.087	0.037
-467.172	92.478	-0.275	0.309
-466.157	800.000	0.052	-0.197
-465.143	148.259	-0.048	-0.064
-464.128	-48.537	-0.158	-0.076
-463.113	-141.411	-0.060	0.006
-462.099	-168.329	-0.272	-0.010
-461.084	-106.056	-0.287	-0.064
-460.070	-1.452	0.313	-0.220
-459.055	-200.000	-0.037	-0.294
-458.040	-38.571	0.232	-0.122
-457.026	-127.541	-0.069	-0.010
-456.011	61.716	0.123	-0.122
-454.997	-112.737	-0.106	-0.021
-453.982	583.335	0.063	-0.153
-452.968	-82.102	0.328	0.106
-451.953	-2.485	-0.118	0.082
-450.938	163.035	0.183	-0.256
-449.924	45.695	-0.303	-0.278
-448.909	-52.273	-0.217	0.100
-447.895	-200.000	0.026	0.171
-446.880	30.155	-0.264	0.224
-445.865	-135.889	0.251	0.029
-444.851	-200.000	0.000	-0.205
-443.836	355.463	-0.092	0.183
-442.822	800.000	0.092	-0.283
-441.807	31.877	-0.144	0.123
-440.792	47.847	0.119	-0.111
-439.778	-132.916	-0.181	0.023
-438.763	61.320	0.309	0.306
-437.749	-52.381	-0.499	-0.230
-436.734	628.372	-0.049	-0.124
-435.719	-122.859	-0.225	-0.036
-434.705	-200.000	-0.031	-0.182
-433.690	192.690	-0.036	0.055
-432.676	-200.000	0.034	-0.151
-431.661	-56.263	0.366	-0.162
-430.646	116.088	-0.305	-0.371
-429.632	55.837	-0.042	0.040
-428.617	264.742	-0.118	0.205
-427.603	-69.848	-0.142	-0.054
-426.588	-200.000	-0.025	-0.259
-425.573	-88.003	0.512	-0.153
-424.559	-200.000	0.016	-0.194
-423.544	-200.000	0.005	0.146
-422.530	-122.924	0.140	0.022
-421.515	379.715	-0.127	0.259
-420.500	-200.000	-0.007	-0.124
-419.486	-120.906	0.135	0.023
-418.471	800.000	0.112	0.360
-417.457	-200.000	-0.017	0.153
-416.442	-71.220	-0.247	0.092
-415.428	-68.496	-0.240	-0.093
-414.413	-113.055	-0.110	-0.022
-413.398	-15.087	0.026	-0.017
-412.384	-200.000	-0.045	-0.228
-411.369	316.992	0.084	-0.159
-410.355	157.890	-0.124	-0.171
-409.340	55.714	0.157	-0.151
-408.325	-200.000	-0.019	-0.233
-407.311	126.165	0.208	-0.261
-406.296	55.698	-0.167	-0.160
-405.282	233.466	-0.060	-0.098
-404.267	141.785	-0.137	0.181
-403.252	800.000	0.096	-0.297
-402.238	-82.079	-0.205	-0.066
-401.223	13.977	-0.154	0.119
-400.209	119.464	0.140	0.171
-399.194	-200.000	-0.006	0.304
-398.179	183.627	0.083	-0.122
-397.165	-100.492	0.169	-0.041
-396.150	12.846	0.325	0.249
-395.136	-128.301	0.535	0.076
-394.121	-73.337	-0.365	0.132
-393.106	-186.104	-0.105	-0.002
-392.092	173.616	0.151	0.217
-391.077	-108.797	0.167	-0.035
-390.063	550.879	0.033	-0.077
-389.048	-200.000	-0.016	-0.206
-388.033	-117.441	0.133	-0.024
-387.019	438.916	0.070	-0.151
-386.004	-148.293	0.299	-0.024
-384.990	-158.617	0.103	0.006
-383.975	35.226	-0.167	0.145
-382.960	-2.701	0.235	0.163
-381.946	-43.005	-0.292	0.147
-380.931	0.834	0.256	0.182
-379.917	-200.000	-0.037	0.179
-378.902	-81.544	-0.054	0.018
-377.888	-45.493	0.165	-0.081
-376.873	-176.407	0.325	-0.008
-375.858	-176.273	0.106	-0.003
-374.844	-18.591	0.162	0.100
-373.829	146.102	-0.165	-0.220
-372.815	-200.000	0.017	-0.237
-371.800	83.832	0.058	0.063
-370.785	101.098	-0.035	0.041
-369.771	-170.085	-0.082	-0.003
-368.756	-93.297	-0.079	0.022
-367.742	-92.172	-0.141	0.039
-366.727	-200.000	-0.007	0.084
-365.712	-200.000	0.045	-0.256
-364.698	201.278	0.066	-0.100
-363.683	-48.106	-0.226	0.108
-362.669	0.805	-0.165	0.117
-361.654	-49.942	0.105	0.049
-360.639	85.942	0.255	0.278
-359.625	-200.000	-0.007	0.085
-358.610	-200.000	0.039	-0.282
-357.596	-173.625	0.228	-0.007
-356.581	-126.084	-0.122	0.018
-355.566	800.000	0.052	0.185
-354.552	391.801	0.079	0.164
-353.537	145.092	-0.244	0.323
-352.523	-200.000	0.029	0.176
-351.508	-91.734	0.095	0.027
-350.493	122.128	-0.234	-0.290
-349.479	-51.405	0.321	-0.148
-348.464	248.915	0.098	0.164
-347.450	-40.530	-0.208	0.107
-346.435	-200.000	0.008	-0.149
-345.420	70.564	0.250	-0.256
-344.406	-84.295	-0.133	0.042
-343.391	-200.000	-0.004	-0.120
-342.377	-200.000	0.033	-0.218
-341.362	-106.609	0.237	-0.052
-340.348	-33.892	0.120	0.065
-339.333	-76.506	0.107	-0.037
-338.318	800.000	-0.009	-0.035
-337.304	-97.423	0.441	-0.114
-336.289	5.880	0.230	0.168
-335.275	-86.170	0.031	0.010
-334.260	800.000	0.024	-0.072
-333.245	-36.244	0.013	-0.007
-332.231	-111.484	0.202	0.041
-331.216	800.000	-0.020	-0.055
-330.202	-200.000	0.009	-0.185
-329.187	65.811	0.314	0.315
-328.172	-57.480	-0.175	-0.076
-327.158	-200.000	0.015	-0.300
-326.143	-31.148	0.191	0.106
-325.129	322.667	0.098	-0.185
-324.114	-10.592	0.222	0.145
-323.099	-127.436	0.059	0.009
-322.085	334.262	0.151	0.289
-321.070	800.000	0.071	0.293
-320.056	-200.000	-0.011	0.063
-319.041	-7.101	-0.308	-0.207
-318.026	103.654	-0.069	0.081
-317.012	42.000	0.050	0.045
-315.997	129.879	0.205	0.260
-314.983	23.599	0.047	-0.038
-313.968	-200.000	-0.396	0.001
-312.953	-108.783	-0.060	-0.013
-311.939	-200.000	0.010	0.137
-310.924	-84.658	0.234	-0.073
-309.910	-200.000	-0.005	0.424
-308.895	-200.000	-0.015	0.126
-307.880	-200.000	0.053	-0.407
-306.866	56.541	-0.175	0.168
-305.851	-124.553	0.084	0.013
-304.837	238.668	0.081	0.134
-303.822	-200.000	-0.035	0.276
-302.807	-101.683	-0.109	-0.026
-301.793	150.988	-0.225	-0.303
-300.778	9.046	-0.008	-0.006
-299.764	717.054	-0.111	0.292
-298.749	-200.000	0.009	-0.097
-297.735	20.834	0.263	-0.211
-296.720	-82.234	0.094	-0.030
-295.705	483.076	-0.126	0.284
-294.691	800.000	-0.031	0.086
-293.676	24.039	-0.060	-0.049
-292.662	-29.632	-0.321	0.181
-291.647	-78.300	-0.387	0.131
-290.632	-4.163	0.177	0.121
-289.618	-200.000	-0.017	-0.204
-288.603	396.601	-0.056	0.116
-287.589	-174.316	-0.092	0.003
-286.574	-200.000	0.026	0.138
-285.559	-200.000	-0.020	-0.330
-284.545	-162.181	0.235	0.012
-283.530	-73.862	0.264	0.095
-282.516	-135.906	-0.304	0.035
-281.501	800.000	0.145	-0.403
-280.486	20.599	0.398	-0.318
-279.472	35.723	-0.271	-0.236
-278.457	482.843	0.199	0.448
-277.443	800.000	-0.031	-0.099
-276.428	-20.485	-0.142	0.086
-275.413	-200.000	0.024	0.146
-274.399	-123.274	0.253	0.040
-273.384	-160.160	-0.345	0.019
-272.370	-200.000	0.028	0.174
-271.355	322.741	0.189	-0.355
-270.340	293.028	-0.134	0.242
-269.326	-99.855	-0.324	0.080
-268.311	-22.352	-0.095	-0.057
-267.297	-123.513	-0.111	-0.017
-266.282	-200.000	-0.005	-0.122
-265.267	245.368	-0.047	0.077
-264.253	-65.772	-0.354	-0.140
-263.238	80.323	0.148	0.157
-262.224	33.440	-0.067	0.058
-261.209	800.000	-0.072	-0.222
-260.195	-15.894	0.270	0.170
-259.180	227.805	-0.126	-0.202
-258.165	-110.814	-0.256	0.052
-257.151	800.000	-0.064	-0.259
-256.136	52.529	-0.433	-0.408
-255.122	106.970	0.118	0.138
-254.107	-45.043	0.271	0.133
-253.092	114.978	0.081	0.098
-252.078	800.000	0.103	0.375
-251.063	800.000	-0.069	0.260
-250.049	-77.353	-0.137	-0.047
-249.034	800.000	-0.039	-0.132
-248.019	282.030	-0.132	0.234
-247.005	-115.945	-0.264	-0.049
-245.990	241.041	-0.119	0.196
-244.976	-59.424	-0.135	0.057
-243.961	-200.000	-0.000	0.079
-242.946	-98.074	0.190	0.048
-241.932	-200.000	-0.019	0.220
-240.917	-10.900	0.126	0.082
-239.903	-167.620	-0.410	0.016
-238.888	-42.693	-0.287	0.144
-237.873	-33.717	0.480	-0.261
-236.859	-107.856	-0.397	0.085
-235.844	-42.860	-0.077	-0.039
-234.830	-175.693	0.110	0.003
-233.815	252.693	-0.088	0.148
-232.800	128.560	0.216	0.272
-231.786	-64.542	-0.051	-0.021
-230.771	-91.589	-0.263	-0.074
-229.757	-75.856	-0.084	0.029
-228.742	-80.445	-0.359	-0.118
-227.727	-200.000	-0.043	0.236
-226.713	65.885	-0.173	0.173
-225.698	619.012	0.125	-0.308
-224.684	350.455	0.073	-0.143
-223.669	-52.137	0.388	-0.177
-222.655	398.442	0.125	0.258
-221.640	-13.091	0.293	0.188
-220.625	-200.000	-0.027	0.212
-219.611	267.431	0.061	-0.105
-218.596	611.047	-0.135	0.334
-217.582	253.635	-0.083	-0.139
-216.567	105.661	-0.352	-0.410
-215.552	65.458	-0.092	0.092
-214.538	17.589	-0.209	-0.164
-213.523	-102.800	0.115	-0.027
-212.509	0.348	0.091	0.064
-211.494	800.000	0.050	-0.184
-210.479	-103.059	0.200	-0.047
-209.465	-200.000	0.078	0.478
-208.450	192.659	0.072	-0.107
-207.436	203.825	0.090	0.137
-206.421	800.000	-0.076	0.318
-205.406	-170.694	0.234	-0.008
-204.392	27.332	0.080	-0.066
-203.377	505.359	-0.134	0.306
-202.363	-31.846	0.069	0.038
-201.348	800.000	-0.044	-0.129
-200.333	-48.993	0.398	-0.188
-199.319	-200.000	-0.000	0.136
-198.304	-200.000	0.054	-0.278
-197.290	800.000	-0.077	0.234
-196.275	-143.946	-0.193	0.018
-195.260	800.000	0.088	-0.356
-194.246	361.156	0.199	0.393
-193.231	-31.529	0.165	0.091
-192.217	800.000	-0.095	-0.326
-191.202	-107.866	-0.435	0.093
-190.187	151.538	0.263	0.352
-189.173	71.988	0.112	-0.115
-188.158	465.758	-0.045	0.099
-187.144	-200.000	-0.006	-0.088
-186.129	2.062	-0.160	-0.114
-185.114	204.099	0.121	-0.185
-184.100	-200.000	-0.036	-0.194
-183.085	-13.638	0.267	-0.170
-182.071	-45.445	0.101	-0.049
-181.056	-200.000	0.028	0.176
-180.042	800.000	0.118	0.357
-179.027	-192.158	0.259	0.002
-178.012	-146.652	0.100	0.009
-176.998	50.977	0.227	-0.211
-175.983	-86.306	-0.221	0.067
-174.969	560.848	-0.088	-0.209
-173.954	424.259	0.122	-0.259
-172.939	356.145	0.161	0.315
-171.925	-108.939	0.434	0.091
-170.910	56.930	-0.081	-0.077
-169.896	-30.924	-0.376	-0.209
-168.881	-200.000	-0.015	-0.148
-167.866	30.635	0.259	-0.218
-166.852	315.975	0.190	0.353
-165.837	-30.407	0.069	0.039
-164.823	18.844	0.147	0.116
-163.808	249.046	0.124	-0.206
-162.793	-168.101	-0.300	0.011
-161.779	-113.036	-0.326	-0.063
-160.764	128.543	0.108	0.135
-159.750	-200.000	-0.015	0.142
-158.735	-64.454	-0.196	0.078
-157.720	-103.845	0.157	0.036
-156.706	-29.365	0.163	-0.092
-155.691	-200.000	-0.015	-0.163
-154.677	46.660	-0.166	-0.152
-153.662	-29.164	-0.237	-0.134
-152.647	-39.066	-0.129	0.067
-151.633	140.781	-0.051	0.067
-150.618	-42.859	0.276	0.138
-149.604	5.989	0.203	0.148
-148.589	-200.000	-0.034	-0.237
-147.574	189.744	0.043	-0.063
-146.560	21.604	0.170	-0.136
-145.545	-149.212	-0.186	-0.015
-144.531	103.802	-0.092	-0.106
-143.516	-61.592	-0.124	0.051
-142.502	78.823	0.165	-0.174
-141.487	800.000	-0.049	0.189
-140.472	-28.536	0.059	-0.034
-139.458	800.000	0.083	0.309
-138.443	359.230	0.153	0.301
-137.429	379.872	0.198	0.400
-136.414	44.209	-0.117	-0.105
-135.399	391.532	0.062	-0.128
-134.385	-200.000	0.002	-0.187
-133.370	800.000	-0.089	-0.369
-132.356	54.129	-0.093	-0.088
-131.341	-68.947	0.287	-0.109
-130.326	146.368	0.005	-0.006
-129.312	212.598	0.057	-0.089
-128.297	80.513	-0.137	0.144
-127.283	-200.000	-0.015	0.259
-126.268	-161.030	0.436	0.022
-125.253	263.432	0.046	0.079
-124.239	255.795	0.153	0.258
-123.224	24.295	-0.336	-0.273
