DTS Sentinel unit serial number:	SN413079Multiplexer serial number:	ORYXHardware model number:	OX4-SRSoftware version number:	ORYX F/W v4.00 Oryx Data Collector v3.7.2.0data status	okinstallation	princeton_trtdifferential loss correction	single-endedforward channel	channel 1reverse channel	N/Adate	2019/09/17time	15:22:35forward acquisition time	60.00reverse acquisition time	0.00gamma	496.2192k internal	0.2294k external	0.2294temperature offset calibration	0.9966default loss term (dB/km)	0.3790temperature slope calibration	1.0000multiplexer offset coefficient	1.0000multiplexer slope coefficient	1.0000fibre end	0.00T internal ref (°C)	38.03T ext. ref 1 (°C)	0.38T ext. ref 2 (°C)	35.07length (m)	temperature (°C)	Stokes	anti-Stokes-747.200	78.034	-0.074	-0.081
-746.185	-200.000	-0.024	0.382
-745.171	800.000	0.078	0.297
-744.156	702.587	0.128	0.345
-743.142	800.000	-0.044	-0.193
-742.127	-136.564	-0.216	0.026
-741.112	-80.657	-0.097	-0.033
-740.098	-180.023	-0.075	0.002
-739.083	166.581	0.123	0.178
-738.069	333.487	-0.196	0.388
-737.054	61.252	-0.034	0.035
-736.039	-106.982	-0.209	-0.047
-735.025	-139.518	0.211	0.023
-734.010	163.170	-0.106	-0.152
-732.996	237.614	-0.212	-0.359
-731.981	298.800	-0.147	-0.277
-730.966	800.000	-0.107	-0.328
-729.952	-27.564	-0.296	0.176
-728.937	800.000	-0.058	-0.222
-727.923	4.474	0.209	-0.157
-726.908	18.964	-0.030	-0.024
-725.894	-200.000	-0.006	-0.093
-724.879	163.615	-0.110	-0.158
-723.864	-158.080	0.151	-0.009
-722.850	-72.964	-0.167	-0.063
-721.835	-171.759	-0.341	-0.011
-720.821	-93.617	-0.372	-0.105
-719.806	800.000	0.021	0.068
-718.791	-119.130	0.222	0.040
-717.777	-105.708	0.256	-0.059
-716.762	64.563	-0.227	-0.233
-715.748	-200.000	0.020	-0.194
-714.733	97.369	0.096	0.112
-713.718	-80.756	-0.305	-0.104
-712.704	107.278	0.106	0.129
-711.689	302.670	-0.118	0.224
-710.675	-193.725	-0.240	-0.002
-709.660	73.576	0.174	0.186
-708.645	376.842	-0.134	0.279
-707.631	-24.466	0.059	0.036
-706.616	48.757	-0.093	-0.089
-705.602	-200.000	-0.013	-0.161
-704.587	580.007	0.072	-0.181
-703.572	-107.719	-0.115	0.026
-702.558	375.684	-0.073	-0.151
-701.543	196.871	0.067	0.104
-700.529	-172.414	-0.160	-0.005
-699.514	8.933	0.223	0.171
-698.499	19.067	-0.204	0.167
-697.485	-200.000	-0.016	-0.189
-696.470	-200.000	0.000	-0.258
-695.456	-89.923	-0.184	0.055
-694.441	62.439	-0.134	-0.137
-693.426	-95.045	-0.355	-0.098
-692.412	79.139	-0.128	0.140
-691.397	-4.851	-0.151	-0.106
-690.383	252.742	0.068	-0.118
-689.368	800.000	0.057	-0.172
-688.354	-200.000	0.029	0.360
-687.339	477.696	0.129	0.299
-686.324	-25.717	0.135	-0.081
-685.310	20.322	-0.143	-0.118
-684.295	-147.606	-0.168	-0.014
-683.281	-32.173	-0.208	0.118
-682.266	-63.055	0.259	-0.109
-681.251	-53.511	0.176	0.082
-680.237	800.000	-0.077	-0.329
-679.222	267.715	-0.109	-0.195
-678.208	800.000	-0.018	-0.067
-677.193	-130.768	-0.134	-0.018
-676.178	-65.078	0.043	0.018
-675.164	210.233	0.063	-0.101
-674.149	-122.849	-0.279	-0.046
-673.135	131.088	0.253	-0.331
-672.120	-166.337	-0.194	-0.008
-671.105	-155.483	-0.208	-0.014
-670.091	565.253	-0.147	0.362
-669.076	-8.210	-0.179	-0.123
-668.062	484.892	-0.041	0.096
-667.047	-200.000	-0.028	0.187
-666.032	304.269	0.025	0.047
-665.018	-34.074	-0.189	-0.106
-664.003	42.681	0.154	0.143
-662.989	-37.598	0.155	-0.084
-661.974	-200.000	0.044	0.331
-660.959	798.732	0.040	0.111
-659.945	49.591	0.235	-0.226
-658.930	-200.000	-0.286	0.000
-657.916	-200.000	-0.033	0.180
-656.901	-35.571	0.071	0.039
-655.886	34.040	-0.312	-0.277
-654.872	-5.877	-0.099	-0.069
-653.857	211.816	-0.166	0.267
-652.843	-173.056	-0.090	0.003
-651.828	351.629	0.224	0.451
-650.814	-200.000	0.001	-0.264
-649.799	-184.240	-0.282	-0.005
-648.784	800.000	0.031	-0.090
-647.770	800.000	0.048	0.138
-646.755	487.096	0.011	0.025
-645.741	39.103	0.163	-0.148
-644.726	224.359	0.088	0.145
-643.711	-133.387	0.292	0.037
-642.697	356.863	-0.087	-0.177
-641.682	2.022	-0.221	-0.162
-640.668	154.958	-0.049	0.069
-639.653	-75.616	0.238	0.086
-638.638	-200.000	0.004	-0.090
-637.624	254.931	0.120	-0.209
-636.609	-34.406	0.110	0.061
-635.595	-200.000	0.007	-0.041
-634.580	-162.645	0.300	-0.015
-633.565	292.155	0.067	0.124
-632.551	800.000	0.095	0.378
-631.536	82.154	-0.034	0.037
-630.522	74.468	-0.201	0.216
-629.507	800.000	0.059	0.182
-628.492	87.323	0.099	-0.111
-627.478	-100.005	-0.185	0.047
-626.463	800.000	-0.030	-0.102
-625.449	167.919	0.265	-0.384
-624.434	-136.049	-0.204	0.024
-623.419	-200.000	-0.085	0.404
-622.405	-200.000	-0.075	-0.395
-621.390	391.126	0.069	-0.147
-620.376	2.680	-0.020	-0.015
-619.361	-200.000	0.020	0.162
-618.346	392.246	-0.064	0.136
-617.332	76.852	-0.108	-0.117
-616.317	-81.336	0.101	0.034
-615.303	800.000	0.037	-0.118
-614.288	-200.000	-0.014	-0.188
-613.273	615.894	-0.106	-0.270
-612.259	385.210	-0.133	0.279
-611.244	511.043	0.062	-0.146
-610.230	6.093	0.299	-0.225
-609.215	-156.949	-0.277	0.017
-608.201	-16.709	-0.292	0.188
-607.186	-200.000	-0.066	0.533
-606.171	-63.229	-0.343	-0.144
-605.157	28.556	-0.035	-0.030
-604.142	52.570	-0.174	-0.169
-603.128	171.729	0.264	-0.386
-602.113	-165.734	0.041	-0.002
-601.098	-200.000	-0.018	-0.106
-600.084	800.000	-0.113	-0.421
-599.069	179.333	0.093	-0.138
-598.055	-18.258	-0.052	-0.033
-597.040	800.000	0.046	0.174
-596.025	800.000	-0.095	0.402
-595.011	511.911	-0.042	0.100
-593.996	-163.721	-0.211	-0.010
-592.982	52.122	-0.154	0.150
-591.967	-61.961	0.193	-0.082
-590.952	-146.426	0.162	-0.014
-589.938	-144.167	-0.078	-0.007
-588.923	-112.885	-0.291	0.059
-587.909	-200.000	-0.015	-0.167
-586.894	73.717	-0.118	-0.125
-585.879	640.995	-0.029	0.076
-584.865	-200.000	-0.078	-0.380
-583.850	-200.000	0.086	-0.411
-582.836	-53.735	0.115	-0.053
-581.821	-159.227	-0.174	0.010
-580.806	117.696	0.088	0.110
-579.792	-110.772	0.115	0.024
-578.777	-136.501	-0.096	-0.011
-577.763	334.920	0.079	-0.156
-576.748	800.000	0.011	-0.045
-575.733	800.000	-0.016	0.058
-574.719	440.621	-0.164	0.364
-573.704	48.657	0.325	-0.310
-572.690	800.000	0.033	-0.143
-571.675	-200.000	-0.008	0.331
-570.661	-71.923	0.292	-0.110
-569.646	-87.737	0.533	-0.163
-568.631	-9.885	-0.213	0.144
-567.617	-200.000	-0.062	0.323
-566.602	-200.000	-0.014	-0.137
-565.588	-40.021	0.119	0.063
-564.573	800.000	-0.002	-0.009
-563.558	-153.332	-0.208	0.015
-562.544	-71.194	-0.372	0.142
-561.529	25.208	-0.123	-0.104
-560.515	390.874	-0.057	0.120
-559.500	306.193	-0.095	-0.180
-558.485	27.130	0.032	0.027
-557.471	74.359	0.088	0.094
-556.456	23.868	0.170	-0.142
-555.442	-42.712	0.135	-0.070
-554.427	-61.294	0.170	0.072
-553.412	800.000	0.011	-0.041
-552.398	800.000	0.057	0.208
-551.383	-1.359	-0.035	0.025
-550.369	503.172	-0.110	-0.258
-549.354	625.679	0.069	-0.177
-548.339	126.601	-0.165	0.212
-547.325	-200.000	-0.012	0.160
-546.310	-55.141	-0.296	0.135
-545.296	60.956	-0.072	0.073
-544.281	-174.022	0.334	-0.010
-543.266	-129.842	0.120	0.017
-542.252	522.936	-0.093	-0.221
-541.237	114.797	-0.095	-0.117
-540.223	-88.895	-0.461	-0.139
-539.208	424.449	0.138	-0.302
-538.193	14.433	-0.221	0.175
-537.179	-50.473	0.011	-0.006
-536.164	-153.050	0.341	0.024
-535.150	-42.812	0.157	-0.081
-534.135	-200.000	-0.007	-0.218
-533.121	65.673	-0.083	0.085
-532.106	40.318	0.074	0.068
-531.091	-118.021	-0.381	0.069
-530.077	271.131	0.087	0.156
-529.062	10.731	-0.068	-0.053
-528.048	0.551	0.062	0.045
-527.033	64.569	0.111	-0.113
-526.018	800.000	0.078	0.280
-525.004	365.675	0.159	0.324
-523.989	-25.388	0.196	-0.118
-522.975	214.905	-0.141	0.226
-521.960	139.557	0.122	0.162
-520.945	168.257	0.127	0.184
-519.931	-44.625	-0.123	0.062
-518.916	-200.000	0.022	0.135
-517.902	-46.960	-0.268	0.133
-516.887	62.071	0.175	-0.177
-515.872	-200.000	-0.020	-0.172
-514.858	-140.797	0.263	0.027
-513.843	-200.000	0.014	-0.149
-512.829	800.000	-0.082	-0.260
-511.814	-84.800	0.039	0.012
-510.799	679.943	-0.062	-0.163
-509.785	122.724	0.155	-0.196
-508.770	-200.000	-0.058	0.374
-507.756	299.412	-0.092	-0.172
-506.741	-200.000	0.011	0.123
-505.726	21.096	0.196	0.161
-504.712	-200.000	0.019	-0.164
-503.697	291.516	0.223	0.411
-502.683	-200.000	-0.043	0.321
-501.668	84.741	-0.092	-0.102
-500.653	-200.000	-0.003	0.419
-499.639	-200.000	0.007	-0.069
-498.624	-184.264	-0.196	-0.003
-497.610	56.373	0.225	0.222
-496.595	103.881	-0.016	-0.019
-495.581	-200.000	0.014	-0.241
-494.566	142.042	0.124	0.166
-493.551	800.000	-0.023	-0.093
-492.537	-141.443	-0.264	-0.027
-491.522	48.421	0.211	0.200
-490.508	-200.000	-0.030	-0.188
-489.493	-35.735	0.057	0.031
-488.478	-200.000	0.065	-0.451
-487.464	-157.759	-0.143	-0.009
-486.449	-200.000	0.045	0.375
-485.435	-200.000	0.053	0.578
-484.420	245.981	-0.044	0.076
-483.405	-17.646	0.110	-0.070
-482.391	-90.730	-0.097	-0.028
-481.376	-200.000	0.030	-0.176
-480.362	-63.534	-0.057	-0.024
-479.347	-200.000	-0.062	0.317
-478.332	168.733	0.164	0.236
-477.318	-58.033	0.132	-0.058
-476.303	-200.000	0.014	-0.114
-475.289	-83.261	0.212	-0.069
-474.274	109.053	-0.065	-0.078
-473.259	-108.798	-0.134	-0.029
-472.245	-143.762	-0.172	0.016
-471.230	236.088	-0.122	0.204
-470.216	147.220	-0.120	0.163
-469.201	56.725	0.114	0.112
-468.186	259.650	0.078	0.137
-467.172	-11.230	0.321	-0.214
-466.157	-146.958	0.287	-0.025
-465.143	597.172	0.071	-0.178
-464.128	105.870	-0.078	-0.093
-463.113	-15.081	-0.020	0.013
-462.099	185.728	-0.103	0.154
-461.084	-49.480	-0.076	0.037
-460.070	112.602	-0.166	0.204
-459.055	-158.315	0.179	-0.011
-458.040	13.147	-0.126	-0.099
-457.026	-200.000	0.083	-0.537
-456.011	43.210	-0.194	-0.179
-454.997	-27.723	0.202	0.118
-453.982	438.190	0.216	0.475
-452.968	240.604	-0.096	0.161
-451.953	-69.467	0.145	-0.056
-450.938	11.525	-0.165	0.128
-449.924	88.586	-0.310	0.349
-448.909	229.729	-0.164	-0.271
-447.895	253.025	0.187	0.322
-446.880	800.000	0.046	0.148
-445.865	101.004	-0.332	0.391
-444.851	145.468	-0.162	0.220
-443.836	-200.000	-0.010	-0.226
-442.822	-200.000	0.031	0.168
-441.807	-68.353	-0.022	0.009
-440.792	-63.559	0.285	-0.118
-439.778	-200.000	0.011	0.217
-438.763	337.495	0.106	-0.208
-437.749	800.000	0.009	-0.028
-436.734	-85.172	0.167	0.053
-435.719	-127.747	0.219	0.032
-434.705	-200.000	-0.033	0.254
-433.690	-68.098	-0.269	0.106
-432.676	222.045	-0.126	0.205
-431.661	-100.234	-0.112	0.028
-430.646	-200.000	-0.065	0.414
-429.632	2.805	-0.078	-0.057
-428.617	-168.580	-0.182	0.007
-427.603	-41.753	-0.260	-0.135
-426.588	-165.508	0.182	0.008
-425.573	165.546	-0.194	0.277
-424.559	107.524	-0.226	0.272
-423.544	-200.000	-0.012	-0.061
-422.530	-54.019	-0.235	0.108
-421.515	-160.669	-0.149	0.008
-420.500	-65.716	-0.066	-0.027
-419.486	-12.983	-0.139	0.091
-418.471	-23.086	-0.206	0.125
-417.457	526.697	0.134	0.320
-416.442	76.462	-0.126	0.135
-415.428	65.676	-0.232	-0.237
-414.413	800.000	-0.045	0.157
-413.398	629.183	-0.096	0.246
-412.384	84.334	0.131	0.144
-411.369	-180.307	-0.598	-0.013
-410.355	-200.000	-0.012	0.242
-409.340	800.000	0.025	0.110
-408.325	-38.701	-0.456	0.243
-407.311	-66.874	-0.294	0.117
-406.296	800.000	0.036	-0.132
-405.282	69.140	0.042	-0.044
-404.267	-120.485	-0.044	-0.008
-403.252	800.000	-0.078	0.243
-402.238	3.717	-0.056	-0.041
-401.223	-60.880	-0.254	0.108
-400.209	-78.579	-0.243	0.084
-399.194	-116.623	-0.247	-0.046
-398.179	-82.825	-0.104	-0.034
-397.165	41.677	0.146	0.133
-396.150	800.000	0.058	0.218
-395.136	407.764	-0.208	0.443
-394.121	-101.897	0.063	0.015
-393.106	-96.529	-0.127	-0.034
-392.092	-1.413	-0.303	-0.216
-391.077	98.183	0.457	0.530
-390.063	-194.364	0.146	-0.001
-389.048	340.859	-0.016	0.031
-388.033	-5.988	0.058	0.040
-387.019	121.365	0.083	0.104
-386.004	-200.000	-0.007	0.074
-384.990	162.412	-0.166	-0.234
-383.975	272.636	-0.102	-0.181
-382.960	-33.569	0.070	-0.039
-381.946	574.886	-0.066	0.163
-380.931	-200.000	-0.003	0.176
-379.917	-46.175	-0.209	-0.103
-378.902	-129.781	0.081	-0.011
-377.888	36.673	0.077	-0.068
-376.873	-90.206	0.294	-0.086
-375.858	-111.131	0.439	0.091
-374.844	-95.644	0.100	0.027
-373.829	-124.124	-0.253	0.040
-372.815	-100.569	-0.178	-0.044
-371.800	-200.000	-0.020	0.353
-370.785	-200.000	-0.027	-0.146
-369.771	-139.432	0.276	0.030
-368.756	29.084	-0.167	0.142
-367.742	-10.334	0.204	0.136
-366.727	-156.380	0.281	-0.018
-365.712	-200.000	-0.011	-0.343
-364.698	-40.604	-0.313	-0.164
-363.683	800.000	-0.051	-0.154
-362.669	10.335	-0.084	0.064
-361.654	71.120	-0.165	-0.173
-360.639	-200.000	0.030	0.146
-359.625	-183.525	-0.290	-0.005
-358.610	-200.000	0.003	0.062
-357.596	17.273	-0.391	-0.313
-356.581	-200.000	0.010	0.105
-355.566	282.248	-0.171	0.310
-354.552	528.486	-0.145	0.346
-353.537	522.256	-0.132	0.313
-352.523	-197.559	0.216	-0.001
-351.508	-112.330	0.063	0.013
-350.493	-135.353	-0.322	-0.039
-349.479	26.457	-0.040	0.034
-348.464	-72.812	-0.179	0.067
-347.450	-96.667	0.138	-0.037
-346.435	-77.586	0.206	-0.072
-345.420	407.995	-0.099	0.211
-344.406	65.217	0.229	0.233
-343.391	135.533	-0.145	0.190
-342.377	-200.000	-0.001	-0.345
-341.362	-200.000	0.013	-0.114
-340.348	453.155	0.068	-0.152
-339.333	-60.162	-0.118	-0.051
-338.318	110.751	0.051	-0.062
-337.304	-106.386	0.436	-0.098
-336.289	211.452	0.195	0.309
-335.275	117.648	-0.155	0.192
-334.260	54.680	0.128	-0.124
-333.245	92.943	0.188	0.214
-332.231	-200.000	0.014	-0.233
-331.216	-200.000	0.012	-0.171
-330.202	240.429	-0.179	-0.301
-329.187	83.889	-0.078	-0.086
-328.172	98.024	-0.071	-0.082
-327.158	-76.376	0.307	0.109
-326.143	548.956	0.068	-0.164
-325.129	-200.000	0.039	-0.303
-324.114	159.658	-0.053	-0.074
-323.099	333.759	-0.013	0.026
-322.085	69.045	0.174	-0.180
-321.070	-49.641	0.190	-0.091
-320.056	800.000	-0.003	-0.011
-319.041	-147.712	-0.217	0.018
-318.026	171.155	0.056	-0.080
-317.012	249.615	-0.130	-0.221
-315.997	48.614	0.063	-0.059
-314.983	111.374	0.071	0.086
-313.968	-28.040	0.200	-0.116
-312.953	-200.000	-0.010	0.089
-311.939	634.698	0.006	-0.015
-310.924	-146.219	-0.143	0.013
-309.910	-30.533	0.265	0.151
-308.895	-66.200	-0.391	-0.157
-307.880	158.826	-0.352	-0.491
-306.866	-47.777	-0.264	-0.129
-305.851	-34.393	0.268	-0.148
-304.837	-121.566	-0.131	0.022
-303.822	42.955	0.152	-0.139
-302.807	-200.000	-0.050	-0.247
-301.793	298.460	-0.081	-0.149
-300.778	-200.000	-0.032	0.242
-299.764	-60.144	0.133	0.057
-298.749	0.541	0.143	0.103
-297.735	13.369	-0.156	0.122
-296.720	68.400	0.166	0.171
-295.705	-46.129	0.065	0.032
-294.691	-107.076	0.184	0.041
-293.676	719.325	-0.097	-0.258
-292.662	-200.000	-0.021	0.116
-291.647	-18.472	-0.148	0.093
-290.632	51.729	0.092	0.088
-289.618	-200.000	0.058	0.287
-288.603	220.421	0.095	-0.152
-287.589	-200.000	0.054	-0.320
-286.574	-200.000	-0.001	-0.123
-285.559	0.926	-0.006	0.004
-284.545	800.000	0.032	0.109
-283.530	-200.000	0.031	-0.259
-282.516	-116.672	0.247	-0.046
-281.501	278.162	0.048	0.087
-280.486	-200.000	0.010	-0.288
-279.472	300.851	0.145	0.269
-278.457	-93.256	0.232	0.065
-277.443	-69.091	-0.101	0.039
-276.428	-77.946	-0.388	-0.134
-275.413	-200.000	-0.015	-0.183
-274.399	-200.000	0.033	-0.188
-273.384	-200.000	0.008	0.280
-272.370	213.171	-0.140	-0.222
-271.355	-200.000	0.003	0.193
-270.340	-45.058	-0.204	-0.102
-269.326	-75.126	0.328	-0.118
-268.311	-122.772	0.232	0.038
-267.297	-200.000	-0.040	-0.361
-266.282	223.431	0.107	-0.174
-265.267	-90.246	-0.089	-0.026
-264.253	800.000	0.057	0.177
-263.238	293.386	-0.095	0.173
-262.224	-200.000	0.049	-0.231
-261.209	234.435	-0.156	0.258
-260.195	-37.072	-0.174	-0.093
-259.180	-53.029	-0.028	0.013
-258.165	-200.000	0.001	-0.218
-257.151	-200.000	0.024	-0.515
-256.136	-61.425	-0.444	-0.188
-255.122	-47.873	-0.061	0.030
-254.107	6.191	0.098	-0.073
-253.092	286.551	0.180	-0.326
-252.078	-140.276	0.103	0.011
-251.063	800.000	0.122	-0.370
-250.049	-200.000	0.051	-0.313
-249.034	-28.965	0.236	-0.136
-248.019	142.563	-0.104	0.139
-247.005	412.495	0.044	0.094
-245.990	165.406	0.126	0.178
-244.976	-145.897	0.239	-0.021
-243.961	-102.273	-0.229	-0.055
-242.946	-166.599	0.232	-0.010
-241.932	84.675	0.057	-0.062
-240.917	389.350	-0.067	0.138
-239.903	269.970	0.116	-0.205
-238.888	-9.284	0.109	-0.073
-237.873	-139.639	0.324	0.035
-236.859	-200.000	-0.018	0.079
-235.844	-200.000	-0.005	-0.028
-234.830	-144.341	-0.396	0.037
-233.815	800.000	-0.025	-0.109
-232.800	327.279	0.083	-0.160
-231.786	-46.564	-0.303	-0.149
-230.771	89.401	0.092	-0.103
-229.757	800.000	-0.039	0.115
-228.742	-200.000	-0.006	0.032
-227.727	-200.000	0.017	-0.146
-226.713	-200.000	-0.004	0.055
-225.698	800.000	-0.080	0.301
-224.684	-8.515	-0.072	0.049
-223.669	-1.834	0.300	-0.211
-222.655	-128.036	0.209	0.030
-221.640	-200.000	0.001	0.180
-220.625	-9.036	0.074	0.050
-219.611	-200.000	0.040	-0.178
-218.596	216.026	-0.118	-0.188
-217.582	-156.293	0.189	-0.012
-216.567	800.000	0.067	-0.205
-215.552	-112.378	0.157	-0.031
-214.538	-28.468	0.089	-0.051
-213.523	800.000	0.006	-0.019
-212.509	514.220	0.046	-0.108
-211.494	800.000	0.090	-0.380
-210.479	331.429	0.017	0.033
-209.465	-68.913	0.231	-0.089
-208.450	-20.502	0.176	0.109
-207.436	-124.456	0.089	0.014
-206.421	-66.328	-0.062	0.025
-205.406	-200.000	0.015	0.135
-204.392	-74.516	0.082	0.030
-203.377	-22.471	-0.210	-0.127
-202.363	476.977	-0.058	-0.131
-201.348	82.148	0.240	-0.261
-200.333	800.000	0.074	0.206
-199.319	223.413	-0.097	-0.157
-198.304	-116.597	-0.241	-0.044
-197.290	800.000	0.038	-0.144
-196.275	381.058	0.176	-0.361
-195.260	181.976	-0.187	-0.276
-194.246	694.940	0.085	0.223
-193.231	0.783	-0.091	0.065
-192.217	-115.692	-0.066	-0.012
-191.202	339.592	0.092	0.179
-190.187	189.716	0.068	-0.103
-189.173	-45.276	-0.388	-0.193
-188.158	-48.844	0.080	0.038
-187.144	1.485	0.134	-0.096
-186.129	86.259	0.191	-0.211
-185.114	-181.131	0.067	0.001
-184.100	-44.300	-0.188	-0.094
-183.085	-81.325	0.210	0.069
-182.071	0.002	-0.098	-0.070
-181.056	343.099	0.168	0.330
-180.042	68.500	0.177	-0.182
-179.027	800.000	0.072	0.272
-178.012	800.000	-0.082	0.234
-176.998	-110.099	-0.114	-0.024
-175.983	-200.000	0.037	-0.182
-174.969	-200.000	-0.042	-0.310
-173.954	168.788	0.086	0.123
-172.939	-7.438	-0.321	0.217
-171.925	-78.711	0.194	-0.066
-170.910	-200.000	0.025	-0.131
-169.896	508.309	0.081	-0.188
-168.881	49.573	-0.128	0.120
-167.866	191.175	0.124	-0.187
-166.852	24.662	-0.089	0.074
-165.837	79.061	0.144	-0.154
-164.823	-31.183	-0.157	-0.089
-163.808	800.000	-0.069	0.303
-162.793	-35.989	0.385	-0.208
-161.779	-37.238	-0.066	-0.035
-160.764	-141.788	0.290	-0.029
-159.750	-200.000	0.018	-0.132
-158.735	-21.351	0.265	0.162
-157.720	-123.715	0.469	-0.074
-156.706	145.819	-0.065	0.088
-155.691	800.000	0.056	-0.222
-154.677	60.649	-0.113	-0.112
-153.662	-200.000	0.071	0.343
-152.647	-58.832	0.344	0.149
-151.633	-117.455	-0.258	0.047
-150.618	800.000	-0.074	0.293
-149.604	-157.746	-0.375	-0.022
-148.589	-24.769	0.151	0.090
-147.574	25.544	0.124	0.103
-146.560	130.323	0.060	0.077
-145.545	96.622	0.181	-0.207
-144.531	51.123	0.155	0.146
-143.516	5.339	0.178	0.131
-142.502	409.229	0.139	0.294
-141.487	88.487	0.233	0.259
-140.472	-183.833	0.175	-0.003
-139.458	249.254	-0.202	-0.342
-138.443	-200.000	0.018	0.274
-137.429	800.000	0.075	0.288
-136.414	-46.604	0.011	0.005
-135.399	-15.361	0.291	-0.186
-134.385	-88.131	-0.208	-0.062
-133.370	0.576	0.316	0.226
-132.356	-138.018	0.166	-0.018
-131.341	91.770	-0.067	-0.075
-130.326	137.278	-0.075	0.097
-129.312	378.415	-0.167	0.340
-128.297	-15.088	-0.120	0.076
-127.283	-93.327	-0.094	-0.026
-126.268	748.346	-0.054	-0.146
-125.253	-160.986	0.127	0.007
-124.239	470.769	0.122	-0.274
-123.224	169.970	-0.181	-0.259
-122.210	65.066	-0.171	0.172
-121.195	-23.756	0.094	0.056
