DTS Sentinel unit serial number:	SN413079Multiplexer serial number:	ORYXHardware model number:	OX4-SRSoftware version number:	ORYX F/W v4.00 Oryx Data Collector v3.7.2.0data status	okinstallation	princeton_trtdifferential loss correction	single-endedforward channel	channel 1reverse channel	N/Adate	2019/09/18time	18:06:35forward acquisition time	60.00reverse acquisition time	0.00gamma	496.2192k internal	0.2295k external	0.2295temperature offset calibration	1.0012default loss term (dB/km)	0.3790temperature slope calibration	1.0000multiplexer offset coefficient	1.0000multiplexer slope coefficient	1.0000fibre end	0.00T internal ref (°C)	39.31T ext. ref 1 (°C)	0.92T ext. ref 2 (°C)	32.01length (m)	temperature (°C)	Stokes	anti-Stokes-747.200	66.085	-0.113	-0.117
-746.185	101.180	0.103	-0.122
-745.171	82.037	0.087	-0.096
-744.156	345.409	-0.224	0.451
-743.142	800.000	0.130	0.466
-742.127	102.293	-0.308	0.368
-741.112	23.699	0.048	-0.040
-740.098	-100.211	-0.203	0.052
-739.083	800.000	-0.031	0.104
-738.069	162.388	-0.180	0.258
-737.054	47.371	-0.163	-0.155
-736.039	-55.616	-0.072	0.033
-735.025	-200.000	0.015	0.238
-734.010	800.000	-0.082	-0.349
-732.996	210.517	-0.129	-0.208
-731.981	11.148	0.188	0.147
-730.966	800.000	0.075	-0.276
-729.952	-48.367	0.132	0.065
-728.937	-48.939	-0.100	-0.049
-727.923	-200.000	0.006	-0.026
-726.908	800.000	-0.063	-0.224
-725.894	308.931	0.202	0.385
-724.879	-89.242	0.092	0.028
-723.864	195.199	-0.180	-0.279
-722.850	-110.514	-0.455	0.096
-721.835	-200.000	-0.097	-0.484
-720.821	-76.358	-0.042	0.015
-719.806	-82.908	0.327	-0.108
-718.791	-103.384	0.281	0.068
-717.777	52.058	-0.129	0.126
-716.762	33.180	0.124	-0.110
-715.748	-71.030	-0.279	0.107
-714.733	-16.680	-0.214	0.138
-713.718	-62.702	0.082	-0.035
-712.704	-160.965	-0.157	0.008
-711.689	131.190	-0.088	0.115
-710.675	800.000	-0.133	0.556
-709.660	461.469	-0.135	0.307
-708.645	-200.000	-0.074	0.341
-707.631	439.043	-0.010	0.021
-706.616	-200.000	-0.006	0.440
-705.602	-92.742	0.250	-0.071
-704.587	-200.000	-0.053	0.359
-703.572	87.496	-0.065	0.073
-702.558	166.645	-0.169	0.245
-701.543	-106.178	-0.174	0.040
-700.529	-46.215	0.303	0.152
-699.514	-101.074	0.072	0.018
-698.499	-149.382	-0.228	-0.018
-697.485	-200.000	0.017	-0.099
-696.470	142.352	-0.233	-0.316
-695.456	5.005	-0.110	0.083
-694.441	98.718	0.140	0.165
-693.426	-121.413	0.197	-0.033
-692.412	-94.533	-0.298	-0.083
-691.397	-63.038	0.288	0.121
-690.383	-200.000	0.053	-0.450
-689.368	-200.000	0.057	0.348
-688.354	-119.922	-0.085	0.015
-687.339	-200.000	0.037	0.276
-686.324	-200.000	0.045	-0.286
-685.310	55.180	-0.140	-0.138
-684.295	800.000	-0.080	-0.291
-683.281	133.592	0.071	-0.094
-682.266	-200.000	-0.082	-0.371
-681.251	87.596	-0.220	0.248
-680.237	177.981	0.121	0.180
-679.222	-69.187	-0.137	0.054
-678.208	-200.000	-0.059	-0.363
-677.193	53.527	0.156	0.152
-676.178	-67.696	-0.095	0.038
-675.164	800.000	-0.073	-0.290
-674.149	-200.000	0.008	-0.240
-673.135	-149.350	-0.218	0.018
-672.120	-200.000	-0.048	0.369
-671.105	800.000	0.079	0.230
-670.091	-154.904	-0.089	-0.006
-669.076	-173.490	0.195	0.006
-668.062	-108.587	0.300	-0.066
-667.047	-200.000	0.017	0.107
-666.032	271.925	-0.064	0.116
-665.018	-29.246	0.120	0.070
-664.003	27.100	-0.186	0.159
-662.989	-200.000	0.012	-0.344
-661.974	-200.000	0.000	-0.156
-660.959	-85.410	-0.107	-0.034
-659.945	-191.700	-0.333	0.003
-658.930	-122.207	0.250	0.042
-657.916	212.756	0.109	-0.176
-656.901	125.622	-0.184	0.237
-655.886	-149.183	0.178	0.014
-654.872	71.278	0.248	0.262
-653.857	-124.765	-0.261	0.041
-652.843	-89.878	0.048	-0.014
-651.828	-200.000	-0.004	0.054
-650.814	-91.495	-0.410	-0.119
-649.799	-33.505	-0.259	-0.146
-648.784	-200.000	0.071	-0.331
-647.770	-200.000	-0.018	-0.377
-646.755	-152.907	0.162	0.012
-645.741	-200.000	-0.052	0.269
-644.726	-31.584	0.345	0.198
-643.711	254.936	0.069	-0.120
-642.697	134.590	-0.025	0.033
-641.682	471.950	-0.054	0.124
-640.668	-17.927	0.125	0.080
-639.653	-159.698	0.291	-0.016
-638.638	800.000	0.058	0.255
-637.624	419.514	-0.112	-0.245
-636.609	-144.608	0.252	-0.024
-635.595	280.271	-0.148	0.270
-634.580	-181.481	-0.169	-0.003
-633.565	-200.000	-0.046	-0.369
-632.551	128.569	0.075	-0.097
-631.536	-71.004	-0.381	-0.146
-630.522	135.439	0.244	-0.324
-629.507	-90.196	-0.171	0.051
-628.492	-200.000	0.033	-0.164
-627.478	145.202	-0.150	-0.205
-626.463	800.000	-0.098	-0.424
-625.449	-200.000	0.045	0.370
-624.434	-79.540	0.061	0.021
-623.419	-92.330	-0.222	-0.064
-622.405	-40.855	0.084	-0.044
-621.390	-112.339	-0.168	-0.034
-620.376	-200.000	0.007	-0.088
-619.361	-200.000	-0.024	-0.148
-618.346	-66.807	0.064	0.026
-617.332	-15.780	0.068	-0.044
-616.317	369.355	-0.158	0.325
-615.303	11.886	0.236	0.184
-614.288	162.687	0.121	0.173
-613.273	800.000	-0.047	0.139
-612.259	-200.000	-0.042	0.350
-611.244	-22.326	-0.234	0.144
-610.230	588.357	-0.055	0.138
-609.215	-200.000	-0.002	0.059
-608.201	61.686	-0.202	-0.205
-607.186	0.537	0.193	-0.141
-606.171	314.523	-0.226	-0.432
-605.157	-170.746	0.336	-0.012
-604.142	-21.974	-0.310	0.191
-603.128	-101.294	0.290	0.072
-602.113	-200.000	0.015	-0.131
-601.098	-130.715	0.076	0.010
-600.084	800.000	-0.043	-0.145
-599.069	-123.294	-0.273	-0.044
-598.055	-85.441	0.251	0.079
-597.040	-200.000	-0.002	0.276
-596.025	-99.411	0.203	0.052
-595.011	142.116	0.083	0.112
-593.996	81.124	0.047	0.052
-592.982	209.763	-0.156	0.248
-591.967	-200.000	-0.014	-0.230
-590.952	800.000	-0.095	0.301
-589.938	177.518	-0.050	-0.074
-588.923	774.233	-0.103	-0.286
-587.909	330.803	0.162	0.318
-586.894	-118.608	0.297	0.053
-585.879	347.372	-0.106	0.211
-584.865	-90.388	0.301	0.089
-583.850	183.002	0.094	0.140
-582.836	800.000	0.184	0.559
-581.821	-157.435	0.060	-0.004
-580.806	-1.130	-0.223	0.160
-579.792	800.000	0.070	-0.301
-578.777	-132.180	-0.413	0.054
-577.763	-24.731	-0.200	-0.121
-576.748	-38.597	0.213	0.114
-575.733	800.000	-0.096	0.367
-574.719	-88.129	-0.221	-0.067
-573.704	800.000	-0.046	0.174
-572.690	31.116	-0.237	0.207
-571.675	48.251	-0.006	-0.006
-570.661	372.561	0.206	-0.426
-569.646	-200.000	-0.008	-0.067
-568.631	31.215	-0.289	-0.252
-567.617	64.429	0.149	0.153
-566.602	-200.000	-0.024	-0.141
-565.588	-200.000	-0.016	-0.148
-564.573	-13.021	0.199	0.131
-563.558	-50.521	0.158	-0.075
-562.544	800.000	0.036	0.142
-561.529	363.451	0.097	-0.198
-560.515	800.000	0.053	-0.162
-559.500	275.403	-0.156	0.281
-558.485	69.990	0.067	0.070
-557.471	44.318	-0.157	-0.146
-556.456	800.000	0.038	-0.114
-555.442	800.000	-0.072	-0.223
-554.427	671.695	-0.077	-0.204
-553.412	-108.516	-0.320	0.070
-552.398	75.867	0.066	0.071
-551.383	-200.000	-0.029	0.177
-550.369	-200.000	-0.001	-0.125
-549.354	800.000	-0.057	0.220
-548.339	-109.997	-0.176	-0.037
-547.325	-84.140	0.131	0.042
-546.310	-200.000	-0.039	-0.378
-545.296	-69.111	0.271	-0.106
-544.281	800.000	-0.045	0.165
-543.266	108.126	0.166	0.201
-542.252	-126.969	-0.201	0.030
-541.237	171.629	-0.175	0.255
-540.223	396.297	0.129	-0.272
-539.208	800.000	0.013	0.050
-538.193	800.000	-0.123	-0.358
-537.179	-88.279	0.238	0.072
-536.164	157.647	-0.137	-0.193
-535.150	-19.946	0.143	-0.090
-534.135	1.418	-0.187	-0.136
-533.121	215.419	-0.123	0.197
-532.106	-200.000	0.025	-0.359
-531.091	-200.000	-0.078	-0.471
-530.077	-99.797	-0.173	0.044
-529.062	-26.923	-0.128	-0.076
-528.048	153.954	-0.246	-0.342
-527.033	158.464	-0.046	-0.065
-526.018	800.000	-0.025	-0.111
-525.004	800.000	0.006	-0.022
-523.989	-100.760	-0.169	0.042
-522.975	-75.490	-0.094	-0.034
-521.960	370.453	-0.057	0.118
-520.945	-145.760	-0.384	0.035
-519.931	15.481	-0.271	0.215
-518.916	-200.000	-0.057	-0.297
-517.902	69.028	0.277	-0.288
-516.887	24.337	0.196	0.164
-515.872	-128.571	-0.131	-0.019
-514.858	377.065	-0.075	-0.154
-513.843	-200.000	0.012	0.116
-512.829	-90.583	0.058	-0.017
-511.814	-39.265	0.291	-0.155
-510.799	103.734	-0.121	-0.144
-509.785	205.666	-0.172	-0.271
-508.770	420.958	0.111	0.240
-507.756	251.164	-0.070	-0.120
-506.741	-1.219	-0.160	0.114
-505.726	481.612	0.016	-0.038
-504.712	308.009	-0.105	-0.198
-503.697	-32.887	-0.176	0.099
-502.683	-102.425	-0.336	-0.082
-501.668	290.444	-0.112	-0.207
-500.653	8.091	-0.244	-0.185
-499.639	-76.387	0.174	0.062
-498.624	96.478	-0.142	0.164
-497.610	-70.307	0.271	-0.104
-496.595	512.338	0.053	-0.125
-495.581	411.804	0.080	0.173
-494.566	260.510	0.164	0.288
-493.551	-84.461	0.155	0.050
-492.537	-200.000	0.005	-0.051
-491.522	-200.000	0.022	0.291
-490.508	293.765	-0.131	-0.242
-489.493	43.633	0.152	-0.141
-488.478	29.046	-0.290	-0.249
-487.464	800.000	0.069	0.205
-486.449	-200.000	-0.005	-0.088
-485.435	-29.946	-0.338	0.195
-484.420	800.000	-0.084	-0.266
-483.405	405.544	-0.037	-0.079
-482.391	800.000	0.115	0.458
-481.376	115.542	-0.090	-0.111
-480.362	800.000	0.024	-0.105
-479.347	-78.714	-0.177	-0.061
-478.332	800.000	0.095	0.304
-477.318	104.453	0.184	-0.219
-476.303	-85.739	0.159	-0.050
-475.289	-36.127	0.092	-0.050
-474.274	19.738	-0.244	-0.199
-473.259	-134.526	0.041	-0.005
-472.245	-158.542	0.401	-0.023
-471.230	-200.000	-0.034	0.170
-470.216	-200.000	0.002	-0.049
-469.201	125.745	-0.045	-0.058
-468.186	-162.354	-0.229	-0.012
-467.172	9.203	-0.299	0.229
-466.157	-50.680	0.219	-0.104
-465.143	800.000	0.091	-0.304
-464.128	348.395	-0.101	-0.201
-463.113	68.560	0.037	-0.038
-462.099	95.013	0.384	-0.443
-461.084	5.331	0.244	-0.182
-460.070	-24.121	-0.092	0.056
-459.055	-128.757	0.190	0.027
-458.040	382.799	-0.154	-0.321
-457.026	-200.000	-0.014	-0.160
-456.011	-50.109	0.212	0.101
-454.997	-17.377	0.294	0.187
-453.982	-113.186	0.068	-0.014
-452.968	109.807	-0.165	-0.201
-451.953	291.055	0.228	0.419
-450.938	-78.146	-0.139	-0.048
-449.924	6.195	-0.061	-0.045
-448.909	55.813	0.145	-0.143
-447.895	-154.823	-0.158	0.011
-446.880	800.000	0.075	0.311
-445.865	-116.534	-0.352	-0.066
-444.851	-200.000	-0.022	-0.122
-443.836	166.502	0.102	-0.146
-442.822	-92.281	0.166	-0.047
-441.807	80.362	0.168	0.182
-440.792	-16.233	0.028	-0.018
-439.778	111.438	0.115	-0.140
-438.763	-200.000	-0.038	-0.248
-437.749	-78.435	-0.206	0.071
-436.734	-200.000	0.025	-0.394
-435.719	-74.161	0.479	-0.175
-434.705	-115.355	0.239	-0.046
-433.690	470.873	0.182	0.414
-432.676	-89.860	0.111	0.033
-431.661	-23.530	-0.210	-0.127
-430.646	-142.154	-0.186	0.019
-429.632	130.826	0.182	0.236
-428.617	-41.847	0.131	-0.068
-427.603	179.787	0.034	-0.050
-426.588	133.780	-0.050	0.065
-425.573	20.366	-0.140	-0.115
-424.559	-200.000	-0.008	-0.295
-423.544	730.445	0.158	-0.427
-422.530	59.635	0.174	-0.173
-421.515	800.000	-0.095	0.306
-420.500	26.313	0.243	0.205
-419.486	264.453	0.014	0.025
-418.471	-137.815	0.399	0.045
-417.457	-51.657	0.007	-0.004
-416.442	81.077	0.067	-0.072
-415.428	-200.000	-0.034	0.300
-414.413	800.000	-0.065	0.212
-413.398	800.000	0.093	0.383
-412.384	-98.883	0.296	-0.076
-411.369	529.246	0.120	0.287
-410.355	111.528	0.107	0.130
-409.340	-4.134	-0.073	0.051
-408.325	-200.000	-0.052	0.385
-407.311	-130.297	0.314	0.043
-406.296	-60.808	0.173	0.074
-405.282	53.125	-0.102	0.099
-404.267	-200.000	-0.051	0.282
-403.252	-114.851	0.357	-0.069
-402.238	800.000	0.046	-0.179
-401.223	-200.000	0.025	-0.352
-400.209	-200.000	0.011	-0.067
-399.194	482.089	0.167	0.383
-398.179	40.786	0.153	-0.139
-397.165	-132.242	-0.335	0.044
-396.150	-125.093	0.044	-0.007
-395.136	-139.663	-0.084	-0.009
-394.121	120.292	-0.143	0.179
-393.106	-50.275	-0.207	-0.099
-392.092	-5.445	-0.341	-0.236
-391.077	136.447	-0.142	0.187
-390.063	800.000	-0.099	0.282
-389.048	139.038	-0.160	-0.212
-388.033	-35.008	0.103	0.056
-387.019	-72.484	-0.117	-0.044
-386.004	8.186	-0.213	0.162
-384.990	-133.748	0.101	0.013
-383.975	800.000	-0.076	0.334
-382.960	431.028	0.065	0.141
-381.946	119.747	-0.196	0.245
-380.931	-200.000	0.042	0.368
-379.917	-200.000	-0.037	-0.208
-378.902	-186.472	-0.202	-0.003
-377.888	-163.817	0.191	0.009
-376.873	31.868	0.138	-0.120
-375.858	-105.493	0.330	0.075
-374.844	38.480	-0.167	-0.150
-373.829	193.375	0.087	-0.132
-372.815	-1.067	0.048	0.034
-371.800	170.751	0.157	0.227
-370.785	-111.263	0.130	-0.027
-369.771	25.444	0.043	0.036
-368.756	-116.659	0.391	-0.072
-367.742	-85.009	0.127	-0.040
-366.727	21.570	-0.083	0.068
-365.712	-184.871	-0.061	0.001
-364.698	9.862	0.128	0.098
-363.683	-14.567	0.059	0.038
-362.669	800.000	-0.117	-0.434
-361.654	90.447	-0.099	0.111
-360.639	233.126	0.038	-0.063
-359.625	144.255	0.076	-0.102
-358.610	800.000	-0.085	0.340
-357.596	-7.334	-0.119	-0.081
-356.581	-80.664	0.141	0.047
-355.566	57.361	-0.249	0.244
-354.552	103.970	-0.093	-0.110
-353.537	-35.272	-0.055	0.030
-352.523	22.073	-0.409	0.336
-351.508	494.659	-0.086	-0.198
-350.493	-200.000	-0.004	0.235
-349.479	745.190	-0.058	0.156
-348.464	163.906	-0.012	-0.017
-347.450	-200.000	-0.019	-0.097
-346.435	147.323	-0.030	0.040
-345.420	40.958	0.172	-0.156
-344.406	-132.580	-0.141	0.018
-343.391	216.134	-0.180	-0.288
-342.377	108.763	-0.123	0.148
-341.362	669.605	-0.026	0.066
-340.348	-99.239	-0.216	0.055
-339.333	-200.000	-0.004	-0.064
-338.318	-25.740	-0.121	-0.072
-337.304	-51.870	0.191	0.090
-336.289	-154.852	-0.171	0.011
-335.275	-153.510	-0.140	0.010
-334.260	154.747	-0.121	-0.167
-333.245	154.902	0.065	-0.090
-332.231	52.809	0.194	0.187
-331.216	-95.421	0.133	0.036
-330.202	-200.000	0.027	-0.238
-329.187	-127.166	0.085	-0.013
-328.172	76.164	0.276	-0.294
-327.158	-159.503	0.219	0.012
-326.143	800.000	-0.004	0.015
-325.129	-109.969	-0.263	-0.055
-324.114	4.166	-0.382	0.281
-323.099	-200.000	-0.002	-0.126
-322.085	11.368	0.210	0.162
-321.070	-27.546	0.135	-0.079
-320.056	104.036	-0.161	-0.191
-319.041	247.490	-0.046	-0.079
-318.026	-78.152	-0.168	0.058
-317.012	-200.000	-0.001	0.104
-315.997	-165.579	-0.151	0.007
-314.983	197.246	-0.076	0.116
-313.968	-200.000	-0.017	0.118
-312.953	-200.000	-0.015	-0.486
-311.939	215.992	-0.144	-0.231
-310.924	-114.678	0.085	0.016
-309.910	92.744	-0.059	-0.067
-308.895	-200.000	-0.002	-0.119
-307.880	324.437	0.017	0.032
-306.866	-21.245	-0.193	0.119
-305.851	-200.000	0.003	-0.082
-304.837	-200.000	-0.041	0.202
-303.822	184.493	0.121	0.180
-302.807	75.178	-0.234	0.248
-301.793	800.000	0.053	0.225
-300.778	-97.765	-0.132	0.034
-299.764	59.560	-0.152	0.150
-298.749	800.000	0.058	0.196
-297.735	765.580	0.109	-0.298
-296.720	-67.779	-0.242	0.095
-295.705	-140.685	-0.172	-0.018
-294.691	9.371	0.252	-0.191
-293.676	41.896	-0.326	-0.297
-292.662	-200.000	-0.020	-0.141
-291.647	800.000	0.028	-0.091
-290.632	-81.818	0.057	-0.019
-289.618	133.782	-0.204	-0.265
-288.603	49.961	-0.063	-0.060
-287.589	181.389	-0.150	0.222
-286.574	716.379	-0.112	0.299
-285.559	-200.000	0.012	-0.331
-284.545	525.217	-0.065	0.153
-283.530	41.916	-0.212	0.193
-282.516	800.000	-0.140	0.407
-281.501	367.732	-0.074	-0.150
-280.486	-143.096	0.316	0.031
-279.472	67.702	-0.015	0.015
-278.457	189.764	0.115	-0.174
-277.443	800.000	-0.048	-0.174
-276.428	-6.851	0.287	0.196
-275.413	800.000	-0.124	0.487
-274.399	208.222	-0.123	0.192
-273.384	-100.060	0.048	0.012
-272.370	224.916	0.058	0.094
-271.355	709.074	0.105	-0.279
-270.340	-29.795	0.303	-0.174
-269.326	342.396	-0.197	0.388
-268.311	800.000	0.138	0.537
-267.297	26.414	0.052	0.044
-266.282	-113.225	-0.118	-0.023
-265.267	-200.000	-0.026	0.287
-264.253	-23.024	-0.200	-0.121
-263.238	-73.474	0.195	-0.071
-262.224	-78.456	0.122	0.042
-261.209	59.684	0.213	-0.211
-260.195	-170.780	-0.235	0.008
-259.180	75.504	-0.165	0.175
-258.165	-14.861	-0.068	-0.044
-257.151	-7.704	0.118	0.080
-256.136	87.620	0.062	-0.069
-255.122	775.171	0.124	0.338
-254.107	390.951	-0.196	0.408
-253.092	-45.722	0.277	0.137
-252.078	-164.220	-0.301	0.014
-251.063	4.748	0.120	0.088
-250.049	101.146	0.319	0.373
-249.034	-54.120	0.490	0.223
-248.019	111.255	-0.181	0.218
-247.005	121.777	-0.041	-0.052
-245.990	383.841	0.035	0.073
-244.976	214.062	0.115	0.182
-243.961	-200.000	0.003	-0.115
-242.946	-24.955	-0.091	0.054
-241.932	70.317	0.125	-0.130
-240.917	-200.000	-0.058	-0.264
-239.903	102.478	-0.170	-0.200
-238.888	-200.000	0.001	-0.155
-237.873	-161.354	-0.334	0.017
-236.859	-32.106	-0.207	0.116
-235.844	57.365	0.115	0.112
-234.830	178.503	0.106	0.156
-233.815	800.000	0.049	-0.140
-232.800	15.838	0.401	0.316
-231.786	-200.000	0.019	0.126
-230.771	-50.096	-0.199	0.095
-229.757	-200.000	0.028	-0.159
-228.742	62.057	0.256	-0.256
-227.727	609.455	0.133	-0.332
-226.713	-191.660	0.169	0.002
-225.698	56.594	0.115	0.112
-224.684	-90.381	-0.177	-0.051
-223.669	-200.000	0.004	0.030
-222.655	-178.892	0.390	-0.009
-221.640	25.279	0.013	-0.011
-220.625	-133.822	-0.396	0.049
-219.611	-200.000	-0.067	-0.420
-218.596	42.343	0.147	-0.134
-217.582	-200.000	0.007	-0.174
-216.567	-104.727	0.217	-0.050
-215.552	800.000	0.035	0.148
-214.538	177.095	0.051	-0.075
-213.523	-75.883	-0.265	0.094
-212.509	-200.000	-0.061	-0.268
-211.494	-81.503	0.151	-0.050
-210.479	800.000	-0.038	0.123
-209.465	168.872	0.131	0.187
-208.450	-117.898	-0.247	-0.044
-207.436	-200.000	0.026	0.120
-206.421	243.110	0.162	-0.272
-205.406	-170.209	0.061	0.002
-204.392	-102.554	0.230	-0.055
-203.377	-164.571	0.384	-0.017
-202.363	-73.152	0.029	0.011
-201.348	-55.733	0.105	-0.047
-200.333	-106.677	-0.170	0.038
-199.319	800.000	0.017	-0.062
-198.304	-65.390	0.344	0.139
-197.290	187.657	-0.044	-0.066
-196.275	745.702	0.074	-0.199
-195.260	4.511	0.087	0.064
-194.246	106.766	-0.142	-0.169
-193.231	-106.870	-0.318	0.071
-192.217	-10.567	0.183	-0.121
-191.202	49.193	-0.106	-0.099
-190.187	-103.772	0.253	0.059
-189.173	-200.000	0.008	0.152
-188.158	-185.061	-0.139	-0.002
-187.144	-77.906	0.199	0.069
-186.129	132.855	0.196	-0.253
-185.114	-28.799	0.184	0.106
-184.100	-200.000	-0.096	-0.426
-183.085	-200.000	0.076	0.352
-182.071	800.000	0.107	-0.323
-181.056	-88.814	0.166	-0.049
-180.042	800.000	0.147	0.508
-179.027	-200.000	0.045	0.446
-178.012	-151.603	-0.130	-0.010
-176.998	-119.718	0.350	-0.060
-175.983	-200.000	-0.028	-0.217
-174.969	25.023	-0.201	-0.166
-173.954	-158.000	-0.148	-0.009
-172.939	-200.000	-0.006	0.129
-171.925	-160.391	0.158	0.009
-170.910	-50.690	-0.226	-0.106
-169.896	-98.765	-0.154	0.039
-168.881	800.000	-0.013	0.053
-167.866	-92.208	0.165	0.047
-166.852	800.000	-0.104	0.310
-165.837	234.854	0.053	0.088
-164.823	-200.000	0.058	-0.309
-163.808	-166.803	-0.193	-0.008
-162.793	-200.000	-0.048	-0.293
-161.779	-137.311	0.091	0.010
-160.764	-185.814	0.026	0.000
-159.750	-10.325	-0.146	0.097
-158.735	-200.000	-0.030	-0.132
-157.720	-200.000	-0.008	-0.126
-156.706	-200.000	-0.000	-0.143
-155.691	-14.515	-0.071	0.046
-154.677	800.000	-0.070	0.268
-153.662	9.990	-0.285	0.216
-152.647	-104.619	-0.137	-0.032
-151.633	433.472	-0.045	-0.097
-150.618	-153.911	0.453	-0.031
-149.604	-9.486	-0.153	0.102
-148.589	-88.047	-0.249	-0.075
-147.574	21.487	-0.207	0.169
-146.560	-48.665	-0.341	0.164
-145.545	107.734	-0.135	0.161
-144.531	258.642	-0.052	-0.089
-143.516	2.664	-0.192	0.139
-142.502	-200.000	0.011	0.105
-141.487	-11.390	0.385	0.253
-140.472	-70.785	-0.164	-0.062
-139.458	800.000	-0.052	-0.203
-138.443	-114.417	0.298	-0.057
-137.429	188.595	0.074	-0.111
-136.414	133.285	-0.142	0.183
-135.399	406.462	0.193	-0.407
-134.385	-83.645	0.407	0.130
-133.370	12.128	-0.239	0.184
-132.356	10.839	-0.249	-0.189
-131.341	-200.000	0.060	-0.342
-130.326	800.000	-0.016	0.066
-129.312	35.034	0.225	-0.196
-128.297	74.721	0.113	-0.119
-127.283	-74.449	0.370	-0.133
-126.268	46.628	0.060	0.055
-125.253	-64.096	0.170	-0.069
-124.239	383.912	-0.154	-0.317
-123.224	800.000	-0.053	-0.180
-122.210	138.995	-0.140	0.184
