DTS Sentinel unit serial number:	SN413079Multiplexer serial number:	ORYXHardware model number:	OX4-SRSoftware version number:	ORYX F/W v4.00 Oryx Data Collector v3.7.2.0data status	okinstallation	princeton_trtdifferential loss correction	single-endedforward channel	channel 1reverse channel	N/Adate	2019/09/13time	17:42:35forward acquisition time	60.00reverse acquisition time	0.00gamma	496.2192k internal	0.2302k external	0.2302temperature offset calibration	1.0160default loss term (dB/km)	0.3790temperature slope calibration	1.0000multiplexer offset coefficient	1.0000multiplexer slope coefficient	1.0000fibre end	0.00T internal ref (°C)	35.78T ext. ref 1 (°C)	5.30T ext. ref 2 (°C)	29.41length (m)	temperature (°C)	Stokes	anti-Stokes-747.200	-83.778	0.232	0.075
-746.185	-200.000	-0.018	0.688
-745.171	43.235	0.189	-0.176
-744.156	-74.397	-0.236	0.087
-743.142	45.550	0.190	-0.179
-742.127	-103.592	-0.211	0.050
-741.112	41.109	-0.151	0.139
-740.098	-14.700	0.074	-0.048
-739.083	39.462	0.193	-0.176
-738.069	342.894	0.197	0.393
-737.054	-200.000	-0.014	0.240
-736.039	9.441	-0.291	-0.225
-735.025	242.331	0.077	0.132
-734.010	800.000	-0.051	-0.163
-732.996	-155.693	0.280	0.018
-731.981	800.000	-0.061	-0.184
-730.966	-0.538	0.221	-0.160
-729.952	-160.197	-0.077	0.004
-728.937	-154.299	0.168	-0.012
-727.923	74.919	-0.228	-0.245
-726.908	-200.000	-0.004	0.437
-725.894	103.138	-0.248	-0.296
-724.879	-147.679	-0.184	0.016
-723.864	-28.777	0.295	-0.173
-722.850	-59.027	0.053	0.023
-721.835	800.000	-0.105	0.433
-720.821	-200.000	0.006	0.192
-719.806	9.467	-0.154	-0.119
-718.791	-78.758	-0.150	-0.052
-717.777	-200.000	-0.051	0.285
-716.762	-135.963	-0.340	-0.041
-715.748	118.889	-0.141	0.177
-714.733	-94.789	-0.284	0.079
-713.718	68.140	-0.140	-0.146
-712.704	36.735	0.115	0.103
-711.689	-69.951	0.076	0.029
-710.675	38.214	0.285	-0.258
-709.660	-200.000	0.050	0.364
-708.645	800.000	-0.083	0.277
-707.631	800.000	0.047	0.175
-706.616	638.058	0.117	-0.303
-705.602	-76.631	-0.091	0.032
-704.587	800.000	0.077	-0.224
-703.572	-200.000	0.011	0.298
-702.558	-35.608	-0.116	0.064
-701.543	152.877	-0.074	0.104
-700.529	-11.495	-0.185	0.124
-699.514	411.407	0.059	0.128
-698.499	-176.585	0.273	0.007
-697.485	43.666	-0.129	0.120
-696.470	-49.819	-0.286	0.138
-695.456	-123.757	-0.122	0.020
-694.441	-51.461	0.082	-0.039
-693.426	800.000	-0.070	-0.199
-692.412	-200.000	0.068	-0.429
-691.397	169.577	0.025	-0.036
-690.383	-114.533	-0.216	0.042
-689.368	-148.031	-0.172	0.014
-688.354	97.583	0.209	-0.244
-687.339	-44.993	-0.307	-0.156
-686.324	143.308	0.218	0.295
-685.310	152.673	0.296	-0.412
-684.295	-133.547	0.091	0.012
-683.281	-116.314	-0.155	0.029
-682.266	133.667	0.016	-0.021
-681.251	800.000	0.022	0.081
-680.237	-24.811	-0.109	0.066
-679.222	-200.000	-0.303	-0.001
-678.208	800.000	0.129	-0.454
-677.193	321.167	-0.074	-0.144
-676.178	437.633	0.005	-0.010
-675.164	152.692	-0.283	0.393
-674.149	436.328	-0.156	0.346
-673.135	-70.202	0.115	0.045
-672.120	-200.000	0.021	0.142
-671.105	144.396	-0.140	0.190
-670.091	22.674	0.022	-0.019
-669.076	-119.904	-0.323	0.056
-668.062	-45.771	0.210	0.105
-667.047	-200.000	-0.048	-0.357
-666.032	-154.624	-0.274	0.019
-665.018	800.000	-0.088	0.311
-664.003	-200.000	0.063	-0.358
-662.989	-72.434	-0.388	-0.146
-661.974	-25.035	-0.093	0.056
-660.959	-29.992	-0.253	-0.146
-659.945	-200.000	-0.012	-0.289
-658.930	800.000	-0.060	0.198
-657.916	98.594	-0.134	0.157
-656.901	800.000	0.032	-0.134
-655.886	-200.000	0.007	0.082
-654.872	428.184	0.072	0.158
-653.857	18.836	0.199	-0.162
-652.843	-58.859	-0.035	-0.015
-651.828	800.000	-0.014	-0.046
-650.814	800.000	0.068	0.277
-649.799	38.912	0.149	-0.135
-648.784	-110.630	-0.249	-0.052
-647.770	-152.589	0.088	0.006
-646.755	-200.000	0.041	-0.239
-645.741	-130.964	0.172	-0.023
-644.726	-200.000	-0.013	0.093
-643.711	259.233	-0.146	-0.256
-642.697	-87.867	0.200	-0.061
-641.682	19.654	0.134	0.109
-640.668	-19.630	0.086	0.054
-639.653	-200.000	0.025	-0.369
-638.638	-194.272	0.060	-0.000
-637.624	-35.657	-0.220	-0.121
-636.609	-162.205	0.344	0.017
-635.595	-3.660	-0.226	-0.159
-634.580	-200.000	0.034	-0.186
-633.565	-200.000	-0.010	-0.087
-632.551	800.000	0.093	-0.278
-631.536	-200.000	-0.013	-0.140
-630.522	385.943	0.060	-0.127
-629.507	-117.781	-0.160	0.029
-628.492	41.356	-0.068	0.063
-627.478	-121.448	0.123	0.021
-626.463	800.000	0.033	0.145
-625.449	-157.212	0.277	-0.017
-624.434	-116.298	-0.017	-0.003
-623.419	-200.000	0.017	0.095
-622.405	-200.000	-0.019	0.167
-621.390	-149.128	-0.292	0.024
-620.376	21.078	0.168	-0.138
-619.361	566.113	-0.086	-0.212
-618.346	-18.137	0.157	0.100
-617.332	-44.285	0.247	-0.125
-616.317	-5.843	0.077	0.054
-615.303	328.082	-0.092	-0.178
-614.288	121.952	-0.123	-0.156
-613.273	23.353	0.055	0.046
-612.259	45.499	-0.225	0.211
-611.244	-200.000	-0.040	-0.250
-610.230	70.214	0.086	0.090
-609.215	-8.183	-0.174	-0.119
-608.201	800.000	0.069	-0.281
-607.186	-200.000	-0.006	0.078
-606.171	211.678	0.141	-0.224
-605.157	40.135	0.114	-0.104
-604.142	-79.693	-0.265	-0.090
-603.128	37.588	-0.130	-0.117
-602.113	297.614	0.078	-0.145
-601.098	-133.022	0.069	0.009
-600.084	-160.787	-0.171	0.009
-599.069	800.000	0.105	-0.347
-598.055	-165.156	-0.353	0.016
-597.040	-200.000	-0.040	-0.193
-596.025	120.440	-0.217	0.273
-595.011	-46.387	-0.072	-0.036
-593.996	-95.113	-0.283	0.077
-592.982	800.000	0.049	-0.159
-591.967	795.394	-0.114	0.318
-590.952	-63.676	-0.084	0.035
-589.938	-200.000	0.000	-0.244
-588.923	-200.000	-0.016	-0.229
-587.909	3.379	-0.056	-0.041
-586.894	800.000	-0.057	-0.166
-585.879	57.105	-0.161	-0.159
-584.865	99.183	-0.130	-0.153
-583.850	7.238	-0.107	-0.081
-582.836	800.000	-0.074	0.267
-581.821	-200.000	0.068	-0.306
-580.806	135.236	-0.013	0.017
-579.792	-70.812	0.022	-0.008
-578.777	-80.854	-0.298	0.100
-577.763	81.904	-0.044	-0.048
-576.748	114.732	0.160	0.198
-575.733	62.510	-0.218	0.221
-574.719	-200.000	-0.065	-0.299
-573.704	-84.271	-0.154	0.050
-572.690	-69.132	0.350	0.136
-571.675	148.645	0.142	0.194
-570.661	107.971	-0.174	0.210
-569.646	-159.196	0.175	-0.010
-568.631	-168.261	-0.132	-0.005
-567.617	0.675	0.244	-0.177
-566.602	-132.733	0.311	0.040
-565.588	-38.912	0.226	-0.121
-564.573	-200.000	-0.019	-0.230
-563.558	129.234	0.130	-0.169
-562.544	67.035	-0.258	0.266
-561.529	79.050	0.081	-0.088
-560.515	-200.000	0.017	-0.187
-559.500	-200.000	0.032	-0.283
-558.485	800.000	-0.070	0.303
-557.471	-143.494	-0.093	0.009
-556.456	-200.000	-0.004	0.033
-555.442	-56.488	0.303	0.136
-554.427	202.590	0.125	0.196
-553.412	212.412	-0.018	0.029
-552.398	-200.000	0.030	0.228
-551.383	800.000	0.100	0.383
-550.369	-44.529	0.098	-0.050
-549.354	-109.124	0.278	0.060
-548.339	677.540	-0.046	-0.122
-547.325	-59.450	-0.121	-0.053
-546.310	291.848	-0.122	0.225
-545.296	-1.952	-0.055	-0.039
-544.281	-26.498	0.225	0.133
-543.266	800.000	-0.080	-0.226
-542.252	-142.832	-0.253	-0.025
-541.237	-164.213	0.167	-0.008
-540.223	292.151	0.043	0.080
-539.208	125.169	-0.219	0.280
-538.193	-200.000	0.073	-0.386
-537.179	143.272	-0.101	0.136
-536.164	35.826	0.176	0.157
-535.150	-200.000	0.016	0.177
-534.135	-100.969	-0.413	0.102
-533.121	11.967	-0.068	-0.053
-532.106	-200.000	0.010	-0.129
-531.091	-200.000	-0.013	0.193
-530.077	-200.000	0.008	-0.135
-529.062	6.433	-0.148	-0.111
-528.048	-43.342	-0.120	-0.061
-527.033	120.203	-0.133	0.166
-526.018	-131.534	0.031	0.004
-525.004	-114.002	-0.152	-0.030
-523.989	72.828	-0.172	-0.182
-522.975	101.348	0.143	0.168
-521.960	36.324	-0.220	0.196
-520.945	-17.484	-0.156	0.099
-519.931	-117.806	-0.084	-0.015
-518.916	48.329	0.174	0.165
-517.902	-167.490	0.301	0.012
-516.887	-200.000	-0.002	0.217
-515.872	89.636	0.044	-0.050
-514.858	216.368	0.187	-0.301
-513.843	230.059	-0.089	0.147
-512.829	800.000	-0.076	0.292
-511.814	-108.691	0.271	0.059
-510.799	-132.160	0.104	0.014
-509.785	-79.428	-0.272	0.093
-508.770	-200.000	0.029	0.456
-507.756	-169.897	0.250	0.009
-506.741	800.000	-0.039	0.123
-505.726	494.555	0.128	-0.296
-504.712	39.059	0.170	-0.153
-503.697	-200.000	-0.022	-0.258
-502.683	-1.983	-0.107	0.076
-501.668	-38.502	-0.272	-0.145
-500.653	10.469	-0.290	-0.223
-499.639	800.000	0.060	-0.203
-498.624	117.898	0.178	-0.221
-497.610	-200.000	-0.032	0.249
-496.595	13.214	0.011	0.008
-495.581	800.000	0.034	-0.097
-494.566	-200.000	-0.077	0.410
-493.551	11.805	-0.078	0.060
-492.537	69.365	0.181	0.188
-491.522	-83.968	0.043	0.014
-490.508	199.924	0.096	-0.148
-489.493	-165.417	0.278	-0.012
-488.478	-101.874	0.183	0.045
-487.464	709.983	0.055	0.146
-486.449	-70.776	-0.161	-0.061
-485.435	-106.905	0.143	0.032
-484.420	-43.673	-0.165	-0.084
-483.405	800.000	-0.023	-0.080
-482.391	126.371	-0.052	0.066
-481.376	-20.624	-0.025	-0.016
-480.362	787.216	-0.051	0.140
-479.347	18.956	0.187	0.151
-478.332	189.552	-0.173	0.261
-477.318	-200.000	-0.008	-0.090
-476.303	69.872	-0.047	-0.049
-475.289	-200.000	0.003	-0.040
-474.274	56.612	0.157	0.155
-473.259	254.352	-0.080	-0.138
-472.245	481.501	-0.124	-0.283
-471.230	-87.972	-0.372	0.113
-470.216	-40.778	0.268	-0.140
-469.201	105.279	-0.158	0.188
-468.186	-24.511	-0.067	-0.040
-467.172	-200.000	-0.019	0.148
-466.157	-200.000	-0.014	0.181
-465.143	-164.855	0.260	0.012
-464.128	558.927	0.119	0.289
-463.113	-73.935	0.403	0.147
-462.099	-175.692	0.255	0.007
-461.084	-52.797	0.214	0.099
-460.070	-168.285	-0.104	-0.004
-459.055	-68.574	0.394	-0.154
-458.040	9.577	-0.046	-0.035
-457.026	-200.000	-0.089	-0.425
-456.011	-200.000	-0.064	-0.307
-454.997	190.447	-0.126	-0.191
-453.982	-24.909	-0.255	0.153
-452.968	-66.072	-0.081	-0.033
-451.953	-94.509	-0.192	0.053
-450.938	119.149	0.039	0.049
-449.924	-16.060	0.229	0.147
-448.909	-181.208	-0.253	0.005
-447.895	91.419	0.026	-0.029
-446.880	800.000	0.031	0.097
-445.865	800.000	-0.009	0.026
-444.851	91.760	-0.094	-0.106
-443.836	-45.745	-0.397	0.198
-442.822	-23.179	-0.253	-0.154
-441.807	-200.000	0.029	-0.261
-440.792	-200.000	-0.026	-0.209
-439.778	-134.339	0.363	0.045
-438.763	154.160	0.186	0.257
-437.749	-90.182	0.443	0.130
-436.734	212.866	-0.219	0.348
-435.719	354.673	-0.050	0.100
-434.705	-200.000	-0.010	-0.225
-433.690	208.100	-0.126	0.198
-432.676	347.773	-0.193	0.383
-431.661	40.439	-0.016	0.014
-430.646	263.538	-0.044	0.077
-429.632	282.335	0.149	0.269
-428.617	-53.799	-0.219	-0.101
-427.603	-157.593	0.278	0.017
-426.588	-58.844	-0.285	-0.124
-425.573	614.098	0.172	-0.434
-424.559	800.000	-0.152	0.484
-423.544	-49.625	-0.067	-0.032
-422.530	49.474	-0.158	-0.149
-421.515	-78.195	-0.276	-0.095
-420.500	-19.710	0.098	0.061
-419.486	-15.059	-0.136	0.087
-418.471	84.431	-0.106	-0.117
-417.457	-99.451	-0.131	-0.033
-416.442	595.809	-0.068	0.169
-415.428	32.464	-0.213	-0.185
-414.413	800.000	0.117	-0.328
-413.398	800.000	-0.049	-0.215
-412.384	-129.187	0.320	0.045
-411.369	42.977	-0.253	0.232
-410.355	-200.000	-0.024	-0.305
-409.340	-200.000	-0.012	-0.167
-408.325	463.020	0.135	0.304
-407.311	351.188	-0.092	-0.184
-406.296	289.262	0.124	0.226
-405.282	-64.169	-0.197	0.081
-404.267	141.363	0.133	-0.176
-403.252	-200.000	0.000	-0.090
-402.238	131.550	-0.065	0.085
-401.223	-67.688	0.234	-0.092
-400.209	111.132	-0.062	-0.076
-399.194	-200.000	0.030	-0.155
-398.179	-200.000	-0.003	-0.019
-397.165	-159.312	0.088	-0.005
-396.150	179.618	0.145	0.214
-395.136	800.000	0.038	0.156
-394.121	371.986	0.092	-0.188
-393.106	129.094	-0.094	-0.121
-392.092	140.976	0.078	-0.104
-391.077	6.625	0.229	-0.171
-390.063	-8.379	-0.340	0.230
-389.048	-78.633	-0.128	0.044
-388.033	-99.539	0.076	-0.019
-387.019	-200.000	-0.072	-0.427
-386.004	-109.674	-0.257	-0.054
-384.990	353.818	0.044	0.088
-383.975	340.590	0.152	0.298
-382.960	-125.200	-0.225	0.035
-381.946	129.549	-0.101	0.130
-380.931	800.000	-0.075	0.324
-379.917	25.162	-0.226	-0.188
-378.902	28.461	-0.046	0.039
-377.888	-200.000	-0.044	0.320
-376.873	-60.476	0.166	0.071
-375.858	-200.000	-0.078	-0.389
-374.844	-200.000	0.037	-0.435
-373.829	59.252	0.182	-0.180
-372.815	-44.949	0.276	-0.138
-371.800	-200.000	0.007	0.452
-370.785	-65.580	-0.217	0.088
-369.771	599.460	-0.152	-0.378
-368.756	326.491	0.047	0.091
-367.742	-71.873	0.150	0.056
-366.727	-200.000	0.011	-0.276
-365.712	-1.096	-0.186	-0.132
-364.698	311.612	0.078	0.147
-363.683	800.000	-0.036	0.135
-362.669	47.254	-0.240	0.224
-361.654	-200.000	-0.020	-0.178
-360.639	-200.000	-0.011	-0.090
-359.625	51.223	-0.132	-0.126
-358.610	84.377	0.036	-0.040
-357.596	-200.000	0.026	0.148
-356.581	-5.104	-0.162	-0.112
-355.566	-177.120	-0.396	-0.010
-354.552	-200.000	-0.033	-0.154
-353.537	-141.071	-0.442	-0.045
-352.523	-22.972	0.386	0.233
-351.508	-200.000	-0.009	0.173
-350.493	800.000	0.034	-0.114
-349.479	800.000	-0.058	0.237
-348.464	-200.000	0.049	0.321
-347.450	-115.651	0.222	0.042
-346.435	41.071	-0.201	0.182
-345.420	-77.402	-0.230	0.080
-344.406	653.831	0.089	-0.230
-343.391	800.000	0.107	0.349
-342.377	306.565	0.031	0.057
-341.362	775.147	0.120	-0.328
-340.348	-200.000	-0.002	-0.075
-339.333	-112.407	0.113	-0.023
-338.318	235.613	0.088	-0.145
-337.304	-115.711	-0.055	0.010
-336.289	278.981	-0.051	0.091
-335.275	-69.829	-0.262	0.100
-334.260	23.959	-0.362	0.300
-333.245	-64.559	0.100	-0.041
-332.231	171.162	-0.170	-0.244
-331.216	-161.751	0.198	0.010
-330.202	276.764	-0.056	-0.099
-329.187	-125.158	-0.180	-0.028
-328.172	301.630	0.088	0.163
-327.158	-100.250	-0.058	-0.015
-326.143	228.598	0.100	-0.163
-325.129	-48.743	0.145	-0.070
-324.114	-200.000	0.024	-0.107
-323.099	74.066	0.065	0.069
-322.085	-134.304	-0.185	-0.023
-321.070	24.147	-0.161	0.133
-320.056	-1.907	-0.211	-0.149
-319.041	58.655	0.134	0.131
-318.026	360.087	-0.055	-0.111
-317.012	-100.316	0.317	0.079
-315.997	221.365	-0.151	-0.243
-314.983	-200.000	0.041	0.234
-313.968	-19.073	0.311	0.194
-312.953	599.515	0.147	0.367
-311.939	317.189	-0.101	0.190
-310.924	137.727	0.049	-0.064
-309.910	1.242	0.134	0.097
-308.895	-98.560	0.183	0.047
-307.880	-157.080	-0.096	0.006
-306.866	800.000	0.013	0.037
-305.851	-111.225	0.140	-0.029
-304.837	-121.821	-0.116	0.019
-303.822	433.847	0.175	0.381
-302.807	-76.247	-0.196	0.069
-301.793	-56.169	-0.230	-0.103
-300.778	12.729	0.050	0.039
-299.764	67.393	-0.159	-0.163
-298.749	-104.270	0.237	-0.055
-297.735	213.732	0.145	-0.230
-296.720	-34.863	0.062	0.034
-295.705	752.969	-0.034	-0.092
-294.691	-139.279	-0.187	-0.020
-293.676	126.856	0.084	0.106
-292.662	800.000	-0.087	0.379
-291.647	-200.000	-0.031	0.148
-290.632	800.000	0.019	-0.062
-289.618	-92.305	0.134	0.038
-288.603	111.757	0.069	0.083
-287.589	-34.272	0.141	-0.077
-286.574	33.118	0.181	0.157
-285.559	-6.188	0.357	0.244
-284.545	-78.111	0.472	-0.163
-283.530	3.235	0.187	0.136
-282.516	-76.225	-0.188	0.066
-281.501	140.645	-0.154	0.204
-280.486	-139.218	0.312	0.034
-279.472	607.256	-0.043	0.107
-278.457	-33.057	0.225	0.125
-277.443	87.996	-0.239	0.266
-276.428	283.570	0.006	-0.011
-275.413	-177.276	0.321	0.008
-274.399	-122.177	-0.232	0.038
-273.384	191.911	0.239	-0.361
-272.370	-200.000	-0.007	0.206
-271.355	12.979	0.247	0.191
-270.340	389.541	-0.109	-0.227
-269.326	133.906	-0.090	-0.117
-268.311	800.000	0.071	-0.294
-267.297	-115.067	-0.474	-0.090
-266.282	-140.199	-0.176	0.018
-265.267	-21.354	0.034	-0.021
-264.253	-69.036	-0.082	-0.032
-263.238	-80.227	0.337	-0.113
-262.224	237.939	-0.014	-0.023
-261.209	-141.106	-0.157	-0.016
-260.195	-14.939	0.064	0.041
-259.180	-69.311	0.314	-0.121
-258.165	12.855	0.029	0.023
-257.151	-11.422	0.120	0.079
-256.136	-140.387	0.195	-0.020
-255.122	800.000	0.063	0.193
-254.107	8.622	0.378	0.285
-253.092	800.000	-0.079	-0.232
-252.078	315.984	-0.098	-0.186
-251.063	-44.582	0.188	-0.094
-250.049	-3.485	0.123	0.086
-249.034	-119.895	-0.186	-0.032
-248.019	-44.130	0.281	-0.141
-247.005	-3.346	0.154	0.107
-245.990	142.240	0.191	0.253
-244.976	-69.662	0.235	-0.090
-243.961	800.000	-0.094	-0.361
-242.946	-56.191	0.062	0.028
-241.932	-88.070	-0.154	-0.046
-240.917	-125.668	-0.147	0.022
-239.903	-200.000	-0.011	-0.346
-238.888	100.433	0.199	-0.231
-237.873	234.328	0.154	-0.254
-236.859	-129.948	-0.538	-0.074
-235.844	-156.055	-0.171	-0.011
-234.830	-200.000	-0.029	0.126
-233.815	-129.060	-0.232	0.033
-232.800	127.470	-0.116	0.147
-231.786	800.000	-0.131	-0.377
-230.771	44.579	-0.091	-0.084
-229.757	-200.000	0.019	0.216
-228.742	-133.579	-0.045	-0.006
-227.727	-200.000	0.039	0.245
-226.713	800.000	0.093	0.385
-225.698	98.964	0.193	0.223
-224.684	95.817	-0.156	-0.178
-223.669	112.692	0.086	-0.104
-222.655	-200.000	0.024	0.158
-221.640	29.678	0.250	0.213
-220.625	-31.547	-0.349	-0.196
-219.611	-99.869	-0.155	0.039
-218.596	632.233	-0.056	-0.142
-217.582	548.199	0.125	-0.299
-216.567	-67.878	-0.189	-0.074
-215.552	-200.000	-0.038	-0.181
-214.538	-200.000	-0.012	0.153
-213.523	800.000	0.064	0.224
-212.509	-38.582	0.184	0.097
-211.494	-121.266	-0.178	-0.030
-210.479	342.758	-0.017	0.034
-209.465	-179.371	0.392	0.009
-208.450	-136.210	-0.208	-0.024
-207.436	303.587	0.100	0.185
-206.421	-200.000	0.037	-0.268
-205.406	-200.000	-0.012	-0.262
-204.392	59.405	0.323	-0.317
-203.377	-129.214	-0.067	-0.009
-202.363	800.000	0.089	0.322
-201.348	-56.052	-0.172	-0.076
-200.333	-111.872	0.223	0.045
-199.319	-164.662	-0.046	0.002
-198.304	-76.929	0.276	0.096
-197.290	581.476	0.094	0.229
-196.275	-200.000	-0.046	-0.279
-195.260	-200.000	-0.030	0.165
-194.246	752.351	0.169	0.456
-193.231	-200.000	-0.057	0.305
-192.217	9.090	-0.367	0.277
-191.202	733.120	0.136	0.363
-190.187	-121.913	-0.294	0.048
-189.173	-7.777	-0.253	0.170
-188.158	46.607	0.222	-0.206
-187.144	-172.580	0.199	0.006
-186.129	-161.810	0.248	0.013
-185.114	-93.323	0.158	-0.044
-184.100	48.174	0.053	-0.050
-183.085	800.000	0.009	0.035
-182.071	539.368	0.049	0.117
-181.056	-11.840	-0.237	-0.155
-180.042	196.910	0.103	0.157
-179.027	680.146	0.060	-0.156
-178.012	-200.000	0.067	-0.469
-176.998	682.458	0.110	0.285
-175.983	-130.052	-0.198	0.027
-174.969	-35.405	-0.146	0.079
-173.954	-190.717	-0.214	-0.002
-172.939	800.000	-0.063	0.195
-171.925	-200.000	0.009	0.266
-170.910	742.917	-0.027	0.072
-169.896	-200.000	0.027	0.150
-168.881	115.771	-0.227	-0.277
-167.866	20.775	0.216	-0.175
-166.852	-56.633	0.412	0.182
-165.837	-200.000	0.024	-0.116
-164.823	-200.000	0.053	-0.296
-163.808	-200.000	-0.005	-0.239
-162.793	800.000	0.069	-0.191
-161.779	-106.438	-0.284	-0.063
-160.764	14.260	0.243	0.189
-159.750	-21.605	-0.238	-0.145
-158.735	28.391	-0.026	0.022
-157.720	-200.000	-0.008	-0.152
-156.706	-91.272	-0.352	-0.100
-155.691	-200.000	-0.012	-0.119
-154.677	201.384	0.118	-0.180
-153.662	169.161	-0.065	0.093
-152.647	-75.016	-0.139	0.050
-151.633	-41.211	0.232	0.119
-150.618	762.074	-0.137	-0.370
-149.604	-66.070	0.257	-0.102
-148.589	-132.923	-0.095	0.012
-147.574	-28.472	0.152	-0.087
-146.560	-200.000	-0.059	0.374
-145.545	-200.000	-0.049	0.218
-144.531	105.885	-0.042	0.049
-143.516	707.639	0.092	-0.242
-142.502	104.299	-0.185	0.217
-141.487	-200.000	-0.035	0.215
-140.472	-79.132	0.141	0.047
-139.458	-200.000	0.040	-0.311
-138.443	-200.000	0.006	0.161
-137.429	667.299	0.065	0.167
-136.414	111.268	-0.174	-0.209
-135.399	-200.000	-0.064	-0.312
-134.385	-21.900	-0.185	0.112
-133.370	-84.509	-0.066	-0.021
-132.356	-200.000	-0.002	0.120
-131.341	213.819	-0.048	-0.076
-130.326	174.069	-0.095	-0.136
-129.312	-94.692	0.211	-0.057
-128.297	-104.168	0.273	0.063
-127.283	438.306	0.120	-0.260
-126.268	462.407	0.062	0.137
-125.253	800.000	-0.087	0.262
-124.239	114.056	0.200	0.242
-123.224	-26.094	-0.240	0.140
-122.210	-39.580	-0.322	0.168
