DTS Sentinel unit serial number:	SN413079Multiplexer serial number:	ORYXHardware model number:	OX4-SRSoftware version number:	ORYX F/W v4.00 Oryx Data Collector v3.7.2.0data status	okinstallation	princeton_trtdifferential loss correction	single-endedforward channel	channel 1reverse channel	N/Adate	2019/09/18time	05:26:35forward acquisition time	60.00reverse acquisition time	0.00gamma	496.2192k internal	0.2339k external	0.2339temperature offset calibration	0.9980default loss term (dB/km)	0.3790temperature slope calibration	1.0000multiplexer offset coefficient	1.0000multiplexer slope coefficient	1.0000fibre end	0.00T internal ref (°C)	23.44T ext. ref 1 (°C)	0.20T ext. ref 2 (°C)	17.09length (m)	temperature (°C)	Stokes	anti-Stokes-747.200	10.100	-0.155	-0.118
-746.185	-200.000	-0.002	0.182
-745.171	78.414	-0.345	0.370
-744.156	-25.943	-0.169	-0.100
-743.142	800.000	-0.012	-0.039
-742.127	-127.924	-0.350	0.050
-741.112	-95.005	0.351	0.095
-740.098	-200.000	0.021	0.284
-739.083	-72.213	0.068	0.025
-738.069	243.879	-0.191	0.322
-737.054	174.373	-0.158	0.229
-736.039	219.274	-0.196	-0.314
-735.025	-31.843	0.099	-0.056
-734.010	160.647	-0.370	-0.518
-732.996	-139.128	-0.051	0.005
-731.981	779.540	-0.039	-0.108
-730.966	1.463	-0.164	0.118
-729.952	22.837	-0.141	-0.115
-728.937	-24.101	0.045	0.027
-727.923	338.031	0.129	0.251
-726.908	237.740	-0.214	-0.356
-725.894	88.478	-0.218	-0.243
-724.879	-62.745	0.179	-0.074
-723.864	168.179	-0.175	-0.249
-722.850	800.000	0.010	0.031
-721.835	800.000	0.100	0.375
-720.821	800.000	0.090	-0.289
-719.806	84.853	-0.161	0.177
-718.791	800.000	0.028	-0.110
-717.777	-53.079	-0.416	-0.191
-716.762	9.818	0.323	-0.245
-715.748	-200.000	0.069	0.405
-714.733	-79.509	-0.357	-0.121
-713.718	5.542	0.074	-0.055
-712.704	27.168	0.300	-0.252
-711.689	226.591	0.217	-0.352
-710.675	800.000	-0.071	0.290
-709.660	105.338	0.129	-0.152
-708.645	31.367	0.126	0.108
-707.631	-177.208	0.196	-0.005
-706.616	800.000	0.064	-0.202
-705.602	-91.229	-0.041	-0.012
-704.587	-200.000	0.021	-0.178
-703.572	-200.000	-0.002	0.023
-702.558	-200.000	-0.012	0.096
-701.543	-189.742	0.300	0.003
-700.529	282.989	-0.163	-0.293
-699.514	31.277	-0.182	-0.156
-698.499	-25.426	-0.144	-0.085
-697.485	21.012	0.047	0.038
-696.470	11.260	-0.101	-0.078
-695.456	159.293	-0.283	0.394
-694.441	-134.999	-0.329	-0.040
-693.426	-107.564	-0.195	-0.043
-692.412	-35.877	-0.098	-0.053
-691.397	-46.703	-0.417	-0.205
-690.383	155.735	-0.116	0.160
-689.368	-34.225	-0.198	0.109
-688.354	-65.900	0.118	-0.047
-687.339	-200.000	0.014	0.208
-686.324	-120.012	-0.195	0.033
-685.310	-200.000	0.009	0.065
-684.295	436.430	-0.065	-0.142
-683.281	-200.000	-0.022	0.228
-682.266	-200.000	-0.015	0.148
-681.251	800.000	0.065	0.197
-680.237	-101.122	-0.102	-0.025
-679.222	800.000	0.035	0.115
-678.208	-200.000	0.044	0.296
-677.193	-200.000	0.018	-0.422
-676.178	-200.000	-0.009	-0.127
-675.164	-21.992	-0.263	-0.160
-674.149	354.396	-0.102	0.203
-673.135	-36.958	0.132	-0.071
-672.120	-32.334	-0.184	-0.103
-671.105	2.921	0.181	0.132
-670.091	-82.755	0.321	0.104
-669.076	-161.941	-0.211	-0.011
-668.062	10.888	-0.153	-0.117
-667.047	202.792	-0.219	0.338
-666.032	450.417	0.049	0.108
-665.018	19.442	0.094	-0.076
-664.003	-200.000	-0.044	-0.337
-662.989	-57.108	-0.184	-0.081
-661.974	-149.873	-0.266	0.021
-660.959	-76.421	0.122	0.043
-659.945	1.126	-0.409	-0.293
-658.930	-23.043	-0.148	-0.089
-657.916	-55.526	0.211	-0.095
-656.901	-175.276	0.204	-0.006
-655.886	-27.593	-0.173	0.100
-654.872	-141.723	-0.174	-0.017
-653.857	-148.395	-0.290	0.024
-652.843	290.154	0.064	-0.116
-651.828	-96.804	0.284	-0.075
-650.814	-200.000	0.003	-0.057
-649.799	-146.151	0.319	0.028
-648.784	-12.513	-0.239	-0.156
-647.770	800.000	-0.028	0.089
-646.755	291.476	0.087	0.159
-645.741	-45.951	0.200	0.099
-644.726	28.077	0.072	0.061
-643.711	-146.682	0.249	-0.022
-642.697	800.000	0.084	0.239
-641.682	-200.000	-0.019	-0.176
-640.668	781.969	0.112	-0.306
-639.653	63.138	0.339	0.340
-638.638	174.641	-0.123	-0.177
-637.624	800.000	0.046	0.136
-636.609	-36.756	-0.242	0.130
-635.595	92.745	-0.310	-0.349
-634.580	27.554	-0.324	0.272
-633.565	107.014	-0.293	0.348
-632.551	-200.000	-0.002	-0.193
-631.536	-96.449	0.205	-0.054
-630.522	-83.185	0.252	0.081
-629.507	-200.000	-0.012	-0.135
-628.492	-200.000	-0.075	0.353
-627.478	-42.293	-0.084	-0.043
-626.463	4.018	-0.199	-0.145
-625.449	15.436	-0.228	-0.179
-624.434	88.925	0.180	-0.200
-623.419	-53.918	0.264	-0.120
-622.405	-154.590	-0.402	0.027
-621.390	108.004	-0.034	-0.040
-620.376	444.419	0.093	0.203
-619.361	800.000	-0.005	0.018
-618.346	-11.521	0.219	-0.143
-617.332	-51.229	-0.334	-0.156
-616.317	-32.007	-0.213	0.119
-615.303	-200.000	0.041	0.195
-614.288	-26.574	-0.113	-0.066
-613.273	201.324	0.078	0.120
-612.259	36.437	-0.116	-0.103
-611.244	321.997	0.260	-0.494
-610.230	554.025	-0.137	-0.329
-609.215	40.547	0.037	0.033
-608.201	233.575	-0.093	-0.153
-607.186	-60.690	0.496	0.210
-606.171	-200.000	-0.026	-0.502
-605.157	-11.786	-0.275	-0.180
-604.142	-28.349	0.120	0.069
-603.128	92.175	-0.157	-0.177
-602.113	-200.000	-0.004	0.132
-601.098	-111.290	0.363	0.074
-600.084	143.679	0.158	0.210
-599.069	-14.259	-0.326	-0.210
-598.055	9.127	-0.177	0.134
-597.040	-5.950	-0.071	-0.049
-596.025	31.828	0.202	0.173
-595.011	-200.000	0.006	-0.087
-593.996	800.000	-0.036	-0.114
-592.982	48.219	-0.214	0.199
-591.967	-116.851	-0.160	-0.029
-590.952	-16.265	-0.233	-0.148
-589.938	-3.635	0.361	-0.250
-588.923	-55.147	-0.285	0.128
-587.909	280.210	0.108	-0.192
-586.894	217.781	0.183	0.291
-585.879	800.000	0.017	0.069
-584.865	96.637	-0.079	-0.090
-583.850	800.000	0.082	-0.278
-582.836	-152.648	-0.263	0.019
-581.821	93.092	0.143	-0.161
-580.806	-200.000	0.029	0.199
-579.792	800.000	0.069	0.221
-578.777	-200.000	0.047	-0.245
-577.763	-141.886	0.460	-0.046
-576.748	-120.342	-0.226	-0.038
-575.733	4.640	-0.150	-0.110
-574.719	-200.000	0.025	0.190
-573.704	-95.945	0.236	-0.063
-572.690	504.869	0.026	-0.060
-571.675	-77.097	-0.362	-0.126
-570.661	1.319	-0.028	-0.020
-569.646	-11.143	0.034	-0.023
-568.631	-93.040	0.135	-0.038
-567.617	-175.242	0.206	0.006
-566.602	800.000	0.029	0.086
-565.588	800.000	0.080	0.253
-564.573	106.776	-0.318	0.376
-563.558	272.166	-0.205	0.361
-562.544	800.000	0.031	0.100
-561.529	486.571	-0.060	-0.137
-560.515	-98.171	0.184	-0.047
-559.500	-200.000	-0.067	0.295
-558.485	-38.747	0.108	-0.057
-557.471	25.311	0.220	-0.182
-556.456	-24.290	-0.145	-0.086
-555.442	1.751	-0.286	0.205
-554.427	-34.381	0.169	-0.092
-553.412	133.714	0.060	-0.077
-552.398	-12.228	-0.329	-0.214
-551.383	-126.404	-0.168	-0.025
-550.369	-200.000	-0.046	-0.248
-549.354	-55.171	-0.117	0.052
-548.339	366.039	-0.122	-0.246
-547.325	195.307	0.081	-0.123
-546.310	-72.864	-0.245	-0.090
-545.296	-145.936	0.355	-0.031
-544.281	-200.000	0.008	-0.100
-543.266	359.679	-0.040	0.079
-542.252	-200.000	0.025	0.281
-541.237	-200.000	-0.006	-0.083
-540.223	117.886	0.130	-0.159
-539.208	800.000	-0.071	-0.197
-538.193	-37.101	-0.069	-0.037
-537.179	-200.000	0.000	0.054
-536.164	-200.000	-0.027	0.159
-535.150	-76.620	0.121	0.042
-534.135	78.768	0.164	0.174
-533.121	13.793	0.046	0.036
-532.106	56.692	-0.167	-0.162
-531.091	800.000	-0.058	-0.223
-530.077	112.636	-0.165	-0.199
-529.062	-200.000	0.011	-0.065
-528.048	-200.000	0.018	0.277
-527.033	800.000	-0.029	-0.096
-526.018	466.667	0.043	0.095
-525.004	-21.418	0.269	-0.163
-523.989	-200.000	0.025	0.149
-522.975	13.561	0.262	0.202
-521.960	800.000	0.060	0.191
-520.945	800.000	-0.096	0.314
-519.931	-40.825	0.070	0.036
-518.916	181.340	0.239	0.349
-517.902	424.440	0.055	0.118
-516.887	581.688	0.042	0.103
-515.872	-169.134	-0.064	-0.002
-514.858	-200.000	-0.000	0.048
-513.843	457.148	-0.153	0.338
-512.829	237.211	-0.047	-0.078
-511.814	410.865	-0.176	-0.371
-510.799	-129.001	0.078	0.011
-509.785	60.212	-0.162	0.160
-508.770	22.908	-0.068	-0.055
-507.756	-200.000	0.012	-0.315
-506.741	-200.000	-0.004	-0.091
-505.726	-73.900	0.199	-0.072
-504.712	-67.477	-0.089	0.035
-503.697	-33.078	-0.185	0.102
-502.683	-105.851	0.296	0.066
-501.668	-200.000	0.048	0.232
-500.653	-33.249	-0.085	0.047
-499.639	800.000	0.069	0.258
-498.624	60.067	0.101	-0.099
-497.610	-46.126	0.250	-0.122
-496.595	-85.470	-0.284	0.088
-495.581	800.000	-0.071	-0.203
-494.566	-167.212	-0.221	-0.009
-493.551	-65.782	0.128	0.051
-492.537	151.668	-0.122	0.165
-491.522	-5.496	-0.215	0.146
-490.508	-23.035	0.043	-0.026
-489.493	-55.537	0.107	0.047
-488.478	-27.335	-0.313	-0.181
-487.464	800.000	-0.040	-0.134
-486.449	-8.184	-0.262	0.175
-485.435	177.589	0.206	-0.299
-484.420	280.403	0.074	-0.132
-483.405	184.271	-0.158	0.232
-482.391	541.334	-0.144	0.342
-481.376	-123.779	-0.292	-0.046
-480.362	800.000	-0.107	-0.360
-479.347	286.754	-0.091	-0.164
-478.332	42.813	0.248	0.225
-477.318	800.000	0.110	0.389
-476.303	505.256	0.051	-0.118
-475.289	462.147	0.179	-0.397
-474.274	-6.492	0.164	0.111
-473.259	230.067	0.110	0.179
-472.245	-200.000	0.026	0.116
-471.230	-144.916	0.074	0.007
-470.216	-200.000	-0.031	0.465
-469.201	-200.000	-0.015	-0.307
-468.186	149.193	0.099	-0.133
-467.172	-200.000	0.000	-0.147
-466.157	-29.828	-0.389	0.220
-465.143	-85.056	0.058	-0.018
-464.128	16.569	0.074	0.058
-463.113	800.000	-0.081	0.257
-462.099	-119.971	0.094	-0.016
-461.084	-174.000	0.306	0.009
-460.070	505.415	0.078	0.178
-459.055	38.261	-0.180	0.159
-458.040	308.395	-0.073	0.136
-457.026	-200.000	0.004	-0.097
-456.011	-37.121	-0.066	0.035
-454.997	104.896	0.161	-0.188
-453.982	142.408	0.042	-0.055
-452.968	-57.087	-0.136	0.060
-451.953	-200.000	0.003	-0.114
-450.938	-145.672	0.172	-0.015
-449.924	800.000	0.122	0.391
-448.909	40.946	-0.082	0.073
-447.895	800.000	-0.058	0.186
-446.880	-200.000	-0.002	0.107
-445.865	-158.187	0.474	0.027
-444.851	316.656	0.045	0.084
-443.836	-200.000	-0.018	0.085
-442.822	-34.358	0.310	-0.169
-441.807	183.238	-0.081	0.119
-440.792	105.757	0.128	-0.150
-439.778	-72.782	-0.128	0.047
-438.763	-200.000	0.013	-0.314
-437.749	-77.191	-0.086	0.030
-436.734	213.516	0.134	-0.210
-435.719	-39.880	0.432	-0.223
-434.705	-200.000	-0.045	-0.388
-433.690	45.267	0.056	-0.051
-432.676	-109.571	0.118	0.025
-431.661	327.731	-0.081	-0.153
-430.646	-62.243	0.029	0.012
-429.632	-200.000	0.029	0.146
-428.617	-200.000	0.010	-0.156
-427.603	-200.000	-0.017	-0.146
-426.588	800.000	-0.010	0.038
-425.573	-200.000	-0.015	-0.321
-424.559	-200.000	0.007	0.259
-423.544	263.893	-0.037	-0.064
-422.530	-183.626	-0.105	-0.002
-421.515	-137.760	-0.525	-0.058
-420.500	-57.367	0.293	-0.127
-419.486	-89.678	-0.090	0.026
-418.471	740.699	0.035	0.094
-417.457	169.154	-0.083	-0.117
-416.442	-48.540	0.101	0.048
-415.428	118.227	0.212	-0.259
-414.413	-88.622	0.166	0.049
-413.398	800.000	-0.122	-0.341
-412.384	262.868	-0.078	0.134
-411.369	800.000	-0.034	0.127
-410.355	785.666	-0.058	-0.159
-409.340	-61.961	-0.201	-0.083
-408.325	-119.688	-0.358	0.061
-407.311	800.000	-0.080	-0.221
-406.296	479.813	0.038	-0.085
-405.282	415.652	0.134	-0.283
-404.267	-200.000	-0.022	-0.224
-403.252	-27.757	-0.045	-0.026
-402.238	-21.944	-0.129	-0.077
-401.223	-143.963	0.231	0.022
-400.209	-200.000	-0.004	-0.048
-399.194	-84.047	-0.095	-0.030
-398.179	-200.000	-0.086	-0.449
-397.165	6.941	-0.076	0.056
-396.150	-32.447	-0.303	0.167
-395.136	5.319	0.160	0.117
-394.121	115.570	0.061	-0.073
-393.106	-39.882	0.069	-0.036
-392.092	87.916	-0.080	-0.088
-391.077	349.799	-0.047	0.092
-390.063	-109.537	-0.176	0.037
-389.048	4.922	-0.208	-0.151
-388.033	-200.000	0.006	-0.145
-387.019	115.072	0.144	0.174
-386.004	-200.000	0.015	0.172
-384.990	-78.906	0.204	0.069
-383.975	86.491	-0.110	0.120
-382.960	-119.014	0.270	0.047
-381.946	-200.000	-0.038	-0.188
-380.931	-49.894	-0.129	-0.060
-379.917	-200.000	-0.006	-0.121
-378.902	-142.256	-0.246	-0.024
-377.888	166.273	0.120	-0.168
-376.873	444.414	0.108	0.235
-375.858	800.000	-0.073	-0.289
-374.844	-142.694	-0.431	0.042
-373.829	-156.963	-0.206	-0.012
-372.815	75.148	0.208	0.217
-371.800	-59.628	-0.283	-0.120
-370.785	421.787	-0.144	0.306
-369.771	175.424	0.111	0.159
-368.756	-200.000	0.048	0.249
-367.742	-200.000	-0.011	0.151
-366.727	230.217	-0.156	0.251
-365.712	558.263	-0.100	0.239
-364.698	-179.219	0.188	-0.004
-363.683	-7.526	0.194	0.130
-362.669	19.259	-0.170	-0.135
-361.654	-134.319	0.136	-0.016
-360.639	-153.547	-0.315	-0.021
-359.625	-98.846	0.272	0.068
-358.610	-94.599	-0.052	-0.014
-357.596	228.062	0.070	-0.112
-356.581	-81.995	-0.011	0.004
-355.566	-200.000	-0.044	0.282
-354.552	-116.542	0.128	0.023
-353.537	800.000	0.039	0.165
-352.523	-110.701	-0.088	0.018
-351.508	-200.000	-0.003	0.138
-350.493	800.000	-0.073	0.245
-349.479	-37.418	-0.137	0.072
-348.464	693.865	0.066	0.171
-347.450	625.595	-0.193	0.481
-346.435	280.705	-0.089	-0.158
-345.420	222.400	-0.108	0.172
-344.406	126.216	-0.062	-0.077
-343.391	69.675	0.151	-0.153
-342.377	-77.141	0.218	0.075
-341.362	658.608	0.126	-0.320
-340.348	-47.481	0.319	-0.153
-339.333	800.000	-0.068	0.248
-338.318	141.847	-0.133	-0.174
-337.304	-123.671	-0.164	-0.026
-336.289	-123.604	-0.306	0.048
-335.275	-99.355	0.211	-0.053
-334.260	70.448	0.252	-0.257
-333.245	-200.000	0.283	-0.000
-332.231	239.076	0.079	0.130
-331.216	-52.868	-0.173	0.079
-330.202	800.000	0.101	0.405
-329.187	314.845	-0.186	0.347
-328.172	-88.595	0.080	0.023
-327.158	-141.561	-0.262	0.026
-326.143	-200.000	-0.010	0.264
-325.129	-69.512	0.371	-0.140
-324.114	-200.000	-0.016	-0.153
-323.099	-200.000	-0.008	0.368
-322.085	-137.913	-0.283	0.031
-321.070	5.713	-0.295	0.215
-320.056	359.694	-0.148	0.291
-319.041	55.907	-0.184	0.176
-318.026	-25.338	-0.416	0.243
-317.012	651.289	0.113	0.286
-315.997	511.046	0.060	-0.137
-314.983	-41.853	-0.106	-0.054
-313.968	154.152	0.075	-0.102
-312.953	86.545	-0.043	-0.046
-311.939	-200.000	-0.035	0.306
-310.924	-97.328	0.174	-0.045
-309.910	-37.739	0.510	-0.268
-308.895	-77.896	0.212	-0.072
-307.880	-68.104	-0.417	-0.160
-306.866	-200.000	-0.009	0.232
-305.851	-200.000	-0.013	-0.089
-304.837	-50.060	0.364	0.170
-303.822	-71.529	-0.186	-0.069
-302.807	-67.492	-0.334	-0.129
-301.793	453.431	-0.080	-0.175
-300.778	800.000	-0.023	0.094
-299.764	202.170	-0.109	-0.166
-298.749	-200.000	-0.007	0.072
-297.735	102.998	-0.250	0.289
-296.720	800.000	0.069	-0.196
-295.705	-200.000	0.036	-0.304
-294.691	-200.000	0.005	0.029
-293.676	99.494	-0.197	-0.225
-292.662	28.947	0.164	0.137
-291.647	-200.000	0.061	0.349
-290.632	22.017	-0.259	-0.208
-289.618	800.000	0.091	0.287
-288.603	800.000	0.120	-0.408
-287.589	239.889	0.198	-0.325
-286.574	-117.496	0.407	0.072
-285.559	107.152	0.125	-0.146
-284.545	511.520	-0.028	0.063
-283.530	157.604	0.272	-0.371
-282.516	-116.614	-0.277	-0.050
-281.501	23.358	-0.129	-0.105
-280.486	-122.757	0.375	0.060
-279.472	-37.437	-0.351	-0.185
-278.457	-34.142	-0.112	0.061
-277.443	-161.128	0.366	-0.019
-276.428	-132.405	0.064	0.008
-275.413	12.139	-0.047	-0.035
-274.399	-108.624	-0.209	0.044
-273.384	800.000	-0.087	-0.337
-272.370	-61.804	0.057	0.023
-271.355	800.000	0.081	-0.248
-270.340	-200.000	-0.055	-0.457
-269.326	271.134	0.108	-0.187
-268.311	-181.365	-0.153	-0.003
-267.297	56.682	-0.123	0.118
-266.282	-49.730	-0.259	0.121
-265.267	205.087	-0.090	-0.137
-264.253	-19.050	-0.086	-0.053
-263.238	190.285	0.242	-0.358
-262.224	-99.177	0.342	0.085
-261.209	122.104	-0.093	-0.114
-260.195	800.000	0.037	0.133
-259.180	-20.456	-0.163	0.098
-258.165	-178.653	-0.125	0.003
-257.151	358.132	0.110	0.216
-256.136	259.565	0.021	0.036
-255.122	222.126	0.120	-0.190
-254.107	583.493	0.204	-0.492
-253.092	-129.429	0.247	0.034
-252.078	501.251	-0.151	0.343
-251.063	-54.217	-0.301	0.135
-250.049	800.000	-0.039	0.149
-249.034	-20.040	0.249	-0.151
-248.019	-200.000	0.013	-0.110
-247.005	-113.521	0.148	0.029
-245.990	-31.562	-0.090	-0.050
-244.976	224.683	0.116	0.185
-243.961	57.428	0.174	-0.167
-242.946	-200.000	0.008	-0.278
-241.932	-200.000	-0.020	-0.235
-240.917	-36.084	-0.172	0.091
-239.903	-200.000	-0.004	-0.022
-238.888	800.000	0.191	0.636
-237.873	-60.791	0.124	-0.051
-236.859	620.041	0.125	-0.309
-235.844	800.000	0.024	0.082
-234.830	785.534	-0.057	-0.154
-233.815	800.000	0.023	-0.096
-232.800	88.075	0.052	0.057
-231.786	-18.473	-0.113	-0.069
-230.771	120.558	-0.070	-0.085
-229.757	553.962	-0.173	-0.410
-228.742	772.543	0.084	-0.224
-227.727	70.857	-0.184	-0.187
-226.713	-74.210	-0.033	0.012
-225.698	-59.085	0.182	-0.077
-224.684	800.000	0.052	-0.174
-223.669	306.428	-0.080	0.145
-222.655	8.087	0.060	-0.044
-221.640	800.000	-0.043	-0.187
-220.625	294.689	0.071	-0.127
-219.611	-200.000	0.020	-0.266
-218.596	27.225	-0.076	-0.063
-217.582	522.543	-0.039	0.090
-216.567	133.185	-0.169	0.214
-215.552	421.919	-0.043	-0.091
-214.538	800.000	-0.009	-0.034
-213.523	-142.715	0.166	0.016
-212.509	-68.361	-0.098	0.037
-211.494	800.000	0.081	-0.289
-210.479	277.454	-0.119	0.207
-209.465	800.000	0.042	-0.136
-208.450	114.615	-0.076	-0.091
-207.436	-151.473	0.167	0.012
-206.421	-49.664	0.080	-0.038
-205.406	-31.207	-0.256	-0.142
-204.392	-59.017	0.039	0.016
-203.377	79.852	0.097	0.102
-202.363	-121.908	0.192	-0.031
-201.348	691.671	0.015	0.039
-200.333	-116.204	0.302	-0.055
-199.319	204.909	0.183	0.278
-198.304	327.045	-0.111	0.209
-197.290	425.175	0.045	-0.095
-196.275	269.379	0.193	-0.333
-195.260	-44.998	-0.308	-0.150
-194.246	57.796	-0.269	-0.259
-193.231	-56.175	0.342	-0.150
-192.217	800.000	0.218	0.645
-191.202	-105.372	0.473	0.106
-190.187	-200.000	0.015	-0.185
-189.173	800.000	-0.049	-0.134
-188.158	-200.000	-0.007	-0.099
-187.144	-200.000	0.060	0.524
-186.129	790.436	0.054	0.147
-185.114	213.775	-0.051	0.079
-184.100	-66.653	0.135	0.052
-183.085	800.000	0.015	-0.046
-182.071	-55.326	0.091	0.040
-181.056	158.985	-0.123	-0.167
-180.042	800.000	0.012	-0.042
-179.027	-77.015	-0.050	-0.017
-178.012	-200.000	-0.015	-0.125
-176.998	-111.472	0.210	0.042
-175.983	-85.405	-0.225	-0.069
-174.969	23.648	-0.177	0.143
-173.954	800.000	0.152	0.519
-172.939	-98.187	-0.347	0.087
-171.925	14.263	0.232	-0.177
-170.910	-128.927	0.255	0.035
-169.896	-48.080	-0.166	0.079
-168.881	-200.000	-0.014	0.271
-167.866	-200.000	0.064	0.302
-166.852	-30.971	-0.044	-0.025
-165.837	-173.191	-0.129	0.004
-164.823	-200.000	0.040	0.548
-163.808	542.839	0.113	-0.265
-162.793	-158.365	-0.086	0.005
-161.779	4.859	0.152	0.109
-160.764	800.000	-0.067	0.226
-159.750	-200.000	-0.080	-0.518
-158.735	47.227	0.148	0.135
-157.720	-45.299	0.110	0.053
-156.706	255.615	0.126	0.212
-155.691	-200.000	0.023	0.317
-154.677	45.198	0.074	0.067
-153.662	15.924	-0.275	0.212
-152.647	-2.461	-0.090	0.062
-151.633	-200.000	0.016	0.346
-150.618	-17.892	0.170	0.104
-149.604	157.438	0.086	0.116
-148.589	203.833	-0.134	0.203
-147.574	-200.000	-0.025	0.172
-146.560	83.494	0.220	0.235
-145.545	-99.979	-0.367	0.090
-144.531	52.691	0.166	-0.155
-143.516	-5.661	-0.069	0.046
-142.502	595.575	0.137	-0.333
-141.487	578.930	0.053	0.128
-140.472	-27.207	0.338	0.193
-139.458	234.454	0.161	0.261
-138.443	59.618	-0.275	-0.266
-137.429	60.121	0.109	-0.106
-136.414	203.889	0.140	-0.212
-135.399	-200.000	-0.052	-0.258
-134.385	-48.066	0.320	-0.152
-133.370	417.251	0.014	-0.029
-132.356	-200.000	0.025	-0.301
-131.341	-97.967	0.235	-0.059
-130.326	800.000	-0.097	0.308
-129.312	-43.822	-0.274	-0.135
-128.297	-79.864	0.135	0.045
-127.283	-44.464	-0.055	0.027
-126.268	800.000	0.074	0.260
-125.253	17.647	0.307	0.239
-124.239	-127.752	-0.499	-0.070
-123.224	-200.000	-0.006	0.204
-122.210	-141.484	-0.348	0.034
-121.195	222.125	0.120	0.189
