DTS Sentinel unit serial number:	SN413079Multiplexer serial number:	ORYXHardware model number:	OX4-SRSoftware version number:	ORYX F/W v4.00 Oryx Data Collector v3.7.2.0data status	okinstallation	princeton_trtdifferential loss correction	single-endedforward channel	channel 1reverse channel	N/Adate	2019/09/13time	16:30:35forward acquisition time	60.00reverse acquisition time	0.00gamma	496.2192k internal	0.2304k external	0.2304temperature offset calibration	1.0164default loss term (dB/km)	0.3790temperature slope calibration	1.0000multiplexer offset coefficient	1.0000multiplexer slope coefficient	1.0000fibre end	0.00T internal ref (°C)	35.06T ext. ref 1 (°C)	4.89T ext. ref 2 (°C)	30.74length (m)	temperature (°C)	Stokes	anti-Stokes-747.200	800.000	0.048	0.172
-746.185	609.129	0.203	0.515
-745.171	-200.000	0.372	-0.000
-744.156	-133.966	-0.081	-0.010
-743.142	364.819	0.099	0.203
-742.127	617.111	0.067	0.170
-741.112	-0.493	-0.215	0.155
-740.098	48.374	0.122	0.116
-739.083	522.225	0.080	-0.190
-738.069	261.032	0.173	-0.304
-737.054	-155.425	-0.175	-0.012
-736.039	-200.000	-0.055	-0.323
-735.025	-200.000	0.023	-0.125
-734.010	-82.917	-0.300	-0.099
-732.996	-200.000	0.020	-0.205
-731.981	366.830	-0.146	-0.300
-730.966	264.528	-0.256	-0.454
-729.952	-102.603	0.322	-0.078
-728.937	126.375	-0.045	-0.058
-727.923	-131.322	-0.192	-0.026
-726.908	800.000	-0.046	-0.153
-725.894	107.876	-0.261	-0.317
-724.879	-69.635	0.210	0.082
-723.864	-126.090	-0.306	0.047
-722.850	67.281	0.126	-0.131
-721.835	59.909	-0.139	-0.140
-720.821	46.703	0.221	0.209
-719.806	-27.360	0.098	0.058
-718.791	-144.308	-0.217	-0.021
-717.777	80.180	-0.174	0.190
-716.762	-200.000	-0.037	-0.280
-715.748	61.208	0.078	-0.079
-714.733	738.189	0.098	-0.267
-713.718	169.810	-0.158	-0.229
-712.704	-149.933	0.311	0.025
-711.689	-105.932	0.370	0.085
-710.675	253.733	-0.094	0.163
-709.660	-200.000	-0.012	-0.082
-708.645	-200.000	0.057	0.265
-707.631	53.706	-0.053	-0.052
-706.616	-200.000	-0.020	0.257
-705.602	-75.091	0.269	-0.098
-704.587	30.967	-0.200	-0.175
-703.572	128.527	-0.074	-0.095
-702.558	-200.000	0.001	-0.027
-701.543	800.000	0.111	-0.457
-700.529	-200.000	-0.046	0.290
-699.514	78.681	-0.177	0.192
-698.499	365.027	-0.073	-0.149
-697.485	-156.939	-0.234	-0.015
-696.470	-82.633	-0.103	0.034
-695.456	-19.519	0.285	-0.179
-694.441	-31.719	-0.029	-0.016
-693.426	-164.267	-0.108	-0.005
-692.412	-200.000	0.044	0.306
-691.397	799.124	-0.061	-0.172
-690.383	0.622	0.107	0.078
-689.368	-11.833	-0.006	-0.004
-688.354	-65.776	-0.271	0.110
-687.339	191.651	-0.091	-0.139
-686.324	-44.023	0.140	-0.072
-685.310	97.919	0.098	0.115
-684.295	-75.153	0.285	-0.103
-683.281	-196.015	0.145	-0.001
-682.266	-69.294	-0.186	-0.073
-681.251	-55.976	0.309	-0.140
-680.237	800.000	0.045	0.194
-679.222	-15.901	-0.334	-0.216
-678.208	181.520	0.182	0.271
-677.193	-54.048	-0.185	-0.086
-676.178	575.523	-0.068	0.168
-675.164	503.999	0.085	-0.199
-674.149	-53.324	0.184	-0.085
-673.135	641.188	0.073	0.189
-672.120	-35.103	0.195	0.108
-671.105	257.311	-0.154	0.268
-670.091	523.083	-0.048	-0.114
-669.076	800.000	0.075	-0.213
-668.062	66.653	0.290	-0.300
-667.047	15.074	-0.299	-0.238
-666.032	-163.095	0.231	0.011
-665.018	-47.770	-0.106	0.052
-664.003	188.736	-0.340	-0.517
-662.989	-58.112	-0.162	0.072
-661.974	-120.385	-0.359	0.062
-660.959	374.583	0.143	0.297
-659.945	800.000	-0.069	0.200
-658.930	453.097	0.090	-0.202
-657.916	-52.268	0.338	-0.159
-656.901	435.715	-0.032	-0.071
-655.886	40.724	-0.291	-0.266
-654.872	-138.583	0.224	0.025
-653.857	-49.978	-0.062	0.030
-652.843	-20.620	0.303	-0.189
-651.828	800.000	0.066	-0.202
-650.814	-8.643	-0.145	0.099
-649.799	126.457	0.074	-0.095
-648.784	147.994	0.160	-0.219
-647.770	81.224	-0.147	0.161
-646.755	242.483	-0.177	-0.300
-645.741	-99.859	-0.161	0.041
-644.726	49.990	-0.153	0.147
-643.711	-200.000	-0.032	0.447
-642.697	800.000	0.027	0.079
-641.682	346.832	-0.093	0.186
-640.668	1.091	-0.123	0.090
-639.653	616.604	-0.078	-0.199
-638.638	-186.048	0.189	0.003
-637.624	-200.000	0.026	-0.126
-636.609	-64.097	0.182	-0.075
-635.595	-30.912	-0.297	0.170
-634.580	573.789	-0.113	-0.280
-633.565	-96.797	0.139	0.037
-632.551	-125.766	-0.197	-0.030
-631.536	-200.000	0.015	0.112
-630.522	-200.000	0.012	-0.257
-629.507	800.000	0.034	-0.134
-628.492	-110.925	0.403	-0.084
-627.478	64.004	-0.217	-0.221
-626.463	-95.342	0.168	-0.046
-625.449	104.936	0.141	-0.169
-624.434	-128.043	0.221	0.032
-623.419	10.978	0.073	-0.057
-622.405	800.000	-0.092	0.335
-621.390	-159.450	0.115	-0.006
-620.376	-116.283	-0.069	0.013
-619.361	144.633	0.112	0.152
-618.346	226.665	0.068	-0.112
-617.332	-200.000	-0.058	-0.278
-616.317	79.874	-0.177	-0.192
-615.303	-56.875	0.426	0.191
-614.288	323.153	-0.087	-0.167
-613.273	800.000	0.025	0.095
-612.259	-7.272	0.257	-0.177
-611.244	-165.292	-0.381	0.017
-610.230	-200.000	0.003	0.032
-609.215	-141.012	0.145	-0.015
-608.201	800.000	-0.055	-0.193
-607.186	-200.000	0.020	-0.177
-606.171	165.661	0.037	-0.053
-605.157	-195.122	0.044	0.000
-604.142	-200.000	0.037	-0.271
-603.128	81.740	-0.258	-0.283
-602.113	800.000	0.128	0.419
-601.098	-200.000	-0.020	-0.253
-600.084	-55.207	0.177	-0.080
-599.069	494.250	0.063	-0.148
-598.055	-92.867	0.334	-0.095
-597.040	-71.264	0.073	-0.028
-596.025	101.630	0.134	0.158
-595.011	-200.000	-0.223	-0.001
-593.996	-93.744	-0.311	-0.087
-592.982	48.203	-0.189	-0.179
-591.967	209.609	0.029	0.047
-590.952	166.446	-0.128	-0.183
-589.938	-200.000	0.094	0.501
-588.923	-53.720	-0.272	-0.126
-587.909	-200.000	-0.039	-0.177
-586.894	-68.167	0.246	-0.097
-585.879	25.300	-0.172	-0.145
-584.865	-84.739	0.327	-0.104
-583.850	356.281	0.133	-0.267
-582.836	6.657	0.048	0.036
-581.821	3.221	0.117	0.086
-580.806	-200.000	0.001	0.030
-579.792	-86.696	0.194	-0.060
-578.777	274.806	-0.081	-0.145
-577.763	49.902	-0.254	-0.242
-576.748	-50.811	0.371	-0.177
-575.733	228.363	-0.138	-0.228
-574.719	-154.036	0.201	0.014
-573.704	109.505	-0.016	0.019
-572.690	-56.441	-0.193	0.087
-571.675	57.642	0.179	-0.177
-570.661	-34.499	0.258	-0.143
-569.646	-11.254	0.274	0.182
-568.631	-200.000	0.033	-0.307
-567.617	416.931	-0.085	0.184
-566.602	-130.943	-0.146	-0.020
-565.588	-184.481	-0.036	0.001
-564.573	237.042	-0.081	0.136
-563.558	60.357	0.124	0.124
-562.544	-134.822	-0.369	-0.045
-561.529	23.517	-0.177	-0.147
-560.515	-132.400	-0.472	-0.062
-559.500	-200.000	-0.014	-0.090
-558.485	507.533	-0.053	-0.124
-557.471	800.000	-0.092	-0.258
-556.456	-53.709	0.134	-0.062
-555.442	-135.232	-0.460	-0.056
-554.427	-37.267	0.149	0.080
-553.412	-156.118	0.065	-0.004
-552.398	-59.324	0.171	-0.074
-551.383	-8.681	0.265	-0.180
-550.369	800.000	0.054	0.166
-549.354	19.158	-0.222	-0.180
-548.339	-132.247	0.137	-0.018
-547.325	-100.184	-0.210	-0.053
-546.310	-51.183	-0.399	-0.189
-545.296	800.000	-0.043	0.162
-544.281	24.986	0.277	0.232
-543.266	63.980	-0.033	-0.033
-542.252	546.856	0.183	0.442
-541.237	800.000	-0.024	-0.075
-540.223	-43.956	0.036	-0.018
-539.208	-200.000	-0.028	-0.159
-538.193	-200.000	-0.031	-0.165
-537.179	-200.000	-0.010	-0.251
-536.164	624.051	-0.050	0.127
-535.150	20.004	-0.149	0.121
-534.135	627.630	-0.066	-0.169
-533.121	-200.000	-0.003	-0.173
-532.106	800.000	0.026	0.102
-531.091	-200.000	0.059	0.324
-530.077	105.466	-0.081	-0.097
-529.062	-200.000	-0.098	0.433
-528.048	-9.130	0.033	-0.023
-527.033	-200.000	-0.013	-0.065
-526.018	-44.206	-0.106	0.054
-525.004	-98.614	-0.143	0.037
-523.989	-129.497	0.424	-0.059
-522.975	-106.711	-0.122	-0.027
-521.960	140.327	0.021	0.028
-520.945	-200.000	-0.024	-0.306
-519.931	209.191	-0.127	0.201
-518.916	80.412	-0.398	-0.432
-517.902	61.405	-0.099	-0.099
-516.887	32.304	-0.115	-0.100
-515.872	140.135	0.139	0.185
-514.858	-167.757	0.368	-0.015
-513.843	470.419	-0.045	0.102
-512.829	-200.000	-0.059	0.347
-511.814	-38.979	0.109	0.058
-510.799	-120.051	0.131	-0.023
-509.785	-200.000	-0.025	-0.331
-508.770	-5.662	0.282	-0.195
-507.756	-156.497	0.178	0.011
-506.741	800.000	-0.106	0.399
-505.726	760.536	-0.076	-0.208
-504.712	-182.018	-0.514	0.010
-503.697	343.021	0.078	0.154
-502.683	0.271	-0.159	-0.115
-501.668	-83.291	-0.538	0.174
-500.653	-200.000	-0.041	0.276
-499.639	13.854	0.183	-0.144
-498.624	-200.000	-0.024	0.169
-497.610	-200.000	0.033	0.353
-496.595	-190.032	-0.382	0.004
-495.581	-200.000	-0.038	0.302
-494.566	-78.033	0.160	-0.056
-493.551	800.000	0.059	-0.229
-492.537	37.360	0.065	0.058
-491.522	105.447	-0.172	-0.205
-490.508	-58.518	0.183	-0.080
-489.493	339.837	-0.050	0.099
-488.478	8.752	0.153	-0.116
-487.464	130.964	-0.098	-0.127
-486.449	-200.000	0.008	-0.081
-485.435	-10.393	-0.167	-0.111
-484.420	186.056	-0.104	-0.156
-483.405	45.702	0.169	-0.157
-482.391	-126.129	-0.210	0.032
-481.376	-137.670	-0.113	0.013
-480.362	270.456	-0.171	-0.303
-479.347	-148.311	0.128	0.011
-478.332	25.962	0.183	0.154
-477.318	36.808	0.112	0.100
-476.303	-15.748	0.245	0.158
-475.289	56.349	-0.187	0.183
-474.274	-33.210	0.103	-0.057
-473.259	-37.731	0.183	-0.098
-472.245	-67.668	0.312	-0.123
-471.230	-46.250	-0.147	0.073
-470.216	800.000	0.060	-0.260
-469.201	136.636	-0.178	0.234
-468.186	336.585	0.081	-0.159
-467.172	-200.000	-0.025	-0.191
-466.157	76.860	-0.035	-0.038
-465.143	-163.860	-0.034	-0.002
-464.128	800.000	0.071	0.285
-463.113	-145.389	-0.113	0.010
-462.099	800.000	0.082	0.303
-461.084	800.000	-0.051	-0.219
-460.070	129.758	0.048	0.061
-459.055	56.558	0.057	-0.056
-458.040	26.404	-0.171	0.144
-457.026	-200.000	-0.052	0.276
-456.011	-118.257	0.426	-0.076
-454.997	526.232	0.045	-0.108
-453.982	-5.875	0.097	0.067
-452.968	-32.018	-0.152	0.086
-451.953	-200.000	0.013	0.119
-450.938	-46.302	-0.262	-0.130
-449.924	-130.345	-0.093	-0.013
-448.909	-76.098	0.090	0.032
-447.895	-113.404	-0.074	0.015
-446.880	-40.618	0.229	0.120
-445.865	-200.000	-0.028	0.171
-444.851	12.786	0.067	-0.052
-443.836	339.801	0.032	-0.063
-442.822	800.000	0.113	-0.383
-441.807	-141.058	-0.317	-0.033
-440.792	-92.166	-0.317	-0.090
-439.778	-200.000	0.010	-0.169
-438.763	111.629	-0.214	0.259
-437.749	77.019	0.038	0.040
-436.734	-60.934	0.178	0.076
-435.719	800.000	0.027	0.098
-434.705	-127.693	-0.153	0.022
-433.690	-146.724	-0.155	-0.014
-432.676	-28.983	0.182	-0.105
-431.661	-113.802	0.033	-0.006
-430.646	185.412	0.143	-0.213
-429.632	318.905	-0.147	0.280
-428.617	-200.000	0.001	0.304
-427.603	-166.298	-0.017	-0.001
-426.588	-200.000	-0.024	0.154
-425.573	223.827	0.047	0.076
-424.559	-42.608	-0.186	0.095
-423.544	-61.421	-0.109	0.046
-422.530	-94.032	-0.135	-0.037
-421.515	-41.571	-0.011	-0.006
-420.500	363.552	0.065	0.131
-419.486	-57.438	-0.111	0.049
-418.471	-40.541	-0.120	0.063
-417.457	8.910	-0.130	-0.099
-416.442	-9.089	0.474	0.319
-415.428	87.805	-0.167	-0.186
-414.413	-30.215	0.157	-0.090
-413.398	-140.048	0.251	-0.027
-412.384	-200.000	-0.014	0.217
-411.369	-11.538	0.052	-0.034
-410.355	98.602	0.115	-0.133
-409.340	2.316	-0.038	-0.027
-408.325	707.208	0.043	-0.115
-407.311	34.332	0.338	-0.296
-406.296	-133.396	-0.518	0.066
-405.282	-100.118	0.291	0.073
-404.267	12.808	0.215	0.167
-403.252	-110.175	0.215	-0.045
-402.238	800.000	-0.051	0.207
-401.223	410.195	-0.203	-0.432
-400.209	53.072	0.106	0.102
-399.194	-89.714	0.133	-0.039
-398.179	2.217	-0.070	0.051
-397.165	-97.097	0.074	-0.019
-396.150	-196.848	0.173	-0.001
-395.136	-116.236	0.129	-0.024
-394.121	306.397	-0.052	0.097
-393.106	-186.822	0.127	0.002
-392.092	800.000	0.020	0.069
-391.077	206.312	-0.104	0.163
-390.063	-61.585	-0.234	-0.099
-389.048	-105.534	-0.064	0.015
-388.033	156.652	0.099	0.138
-387.019	225.105	0.183	0.298
-386.004	-118.860	-0.390	0.069
-384.990	37.717	-0.147	-0.131
-383.975	-149.977	-0.037	0.003
-382.960	-76.416	0.136	0.048
-381.946	-200.000	0.006	0.184
-380.931	-102.157	-0.270	0.065
-379.917	-200.000	0.008	-0.159
-378.902	15.869	0.105	-0.083
-377.888	-115.578	-0.091	-0.017
-376.873	-132.923	0.359	0.046
-375.858	-153.222	0.460	-0.032
-374.844	-200.000	-0.007	0.170
-373.829	209.446	-0.238	0.375
-372.815	-109.700	0.242	0.051
-371.800	-33.735	0.118	0.065
-370.785	140.554	0.036	0.048
-369.771	-173.972	-0.323	0.010
-368.756	23.275	0.024	-0.020
-367.742	-66.935	0.353	-0.140
-366.727	-36.884	0.236	-0.127
-365.712	-97.757	0.110	0.029
-364.698	42.847	0.219	0.200
-363.683	763.012	0.151	-0.412
-362.669	252.371	0.059	-0.101
-361.654	-200.000	-0.033	0.318
-360.639	-112.641	-0.226	0.045
-359.625	-147.953	-0.088	0.007
-358.610	-165.054	0.196	-0.009
-357.596	-200.000	0.025	-0.255
-356.581	735.528	-0.091	0.244
-355.566	52.958	-0.036	-0.034
-354.552	123.656	-0.123	-0.155
-353.537	-70.956	0.156	-0.059
-352.523	780.094	0.058	0.158
-351.508	-200.000	-0.039	-0.284
-350.493	-200.000	-0.001	0.028
-349.479	187.348	0.040	-0.061
-348.464	-55.501	0.199	-0.089
-347.450	123.116	-0.289	0.363
-346.435	70.321	0.225	0.234
-345.420	224.286	-0.148	-0.240
-344.406	67.885	-0.098	0.100
-343.391	55.020	0.367	0.355
-342.377	-200.000	-0.013	-0.185
-341.362	35.681	0.239	0.211
-340.348	-200.000	0.027	0.126
-339.333	-126.798	0.064	-0.009
-338.318	49.564	-0.173	-0.163
-337.304	151.186	-0.209	0.285
-336.289	193.985	0.122	0.186
-335.275	-200.000	0.026	0.189
-334.260	-51.898	0.280	-0.130
-333.245	-200.000	0.044	0.271
-332.231	-105.611	0.231	0.052
-331.216	-131.630	0.308	0.041
-330.202	105.826	0.035	-0.041
-329.187	1.577	0.244	-0.176
-328.172	71.750	0.134	-0.140
-327.158	800.000	-0.064	-0.184
-326.143	710.430	0.103	0.274
-325.129	19.803	0.324	0.262
-324.114	188.444	0.056	0.083
-323.099	-123.923	-0.096	-0.015
-322.085	-200.000	0.039	0.300
-321.070	11.856	0.325	0.250
-320.056	134.526	-0.249	-0.324
-319.041	800.000	-0.128	-0.371
-318.026	800.000	-0.064	-0.274
-317.012	181.606	-0.111	0.163
-315.997	166.448	-0.160	-0.227
-314.983	-200.000	0.029	0.294
-313.968	-8.174	0.134	-0.091
-312.953	414.748	0.123	0.263
-311.939	-122.145	-0.148	-0.024
-310.924	9.286	-0.111	0.084
-309.910	-50.481	-0.286	-0.135
-308.895	376.183	-0.099	0.202
-307.880	-36.351	0.183	-0.099
-306.866	-56.824	0.106	0.047
-305.851	-123.470	-0.170	-0.027
-304.837	-39.728	0.168	-0.088
-303.822	-200.000	0.028	-0.157
-302.807	-85.836	-0.231	-0.072
-301.793	-43.800	0.141	-0.071
-300.778	-148.120	0.134	-0.011
-299.764	-200.000	-0.054	0.263
-298.749	800.000	-0.110	0.345
-297.735	19.186	-0.168	0.135
-296.720	-28.302	0.250	-0.144
-295.705	778.283	-0.124	0.340
-294.691	117.412	-0.092	-0.113
-293.676	6.454	-0.318	0.236
-292.662	-155.610	0.329	-0.021
-291.647	-164.668	-0.276	-0.012
-290.632	-137.453	-0.291	-0.033
-289.618	-121.107	-0.244	0.041
-288.603	-78.139	-0.210	-0.072
-287.589	800.000	0.033	0.120
-286.574	-161.123	0.203	0.011
-285.559	423.351	0.165	0.355
-284.545	-150.392	-0.244	0.019
-283.530	-124.146	-0.431	-0.068
-282.516	-62.521	-0.267	-0.111
-281.501	-139.755	-0.306	0.033
-280.486	354.080	-0.103	0.204
-279.472	382.944	-0.026	-0.054
-278.457	-156.189	0.035	-0.002
-277.443	-200.000	-0.001	-0.292
-276.428	99.939	0.047	0.055
-275.413	-167.810	0.226	-0.009
-274.399	-130.549	0.241	0.033
-273.384	-154.590	-0.114	0.008
-272.370	-186.143	-0.033	0.000
-271.355	730.258	-0.092	0.245
-270.340	10.475	0.245	0.186
-269.326	15.702	0.457	0.359
-268.311	237.163	-0.071	0.118
-267.297	23.092	0.198	-0.162
-266.282	31.343	-0.122	-0.105
-265.267	-98.511	0.146	0.037
-264.253	309.057	-0.010	-0.019
-263.238	-200.000	0.022	0.213
-262.224	-45.658	0.068	-0.034
-261.209	-1.453	0.293	-0.206
-260.195	286.444	-0.032	-0.057
-259.180	139.333	0.140	0.185
-258.165	99.761	0.198	-0.229
-257.151	-83.879	-0.288	-0.092
-256.136	176.081	-0.031	-0.045
-255.122	131.336	0.171	0.219
-254.107	-55.724	0.082	0.037
-253.092	413.432	-0.086	0.182
-252.078	74.137	0.092	-0.096
-251.063	-107.888	0.199	-0.043
-250.049	-71.627	-0.241	0.090
-249.034	37.696	-0.301	-0.267
-248.019	-200.000	0.002	-0.042
-247.005	271.061	-0.176	-0.309
-245.990	501.720	-0.047	-0.108
-244.976	-77.505	0.204	0.071
-243.961	800.000	0.117	0.401
-242.946	124.202	0.100	0.126
-241.932	-35.291	0.172	-0.093
-240.917	130.756	-0.272	0.348
-239.903	-200.000	-0.011	0.064
-238.888	61.242	-0.155	-0.153
-237.873	-200.000	-0.004	-0.276
-236.859	-113.425	-0.281	0.055
-235.844	366.731	0.180	0.363
-234.830	-158.200	-0.071	-0.004
-233.815	-200.000	-0.031	-0.212
-232.800	-200.000	-0.017	0.151
-231.786	378.016	0.062	0.126
-230.771	-34.861	-0.253	0.138
-229.757	467.755	0.033	-0.075
-228.742	-53.084	0.218	-0.100
-227.727	16.164	-0.200	0.157
-226.713	-200.000	-0.005	0.285
-225.698	22.914	-0.094	-0.077
-224.684	114.901	0.179	0.218
-223.669	171.626	0.188	-0.269
-222.655	76.932	-0.219	-0.232
-221.640	54.694	0.257	0.247
-220.625	-92.656	0.197	-0.055
-219.611	800.000	-0.105	-0.352
-218.596	800.000	-0.065	0.210
-217.582	-108.096	0.188	0.041
-216.567	29.769	-0.323	-0.274
-215.552	-163.780	-0.137	0.006
-214.538	-14.474	-0.109	0.070
-213.523	53.891	-0.182	0.175
-212.509	18.794	0.065	-0.052
-211.494	800.000	-0.173	-0.492
-210.479	-200.000	0.087	0.493
-209.465	461.843	0.124	-0.276
-208.450	140.484	0.187	0.247
-207.436	197.851	0.075	-0.114
-206.421	-94.484	0.088	0.024
-205.406	-200.000	0.002	-0.263
-204.392	-138.955	-0.269	-0.029
-203.377	-200.000	-0.041	-0.231
-202.363	-200.000	-0.047	-0.365
-201.348	-200.000	0.041	-0.210
-200.333	36.469	-0.230	-0.202
-199.319	89.010	0.076	-0.084
-198.304	302.731	0.082	-0.152
-197.290	-9.959	-0.050	0.033
-196.275	800.000	0.059	0.251
-195.260	32.183	-0.078	-0.067
-194.246	1.137	-0.033	-0.023
-193.231	-160.662	-0.107	0.006
-192.217	800.000	-0.017	-0.051
-191.202	82.507	0.087	-0.094
-190.187	-200.000	0.046	-0.343
-189.173	229.151	0.094	0.153
-188.158	-81.546	0.253	0.083
-187.144	-26.341	0.099	-0.058
-186.129	800.000	-0.082	-0.299
-185.114	-200.000	-0.009	0.258
-184.100	212.030	0.169	-0.265
-183.085	-156.395	0.187	0.012
-182.071	800.000	0.059	-0.188
-181.056	-200.000	-0.016	-0.203
-180.042	-83.837	-0.206	0.065
-179.027	-129.651	-0.053	-0.007
-178.012	-86.855	0.138	0.042
-176.998	-118.536	-0.211	0.037
-175.983	129.384	0.252	0.321
-174.969	772.470	0.021	-0.057
-173.954	57.275	-0.113	0.110
-172.939	800.000	-0.114	0.397
-171.925	-200.000	-0.026	0.360
-170.910	-86.312	-0.233	0.071
-169.896	-48.847	-0.173	-0.083
-168.881	-7.978	-0.240	-0.161
-167.866	319.067	0.124	0.234
-166.852	355.338	0.149	-0.296
-165.837	800.000	-0.043	0.136
-164.823	-200.000	-0.069	0.345
-163.808	-200.000	0.022	0.191
-162.793	443.584	0.068	-0.148
-161.779	-155.590	-0.445	0.029
-160.764	482.656	0.067	-0.152
-159.750	340.661	0.123	0.238
-158.735	-101.080	-0.209	-0.051
-157.720	-104.732	-0.299	-0.068
-156.706	800.000	0.099	-0.283
-155.691	-17.520	-0.237	0.149
-154.677	800.000	-0.031	0.104
-153.662	800.000	0.088	-0.285
-152.647	-32.216	-0.129	0.072
-151.633	-126.145	0.124	0.019
-150.618	-50.259	0.174	0.082
-149.604	-200.000	0.028	0.272
-148.589	-200.000	-0.024	-0.107
-147.574	-200.000	-0.002	0.067
-146.560	-200.000	-0.038	-0.219
-145.545	-200.000	0.009	0.082
-144.531	-17.059	-0.097	0.061
-143.516	86.974	0.189	0.207
-142.502	-63.596	-0.390	0.159
-141.487	61.761	-0.131	-0.129
-140.472	-111.610	0.075	0.015
-139.458	-98.909	0.236	-0.060
-138.443	472.868	0.071	0.159
-137.429	800.000	0.041	0.119
-136.414	-0.768	-0.236	-0.166
-135.399	718.995	0.039	-0.103
-134.385	236.246	0.077	0.126
-133.370	-58.656	0.050	0.022
-132.356	463.310	-0.016	-0.036
-131.341	2.272	0.210	-0.151
-130.326	-49.236	-0.038	0.018
-129.312	-177.851	0.224	0.005
-128.297	0.400	0.083	0.059
-127.283	244.142	-0.149	-0.249
-126.268	418.562	0.057	-0.122
-125.253	94.404	0.078	0.088
-124.239	-42.753	-0.293	0.148
-123.224	-200.000	-0.023	-0.248
-122.210	271.172	0.033	0.058
