DTS Sentinel unit serial number:	SN413079Multiplexer serial number:	ORYXHardware model number:	OX4-SRSoftware version number:	ORYX F/W v4.00 Oryx Data Collector v3.7.2.0data status	okinstallation	princeton_trtdifferential loss correction	single-endedforward channel	channel 1reverse channel	N/Adate	2019/09/16time	21:34:35forward acquisition time	60.00reverse acquisition time	0.00gamma	496.2192k internal	0.2325k external	0.2325temperature offset calibration	0.9957default loss term (dB/km)	0.3790temperature slope calibration	1.0000multiplexer offset coefficient	1.0000multiplexer slope coefficient	1.0000fibre end	0.00T internal ref (°C)	31.42T ext. ref 1 (°C)	0.07T ext. ref 2 (°C)	25.59length (m)	temperature (°C)	Stokes	anti-Stokes-747.200	-79.710	0.472	0.160
-746.185	-76.774	-0.338	0.120
-745.171	-59.786	0.292	-0.126
-744.156	-34.016	-0.274	0.152
-743.142	-41.233	0.106	-0.055
-742.127	356.715	-0.073	0.147
-741.112	800.000	0.007	-0.020
-740.098	69.309	0.030	0.031
-739.083	-68.723	-0.440	-0.172
-738.069	226.452	-0.204	0.334
-737.054	-200.000	0.020	0.131
-736.039	-58.930	-0.252	-0.110
-735.025	132.457	0.127	-0.165
-734.010	42.634	0.056	-0.051
-732.996	39.572	-0.166	-0.150
-731.981	-86.765	-0.543	0.168
-730.966	378.830	-0.086	-0.178
-729.952	-53.913	-0.551	-0.253
-728.937	-85.240	0.179	-0.056
-727.923	-145.529	-0.198	0.018
-726.908	-178.549	-0.160	0.004
-725.894	130.439	-0.137	0.176
-724.879	83.602	0.172	-0.189
-723.864	800.000	-0.050	0.164
-722.850	-1.389	0.259	0.185
-721.835	-58.188	0.242	-0.106
-720.821	-176.406	-0.204	-0.005
-719.806	472.535	-0.062	0.140
-718.791	110.272	-0.020	-0.025
-717.777	-20.367	0.059	-0.036
-716.762	149.997	0.142	0.194
-715.748	-200.000	-0.006	0.175
-714.733	-52.588	0.302	0.141
-713.718	-40.882	0.095	0.049
-712.704	-176.072	-0.346	0.009
-711.689	-9.051	-0.111	0.075
-710.675	-30.336	-0.323	-0.185
-709.660	-200.000	0.008	0.212
-708.645	-29.257	-0.171	0.099
-707.631	52.599	-0.201	-0.194
-706.616	27.939	0.137	-0.116
-705.602	-200.000	-0.033	0.260
-704.587	-76.361	0.045	0.016
-703.572	15.482	0.208	-0.165
-702.558	68.379	0.129	-0.133
-701.543	75.127	0.145	-0.154
-700.529	-86.301	0.236	-0.073
-699.514	327.683	0.025	-0.049
-698.499	-32.424	0.058	-0.033
-697.485	49.659	0.085	0.081
-696.470	-25.233	-0.145	0.086
-695.456	163.068	0.227	0.321
-694.441	312.294	-0.193	-0.364
-693.426	-200.000	0.031	-0.152
-692.412	131.252	-0.132	-0.171
-691.397	-200.000	0.043	0.260
-690.383	34.646	0.163	0.144
-689.368	128.498	-0.215	-0.275
-688.354	-87.169	-0.202	0.062
-687.339	-200.000	-0.091	0.475
-686.324	-200.000	-0.023	0.113
-685.310	171.985	-0.120	-0.174
-684.295	205.197	0.161	0.252
-683.281	-45.792	0.120	-0.060
-682.266	-164.600	0.143	-0.007
-681.251	-26.753	0.096	0.056
-680.237	-112.017	0.067	0.014
-679.222	11.494	-0.117	0.091
-678.208	-200.000	-0.019	-0.170
-677.193	-92.281	0.190	-0.054
-676.178	-63.292	-0.124	-0.051
-675.164	-17.911	-0.098	-0.062
-674.149	800.000	-0.031	0.115
-673.135	-53.143	-0.147	0.068
-672.120	120.178	0.081	0.101
-671.105	-200.000	0.004	-0.290
-670.091	291.100	0.089	-0.162
-669.076	25.086	0.163	0.136
-668.062	214.183	-0.131	0.209
-667.047	-137.379	-0.440	0.050
-666.032	-62.556	-0.111	0.046
-665.018	-200.000	-0.090	-0.491
-664.003	-200.000	0.021	-0.310
-662.989	-84.403	-0.220	-0.070
-661.974	-164.386	-0.174	-0.008
-660.959	-200.000	-0.032	-0.364
-659.945	88.242	-0.007	-0.008
-658.930	291.903	-0.089	-0.163
-657.916	-195.021	0.251	-0.002
-656.901	-111.214	0.320	-0.066
-655.886	-121.358	-0.118	-0.020
-654.872	-66.235	-0.257	0.103
-653.857	-200.000	0.023	-0.266
-652.843	800.000	0.043	0.187
-651.828	-200.000	-0.009	-0.071
-650.814	65.586	0.257	-0.262
-649.799	187.342	-0.179	0.269
-648.784	-200.000	-0.019	0.317
-647.770	164.894	0.086	0.121
-646.755	800.000	-0.032	-0.093
-645.741	-82.787	0.319	-0.104
-644.726	532.146	0.052	-0.125
-643.711	490.014	-0.140	-0.323
-642.697	265.149	0.268	0.469
-641.682	-171.175	-0.171	0.006
-640.668	95.053	0.262	-0.300
-639.653	-78.523	-0.421	-0.145
-638.638	-55.459	-0.302	-0.136
-637.624	-31.586	0.221	-0.125
-636.609	1.288	-0.276	0.200
-635.595	12.588	-0.113	-0.087
-634.580	228.552	-0.191	-0.313
-633.565	-42.552	0.082	-0.042
-632.551	-108.917	-0.265	-0.057
-631.536	-101.194	-0.027	0.007
-630.522	800.000	-0.078	-0.344
-629.507	31.723	0.202	-0.174
-628.492	163.156	0.265	-0.375
-627.478	798.655	0.095	-0.264
-626.463	-73.764	-0.045	0.016
-625.449	334.941	-0.225	-0.438
-624.434	-156.429	-0.394	-0.025
-623.419	335.967	0.071	-0.139
-622.405	249.399	0.093	0.158
-621.390	-35.853	0.060	-0.033
-620.376	5.264	0.190	-0.141
-619.361	-200.000	-0.015	0.221
-618.346	346.751	0.088	0.174
-617.332	-200.000	-0.043	-0.282
-616.317	-42.994	-0.233	-0.119
-615.303	94.143	-0.237	0.271
-614.288	-2.485	0.186	0.131
-613.273	39.583	0.086	0.077
-612.259	129.561	-0.317	-0.407
-611.244	-127.220	-0.103	0.015
-610.230	-21.995	0.087	-0.053
-609.215	82.642	0.099	-0.108
-608.201	41.212	-0.133	-0.120
-607.186	-9.101	0.294	-0.198
-606.171	800.000	0.025	-0.081
-605.157	306.734	-0.075	0.141
-604.142	-95.529	0.456	-0.123
-603.128	154.306	0.137	-0.189
-602.113	800.000	0.032	0.103
-601.098	427.066	-0.089	0.192
-600.084	1.067	-0.231	0.167
-599.069	170.065	-0.092	0.133
-598.055	800.000	-0.029	0.100
-597.040	-22.729	-0.079	-0.048
-596.025	151.304	-0.065	-0.089
-595.011	-28.620	0.066	-0.038
-593.996	-187.023	0.154	-0.002
-592.982	-163.446	-0.174	-0.008
-591.967	109.357	0.024	0.029
-590.952	-85.560	0.278	-0.087
-589.938	-167.335	-0.185	-0.007
-588.923	-25.710	0.262	0.155
-587.909	571.884	0.086	0.210
-586.894	-129.091	0.295	-0.041
-585.879	15.128	-0.035	-0.028
-584.865	-130.062	0.196	-0.027
-583.850	504.502	-0.053	0.124
-582.836	153.178	-0.100	-0.137
-581.821	28.354	-0.152	0.129
-580.806	81.088	-0.140	-0.151
-579.792	83.766	0.099	0.109
-578.777	-117.227	-0.165	-0.030
-577.763	2.744	-0.143	0.104
-576.748	-154.091	-0.146	0.010
-575.733	-85.589	0.176	-0.055
-574.719	173.743	-0.098	-0.142
-573.704	-200.000	0.004	-0.239
-572.690	168.207	0.102	-0.146
-571.675	120.363	0.198	0.246
-570.661	147.761	-0.059	0.080
-569.646	585.110	0.073	-0.179
-568.631	-123.241	0.202	0.032
-567.617	-200.000	-0.019	0.306
-566.602	-55.870	0.135	-0.061
-565.588	111.825	-0.160	0.193
-564.573	452.458	0.097	0.214
-563.558	-200.000	-0.055	0.292
-562.544	-200.000	0.012	0.111
-561.529	-10.549	-0.254	0.169
-560.515	-111.650	-0.051	-0.010
-559.500	63.044	-0.424	0.425
-558.485	362.225	-0.080	0.160
-557.471	46.350	0.105	-0.098
-556.456	-43.424	-0.104	-0.053
-555.442	800.000	-0.054	-0.179
-554.427	-87.516	-0.185	0.056
-553.412	800.000	-0.021	0.064
-552.398	-200.000	0.030	0.157
-551.383	800.000	-0.070	-0.219
-550.369	238.249	-0.141	-0.234
-549.354	-54.171	0.052	-0.024
-548.339	800.000	-0.036	-0.111
-547.325	800.000	-0.057	0.210
-546.310	-64.032	-0.207	0.085
-545.296	-37.993	-0.194	0.103
-544.281	197.194	-0.068	0.104
-543.266	800.000	-0.120	0.350
-542.252	29.896	0.111	-0.095
-541.237	-200.000	0.008	0.266
-540.223	41.190	0.165	0.149
-539.208	-56.004	-0.230	-0.103
-538.193	-144.050	0.319	0.030
-537.179	-19.156	0.030	0.018
-536.164	-101.200	0.218	0.053
-535.150	-144.047	-0.119	-0.011
-534.135	4.708	-0.221	-0.163
-533.121	-33.450	0.032	-0.018
-532.106	-200.000	-0.020	0.250
-531.091	217.513	-0.052	0.082
-530.077	-13.108	0.350	0.228
-529.062	-106.525	-0.138	0.031
-528.048	237.349	-0.076	0.126
-527.033	380.308	0.088	-0.180
-526.018	-48.969	-0.194	0.093
-525.004	-102.863	-0.305	0.072
-523.989	-141.509	0.087	0.009
-522.975	-9.462	-0.036	0.024
-521.960	388.059	0.161	0.333
-520.945	-26.995	0.291	-0.170
-519.931	-200.000	-0.011	-0.083
-518.916	-45.896	0.326	0.161
-517.902	278.973	0.133	-0.238
-516.887	344.776	-0.079	0.155
-515.872	800.000	-0.067	0.222
-514.858	40.975	0.119	-0.107
-513.843	47.502	-0.093	-0.087
-512.829	-167.709	0.174	-0.007
-511.814	324.799	-0.129	-0.247
-510.799	-200.000	0.003	-0.468
-509.785	-73.700	0.255	0.093
-508.770	0.375	0.070	0.050
-507.756	-75.096	-0.207	0.074
-506.741	9.086	0.180	-0.136
-505.726	-122.140	-0.118	-0.019
-504.712	-49.066	0.167	0.080
-503.697	800.000	0.134	0.387
-502.683	656.651	-0.059	0.152
-501.668	-200.000	0.019	0.274
-500.653	-109.539	0.180	-0.038
-499.639	126.353	-0.293	-0.371
-498.624	193.955	-0.061	-0.092
-497.610	611.453	-0.102	0.256
-496.595	465.687	0.132	0.295
-495.581	60.468	0.280	-0.277
-494.566	-192.128	-0.119	0.001
-493.551	291.306	-0.095	0.173
-492.537	383.676	0.020	-0.041
-491.522	-99.579	-0.285	0.072
-490.508	-158.402	0.042	-0.002
-489.493	-200.000	-0.014	0.252
-488.478	208.595	-0.019	0.030
-487.464	800.000	-0.051	-0.217
-486.449	-74.746	-0.116	0.042
-485.435	336.852	0.141	-0.274
-484.420	309.423	0.035	0.065
-483.405	131.645	0.095	0.122
-482.391	-200.000	0.030	-0.200
-481.376	-200.000	-0.011	0.133
-480.362	-13.812	-0.112	-0.073
-479.347	-119.751	-0.291	0.050
-478.332	-118.164	0.224	-0.040
-477.318	190.942	-0.185	0.279
-476.303	151.098	-0.109	-0.148
-475.289	-200.000	0.035	0.335
-474.274	-200.000	0.024	0.154
-473.259	800.000	0.058	-0.162
-472.245	-141.389	-0.255	0.026
-471.230	-134.856	-0.129	0.016
-470.216	67.152	-0.027	-0.027
-469.201	333.649	0.091	0.177
-468.186	-66.763	-0.174	-0.069
-467.172	800.000	0.111	0.309
-466.157	-13.980	0.137	-0.088
-465.143	-200.000	0.055	-0.476
-464.128	-85.102	-0.022	0.007
-463.113	-99.659	0.120	0.030
-462.099	380.223	-0.104	0.213
-461.084	0.743	0.405	-0.289
-460.070	800.000	-0.163	-0.478
-459.055	-200.000	-0.012	0.177
-458.040	7.658	0.333	-0.248
-457.026	-45.571	0.323	-0.159
-456.011	-200.000	0.021	-0.184
-454.997	-130.859	-0.077	0.010
-453.982	153.701	0.068	-0.093
-452.968	-106.635	-0.307	0.068
-451.953	-60.349	0.269	0.114
-450.938	213.508	-0.130	-0.205
-449.924	-65.312	0.108	0.043
-448.909	-94.635	-0.146	-0.040
-447.895	-180.347	0.219	0.005
-446.880	-33.203	-0.274	0.151
-445.865	214.222	0.187	0.295
-444.851	118.940	0.092	0.113
-443.836	363.078	0.125	0.250
-442.822	63.914	0.242	-0.243
-441.807	-37.962	0.216	-0.114
-440.792	-166.393	0.117	-0.005
-439.778	-22.987	0.043	0.026
-438.763	184.452	-0.045	-0.067
-437.749	158.498	-0.064	0.089
-436.734	1.456	0.202	-0.145
-435.719	800.000	-0.094	0.369
-434.705	167.393	-0.137	0.194
-433.690	-159.980	0.324	0.018
-432.676	195.811	-0.175	0.266
-431.661	-139.154	0.252	-0.027
-430.646	196.378	-0.141	-0.214
-429.632	-46.466	-0.218	-0.107
-428.617	71.289	0.162	-0.168
-427.603	118.840	0.153	0.188
-426.588	437.020	0.017	0.037
-425.573	-117.068	-0.090	-0.016
-424.559	161.363	-0.061	-0.086
-423.544	-200.000	-0.023	-0.189
-422.530	122.602	0.124	0.155
-421.515	58.532	-0.261	0.255
-420.500	191.501	0.078	0.118
-419.486	-102.615	0.163	0.039
-418.471	121.519	0.093	0.115
-417.457	-200.000	0.024	-0.354
-416.442	83.273	-0.145	-0.157
-415.428	59.067	-0.056	0.055
-414.413	281.214	0.057	-0.102
-413.398	-77.201	-0.109	-0.038
-412.384	-23.141	0.263	0.158
-411.369	-67.892	0.360	0.140
-410.355	372.579	-0.022	-0.044
-409.340	96.551	-0.245	0.280
-408.325	-200.000	0.016	0.219
-407.311	190.985	-0.204	0.306
-406.296	-12.230	-0.318	0.207
-405.282	-200.000	-0.077	-0.343
-404.267	-184.482	0.175	0.003
-403.252	800.000	0.064	0.205
-402.238	99.260	0.034	0.039
-401.223	-200.000	-0.012	-0.180
-400.209	-200.000	0.086	-0.470
-399.194	287.628	-0.138	0.248
-398.179	800.000	0.058	0.232
-397.165	-104.608	-0.040	-0.009
-396.150	-200.000	-0.023	0.384
-395.136	16.641	-0.098	-0.077
-394.121	-82.497	0.187	0.060
-393.106	125.297	-0.019	-0.024
-392.092	800.000	-0.101	0.362
-391.077	-19.911	0.038	0.023
-390.063	800.000	-0.051	-0.185
-389.048	-70.551	0.054	0.020
-388.033	613.027	-0.125	-0.312
-387.019	-200.000	-0.018	-0.113
-386.004	-110.222	-0.271	-0.056
-384.990	-200.000	-0.051	0.234
-383.975	-76.658	-0.289	0.101
-382.960	-124.062	0.217	0.034
-381.946	221.148	0.258	0.412
-380.931	-7.745	-0.079	0.053
-379.917	-102.555	0.376	-0.089
-378.902	-200.000	-0.060	-0.286
-377.888	-200.000	-0.065	-0.283
-376.873	27.943	0.214	-0.180
-375.858	-23.926	0.198	0.118
-374.844	-200.000	-0.023	-0.308
-373.829	-108.873	0.422	0.090
-372.815	126.829	-0.150	-0.189
-371.800	-200.000	0.010	-0.300
-370.785	800.000	-0.015	0.064
-369.771	-200.000	0.060	0.389
-368.756	-200.000	0.023	-0.153
-367.742	800.000	0.082	-0.256
-366.727	-48.933	-0.222	-0.106
-365.712	-104.251	0.181	-0.042
-364.698	76.823	0.219	-0.231
-363.683	48.435	0.081	0.076
-362.669	-41.106	-0.168	0.086
-361.654	50.161	0.150	0.141
-360.639	414.221	-0.051	-0.108
-359.625	105.677	-0.194	0.228
-358.610	-58.545	-0.085	0.037
-357.596	-111.482	0.207	-0.042
-356.581	-200.000	0.027	-0.246
-355.566	800.000	0.027	0.076
-354.552	-20.725	0.298	-0.182
-353.537	-200.000	-0.040	-0.313
-352.523	-10.154	0.102	-0.067
-351.508	67.049	0.237	-0.240
-350.493	800.000	0.026	-0.111
-349.479	-1.077	-0.189	-0.133
-348.464	-86.611	0.161	0.049
-347.450	663.419	-0.062	-0.159
-346.435	-162.576	-0.114	0.006
-345.420	-89.338	-0.109	0.032
-344.406	-200.000	0.025	-0.174
-343.391	-200.000	-0.004	0.309
-342.377	-200.000	-0.002	0.401
-341.362	-160.398	0.142	0.008
-340.348	-88.212	-0.293	0.087
-339.333	60.930	0.172	-0.169
-338.318	194.368	0.138	0.208
-337.304	360.435	-0.098	-0.195
-336.289	-80.486	0.302	0.100
-335.275	388.669	-0.081	0.167
-334.260	499.476	0.149	0.341
-333.245	-200.000	0.035	0.172
-332.231	-200.000	0.003	-0.100
-331.216	800.000	0.073	0.220
-330.202	-129.217	-0.349	0.048
-329.187	-80.821	-0.177	0.058
-328.172	-200.000	-0.003	0.270
-327.158	-90.907	-0.161	-0.046
-326.143	204.393	0.042	-0.065
-325.129	-86.985	-0.308	-0.093
-324.114	25.730	0.112	-0.093
-323.099	-64.314	-0.149	0.060
-322.085	3.989	0.206	-0.150
-321.070	-34.806	0.155	0.084
-320.056	620.497	-0.097	0.243
-319.041	729.897	-0.073	-0.193
-318.026	-48.372	0.070	0.034
-317.012	-34.854	0.030	-0.016
-315.997	-155.005	0.194	-0.013
-314.983	102.834	-0.160	0.186
-313.968	55.903	0.013	0.012
-312.953	75.369	-0.072	0.075
-311.939	36.134	0.162	-0.142
-310.924	-97.196	0.022	0.006
-309.910	-200.000	-0.063	0.278
-308.895	349.745	0.087	0.171
-307.880	47.102	0.171	-0.158
-306.866	420.192	0.046	-0.097
-305.851	800.000	-0.026	0.090
-304.837	-97.616	0.058	0.015
-303.822	-200.000	0.014	-0.209
-302.807	240.585	-0.105	0.173
-301.793	12.559	-0.361	-0.276
-300.778	-51.610	-0.223	0.103
-299.764	-200.000	0.023	-0.414
-298.749	51.244	-0.236	-0.222
-297.735	356.344	0.140	0.276
-296.720	-51.679	-0.235	0.109
-295.705	3.037	0.095	0.068
-294.691	142.933	-0.248	-0.327
-293.676	18.876	-0.139	-0.111
-292.662	-171.909	0.294	0.010
-291.647	-55.329	-0.324	-0.144
-290.632	-15.028	0.255	-0.162
-289.618	90.307	0.039	0.043
-288.603	-106.919	0.269	0.059
-287.589	-200.000	0.035	-0.193
-286.574	48.605	-0.185	-0.172
-285.559	312.683	-0.050	0.093
-284.545	-10.763	0.212	-0.139
-283.530	-50.424	0.394	-0.185
-282.516	250.354	0.134	0.225
-281.501	-200.000	-0.029	-0.202
-280.486	-123.365	0.191	-0.030
-279.472	-200.000	-0.003	0.240
-278.457	304.721	0.222	-0.409
-277.443	762.396	-0.172	-0.463
-276.428	-200.000	0.019	0.246
-275.413	800.000	0.085	0.345
-274.399	-200.000	-0.091	0.397
-273.384	-0.492	-0.221	0.155
-272.370	228.046	-0.044	0.071
-271.355	-49.813	0.273	-0.129
-270.340	-49.850	-0.196	0.092
-269.326	155.416	-0.109	0.148
-268.311	800.000	-0.001	-0.004
-267.297	104.591	0.195	-0.228
-266.282	-200.000	0.004	0.093
-265.267	-148.756	0.279	0.022
-264.253	-120.269	0.366	-0.062
-263.238	207.226	-0.042	0.064
-262.224	800.000	-0.016	0.068
-261.209	-28.476	0.144	-0.082
-260.195	736.655	-0.011	0.030
-259.180	-195.664	0.179	0.001
-258.165	-57.877	-0.132	-0.057
-257.151	-27.165	-0.384	0.221
-256.136	800.000	-0.041	-0.165
-255.122	-118.553	-0.392	0.069
-254.107	-51.127	-0.121	-0.056
-253.092	-31.818	-0.189	0.105
-252.078	-92.157	0.179	0.050
-251.063	491.170	0.097	0.219
-250.049	-143.201	-0.097	0.009
-249.034	-171.926	-0.243	0.008
-248.019	-0.513	0.198	0.139
-247.005	546.802	-0.039	-0.093
-245.990	10.884	0.164	-0.124
-244.976	800.000	0.043	0.127
-243.961	-77.345	-0.410	0.141
-242.946	694.289	-0.144	-0.373
-241.932	-115.462	-0.410	0.077
-240.917	800.000	-0.122	0.367
-239.903	800.000	0.051	-0.190
-238.888	88.764	-0.303	0.333
-237.873	32.488	-0.245	0.209
-236.859	-153.294	0.139	0.010
-235.844	800.000	0.055	-0.157
-234.830	-148.137	-0.103	0.008
-233.815	800.000	0.062	0.175
-232.800	-200.000	-0.026	0.204
-231.786	-70.318	-0.173	-0.065
-230.771	-139.686	-0.214	-0.022
-229.757	-85.667	0.456	-0.140
-228.742	-168.867	0.321	-0.012
-227.727	-154.786	0.229	0.015
-226.713	639.145	-0.164	0.413
-225.698	177.935	-0.203	0.292
-224.684	133.212	0.139	0.178
-223.669	123.703	0.186	-0.231
-222.655	-185.406	0.209	-0.003
-221.640	139.617	-0.041	-0.054
-220.625	-200.000	-0.015	-0.256
-219.611	-114.334	-0.234	-0.045
-218.596	-82.596	-0.231	-0.074
-217.582	-200.000	-0.003	-0.076
-216.567	102.678	0.281	-0.325
-215.552	24.403	0.272	0.222
-214.538	-200.000	0.035	-0.195
-213.523	-156.997	-0.416	0.025
-212.509	-200.000	0.012	0.076
-211.494	-111.197	0.226	-0.046
-210.479	-93.461	0.270	0.074
-209.465	-161.827	-0.429	0.022
-208.450	-200.000	0.021	-0.321
-207.436	133.195	-0.095	0.122
-206.421	-145.766	-0.218	-0.019
-205.406	278.364	0.040	-0.071
-204.392	-200.000	0.002	0.160
-203.377	-85.884	0.209	-0.064
-202.363	800.000	0.055	-0.207
-201.348	-200.000	0.011	0.200
-200.333	-200.000	-0.072	-0.324
-199.319	-200.000	-0.057	0.263
-198.304	211.774	-0.078	-0.121
-197.290	-200.000	-0.031	-0.157
-196.275	162.183	-0.263	0.365
-195.260	324.224	0.045	-0.085
-194.246	-59.969	0.280	-0.118
-193.231	455.342	-0.051	0.112
-192.217	800.000	0.080	-0.253
-191.202	165.184	-0.097	0.136
-190.187	-81.400	0.283	0.092
-189.173	-63.730	-0.257	-0.104
-188.158	-200.000	0.043	-0.212
-187.144	455.919	-0.096	-0.211
-186.129	187.378	0.167	-0.246
-185.114	-121.570	0.197	0.032
-184.100	-157.468	-0.392	0.023
-183.085	84.067	-0.140	0.151
-182.071	111.758	-0.380	0.453
-181.056	-200.000	-0.069	-0.367
-180.042	171.003	0.051	0.072
-179.027	-147.576	0.295	0.025
-178.012	-111.604	-0.358	0.072
-176.998	59.004	-0.083	0.080
-175.983	-101.133	0.100	-0.024
-174.969	-55.046	0.113	0.050
-173.954	132.141	0.201	0.255
-172.939	64.053	0.016	-0.016
-171.925	129.253	0.045	-0.056
-170.910	-151.104	-0.142	-0.011
-169.896	55.113	0.088	-0.084
-168.881	726.251	0.121	-0.318
-167.866	44.748	0.147	-0.134
-166.852	274.974	-0.128	-0.223
-165.837	436.201	0.041	0.088
-164.823	-45.376	-0.211	-0.103
-163.808	-55.291	-0.349	0.154
-162.793	-68.522	-0.297	-0.114
-161.779	33.556	0.154	-0.132
-160.764	301.101	0.090	-0.164
-159.750	-200.000	0.004	-0.050
-158.735	247.676	0.129	0.214
-157.720	91.059	0.172	-0.191
-156.706	245.697	0.154	-0.256
-155.691	-64.112	-0.087	0.035
-154.677	62.394	-0.188	-0.185
-153.662	2.859	-0.115	0.082
-152.647	-200.000	-0.036	-0.165
-151.633	-74.872	0.302	-0.107
-150.618	-146.294	-0.149	-0.013
-149.604	-5.734	0.243	-0.164
-148.589	467.105	-0.062	0.137
-147.574	-25.097	0.047	-0.028
-146.560	36.353	-0.029	-0.025
-145.545	-103.801	-0.352	-0.081
-144.531	66.491	-0.196	-0.196
-143.516	-200.000	0.016	-0.259
-142.502	-200.000	0.005	-0.220
-141.487	65.994	0.184	0.184
-140.472	-166.010	-0.177	0.007
-139.458	800.000	0.097	-0.334
-138.443	-200.000	0.054	0.245
-137.429	57.135	0.162	0.155
-136.414	-200.000	0.002	-0.392
-135.399	470.581	0.094	0.209
-134.385	5.747	0.199	-0.145
-133.370	145.587	0.154	-0.203
-132.356	800.000	-0.115	-0.317
-131.341	20.309	0.142	-0.113
-130.326	470.451	0.081	0.180
-129.312	-30.085	-0.278	-0.156
-128.297	53.985	0.196	-0.185
-127.283	23.869	-0.112	-0.091
-126.268	522.219	-0.019	-0.043
-125.253	-48.206	-0.177	0.084
-124.239	46.821	-0.190	0.174
-123.224	-200.000	0.010	-0.150
-122.210	-18.437	0.274	-0.169
-121.195	424.944	0.245	0.520
