DTS Sentinel unit serial number:	SN413079Multiplexer serial number:	ORYXHardware model number:	OX4-SRSoftware version number:	ORYX F/W v4.00 Oryx Data Collector v3.7.2.0data status	okinstallation	princeton_trtdifferential loss correction	single-endedforward channel	channel 1reverse channel	N/Adate	2019/09/15time	18:26:35forward acquisition time	60.00reverse acquisition time	0.00gamma	496.2192k internal	0.2290k external	0.2290temperature offset calibration	0.9938default loss term (dB/km)	0.3790temperature slope calibration	1.0000multiplexer offset coefficient	1.0000multiplexer slope coefficient	1.0000fibre end	0.00T internal ref (°C)	44.20T ext. ref 1 (°C)	6.71T ext. ref 2 (°C)	37.95length (m)	temperature (°C)	Stokes	anti-Stokes-747.200	-200.000	0.027	-0.150
-746.185	433.921	0.050	0.112
-745.171	800.000	-0.021	0.073
-744.156	544.747	-0.085	0.207
-743.142	-32.658	-0.152	-0.086
-742.127	-131.284	0.350	0.048
-741.112	-156.808	-0.213	0.013
-740.098	-48.977	0.237	-0.116
-739.083	-38.403	0.113	-0.061
-738.069	588.218	0.050	0.126
-737.054	353.726	-0.031	-0.064
-736.039	270.076	-0.174	0.314
-735.025	800.000	0.022	0.093
-734.010	-4.760	-0.108	0.076
-732.996	-200.000	0.018	-0.106
-731.981	-200.000	0.089	-0.489
-730.966	233.981	0.109	-0.184
-729.952	-87.387	-0.103	-0.032
-728.937	116.839	-0.089	-0.112
-727.923	100.678	-0.010	0.012
-726.908	15.970	0.098	0.079
-725.894	117.726	-0.147	0.185
-724.879	70.850	0.101	0.108
-723.864	-29.412	-0.127	0.074
-722.850	-108.456	0.200	-0.044
-721.835	374.088	-0.070	-0.147
-720.821	59.099	-0.079	-0.080
-719.806	3.839	-0.180	0.135
-718.791	-100.928	-0.173	0.043
-717.777	314.822	0.133	-0.257
-716.762	800.000	-0.070	-0.254
-715.748	-30.340	0.346	0.201
-714.733	-89.947	-0.229	0.068
-713.718	109.260	-0.066	0.081
-712.704	-79.180	-0.400	0.139
-711.689	-146.124	-0.190	-0.017
-710.675	-200.000	0.010	-0.193
-709.660	277.186	0.190	-0.345
-708.645	223.137	0.236	-0.390
-707.631	-200.000	-0.054	-0.280
-706.616	129.570	-0.053	0.070
-705.602	800.000	-0.100	-0.427
-704.587	683.159	0.134	-0.358
-703.572	-8.502	-0.101	-0.069
-702.558	800.000	-0.045	0.167
-701.543	-200.000	0.004	0.114
-700.529	57.474	-0.188	-0.188
-699.514	-124.786	-0.239	0.038
-698.499	-146.516	0.212	0.019
-697.485	74.487	-0.188	0.202
-696.470	-84.284	-0.082	-0.027
-695.456	-58.654	-0.151	-0.067
-694.441	-57.516	-0.356	0.160
-693.426	447.397	-0.030	-0.068
-692.412	800.000	0.084	-0.277
-691.397	-87.534	-0.280	0.086
-690.383	-46.181	0.116	-0.058
-689.368	175.334	0.042	-0.062
-688.354	-51.156	-0.403	-0.193
-687.339	-187.474	0.252	-0.003
-686.324	800.000	-0.067	-0.192
-685.310	800.000	0.032	0.125
-684.295	-55.209	-0.392	-0.180
-683.281	145.468	-0.166	-0.227
-682.266	92.390	-0.192	0.221
-681.251	-78.345	0.069	0.024
-680.237	-48.274	0.079	0.039
-679.222	-200.000	0.008	-0.199
-678.208	-31.321	-0.450	-0.259
-677.193	-62.297	0.045	0.019
-676.178	-24.046	0.033	0.020
-675.164	800.000	-0.048	0.190
-674.149	-62.948	-0.279	-0.118
-673.135	-168.398	-0.103	-0.004
-672.120	-56.293	-0.286	-0.130
-671.105	181.564	-0.052	-0.079
-670.091	230.665	0.173	-0.289
-669.076	-37.855	-0.325	-0.177
-668.062	800.000	-0.081	-0.236
-667.047	-63.018	-0.288	-0.122
-666.032	563.950	-0.023	0.057
-665.018	-200.000	0.073	0.340
-664.003	722.607	-0.102	-0.278
-662.989	17.614	-0.130	0.105
-661.974	-15.773	0.107	0.070
-660.959	655.616	-0.071	0.187
-659.945	800.000	0.037	-0.125
-658.930	-76.625	0.056	0.020
-657.916	92.799	0.142	0.163
-656.901	-200.000	0.013	0.165
-655.886	800.000	-0.022	-0.093
-654.872	34.610	0.174	0.155
-653.857	134.834	0.289	-0.383
-652.843	185.355	0.065	-0.098
-651.828	355.506	-0.138	-0.279
-650.814	800.000	0.106	-0.327
-649.799	429.106	-0.154	0.339
-648.784	304.305	-0.110	0.208
-647.770	-173.718	-0.213	-0.006
-646.755	800.000	-0.067	0.204
-645.741	800.000	0.067	-0.237
-644.726	800.000	-0.082	-0.233
-643.711	72.720	-0.134	-0.143
-642.697	-87.854	-0.095	-0.029
-641.682	140.564	-0.028	0.038
-640.668	-75.357	-0.212	0.077
-639.653	-78.795	-0.220	-0.077
-638.638	-176.465	-0.100	0.003
-637.624	-200.000	0.041	-0.532
-636.609	142.040	-0.118	-0.159
-635.595	-14.442	0.323	-0.212
-634.580	800.000	-0.067	-0.290
-633.565	-200.000	0.008	-0.182
-632.551	153.932	0.055	-0.077
-631.536	0.660	-0.246	0.179
-630.522	800.000	-0.053	-0.221
-629.507	-154.593	0.387	0.026
-628.492	-200.000	-0.036	0.241
-627.478	23.006	0.166	0.139
-626.463	269.690	0.156	0.279
-625.449	-61.738	-0.154	0.066
-624.434	-8.824	-0.105	-0.072
-623.419	-68.329	-0.247	-0.098
-622.405	-48.595	0.416	0.204
-621.390	-97.080	0.259	0.069
-620.376	227.140	-0.097	-0.161
-619.361	251.975	0.033	-0.058
-618.346	-19.353	0.124	-0.078
-617.332	109.366	0.118	0.144
-616.317	-155.261	0.264	-0.018
-615.303	40.922	0.308	0.283
-614.288	800.000	-0.092	0.298
-613.273	66.729	-0.110	0.114
-612.259	64.214	0.160	-0.164
-611.244	572.016	0.081	-0.202
-610.230	28.856	0.010	-0.008
-609.215	-53.548	0.175	-0.082
-608.201	800.000	0.106	0.360
-607.186	34.848	0.237	0.211
-606.171	-133.235	0.256	0.033
-605.157	684.258	-0.052	0.138
-604.142	-138.427	0.402	-0.045
-603.128	58.100	0.208	-0.207
-602.113	-92.828	-0.326	-0.093
-601.098	-161.201	-0.103	-0.005
-600.084	-200.000	-0.054	0.623
-599.069	-18.684	0.151	-0.096
-598.055	35.708	-0.208	-0.186
-597.040	146.625	0.247	-0.337
-596.025	-52.101	-0.176	-0.083
-595.011	-57.390	0.037	-0.016
-593.996	-111.565	-0.260	0.054
-592.982	-49.629	0.043	-0.021
-591.967	800.000	0.015	0.044
-590.952	-52.594	0.281	-0.132
-589.938	-58.625	0.160	0.070
-588.923	800.000	0.067	0.204
-587.909	-200.000	-0.045	-0.236
-586.894	-21.652	0.131	-0.081
-585.879	800.000	-0.085	-0.320
-584.865	-105.101	-0.007	0.002
-583.850	-200.000	0.010	-0.142
-582.836	738.300	0.087	-0.238
-581.821	-200.000	0.071	0.394
-580.806	-200.000	-0.016	-0.087
-579.792	-200.000	0.005	-0.046
-578.777	285.380	-0.074	-0.136
-577.763	224.572	-0.183	0.301
-576.748	36.030	0.221	0.198
-575.733	800.000	-0.029	-0.103
-574.719	146.268	-0.081	-0.111
-573.704	117.802	0.200	-0.250
-572.690	-172.450	0.095	-0.003
-571.675	-96.415	-0.387	-0.104
-570.661	-200.000	0.025	-0.154
-569.646	-96.905	0.310	-0.083
-568.631	-43.309	-0.199	-0.103
-567.617	-164.985	-0.321	-0.015
-566.602	-20.814	-0.387	0.241
-565.588	700.352	-0.038	0.100
-564.573	107.602	0.137	0.165
-563.558	-200.000	0.005	-0.073
-562.544	800.000	0.109	0.319
-561.529	566.228	-0.026	0.064
-560.515	-126.128	0.304	-0.046
-559.500	141.888	-0.171	-0.230
-558.485	800.000	-0.003	0.011
-557.471	183.992	-0.077	0.115
-556.456	-200.000	-0.012	-0.397
-555.442	-200.000	-0.024	0.227
-554.427	6.891	-0.258	-0.195
-553.412	16.402	-0.083	-0.067
-552.398	-132.397	0.195	-0.026
-551.383	-6.411	0.296	0.205
-550.369	101.643	-0.026	0.031
-549.354	245.810	0.173	0.297
-548.339	-200.000	-0.031	-0.225
-547.325	386.488	-0.210	-0.441
-546.310	97.909	-0.177	0.207
-545.296	-200.000	-0.010	-0.138
-544.281	-200.000	-0.019	-0.087
-543.266	-134.011	0.139	-0.018
-542.252	40.337	0.195	0.178
-541.237	-66.472	0.271	0.109
-540.223	152.220	0.115	-0.160
-539.208	113.906	-0.103	0.127
-538.193	379.147	0.079	-0.164
-537.179	236.817	0.094	0.159
-536.164	128.725	-0.059	0.076
-535.150	-58.493	0.046	-0.021
-534.135	-15.638	-0.184	0.119
-533.121	800.000	0.027	0.108
-532.106	-63.880	0.323	-0.134
-531.091	-4.596	-0.298	-0.209
-530.077	800.000	0.033	-0.132
-529.062	42.624	0.051	-0.048
-528.048	-200.000	-0.011	-0.074
-527.033	158.157	-0.078	-0.110
-526.018	110.471	-0.107	0.130
-525.004	-29.246	-0.213	0.124
-523.989	-200.000	-0.311	0.001
-522.975	304.332	-0.112	0.210
-521.960	472.298	-0.105	0.241
-520.945	-200.000	-0.001	-0.042
-519.931	-200.000	-0.069	0.388
-518.916	-63.077	-0.075	0.031
-517.902	800.000	-0.015	-0.062
-516.887	28.148	-0.072	0.061
-515.872	800.000	-0.034	0.099
-514.858	-154.760	-0.135	-0.009
-513.843	-156.858	-0.204	-0.013
-512.829	255.813	0.128	0.223
-511.814	800.000	-0.102	0.380
-510.799	800.000	-0.106	0.366
-509.785	165.639	-0.227	0.326
-508.770	-200.000	-0.001	-0.093
-507.756	800.000	0.087	0.264
-506.741	164.452	0.041	0.059
-505.726	-100.483	0.072	-0.018
-504.712	27.921	0.014	-0.012
-503.697	60.847	-0.148	0.149
-502.683	146.043	-0.092	0.126
-501.668	647.047	-0.085	0.220
-500.653	788.597	-0.027	-0.076
-499.639	110.694	0.209	0.255
-498.624	184.193	-0.130	-0.195
-497.610	-19.030	0.122	0.077
-496.595	174.522	0.037	0.054
-495.581	800.000	0.013	-0.052
-494.566	-66.283	-0.276	0.112
-493.551	-69.454	0.304	0.118
-492.537	-73.223	-0.080	0.030
-491.522	601.107	-0.093	0.234
-490.508	779.179	0.097	-0.269
-489.493	-200.000	0.075	0.337
-488.478	-78.437	-0.431	-0.150
-487.464	-20.314	-0.202	-0.126
-486.449	-53.794	-0.110	0.051
-485.435	-200.000	0.001	-0.093
-484.420	16.268	0.022	-0.018
-483.405	-45.198	0.104	0.052
-482.391	192.672	-0.138	-0.211
-481.376	446.470	0.105	0.235
-480.362	-200.000	0.007	-0.176
-479.347	-200.000	0.029	0.177
-478.332	718.872	-0.089	0.240
-477.318	-32.515	-0.396	0.224
-476.303	390.171	0.113	-0.237
-475.289	-200.000	-0.014	0.170
-474.274	-95.478	0.166	-0.045
-473.259	-92.072	-0.192	-0.055
-472.245	466.807	0.022	-0.049
-471.230	-82.311	0.258	-0.085
-470.216	175.886	0.195	-0.286
-469.201	-46.973	0.120	-0.059
-468.186	288.816	-0.128	0.235
-467.172	800.000	-0.199	0.575
-466.157	-200.000	0.029	-0.168
-465.143	-11.549	-0.188	-0.125
-464.128	-147.308	0.195	-0.017
-463.113	-55.106	-0.038	-0.017
-462.099	-200.000	0.073	-0.328
-461.084	-178.535	0.123	0.003
-460.070	-108.657	0.159	-0.034
-459.055	-170.286	0.248	-0.009
-458.040	87.025	0.224	0.251
-457.026	-61.199	-0.284	0.121
-456.011	602.981	0.100	-0.252
-454.997	551.890	-0.154	-0.376
-453.982	146.374	0.125	0.170
-452.968	800.000	-0.010	0.033
-451.953	-37.009	0.204	0.111
-450.938	-198.297	0.016	0.000
-449.924	-43.983	-0.251	-0.128
-448.909	105.480	-0.183	-0.218
-447.895	87.410	0.076	0.085
-446.880	148.441	-0.046	0.063
-445.865	800.000	0.099	0.341
-444.851	-200.000	-0.050	-0.294
-443.836	47.699	0.235	-0.222
-442.822	63.854	-0.191	0.194
-441.807	-143.675	-0.136	0.013
-440.792	708.039	0.166	0.444
-439.778	-12.373	-0.204	-0.135
-438.763	-148.870	0.050	0.004
-437.749	-132.342	0.105	-0.014
-436.734	740.736	-0.046	-0.126
-435.719	-17.486	0.232	-0.148
-434.705	21.902	0.069	0.057
-433.690	800.000	0.105	-0.308
-432.676	800.000	-0.016	0.047
-431.661	700.249	0.135	-0.359
-430.646	165.311	0.031	-0.045
-429.632	17.101	0.308	-0.247
-428.617	-137.889	-0.385	-0.044
-427.603	-121.149	0.117	-0.020
-426.588	-200.000	0.060	0.324
-425.573	-14.454	0.025	-0.016
-424.559	-200.000	-0.067	0.372
-423.544	-200.000	-0.028	-0.235
-422.530	800.000	0.041	-0.148
-421.515	-200.000	0.052	0.250
-420.500	236.773	-0.112	-0.187
-419.486	800.000	-0.149	-0.622
-418.471	33.357	-0.203	-0.179
-417.457	233.114	-0.077	0.127
-416.442	800.000	0.016	-0.059
-415.428	-200.000	0.004	0.024
-414.413	-65.097	-0.058	-0.024
-413.398	-81.282	0.190	-0.063
-412.384	-133.817	-0.111	0.014
-411.369	-200.000	0.020	0.294
-410.355	-200.000	-0.084	0.459
-409.340	-139.375	-0.298	0.032
-408.325	-37.980	0.087	0.047
-407.311	-17.839	-0.286	-0.182
-406.296	159.334	-0.050	-0.070
-405.282	-100.500	0.219	0.055
-404.267	-11.823	-0.215	0.143
-403.252	132.508	-0.182	-0.237
-402.238	38.964	-0.115	-0.104
-401.223	189.175	-0.146	-0.222
-400.209	430.970	0.095	0.208
-399.194	55.093	0.137	0.134
-398.179	-88.161	0.360	0.109
-397.165	325.821	0.125	-0.241
-396.150	170.681	-0.094	-0.136
-395.136	0.090	-0.160	0.115
-394.121	14.805	0.209	-0.165
-393.106	193.579	-0.120	-0.183
-392.092	-134.934	0.290	-0.035
-391.077	-200.000	0.001	0.323
-390.063	-184.246	-0.228	-0.004
-389.048	419.758	-0.074	0.160
-388.033	731.936	0.063	-0.170
-387.019	-98.886	0.114	-0.029
-386.004	-22.999	0.120	0.073
-384.990	-18.725	-0.132	0.083
-383.975	-200.000	-0.042	-0.275
-382.960	-35.006	0.022	0.012
-381.946	-60.017	0.141	-0.061
-380.931	5.606	0.096	0.072
-379.917	160.619	-0.086	0.121
-378.902	205.429	-0.173	-0.271
-377.888	575.762	0.116	0.287
-376.873	133.386	-0.122	-0.159
-375.858	-108.997	-0.090	-0.019
-374.844	800.000	-0.017	0.049
-373.829	32.952	-0.295	-0.258
-372.815	90.862	0.196	-0.221
-371.800	79.283	0.198	0.215
-370.785	274.012	0.042	0.075
-369.771	-98.744	0.349	0.090
-368.756	63.344	-0.030	-0.030
-367.742	-200.000	-0.032	0.234
-366.727	356.172	0.186	0.375
-365.712	-200.000	0.038	-0.245
-364.698	704.838	0.023	0.061
-363.683	47.688	0.097	0.091
-362.669	63.267	0.062	-0.063
-361.654	-200.000	-0.007	-0.147
-360.639	-136.603	-0.079	-0.009
-359.625	-14.727	-0.301	0.195
-358.610	-92.791	0.119	0.034
-357.596	-200.000	-0.011	-0.217
-356.581	-200.000	-0.042	-0.229
-355.566	-200.000	0.006	-0.360
-354.552	-136.052	0.102	0.012
-353.537	698.005	0.052	-0.137
-352.523	-200.000	-0.001	0.043
-351.508	-200.000	-0.080	-0.397
-350.493	-125.311	-0.298	-0.046
-349.479	148.653	0.101	-0.138
-348.464	175.382	-0.135	-0.197
-347.450	-120.242	0.110	-0.019
-346.435	-56.366	0.147	-0.066
-345.420	84.569	-0.255	-0.282
-344.406	-200.000	0.080	0.360
-343.391	391.640	0.067	-0.141
-342.377	800.000	-0.056	0.173
-341.362	800.000	-0.073	-0.235
-340.348	-73.247	-0.157	0.058
-339.333	-101.626	0.229	0.056
-338.318	800.000	-0.144	-0.588
-337.304	181.025	0.123	-0.183
-336.289	44.986	-0.245	0.228
-335.275	-200.000	-0.031	0.141
-334.260	-96.528	0.377	0.100
-333.245	-13.114	-0.198	0.130
-332.231	-200.000	0.009	-0.133
-331.216	800.000	-0.056	-0.156
-330.202	-200.000	-0.011	-0.161
-329.187	139.875	-0.182	0.242
-328.172	115.439	-0.164	-0.202
-327.158	86.460	0.173	-0.192
-326.143	36.725	0.073	-0.065
-325.129	402.372	0.145	-0.308
-324.114	-43.128	-0.040	-0.020
-323.099	-159.722	0.253	-0.014
-322.085	100.709	-0.054	0.063
-321.070	366.386	-0.132	0.268
-320.056	-200.000	-0.023	0.176
-319.041	65.023	-0.254	0.259
-318.026	-83.389	-0.141	0.046
-317.012	-168.375	-0.093	0.004
-315.997	80.922	-0.102	0.111
-314.983	-167.768	0.122	-0.005
-313.968	-200.000	0.038	-0.180
-312.953	-71.379	-0.090	0.034
-311.939	523.513	0.128	0.302
-310.924	-200.000	-0.025	0.283
-309.910	228.991	-0.120	0.196
-308.895	-200.000	-0.023	0.136
-307.880	-35.969	0.266	-0.145
-306.866	129.987	-0.123	0.159
-305.851	-75.230	0.262	0.094
-304.837	-182.997	0.262	-0.005
-303.822	33.672	0.274	-0.240
-302.807	-75.954	0.230	-0.082
-301.793	-105.402	0.278	0.064
-300.778	100.212	-0.180	-0.210
-299.764	6.885	-0.303	0.227
-298.749	-188.649	0.330	-0.004
-297.735	218.603	-0.224	-0.361
-296.720	70.314	0.074	0.077
-295.705	-25.293	-0.064	-0.038
-294.691	405.687	-0.036	-0.077
-293.676	172.651	0.193	0.279
-292.662	317.601	-0.068	0.130
-291.647	16.587	0.088	0.070
-290.632	1.338	-0.289	0.209
-289.618	-200.000	0.073	-0.326
-288.603	-200.000	0.029	-0.376
-287.589	586.065	-0.081	0.200
-286.574	529.640	0.138	-0.327
-285.559	131.127	0.093	-0.120
-284.545	-200.000	0.011	-0.265
-283.530	397.381	-0.129	-0.271
-282.516	251.011	-0.189	0.323
-281.501	73.644	0.206	-0.217
-280.486	31.927	0.177	-0.153
-279.472	38.050	0.038	-0.034
-278.457	33.585	-0.060	-0.053
-277.443	800.000	0.105	0.318
-276.428	800.000	-0.065	0.217
-275.413	103.809	-0.261	0.308
-274.399	800.000	0.020	0.069
-273.384	-52.863	-0.260	-0.120
-272.370	-76.421	0.123	0.044
-271.355	-38.223	-0.111	-0.059
-270.340	-47.587	0.171	-0.084
-269.326	800.000	-0.082	0.236
-268.311	-65.551	0.332	-0.134
-267.297	141.638	0.101	0.135
-266.282	-85.708	0.346	-0.108
-265.267	-200.000	-0.004	-0.198
-264.253	-55.815	-0.155	-0.070
-263.238	-200.000	0.016	0.179
-262.224	-102.198	0.196	-0.047
-261.209	-200.000	0.015	-0.075
-260.195	46.318	-0.217	0.202
-259.180	13.217	0.074	0.058
-258.165	-94.811	0.275	0.075
-257.151	51.687	0.113	0.108
-256.136	-200.000	-0.016	0.139
-255.122	-104.663	0.257	0.059
-254.107	-139.122	-0.411	-0.045
-253.092	138.689	-0.090	-0.118
-252.078	-94.456	0.033	0.009
-251.063	-32.028	0.224	0.126
-250.049	-200.000	0.002	-0.147
-249.034	2.153	0.170	0.123
-248.019	491.508	0.031	0.072
-247.005	-125.225	-0.237	-0.036
-245.990	288.381	-0.066	-0.121
-244.976	24.877	-0.218	0.182
-243.961	-43.166	0.084	-0.043
-242.946	245.454	0.082	0.139
-241.932	109.220	-0.318	0.382
-240.917	239.898	-0.177	0.295
-239.903	796.199	0.064	-0.177
-238.888	-62.308	-0.051	0.021
-237.873	-103.542	0.227	-0.054
-236.859	-26.006	0.092	0.054
-235.844	-200.000	0.020	-0.335
-234.830	-200.000	-0.008	0.121
-233.815	-85.496	0.137	0.043
-232.800	-200.000	0.020	0.098
-231.786	98.298	-0.038	0.044
-230.771	315.218	0.215	0.407
-229.757	-167.333	-0.269	0.011
-228.742	-200.000	-0.036	0.238
-227.727	-200.000	0.027	-0.124
-226.713	800.000	0.035	0.132
-225.698	206.544	0.121	-0.189
-224.684	-24.206	-0.059	0.035
-223.669	800.000	-0.080	-0.233
-222.655	186.619	0.133	-0.199
-221.640	-37.853	-0.150	-0.080
-220.625	-112.918	0.104	0.021
-219.611	35.258	-0.046	0.041
-218.596	128.636	-0.127	-0.162
-217.582	490.896	0.104	0.240
-216.567	69.630	-0.206	0.212
-215.552	-182.983	0.028	0.000
-214.538	800.000	0.036	0.131
-213.523	-43.169	-0.220	-0.112
-212.509	95.973	0.162	-0.186
-211.494	-123.757	-0.188	0.030
-210.479	2.307	0.157	0.114
-209.465	8.972	-0.233	0.176
-208.450	-200.000	0.015	-0.321
-207.436	-200.000	-0.078	-0.434
-206.421	-100.619	0.233	-0.058
-205.406	52.830	-0.274	0.263
-204.392	-47.401	0.195	0.095
-203.377	-200.000	-0.105	-0.475
-202.363	629.735	0.051	-0.129
-201.348	-200.000	-0.006	-0.190
-200.333	0.232	-0.418	-0.299
-199.319	-145.754	0.190	0.017
-198.304	-55.208	0.232	-0.105
-197.290	180.404	-0.130	-0.191
-196.275	33.975	0.039	0.034
-195.260	-200.000	0.011	0.259
-194.246	-75.456	-0.190	-0.068
-193.231	800.000	0.103	-0.336
-192.217	-118.374	0.060	0.011
-191.202	-137.514	-0.165	-0.019
-190.187	462.793	0.122	0.272
-189.173	-200.000	0.002	0.047
-188.158	-27.206	0.095	-0.055
-187.144	-79.270	-0.117	-0.040
-186.129	299.328	0.149	-0.275
-185.114	-114.466	0.238	0.046
-184.100	-200.000	-0.013	0.218
-183.085	44.804	-0.189	-0.174
-182.071	-176.063	-0.453	0.012
-181.056	-141.425	0.411	0.042
-180.042	-50.860	-0.083	-0.039
-179.027	11.140	-0.286	0.219
-178.012	146.345	-0.080	0.108
-176.998	608.359	0.010	-0.025
-175.983	-101.302	-0.075	-0.018
-174.969	-1.954	-0.141	0.099
-173.954	24.734	-0.118	-0.098
-172.939	-130.663	0.090	-0.012
-171.925	-64.114	0.092	0.038
-170.910	-130.746	0.133	-0.018
-169.896	-146.127	-0.037	0.003
-168.881	-123.043	-0.112	-0.018
-167.866	-117.742	-0.113	0.020
-166.852	-131.384	0.223	-0.029
-165.837	800.000	0.091	0.344
-164.823	800.000	-0.077	0.244
-163.808	-50.582	0.265	0.125
-162.793	800.000	0.013	0.046
-161.779	172.458	-0.103	-0.148
-160.764	-119.240	-0.198	0.034
-159.750	38.189	-0.174	-0.155
-158.735	-118.714	-0.133	-0.024
-157.720	41.297	0.144	-0.131
-156.706	459.970	-0.175	-0.391
-155.691	-42.763	-0.055	-0.028
-154.677	65.930	0.282	0.287
-153.662	-200.000	-0.012	0.163
-152.647	95.278	0.145	0.165
-151.633	-19.726	0.246	0.153
-150.618	122.199	-0.139	-0.174
-149.604	331.421	-0.050	0.097
-148.589	493.681	0.027	0.063
-147.574	423.200	-0.086	0.185
-146.560	50.732	0.326	0.308
-145.545	-200.000	-0.012	-0.084
-144.531	-200.000	0.014	0.077
-143.516	800.000	0.027	0.082
-142.502	-200.000	0.021	0.113
-141.487	282.984	0.079	0.142
-140.472	-200.000	-0.018	-0.164
-139.458	45.584	0.221	-0.205
-138.443	-99.994	-0.237	0.059
-137.429	597.591	-0.066	-0.164
-136.414	-200.000	-0.039	0.244
-135.399	-82.345	0.080	0.026
-134.385	798.010	0.027	-0.075
-133.370	-200.000	-0.051	0.279
-132.356	-124.819	0.352	-0.054
-131.341	-29.132	0.269	-0.155
-130.326	-40.827	-0.117	0.060
-129.312	-200.000	0.014	0.270
-128.297	-200.000	-0.022	-0.299
-127.283	-99.760	-0.161	-0.040
-126.268	-89.922	-0.223	0.065
-125.253	-200.000	0.075	-0.407
-124.239	800.000	0.073	0.228
-123.224	519.481	0.040	0.093
-122.210	-11.472	0.108	-0.071
