DTS Sentinel unit serial number:	SN413079Multiplexer serial number:	ORYXHardware model number:	OX4-SRSoftware version number:	ORYX F/W v4.00 Oryx Data Collector v3.7.2.0data status	okinstallation	princeton_trtdifferential loss correction	single-endedforward channel	channel 1reverse channel	N/Adate	2019/09/18time	09:30:35forward acquisition time	60.00reverse acquisition time	0.00gamma	496.2192k internal	0.2335k external	0.2335temperature offset calibration	0.9967default loss term (dB/km)	0.3790temperature slope calibration	1.0000multiplexer offset coefficient	1.0000multiplexer slope coefficient	1.0000fibre end	0.00T internal ref (°C)	26.37T ext. ref 1 (°C)	0.26T ext. ref 2 (°C)	23.39length (m)	temperature (°C)	Stokes	anti-Stokes-747.200	103.143	-0.136	0.160
-746.185	-200.000	0.020	-0.209
-745.171	-21.813	0.149	-0.091
-744.156	66.723	-0.289	0.295
-743.142	-200.000	-0.025	0.265
-742.127	-200.000	0.033	0.309
-741.112	-131.797	-0.190	0.025
-740.098	113.123	-0.136	0.166
-739.083	-34.166	0.230	0.127
-738.069	800.000	-0.043	-0.182
-737.054	-40.484	0.258	-0.135
-736.039	124.529	-0.168	-0.213
-735.025	26.389	0.296	0.249
-734.010	61.036	0.142	0.141
-732.996	306.458	-0.238	-0.445
-731.981	59.794	-0.212	0.210
-730.966	13.400	0.148	-0.115
-729.952	388.050	-0.094	-0.194
-728.937	45.609	-0.118	0.109
-727.923	313.605	0.086	0.163
-726.908	490.269	0.114	-0.262
-725.894	163.947	0.131	-0.185
-724.879	28.971	-0.283	-0.241
-723.864	42.059	0.135	0.123
-722.850	51.290	0.149	-0.142
-721.835	800.000	-0.014	0.039
-720.821	800.000	-0.073	0.229
-719.806	-200.000	-0.011	0.151
-718.791	-49.705	-0.046	-0.022
-717.777	37.416	-0.183	-0.163
-716.762	-200.000	0.014	0.169
-715.748	-76.529	0.003	-0.001
-714.733	-127.265	-0.170	0.025
-713.718	8.921	-0.463	0.350
-712.704	-48.375	0.179	-0.087
-711.689	-200.000	0.014	0.134
-710.675	93.579	0.167	-0.190
-709.660	98.618	0.130	-0.150
-708.645	7.965	0.282	-0.212
-707.631	-7.276	-0.120	-0.082
-706.616	-89.691	0.301	-0.088
-705.602	-80.928	-0.456	0.152
-704.587	-94.528	-0.276	-0.075
-703.572	181.230	-0.115	0.169
-702.558	-102.646	0.236	-0.057
-701.543	-159.369	0.362	0.020
-700.529	-85.843	0.132	0.041
-699.514	-200.000	-0.025	-0.151
-698.499	412.014	0.050	0.106
-697.485	-20.357	0.244	-0.151
-696.470	800.000	0.059	-0.164
-695.456	-155.383	-0.115	-0.007
-694.441	-200.000	0.021	-0.490
-693.426	95.744	-0.064	-0.073
-692.412	79.811	-0.076	-0.082
-691.397	-200.000	-0.007	-0.123
-690.383	42.802	-0.104	0.095
-689.368	-147.090	-0.215	-0.018
-688.354	-50.682	0.191	0.090
-687.339	53.673	0.120	-0.115
-686.324	609.918	0.085	0.214
-685.310	172.460	-0.041	0.060
-684.295	13.087	-0.330	0.256
-683.281	-3.753	-0.130	-0.090
-682.266	800.000	-0.091	-0.253
-681.251	156.909	0.065	0.090
-680.237	-60.551	0.090	0.038
-679.222	252.775	0.088	0.150
-678.208	-200.000	-0.016	0.357
-677.193	-80.475	-0.309	-0.103
-676.178	180.689	0.069	-0.101
-675.164	78.613	0.229	0.246
-674.149	39.539	-0.186	0.167
-673.135	84.190	0.043	-0.047
-672.120	-200.000	0.037	0.209
-671.105	-12.508	0.148	-0.097
-670.091	29.430	-0.286	-0.244
-669.076	-6.678	0.038	0.026
-668.062	586.697	0.122	-0.301
-667.047	-20.143	0.318	0.196
-666.032	113.700	-0.201	0.245
-665.018	123.805	0.016	0.020
-664.003	-189.319	-0.044	-0.001
-662.989	35.510	-0.028	-0.025
-661.974	-17.791	-0.279	-0.175
-660.959	22.103	0.057	-0.047
-659.945	800.000	0.042	-0.175
-658.930	800.000	-0.076	-0.333
-657.916	534.761	-0.054	0.129
-656.901	-200.000	-0.008	0.037
-655.886	308.878	-0.140	-0.262
-654.872	-96.730	-0.163	0.043
-653.857	-165.703	0.197	-0.009
-652.843	-86.857	0.198	0.060
-651.828	-200.000	0.010	0.323
-650.814	150.693	0.126	-0.172
-649.799	-4.076	-0.213	-0.148
-648.784	-4.858	-0.352	-0.243
-647.770	69.734	-0.171	-0.176
-646.755	145.559	-0.080	-0.107
-645.741	-55.055	-0.238	-0.107
-644.726	-95.046	-0.314	0.085
-643.711	202.546	0.096	0.149
-642.697	-60.452	0.134	-0.057
-641.682	-57.472	0.477	-0.210
-640.668	-56.753	-0.111	0.049
-639.653	-153.095	-0.113	-0.008
-638.638	263.185	-0.105	0.182
-637.624	394.997	-0.106	-0.220
-636.609	248.334	-0.115	-0.195
-635.595	-200.000	-0.010	0.170
-634.580	278.490	-0.171	0.306
-633.565	-75.805	-0.201	-0.071
-632.551	32.503	-0.083	-0.072
-631.536	85.908	0.197	0.217
-630.522	31.927	0.245	-0.211
-629.507	669.908	-0.028	-0.074
-628.492	-200.000	-0.021	0.273
-627.478	-118.803	0.070	0.012
-626.463	-171.676	0.125	0.004
-625.449	-10.421	-0.228	-0.151
-624.434	28.377	-0.135	-0.114
-623.419	18.507	-0.213	0.171
-622.405	800.000	-0.077	0.326
-621.390	427.273	0.127	-0.274
-620.376	-132.558	-0.375	0.048
-619.361	-78.423	-0.347	0.119
-618.346	-93.039	0.064	0.018
-617.332	240.034	-0.147	-0.245
-616.317	-200.000	-0.039	-0.238
-615.303	800.000	-0.075	-0.266
-614.288	800.000	-0.047	-0.165
-613.273	-9.469	-0.037	0.025
-612.259	-200.000	0.090	-0.507
-611.244	99.232	0.194	-0.224
-610.230	36.971	-0.193	-0.171
-609.215	-134.254	0.292	-0.036
-608.201	-200.000	-0.021	-0.104
-607.186	-15.585	0.023	-0.014
-606.171	-15.844	0.369	0.235
-605.157	305.299	0.090	0.168
-604.142	271.690	0.212	0.373
-603.128	-200.000	-0.003	-0.447
-602.113	-75.099	-0.067	-0.024
-601.098	-9.248	0.080	0.053
-600.084	124.283	-0.266	0.334
-599.069	-35.105	0.156	0.085
-598.055	-50.442	-0.169	-0.080
-597.040	155.324	0.041	-0.056
-596.025	-87.091	-0.562	-0.171
-595.011	-78.126	-0.117	-0.040
-593.996	-12.558	0.172	-0.112
-592.982	-200.000	-0.033	0.175
-591.967	-109.530	-0.315	-0.066
-590.952	253.645	-0.173	0.296
-589.938	-200.000	0.011	-0.106
-588.923	-143.796	-0.221	-0.021
-587.909	-200.000	0.210	-0.000
-586.894	27.676	0.357	-0.300
-585.879	-200.000	0.051	-0.259
-584.865	800.000	0.030	-0.106
-583.850	-200.000	0.018	0.101
-582.836	-18.305	-0.168	-0.105
-581.821	-115.915	-0.189	-0.035
-580.806	-173.686	0.211	-0.006
-579.792	302.510	0.124	-0.228
-578.777	-51.316	0.322	-0.150
-577.763	-133.719	0.065	-0.008
-576.748	-200.000	0.009	-0.151
-575.733	-3.902	0.102	-0.071
-574.719	4.808	0.139	0.102
-573.704	377.670	-0.034	0.070
-572.690	800.000	-0.020	-0.082
-571.675	800.000	-0.031	-0.100
-570.661	-49.378	0.074	-0.035
-569.646	-200.000	0.062	0.271
-568.631	-49.926	-0.268	0.127
-567.617	572.587	-0.054	0.131
-566.602	358.870	-0.136	0.272
-565.588	95.936	-0.039	-0.045
-564.573	-89.633	0.192	-0.056
-563.558	112.632	0.077	0.093
-562.544	46.351	-0.110	0.102
-561.529	-200.000	0.132	0.000
-560.515	800.000	0.041	-0.177
-559.500	514.114	0.140	0.326
-558.485	-200.000	-0.009	0.432
-557.471	-200.000	0.016	0.083
-556.456	141.276	0.185	0.243
-555.442	-84.449	-0.157	0.050
-554.427	783.260	-0.131	-0.358
-553.412	-200.000	-0.031	-0.302
-552.398	0.067	-0.203	0.144
-551.383	320.974	-0.134	0.254
-550.369	-78.812	0.369	0.126
-549.354	-133.906	0.212	0.026
-548.339	800.000	-0.060	-0.169
-547.325	-200.000	0.041	0.315
-546.310	259.860	0.045	-0.077
-545.296	-200.000	0.033	-0.280
-544.281	17.673	-0.286	0.227
-543.266	800.000	-0.048	-0.181
-542.252	92.294	0.205	-0.230
-541.237	11.875	0.194	0.148
-540.223	-56.570	-0.322	0.142
-539.208	-143.283	0.200	0.019
-538.193	-65.194	-0.094	0.038
-537.179	19.403	-0.067	0.053
-536.164	454.101	-0.085	0.189
-535.150	-5.746	-0.070	0.048
-534.135	301.284	0.156	-0.288
-533.121	136.494	-0.114	0.149
-532.106	-111.459	-0.210	0.043
-531.091	-130.483	-0.228	-0.031
-530.077	57.117	-0.029	0.029
-529.062	-54.044	0.212	0.096
-528.048	800.000	-0.033	-0.101
-527.033	284.970	-0.163	0.293
-526.018	318.317	-0.066	0.125
-525.004	-35.941	-0.226	0.122
-523.989	20.881	0.115	-0.093
-522.975	800.000	-0.023	-0.076
-521.960	26.963	-0.147	-0.123
-520.945	94.353	-0.120	-0.136
-519.931	-200.000	-0.012	-0.094
-518.916	-89.247	-0.362	-0.106
-517.902	-83.665	0.173	-0.055
-516.887	-200.000	0.021	0.143
-515.872	-85.036	-0.259	0.081
-514.858	16.935	-0.259	0.204
-513.843	-117.198	0.223	0.040
-512.829	66.405	-0.183	0.186
-511.814	-137.273	0.294	-0.033
-510.799	-151.120	0.171	-0.013
-509.785	210.115	-0.150	-0.234
-508.770	94.382	-0.072	0.082
-507.756	-200.000	-0.006	-0.089
-506.741	336.409	-0.082	-0.158
-505.726	800.000	-0.073	0.224
-504.712	-200.000	-0.021	0.203
-503.697	263.016	-0.158	-0.273
-502.683	-105.758	-0.211	0.047
-501.668	56.860	-0.183	-0.177
-500.653	374.805	-0.123	-0.250
-499.639	80.244	0.211	-0.226
-498.624	-144.895	0.469	0.043
-497.610	99.285	0.021	0.025
-496.595	224.243	-0.091	-0.146
-495.581	-200.000	0.032	-0.293
-494.566	-200.000	-0.021	-0.243
-493.551	-200.000	-0.017	-0.161
-492.537	-94.358	-0.174	0.047
-491.522	91.383	0.242	-0.271
-490.508	-200.000	0.042	-0.376
-489.493	-151.209	-0.284	-0.021
-488.478	-200.000	0.053	-0.234
-487.464	-49.952	0.152	-0.072
-486.449	-9.302	0.109	-0.072
-485.435	13.990	-0.237	0.184
-484.420	42.838	-0.295	0.267
-483.405	256.703	-0.119	0.204
-482.391	-200.000	0.017	0.528
-481.376	-200.000	0.014	-0.173
-480.362	800.000	-0.017	-0.056
-479.347	71.481	0.140	0.145
-478.332	800.000	-0.043	0.133
-477.318	-29.479	-0.259	0.147
-476.303	-153.309	0.188	0.013
-475.289	91.638	0.155	0.173
-474.274	-200.000	0.015	0.155
-473.259	800.000	-0.084	-0.262
-472.245	-48.691	0.300	0.143
-471.230	-52.527	-0.148	-0.068
-470.216	243.302	-0.152	-0.253
-469.201	61.037	-0.250	0.246
-468.186	-7.836	-0.054	0.036
-467.172	-95.385	0.144	0.038
-466.157	105.929	-0.102	-0.120
-465.143	318.201	-0.075	-0.141
-464.128	-46.033	0.235	-0.115
-463.113	203.414	-0.007	0.011
-462.099	458.775	-0.102	0.225
-461.084	511.559	0.080	-0.186
-460.070	176.000	0.108	-0.155
-459.055	-13.807	0.266	0.171
-458.040	436.741	-0.022	-0.049
-457.026	-10.939	0.136	0.089
-456.011	363.604	-0.171	0.341
-454.997	381.397	-0.110	0.224
-453.982	-200.000	-0.064	0.406
-452.968	-200.000	-0.014	-0.163
-451.953	-138.524	0.211	-0.023
-450.938	-142.764	0.258	0.025
-449.924	145.755	-0.128	0.170
-448.909	-139.708	0.381	-0.040
-447.895	-56.501	0.296	0.130
-446.880	703.655	0.133	0.348
-445.865	-36.640	0.352	-0.188
-444.851	-39.187	0.270	-0.141
-443.836	-47.306	-0.379	0.183
-442.822	800.000	-0.050	0.199
-441.807	441.345	-0.077	0.167
-440.792	38.091	-0.116	-0.103
-439.778	116.323	0.142	-0.173
-438.763	-161.675	-0.051	0.003
-437.749	800.000	-0.031	-0.127
-436.734	-200.000	0.006	-0.039
-435.719	-93.946	-0.198	-0.054
-434.705	-132.342	-0.323	0.041
-433.690	-200.000	0.039	0.202
-432.676	0.818	0.256	0.182
-431.661	-73.859	0.318	-0.115
-430.646	-35.390	0.111	0.060
-429.632	-200.000	-0.076	-0.385
-428.617	-79.689	-0.235	0.079
-427.603	-120.599	-0.057	-0.010
-426.588	14.479	-0.490	-0.379
-425.573	-57.160	0.232	-0.101
-424.559	70.160	-0.172	0.176
-423.544	26.448	0.252	0.209
-422.530	94.706	-0.206	-0.233
-421.515	-200.000	-0.004	-0.220
-420.500	15.749	0.151	-0.118
-419.486	-16.807	0.165	-0.104
-418.471	248.212	0.093	0.156
-417.457	655.441	-0.106	0.270
-416.442	5.188	0.189	-0.138
-415.428	103.070	-0.165	-0.191
-414.413	-169.337	0.112	0.004
-413.398	464.207	-0.043	-0.095
-412.384	800.000	0.066	-0.185
-411.369	-152.754	-0.132	0.009
-410.355	466.061	0.058	0.128
-409.340	464.183	0.085	-0.189
-408.325	91.941	-0.118	0.132
-407.311	-26.147	0.231	0.135
-406.296	70.028	0.062	-0.063
-405.282	-200.000	0.030	0.142
-404.267	-43.590	-0.402	0.201
-403.252	-124.260	-0.268	0.041
-402.238	-171.464	0.218	0.007
-401.223	-200.000	0.020	-0.421
-400.209	-70.475	0.237	-0.089
-399.194	-122.369	0.045	-0.007
-398.179	-165.095	0.231	-0.010
-397.165	800.000	-0.115	0.465
-396.150	204.960	0.043	-0.067
-395.136	-200.000	0.018	-0.151
-394.121	-80.383	0.152	0.050
-393.106	-76.495	-0.203	0.071
-392.092	-65.383	0.143	0.057
-391.077	85.193	0.180	0.196
-390.063	-24.553	0.264	-0.156
-389.048	-30.398	0.142	0.080
-388.033	800.000	0.028	-0.106
-387.019	-68.399	0.232	0.089
-386.004	252.411	-0.029	-0.049
-384.990	-34.573	-0.247	0.134
-383.975	112.288	-0.444	0.532
-382.960	-124.574	0.147	-0.023
-381.946	53.630	0.058	-0.055
-380.931	28.102	0.085	0.071
-379.917	426.905	0.075	-0.160
-378.902	-166.321	0.250	-0.010
-377.888	-200.000	0.048	0.271
-376.873	-70.902	-0.158	0.059
-375.858	-98.112	-0.454	0.116
-374.844	104.041	0.202	-0.235
-373.829	-200.000	0.067	0.316
-372.815	800.000	0.050	0.138
-371.800	212.652	-0.226	0.353
-370.785	-200.000	0.048	-0.233
-369.771	-38.439	0.397	0.208
-368.756	-61.922	0.136	0.056
-367.742	-187.773	-0.154	0.002
-366.727	800.000	0.068	-0.189
-365.712	63.755	0.276	0.274
-364.698	643.811	-0.025	0.063
-363.683	-200.000	0.039	-0.196
-362.669	755.662	0.167	0.446
-361.654	-54.372	-0.138	0.062
-360.639	-183.040	0.137	-0.002
-359.625	-171.616	-0.188	0.006
-358.610	-0.966	0.084	-0.059
-357.596	-28.364	0.132	-0.075
-356.581	800.000	0.035	-0.146
-355.566	-55.916	-0.386	0.171
-354.552	800.000	-0.058	-0.172
-353.537	800.000	-0.047	0.198
-352.523	-200.000	-0.025	0.289
-351.508	-200.000	0.007	0.121
-350.493	-60.523	0.215	0.090
-349.479	1.001	0.085	0.061
-348.464	-30.937	-0.215	0.120
-347.450	-200.000	0.019	-0.337
-346.435	26.036	-0.060	-0.050
-345.420	-200.000	0.019	0.096
-344.406	-73.699	0.252	0.091
-343.391	-47.098	0.305	0.147
-342.377	800.000	-0.077	0.212
-341.362	182.455	0.132	0.193
-340.348	20.928	0.238	-0.191
-339.333	14.932	0.304	0.235
-338.318	-60.603	0.245	-0.103
-337.304	800.000	-0.048	-0.196
-336.289	33.202	0.126	0.108
-335.275	-139.240	0.112	0.012
-334.260	93.180	-0.026	-0.030
-333.245	217.315	-0.036	0.057
-332.231	118.145	-0.153	-0.187
-331.216	246.704	0.109	-0.183
-330.202	-126.473	0.307	0.045
-329.187	58.501	-0.221	0.215
-328.172	-147.407	0.179	-0.015
-327.158	-72.797	0.063	0.023
-326.143	800.000	-0.127	-0.404
-325.129	342.662	-0.147	-0.284
-324.114	800.000	-0.080	-0.329
-323.099	136.546	-0.113	0.146
-322.085	-55.005	0.221	0.098
-321.070	222.419	0.072	0.115
-320.056	627.622	-0.189	-0.472
-319.041	442.637	-0.123	0.266
-318.026	-200.000	-0.027	-0.197
-317.012	800.000	-0.053	0.194
-315.997	-200.000	0.020	-0.108
-314.983	-28.945	-0.289	0.164
-313.968	-200.000	0.034	-0.285
-312.953	291.269	0.089	-0.160
-311.939	-178.316	0.111	-0.003
-310.924	86.528	-0.100	-0.109
-309.910	-30.736	0.185	0.103
-308.895	800.000	0.053	-0.151
-307.880	-99.368	-0.152	-0.038
-306.866	-84.809	-0.094	-0.029
-305.851	800.000	0.035	-0.112
-304.837	-200.000	-0.021	0.131
-303.822	54.790	-0.200	0.190
-302.807	-200.000	0.046	0.225
-301.793	-95.558	-0.093	-0.025
-300.778	-25.398	0.099	0.058
-299.764	-200.000	0.035	0.207
-298.749	-200.000	0.285	0.000
-297.735	301.212	0.054	-0.098
-296.720	6.024	-0.204	-0.149
-295.705	-200.000	0.002	-0.076
-294.691	-78.180	-0.338	-0.115
-293.676	130.853	0.188	0.238
-292.662	112.114	0.100	0.119
-291.647	-200.000	-0.000	0.044
-290.632	-87.864	0.332	0.099
-289.618	-28.998	-0.196	0.111
-288.603	30.184	-0.147	0.124
-287.589	33.391	-0.141	0.121
-286.574	-200.000	0.013	0.090
-285.559	708.702	-0.113	-0.295
-284.545	198.497	0.116	0.175
-283.530	107.477	0.405	-0.475
-282.516	-112.067	0.304	-0.060
-281.501	-200.000	0.007	-0.230
-280.486	-66.690	-0.261	-0.102
-279.472	-78.644	-0.358	-0.121
-278.457	800.000	-0.047	-0.185
-277.443	-50.038	-0.159	-0.074
-276.428	-200.000	-0.035	0.164
-275.413	417.602	-0.073	-0.154
-274.399	-200.000	0.003	-0.060
-273.384	-58.139	-0.146	-0.063
-272.370	800.000	0.036	-0.113
-271.355	31.646	0.032	0.027
-270.340	-200.000	0.059	0.264
-269.326	-39.980	-0.114	-0.059
-268.311	12.666	0.165	0.126
-267.297	35.786	-0.211	-0.183
-266.282	364.840	-0.037	0.073
-265.267	148.863	0.056	-0.075
-264.253	-117.586	0.073	0.013
-263.238	-200.000	-0.005	-0.023
-262.224	-8.263	-0.092	0.061
-261.209	145.855	-0.149	-0.197
-260.195	-200.000	0.073	0.417
-259.180	-200.000	0.038	-0.322
-258.165	45.682	-0.076	0.069
-257.151	118.444	0.064	0.078
-256.136	-90.842	-0.179	0.051
-255.122	-51.035	0.155	0.072
-254.107	127.661	-0.091	-0.114
-253.092	-200.000	0.011	0.131
-252.078	-79.994	-0.169	0.056
-251.063	22.900	0.084	-0.068
-250.049	-40.602	0.213	-0.109
-249.034	383.337	-0.125	0.254
-248.019	-142.263	-0.255	0.025
-247.005	-136.647	-0.252	0.029
-245.990	-2.450	0.120	0.083
-244.976	68.676	0.156	-0.158
-243.961	-200.000	-0.027	-0.212
-242.946	-200.000	0.042	-0.240
-241.932	283.885	-0.148	-0.261
-240.917	196.402	0.086	-0.128
-239.903	800.000	0.060	0.241
-238.888	151.489	0.111	0.149
-237.873	-53.587	0.086	-0.039
-236.859	226.844	0.206	0.329
-235.844	141.277	-0.103	0.135
-234.830	90.111	-0.225	-0.248
-233.815	-200.000	-0.045	-0.296
-232.800	-200.000	0.070	0.327
-231.786	-200.000	-0.004	0.067
-230.771	-200.000	0.008	0.137
-229.757	-163.683	0.606	0.028
-228.742	-80.104	0.165	-0.054
-227.727	179.047	0.150	-0.216
-226.713	800.000	-0.075	-0.321
-225.698	-200.000	-0.010	-0.294
-224.684	137.659	-0.013	0.017
-223.669	106.711	-0.271	-0.317
-222.655	11.129	0.255	-0.192
-221.640	-51.217	-0.172	-0.079
-220.625	127.662	0.151	0.189
-219.611	-190.900	0.251	0.003
-218.596	245.866	0.202	0.335
-217.582	-20.996	0.067	0.040
-216.567	40.871	-0.237	-0.211
-215.552	-200.000	0.018	0.131
-214.538	97.205	0.172	0.194
-213.523	61.478	-0.234	-0.229
-212.509	-9.922	0.260	-0.170
-211.494	-55.025	-0.055	-0.024
-210.479	-155.586	0.126	0.008
-209.465	28.653	-0.157	-0.130
-208.450	681.092	-0.065	-0.167
-207.436	452.750	0.134	-0.291
-206.421	800.000	-0.080	0.314
-205.406	800.000	-0.054	-0.154
-204.392	-200.000	0.041	-0.179
-203.377	-44.095	0.132	0.065
-202.363	15.305	-0.140	0.108
-201.348	-200.000	0.030	-0.229
-200.333	393.490	0.034	-0.069
-199.319	49.339	-0.306	-0.283
-198.304	-0.349	0.093	0.065
-197.290	247.738	0.106	-0.176
-196.275	750.722	-0.072	0.191
-195.260	-90.917	0.079	0.022
-194.246	58.189	-0.014	0.014
-193.231	488.399	-0.092	0.207
-192.217	-153.000	-0.240	-0.017
-191.202	-200.000	0.020	0.281
-190.187	-96.315	0.309	-0.080
-189.173	-84.255	0.082	-0.026
-188.158	-178.631	-0.156	0.004
-187.144	-89.854	-0.231	0.066
-186.129	-14.124	0.233	0.148
-185.114	685.431	-0.016	0.041
-184.100	-31.375	-0.227	-0.125
-183.085	-83.929	0.061	0.019
-182.071	-41.374	0.117	0.059
-181.056	-100.398	0.241	-0.059
-180.042	25.205	0.163	0.133
-179.027	-168.074	0.327	0.013
-178.012	800.000	-0.076	-0.250
-176.998	-94.395	-0.142	-0.038
-175.983	86.971	0.074	-0.080
-174.969	362.239	-0.051	0.100
-173.954	-200.000	0.003	-0.118
-172.939	303.783	0.116	0.211
-171.925	243.269	0.287	0.473
-170.910	159.821	-0.137	-0.188
-169.896	642.465	0.079	0.199
-168.881	-16.439	0.135	-0.084
-167.866	-64.189	-0.407	0.163
-166.852	-56.741	-0.210	-0.091
-165.837	83.611	-0.203	-0.217
-164.823	124.541	-0.098	0.121
-163.808	-200.000	-0.036	0.172
-162.793	-200.000	-0.011	-0.046
-161.779	563.177	0.140	0.334
-160.764	-112.445	0.466	0.091
-159.750	346.388	-0.063	-0.122
-158.735	800.000	-0.097	0.278
-157.720	-200.000	-0.001	-0.079
-156.706	72.935	0.114	-0.117
-155.691	386.779	-0.043	0.088
-154.677	615.322	-0.075	0.185
-153.662	-38.381	-0.194	0.101
-152.647	-124.702	-0.167	-0.025
-151.633	179.612	0.158	0.227
-150.618	688.629	0.055	0.140
-149.604	45.502	-0.108	-0.097
-148.589	-200.000	-0.037	-0.418
-147.574	800.000	-0.079	0.280
-146.560	33.874	0.124	-0.106
-145.545	-6.823	0.135	0.090
-144.531	-77.306	0.129	0.044
-143.516	-170.176	-0.091	-0.003
-142.502	-47.808	0.256	-0.122
-141.487	-200.000	0.094	0.462
-140.472	-42.812	0.213	0.106
-139.458	-200.000	-0.022	-0.154
-138.443	-23.303	-0.251	0.148
-137.429	90.347	-0.097	-0.107
-136.414	151.302	0.169	0.225
-135.399	-200.000	0.057	0.356
-134.385	-191.783	-0.361	-0.003
-133.370	99.464	0.323	0.367
-132.356	-29.105	0.271	0.153
-131.341	-98.894	-0.287	0.072
-130.326	-48.101	0.309	-0.146
-129.312	24.709	0.122	0.099
-128.297	-138.427	0.098	0.011
-127.283	-173.283	0.326	0.010
-126.268	800.000	0.144	0.420
-125.253	35.389	0.216	0.186
-124.239	-200.000	0.011	0.317
-123.224	9.642	0.228	0.169
-122.210	-97.392	0.334	0.085
-121.195	60.603	-0.065	0.063
-120.180	528.271	-0.059	0.136
