DTS Sentinel unit serial number:	SN413079Multiplexer serial number:	ORYXHardware model number:	OX4-SRSoftware version number:	ORYX F/W v4.00 Oryx Data Collector v3.7.2.0data status	okinstallation	princeton_trtdifferential loss correction	single-endedforward channel	channel 1reverse channel	N/Adate	2019/09/19time	02:58:35forward acquisition time	60.00reverse acquisition time	0.00gamma	496.2192k internal	0.2344k external	0.2344temperature offset calibration	1.0018default loss term (dB/km)	0.3790temperature slope calibration	1.0000multiplexer offset coefficient	1.0000multiplexer slope coefficient	1.0000fibre end	0.00T internal ref (°C)	20.87T ext. ref 1 (°C)	0.68T ext. ref 2 (°C)	14.67length (m)	temperature (°C)	Stokes	anti-Stokes-747.200	180.371	0.094	0.138
-746.185	271.264	-0.080	0.141
-745.171	-100.296	0.169	-0.042
-744.156	-42.774	-0.325	0.166
-743.142	34.938	-0.025	-0.022
-742.127	-92.564	-0.139	0.039
-741.112	-165.096	0.306	0.014
-740.098	257.639	0.134	0.231
-739.083	26.664	0.127	0.107
-738.069	-49.835	-0.429	-0.204
-737.054	-30.256	0.149	-0.085
-736.039	106.398	-0.135	-0.160
-735.025	38.964	-0.245	0.219
-734.010	111.801	-0.133	-0.161
-732.996	88.998	-0.221	0.246
-731.981	-120.002	-0.344	-0.059
-730.966	334.920	0.138	0.267
-729.952	800.000	0.126	-0.520
-728.937	-200.000	0.030	-0.396
-727.923	364.475	-0.219	-0.440
-726.908	-30.910	0.104	-0.059
-725.894	442.153	-0.078	-0.170
-724.879	-133.692	-0.185	-0.023
-723.864	-111.726	-0.421	-0.085
-722.850	-91.339	0.237	-0.068
-721.835	372.640	0.133	0.271
-720.821	-134.941	0.148	-0.018
-719.806	226.867	-0.151	-0.245
-718.791	173.040	0.180	0.259
-717.777	760.407	0.148	0.402
-716.762	18.039	0.322	-0.257
-715.748	383.730	-0.083	-0.171
-714.733	-53.505	-0.349	-0.160
-713.718	-200.000	-0.028	-0.555
-712.704	-118.949	-0.235	0.041
-711.689	323.677	0.096	-0.184
-710.675	-23.927	-0.297	0.178
-709.660	49.550	0.467	-0.440
-708.645	-137.223	-0.292	0.033
-707.631	245.554	-0.068	-0.115
-706.616	-11.229	-0.066	-0.043
-705.602	23.485	0.087	0.071
-704.587	-73.388	-0.285	0.104
-703.572	255.838	0.089	-0.152
-702.558	10.820	0.118	0.090
-701.543	-200.000	0.025	-0.310
-700.529	117.122	0.142	-0.174
-699.514	-60.000	-0.127	0.054
-698.499	-200.000	0.004	-0.134
-697.485	-185.945	-0.235	-0.003
-696.470	-129.042	0.207	0.029
-695.456	-200.000	-0.001	-0.158
-694.441	-200.000	0.006	-0.064
-693.426	273.777	-0.072	-0.128
-692.412	-7.354	0.148	-0.100
-691.397	-41.546	0.304	-0.156
-690.383	712.711	0.165	-0.436
-689.368	-42.290	-0.188	-0.096
-688.354	-200.000	0.001	0.168
-687.339	-23.539	-0.274	-0.164
-686.324	-115.566	-0.242	0.045
-685.310	-163.532	-0.089	-0.004
-684.295	-73.409	0.053	-0.019
-683.281	-142.936	0.362	-0.035
-682.266	178.098	0.089	-0.129
-681.251	800.000	0.058	-0.182
-680.237	-150.979	0.256	0.019
-679.222	16.561	-0.088	-0.069
-678.208	-151.561	-0.218	-0.016
-677.193	-161.881	-0.488	-0.025
-676.178	146.052	-0.102	-0.136
-675.164	-200.000	0.018	-0.159
-674.149	84.477	-0.064	-0.069
-673.135	-200.000	-0.008	-0.109
-672.120	-200.000	-0.016	0.366
-671.105	73.947	-0.219	-0.229
-670.091	-1.928	0.080	0.056
-669.076	4.671	0.057	-0.042
-668.062	-200.000	-0.036	0.543
-667.047	-100.343	-0.214	0.053
-666.032	-116.433	0.183	0.034
-665.018	95.650	0.208	0.237
-664.003	800.000	0.007	0.022
-662.989	-62.510	-0.036	0.015
-661.974	-69.141	0.429	0.165
-660.959	-25.395	0.428	0.253
-659.945	-25.604	-0.316	-0.186
-658.930	30.373	0.259	0.221
-657.916	-165.694	0.348	-0.015
-656.901	-105.556	-0.171	-0.039
-655.886	-44.583	0.226	0.113
-654.872	-200.000	-0.019	0.140
-653.857	-200.000	-0.038	0.271
-652.843	191.274	-0.027	0.040
-651.828	323.322	0.048	-0.092
-650.814	-14.065	0.155	0.100
-649.799	-200.000	0.008	-0.043
-648.784	226.658	-0.284	-0.460
-647.770	8.551	0.137	-0.103
-646.755	-182.450	-0.109	0.002
-645.741	-200.000	0.058	-0.288
-644.726	49.393	-0.029	0.027
-643.711	-200.000	0.002	0.136
-642.697	22.360	-0.297	-0.242
-641.682	159.591	0.172	0.239
-640.668	-25.848	0.193	-0.113
-639.653	347.247	0.016	-0.031
-638.638	-86.753	0.367	0.112
-637.624	-37.796	-0.391	-0.207
-636.609	-32.282	0.213	-0.119
-635.595	63.140	0.266	-0.265
-634.580	-55.939	-0.267	0.119
-633.565	-200.000	0.009	0.209
-632.551	-180.844	-0.033	0.001
-631.536	85.758	-0.415	0.454
-630.522	-131.726	-0.128	-0.017
-629.507	15.187	-0.179	0.140
-628.492	28.504	0.206	0.174
-627.478	-128.084	0.160	-0.023
-626.463	800.000	0.094	-0.270
-625.449	-200.000	0.006	-0.220
-624.434	-33.781	-0.348	-0.191
-623.419	-115.628	0.054	0.010
-622.405	-200.000	-0.018	0.274
-621.390	-31.367	0.189	-0.106
-620.376	192.619	0.051	-0.077
-619.361	-57.513	-0.318	0.139
-618.346	-5.943	0.202	0.138
-617.332	79.728	0.087	0.093
-616.317	-99.872	-0.167	-0.041
-615.303	-200.000	0.012	-0.057
-614.288	244.019	-0.111	-0.186
-613.273	800.000	0.031	0.103
-612.259	207.396	-0.198	0.307
-611.244	-200.000	-0.026	0.189
-610.230	-142.952	0.016	-0.002
-609.215	47.156	0.136	0.126
-608.201	800.000	0.133	0.423
-607.186	-156.728	-0.208	-0.013
-606.171	-200.000	0.055	0.275
-605.157	800.000	-0.080	-0.346
-604.142	-38.924	-0.191	-0.100
-603.128	-131.311	-0.340	-0.045
-602.113	1.420	-0.380	0.272
-601.098	-18.987	0.127	-0.079
-600.084	-28.313	0.105	-0.060
-599.069	-51.153	0.231	0.108
-598.055	440.637	0.175	-0.380
-597.040	42.984	-0.099	-0.090
-596.025	-54.865	-0.175	-0.079
-595.011	-75.400	0.251	-0.089
-593.996	-117.649	-0.268	0.048
-592.982	115.608	-0.194	-0.236
-591.967	158.103	0.221	-0.305
-590.952	260.022	-0.125	-0.215
-589.938	69.850	-0.195	0.200
-588.923	-69.775	-0.170	0.065
-587.909	242.756	-0.180	-0.299
-586.894	-48.322	0.100	-0.048
-585.879	86.023	0.124	0.136
-584.865	-2.077	0.213	-0.149
-583.850	-110.442	0.532	0.110
-582.836	599.468	0.126	-0.312
-581.821	800.000	0.048	0.156
-580.806	170.935	-0.249	-0.354
-579.792	74.570	-0.191	0.200
-578.777	-200.000	-0.008	0.163
-577.763	-200.000	0.034	0.163
-576.748	-77.596	0.138	0.048
-575.733	138.353	-0.176	-0.229
-574.719	285.159	-0.041	-0.073
-573.704	1.260	-0.454	-0.324
-572.690	800.000	0.018	0.057
-571.675	800.000	0.104	-0.358
-570.661	678.173	0.071	-0.184
-569.646	179.086	-0.129	-0.188
-568.631	165.522	-0.266	-0.374
-567.617	-21.783	0.149	0.090
-566.602	23.393	-0.218	-0.178
-565.588	-34.611	-0.002	-0.001
-564.573	-143.794	-0.451	0.042
-563.558	162.042	-0.094	-0.131
-562.544	23.487	0.356	0.291
-561.529	-121.850	-0.229	-0.037
-560.515	306.553	-0.086	-0.160
-559.500	-56.087	-0.058	0.025
-558.485	653.297	-0.051	0.130
-557.471	51.068	-0.246	0.232
-556.456	734.142	0.093	0.248
-555.442	370.322	0.189	0.380
-554.427	-148.651	-0.207	0.017
-553.412	179.309	-0.083	-0.120
-552.398	-125.228	-0.074	-0.011
-551.383	116.081	-0.111	-0.135
-550.369	800.000	0.050	0.148
-549.354	413.353	-0.204	-0.431
-548.339	-51.900	0.066	0.030
-547.325	-76.623	0.112	0.039
-546.310	158.249	0.200	0.276
-545.296	-8.938	0.110	0.073
-544.281	-85.009	0.054	-0.017
-543.266	-133.465	-0.105	-0.013
-542.252	-103.580	-0.334	-0.078
-541.237	-17.631	-0.191	-0.119
-540.223	-200.000	-0.000	0.030
-539.208	-200.000	-0.014	0.074
-538.193	41.381	0.218	0.195
-537.179	-81.339	0.099	-0.032
-536.164	333.645	0.278	-0.534
-535.150	-82.037	0.271	-0.088
-534.135	-115.592	-0.137	0.025
-533.121	-200.000	0.056	-0.245
-532.106	-200.000	-0.035	0.227
-531.091	-124.522	0.175	0.027
-530.077	-159.085	-0.121	0.007
-529.062	-25.888	0.211	0.124
-528.048	619.104	-0.075	-0.186
-527.033	-200.000	-0.047	0.235
-526.018	-83.540	0.500	-0.159
-525.004	-19.985	0.104	0.064
-523.989	-36.754	-0.096	-0.051
-522.975	-97.506	0.284	0.073
-521.960	-1.383	0.346	-0.242
-520.945	149.460	0.279	-0.375
-519.931	-77.863	-0.283	0.097
-518.916	243.290	0.060	0.100
-517.902	800.000	-0.031	-0.098
-516.887	-200.000	-0.040	-0.186
-515.872	96.593	-0.141	0.160
-514.858	326.660	-0.059	0.112
-513.843	-117.958	0.356	0.063
-512.829	19.999	-0.140	0.112
-511.814	-63.385	0.127	0.052
-510.799	-120.505	-0.150	-0.025
-509.785	278.830	-0.202	-0.357
-508.770	-85.860	0.117	-0.036
-507.756	10.990	0.253	-0.192
-506.741	366.187	-0.118	0.235
-505.726	-176.812	-0.220	-0.006
-504.712	-176.720	0.150	0.004
-503.697	-22.028	-0.341	0.205
-502.683	-76.863	0.144	-0.050
-501.668	9.761	-0.072	-0.054
-500.653	154.669	-0.180	0.245
-499.639	-200.000	-0.006	-0.181
-498.624	240.533	0.165	0.273
-497.610	-38.896	-0.176	0.092
-496.595	302.547	-0.183	0.336
-495.581	31.821	0.188	-0.160
-494.566	352.725	-0.080	-0.156
-493.551	176.564	0.068	-0.099
-492.537	87.660	-0.053	0.058
-491.522	-200.000	-0.012	-0.191
-490.508	-81.953	-0.227	0.074
-489.493	-66.563	-0.112	0.044
-488.478	554.542	0.063	0.151
-487.464	-76.919	-0.260	-0.090
-486.449	-200.000	0.004	-0.118
-485.435	-200.000	0.031	-0.174
-484.420	441.551	0.113	0.245
-483.405	-200.000	-0.024	-0.212
-482.391	61.950	0.092	0.091
-481.376	50.123	0.054	0.050
-480.362	-37.325	0.098	0.052
-479.347	800.000	-0.051	0.210
-478.332	-200.000	0.068	-0.359
-477.318	29.112	-0.207	0.174
-476.303	-49.573	-0.085	-0.040
-475.289	52.153	0.181	0.171
-474.274	-21.551	0.206	-0.125
-473.259	15.848	-0.240	-0.187
-472.245	52.423	-0.046	0.043
-471.230	237.196	0.154	0.253
-470.216	800.000	-0.096	-0.355
-469.201	224.778	0.279	-0.447
-468.186	-110.857	-0.211	-0.043
-467.172	16.624	-0.150	0.118
-466.157	-200.000	0.002	0.020
-465.143	-70.021	0.172	0.065
-464.128	208.731	0.294	-0.456
-463.113	252.592	-0.195	0.329
-462.099	-107.154	-0.088	0.019
-461.084	235.451	0.221	0.361
-460.070	223.145	-0.194	0.310
-459.055	-170.215	-0.273	-0.010
-458.040	-200.000	0.079	-0.380
-457.026	800.000	0.041	0.120
-456.011	-21.105	-0.137	0.083
-454.997	30.622	-0.038	-0.032
-453.982	123.521	0.030	-0.037
-452.968	-61.107	0.041	0.017
-451.953	-44.887	-0.199	-0.098
-450.938	561.691	-0.070	0.168
-449.924	-5.032	0.022	-0.015
-448.909	109.367	-0.217	-0.257
-447.895	-23.403	-0.176	-0.104
-446.880	-105.208	-0.151	-0.034
-445.865	6.671	0.141	0.104
-444.851	106.648	0.050	-0.058
-443.836	-62.030	0.094	-0.039
-442.822	621.304	-0.082	0.205
-441.807	-67.623	0.137	-0.053
-440.792	450.297	-0.101	-0.221
-439.778	270.250	0.243	-0.423
-438.763	-32.888	0.178	0.098
-437.749	-61.755	-0.422	0.175
-436.734	-141.415	0.202	-0.020
-435.719	-87.542	-0.236	-0.071
-434.705	167.139	0.125	-0.176
-433.690	762.950	-0.055	-0.149
-432.676	800.000	0.081	0.230
-431.661	-200.000	-0.024	-0.167
-430.646	81.540	-0.214	0.229
-429.632	100.006	0.066	0.076
-428.617	111.137	0.156	-0.185
-427.603	-200.000	-0.032	-0.204
-426.588	77.799	0.260	-0.274
-425.573	-36.983	-0.078	-0.041
-424.559	800.000	-0.013	0.042
-423.544	-200.000	0.038	-0.287
-422.530	2.309	-0.121	0.086
-421.515	316.351	0.052	0.098
-420.500	-119.805	0.334	-0.057
-419.486	93.089	-0.057	0.064
-418.471	240.332	0.233	0.384
-417.457	191.780	0.151	0.224
-416.442	-13.966	-0.038	-0.024
-415.428	301.735	-0.029	-0.052
-414.413	-194.365	0.285	-0.002
-413.398	-60.139	-0.266	-0.112
-412.384	800.000	0.039	0.122
-411.369	155.354	-0.104	0.142
-410.355	44.826	-0.397	-0.361
-409.340	84.425	-0.205	-0.221
-408.325	-200.000	-0.012	-0.133
-407.311	-73.486	-0.216	-0.078
-406.296	102.614	0.210	0.242
-405.282	-50.177	-0.391	-0.183
-404.267	-126.227	-0.577	-0.085
-403.252	153.504	0.099	0.133
-402.238	-40.496	0.177	0.091
-401.223	-36.940	0.107	0.057
-400.209	181.113	-0.116	-0.168
-399.194	-200.000	-0.010	-0.227
-398.179	-121.420	-0.123	0.020
-397.165	-56.266	0.222	-0.097
-396.150	42.846	-0.171	-0.154
-395.136	-27.335	-0.286	0.164
-394.121	-114.213	-0.272	0.052
-393.106	-56.968	0.371	-0.162
-392.092	170.763	0.055	0.078
-391.077	7.028	0.311	-0.229
-390.063	-200.000	0.038	0.325
-389.048	-200.000	-0.025	-0.132
-388.033	83.143	-0.202	0.217
-387.019	-107.483	-0.114	-0.025
-386.004	-82.815	0.404	0.129
-384.990	550.202	0.088	-0.208
-383.975	800.000	0.042	0.143
-382.960	-102.994	-0.192	0.045
-381.946	-200.000	0.045	-0.276
-380.931	51.935	0.145	-0.136
-379.917	-135.173	0.251	0.030
-378.902	-98.563	-0.085	0.021
-377.888	271.868	0.103	0.180
-376.873	-200.000	0.009	0.366
-375.858	77.640	0.271	-0.285
-374.844	0.560	-0.098	-0.069
-373.829	800.000	-0.060	-0.236
-372.815	-200.000	-0.074	0.332
-371.800	174.405	0.138	-0.197
-370.785	-140.105	-0.264	-0.027
-369.771	198.202	0.103	-0.155
-368.756	800.000	-0.035	-0.134
-367.742	800.000	-0.022	-0.065
-366.727	-200.000	0.036	-0.378
-365.712	97.027	0.107	0.121
-364.698	-89.838	-0.207	0.060
-363.683	80.192	-0.058	0.062
-362.669	358.188	-0.187	-0.369
-361.654	-25.487	0.176	0.103
-360.639	192.840	-0.157	0.234
-359.625	86.267	0.113	0.123
-358.610	-56.266	0.234	0.102
-357.596	701.434	-0.013	-0.033
-356.581	-77.655	0.258	0.088
-355.566	800.000	-0.094	0.320
-354.552	-90.953	-0.142	-0.040
-353.537	800.000	-0.105	0.306
-352.523	-50.213	0.054	0.025
-351.508	27.042	-0.167	0.138
-350.493	8.321	0.058	-0.043
-349.479	-114.848	0.259	-0.049
-348.464	106.179	0.305	0.356
-347.450	-137.494	0.100	0.011
-346.435	-92.362	0.174	-0.048
-345.420	254.723	0.068	-0.115
-344.406	-200.000	0.016	0.178
-343.391	17.186	-0.298	-0.233
-342.377	182.891	-0.208	-0.303
-341.362	-158.349	-0.270	-0.015
-340.348	150.632	0.057	0.076
-339.333	169.379	-0.040	0.056
-338.318	-36.560	0.423	0.224
-337.304	-37.755	0.099	0.052
-336.289	-200.000	-0.046	0.217
-335.275	195.047	0.127	0.191
-334.260	-200.000	0.042	-0.207
-333.245	-47.812	0.233	0.111
-332.231	-200.000	-0.005	-0.266
-331.216	4.456	-0.128	0.092
-330.202	800.000	0.095	0.372
-329.187	-3.287	-0.172	0.118
-328.172	-116.076	0.118	0.022
-327.158	132.733	0.214	-0.271
-326.143	800.000	0.096	0.273
-325.129	45.826	0.117	0.106
-324.114	53.822	0.240	0.227
-323.099	-37.780	0.299	0.157
-322.085	121.799	-0.232	0.285
-321.070	-44.965	0.050	-0.024
-320.056	-120.348	-0.031	-0.005
-319.041	-63.019	0.105	0.043
-318.026	-70.936	-0.258	-0.096
-317.012	421.750	0.111	0.234
-315.997	800.000	0.044	-0.167
-314.983	277.928	0.159	-0.278
-313.968	331.270	0.102	0.193
-312.953	630.065	-0.040	0.100
-311.939	263.469	0.031	-0.053
-310.924	-178.810	0.170	0.004
-309.910	-200.000	0.004	0.067
-308.895	-12.156	-0.173	0.112
-307.880	-0.781	-0.075	-0.052
-306.866	-65.412	-0.306	-0.121
-305.851	-65.948	0.005	0.002
-304.837	7.541	0.207	0.153
-303.822	-42.125	-0.009	-0.004
-302.807	-118.738	0.280	0.048
-301.793	27.480	-0.148	0.122
-300.778	-134.465	-0.103	-0.012
-299.764	-200.000	0.030	0.131
-298.749	433.564	-0.144	0.307
-297.735	249.801	-0.023	0.039
-296.720	-54.304	-0.283	0.126
-295.705	0.294	0.139	0.097
-294.691	203.305	-0.158	-0.240
-293.676	-173.855	0.252	-0.007
-292.662	-10.342	0.232	-0.151
-291.647	-3.980	-0.125	-0.085
-290.632	-87.674	-0.349	-0.103
-289.618	-200.000	0.018	-0.238
-288.603	9.349	0.132	0.098
-287.589	261.308	-0.047	0.080
-286.574	-200.000	0.014	0.409
-285.559	-200.000	0.045	0.279
-284.545	-19.906	0.200	0.121
-283.530	-200.000	0.022	0.301
-282.516	-141.655	-0.391	0.039
-281.501	-0.234	0.114	0.080
-280.486	315.238	0.097	0.180
-279.472	-200.000	0.007	-0.032
-278.457	337.508	0.110	0.211
-277.443	-42.842	0.235	0.117
-276.428	-60.817	0.117	-0.049
-275.413	479.812	0.146	0.325
-274.399	-200.000	0.023	-0.445
-273.384	800.000	-0.115	-0.476
-272.370	-104.151	-0.034	-0.008
-271.355	15.393	-0.136	-0.105
-270.340	-200.000	-0.038	0.178
-269.326	-200.000	0.027	-0.287
-268.311	131.095	0.103	0.130
-267.297	800.000	0.053	-0.152
-266.282	-56.106	0.142	-0.062
-265.267	24.934	0.221	-0.180
-264.253	208.061	-0.197	-0.303
-263.238	1.289	0.246	-0.174
-262.224	305.580	0.020	0.037
-261.209	91.675	0.198	0.219
-260.195	800.000	-0.031	-0.086
-259.180	-200.000	-0.027	0.170
-258.165	-123.074	0.177	-0.028
-257.151	-200.000	0.013	0.057
-256.136	800.000	0.044	0.176
-255.122	-105.539	0.112	0.025
-254.107	-81.666	0.234	-0.075
-253.092	-200.000	0.009	-0.318
-252.078	23.822	0.138	-0.112
-251.063	-105.847	0.092	-0.020
-250.049	4.466	0.087	-0.063
-249.034	37.867	0.231	0.202
-248.019	-102.286	0.355	0.084
-247.005	-200.000	0.021	0.170
-245.990	-30.207	-0.181	-0.101
-244.976	-70.575	-0.193	-0.072
-243.961	141.349	0.117	-0.152
-242.946	650.325	-0.031	0.079
-241.932	-34.070	-0.333	0.180
-240.917	-200.000	0.023	-0.148
-239.903	35.205	0.125	-0.107
-238.888	-200.000	0.042	-0.361
-237.873	-149.287	0.330	-0.026
-236.859	-66.685	0.267	0.104
-235.844	160.045	0.099	-0.136
-234.830	-45.606	-0.069	0.034
-233.815	304.565	0.142	-0.259
-232.800	184.138	-0.189	0.274
-231.786	150.308	-0.118	0.157
-230.771	-76.612	0.225	0.077
-229.757	-91.020	-0.178	0.050
-228.742	-63.657	-0.355	-0.143
-227.727	800.000	-0.065	-0.232
-226.713	-48.739	0.223	-0.105
-225.698	209.646	-0.230	-0.353
-224.684	191.173	0.093	0.137
-223.669	-200.000	0.004	0.317
-222.655	55.786	0.216	-0.205
-221.640	-200.000	-0.021	-0.227
-220.625	247.150	-0.141	0.233
-219.611	92.095	0.024	0.026
-218.596	-190.370	0.160	0.002
-217.582	312.619	0.043	0.078
-216.567	-39.742	-0.299	0.153
-215.552	657.639	0.032	0.080
-214.538	-10.120	-0.275	0.179
-213.523	-36.380	-0.081	0.043
-212.509	-13.688	-0.108	-0.069
-211.494	-113.249	0.115	-0.022
-210.479	800.000	0.007	0.023
-209.465	-200.000	0.058	-0.282
-208.450	182.532	0.246	0.355
-207.436	800.000	-0.052	0.146
-206.421	124.124	0.157	0.194
-205.406	-14.092	-0.285	0.180
-204.392	-2.693	0.394	0.270
-203.377	-141.742	-0.055	-0.005
-202.363	62.431	0.075	0.074
-201.348	224.316	-0.093	0.147
-200.333	-111.353	-0.326	-0.065
-199.319	282.248	0.138	0.242
-198.304	-200.000	-0.021	-0.105
-197.290	230.223	-0.137	-0.220
-196.275	-200.000	-0.029	-0.302
-195.260	49.661	-0.080	-0.074
-194.246	-28.950	-0.258	0.145
-193.231	-200.000	0.028	0.283
-192.217	-82.781	-0.358	0.113
-191.202	276.727	0.086	0.150
-190.187	-95.148	0.070	0.018
-189.173	-27.875	-0.231	0.131
-188.158	-67.588	0.360	0.138
-187.144	-200.000	-0.009	0.228
-186.129	800.000	0.015	-0.044
-185.114	214.592	0.186	-0.289
-184.100	129.555	-0.043	0.053
-183.085	-11.455	-0.098	0.063
-182.071	-72.304	0.127	-0.046
-181.056	-200.000	-0.002	0.343
-180.042	800.000	-0.171	0.507
-179.027	-170.016	0.169	0.006
-178.012	-200.000	0.001	-0.228
-176.998	428.725	-0.191	-0.403
-175.983	283.509	0.150	0.264
-174.969	800.000	0.005	-0.017
-173.954	8.188	0.137	-0.101
-172.939	272.332	-0.029	0.050
-171.925	-90.088	0.165	-0.047
-170.910	-2.769	-0.229	-0.156
-169.896	-29.439	-0.223	0.125
-168.881	-200.000	0.013	-0.274
-167.866	-61.594	0.254	-0.104
-166.852	-78.306	-0.276	-0.093
-165.837	103.990	-0.244	0.281
-164.823	118.171	-0.112	0.135
-163.808	-23.135	-0.038	0.022
-162.793	800.000	-0.009	-0.033
-161.779	-79.058	-0.227	0.075
-160.764	800.000	-0.049	0.132
-159.750	-85.497	0.204	-0.062
-158.735	-40.080	-0.156	0.079
-157.720	163.416	0.153	-0.210
-156.706	-133.696	0.244	0.030
-155.691	81.169	0.124	-0.131
-154.677	-200.000	0.002	0.218
-153.662	742.200	-0.024	0.064
-152.647	-200.000	-0.026	-0.121
-151.633	-138.536	-0.131	-0.014
-150.618	221.722	0.117	-0.184
-149.604	-200.000	0.017	-0.115
-148.589	-200.000	0.032	0.216
-147.574	181.532	0.248	-0.357
-146.560	-200.000	0.013	-0.094
-145.545	260.020	0.188	0.317
-144.531	800.000	-0.046	-0.138
-143.516	158.108	-0.091	0.123
-142.502	-155.568	0.259	0.016
-141.487	-80.155	0.293	-0.096
-140.472	25.363	0.341	0.277
-139.458	-200.000	-0.014	-0.065
-138.443	800.000	0.075	0.294
-137.429	91.616	-0.216	-0.238
-136.414	-86.235	0.142	-0.043
-135.399	-200.000	-0.046	0.370
-134.385	392.984	0.088	0.179
-133.370	88.317	-0.033	-0.036
-132.356	-109.128	0.244	-0.051
-131.341	-70.705	0.179	-0.066
-130.326	666.254	-0.068	0.171
-129.312	-20.831	0.060	-0.036
-128.297	176.253	0.215	0.305
-127.283	-69.048	-0.242	-0.091
-126.268	254.574	-0.179	-0.299
-125.253	800.000	0.030	0.127
-124.239	86.789	0.084	-0.090
-123.224	-193.244	0.508	-0.004
-122.210	-200.000	0.019	0.412
-121.195	417.064	-0.035	-0.074
-120.180	-32.647	-0.127	-0.069
