DTS Sentinel unit serial number:	SN413079Multiplexer serial number:	ORYXHardware model number:	OX4-SRSoftware version number:	ORYX F/W v4.00 Oryx Data Collector v3.7.2.0data status	okinstallation	princeton_trtdifferential loss correction	single-endedforward channel	channel 1reverse channel	N/Adate	2019/09/14time	18:10:35forward acquisition time	60.00reverse acquisition time	0.00gamma	496.2192k internal	0.2300k external	0.2300temperature offset calibration	1.0039default loss term (dB/km)	0.3790temperature slope calibration	1.0000multiplexer offset coefficient	1.0000multiplexer slope coefficient	1.0000fibre end	0.00T internal ref (°C)	37.12T ext. ref 1 (°C)	4.93T ext. ref 2 (°C)	31.34length (m)	temperature (°C)	Stokes	anti-Stokes-747.200	200.021	0.185	-0.289
-746.185	278.460	-0.104	0.189
-745.171	23.243	-0.500	-0.419
-744.156	-24.188	-0.250	0.152
-743.142	-200.000	-0.052	-0.442
-742.127	140.927	0.167	0.225
-741.112	-88.688	0.194	0.059
-740.098	506.471	-0.012	-0.029
-739.083	69.507	0.122	0.128
-738.069	6.571	-0.177	-0.134
-737.054	-98.203	-0.188	-0.049
-736.039	524.674	0.036	-0.087
-735.025	110.861	0.198	0.243
-734.010	-72.358	-0.212	-0.080
-732.996	-122.884	-0.189	-0.031
-731.981	337.692	-0.123	-0.244
-730.966	57.660	0.165	0.164
-729.952	-38.172	-0.241	0.130
-728.937	-183.964	-0.304	0.005
-727.923	800.000	0.035	-0.103
-726.908	224.493	0.112	-0.184
-725.894	145.316	-0.216	-0.295
-724.879	657.371	-0.129	0.339
-723.864	-200.000	-0.012	-0.271
-722.850	800.000	-0.041	0.148
-721.835	-200.000	0.035	-0.160
-720.821	-1.871	-0.183	-0.131
-719.806	-72.091	0.050	0.019
-718.791	-76.369	-0.352	0.126
-717.777	-132.840	-0.650	0.084
-716.762	-134.106	0.174	-0.022
-715.748	-120.724	-0.131	-0.023
-714.733	-53.999	0.170	-0.079
-713.718	60.986	-0.069	0.070
-712.704	205.673	-0.123	-0.195
-711.689	322.578	-0.046	0.089
-710.675	800.000	-0.039	-0.159
-709.660	215.298	-0.138	-0.224
-708.645	448.887	-0.141	0.315
-707.631	-94.510	0.429	0.119
-706.616	800.000	-0.022	-0.074
-705.602	-200.000	-0.011	0.067
-704.587	-59.547	-0.129	-0.056
-703.572	-105.935	0.148	-0.034
-702.558	384.989	0.090	-0.190
-701.543	-200.000	0.015	-0.069
-700.529	-30.662	-0.144	-0.083
-699.514	-71.660	-0.401	-0.152
-698.499	186.820	-0.232	-0.352
-697.485	800.000	0.064	-0.183
-696.470	-41.111	-0.121	0.064
-695.456	80.062	0.213	-0.233
-694.441	150.876	0.049	0.067
-693.426	15.209	-0.090	0.072
-692.412	-146.522	-0.174	0.015
-691.397	105.403	-0.100	0.121
-690.383	-76.167	-0.109	0.039
-689.368	552.741	-0.112	-0.274
-688.354	120.081	0.236	0.298
-687.339	-198.952	0.092	-0.001
-686.324	-200.000	-0.071	-0.470
-685.310	-66.157	-0.148	0.060
-684.295	72.792	0.120	-0.127
-683.281	153.659	0.037	0.052
-682.266	-121.651	-0.386	0.065
-681.251	212.423	0.080	0.128
-680.237	-12.700	0.039	-0.026
-679.222	-130.515	-0.128	0.018
-678.208	0.462	-0.161	-0.117
-677.193	65.481	0.085	-0.087
-676.178	800.000	-0.057	0.240
-675.164	800.000	-0.120	-0.381
-674.149	134.578	-0.115	0.151
-673.135	254.269	0.036	0.062
-672.120	523.771	-0.033	0.080
-671.105	297.213	0.073	0.136
-670.091	55.848	0.040	0.039
-669.076	-200.000	-0.002	0.125
-668.062	136.724	-0.355	-0.471
-667.047	-24.447	-0.221	-0.134
-666.032	210.792	0.037	-0.059
-665.018	-200.000	0.035	0.269
-664.003	-108.160	-0.194	-0.043
-662.989	-200.000	0.001	0.107
-661.974	234.929	-0.087	-0.145
-660.959	800.000	-0.126	-0.472
-659.945	-41.908	-0.130	-0.068
-658.930	-200.000	-0.026	0.143
-657.916	411.606	-0.172	0.370
-656.901	-170.870	0.360	0.013
-655.886	-200.000	0.016	0.096
-654.872	800.000	0.097	-0.291
-653.857	274.998	-0.029	-0.053
-652.843	-200.000	-0.001	-0.116
-651.828	-24.582	-0.075	-0.045
-650.814	-104.846	0.231	0.054
-649.799	475.665	0.047	-0.109
-648.784	-103.630	0.127	-0.030
-647.770	34.067	0.099	-0.088
-646.755	-84.515	-0.142	-0.045
-645.741	27.021	0.059	0.050
-644.726	89.121	-0.184	0.208
-643.711	-80.855	-0.165	-0.056
-642.697	-86.135	-0.154	-0.048
-641.682	-65.044	0.169	0.069
-640.668	-108.313	-0.180	0.040
-639.653	-88.803	-0.195	0.059
-638.638	-66.567	0.175	-0.070
-637.624	608.559	-0.066	0.167
-636.609	118.823	0.141	-0.177
-635.595	-124.189	0.117	-0.019
-634.580	6.564	0.123	-0.093
-633.565	800.000	0.038	-0.126
-632.551	-200.000	-0.035	0.267
-631.536	-200.000	-0.081	-0.388
-630.522	15.222	-0.084	0.067
-629.507	800.000	-0.062	0.231
-628.492	-200.000	0.010	0.209
-627.478	-32.521	-0.127	-0.072
-626.463	-200.000	0.047	0.343
-625.449	-50.621	-0.138	-0.066
-624.434	-58.595	-0.261	0.115
-623.419	-68.271	-0.216	-0.085
-622.405	-200.000	0.012	0.178
-621.390	293.492	-0.193	-0.357
-620.376	-50.177	-0.311	0.150
-619.361	-20.332	0.196	-0.123
-618.346	-82.182	-0.133	0.044
-617.332	664.788	0.077	0.203
-616.317	131.891	-0.197	-0.258
-615.303	-36.175	-0.279	0.153
-614.288	-27.108	0.144	-0.085
-613.273	-122.647	-0.095	-0.016
-612.259	-200.000	-0.017	-0.306
-611.244	-126.305	-0.183	-0.028
-610.230	206.624	0.071	-0.111
-609.215	800.000	0.026	-0.102
-608.201	686.988	0.071	0.188
-607.186	-32.248	0.167	0.095
-606.171	392.285	-0.044	-0.093
-605.157	645.396	0.070	-0.180
-604.142	-165.587	0.315	0.014
-603.128	37.911	-0.271	0.245
-602.113	371.355	-0.071	0.145
-601.098	-200.000	-0.007	-0.068
-600.084	-200.000	-0.016	0.310
-599.069	-200.000	0.029	0.265
-598.055	-200.000	-0.001	-0.287
-597.040	-34.702	0.211	-0.117
-596.025	142.423	0.064	0.087
-595.011	800.000	0.028	-0.121
-593.996	-192.603	-0.404	0.004
-592.982	800.000	-0.057	-0.231
-591.967	-15.246	0.263	-0.170
-590.952	607.745	-0.140	-0.355
-589.938	-121.018	-0.112	-0.019
-588.923	600.261	0.044	-0.112
-587.909	341.720	0.086	-0.170
-586.894	164.641	0.023	0.032
-585.879	800.000	0.067	0.204
-584.865	800.000	-0.085	0.247
-583.850	-137.366	0.285	0.033
-582.836	32.896	-0.291	0.255
-581.821	121.290	0.122	0.154
-580.806	17.821	0.143	0.116
-579.792	-12.877	-0.160	0.106
-578.777	800.000	-0.066	0.272
-577.763	63.842	0.162	-0.165
-576.748	55.954	0.103	-0.101
-575.733	800.000	0.036	-0.105
-574.719	136.548	-0.128	0.169
-573.704	-109.754	-0.136	-0.029
-572.690	-66.411	-0.198	-0.080
-571.675	106.485	-0.148	0.178
-570.661	-99.064	0.173	-0.044
-569.646	-165.587	0.113	0.005
-568.631	-200.000	0.021	0.111
-567.617	-126.070	0.193	-0.029
-566.602	231.191	-0.139	-0.230
-565.588	300.363	-0.127	-0.237
-564.573	-45.787	0.248	0.124
-563.558	-200.000	-0.004	0.024
-562.544	-200.000	0.022	-0.111
-561.529	33.898	-0.156	0.138
-560.515	334.615	-0.040	-0.078
-559.500	-99.471	0.160	0.041
-558.485	-200.000	-0.027	0.175
-557.471	800.000	-0.022	0.067
-556.456	800.000	0.108	0.474
-555.442	172.752	0.066	-0.096
-554.427	-200.000	-0.018	-0.128
-553.412	32.949	-0.100	-0.088
-552.398	-59.739	-0.168	-0.073
-551.383	-200.000	-0.004	0.035
-550.369	73.498	0.020	0.022
-549.354	160.454	0.148	-0.209
-548.339	-116.333	0.161	0.030
-547.325	79.395	-0.247	0.268
-546.310	-107.743	-0.328	-0.072
-545.296	-163.342	0.035	-0.002
-544.281	-91.262	0.329	-0.095
-543.266	-27.669	-0.301	-0.177
-542.252	-3.828	0.264	0.185
-541.237	-84.324	0.125	-0.040
-540.223	-24.046	-0.311	-0.188
-539.208	78.946	0.236	-0.255
-538.193	35.059	-0.082	-0.073
-537.179	422.663	0.060	-0.130
-536.164	-66.115	0.228	-0.092
-535.150	800.000	-0.043	-0.183
-534.135	71.397	0.042	-0.044
-533.121	149.107	-0.100	-0.137
-532.106	-200.000	-0.046	0.221
-531.091	-200.000	0.058	0.302
-530.077	182.702	-0.109	0.162
-529.062	14.055	-0.123	0.097
-528.048	-133.775	-0.115	0.015
-527.033	-200.000	-0.016	-0.257
-526.018	-92.477	-0.393	0.112
-525.004	20.732	-0.061	0.050
-523.989	-35.696	0.259	0.142
-522.975	-56.666	0.331	-0.148
-521.960	-10.902	0.098	-0.066
-520.945	-57.343	0.138	-0.061
-519.931	-105.050	-0.265	0.061
-518.916	31.931	-0.118	0.103
-517.902	20.146	-0.182	-0.149
-516.887	-200.000	-0.015	0.146
-515.872	-6.184	0.151	-0.104
-514.858	-13.479	0.370	-0.242
-513.843	719.231	0.078	0.210
-512.829	16.114	0.344	0.274
-511.814	474.722	0.011	0.025
-510.799	-40.886	0.242	0.127
-509.785	-200.000	-0.031	-0.247
-508.770	-200.000	0.004	0.332
-507.756	-118.372	0.191	0.034
-506.741	-29.149	-0.024	0.014
-505.726	800.000	0.163	-0.463
-504.712	492.155	-0.089	-0.207
-503.697	-9.439	-0.163	-0.110
-502.683	107.668	-0.146	0.176
-501.668	4.339	-0.314	0.232
-500.653	-200.000	0.026	-0.204
-499.639	800.000	0.019	0.062
-498.624	519.407	-0.029	0.068
-497.610	45.732	-0.195	-0.182
-496.595	186.859	-0.247	-0.372
-495.581	-131.160	0.282	-0.038
-494.566	68.959	-0.264	-0.274
-493.551	-87.035	0.298	0.092
-492.537	800.000	0.077	0.215
-491.522	165.352	-0.238	0.339
-490.508	74.713	-0.209	0.222
-489.493	84.347	0.171	0.189
-488.478	-31.682	-0.189	-0.107
-487.464	39.488	0.268	-0.242
-486.449	75.063	-0.160	-0.170
-485.435	-151.215	-0.312	-0.024
-484.420	-125.254	-0.219	-0.034
-483.405	-25.760	0.287	-0.171
-482.391	15.562	0.146	0.116
-481.376	146.416	-0.092	-0.124
-480.362	228.376	0.085	-0.140
-479.347	-9.947	0.379	0.254
-478.332	-52.392	-0.410	-0.192
-477.318	-200.000	-0.105	0.616
-476.303	275.483	-0.141	0.252
-475.289	101.702	0.010	-0.012
-474.274	-80.277	0.264	0.089
-473.259	-44.346	0.218	-0.110
-472.245	-95.488	-0.183	-0.049
-471.230	171.486	-0.124	0.180
-470.216	-53.124	-0.117	-0.054
-469.201	-147.379	-0.449	-0.038
-468.186	800.000	-0.011	0.044
-467.172	-96.958	0.133	-0.035
-466.157	-195.072	0.414	-0.003
-465.143	-71.343	-0.257	0.097
-464.128	136.143	0.104	-0.137
-463.113	-200.000	-0.071	-0.388
-462.099	-200.000	-0.046	-0.258
-461.084	-7.104	-0.180	0.123
-460.070	-18.496	-0.239	-0.150
-459.055	111.150	0.117	-0.142
-458.040	144.101	0.120	-0.162
-457.026	-144.391	-0.084	0.008
-456.011	-200.000	-0.036	0.257
-454.997	39.364	-0.112	-0.101
-453.982	143.160	-0.094	0.126
-452.968	360.004	0.062	0.125
-451.953	-135.923	0.149	0.018
-450.938	115.799	0.012	-0.014
-449.924	-200.000	-0.065	-0.335
-448.909	40.781	0.302	-0.275
-447.895	-200.000	0.014	-0.198
-446.880	-98.352	0.041	0.011
-445.865	52.448	-0.325	0.313
-444.851	-200.000	0.028	-0.131
-443.836	343.888	0.078	0.153
-442.822	218.863	-0.101	-0.163
-441.807	213.352	0.178	-0.284
-440.792	-86.215	-0.101	-0.031
-439.778	30.121	0.172	0.148
-438.763	684.205	-0.060	0.157
-437.749	59.436	0.197	-0.195
-436.734	-14.358	0.239	0.155
-435.719	103.128	-0.173	0.204
-434.705	551.032	-0.105	0.254
-433.690	-200.000	0.011	0.217
-432.676	-200.000	0.068	0.404
-431.661	-200.000	-0.015	0.105
-430.646	434.367	-0.091	-0.200
-429.632	9.300	0.372	0.283
-428.617	-59.560	0.091	-0.039
-427.603	-200.000	0.047	-0.296
-426.588	-175.476	-0.351	-0.010
-425.573	112.576	0.190	-0.232
-424.559	-157.420	0.169	0.010
-423.544	-83.004	-0.132	-0.043
-422.530	52.596	-0.106	0.102
-421.515	189.486	0.196	0.296
-420.500	13.150	0.261	0.204
-419.486	-70.850	-0.028	0.011
-418.471	-200.000	0.025	0.127
-417.457	800.000	0.101	-0.292
-416.442	-50.977	-0.237	0.112
-415.428	-200.000	-0.033	0.415
-414.413	-0.878	-0.144	0.103
-413.398	-200.000	0.005	0.322
-412.384	6.096	0.159	-0.119
-411.369	-90.483	-0.256	-0.075
-410.355	-200.000	0.067	-0.342
-409.340	19.027	-0.118	-0.095
-408.325	-52.160	-0.216	0.101
-407.311	92.458	0.074	-0.083
-406.296	800.000	0.014	-0.054
-405.282	96.677	-0.271	-0.312
-404.267	250.667	-0.121	0.207
-403.252	26.802	0.100	-0.085
-402.238	-80.368	0.213	-0.072
-401.223	-139.201	-0.214	-0.023
-400.209	186.251	-0.219	0.327
-399.194	-39.562	0.067	-0.035
-398.179	-35.614	-0.111	0.061
-397.165	-40.577	0.160	-0.083
-396.150	369.425	0.111	0.227
-395.136	800.000	-0.050	-0.195
-394.121	-115.275	-0.041	-0.008
-393.106	42.559	0.396	0.363
-392.092	-98.752	-0.054	0.014
-391.077	-7.102	0.120	0.082
-390.063	-200.000	-0.014	0.237
-389.048	-91.690	-0.211	-0.060
-388.033	23.385	-0.500	-0.414
-387.019	-18.472	0.206	0.129
-386.004	415.758	-0.112	-0.239
-384.990	800.000	-0.028	0.090
-383.975	800.000	-0.043	-0.147
-382.960	-90.899	-0.068	-0.020
-381.946	296.014	0.155	0.286
-380.931	732.229	0.041	0.109
-379.917	77.750	-0.145	-0.156
-378.902	507.486	0.141	0.328
-377.888	-130.394	0.166	0.023
-376.873	89.722	-0.245	-0.275
-375.858	-122.879	0.128	0.021
-374.844	-120.049	-0.254	-0.044
-373.829	1.036	-0.172	0.124
-372.815	-143.970	-0.416	-0.039
-371.800	-1.160	0.198	0.141
-370.785	-73.852	0.244	0.089
-369.771	-127.167	-0.203	-0.030
-368.756	-200.000	-0.036	0.171
-367.742	83.300	0.176	0.193
-366.727	34.337	0.252	0.221
-365.712	768.262	0.157	-0.429
-364.698	144.671	-0.097	-0.130
-363.683	-200.000	-0.002	-0.346
-362.669	800.000	0.032	-0.090
-361.654	-130.395	0.090	0.012
-360.639	-31.460	-0.269	-0.152
-359.625	-47.792	-0.192	0.094
-358.610	-62.822	0.192	-0.080
-357.596	-200.000	-0.003	-0.035
-356.581	-31.309	-0.367	0.208
-355.566	58.544	0.040	0.039
-354.552	-118.590	-0.296	-0.053
-353.537	-73.595	0.462	0.169
-352.523	760.486	0.062	0.169
-351.508	-189.677	-0.424	-0.005
-350.493	-41.457	0.160	-0.083
-349.479	-200.000	0.013	-0.099
-348.464	-51.226	-0.306	0.144
-347.450	-146.117	0.013	0.001
-346.435	-87.426	0.210	-0.064
-345.420	-200.000	-0.035	-0.214
-344.406	-121.706	0.359	0.060
-343.391	-33.711	-0.240	0.133
-342.377	-68.034	-0.443	0.173
-341.362	64.844	0.302	-0.306
-340.348	191.744	-0.101	-0.152
-339.333	-3.713	-0.131	0.092
-338.318	27.992	0.129	0.109
-337.304	38.319	0.210	-0.188
-336.289	387.951	-0.036	-0.074
-335.275	-170.035	0.174	0.006
-334.260	-18.256	0.465	0.292
-333.245	16.978	-0.052	0.042
-332.231	55.325	0.193	-0.188
-331.216	-200.000	-0.035	0.432
-330.202	690.152	-0.135	0.354
-329.187	-200.000	-0.075	0.412
-328.172	-62.831	-0.052	-0.022
-327.158	-200.000	0.038	-0.544
-326.143	-131.911	0.087	0.011
-325.129	800.000	-0.045	0.189
-324.114	109.777	-0.099	-0.119
-323.099	-13.441	0.207	-0.135
-322.085	381.554	0.130	-0.267
-321.070	38.153	0.171	-0.153
-320.056	-63.525	0.249	-0.103
-319.041	800.000	0.051	-0.209
-318.026	18.306	0.253	-0.202
-317.012	66.679	0.067	-0.068
-315.997	-57.659	-0.091	0.040
-314.983	28.346	0.094	-0.080
-313.968	-100.518	0.118	0.029
-312.953	-200.000	0.008	-0.220
-311.939	119.345	-0.041	-0.050
-310.924	-200.000	-0.064	0.336
-309.910	-43.495	-0.192	-0.097
-308.895	-147.298	0.071	-0.006
-307.880	-8.905	0.099	-0.067
-306.866	396.291	0.164	0.344
-305.851	-200.000	0.059	-0.401
-304.837	800.000	-0.102	0.320
-303.822	-164.615	0.148	-0.007
-302.807	-200.000	0.010	-0.047
-301.793	-200.000	0.023	0.182
-300.778	-3.407	0.094	-0.066
-299.764	-123.060	0.274	-0.044
-298.749	-83.589	-0.308	-0.099
-297.735	-109.696	0.173	-0.036
-296.720	54.509	0.069	-0.066
-295.705	642.685	0.004	0.009
-294.691	78.563	0.078	0.083
-293.676	299.968	0.101	0.187
-292.662	37.646	0.114	0.101
-291.647	25.096	-0.234	0.195
-290.632	-41.287	-0.229	0.118
-289.618	348.300	-0.057	0.113
-288.603	-200.000	-0.020	-0.119
-287.589	158.286	-0.094	0.131
-286.574	-200.000	0.025	-0.381
-285.559	-120.967	-0.102	-0.017
-284.545	800.000	0.083	-0.310
-283.530	41.442	0.230	-0.208
-282.516	-200.000	0.042	0.225
-281.501	111.580	-0.081	0.098
-280.486	159.821	0.142	-0.198
-279.472	124.103	-0.061	0.077
-278.457	-200.000	0.058	0.275
-277.443	800.000	0.052	0.194
-276.428	-112.166	-0.075	0.015
-275.413	-37.721	-0.146	-0.078
-274.399	-27.368	0.180	0.105
-273.384	800.000	0.029	0.106
-272.370	-200.000	0.003	0.022
-271.355	-55.829	-0.106	-0.048
-270.340	-110.105	-0.322	0.067
-269.326	53.033	0.110	-0.106
-268.311	-59.816	0.263	0.113
-267.297	159.537	-0.046	-0.064
-266.282	-164.282	-0.174	0.008
-265.267	89.617	0.075	0.084
-264.253	43.685	0.072	0.066
-263.238	16.579	-0.090	0.071
-262.224	253.520	-0.144	-0.245
-261.209	51.199	-0.132	0.126
-260.195	-150.854	0.252	-0.019
-259.180	-112.851	0.025	-0.005
-258.165	-14.049	-0.068	0.044
-257.151	512.234	0.118	0.274
-256.136	290.167	0.060	0.108
-255.122	218.660	0.251	0.401
-254.107	800.000	0.084	-0.237
-253.092	46.460	-0.157	0.145
-252.078	134.383	-0.152	-0.197
-251.063	-99.905	0.239	0.060
-250.049	533.454	0.125	-0.297
-249.034	30.755	0.219	0.187
-248.019	800.000	-0.115	0.360
-247.005	-35.199	0.452	0.246
-245.990	520.569	-0.064	0.151
-244.976	109.635	-0.160	-0.192
-243.961	-200.000	0.017	0.085
-242.946	-161.923	-0.347	-0.018
-241.932	429.569	-0.009	0.019
-240.917	-200.000	0.007	0.068
-239.903	-121.827	0.320	0.053
-238.888	-186.991	-0.071	0.001
-237.873	174.756	0.125	0.181
-236.859	-3.797	-0.161	0.112
-235.844	101.822	-0.182	0.212
-234.830	-200.000	-0.017	-0.167
-233.815	34.547	-0.316	-0.276
-232.800	-87.064	0.094	-0.029
-231.786	-200.000	-0.094	-0.518
-230.771	-200.000	0.022	0.264
-229.757	-70.416	0.108	-0.041
-228.742	-200.000	0.023	0.127
-227.727	-63.901	-0.242	0.099
-226.713	-133.384	0.370	-0.046
-225.698	-200.000	-0.064	-0.288
-224.684	-34.908	0.188	-0.103
-223.669	-18.183	-0.301	-0.188
-222.655	36.661	-0.231	-0.204
-221.640	418.165	0.130	0.278
-220.625	-100.744	0.237	0.058
-219.611	41.536	-0.179	0.162
-218.596	-200.000	0.013	-0.149
-217.582	800.000	0.074	-0.230
-216.567	141.901	-0.032	-0.042
-215.552	-62.946	-0.186	0.077
-214.538	-53.452	-0.196	-0.090
-213.523	255.438	-0.108	0.185
-212.509	-92.836	-0.220	-0.061
-211.494	-26.666	0.101	-0.059
-210.479	-4.366	0.196	0.136
-209.465	-109.931	-0.242	0.051
-208.450	268.733	0.175	0.307
-207.436	800.000	-0.051	-0.179
-206.421	-26.054	-0.337	-0.198
-205.406	-64.043	0.271	-0.111
-204.392	263.130	0.133	-0.231
-203.377	66.148	0.298	0.302
-202.363	64.233	-0.261	0.262
-201.348	800.000	-0.034	0.131
-200.333	224.624	0.059	0.096
-199.319	-66.233	0.256	-0.102
-198.304	263.710	0.130	-0.226
-197.290	-167.010	0.138	-0.006
-196.275	-108.061	-0.263	-0.057
-195.260	-99.101	-0.121	0.031
-194.246	-64.031	-0.181	0.074
-193.231	-55.021	-0.073	-0.033
-192.217	637.395	0.090	-0.227
-191.202	145.573	-0.096	-0.128
-190.187	-200.000	0.040	-0.277
-189.173	-20.817	0.305	0.187
-188.158	-164.167	-0.401	-0.018
-187.144	-117.602	0.082	-0.015
-186.129	1.044	0.344	-0.246
-185.114	-200.000	-0.047	-0.288
-184.100	16.287	-0.121	-0.095
-183.085	-200.000	0.028	0.131
-182.071	-137.487	-0.439	0.049
-181.056	-200.000	0.026	-0.128
-180.042	-23.382	0.097	0.058
-179.027	-22.501	0.157	-0.095
-178.012	624.562	0.062	-0.155
-176.998	-98.082	0.324	0.083
-175.983	-119.411	0.344	-0.060
-174.969	-175.189	0.360	-0.010
-173.954	-200.000	-0.029	-0.194
-172.939	-8.475	0.294	0.197
-171.925	800.000	0.041	-0.152
-170.910	-71.612	0.360	0.134
-169.896	800.000	-0.039	-0.122
-168.881	-81.413	-0.084	-0.028
-167.866	-200.000	0.046	-0.484
-166.852	229.448	-0.090	0.147
-165.837	-114.598	-0.158	0.030
-164.823	-184.151	0.242	-0.004
-163.808	-200.000	0.001	0.071
-162.793	103.218	-0.092	0.108
-161.779	210.841	-0.105	-0.164
-160.764	-0.181	-0.140	-0.099
-159.750	190.667	0.076	-0.114
-158.735	94.604	-0.233	-0.264
-157.720	800.000	0.050	0.191
-156.706	-168.030	0.317	0.012
-155.691	193.868	0.054	0.081
-154.677	-200.000	-0.223	0.001
-153.662	-2.434	-0.230	0.161
-152.647	-200.000	0.017	-0.171
-151.633	800.000	-0.050	0.175
-150.618	-37.068	-0.057	0.030
-149.604	-2.644	0.196	0.137
-148.589	113.640	0.207	0.251
-147.574	-138.723	0.314	-0.034
-146.560	-5.841	0.286	-0.195
-145.545	80.311	0.221	-0.237
-144.531	70.496	-0.107	-0.110
-143.516	-164.565	-0.172	-0.008
-142.502	-176.819	-0.434	0.011
-141.487	-200.000	0.021	0.306
-140.472	-21.481	-0.282	0.172
-139.458	-98.060	0.170	0.044
-138.443	-2.481	-0.171	-0.119
-137.429	19.840	-0.177	0.142
-136.414	-20.829	-0.180	0.110
-135.399	-200.000	0.041	0.238
-134.385	265.605	0.175	-0.303
-133.370	169.915	0.213	0.304
-132.356	214.766	-0.096	0.152
-131.341	-138.848	0.187	0.020
-130.326	-7.168	0.151	0.102
-129.312	19.300	-0.281	0.225
-128.297	-11.594	-0.101	0.066
-127.283	-85.128	0.240	0.075
-126.268	28.349	-0.071	-0.060
-125.253	796.817	0.155	0.425
-124.239	598.113	0.044	0.108
-123.224	800.000	0.068	0.294
-122.210	510.081	0.300	0.693
-121.195	800.000	0.164	0.635
