DTS Sentinel unit serial number:	SN413079Multiplexer serial number:	ORYXHardware model number:	OX4-SRSoftware version number:	ORYX F/W v4.00 Oryx Data Collector v3.7.2.0data status	okinstallation	princeton_trtdifferential loss correction	single-endedforward channel	channel 1reverse channel	N/Adate	2019/09/17time	14:22:35forward acquisition time	60.00reverse acquisition time	0.00gamma	496.2192k internal	0.2299k external	0.2299temperature offset calibration	0.9970default loss term (dB/km)	0.3790temperature slope calibration	1.0000multiplexer offset coefficient	1.0000multiplexer slope coefficient	1.0000fibre end	0.00T internal ref (°C)	36.23T ext. ref 1 (°C)	0.40T ext. ref 2 (°C)	33.34length (m)	temperature (°C)	Stokes	anti-Stokes-747.200	187.022	0.084	0.127
-746.185	152.349	0.123	0.171
-745.171	-30.147	0.290	0.168
-744.156	-58.283	0.321	0.143
-743.142	195.429	-0.146	0.227
-742.127	313.482	0.266	0.511
-741.112	800.000	-0.067	0.212
-740.098	163.503	0.085	0.122
-739.083	-73.910	-0.166	0.062
-738.069	548.398	-0.086	0.210
-737.054	45.015	-0.253	-0.237
-736.039	239.167	-0.173	-0.294
-735.025	286.654	0.163	0.301
-734.010	800.000	-0.062	-0.186
-732.996	52.049	-0.343	0.333
-731.981	16.978	-0.096	0.078
-730.966	21.585	-0.039	0.033
-729.952	595.163	0.015	-0.039
-728.937	-144.999	0.450	-0.042
-727.923	298.798	-0.160	-0.301
-726.908	-129.033	-0.406	0.058
-725.894	-62.909	0.126	-0.053
-724.879	-80.546	0.106	0.036
-723.864	-200.000	-0.004	0.400
-722.850	-46.365	-0.167	-0.084
-721.835	-200.000	0.006	0.167
-720.821	800.000	-0.058	0.202
-719.806	-144.599	0.334	0.031
-718.791	-60.152	-0.149	-0.065
-717.777	-23.071	-0.155	-0.095
-716.762	-5.154	-0.308	0.216
-715.748	49.286	-0.181	0.173
-714.733	352.779	0.224	0.453
-713.718	-139.770	-0.178	0.019
-712.704	251.364	-0.115	0.200
-711.689	638.769	-0.113	-0.293
-710.675	-57.660	0.098	-0.044
-709.660	-200.000	0.033	-0.328
-708.645	65.042	0.271	-0.279
-707.631	-136.885	-0.224	0.026
-706.616	-200.000	-0.005	-0.186
-705.602	-134.570	0.206	-0.026
-704.587	-133.282	-0.288	0.037
-703.572	-200.000	0.047	-0.453
-702.558	-115.708	-0.446	-0.085
-701.543	311.249	-0.024	0.045
-700.529	105.001	-0.187	-0.224
-699.514	-200.000	-0.011	-0.345
-698.499	800.000	-0.044	-0.175
-697.485	199.416	0.096	0.149
-696.470	-23.803	0.268	-0.164
-695.456	0.471	-0.516	-0.375
-694.441	-130.403	0.121	-0.017
-693.426	84.763	0.133	-0.148
-692.412	-198.582	-0.329	-0.002
-691.397	-192.849	-0.261	-0.002
-690.383	-112.599	-0.216	0.044
-689.368	25.416	0.205	0.173
-688.354	631.534	-0.108	0.278
-687.339	800.000	0.064	0.211
-686.324	124.376	-0.158	0.203
-685.310	150.818	0.126	-0.174
-684.295	567.673	0.102	-0.253
-683.281	70.177	-0.131	-0.137
-682.266	8.779	0.335	-0.257
-681.251	66.605	0.140	-0.145
-680.237	-70.984	-0.149	0.057
-679.222	-200.000	-0.010	-0.055
-678.208	-64.676	0.470	-0.194
-677.193	-75.569	-0.195	-0.071
-676.178	10.442	-0.179	0.139
-675.164	169.646	-0.144	-0.209
-674.149	-179.679	-0.136	0.003
-673.135	-200.000	-0.013	0.074
-672.120	-200.000	-0.013	-0.137
-671.105	327.466	0.177	-0.346
-670.091	90.011	-0.209	-0.237
-669.076	800.000	0.047	-0.154
-668.062	295.621	-0.065	-0.121
-667.047	-200.000	-0.014	0.130
-666.032	-159.179	-0.160	-0.009
-665.018	548.379	0.061	0.149
-664.003	-200.000	0.017	0.199
-662.989	800.000	0.072	0.282
-661.974	175.505	-0.305	-0.449
-660.959	-166.255	0.207	0.009
-659.945	52.178	0.133	-0.129
-658.930	-44.886	0.082	-0.041
-657.916	54.094	0.031	0.031
-656.901	800.000	0.122	0.482
-655.886	5.928	-0.380	-0.286
-654.872	-29.126	-0.073	-0.042
-653.857	342.196	-0.114	0.226
-652.843	-36.705	0.135	-0.074
-651.828	323.204	-0.095	0.184
-650.814	-41.711	-0.159	-0.083
-649.799	-23.633	0.193	0.118
-648.784	-155.815	-0.407	0.026
-647.770	144.126	0.149	0.202
-646.755	800.000	0.050	-0.190
-645.741	488.554	-0.102	-0.236
-644.726	-81.816	-0.133	0.044
-643.711	800.000	-0.058	0.251
-642.697	44.418	0.099	0.092
-641.682	-48.750	0.230	0.112
-640.668	442.147	-0.073	0.162
-639.653	55.369	-0.089	0.087
-638.638	192.523	-0.139	-0.213
-637.624	-9.529	-0.504	-0.342
-636.609	215.952	0.119	-0.191
-635.595	22.600	0.163	-0.136
-634.580	171.645	0.133	-0.195
-633.565	-69.424	-0.040	-0.015
-632.551	244.433	-0.111	-0.189
-631.536	274.775	-0.146	0.263
-630.522	622.100	-0.125	0.320
-629.507	601.143	-0.062	0.155
-628.492	-122.362	-0.246	0.041
-627.478	732.612	-0.051	0.138
-626.463	219.362	-0.197	-0.320
-625.449	-200.000	0.033	0.168
-624.434	453.906	-0.042	-0.094
-623.419	800.000	-0.068	-0.203
-622.405	-61.613	-0.142	-0.060
-621.390	-152.474	0.270	0.020
-620.376	51.586	0.067	-0.065
-619.361	-115.808	-0.216	0.041
-618.346	264.133	-0.193	-0.340
-617.332	-112.271	0.441	0.090
-616.317	-124.367	-0.122	-0.019
-615.303	-115.903	-0.375	-0.071
-614.288	118.762	0.168	0.211
-613.273	246.055	0.163	-0.278
-612.259	43.776	-0.070	0.065
-611.244	20.378	-0.098	0.081
-610.230	-200.000	-0.026	-0.209
-609.215	438.425	-0.069	0.153
-608.201	215.411	-0.048	-0.077
-607.186	-30.593	0.188	-0.108
-606.171	62.247	0.130	-0.131
-605.157	-200.000	-0.013	-0.081
-604.142	-17.316	-0.156	0.100
-603.128	-200.000	-0.041	-0.228
-602.113	612.504	-0.171	-0.435
-601.098	424.047	-0.082	-0.178
-600.084	46.862	0.262	0.247
-599.069	-200.000	0.021	0.131
-598.055	-169.702	-0.234	0.009
-597.040	0.652	-0.045	0.033
-596.025	-6.357	0.197	0.136
-595.011	183.559	0.136	-0.204
-593.996	2.233	-0.187	0.137
-592.982	30.322	0.057	-0.049
-591.967	-74.256	0.182	-0.067
-590.952	-92.834	0.039	0.011
-589.938	-200.000	0.005	-0.344
-588.923	-44.778	-0.200	-0.101
-587.909	-47.899	0.276	-0.136
-586.894	199.852	-0.207	-0.322
-585.879	-66.815	0.160	-0.064
-584.865	-140.912	-0.127	0.013
-583.850	-80.819	0.378	-0.127
-582.836	-139.359	-0.137	-0.015
-581.821	439.032	-0.107	0.238
-580.806	-83.796	-0.056	0.018
-579.792	35.791	0.106	-0.095
-578.777	-50.445	-0.037	0.018
-577.763	280.249	0.080	-0.144
-576.748	800.000	-0.039	0.125
-575.733	57.294	0.224	-0.221
-574.719	-200.000	0.049	0.342
-573.704	-38.833	-0.111	-0.059
-572.690	-95.688	0.364	0.099
-571.675	115.012	0.161	-0.200
-570.661	202.965	0.027	0.042
-569.646	-164.046	-0.092	-0.004
-568.631	-14.618	-0.355	0.231
-567.617	-200.000	-0.012	0.121
-566.602	374.098	0.038	-0.078
-565.588	80.482	0.089	0.097
-564.573	-38.450	0.259	-0.139
-563.558	-54.201	0.113	-0.052
-562.544	354.438	-0.032	0.063
-561.529	91.234	-0.129	0.147
-560.515	144.121	0.342	0.463
-559.500	57.778	-0.064	-0.064
-558.485	-32.203	-0.202	-0.115
-557.471	-200.000	-0.012	-0.365
-556.456	-59.645	0.139	0.060
-555.442	553.092	-0.049	-0.119
-554.427	-76.219	-0.099	0.035
-553.412	-200.000	-0.041	0.217
-552.398	516.363	-0.103	0.243
-551.383	-10.823	0.125	-0.084
-550.369	-200.000	0.003	-0.118
-549.354	230.998	0.020	0.033
-548.339	47.834	0.378	-0.358
-547.325	-5.525	0.265	-0.184
-546.310	-200.000	-0.018	-0.249
-545.296	-19.815	-0.222	-0.139
-544.281	238.652	-0.120	0.202
-543.266	-55.529	-0.094	-0.043
-542.252	40.733	-0.122	-0.111
-541.237	800.000	-0.059	-0.238
-540.223	230.785	0.049	0.081
-539.208	-32.139	0.276	0.156
-538.193	174.489	-0.196	-0.288
-537.179	318.868	0.125	-0.240
-536.164	10.077	0.082	0.063
-535.150	54.658	0.228	-0.223
-534.135	90.862	0.291	-0.330
-533.121	-76.136	-0.128	0.046
-532.106	-200.000	0.085	-0.694
-531.091	-200.000	0.036	0.202
-530.077	306.804	-0.145	-0.274
-529.062	106.626	-0.229	0.275
-528.048	-63.028	-0.367	-0.153
-527.033	-200.000	-0.026	0.255
-526.018	-71.251	-0.053	-0.020
-525.004	-22.538	0.222	-0.136
-523.989	660.915	-0.035	-0.092
-522.975	-200.000	-0.040	0.184
-521.960	-87.054	-0.107	0.033
-520.945	573.837	-0.023	0.056
-519.931	-109.057	-0.180	-0.039
-518.916	-126.772	-0.106	-0.016
-517.902	-200.000	0.010	-0.099
-516.887	-61.921	0.073	-0.031
-515.872	-200.000	-0.034	-0.331
-514.858	-200.000	0.046	0.263
-513.843	-200.000	-0.008	-0.428
-512.829	69.592	-0.210	-0.219
-511.814	-30.917	-0.353	0.202
-510.799	-66.783	-0.452	0.181
-509.785	433.358	0.111	0.243
-508.770	135.396	-0.148	0.194
-507.756	-75.687	-0.066	-0.024
-506.741	-53.540	0.118	0.054
-505.726	532.034	0.192	0.459
-504.712	-200.000	-0.005	-0.113
-503.697	227.410	0.074	-0.121
-502.683	-53.031	-0.177	-0.082
-501.668	-110.306	-0.130	-0.027
-500.653	54.278	-0.135	0.131
-499.639	80.371	-0.127	-0.138
-498.624	15.981	-0.160	-0.127
-497.610	800.000	-0.075	-0.231
-496.595	-35.555	0.122	-0.067
-495.581	-140.733	-0.105	-0.011
-494.566	-0.432	-0.026	-0.018
-493.551	206.924	0.108	-0.170
-492.537	4.978	-0.160	0.119
-491.522	83.721	0.192	0.212
-490.508	-88.106	-0.068	0.021
-489.493	311.405	-0.129	-0.244
-488.478	73.958	0.093	-0.098
-487.464	-200.000	0.028	0.144
-486.449	800.000	0.023	-0.088
-485.435	-157.818	0.293	0.018
-484.420	-56.766	0.285	0.128
-483.405	140.639	-0.058	0.078
-482.391	-114.757	-0.166	0.032
-481.376	-9.251	0.071	0.048
-480.362	-84.654	-0.211	-0.067
-479.347	-200.000	-0.024	0.389
-478.332	-164.438	-0.365	-0.017
-477.318	111.177	-0.116	-0.141
-476.303	152.362	-0.140	-0.193
-475.289	-200.000	-0.016	0.272
-474.274	-200.000	-0.011	0.124
-473.259	-66.830	-0.353	-0.141
-472.245	-200.000	-0.068	-0.356
-471.230	423.369	-0.048	-0.103
-470.216	496.058	0.037	0.085
-469.201	301.455	0.078	-0.146
-468.186	729.066	-0.056	0.151
-467.172	-42.960	0.202	0.104
-466.157	800.000	-0.054	0.172
-465.143	158.265	0.156	0.218
-464.128	-200.000	-0.035	-0.280
-463.113	-200.000	-0.012	0.144
-462.099	-78.351	0.360	-0.125
-461.084	6.422	-0.052	-0.039
-460.070	-120.817	-0.262	-0.045
-459.055	-133.114	-0.116	0.015
-458.040	219.292	-0.157	0.254
-457.026	-43.812	-0.077	-0.039
-456.011	800.000	-0.021	-0.078
-454.997	-173.280	0.224	0.007
-453.982	-200.000	0.015	0.217
-452.968	131.611	0.116	-0.151
-451.953	800.000	0.088	-0.267
-450.938	-200.000	0.055	0.268
-449.924	-104.864	-0.256	0.059
-448.909	-92.687	-0.134	-0.038
-447.895	315.274	-0.080	-0.153
-446.880	-62.521	-0.254	0.106
-445.865	672.945	0.015	0.038
-444.851	23.060	-0.150	0.124
-443.836	-104.533	0.150	0.035
-442.822	254.381	-0.122	0.210
-441.807	-31.321	0.278	0.158
-440.792	-90.843	-0.156	0.045
-439.778	586.964	-0.102	0.252
-438.763	-62.878	0.139	-0.058
-437.749	352.399	-0.054	0.109
-436.734	800.000	0.082	-0.242
-435.719	-200.000	0.007	-0.087
-434.705	-146.802	-0.074	0.006
-433.690	-200.000	0.047	0.258
-432.676	116.025	0.086	0.106
-431.661	-200.000	0.020	-0.553
-430.646	75.925	0.095	0.102
-429.632	-200.000	-0.013	0.077
-428.617	406.195	0.160	-0.339
-427.603	-164.070	0.239	-0.011
-426.588	72.975	-0.130	-0.137
-425.573	-193.048	0.268	-0.002
-424.559	255.678	-0.051	0.088
-423.544	97.841	0.231	-0.268
-422.530	-200.000	-0.011	-0.219
-421.515	-137.604	-0.141	0.016
-420.500	-143.565	0.223	0.021
-419.486	-200.000	-0.013	-0.126
-418.471	336.274	-0.079	-0.155
-417.457	366.087	-0.052	-0.106
-416.442	648.110	-0.071	-0.182
-415.428	-111.131	-0.197	0.041
-414.413	-185.591	-0.095	-0.001
-413.398	267.196	-0.044	0.078
-412.384	-80.760	0.190	-0.064
-411.369	-200.000	-0.033	-0.180
-410.355	12.465	0.298	0.231
-409.340	-51.255	0.182	0.086
-408.325	-156.112	-0.284	-0.018
-407.311	-200.000	-0.022	-0.154
-406.296	800.000	0.176	0.583
-405.282	-158.563	0.178	0.010
-404.267	612.155	-0.072	-0.180
-403.252	27.142	0.226	-0.191
-402.238	291.628	-0.053	0.098
-401.223	-11.387	0.192	-0.127
-400.209	115.359	-0.143	0.176
-399.194	42.689	0.131	0.120
-398.179	101.262	0.229	0.268
-397.165	629.127	0.029	0.075
-396.150	-153.788	0.130	0.009
-395.136	-80.926	-0.306	-0.102
-394.121	800.000	0.019	-0.078
-393.106	15.368	0.132	0.105
-392.092	-200.000	-0.008	-0.057
-391.077	-49.781	0.172	-0.082
-390.063	-14.057	-0.349	0.226
-389.048	-200.000	-0.029	-0.363
-388.033	-73.977	0.153	-0.056
-387.019	800.000	-0.093	0.261
-386.004	-200.000	0.022	0.168
-384.990	41.367	0.101	0.092
-383.975	-200.000	-0.097	0.000
-382.960	-31.178	0.132	0.075
-381.946	-147.728	0.222	0.019
-380.931	-200.000	0.066	-0.439
-379.917	-200.000	-0.008	-0.287
-378.902	800.000	-0.028	0.079
-377.888	-200.000	0.003	-0.353
-376.873	-47.854	-0.137	0.067
-375.858	17.503	0.187	-0.150
-374.844	422.070	-0.091	0.197
-373.829	201.919	-0.063	0.097
-372.815	-97.236	0.197	-0.052
-371.800	800.000	0.052	0.145
-370.785	-146.745	-0.722	0.063
-369.771	800.000	-0.043	0.148
-368.756	-57.827	-0.082	-0.036
-367.742	800.000	-0.123	0.409
-366.727	158.280	-0.194	0.270
-365.712	-87.956	0.139	0.042
-364.698	-200.000	0.002	-0.221
-363.683	-80.115	-0.231	-0.078
-362.669	45.580	-0.322	-0.299
-361.654	72.531	0.139	0.146
-360.639	-200.000	0.031	0.316
-359.625	-73.122	0.161	0.059
-358.610	-200.000	-0.005	0.080
-357.596	-200.000	0.001	-0.098
-356.581	-40.424	-0.348	-0.182
-355.566	-200.000	0.019	0.175
-354.552	-200.000	0.005	0.110
-353.537	203.571	0.065	0.100
-352.523	-137.534	0.109	-0.012
-351.508	-146.339	-0.231	-0.020
-350.493	-100.249	0.108	0.027
-349.479	28.482	-0.206	0.175
-348.464	-138.081	0.513	0.057
-347.450	-72.915	-0.323	-0.119
-346.435	203.984	0.182	0.283
-345.420	-78.116	-0.196	-0.068
-344.406	361.189	0.109	0.219
-343.391	-102.693	0.230	0.055
-342.377	-200.000	-0.041	0.239
-341.362	141.232	-0.165	0.219
-340.348	800.000	-0.121	0.393
-339.333	310.524	-0.101	-0.189
-338.318	800.000	0.080	0.308
-337.304	84.126	0.161	-0.177
-336.289	-30.131	-0.219	-0.125
-335.275	325.688	0.105	0.202
-334.260	-200.000	0.046	0.205
-333.245	-42.361	0.312	-0.160
-332.231	218.368	-0.246	0.394
-331.216	800.000	0.016	0.066
-330.202	73.285	-0.283	-0.297
-329.187	120.518	0.230	0.287
-328.172	-115.149	-0.217	-0.041
-327.158	-59.676	-0.211	0.091
-326.143	-88.319	0.336	0.101
-325.129	-200.000	-0.026	-0.151
-324.114	51.832	-0.100	-0.095
-323.099	-50.554	-0.269	-0.128
-322.085	446.716	-0.018	0.040
-321.070	-61.209	-0.186	0.079
-320.056	126.462	-0.162	0.206
-319.041	-154.705	-0.042	-0.003
-318.026	-54.647	0.091	0.041
-317.012	800.000	0.061	0.212
-315.997	-122.078	0.245	-0.040
-314.983	56.098	-0.198	-0.193
-313.968	-132.163	-0.228	0.030
-312.953	25.017	-0.281	0.234
-311.939	800.000	0.015	-0.065
-310.924	66.087	-0.249	-0.253
-309.910	748.571	0.096	-0.260
-308.895	60.806	-0.129	-0.128
-307.880	-200.000	-0.045	0.236
-306.866	-200.000	0.026	0.259
-305.851	-200.000	0.065	-0.305
-304.837	474.028	0.072	-0.164
-303.822	-200.000	0.054	-0.366
-302.807	-5.547	0.396	-0.272
-301.793	-98.135	0.330	-0.085
-300.778	-102.059	0.247	-0.060
-299.764	-176.598	-0.229	0.006
-298.749	188.487	0.165	-0.248
-297.735	-67.350	-0.120	0.047
-296.720	-200.000	-0.016	-0.103
-295.705	800.000	0.079	-0.237
-294.691	60.935	0.090	-0.090
-293.676	371.461	-0.045	0.092
-292.662	-46.637	0.425	0.209
-291.647	-170.517	0.399	0.014
-290.632	-110.688	-0.173	-0.036
-289.618	-200.000	-0.006	0.325
-288.603	800.000	0.060	0.245
-287.589	6.224	0.475	0.353
-286.574	586.436	-0.069	0.169
-285.559	-61.430	-0.313	0.132
-284.545	16.722	0.019	-0.015
-283.530	800.000	0.095	0.275
-282.516	389.315	-0.058	0.121
-281.501	800.000	0.059	0.191
-280.486	7.230	0.232	-0.173
-279.472	273.319	0.036	0.064
-278.457	-200.000	0.001	0.217
-277.443	-200.000	-0.012	-0.112
-276.428	8.723	-0.216	-0.163
-275.413	800.000	-0.095	-0.311
-274.399	-131.878	-0.438	-0.057
-273.384	-12.140	0.280	-0.184
-272.370	-76.373	-0.094	0.033
-271.355	134.039	0.089	-0.115
-270.340	800.000	-0.041	0.120
-269.326	-82.270	-0.116	0.038
-268.311	170.412	-0.045	-0.065
-267.297	762.100	-0.100	0.273
-266.282	238.610	-0.067	0.111
-265.267	44.450	0.128	0.118
-264.253	800.000	0.063	0.255
-263.238	162.338	-0.139	0.196
-262.224	65.292	0.179	0.181
-261.209	-58.094	-0.102	0.044
-260.195	-76.111	-0.082	0.029
-259.180	800.000	0.065	0.270
-258.165	-163.073	-0.108	0.005
-257.151	570.377	0.042	-0.102
-256.136	-146.682	0.244	-0.021
-255.122	-91.021	0.333	-0.096
-254.107	-91.344	-0.316	0.091
-253.092	800.000	0.099	0.361
-252.078	800.000	-0.039	0.112
-251.063	284.941	0.100	0.179
-250.049	146.401	0.275	-0.370
-249.034	64.691	0.028	0.028
-248.019	4.009	-0.176	0.129
-247.005	-200.000	0.061	-0.421
-245.990	800.000	-0.038	-0.136
-244.976	464.503	-0.188	0.420
-243.961	800.000	0.028	0.112
-242.946	-171.657	0.053	0.002
-241.932	499.636	0.054	-0.125
-240.917	-23.412	0.364	-0.219
-239.903	-200.000	-0.050	0.248
-238.888	-111.632	-0.190	0.039
-237.873	-154.188	0.110	0.007
-236.859	-47.683	-0.327	-0.159
-235.844	430.090	-0.059	0.127
-234.830	-146.237	-0.112	-0.010
-233.815	-114.857	0.152	0.029
-232.800	-131.517	-0.264	-0.035
-231.786	-137.382	0.131	-0.015
-230.771	-200.000	0.030	0.418
-229.757	800.000	-0.101	0.285
-228.742	328.278	-0.104	-0.201
-227.727	-200.000	-0.020	-0.284
-226.713	35.871	-0.073	0.064
-225.698	308.281	-0.095	-0.178
-224.684	236.582	0.104	-0.172
-223.669	549.127	-0.035	-0.085
-222.655	-200.000	0.011	-0.193
-221.640	460.308	0.048	-0.108
-220.625	-132.109	-0.189	-0.025
-219.611	-119.837	0.251	-0.043
-218.596	-200.000	-0.022	-0.115
-217.582	-87.979	-0.040	0.012
-216.567	157.422	-0.134	0.185
-215.552	-22.633	-0.123	0.074
-214.538	231.566	-0.101	0.166
-213.523	52.313	-0.166	0.158
-212.509	-200.000	0.041	0.223
-211.494	800.000	0.049	-0.178
-210.479	57.638	-0.297	-0.290
-209.465	-40.851	0.214	-0.111
-208.450	2.852	-0.215	-0.156
-207.436	-95.249	0.311	-0.084
-206.421	450.309	-0.105	0.232
-205.406	-124.316	0.141	0.022
-204.392	45.642	0.261	-0.241
-203.377	-126.567	0.185	-0.027
-202.363	-115.040	0.261	-0.050
-201.348	-150.907	-0.234	0.018
-200.333	-49.641	0.110	0.052
-199.319	-76.786	-0.114	0.040
-198.304	-85.679	0.242	-0.075
-197.290	-200.000	0.024	0.147
-196.275	111.044	0.043	0.052
-195.260	-135.365	-0.010	0.001
-194.246	-86.936	-0.207	0.063
-193.231	-200.000	-0.116	-0.628
-192.217	9.597	-0.193	0.146
-191.202	5.926	0.187	0.138
-190.187	-43.478	0.061	0.031
-189.173	-55.110	-0.071	0.032
-188.158	-129.433	0.265	-0.037
-187.144	-200.000	0.030	0.197
-186.129	-50.355	-0.049	-0.023
-185.114	-121.404	0.205	0.034
-184.100	18.762	0.102	-0.081
-183.085	3.384	0.229	-0.166
-182.071	203.180	0.153	0.237
-181.056	-43.976	-0.176	0.089
-180.042	568.462	0.083	0.201
-179.027	-200.000	-0.030	-0.135
-178.012	-13.385	0.206	0.133
-176.998	-48.175	-0.232	0.112
-175.983	-153.774	0.027	-0.002
-174.969	114.977	-0.172	-0.209
-173.954	-12.537	0.376	0.245
-172.939	-200.000	0.052	0.257
-171.925	149.792	0.111	0.150
-170.910	111.446	0.170	0.204
-169.896	800.000	-0.030	0.106
-168.881	102.296	0.128	0.150
-167.866	-56.402	-0.216	0.096
-166.852	-200.000	0.087	-0.423
-165.837	-77.289	-0.241	-0.084
-164.823	-104.154	0.267	-0.062
-163.808	-200.000	0.364	0.001
-162.793	745.447	-0.049	-0.133
-161.779	-65.196	0.224	-0.090
-160.764	800.000	-0.070	0.208
-159.750	154.989	0.202	-0.278
-158.735	-128.852	0.238	-0.033
-157.720	0.720	-0.227	0.162
-156.706	76.525	0.136	0.144
-155.691	-9.400	-0.091	-0.061
-154.677	-57.099	0.252	0.111
-153.662	-93.097	0.181	0.050
-152.647	800.000	0.067	-0.186
-151.633	95.773	0.143	-0.163
-150.618	38.754	-0.070	-0.062
-149.604	-164.927	-0.319	0.014
-148.589	-200.000	-0.030	-0.168
-147.574	-43.452	-0.252	0.127
-146.560	-59.607	0.187	0.080
-145.545	800.000	-0.060	0.196
-144.531	-200.000	0.019	0.110
-143.516	12.306	-0.041	-0.031
-142.502	112.163	0.161	-0.194
-141.487	15.066	0.259	-0.202
-140.472	-119.030	0.087	0.015
-139.458	800.000	0.082	-0.246
-138.443	550.249	0.075	-0.179
-137.429	39.484	0.258	0.231
-136.414	-200.000	-0.044	0.279
-135.399	-97.411	0.104	-0.027
-134.385	137.851	-0.222	0.290
-133.370	-89.793	0.267	-0.078
-132.356	-64.087	-0.108	-0.044
-131.341	417.801	-0.012	-0.025
-130.326	-21.906	-0.089	-0.054
-129.312	-198.585	0.258	0.001
-128.297	-200.000	0.019	-0.149
-127.283	102.401	-0.119	-0.139
-126.268	118.744	-0.084	-0.103
-125.253	85.266	0.082	-0.089
-124.239	192.742	-0.132	-0.199
-123.224	-179.856	-0.311	0.007
-122.210	167.187	0.070	0.099
