DTS Sentinel unit serial number:	SN413079Multiplexer serial number:	ORYXHardware model number:	OX4-SRSoftware version number:	ORYX F/W v4.00 Oryx Data Collector v3.7.2.0data status	okinstallation	princeton_trtdifferential loss correction	single-endedforward channel	channel 1reverse channel	N/Adate	2019/09/17time	08:18:35forward acquisition time	60.00reverse acquisition time	0.00gamma	496.2192k internal	0.2330k external	0.2330temperature offset calibration	0.9962default loss term (dB/km)	0.3790temperature slope calibration	1.0000multiplexer offset coefficient	1.0000multiplexer slope coefficient	1.0000fibre end	0.00T internal ref (°C)	27.44T ext. ref 1 (°C)	0.12T ext. ref 2 (°C)	22.78length (m)	temperature (°C)	Stokes	anti-Stokes-747.200	99.959	0.149	-0.174
-746.185	499.054	0.056	-0.130
-745.171	-84.364	-0.193	0.061
-744.156	-81.867	-0.297	0.098
-743.142	507.879	-0.193	0.451
-742.127	345.708	-0.030	0.058
-741.112	771.535	-0.095	0.261
-740.098	-142.759	-0.091	0.009
-739.083	15.439	0.124	-0.098
-738.069	800.000	0.096	0.344
-737.054	-147.940	-0.285	-0.024
-736.039	-139.602	0.304	0.033
-735.025	-51.465	0.318	0.150
-734.010	98.878	0.202	0.234
-732.996	-70.836	-0.155	-0.059
-731.981	-200.000	0.055	0.242
-730.966	223.670	0.044	-0.071
-729.952	326.534	-0.027	0.052
-728.937	147.898	0.106	-0.144
-727.923	-44.954	0.064	0.032
-726.908	16.361	0.132	-0.105
-725.894	800.000	0.064	0.233
-724.879	-200.000	-0.006	0.167
-723.864	-82.009	-0.280	-0.092
-722.850	36.958	-0.313	0.278
-721.835	123.598	-0.240	-0.303
-720.821	-2.355	0.224	0.158
-719.806	201.095	-0.057	-0.088
-718.791	410.457	0.045	0.097
-717.777	-200.000	-0.034	0.304
-716.762	63.386	-0.136	-0.138
-715.748	770.539	0.101	0.278
-714.733	-144.086	-0.383	-0.036
-713.718	-102.825	-0.073	-0.017
-712.704	-98.429	-0.216	0.056
-711.689	-99.632	0.141	-0.035
-710.675	99.371	-0.151	0.175
-709.660	-200.000	-0.062	-0.276
-708.645	800.000	0.051	0.201
-707.631	-173.142	0.192	0.006
-706.616	800.000	0.055	0.236
-705.602	126.033	0.035	-0.044
-704.587	-119.727	-0.009	0.002
-703.572	-3.524	-0.140	0.098
-702.558	99.130	-0.238	0.277
-701.543	-90.274	-0.419	-0.122
-700.529	729.937	-0.058	-0.157
-699.514	-84.387	0.234	0.074
-698.499	461.199	-0.046	-0.103
-697.485	-200.000	0.042	-0.202
-696.470	-200.000	0.010	0.122
-695.456	-129.216	-0.175	0.024
-694.441	-167.351	-0.250	0.010
-693.426	-4.569	-0.359	-0.249
-692.412	800.000	-0.045	-0.152
-691.397	-200.000	0.015	-0.168
-690.383	-7.432	0.146	-0.099
-689.368	147.290	0.165	0.223
-688.354	-52.246	-0.223	-0.104
-687.339	-58.398	-0.215	0.094
-686.324	30.785	0.062	-0.053
-685.310	-47.379	-0.266	0.130
-684.295	-58.054	-0.376	0.165
-683.281	369.185	-0.157	-0.319
-682.266	51.504	-0.186	-0.177
-681.251	800.000	0.053	-0.160
-680.237	800.000	0.053	-0.175
-679.222	-9.345	-0.125	0.084
-678.208	-156.080	-0.059	0.004
-677.193	-77.199	-0.172	-0.060
-676.178	-18.801	0.120	-0.075
-675.164	312.493	-0.176	0.332
-674.149	-117.111	-0.201	0.037
-673.135	-157.192	0.015	-0.001
-672.120	133.167	-0.092	0.119
-671.105	-76.509	-0.214	-0.075
-670.091	-25.329	-0.217	-0.129
-669.076	54.885	0.091	0.089
-668.062	-188.001	-0.171	-0.002
-667.047	288.125	0.109	-0.197
-666.032	30.697	-0.144	-0.124
-665.018	-200.000	0.031	0.285
-664.003	11.434	0.333	0.256
-662.989	800.000	-0.069	0.195
-661.974	-200.000	-0.034	0.392
-660.959	-200.000	0.054	0.279
-659.945	639.277	0.083	0.211
-658.930	-200.000	-0.001	-0.295
-657.916	-150.977	-0.133	0.010
-656.901	273.203	0.147	-0.261
-655.886	202.693	0.077	0.119
-654.872	171.018	-0.198	-0.284
-653.857	-200.000	0.002	-0.047
-652.843	-128.815	0.095	0.013
-651.828	800.000	-0.126	-0.513
-650.814	-164.771	0.316	-0.014
-649.799	89.256	-0.280	-0.313
-648.784	67.866	-0.154	0.158
-647.770	133.255	0.036	-0.047
-646.755	-98.806	-0.325	0.083
-645.741	618.219	0.066	0.167
-644.726	-200.000	-0.046	0.318
-643.711	800.000	0.022	-0.080
-642.697	-92.433	-0.044	0.012
-641.682	-11.045	0.226	0.150
-640.668	800.000	0.071	0.252
-639.653	-200.000	0.020	0.318
-638.638	765.658	-0.057	0.157
-637.624	133.269	0.170	-0.220
-636.609	134.505	-0.060	-0.078
-635.595	20.732	-0.098	0.079
-634.580	-132.117	0.139	-0.018
-633.565	-47.702	-0.595	-0.289
-632.551	800.000	-0.021	-0.060
-631.536	-165.297	-0.168	0.007
-630.522	-200.000	0.011	-0.109
-629.507	-200.000	-0.019	-0.306
-628.492	-59.112	-0.089	-0.038
-627.478	-200.000	0.042	-0.195
-626.463	-44.190	0.131	0.066
-625.449	10.746	-0.154	-0.118
-624.434	107.985	0.178	0.212
-623.419	-99.002	0.013	-0.003
-622.405	-55.291	-0.137	-0.062
-621.390	47.392	-0.024	0.022
-620.376	-200.000	-0.074	0.378
-619.361	251.765	-0.028	-0.047
-618.346	-84.005	-0.088	0.028
-617.332	176.719	0.129	0.188
-616.317	-75.481	0.272	-0.097
-615.303	412.535	-0.157	0.334
-614.288	-200.000	-0.443	0.001
-613.273	552.132	-0.123	-0.297
-612.259	-200.000	-0.064	-0.404
-611.244	73.315	-0.217	-0.227
-610.230	26.797	-0.189	-0.159
-609.215	-43.561	-0.113	0.057
-608.201	-107.753	0.280	-0.061
-607.186	-120.814	0.202	-0.034
-606.171	-114.320	-0.212	0.041
-605.157	-76.937	-0.078	-0.027
-604.142	-53.601	-0.192	-0.088
-603.128	-47.793	-0.155	0.075
-602.113	-93.765	-0.130	0.036
-601.098	-200.000	-0.014	-0.069
-600.084	596.977	-0.112	-0.279
-599.069	-150.852	0.503	0.038
-598.055	-110.967	-0.291	0.060
-597.040	800.000	0.099	-0.286
-596.025	-83.250	0.050	-0.016
-595.011	800.000	0.127	0.530
-593.996	-170.925	-0.165	-0.006
-592.982	117.436	-0.126	0.155
-591.967	509.704	-0.028	-0.065
-590.952	-61.679	0.133	-0.056
-589.938	129.424	-0.235	0.301
-588.923	-70.304	-0.134	0.051
-587.909	-200.000	0.010	0.092
-586.894	-110.358	-0.191	-0.040
-585.879	-200.000	0.011	-0.149
-584.865	-48.698	-0.371	0.178
-583.850	-200.000	-0.005	0.456
-582.836	-96.522	0.113	0.030
-581.821	-5.356	0.199	-0.137
-580.806	-96.871	-0.490	-0.129
-579.792	-134.132	0.368	-0.045
-578.777	314.543	-0.188	-0.355
-577.763	-136.637	0.143	-0.016
-576.748	-200.000	0.024	-0.338
-575.733	800.000	0.068	-0.194
-574.719	526.192	-0.112	-0.264
-573.704	-74.780	-0.342	-0.123
-572.690	82.375	0.194	0.211
-571.675	87.588	-0.097	0.107
-570.661	2.166	0.036	0.026
-569.646	-116.152	0.307	-0.057
-568.631	-200.000	0.045	-0.256
-567.617	800.000	-0.100	0.401
-566.602	-21.411	-0.150	-0.092
-565.588	800.000	0.067	-0.238
-564.573	-166.688	-0.089	-0.004
-563.558	-29.990	0.282	-0.160
-562.544	288.982	0.096	-0.174
-561.529	-121.433	-0.203	0.034
-560.515	443.298	0.050	0.110
-559.500	-60.073	-0.287	-0.122
-558.485	180.770	-0.042	0.062
-557.471	8.785	0.179	0.135
-556.456	-16.603	0.205	0.130
-555.442	-200.000	-0.005	0.045
-554.427	-200.000	-0.027	0.234
-553.412	-200.000	0.028	0.158
-552.398	-200.000	0.045	-0.246
-551.383	-47.191	0.150	0.073
-550.369	-73.221	-0.239	0.087
-549.354	-200.000	-0.011	0.094
-548.339	-129.581	0.102	0.014
-547.325	-200.000	0.008	-0.081
-546.310	181.806	-0.170	0.250
-545.296	800.000	-0.079	-0.261
-544.281	-3.605	0.283	0.196
-543.266	119.294	-0.223	-0.276
-542.252	0.228	0.050	-0.035
-541.237	55.561	-0.219	0.212
-540.223	-125.537	0.326	-0.049
-539.208	-37.988	0.061	0.032
-538.193	-131.534	-0.267	0.035
-537.179	-200.000	-0.031	0.435
-536.164	-1.770	0.129	0.090
-535.150	-200.000	-0.016	0.101
-534.135	-149.702	-0.228	-0.018
-533.121	800.000	-0.053	-0.221
-532.106	800.000	0.107	-0.310
-531.091	-76.384	-0.320	0.112
-530.077	-14.728	0.243	0.156
-529.062	-50.863	0.179	-0.084
-528.048	-138.460	0.131	0.014
-527.033	-117.556	0.144	-0.026
-526.018	800.000	0.018	0.074
-525.004	-105.866	0.239	0.054
-523.989	-200.000	0.023	0.461
-522.975	-95.202	0.140	0.038
-521.960	-111.989	0.002	0.000
-520.945	116.452	0.078	0.095
-519.931	232.231	-0.086	-0.141
-518.916	-24.856	0.189	0.112
-517.902	-91.407	-0.151	0.043
-516.887	-192.276	0.141	0.001
-515.872	-200.000	-0.034	-0.314
-514.858	-103.114	-0.368	0.087
-513.843	204.651	-0.161	-0.249
-512.829	-200.000	-0.013	-0.167
-511.814	-165.517	-0.208	-0.009
-510.799	-68.611	0.229	-0.089
-509.785	-77.398	-0.305	0.106
-508.770	516.984	-0.104	-0.242
-507.756	-54.642	-0.322	0.145
-506.741	550.717	0.023	0.056
-505.726	-139.671	0.053	-0.006
-504.712	-127.680	-0.387	0.056
-503.697	800.000	0.042	-0.166
-502.683	755.317	0.169	0.456
-501.668	-11.476	-0.227	0.149
-500.653	-1.082	-0.029	-0.021
-499.639	134.983	-0.142	-0.184
-498.624	-111.405	-0.277	0.056
-497.610	-1.929	0.145	-0.102
-496.595	-111.785	-0.209	0.042
-495.581	-120.701	0.365	-0.062
-494.566	21.894	-0.138	-0.112
-493.551	34.870	0.127	-0.111
-492.537	-9.943	0.211	0.140
-491.522	800.000	-0.095	0.272
-490.508	226.281	-0.151	0.244
-489.493	-200.000	0.001	0.117
-488.478	87.968	0.190	-0.210
-487.464	64.917	-0.342	-0.345
-486.449	-131.645	0.095	0.012
-485.435	-39.045	-0.161	-0.084
-484.420	245.622	-0.037	-0.062
-483.405	-200.000	-0.051	-0.268
-482.391	46.597	-0.229	0.211
-481.376	43.594	-0.040	-0.037
-480.362	-200.000	-0.049	0.228
-479.347	-200.000	-0.032	0.152
-478.332	198.952	0.164	0.250
-477.318	-99.944	0.545	0.136
-476.303	-81.607	0.166	0.054
-475.289	-184.813	0.149	-0.002
-474.274	-47.012	0.082	-0.040
-473.259	-200.000	0.021	-0.223
-472.245	620.087	0.054	-0.134
-471.230	14.360	0.151	-0.117
-470.216	-0.103	0.124	0.088
-469.201	-200.000	-0.002	-0.080
-468.186	800.000	0.077	-0.329
-467.172	-131.603	0.132	-0.017
-466.157	-200.000	0.018	0.214
-465.143	-200.000	-0.047	0.256
-464.128	13.428	0.279	0.215
-463.113	-114.283	0.305	0.059
-462.099	-82.734	0.164	-0.053
-461.084	800.000	-0.026	0.104
-460.070	630.915	-0.086	-0.216
-459.055	283.906	0.083	0.149
-458.040	-102.479	-0.422	0.101
-457.026	-77.250	-0.077	0.027
-456.011	-92.123	0.030	0.008
-454.997	800.000	0.048	-0.194
-453.982	98.856	0.270	-0.310
-452.968	481.316	-0.138	-0.313
-451.953	-158.739	0.445	0.025
-450.938	-200.000	-0.032	0.348
-449.924	-88.548	-0.185	0.055
-448.909	186.250	-0.162	-0.240
-447.895	-22.445	0.414	-0.249
-446.880	267.618	-0.127	-0.221
-445.865	-41.807	0.428	0.219
-444.851	-60.998	-0.100	0.042
-443.836	-85.948	-0.375	-0.116
-442.822	63.882	-0.083	-0.083
-441.807	12.936	-0.049	-0.038
-440.792	-95.734	-0.128	-0.034
-439.778	800.000	-0.053	-0.147
-438.763	12.806	0.172	0.132
-437.749	-146.376	-0.154	0.013
-436.734	-94.714	0.254	-0.069
-435.719	107.875	0.152	-0.181
-434.705	-200.000	0.071	-0.360
-433.690	26.608	0.098	0.082
-432.676	-110.914	-0.176	0.036
-431.661	-60.496	0.141	-0.060
-430.646	800.000	-0.066	-0.263
-429.632	-126.692	0.445	0.065
-428.617	-133.643	0.321	-0.040
-427.603	519.811	0.149	0.348
-426.588	-147.262	0.112	0.010
-425.573	41.321	-0.132	0.118
-424.559	800.000	0.064	-0.211
-423.544	-200.000	0.062	0.326
-422.530	-111.356	-0.119	0.024
-421.515	10.552	0.059	-0.045
-420.500	-97.095	-0.074	-0.019
-419.486	-108.642	-0.069	-0.015
-418.471	392.665	0.030	0.062
-417.457	-200.000	0.022	-0.113
-416.442	-200.000	-0.012	-0.219
-415.428	800.000	-0.049	0.164
-414.413	33.655	0.149	0.129
-413.398	-41.695	0.221	-0.113
-412.384	-163.933	0.202	0.009
-411.369	800.000	0.088	0.361
-410.355	45.322	0.241	0.221
-409.340	800.000	0.061	0.214
-408.325	-91.770	0.286	0.081
-407.311	-13.705	0.121	-0.078
-406.296	41.865	-0.121	0.109
-405.282	-34.982	-0.180	0.097
-404.267	-46.502	0.306	0.149
-403.252	-6.525	-0.234	-0.158
-402.238	355.196	-0.104	0.205
-401.223	126.006	0.099	-0.124
-400.209	-6.061	-0.058	0.040
-399.194	-200.000	-0.049	-0.332
-398.179	-146.352	-0.311	-0.027
-397.165	-64.053	-0.448	-0.182
-396.150	-60.118	-0.176	-0.075
-395.136	7.562	0.369	0.274
-394.121	-140.272	0.140	0.015
-393.106	-88.519	-0.378	0.112
-392.092	-98.411	0.215	0.055
-391.077	800.000	-0.043	-0.119
-390.063	800.000	0.049	-0.178
-389.048	-70.650	0.479	-0.180
-388.033	-200.000	0.040	0.296
-387.019	-94.094	0.220	0.060
-386.004	-53.508	0.232	-0.105
-384.990	38.926	-0.101	-0.090
-383.975	-127.398	0.218	0.031
-382.960	48.783	0.162	0.151
-381.946	-15.826	-0.161	0.102
-380.931	-114.347	0.141	-0.027
-379.917	800.000	0.044	0.153
-378.902	687.046	-0.211	0.548
-377.888	172.850	0.189	-0.270
-376.873	800.000	0.031	0.104
-375.858	31.195	-0.229	0.195
-374.844	-9.401	-0.151	-0.100
-373.829	-126.389	0.081	-0.012
-372.815	800.000	-0.072	-0.300
-371.800	314.606	0.147	-0.275
-370.785	-23.367	-0.112	0.067
-369.771	-200.000	0.015	-0.220
-368.756	13.647	0.076	0.058
-367.742	-200.000	0.027	0.309
-366.727	171.188	0.082	-0.116
-365.712	6.395	0.045	-0.033
-364.698	-93.355	0.285	-0.078
-363.683	800.000	0.096	0.318
-362.669	-36.368	0.118	0.063
-361.654	391.312	-0.192	-0.395
-360.639	113.032	-0.180	-0.216
-359.625	-87.311	0.139	0.042
-358.610	-78.950	-0.116	-0.039
-357.596	-137.207	-0.042	-0.005
-356.581	82.580	0.154	0.166
-355.566	-200.000	-0.012	-0.213
-354.552	-200.000	0.080	0.000
-353.537	433.626	-0.089	0.191
-352.523	-83.972	0.392	0.124
-351.508	500.395	-0.054	0.125
-350.493	-200.000	-0.005	0.023
-349.479	-112.276	0.120	0.024
-348.464	188.839	0.148	-0.220
-347.450	115.844	0.124	0.150
-346.435	-200.000	-0.027	-0.154
-345.420	138.819	0.263	0.343
-344.406	-129.936	0.284	-0.039
-343.391	52.903	-0.045	-0.043
-342.377	53.294	0.065	0.062
-341.362	82.621	-0.134	0.144
-340.348	-54.551	0.440	-0.197
-339.333	197.036	-0.152	0.230
-338.318	-200.000	-0.038	-0.264
-337.304	-58.553	0.226	-0.097
-336.289	4.484	-0.289	-0.210
-335.275	78.089	-0.221	0.234
-334.260	-85.427	-0.192	-0.059
-333.245	159.541	0.057	-0.079
-332.231	69.167	-0.149	-0.152
-331.216	186.833	0.111	0.164
-330.202	185.534	0.106	-0.157
-329.187	-66.997	0.368	-0.144
-328.172	-200.000	-0.056	-0.276
-327.158	-200.000	-0.026	-0.173
-326.143	38.662	0.185	0.164
-325.129	-134.714	0.387	0.047
-324.114	-79.419	-0.341	-0.114
-323.099	-148.152	0.145	0.012
-322.085	-200.000	0.036	-0.264
-321.070	-200.000	0.045	0.223
-320.056	-37.785	0.124	0.065
-319.041	-200.000	0.033	0.180
-318.026	469.382	-0.089	-0.199
-317.012	209.666	-0.130	0.201
-315.997	17.778	-0.117	0.092
-314.983	-200.000	0.009	-0.120
-313.968	165.658	-0.117	-0.164
-312.953	443.610	0.165	0.357
-311.939	171.421	-0.141	-0.200
-310.924	-200.000	0.088	0.440
-309.910	67.803	0.050	0.050
-308.895	800.000	-0.078	0.255
-307.880	800.000	0.133	0.421
-306.866	10.290	-0.144	-0.108
-305.851	90.673	0.087	-0.097
-304.837	-129.279	-0.220	-0.030
-303.822	-15.657	0.193	-0.122
-302.807	800.000	0.057	0.235
-301.793	104.216	0.182	-0.212
-300.778	70.900	-0.179	-0.183
-299.764	-87.654	-0.218	-0.065
-298.749	198.989	-0.054	-0.082
-297.735	2.412	0.141	-0.101
-296.720	3.053	-0.107	0.077
-295.705	-200.000	0.022	-0.276
-294.691	-82.904	0.202	0.064
-293.676	-101.104	0.310	0.075
-292.662	522.759	-0.109	-0.253
-291.647	-191.255	-0.234	0.002
-290.632	103.799	0.067	0.078
-289.618	128.959	0.193	-0.243
-288.603	680.178	-0.075	0.193
-287.589	143.715	-0.096	0.126
-286.574	73.196	-0.127	0.131
-285.559	-103.235	0.091	0.021
-284.545	27.532	-0.118	-0.098
-283.530	-62.546	0.050	0.020
-282.516	-200.000	-0.036	-0.525
-281.501	-154.187	-0.679	0.045
-280.486	-200.000	0.004	-0.194
-279.472	-200.000	0.004	-0.068
-278.457	-32.095	-0.251	-0.139
-277.443	-11.591	0.108	-0.070
-276.428	-59.701	-0.139	-0.059
-275.413	-144.000	0.356	0.033
-274.399	-58.948	0.093	-0.040
-273.384	-200.000	0.376	-0.001
-272.370	-99.865	-0.316	-0.078
-271.355	-123.389	-0.201	0.032
-270.340	106.568	-0.181	0.212
-269.326	-120.351	-0.319	0.054
-268.311	-35.089	0.167	0.090
-267.297	-167.223	-0.275	0.011
-266.282	-117.106	0.119	-0.021
-265.267	-139.144	-0.060	-0.006
-264.253	800.000	0.046	-0.135
-263.238	-3.813	-0.106	0.073
-262.224	-105.701	-0.132	0.029
-261.209	28.363	0.191	0.159
-260.195	15.577	-0.080	-0.062
-259.180	-11.251	0.081	-0.053
-258.165	27.499	0.102	-0.085
-257.151	-55.441	0.098	0.043
-256.136	-96.220	-0.177	0.046
-255.122	800.000	-0.060	0.204
-254.107	27.684	-0.192	0.160
-253.092	-31.120	-0.220	0.122
-252.078	-200.000	0.019	-0.089
-251.063	-200.000	-0.035	-0.466
-250.049	-200.000	0.063	0.340
-249.034	-200.000	0.079	0.370
-248.019	-64.852	0.087	0.035
-247.005	-106.810	-0.346	0.076
-245.990	-23.546	-0.101	0.060
-244.976	257.482	0.094	0.160
-243.961	800.000	-0.037	-0.146
-242.946	-17.056	-0.117	-0.073
-241.932	-87.767	-0.433	0.129
-240.917	89.889	0.104	0.115
-239.903	-200.000	0.021	0.132
-238.888	180.213	-0.187	-0.271
-237.873	291.515	-0.035	-0.064
-236.859	-107.296	0.066	-0.014
-235.844	-200.000	-0.035	-0.227
-234.830	340.433	-0.065	-0.125
-233.815	-200.000	0.014	0.186
-232.800	-200.000	0.026	0.275
-231.786	-166.338	0.125	-0.005
-230.771	-77.689	0.043	-0.015
-229.757	-92.474	0.174	-0.048
-228.742	266.692	-0.122	-0.211
-227.727	55.468	-0.155	-0.148
-226.713	209.302	-0.106	-0.164
-225.698	-162.155	-0.186	0.009
-224.684	800.000	0.067	0.189
-223.669	116.953	0.287	0.347
-222.655	-20.355	0.204	-0.124
-221.640	-27.170	0.441	-0.254
-220.625	800.000	-0.068	-0.233
-219.611	-157.496	0.128	-0.008
-218.596	-200.000	0.004	-0.045
-217.582	343.935	-0.190	0.368
-216.567	141.792	0.272	0.356
-215.552	-2.083	0.313	0.217
-214.538	800.000	-0.046	-0.183
-213.523	111.591	0.132	-0.157
-212.509	73.032	-0.125	0.129
-211.494	-200.000	-0.043	-0.269
-210.479	71.351	0.109	-0.111
-209.465	-21.305	-0.067	-0.040
-208.450	281.434	-0.097	-0.170
-207.436	288.150	0.136	-0.243
-206.421	-127.284	-0.215	0.031
-205.406	-46.427	-0.073	0.035
-204.392	218.385	-0.189	0.297
-203.377	-200.000	-0.002	-0.215
-202.363	118.297	0.239	0.290
-201.348	800.000	0.022	-0.075
-200.333	199.941	0.092	-0.139
-199.319	-90.787	-0.230	0.065
-198.304	-200.000	-0.000	0.091
-197.290	-200.000	0.029	-0.291
-196.275	115.897	0.113	-0.136
-195.260	-101.379	-0.161	-0.039
-194.246	800.000	-0.027	0.084
-193.231	310.700	0.102	0.189
-192.217	729.338	0.152	-0.401
-191.202	-100.321	0.407	0.100
-190.187	255.804	-0.172	-0.291
-189.173	683.927	-0.114	0.292
-188.158	2.779	-0.168	0.120
-187.144	13.633	0.233	-0.178
-186.129	-200.000	-0.041	-0.363
-185.114	-76.241	-0.366	0.127
-184.100	-200.000	-0.004	0.109
-183.085	298.331	-0.030	-0.055
-182.071	67.487	-0.233	-0.234
-181.056	1.302	-0.196	0.139
-180.042	17.765	0.124	0.097
-179.027	53.838	0.274	-0.260
-178.012	-200.000	0.013	0.465
-176.998	-106.316	-0.196	-0.043
-175.983	-80.568	-0.292	-0.096
-174.969	-59.943	-0.200	0.084
-173.954	76.431	0.082	-0.086
-172.939	227.079	-0.049	0.078
-171.925	-157.337	-0.257	-0.015
-170.910	384.294	-0.096	-0.196
-169.896	54.048	-0.162	0.154
-168.881	-121.823	0.270	-0.044
-167.866	90.473	-0.094	-0.104
-166.852	-200.000	-0.019	0.151
-165.837	118.164	0.165	0.201
-164.823	-44.453	0.205	-0.101
-163.808	-162.695	-0.283	0.014
-162.793	-69.178	-0.138	0.052
-161.779	-26.018	0.189	0.109
-160.764	256.943	0.021	-0.036
-159.750	-200.000	0.025	0.312
-158.735	-200.000	-0.027	0.128
-157.720	-89.742	0.298	0.086
-156.706	47.046	0.132	0.121
-155.691	-200.000	0.066	-0.291
-154.677	-105.294	0.290	0.065
-153.662	-200.000	-0.010	-0.064
-152.647	19.411	-0.063	0.050
-151.633	-75.101	-0.260	0.092
-150.618	800.000	0.113	0.376
-149.604	282.517	-0.095	0.167
-148.589	10.320	-0.058	0.044
-147.574	-184.397	0.194	0.003
-146.560	-99.478	-0.166	-0.041
-145.545	-200.000	0.030	-0.149
-144.531	47.454	0.190	-0.174
-143.516	-35.341	-0.140	0.075
-142.502	-56.153	0.253	0.111
-141.487	-109.010	0.170	-0.036
-140.472	89.855	0.125	0.137
-139.458	272.927	0.077	-0.133
-138.443	-170.643	0.214	0.007
-137.429	-45.121	-0.028	0.014
-136.414	-200.000	0.037	0.272
-135.399	-61.153	0.059	-0.025
-134.385	229.515	0.278	0.446
-133.370	-180.808	-0.438	0.009
-132.356	-46.428	-0.094	-0.046
-131.341	-50.113	0.129	0.060
-130.326	302.678	-0.166	-0.302
-129.312	-200.000	-0.038	0.216
-128.297	30.805	0.072	-0.060
-127.283	800.000	0.093	0.330
-126.268	136.525	-0.145	0.185
-125.253	-92.052	-0.418	0.116
-124.239	-101.871	0.168	0.040
-123.224	11.288	0.293	0.221
-122.210	800.000	0.095	0.281
-121.195	-70.609	0.229	0.085
