DTS Sentinel unit serial number:	SN413079Multiplexer serial number:	ORYXHardware model number:	OX4-SRSoftware version number:	ORYX F/W v4.00 Oryx Data Collector v3.7.2.0data status	okinstallation	princeton_trtdifferential loss correction	single-endedforward channel	channel 1reverse channel	N/Adate	2019/09/12time	18:06:34forward acquisition time	15.00reverse acquisition time	0.00gamma	496.2192k internal	0.2316k external	0.2316temperature offset calibration	1.0108default loss term (dB/km)	0.3790temperature slope calibration	1.0000multiplexer offset coefficient	1.0000multiplexer slope coefficient	1.0000fibre end	0.00T internal ref (°C)	33.69T ext. ref 1 (°C)	2.92T ext. ref 2 (°C)	28.17length (m)	temperature (°C)	Stokes	anti-Stokes-747.200	-18.037	0.693	-0.440
-746.185	-200.000	0.127	-0.639
-745.171	-110.230	-1.152	-0.243
-744.156	-137.654	-0.576	-0.066
-743.142	26.836	-0.203	-0.173
-742.127	69.125	0.715	-0.744
-741.112	-200.000	0.106	1.213
-740.098	-200.000	-0.074	-0.793
-739.083	547.610	0.059	0.142
-738.069	-200.000	-0.029	-0.990
-737.054	43.483	0.216	0.200
-736.039	51.189	-0.353	-0.339
-735.025	-50.189	0.422	0.202
-734.010	386.021	-0.285	-0.596
-732.996	192.371	0.616	-0.942
-731.981	800.000	-0.150	-0.559
-730.966	800.000	0.111	0.329
-729.952	231.283	-0.516	-0.856
-728.937	26.347	-0.555	-0.470
-727.923	-29.344	0.102	-0.059
-726.908	228.426	0.161	-0.265
-725.894	-200.000	-0.079	-1.398
-724.879	-82.765	-0.324	-0.106
-723.864	-70.520	0.276	0.106
-722.850	-96.739	0.767	0.204
-721.835	-3.522	-0.153	-0.107
-720.821	361.200	-0.363	-0.736
-719.806	-200.000	-0.048	-0.618
-718.791	527.400	0.249	-0.593
-717.777	-200.000	-0.032	0.866
-716.762	-24.508	-0.359	0.216
-715.748	-109.175	-0.709	-0.152
-714.733	134.464	0.130	0.171
-713.718	16.415	-0.392	-0.313
-712.704	4.670	0.234	-0.174
-711.689	105.600	0.466	0.557
-710.675	64.530	0.466	-0.475
-709.660	-200.000	-0.033	-0.185
-708.645	-160.396	-0.646	0.035
-707.631	429.011	0.481	-1.051
-706.616	-114.065	0.228	0.045
-705.602	-200.000	-0.057	-0.895
-704.587	-105.650	-0.503	0.115
-703.572	-200.000	0.088	-1.066
-702.558	-110.325	-0.729	-0.153
-701.543	-114.671	-0.592	0.115
-700.529	-200.000	0.067	-0.419
-699.514	-1.183	0.390	0.279
-698.499	90.907	0.382	-0.433
-697.485	-200.000	0.080	-0.429
-696.470	800.000	0.054	0.200
-695.456	-123.564	0.530	-0.085
-694.441	79.162	-0.059	-0.064
-693.426	88.836	0.603	0.678
-692.412	117.743	-0.347	-0.432
-691.397	86.824	-0.259	0.289
-690.383	168.004	0.320	0.460
-689.368	45.830	0.139	-0.130
-688.354	709.371	0.300	0.801
-687.339	-171.085	0.583	0.020
-686.324	-162.915	-0.092	0.005
-685.310	60.141	0.182	0.182
-684.295	53.227	-0.424	-0.410
-683.281	110.960	-0.442	-0.538
-682.266	-150.255	0.545	0.043
-681.251	-118.791	-1.025	-0.182
-680.237	108.140	-0.266	0.321
-679.222	-60.083	-0.098	-0.042
-678.208	-200.000	-0.072	0.663
-677.193	274.453	0.368	0.658
-676.178	-13.584	-0.458	0.299
-675.164	-70.511	-0.448	0.171
-674.149	281.487	-0.434	-0.785
-673.135	800.000	0.194	-0.660
-672.120	784.862	-0.048	0.132
-671.105	146.939	-0.152	-0.206
-670.091	-86.187	-0.328	0.102
-669.076	666.839	0.178	-0.464
-668.062	-78.890	0.161	0.055
-667.047	173.005	-0.462	0.672
-666.032	544.671	0.215	-0.519
-665.018	-200.000	0.088	-0.513
-664.003	-54.658	-0.539	-0.246
-662.989	93.854	0.074	0.085
-661.974	51.516	0.742	-0.712
-660.959	-32.066	0.265	0.150
-659.945	252.702	0.087	0.149
-658.930	288.327	-0.387	-0.707
-657.916	-74.398	-0.614	-0.224
-656.901	362.601	-0.324	-0.657
-655.886	309.142	-0.246	-0.464
-654.872	-87.446	-0.729	0.223
-653.857	-200.000	-0.065	0.711
-652.843	214.369	0.413	0.661
-651.828	-200.000	0.032	-0.668
-650.814	-3.987	-0.457	0.320
-649.799	-108.066	-0.170	-0.037
-648.784	300.848	0.298	-0.555
-647.770	-41.662	-0.368	0.191
-646.755	-98.495	-0.534	-0.138
-645.741	34.843	-0.333	-0.294
-644.726	14.397	-0.463	0.365
-643.711	800.000	0.156	-0.646
-642.697	-200.000	-0.094	-1.132
-641.682	-158.901	-0.530	-0.030
-640.668	-52.407	-0.244	-0.114
-639.653	800.000	0.243	0.807
-638.638	-194.361	0.335	-0.003
-637.624	-31.535	-0.608	-0.345
-636.609	69.036	0.533	-0.552
-635.595	20.921	0.816	-0.667
-634.580	-200.000	0.104	0.813
-633.565	-59.886	-0.108	-0.046
-632.551	-23.655	-0.318	-0.193
-631.536	-160.692	0.103	0.006
-630.522	-200.000	-0.024	-0.346
-629.507	-72.067	0.544	0.204
-628.492	-13.575	0.803	-0.524
-627.478	-77.767	0.739	-0.257
-626.463	-73.952	-0.449	0.164
-625.449	246.444	-0.071	-0.120
-624.434	-69.084	0.730	-0.283
-623.419	-114.563	-0.528	0.102
-622.405	-106.887	0.307	-0.069
-621.390	174.032	0.296	-0.431
-620.376	-38.043	-0.385	0.206
-619.361	-200.000	-0.028	-0.518
-618.346	2.027	-0.302	-0.220
-617.332	800.000	0.119	-0.447
-616.317	-6.820	0.729	-0.500
-615.303	-37.294	-0.112	0.060
-614.288	800.000	0.234	0.933
-613.273	800.000	-0.120	-0.427
-612.259	-200.000	-0.013	0.729
-611.244	-56.017	-0.840	0.378
-610.230	800.000	0.151	-0.599
-609.215	-23.988	-0.903	0.544
-608.201	800.000	0.057	-0.172
-607.186	-50.040	1.012	-0.483
-606.171	-200.000	0.056	0.246
-605.157	800.000	-0.350	1.406
-604.142	261.388	0.389	-0.679
-603.128	763.357	0.310	-0.847
-602.113	-73.897	-1.029	0.376
-601.098	-37.950	0.815	0.436
-600.084	-134.130	0.773	-0.096
-599.069	-200.000	0.038	0.355
-598.055	-200.000	0.067	0.841
-597.040	200.940	-0.298	-0.462
-596.025	-104.933	0.309	0.071
-595.011	-200.000	-0.089	0.423
-593.996	427.093	0.430	0.934
-592.982	-52.899	0.560	-0.259
-591.967	-144.790	0.209	-0.019
-590.952	800.000	-0.224	-0.716
-589.938	152.283	0.103	-0.142
-588.923	-117.430	-0.113	-0.021
-587.909	800.000	-0.304	1.056
-586.894	387.717	0.071	0.148
-585.879	12.903	0.132	-0.103
-584.865	-5.871	-0.303	-0.209
-583.850	375.042	0.302	-0.620
-582.836	-89.522	-0.888	-0.263
-581.821	-10.262	-0.407	0.272
-580.806	-125.091	0.608	0.094
-579.792	-159.322	-0.435	-0.025
-578.777	-200.000	0.024	-0.673
-577.763	-122.744	0.521	-0.085
-576.748	-200.000	-0.050	-0.552
-575.733	-122.231	-0.302	-0.050
-574.719	-200.000	0.013	0.604
-573.704	144.180	-0.231	-0.311
-572.690	-68.823	0.720	-0.280
-571.675	357.530	0.105	0.211
-570.661	2.007	0.335	0.243
-569.646	281.592	-0.414	0.747
-568.631	152.851	-0.087	-0.119
-567.617	-40.702	-0.291	-0.152
-566.602	-146.314	-0.316	-0.028
-565.588	648.992	0.158	-0.407
-564.573	-100.835	-0.165	0.041
-563.558	-113.614	0.255	0.050
-562.544	-95.343	-0.999	0.270
-561.529	-1.750	0.659	0.467
-560.515	279.413	-0.233	-0.418
-559.500	418.437	0.209	0.449
-558.485	-170.372	-0.371	0.013
-557.471	65.487	-0.275	-0.280
-556.456	767.567	-0.237	0.648
-555.442	-67.363	-0.739	0.292
-554.427	196.281	0.110	-0.168
-553.412	170.688	0.284	0.409
-552.398	-116.989	0.606	-0.111
-551.383	-84.463	0.632	-0.201
-550.369	800.000	0.062	-0.252
-549.354	-61.944	-0.538	-0.226
-548.339	-49.036	0.309	0.149
-547.325	-200.000	0.065	0.806
-546.310	38.151	-0.515	0.461
-545.296	222.068	0.690	-1.116
-544.281	310.810	0.230	0.432
-543.266	-58.077	0.265	0.116
-542.252	-43.240	-0.337	0.171
-541.237	-41.975	-0.666	-0.343
-540.223	576.302	0.318	0.781
-539.208	433.486	-0.139	0.303
-538.193	671.264	0.106	-0.277
-537.179	800.000	0.182	0.745
-536.164	-19.481	0.554	-0.345
-535.150	-12.051	-0.650	0.428
-534.135	-200.000	-0.060	-0.465
-533.121	-175.557	0.856	0.023
-532.106	563.190	-0.112	0.273
-531.091	-172.950	0.503	0.016
-530.077	-118.093	0.270	0.048
-529.062	189.094	0.145	0.218
-528.048	-7.408	0.605	-0.412
-527.033	-200.000	-0.022	0.126
-526.018	428.631	0.316	0.687
-525.004	47.083	-0.137	-0.128
-523.989	22.222	-0.745	-0.611
-522.975	243.262	-0.507	-0.853
-521.960	-85.259	0.487	0.153
-520.945	-200.000	0.047	-0.339
-519.931	-200.000	-0.095	-1.366
-518.916	-21.961	0.024	-0.015
-517.902	301.073	-0.228	-0.424
-516.887	-11.638	-0.261	-0.172
-515.872	-160.714	-0.099	-0.005
-514.858	56.473	-0.482	0.471
-513.843	800.000	0.223	0.795
-512.829	-200.000	-0.003	0.605
-511.814	-118.372	0.721	0.129
-510.799	413.364	0.368	-0.785
-509.785	-132.387	-1.111	-0.144
-508.770	50.971	0.262	-0.249
-507.756	-128.472	0.443	0.063
-506.741	-94.997	0.662	0.180
-505.726	425.147	-0.187	0.404
-504.712	44.798	-0.328	-0.303
-503.697	-18.084	-0.412	-0.259
-502.683	19.994	0.061	-0.050
-501.668	-54.446	-0.495	0.225
-500.653	-200.000	-0.021	0.125
-499.639	800.000	-0.257	0.782
-498.624	17.560	-0.290	0.231
-497.610	121.110	0.209	-0.261
-496.595	800.000	-0.098	0.301
-495.581	-132.896	-0.352	0.045
-494.566	800.000	-0.207	-0.719
-493.551	-75.654	0.303	-0.108
-492.537	-2.024	-0.622	0.438
-491.522	-63.233	-0.626	0.259
-490.508	-97.057	0.303	0.080
-489.493	-200.000	0.065	0.431
-488.478	-35.041	-0.431	0.236
-487.464	-102.612	-0.106	-0.025
-486.449	36.455	-0.149	0.132
-485.435	162.158	0.190	0.267
-484.420	-200.000	0.158	-0.815
-483.405	800.000	-0.216	-0.818
-482.391	-69.849	0.199	0.076
-481.376	-200.000	0.080	0.989
-480.362	94.805	-0.330	-0.377
-479.347	104.651	0.360	-0.425
-478.332	-159.023	-0.313	0.018
-477.318	800.000	0.217	-0.615
-476.303	-163.893	0.332	-0.016
-475.289	-129.741	-0.448	-0.062
-474.274	536.600	0.109	-0.260
-473.259	-200.000	-0.012	-0.398
-472.245	-12.077	0.751	-0.493
-471.230	-88.197	-0.313	0.094
-470.216	82.057	0.654	-0.711
-469.201	-110.762	-0.425	-0.088
-468.186	173.963	0.607	0.879
-467.172	751.843	-0.458	1.240
-466.157	3.911	0.229	0.168
-465.143	-67.477	0.315	0.124
-464.128	-200.000	-0.040	0.269
-463.113	22.156	0.381	0.311
-462.099	-107.797	0.238	-0.052
-461.084	800.000	-0.143	-0.529
-460.070	800.000	-0.098	0.310
-459.055	-33.859	-0.442	0.244
-458.040	69.029	0.566	0.583
-457.026	444.092	0.195	0.428
-456.011	486.389	-0.162	-0.369
-454.997	88.698	-0.420	0.468
-453.982	5.788	-0.515	-0.381
-452.968	225.192	0.100	0.162
-451.953	-85.527	-0.321	0.100
-450.938	-200.000	-0.038	-0.708
-449.924	498.237	-0.136	-0.313
-448.909	-43.971	0.634	0.319
-447.895	-138.900	0.599	-0.065
-446.880	52.380	0.620	-0.592
-445.865	110.428	-0.571	0.687
-444.851	0.603	-0.688	-0.493
-443.836	30.568	0.487	0.417
-442.822	-75.042	-0.737	0.264
-441.807	-123.011	-0.034	-0.006
-440.792	86.708	0.383	0.423
-439.778	427.721	0.036	-0.078
-438.763	-200.000	-0.154	-1.179
-437.749	-180.607	-0.766	0.016
-436.734	193.854	-0.348	-0.527
-435.719	-200.000	-0.021	0.192
-434.705	800.000	0.101	0.386
-433.690	465.327	-0.283	0.634
-432.676	-146.947	0.838	-0.072
-431.661	336.889	-0.036	-0.070
-430.646	-51.280	0.961	0.450
-429.632	-53.770	-0.297	0.136
-428.617	-17.049	-0.519	0.328
-427.603	577.637	0.032	-0.079
-426.588	-200.000	-0.105	-0.692
-425.573	-47.430	-0.629	-0.306
-424.559	-128.471	-0.276	0.039
-423.544	-176.019	0.359	-0.010
-422.530	-95.119	0.970	0.262
-421.515	18.088	-0.216	-0.172
-420.500	472.098	-0.230	0.518
-419.486	300.649	0.190	-0.350
-418.471	388.034	-0.118	-0.245
-417.457	92.236	-0.164	0.185
-416.442	-129.606	-0.074	-0.010
-415.428	655.233	-0.278	0.713
-414.413	-114.919	0.169	-0.032
-413.398	-200.000	-0.071	0.571
-412.384	800.000	0.249	-0.880
-411.369	7.648	0.598	0.448
-410.355	-94.604	0.453	-0.123
-409.340	82.640	-0.260	0.283
-408.325	-200.000	0.000	0.196
-407.311	-200.000	0.110	-0.595
-406.296	-166.158	-0.645	0.027
-405.282	231.889	0.353	0.579
-404.267	-200.000	0.118	-0.885
-403.252	-9.282	-0.225	-0.150
-402.238	312.797	-0.291	-0.547
-401.223	-200.000	0.000	0.369
-400.209	800.000	0.110	-0.337
-399.194	-2.363	-0.506	0.355
-398.179	197.249	-0.314	0.480
-397.165	-138.427	0.739	0.081
-396.150	-111.700	-0.212	-0.043
-395.136	80.916	-0.452	-0.487
-394.121	-60.635	-0.552	0.234
-393.106	10.296	-1.317	1.001
-392.092	149.453	0.069	0.093
-391.077	-200.000	0.014	0.685
-390.063	-68.767	-1.251	0.483
-389.048	-200.000	-0.029	-0.829
-388.033	-200.000	0.057	-0.342
-387.019	-68.660	0.976	0.377
-386.004	-63.644	-0.523	-0.215
-384.990	800.000	0.030	-0.115
-383.975	-21.739	-0.501	0.305
-382.960	-138.749	-0.447	-0.049
-381.946	143.140	-0.351	-0.466
-380.931	-177.227	0.384	-0.010
-379.917	-46.607	-0.416	0.204
-378.902	-200.000	0.021	0.264
-377.888	-15.742	0.781	0.497
-376.873	-166.712	-0.451	0.019
-375.858	175.572	-0.390	-0.564
-374.844	105.731	0.623	0.736
-373.829	-52.703	-0.655	0.302
-372.815	-200.000	0.004	-0.552
-371.800	-92.068	0.762	0.215
-370.785	203.697	-0.436	-0.674
-369.771	-56.842	-0.241	-0.106
-368.756	-104.617	-0.299	0.069
-367.742	342.071	-0.242	-0.473
-366.727	-39.805	-0.549	-0.286
-365.712	800.000	0.164	0.673
-364.698	-83.450	0.393	0.126
-363.683	170.089	-0.250	0.358
-362.669	-200.000	-0.051	-0.773
-361.654	-52.147	0.465	-0.216
-360.639	-93.542	0.561	-0.155
-359.625	26.864	0.775	-0.648
-358.610	514.283	-0.345	0.803
-357.596	299.212	0.425	-0.780
-356.581	4.586	-0.415	0.304
-355.566	84.898	-0.635	0.695
-354.552	-113.067	-0.329	0.065
-353.537	-200.000	-0.083	0.675
-352.523	-188.555	0.094	-0.001
-351.508	-57.920	0.265	0.115
-350.493	-183.712	0.782	0.013
-349.479	-15.346	-0.179	0.114
-348.464	800.000	-0.161	0.524
-347.450	800.000	0.163	-0.653
-346.435	214.085	-0.472	-0.745
-345.420	565.985	0.123	-0.297
-344.406	276.349	0.072	0.127
-343.391	-171.970	0.159	-0.005
-342.377	27.663	-0.435	0.365
-341.362	268.679	0.322	0.564
-340.348	278.030	0.304	-0.541
-339.333	688.798	-0.323	0.843
-338.318	488.378	0.205	-0.467
-337.304	-124.597	-0.222	-0.034
-336.289	74.173	-0.500	0.524
-335.275	-200.000	-0.033	-0.286
-334.260	-128.356	-0.705	-0.100
-333.245	-119.905	-0.735	0.126
-332.231	44.385	0.303	0.277
-331.216	32.645	-0.708	-0.611
-330.202	800.000	0.042	0.176
-329.187	-43.799	0.590	0.296
-328.172	368.522	0.362	-0.729
-327.158	-82.555	-0.100	-0.032
-326.143	77.830	-0.497	-0.528
-325.129	-200.000	-0.117	0.611
-324.114	123.062	-0.492	-0.615
-323.099	0.049	0.140	0.099
-322.085	84.896	-0.789	-0.862
-321.070	-158.686	-0.684	0.039
-320.056	800.000	0.146	0.508
-319.041	-200.000	0.009	0.388
-318.026	347.806	-0.602	1.182
-317.012	240.325	-0.184	0.305
-315.997	47.178	0.212	0.196
-314.983	-16.122	0.193	0.122
-313.968	-94.567	0.874	0.237
-312.953	-19.561	0.501	0.309
-311.939	800.000	0.099	-0.295
-310.924	-200.000	-0.060	0.620
-309.910	-200.000	0.040	-0.381
-308.895	33.053	-0.678	0.585
-307.880	800.000	-0.080	0.331
-306.866	17.366	0.364	-0.288
-305.851	-12.667	0.528	-0.343
-304.837	57.467	0.248	0.241
-303.822	800.000	-0.176	0.520
-302.807	-200.000	0.029	0.265
-301.793	-200.000	-0.042	-0.207
-300.778	1.758	-0.215	-0.154
-299.764	405.141	-0.272	-0.571
-298.749	-32.513	0.344	0.191
-297.735	89.633	-0.674	0.749
-296.720	-159.254	-0.244	0.014
-295.705	-15.695	0.423	0.268
-294.691	-121.934	-0.207	-0.034
-293.676	800.000	-0.094	-0.358
-292.662	57.824	-0.183	-0.178
-291.647	160.389	0.364	0.505
-290.632	147.860	-0.563	-0.755
-289.618	-200.000	0.130	1.052
-288.603	800.000	-0.073	-0.244
-287.589	-62.634	-0.277	0.114
-286.574	800.000	-0.078	-0.330
-285.559	-85.182	0.267	-0.083
-284.545	-91.569	-0.722	0.205
-283.530	-101.417	1.236	-0.300
-282.516	-29.346	-0.842	0.480
-281.501	71.577	0.299	0.309
-280.486	800.000	0.249	0.816
-279.472	81.400	0.582	-0.625
-278.457	-200.000	0.057	0.420
-277.443	-101.594	-0.559	0.135
-276.428	-200.000	-0.091	-0.532
-275.413	76.163	0.221	0.232
-274.399	-96.254	0.972	0.256
-273.384	-98.621	0.318	0.081
-272.370	-80.586	-0.219	0.073
-271.355	136.693	0.220	-0.285
-270.340	227.294	0.314	-0.507
-269.326	612.108	-0.250	-0.622
-268.311	-94.109	0.653	0.178
-267.297	-177.275	0.712	-0.018
-266.282	-10.974	-0.581	0.381
-265.267	-31.747	0.292	0.163
-264.253	-200.000	0.049	0.449
-263.238	800.000	0.193	-0.565
-262.224	-85.996	0.340	-0.105
-261.209	-50.385	-0.625	0.293
-260.195	61.284	-0.165	-0.163
-259.180	-31.873	-0.946	-0.527
-258.165	156.660	0.198	0.272
-257.151	-22.773	0.268	-0.161
-256.136	-40.781	0.303	-0.156
-255.122	-163.106	-0.380	0.018
-254.107	-107.411	-0.519	-0.113
-253.092	-180.370	-0.325	-0.007
-252.078	-19.676	0.800	-0.492
-251.063	289.037	0.128	0.231
-250.049	205.148	0.105	-0.163
-249.034	-183.169	0.809	-0.014
-248.019	-200.000	-0.013	-0.244
-247.005	-101.193	-0.531	0.129
-245.990	292.406	0.197	0.356
-244.976	-52.253	-0.296	0.136
-243.961	-10.771	0.484	0.318
-242.946	162.084	0.290	0.404
-241.932	83.393	0.342	-0.370
-240.917	-133.881	0.282	0.035
-239.903	62.298	0.479	0.475
-238.888	-113.728	0.586	-0.113
-237.873	800.000	0.155	-0.511
-236.859	-30.595	-0.763	-0.429
-235.844	800.000	-0.257	1.108
-234.830	277.513	-0.196	-0.346
-233.815	-200.000	0.002	-0.313
-232.800	-153.144	1.308	0.091
-231.786	-171.366	0.793	0.026
-230.771	45.198	-0.385	0.352
-229.757	-10.761	-0.461	0.303
-228.742	800.000	-0.100	-0.432
-227.727	45.468	-0.369	0.338
-226.713	800.000	-0.313	-1.277
-225.698	-200.000	-0.006	0.272
-224.684	29.020	0.637	0.536
-223.669	800.000	-0.066	-0.193
-222.655	266.280	-0.143	0.248
-221.640	21.127	-0.245	0.197
-220.625	104.138	-0.506	0.590
-219.611	-89.070	0.681	-0.200
-218.596	-200.000	-0.170	-0.785
-217.582	-200.000	0.150	-0.886
-216.567	-200.000	0.038	-0.454
-215.552	-108.632	0.656	0.140
-214.538	12.579	-0.303	0.232
-213.523	-62.539	0.384	0.158
-212.509	82.188	-0.089	0.095
-211.494	800.000	-0.102	0.285
-210.479	-200.000	0.116	0.505
-209.465	-130.582	-0.086	0.012
-208.450	-99.680	0.530	-0.132
-207.436	-74.835	0.302	-0.107
-206.421	-200.000	-0.108	0.480
-205.406	-200.000	0.014	0.668
-204.392	-200.000	0.000	0.044
-203.377	-82.051	-0.303	-0.098
-202.363	99.014	0.375	0.429
-201.348	-49.791	0.285	0.134
-200.333	-45.452	-0.357	0.175
-199.319	20.913	-0.458	0.368
-198.304	800.000	-0.118	-0.505
-197.290	124.607	1.092	1.363
-196.275	12.799	-0.497	-0.381
-195.260	-200.000	-0.069	-0.526
-194.246	-21.215	-0.209	0.127
-193.231	-11.449	0.626	-0.409
-192.217	-70.371	-0.570	-0.214
-191.202	8.979	-0.245	-0.184
-190.187	-12.798	0.354	0.229
-189.173	-115.631	0.649	-0.121
-188.158	-157.595	-0.161	0.010
-187.144	-82.564	-0.692	0.222
-186.129	800.000	0.415	-1.247
-185.114	111.905	0.494	-0.592
-184.100	93.715	-0.315	-0.353
-183.085	800.000	-0.151	0.444
-182.071	-5.973	0.077	0.052
-181.056	512.963	0.141	0.327
-180.042	142.807	0.362	0.477
-179.027	185.849	0.175	0.258
-178.012	214.599	-0.559	0.878
-176.998	152.945	0.266	-0.361
-175.983	47.581	-0.083	0.077
-174.969	-107.128	0.415	0.091
-173.954	-181.215	0.416	0.008
-172.939	168.022	0.217	-0.305
-171.925	469.227	-0.222	-0.493
-170.910	559.351	0.227	-0.542
-169.896	-200.000	0.026	-0.640
-168.881	-16.313	0.529	0.333
-167.866	283.293	-0.202	-0.360
-166.852	126.438	-0.411	-0.515
-165.837	-36.233	0.426	-0.228
-164.823	800.000	0.165	-0.605
-163.808	-128.462	-0.375	0.053
-162.793	-152.953	-0.542	-0.038
-161.779	-196.333	0.188	-0.001
-160.764	-193.198	0.352	0.003
-159.750	181.151	-0.193	-0.281
-158.735	-200.000	0.053	-0.236
-157.720	-200.000	-0.070	-0.417
-156.706	-44.108	0.268	0.133
-155.691	-109.484	-0.767	0.160
-154.677	-25.272	-0.286	-0.167
-153.662	-200.000	-0.123	-0.616
-152.647	-200.000	-0.098	-1.131
-151.633	-56.260	0.663	-0.292
-150.618	-68.373	-1.368	0.526
-149.604	42.881	-0.146	-0.132
-148.589	-103.541	-0.611	0.142
-147.574	65.883	0.152	-0.153
-146.560	-200.000	-0.036	-0.616
-145.545	-12.087	0.683	0.443
-144.531	-28.775	0.290	-0.165
-143.516	-1.122	0.161	0.113
-142.502	-56.128	0.664	-0.293
-141.487	287.773	0.443	0.794
-140.472	155.325	-0.464	0.631
-139.458	-179.667	-0.231	-0.005
-138.443	-10.658	-0.433	0.284
-137.429	9.655	0.787	-0.590
-136.414	-195.047	0.374	-0.003
-135.399	321.014	-0.203	0.383
-134.385	-200.000	-0.012	0.818
-133.370	-118.396	0.725	-0.127
-132.356	-200.000	0.012	-0.055
-131.341	-31.530	-0.328	-0.182
-130.326	-200.000	-0.053	0.554
-129.312	665.269	0.181	0.461
-128.297	-1.014	0.435	-0.304
-127.283	-200.000	0.036	0.364
-126.268	203.521	-0.185	-0.283
-125.253	111.924	-0.142	0.170
-124.239	31.321	-0.130	-0.110
-123.224	-200.000	0.048	-0.230
-122.210	97.350	-0.560	-0.636
