DTS Sentinel unit serial number:	SN413079Multiplexer serial number:	ORYXHardware model number:	OX4-SRSoftware version number:	ORYX F/W v4.00 Oryx Data Collector v3.7.2.0data status	okinstallation	princeton_trtdifferential loss correction	single-endedforward channel	channel 1reverse channel	N/Adate	2019/09/14time	01:06:35forward acquisition time	60.00reverse acquisition time	0.00gamma	496.2192k internal	0.2337k external	0.2337temperature offset calibration	1.0078default loss term (dB/km)	0.3790temperature slope calibration	1.0000multiplexer offset coefficient	1.0000multiplexer slope coefficient	1.0000fibre end	0.00T internal ref (°C)	26.39T ext. ref 1 (°C)	3.17T ext. ref 2 (°C)	21.40length (m)	temperature (°C)	Stokes	anti-Stokes-747.200	-96.381	0.313	-0.083
-746.185	-57.085	-0.143	-0.063
-745.171	67.520	0.046	-0.047
-744.156	11.919	-0.294	0.227
-743.142	113.150	-0.258	0.314
-742.127	574.138	0.163	0.399
-741.112	103.602	0.210	-0.247
-740.098	253.465	-0.107	0.183
-739.083	-200.000	-0.037	0.296
-738.069	80.465	0.120	0.130
-737.054	-95.858	-0.211	0.057
-736.039	-40.249	-0.247	0.129
-735.025	71.120	0.029	-0.030
-734.010	-44.892	-0.146	0.073
-732.996	-31.662	0.257	-0.145
-731.981	-200.000	-0.052	-0.367
-730.966	322.673	0.089	-0.170
-729.952	-200.000	0.029	0.147
-728.937	-95.564	-0.367	0.099
-727.923	-200.000	0.015	-0.133
-726.908	203.991	-0.081	-0.125
-725.894	7.236	-0.241	0.180
-724.879	-37.201	0.191	-0.102
-723.864	-75.929	-0.109	-0.039
-722.850	-19.751	0.236	0.147
-721.835	-200.000	-0.033	0.169
-720.821	-113.859	0.070	0.014
-719.806	-72.016	0.101	0.038
-718.791	-200.000	-0.006	0.082
-717.777	-108.002	-0.294	0.064
-716.762	-57.744	0.446	0.196
-715.748	-76.541	-0.192	-0.068
-714.733	119.796	-0.151	0.188
-713.718	-200.000	-0.023	0.432
-712.704	88.045	-0.209	-0.233
-711.689	284.229	-0.039	0.070
-710.675	-200.000	0.001	0.023
-709.660	-28.457	-0.123	-0.071
-708.645	626.656	-0.045	-0.114
-707.631	58.249	0.326	-0.320
-706.616	-145.974	-0.081	0.007
-705.602	-44.784	-0.211	0.106
-704.587	160.119	0.188	0.263
-703.572	-172.061	-0.171	-0.006
-702.558	-135.089	-0.289	0.035
-701.543	-200.000	-0.031	-0.153
-700.529	-155.034	-0.204	-0.013
-699.514	-200.000	-0.020	0.228
-698.499	276.560	0.300	0.535
-697.485	800.000	0.017	0.073
-696.470	800.000	-0.147	0.410
-695.456	158.896	-0.091	-0.127
-694.441	498.306	0.044	0.101
-693.426	-66.866	0.274	0.108
-692.412	-18.079	-0.410	0.257
-691.397	6.599	-0.094	-0.070
-690.383	108.166	0.107	-0.128
-689.368	-200.000	-0.015	-0.126
-688.354	126.837	-0.082	0.104
-687.339	101.478	0.081	0.095
-686.324	356.933	0.231	0.461
-685.310	800.000	0.097	0.360
-684.295	-47.556	-0.078	0.038
-683.281	145.052	0.054	0.072
-682.266	-2.847	0.123	0.086
-681.251	138.651	0.183	0.241
-680.237	-124.019	0.170	-0.027
-679.222	625.932	0.046	-0.117
-678.208	800.000	-0.024	0.084
-677.193	-200.000	-0.002	0.028
-676.178	-200.000	-0.004	0.358
-675.164	109.179	0.088	-0.105
-674.149	800.000	0.072	0.229
-673.135	-14.837	0.164	0.106
-672.120	317.426	0.106	-0.200
-671.105	231.788	0.030	-0.049
-670.091	-200.000	-0.009	-0.070
-669.076	-99.516	-0.220	-0.055
-668.062	371.770	-0.193	-0.392
-667.047	800.000	-0.032	0.110
-666.032	-114.301	0.200	-0.039
-665.018	-77.366	0.127	-0.044
-664.003	309.870	0.088	0.165
-662.989	116.491	0.211	0.259
-661.974	-200.000	0.018	0.120
-660.959	722.949	0.117	0.311
-659.945	-145.521	-0.098	-0.009
-658.930	-54.341	-0.145	0.066
-657.916	90.560	-0.456	0.511
-656.901	-200.000	0.042	0.215
-655.886	800.000	-0.104	0.297
-654.872	-200.000	0.051	-0.280
-653.857	-200.000	-0.001	0.019
-652.843	240.004	0.018	0.029
-651.828	-23.544	-0.213	-0.128
-650.814	800.000	0.088	-0.342
-649.799	-168.329	0.329	-0.013
-648.784	-200.000	0.046	0.335
-647.770	-200.000	-0.073	-0.406
-646.755	68.382	0.174	-0.179
-645.741	692.309	-0.190	0.498
-644.726	-78.978	-0.250	-0.085
-643.711	800.000	0.043	-0.183
-642.697	792.440	-0.073	-0.201
-641.682	-20.590	0.075	0.046
-640.668	1.150	-0.168	0.120
-639.653	800.000	0.013	-0.040
-638.638	-153.252	-0.344	0.024
-637.624	-200.000	-0.020	0.174
-636.609	251.122	0.114	0.193
-635.595	-163.054	-0.100	0.005
-634.580	-126.063	0.309	-0.046
-633.565	53.806	0.049	0.047
-632.551	11.078	-0.030	0.023
-631.536	-82.761	-0.315	-0.102
-630.522	-76.259	0.039	-0.014
-629.507	-200.000	-0.085	0.452
-628.492	81.258	0.196	-0.212
-627.478	181.314	-0.277	-0.408
-626.463	800.000	0.034	-0.120
-625.449	-144.630	-0.228	-0.021
-624.434	82.670	0.175	0.190
-623.419	-65.073	-0.181	0.073
-622.405	-200.000	-0.016	-0.157
-621.390	245.705	-0.063	-0.107
-620.376	67.865	-0.107	0.109
-619.361	512.107	-0.113	0.263
-618.346	-39.962	0.170	-0.089
-617.332	-200.000	-0.078	0.000
-616.317	-75.927	0.276	-0.098
-615.303	293.143	0.100	-0.183
-614.288	-144.491	-0.160	-0.015
-613.273	-200.000	-0.014	0.087
-612.259	177.975	-0.037	-0.054
-611.244	353.993	-0.011	0.022
-610.230	800.000	-0.126	-0.505
-609.215	-200.000	-0.014	-0.197
-608.201	800.000	0.061	-0.263
-607.186	-42.721	0.338	-0.172
-606.171	-33.132	0.323	-0.179
-605.157	-68.954	-0.238	-0.092
-604.142	-7.765	0.336	0.227
-603.128	-75.059	0.062	0.022
-602.113	-87.865	0.300	0.090
-601.098	-67.745	0.296	-0.116
-600.084	-200.000	0.013	0.204
-599.069	-200.000	-0.050	-0.249
-598.055	-200.000	-0.004	-0.170
-597.040	-200.000	0.043	0.225
-596.025	-11.895	0.041	-0.027
-595.011	-82.623	-0.270	-0.087
-593.996	800.000	0.077	-0.261
-592.982	-64.891	0.119	0.048
-591.967	-109.993	-0.144	0.030
-590.952	-7.561	0.206	-0.139
-589.938	77.905	-0.157	-0.167
-588.923	130.334	0.306	-0.392
-587.909	50.020	0.227	0.214
-586.894	-26.994	-0.146	0.085
-585.879	16.577	0.066	-0.052
-584.865	800.000	0.078	0.245
-583.850	-200.000	0.027	0.196
-582.836	-52.238	-0.143	0.066
-581.821	136.494	-0.083	-0.109
-580.806	93.854	-0.151	-0.171
-579.792	-106.795	0.160	0.035
-578.777	-200.000	-0.005	-0.249
-577.763	-17.180	-0.400	0.251
-576.748	-200.000	-0.036	0.197
-575.733	-8.447	0.118	-0.079
-574.719	-3.347	-0.332	-0.230
-573.704	82.077	-0.239	-0.258
-572.690	800.000	-0.081	-0.242
-571.675	-82.884	-0.235	-0.076
-570.661	-200.000	-0.010	-0.206
-569.646	342.211	0.080	-0.157
-568.631	21.237	0.172	0.139
-567.617	41.690	-0.075	-0.068
-566.602	800.000	-0.075	0.282
-565.588	-95.489	-0.120	-0.032
-564.573	40.159	0.096	-0.086
-563.558	-200.000	-0.011	0.062
-562.544	729.254	-0.024	-0.063
-561.529	655.813	0.117	0.300
-560.515	64.853	0.139	-0.140
-559.500	-200.000	0.051	-0.268
-558.485	409.405	-0.104	0.220
-557.471	-200.000	0.018	0.107
-556.456	13.009	0.151	0.116
-555.442	-97.911	-0.355	0.091
-554.427	-156.332	-0.385	0.024
-553.412	-113.229	-0.075	0.015
-552.398	94.291	0.217	0.246
-551.383	670.583	-0.032	-0.082
-550.369	-200.000	-0.024	0.316
-549.354	3.978	-0.162	0.118
-548.339	800.000	0.026	0.077
-547.325	10.021	0.215	0.163
-546.310	-37.423	0.066	-0.035
-545.296	-25.499	-0.337	-0.198
-544.281	800.000	-0.105	-0.437
-543.266	-200.000	0.057	-0.279
-542.252	128.228	0.191	-0.243
-541.237	-193.134	-0.246	0.002
-540.223	320.633	0.159	0.302
-539.208	198.096	-0.171	0.261
-538.193	-48.637	-0.220	0.105
-537.179	-200.000	-0.016	0.167
-536.164	-24.305	0.210	0.125
-535.150	-138.272	-0.109	0.012
-534.135	-121.842	-0.184	0.030
-533.121	-127.599	-0.352	-0.051
-532.106	800.000	0.088	-0.297
-531.091	-120.697	-0.224	-0.038
-530.077	109.713	0.036	0.043
-529.062	-47.109	0.364	-0.177
-528.048	-102.621	-0.322	-0.076
-527.033	-51.391	-0.074	-0.034
-526.018	-38.333	0.133	0.070
-525.004	800.000	0.096	0.267
-523.989	-85.284	-0.058	-0.018
-522.975	-200.000	-0.048	-0.267
-521.960	-55.218	0.243	-0.109
-520.945	-200.000	0.019	-0.146
-519.931	-5.963	-0.359	-0.245
-518.916	-109.857	-0.271	-0.057
-517.902	-19.835	0.058	-0.036
-516.887	83.043	-0.098	-0.106
-515.872	-200.000	0.008	0.154
-514.858	91.523	0.178	0.199
-513.843	288.874	0.155	0.280
-512.829	-200.000	0.008	0.073
-511.814	-100.183	-0.216	-0.053
-510.799	-200.000	-0.018	0.315
-509.785	-146.841	-0.285	-0.024
-508.770	-114.484	0.031	-0.006
-507.756	533.543	0.059	0.140
-506.741	6.449	0.112	0.083
-505.726	30.352	-0.336	-0.286
-504.712	-6.928	0.184	0.124
-503.697	33.847	0.464	0.402
-502.683	277.199	0.109	-0.193
-501.668	80.265	0.048	-0.052
-500.653	-113.424	0.070	0.014
-499.639	32.182	-0.135	0.116
-498.624	-21.449	0.278	0.169
-497.610	114.862	0.138	0.167
-496.595	304.436	0.097	0.180
-495.581	4.993	-0.299	0.219
-494.566	-164.352	0.226	-0.010
-493.551	-137.049	0.453	0.051
-492.537	251.490	-0.023	0.039
-491.522	-200.000	0.045	0.245
-490.508	-83.067	-0.285	-0.091
-489.493	121.947	0.178	-0.221
-488.478	-104.036	-0.102	0.024
-487.464	212.280	0.066	0.103
-486.449	223.737	0.010	0.015
-485.435	-200.000	-0.003	0.013
-484.420	800.000	-0.054	0.180
-483.405	-35.007	-0.205	0.111
-482.391	-55.208	-0.147	-0.066
-481.376	-130.287	-0.134	0.018
-480.362	-27.765	0.145	0.084
-479.347	239.726	0.143	-0.237
-478.332	423.356	0.034	-0.074
-477.318	737.780	-0.026	-0.068
-476.303	-120.480	-0.214	-0.036
-475.289	339.310	-0.040	-0.078
-474.274	-77.963	-0.092	-0.031
-473.259	-56.307	0.287	-0.127
-472.245	90.034	0.046	-0.051
-471.230	16.506	-0.081	0.064
-470.216	435.210	-0.071	0.153
-469.201	-200.000	-0.011	0.186
-468.186	18.089	-0.156	0.124
-467.172	-49.798	-0.122	0.058
-466.157	-54.808	-0.371	0.166
-465.143	4.418	-0.301	-0.219
-464.128	-37.803	-0.221	0.117
-463.113	328.480	-0.125	0.239
-462.099	800.000	0.029	-0.091
-461.084	-200.000	0.028	0.148
-460.070	-81.345	-0.124	-0.040
-459.055	-56.277	-0.449	0.198
-458.040	10.338	-0.383	0.289
-457.026	124.461	0.174	-0.218
-456.011	-89.998	-0.133	0.038
-454.997	-200.000	0.017	0.423
-453.982	12.049	0.199	0.152
-452.968	417.604	0.175	0.372
-451.953	-89.474	0.061	-0.018
-450.938	-14.814	0.136	-0.086
-449.924	-200.000	-0.004	-0.139
-448.909	-85.371	0.137	0.042
-447.895	800.000	0.078	0.268
-446.880	-185.671	0.185	0.003
-445.865	-63.022	-0.217	-0.089
-444.851	686.109	-0.072	0.187
-443.836	-35.578	-0.239	-0.129
-442.822	-200.000	0.034	0.173
-441.807	-71.362	0.073	0.027
-440.792	89.353	0.115	0.127
-439.778	-142.979	-0.021	0.002
-438.763	-86.724	0.375	-0.114
-437.749	27.458	0.248	0.207
-436.734	345.445	0.168	0.326
-435.719	-59.972	0.305	-0.129
-434.705	211.870	-0.060	-0.094
-433.690	79.730	0.035	-0.037
-432.676	303.944	-0.042	0.077
-431.661	-87.226	0.111	-0.033
-430.646	-123.857	0.369	-0.058
-429.632	800.000	-0.119	0.419
-428.617	238.346	-0.069	0.113
-427.603	168.048	-0.177	0.250
-426.588	800.000	-0.050	0.216
-425.573	22.474	0.074	0.060
-424.559	267.219	-0.070	0.121
-423.544	-200.000	0.014	-0.066
-422.530	-69.265	-0.072	-0.027
-421.515	-158.261	0.202	0.012
-420.500	-20.972	0.179	0.108
-419.486	800.000	-0.039	-0.171
-418.471	77.588	0.120	-0.127
-417.457	29.349	-0.069	0.058
-416.442	-117.690	0.205	0.037
-415.428	-94.217	-0.158	0.043
-414.413	-121.641	0.243	-0.040
-413.398	-64.809	-0.261	-0.105
-412.384	245.678	-0.115	0.192
-411.369	-200.000	0.007	0.173
-410.355	261.664	0.170	-0.293
-409.340	-200.000	0.012	-0.122
-408.325	1.587	0.221	-0.158
-407.311	89.838	0.111	-0.122
-406.296	-194.511	0.237	0.002
-405.282	-200.000	-0.025	-0.204
-404.267	164.464	-0.132	0.184
-403.252	-84.016	0.115	-0.036
-402.238	321.972	0.100	-0.188
-401.223	669.882	-0.069	0.177
-400.209	328.328	0.018	-0.034
-399.194	-200.000	0.041	-0.208
-398.179	5.392	-0.300	0.219
-397.165	-165.146	0.280	0.012
-396.150	-115.491	0.330	-0.062
-395.136	-124.157	0.507	-0.079
-394.121	-95.608	-0.264	-0.070
-393.106	-171.815	-0.180	-0.006
-392.092	800.000	0.107	-0.356
-391.077	-11.052	-0.290	-0.190
-390.063	-134.630	-0.252	0.030
-389.048	-102.091	0.228	0.054
-388.033	-94.634	-0.026	-0.007
-387.019	800.000	0.040	0.162
-386.004	14.447	-0.193	-0.149
-384.990	289.087	0.118	-0.211
-383.975	-94.167	-0.288	-0.078
-382.960	-101.118	0.149	0.036
-381.946	-53.485	0.152	-0.069
-380.931	800.000	-0.091	-0.265
-379.917	-81.805	0.207	0.067
-378.902	179.702	-0.049	-0.072
-377.888	-200.000	-0.040	0.407
-376.873	800.000	-0.038	0.132
-375.858	-20.721	0.200	0.121
-374.844	-46.960	-0.289	-0.140
-373.829	157.687	0.100	0.137
-372.815	493.733	-0.175	-0.397
-371.800	629.222	-0.079	-0.198
-370.785	40.548	-0.232	-0.207
-369.771	48.495	-0.252	-0.233
-368.756	276.917	-0.047	-0.083
-367.742	240.914	-0.052	0.085
-366.727	-200.000	-0.075	-0.338
-365.712	146.473	-0.285	-0.379
-364.698	33.076	0.198	0.170
-363.683	-200.000	0.017	-0.154
-362.669	-200.000	-0.268	-0.000
-361.654	-8.563	0.426	-0.283
-360.639	357.779	0.060	-0.119
-359.625	16.334	0.163	-0.127
-358.610	55.930	-0.268	0.257
-357.596	-200.000	-0.091	-0.415
-356.581	-115.481	0.388	-0.072
-355.566	800.000	0.035	0.142
-354.552	-116.181	0.167	-0.031
-353.537	-139.163	-0.250	0.027
-352.523	-104.376	-0.373	-0.085
-351.508	-112.385	-0.438	0.087
-350.493	800.000	-0.021	-0.064
-349.479	276.914	0.075	0.131
-348.464	53.415	0.240	0.228
-347.450	-96.821	-0.038	0.010
-346.435	800.000	0.047	-0.140
-345.420	331.900	-0.101	0.193
-344.406	310.000	0.114	0.210
-343.391	144.446	0.235	-0.311
-342.377	110.412	0.220	-0.262
-341.362	33.021	-0.319	0.274
-340.348	-96.129	0.127	0.033
-339.333	143.157	-0.029	0.038
-338.318	147.712	0.124	-0.165
-337.304	34.613	0.300	0.259
-336.289	-72.089	-0.171	0.063
-335.275	-200.000	0.012	0.251
-334.260	82.521	-0.060	0.065
-333.245	-47.107	-0.219	0.106
-332.231	128.187	-0.058	-0.073
-331.216	-56.127	0.336	0.148
-330.202	800.000	0.052	-0.155
-329.187	229.377	0.246	-0.396
-328.172	184.333	-0.216	-0.316
-327.158	-171.534	0.089	0.003
-326.143	-68.423	-0.349	-0.134
-325.129	3.036	0.299	-0.214
-324.114	59.707	0.156	-0.152
-323.099	35.603	-0.121	0.105
-322.085	-13.635	0.198	0.127
-321.070	-16.334	0.276	-0.173
-320.056	63.001	0.110	0.109
-319.041	-66.856	0.230	0.090
-318.026	800.000	0.134	-0.460
-317.012	-200.000	0.005	-0.195
-315.997	13.228	0.014	-0.010
-314.983	-200.000	-0.025	-0.182
-313.968	10.245	0.099	0.074
-312.953	-81.242	0.169	-0.055
-311.939	-42.279	-0.146	0.074
-310.924	-101.905	-0.227	0.054
-309.910	-169.197	-0.222	0.008
-308.895	800.000	-0.057	-0.203
-307.880	-98.146	0.111	-0.028
-306.866	69.869	0.116	0.118
-305.851	78.322	-0.137	0.144
-304.837	-25.859	-0.214	-0.124
-303.822	-200.000	0.004	0.242
-302.807	-130.168	-0.138	0.019
-301.793	-141.916	0.316	0.031
-300.778	-200.000	-0.067	-0.382
-299.764	157.655	-0.108	-0.147
-298.749	623.440	-0.016	-0.041
-297.735	241.201	0.242	-0.399
-296.720	-197.976	0.268	0.002
-295.705	505.466	0.151	-0.345
-294.691	57.312	-0.265	-0.255
-293.676	800.000	0.088	0.251
-292.662	-163.910	0.099	0.005
-291.647	-119.826	-0.122	0.021
-290.632	-110.053	0.197	0.041
-289.618	194.350	0.204	-0.305
-288.603	-200.000	0.037	-0.284
-287.589	567.976	0.058	0.139
-286.574	636.344	-0.087	-0.217
-285.559	800.000	-0.138	-0.411
-284.545	-200.000	-0.002	-0.073
-283.530	218.041	-0.026	0.040
-282.516	139.249	0.170	0.221
-281.501	104.433	-0.163	0.189
-280.486	-200.000	0.058	0.512
-279.472	238.694	-0.053	-0.087
-278.457	128.551	0.140	-0.176
-277.443	-70.188	-0.166	0.062
-276.428	-200.000	0.026	0.248
-275.413	242.904	-0.048	-0.080
-274.399	43.521	-0.265	0.239
-273.384	-200.000	-0.039	-0.232
-272.370	800.000	0.151	0.422
-271.355	-200.000	-0.034	0.216
-270.340	62.171	-0.150	-0.148
-269.326	-99.957	-0.220	0.054
-268.311	40.284	0.213	-0.188
-267.297	800.000	0.104	0.329
-266.282	73.551	0.199	-0.205
-265.267	-200.000	0.044	0.322
-264.253	800.000	0.034	-0.121
-263.238	9.181	0.052	-0.038
-262.224	189.064	0.072	0.106
-261.209	-12.535	0.101	0.065
-260.195	-40.139	0.108	-0.055
-259.180	157.664	0.120	-0.164
-258.165	-87.404	-0.333	-0.099
-257.151	-200.000	0.042	0.258
-256.136	800.000	-0.072	0.234
-255.122	-200.000	0.005	-0.174
-254.107	-29.478	-0.257	-0.145
-253.092	196.865	-0.107	0.161
-252.078	-200.000	-0.048	-0.216
-251.063	800.000	0.065	-0.188
-250.049	-112.755	0.398	0.078
-249.034	-200.000	-0.023	-0.120
-248.019	-200.000	-0.046	-0.528
-247.005	-1.535	0.379	0.263
-245.990	-200.000	-0.005	0.079
-244.976	42.299	0.150	0.134
-243.961	-122.252	-0.234	0.038
-242.946	-104.305	0.295	0.067
-241.932	-200.000	0.097	-0.481
-240.917	-104.415	0.092	-0.021
-239.903	94.376	0.010	0.011
-238.888	302.577	-0.140	0.254
-237.873	490.284	-0.159	-0.358
-236.859	27.639	0.232	0.192
-235.844	33.014	-0.184	0.157
-234.830	42.609	0.152	0.136
-233.815	150.827	0.253	0.339
-232.800	15.118	-0.117	0.090
-231.786	-200.000	0.016	-0.147
-230.771	29.219	-0.066	0.055
-229.757	-29.695	-0.170	-0.096
-228.742	-53.477	0.349	0.157
-227.727	-1.909	-0.176	0.122
-226.713	-47.643	-0.167	0.080
-225.698	-24.358	-0.181	0.106
-224.684	-88.833	0.212	0.062
-223.669	-114.803	-0.054	-0.010
-222.655	256.530	-0.094	0.159
-221.640	40.891	0.065	0.058
-220.625	-3.364	-0.345	0.237
-219.611	16.098	-0.264	-0.205
-218.596	119.562	-0.184	0.224
-217.582	-60.372	-0.513	0.215
-216.567	3.798	0.083	0.060
-215.552	298.448	-0.167	0.302
-214.538	-94.469	0.099	-0.027
-213.523	-21.063	-0.333	0.201
-212.509	51.244	0.153	-0.143
-211.494	-148.216	0.209	-0.017
-210.479	-54.683	-0.287	-0.128
-209.465	-73.598	0.265	0.095
-208.450	800.000	-0.036	0.136
-207.436	-105.477	0.124	-0.028
-206.421	102.321	-0.127	-0.146
-205.406	-200.000	0.211	0.000
-204.392	800.000	-0.077	-0.273
-203.377	-200.000	0.032	-0.178
-202.363	271.190	0.038	-0.066
-201.348	83.923	-0.224	-0.240
-200.333	143.132	-0.154	0.201
-199.319	-69.974	0.228	0.085
-198.304	122.338	0.212	-0.260
-197.290	-93.264	-0.136	0.037
-196.275	-21.024	0.234	-0.141
-195.260	-158.730	0.239	-0.013
-194.246	-115.478	0.160	0.030
-193.231	-80.632	0.113	-0.037
-192.217	34.276	0.090	0.077
-191.202	444.429	-0.048	0.104
-190.187	-200.000	0.003	0.044
-189.173	-78.755	0.341	0.114
-188.158	-9.685	0.110	-0.072
-187.144	-50.458	-0.217	0.101
-186.129	456.432	-0.104	0.227
-185.114	-24.193	-0.024	-0.014
-184.100	-12.238	0.063	-0.041
-183.085	4.912	0.179	0.129
-182.071	-178.744	-0.148	-0.003
-181.056	360.924	0.054	-0.107
-180.042	-200.000	-0.011	-0.293
-179.027	37.914	-0.212	-0.185
-178.012	-185.768	0.216	-0.003
-176.998	-175.743	0.037	0.001
-175.983	672.762	-0.074	0.189
-174.969	-79.372	0.119	-0.039
-173.954	-129.363	-0.315	0.043
-172.939	8.935	0.050	0.037
-171.925	103.687	-0.189	0.218
-170.910	685.937	-0.018	0.045
-169.896	19.599	0.229	-0.181
-168.881	-200.000	0.005	0.095
-167.866	-200.000	0.006	-0.031
-166.852	96.151	0.127	0.142
-165.837	163.661	-0.191	0.264
-164.823	185.713	-0.056	-0.082
-163.808	128.582	0.111	-0.138
-162.793	-90.501	0.226	0.064
-161.779	14.562	0.119	0.091
-160.764	122.713	-0.262	-0.321
-159.750	92.116	-0.230	0.254
-158.735	138.658	0.172	0.222
-157.720	-200.000	0.055	0.316
-156.706	-81.596	-0.139	0.045
-155.691	-35.048	0.133	-0.071
-154.677	-112.601	-0.167	0.033
-153.662	-107.537	0.139	0.030
-152.647	-59.067	-0.577	0.244
-151.633	-75.583	0.064	-0.022
-150.618	-124.402	-0.353	0.054
-149.604	-107.659	-0.270	0.058
-148.589	-200.000	0.001	0.029
-147.574	-96.723	0.397	-0.103
-146.560	99.632	-0.196	0.222
-145.545	800.000	0.108	0.358
-144.531	-52.290	-0.237	-0.108
-143.516	-54.077	0.324	-0.145
-142.502	27.395	0.079	0.065
-141.487	-200.000	0.066	0.309
-140.472	-99.459	-0.305	0.075
-139.458	-49.856	0.211	0.098
-138.443	-200.000	-0.044	-0.352
-137.429	800.000	0.085	0.299
-136.414	800.000	0.067	0.277
-135.399	404.204	-0.083	-0.172
-134.385	238.265	0.053	-0.087
-133.370	46.200	0.072	0.065
-132.356	71.825	0.083	-0.085
-131.341	-146.162	-0.184	0.016
-130.326	528.185	0.117	-0.271
-129.312	57.051	-0.330	-0.316
-128.297	77.012	0.105	0.109
-127.283	-200.000	-0.067	0.361
-126.268	800.000	-0.027	0.077
-125.253	-57.513	-0.183	-0.079
-124.239	-200.000	-0.030	-0.327
-123.224	-25.869	-0.225	0.130
-122.210	-200.000	-0.043	-0.359
-121.195	-170.152	0.207	-0.007
-120.180	63.719	-0.092	0.090
