DTS Sentinel unit serial number:	SN413079Multiplexer serial number:	ORYXHardware model number:	OX4-SRSoftware version number:	ORYX F/W v4.00 Oryx Data Collector v3.7.2.0data status	okinstallation	princeton_trtdifferential loss correction	single-endedforward channel	channel 1reverse channel	N/Adate	2019/09/17time	14:30:35forward acquisition time	60.00reverse acquisition time	0.00gamma	496.2192k internal	0.2298k external	0.2298temperature offset calibration	0.9968default loss term (dB/km)	0.3790temperature slope calibration	1.0000multiplexer offset coefficient	1.0000multiplexer slope coefficient	1.0000fibre end	0.00T internal ref (°C)	36.44T ext. ref 1 (°C)	0.40T ext. ref 2 (°C)	33.55length (m)	temperature (°C)	Stokes	anti-Stokes-747.200	-98.120	-0.410	0.108
-746.185	-91.069	-0.113	0.033
-745.171	64.633	0.168	0.173
-744.156	15.975	-0.180	0.145
-743.142	800.000	0.035	-0.103
-742.127	-96.650	-0.164	0.044
-741.112	-113.068	0.199	0.040
-740.098	-100.646	-0.147	-0.037
-739.083	800.000	-0.070	0.238
-738.069	-12.959	0.144	0.096
-737.054	93.170	0.026	-0.030
-736.039	-48.457	-0.180	0.088
-735.025	800.000	-0.118	0.497
-734.010	-22.839	-0.046	-0.028
-732.996	27.660	0.200	0.171
-731.981	260.574	0.088	0.155
-730.966	-200.000	-0.001	0.296
-729.952	-153.992	-0.104	0.007
-728.937	-130.781	-0.195	0.027
-727.923	-200.000	-0.010	0.060
-726.908	36.844	0.245	-0.221
-725.894	800.000	-0.045	-0.176
-724.879	800.000	0.115	0.424
-723.864	0.068	-0.146	0.106
-722.850	143.005	0.151	-0.205
-721.835	-200.000	-0.030	-0.225
-720.821	360.766	0.096	0.197
-719.806	89.740	0.047	-0.053
-718.791	83.216	-0.094	0.104
-717.777	-149.852	0.253	0.020
-716.762	92.792	-0.297	0.342
-715.748	-108.060	0.488	0.108
-714.733	-200.000	-0.005	0.372
-713.718	343.862	-0.038	-0.075
-712.704	-150.309	0.165	0.013
-711.689	-27.868	-0.175	0.103
-710.675	-158.852	0.438	-0.025
-709.660	418.428	0.141	-0.308
-708.645	-108.655	0.086	-0.019
-707.631	15.987	-0.207	-0.166
-706.616	-200.000	0.022	0.195
-705.602	216.589	0.200	-0.324
-704.587	-5.612	0.048	-0.033
-703.572	147.537	-0.080	0.109
-702.558	-165.991	-0.147	0.006
-701.543	-18.251	-0.280	0.178
-700.529	-29.574	-0.095	0.055
-699.514	-200.000	-0.011	-0.251
-698.499	-83.224	-0.279	0.091
-697.485	800.000	-0.124	-0.541
-696.470	-93.339	-0.463	-0.131
-695.456	800.000	-0.195	-0.669
-694.441	-67.131	-0.057	-0.023
-693.426	93.573	-0.196	0.226
-692.412	2.033	0.118	-0.087
-691.397	-2.708	-0.169	-0.120
-690.383	-142.082	-0.086	-0.009
-689.368	800.000	0.043	-0.176
-688.354	248.589	-0.073	-0.126
-687.339	-60.692	-0.223	-0.096
-686.324	-18.152	-0.134	-0.085
-685.310	73.028	0.163	-0.173
-684.295	-200.000	0.007	-0.094
-683.281	321.534	-0.105	-0.204
-682.266	-103.924	0.248	0.059
-681.251	341.717	-0.138	-0.275
-680.237	-78.768	0.251	-0.087
-679.222	-32.342	-0.142	0.081
-678.208	-26.507	-0.095	-0.057
-677.193	-200.000	-0.024	0.174
-676.178	-200.000	-0.061	-0.427
-675.164	-161.717	-0.077	0.004
-674.149	27.455	0.439	0.376
-673.135	-2.805	0.109	-0.078
-672.120	-103.171	0.215	-0.052
-671.105	26.668	0.159	-0.136
-670.091	179.996	0.108	0.162
-669.076	-140.580	-0.101	-0.011
-668.062	96.349	-0.102	0.118
-667.047	800.000	0.005	0.018
-666.032	284.486	0.043	-0.078
-665.018	-51.282	0.234	-0.111
-664.003	-118.120	0.197	-0.036
-662.989	-200.000	0.045	-0.292
-661.974	105.841	-0.112	-0.134
-660.959	-175.342	0.164	0.005
-659.945	126.757	-0.139	-0.179
-658.930	800.000	0.063	-0.245
-657.916	-200.000	0.008	0.047
-656.901	61.830	-0.213	-0.216
-655.886	58.412	0.146	-0.146
-654.872	-71.716	-0.392	-0.149
-653.857	-88.918	0.417	0.126
-652.843	-200.000	-0.047	-0.215
-651.828	770.253	-0.069	0.190
-650.814	-200.000	0.002	0.084
-649.799	-39.187	0.303	0.162
-648.784	-200.000	-0.046	0.219
-647.770	-19.843	-0.301	-0.189
-646.755	19.793	-0.294	-0.241
-645.741	683.939	-0.183	-0.485
-644.726	-200.000	-0.029	-0.515
-643.711	-54.866	-0.060	0.027
-642.697	-12.699	-0.225	0.149
-641.682	140.825	-0.192	0.257
-640.668	-200.000	0.042	-0.199
-639.653	-130.946	-0.302	0.041
-638.638	-60.882	0.115	-0.049
-637.624	538.159	-0.077	0.187
-636.609	24.320	0.224	0.189
-635.595	141.180	0.074	0.099
-634.580	-118.377	-0.085	0.015
-633.565	85.001	0.185	0.206
-632.551	56.746	0.178	-0.176
-631.536	800.000	0.032	0.095
-630.522	-12.562	0.186	-0.124
-629.507	-200.000	0.172	-0.000
-628.492	-200.000	0.023	-0.121
-627.478	181.107	0.171	0.255
-626.463	-200.000	-0.076	-0.388
-625.449	-132.621	-0.429	-0.056
-624.434	-200.000	-0.029	-0.133
-623.419	-77.974	0.177	-0.062
-622.405	800.000	0.126	0.509
-621.390	-200.000	-0.045	0.237
-620.376	-126.731	0.287	0.043
-619.361	-119.090	-0.050	-0.009
-618.346	-93.672	-0.237	0.066
-617.332	-35.101	0.043	0.024
-616.317	800.000	0.049	-0.155
-615.303	239.931	-0.087	-0.148
-614.288	-200.000	-0.011	-0.134
-613.273	9.158	-0.425	0.326
-612.259	-127.061	-0.308	0.046
-611.244	-74.541	-0.173	-0.063
-610.230	-55.979	0.401	-0.182
-609.215	-140.977	0.231	0.024
-608.201	188.599	-0.158	-0.241
-607.186	-200.000	0.082	0.406
-606.171	39.861	0.182	0.166
-605.157	140.996	-0.073	-0.097
-604.142	115.107	0.291	-0.361
-603.128	-110.941	0.137	0.029
-602.113	305.477	0.202	-0.382
-601.098	419.417	0.116	-0.253
-600.084	3.649	-0.126	-0.094
-599.069	-103.670	0.179	0.043
-598.055	-163.015	-0.241	0.012
-597.040	-142.555	0.119	-0.012
-596.025	-42.936	0.279	0.144
-595.011	-65.413	-0.324	0.132
-593.996	94.900	-0.104	-0.120
-592.982	-200.000	-0.009	-0.192
-591.967	-149.974	0.128	-0.010
-590.952	800.000	0.031	0.117
-589.938	-40.105	-0.070	0.037
-588.923	436.578	0.224	0.495
-587.909	-11.216	0.014	-0.009
-586.894	-93.118	-0.146	-0.041
-585.879	-38.283	-0.153	-0.082
-584.865	201.592	0.098	0.154
-583.850	216.673	-0.247	0.399
-582.836	-82.414	-0.200	0.066
-581.821	-16.592	-0.377	0.243
-580.806	-80.100	0.066	0.023
-579.792	52.176	0.335	-0.324
-578.777	28.775	-0.132	0.113
-577.763	-87.811	0.165	0.050
-576.748	-11.776	0.210	-0.140
-575.733	-84.181	0.064	-0.021
-574.719	-133.923	-0.188	-0.024
-573.704	27.095	-0.095	0.080
-572.690	58.467	0.104	0.103
-571.675	211.706	-0.072	-0.115
-570.661	36.815	-0.264	-0.237
-569.646	-83.663	-0.127	-0.041
-568.631	325.942	0.143	0.277
-567.617	-49.312	0.187	-0.091
-566.602	800.000	0.091	-0.287
-565.588	800.000	-0.026	0.093
-564.573	142.773	0.127	-0.171
-563.558	-200.000	-0.004	-0.043
-562.544	-51.382	0.101	0.048
-561.529	-166.222	-0.554	0.024
-560.515	-200.000	-0.030	-0.150
-559.500	136.546	-0.006	-0.008
-558.485	-100.862	0.227	-0.057
-557.471	2.997	-0.309	-0.228
-556.456	-99.406	0.113	0.029
-555.442	37.379	-0.102	0.092
-554.427	-200.000	0.013	-0.104
-553.412	-80.965	0.119	-0.040
-552.398	52.031	-0.200	-0.193
-551.383	335.454	-0.047	-0.092
-550.369	218.261	-0.079	0.128
-549.354	8.935	0.085	0.065
-548.339	-13.310	-0.041	-0.027
-547.325	125.004	0.129	0.165
-546.310	67.678	0.159	0.164
-545.296	376.596	-0.045	0.093
-544.281	113.988	0.087	0.107
-543.266	-200.000	0.054	-0.267
-542.252	800.000	0.007	0.025
-541.237	44.526	0.442	-0.412
-540.223	-44.685	-0.193	0.098
-539.208	199.168	-0.129	0.201
-538.193	-10.875	0.373	0.249
-537.179	-98.280	-0.101	-0.026
-536.164	-161.348	-0.328	-0.017
-535.150	257.788	0.251	0.437
-534.135	8.049	0.110	0.083
-533.121	-155.188	-0.092	0.006
-532.106	-200.000	0.036	-0.160
-531.091	281.589	-0.116	0.210
-530.077	-200.000	-0.006	0.238
-529.062	256.134	-0.210	-0.364
-528.048	-128.318	-0.435	-0.063
-527.033	56.098	0.108	0.106
-526.018	-200.000	-0.010	-0.047
-525.004	-77.634	-0.166	-0.058
-523.989	-200.000	0.024	0.368
-522.975	-139.676	0.343	-0.037
-521.960	10.668	-0.133	-0.103
-520.945	-58.453	0.157	0.069
-519.931	170.233	-0.073	-0.105
-518.916	-20.693	0.243	-0.151
-517.902	800.000	0.073	-0.221
-516.887	800.000	-0.107	-0.344
-515.872	-99.249	0.428	-0.109
-514.858	-148.192	-0.289	0.024
-513.843	236.322	0.106	0.177
-512.829	159.356	-0.164	-0.231
-511.814	-181.710	-0.017	0.000
-510.799	59.015	-0.117	0.116
-509.785	204.827	-0.129	-0.203
-508.770	-137.231	0.468	0.054
-507.756	112.219	-0.141	0.172
-506.741	-70.456	-0.152	0.058
-505.726	-174.081	0.485	-0.014
-504.712	-200.000	-0.016	-0.163
-503.697	-200.000	-0.003	0.164
-502.683	-34.652	-0.164	0.091
-501.668	124.508	0.152	0.194
-500.653	-110.698	-0.236	0.049
-499.639	-200.000	0.001	0.046
-498.624	-1.431	0.244	-0.174
-497.610	-111.085	-0.220	-0.046
-496.595	-200.000	-0.008	-0.174
-495.581	206.226	0.069	0.109
-494.566	800.000	0.030	-0.115
-493.551	-46.456	0.081	-0.040
-492.537	800.000	-0.060	-0.216
-491.522	117.678	0.107	0.133
-490.508	-200.000	-0.018	-0.090
-489.493	-51.680	-0.349	-0.164
-488.478	-174.322	-0.183	-0.005
-487.464	-106.602	-0.098	0.022
-486.449	242.523	0.219	0.370
-485.435	-200.000	-0.000	0.322
-484.420	-66.799	-0.149	-0.060
-483.405	800.000	0.072	-0.205
-482.391	-17.483	-0.039	0.025
-481.376	102.713	0.232	-0.274
-480.362	50.302	-0.118	0.112
-479.347	-200.000	0.005	-0.263
-478.332	800.000	-0.095	-0.278
-477.318	-200.000	0.005	-0.299
-476.303	12.919	0.120	0.094
-475.289	-200.000	-0.006	-0.089
-474.274	-18.359	-0.209	-0.132
-473.259	194.404	-0.130	-0.199
-472.245	497.758	-0.043	0.099
-471.230	-32.415	-0.094	0.053
-470.216	-200.000	0.008	-0.340
-469.201	284.582	0.008	0.015
-468.186	-59.513	-0.087	0.038
-467.172	-200.000	0.019	-0.102
-466.157	-48.219	0.201	-0.098
-465.143	161.459	0.116	-0.164
-464.128	-66.304	0.028	0.011
-463.113	-143.273	-0.105	-0.010
-462.099	-136.311	-0.524	0.062
-461.084	626.844	0.008	0.021
-460.070	-148.460	-0.255	0.021
-459.055	800.000	-0.008	0.029
-458.040	153.533	-0.136	-0.188
-457.026	-54.203	0.097	-0.045
-456.011	-200.000	-0.057	0.310
-454.997	-200.000	-0.015	-0.080
-453.982	159.098	-0.184	-0.258
-452.968	741.047	-0.080	0.218
-451.953	-81.390	0.133	-0.044
-450.938	72.596	-0.147	-0.155
-449.924	-106.557	-0.283	0.064
-448.909	211.050	-0.044	0.071
-447.895	-114.722	-0.445	-0.086
-446.880	499.530	0.100	-0.233
-445.865	-110.630	0.055	0.011
-444.851	133.762	-0.153	-0.200
-443.836	-139.940	0.408	0.043
-442.822	-144.499	-0.071	-0.007
-441.807	33.682	0.205	-0.180
-440.792	800.000	0.078	-0.217
-439.778	120.812	-0.060	0.076
-438.763	-200.000	0.062	-0.525
-437.749	-5.649	-0.082	0.057
-436.734	337.893	-0.111	-0.217
-435.719	70.717	0.160	0.167
-434.705	-80.237	0.095	0.032
-433.690	-200.000	-0.002	0.180
-432.676	72.799	0.048	-0.051
-431.661	-131.113	0.298	0.040
-430.646	-200.000	-0.017	-0.108
-429.632	-173.475	0.118	-0.004
-428.617	10.085	-0.171	0.131
-427.603	-59.997	-0.108	0.047
-426.588	-200.000	-0.004	-0.345
-425.573	-97.572	-0.012	0.003
-424.559	7.881	-0.114	-0.086
-423.544	20.940	0.169	0.138
-422.530	9.113	0.269	0.205
-421.515	-70.881	0.067	0.026
-420.500	-101.057	0.251	-0.062
-419.486	200.346	-0.218	0.338
-418.471	131.557	0.090	-0.117
-417.457	-71.933	-0.238	-0.089
-416.442	-134.350	-0.245	0.030
-415.428	-20.378	-0.105	-0.065
-414.413	-176.444	-0.115	0.003
-413.398	-200.000	0.002	0.088
-412.384	-51.401	-0.103	0.049
-411.369	-133.990	-0.326	0.041
-410.355	-44.668	0.340	-0.171
-409.340	-200.000	0.020	-0.114
-408.325	-68.872	-0.235	0.092
-407.311	234.235	-0.123	0.204
-406.296	370.346	-0.090	0.183
-405.282	-24.545	-0.089	-0.053
-404.267	91.620	-0.154	0.175
-403.252	-78.475	-0.283	0.098
-402.238	-185.229	0.031	0.000
-401.223	-2.239	0.157	0.111
-400.209	-200.000	0.023	0.139
-399.194	339.505	0.125	-0.246
-398.179	3.635	0.149	0.110
-397.165	-73.208	0.159	0.059
-396.150	-200.000	0.036	0.261
-395.136	110.094	0.251	0.304
-394.121	-49.162	-0.221	0.106
-393.106	-42.788	0.167	-0.086
-392.092	-91.500	-0.223	0.064
-391.077	-51.630	0.298	0.140
-390.063	-200.000	-0.005	-0.365
-389.048	69.878	0.052	0.054
-388.033	545.914	-0.073	0.177
-387.019	-26.937	0.024	-0.014
-386.004	314.099	0.161	0.305
-384.990	39.913	0.211	-0.191
-383.975	514.897	-0.028	-0.065
-382.960	160.873	0.117	-0.164
-381.946	-110.770	0.304	-0.063
-380.931	-115.814	-0.112	0.021
-379.917	-15.590	0.172	0.110
-378.902	-101.245	0.118	-0.029
-377.888	25.807	0.087	-0.073
-376.873	14.221	0.271	-0.213
-375.858	-92.817	-0.195	0.055
-374.844	-200.000	-0.000	0.177
-373.829	317.134	0.093	-0.178
-372.815	-132.444	-0.086	0.011
-371.800	40.856	0.287	-0.260
-370.785	800.000	-0.016	0.068
-369.771	-21.424	0.136	0.083
-368.756	-200.000	-0.014	0.378
-367.742	-14.018	-0.236	-0.153
-366.727	-194.037	-0.287	-0.002
-365.712	-200.000	-0.008	0.163
-364.698	249.921	0.035	0.060
-363.683	-96.998	-0.105	0.028
-362.669	-72.739	0.168	0.062
-361.654	-47.359	0.156	0.076
-360.639	-117.585	-0.226	0.041
-359.625	290.299	-0.041	-0.075
-358.610	-3.334	0.102	-0.071
-357.596	-200.000	0.026	-0.129
-356.581	239.462	0.160	0.267
-355.566	217.590	-0.154	0.247
-354.552	203.597	0.028	-0.044
-353.537	-200.000	-0.007	0.217
-352.523	81.649	0.058	0.063
-351.508	-200.000	-0.013	0.078
-350.493	-111.023	0.334	-0.069
-349.479	193.305	-0.026	0.039
-348.464	-0.948	-0.206	0.147
-347.450	-125.686	-0.179	0.027
-346.435	61.780	-0.195	-0.195
-345.420	174.921	0.078	0.114
-344.406	-200.000	-0.028	0.354
-343.391	83.414	0.133	-0.146
-342.377	-103.700	-0.200	0.047
-341.362	-200.000	-0.005	0.165
-340.348	-200.000	0.012	0.244
-339.333	-119.613	-0.070	-0.012
-338.318	-161.732	0.171	0.009
-337.304	-64.392	0.105	0.043
-336.289	289.391	-0.070	0.127
-335.275	53.851	0.396	0.382
-334.260	-53.527	-0.231	-0.106
-333.245	12.299	-0.244	0.189
-332.231	-1.335	0.208	0.147
-331.216	26.869	0.062	-0.052
-330.202	-55.958	-0.225	-0.101
-329.187	19.600	0.170	0.138
-328.172	-200.000	-0.007	-0.446
-327.158	-73.638	0.314	0.115
-326.143	139.775	0.188	0.248
-325.129	250.381	0.160	0.274
-324.114	-19.131	0.143	-0.089
-323.099	-72.765	-0.149	-0.055
-322.085	-9.709	0.219	-0.146
-321.070	202.314	-0.283	-0.438
-320.056	-200.000	0.099	0.445
-319.041	-146.905	0.317	0.027
-318.026	-200.000	0.004	-0.331
-317.012	-74.188	-0.206	-0.075
-315.997	-200.000	-0.026	-0.327
-314.983	183.370	-0.108	0.161
-313.968	398.625	0.045	0.096
-312.953	45.006	-0.220	-0.203
-311.939	472.344	0.042	0.095
-310.924	82.958	0.146	-0.159
-309.910	-61.820	0.112	0.047
-308.895	-175.747	0.172	0.005
-307.880	-200.000	-0.022	0.107
-306.866	-200.000	0.012	-0.215
-305.851	409.525	-0.118	-0.250
-304.837	458.139	0.153	-0.342
-303.822	240.227	0.070	-0.117
-302.807	-53.725	-0.156	0.072
-301.793	800.000	0.040	0.123
-300.778	56.012	0.087	0.084
-299.764	-20.883	-0.128	-0.079
-298.749	346.663	-0.157	-0.309
-297.735	-200.000	0.042	0.330
-296.720	800.000	0.029	-0.124
-295.705	-87.988	-0.210	-0.063
-294.691	-185.169	-0.240	0.004
-293.676	250.366	-0.168	0.286
-292.662	-138.623	-0.294	-0.032
-291.647	-83.732	-0.287	0.092
-290.632	152.552	0.077	0.106
-289.618	199.290	-0.127	0.195
-288.603	-155.531	-0.142	-0.009
-287.589	800.000	0.030	-0.112
-286.574	160.982	-0.369	-0.518
-285.559	10.316	-0.077	-0.059
-284.545	64.906	-0.104	0.106
-283.530	219.692	0.053	-0.085
-282.516	66.982	0.170	0.174
-281.501	-114.613	0.325	-0.063
-280.486	-7.095	0.074	0.050
-279.472	37.778	-0.105	0.094
-278.457	9.415	0.069	0.052
-277.443	-200.000	0.059	-0.449
-276.428	-200.000	-0.012	-0.174
-275.413	-200.000	0.038	-0.438
-274.399	800.000	-0.021	0.090
-273.384	-200.000	-0.009	-0.044
-272.370	1.248	-0.249	-0.180
-271.355	-200.000	-0.002	-0.159
-270.340	180.454	0.193	-0.284
-269.326	451.990	0.124	0.274
-268.311	70.977	-0.080	0.083
-267.297	-200.000	-0.044	-0.235
-266.282	137.120	0.142	0.185
-265.267	675.291	-0.074	0.192
-264.253	57.067	0.086	0.084
-263.238	-200.000	-0.002	0.017
-262.224	-200.000	-0.010	-0.176
-261.209	-52.286	-0.130	0.061
-260.195	177.345	-0.081	0.119
-259.180	-180.348	-0.134	0.003
-258.165	-47.495	-0.164	0.080
-257.151	-200.000	0.043	-0.209
-256.136	-200.000	0.004	-0.024
-255.122	-101.958	0.604	-0.146
-254.107	252.884	0.135	0.231
-253.092	702.003	-0.135	0.357
-252.078	701.353	0.107	-0.282
-251.063	-154.636	0.258	0.017
-250.049	20.308	0.148	-0.120
-249.034	163.154	0.175	-0.246
-248.019	30.828	-0.126	0.108
-247.005	145.006	0.202	0.271
-245.990	-200.000	-0.055	0.243
-244.976	-200.000	-0.017	0.159
-243.961	-200.000	-0.050	-0.318
-242.946	139.928	0.115	0.152
-241.932	22.534	0.096	0.079
-240.917	800.000	-0.149	0.423
-239.903	-200.000	0.005	0.067
-238.888	-6.658	0.123	-0.084
-237.873	21.371	-0.062	0.051
-236.859	800.000	0.054	-0.179
-235.844	295.544	0.040	0.073
-234.830	-200.000	0.061	0.460
-233.815	800.000	-0.094	0.382
-232.800	800.000	0.106	-0.346
-231.786	800.000	0.068	0.201
-230.771	800.000	-0.004	0.015
-229.757	-117.141	0.053	-0.010
-228.742	-113.435	-0.110	0.022
-227.727	800.000	-0.091	-0.361
-226.713	-166.141	-0.084	0.004
-225.698	586.609	-0.154	-0.378
-224.684	-200.000	0.015	-0.342
-223.669	-200.000	-0.027	-0.135
-222.655	47.725	0.173	0.162
-221.640	-37.097	-0.129	0.069
-220.625	-200.000	0.038	0.347
-219.611	68.319	0.135	0.139
-218.596	129.420	-0.147	0.187
-217.582	-73.645	0.231	-0.084
-216.567	-200.000	-0.171	-0.001
-215.552	435.681	-0.028	0.061
-214.538	123.852	0.343	-0.430
-213.523	-200.000	0.018	-0.186
-212.509	-58.208	0.503	0.219
-211.494	175.565	0.058	0.084
-210.479	-32.954	0.154	0.085
-209.465	-73.678	-0.204	-0.074
-208.450	-200.000	-0.025	-0.141
-207.436	13.090	-0.433	0.335
-206.421	-99.595	-0.130	-0.033
-205.406	-19.003	-0.268	-0.167
-204.392	216.615	-0.079	0.125
-203.377	14.384	0.249	0.194
-202.363	743.111	-0.043	0.116
-201.348	259.715	0.036	0.062
-200.333	-33.086	0.286	-0.158
-199.319	94.575	0.099	0.112
-198.304	146.721	-0.166	0.223
-197.290	-139.643	0.357	-0.038
-196.275	-73.213	-0.219	-0.080
-195.260	-200.000	0.045	-0.240
-194.246	252.861	0.184	-0.314
-193.231	-102.680	0.360	-0.086
-192.217	62.434	0.035	0.035
-191.202	-200.000	0.008	-0.240
-190.187	-149.396	-0.096	-0.008
-189.173	-127.024	0.121	0.018
-188.158	-151.583	0.187	0.014
-187.144	-200.000	0.065	-0.421
-186.129	625.774	-0.090	0.226
-185.114	11.452	-0.198	-0.152
-184.100	-200.000	0.042	-0.215
-183.085	70.559	-0.060	-0.062
-182.071	201.547	-0.154	-0.237
-181.056	8.044	-0.134	-0.101
-180.042	-72.424	-0.184	0.068
-179.027	800.000	0.103	0.450
-178.012	-52.894	-0.111	0.051
-176.998	800.000	0.031	0.110
-175.983	23.995	-0.161	0.133
-174.969	22.075	0.261	0.212
-173.954	514.395	0.131	0.304
-172.939	-86.926	-0.325	0.099
-171.925	19.475	-0.204	0.164
-170.910	56.471	0.134	0.130
-169.896	-66.587	-0.299	0.118
-168.881	35.069	0.133	0.116
-167.866	-200.000	0.037	-0.236
-166.852	185.414	-0.070	0.104
-165.837	800.000	-0.088	0.278
-164.823	42.702	-0.058	-0.053
-163.808	704.358	0.071	0.187
-162.793	362.651	-0.014	0.027
-161.779	160.347	-0.089	0.125
-160.764	-200.000	0.032	-0.173
-159.750	-79.005	-0.193	-0.065
-158.735	-85.480	0.160	-0.050
-157.720	313.045	0.088	0.165
-156.706	-200.000	0.010	0.067
-155.691	47.564	-0.023	0.021
-154.677	-200.000	0.019	0.109
-153.662	-34.080	0.374	0.205
-152.647	73.279	-0.069	-0.072
-151.633	122.226	-0.073	-0.091
-150.618	800.000	0.100	0.384
-149.604	112.464	-0.278	0.335
-148.589	120.698	0.098	-0.121
-147.574	-50.234	-0.041	-0.019
-146.560	-200.000	0.010	0.180
-145.545	-10.055	0.172	-0.114
-144.531	800.000	0.063	0.216
-143.516	20.904	0.249	0.201
-142.502	800.000	-0.052	-0.198
-141.487	-127.325	0.123	0.018
-140.472	-20.599	0.217	0.133
-139.458	362.658	0.087	0.175
-138.443	226.822	-0.178	0.289
-137.429	800.000	0.093	0.308
-136.414	-32.059	0.199	0.111
-135.399	-134.841	0.154	-0.019
-134.385	800.000	0.093	0.263
-133.370	-3.249	0.113	0.078
-132.356	-92.479	-0.294	0.082
-131.341	800.000	-0.020	-0.069
-130.326	0.931	0.091	-0.065
-129.312	800.000	0.079	-0.290
-128.297	269.352	0.157	0.275
-127.283	31.844	0.406	0.348
-126.268	-25.081	0.396	0.234
-125.253	-145.150	-0.057	0.005
-124.239	36.807	-0.145	-0.128
-123.224	99.259	-0.081	-0.093
-122.210	-59.666	-0.215	-0.092
-121.195	-93.784	-0.233	-0.064
-120.180	-4.697	0.181	0.125
