DTS Sentinel unit serial number:	SN413079Multiplexer serial number:	ORYXHardware model number:	OX4-SRSoftware version number:	ORYX F/W v4.00 Oryx Data Collector v3.7.2.0data status	okinstallation	princeton_trtdifferential loss correction	single-endedforward channel	channel 1reverse channel	N/Adate	2019/09/13time	04:38:35forward acquisition time	60.00reverse acquisition time	0.00gamma	496.2192k internal	0.2334k external	0.2334temperature offset calibration	1.0155default loss term (dB/km)	0.3790temperature slope calibration	1.0000multiplexer offset coefficient	1.0000multiplexer slope coefficient	1.0000fibre end	0.00T internal ref (°C)	26.64T ext. ref 1 (°C)	4.04T ext. ref 2 (°C)	21.19length (m)	temperature (°C)	Stokes	anti-Stokes-747.200	330.741	0.012	-0.024
-746.185	104.935	0.162	0.192
-745.171	-89.425	0.335	0.099
-744.156	25.459	-0.162	0.135
-743.142	690.714	0.128	-0.338
-742.127	-44.242	-0.113	0.057
-741.112	-32.890	-0.109	-0.061
-740.098	363.724	-0.168	0.339
-739.083	43.874	-0.198	-0.182
-738.069	613.664	0.118	0.296
-737.054	-84.275	-0.131	0.042
-736.039	-200.000	0.028	0.325
-735.025	-120.381	0.507	0.087
-734.010	373.531	-0.023	-0.047
-732.996	-112.436	0.333	-0.067
-731.981	284.774	-0.137	0.247
-730.966	-20.142	-0.150	-0.093
-729.952	800.000	-0.021	-0.077
-728.937	473.645	0.127	-0.288
-727.923	-52.778	0.032	0.015
-726.908	-79.251	-0.288	-0.098
-725.894	-25.062	-0.452	-0.269
-724.879	-200.000	-0.042	-0.240
-723.864	274.059	0.059	0.105
-722.850	800.000	0.059	0.228
-721.835	-200.000	-0.153	0.768
-720.821	-200.000	-0.054	0.298
-719.806	-136.508	-0.265	-0.031
-718.791	-73.863	-0.453	0.165
-717.777	5.446	0.241	-0.178
-716.762	71.131	-0.141	0.147
-715.748	-80.393	0.180	-0.060
-714.733	-97.227	-0.207	-0.054
-713.718	-95.819	-0.118	0.032
-712.704	-51.678	0.280	-0.131
-711.689	800.000	0.157	0.437
-710.675	-200.000	0.003	0.155
-709.660	-200.000	0.013	0.315
-708.645	800.000	0.095	0.348
-707.631	-200.000	0.018	-0.107
-706.616	641.782	-0.019	-0.049
-705.602	-200.000	-0.044	-0.335
-704.587	-86.331	-0.289	-0.089
-703.572	-6.089	0.133	0.091
-702.558	127.838	-0.152	0.194
-701.543	-200.000	-0.008	0.181
-700.529	618.373	-0.067	0.169
-699.514	-32.570	-0.099	-0.056
-698.499	-45.697	-0.106	0.053
-697.485	-200.000	0.013	-0.105
-696.470	-47.101	-0.258	-0.126
-695.456	411.109	-0.068	-0.144
-694.441	574.140	-0.012	-0.029
-693.426	-154.962	-0.013	-0.001
-692.412	231.642	0.090	0.148
-691.397	5.676	-0.087	0.064
-690.383	123.099	-0.253	-0.318
-689.368	-38.590	0.099	-0.053
-688.354	-65.322	-0.213	-0.086
-687.339	385.998	0.147	-0.304
-686.324	14.445	0.190	0.149
-685.310	-62.629	-0.375	0.156
-684.295	-200.000	-0.019	0.415
-683.281	-136.953	-0.101	-0.012
-682.266	-15.815	-0.248	-0.159
-681.251	393.700	0.063	-0.132
-680.237	-185.444	-0.141	0.002
-679.222	-76.426	-0.118	0.042
-678.208	-36.568	0.224	-0.121
-677.193	-91.542	0.205	-0.059
-676.178	4.538	0.187	0.138
-675.164	-159.815	-0.332	0.018
-674.149	800.000	0.003	0.009
-673.135	-200.000	0.005	0.427
-672.120	-200.000	-0.045	-0.408
-671.105	-11.101	-0.185	0.122
-670.091	800.000	0.048	0.186
-669.076	-200.000	0.036	0.217
-668.062	-200.000	-0.012	0.498
-667.047	27.473	-0.237	0.200
-666.032	-105.522	-0.160	-0.036
-665.018	61.860	0.154	0.154
-664.003	-11.046	-0.085	0.057
-662.989	800.000	0.114	-0.372
-661.974	-200.000	-0.049	0.428
-660.959	35.137	-0.051	0.045
-659.945	4.828	-0.140	-0.103
-658.930	-200.000	0.065	-0.397
-657.916	800.000	0.145	-0.412
-656.901	12.506	-0.182	-0.140
-655.886	-92.367	0.154	0.043
-654.872	409.389	0.093	0.198
-653.857	-83.999	-0.183	-0.058
-652.843	393.100	-0.124	-0.258
-651.828	-31.254	-0.246	0.139
-650.814	283.896	0.158	-0.285
-649.799	-152.110	0.281	-0.020
-648.784	-106.659	-0.257	-0.057
-647.770	-7.467	0.324	-0.220
-646.755	-200.000	0.011	-0.297
-645.741	-2.216	-0.093	-0.066
-644.726	-97.652	-0.113	0.029
-643.711	284.502	-0.042	-0.075
-642.697	-151.166	0.291	0.022
-641.682	399.599	-0.116	0.243
-640.668	-82.587	0.245	0.079
-639.653	583.800	-0.149	0.366
-638.638	-121.819	0.211	0.035
-637.624	119.681	0.161	-0.199
-636.609	-39.326	-0.323	0.170
-635.595	-2.749	-0.223	0.156
-634.580	-200.000	0.058	0.268
-633.565	-200.000	0.002	0.385
-632.551	-36.937	0.526	0.282
-631.536	186.574	0.164	-0.244
-630.522	60.579	-0.085	0.085
-629.507	564.217	0.127	-0.308
-628.492	59.096	0.076	0.074
-627.478	-200.000	-0.025	-0.293
-626.463	550.702	-0.099	0.238
-625.449	77.422	-0.030	0.032
-624.434	800.000	-0.051	-0.152
-623.419	-200.000	0.019	0.089
-622.405	-165.052	0.167	-0.007
-621.390	-27.041	-0.384	0.224
-620.376	-200.000	0.068	0.308
-619.361	-93.353	0.309	0.086
-618.346	401.422	-0.176	-0.370
-617.332	739.299	0.049	-0.131
-616.317	-200.000	-0.008	-0.356
-615.303	194.698	-0.049	0.074
-614.288	117.179	-0.200	0.245
-613.273	83.400	0.088	-0.096
-612.259	-200.000	0.021	0.367
-611.244	56.928	0.231	-0.225
-610.230	194.112	0.196	-0.297
-609.215	-81.782	-0.439	-0.144
-608.201	132.600	0.075	0.097
-607.186	-101.968	0.206	0.050
-606.171	96.987	-0.137	-0.157
-605.157	46.581	0.026	0.024
-604.142	198.715	-0.108	0.165
-603.128	800.000	0.034	-0.120
-602.113	10.826	0.071	-0.054
-601.098	774.297	-0.054	-0.146
-600.084	-112.299	0.149	0.030
-599.069	-200.000	0.004	-0.141
-598.055	43.494	-0.212	-0.193
-597.040	249.589	-0.073	0.124
-596.025	-93.355	0.085	-0.023
-595.011	800.000	0.093	-0.307
-593.996	339.625	0.168	-0.328
-592.982	-200.000	0.006	-0.076
-591.967	240.164	-0.104	0.173
-590.952	-153.539	-0.036	0.002
-589.938	166.873	0.114	-0.161
-588.923	-122.911	0.130	-0.021
-587.909	-84.101	-0.343	-0.109
-586.894	33.876	-0.061	-0.053
-585.879	-107.782	0.093	-0.020
-584.865	3.106	-0.041	-0.030
-583.850	-96.620	-0.051	0.013
-582.836	800.000	0.102	0.307
-581.821	9.624	0.082	-0.062
-580.806	287.107	-0.038	0.068
-579.792	-122.337	0.242	-0.039
-578.777	58.997	-0.185	0.181
-577.763	618.686	-0.175	0.440
-576.748	608.400	0.117	0.292
-575.733	75.839	0.073	0.077
-574.719	343.662	0.198	-0.387
-573.704	66.196	-0.074	-0.075
-572.690	270.576	0.022	0.039
-571.675	-183.315	-0.280	-0.005
-570.661	-7.556	0.135	-0.091
-569.646	97.890	-0.069	-0.079
-568.631	-0.401	-0.162	-0.115
-567.617	-103.991	0.091	-0.021
-566.602	-200.000	0.062	0.330
-565.588	174.309	-0.175	0.253
-564.573	-107.217	0.238	-0.052
-563.558	-42.732	0.274	-0.139
-562.544	800.000	-0.071	0.299
-561.529	-200.000	-0.027	0.172
-560.515	317.006	0.096	-0.180
-559.500	700.070	-0.089	0.235
-558.485	-200.000	0.063	0.366
-557.471	-42.345	0.160	-0.081
-556.456	-133.031	0.236	-0.030
-555.442	-115.743	0.234	0.044
-554.427	-160.045	-0.302	-0.016
-553.412	155.951	-0.022	0.030
-552.398	10.664	0.119	-0.091
-551.383	-50.092	0.035	0.016
-550.369	800.000	0.022	0.078
-549.354	600.527	0.043	-0.107
-548.339	45.169	0.177	-0.163
-547.325	77.852	0.184	-0.196
-546.310	274.179	-0.152	-0.267
-545.296	101.805	-0.154	0.179
-544.281	-200.000	0.027	0.390
-543.266	11.321	-0.383	-0.293
-542.252	46.088	-0.207	0.191
-541.237	22.976	0.170	-0.139
-540.223	557.156	0.068	-0.163
-539.208	66.561	0.353	-0.358
-538.193	-67.806	-0.260	-0.101
-537.179	800.000	-0.072	-0.210
-536.164	-34.950	-0.304	-0.165
-535.150	-200.000	-0.033	-0.171
-534.135	-188.211	0.380	-0.005
-533.121	255.720	0.064	0.109
-532.106	800.000	0.038	-0.148
-531.091	382.694	-0.110	-0.226
-530.077	-144.702	0.041	-0.004
-529.062	384.996	-0.184	-0.378
-528.048	82.695	-0.100	-0.108
-527.033	429.138	-0.106	0.228
-526.018	-44.309	-0.206	-0.103
-525.004	9.295	0.265	0.200
-523.989	-129.379	-0.260	-0.036
-522.975	-41.359	-0.050	0.026
-521.960	-126.356	0.191	-0.028
-520.945	75.499	0.192	-0.202
-519.931	-119.189	-0.205	-0.036
-518.916	-200.000	0.006	0.128
-517.902	116.631	-0.172	0.210
-516.887	103.691	-0.134	-0.156
-515.872	-200.000	0.045	-0.417
-514.858	-200.000	-0.000	-0.095
-513.843	-36.167	0.082	0.044
-512.829	-200.000	-0.017	-0.117
-511.814	-81.607	-0.121	0.039
-510.799	-200.000	-0.291	0.000
-509.785	43.876	0.221	-0.202
-508.770	716.263	0.147	-0.388
-507.756	479.842	0.096	-0.217
-506.741	154.997	0.066	0.090
-505.726	-27.917	-0.137	-0.079
-504.712	-200.000	-0.007	-0.648
-503.697	-125.535	-0.528	-0.080
-502.683	422.471	0.128	0.273
-501.668	800.000	0.101	0.436
-500.653	281.590	-0.032	-0.058
-499.639	-200.000	0.088	-0.385
-498.624	-155.211	-0.297	0.019
-497.610	-2.932	-0.224	0.156
-496.595	-60.246	-0.188	0.080
-495.581	415.025	0.080	0.169
-494.566	800.000	0.078	-0.255
-493.551	45.895	-0.087	-0.080
-492.537	-200.000	0.021	-0.295
-491.522	-98.472	0.230	-0.059
-490.508	-109.067	0.341	-0.072
-489.493	776.417	0.032	0.087
-488.478	-20.379	-0.316	-0.193
-487.464	-118.187	0.437	-0.077
-486.449	70.927	0.179	-0.185
-485.435	-200.000	-0.002	0.012
-484.420	445.180	-0.115	-0.250
-483.405	-51.678	-0.129	-0.060
-482.391	-200.000	-0.021	-0.335
-481.376	43.032	0.115	0.104
-480.362	111.124	-0.084	-0.100
-479.347	704.783	-0.144	0.377
-478.332	103.516	-0.135	0.157
-477.318	427.141	-0.098	0.210
-476.303	-100.143	0.449	0.111
-475.289	-125.628	0.079	-0.012
-474.274	-200.000	0.016	-0.072
-473.259	-70.187	0.047	-0.018
-472.245	93.560	0.059	0.067
-471.230	-164.323	-0.220	0.010
-470.216	760.862	-0.123	-0.333
-469.201	-200.000	0.004	0.095
-468.186	134.408	-0.215	0.278
-467.172	-94.192	0.210	0.057
-466.157	800.000	0.062	-0.237
-465.143	197.135	0.317	-0.481
-464.128	70.372	-0.092	0.094
-463.113	28.351	0.062	-0.052
-462.099	201.685	0.006	0.009
-461.084	420.817	0.141	0.300
-460.070	93.560	-0.206	-0.231
-459.055	-200.000	-0.015	0.160
-458.040	51.413	0.026	-0.025
-457.026	-90.445	-0.145	-0.042
-456.011	800.000	-0.068	-0.239
-454.997	-22.713	-0.264	-0.158
-453.982	176.229	-0.127	0.184
-452.968	414.924	-0.099	-0.210
-451.953	378.569	-0.079	-0.161
-450.938	20.119	-0.159	0.127
-449.924	-73.796	-0.147	0.053
-448.909	22.361	-0.065	0.053
-447.895	21.285	0.233	-0.188
-446.880	-200.000	0.008	0.159
-445.865	66.686	0.168	0.170
-444.851	28.809	0.180	0.151
-443.836	-117.599	0.120	-0.022
-442.822	-1.015	0.276	-0.194
-441.807	-128.040	-0.172	-0.024
-440.792	293.775	-0.128	0.232
-439.778	800.000	0.114	0.321
-438.763	-200.000	0.000	0.040
-437.749	17.681	0.190	-0.150
-436.734	-61.938	-0.493	-0.205
-435.719	-200.000	-0.015	0.168
-434.705	-72.708	0.217	-0.079
-433.690	-175.978	-0.315	-0.008
-432.676	-100.210	0.019	-0.005
-431.661	175.680	-0.067	-0.097
-430.646	-135.915	-0.225	0.026
-429.632	800.000	0.138	0.388
-428.617	-61.570	0.262	0.109
-427.603	-0.703	0.063	-0.044
-426.588	-200.000	-0.030	0.178
-425.573	48.880	0.286	-0.267
-424.559	2.927	-0.026	-0.018
-423.544	304.164	0.076	0.141
-422.530	-84.815	0.085	0.027
-421.515	800.000	0.091	0.308
-420.500	112.597	-0.245	-0.295
-419.486	-168.717	-0.340	-0.013
-418.471	-18.394	-0.254	-0.158
-417.457	68.252	-0.072	0.073
-416.442	-59.781	-0.447	-0.190
-415.428	-200.000	-0.022	0.231
-414.413	-63.056	0.133	-0.054
-413.398	56.554	0.094	-0.090
-412.384	458.449	0.210	0.464
-411.369	-22.002	-0.131	0.079
-410.355	-10.053	-0.205	0.135
-409.340	-200.000	-0.012	0.086
-408.325	79.948	-0.166	0.177
-407.311	-88.106	0.168	0.050
-406.296	657.230	-0.074	-0.190
-405.282	5.226	-0.228	-0.167
-404.267	-0.389	-0.159	0.112
-403.252	-50.047	0.062	-0.029
-402.238	-67.866	-0.413	-0.160
-401.223	800.000	0.148	0.486
-400.209	500.361	-0.149	-0.340
-399.194	-200.000	0.006	-0.222
-398.179	-77.751	0.090	0.031
-397.165	-200.000	0.010	0.245
-396.150	141.147	0.152	-0.199
-395.136	-72.922	0.355	0.129
-394.121	-35.577	-0.170	-0.092
-393.106	697.311	-0.158	0.412
-392.092	161.727	0.094	0.130
-391.077	2.093	0.065	-0.047
-390.063	-170.629	0.145	0.005
-389.048	-200.000	-0.006	-0.181
-388.033	4.321	0.057	-0.041
-387.019	800.000	-0.030	0.090
-386.004	-117.885	0.182	-0.032
-384.990	71.939	0.106	0.109
-383.975	76.513	0.150	0.158
-382.960	-85.263	-0.092	-0.029
-381.946	-200.000	0.005	0.115
-380.931	800.000	-0.053	0.214
-379.917	-85.248	0.056	-0.017
-378.902	97.445	-0.024	0.027
-377.888	-4.758	-0.170	0.116
-376.873	-110.887	0.112	-0.023
-375.858	800.000	0.033	-0.132
-374.844	-25.131	0.168	0.099
-373.829	-57.367	-0.279	-0.121
-372.815	-92.790	-0.246	-0.068
-371.800	131.734	-0.149	-0.190
-370.785	800.000	-0.128	-0.442
-369.771	-58.217	0.137	0.059
-368.756	-13.280	-0.180	0.116
-367.742	-200.000	-0.002	0.099
-366.727	-143.522	0.382	0.036
-365.712	368.266	0.147	0.294
-364.698	601.397	-0.044	-0.109
-363.683	-74.741	0.156	-0.056
-362.669	5.773	-0.375	0.275
-361.654	23.060	-0.089	0.072
-360.639	86.350	0.297	-0.324
-359.625	503.711	0.069	-0.159
-358.610	358.616	0.079	0.155
-357.596	-108.503	0.143	0.030
-356.581	-119.571	-0.194	0.033
-355.566	-54.755	0.118	0.053
-354.552	7.792	-0.304	0.225
-353.537	800.000	-0.057	-0.235
-352.523	-101.808	-0.097	-0.023
-351.508	6.181	-0.072	-0.053
-350.493	-85.024	-0.242	-0.075
-349.479	-200.000	0.022	0.198
-348.464	-131.909	0.504	-0.065
-347.450	-200.000	-0.452	-0.001
-346.435	-17.867	-0.183	-0.113
-345.420	42.773	0.119	0.107
-344.406	424.475	-0.076	0.162
-343.391	-119.549	0.266	0.046
-342.377	-119.799	-0.240	0.041
-341.362	46.740	0.235	-0.216
-340.348	69.860	0.110	-0.113
-339.333	533.438	-0.075	-0.177
-338.318	99.826	0.114	-0.131
-337.304	118.725	0.076	0.093
-336.289	800.000	-0.118	0.365
-335.275	-179.288	0.200	0.004
-334.260	777.647	-0.026	-0.071
-333.245	-103.207	0.125	-0.029
-332.231	800.000	-0.121	0.446
-331.216	142.121	0.163	0.214
-330.202	-200.000	-0.013	0.081
-329.187	-92.625	0.113	-0.031
-328.172	-200.000	-0.027	-0.306
-327.158	232.825	0.079	-0.128
-326.143	285.750	-0.204	0.364
-325.129	333.517	0.039	0.075
-324.114	-132.348	-0.209	0.027
-323.099	-200.000	-0.007	-0.161
-322.085	-120.763	-0.162	-0.027
-321.070	800.000	0.082	-0.287
-320.056	131.007	-0.189	-0.240
-319.041	376.066	0.060	0.121
-318.026	-200.000	0.057	-0.289
-317.012	-113.038	-0.074	0.014
-315.997	-102.935	-0.080	0.019
-314.983	800.000	-0.043	0.159
-313.968	-102.995	-0.036	0.008
-312.953	-28.969	-0.159	-0.090
-311.939	-65.139	0.083	-0.033
-310.924	174.693	0.108	0.154
-309.910	-27.817	0.267	-0.153
-308.895	-56.202	0.067	-0.029
-307.880	292.176	0.136	0.244
-306.866	515.270	-0.062	0.143
-305.851	-96.854	0.433	-0.112
-304.837	-98.637	-0.201	-0.051
-303.822	122.007	-0.180	-0.221
-302.807	-60.230	-0.358	-0.150
-301.793	-200.000	0.008	0.166
-300.778	-69.556	0.070	-0.027
-299.764	473.194	-0.036	-0.080
-298.749	16.779	0.028	-0.022
-297.735	25.914	0.130	-0.107
-296.720	96.250	0.073	0.082
-295.705	247.953	-0.037	-0.061
-294.691	128.952	0.151	0.190
-293.676	-120.205	0.512	0.086
-292.662	-92.912	-0.322	-0.089
-291.647	367.172	-0.139	0.277
-290.632	16.031	0.081	0.063
-289.618	800.000	-0.054	-0.197
-288.603	349.761	0.063	0.124
-287.589	-200.000	-0.037	0.222
-286.574	800.000	-0.083	0.246
-285.559	-60.769	-0.181	-0.076
-284.545	-85.399	-0.128	0.039
-283.530	767.504	-0.084	-0.226
-282.516	-110.877	0.225	0.046
-281.501	452.908	0.060	-0.131
-280.486	279.014	0.055	0.096
-279.472	-61.690	-0.043	0.018
-278.457	-200.000	0.016	0.287
-277.443	-97.765	0.113	0.029
-276.428	800.000	-0.019	-0.055
-275.413	439.953	-0.204	0.441
-274.399	-200.000	0.010	-0.072
-273.384	-200.000	0.002	-0.230
-272.370	-67.849	-0.147	-0.056
-271.355	-99.635	0.096	-0.024
-270.340	674.899	0.024	-0.062
-269.326	196.781	0.145	0.218
-268.311	72.344	0.165	0.170
-267.297	194.524	-0.154	0.230
-266.282	423.937	0.095	0.202
-265.267	-200.000	-0.039	0.193
-264.253	-200.000	0.022	-0.272
-263.238	800.000	-0.049	-0.167
-262.224	131.089	-0.274	-0.347
-261.209	-78.239	-0.163	0.055
-260.195	61.281	0.089	-0.087
-259.180	-200.000	0.020	-0.188
-258.165	-138.571	-0.128	0.014
-257.151	800.000	-0.049	-0.153
-256.136	-108.620	-0.399	0.084
-255.122	16.268	0.173	-0.135
-254.107	94.354	-0.181	0.203
-253.092	-116.671	-0.210	-0.038
-252.078	-200.000	0.010	0.172
-251.063	-200.000	-0.007	0.134
-250.049	-8.756	-0.200	-0.133
-249.034	-13.048	-0.072	0.046
-248.019	-200.000	0.015	-0.101
-247.005	10.007	0.130	0.097
-245.990	-5.669	0.083	0.056
-244.976	-200.000	-0.004	0.073
-243.961	333.834	0.093	-0.177
-242.946	-40.451	0.199	-0.102
-241.932	-200.000	-0.034	0.194
-240.917	-69.235	-0.247	0.094
-239.903	12.817	0.197	0.150
-238.888	288.681	0.096	0.171
-237.873	-58.870	0.234	0.100
-236.859	-200.000	0.026	0.256
-235.844	248.384	0.165	0.275
-234.830	-200.000	-0.050	-0.550
-233.815	35.344	-0.293	-0.253
-232.800	93.441	0.145	-0.161
-231.786	-125.435	-0.231	0.035
-230.771	-14.057	-0.109	0.070
-229.757	-108.108	-0.233	-0.050
-228.742	301.335	0.054	-0.099
-227.727	-200.000	0.013	0.515
-226.713	-35.490	0.013	-0.007
-225.698	800.000	0.089	0.254
-224.684	5.964	-0.336	0.245
-223.669	67.971	0.180	-0.181
-222.655	32.306	-0.190	0.162
-221.640	-200.000	0.023	-0.443
-220.625	-140.993	0.429	-0.043
-219.611	-89.851	0.207	0.059
-218.596	31.639	0.210	-0.177
-217.582	-200.000	-0.024	0.257
-216.567	13.307	0.148	-0.113
-215.552	-130.123	-0.054	-0.007
-214.538	104.039	-0.250	-0.289
-213.523	-104.658	-0.137	0.031
-212.509	-0.938	0.304	0.212
-211.494	-27.963	-0.169	0.096
-210.479	-128.528	0.250	-0.035
-209.465	-149.345	0.230	0.018
-208.450	-181.661	-0.351	-0.007
-207.436	800.000	-0.084	-0.257
-206.421	2.299	-0.144	0.102
-205.406	37.658	-0.161	0.141
-204.392	86.509	0.087	-0.095
-203.377	-105.264	-0.210	-0.047
-202.363	800.000	0.018	-0.059
-201.348	163.965	-0.119	-0.165
-200.333	116.461	0.268	-0.323
-199.319	12.537	-0.193	-0.146
-198.304	-37.392	0.109	0.057
-197.290	18.814	0.167	-0.131
-196.275	-87.367	0.371	-0.111
-195.260	-72.634	-0.221	0.080
-194.246	11.162	0.126	0.095
-193.231	26.071	0.175	-0.144
-192.217	91.904	-0.133	0.147
-191.202	277.360	0.051	0.089
-190.187	85.089	0.102	0.110
-189.173	275.953	0.176	-0.307
-188.158	-56.084	-0.198	0.087
-187.144	-147.723	-0.118	-0.010
-186.129	-200.000	0.005	0.248
-185.114	16.525	-0.167	0.130
-184.100	-58.606	-0.146	-0.062
-183.085	18.075	0.309	-0.242
-182.071	800.000	0.141	0.396
-181.056	8.628	0.085	0.063
-180.042	-162.334	0.282	0.014
-179.027	-140.699	-0.160	0.016
-178.012	209.131	0.183	0.282
-176.998	-200.000	-0.062	0.287
-175.983	203.268	0.076	0.115
-174.969	-63.448	0.206	-0.083
-173.954	28.235	0.099	0.083
-172.939	-97.270	-0.088	-0.023
-171.925	-96.020	-0.135	-0.035
-170.910	255.826	0.079	0.133
-169.896	-132.913	-0.045	0.006
-168.881	-171.299	0.408	0.013
-167.866	199.810	-0.247	-0.372
-166.852	687.208	0.157	0.403
-165.837	58.130	0.238	0.229
-164.823	-51.667	0.419	0.192
-163.808	800.000	-0.052	0.197
-162.793	196.296	0.167	-0.250
-161.779	-115.091	-0.151	0.028
-160.764	-104.803	-0.149	-0.034
-159.750	-159.911	-0.179	-0.010
-158.735	-200.000	-0.013	-0.180
-157.720	-200.000	-0.008	0.097
-156.706	800.000	0.056	0.163
-155.691	800.000	0.052	0.205
-154.677	249.990	-0.045	-0.076
-153.662	-82.670	-0.248	0.079
-152.647	148.753	0.143	-0.190
-151.633	-74.218	-0.168	0.060
-150.618	-10.947	0.157	0.102
-149.604	679.567	-0.058	-0.147
-148.589	307.126	-0.094	-0.172
-147.574	-9.240	-0.179	-0.117
-146.560	82.087	0.180	-0.192
-145.545	-9.372	0.067	-0.044
-144.531	45.923	-0.028	-0.025
-143.516	-109.593	-0.075	-0.015
-142.502	-200.000	-0.013	-0.103
-141.487	-34.232	-0.095	-0.051
-140.472	541.992	0.043	-0.101
-139.458	249.468	0.054	-0.090
-138.443	-20.500	-0.250	-0.151
-137.429	-55.836	-0.106	0.046
-136.414	-200.000	0.031	0.390
-135.399	800.000	0.023	0.068
-134.385	-48.887	-0.270	0.127
-133.370	12.316	0.124	-0.093
-132.356	102.890	0.150	0.172
-131.341	128.571	0.056	-0.070
-130.326	-200.000	-0.028	-0.359
-129.312	800.000	0.038	0.164
-128.297	-125.103	-0.051	-0.008
-127.283	10.266	-0.295	-0.220
-126.268	661.955	-0.044	0.111
-125.253	-139.185	-0.199	0.021
-124.239	491.175	-0.052	-0.117
-123.224	-180.130	0.157	-0.003
-122.210	359.170	-0.037	0.072
-121.195	-111.853	-0.242	-0.048
-120.180	722.515	-0.059	-0.155
