DTS Sentinel unit serial number:	SN413079Multiplexer serial number:	ORYXHardware model number:	OX4-SRSoftware version number:	ORYX F/W v4.00 Oryx Data Collector v3.7.2.0data status	okinstallation	princeton_trtdifferential loss correction	single-endedforward channel	channel 1reverse channel	N/Adate	2019/09/12time	18:58:34forward acquisition time	15.00reverse acquisition time	0.00gamma	496.2192k internal	0.2319k external	0.2319temperature offset calibration	1.0104default loss term (dB/km)	0.3790temperature slope calibration	1.0000multiplexer offset coefficient	1.0000multiplexer slope coefficient	1.0000fibre end	0.00T internal ref (°C)	32.81T ext. ref 1 (°C)	2.98T ext. ref 2 (°C)	27.32length (m)	temperature (°C)	Stokes	anti-Stokes-747.200	-131.036	-0.602	0.081
-746.185	310.463	-0.385	0.728
-745.171	-42.476	-0.724	0.373
-744.156	-130.466	-0.927	-0.127
-743.142	475.264	0.342	-0.780
-742.127	-200.000	0.004	-0.315
-741.112	-145.309	0.181	-0.017
-740.098	30.179	-0.398	-0.344
-739.083	-160.229	0.531	0.029
-738.069	-200.000	0.093	0.596
-737.054	213.990	0.044	0.071
-736.039	-200.000	0.071	0.351
-735.025	-200.000	0.046	0.456
-734.010	-200.000	-0.017	-0.567
-732.996	-25.432	0.164	0.098
-731.981	166.947	0.641	0.920
-730.966	-35.034	-0.809	0.446
-729.952	-40.102	0.789	0.416
-728.937	-200.000	-0.063	-0.301
-727.923	5.264	-0.549	-0.409
-726.908	145.211	0.159	-0.215
-725.894	82.414	-0.447	-0.490
-724.879	-141.334	-0.652	-0.067
-723.864	-200.000	0.047	0.696
-722.850	-200.000	-0.167	-1.216
-721.835	800.000	-0.097	-0.385
-720.821	34.984	-0.754	-0.667
-719.806	-200.000	0.023	0.329
-718.791	-76.877	0.435	0.154
-717.777	800.000	0.324	-0.926
-716.762	-92.643	-0.755	-0.214
-715.748	273.887	-0.240	-0.429
-714.733	213.278	-0.394	-0.629
-713.718	84.640	0.296	0.327
-712.704	302.389	-0.044	-0.082
-711.689	800.000	0.051	0.172
-710.675	314.177	0.183	0.348
-709.660	-105.283	-0.815	0.188
-708.645	34.356	-0.300	0.264
-707.631	-31.240	0.404	0.230
-706.616	-200.000	0.082	0.537
-705.602	182.916	-0.507	0.755
-704.587	-7.688	-0.447	-0.305
-703.572	-87.224	0.502	0.154
-702.558	-200.000	0.206	-0.921
-701.543	149.688	-0.061	0.083
-700.529	-85.111	0.145	0.046
-699.514	-76.259	0.822	0.293
-698.499	429.806	0.386	0.843
-697.485	611.987	-0.219	-0.553
-696.470	235.276	0.286	-0.476
-695.456	101.418	0.430	-0.506
-694.441	212.642	0.078	0.125
-693.426	220.648	0.382	0.619
-692.412	800.000	-0.119	-0.335
-691.397	102.592	-0.420	0.495
-690.383	112.247	-0.183	0.224
-689.368	-200.000	0.034	0.562
-688.354	-200.000	0.057	0.437
-687.339	-169.859	0.284	-0.010
-686.324	-34.945	1.114	0.614
-685.310	-70.998	-0.211	0.080
-684.295	-200.000	0.098	0.473
-683.281	-133.467	0.527	0.067
-682.266	-106.489	-1.018	-0.229
-681.251	263.096	-0.111	0.194
-680.237	76.215	-0.655	0.699
-679.222	-110.483	0.158	0.033
-678.208	10.831	-0.416	-0.321
-677.193	79.652	0.080	-0.086
-676.178	-200.000	-0.051	-0.461
-675.164	-9.085	0.537	0.362
-674.149	90.492	-0.331	-0.374
-673.135	156.180	0.077	0.107
-672.120	-200.000	-0.112	-0.580
-671.105	800.000	0.185	0.625
-670.091	-84.166	0.398	0.127
-669.076	-34.798	-0.655	-0.361
-668.062	-60.075	1.023	-0.440
-667.047	597.526	0.057	0.144
-666.032	800.000	-0.052	-0.191
-665.018	800.000	-0.135	-0.491
-664.003	-140.817	0.644	0.067
-662.989	274.748	-0.225	-0.402
-661.974	-200.000	-0.041	0.327
-660.959	76.922	-0.291	-0.312
-659.945	61.183	0.251	-0.252
-658.930	-138.768	-0.167	-0.018
-657.916	-54.988	-0.216	-0.098
-656.901	86.941	0.219	-0.244
-655.886	89.178	0.528	-0.593
-654.872	246.470	-0.275	-0.467
-653.857	800.000	-0.198	0.668
-652.843	-24.076	0.042	-0.026
-651.828	139.149	-0.380	-0.504
-650.814	455.685	0.165	-0.368
-649.799	152.276	-0.226	0.311
-648.784	18.238	0.543	0.437
-647.770	-176.369	-0.268	0.007
-646.755	-134.276	0.801	-0.099
-645.741	35.797	0.505	0.448
-644.726	-171.165	0.586	-0.020
-643.711	74.139	-1.001	-1.059
-642.697	59.854	0.109	0.109
-641.682	-200.000	-0.009	-0.170
-640.668	15.852	0.366	0.290
-639.653	-200.000	-0.165	-0.787
-638.638	24.883	-0.287	0.240
-637.624	-91.822	0.640	0.183
-636.609	67.367	-0.392	-0.403
-635.595	352.345	0.279	0.557
-634.580	-200.000	0.028	-0.542
-633.565	631.429	0.244	-0.623
-632.551	-200.000	-0.020	-0.349
-631.536	800.000	-0.190	-0.641
-630.522	-145.705	-0.117	-0.011
-629.507	20.501	1.095	0.892
-628.492	-98.937	-0.327	0.084
-627.478	-24.428	0.839	-0.504
-626.463	622.359	0.135	0.343
-625.449	758.432	0.126	0.343
-624.434	194.433	0.160	0.244
-623.419	147.003	-0.153	0.207
-622.405	159.174	0.342	0.479
-621.390	3.880	-0.902	0.664
-620.376	-1.612	-0.403	-0.286
-619.361	-200.000	-0.168	-0.822
-618.346	-101.066	0.131	0.032
-617.332	-27.157	-0.567	0.333
-616.317	756.008	0.391	-1.065
-615.303	-200.000	-0.039	0.567
-614.288	-151.113	-0.399	0.030
-613.273	800.000	0.122	-0.398
-612.259	800.000	0.046	-0.145
-611.244	363.585	-0.049	-0.099
-610.230	428.862	0.052	-0.114
-609.215	-165.589	0.515	-0.023
-608.201	-200.000	-0.061	0.300
-607.186	127.881	0.397	-0.508
-606.171	82.406	0.148	0.162
-605.157	-200.000	-0.153	-0.872
-604.142	-161.816	0.415	0.021
-603.128	-82.282	0.153	-0.050
-602.113	-200.000	-0.053	0.630
-601.098	-92.374	-0.846	-0.240
-600.084	-200.000	-0.027	-0.405
-599.069	8.068	-0.479	0.362
-598.055	-200.000	0.040	0.771
-597.040	800.000	-0.201	0.826
-596.025	32.876	0.581	-0.506
-595.011	-57.205	-0.394	-0.175
-593.996	113.661	-0.121	0.148
-592.982	471.351	-0.344	-0.779
-591.967	-54.158	0.376	0.172
-590.952	-53.270	0.484	0.223
-589.938	-200.000	-0.006	-0.379
-588.923	-139.296	-0.587	0.063
-587.909	-75.271	-0.289	-0.104
-586.894	230.461	-0.688	-1.131
-585.879	-73.949	0.184	-0.067
-584.865	500.731	0.232	0.539
-583.850	332.578	-0.275	0.534
-582.836	13.686	0.422	-0.330
-581.821	-73.396	0.721	-0.265
-580.806	14.129	-0.137	0.107
-579.792	-200.000	0.093	0.484
-578.777	-200.000	-0.086	0.425
-577.763	-200.000	-0.065	-0.742
-576.748	-159.502	0.419	0.023
-575.733	241.583	0.437	0.733
-574.719	67.510	0.503	0.516
-573.704	45.912	0.299	-0.278
-572.690	-46.311	0.539	0.266
-571.675	-42.623	-0.578	-0.296
-570.661	800.000	0.029	0.108
-569.646	116.093	0.526	0.647
-568.631	-111.144	-0.618	0.127
-567.617	-9.815	0.417	-0.279
-566.602	15.026	-0.412	0.324
-565.588	-6.028	0.415	-0.285
-564.573	-97.875	0.983	-0.255
-563.558	351.002	-0.110	0.218
-562.544	-55.352	-1.146	-0.517
-561.529	800.000	-0.081	-0.276
-560.515	-69.985	0.112	-0.043
-559.500	-158.932	-0.528	-0.030
-558.485	118.785	-0.221	-0.275
-557.471	431.080	0.141	-0.306
-556.456	-145.413	-0.155	-0.014
-555.442	72.342	0.065	0.069
-554.427	-53.599	0.484	0.222
-553.412	-80.470	-0.529	0.177
-552.398	671.909	0.154	-0.402
-551.383	-200.000	-0.001	-0.019
-550.369	65.931	0.729	0.743
-549.354	800.000	-0.197	0.587
-548.339	-107.653	-0.896	0.197
-547.325	36.516	0.232	0.206
-546.310	138.411	-0.283	0.373
-545.296	10.206	-0.305	-0.233
-544.281	800.000	-0.111	0.342
-543.266	-100.918	0.381	0.094
-542.252	270.033	-0.381	-0.672
-541.237	-62.591	-1.003	-0.418
-540.223	-78.548	-0.179	0.062
-539.208	-200.000	-0.053	-0.330
-538.193	148.628	-0.342	0.463
-537.179	-12.690	-0.532	0.348
-536.164	-180.309	0.468	-0.010
-535.150	377.266	0.138	-0.283
-534.135	-200.000	0.037	-0.916
-533.121	28.676	-0.924	0.784
-532.106	-200.000	0.049	-0.228
-531.091	40.329	0.458	-0.413
-530.077	159.116	0.260	0.363
-529.062	-43.321	0.500	-0.254
-528.048	-200.000	-0.046	-0.258
-527.033	-182.787	0.487	0.009
-526.018	137.466	0.390	0.512
-525.004	81.681	-0.112	-0.122
-523.989	142.802	0.667	0.889
-522.975	800.000	0.202	-0.741
-521.960	-123.874	-0.213	0.034
-520.945	194.257	0.325	0.495
-519.931	800.000	0.142	0.505
-518.916	-111.027	0.663	0.136
-517.902	-145.895	0.051	-0.005
-516.887	-6.253	-0.662	0.453
-515.872	-200.000	-0.098	-0.436
-514.858	431.244	0.368	0.798
-513.843	77.118	0.271	-0.288
-512.829	-107.427	0.531	0.117
-511.814	0.357	0.365	0.261
-510.799	-169.428	0.950	0.035
-509.785	-200.000	0.104	0.530
-508.770	-200.000	0.128	0.794
-507.756	-111.833	-0.464	-0.094
-506.741	-82.755	-0.711	0.230
-505.726	13.584	0.260	-0.202
-504.712	-44.589	-0.919	-0.460
-503.697	149.919	-0.489	0.665
-502.683	-151.422	0.490	0.036
-501.668	-85.214	0.582	-0.182
-500.653	800.000	-0.120	-0.392
-499.639	-200.000	-0.024	-0.940
-498.624	-69.338	-0.598	-0.230
-497.610	800.000	-0.155	0.461
-496.595	-200.000	-0.086	-0.904
-495.581	-200.000	0.127	0.823
-494.566	417.363	0.074	0.158
-493.551	116.544	0.420	0.516
-492.537	-200.000	0.154	-0.685
-491.522	-34.288	-0.219	-0.121
-490.508	177.148	-0.094	-0.137
-489.493	-200.000	-0.001	0.493
-488.478	-132.850	0.827	-0.106
-487.464	16.977	0.551	-0.437
-486.449	-98.002	-0.655	-0.169
-485.435	294.039	-0.092	0.169
-484.420	38.565	0.149	0.133
-483.405	-171.408	-0.738	0.025
-482.391	-200.000	-0.064	0.291
-481.376	-200.000	-0.128	0.849
-480.362	800.000	-0.027	0.115
-479.347	197.195	0.208	-0.317
-478.332	28.289	-0.411	-0.348
-477.318	-200.000	0.043	-0.391
-476.303	-200.000	0.051	-0.358
-475.289	132.236	-0.261	0.336
-474.274	-178.926	-0.643	0.015
-473.259	494.721	0.130	0.298
-472.245	154.485	-0.132	-0.181
-471.230	163.399	-1.155	-1.626
-470.216	197.989	-0.378	-0.578
-469.201	15.093	0.040	-0.032
-468.186	-200.000	0.051	0.318
-467.172	326.497	0.086	-0.165
-466.157	12.939	-0.388	0.301
-465.143	800.000	-0.272	-1.101
-464.128	408.538	0.437	-0.925
-463.113	72.837	0.305	-0.318
-462.099	8.327	-0.373	-0.281
-461.084	-126.349	0.229	0.034
-460.070	-63.195	0.818	-0.337
-459.055	-200.000	0.076	0.550
-458.040	800.000	-0.119	0.370
-457.026	-123.359	0.686	0.110
-456.011	-95.617	-0.973	-0.261
-454.997	-200.000	0.226	-1.004
-453.982	-72.963	0.296	0.109
-452.968	-96.442	-0.622	-0.164
-451.953	800.000	-0.195	0.659
-450.938	-106.794	-0.492	-0.109
-449.924	186.270	-0.568	0.845
-448.909	-200.000	-0.171	-0.952
-447.895	800.000	-0.015	-0.048
-446.880	-44.587	-0.550	-0.275
-445.865	-158.415	0.416	0.024
-444.851	22.966	-0.291	0.239
-443.836	15.487	0.352	-0.276
-442.822	-73.916	-0.509	-0.185
-441.807	580.489	0.424	-1.039
-440.792	-46.740	0.452	-0.221
-439.778	-15.576	-0.742	0.474
-438.763	481.989	-0.126	0.286
-437.749	-200.000	0.114	0.699
-436.734	-23.210	-0.626	0.377
-435.719	94.315	-0.316	-0.359
-434.705	-200.000	-0.015	-1.248
-433.690	-200.000	0.049	-0.254
-432.676	-28.645	0.118	-0.068
-431.661	-183.060	0.814	0.014
-430.646	-200.000	-0.008	-0.139
-429.632	-126.281	-0.347	-0.052
-428.617	372.130	0.336	-0.682
-427.603	534.671	0.068	-0.162
-426.588	334.599	-0.455	0.880
-425.573	-200.000	0.083	-1.042
-424.559	215.496	-0.053	0.084
-423.544	-6.037	-0.729	0.498
-422.530	86.748	0.182	0.201
-421.515	-200.000	-0.067	0.642
-420.500	233.348	-0.236	0.388
-419.486	-106.467	-0.365	0.081
-418.471	-200.000	0.116	-0.649
-417.457	-63.135	-0.529	0.218
-416.442	-44.384	0.795	0.398
-415.428	-107.037	0.668	0.147
-414.413	-63.961	0.354	0.144
-413.398	185.446	-0.495	-0.734
-412.384	42.412	-0.280	-0.254
-411.369	-200.000	0.043	-0.727
-410.355	800.000	0.162	-0.454
-409.340	22.250	-0.941	0.767
-408.325	-200.000	0.021	0.114
-407.311	105.038	0.224	0.264
-406.296	451.404	-0.362	0.798
-405.282	43.626	-0.553	0.505
-404.267	131.683	0.245	0.314
-403.252	141.547	-0.349	-0.461
-402.238	12.610	-0.658	0.507
-401.223	-200.000	-0.081	-0.417
-400.209	209.766	0.291	0.455
-399.194	118.434	0.152	-0.187
-398.179	-97.743	0.419	0.108
-397.165	-54.591	0.859	0.388
-396.150	-200.000	0.107	0.711
-395.136	202.577	-0.211	0.326
-394.121	83.269	-0.513	0.557
-393.106	-200.000	0.053	0.529
-392.092	-104.812	0.792	0.182
-391.077	-52.198	-0.399	0.185
-390.063	-200.000	-0.081	-0.359
-389.048	7.627	-0.359	0.268
-388.033	-40.293	0.106	-0.055
-387.019	-154.011	0.893	-0.061
-386.004	207.224	0.043	-0.066
-384.990	-200.000	-0.151	0.803
-383.975	81.686	-0.698	0.753
-382.960	-86.283	0.287	-0.088
-381.946	-33.393	-0.288	-0.159
-380.931	-20.878	-0.128	-0.078
-379.917	-122.895	0.741	-0.119
-378.902	7.403	-0.883	-0.658
-377.888	97.955	-0.497	0.570
-376.873	-200.000	-0.174	0.856
-375.858	654.995	0.114	-0.291
-374.844	-127.834	0.789	-0.113
-373.829	-27.543	0.162	0.094
-372.815	-20.295	-0.371	-0.228
-371.800	168.419	0.429	-0.609
-370.785	218.915	0.206	-0.328
-369.771	42.784	0.456	0.414
-368.756	-93.457	0.203	0.056
-367.742	-195.900	-0.308	-0.002
-366.727	491.121	0.162	0.369
-365.712	13.899	0.804	0.624
-364.698	-200.000	0.571	0.003
-363.683	-159.540	0.362	0.020
-362.669	44.798	0.785	-0.720
-361.654	-200.000	-0.093	0.460
-360.639	11.008	-1.122	-0.855
-359.625	724.493	0.323	-0.857
-358.610	-123.666	0.304	0.048
-357.596	800.000	0.159	0.603
-356.581	73.656	-0.364	0.380
-355.566	82.592	-0.491	-0.532
-354.552	-166.828	0.338	-0.014
-353.537	694.657	-0.195	-0.510
-352.523	800.000	0.116	0.472
-351.508	800.000	0.267	0.861
-350.493	800.000	-0.146	0.597
-349.479	108.734	0.133	-0.158
-348.464	-71.903	-0.726	-0.269
-347.450	-19.057	-0.353	-0.219
-346.435	-37.840	0.831	-0.440
-345.420	-150.392	0.784	-0.060
-344.406	8.815	-0.271	0.204
-343.391	-53.564	0.794	0.362
-342.377	-200.000	-0.048	0.353
-341.362	-200.000	0.004	-0.147
-340.348	-93.058	1.037	0.288
-339.333	-200.000	0.044	0.540
-338.318	-200.000	0.100	-0.672
-337.304	-37.766	-0.469	-0.248
-336.289	-200.000	0.150	0.948
-335.275	-26.350	0.325	0.190
-334.260	1.127	0.440	-0.314
-333.245	-72.425	-0.262	-0.096
-332.231	-98.321	-0.398	-0.102
-331.216	153.535	0.129	0.176
-330.202	111.019	-0.522	-0.625
-329.187	-126.544	0.785	-0.116
-328.172	-200.000	-0.092	0.519
-327.158	-63.310	-0.751	-0.308
-326.143	-105.057	-0.775	0.176
-325.129	-200.000	-0.025	0.772
-324.114	-45.115	0.222	0.110
-323.099	156.613	0.364	0.500
-322.085	25.449	-0.514	0.425
-321.070	-200.000	0.017	-0.569
-320.056	-49.231	0.560	-0.266
-319.041	229.319	-0.227	-0.369
-318.026	-45.973	-0.622	-0.305
-317.012	-51.847	-0.208	-0.096
-315.997	139.638	-0.568	-0.744
-314.983	60.348	0.572	-0.563
-313.968	-200.000	-0.086	0.405
-312.953	-36.172	-0.807	0.433
-311.939	-52.916	-0.462	0.212
-310.924	-200.000	0.049	0.425
-309.910	107.845	0.050	-0.060
-308.895	-110.764	1.082	-0.222
-307.880	-200.000	-0.044	0.376
-306.866	-200.000	-0.022	0.352
-305.851	-24.461	0.979	0.580
-304.837	-200.000	0.003	-0.134
-303.822	-200.000	0.090	-0.658
-302.807	-200.000	-0.007	1.403
-301.793	-200.000	0.802	0.001
-300.778	-200.000	0.055	0.495
-299.764	-200.000	-0.129	-0.827
-298.749	26.481	-0.377	-0.313
-297.735	-64.538	-0.438	0.177
-296.720	-137.277	0.821	0.093
-295.705	-30.714	0.609	-0.343
-294.691	-57.946	-0.510	0.222
-293.676	-200.000	-0.041	0.546
-292.662	-40.010	0.199	0.103
-291.647	327.184	-0.232	-0.442
-290.632	567.595	-0.085	0.204
-289.618	-200.000	0.831	0.002
-288.603	-78.515	0.506	-0.172
-287.589	-188.915	0.117	0.001
-286.574	160.063	0.337	-0.467
-285.559	-61.497	-0.220	-0.092
-284.545	38.051	0.527	0.466
-283.530	-145.519	-0.419	-0.037
-282.516	166.496	0.262	0.369
-281.501	380.557	-0.323	0.658
-280.486	-76.545	0.250	0.087
-279.472	-200.000	0.086	0.443
-278.457	-26.754	0.777	0.451
-277.443	55.437	0.174	0.167
-276.428	331.178	0.274	-0.524
-275.413	-132.889	0.567	-0.072
-274.399	163.972	0.079	-0.111
-273.384	-78.981	-1.109	0.375
-272.370	64.724	-0.351	-0.352
-271.355	-200.000	0.099	-1.108
-270.340	-70.860	-0.707	-0.265
-269.326	-200.000	-0.023	-0.336
-268.311	750.338	-0.210	0.564
-267.297	0.153	-0.388	-0.275
-266.282	-200.000	-0.076	1.309
-265.267	9.801	-0.249	-0.187
-264.253	800.000	0.205	-0.702
-263.238	-106.962	-0.231	0.051
-262.224	776.809	0.178	0.484
-261.209	247.905	0.103	-0.172
-260.195	800.000	0.101	-0.339
-259.180	-200.000	0.017	0.300
-258.165	611.216	0.230	-0.571
-257.151	-10.192	-0.545	0.359
-256.136	800.000	-0.106	-0.326
-255.122	-114.584	0.444	-0.084
-254.107	85.276	-0.475	-0.518
-253.092	-94.526	1.104	0.298
-252.078	23.701	-0.778	0.635
-251.063	654.115	-0.359	0.913
-250.049	173.001	0.385	-0.551
-249.034	-156.682	-0.464	0.028
-248.019	-48.010	-0.884	-0.424
-247.005	676.878	0.166	-0.429
-245.990	-146.842	-0.713	0.061
-244.976	349.027	0.356	-0.698
-243.961	-56.686	-0.467	0.205
-242.946	800.000	-0.191	0.718
-241.932	114.133	0.332	-0.401
-240.917	-200.000	-0.044	0.261
-239.903	-200.000	-0.072	0.547
-238.888	-35.673	-0.263	-0.141
-237.873	241.940	-0.457	0.758
-236.859	800.000	-0.135	0.472
-235.844	-200.000	0.017	-0.264
-234.830	194.228	-0.265	0.398
-233.815	-17.302	0.304	0.190
-232.800	-105.437	-0.877	-0.198
-231.786	-200.000	0.007	-0.093
-230.771	229.997	-0.298	0.482
-229.757	-26.764	-0.224	-0.130
-228.742	800.000	-0.331	0.915
-227.727	-9.521	-0.253	-0.167
-226.713	-111.078	0.623	-0.127
-225.698	-200.000	0.126	-0.740
-224.684	51.016	-0.169	0.159
-223.669	168.082	0.138	0.194
-222.655	-200.000	0.005	-0.181
-221.640	-11.321	-0.168	0.109
-220.625	219.748	0.495	-0.785
-219.611	-100.262	-1.288	-0.317
-218.596	375.863	0.244	0.493
-217.582	-168.927	-0.740	0.027
-216.567	368.057	0.153	0.307
-215.552	-91.452	0.606	0.171
-214.538	181.089	0.133	-0.194
-213.523	800.000	-0.075	-0.253
-212.509	-43.012	-0.341	-0.171
-211.494	116.891	-0.894	-1.088
-210.479	128.773	-0.363	-0.458
-209.465	-179.804	0.324	-0.007
-208.450	-48.024	-0.241	-0.116
-207.436	-164.738	0.031	-0.001
-206.421	-118.225	-0.982	-0.173
-205.406	-133.231	0.342	0.043
-204.392	89.188	0.593	-0.654
-203.377	-200.000	0.061	0.656
-202.363	468.593	-0.375	0.834
-201.348	-97.664	0.483	-0.124
-200.333	-166.408	0.296	0.012
-199.319	-200.000	0.086	-0.627
-198.304	-200.000	-0.086	-0.859
-197.290	-68.072	-0.344	0.133
-196.275	-51.834	0.473	-0.218
-195.260	605.938	-0.059	-0.147
-194.246	-200.000	-0.070	1.129
-193.231	21.789	0.775	-0.625
-192.217	-48.897	-0.103	-0.049
-191.202	800.000	-0.192	0.738
-190.187	554.202	-0.097	0.230
-189.173	800.000	0.169	-0.633
-188.158	-193.318	-0.849	-0.007
-187.144	-100.194	0.166	0.041
-186.129	-29.738	-0.564	-0.319
-185.114	742.119	-0.356	0.947
-184.100	-200.000	0.048	-0.602
-183.085	85.554	0.163	-0.177
-182.071	800.000	-0.131	0.440
-181.056	115.597	-0.035	0.043
-180.042	-85.689	-0.307	-0.094
-179.027	-63.491	-0.265	-0.108
-178.012	-200.000	0.002	0.233
-176.998	-141.690	0.631	-0.063
-175.983	784.548	0.322	-0.872
-174.969	-42.401	-0.473	0.239
-173.954	-148.720	-0.499	0.040
-172.939	82.277	0.676	-0.726
-171.925	-133.347	-0.682	-0.085
-170.910	-109.692	-0.574	-0.120
-169.896	-30.111	0.406	0.228
-168.881	98.944	-0.083	-0.095
-167.866	-1.338	0.803	-0.561
-166.852	-200.000	-0.012	-0.503
-165.837	3.044	-0.416	0.299
-164.823	710.711	-0.183	-0.478
-163.808	-200.000	-0.022	-0.639
-162.793	84.066	-0.579	-0.625
-161.779	-113.773	0.742	0.143
-160.764	800.000	0.077	0.262
-159.750	-19.889	1.276	0.779
-158.735	127.624	0.510	0.640
-157.720	-200.000	1.228	0.003
-156.706	-99.334	-0.232	0.058
-155.691	-62.201	0.705	-0.290
-154.677	-94.192	0.413	0.112
-153.662	-118.283	0.573	0.101
-152.647	-200.000	-0.042	-0.327
-151.633	-19.161	-0.540	-0.331
-150.618	81.315	0.197	0.211
-149.604	-200.000	-0.065	0.897
-148.589	158.239	0.043	-0.060
-147.574	648.760	-0.156	-0.393
-146.560	-179.293	-0.357	0.008
-145.545	121.021	0.302	-0.371
-144.531	205.531	-0.205	-0.315
-143.516	-200.000	0.005	0.508
-142.502	-147.293	0.204	-0.017
-141.487	-25.705	0.366	-0.213
-140.472	261.844	0.427	0.731
-139.458	-197.188	-0.456	0.003
-138.443	-85.441	0.576	-0.177
-137.429	-200.000	-0.004	0.723
-136.414	140.360	-0.433	-0.564
-135.399	-200.000	0.071	0.634
-134.385	-141.565	-0.259	0.026
-133.370	55.017	0.460	0.438
-132.356	-19.700	0.708	-0.433
-131.341	800.000	0.066	-0.201
-130.326	427.846	0.105	0.224
-129.312	-179.685	0.245	0.005
-128.297	-150.305	0.676	0.052
-127.283	194.696	0.446	-0.668
-126.268	-200.000	-0.133	1.101
-125.253	-191.216	0.128	0.001
-124.239	-12.608	0.278	0.179
-123.224	486.386	-0.470	-1.058
-122.210	189.444	0.514	-0.760
