DTS Sentinel unit serial number:	SN413079Multiplexer serial number:	ORYXHardware model number:	OX4-SRSoftware version number:	ORYX F/W v4.00 Oryx Data Collector v3.7.2.0data status	okinstallation	princeton_trtdifferential loss correction	single-endedforward channel	channel 1reverse channel	N/Adate	2019/09/17time	08:02:35forward acquisition time	60.00reverse acquisition time	0.00gamma	496.2192k internal	0.2330k external	0.2330temperature offset calibration	0.9965default loss term (dB/km)	0.3790temperature slope calibration	1.0000multiplexer offset coefficient	1.0000multiplexer slope coefficient	1.0000fibre end	0.00T internal ref (°C)	27.28T ext. ref 1 (°C)	0.12T ext. ref 2 (°C)	22.33length (m)	temperature (°C)	Stokes	anti-Stokes-747.200	-144.523	-0.254	0.024
-746.185	800.000	-0.119	0.449
-745.171	653.038	0.024	0.061
-744.156	98.119	-0.194	0.225
-743.142	-69.807	0.410	-0.158
-742.127	800.000	-0.055	0.154
-741.112	-200.000	-0.040	0.198
-740.098	800.000	-0.173	0.532
-739.083	800.000	-0.074	0.262
-738.069	800.000	0.047	0.201
-737.054	-66.109	0.230	-0.092
-736.039	-177.466	-0.199	-0.005
-735.025	78.196	-0.111	-0.120
-734.010	157.642	0.306	-0.427
-732.996	325.115	-0.165	0.318
-731.981	101.293	-0.124	-0.145
-730.966	58.250	0.046	-0.045
-729.952	91.293	-0.101	0.114
-728.937	362.713	-0.203	-0.410
-727.923	304.080	-0.083	0.155
-726.908	-104.308	0.082	0.019
-725.894	-70.352	-0.160	0.061
-724.879	-200.000	0.018	0.121
-723.864	33.763	-0.112	-0.098
-722.850	-184.038	-0.280	-0.005
-721.835	-161.557	-0.500	0.026
-720.821	33.258	-0.166	0.145
-719.806	21.848	0.134	-0.110
-718.791	-106.318	-0.242	-0.054
-717.777	-200.000	0.005	-0.399
-716.762	241.225	0.158	0.265
-715.748	103.330	-0.183	-0.216
-714.733	-25.688	-0.125	0.074
-713.718	-163.683	0.360	0.017
-712.704	-84.817	-0.281	0.089
-711.689	-162.788	0.293	-0.014
-710.675	-19.642	0.334	0.208
-709.660	6.029	-0.363	0.270
-708.645	244.579	-0.043	-0.073
-707.631	225.455	-0.189	0.307
-706.616	-12.762	0.162	0.106
-705.602	182.057	-0.063	-0.093
-704.587	-200.000	0.020	-0.129
-703.572	639.809	-0.121	0.308
-702.558	253.427	0.199	0.341
-701.543	593.522	-0.169	-0.420
-700.529	-63.084	0.105	0.044
-699.514	-102.421	0.341	-0.082
-698.499	-200.000	0.014	-0.254
-697.485	443.753	0.013	-0.029
-696.470	-124.231	-0.303	0.048
-695.456	-88.672	-0.170	-0.051
-694.441	-4.771	-0.272	0.188
-693.426	16.493	-0.275	0.218
-692.412	86.108	-0.148	-0.163
-691.397	-200.000	-0.060	0.266
-690.383	1.868	-0.055	0.040
-689.368	-85.651	-0.498	-0.156
-688.354	124.593	-0.046	-0.058
-687.339	-44.205	-0.257	0.130
-686.324	-200.000	-0.020	0.453
-685.310	-200.000	-0.036	0.179
-684.295	-38.334	-0.106	-0.056
-683.281	37.556	-0.152	0.135
-682.266	-16.599	-0.057	0.036
-681.251	75.266	0.132	-0.140
-680.237	800.000	0.098	-0.306
-679.222	49.323	0.100	-0.094
-678.208	225.811	-0.034	-0.056
-677.193	-200.000	-0.053	0.456
-676.178	53.275	-0.158	-0.152
-675.164	-37.655	-0.296	0.158
-674.149	-176.130	-0.035	0.001
-673.135	-72.994	0.088	-0.032
-672.120	-62.985	-0.290	0.120
-671.105	205.730	-0.076	-0.118
-670.091	-100.216	0.218	0.055
-669.076	-200.000	-0.075	-0.390
-668.062	800.000	-0.013	-0.042
-667.047	264.482	0.147	0.257
-666.032	-11.852	-0.221	-0.146
-665.018	-200.000	0.003	-0.048
-664.003	-30.153	-0.162	-0.093
-662.989	19.952	0.260	-0.210
-661.974	-127.109	-0.412	-0.061
-660.959	-118.057	0.254	0.046
-659.945	-200.000	0.002	-0.184
-658.930	-105.154	-0.275	0.063
-657.916	-196.035	-0.351	-0.002
-656.901	-143.549	-0.159	-0.015
-655.886	38.461	0.123	0.110
-654.872	-120.740	-0.088	0.015
-653.857	-71.211	0.184	0.069
-652.843	-137.233	-0.165	-0.019
-651.828	114.957	0.167	-0.204
-650.814	800.000	0.060	0.196
-649.799	-96.721	0.163	0.043
-648.784	-125.267	-0.267	-0.041
-647.770	-89.431	-0.349	0.103
-646.755	-99.552	-0.251	-0.063
-645.741	-146.714	-0.163	0.014
-644.726	42.979	-0.074	-0.067
-643.711	-63.367	-0.144	0.059
-642.697	-200.000	-0.036	0.178
-641.682	14.409	0.032	-0.025
-640.668	-200.000	0.014	0.193
-639.653	-118.836	0.291	-0.051
-638.638	-116.287	-0.285	0.053
-637.624	313.768	-0.171	-0.323
-636.609	-143.006	-0.390	-0.038
-635.595	-27.946	-0.151	0.087
-634.580	32.591	0.076	0.066
-633.565	398.293	-0.084	0.176
-632.551	0.267	-0.258	0.185
-631.536	-200.000	-0.088	0.410
-630.522	-93.070	-0.174	0.049
-629.507	-200.000	0.009	-0.057
-628.492	244.927	-0.078	-0.131
-627.478	347.284	0.115	0.227
-626.463	-33.387	0.205	-0.113
-625.449	-6.914	-0.160	-0.109
-624.434	800.000	-0.015	-0.053
-623.419	-14.677	0.145	0.093
-622.405	-124.883	-0.251	0.039
-621.390	639.903	0.072	0.183
-620.376	-200.000	-0.010	-0.086
-619.361	-152.207	-0.333	-0.024
-618.346	285.708	0.074	0.133
-617.332	-53.664	0.102	0.047
-616.317	-2.709	-0.123	-0.086
-615.303	55.058	-0.146	0.141
-614.288	-13.811	0.131	0.085
-613.273	800.000	-0.012	0.051
-612.259	158.048	-0.118	-0.164
-611.244	-184.277	0.168	-0.003
-610.230	102.704	-0.221	-0.260
-609.215	-110.377	-0.290	0.060
-608.201	-161.592	-0.286	0.015
-607.186	-200.000	0.000	0.179
-606.171	800.000	-0.065	-0.201
-605.157	-44.546	0.204	0.102
-604.142	217.321	0.010	0.016
-603.128	-200.000	0.054	0.277
-602.113	111.575	0.188	0.227
-601.098	-112.354	-0.260	-0.052
-600.084	-200.000	0.045	-0.652
-599.069	-74.552	-0.033	-0.012
-598.055	-200.000	-0.033	0.246
-597.040	-76.915	-0.192	-0.067
-596.025	-94.443	0.185	-0.051
-595.011	258.077	0.080	-0.138
-593.996	800.000	0.107	0.404
-592.982	201.326	-0.104	-0.160
-591.967	-52.628	0.126	-0.058
-590.952	318.398	-0.105	-0.200
-589.938	800.000	-0.067	-0.198
-588.923	-40.241	-0.183	-0.096
-587.909	239.473	0.164	-0.273
-586.894	458.003	0.056	0.124
-585.879	-200.000	-0.002	0.080
-584.865	44.159	-0.095	0.087
-583.850	413.719	0.028	0.059
-582.836	-49.621	-0.272	-0.130
-581.821	800.000	-0.053	-0.201
-580.806	-131.116	0.239	-0.032
-579.792	463.743	-0.042	0.093
-578.777	800.000	0.039	0.149
-577.763	220.147	0.046	-0.074
-576.748	-200.000	-0.028	-0.238
-575.733	-50.458	0.160	-0.076
-574.719	800.000	-0.053	-0.201
-573.704	655.802	-0.128	-0.328
-572.690	-200.000	0.001	0.154
-571.675	800.000	0.110	-0.374
-570.661	0.565	-0.149	0.107
-569.646	58.058	-0.103	-0.101
-568.631	-122.084	-0.179	-0.029
-567.617	-200.000	-0.006	0.180
-566.602	-160.975	0.186	-0.010
-565.588	58.748	-0.188	0.185
-564.573	-6.468	-0.288	-0.197
-563.558	404.816	0.153	-0.322
-562.544	-106.538	-0.197	0.044
-561.529	-106.755	0.352	-0.078
-560.515	147.326	0.219	0.294
-559.500	80.010	0.137	-0.147
-558.485	463.493	-0.073	-0.163
-557.471	-92.709	-0.244	0.068
-556.456	-142.982	0.280	-0.027
-555.442	-29.620	-0.077	0.044
-554.427	-37.126	0.405	0.217
-553.412	474.019	-0.187	0.421
-552.398	581.980	0.063	-0.156
-551.383	247.926	0.115	-0.194
-550.369	-12.386	-0.173	0.113
-549.354	-200.000	0.035	0.163
-548.339	-152.744	0.210	-0.015
-547.325	-88.103	-0.149	-0.045
-546.310	-0.877	-0.141	-0.100
-545.296	-15.544	0.105	0.067
-544.281	-157.603	-0.382	-0.023
-543.266	-162.215	0.056	0.003
-542.252	-200.000	-0.026	0.209
-541.237	800.000	0.052	0.153
-540.223	231.562	0.072	0.118
-539.208	151.119	0.085	0.115
-538.193	656.523	-0.090	0.232
-537.179	-200.000	-0.040	-0.200
-536.164	97.101	0.046	0.053
-535.150	-135.564	0.341	-0.041
-534.135	34.050	-0.145	-0.126
-533.121	-200.000	0.033	0.193
-532.106	27.510	-0.152	-0.128
-531.091	-33.527	-0.323	-0.178
-530.077	42.160	-0.094	-0.086
-529.062	-113.470	-0.074	-0.014
-528.048	7.961	0.269	-0.201
-527.033	92.481	-0.116	0.131
-526.018	800.000	-0.065	-0.209
-525.004	163.176	0.229	0.321
-523.989	270.343	-0.144	0.252
-522.975	800.000	-0.056	-0.217
-521.960	286.126	-0.151	0.272
-520.945	119.161	-0.040	-0.050
-519.931	-89.833	0.326	0.095
-518.916	285.877	-0.119	0.214
-517.902	-200.000	0.016	0.143
-516.887	139.290	-0.022	0.029
-515.872	51.309	-0.176	-0.166
-514.858	276.333	-0.096	-0.171
-513.843	-90.504	-0.146	0.042
-512.829	130.291	0.148	0.189
-511.814	142.915	0.166	-0.221
-510.799	-99.134	0.047	0.012
-509.785	20.881	-0.177	-0.143
-508.770	-33.499	-0.047	-0.026
-507.756	-19.313	0.203	-0.126
-506.741	-81.534	0.081	0.027
-505.726	103.537	-0.125	-0.146
-504.712	56.174	0.177	0.172
-503.697	373.323	-0.140	-0.283
-502.683	-74.908	-0.414	-0.148
-501.668	108.160	-0.096	-0.114
-500.653	93.027	0.126	-0.142
-499.639	16.726	0.096	0.076
-498.624	754.032	0.059	-0.159
-497.610	-65.844	-0.226	0.090
-496.595	-138.218	-0.262	0.029
-495.581	-167.965	0.115	0.004
-494.566	-69.356	0.068	-0.026
-493.551	682.907	-0.141	-0.366
-492.537	-24.101	-0.114	0.068
-491.522	-59.106	-0.407	0.175
-490.508	-200.000	-0.006	0.038
-489.493	-166.184	0.370	0.016
-488.478	-0.854	0.136	0.096
-487.464	-16.263	0.258	-0.163
-486.449	-53.354	-0.410	0.187
-485.435	11.572	-0.149	-0.114
-484.420	-28.258	-0.241	-0.139
-483.405	-4.296	-0.084	-0.058
-482.391	293.126	-0.117	-0.213
-481.376	-200.000	0.048	-0.372
-480.362	25.397	-0.248	-0.206
-479.347	800.000	-0.083	-0.360
-478.332	9.307	0.062	-0.046
-477.318	204.027	0.136	0.209
-476.303	-200.000	0.082	0.517
-475.289	-200.000	-0.055	-0.275
-474.274	-200.000	-0.033	-0.405
-473.259	465.615	-0.067	0.149
-472.245	-49.425	-0.385	0.183
-471.230	149.505	-0.047	-0.063
-470.216	-165.304	0.146	-0.006
-469.201	-200.000	0.014	0.325
-468.186	-46.785	-0.385	0.188
-467.172	-200.000	0.014	-0.160
-466.157	407.795	0.124	-0.261
-465.143	-200.000	0.003	-0.052
-464.128	373.453	0.158	-0.320
-463.113	51.588	0.159	-0.150
-462.099	-200.000	-0.053	0.449
-461.084	-24.956	0.188	0.111
-460.070	11.131	0.141	-0.108
-459.055	159.422	0.078	0.109
-458.040	-49.040	-0.131	-0.062
-457.026	582.379	-0.081	0.197
-456.011	-82.842	-0.223	-0.072
-454.997	89.112	0.083	-0.092
-453.982	594.562	-0.072	-0.178
-452.968	-200.000	0.020	0.179
-451.953	318.373	0.190	0.357
-450.938	482.634	-0.110	0.248
-449.924	124.307	0.140	-0.175
-448.909	165.037	0.092	0.129
-447.895	228.922	0.028	-0.045
-446.880	-68.053	0.399	0.155
-445.865	800.000	0.036	0.126
-444.851	-76.461	-0.187	-0.065
-443.836	-153.224	0.228	0.016
-442.822	99.886	0.197	0.227
-441.807	-106.792	-0.024	-0.005
-440.792	214.804	-0.069	-0.109
-439.778	-90.491	-0.059	-0.017
-438.763	-13.704	-0.026	-0.017
-437.749	-29.477	-0.197	0.112
-436.734	-153.258	0.147	-0.010
-435.719	-82.643	0.287	0.093
-434.705	93.114	-0.177	-0.199
-433.690	-39.110	-0.280	-0.146
-432.676	-13.288	-0.094	-0.061
-431.661	69.200	-0.251	0.257
-430.646	800.000	-0.086	0.279
-429.632	-27.831	-0.339	-0.195
-428.617	112.897	0.132	0.159
-427.603	-200.000	-0.016	-0.102
-426.588	-200.000	-0.014	-0.163
-425.573	-200.000	-0.009	-0.045
-424.559	-39.470	-0.269	-0.140
-423.544	211.013	0.119	0.186
-422.530	90.399	0.292	-0.325
-421.515	-200.000	0.002	0.203
-420.500	800.000	0.034	0.107
-419.486	83.483	-0.135	-0.146
-418.471	195.994	0.047	0.071
-417.457	-30.759	0.226	0.127
-416.442	-121.035	-0.578	0.096
-415.428	93.343	-0.035	0.039
-414.413	91.424	-0.184	-0.206
-413.398	386.503	-0.099	0.204
-412.384	660.106	-0.101	-0.259
-411.369	-14.790	0.114	0.073
-410.355	270.663	-0.133	0.233
-409.340	107.693	-0.130	-0.154
-408.325	162.040	-0.104	-0.145
-407.311	89.806	0.128	-0.142
-406.296	-200.000	-0.048	-0.235
-405.282	-48.369	0.064	-0.031
-404.267	-88.287	0.215	-0.064
-403.252	-50.386	0.255	0.119
-402.238	257.027	-0.083	-0.141
-401.223	-200.000	0.003	0.019
-400.209	4.139	0.149	0.109
-399.194	-105.967	-0.223	-0.050
-398.179	40.141	-0.173	0.154
-397.165	-26.746	0.107	-0.062
-396.150	800.000	0.113	-0.328
-395.136	238.812	-0.257	0.424
-394.121	-200.000	0.080	-0.375
-393.106	46.251	0.103	-0.095
-392.092	-200.000	-0.057	0.000
-391.077	638.399	-0.044	0.111
-390.063	41.727	0.205	-0.184
-389.048	181.797	0.135	0.197
-388.033	123.132	0.080	-0.100
-387.019	672.964	0.093	0.239
-386.004	-177.935	0.302	0.007
-384.990	-200.000	-0.010	-0.050
-383.975	207.424	-0.028	0.043
-382.960	800.000	-0.042	-0.182
-381.946	-60.405	-0.280	-0.118
-380.931	-75.003	0.275	0.098
-379.917	70.778	-0.149	-0.153
-378.902	-2.795	0.315	0.218
-377.888	800.000	-0.072	0.272
-376.873	162.665	-0.100	-0.139
-375.858	-132.137	0.187	-0.024
-374.844	-127.848	0.035	-0.005
-373.829	87.877	-0.311	-0.343
-372.815	-36.167	-0.132	0.071
-371.800	-200.000	-0.007	0.141
-370.785	800.000	-0.023	-0.083
-369.771	-143.747	0.599	0.056
-368.756	-140.467	-0.247	-0.026
-367.742	223.207	0.057	0.092
-366.727	-119.681	-0.290	-0.050
-365.712	-200.000	0.022	0.263
-364.698	33.219	-0.392	-0.337
-363.683	731.819	0.068	0.181
-362.669	-200.000	0.021	-0.257
-361.654	472.502	-0.120	0.268
-360.639	172.070	0.047	-0.067
-359.625	-149.325	0.161	-0.013
-358.610	800.000	0.134	-0.384
-357.596	-76.295	0.198	0.069
-356.581	800.000	-0.052	-0.162
-355.566	-105.698	0.357	0.080
-354.552	6.819	0.101	0.074
-353.537	-147.687	-0.172	0.014
-352.523	5.898	0.161	-0.118
-351.508	-42.663	-0.137	-0.069
-350.493	-94.491	0.108	-0.029
-349.479	-126.575	-0.420	-0.062
-348.464	-2.359	0.217	-0.151
-347.450	-173.916	0.215	0.006
-346.435	187.538	0.105	-0.155
-345.420	-166.075	0.145	0.006
-344.406	-19.386	-0.333	-0.205
-343.391	800.000	-0.077	0.212
-342.377	2.205	-0.088	-0.063
-341.362	-200.000	0.042	-0.202
-340.348	-155.605	-0.030	-0.002
-339.333	-16.126	-0.348	-0.219
-338.318	-94.876	0.324	0.087
-337.304	800.000	-0.019	-0.061
-336.289	176.310	0.053	0.077
-335.275	-200.000	0.007	0.225
-334.260	7.573	0.025	0.019
-333.245	-65.090	0.282	0.113
-332.231	-200.000	0.024	0.110
-331.216	512.971	-0.015	0.036
-330.202	169.943	-0.039	0.055
-329.187	529.883	0.043	0.100
-328.172	-100.722	0.312	-0.076
-327.158	205.240	-0.088	0.136
-326.143	-200.000	0.036	0.226
-325.129	-93.670	-0.208	-0.057
-324.114	-36.601	-0.224	0.119
-323.099	-200.000	0.038	-0.185
-322.085	-30.318	-0.236	-0.133
-321.070	163.094	0.207	0.288
-320.056	-67.703	-0.274	-0.106
-319.041	336.025	0.168	-0.322
-318.026	-53.932	-0.328	-0.148
-317.012	18.466	0.227	-0.180
-315.997	-3.344	-0.094	-0.065
-314.983	-50.581	0.165	0.077
-313.968	-13.240	0.143	-0.092
-312.953	490.111	0.015	0.035
-311.939	205.920	-0.129	0.198
-310.924	99.946	-0.290	-0.333
-309.910	-63.605	0.246	-0.100
-308.895	272.807	0.050	0.088
-307.880	205.616	0.153	-0.235
-306.866	-177.266	-0.135	0.003
-305.851	-200.000	0.007	-0.223
-304.837	800.000	-0.127	0.389
-303.822	-48.864	0.263	-0.125
-302.807	-55.410	-0.216	0.096
-301.793	-200.000	0.045	-0.514
-300.778	631.835	0.067	0.168
-299.764	77.283	-0.164	0.172
-298.749	392.049	0.029	-0.059
-297.735	279.861	0.173	0.305
-296.720	61.568	0.087	-0.086
-295.705	206.109	0.081	-0.124
-294.691	58.769	0.155	-0.150
-293.676	-78.386	0.027	0.009
-292.662	-200.000	0.015	0.232
-291.647	-200.000	0.066	0.506
-290.632	-23.824	0.215	-0.127
-289.618	1.214	0.182	0.129
-288.603	-200.000	0.010	-0.285
-287.589	800.000	0.130	0.359
-286.574	-200.000	-0.064	-0.415
-285.559	-144.268	-0.217	0.020
-284.545	-141.949	-0.247	0.024
-283.530	69.244	-0.152	0.155
-282.516	87.074	-0.120	-0.131
-281.501	-68.211	-0.049	0.019
-280.486	-64.681	-0.198	0.079
-279.472	190.569	0.033	-0.049
-278.457	-200.000	-0.004	0.160
-277.443	12.426	-0.244	0.186
-276.428	668.494	0.065	-0.165
-275.413	-175.337	-0.083	-0.002
-274.399	-31.768	0.068	0.038
-273.384	-200.000	-0.026	0.165
-272.370	-13.646	0.051	-0.033
-271.355	-127.748	0.233	-0.033
-270.340	-104.441	-0.199	0.046
-269.326	-200.000	-0.023	0.142
-268.311	-200.000	0.014	0.322
-267.297	107.550	-0.124	-0.145
-266.282	-179.687	0.113	0.002
-265.267	-200.000	0.062	0.339
-264.253	575.757	0.208	0.502
-263.238	-57.552	0.325	0.141
-262.224	800.000	0.075	-0.289
-261.209	80.202	-0.101	-0.107
-260.195	561.170	0.056	-0.133
-259.180	27.355	-0.203	0.169
-258.165	-2.849	0.141	-0.097
-257.151	34.538	0.008	0.007
-256.136	236.193	0.226	0.369
-255.122	76.662	0.111	-0.116
-254.107	247.378	-0.202	-0.337
-253.092	-99.693	-0.252	-0.062
-252.078	72.027	0.125	0.129
-251.063	4.658	0.105	0.076
-250.049	37.222	0.278	-0.243
-249.034	-116.669	0.188	-0.034
-248.019	-200.000	0.063	-0.397
-247.005	-0.182	-0.253	0.177
-245.990	648.631	0.106	0.267
-244.976	297.617	0.061	0.111
-243.961	374.597	0.158	0.318
-242.946	-49.973	0.163	0.076
-241.932	57.996	-0.123	0.119
-240.917	124.016	-0.080	0.099
-239.903	-15.202	0.072	-0.045
-238.888	-56.014	-0.107	0.047
-237.873	-10.645	0.277	0.181
-236.859	-198.313	0.180	0.001
-235.844	770.795	0.104	-0.280
-234.830	43.166	-0.155	0.139
-233.815	-43.873	0.179	0.089
-232.800	124.155	-0.131	-0.162
-231.786	-80.367	0.209	-0.069
-230.771	133.514	0.244	-0.311
-229.757	-69.991	0.253	-0.095
-228.742	59.664	0.036	-0.035
-227.727	693.631	0.096	-0.248
-226.713	800.000	0.131	-0.525
-225.698	356.960	0.047	0.092
-224.684	-60.072	-0.115	-0.048
-223.669	-200.000	0.001	0.169
-222.655	800.000	0.082	0.354
-221.640	156.288	0.135	0.183
-220.625	800.000	0.042	-0.139
-219.611	106.148	0.363	-0.424
-218.596	-111.869	0.279	0.056
-217.582	-90.426	0.141	0.040
-216.567	28.877	-0.167	0.139
-215.552	-133.770	0.149	-0.018
-214.538	-155.803	0.422	-0.027
-213.523	-143.828	0.175	-0.016
-212.509	125.867	0.055	-0.068
-211.494	-200.000	-0.012	0.123
-210.479	-198.356	0.212	-0.001
-209.465	-131.007	0.019	-0.002
-208.450	167.226	0.251	0.351
-207.436	282.636	-0.082	0.145
-206.421	260.313	0.091	-0.155
-205.406	65.802	0.264	0.264
-204.392	-6.207	0.248	-0.167
-203.377	800.000	-0.091	-0.312
-202.363	-200.000	-0.043	0.236
-201.348	158.549	-0.228	0.312
-200.333	-200.000	0.003	0.085
-199.319	-176.342	-0.088	0.002
-198.304	-200.000	0.009	-0.247
-197.290	-105.516	-0.102	-0.023
-196.275	7.465	0.273	0.201
-195.260	-40.708	-0.122	0.063
-194.246	522.492	0.076	0.177
-193.231	-7.442	-0.140	-0.093
-192.217	-133.202	0.169	0.021
-191.202	789.821	-0.108	0.293
-190.187	800.000	-0.097	-0.268
-189.173	-116.248	-0.034	0.006
-188.158	-200.000	-0.044	0.207
-187.144	-200.000	-0.027	-0.197
-186.129	-83.902	0.581	-0.182
-185.114	428.193	-0.019	0.040
-184.100	622.936	-0.189	0.468
-183.085	-52.501	0.292	-0.133
-182.071	800.000	0.091	0.338
-181.056	-200.000	0.008	0.066
-180.042	-78.912	-0.168	-0.056
-179.027	5.854	-0.263	0.192
-178.012	-81.476	-0.060	-0.019
-176.998	-5.387	0.140	0.095
-175.983	-50.191	0.274	0.128
-174.969	6.130	-0.038	-0.027
-173.954	-75.503	-0.079	0.028
-172.939	-19.371	-0.143	-0.087
-171.925	-47.203	-0.274	0.131
-170.910	-77.623	0.124	0.042
-169.896	229.801	0.059	-0.096
-168.881	-9.753	-0.125	-0.082
-167.866	260.326	0.131	0.223
-166.852	-200.000	-0.028	-0.306
-165.837	74.022	0.238	-0.246
-164.823	800.000	-0.137	0.400
-163.808	-111.909	-0.202	-0.040
-162.793	-167.822	0.261	0.010
-161.779	-92.236	0.018	0.005
-160.764	-40.517	0.272	0.139
-159.750	-200.000	-0.042	-0.354
-158.735	-38.610	-0.243	0.126
-157.720	-21.181	0.147	-0.088
-156.706	-68.542	-0.133	-0.051
-155.691	114.221	0.166	-0.199
-154.677	-127.374	-0.291	-0.042
-153.662	-60.414	0.385	0.161
-152.647	69.148	-0.068	0.069
-151.633	-109.772	0.048	-0.010
-150.618	74.398	0.153	-0.158
-149.604	128.698	-0.177	0.222
-148.589	-129.179	-0.323	-0.044
-147.574	159.124	0.076	0.105
-146.560	17.106	-0.146	0.114
-145.545	-200.000	0.014	0.262
-144.531	-48.131	0.298	-0.141
-143.516	-24.622	-0.111	-0.065
-142.502	-200.000	0.031	0.210
-141.487	550.943	0.047	0.112
-140.472	800.000	0.062	0.218
-139.458	-27.551	-0.166	0.095
-138.443	-200.000	0.016	0.078
-137.429	-200.000	0.014	0.172
-136.414	800.000	-0.064	-0.199
-135.399	-80.624	0.205	-0.067
-134.385	-200.000	-0.054	0.250
-133.370	800.000	-0.053	-0.203
-132.356	-5.544	-0.186	0.126
-131.341	366.064	0.082	0.162
-130.326	800.000	0.043	0.120
-129.312	-83.742	-0.246	-0.077
-128.297	70.449	-0.136	-0.138
-127.283	-32.777	0.263	0.143
-126.268	-200.000	-0.012	0.092
-125.253	176.769	-0.156	0.224
-124.239	94.894	0.183	0.204
-123.224	312.843	-0.117	-0.217
-122.210	-49.712	-0.117	-0.055
-121.195	136.784	0.166	0.213
