DTS Sentinel unit serial number:	SN413079Multiplexer serial number:	ORYXHardware model number:	OX4-SRSoftware version number:	ORYX F/W v4.00 Oryx Data Collector v3.7.2.0data status	okinstallation	princeton_trtdifferential loss correction	single-endedforward channel	channel 1reverse channel	N/Adate	2019/09/18time	00:14:35forward acquisition time	60.00reverse acquisition time	0.00gamma	496.2192k internal	0.2340k external	0.2340temperature offset calibration	0.9978default loss term (dB/km)	0.3790temperature slope calibration	1.0000multiplexer offset coefficient	1.0000multiplexer slope coefficient	1.0000fibre end	0.00T internal ref (°C)	23.69T ext. ref 1 (°C)	0.17T ext. ref 2 (°C)	17.27length (m)	temperature (°C)	Stokes	anti-Stokes-747.200	-185.121	0.182	0.003
-746.185	92.049	-0.177	-0.199
-745.171	-200.000	0.020	-0.311
-744.156	-17.535	-0.352	0.222
-743.142	-21.809	0.063	-0.038
-742.127	416.979	-0.037	0.080
-741.112	-40.979	0.266	0.138
-740.098	800.000	0.139	0.418
-739.083	800.000	-0.028	-0.081
-738.069	-200.000	0.017	0.143
-737.054	-64.906	0.193	0.078
-736.039	-107.592	-0.448	-0.098
-735.025	-85.052	0.441	0.138
-734.010	-58.816	-0.506	-0.219
-732.996	-1.158	0.121	0.086
-731.981	-121.166	0.406	-0.068
-730.966	-176.790	0.069	-0.002
-729.952	800.000	0.087	0.244
-728.937	480.577	0.084	-0.191
-727.923	-200.000	-0.007	-0.230
-726.908	62.840	-0.030	0.030
-725.894	-11.748	0.215	0.141
-724.879	-86.439	-0.139	0.043
-723.864	-200.000	-0.015	0.255
-722.850	120.600	0.110	0.137
-721.835	-117.255	-0.391	0.071
-720.821	241.254	-0.114	-0.191
-719.806	800.000	0.154	-0.463
-718.791	-200.000	-0.016	0.096
-717.777	-125.463	0.088	0.013
-716.762	-55.629	0.252	0.113
-715.748	-200.000	0.010	0.220
-714.733	-200.000	0.025	0.285
-713.718	-126.811	-0.309	0.046
-712.704	-200.000	-0.004	0.093
-711.689	800.000	-0.073	-0.207
-710.675	-54.644	0.335	0.151
-709.660	473.480	-0.068	-0.154
-708.645	800.000	0.076	-0.283
-707.631	500.793	-0.168	-0.389
-706.616	-200.000	0.016	0.277
-705.602	-2.567	-0.162	-0.113
-704.587	-56.982	0.183	0.081
-703.572	-120.483	-0.250	0.042
-702.558	800.000	-0.054	-0.201
-701.543	528.460	-0.054	0.128
-700.529	-113.270	-0.241	0.047
-699.514	130.497	-0.036	-0.046
-698.499	12.178	-0.118	0.091
-697.485	19.726	0.242	-0.195
-696.470	-127.983	-0.126	-0.018
-695.456	800.000	-0.086	-0.246
-694.441	-36.285	0.164	-0.088
-693.426	242.452	0.189	0.316
-692.412	-188.494	-0.252	0.003
-691.397	439.466	-0.138	-0.302
-690.383	66.614	0.140	-0.142
-689.368	538.894	-0.090	0.215
-688.354	18.159	0.152	0.121
-687.339	-56.663	-0.007	0.003
-686.324	35.033	0.089	0.078
-685.310	243.611	0.226	0.378
-684.295	800.000	0.021	0.075
-683.281	800.000	-0.045	0.166
-682.266	15.275	0.156	-0.122
-681.251	-200.000	-0.006	0.150
-680.237	11.739	0.049	-0.038
-679.222	-33.959	-0.068	-0.038
-678.208	-191.292	0.070	-0.001
-677.193	-47.705	-0.322	0.156
-676.178	-27.019	0.127	0.074
-675.164	-111.789	-0.380	0.077
-674.149	213.364	-0.105	0.166
-673.135	667.316	-0.088	0.228
-672.120	-1.209	0.438	0.309
-671.105	-82.245	-0.136	0.044
-670.091	-103.047	0.245	0.058
-669.076	-61.876	-0.311	0.130
-668.062	-72.733	-0.272	0.100
-667.047	-167.206	0.147	-0.006
-666.032	335.032	-0.050	0.096
-665.018	-8.587	0.185	-0.124
-664.003	-148.474	0.275	-0.023
-662.989	-40.516	-0.140	-0.073
-661.974	-6.277	-0.097	0.066
-660.959	-200.000	-0.022	0.151
-659.945	38.038	0.010	-0.009
-658.930	-200.000	0.002	0.181
-657.916	13.654	-0.281	-0.218
-656.901	-200.000	-0.017	-0.255
-655.886	-81.774	-0.129	-0.042
-654.872	800.000	0.067	-0.237
-653.857	-66.863	-0.313	-0.124
-652.843	-66.204	0.032	-0.013
-651.828	44.997	0.089	0.082
-650.814	-200.000	0.040	0.241
-649.799	12.706	0.240	-0.185
-648.784	-60.036	0.239	0.102
-647.770	208.565	-0.127	-0.198
-646.755	599.073	-0.083	0.206
-645.741	-200.000	0.025	0.319
-644.726	274.430	0.099	0.175
-643.711	-200.000	-0.124	0.000
-642.697	-127.911	0.064	-0.009
-641.682	-108.275	0.467	0.101
-640.668	273.040	-0.135	0.238
-639.653	239.481	0.191	0.318
-638.638	-200.000	0.006	-0.236
-637.624	293.621	0.200	-0.364
-636.609	1.110	0.173	-0.124
-635.595	-200.000	0.010	0.202
-634.580	-144.522	-0.119	0.011
-633.565	-117.737	0.279	-0.050
-632.551	67.622	-0.110	0.112
-631.536	153.773	-0.261	-0.357
-630.522	-200.000	-0.093	0.545
-629.507	52.448	0.261	-0.249
-628.492	26.339	0.148	0.123
-627.478	-200.000	0.034	0.165
-626.463	22.336	0.166	-0.135
-625.449	-200.000	-0.020	-0.214
-624.434	19.746	0.450	-0.362
-623.419	-114.446	-0.100	0.019
-622.405	74.542	0.203	-0.213
-621.390	-200.000	0.003	-0.039
-620.376	-68.487	-0.102	0.039
-619.361	67.634	-0.233	-0.237
-618.346	-200.000	0.023	-0.198
-617.332	32.053	0.141	-0.122
-616.317	-6.350	0.250	-0.170
-615.303	23.405	-0.367	0.301
-614.288	-148.462	0.194	-0.016
-613.273	528.183	0.054	-0.128
-612.259	-122.157	-0.231	-0.038
-611.244	-52.813	-0.191	-0.088
-610.230	31.332	0.101	-0.086
-609.215	-149.508	-0.372	0.029
-608.201	-128.421	0.439	-0.062
-607.186	-157.126	0.269	0.016
-606.171	-52.965	-0.167	0.076
-605.157	171.565	0.114	-0.163
-604.142	369.224	0.083	0.167
-603.128	508.015	-0.043	0.100
-602.113	-116.467	-0.248	-0.046
-601.098	800.000	0.005	-0.017
-600.084	-85.441	-0.180	-0.056
-599.069	710.407	-0.046	0.121
-598.055	-2.188	0.087	0.061
-597.040	800.000	-0.059	0.185
-596.025	-200.000	-0.063	-0.370
-595.011	633.592	0.078	0.197
-593.996	-200.000	0.009	-0.087
-592.982	-27.601	0.073	0.042
-591.967	500.195	-0.076	0.175
-590.952	-200.000	-0.052	0.252
-589.938	194.563	-0.174	-0.263
-588.923	195.026	0.125	-0.190
-587.909	-13.446	-0.154	-0.099
-586.894	131.824	0.118	-0.151
-585.879	426.706	-0.049	-0.105
-584.865	-200.000	0.031	-0.205
-583.850	-200.000	-0.001	0.068
-582.836	-11.714	-0.316	0.207
-581.821	-73.647	0.180	0.065
-580.806	-60.525	0.137	0.058
-579.792	244.294	-0.068	-0.115
-578.777	-34.760	-0.227	-0.124
-577.763	-41.314	-0.087	0.045
-576.748	-200.000	-0.048	-0.365
-575.733	-105.375	0.169	-0.038
-574.719	-138.733	-0.566	-0.062
-573.704	557.870	0.131	0.315
-572.690	-145.901	0.220	-0.019
-571.675	771.223	-0.123	-0.333
-570.661	284.748	-0.153	-0.274
-569.646	-200.000	-0.063	0.303
-568.631	-24.121	-0.144	-0.086
-567.617	66.231	0.235	-0.238
-566.602	-13.676	0.289	0.186
-565.588	-122.171	0.005	-0.001
-564.573	76.580	0.069	0.073
-563.558	-200.000	0.044	-0.221
-562.544	800.000	0.124	-0.345
-561.529	-162.073	-0.379	-0.019
-560.515	-157.114	0.323	-0.020
-559.500	800.000	0.024	-0.067
-558.485	-200.000	0.007	0.106
-557.471	230.359	0.029	0.047
-556.456	-200.000	0.011	0.141
-555.442	409.334	0.079	0.166
-554.427	-120.880	0.203	-0.034
-553.412	800.000	0.051	-0.200
-552.398	-70.302	-0.184	-0.069
-551.383	800.000	-0.028	-0.090
-550.369	-200.000	-0.007	0.047
-549.354	37.013	0.244	0.214
-548.339	-50.286	-0.201	-0.094
-547.325	800.000	-0.103	-0.429
-546.310	-165.451	-0.415	-0.018
-545.296	-95.944	0.147	0.039
-544.281	-200.000	0.030	0.266
-543.266	74.217	0.068	0.071
-542.252	182.928	-0.083	0.123
-541.237	-101.749	-0.187	0.045
-540.223	354.629	0.086	0.170
-539.208	286.525	-0.182	0.327
-538.193	-200.000	-0.036	0.395
-537.179	136.868	0.083	-0.107
-536.164	-149.198	-0.199	-0.016
-535.150	-101.187	-0.182	0.044
-534.135	111.815	0.073	-0.087
-533.121	-54.183	-0.119	0.054
-532.106	334.152	0.154	-0.297
-531.091	-114.128	-0.159	0.031
-530.077	800.000	0.054	0.208
-529.062	265.615	0.098	0.169
-528.048	210.414	-0.023	0.037
-527.033	-41.016	0.219	-0.113
-526.018	452.573	0.037	0.082
-525.004	270.453	0.098	-0.172
-523.989	-141.811	-0.131	0.013
-522.975	-141.608	-0.221	-0.022
-521.960	-72.152	0.159	0.059
-520.945	-101.786	0.161	-0.039
-519.931	164.481	-0.074	0.104
-518.916	11.735	0.333	0.254
-517.902	261.051	-0.263	0.453
-516.887	-200.000	-0.029	-0.172
-515.872	93.907	-0.217	0.245
-514.858	-200.000	0.009	-0.398
-513.843	325.133	0.037	0.071
-512.829	-146.470	0.437	-0.038
-511.814	-200.000	-0.006	0.469
-510.799	800.000	-0.038	-0.136
-509.785	31.651	-0.241	-0.206
-508.770	-122.381	-0.103	-0.017
-507.756	-101.159	0.142	0.034
-506.741	34.454	0.180	-0.157
-505.726	800.000	-0.089	-0.319
-504.712	800.000	-0.051	0.191
-503.697	-118.672	0.179	0.031
-502.683	-105.310	0.198	-0.045
-501.668	800.000	-0.063	0.206
-500.653	36.079	-0.129	-0.113
-499.639	5.417	-0.281	0.206
-498.624	-156.747	-0.276	-0.017
-497.610	-135.681	-0.230	-0.027
-496.595	800.000	0.089	0.297
-495.581	-180.268	-0.023	0.000
-494.566	-61.300	-0.184	0.077
-493.551	162.516	-0.092	0.129
-492.537	800.000	0.135	0.371
-491.522	-139.106	0.299	0.032
-490.508	258.326	-0.144	0.246
-489.493	-94.124	-0.059	0.016
-488.478	-15.866	0.195	0.123
-487.464	-11.817	-0.195	0.127
-486.449	93.306	0.179	0.201
-485.435	-6.198	0.129	-0.087
-484.420	800.000	-0.076	-0.210
-483.405	-200.000	0.011	0.050
-482.391	343.487	-0.032	0.062
-481.376	115.320	0.143	0.174
-480.362	-200.000	-0.010	-0.184
-479.347	-16.210	-0.049	-0.031
-478.332	582.889	-0.041	0.101
-477.318	170.335	0.074	-0.106
-476.303	47.581	-0.120	-0.111
-475.289	-6.784	-0.198	0.133
-474.274	24.227	0.314	0.257
-473.259	-147.945	0.081	0.007
-472.245	150.257	-0.199	0.268
-471.230	133.192	-0.123	-0.157
-470.216	-64.460	-0.219	-0.088
-469.201	-19.683	-0.287	-0.176
-468.186	-200.000	0.006	-0.062
-467.172	-1.131	0.066	0.046
-466.157	-200.000	-0.025	-0.334
-465.143	346.013	0.185	-0.360
-464.128	-24.536	0.157	-0.093
-463.113	-50.920	-0.107	0.050
-462.099	800.000	-0.044	0.173
-461.084	620.402	0.031	-0.077
-460.070	-96.289	-0.543	-0.143
-459.055	-110.838	-0.113	0.023
-458.040	69.922	-0.063	0.064
-457.026	21.063	0.069	0.056
-456.011	-143.327	-0.186	0.018
-454.997	101.442	-0.169	0.195
-453.982	-63.054	0.220	0.090
-452.968	-84.968	-0.146	0.045
-451.953	-3.245	-0.214	0.148
-450.938	-200.000	-0.015	-0.176
-449.924	-78.852	-0.330	-0.111
-448.909	8.934	0.208	-0.155
-447.895	-200.000	-0.004	0.025
-446.880	-200.000	-0.020	-0.143
-445.865	468.962	0.059	-0.131
-444.851	-21.562	-0.328	-0.198
-443.836	800.000	0.013	-0.044
-442.822	30.115	-0.178	-0.151
-441.807	167.864	-0.067	-0.095
-440.792	782.287	0.054	0.147
-439.778	92.821	0.144	-0.161
-438.763	800.000	0.027	0.088
-437.749	-172.089	-0.144	0.005
-436.734	40.682	0.233	0.208
-435.719	155.089	0.193	-0.262
-434.705	-16.748	-0.105	0.066
-433.690	-200.000	-0.005	0.290
-432.676	-27.971	0.037	-0.021
-431.661	254.209	0.071	0.120
-430.646	-9.454	0.268	0.177
-429.632	767.092	0.031	-0.084
-428.617	94.699	-0.113	-0.127
-427.603	15.854	-0.229	-0.178
-426.588	34.485	0.110	0.095
-425.573	-136.769	-0.147	-0.017
-424.559	197.003	-0.154	-0.232
-423.544	91.963	0.181	-0.201
-422.530	414.607	0.089	-0.188
-421.515	-103.392	-0.174	-0.040
-420.500	-200.000	0.034	-0.163
-419.486	157.367	0.072	-0.098
-418.471	320.980	-0.052	0.097
-417.457	-0.023	0.124	0.087
-416.442	800.000	-0.058	-0.235
-415.428	-39.615	0.105	-0.054
-414.413	104.230	-0.158	0.184
-413.398	-4.194	-0.144	0.099
-412.384	13.613	0.216	-0.166
-411.369	-200.000	-0.008	0.120
-410.355	154.968	-0.094	-0.128
-409.340	-43.211	-0.113	-0.056
-408.325	185.474	-0.189	0.277
-407.311	45.239	0.109	-0.100
-406.296	233.669	0.014	-0.023
-405.282	-107.121	0.300	0.065
-404.267	-126.391	-0.138	0.020
-403.252	-63.776	-0.138	0.056
-402.238	-91.496	0.139	-0.039
-401.223	53.638	-0.251	-0.238
-400.209	-71.113	0.128	-0.047
-399.194	-50.499	0.026	-0.012
-398.179	588.888	-0.091	-0.221
-397.165	-200.000	0.027	0.140
-396.150	-76.513	0.179	-0.062
-395.136	65.714	0.112	0.112
-394.121	227.272	-0.049	-0.078
-393.106	206.885	-0.124	0.191
-392.092	-122.524	0.193	-0.031
-391.077	-35.181	0.034	-0.018
-390.063	-87.915	0.373	-0.111
-389.048	375.573	-0.111	-0.224
-388.033	23.394	-0.119	-0.097
-387.019	232.896	0.152	-0.247
-386.004	314.433	-0.010	0.018
-384.990	152.755	-0.183	0.247
-383.975	170.477	0.136	-0.192
-382.960	800.000	-0.064	-0.220
-381.946	-45.364	-0.155	-0.076
-380.931	5.748	-0.329	-0.241
-379.917	87.809	-0.097	-0.106
-378.902	-83.390	0.206	0.065
-377.888	800.000	0.029	-0.113
-376.873	-14.122	0.269	-0.171
-375.858	-5.833	-0.235	-0.159
-374.844	221.782	0.185	-0.294
-373.829	-111.045	0.135	0.027
-372.815	87.956	0.063	0.069
-371.800	125.592	-0.199	0.249
-370.785	348.607	-0.017	0.033
-369.771	-200.000	0.038	-0.329
-368.756	-155.162	-0.246	-0.016
-367.742	-142.523	-0.018	-0.002
-366.727	800.000	0.088	0.286
-365.712	-200.000	0.003	0.149
-364.698	0.525	-0.318	0.224
-363.683	-54.907	-0.133	-0.059
-362.669	-97.726	-0.172	0.044
-361.654	730.652	0.135	-0.358
-360.639	-71.877	-0.129	-0.047
-359.625	-125.221	0.241	0.036
-358.610	130.342	-0.116	0.146
-357.596	-185.150	0.262	0.004
-356.581	-200.000	-0.040	-0.184
-355.566	122.864	-0.206	0.255
-354.552	-200.000	-0.038	-0.188
-353.537	-25.835	-0.127	-0.074
-352.523	-200.000	0.028	-0.202
-351.508	-86.552	-0.089	0.027
-350.493	181.602	-0.079	0.115
-349.479	174.905	-0.060	-0.086
-348.464	-200.000	0.017	-0.144
-347.450	800.000	0.093	0.272
-346.435	-107.007	0.226	0.049
-345.420	-200.000	0.033	0.145
-344.406	-56.375	0.087	-0.038
-343.391	-200.000	0.004	-0.218
-342.377	-200.000	-0.020	-0.188
-341.362	15.209	-0.233	0.180
-340.348	-23.570	-0.231	-0.137
-339.333	231.253	0.105	0.169
-338.318	423.117	0.053	-0.112
-337.304	-200.000	0.004	0.320
-336.289	800.000	0.096	0.349
-335.275	-136.184	-0.099	0.011
-334.260	800.000	0.054	-0.154
-333.245	-32.367	-0.141	-0.078
-332.231	-200.000	-0.020	0.151
-331.216	-0.561	0.216	-0.151
-330.202	800.000	-0.072	0.204
-329.187	-187.090	-0.331	0.004
-328.172	-82.945	0.162	-0.051
-327.158	133.264	-0.061	-0.078
-326.143	800.000	-0.149	-0.480
-325.129	-69.467	0.300	0.113
-324.114	-200.000	0.049	-0.460
-323.099	-36.262	0.122	-0.065
-322.085	-200.000	0.031	0.288
-321.070	-200.000	-0.009	0.212
-320.056	-200.000	0.027	0.192
-319.041	-86.784	-0.177	0.053
-318.026	-24.301	-0.214	-0.126
-317.012	527.584	-0.043	-0.100
-315.997	-200.000	0.053	0.256
-314.983	-146.340	0.196	0.017
-313.968	197.132	-0.111	0.167
-312.953	-157.175	0.134	0.008
-311.939	441.087	0.122	0.262
-310.924	-185.136	0.066	-0.001
-309.910	800.000	0.092	0.252
-308.895	290.359	0.163	0.292
-307.880	-20.103	0.137	0.083
-306.866	657.860	-0.126	-0.319
-305.851	-9.426	0.152	-0.100
-304.837	362.689	-0.129	-0.255
-303.822	-115.620	0.144	0.027
-302.807	-104.311	0.480	0.110
-301.793	-84.988	-0.411	-0.127
-300.778	-80.887	0.068	-0.022
-299.764	223.273	-0.251	0.399
-298.749	-106.226	0.382	-0.084
-297.735	800.000	-0.078	-0.302
-296.720	-3.520	-0.244	-0.167
-295.705	-200.000	-0.096	0.451
-294.691	82.400	0.203	-0.217
-293.676	558.430	0.036	0.085
-292.662	291.086	-0.112	-0.201
-291.647	-165.613	0.441	-0.019
-290.632	-200.000	-0.011	0.236
-289.618	-200.000	-0.024	-0.304
-288.603	27.666	0.155	-0.128
-287.589	-72.283	0.129	-0.047
-286.574	-77.129	-0.194	-0.066
-285.559	-200.000	0.003	0.174
-284.545	544.666	-0.118	-0.278
-283.530	54.174	-0.103	-0.097
-282.516	-102.893	-0.080	-0.019
-281.501	-200.000	0.008	-0.426
-280.486	-63.269	0.226	-0.092
-279.472	-200.000	0.054	0.253
-278.457	53.781	-0.081	-0.077
-277.443	294.246	-0.053	0.095
-276.428	186.370	0.280	0.410
-275.413	5.018	-0.283	-0.205
-274.399	359.457	0.095	0.188
-273.384	206.224	0.057	0.087
-272.370	30.701	-0.153	0.129
-271.355	29.897	-0.124	-0.104
-270.340	-185.054	0.079	0.001
-269.326	-9.219	-0.237	-0.156
-268.311	445.295	0.131	-0.283
-267.297	136.410	0.259	-0.333
-266.282	100.784	-0.126	-0.144
-265.267	-180.398	-0.218	0.004
-264.253	-44.302	-0.087	-0.043
-263.238	109.584	0.155	0.183
-262.224	46.119	-0.163	0.148
-261.209	60.315	0.237	0.231
-260.195	-90.862	-0.150	-0.042
-259.180	-125.870	-0.188	0.028
-258.165	18.899	0.088	0.069
-257.151	247.176	0.155	0.257
-256.136	-200.000	-0.006	0.161
-255.122	85.760	-0.220	-0.238
-254.107	306.108	0.029	-0.054
-253.092	800.000	0.026	0.076
-252.078	335.029	0.081	0.154
-251.063	193.147	0.147	0.219
-250.049	270.732	0.033	-0.058
-249.034	63.583	0.109	0.108
-248.019	44.108	0.049	-0.044
-247.005	-32.079	0.170	0.093
-245.990	-119.906	0.037	-0.006
-244.976	670.585	0.108	-0.274
-243.961	-43.927	-0.174	-0.086
-242.946	800.000	0.078	0.216
-241.932	800.000	-0.081	0.304
-240.917	24.810	-0.057	-0.047
-239.903	-184.401	-0.168	0.003
-238.888	800.000	-0.075	-0.252
-237.873	-188.797	0.195	-0.002
-236.859	-87.318	0.039	-0.012
-235.844	242.760	-0.033	0.055
-234.830	-89.465	-0.208	-0.060
-233.815	24.103	0.077	0.062
-232.800	800.000	0.031	-0.111
-231.786	7.062	-0.168	0.123
-230.771	-4.177	0.157	-0.107
-229.757	-49.443	-0.311	-0.146
-228.742	43.491	0.126	-0.113
-227.727	800.000	-0.062	-0.186
-226.713	-3.443	-0.209	0.143
-225.698	800.000	0.057	-0.212
-224.684	5.090	-0.127	0.092
-223.669	32.163	0.210	0.178
-222.655	79.128	0.208	-0.219
-221.640	-149.126	0.145	0.011
-220.625	800.000	0.040	0.146
-219.611	-200.000	-0.025	0.175
-218.596	-87.788	0.149	-0.044
-217.582	131.132	0.108	0.137
-216.567	-200.000	-0.022	-0.103
-215.552	-57.339	0.032	-0.014
-214.538	-79.583	-0.167	0.055
-213.523	-100.701	-0.278	0.067
-212.509	-75.730	-0.205	0.072
-211.494	34.976	0.241	0.207
-210.479	-93.874	0.218	-0.059
-209.465	104.491	0.189	0.219
-208.450	-1.195	0.168	0.116
-207.436	-142.969	-0.032	-0.003
-206.421	-72.833	0.235	0.085
-205.406	134.263	0.077	0.098
-204.392	-51.825	-0.078	0.036
-203.377	-200.000	0.081	-0.432
-202.363	800.000	0.094	0.361
-201.348	51.074	0.065	-0.061
-200.333	26.856	0.128	0.105
-199.319	800.000	-0.055	0.172
-198.304	175.866	0.250	-0.355
-197.290	-64.889	0.177	0.070
-196.275	800.000	-0.107	-0.313
-195.260	-160.629	0.304	0.016
-194.246	-85.545	0.237	-0.072
-193.231	-13.698	0.184	0.117
-192.217	98.810	-0.179	0.203
-191.202	180.763	0.218	-0.314
-190.187	-138.863	0.182	-0.019
-189.173	145.779	-0.159	0.209
-188.158	11.836	-0.184	-0.139
-187.144	800.000	-0.030	0.127
-186.129	800.000	-0.115	0.358
-185.114	-164.190	-0.188	0.008
-184.100	41.893	-0.185	0.164
-183.085	-49.516	-0.150	0.070
-182.071	7.320	-0.361	0.265
-181.056	-0.278	-0.317	-0.221
-180.042	219.942	-0.280	0.439
-179.027	109.943	0.126	0.148
-178.012	-200.000	0.048	-0.441
-176.998	125.834	0.188	-0.233
-175.983	-164.870	0.294	0.013
-174.969	103.339	0.202	-0.233
-173.954	-119.626	0.395	-0.067
-172.939	69.042	-0.069	0.069
-171.925	334.337	0.134	0.254
-170.910	-39.635	0.120	0.062
-169.896	-200.000	-0.014	-0.410
-168.881	-154.358	-0.238	-0.016
-167.866	-26.615	0.156	0.090
-166.852	-200.000	0.026	-0.128
-165.837	311.555	-0.191	0.352
-164.823	-62.091	-0.122	-0.050
-163.808	285.556	-0.073	0.129
-162.793	130.265	0.157	0.197
-161.779	70.020	-0.297	-0.300
-160.764	302.816	0.131	0.238
-159.750	-91.773	-0.153	-0.043
-158.735	114.025	-0.185	0.220
-157.720	111.208	0.266	0.314
-156.706	-200.000	0.038	-0.194
-155.691	392.208	-0.123	0.250
-154.677	-27.749	-0.182	-0.104
-153.662	-200.000	-0.003	0.083
-152.647	231.679	0.218	0.351
-151.633	8.362	-0.223	0.164
-150.618	-50.355	0.155	0.072
-149.604	207.969	0.174	0.266
-148.589	182.715	0.014	-0.020
-147.574	-77.313	-0.148	0.050
-146.560	-74.817	0.351	0.123
-145.545	90.263	-0.285	0.313
-144.531	56.073	0.036	0.034
-143.516	-200.000	-0.027	-0.150
-142.502	-200.000	0.002	-0.014
-141.487	-69.092	0.411	0.155
-140.472	-116.079	-0.171	-0.031
-139.458	240.675	0.232	0.379
-138.443	452.909	0.173	0.375
-137.429	64.318	0.132	-0.130
-136.414	-5.710	-0.250	-0.167
-135.399	705.163	0.096	-0.248
-134.385	-200.000	-0.041	0.280
-133.370	-200.000	0.011	-0.065
-132.356	-200.000	-0.039	0.166
-131.341	-41.821	-0.164	-0.082
-130.326	800.000	-0.046	-0.184
-129.312	7.209	-0.130	-0.095
-128.297	-128.642	0.370	-0.051
-127.283	800.000	-0.045	-0.144
-126.268	442.663	-0.066	-0.142
-125.253	259.444	-0.095	0.161
-124.239	488.187	-0.050	-0.112
-123.224	800.000	-0.033	-0.136
-122.210	99.306	-0.131	0.148
-121.195	-134.434	-0.318	-0.038
-120.180	188.070	0.043	-0.063
