DTS Sentinel unit serial number:	SN413079Multiplexer serial number:	ORYXHardware model number:	OX4-SRSoftware version number:	ORYX F/W v4.00 Oryx Data Collector v3.7.2.0data status	okinstallation	princeton_trtdifferential loss correction	single-endedforward channel	channel 1reverse channel	N/Adate	2019/09/15time	02:14:35forward acquisition time	60.00reverse acquisition time	0.00gamma	496.2192k internal	0.2322k external	0.2322temperature offset calibration	0.9989default loss term (dB/km)	0.3790temperature slope calibration	1.0000multiplexer offset coefficient	1.0000multiplexer slope coefficient	1.0000fibre end	0.00T internal ref (°C)	31.64T ext. ref 1 (°C)	4.55T ext. ref 2 (°C)	26.20length (m)	temperature (°C)	Stokes	anti-Stokes-747.200	-200.000	0.002	0.173
-746.185	61.819	-0.287	0.289
-745.171	-200.000	0.029	0.229
-744.156	-200.000	-0.008	0.155
-743.142	-41.936	-0.031	-0.016
-742.127	-146.982	-0.072	0.006
-741.112	53.288	-0.148	0.143
-740.098	6.839	-0.188	0.142
-739.083	-200.000	-0.008	-0.185
-738.069	800.000	-0.182	0.519
-737.054	-57.358	0.263	0.117
-736.039	-137.591	-0.483	-0.055
-735.025	255.358	0.059	-0.103
-734.010	-135.721	0.188	-0.022
-732.996	-200.000	-0.082	-0.389
-731.981	31.148	-0.281	-0.244
-730.966	152.734	0.130	0.179
-729.952	800.000	0.128	-0.406
-728.937	-23.140	-0.084	0.051
-727.923	239.701	-0.066	-0.111
-726.908	-200.000	0.032	0.203
-725.894	-200.000	-0.041	0.306
-724.879	-26.299	-0.313	0.185
-723.864	-23.310	-0.229	0.139
-722.850	-47.281	-0.192	-0.095
-721.835	-10.572	-0.204	-0.136
-720.821	119.169	0.098	0.123
-719.806	-151.277	-0.134	-0.010
-718.791	-62.538	-0.038	-0.016
-717.777	589.371	0.065	-0.162
-716.762	800.000	0.010	0.031
-715.748	59.839	0.084	0.084
-714.733	104.431	-0.021	0.026
-713.718	-116.444	0.061	-0.011
-712.704	-200.000	-0.018	0.150
-711.689	-200.000	0.028	0.562
-710.675	406.255	-0.031	0.067
-709.660	-47.173	0.243	-0.119
-708.645	-137.022	0.262	-0.030
-707.631	240.006	-0.008	0.014
-706.616	-200.000	0.008	-0.054
-705.602	-200.000	0.007	0.357
-704.587	48.337	0.249	-0.235
-703.572	242.004	-0.093	0.157
-702.558	76.610	0.057	0.061
-701.543	800.000	-0.105	0.314
-700.529	277.930	0.114	0.205
-699.514	187.363	0.069	0.104
-698.499	-200.000	0.010	0.096
-697.485	-0.560	0.164	-0.118
-696.470	2.075	0.172	-0.125
-695.456	-172.265	0.258	-0.008
-694.441	-200.000	0.022	-0.241
-693.426	-130.121	-0.180	-0.025
-692.412	-200.000	-0.062	-0.325
-691.397	-9.191	0.169	0.114
-690.383	-66.776	0.294	0.117
-689.368	189.791	-0.123	-0.186
-688.354	-200.000	0.000	-0.213
-687.339	-200.000	0.045	-0.298
-686.324	309.867	-0.032	-0.060
-685.310	-127.353	0.150	-0.022
-684.295	50.308	-0.146	-0.139
-683.281	40.486	-0.303	-0.275
-682.266	-54.233	-0.186	0.085
-681.251	-200.000	0.075	0.515
-680.237	-200.000	0.028	0.171
-679.222	-34.338	-0.159	0.088
-678.208	-200.000	0.073	-0.332
-677.193	172.141	0.133	0.193
-676.178	-115.122	-0.203	0.039
-675.164	800.000	0.042	0.174
-674.149	12.878	0.118	-0.092
-673.135	-130.958	-0.318	0.043
-672.120	20.357	-0.116	0.094
-671.105	148.839	-0.144	0.196
-670.091	-181.595	-0.152	-0.003
-669.076	-65.325	-0.140	0.057
-668.062	800.000	-0.082	0.280
-667.047	-47.854	0.076	-0.037
-666.032	-126.192	-0.374	0.056
-665.018	-143.901	0.131	0.012
-664.003	-92.922	0.165	0.046
-662.989	149.346	-0.097	0.133
-661.974	-37.302	-0.200	-0.108
-660.959	800.000	0.068	0.199
-659.945	8.969	0.074	0.056
-658.930	216.750	-0.182	0.292
-657.916	-64.999	-0.234	0.095
-656.901	49.172	-0.189	0.179
-655.886	253.623	0.086	0.147
-654.872	-200.000	-0.026	-0.117
-653.857	800.000	-0.064	-0.194
-652.843	-200.000	-0.008	0.053
-651.828	-85.082	0.040	0.012
-650.814	4.738	-0.106	0.078
-649.799	-200.000	0.006	0.070
-648.784	-57.399	0.179	0.079
-647.770	-30.091	0.489	0.280
-646.755	-200.000	0.048	-0.222
-645.741	437.487	-0.098	0.214
-644.726	345.122	-0.054	0.107
-643.711	-200.000	-0.005	-0.109
-642.697	59.965	0.153	0.152
-641.682	800.000	0.054	-0.182
-640.668	-200.000	0.025	0.129
-639.653	411.637	-0.075	0.159
-638.638	-200.000	-0.011	-0.133
-637.624	228.920	0.124	0.204
-636.609	118.876	0.107	-0.133
-635.595	133.523	-0.117	-0.152
-634.580	-33.371	0.242	-0.135
-633.565	390.367	0.143	-0.298
-632.551	-145.831	-0.272	0.024
-631.536	613.571	-0.041	0.103
-630.522	-159.033	-0.261	-0.015
-629.507	584.369	-0.052	-0.130
-628.492	-71.144	0.097	0.037
-627.478	-117.689	-0.393	-0.071
-626.463	-200.000	-0.540	0.001
-625.449	-200.000	-0.025	0.206
-624.434	-9.671	-0.127	0.085
-623.419	-156.928	0.409	0.025
-622.405	-125.967	0.036	-0.006
-621.390	-17.350	-0.137	0.087
-620.376	-200.000	0.011	0.055
-619.361	-28.404	-0.124	0.072
-618.346	800.000	0.065	-0.233
-617.332	-39.151	-0.108	-0.057
-616.317	-9.091	0.088	0.059
-615.303	357.454	-0.071	-0.143
-614.288	226.544	-0.082	-0.133
-613.273	800.000	0.041	0.129
-612.259	-200.000	0.034	-0.157
-611.244	12.787	0.077	0.060
-610.230	-5.728	0.058	0.040
-609.215	-177.983	0.292	-0.007
-608.201	45.440	-0.112	0.104
-607.186	-8.656	0.235	-0.159
-606.171	108.224	0.112	-0.134
-605.157	-15.715	-0.176	-0.113
-604.142	-176.998	0.295	-0.007
-603.128	-18.320	-0.211	-0.133
-602.113	268.494	0.099	-0.174
-601.098	-7.533	0.183	-0.125
-600.084	-200.000	-0.027	-0.256
-599.069	455.954	-0.032	-0.072
-598.055	96.160	-0.108	-0.124
-597.040	-93.715	-0.236	-0.065
-596.025	-6.500	0.193	-0.132
-595.011	-97.555	-0.145	0.038
-593.996	-200.000	-0.029	-0.143
-592.982	-178.820	-0.162	0.004
-591.967	16.945	-0.153	0.122
-590.952	410.558	0.049	-0.103
-589.938	71.758	0.116	-0.121
-588.923	51.739	0.134	0.128
-587.909	194.913	-0.210	-0.320
-586.894	63.688	0.101	-0.101
-585.879	611.375	0.018	0.046
-584.865	-9.183	-0.327	-0.220
-583.850	800.000	0.184	-0.602
-582.836	-96.550	-0.153	-0.041
-581.821	-50.056	-0.321	-0.153
-580.806	800.000	-0.014	-0.049
-579.792	291.593	0.069	-0.126
-578.777	-100.427	0.294	0.073
-577.763	122.435	0.200	0.251
-576.748	-200.000	0.077	-0.355
-575.733	-5.779	-0.297	0.204
-574.719	47.441	0.196	0.184
-573.704	27.701	0.159	0.134
-572.690	12.592	0.246	-0.190
-571.675	-40.469	-0.075	0.039
-570.661	-51.330	0.198	0.093
-569.646	-200.000	-0.021	0.175
-568.631	170.226	-0.009	-0.013
-567.617	800.000	0.085	-0.276
-566.602	-200.000	-0.010	-0.251
-565.588	188.738	0.147	-0.221
-564.573	-48.164	0.225	-0.109
-563.558	800.000	0.048	-0.140
-562.544	188.332	-0.050	-0.075
-561.529	52.676	-0.091	0.087
-560.515	76.932	-0.144	0.153
-559.500	-200.000	0.014	0.191
-558.485	-44.275	-0.111	0.056
-557.471	-85.249	0.085	0.027
-556.456	-21.294	0.245	-0.150
-555.442	135.265	0.129	-0.168
-554.427	113.384	-0.251	-0.305
-553.412	243.413	-0.227	0.382
-552.398	705.952	-0.062	-0.165
-551.383	-200.000	-0.058	0.314
-550.369	800.000	0.068	-0.267
-549.354	186.801	-0.132	0.197
-548.339	-32.549	-0.284	-0.159
-547.325	175.851	0.058	-0.084
-546.310	48.728	0.197	0.185
-545.296	432.435	-0.279	0.608
-544.281	136.289	-0.214	0.279
-543.266	237.951	-0.128	0.213
-542.252	6.636	0.025	0.019
-541.237	74.657	0.251	-0.265
-540.223	-51.016	0.159	-0.075
-539.208	800.000	0.098	0.292
-538.193	-200.000	0.025	-0.266
-537.179	306.238	-0.216	-0.402
-536.164	-160.891	-0.093	0.005
-535.150	-200.000	-0.005	-0.023
-534.135	-200.000	0.012	0.060
-533.121	-200.000	0.020	0.141
-532.106	242.197	-0.039	-0.065
-531.091	-200.000	0.010	-0.218
-530.077	25.540	-0.150	0.125
-529.062	241.416	0.053	0.088
-528.048	-129.239	0.293	0.041
-527.033	25.093	0.052	-0.043
-526.018	266.707	-0.186	-0.326
-525.004	-9.965	-0.380	-0.253
-523.989	-28.961	0.307	0.177
-522.975	-200.000	0.008	-0.082
-521.960	-102.551	-0.045	0.011
-520.945	-105.177	-0.069	-0.016
-519.931	-200.000	0.022	-0.228
-518.916	-57.951	0.158	-0.069
-517.902	285.260	-0.123	-0.221
-516.887	800.000	-0.029	0.123
-515.872	155.558	-0.099	-0.136
-514.858	23.423	0.203	-0.167
-513.843	-22.418	-0.580	-0.352
-512.829	-97.545	-0.165	-0.043
-511.814	3.081	-0.114	0.083
-510.799	106.812	0.157	0.186
-509.785	-123.603	0.174	0.028
-508.770	-200.000	-0.005	-0.057
-507.756	-32.875	-0.049	-0.027
-506.741	-115.189	0.296	-0.056
-505.726	-54.040	0.201	0.092
-504.712	272.318	-0.125	0.220
-503.697	-170.045	-0.229	-0.008
-502.683	-200.000	0.024	-0.271
-501.668	-200.000	-0.026	-0.137
-500.653	-200.000	-0.008	-0.064
-499.639	-36.334	0.018	-0.010
-498.624	-94.238	-0.179	0.049
-497.610	-7.698	0.084	0.057
-496.595	800.000	-0.050	-0.156
-495.581	180.992	-0.195	-0.286
-494.566	-108.868	-0.248	0.053
-493.551	562.376	0.058	0.139
-492.537	195.920	-0.117	-0.178
-491.522	-174.043	-0.192	0.006
-490.508	-73.210	-0.184	0.067
-489.493	25.910	-0.124	-0.103
-488.478	-95.616	-0.273	-0.073
-487.464	45.992	-0.147	-0.136
-486.449	254.527	0.082	-0.141
-485.435	261.726	-0.185	0.321
-484.420	4.901	-0.187	0.138
-483.405	-22.395	-0.135	-0.082
-482.391	252.743	0.103	0.176
-481.376	-200.000	-0.018	0.098
-480.362	138.210	-0.107	-0.141
-479.347	-0.059	-0.236	0.168
-478.332	-200.000	-0.039	0.317
-477.318	-93.340	-0.143	-0.040
-476.303	-4.208	-0.158	0.110
-475.289	-1.460	0.167	0.118
-474.274	-80.859	0.359	0.119
-473.259	268.185	-0.156	0.274
-472.245	-2.262	-0.175	0.123
-471.230	215.001	-0.126	-0.199
-470.216	192.249	-0.082	0.124
-469.201	-65.192	-0.379	-0.153
-468.186	-86.441	0.317	0.097
-467.172	128.795	0.199	0.253
-466.157	-200.000	0.023	0.164
-465.143	-137.652	0.115	0.013
-464.128	-82.713	0.042	0.013
-463.113	348.410	-0.068	-0.134
-462.099	-79.569	-0.248	0.084
-461.084	800.000	-0.071	-0.196
-460.070	800.000	-0.112	-0.334
-459.055	230.102	-0.161	0.263
-458.040	787.379	-0.005	0.014
-457.026	-45.560	-0.138	0.068
-456.011	-9.482	-0.389	0.259
-454.997	157.984	-0.215	0.297
-453.982	-3.833	-0.085	-0.059
-452.968	84.775	0.242	0.265
-451.953	-110.626	-0.505	-0.104
-450.938	-200.000	0.004	0.068
-449.924	-167.499	0.183	-0.007
-448.909	-11.953	0.293	0.192
-447.895	-81.471	0.195	-0.064
-446.880	-155.598	-0.242	0.016
-445.865	-140.596	-0.073	-0.008
-444.851	-6.524	0.537	-0.366
-443.836	-179.630	-0.327	0.007
-442.822	800.000	0.047	-0.156
-441.807	-114.495	0.215	-0.041
-440.792	-113.021	0.166	-0.033
-439.778	399.691	0.139	-0.291
-438.763	164.144	0.090	0.127
-437.749	-134.761	0.274	0.033
-436.734	-95.946	0.255	0.068
-435.719	-33.788	0.158	0.087
-434.705	-112.694	0.292	0.058
-433.690	69.049	0.155	0.159
-432.676	398.916	0.096	0.201
-431.661	-44.882	-0.046	0.023
-430.646	195.280	-0.063	0.096
-429.632	80.920	0.060	0.065
-428.617	237.684	0.060	0.099
-427.603	78.771	-0.274	0.292
-426.588	-95.794	0.094	0.025
-425.573	-200.000	0.015	-0.088
-424.559	11.168	0.233	0.178
-423.544	-95.393	0.399	-0.107
-422.530	-124.850	-0.381	0.059
-421.515	-118.536	0.186	0.033
-420.500	-91.553	0.015	0.004
-419.486	183.574	-0.065	0.096
-418.471	88.557	-0.133	0.147
-417.457	800.000	-0.114	0.442
-416.442	-59.757	-0.140	-0.060
-415.428	-200.000	-0.004	-0.203
-414.413	-113.145	0.278	0.055
-413.398	-161.910	-0.105	0.005
-412.384	71.939	0.050	0.052
-411.369	-18.268	-0.236	-0.147
-410.355	34.522	0.068	-0.059
-409.340	-98.585	0.299	0.076
-408.325	274.986	0.197	-0.349
-407.311	-200.000	0.022	-0.370
-406.296	-84.301	0.189	0.060
-405.282	-73.630	-0.157	0.057
-404.267	-49.574	-0.187	-0.089
-403.252	48.066	0.327	-0.305
-402.238	-87.698	-0.044	0.013
-401.223	800.000	-0.107	-0.301
-400.209	-57.646	-0.070	-0.031
-399.194	56.371	0.165	-0.160
-398.179	-18.285	-0.089	-0.056
-397.165	-87.410	-0.347	0.105
-396.150	-40.969	0.256	-0.132
-395.136	8.422	-0.185	-0.139
-394.121	-128.198	-0.106	-0.015
-393.106	-73.619	-0.057	0.021
-392.092	-29.632	-0.139	0.079
-391.077	-200.000	-0.004	-0.050
-390.063	-24.181	0.084	0.050
-389.048	-181.120	-0.240	-0.005
-388.033	44.904	-0.262	0.240
-387.019	-200.000	0.013	0.390
-386.004	-171.964	0.206	-0.007
-384.990	-200.000	-0.004	-0.105
-383.975	209.427	-0.160	-0.250
-382.960	399.560	0.087	0.181
-381.946	800.000	0.019	0.074
-380.931	472.753	0.065	-0.147
-379.917	493.491	0.113	0.259
-378.902	-156.317	-0.164	0.010
-377.888	800.000	-0.065	-0.243
-376.873	420.988	-0.033	-0.070
-375.858	-108.553	-0.079	-0.017
-374.844	-200.000	0.028	-0.229
-373.829	337.020	-0.151	-0.293
-372.815	-40.925	-0.209	0.108
-371.800	-32.650	-0.093	-0.052
-370.785	335.490	0.140	-0.270
-369.771	-200.000	-0.009	0.118
-368.756	-200.000	-0.002	0.012
-367.742	393.125	-0.049	0.101
-366.727	147.527	-0.100	0.134
-365.712	-71.360	-0.109	0.041
-364.698	-200.000	0.040	0.188
-363.683	-42.998	-0.106	0.054
-362.669	800.000	-0.041	-0.125
-361.654	-116.720	-0.192	0.035
-360.639	800.000	-0.055	0.213
-359.625	-55.075	0.105	-0.047
-358.610	-62.428	-0.151	-0.062
-357.596	-35.997	0.103	-0.055
-356.581	-32.859	-0.152	0.084
-355.566	26.006	-0.085	0.070
-354.552	-47.959	-0.290	0.140
-353.537	14.344	-0.227	0.176
-352.523	237.144	0.253	0.418
-351.508	89.115	0.096	-0.106
-350.493	153.994	-0.033	0.045
-349.479	-165.995	-0.252	-0.011
-348.464	97.556	-0.151	-0.173
-347.450	-180.327	0.122	-0.003
-346.435	800.000	0.069	-0.237
-345.420	-161.544	0.160	-0.008
-344.406	800.000	-0.108	-0.418
-343.391	588.871	0.056	-0.138
-342.377	-200.000	0.005	0.170
-341.362	-141.127	0.149	0.015
-340.348	76.511	0.266	-0.281
-339.333	-115.890	0.324	0.060
-338.318	-54.644	-0.186	-0.084
-337.304	-32.091	-0.408	0.227
-336.289	67.165	-0.114	0.115
-335.275	73.110	-0.087	0.091
-334.260	-84.896	-0.474	-0.148
-333.245	-69.481	0.033	0.012
-332.231	195.732	-0.087	0.132
-331.216	700.350	0.035	-0.091
-330.202	-5.680	-0.169	-0.115
-329.187	7.774	0.102	-0.076
-328.172	116.663	0.165	-0.201
-327.158	-200.000	0.023	0.114
-326.143	-12.919	0.146	0.095
-325.129	134.591	0.113	0.145
-324.114	-23.724	0.330	0.197
-323.099	1.462	0.082	0.059
-322.085	114.705	-0.113	0.137
-321.070	-75.462	-0.152	0.054
-320.056	-16.918	0.158	-0.099
-319.041	-107.654	-0.120	0.026
-318.026	16.739	0.103	-0.081
-317.012	800.000	-0.043	-0.144
-315.997	-200.000	-0.001	-0.048
-314.983	-114.821	-0.075	-0.014
-313.968	-130.309	0.218	-0.029
-312.953	214.392	0.050	-0.079
-311.939	25.815	0.159	0.131
-310.924	-43.762	0.158	-0.079
-309.910	-86.158	0.269	0.082
-308.895	-80.532	0.381	0.126
-307.880	55.889	0.324	0.312
-306.866	-105.105	0.410	0.093
-305.851	-200.000	0.007	-0.215
-304.837	403.531	0.043	0.091
-303.822	-117.098	-0.285	-0.052
-302.807	-100.725	-0.089	-0.022
-301.793	81.673	-0.117	-0.126
-300.778	800.000	0.032	0.122
-299.764	-200.000	-0.005	-0.220
-298.749	-2.155	-0.238	-0.166
-297.735	-122.754	-0.106	-0.017
-296.720	68.382	-0.359	-0.365
-295.705	16.524	0.050	-0.039
-294.691	153.021	-0.217	0.294
-293.676	800.000	0.051	-0.218
-292.662	727.856	0.074	0.195
-291.647	800.000	0.069	0.189
-290.632	166.638	-0.108	0.151
-289.618	8.219	0.043	0.032
-288.603	-60.116	-0.105	0.045
-287.589	375.476	-0.080	-0.162
-286.574	-200.000	-0.007	0.034
-285.559	149.871	0.131	0.176
-284.545	325.568	-0.112	-0.212
-283.530	-200.000	0.007	-0.219
-282.516	-143.477	-0.245	-0.023
-281.501	-200.000	0.009	-0.147
-280.486	52.313	-0.130	0.123
-279.472	-23.361	0.116	0.069
-278.457	-122.440	0.152	0.025
-277.443	76.305	0.061	0.065
-276.428	-4.695	0.338	0.231
-275.413	313.146	-0.079	0.146
-274.399	-6.399	-0.165	-0.111
-273.384	26.822	-0.214	0.178
-272.370	18.849	-0.063	-0.050
-271.355	800.000	0.101	0.284
-270.340	-48.332	-0.337	-0.161
-269.326	-200.000	-0.016	-0.107
-268.311	-48.977	-0.196	0.093
-267.297	44.526	0.283	0.258
-266.282	-55.726	0.142	0.063
-265.267	3.194	-0.214	0.155
-264.253	90.489	-0.122	-0.135
-263.238	-38.819	0.220	-0.115
-262.224	800.000	0.059	0.218
-261.209	-200.000	0.032	0.248
-260.195	-64.758	0.190	0.076
-259.180	-19.798	0.190	-0.116
-258.165	290.782	-0.067	0.121
-257.151	-200.000	-0.004	0.067
-256.136	800.000	-0.022	-0.061
-255.122	43.572	0.117	-0.106
-254.107	-200.000	0.009	0.222
-253.092	520.513	-0.113	-0.262
-252.078	-200.000	0.028	0.383
-251.063	282.227	-0.136	0.242
-250.049	58.259	-0.103	-0.100
-249.034	-200.000	-0.025	-0.137
-248.019	85.843	-0.238	-0.260
-247.005	687.458	-0.112	0.291
-245.990	-40.446	0.295	0.152
-244.976	-125.684	0.293	-0.044
-243.961	-196.936	0.390	0.003
-242.946	-132.745	0.392	0.050
-241.932	183.171	0.258	-0.378
-240.917	-60.237	-0.089	-0.038
-239.903	-200.000	0.159	-0.000
-238.888	40.450	-0.048	-0.043
-237.873	155.403	-0.039	0.054
-236.859	-149.576	0.201	-0.016
-235.844	-14.371	0.059	-0.038
-234.830	-200.000	0.010	0.056
-233.815	-149.041	0.186	0.015
-232.800	518.069	-0.073	0.170
-231.786	-13.062	-0.266	-0.171
-230.771	64.557	-0.179	-0.179
-229.757	-71.428	-0.195	-0.072
-228.742	222.498	-0.041	-0.065
-227.727	-200.000	0.066	0.298
-226.713	190.298	-0.042	-0.062
-225.698	-200.000	-0.002	0.334
-224.684	520.599	-0.128	0.297
-223.669	-138.059	0.100	0.011
-222.655	-32.476	0.449	0.248
-221.640	-105.582	-0.453	0.102
-220.625	112.679	0.149	-0.179
-219.611	-92.161	0.271	-0.076
-218.596	-200.000	0.004	-0.191
-217.582	88.269	0.106	-0.117
-216.567	-77.315	0.233	-0.080
-215.552	-200.000	-0.027	0.180
-214.538	61.555	0.328	0.323
-213.523	80.463	0.213	0.228
-212.509	222.182	-0.123	-0.195
-211.494	69.741	-0.358	0.365
-210.479	53.117	-0.272	0.258
-209.465	-200.000	0.043	0.331
-208.450	800.000	-0.098	-0.332
-207.436	-200.000	0.000	0.049
-206.421	-22.264	0.225	0.135
-205.406	31.464	0.245	-0.208
-204.392	-17.683	0.106	-0.066
-203.377	800.000	-0.050	0.174
-202.363	800.000	0.105	-0.339
-201.348	-71.203	0.072	0.027
-200.333	-83.374	0.139	-0.044
-199.319	800.000	-0.104	-0.337
-198.304	351.199	-0.067	-0.131
-197.290	800.000	-0.078	-0.234
-196.275	146.639	0.205	0.272
-195.260	32.321	0.044	0.038
-194.246	-200.000	-0.240	0.001
-193.231	-8.354	0.047	-0.031
-192.217	-200.000	-0.031	0.393
-191.202	-92.936	0.802	-0.221
-190.187	160.855	-0.107	0.147
-189.173	-75.089	0.359	-0.127
-188.158	192.206	0.121	-0.180
-187.144	-0.001	0.202	-0.142
-186.129	-8.679	0.184	-0.122
-185.114	-200.000	-0.032	-0.139
-184.100	-200.000	-0.068	0.321
-183.085	-89.711	0.206	-0.060
-182.071	-119.454	0.305	-0.052
-181.056	24.611	-0.205	-0.168
-180.042	-66.042	-0.356	-0.141
-179.027	800.000	-0.053	-0.176
-178.012	-115.465	-0.270	0.050
-176.998	458.757	0.030	-0.067
-175.983	-200.000	0.047	0.352
-174.969	-200.000	0.008	0.170
-173.954	-125.323	-0.215	0.032
-172.939	470.394	0.138	0.306
-171.925	-200.000	-0.115	0.642
-170.910	-109.036	-0.240	0.051
-169.896	53.537	0.269	-0.255
-168.881	162.893	-0.097	-0.134
-167.866	450.158	0.070	-0.152
-166.852	18.117	0.102	-0.081
-165.837	800.000	0.033	0.101
-164.823	44.080	0.260	0.236
-163.808	51.184	-0.065	0.061
-162.793	-200.000	-0.038	0.208
-161.779	-200.000	0.041	0.313
-160.764	-200.000	0.021	-0.164
-159.750	-119.451	0.215	-0.037
-158.735	-73.376	-0.052	0.019
-157.720	-97.959	-0.343	-0.087
-156.706	800.000	0.047	0.143
-155.691	92.905	0.199	0.222
-154.677	-24.735	-0.231	0.135
-153.662	19.605	0.266	-0.211
-152.647	800.000	-0.110	-0.317
-151.633	341.932	0.099	-0.192
-150.618	-69.304	0.362	0.137
-149.604	231.662	0.179	0.289
-148.589	445.481	0.153	-0.332
-147.574	-87.069	-0.327	0.098
-146.560	800.000	-0.090	0.295
-145.545	418.080	-0.105	0.221
-144.531	-44.370	0.249	-0.123
-143.516	-44.788	0.245	-0.121
-142.502	93.613	0.064	-0.072
-141.487	800.000	0.105	-0.317
-140.472	-200.000	-0.084	0.499
-139.458	-134.457	0.116	-0.014
-138.443	-16.989	0.166	-0.104
-137.429	-200.000	-0.019	-0.247
-136.414	800.000	-0.132	0.362
-135.399	-200.000	0.033	-0.332
-134.385	-121.321	0.244	0.040
-133.370	86.358	-0.078	-0.085
-132.356	-117.542	0.244	0.043
-131.341	474.148	-0.084	-0.186
-130.326	10.601	0.062	-0.046
-129.312	-65.114	0.279	-0.111
-128.297	-200.000	0.032	0.234
-127.283	-112.669	-0.302	-0.059
-126.268	-49.013	-0.066	0.031
-125.253	-70.307	-0.339	-0.127
-124.239	693.274	-0.035	0.090
-123.224	-165.280	-0.103	-0.004
-122.210	-1.196	0.078	0.054
-121.195	-111.470	-0.269	-0.054
-120.180	8.926	0.258	0.192
