DTS Sentinel unit serial number:	SN413079Multiplexer serial number:	ORYXHardware model number:	OX4-SRSoftware version number:	ORYX F/W v4.00 Oryx Data Collector v3.7.2.0data status	okinstallation	princeton_trtdifferential loss correction	single-endedforward channel	channel 1reverse channel	N/Adate	2019/09/18time	06:38:35forward acquisition time	60.00reverse acquisition time	0.00gamma	496.2192k internal	0.2339k external	0.2339temperature offset calibration	0.9982default loss term (dB/km)	0.3790temperature slope calibration	1.0000multiplexer offset coefficient	1.0000multiplexer slope coefficient	1.0000fibre end	0.00T internal ref (°C)	23.27T ext. ref 1 (°C)	0.19T ext. ref 2 (°C)	17.17length (m)	temperature (°C)	Stokes	anti-Stokes-747.200	9.001	0.166	-0.125
-746.185	187.258	-0.222	0.332
-745.171	-93.775	-0.275	0.076
-744.156	434.273	-0.174	0.380
-743.142	-68.027	-0.242	-0.095
-742.127	-200.000	0.066	0.316
-741.112	486.821	0.045	0.102
-740.098	201.326	0.199	0.308
-739.083	800.000	-0.042	0.148
-738.069	-200.000	-0.025	0.278
-737.054	42.232	-0.235	0.214
-736.039	15.132	-0.243	-0.191
-735.025	27.605	0.206	0.174
-734.010	-98.859	-0.494	-0.126
-732.996	-29.219	-0.236	-0.136
-731.981	800.000	0.118	-0.395
-730.966	-20.095	-0.013	-0.008
-729.952	11.979	-0.211	0.163
-728.937	31.419	-0.145	0.125
-727.923	800.000	-0.002	0.009
-726.908	168.041	-0.025	-0.035
-725.894	511.817	0.054	0.126
-724.879	102.748	-0.222	-0.261
-723.864	571.162	-0.096	-0.235
-722.850	93.673	-0.233	-0.264
-721.835	94.404	-0.118	-0.134
-720.821	-104.142	-0.274	0.064
-719.806	-86.037	-0.199	0.062
-718.791	-49.270	-0.159	-0.076
-717.777	-200.000	0.103	-0.465
-716.762	443.166	-0.049	-0.107
-715.748	800.000	0.076	-0.226
-714.733	36.307	-0.136	0.120
-713.718	363.477	0.065	-0.132
-712.704	-200.000	0.071	-0.339
-711.689	19.320	-0.145	-0.117
-710.675	-120.946	-0.021	0.004
-709.660	-149.468	-0.148	-0.012
-708.645	-200.000	-0.023	0.139
-707.631	-200.000	0.076	0.445
-706.616	-37.234	-0.169	0.091
-705.602	192.007	-0.212	0.321
-704.587	88.941	0.090	-0.101
-703.572	-129.714	0.184	0.025
-702.558	364.711	-0.045	0.092
-701.543	75.507	-0.176	-0.187
-700.529	292.579	-0.240	-0.438
-699.514	-200.000	-0.002	-0.021
-698.499	-200.000	-0.050	0.434
-697.485	-128.460	0.275	-0.039
-696.470	-98.073	0.148	-0.038
-695.456	-200.000	-0.015	-0.148
-694.441	800.000	0.038	-0.127
-693.426	-142.573	-0.224	-0.022
-692.412	-86.385	-0.273	0.084
-691.397	13.191	0.264	0.205
-690.383	800.000	0.158	0.455
-689.368	17.746	-0.238	-0.189
-688.354	494.207	-0.024	0.056
-687.339	-200.000	-0.003	-0.035
-686.324	163.031	0.067	0.094
-685.310	800.000	-0.082	-0.230
-684.295	215.430	0.082	-0.130
-683.281	-66.744	0.180	0.071
-682.266	54.606	-0.181	0.175
-681.251	-24.557	0.278	-0.165
-680.237	-70.890	-0.194	0.073
-679.222	-200.000	0.012	0.323
-678.208	800.000	-0.041	0.173
-677.193	-200.000	0.011	0.068
-676.178	30.808	0.241	-0.207
-675.164	-200.000	0.024	-0.292
-674.149	-161.150	0.207	-0.011
-673.135	-0.024	0.164	0.117
-672.120	169.468	0.200	0.286
-671.105	12.299	-0.122	-0.094
-670.091	-151.124	0.092	-0.007
-669.076	-152.839	0.103	-0.007
-668.062	-30.865	-0.191	0.108
-667.047	-81.558	-0.369	-0.121
-666.032	800.000	-0.094	0.269
-665.018	-46.094	0.171	-0.084
-664.003	-12.169	0.027	0.018
-662.989	-38.280	-0.358	-0.189
-661.974	-114.946	0.309	-0.059
-660.959	306.823	0.050	-0.092
-659.945	282.924	-0.101	-0.181
-658.930	19.080	-0.106	-0.085
-657.916	4.986	-0.182	-0.134
-656.901	-128.092	-0.204	0.029
-655.886	192.128	-0.131	-0.198
-654.872	-27.321	0.326	-0.190
-653.857	536.196	0.087	0.206
-652.843	41.664	0.148	0.134
-651.828	-190.933	-0.251	-0.003
-650.814	800.000	-0.107	0.326
-649.799	86.282	-0.114	-0.125
-648.784	-185.862	-0.044	-0.001
-647.770	46.364	-0.111	0.103
-646.755	-200.000	0.032	-0.247
-645.741	246.148	0.158	-0.266
-644.726	-144.841	-0.121	-0.011
-643.711	149.094	-0.081	-0.109
-642.697	219.302	-0.079	-0.126
-641.682	-50.373	-0.121	-0.057
-640.668	-95.478	-0.244	-0.065
-639.653	320.132	-0.239	-0.454
-638.638	239.328	0.148	-0.247
-637.624	-19.346	-0.112	0.069
-636.609	-88.636	-0.177	-0.053
-635.595	788.518	0.026	0.071
-634.580	76.895	0.049	0.052
-633.565	383.134	-0.100	0.205
-632.551	749.224	0.114	-0.306
-631.536	53.829	-0.073	0.070
-630.522	-66.132	0.086	0.034
-629.507	308.288	0.083	0.155
-628.492	84.775	-0.122	0.134
-627.478	-200.000	0.000	0.072
-626.463	800.000	0.054	-0.230
-625.449	-200.000	-0.054	0.300
-624.434	-116.971	0.185	0.034
-623.419	624.133	-0.064	-0.162
-622.405	47.855	0.255	-0.238
-621.390	89.759	-0.077	-0.086
-620.376	-109.009	-0.229	0.049
-619.361	-187.002	0.201	-0.003
-618.346	800.000	-0.160	-0.518
-617.332	48.736	-0.124	-0.116
-616.317	-83.905	-0.447	-0.142
-615.303	278.235	-0.040	0.072
-614.288	-200.000	0.005	0.129
-613.273	-82.558	-0.495	-0.160
-612.259	-38.754	0.178	0.094
-611.244	-113.562	-0.377	0.074
-610.230	-93.096	0.165	0.046
-609.215	-111.760	-0.180	0.036
-608.201	-83.242	-0.310	-0.099
-607.186	247.483	0.035	-0.059
-606.171	-26.305	-0.175	-0.103
-605.157	3.719	0.073	0.053
-604.142	-200.000	0.036	0.239
-603.128	667.740	-0.144	-0.371
-602.113	-76.274	-0.298	0.105
-601.098	182.462	0.241	-0.355
-600.084	89.430	-0.111	-0.124
-599.069	-6.992	-0.154	0.104
-598.055	-200.000	0.006	0.060
-597.040	-110.659	-0.136	-0.028
-596.025	-200.000	-0.006	0.084
-595.011	-146.943	0.110	0.009
-593.996	-194.030	-0.353	0.003
-592.982	-200.000	-0.030	-0.337
-591.967	-42.156	0.248	-0.127
-590.952	-189.169	0.134	-0.002
-589.938	-14.369	-0.453	0.291
-588.923	-73.306	0.433	-0.158
-587.909	-200.000	0.039	-0.337
-586.894	-91.749	-0.147	0.042
-585.879	440.596	0.027	-0.059
-584.865	-65.867	-0.112	0.045
-583.850	137.928	-0.090	-0.117
-582.836	-200.000	-0.234	-0.001
-581.821	400.705	-0.114	0.238
-580.806	201.676	-0.213	0.327
-579.792	-92.933	0.192	-0.053
-578.777	151.389	-0.243	0.329
-577.763	16.298	-0.166	0.130
-576.748	23.724	-0.219	-0.180
-575.733	800.000	-0.064	-0.249
-574.719	-200.000	0.010	-0.136
-573.704	265.062	0.117	0.203
-572.690	-200.000	-0.066	0.399
-571.675	-200.000	0.033	0.331
-570.661	-34.138	0.279	0.153
-569.646	-200.000	-0.061	-0.277
-568.631	-76.301	0.099	-0.035
-567.617	-100.158	-0.277	0.069
-566.602	-200.000	-0.019	-0.382
-565.588	-55.946	0.185	-0.082
-564.573	-126.738	0.262	-0.039
-563.558	-123.705	0.329	0.052
-562.544	-200.000	-0.000	-0.241
-561.529	518.021	0.098	0.228
-560.515	-140.049	-0.323	-0.034
-559.500	-94.769	0.330	-0.089
-558.485	800.000	0.102	0.341
-557.471	-67.963	-0.234	-0.091
-556.456	328.264	0.055	-0.106
-555.442	-94.485	-0.071	0.019
-554.427	-27.382	-0.307	0.178
-553.412	-103.269	0.122	0.029
-552.398	-200.000	0.043	0.260
-551.383	-61.707	0.107	0.045
-550.369	317.391	0.075	0.141
-549.354	573.373	0.144	-0.351
-548.339	800.000	0.109	-0.299
-547.325	-62.394	0.251	-0.104
-546.310	287.038	-0.056	0.101
-545.296	-200.000	0.032	-0.159
-544.281	110.703	0.043	0.052
-543.266	160.318	0.209	0.290
-542.252	564.556	-0.045	0.108
-541.237	51.012	-0.262	0.247
-540.223	-6.549	-0.292	0.198
-539.208	-55.797	-0.192	0.085
-538.193	-36.854	-0.060	0.032
-537.179	-200.000	0.017	0.473
-536.164	-106.017	-0.111	0.025
-535.150	164.490	-0.144	0.202
-534.135	-200.000	0.040	-0.177
-533.121	-87.424	0.331	0.100
-532.106	152.914	0.179	0.243
-531.091	-200.000	0.058	-0.311
-530.077	-141.672	-0.189	-0.019
-529.062	-36.445	-0.312	0.167
-528.048	300.722	0.036	0.067
-527.033	662.827	0.116	0.299
-526.018	-120.360	-0.033	0.006
-525.004	451.874	-0.124	0.273
-523.989	-62.826	-0.270	-0.111
-522.975	-15.880	-0.273	-0.173
-521.960	800.000	-0.016	-0.066
-520.945	-200.000	0.012	0.140
-519.931	800.000	0.144	0.461
-518.916	-60.723	0.147	0.062
-517.902	-200.000	-0.050	0.223
-516.887	800.000	-0.039	-0.150
-515.872	-169.647	-0.388	0.014
-514.858	-72.930	0.195	-0.071
-513.843	-34.559	0.226	0.123
-512.829	-55.787	-0.283	0.126
-511.814	-53.140	-0.139	0.064
-510.799	126.289	0.203	-0.255
-509.785	-58.791	0.102	0.044
-508.770	510.199	0.106	-0.244
-507.756	272.269	0.144	0.252
-506.741	-167.407	-0.103	0.004
-505.726	-0.788	0.147	-0.104
-504.712	800.000	-0.017	-0.064
-503.697	-34.580	0.012	0.006
-502.683	50.123	0.099	-0.093
-501.668	-175.054	-0.459	-0.013
-500.653	-165.128	-0.062	-0.003
-499.639	-2.376	0.277	-0.193
-498.624	276.280	0.164	0.290
-497.610	-63.591	0.213	0.087
-496.595	-200.000	-0.010	0.122
-495.581	142.659	-0.131	0.173
-494.566	-200.000	0.027	0.342
-493.551	-200.000	0.033	-0.227
-492.537	-118.800	-0.225	-0.039
-491.522	800.000	-0.016	-0.060
-490.508	21.815	0.264	-0.214
-489.493	41.785	-0.144	-0.129
-488.478	-18.066	0.247	0.153
-487.464	-102.691	0.354	-0.084
-486.449	800.000	-0.092	-0.320
-485.435	800.000	-0.038	0.136
-484.420	104.700	0.213	0.249
-483.405	-103.079	0.247	0.058
-482.391	409.361	0.072	0.152
-481.376	-17.479	-0.239	-0.149
-480.362	300.509	0.035	-0.065
-479.347	4.320	0.174	-0.126
-478.332	267.687	0.053	0.092
-477.318	-200.000	0.016	0.099
-476.303	96.302	-0.269	0.305
-475.289	800.000	-0.053	0.168
-474.274	-108.457	0.305	-0.065
-473.259	147.258	-0.094	0.126
-472.245	-200.000	-0.010	0.109
-471.230	-200.000	0.035	-0.268
-470.216	292.436	0.104	-0.188
-469.201	-78.269	0.254	-0.087
-468.186	-174.213	0.316	-0.009
-467.172	800.000	-0.088	-0.243
-466.157	31.879	0.165	0.141
-465.143	-80.409	0.020	0.007
-464.128	65.815	0.259	0.260
-463.113	800.000	0.052	-0.189
-462.099	-125.454	0.160	-0.024
-461.084	-139.202	0.122	-0.013
-460.070	-200.000	-0.077	-0.349
-459.055	198.216	0.141	-0.214
-458.040	-58.674	-0.122	0.052
-457.026	445.904	-0.132	-0.288
-456.011	-97.923	0.085	-0.022
-454.997	800.000	0.076	0.226
-453.982	-200.000	-0.004	0.260
-452.968	3.429	0.195	-0.141
-451.953	98.769	-0.053	0.060
-450.938	-166.907	-0.214	-0.009
-449.924	89.398	0.143	0.158
-448.909	-120.065	0.084	0.014
-447.895	-60.031	-0.059	-0.025
-446.880	-200.000	0.027	-0.160
-445.865	-148.571	-0.122	0.010
-444.851	-81.721	0.291	0.095
-443.836	-76.319	0.197	0.069
-442.822	-200.000	0.051	-0.361
-441.807	-82.244	-0.171	-0.055
-440.792	219.410	0.295	0.468
-439.778	-200.000	-0.000	0.202
-438.763	800.000	0.075	0.285
-437.749	13.953	-0.057	-0.044
-436.734	-200.000	-0.002	-0.219
-435.719	800.000	0.053	-0.192
-434.705	33.554	0.254	-0.219
-433.690	226.457	0.109	0.175
-432.676	-53.871	-0.310	0.140
-431.661	800.000	-0.110	-0.357
-430.646	-52.799	0.151	0.069
-429.632	71.992	-0.072	-0.074
-428.617	110.686	-0.169	0.201
-427.603	-182.890	0.389	0.007
-426.588	800.000	0.078	0.326
-425.573	-200.000	0.017	-0.080
-424.559	107.329	0.204	-0.240
-423.544	-200.000	0.004	0.150
-422.530	9.540	-0.242	0.181
-421.515	96.142	0.163	0.184
-420.500	800.000	-0.098	-0.359
-419.486	-52.949	-0.139	0.064
-418.471	-200.000	-0.019	-0.284
-417.457	-99.698	0.356	-0.088
-416.442	-88.210	0.245	0.073
-415.428	781.875	-0.043	0.116
-414.413	19.560	-0.137	0.109
-413.398	-50.822	0.343	-0.160
-412.384	-166.767	-0.302	0.012
-411.369	280.348	0.149	-0.264
-410.355	120.219	-0.080	0.099
-409.340	-96.365	-0.245	0.064
-408.325	6.850	0.201	0.148
-407.311	339.455	-0.114	-0.221
-406.296	-101.323	-0.042	-0.010
-405.282	-153.475	0.141	-0.010
-404.267	285.243	-0.077	0.137
-403.252	274.020	-0.130	-0.227
-402.238	-199.854	0.277	0.001
-401.223	3.570	-0.377	0.272
-400.209	63.213	0.155	0.153
-399.194	-113.015	-0.244	0.048
-398.179	236.485	-0.070	-0.115
-397.165	3.700	0.082	0.059
-396.150	82.099	-0.134	-0.143
-395.136	282.092	0.046	-0.081
-394.121	147.402	-0.142	-0.189
-393.106	-84.196	0.299	-0.094
-392.092	-200.000	0.058	0.271
-391.077	800.000	-0.040	0.131
-390.063	-62.044	-0.223	-0.092
-389.048	-120.987	0.301	-0.050
-388.033	-200.000	-0.017	-0.277
-387.019	-124.458	-0.344	-0.053
-386.004	711.309	0.162	0.425
-384.990	-21.605	0.083	-0.050
-383.975	-19.514	-0.279	-0.171
-382.960	-200.000	0.297	0.001
-381.946	58.413	-0.062	-0.061
-380.931	-21.054	0.291	0.176
-379.917	800.000	0.126	-0.450
-378.902	-177.777	0.326	-0.008
-377.888	-200.000	-0.081	0.555
-376.873	-200.000	-0.014	-0.159
-375.858	-94.121	-0.176	0.048
-374.844	800.000	-0.082	0.351
-373.829	32.347	0.082	0.070
-372.815	-76.478	-0.255	-0.088
-371.800	800.000	0.030	0.098
-370.785	-200.000	-0.019	0.224
-369.771	-200.000	0.040	0.445
-368.756	800.000	0.067	0.240
-367.742	353.788	0.092	0.181
-366.727	800.000	0.074	0.289
-365.712	-66.162	-0.083	0.033
-364.698	444.416	0.147	0.319
-363.683	800.000	-0.034	0.101
-362.669	34.681	-0.082	-0.071
-361.654	-169.940	-0.351	-0.012
-360.639	-6.680	0.213	0.144
-359.625	-26.674	0.326	-0.188
-358.610	-122.154	-0.352	-0.057
-357.596	24.259	0.198	0.162
-356.581	-2.561	0.093	0.065
-355.566	800.000	0.086	-0.257
-354.552	155.527	0.079	-0.108
-353.537	-33.022	-0.395	0.216
-352.523	-200.000	0.016	-0.105
-351.508	204.946	0.039	0.060
-350.493	196.463	-0.030	-0.045
-349.479	-200.000	0.004	-0.196
-348.464	-102.221	-0.076	0.018
-347.450	255.555	0.219	-0.370
-346.435	-200.000	-0.049	-0.566
-345.420	21.383	0.306	0.245
-344.406	-200.000	-0.025	0.312
-343.391	-200.000	0.062	0.334
-342.377	654.596	-0.082	-0.209
-341.362	800.000	-0.082	0.291
-340.348	173.730	0.259	0.369
-339.333	4.701	0.242	0.175
-338.318	107.683	0.138	-0.163
-337.304	-117.654	0.267	-0.048
-336.289	-59.004	0.135	-0.057
-335.275	-124.170	-0.420	-0.065
-334.260	609.280	0.096	0.236
-333.245	125.949	0.103	-0.129
-332.231	-11.597	-0.043	0.028
-331.216	185.965	0.308	0.451
-330.202	655.550	-0.107	0.270
-329.187	-200.000	0.046	-0.207
-328.172	-158.308	-0.153	-0.009
-327.158	-152.087	-0.334	0.024
-326.143	-123.494	-0.450	-0.071
-325.129	800.000	-0.036	-0.102
-324.114	3.495	-0.137	0.098
-323.099	171.091	-0.274	-0.388
-322.085	-145.104	0.151	-0.014
-321.070	800.000	-0.127	-0.393
-320.056	517.999	0.080	-0.185
-319.041	315.449	0.056	-0.105
-318.026	196.857	-0.193	0.290
-317.012	-200.000	-0.053	-0.429
-315.997	-200.000	-0.012	-0.123
-314.983	-200.000	-0.033	-0.211
-313.968	-200.000	0.039	0.239
-312.953	-200.000	-0.022	-0.389
-311.939	-122.776	-0.089	-0.014
-310.924	-78.334	0.315	-0.107
-309.910	-200.000	0.034	0.298
-308.895	-200.000	-0.037	0.193
-307.880	-200.000	0.019	0.129
-306.866	-164.689	-0.159	-0.007
-305.851	-200.000	-0.036	0.183
-304.837	-61.785	0.425	0.175
-303.822	800.000	-0.064	-0.182
-302.807	-123.623	-0.065	-0.010
-301.793	82.249	-0.484	0.518
-300.778	-84.243	-0.135	-0.042
-299.764	406.214	0.048	0.100
-298.749	-34.536	0.171	-0.092
-297.735	10.379	-0.129	-0.097
-296.720	12.433	-0.280	-0.213
-295.705	-200.000	-0.002	-0.102
-294.691	183.553	0.024	-0.035
-293.676	-12.455	0.156	0.101
-292.662	285.603	-0.125	-0.222
-291.647	-134.066	-0.267	-0.033
-290.632	495.361	0.122	-0.276
-289.618	-72.213	-0.096	0.035
-288.603	800.000	-0.057	-0.207
-287.589	610.406	-0.038	0.093
-286.574	18.866	-0.131	-0.104
-285.559	2.091	0.290	-0.207
-284.545	293.799	0.048	-0.086
-283.530	-200.000	0.009	0.313
-282.516	-129.832	0.118	0.016
-281.501	413.075	0.067	-0.141
-280.486	800.000	-0.057	0.223
-279.472	160.254	-0.151	0.207
-278.457	-200.000	0.075	0.431
-277.443	800.000	0.080	0.319
-276.428	800.000	0.057	-0.163
-275.413	-38.435	0.145	-0.075
-274.399	-155.717	0.216	-0.014
-273.384	-85.542	0.086	0.026
-272.370	-149.023	0.250	0.020
-271.355	36.513	-0.075	-0.065
-270.340	-125.415	-0.226	-0.034
-269.326	-200.000	-0.044	-0.303
-268.311	96.571	-0.226	-0.254
-267.297	57.089	0.104	0.100
-266.282	134.983	-0.106	0.136
-265.267	148.501	0.054	0.071
-264.253	7.753	0.060	-0.044
-263.238	-200.000	0.019	0.139
-262.224	-3.364	-0.240	0.165
-261.209	-160.026	-0.364	0.020
-260.195	-69.925	0.284	0.107
-259.180	10.786	-0.355	-0.266
-258.165	40.378	-0.097	-0.086
-257.151	800.000	-0.015	0.051
-256.136	-200.000	-0.005	0.164
-255.122	100.994	0.174	-0.199
-254.107	-103.817	0.258	-0.059
-253.092	73.724	-0.242	-0.250
-252.078	-95.566	0.022	-0.006
-251.063	-179.963	-0.391	-0.008
-250.049	203.504	0.181	-0.275
-249.034	-75.001	-0.187	-0.066
-248.019	177.056	0.251	-0.360
-247.005	-44.164	0.210	-0.103
-245.990	800.000	-0.116	0.325
-244.976	91.696	0.062	-0.069
-243.961	-78.929	0.163	0.054
-242.946	47.895	-0.327	-0.300
-241.932	800.000	0.098	0.417
-240.917	258.261	0.052	-0.088
-239.903	16.631	0.215	0.167
-238.888	558.282	-0.088	-0.210
-237.873	-167.986	0.203	-0.008
-236.859	39.031	-0.233	0.205
-235.844	462.704	0.081	0.178
-234.830	800.000	0.031	0.102
-233.815	-101.090	-0.147	0.035
-232.800	780.157	0.059	-0.159
-231.786	-129.307	-0.365	-0.050
-230.771	174.963	-0.118	-0.169
-229.757	800.000	-0.021	-0.074
-228.742	-155.058	-0.135	0.009
-227.727	-112.037	0.062	0.012
-226.713	800.000	-0.054	-0.203
-225.698	-114.629	0.112	-0.021
-224.684	106.221	0.215	-0.251
-223.669	-200.000	0.011	0.231
-222.655	357.126	0.102	0.201
-221.640	-30.245	0.229	0.128
-220.625	-200.000	0.203	0.001
-219.611	26.600	0.164	0.135
-218.596	-62.391	-0.320	-0.131
-217.582	150.971	0.229	-0.306
-216.567	-21.437	-0.314	-0.188
-215.552	199.559	0.139	-0.209
-214.538	784.212	-0.079	0.212
-213.523	-200.000	0.021	-0.094
-212.509	273.110	-0.069	-0.119
-211.494	-179.912	-0.355	0.007
-210.479	82.271	-0.023	0.025
-209.465	407.700	0.097	-0.201
-208.450	-16.242	0.147	-0.092
-207.436	-96.769	0.162	-0.042
-206.421	-200.000	0.273	-0.000
-205.406	-92.668	-0.082	0.023
-204.392	36.856	0.286	-0.249
-203.377	43.641	0.119	0.107
-202.363	84.505	-0.342	-0.368
-201.348	800.000	-0.065	0.247
-200.333	-118.039	-0.061	-0.011
-199.319	-49.432	0.224	0.105
-198.304	-200.000	-0.069	-0.355
-197.290	-200.000	0.006	0.114
-196.275	-181.592	0.128	-0.002
-195.260	621.513	0.109	0.269
-194.246	-200.000	-0.020	-0.105
-193.231	-17.720	-0.521	-0.321
-192.217	800.000	0.087	-0.319
-191.202	800.000	-0.066	-0.191
-190.187	-200.000	-0.016	0.147
-189.173	194.091	-0.140	-0.208
-188.158	800.000	0.070	-0.200
-187.144	8.056	0.097	-0.072
-186.129	153.899	0.063	-0.084
-185.114	6.142	-0.103	0.075
-184.100	71.989	-0.150	0.153
-183.085	-39.512	-0.233	0.120
-182.071	10.201	-0.103	-0.077
-181.056	774.442	-0.088	0.234
-180.042	-104.588	0.334	-0.076
-179.027	-72.476	0.461	0.167
-178.012	-61.882	-0.227	-0.093
-176.998	-72.518	0.131	0.048
-175.983	-165.005	-0.398	-0.017
-174.969	81.095	0.107	0.113
-173.954	800.000	-0.063	-0.268
-172.939	-200.000	-0.020	0.102
-171.925	-113.656	-0.120	-0.023
-170.910	-147.734	-0.174	-0.014
-169.896	-98.485	0.340	0.085
-168.881	800.000	-0.029	0.094
-167.866	-200.000	0.032	-0.303
-166.852	320.325	-0.117	-0.218
-165.837	79.114	0.132	0.139
-164.823	-171.198	-0.133	-0.004
-163.808	59.981	0.233	0.226
-162.793	430.011	0.176	0.373
-161.779	-200.000	0.033	0.335
-160.764	-200.000	-0.026	0.209
-159.750	-115.087	0.206	-0.038
-158.735	473.413	0.132	-0.291
-157.720	800.000	0.047	0.163
-156.706	86.850	0.139	-0.150
-155.691	800.000	0.039	0.128
-154.677	-32.025	-0.086	0.047
-153.662	-96.897	0.262	-0.067
-152.647	-50.812	0.093	0.043
-151.633	-200.000	0.024	0.204
-150.618	-123.427	-0.269	0.042
-149.604	800.000	0.096	-0.264
-148.589	308.051	-0.093	-0.170
-147.574	21.272	-0.207	0.165
-146.560	162.143	-0.153	0.211
-145.545	-56.784	0.172	-0.075
-144.531	800.000	0.092	-0.280
-143.516	-80.357	-0.355	-0.116
-142.502	584.344	-0.085	0.204
-141.487	166.166	0.051	0.071
-140.472	-200.000	0.017	-0.136
-139.458	146.231	-0.270	0.355
-138.443	-174.084	0.444	-0.013
-137.429	-114.010	-0.171	-0.033
-136.414	-83.628	0.257	-0.081
-135.399	52.046	0.118	-0.110
-134.385	313.048	0.058	0.107
-133.370	-152.789	-0.150	-0.010
-132.356	26.524	0.231	-0.189
-131.341	-83.530	-0.280	-0.088
-130.326	-200.000	-0.059	0.298
-129.312	-40.637	-0.285	0.145
-128.297	-160.819	0.203	-0.010
-127.283	68.445	-0.082	-0.082
-126.268	800.000	-0.099	0.271
-125.253	220.691	0.230	-0.362
-124.239	24.739	0.066	-0.054
-123.224	800.000	0.093	0.270
-122.210	800.000	-0.111	0.368
