DTS Sentinel unit serial number:	SN413079Multiplexer serial number:	ORYXHardware model number:	OX4-SRSoftware version number:	ORYX F/W v4.00 Oryx Data Collector v3.7.2.0data status	okinstallation	princeton_trtdifferential loss correction	single-endedforward channel	channel 1reverse channel	N/Adate	2019/09/13time	00:46:35forward acquisition time	60.00reverse acquisition time	0.00gamma	496.2192k internal	0.2329k external	0.2329temperature offset calibration	1.0140default loss term (dB/km)	0.3790temperature slope calibration	1.0000multiplexer offset coefficient	1.0000multiplexer slope coefficient	1.0000fibre end	0.00T internal ref (°C)	28.19T ext. ref 1 (°C)	3.65T ext. ref 2 (°C)	22.73length (m)	temperature (°C)	Stokes	anti-Stokes-747.200	15.382	0.062	-0.049
-746.185	-33.841	0.202	0.112
-745.171	52.517	-0.100	-0.096
-744.156	110.477	-0.275	0.333
-743.142	0.152	0.272	0.195
-742.127	800.000	0.017	0.064
-741.112	338.377	0.139	-0.272
-740.098	324.903	0.146	-0.281
-739.083	-200.000	0.032	0.382
-738.069	-130.776	-0.101	0.014
-737.054	800.000	0.086	-0.238
-736.039	-119.195	-0.264	-0.046
-735.025	-200.000	-0.004	0.158
-734.010	-55.104	-0.335	-0.152
-732.996	-200.000	-0.061	-0.342
-731.981	-34.994	-0.198	-0.109
-730.966	-4.479	-0.207	-0.144
-729.952	-18.072	-0.117	-0.074
-728.937	310.943	-0.118	0.222
-727.923	-200.000	-0.052	-0.347
-726.908	799.501	0.197	-0.548
-725.894	-85.212	-0.313	-0.099
-724.879	-200.000	0.002	-0.146
-723.864	180.770	0.254	-0.375
-722.850	-45.069	-0.237	0.119
-721.835	64.836	-0.261	0.265
-720.821	-32.171	-0.397	-0.223
-719.806	800.000	0.063	-0.252
-718.791	-24.380	-0.154	-0.093
-717.777	-121.891	-0.087	-0.014
-716.762	-157.052	0.073	-0.005
-715.748	-16.216	0.175	0.112
-714.733	231.046	0.019	0.032
-713.718	76.999	0.311	-0.333
-712.704	800.000	-0.035	-0.127
-711.689	45.571	0.067	-0.062
-710.675	-200.000	-0.256	-0.000
-709.660	131.773	0.155	0.200
-708.645	-200.000	0.021	-0.165
-707.631	258.987	0.070	-0.122
-706.616	800.000	0.061	-0.169
-705.602	-200.000	0.025	0.211
-704.587	-62.405	0.170	-0.071
-703.572	797.801	0.022	-0.060
-702.558	-113.497	-0.218	0.043
-701.543	555.988	-0.068	0.164
-700.529	-79.455	-0.237	0.081
-699.514	-118.447	-0.291	0.052
-698.499	-116.370	-0.118	0.022
-697.485	-16.326	0.264	-0.169
-696.470	800.000	0.045	-0.190
-695.456	800.000	-0.008	0.033
-694.441	7.774	0.208	0.156
-693.426	351.918	0.065	-0.129
-692.412	-200.000	-0.009	0.357
-691.397	1.958	-0.180	-0.130
-690.383	-200.000	0.088	-0.442
-689.368	0.280	-0.106	-0.076
-688.354	-82.514	-0.062	0.020
-687.339	285.423	0.180	0.326
-686.324	-8.158	0.167	0.113
-685.310	-200.000	0.012	0.314
-684.295	540.259	0.062	0.149
-683.281	707.095	0.122	-0.323
-682.266	12.059	0.136	0.105
-681.251	46.360	0.035	-0.032
-680.237	84.674	0.185	0.203
-679.222	-200.000	-0.066	-0.421
-678.208	-90.926	-0.067	0.019
-677.193	-200.000	0.012	0.101
-676.178	-22.882	-0.224	0.136
-675.164	1.704	-0.144	-0.104
-674.149	-110.433	-0.252	-0.053
-673.135	291.602	0.133	-0.243
-672.120	83.186	-0.128	0.140
-671.105	246.275	0.019	0.033
-670.091	-134.273	-0.338	0.042
-669.076	800.000	-0.151	-0.439
-668.062	800.000	-0.133	0.403
-667.047	800.000	0.022	-0.091
-666.032	-83.867	0.177	0.057
-665.018	376.660	0.025	-0.050
-664.003	188.783	-0.113	0.169
-662.989	-83.472	0.209	-0.067
-661.974	-200.000	-0.009	-0.276
-660.959	711.574	0.021	0.056
-659.945	-90.855	-0.156	0.045
-658.930	-85.494	-0.166	0.052
-657.916	10.837	0.169	-0.130
-656.901	-100.844	0.071	-0.017
-655.886	-200.000	-0.027	-0.187
-654.872	591.450	0.047	-0.116
-653.857	800.000	0.087	-0.330
-652.843	297.265	-0.073	-0.134
-651.828	11.851	0.132	-0.102
-650.814	-28.443	-0.196	-0.113
-649.799	-50.053	0.045	0.021
-648.784	-15.557	0.159	0.102
-647.770	-56.307	0.184	0.082
-646.755	4.871	-0.284	-0.210
-645.741	425.808	0.035	0.076
-644.726	-200.000	0.039	0.332
-643.711	-118.868	-0.385	0.068
-642.697	-120.607	-0.030	-0.005
-641.682	-28.451	-0.102	-0.059
-640.668	78.165	0.368	-0.394
-639.653	-20.385	-0.387	-0.239
-638.638	106.462	0.117	-0.139
-637.624	-53.999	0.076	-0.035
-636.609	800.000	-0.072	-0.208
-635.595	33.729	-0.461	-0.402
-634.580	76.564	0.034	0.036
-633.565	-147.070	0.039	0.003
-632.551	-200.000	-0.028	-0.160
-631.536	800.000	0.050	0.187
-630.522	800.000	-0.043	0.183
-629.507	20.071	-0.129	-0.104
-628.492	2.984	-0.223	0.162
-627.478	187.704	-0.130	-0.195
-626.463	-200.000	0.049	-0.255
-625.449	269.818	-0.139	-0.245
-624.434	-11.131	0.267	0.177
-623.419	125.728	0.225	0.285
-622.405	116.981	-0.087	-0.107
-621.390	-200.000	0.021	0.095
-620.376	-81.622	-0.237	0.078
-619.361	21.711	0.228	-0.187
-618.346	179.744	0.143	-0.209
-617.332	113.906	0.097	-0.119
-616.317	-52.914	-0.244	0.113
-615.303	-122.277	-0.188	0.031
-614.288	-9.531	-0.196	-0.131
-613.273	-125.971	0.058	0.009
-612.259	-61.368	0.170	-0.072
-611.244	481.791	0.143	0.325
-610.230	-177.988	0.210	-0.005
-609.215	-69.637	-0.322	0.124
-608.201	-200.000	-0.017	0.183
-607.186	177.451	-0.149	-0.218
-606.171	214.502	-0.048	0.077
-605.157	-171.967	-0.076	0.002
-604.142	-46.769	-0.367	0.180
-603.128	-92.627	0.069	0.019
-602.113	-59.533	-0.167	-0.072
-601.098	211.116	0.158	-0.249
-600.084	136.577	0.051	-0.066
-599.069	27.650	-0.018	0.015
-598.055	23.290	0.096	-0.079
-597.040	-200.000	-0.024	-0.281
-596.025	-200.000	-0.013	0.305
-595.011	-160.521	-0.087	-0.005
-593.996	-200.000	-0.036	-0.252
-592.982	29.136	0.212	0.180
-591.967	66.281	-0.117	-0.119
-590.952	575.243	-0.089	-0.217
-589.938	-57.195	0.356	-0.157
-588.923	206.886	-0.099	-0.155
-587.909	-94.340	-0.140	-0.038
-586.894	-162.930	-0.063	0.003
-585.879	-70.366	-0.171	0.065
-584.865	-200.000	-0.039	-0.188
-583.850	800.000	-0.117	0.349
-582.836	-48.752	-0.048	0.023
-581.821	800.000	-0.070	-0.213
-580.806	-149.044	-0.125	0.010
-579.792	-100.986	0.083	-0.020
-578.777	800.000	0.066	0.263
-577.763	57.862	-0.026	-0.025
-576.748	22.061	-0.258	-0.211
-575.733	-200.000	-0.006	0.077
-574.719	-0.135	-0.041	0.029
-573.704	24.534	0.077	0.064
-572.690	104.653	0.082	-0.096
-571.675	-32.089	-0.237	0.132
-570.661	432.778	-0.041	0.088
-569.646	-118.491	0.188	0.033
-568.631	-72.279	-0.220	-0.082
-567.617	-200.000	0.010	0.085
-566.602	-115.022	-0.200	0.038
-565.588	-125.835	-0.566	-0.085
-564.573	152.201	0.201	0.275
-563.558	417.489	0.114	0.244
-562.544	-1.294	-0.284	0.201
-561.529	603.384	0.037	0.091
-560.515	-67.247	0.502	0.198
-559.500	44.049	-0.208	-0.191
-558.485	-200.000	-0.023	0.295
-557.471	-200.000	-0.002	-0.092
-556.456	91.697	-0.130	0.146
-555.442	-53.023	0.263	0.121
-554.427	157.288	-0.395	-0.547
-553.412	30.449	0.184	-0.157
-552.398	422.779	0.100	-0.215
-551.383	785.164	-0.095	-0.260
-550.369	-98.973	0.259	0.066
-549.354	-136.641	0.088	-0.010
-548.339	-140.345	-0.441	-0.046
-547.325	-127.948	-0.442	0.063
-546.310	-89.250	0.423	0.125
-545.296	-21.671	-0.035	0.021
-544.281	-77.789	0.246	0.085
-543.266	-92.807	0.283	-0.079
-542.252	800.000	-0.071	-0.204
-541.237	-79.063	-0.171	-0.058
-540.223	-133.329	0.310	0.039
-539.208	800.000	0.069	0.234
-538.193	800.000	-0.072	-0.312
-537.179	187.241	-0.072	-0.107
-536.164	-114.296	0.215	-0.041
-535.150	385.186	0.112	-0.230
-534.135	19.707	0.056	0.045
-533.121	-109.459	-0.525	0.111
-532.106	165.053	-0.025	-0.035
-531.091	-200.000	0.065	-0.368
-530.077	22.166	-0.097	-0.079
-529.062	72.110	-0.193	0.201
-528.048	-7.515	0.246	-0.166
-527.033	108.104	-0.012	0.014
-526.018	540.012	0.072	-0.172
-525.004	-169.254	-0.208	-0.008
-523.989	-60.985	-0.325	0.137
-522.975	-200.000	0.047	-0.347
-521.960	-200.000	-0.013	-0.114
-520.945	-118.057	-0.456	-0.081
-519.931	-48.709	0.234	-0.112
-518.916	-141.338	-0.469	0.048
-517.902	-117.024	0.195	0.036
-516.887	-200.000	0.038	0.245
-515.872	-200.000	0.012	-0.110
-514.858	393.631	0.074	-0.155
-513.843	800.000	0.114	0.378
-512.829	-34.356	-0.109	-0.060
-511.814	-69.171	-0.182	0.070
-510.799	-200.000	-0.009	-0.190
-509.785	-42.732	0.103	-0.052
-508.770	601.175	0.069	-0.170
-507.756	451.972	0.083	-0.183
-506.741	-200.000	-0.011	-0.240
-505.726	-60.106	-0.303	0.129
-504.712	-0.453	0.143	-0.102
-503.697	-200.000	0.001	-0.104
-502.683	800.000	-0.132	0.420
-501.668	-158.549	-0.184	-0.011
-500.653	-14.603	-0.108	0.069
-499.639	800.000	-0.022	-0.065
-498.624	206.320	-0.013	0.021
-497.610	9.100	-0.130	-0.098
-496.595	143.284	0.294	0.391
-495.581	-38.704	-0.009	0.005
-494.566	-13.051	0.117	0.076
-493.551	-28.061	-0.081	0.047
-492.537	329.893	-0.073	0.139
-491.522	-124.625	-0.186	-0.029
-490.508	113.770	0.141	-0.171
-489.493	-72.255	0.172	-0.063
-488.478	277.390	0.066	0.117
-487.464	-141.821	0.229	-0.023
-486.449	-85.314	0.273	-0.085
-485.435	-192.509	-0.133	-0.001
-484.420	-67.549	0.269	0.105
-483.405	84.548	-0.039	0.042
-482.391	26.037	0.333	0.277
-481.376	-200.000	0.016	0.220
-480.362	-142.199	0.085	0.008
-479.347	70.893	0.148	0.153
-478.332	-62.283	0.288	-0.120
-477.318	115.595	0.135	-0.164
-476.303	-43.516	-0.186	0.094
-475.289	-200.000	-0.064	0.409
-474.274	-133.196	0.174	0.022
-473.259	-178.955	-0.253	-0.006
-472.245	-47.977	-0.348	0.168
-471.230	278.215	0.166	0.294
-470.216	-53.630	-0.308	-0.140
-469.201	-56.406	0.185	0.082
-468.186	25.567	-0.245	0.203
-467.172	-6.017	0.258	0.176
-466.157	-38.375	-0.181	-0.096
-465.143	-200.000	0.011	-0.110
-464.128	800.000	0.075	-0.285
-463.113	-24.175	0.218	0.129
-462.099	134.629	0.017	0.022
-461.084	-66.192	0.250	0.099
-460.070	396.662	-0.120	0.250
-459.055	800.000	0.027	0.095
-458.040	140.527	-0.158	0.207
-457.026	182.800	0.110	-0.162
-456.011	-153.553	0.236	0.016
-454.997	800.000	-0.041	0.157
-453.982	-200.000	0.034	0.298
-452.968	-200.000	0.017	0.152
-451.953	-200.000	-0.036	-0.256
-450.938	-63.948	-0.162	-0.066
-449.924	-70.728	0.258	0.097
-448.909	93.133	-0.164	-0.185
-447.895	-20.908	0.170	0.104
-446.880	-200.000	0.003	-0.045
-445.865	-20.866	-0.099	0.060
-444.851	-91.996	0.194	-0.055
-443.836	-200.000	-0.055	-0.497
-442.822	800.000	-0.015	-0.053
-441.807	-107.947	0.259	-0.056
-440.792	800.000	0.083	-0.317
-439.778	123.859	-0.134	-0.167
-438.763	-95.870	0.202	-0.054
-437.749	497.405	0.031	-0.071
-436.734	63.566	-0.203	0.203
-435.719	111.629	-0.046	0.055
-434.705	9.041	0.133	-0.100
-433.690	-200.000	-0.024	0.369
-432.676	-159.775	-0.368	0.020
-431.661	9.570	-0.224	0.169
-430.646	-44.044	-0.429	0.214
-429.632	49.877	-0.108	0.102
-428.617	-200.000	-0.015	0.099
-427.603	-55.901	-0.236	0.105
-426.588	140.094	0.159	-0.208
-425.573	-133.069	-0.604	-0.076
-424.559	4.808	-0.041	-0.030
-423.544	-200.000	0.023	0.111
-422.530	800.000	-0.102	0.304
-421.515	-147.931	0.192	0.016
-420.500	-200.000	-0.008	0.223
-419.486	-176.199	0.337	0.009
-418.471	800.000	0.062	0.230
-417.457	-174.965	0.324	-0.009
-416.442	-90.320	-0.204	-0.059
-415.428	-114.256	0.398	-0.076
-414.413	-117.955	0.295	-0.052
-413.398	-72.240	0.177	0.065
-412.384	-132.186	0.359	0.046
-411.369	-36.246	-0.155	0.083
-410.355	-145.341	-0.205	0.018
-409.340	-83.928	0.102	0.032
-408.325	-200.000	-0.075	-0.352
-407.311	-8.062	-0.160	0.107
-406.296	-59.264	-0.094	0.040
-405.282	38.918	0.216	0.192
-404.267	-200.000	-0.002	-0.246
-403.252	-6.396	0.052	-0.035
-402.238	120.635	-0.059	-0.073
-401.223	-109.760	-0.139	0.029
-400.209	758.805	-0.064	-0.172
-399.194	-11.137	0.523	0.343
-398.179	800.000	-0.125	-0.392
-397.165	213.215	-0.097	-0.153
-396.150	52.750	0.043	0.040
-395.136	124.996	-0.219	-0.274
-394.121	-43.058	0.160	0.081
-393.106	508.589	-0.093	-0.215
-392.092	-141.901	-0.068	0.007
-391.077	87.469	-0.146	0.161
-390.063	800.000	-0.096	-0.377
-389.048	-79.412	-0.243	0.082
-388.033	371.107	0.101	-0.203
-387.019	580.624	0.088	0.214
-386.004	-39.033	0.080	-0.042
-384.990	-117.575	0.310	-0.055
-383.975	-200.000	0.001	0.060
-382.960	-27.951	0.132	-0.076
-381.946	-200.000	0.017	0.114
-380.931	102.254	-0.181	-0.210
-379.917	16.440	-0.082	0.064
-378.902	1.749	-0.163	0.117
-377.888	98.344	-0.173	0.198
-376.873	-24.564	-0.356	0.211
-375.858	227.691	-0.146	0.235
-374.844	800.000	-0.088	0.290
-373.829	75.445	-0.072	-0.076
-372.815	-103.524	-0.108	0.025
-371.800	-123.363	0.156	-0.025
-370.785	-143.197	0.080	0.008
-369.771	-200.000	-0.004	0.155
-368.756	-200.000	0.027	0.336
-367.742	800.000	-0.067	-0.201
-366.727	51.329	0.220	0.208
-365.712	-78.556	0.190	0.064
-364.698	-134.569	0.462	-0.056
-363.683	-200.000	0.077	0.432
-362.669	508.300	0.058	-0.133
-361.654	239.590	0.079	0.131
-360.639	-61.386	-0.100	0.042
-359.625	-20.825	0.145	0.088
-358.610	407.422	0.074	-0.155
-357.596	263.228	-0.045	0.078
-356.581	-154.593	0.241	0.016
-355.566	36.483	-0.084	-0.074
-354.552	207.331	-0.139	0.216
-353.537	78.318	0.286	-0.303
-352.523	-25.471	-0.303	-0.178
-351.508	-200.000	0.004	-0.094
-350.493	472.730	0.129	-0.289
-349.479	-20.552	-0.192	0.117
-348.464	-35.979	-0.200	0.108
-347.450	17.288	-0.154	0.122
-346.435	57.739	0.213	-0.206
-345.420	800.000	-0.076	-0.228
-344.406	47.841	0.125	-0.115
-343.391	-48.292	0.183	0.088
-342.377	-200.000	0.059	0.363
-341.362	-30.064	-0.130	0.073
-340.348	-87.129	-0.194	-0.058
-339.333	104.455	-0.074	0.087
-338.318	-85.427	0.183	0.056
-337.304	-38.184	-0.144	-0.075
-336.289	-179.208	0.365	0.008
-335.275	187.426	0.215	-0.317
-334.260	733.442	0.039	0.104
-333.245	57.423	0.125	-0.121
-332.231	176.776	-0.039	-0.056
-331.216	-64.353	0.196	0.079
-330.202	-200.000	0.033	-0.388
-329.187	73.001	-0.128	0.133
-328.172	-38.100	-0.264	-0.139
-327.158	12.616	-0.082	0.062
-326.143	-131.193	-0.168	0.022
-325.129	54.387	-0.129	-0.123
-324.114	36.969	0.083	-0.073
-323.099	-200.000	-0.007	0.131
-322.085	-200.000	-0.007	-0.045
-321.070	14.092	0.028	-0.021
-320.056	-200.000	0.003	0.110
-319.041	-94.688	0.247	0.066
-318.026	45.783	0.178	-0.163
-317.012	-135.615	-0.297	-0.035
-315.997	-200.000	-0.016	-0.203
-314.983	-196.837	-0.487	-0.003
-313.968	-89.194	-0.043	-0.012
-312.953	410.118	0.180	0.378
-311.939	-200.000	-0.085	-0.381
-310.924	800.000	0.059	-0.167
-309.910	-50.145	-0.131	-0.061
-308.895	-8.007	0.168	-0.112
-307.880	122.097	0.039	0.049
-306.866	155.761	0.128	-0.175
-305.851	94.910	-0.198	-0.223
-304.837	-99.407	0.258	-0.064
-303.822	-200.000	-0.016	0.315
-302.807	148.044	0.189	-0.252
-301.793	-107.943	0.357	-0.077
-300.778	257.737	0.036	0.061
-299.764	452.806	0.079	-0.174
-298.749	-63.767	0.087	0.035
-297.735	306.960	0.116	0.214
-296.720	-15.209	-0.228	0.145
-295.705	-67.341	0.265	0.103
-294.691	177.137	-0.042	0.061
-293.676	-101.309	0.246	-0.059
-292.662	-118.871	-0.092	-0.016
-291.647	170.979	-0.063	0.090
-290.632	-200.000	0.010	0.185
-289.618	-68.989	-0.056	-0.021
-288.603	-200.000	-0.036	-0.230
-287.589	312.628	-0.131	-0.244
-286.574	284.567	0.109	-0.194
-285.559	-44.499	-0.086	-0.042
-284.545	28.594	0.324	-0.272
-283.530	145.840	-0.181	0.240
-282.516	-107.720	0.092	0.020
-281.501	27.777	-0.032	0.027
-280.486	-33.742	-0.265	-0.145
-279.472	-17.821	-0.038	-0.024
-278.457	-47.955	0.096	0.046
-277.443	202.787	0.145	-0.221
-276.428	167.652	-0.148	-0.208
-275.413	72.161	-0.154	0.158
-274.399	209.491	0.101	0.157
-273.384	167.627	0.178	0.250
-272.370	-68.394	-0.166	0.064
-271.355	-98.962	-0.107	0.027
-270.340	-200.000	0.021	0.236
-269.326	-200.000	0.018	-0.302
-268.311	232.854	-0.134	0.218
-267.297	277.797	-0.104	0.184
-266.282	-27.175	-0.184	-0.106
-265.267	-11.672	0.220	0.143
-264.253	-131.795	-0.041	-0.005
-263.238	83.083	0.107	0.115
-262.224	-94.260	-0.083	0.023
-261.209	-186.226	-0.431	-0.006
-260.195	-168.811	-0.280	-0.010
-259.180	-200.000	0.007	-0.206
-258.165	-81.775	0.159	-0.051
-257.151	20.960	-0.024	0.019
-256.136	249.255	0.158	0.265
-255.122	800.000	-0.038	-0.122
-254.107	278.666	0.201	0.354
-253.092	107.939	-0.109	-0.128
-252.078	38.208	-0.162	-0.143
-251.063	-200.000	-0.002	0.121
-250.049	16.270	0.081	0.063
-249.034	-178.129	-0.100	-0.002
-248.019	74.048	-0.038	-0.039
-247.005	51.566	0.210	-0.197
-245.990	305.586	-0.097	0.179
-244.976	-125.399	-0.312	-0.047
-243.961	-200.000	0.013	0.326
-242.946	333.983	-0.099	-0.189
-241.932	43.750	0.176	-0.159
-240.917	181.292	-0.062	-0.089
-239.903	247.599	0.038	0.063
-238.888	269.259	0.099	0.171
-237.873	-37.701	-0.400	-0.210
-236.859	596.253	0.046	-0.113
-235.844	-116.580	-0.171	-0.031
-234.830	58.397	0.142	-0.138
-233.815	216.512	-0.075	-0.117
-232.800	-89.363	-0.236	0.068
-231.786	-200.000	0.001	-0.386
-230.771	-200.000	0.001	-0.020
-229.757	119.679	-0.111	-0.136
-228.742	419.930	-0.078	-0.165
-227.727	-117.389	-0.226	0.040
-226.713	17.608	0.098	0.077
-225.698	338.183	0.057	0.110
-224.684	-50.394	0.286	-0.133
-223.669	-112.149	0.176	0.035
-222.655	-200.000	0.040	0.344
-221.640	-178.599	0.109	0.002
-220.625	-63.001	-0.026	0.010
-219.611	-181.907	0.448	0.008
-218.596	174.175	0.159	-0.227
-217.582	34.121	0.111	0.095
-216.567	-200.000	0.034	-0.482
-215.552	581.744	-0.103	-0.249
-214.538	-200.000	0.042	0.284
-213.523	60.464	0.163	0.159
-212.509	375.622	0.029	-0.059
-211.494	133.382	0.378	0.482
-210.479	-46.720	-0.183	0.089
-209.465	-44.525	0.175	0.086
-208.450	-200.000	0.022	-0.214
-207.436	152.404	0.153	-0.207
-206.421	7.095	-0.127	0.093
-205.406	-67.323	0.185	0.072
-204.392	-10.798	-0.130	-0.084
-203.377	-200.000	-0.033	-0.281
-202.363	-76.797	-0.183	-0.063
-201.348	21.495	0.232	0.186
-200.333	354.136	0.160	0.313
-199.319	22.512	0.121	0.097
-198.304	-200.000	0.028	-0.132
-197.290	57.979	0.083	0.080
-196.275	421.673	0.038	-0.080
-195.260	-22.979	0.040	-0.024
-194.246	-168.281	0.095	0.004
-193.231	-200.000	-0.017	0.202
-192.217	-39.828	0.384	-0.198
-191.202	-88.232	-0.150	0.044
-190.187	-144.916	0.220	0.020
-189.173	800.000	-0.105	-0.381
-188.158	-200.000	0.037	0.165
-187.144	582.504	-0.005	0.012
-186.129	800.000	-0.079	-0.224
-185.114	-49.052	0.342	-0.161
-184.100	-200.000	0.028	0.289
-183.085	-200.000	-0.009	0.210
-182.071	-19.936	0.220	0.134
-181.056	-31.556	0.073	-0.040
-180.042	460.242	0.070	0.154
-179.027	-200.000	-0.013	0.227
-178.012	-200.000	0.021	0.172
-176.998	532.599	0.094	-0.218
-175.983	289.382	-0.188	0.336
-174.969	114.820	-0.160	0.192
-173.954	-100.583	0.352	0.086
-172.939	215.703	0.176	0.275
-171.925	800.000	-0.102	0.432
-170.910	10.422	0.153	0.115
-169.896	358.563	0.099	-0.195
-168.881	-48.035	-0.091	-0.043
-167.866	-23.412	0.257	0.152
-166.852	506.757	-0.010	-0.022
-165.837	253.090	0.038	-0.064
-164.823	-200.000	0.004	0.195
-163.808	193.912	0.159	-0.237
-162.793	122.144	-0.181	-0.223
-161.779	22.021	-0.093	0.075
-160.764	-200.000	-0.021	0.240
-159.750	619.567	0.070	0.173
-158.735	-38.715	-0.147	-0.076
-157.720	800.000	0.057	-0.162
-156.706	153.767	-0.176	0.237
-155.691	-60.867	0.166	-0.069
-154.677	190.989	0.037	-0.055
-153.662	-69.310	-0.349	-0.132
-152.647	-46.833	-0.325	-0.157
-151.633	183.715	-0.095	-0.138
-150.618	286.274	-0.035	0.063
-149.604	-43.685	0.042	-0.021
-148.589	-200.000	0.007	-0.040
-147.574	800.000	0.039	-0.121
-146.560	-200.000	-0.050	-0.397
-145.545	4.591	-0.136	-0.098
-144.531	322.923	0.020	0.037
-143.516	-24.680	-0.123	-0.072
-142.502	-200.000	-0.240	0.001
-141.487	250.102	-0.255	-0.425
-140.472	-200.000	-0.076	0.403
-139.458	-200.000	0.012	-0.076
-138.443	-110.089	-0.426	-0.088
-137.429	-200.000	-0.059	0.521
-136.414	-4.400	0.197	-0.134
-135.399	139.377	-0.136	-0.176
-134.385	-200.000	0.014	-0.221
-133.370	-9.696	-0.334	-0.219
-132.356	185.708	0.196	0.287
-131.341	168.525	0.214	0.301
-130.326	-200.000	0.008	0.190
-129.312	800.000	-0.039	0.130
-128.297	508.330	0.129	0.294
-127.283	120.109	-0.267	0.325
-126.268	-104.289	0.284	0.065
-125.253	-200.000	-0.013	0.342
-124.239	-200.000	-0.055	-0.255
-123.224	-119.705	-0.128	-0.022
-122.210	219.317	-0.047	-0.074
-121.195	-43.685	-0.131	-0.065
