DTS Sentinel unit serial number:	SN413079Multiplexer serial number:	ORYXHardware model number:	OX4-SRSoftware version number:	ORYX F/W v4.00 Oryx Data Collector v3.7.2.0data status	okinstallation	princeton_trtdifferential loss correction	single-endedforward channel	channel 1reverse channel	N/Adate	2019/09/14time	06:26:35forward acquisition time	60.00reverse acquisition time	0.00gamma	496.2192k internal	0.2336k external	0.2336temperature offset calibration	1.0078default loss term (dB/km)	0.3790temperature slope calibration	1.0000multiplexer offset coefficient	1.0000multiplexer slope coefficient	1.0000fibre end	0.00T internal ref (°C)	26.52T ext. ref 1 (°C)	3.40T ext. ref 2 (°C)	20.42length (m)	temperature (°C)	Stokes	anti-Stokes-747.200	-80.347	0.232	0.078
-746.185	-62.700	-0.221	0.092
-745.171	215.184	0.150	-0.239
-744.156	-20.967	-0.099	0.061
-743.142	31.479	-0.275	-0.238
-742.127	-142.933	-0.339	-0.033
-741.112	-200.000	0.046	0.210
-740.098	-184.767	-0.250	0.004
-739.083	-66.136	-0.468	-0.187
-738.069	114.375	-0.212	0.259
-737.054	-90.674	-0.187	0.054
-736.039	162.503	0.210	-0.296
-735.025	-192.144	0.234	-0.002
-734.010	86.582	0.115	-0.127
-732.996	294.003	0.128	-0.235
-731.981	199.471	-0.252	-0.388
-730.966	36.519	0.070	0.062
-729.952	-70.866	0.049	-0.019
-728.937	66.925	0.146	0.150
-727.923	137.304	-0.023	-0.030
-726.908	-12.244	0.264	-0.173
-725.894	190.780	-0.136	-0.206
-724.879	182.305	-0.088	-0.131
-723.864	-74.907	-0.139	-0.050
-722.850	-49.595	-0.029	-0.014
-721.835	-200.000	-0.028	0.208
-720.821	59.649	-0.207	0.205
-719.806	242.753	0.079	-0.133
-718.791	139.543	-0.087	-0.114
-717.777	800.000	0.015	0.043
-716.762	-39.313	0.043	-0.023
-715.748	-67.944	0.134	-0.053
-714.733	178.953	-0.117	0.172
-713.718	273.732	0.106	-0.189
-712.704	337.584	0.092	-0.179
-711.689	-96.598	-0.350	-0.093
-710.675	-73.129	0.199	0.073
-709.660	-200.000	0.005	0.155
-708.645	-200.000	0.053	0.278
-707.631	-200.000	0.018	-0.125
-706.616	-200.000	0.027	-0.143
-705.602	409.980	0.141	-0.300
-704.587	543.867	-0.130	-0.311
-703.572	800.000	0.071	-0.226
-702.558	350.726	-0.126	0.251
-701.543	-65.800	0.138	-0.056
-700.529	800.000	-0.012	-0.050
-699.514	96.795	-0.080	-0.092
-698.499	-47.277	-0.364	-0.178
-697.485	-108.596	0.168	0.036
-696.470	105.404	-0.012	0.014
-695.456	800.000	0.081	0.339
-694.441	-83.791	-0.056	-0.018
-693.426	380.039	0.057	0.116
-692.412	71.190	-0.049	-0.051
-691.397	800.000	0.015	-0.066
-690.383	800.000	-0.094	-0.377
-689.368	-133.114	0.044	0.006
-688.354	236.114	0.121	0.201
-687.339	-141.246	-0.025	-0.003
-686.324	-65.330	-0.220	-0.089
-685.310	285.421	0.093	-0.167
-684.295	137.704	0.052	-0.068
-683.281	-48.124	-0.184	0.089
-682.266	104.957	0.079	-0.093
-681.251	-200.000	-0.002	-0.119
-680.237	-28.168	0.338	-0.195
-679.222	248.759	-0.019	-0.033
-678.208	800.000	-0.080	-0.316
-677.193	-140.058	0.125	-0.013
-676.178	238.201	0.177	-0.295
-675.164	-200.000	0.010	-0.400
-674.149	320.346	-0.122	0.231
-673.135	800.000	-0.042	-0.122
-672.120	-200.000	-0.016	-0.125
-671.105	104.981	-0.234	-0.277
-670.091	800.000	-0.075	-0.243
-669.076	531.555	-0.061	0.143
-668.062	-102.030	0.320	0.077
-667.047	-200.000	-0.045	0.280
-666.032	-61.712	-0.449	-0.188
-665.018	-8.415	0.289	-0.195
-664.003	-200.000	-0.008	-0.179
-662.989	-200.000	0.027	-0.207
-661.974	610.002	0.092	0.231
-660.959	27.507	-0.231	-0.195
-659.945	-75.969	0.154	-0.055
-658.930	67.705	0.214	-0.219
-657.916	800.000	0.023	0.086
-656.901	800.000	0.030	-0.105
-655.886	-200.000	-0.040	0.206
-654.872	-91.973	-0.510	0.145
-653.857	800.000	-0.066	0.238
-652.843	-12.321	0.016	-0.011
-651.828	239.301	-0.135	-0.224
-650.814	553.394	0.076	0.182
-649.799	800.000	0.039	0.146
-648.784	-167.339	-0.306	-0.012
-647.770	-131.188	0.145	-0.019
-646.755	-23.619	-0.074	0.045
-645.741	249.700	0.131	0.222
-644.726	277.651	0.202	-0.360
-643.711	-200.000	-0.033	-0.164
-642.697	113.338	0.211	-0.256
-641.682	-19.201	-0.183	0.114
-640.668	-200.000	-0.021	-0.281
-639.653	-8.281	0.081	0.055
-638.638	134.025	-0.222	-0.287
-637.624	5.687	0.085	0.063
-636.609	800.000	0.079	-0.294
-635.595	-200.000	0.016	0.182
-634.580	249.233	0.131	0.223
-633.565	-167.671	-0.046	-0.002
-632.551	48.944	-0.101	-0.095
-631.536	-200.000	0.002	0.095
-630.522	-200.000	0.032	0.246
-629.507	390.031	-0.045	-0.093
-628.492	-112.815	-0.325	0.064
-627.478	-176.300	-0.069	-0.002
-626.463	-105.075	0.354	0.081
-625.449	-84.900	-0.451	-0.141
-624.434	-200.000	-0.009	-0.253
-623.419	-5.915	0.503	0.344
-622.405	-58.606	-0.211	-0.091
-621.390	44.974	0.247	0.227
-620.376	607.203	-0.139	-0.346
-619.361	-14.948	-0.162	-0.104
-618.346	38.884	-0.169	-0.151
-617.332	494.903	0.142	0.325
-616.317	-200.000	0.083	0.000
-615.303	374.184	-0.207	0.421
-614.288	-55.988	-0.083	-0.037
-613.273	-80.531	-0.094	0.031
-612.259	-39.615	-0.240	-0.125
-611.244	-29.842	-0.289	-0.164
-610.230	-100.293	-0.202	-0.050
-609.215	800.000	-0.039	0.136
-608.201	-200.000	0.000	-0.095
-607.186	-200.000	-0.031	-0.168
-606.171	-122.449	-0.250	0.041
-605.157	133.533	0.170	0.219
-604.142	800.000	-0.066	-0.188
-603.128	-200.000	0.039	0.174
-602.113	800.000	-0.067	0.276
-601.098	71.427	-0.153	0.158
-600.084	-92.551	0.281	0.079
-599.069	-23.681	0.239	-0.143
-598.055	-79.944	-0.241	-0.081
-597.040	-90.315	0.183	-0.053
-596.025	326.715	-0.065	0.124
-595.011	113.666	-0.162	0.197
-593.996	-71.447	0.200	-0.075
-592.982	-146.469	0.304	-0.026
-591.967	800.000	0.056	-0.177
-590.952	-200.000	0.020	-0.222
-589.938	-125.366	-0.032	-0.005
-588.923	-56.920	0.203	0.090
-587.909	395.170	0.129	0.268
-586.894	147.490	-0.159	-0.214
-585.879	-200.000	-0.004	-0.121
-584.865	113.514	0.079	0.096
-583.850	36.432	-0.043	0.038
-582.836	172.916	-0.052	0.075
-581.821	126.976	0.114	-0.144
-580.806	800.000	-0.049	-0.189
-579.792	800.000	-0.053	0.162
-578.777	-200.000	0.030	0.322
-577.763	-200.000	0.001	-0.296
-576.748	28.484	-0.290	0.245
-575.733	-139.783	0.133	0.014
-574.719	159.753	0.146	0.202
-573.704	-152.843	-0.248	-0.018
-572.690	502.127	-0.067	-0.155
-571.675	11.797	-0.192	0.147
-570.661	53.706	-0.292	0.280
-569.646	-59.955	-0.258	0.110
-568.631	-79.916	0.368	-0.123
-567.617	235.792	-0.128	-0.211
-566.602	-124.898	-0.224	-0.034
-565.588	800.000	0.115	-0.475
-564.573	-200.000	0.135	-0.001
-563.558	325.692	0.107	0.204
-562.544	434.633	0.031	0.067
-561.529	2.900	0.214	-0.155
-560.515	-114.909	-0.221	-0.042
-559.500	-200.000	-0.044	0.231
-558.485	-104.658	-0.123	0.028
-557.471	-61.446	-0.335	0.140
-556.456	800.000	-0.054	0.150
-555.442	-44.728	-0.362	0.180
-554.427	119.365	0.151	-0.186
-553.412	448.144	-0.172	-0.378
-552.398	-200.000	-0.019	-0.236
-551.383	-200.000	-0.054	0.391
-550.369	800.000	-0.030	0.126
-549.354	80.161	-0.332	0.356
-548.339	-200.000	-0.262	0.001
-547.325	-162.763	0.363	-0.018
-546.310	225.714	-0.049	-0.078
-545.296	193.435	0.076	0.115
-544.281	96.121	-0.113	0.129
-543.266	294.905	0.188	-0.342
-542.252	-2.033	0.356	-0.249
-541.237	28.837	-0.123	-0.104
-540.223	-200.000	-0.017	-0.187
-539.208	-79.739	0.462	0.155
-538.193	-22.815	-0.125	-0.075
-537.179	-91.961	-0.052	-0.015
-536.164	-200.000	-0.001	-0.214
-535.150	-75.864	0.013	-0.004
-534.135	-102.599	0.343	-0.082
-533.121	-28.044	-0.327	-0.188
-532.106	800.000	0.048	-0.141
-531.091	-200.000	-0.014	-0.098
-530.077	-133.850	-0.136	-0.017
-529.062	-26.629	0.257	-0.150
-528.048	-200.000	0.017	0.112
-527.033	-200.000	0.016	-0.152
-526.018	193.727	-0.093	-0.140
-525.004	-70.260	-0.217	0.082
-523.989	188.194	0.090	-0.134
-522.975	-93.994	-0.231	0.063
-521.960	70.266	-0.072	0.074
-520.945	-77.215	-0.139	-0.048
-519.931	-35.640	-0.079	0.043
-518.916	335.622	0.231	-0.446
-517.902	-136.656	-0.174	0.020
-516.887	228.186	0.126	0.205
-515.872	-118.515	-0.104	0.018
-514.858	55.710	-0.117	0.113
-513.843	-200.000	-0.034	-0.269
-512.829	799.288	-0.063	-0.174
-511.814	-83.069	-0.149	0.048
-510.799	108.139	0.071	0.084
-509.785	800.000	-0.114	0.360
-508.770	-200.000	-0.001	-0.039
-507.756	-75.460	0.235	0.083
-506.741	431.119	-0.039	-0.085
-505.726	180.162	-0.049	-0.071
-504.712	-95.598	-0.475	0.127
-503.697	-158.417	0.176	-0.010
-502.683	137.863	-0.075	0.098
-501.668	-88.334	-0.178	-0.053
-500.653	-64.188	0.214	-0.087
-499.639	188.539	-0.128	-0.190
-498.624	-40.116	0.423	-0.219
-497.610	-10.906	-0.156	-0.102
-496.595	169.420	-0.170	0.241
-495.581	-72.970	-0.367	-0.134
-494.566	50.318	0.254	0.239
-493.551	162.039	0.099	0.138
-492.537	201.760	0.193	0.295
-491.522	-162.132	-0.164	-0.008
-490.508	349.932	-0.058	-0.114
-489.493	-124.663	0.380	0.059
-488.478	-130.864	-0.104	0.014
-487.464	-84.502	-0.180	0.056
-486.449	-164.056	-0.151	0.007
-485.435	23.337	-0.183	-0.149
-484.420	-167.126	0.125	-0.005
-483.405	718.917	-0.075	0.197
-482.391	800.000	-0.044	-0.158
-481.376	800.000	-0.080	0.312
-480.362	153.617	-0.027	-0.037
-479.347	-200.000	-0.027	0.343
-478.332	78.653	-0.322	0.343
-477.318	329.736	-0.079	-0.152
-476.303	-17.169	-0.210	0.132
-475.289	118.064	0.226	0.277
-474.274	355.295	-0.076	-0.150
-473.259	-90.501	-0.200	-0.058
-472.245	10.147	-0.161	-0.122
-471.230	-83.653	0.160	0.051
-470.216	13.103	0.225	0.173
-469.201	-75.950	-0.134	-0.047
-468.186	-101.315	-0.433	-0.105
-467.172	-96.025	-0.329	-0.087
-466.157	-60.988	0.099	-0.042
-465.143	-162.403	0.299	-0.015
-464.128	717.757	-0.029	-0.078
-463.113	-181.602	-0.130	0.002
-462.099	168.768	-0.161	0.229
-461.084	800.000	0.004	-0.015
-460.070	-8.025	0.298	0.200
-459.055	111.754	0.193	-0.231
-458.040	-200.000	-0.001	0.050
-457.026	244.440	0.058	0.097
-456.011	331.863	0.094	-0.180
-454.997	-141.071	0.174	-0.018
-453.982	442.703	-0.013	-0.028
-452.968	117.617	0.213	-0.260
-451.953	0.550	-0.101	-0.072
-450.938	169.907	-0.045	-0.064
-449.924	718.590	0.139	0.367
-448.909	-83.528	0.099	0.032
-447.895	800.000	0.035	0.138
-446.880	-200.000	0.114	0.541
-445.865	-128.506	0.386	-0.054
-444.851	358.670	-0.099	0.196
-443.836	-135.112	0.108	0.013
-442.822	362.694	-0.101	-0.202
-441.807	219.727	-0.122	0.194
-440.792	-54.246	-0.413	0.186
-439.778	-43.376	0.082	0.041
-438.763	-63.245	-0.133	-0.054
-437.749	-78.453	-0.255	0.087
-436.734	-161.537	-0.102	-0.005
-435.719	326.570	-0.027	-0.050
-434.705	-159.282	-0.538	0.030
-433.690	32.819	-0.153	-0.132
-432.676	-138.064	-0.167	-0.018
-431.661	-135.402	-0.100	0.012
-430.646	-200.000	0.034	-0.263
-429.632	-39.525	0.211	-0.110
-428.617	-200.000	-0.012	0.150
-427.603	-17.698	0.040	-0.025
-426.588	-200.000	0.023	-0.195
-425.573	-200.000	0.045	-0.196
-424.559	-26.599	0.032	0.019
-423.544	52.437	-0.016	0.016
-422.530	-200.000	0.045	-0.281
-421.515	210.194	0.199	0.310
-420.500	-95.205	0.571	0.153
-419.486	165.476	-0.254	0.356
-418.471	-95.366	0.174	-0.047
-417.457	193.538	0.186	0.279
-416.442	-23.370	-0.066	0.039
-415.428	-166.477	-0.190	-0.008
-414.413	-117.263	-0.063	-0.011
-413.398	21.213	-0.236	0.190
-412.384	-200.000	0.008	-0.065
-411.369	-200.000	-0.026	-0.145
-410.355	-145.709	-0.111	-0.010
-409.340	99.036	0.051	0.059
-408.325	-39.978	0.111	-0.057
-407.311	382.783	0.070	-0.142
-406.296	-200.000	-0.069	-0.312
-405.282	-200.000	0.012	0.074
-404.267	209.591	0.083	0.129
-403.252	-200.000	-0.000	0.093
-402.238	800.000	-0.070	-0.245
-401.223	164.261	-0.138	-0.193
-400.209	1.209	-0.353	0.251
-399.194	-124.872	0.340	-0.052
-398.179	-200.000	-0.366	-0.000
-397.165	57.769	0.106	-0.103
-396.150	-99.068	0.107	-0.027
-395.136	-59.386	0.351	0.150
-394.121	113.693	0.053	-0.064
-393.106	-118.572	0.176	-0.031
-392.092	-63.674	0.168	-0.068
-391.077	-144.240	-0.186	0.017
-390.063	261.356	0.119	0.205
-389.048	193.211	0.099	0.148
-388.033	-75.464	0.066	-0.023
-387.019	23.519	-0.288	-0.234
-386.004	800.000	-0.028	-0.117
-384.990	800.000	-0.059	-0.197
-383.975	-15.298	0.327	0.207
-382.960	-84.263	-0.065	-0.020
-381.946	-69.165	0.302	0.115
-380.931	-19.878	-0.142	0.087
-379.917	40.345	-0.048	-0.042
-378.902	800.000	-0.116	-0.388
-377.888	165.669	0.105	-0.147
-376.873	-30.336	-0.152	0.086
-375.858	-26.527	0.207	-0.120
-374.844	-88.638	-0.143	0.042
-373.829	-200.000	-0.004	-0.273
-372.815	43.726	0.082	0.075
-371.800	-46.775	-0.135	0.065
-370.785	-167.993	-0.265	0.010
-369.771	800.000	0.019	-0.055
-368.756	800.000	0.102	0.283
-367.742	-66.726	-0.092	-0.036
-366.727	-200.000	-0.009	0.171
-365.712	427.126	0.156	-0.333
-364.698	800.000	0.059	-0.183
-363.683	36.875	0.261	0.228
-362.669	12.475	0.140	-0.107
-361.654	-72.636	0.261	0.095
-360.639	-126.849	-0.214	-0.031
-359.625	800.000	0.031	-0.127
-358.610	18.838	0.287	0.227
-357.596	-31.049	0.201	-0.112
-356.581	800.000	-0.103	0.339
-355.566	94.230	-0.067	0.076
-354.552	-35.954	0.089	-0.048
-353.537	-21.837	0.075	-0.045
-352.523	73.928	0.195	-0.202
-351.508	-64.948	-0.226	-0.090
-350.493	800.000	0.088	-0.308
-349.479	-0.668	-0.264	0.185
-348.464	-66.391	-0.174	-0.068
-347.450	151.370	0.203	-0.274
-346.435	800.000	-0.045	-0.181
-345.420	-160.066	-0.408	0.022
-344.406	800.000	0.103	-0.335
-343.391	91.297	-0.034	-0.038
-342.377	800.000	0.065	-0.240
-341.362	-200.000	0.026	0.163
-340.348	800.000	-0.088	0.309
-339.333	-200.000	0.059	-0.375
-338.318	-200.000	0.032	-0.156
-337.304	-200.000	0.058	-0.293
-336.289	-32.251	0.234	0.129
-335.275	-68.539	-0.230	0.088
-334.260	1.093	0.128	-0.091
-333.245	261.228	-0.064	0.109
-332.231	-70.270	-0.193	0.072
-331.216	-61.047	-0.276	-0.115
-330.202	-2.659	0.221	0.153
-329.187	-114.937	0.311	-0.059
-328.172	-179.849	0.140	-0.003
-327.158	120.873	0.058	0.072
-326.143	310.517	0.250	0.462
-325.129	358.066	-0.123	-0.242
-324.114	-90.589	0.420	0.120
-323.099	124.245	0.069	0.086
-322.085	-27.826	0.007	0.004
-321.070	-200.000	-0.004	-0.293
-320.056	-115.024	-0.097	0.018
-319.041	217.565	-0.137	0.216
-318.026	59.778	-0.390	0.380
-317.012	60.582	-0.091	0.089
-315.997	-125.165	-0.342	0.052
-314.983	-134.387	-0.055	0.007
-313.968	139.336	0.116	-0.150
-312.953	18.464	0.082	-0.064
-311.939	127.809	-0.224	-0.281
-310.924	497.679	-0.067	-0.152
-309.910	-200.000	0.002	-0.036
-308.895	110.629	-0.069	-0.082
-307.880	-109.439	-0.216	0.045
-306.866	-47.856	-0.023	-0.011
-305.851	-200.000	-0.003	-0.093
-304.837	688.741	0.059	-0.151
-303.822	414.071	-0.159	-0.334
-302.807	-7.299	0.103	-0.069
-301.793	-200.000	-0.051	-0.280
-300.778	-93.645	-0.214	-0.058
-299.764	680.783	0.148	0.380
-298.749	-82.150	-0.347	0.112
-297.735	557.627	0.056	0.133
-296.720	-15.659	-0.248	0.156
-295.705	20.089	0.176	-0.140
-294.691	-124.743	-0.065	-0.010
-293.676	-103.342	-0.060	0.014
-292.662	-100.785	-0.162	0.039
-291.647	-200.000	-0.019	0.126
-290.632	-77.134	0.299	0.103
-289.618	-47.636	0.175	-0.084
-288.603	294.803	0.101	-0.182
-287.589	228.807	0.134	0.215
-286.574	-116.829	-0.386	0.070
-285.559	800.000	0.021	0.083
-284.545	-55.898	0.199	0.088
-283.530	-200.000	-0.011	-0.097
-282.516	-161.899	0.535	0.027
-281.501	-101.690	-0.148	0.035
-280.486	-56.271	-0.072	0.031
-279.472	-200.000	0.030	0.268
-278.457	-53.776	-0.173	-0.078
-277.443	158.301	-0.081	-0.110
-276.428	-200.000	-0.073	0.353
-275.413	32.790	0.099	0.085
-274.399	317.537	0.112	-0.209
-273.384	-17.048	0.310	0.193
-272.370	-132.299	-0.235	0.030
-271.355	800.000	-0.066	0.259
-270.340	302.865	-0.057	-0.104
-269.326	145.806	0.151	0.200
-268.311	-200.000	-0.007	-0.104
-267.297	-200.000	0.006	0.231
-266.282	350.711	0.030	0.058
-265.267	-200.000	0.003	-0.076
-264.253	800.000	-0.104	-0.308
-263.238	-123.382	0.434	0.068
-262.224	323.509	0.103	0.193
-261.209	-122.601	-0.179	0.029
-260.195	641.823	-0.057	-0.144
-259.180	-36.224	0.098	0.052
-258.165	580.756	-0.027	0.065
-257.151	-200.000	0.032	-0.183
-256.136	-109.452	0.079	-0.016
-255.122	-89.053	-0.262	0.076
-254.107	800.000	0.109	-0.385
-253.092	225.344	0.042	-0.067
-252.078	-61.362	-0.167	0.069
-251.063	179.893	0.083	0.120
-250.049	540.289	-0.059	-0.138
-249.034	800.000	0.033	-0.108
-248.019	-71.951	0.329	0.120
-247.005	-88.507	0.310	0.091
-245.990	-89.406	0.351	-0.102
-244.976	-34.490	0.165	-0.089
-243.961	-200.000	0.020	0.114
-242.946	-62.796	-0.282	-0.115
-241.932	125.536	-0.265	0.330
-240.917	-52.510	-0.159	-0.072
-239.903	476.012	0.076	-0.168
-238.888	413.413	0.088	0.184
-237.873	800.000	-0.002	-0.005
-236.859	266.484	0.086	-0.148
-235.844	-200.000	-0.013	-0.101
-234.830	352.401	-0.030	0.059
-233.815	-118.388	0.157	-0.028
-232.800	209.584	0.084	0.129
-231.786	170.231	0.161	0.226
-230.771	-28.782	0.271	-0.153
-229.757	-200.000	-0.033	-0.180
-228.742	800.000	-0.003	0.010
-227.727	-63.737	-0.250	-0.101
-226.713	71.108	0.117	-0.119
-225.698	-200.000	0.024	0.221
-224.684	-64.805	-0.140	-0.056
-223.669	206.522	0.064	0.098
-222.655	213.096	-0.079	0.123
-221.640	-168.484	-0.256	0.010
-220.625	-139.002	-0.174	-0.019
-219.611	800.000	0.071	0.249
-218.596	419.096	0.017	0.035
-217.582	-132.385	-0.244	0.031
-216.567	-200.000	-0.075	0.370
-215.552	-40.922	-0.274	-0.139
-214.538	182.991	0.201	-0.292
-213.523	252.885	0.235	0.394
-212.509	-37.543	-0.143	-0.075
-211.494	-31.381	0.322	0.178
-210.479	-136.969	0.188	-0.021
-209.465	800.000	0.006	-0.019
-208.450	558.879	-0.045	-0.108
-207.436	-200.000	0.042	0.303
-206.421	440.172	-0.122	0.262
-205.406	108.668	-0.134	0.158
-204.392	-161.578	0.124	0.006
-203.377	-48.505	0.098	-0.047
-202.363	25.350	0.044	0.036
-201.348	800.000	-0.030	-0.107
-200.333	800.000	-0.035	-0.120
-199.319	-12.644	-0.153	0.098
-198.304	800.000	0.101	0.338
-197.290	-63.373	0.385	-0.156
-196.275	131.083	0.175	-0.221
-195.260	159.055	-0.101	0.138
-194.246	24.858	-0.135	-0.110
-193.231	34.418	0.138	0.118
-192.217	35.151	-0.287	-0.247
-191.202	247.203	0.041	-0.068
-190.187	-103.784	0.306	0.070
-189.173	333.591	-0.263	-0.499
-188.158	-118.378	0.261	-0.046
-187.144	800.000	0.037	-0.140
-186.129	50.275	0.112	-0.104
-185.114	-46.519	-0.177	-0.085
-184.100	-43.690	-0.185	0.092
-183.085	111.301	0.093	0.110
-182.071	131.671	-0.139	-0.175
-181.056	-200.000	0.090	-0.618
-180.042	-122.919	0.311	0.049
-179.027	42.263	0.278	0.248
-178.012	800.000	-0.061	0.231
-176.998	-73.780	0.125	0.045
-175.983	800.000	-0.037	0.115
-174.969	-38.118	0.305	0.159
-173.954	132.898	-0.182	0.231
-172.939	2.944	0.403	0.288
-171.925	5.024	0.393	-0.284
-170.910	-38.362	-0.173	-0.090
-169.896	210.529	0.061	0.094
-168.881	405.250	0.135	0.279
-167.866	141.431	-0.079	0.103
-166.852	-181.149	-0.356	0.007
-165.837	-60.977	0.246	0.102
-164.823	88.293	-0.027	-0.029
-163.808	113.218	-0.059	-0.071
-162.793	800.000	0.060	-0.250
-161.779	-70.247	0.085	-0.032
-160.764	51.479	0.152	-0.141
-159.750	-161.818	0.089	-0.004
-158.735	217.405	0.217	-0.339
-157.720	-129.093	-0.088	0.012
-156.706	-85.286	0.242	0.074
-155.691	800.000	0.066	0.226
-154.677	174.194	0.156	0.222
-153.662	47.881	-0.069	-0.063
-152.647	-114.991	0.159	-0.030
-151.633	581.026	0.164	-0.394
-150.618	101.170	-0.126	0.144
-149.604	-124.309	0.281	-0.043
-148.589	800.000	-0.048	0.201
-147.574	-108.583	0.314	0.066
-146.560	40.950	0.179	-0.158
-145.545	-60.663	-0.175	-0.073
-144.531	374.748	-0.089	-0.177
-143.516	-200.000	0.000	0.142
-142.502	-200.000	0.020	-0.237
-141.487	-200.000	-0.055	-0.286
-140.472	230.304	-0.148	0.238
-139.458	-9.536	0.306	-0.200
-138.443	-137.328	-0.048	-0.005
-137.429	-119.519	-0.114	-0.019
-136.414	93.154	-0.120	-0.133
-135.399	385.680	0.063	-0.127
-134.385	412.865	0.063	0.132
-133.370	-200.000	-0.016	-0.220
-132.356	220.585	-0.082	-0.129
-131.341	-144.683	-0.303	0.027
-130.326	800.000	-0.062	-0.262
-129.312	800.000	-0.041	0.120
-128.297	-90.411	-0.159	-0.045
-127.283	330.272	-0.074	0.139
-126.268	132.925	0.130	0.165
-125.253	-18.001	0.025	-0.015
-124.239	-200.000	-0.004	-0.335
-123.224	-200.000	-0.003	0.076
