DTS Sentinel unit serial number:	SN413079Multiplexer serial number:	ORYXHardware model number:	OX4-SRSoftware version number:	ORYX F/W v4.00 Oryx Data Collector v3.7.2.0data status	okinstallation	princeton_trtdifferential loss correction	single-endedforward channel	channel 1reverse channel	N/Adate	2019/09/16time	20:26:35forward acquisition time	60.00reverse acquisition time	0.00gamma	496.2192k internal	0.2323k external	0.2323temperature offset calibration	0.9952default loss term (dB/km)	0.3790temperature slope calibration	1.0000multiplexer offset coefficient	1.0000multiplexer slope coefficient	1.0000fibre end	0.00T internal ref (°C)	32.72T ext. ref 1 (°C)	0.06T ext. ref 2 (°C)	26.66length (m)	temperature (°C)	Stokes	anti-Stokes-747.200	-168.032	0.378	-0.015
-746.185	800.000	0.062	0.186
-745.171	-152.010	-0.112	0.008
-744.156	-15.915	-0.059	0.038
-743.142	267.962	-0.047	0.082
-742.127	-4.812	0.197	-0.138
-741.112	800.000	-0.034	0.135
-740.098	-26.951	-0.123	0.072
-739.083	28.147	-0.107	-0.091
-738.069	119.263	-0.328	-0.410
-737.054	800.000	0.082	0.253
-736.039	800.000	-0.033	0.113
-735.025	284.245	-0.107	-0.194
-734.010	361.957	-0.212	-0.430
-732.996	-105.361	-0.347	-0.080
-731.981	48.794	-0.091	-0.087
-730.966	53.626	0.183	-0.177
-729.952	12.200	-0.385	-0.299
-728.937	-77.426	-0.252	0.088
-727.923	110.953	0.105	-0.128
-726.908	499.615	-0.069	0.160
-725.894	-149.603	-0.230	0.018
-724.879	800.000	-0.038	0.122
-723.864	-132.317	0.308	0.040
-722.850	247.160	0.054	-0.093
-721.835	800.000	-0.030	0.090
-720.821	800.000	0.084	-0.325
-719.806	197.485	-0.131	-0.202
-718.791	79.013	0.021	-0.023
-717.777	-186.022	0.403	0.006
-716.762	11.982	0.213	-0.165
-715.748	800.000	0.071	-0.231
-714.733	-68.555	-0.119	-0.047
-713.718	-77.906	-0.211	0.073
-712.704	-57.612	0.173	0.077
-711.689	-63.983	-0.376	-0.155
-710.675	-99.821	-0.183	0.046
-709.660	-200.000	-0.030	0.305
-708.645	14.259	-0.248	-0.195
-707.631	24.524	-0.110	0.092
-706.616	59.555	0.306	-0.305
-705.602	0.681	0.260	-0.187
-704.587	-130.872	0.268	-0.036
-703.572	40.549	-0.241	0.219
-702.558	155.764	-0.118	-0.164
-701.543	383.676	0.173	-0.359
-700.529	210.019	-0.078	-0.123
-699.514	63.217	0.364	0.367
-698.499	314.913	0.033	0.063
-697.485	9.367	0.214	-0.163
-696.470	163.127	0.171	0.242
-695.456	94.933	-0.093	-0.107
-694.441	342.316	0.121	0.238
-693.426	-200.000	0.049	0.276
-692.412	111.288	-0.110	-0.133
-691.397	-100.773	-0.418	0.104
-690.383	-200.000	-0.147	0.001
-689.368	-200.000	0.017	-0.110
-688.354	-153.397	-0.194	-0.014
-687.339	800.000	0.046	0.136
-686.324	-92.303	0.148	0.042
-685.310	460.092	0.090	0.202
-684.295	-73.368	0.115	-0.043
-683.281	57.831	-0.062	0.061
-682.266	-6.789	-0.214	0.147
-681.251	-200.000	-0.041	0.224
-680.237	-140.032	-0.413	-0.044
-679.222	45.002	0.039	-0.036
-678.208	800.000	-0.059	0.227
-677.193	-14.046	-0.047	0.030
-676.178	-15.283	-0.417	-0.268
-675.164	185.732	0.206	-0.308
-674.149	26.737	-0.174	0.147
-673.135	-119.984	0.085	0.015
-672.120	-29.131	0.142	0.082
-671.105	-86.616	-0.065	-0.020
-670.091	-200.000	0.019	-0.142
-669.076	-15.730	0.221	0.142
-668.062	554.378	-0.039	-0.095
-667.047	189.037	0.155	0.233
-666.032	117.672	0.276	-0.342
-665.018	618.358	0.051	-0.129
-664.003	800.000	0.050	-0.217
-662.989	-200.000	-0.025	0.220
-661.974	-24.886	-0.320	-0.191
-660.959	217.075	0.068	0.109
-659.945	654.505	0.163	-0.420
-658.930	-200.000	0.021	0.394
-657.916	-74.589	-0.239	0.087
-656.901	128.982	0.139	-0.179
-655.886	-26.181	-0.132	-0.078
-654.872	-175.286	-0.109	0.003
-653.857	-200.000	-0.099	0.539
-652.843	201.956	-0.080	0.124
-651.828	-200.000	-0.016	0.095
-650.814	218.713	-0.124	0.199
-649.799	596.164	-0.098	0.243
-648.784	-31.288	-0.189	-0.107
-647.770	-86.363	0.057	0.018
-646.755	458.315	0.035	-0.077
-645.741	-200.000	0.081	-0.369
-644.726	-177.494	-0.215	-0.005
-643.711	212.456	-0.151	0.239
-642.697	-200.000	-0.014	-0.066
-641.682	20.025	0.227	-0.184
-640.668	-36.832	-0.151	-0.081
-639.653	220.535	-0.109	0.175
-638.638	104.317	-0.138	0.164
-637.624	26.421	0.275	0.231
-636.609	-101.756	-0.226	-0.055
-635.595	-165.623	0.277	0.012
-634.580	265.438	-0.046	-0.080
-633.565	-200.000	-0.021	-0.138
-632.551	413.560	0.117	0.251
-631.536	-27.726	0.307	0.179
-630.522	161.890	-0.124	-0.175
-629.507	-200.000	0.022	0.178
-628.492	-200.000	0.033	0.185
-627.478	394.642	-0.044	-0.093
-626.463	307.095	0.195	0.366
-625.449	-200.000	0.004	0.080
-624.434	57.306	-0.150	0.147
-623.419	-200.000	0.065	-0.288
-622.405	1.439	0.138	-0.100
-621.390	23.266	0.121	0.100
-620.376	181.027	-0.130	-0.193
-619.361	800.000	0.155	0.507
-618.346	-126.244	0.334	0.050
-617.332	-200.000	0.030	-0.395
-616.317	21.830	-0.206	0.168
-615.303	-200.000	-0.010	-0.055
-614.288	-132.971	0.492	0.063
-613.273	95.721	-0.078	-0.090
-612.259	-64.444	0.356	0.145
-611.244	-62.644	0.561	0.234
-610.230	-44.819	-0.073	-0.036
-609.215	181.959	-0.236	-0.350
-608.201	-83.391	0.293	0.094
-607.186	486.289	-0.080	0.183
-606.171	23.319	0.034	-0.028
-605.157	-200.000	-0.001	-0.357
-604.142	574.944	-0.094	-0.230
-603.128	115.557	0.103	0.126
-602.113	-140.090	-0.244	-0.026
-601.098	-166.474	0.497	-0.021
-600.084	78.067	-0.113	-0.121
-599.069	252.336	-0.172	0.295
-598.055	497.907	-0.035	-0.080
-597.040	275.036	-0.050	0.088
-596.025	-200.000	0.000	0.101
-595.011	-69.197	0.222	-0.086
-593.996	-166.411	0.082	0.003
-592.982	116.258	0.029	-0.036
-591.967	16.864	0.197	0.157
-590.952	-37.786	-0.254	-0.136
-589.938	44.725	0.163	-0.150
-588.923	589.651	0.056	-0.137
-587.909	-101.543	0.270	-0.066
-586.894	171.164	-0.208	-0.299
-585.879	267.280	0.072	-0.126
-584.865	331.747	-0.029	-0.056
-583.850	800.000	-0.022	-0.069
-582.836	-41.126	0.118	0.061
-581.821	-95.555	-0.108	0.029
-580.806	-14.997	0.206	-0.132
-579.792	-200.000	0.040	-0.399
-578.777	94.845	-0.074	-0.084
-577.763	-67.877	0.250	-0.098
-576.748	-67.989	-0.309	0.121
-575.733	800.000	-0.051	-0.206
-574.719	800.000	-0.071	-0.311
-573.704	776.261	0.157	-0.430
-572.690	331.351	0.173	-0.334
-571.675	363.238	-0.211	-0.425
-570.661	105.954	0.160	0.190
-569.646	-80.181	-0.170	0.057
-568.631	158.431	-0.031	-0.043
-567.617	25.696	-0.145	-0.121
-566.602	326.015	0.099	0.190
-565.588	800.000	0.029	0.126
-564.573	-200.000	0.074	0.331
-563.558	-58.008	-0.076	0.033
-562.544	-200.000	-0.066	-0.332
-561.529	160.080	0.221	-0.308
-560.515	-62.217	-0.165	-0.069
-559.500	800.000	0.040	-0.132
-558.485	-200.000	-0.004	-0.115
-557.471	-200.000	0.048	0.309
-556.456	800.000	-0.060	0.228
-555.442	-29.113	-0.097	0.056
-554.427	-12.802	-0.067	-0.044
-553.412	239.091	-0.044	-0.073
-552.398	-92.070	0.126	-0.036
-551.383	-200.000	-0.029	0.211
-550.369	168.977	-0.225	0.322
-549.354	-200.000	0.003	-0.073
-548.339	-106.482	-0.136	-0.031
-547.325	111.132	0.369	-0.445
-546.310	-200.000	0.076	0.351
-545.296	-200.000	0.015	0.122
-544.281	-200.000	-0.072	0.335
-543.266	-45.353	-0.120	0.059
-542.252	-114.097	-0.030	-0.006
-541.237	6.233	0.236	0.175
-540.223	102.135	-0.243	0.284
-539.208	600.176	0.084	-0.208
-538.193	-1.282	0.301	-0.213
-537.179	26.699	0.187	0.157
-536.164	774.273	-0.035	-0.097
-535.150	-200.000	-0.016	-0.132
-534.135	746.925	-0.134	0.361
-533.121	407.355	0.090	0.191
-532.106	49.709	-0.178	0.168
-531.091	-69.624	0.229	-0.088
-530.077	-163.464	-0.245	0.012
-529.062	80.943	-0.093	-0.100
-528.048	62.930	0.210	0.211
-527.033	197.825	-0.183	0.279
-526.018	403.162	0.074	0.157
-525.004	-122.473	-0.089	-0.014
-523.989	356.284	0.205	0.408
-522.975	-173.712	-0.252	-0.008
-521.960	-59.398	0.207	-0.089
-520.945	-200.000	0.013	0.106
-519.931	-200.000	0.026	0.239
-518.916	-20.231	0.171	-0.105
-517.902	1.947	0.095	-0.069
-516.887	-175.288	0.255	0.007
-515.872	-30.775	-0.149	0.084
-514.858	-7.580	-0.203	-0.137
-513.843	-200.000	-0.004	-0.450
-512.829	-200.000	-0.001	-0.158
-511.814	-200.000	0.009	0.173
-510.799	-139.294	-0.312	-0.034
-509.785	-8.112	0.431	-0.291
-508.770	-200.000	0.030	-0.304
-507.756	51.541	0.153	-0.146
-506.741	-0.593	-0.127	0.090
-505.726	-9.661	0.099	0.066
-504.712	116.143	-0.142	0.174
-503.697	185.808	0.033	-0.050
-502.683	-73.288	0.121	0.044
-501.668	10.620	0.184	-0.140
-500.653	-101.095	0.272	-0.067
-499.639	0.792	0.125	0.089
-498.624	-26.027	-0.155	0.091
-497.610	351.490	-0.232	0.460
-496.595	3.096	0.110	0.080
-495.581	63.724	-0.081	-0.081
-494.566	-59.914	-0.258	-0.111
-493.551	-70.556	-0.187	0.071
-492.537	-200.000	-0.025	0.128
-491.522	-4.298	-0.240	-0.166
-490.508	-27.197	-0.221	-0.129
-489.493	182.203	-0.165	-0.244
-488.478	288.315	0.111	0.201
-487.464	267.294	0.054	0.095
-486.449	800.000	0.081	-0.280
-485.435	-90.274	-0.088	-0.026
-484.420	800.000	0.043	0.143
-483.405	-200.000	-0.016	-0.111
-482.391	-144.419	-0.150	-0.014
-481.376	490.817	0.107	0.245
-480.362	261.592	-0.100	-0.173
-479.347	147.572	-0.154	0.207
-478.332	281.550	-0.105	-0.189
-477.318	-136.188	-0.056	0.007
-476.303	-15.437	0.247	0.158
-475.289	287.385	-0.194	0.351
-474.274	-62.835	-0.112	-0.046
-473.259	800.000	0.103	-0.308
-472.245	-92.015	0.014	0.004
-471.230	-104.036	-0.132	0.031
-470.216	-200.000	-0.063	0.455
-469.201	-28.463	0.237	-0.136
-468.186	407.028	0.095	-0.201
-467.172	108.346	-0.070	-0.083
-466.157	-91.733	0.324	-0.092
-465.143	-19.438	-0.202	-0.125
-464.128	-13.696	-0.267	0.172
-463.113	-129.624	-0.177	-0.024
-462.099	-200.000	-0.050	-0.444
-461.084	-200.000	-0.017	-0.187
-460.070	-89.364	-0.257	-0.075
-459.055	41.010	-0.176	0.159
-458.040	-200.000	-0.008	-0.094
-457.026	-200.000	-0.035	0.448
-456.011	-45.653	-0.082	0.040
-454.997	-46.909	-0.211	-0.103
-453.982	-200.000	-0.038	0.192
-452.968	800.000	0.033	-0.092
-451.953	800.000	0.009	-0.029
-450.938	-73.294	0.170	-0.062
-449.924	-86.662	-0.063	-0.019
-448.909	88.901	0.268	0.298
-447.895	-27.296	-0.264	-0.153
-446.880	-81.337	0.445	0.147
-445.865	18.933	0.094	0.075
-444.851	679.177	-0.026	0.067
-443.836	-88.423	0.126	-0.037
-442.822	-200.000	-0.058	-0.399
-441.807	-200.000	0.023	0.188
-440.792	259.796	0.144	0.248
-439.778	6.028	0.222	-0.164
-438.763	128.472	0.226	0.288
-437.749	179.529	-0.155	0.226
-436.734	-200.000	0.038	-0.315
-435.719	-12.904	-0.141	-0.092
-434.705	800.000	0.039	-0.134
-433.690	-101.386	0.089	0.022
-432.676	-25.736	0.125	-0.074
-431.661	-81.382	0.288	0.095
-430.646	-166.764	-0.167	0.007
-429.632	-73.763	0.071	-0.026
-428.617	170.452	-0.073	-0.105
-427.603	-28.812	-0.103	0.059
-426.588	-78.372	0.070	0.024
-425.573	-69.865	0.209	0.079
-424.559	-200.000	-0.004	0.057
-423.544	-200.000	-0.036	-0.236
-422.530	-189.467	0.173	-0.002
-421.515	800.000	0.013	-0.037
-420.500	-200.000	-0.016	-0.082
-419.486	800.000	0.038	0.147
-418.471	60.371	0.018	0.017
-417.457	246.847	-0.052	0.087
-416.442	800.000	-0.007	-0.027
-415.428	29.163	-0.184	-0.156
-414.413	65.272	-0.098	0.098
-413.398	-29.257	-0.182	0.104
-412.384	199.279	-0.190	-0.291
-411.369	526.076	-0.116	-0.273
-410.355	-200.000	-0.015	0.135
-409.340	7.631	0.230	-0.171
-408.325	-138.364	-0.164	0.018
-407.311	800.000	-0.017	-0.060
-406.296	-18.860	-0.209	0.129
-405.282	-70.985	-0.356	0.133
-404.267	-85.975	0.166	-0.051
-403.252	800.000	0.048	0.158
-402.238	-53.970	-0.096	-0.044
-401.223	372.312	-0.074	-0.150
-400.209	800.000	0.067	-0.209
-399.194	800.000	-0.035	0.108
-398.179	118.324	-0.086	0.105
-397.165	800.000	0.076	0.314
-396.150	743.364	0.084	-0.226
-395.136	340.838	0.166	0.324
-394.121	222.660	-0.102	-0.163
-393.106	300.638	-0.054	-0.099
-392.092	-50.670	-0.053	0.025
-391.077	-200.000	-0.042	0.221
-390.063	-23.440	0.136	0.081
-389.048	-200.000	0.026	0.296
-388.033	33.124	-0.040	0.034
-387.019	-156.479	-0.147	-0.009
-386.004	-97.262	-0.222	0.058
-384.990	2.039	-0.090	0.065
-383.975	800.000	0.111	-0.327
-382.960	14.332	0.151	0.117
-381.946	-173.947	0.063	0.002
-380.931	-14.689	0.141	-0.090
-379.917	-200.000	0.011	-0.250
-378.902	-200.000	0.006	0.319
-377.888	-68.544	0.176	0.068
-376.873	800.000	-0.077	0.216
-375.858	-38.911	-0.197	0.103
-374.844	-103.557	-0.179	-0.042
-373.829	-44.744	0.157	-0.078
-372.815	-200.000	-0.025	0.154
-371.800	-67.550	-0.191	-0.075
-370.785	-53.491	-0.077	-0.035
-369.771	156.014	0.085	-0.116
-368.756	374.465	-0.060	0.121
-367.742	28.294	-0.136	0.114
-366.727	-23.290	0.085	0.051
-365.712	635.949	-0.062	0.156
-364.698	-95.712	0.364	0.097
-363.683	-49.569	-0.233	0.110
-362.669	-200.000	-0.054	0.283
-361.654	771.029	0.039	0.105
-360.639	0.405	-0.214	0.152
-359.625	2.290	0.184	0.132
-358.610	-200.000	0.018	-0.308
-357.596	-112.336	0.328	0.065
-356.581	-146.330	0.244	0.021
-355.566	45.564	0.153	0.140
-354.552	-38.971	-0.358	0.188
-353.537	-200.000	-0.014	0.327
-352.523	-75.303	-0.048	0.017
-351.508	-66.342	0.180	0.071
-350.493	-200.000	-0.020	-0.203
-349.479	800.000	0.058	0.165
-348.464	-200.000	0.019	-0.232
-347.450	-200.000	0.002	0.197
-346.435	391.683	0.088	0.182
-345.420	-200.000	0.019	0.123
-344.406	-180.026	-0.229	-0.005
-343.391	-57.583	0.095	0.041
-342.377	139.049	0.042	-0.054
-341.362	254.023	0.125	-0.212
-340.348	135.021	0.141	0.182
-339.333	174.134	0.090	-0.129
-338.318	-15.021	-0.153	-0.098
-337.304	84.558	-0.060	0.065
-336.289	-200.000	0.007	-0.280
-335.275	800.000	-0.068	-0.218
-334.260	800.000	-0.076	0.323
-333.245	11.574	-0.225	-0.172
-332.231	-200.000	0.048	0.219
-331.216	242.906	0.220	0.367
-330.202	96.967	0.112	-0.127
-329.187	128.530	0.170	0.215
-328.172	-96.237	0.175	0.046
-327.158	-48.920	-0.103	0.049
-326.143	800.000	-0.072	0.223
-325.129	43.609	0.333	-0.303
-324.114	574.049	-0.018	-0.043
-323.099	129.936	-0.133	0.169
-322.085	-16.374	-0.296	-0.186
-321.070	-200.000	0.009	-0.065
-320.056	175.803	-0.120	0.173
-319.041	-36.999	0.216	0.115
-318.026	-200.000	0.025	0.148
-317.012	-32.106	0.167	0.093
-315.997	-200.000	-0.007	-0.402
-314.983	-200.000	-0.011	0.159
-313.968	168.614	-0.077	-0.108
-312.953	-46.993	0.118	-0.057
-311.939	0.225	-0.214	-0.151
-310.924	391.209	0.028	-0.058
-309.910	17.752	0.271	0.214
-308.895	144.538	-0.065	-0.087
-307.880	309.596	-0.140	0.260
-306.866	-63.501	-0.038	0.016
-305.851	-200.000	-0.042	-0.213
-304.837	51.313	0.303	-0.286
-303.822	-200.000	0.015	-0.072
-302.807	328.358	-0.131	-0.249
-301.793	204.824	-0.112	-0.172
-300.778	401.924	-0.143	-0.299
-299.764	-160.919	0.141	-0.007
-298.749	342.219	-0.157	0.305
-297.735	-200.000	0.013	0.223
-296.720	-137.870	-0.144	-0.016
-295.705	-44.920	0.146	0.072
-294.691	800.000	-0.095	-0.351
-293.676	6.735	0.317	-0.234
-292.662	800.000	-0.014	-0.048
-291.647	125.017	-0.226	0.282
-290.632	-200.000	-0.028	-0.194
-289.618	-178.879	-0.260	0.006
-288.603	-200.000	-0.054	-0.362
-287.589	210.011	0.098	0.152
-286.574	138.623	-0.131	-0.171
-285.559	-200.000	0.019	0.236
-284.545	-47.146	0.005	0.002
-283.530	-87.649	-0.189	-0.057
-282.516	-200.000	-0.023	-0.191
-281.501	-114.699	0.306	-0.058
-280.486	31.775	0.169	-0.144
-279.472	800.000	0.041	0.127
-278.457	-68.173	0.138	0.053
-277.443	-71.874	0.437	-0.161
-276.428	800.000	-0.079	-0.331
-275.413	-4.422	-0.111	0.076
-274.399	-200.000	-0.018	-0.090
-273.384	-200.000	-0.080	-0.373
-272.370	-107.581	-0.231	-0.050
-271.355	-37.777	-0.366	0.193
-270.340	-200.000	-0.022	-0.173
-269.326	-58.555	0.070	-0.030
-268.311	104.876	-0.071	0.083
-267.297	269.693	-0.125	0.218
-266.282	3.491	0.160	-0.116
-265.267	-128.243	0.277	-0.039
-264.253	3.746	-0.279	0.202
-263.238	-150.602	0.287	0.022
-262.224	-51.706	0.219	0.101
-261.209	-35.930	0.143	-0.077
-260.195	800.000	-0.011	-0.048
-259.180	18.972	0.150	-0.119
-258.165	-200.000	-0.024	0.197
-257.151	-18.139	-0.164	0.102
-256.136	-58.277	-0.181	-0.078
-255.122	-156.949	0.086	0.005
-254.107	41.910	-0.124	0.111
-253.092	-120.813	0.006	-0.001
-252.078	342.289	0.102	0.198
-251.063	-200.000	0.228	-0.001
-250.049	179.478	-0.124	0.180
-249.034	-200.000	0.069	0.309
-248.019	386.675	-0.162	0.332
-247.005	-19.227	-0.131	0.081
-245.990	-60.670	-0.223	0.094
-244.976	800.000	-0.034	0.113
-243.961	-134.183	-0.125	-0.015
-242.946	579.926	0.071	-0.173
-241.932	-12.875	0.130	-0.084
-240.917	158.105	0.097	0.134
-239.903	-114.934	-0.410	0.077
-238.888	-38.628	0.096	-0.050
-237.873	20.669	0.285	0.228
-236.859	-200.000	0.028	-0.241
-235.844	800.000	-0.120	0.347
-234.830	54.246	0.249	-0.238
-233.815	-200.000	-0.028	-0.133
-232.800	-31.350	0.041	-0.023
-231.786	800.000	-0.084	0.252
-230.771	800.000	0.062	-0.174
-229.757	-68.898	0.025	-0.010
-228.742	21.906	-0.422	-0.341
-227.727	800.000	-0.100	-0.389
-226.713	-200.000	-0.028	-0.403
-225.698	782.741	0.106	-0.287
-224.684	-128.154	-0.221	-0.031
-223.669	-200.000	-0.009	-0.103
-222.655	-50.216	-0.244	0.114
-221.640	-200.000	0.050	-0.361
-220.625	80.141	-0.054	-0.057
-219.611	-173.935	0.272	0.008
-218.596	31.767	0.127	-0.108
-217.582	-70.360	-0.340	-0.127
-216.567	441.946	-0.083	-0.180
-215.552	800.000	0.030	0.105
-214.538	-16.244	0.197	0.124
-213.523	405.030	-0.182	-0.379
-212.509	800.000	0.055	0.206
-211.494	800.000	-0.106	0.341
-210.479	194.618	-0.108	-0.162
-209.465	232.314	-0.161	0.262
-208.450	-200.000	0.008	-0.162
-207.436	-51.673	0.175	-0.081
-206.421	-200.000	0.069	0.367
-205.406	-161.219	-0.169	-0.009
-204.392	378.144	0.034	-0.069
-203.377	-20.178	-0.181	0.110
-202.363	-77.499	0.063	0.022
-201.348	-32.910	0.273	0.150
-200.333	56.966	0.204	-0.197
-199.319	96.160	-0.203	0.230
-198.304	299.740	-0.189	0.345
-197.290	-200.000	-0.042	-0.211
-196.275	232.078	0.128	-0.207
-195.260	800.000	-0.050	0.166
-194.246	101.857	-0.137	0.158
-193.231	-200.000	0.025	-0.464
-192.217	141.371	0.108	0.141
-191.202	786.266	0.124	0.336
-190.187	476.820	-0.149	0.333
-189.173	800.000	-0.109	0.323
-188.158	119.381	0.155	0.190
-187.144	-133.987	-0.163	0.020
-186.129	13.555	-0.406	0.312
-185.114	242.103	0.083	-0.137
-184.100	-29.199	0.275	-0.156
-183.085	-34.066	-0.302	-0.164
-182.071	-165.412	-0.029	0.001
-181.056	-24.981	0.341	-0.200
-180.042	52.244	-0.199	-0.187
-179.027	-141.761	-0.142	-0.014
-178.012	51.948	0.050	-0.047
-176.998	-30.739	0.199	-0.111
-175.983	-39.387	0.129	-0.067
-174.969	-200.000	-0.014	-0.101
-173.954	380.939	-0.039	-0.080
-172.939	800.000	0.068	-0.225
-171.925	-162.511	-0.056	0.003
-170.910	-200.000	0.011	0.067
-169.896	46.899	0.113	0.104
-168.881	-13.956	-0.267	-0.170
-167.866	-80.210	0.276	0.091
-166.852	22.515	-0.034	-0.027
-165.837	-53.787	-0.350	0.158
-164.823	-30.916	0.194	-0.108
-163.808	-33.054	-0.233	-0.128
-162.793	21.540	0.126	0.101
-161.779	-200.000	0.015	-0.210
-160.764	-119.445	-0.248	-0.043
-159.750	-41.085	0.239	-0.122
-158.735	19.714	0.081	0.065
-157.720	-14.094	-0.299	0.190
-156.706	-8.508	-0.248	-0.165
-155.691	-1.871	0.103	0.072
-154.677	-48.539	-0.109	0.052
-153.662	-74.415	-0.123	-0.044
-152.647	101.666	0.047	0.054
-151.633	42.956	0.156	-0.140
-150.618	63.083	0.082	-0.081
-149.604	-61.462	0.318	0.132
-148.589	200.983	-0.278	-0.422
-147.574	-8.766	0.094	0.063
-146.560	-31.311	0.340	-0.189
-145.545	356.128	-0.097	-0.190
-144.531	-55.701	-0.167	-0.074
-143.516	125.903	-0.312	0.389
-142.502	171.355	-0.151	0.214
-141.487	-58.497	0.129	0.055
-140.472	-200.000	0.026	-0.130
-139.458	-4.457	0.113	-0.077
-138.443	-200.000	0.013	0.079
-137.429	-200.000	0.027	0.230
-136.414	-200.000	-0.064	-0.290
-135.399	-200.000	-0.025	0.276
-134.385	0.060	0.314	0.221
-133.370	17.049	-0.054	0.042
-132.356	-84.405	-0.159	-0.050
-131.341	800.000	0.118	-0.499
-130.326	65.542	-0.124	-0.124
-129.312	800.000	0.110	-0.317
-128.297	-200.000	0.033	0.315
-127.283	-200.000	-0.032	0.169
-126.268	-33.048	0.274	-0.150
-125.253	-67.973	0.346	0.133
-124.239	-98.382	-0.288	0.073
-123.224	-200.000	0.026	-0.158
-122.210	-60.224	-0.159	0.067
-121.195	-171.565	-0.103	-0.003
