DTS Sentinel unit serial number:	SN413079Multiplexer serial number:	ORYXHardware model number:	OX4-SRSoftware version number:	ORYX F/W v4.00 Oryx Data Collector v3.7.2.0data status	okinstallation	princeton_trtdifferential loss correction	single-endedforward channel	channel 1reverse channel	N/Adate	2019/09/12time	12:04:11forward acquisition time	60.00reverse acquisition time	0.00gamma	496.2192k internal	0.2292k external	0.2292temperature offset calibration	1.0040default loss term (dB/km)	0.3790temperature slope calibration	1.0000multiplexer offset coefficient	1.0000multiplexer slope coefficient	1.0000fibre end	0.00T internal ref (°C)	40.45T ext. ref 1 (°C)	2.02T ext. ref 2 (°C)	37.76length (m)	temperature (°C)	Stokes	anti-Stokes-747.200	-52.061	-0.131	-0.062
-746.185	800.000	0.072	0.296
-745.171	28.229	0.113	0.097
-744.156	-104.567	0.204	0.048
-743.142	-144.169	-0.246	0.024
-742.127	-200.000	-0.006	0.339
-741.112	-157.546	0.212	0.013
-740.098	-200.000	0.059	0.288
-739.083	14.130	-0.203	0.161
-738.069	-93.185	-0.214	0.061
-737.054	-21.761	-0.343	-0.214
-736.039	-91.367	-0.349	-0.102
-735.025	5.478	0.082	0.062
-734.010	403.084	-0.148	-0.319
-732.996	-5.339	0.165	-0.116
-731.981	-46.873	-0.275	0.138
-730.966	-172.246	-0.215	-0.007
-729.952	195.507	-0.242	0.376
-728.937	-158.784	0.311	0.018
-727.923	-116.283	-0.113	-0.021
-726.908	464.579	0.112	-0.256
-725.894	-6.285	-0.103	0.072
-724.879	-111.151	-0.481	0.101
-723.864	-131.966	0.144	-0.019
-722.850	-24.390	-0.242	0.148
-721.835	-111.115	-0.098	0.020
-720.821	-14.760	-0.301	0.198
-719.806	72.213	0.159	0.169
-718.791	6.502	-0.208	-0.158
-717.777	29.942	0.029	-0.025
-716.762	191.922	0.286	-0.441
-715.748	70.424	-0.250	-0.264
-714.733	69.928	0.082	0.086
-713.718	169.310	-0.062	0.091
-712.704	174.027	0.096	-0.142
-711.689	12.472	0.150	0.118
-710.675	-52.978	-0.510	0.240
-709.660	-149.703	-0.162	0.013
-708.645	189.942	-0.202	0.309
-707.631	-147.252	-0.399	0.035
-706.616	109.464	0.155	-0.190
-705.602	72.379	0.238	-0.254
-704.587	-55.943	0.093	0.043
-703.572	295.018	0.185	0.346
-702.558	-63.038	0.180	0.076
-701.543	-75.531	0.443	-0.161
-700.529	26.669	-0.045	-0.039
-699.514	505.232	0.157	0.371
-698.499	130.399	-0.163	0.213
-697.485	-200.000	0.011	0.247
-696.470	167.771	0.085	0.123
-695.456	-124.767	0.253	0.040
-694.441	364.626	0.103	-0.212
-693.426	-94.136	-0.488	0.137
-692.412	532.269	0.049	-0.119
-691.397	-200.000	0.009	0.232
-690.383	-61.527	0.166	0.071
-689.368	101.357	0.049	-0.058
-688.354	-17.258	-0.333	-0.214
-687.339	9.372	0.225	-0.174
-686.324	603.879	0.105	-0.266
-685.310	752.926	-0.109	-0.300
-684.295	-113.625	0.149	0.030
-683.281	200.224	-0.067	0.106
-682.266	103.262	0.103	0.124
-681.251	652.789	0.104	-0.273
-680.237	150.998	-0.108	-0.150
-679.222	384.137	-0.141	0.296
-678.208	10.747	-0.295	-0.230
-677.193	247.620	0.053	0.091
-676.178	-75.379	0.057	0.021
-675.164	-97.365	0.188	-0.050
-674.149	-56.595	-0.221	-0.100
-673.135	-200.000	0.068	-0.382
-672.120	-200.000	-0.002	-0.046
-671.105	-200.000	0.008	0.098
-670.091	105.226	-0.110	0.132
-669.076	544.650	-0.059	0.143
-668.062	-97.048	-0.103	-0.028
-667.047	43.908	-0.112	0.104
-666.032	189.710	0.004	-0.006
-665.018	-200.000	-0.009	-0.196
-664.003	-27.076	-0.271	-0.161
-662.989	-200.000	-0.008	-0.085
-661.974	-5.590	-0.283	-0.198
-660.959	252.159	-0.083	-0.145
-659.945	-23.789	0.260	-0.159
-658.930	-20.455	-0.184	-0.115
-657.916	-200.000	-0.019	-0.162
-656.901	800.000	0.104	0.397
-655.886	254.931	-0.115	0.201
-654.872	153.369	0.088	-0.123
-653.857	130.217	0.181	-0.236
-652.843	-123.423	-0.260	0.042
-651.828	-180.685	0.032	-0.001
-650.814	712.782	0.029	0.079
-649.799	418.602	0.116	-0.254
-648.784	647.145	-0.067	-0.174
-647.770	-159.994	0.204	0.011
-646.755	800.000	-0.040	0.153
-645.741	-200.000	0.039	0.376
-644.726	-37.884	-0.101	-0.055
-643.711	800.000	-0.058	0.255
-642.697	-156.108	-0.354	0.023
-641.682	-119.536	-0.106	-0.019
-640.668	663.391	0.047	-0.123
-639.653	-200.000	-0.001	-0.120
-638.638	-77.020	0.194	0.069
-637.624	36.660	-0.031	-0.028
-636.609	-101.291	0.178	0.044
-635.595	-200.000	0.024	-0.355
-634.580	800.000	-0.040	0.140
-633.565	288.898	-0.136	0.251
-632.551	-200.000	-0.028	-0.331
-631.536	-200.000	-0.042	-0.334
-630.522	-61.459	-0.218	0.093
-629.507	122.592	-0.031	0.040
-628.492	-200.000	0.014	0.350
-627.478	-3.341	-0.201	0.143
-626.463	-200.000	0.032	-0.228
-625.449	-200.000	0.011	-0.438
-624.434	-123.084	-0.307	0.050
-623.419	21.778	0.173	-0.144
-622.405	36.839	-0.134	0.121
-621.390	-65.153	-0.196	-0.080
-620.376	188.346	0.102	-0.155
-619.361	-87.812	-0.313	0.096
-618.346	7.763	-0.096	0.074
-617.332	-187.387	-0.374	0.005
-616.317	-36.378	-0.192	-0.105
-615.303	291.051	0.066	-0.123
-614.288	412.807	0.119	-0.258
-613.273	-38.234	-0.321	-0.173
-612.259	313.619	0.145	-0.278
-611.244	-148.391	0.129	-0.011
-610.230	-200.000	-0.039	0.195
-609.215	-162.311	0.455	-0.023
-608.201	-120.467	-0.244	0.042
-607.186	86.782	-0.119	0.134
-606.171	61.921	-0.244	-0.248
-605.157	183.460	0.146	-0.219
-604.142	-200.000	-0.036	0.370
-603.128	-20.000	-0.124	0.078
-602.113	70.773	0.072	-0.076
-601.098	-200.000	-0.002	0.143
-600.084	-200.000	-0.018	-0.306
-599.069	-200.000	0.051	-0.227
-598.055	-62.130	0.313	-0.133
-597.040	-109.486	-0.111	0.024
-596.025	45.503	0.233	-0.218
-595.011	-200.000	-0.021	-0.281
-593.996	53.438	-0.092	0.090
-592.982	140.811	-0.225	0.303
-591.967	91.133	0.053	0.060
-590.952	326.007	-0.167	0.326
-589.938	356.611	-0.154	0.312
-588.923	467.955	0.074	0.168
-587.909	-99.967	-0.236	0.060
-586.894	-200.000	-0.024	0.450
-585.879	20.818	-0.261	-0.215
-584.865	234.397	0.036	-0.061
-583.850	-59.181	0.078	0.034
-582.836	800.000	0.039	-0.116
-581.821	23.422	-0.282	0.236
-580.806	329.094	0.060	0.118
-579.792	-36.656	0.180	0.099
-578.777	-200.000	0.019	-0.155
-577.763	-41.199	-0.057	-0.030
-576.748	-140.879	0.411	0.043
-575.733	61.853	0.118	-0.119
-574.719	-48.113	-0.104	0.051
-573.704	88.317	-0.149	0.168
-572.690	295.935	-0.190	-0.353
-571.675	-114.669	0.094	-0.018
-570.661	31.485	-0.143	0.125
-569.646	353.488	0.121	0.244
-568.631	800.000	-0.044	-0.157
-567.617	-200.000	0.042	0.413
-566.602	51.045	-0.127	-0.122
-565.588	-200.000	0.296	0.000
-564.573	73.471	0.086	-0.092
-563.558	800.000	-0.063	-0.194
-562.544	-59.081	-0.213	-0.093
-561.529	-200.000	-0.035	-0.163
-560.515	800.000	0.084	-0.251
-559.500	-170.793	0.156	0.005
-558.485	800.000	-0.135	0.379
-557.471	-4.159	0.139	0.098
-556.456	-200.000	0.077	-0.342
-555.442	-128.616	0.159	0.023
-554.427	-200.000	-0.027	0.157
-553.412	111.612	-0.183	-0.225
-552.398	-200.000	0.056	0.267
-551.383	-200.000	-0.004	0.102
-550.369	-66.673	-0.264	-0.106
-549.354	-122.295	-0.285	0.047
-548.339	190.148	0.188	-0.286
-547.325	-112.920	0.071	-0.014
-546.310	-134.563	-0.154	-0.019
-545.296	-200.000	0.029	-0.248
-544.281	-110.151	-0.097	-0.021
-543.266	-200.000	0.035	0.341
-542.252	127.046	-0.160	-0.205
-541.237	-60.119	-0.066	-0.028
-540.223	11.298	0.167	0.130
-539.208	544.575	-0.088	0.215
-538.193	107.932	-0.227	-0.275
-537.179	474.261	-0.053	0.122
-536.164	-88.578	-0.139	-0.042
-535.150	800.000	-0.042	-0.141
-534.135	-60.660	0.204	0.088
-533.121	101.053	-0.174	-0.205
-532.106	-200.000	-0.001	0.142
-531.091	71.504	-0.170	-0.179
-530.077	187.843	-0.212	-0.321
-529.062	800.000	0.070	-0.269
-528.048	-33.877	0.109	0.061
-527.033	-173.985	-0.560	0.017
-526.018	-38.895	0.250	-0.134
-525.004	-182.384	0.132	0.002
-523.989	-22.508	-0.078	-0.048
-522.975	587.905	0.121	0.302
-521.960	-68.993	-0.277	0.108
-520.945	229.883	-0.066	0.109
-519.931	463.253	0.135	0.307
-518.916	-139.998	-0.123	-0.013
-517.902	-112.462	-0.316	0.064
-516.887	-64.970	0.236	-0.097
-515.872	44.646	-0.053	-0.049
-514.858	83.376	0.070	0.077
-513.843	189.911	0.202	0.308
-512.829	-20.865	0.198	0.123
-511.814	-129.452	-0.360	0.051
-510.799	34.003	-0.039	-0.034
-509.785	-29.393	-0.283	0.164
-508.770	23.389	-0.113	-0.094
-507.756	800.000	0.081	0.233
-506.741	-12.358	0.130	0.086
-505.726	-135.572	0.182	0.022
-504.712	-200.000	-0.005	0.258
-503.697	-85.947	-0.266	0.084
-502.683	-9.991	-0.354	-0.238
-501.668	-200.000	-0.025	0.156
-500.653	-136.616	0.146	0.017
-499.639	42.798	0.103	-0.095
-498.624	232.082	-0.191	0.318
-497.610	-24.263	0.100	0.060
-496.595	530.737	0.144	-0.344
-495.581	46.029	-0.099	0.092
-494.566	800.000	0.050	-0.189
-493.551	123.056	-0.202	0.257
-492.537	-33.316	0.119	-0.067
-491.522	719.515	-0.073	0.196
-490.508	12.439	-0.077	0.061
-489.493	800.000	-0.044	-0.144
-488.478	-200.000	0.043	0.192
-487.464	-200.000	-0.017	0.258
-486.449	800.000	-0.060	0.215
-485.435	234.282	0.124	-0.207
-484.420	-4.194	0.052	-0.037
-483.405	-94.003	-0.136	0.038
-482.391	-33.507	0.120	-0.067
-481.376	800.000	0.038	-0.112
-480.362	-49.880	-0.083	0.040
-479.347	211.799	-0.066	0.105
-478.332	49.136	-0.106	-0.101
-477.318	223.995	0.183	-0.299
-476.303	-65.208	-0.156	0.064
-475.289	-200.000	-0.014	-0.175
-474.274	525.936	-0.101	0.240
-473.259	61.360	0.091	0.092
-472.245	171.012	-0.149	0.217
-471.230	192.954	-0.065	-0.100
-470.216	543.204	0.152	-0.367
-469.201	698.208	0.180	0.480
-468.186	-23.675	0.190	0.115
-467.172	-83.252	-0.103	0.034
-466.157	65.233	-0.271	0.277
-465.143	-54.690	0.108	0.049
-464.128	800.000	-0.036	-0.159
-463.113	-162.648	0.067	0.003
-462.099	800.000	0.106	-0.398
-461.084	-101.773	-0.309	-0.076
-460.070	800.000	-0.093	0.286
-459.055	-13.421	-0.065	0.043
-458.040	-11.348	-0.333	-0.222
-457.026	745.808	-0.039	-0.107
-456.011	-200.000	0.008	-0.375
-454.997	38.776	-0.214	-0.193
-453.982	-103.115	0.176	-0.042
-452.968	734.142	0.076	0.206
-451.953	36.333	-0.238	0.212
-450.938	-112.922	-0.186	0.037
-449.924	-21.242	-0.186	-0.115
-448.909	2.903	0.104	0.076
-447.895	800.000	-0.020	0.059
-446.880	-115.926	-0.243	0.046
-445.865	-200.000	-0.010	-0.285
-444.851	-200.000	-0.047	-0.257
-443.836	44.896	0.204	0.190
-442.822	203.703	0.119	0.186
-441.807	800.000	0.095	-0.365
-440.792	119.103	0.219	0.273
-439.778	189.476	-0.144	0.218
-438.763	224.757	-0.039	-0.063
-437.749	225.299	-0.083	0.135
-436.734	-70.344	-0.319	-0.122
-435.719	127.184	0.165	0.212
-434.705	-200.000	-0.027	0.366
-433.690	-69.925	-0.090	-0.035
-432.676	189.157	0.173	-0.262
-431.661	44.458	0.049	0.046
-430.646	-13.918	-0.123	-0.081
-429.632	-46.077	-0.118	-0.059
-428.617	-108.927	-0.240	-0.052
-427.603	77.591	-0.208	0.224
-426.588	-52.528	0.180	0.084
-425.573	-44.590	-0.254	0.128
-424.559	-124.014	0.046	0.007
-423.544	-130.867	-0.058	0.008
-422.530	56.745	-0.148	-0.146
-421.515	800.000	0.047	0.193
-420.500	-200.000	-0.056	-0.385
-419.486	800.000	0.068	-0.278
-418.471	-72.021	-0.248	0.093
-417.457	-110.752	0.093	-0.019
-416.442	83.176	-0.068	0.075
-415.428	-200.000	-0.038	-0.203
-414.413	69.443	-0.141	-0.146
-413.398	-84.656	0.250	-0.079
-412.384	0.550	0.431	0.311
-411.369	119.829	0.148	-0.185
-410.355	-162.388	0.306	0.015
-409.340	-131.350	0.301	-0.040
-408.325	509.030	0.049	0.115
-407.311	-127.110	0.182	0.027
-406.296	66.335	-0.228	0.234
-405.282	-35.206	-0.293	-0.161
-404.267	-37.993	-0.046	-0.025
-403.252	-55.437	0.193	-0.088
-402.238	-123.902	0.445	0.071
-401.223	800.000	-0.087	-0.371
-400.209	-156.571	0.162	-0.010
-399.194	10.636	0.097	-0.074
-398.179	49.705	-0.168	0.160
-397.165	-79.837	-0.143	0.049
-396.150	-47.599	0.124	0.061
-395.136	131.941	0.140	-0.182
-394.121	45.138	-0.134	-0.125
-393.106	215.935	-0.128	-0.205
-392.092	-114.246	0.125	-0.024
-391.077	-31.951	-0.129	-0.073
-390.063	800.000	-0.045	0.145
-389.048	-88.824	0.214	0.064
-388.033	384.719	0.090	-0.188
-387.019	262.074	-0.141	0.246
-386.004	800.000	0.033	-0.114
-384.990	-200.000	-0.033	0.215
-383.975	-81.441	0.223	-0.074
-382.960	-200.000	0.020	-0.356
-381.946	-200.000	0.132	0.000
-380.931	3.147	0.085	0.062
-379.917	27.466	0.393	0.333
-378.902	334.047	-0.078	0.152
-377.888	315.979	0.080	0.151
-376.873	-2.484	0.049	-0.035
-375.858	-140.330	0.130	-0.014
-374.844	-181.873	0.064	-0.001
-373.829	12.671	-0.230	0.179
-372.815	-51.052	0.094	0.044
-371.800	-124.042	-0.126	0.020
-370.785	-200.000	0.005	-0.040
-369.771	30.788	0.182	0.157
-368.756	24.788	0.164	0.137
-367.742	-15.200	-0.108	-0.070
-366.727	-4.612	-0.225	-0.157
-365.712	-46.887	0.078	0.039
-364.698	23.634	-0.340	0.282
-363.683	386.752	-0.081	-0.170
-362.669	-200.000	-0.009	-0.042
-361.654	402.749	0.131	-0.277
-360.639	394.496	-0.053	-0.111
-359.625	-102.655	-0.186	0.045
-358.610	161.874	0.167	0.235
-357.596	190.262	-0.168	-0.255
-356.581	-133.386	-0.307	-0.039
-355.566	-200.000	-0.006	-0.035
-354.552	-144.169	0.028	0.003
-353.537	-164.971	0.061	0.003
-352.523	15.568	-0.226	-0.179
-351.508	-33.363	-0.015	-0.008
-350.493	77.812	0.091	-0.097
-349.479	-200.000	-0.018	-0.185
-348.464	-84.504	-0.045	0.014
-347.450	42.811	0.393	0.361
-346.435	322.730	-0.178	-0.342
-345.420	291.850	-0.148	0.271
-344.406	334.032	-0.119	-0.232
-343.391	720.222	-0.025	0.068
-342.377	800.000	-0.009	-0.029
-341.362	12.496	0.154	0.119
-340.348	-94.002	-0.224	-0.062
-339.333	-70.919	0.044	-0.017
-338.318	16.536	0.131	-0.104
-337.304	-41.383	-0.319	-0.165
-336.289	-200.000	0.006	-0.132
-335.275	71.634	-0.042	0.043
-334.260	-4.011	0.109	0.076
-333.245	-37.274	0.082	-0.044
-332.231	-35.167	-0.105	0.058
-331.216	-200.000	-0.001	-0.407
-330.202	800.000	0.083	-0.321
-329.187	253.764	-0.059	-0.101
-328.172	-138.033	-0.033	0.004
-327.158	-17.052	0.258	-0.164
-326.143	-200.000	0.002	0.015
-325.129	800.000	0.039	-0.112
-324.114	-9.325	0.073	-0.049
-323.099	-35.554	-0.278	0.152
-322.085	-200.000	0.007	-0.103
-321.070	85.869	-0.220	-0.244
-320.056	151.086	0.153	0.209
-319.041	30.575	-0.249	0.214
-318.026	-36.148	0.041	0.022
-317.012	-115.575	0.077	-0.014
-315.997	800.000	0.076	-0.330
-314.983	16.958	-0.143	0.114
-313.968	-186.995	-0.185	-0.003
-312.953	147.046	-0.174	-0.236
-311.939	34.525	0.110	0.096
-310.924	25.565	-0.158	0.132
-309.910	-41.201	0.177	-0.092
-308.895	-160.138	-0.110	0.006
-307.880	-134.957	0.240	-0.029
-306.866	184.515	0.059	-0.088
-305.851	107.875	-0.051	0.062
-304.837	-122.126	-0.163	-0.027
-303.822	-155.622	0.171	-0.011
-302.807	-200.000	0.001	-0.208
-301.793	-44.777	0.146	-0.073
-300.778	26.422	-0.205	-0.173
-299.764	-126.632	-0.202	-0.030
-298.749	-200.000	-0.005	-0.052
-297.735	9.790	0.115	-0.088
-296.720	800.000	0.059	-0.178
-295.705	26.672	0.023	-0.020
-294.691	15.797	0.081	0.064
-293.676	149.687	-0.115	0.156
-292.662	43.324	0.215	0.197
-291.647	-200.000	-0.038	0.221
-290.632	287.234	-0.060	0.109
-289.618	70.378	0.058	-0.060
-288.603	258.947	-0.078	0.136
-287.589	-3.289	0.262	-0.184
-286.574	221.378	-0.164	-0.266
-285.559	800.000	-0.123	-0.410
-284.545	257.552	-0.118	-0.204
-283.530	-200.000	-0.015	0.255
-282.516	-62.926	0.210	-0.087
-281.501	-39.143	-0.215	-0.113
-280.486	195.005	0.025	0.038
-279.472	800.000	-0.022	-0.071
-278.457	-200.000	0.025	0.249
-277.443	53.216	0.182	-0.175
-276.428	92.020	-0.121	0.137
-275.413	-106.995	-0.153	-0.034
-274.399	-189.559	0.121	-0.001
-273.384	800.000	-0.015	-0.047
-272.370	219.194	0.087	-0.139
-271.355	633.155	-0.176	0.449
-270.340	800.000	0.054	-0.156
-269.326	-53.115	-0.409	-0.189
-268.311	291.521	0.132	0.242
-267.297	-48.672	-0.092	0.044
-266.282	-8.425	0.445	-0.300
-265.267	623.806	0.125	0.317
-264.253	-200.000	0.069	0.435
-263.238	-152.494	-0.058	-0.004
-262.224	27.979	0.111	-0.094
-261.209	-94.822	0.342	0.093
-260.195	-200.000	-0.009	0.094
-259.180	-52.042	0.127	-0.059
-258.165	-60.363	0.061	0.026
-257.151	-200.000	-0.023	0.334
-256.136	-167.815	0.384	-0.015
-255.122	-200.000	0.043	0.314
-254.107	167.855	-0.118	-0.168
-253.092	130.051	0.181	-0.233
-252.078	800.000	-0.043	0.139
-251.063	110.195	0.181	0.218
-250.049	79.034	0.234	0.251
-249.034	167.898	0.116	0.166
-248.019	316.107	0.125	-0.236
-247.005	-114.435	0.427	-0.082
-245.990	-200.000	-0.026	0.212
-244.976	800.000	0.046	0.202
-243.961	-191.446	0.506	0.005
-242.946	171.222	-0.198	0.284
-241.932	-167.462	-0.161	0.006
-240.917	45.048	0.121	-0.112
-239.903	-106.648	0.232	0.052
-238.888	-74.883	0.043	-0.015
-237.873	-3.689	-0.165	-0.115
-236.859	209.554	0.228	0.358
-235.844	279.002	0.161	0.288
-234.830	-101.666	-0.091	0.022
-233.815	-200.000	-0.012	0.169
-232.800	-196.487	-0.358	-0.002
-231.786	13.533	-0.201	0.157
-230.771	-121.354	-0.244	-0.041
-229.757	-200.000	-0.007	0.033
-228.742	42.707	0.164	-0.150
-227.727	349.029	0.220	-0.435
-226.713	86.900	0.166	0.184
-225.698	-33.840	0.091	0.050
-224.684	26.675	-0.188	0.158
-223.669	-18.549	-0.134	0.084
-222.655	-16.882	0.226	-0.143
-221.640	-89.081	-0.194	-0.057
-220.625	270.183	-0.103	-0.181
-219.611	800.000	0.055	-0.208
-218.596	85.530	0.103	-0.113
-217.582	117.860	-0.445	0.550
-216.567	-200.000	0.013	0.113
-215.552	-200.000	0.013	-0.160
-214.538	-200.000	0.002	0.124
-213.523	-200.000	-0.036	-0.376
-212.509	-200.000	0.008	0.090
-211.494	27.722	-0.181	-0.153
-210.479	-54.267	0.189	-0.086
-209.465	-3.854	0.088	-0.061
-208.450	-36.479	0.053	0.028
-207.436	-12.274	-0.112	-0.073
-206.421	25.456	-0.090	-0.075
-205.406	102.465	-0.161	0.188
-204.392	-27.873	0.145	0.084
-203.377	98.068	-0.106	-0.122
-202.363	246.855	0.103	0.174
-201.348	142.850	-0.082	0.109
-200.333	-83.551	-0.203	-0.065
-199.319	800.000	-0.027	0.091
-198.304	443.898	0.021	0.047
-197.290	800.000	0.049	-0.195
-196.275	45.287	0.056	0.051
-195.260	-55.236	-0.081	0.037
-194.246	-200.000	0.011	0.201
-193.231	-45.142	0.088	0.044
-192.217	32.814	-0.200	0.173
-191.202	-160.753	0.141	0.007
-190.187	113.890	0.157	-0.191
-189.173	-60.557	0.254	0.108
-188.158	-200.000	0.006	-0.168
-187.144	-200.000	0.376	-0.001
-186.129	-77.260	0.321	0.112
-185.114	-157.794	0.189	0.011
-184.100	194.345	-0.104	0.158
-183.085	64.118	-0.100	-0.101
-182.071	-200.000	0.014	0.150
-181.056	-200.000	0.001	-0.212
-180.042	228.937	0.096	-0.156
-179.027	396.723	0.063	-0.131
-178.012	36.936	-0.313	0.277
-176.998	-66.417	0.336	0.134
-175.983	173.193	0.129	0.186
-174.969	39.070	0.164	-0.147
-173.954	-107.245	0.221	0.049
-172.939	43.120	0.192	-0.175
-171.925	-118.662	0.433	-0.077
-170.910	51.864	0.206	0.197
-169.896	391.152	0.151	-0.315
-168.881	-59.520	0.274	0.118
-167.866	211.638	-0.114	0.180
-166.852	-77.668	0.038	0.013
-165.837	551.579	0.106	0.256
-164.823	800.000	0.056	0.208
-163.808	328.980	-0.150	0.288
-162.793	148.804	0.124	0.168
-161.779	-86.953	0.153	-0.047
-160.764	-200.000	0.022	-0.164
-159.750	-109.248	0.067	-0.014
-158.735	-32.009	-0.162	0.091
-157.720	800.000	-0.026	-0.099
-156.706	-160.625	0.171	0.009
-155.691	800.000	0.067	-0.260
-154.677	-192.829	0.367	-0.003
-153.662	72.694	0.168	-0.175
-152.647	276.112	-0.189	-0.336
-151.633	-148.063	0.300	0.025
-150.618	-3.408	-0.129	-0.089
-149.604	15.229	-0.094	0.074
-148.589	-23.615	0.192	-0.115
-147.574	-53.056	-0.197	-0.090
-146.560	-200.000	0.076	0.370
-145.545	-77.183	-0.240	0.084
-144.531	173.615	0.143	0.206
-143.516	175.097	-0.147	-0.213
-142.502	-141.318	0.081	0.008
-141.487	800.000	0.089	-0.273
-140.472	458.677	0.124	0.276
-139.458	-200.000	0.066	0.495
-138.443	375.044	0.047	-0.095
-137.429	-78.905	-0.107	0.036
-136.414	162.682	-0.335	-0.470
-135.399	-37.265	0.237	-0.127
-134.385	-200.000	-0.010	-0.088
-133.370	800.000	0.059	0.252
-132.356	-103.047	-0.454	-0.108
-131.341	-200.000	0.006	-0.226
-130.326	-44.368	0.111	0.056
-129.312	11.142	0.075	-0.058
-128.297	-88.594	0.267	-0.079
-127.283	-119.772	0.012	0.002
-126.268	57.712	0.154	-0.150
-125.253	69.227	0.312	0.320
-124.239	10.639	-0.214	-0.163
-123.224	-200.000	0.008	0.260
-122.210	59.909	-0.110	0.108
-121.195	69.084	-0.105	0.108
-120.180	146.807	0.014	0.019
