DTS Sentinel unit serial number:	SN413079Multiplexer serial number:	ORYXHardware model number:	OX4-SRSoftware version number:	ORYX F/W v4.00 Oryx Data Collector v3.7.2.0data status	okinstallation	princeton_trtdifferential loss correction	single-endedforward channel	channel 1reverse channel	N/Adate	2019/09/15time	14:06:35forward acquisition time	60.00reverse acquisition time	0.00gamma	496.2192k internal	0.2292k external	0.2292temperature offset calibration	0.9966default loss term (dB/km)	0.3790temperature slope calibration	1.0000multiplexer offset coefficient	1.0000multiplexer slope coefficient	1.0000fibre end	0.00T internal ref (°C)	38.62T ext. ref 1 (°C)	4.95T ext. ref 2 (°C)	35.86length (m)	temperature (°C)	Stokes	anti-Stokes-747.200	3.953	0.143	-0.107
-746.185	-158.114	-0.235	0.014
-745.171	-50.358	-0.201	-0.097
-744.156	64.309	-0.085	0.088
-743.142	29.532	-0.104	-0.091
-742.127	-200.000	-0.048	0.224
-741.112	800.000	0.048	-0.195
-740.098	800.000	0.112	0.389
-739.083	-200.000	0.062	-0.298
-738.069	233.982	-0.198	-0.334
-737.054	255.632	0.022	-0.039
-736.039	13.881	0.147	0.117
-735.025	196.802	0.110	0.172
-734.010	330.465	0.105	0.207
-732.996	59.394	-0.184	-0.185
-731.981	-200.000	-0.084	-0.415
-730.966	95.869	-0.348	-0.406
-729.952	-9.789	-0.132	0.090
-728.937	-45.371	-0.367	0.186
-727.923	24.456	-0.080	-0.067
-726.908	318.664	0.054	-0.104
-725.894	246.404	-0.166	0.287
-724.879	59.312	-0.080	-0.080
-723.864	-75.148	0.264	-0.097
-722.850	-62.297	-0.189	0.080
-721.835	-11.541	-0.235	-0.158
-720.821	36.431	-0.326	-0.294
-719.806	-117.522	-0.048	-0.009
-718.791	-137.649	-0.389	-0.045
-717.777	-148.771	0.260	0.022
-716.762	-119.354	0.182	-0.032
-715.748	-200.000	-0.004	-0.195
-714.733	-200.000	-0.038	-0.411
-713.718	32.156	-0.053	0.047
-712.704	-10.845	-0.210	-0.142
-711.689	800.000	0.093	0.361
-710.675	-64.091	-0.139	0.058
-709.660	22.284	-0.346	-0.289
-708.645	110.196	0.016	-0.019
-707.631	-108.966	0.219	-0.048
-706.616	-111.549	-0.135	0.028
-705.602	436.868	0.158	-0.351
-704.587	56.086	-0.092	0.091
-703.572	401.716	0.140	-0.300
-702.558	-156.502	0.193	-0.012
-701.543	725.513	-0.092	-0.250
-700.529	-75.201	0.111	-0.040
-699.514	-40.488	-0.023	-0.012
-698.499	-200.000	-0.003	-0.303
-697.485	800.000	-0.104	-0.317
-696.470	-69.336	-0.300	0.118
-695.456	252.131	-0.019	0.033
-694.441	-200.000	0.030	-0.217
-693.426	7.318	0.184	-0.140
-692.412	87.590	0.065	0.073
-691.397	-16.593	-0.226	-0.146
-690.383	686.809	-0.054	-0.144
-689.368	127.165	-0.195	0.252
-688.354	484.743	0.029	0.068
-687.339	-71.968	-0.317	0.120
-686.324	-91.810	-0.403	0.117
-685.310	141.858	0.071	0.096
-684.295	-27.918	-0.021	-0.013
-683.281	-200.000	-0.009	0.167
-682.266	800.000	0.016	0.052
-681.251	-7.772	-0.205	-0.141
-680.237	-4.037	0.213	-0.151
-679.222	-85.651	-0.185	-0.059
-678.208	255.736	-0.309	-0.541
-677.193	281.505	0.224	-0.410
-676.178	494.615	-0.173	-0.406
-675.164	-136.268	0.109	0.013
-674.149	-104.619	0.248	0.058
-673.135	63.924	0.333	0.342
-672.120	118.550	0.009	-0.012
-671.105	-111.344	-0.154	0.032
-670.091	-122.390	0.334	0.055
-669.076	190.284	-0.088	0.135
-668.062	93.345	-0.167	-0.193
-667.047	96.490	-0.246	0.288
-666.032	-74.539	0.233	0.086
-665.018	-30.466	0.155	0.089
-664.003	-160.503	0.192	-0.010
-662.989	82.607	0.132	-0.147
-661.974	-1.828	0.291	0.209
-660.959	237.722	-0.042	0.072
-659.945	-3.722	-0.223	-0.158
-658.930	223.155	-0.109	-0.179
-657.916	22.275	0.122	0.102
-656.901	78.856	0.046	0.051
-655.886	430.094	-0.085	-0.188
-654.872	-200.000	0.093	0.441
-653.857	-38.901	-0.437	0.235
-652.843	-200.000	-0.001	0.142
-651.828	91.261	-0.232	0.265
-650.814	-127.872	0.064	0.009
-649.799	-82.453	0.115	-0.038
-648.784	-6.489	-0.034	0.023
-647.770	182.274	0.203	0.305
-646.755	-36.245	0.097	-0.053
-645.741	4.203	-0.101	0.075
-644.726	-200.000	-0.077	0.353
-643.711	-200.000	-0.015	0.104
-642.697	636.019	-0.068	0.177
-641.682	-63.577	-0.101	0.042
-640.668	-200.000	-0.009	0.106
-639.653	-96.054	0.165	-0.045
-638.638	-200.000	-0.063	0.313
-637.624	800.000	0.068	-0.289
-636.609	139.644	0.064	-0.086
-635.595	-158.109	-0.168	0.010
-634.580	800.000	-0.092	0.380
-633.565	120.652	0.145	0.184
-632.551	55.878	-0.133	-0.131
-631.536	-49.034	0.057	0.028
-630.522	-200.000	-0.033	0.223
-629.507	-116.101	-0.319	0.060
-628.492	-45.166	-0.460	0.233
-627.478	-200.000	0.010	0.222
-626.463	-89.538	0.198	0.059
-625.449	232.150	0.076	0.128
-624.434	52.355	-0.093	-0.090
-623.419	-104.620	-0.216	-0.051
-622.405	800.000	0.036	0.147
-621.390	46.872	0.112	-0.106
-620.376	-42.731	0.203	-0.105
-619.361	-95.009	0.240	0.066
-618.346	-11.641	0.203	0.136
-617.332	-200.000	0.006	-0.104
-616.317	86.390	0.134	-0.150
-615.303	-108.804	-0.085	0.018
-614.288	-200.000	-0.018	-0.166
-613.273	-200.000	0.040	0.246
-612.259	-102.756	0.369	0.089
-611.244	-100.776	0.080	0.020
-610.230	19.246	0.127	-0.104
-609.215	259.448	0.091	-0.160
-608.201	-116.265	-0.191	-0.036
-607.186	-175.735	-0.204	0.006
-606.171	31.492	0.113	0.099
-605.157	-29.089	-0.023	-0.013
-604.142	-200.000	-0.017	0.282
-603.128	465.912	0.016	0.037
-602.113	237.166	0.020	-0.034
-601.098	-128.252	0.259	-0.038
-600.084	152.546	0.085	0.119
-599.069	-0.009	0.211	0.153
-598.055	-141.460	0.467	0.048
-597.040	53.392	0.170	0.166
-596.025	-83.168	-0.192	-0.063
-595.011	-2.343	0.270	0.193
-593.996	-200.000	0.036	-0.252
-592.982	-150.338	-0.173	-0.014
-591.967	-130.448	0.429	0.059
-590.952	290.747	-0.058	0.106
-589.938	126.631	-0.218	-0.281
-588.923	23.670	-0.308	-0.258
-587.909	-131.174	0.302	0.041
-586.894	333.993	-0.134	0.263
-585.879	100.466	0.137	-0.161
-584.865	-43.296	-0.109	-0.056
-583.850	173.478	0.033	0.048
-582.836	800.000	0.026	0.117
-581.821	800.000	0.014	0.047
-580.806	-74.992	-0.039	0.014
-579.792	-127.917	-0.301	0.044
-578.777	321.926	0.215	-0.416
-577.763	-26.846	-0.414	-0.246
-576.748	107.008	-0.215	0.260
-575.733	44.000	0.147	-0.137
-574.719	-60.273	0.445	0.193
-573.704	-108.033	0.235	-0.052
-572.690	748.070	0.066	0.180
-571.675	-104.744	-0.460	-0.108
-570.661	-91.757	0.340	0.098
-569.646	-62.822	-0.228	0.096
-568.631	48.526	0.212	0.202
-567.617	64.015	0.030	0.031
-566.602	-135.467	0.106	-0.013
-565.588	22.653	0.239	0.199
-564.573	800.000	-0.044	-0.134
-563.558	74.244	-0.182	0.194
-562.544	-162.502	0.067	0.003
-561.529	-72.324	0.098	-0.037
-560.515	-112.643	-0.315	0.064
-559.500	86.996	0.163	0.183
-558.485	-136.532	0.173	0.020
-557.471	-181.008	-0.342	-0.007
-556.456	-69.420	0.252	0.098
-555.442	-200.000	0.002	-0.152
-554.427	143.998	-0.282	0.382
-553.412	-57.267	-0.118	0.053
-552.398	21.761	-0.074	-0.061
-551.383	266.069	-0.025	-0.044
-550.369	616.694	-0.159	0.406
-549.354	16.543	-0.340	-0.273
-548.339	-100.126	0.086	0.022
-547.325	-144.821	-0.188	-0.018
-546.310	249.035	-0.026	0.044
-545.296	-110.282	0.032	-0.007
-544.281	104.455	-0.094	-0.113
-543.266	-200.000	-0.001	0.570
-542.252	-20.133	0.102	-0.064
-541.237	800.000	0.150	0.573
-540.223	-122.624	-0.316	-0.052
-539.208	-188.259	0.081	0.001
-538.193	-200.000	0.054	-0.265
-537.179	-200.000	0.072	0.393
-536.164	-113.935	0.154	-0.030
-535.150	51.779	0.211	0.204
-534.135	380.398	-0.186	-0.388
-533.121	-187.563	-0.319	-0.004
-532.106	-134.442	-0.113	0.014
-531.091	-15.646	-0.025	0.016
-530.077	-200.000	0.040	0.316
-529.062	-200.000	0.013	0.146
-528.048	-163.622	0.321	-0.015
-527.033	-200.000	0.004	0.236
-526.018	108.344	-0.216	0.262
-525.004	-78.190	-0.229	0.080
-523.989	-67.845	0.186	-0.074
-522.975	-185.378	0.267	0.004
-521.960	-58.700	-0.081	-0.035
-520.945	-71.160	-0.193	0.073
-519.931	29.258	-0.094	0.081
-518.916	30.812	-0.085	-0.074
-517.902	143.800	-0.062	0.084
-516.887	-200.000	0.000	0.353
-515.872	-68.744	0.151	0.059
-514.858	503.522	-0.088	-0.205
-513.843	-200.000	0.020	0.112
-512.829	-35.074	-0.223	0.123
-511.814	503.265	0.020	-0.048
-510.799	-200.000	-0.037	-0.400
-509.785	800.000	0.071	-0.271
-508.770	563.342	0.071	0.174
-507.756	-135.154	0.269	-0.033
-506.741	72.850	0.183	0.194
-505.726	-63.191	0.142	-0.059
-504.712	-70.311	0.241	-0.093
-503.697	45.064	-0.174	-0.162
-502.683	-123.225	0.061	-0.010
-501.668	800.000	0.035	0.115
-500.653	-99.703	0.127	-0.032
-499.639	-26.156	-0.176	-0.105
-498.624	329.575	0.146	-0.284
-497.610	21.879	0.108	0.090
-496.595	-38.562	0.037	0.020
-495.581	-119.731	0.232	-0.041
-494.566	312.839	-0.112	-0.213
-493.551	-200.000	-0.073	0.403
-492.537	37.229	-0.368	0.330
-491.522	-89.913	-0.057	0.017
-490.508	-58.799	-0.270	-0.119
-489.493	-103.607	-0.328	0.078
-488.478	-200.000	0.022	-0.260
-487.464	125.362	0.045	-0.058
-486.449	-63.792	0.061	-0.025
-485.435	52.267	-0.198	0.191
-484.420	99.914	0.108	-0.127
-483.405	95.421	-0.128	0.148
-482.391	-195.852	0.307	-0.002
-481.376	714.221	-0.049	-0.131
-480.362	9.773	0.145	0.112
-479.347	-22.922	-0.274	-0.167
-478.332	-168.989	-0.192	-0.007
-477.318	-44.028	0.197	0.100
-476.303	-137.165	0.566	-0.065
-475.289	81.316	0.047	-0.052
-474.274	518.252	0.016	0.039
-473.259	-67.762	0.327	0.130
-472.245	-200.000	0.016	0.122
-471.230	-77.563	-0.163	0.057
-470.216	800.000	-0.050	0.217
-469.201	516.775	0.111	-0.263
-468.186	-73.939	0.260	-0.095
-467.172	-130.231	-0.237	0.033
-466.157	291.405	-0.039	-0.073
-465.143	800.000	0.067	0.206
-464.128	391.848	0.080	-0.169
-463.113	147.752	0.225	-0.308
-462.099	800.000	0.019	0.057
-461.084	-200.000	-0.034	-0.200
-460.070	-81.149	-0.135	-0.045
-459.055	-57.568	0.006	0.003
-458.040	-149.379	-0.118	-0.009
-457.026	157.567	0.314	-0.440
-456.011	349.609	-0.108	0.216
-454.997	-178.123	0.096	-0.002
-453.982	-146.904	-0.116	-0.010
-452.968	-200.000	-0.083	-0.490
-451.953	-77.506	-0.310	-0.109
-450.938	-200.000	0.014	-0.152
-449.924	182.962	-0.236	0.352
-448.909	-61.618	-0.228	-0.097
-447.895	-151.721	0.064	0.005
-446.880	-117.380	0.188	0.035
-445.865	-86.969	0.357	-0.110
-444.851	-128.423	-0.435	0.062
-443.836	800.000	0.080	-0.259
-442.822	18.723	0.088	-0.071
-441.807	93.901	0.143	-0.164
-440.792	-172.561	0.286	-0.009
-439.778	320.265	0.073	0.140
-438.763	-95.034	-0.112	-0.031
-437.749	-8.259	0.119	-0.081
-436.734	-41.327	0.125	-0.065
-435.719	-116.262	-0.349	-0.065
-434.705	-200.000	0.011	-0.318
-433.690	800.000	-0.048	0.147
-432.676	-200.000	-0.023	0.205
-431.661	720.828	0.072	-0.192
-430.646	-76.933	0.110	0.039
-429.632	158.741	-0.146	0.205
-428.617	18.766	0.219	0.177
-427.603	-104.392	-0.404	0.094
-426.588	-53.291	-0.056	-0.026
-425.573	-34.205	-0.230	0.128
-424.559	40.397	-0.185	0.168
-423.544	-23.785	-0.213	0.129
-422.530	349.077	0.129	0.258
-421.515	-171.510	0.381	0.013
-420.500	-131.733	-0.162	0.021
-419.486	-200.000	0.000	-0.166
-418.471	-85.850	-0.256	-0.080
-417.457	-200.000	-0.082	-0.489
-416.442	-91.170	0.391	-0.113
-415.428	22.863	0.184	0.152
-414.413	77.347	-0.105	-0.113
-413.398	23.433	-0.114	0.095
-412.384	-200.000	-0.035	0.244
-411.369	-16.728	0.145	-0.093
-410.355	-200.000	-0.001	-0.145
-409.340	-200.000	0.028	0.204
-408.325	-95.249	0.212	0.058
-407.311	56.340	0.142	-0.140
-406.296	194.488	0.013	-0.020
-405.282	-200.000	0.044	-0.300
-404.267	311.718	0.047	-0.089
-403.252	482.335	0.065	0.148
-402.238	-5.555	-0.242	0.168
-401.223	-200.000	0.005	0.047
-400.209	-200.000	0.015	-0.090
-399.194	800.000	0.097	-0.296
-398.179	-40.913	-0.025	0.013
-397.165	48.211	0.052	0.049
-396.150	-93.347	-0.126	-0.035
-395.136	215.140	-0.150	-0.240
-394.121	-17.264	-0.185	-0.117
-393.106	-100.540	0.169	-0.042
-392.092	103.528	-0.192	-0.228
-391.077	460.955	-0.108	-0.242
-390.063	-35.232	-0.408	-0.224
-389.048	-108.600	0.066	-0.014
-388.033	20.873	0.145	0.119
-387.019	-114.524	-0.156	0.030
-386.004	749.134	-0.078	0.212
-384.990	143.707	0.065	0.087
-383.975	223.711	-0.183	0.298
-382.960	452.947	-0.159	0.354
-381.946	-200.000	0.014	0.241
-380.931	77.321	0.072	0.077
-379.917	-2.647	0.092	0.065
-378.902	98.145	0.232	-0.269
-377.888	-200.000	0.031	-0.211
-376.873	117.622	-0.240	0.298
-375.858	-200.000	-0.065	-0.340
-374.844	160.027	-0.245	-0.344
-373.829	-14.617	-0.085	0.055
-372.815	-50.574	0.423	0.201
-371.800	-200.000	0.064	0.283
-370.785	-66.000	-0.278	-0.112
-369.771	-8.226	0.198	-0.134
-368.756	-200.000	0.057	0.254
-367.742	-110.368	0.442	0.093
-366.727	143.987	0.067	-0.090
-365.712	27.960	0.111	-0.095
-364.698	-200.000	-0.001	-0.070
-363.683	-40.246	0.292	-0.153
-362.669	13.756	-0.156	-0.122
-361.654	-96.382	-0.265	0.071
-360.639	88.137	0.161	-0.180
-359.625	-200.000	-0.007	0.130
-358.610	-26.918	-0.072	0.042
-357.596	-26.977	0.247	0.145
-356.581	800.000	-0.076	-0.240
-355.566	544.603	-0.118	-0.284
-354.552	-200.000	-0.072	-0.350
-353.537	-200.000	0.012	0.154
-352.523	-15.860	-0.178	-0.114
-351.508	481.800	-0.071	-0.163
-350.493	223.232	0.052	-0.085
-349.479	29.068	-0.094	-0.081
-348.464	616.646	0.090	-0.227
-347.450	20.150	-0.234	-0.190
-346.435	76.713	0.068	-0.072
-345.420	20.052	-0.244	-0.198
-344.406	-200.000	0.040	-0.179
-343.391	47.720	-0.065	0.061
-342.377	-20.987	-0.226	-0.140
-341.362	261.373	0.018	-0.031
-340.348	-63.040	-0.268	0.112
-339.333	-200.000	-0.007	-0.359
-338.318	-130.624	0.105	0.014
-337.304	152.377	-0.144	0.198
-336.289	29.485	0.264	-0.226
-335.275	47.665	-0.165	-0.155
-334.260	-200.000	-0.056	-0.317
-333.245	38.084	-0.093	-0.083
-332.231	-113.747	0.101	-0.020
-331.216	-32.543	-0.185	0.104
-330.202	-73.477	0.300	0.110
-329.187	-62.553	-0.246	-0.103
-328.172	202.926	0.032	-0.050
-327.158	800.000	0.091	0.255
-326.143	2.914	0.196	-0.144
-325.129	2.266	-0.280	-0.204
-324.114	322.927	-0.058	0.112
-323.099	391.018	0.112	0.234
-322.085	271.745	-0.033	-0.058
-321.070	72.611	-0.124	-0.130
-320.056	484.689	-0.130	-0.298
-319.041	-52.220	-0.097	-0.045
-318.026	-110.004	0.243	-0.051
-317.012	504.527	-0.059	0.137
-315.997	-140.478	-0.308	0.032
-314.983	-200.000	-0.020	0.173
-313.968	246.860	0.106	0.180
-312.953	-200.000	0.056	-0.318
-311.939	-64.627	-0.212	-0.087
-310.924	800.000	-0.108	-0.432
-309.910	32.683	0.053	-0.046
-308.895	-200.000	-0.007	-0.158
-307.880	-81.287	-0.478	0.159
-306.866	152.503	0.168	-0.231
-305.851	-36.240	-0.253	0.137
-304.837	-129.348	-0.093	-0.013
-303.822	284.601	-0.053	0.096
-302.807	215.053	0.106	0.169
-301.793	-135.935	-0.273	-0.032
-300.778	397.895	-0.131	-0.275
-299.764	-200.000	0.054	-0.462
-298.749	-200.000	0.024	0.137
-297.735	-96.095	-0.117	-0.031
-296.720	-100.643	0.118	-0.029
-295.705	18.339	0.148	-0.119
-294.691	-90.561	0.092	0.027
-293.676	-200.000	-0.009	-0.135
-292.662	-164.387	-0.166	0.008
-291.647	-178.414	0.216	0.005
-290.632	5.219	0.177	-0.131
-289.618	-40.077	-0.168	-0.088
-288.603	66.304	-0.098	-0.100
-287.589	-36.008	0.042	-0.023
-286.574	117.698	0.026	-0.032
-285.559	800.000	-0.090	-0.266
-284.545	15.734	-0.150	-0.118
-283.530	-200.000	0.015	0.267
-282.516	800.000	0.092	0.297
-281.501	239.494	0.090	0.150
-280.486	6.736	-0.044	0.033
-279.472	-22.173	-0.103	0.063
-278.457	159.199	0.133	-0.186
-277.443	800.000	0.124	-0.423
-276.428	417.727	0.017	0.036
-275.413	67.272	0.205	0.210
-274.399	-138.401	0.183	0.020
-273.384	157.437	0.206	0.287
-272.370	328.370	0.106	0.205
-271.355	40.625	-0.324	0.294
-270.340	-47.361	0.297	0.145
-269.326	-174.031	0.166	-0.005
-268.311	800.000	0.089	0.266
-267.297	-152.299	-0.240	0.017
-266.282	-16.251	0.200	0.128
-265.267	102.925	0.103	0.121
-264.253	40.588	0.164	0.149
-263.238	-15.526	-0.095	0.061
-262.224	14.122	-0.460	0.360
-261.209	145.608	0.161	-0.217
-260.195	-82.360	-0.110	-0.036
-259.180	84.808	-0.081	0.089
-258.165	800.000	0.085	-0.263
-257.151	-81.789	0.078	-0.026
-256.136	-109.044	0.164	-0.035
-255.122	-12.413	0.356	0.234
-254.107	-125.364	0.103	0.016
-253.092	-200.000	0.038	0.204
-252.078	59.851	0.033	0.033
-251.063	135.753	0.182	-0.238
-250.049	-174.188	-0.557	0.016
-249.034	154.056	0.099	0.137
-248.019	306.843	-0.089	0.167
-247.005	69.379	0.186	-0.192
-245.990	193.827	0.160	-0.243
-244.976	-54.549	-0.263	0.119
-243.961	-186.882	0.250	0.003
-242.946	23.854	-0.192	-0.159
-241.932	-200.000	-0.017	0.227
-240.917	-61.088	0.175	0.074
-239.903	-0.547	-0.125	-0.089
-238.888	-200.000	0.011	0.246
-237.873	-200.000	-0.020	0.101
-236.859	-135.165	0.059	0.007
-235.844	-69.461	0.363	0.140
-234.830	-95.148	0.329	0.089
-233.815	-200.000	0.034	-0.186
-232.800	306.794	0.090	-0.169
-231.786	661.993	-0.102	-0.263
-230.771	219.843	-0.157	-0.253
-229.757	-39.971	-0.126	0.066
-228.742	44.428	0.128	-0.117
-227.727	-14.986	0.112	-0.072
-226.713	-49.254	-0.083	0.040
-225.698	-172.634	0.120	-0.004
-224.684	-36.881	-0.181	0.097
-223.669	147.650	0.197	0.267
-222.655	21.057	-0.056	0.046
-221.640	-125.840	-0.235	-0.036
-220.625	199.952	-0.075	-0.115
-219.611	336.606	-0.049	-0.096
-218.596	-100.964	0.288	-0.071
-217.582	-200.000	0.009	-0.254
-216.567	-200.000	0.017	-0.083
-215.552	-70.289	-0.145	-0.055
-214.538	800.000	0.008	-0.034
-213.523	-21.500	0.325	-0.199
-212.509	28.123	-0.088	0.075
-211.494	-200.000	0.023	0.124
-210.479	-123.842	0.728	0.115
-209.465	-101.615	-0.268	-0.065
-208.450	-200.000	-0.003	0.140
-207.436	-138.939	0.248	0.027
-206.421	-200.000	0.022	-0.118
-205.406	564.948	0.061	0.148
-204.392	-200.000	-0.026	-0.356
-203.377	20.427	0.345	0.279
-202.363	216.797	0.051	0.081
-201.348	-3.258	0.035	0.025
-200.333	-110.249	-0.310	0.065
-199.319	246.165	-0.125	0.211
-198.304	297.203	0.032	-0.060
-197.290	117.321	-0.137	0.169
-196.275	229.041	-0.069	0.112
-195.260	-68.364	-0.118	0.046
-194.246	310.158	-0.128	0.240
-193.231	76.441	0.099	-0.105
-192.217	800.000	-0.045	-0.183
-191.202	800.000	0.035	-0.123
-190.187	-41.678	0.297	0.153
-189.173	800.000	-0.100	-0.338
-188.158	50.797	-0.350	-0.332
-187.144	-34.885	-0.285	-0.156
-186.129	-177.945	-0.038	0.001
-185.114	-120.363	0.254	-0.043
-184.100	-85.393	-0.218	0.068
-183.085	-116.118	-0.184	0.034
-182.071	16.619	0.121	-0.096
-181.056	800.000	-0.035	0.104
-180.042	-94.139	0.270	0.074
-179.027	-139.021	-0.283	0.031
-178.012	446.663	-0.048	0.106
-176.998	418.916	0.153	0.327
-175.983	137.598	-0.068	0.089
-174.969	216.560	-0.014	-0.022
-173.954	-98.943	0.111	-0.028
-172.939	-74.980	-0.129	-0.046
-171.925	-170.400	0.284	0.010
-170.910	-200.000	-0.017	-0.255
-169.896	-85.099	-0.630	-0.197
-168.881	205.753	0.061	0.094
-167.866	-200.000	0.002	-0.258
-166.852	-200.000	-0.023	-0.105
-165.837	-58.686	0.136	-0.059
-164.823	220.014	0.070	0.112
-163.808	800.000	-0.076	0.232
-162.793	800.000	-0.095	-0.350
-161.779	377.336	0.124	0.254
-160.764	307.089	0.082	-0.153
-159.750	29.895	-0.240	0.205
-158.735	-180.622	-0.213	-0.004
-157.720	41.102	-0.104	-0.094
-156.706	-180.939	0.143	-0.003
-155.691	-49.665	0.189	0.090
-154.677	468.513	-0.087	-0.196
-153.662	15.158	0.040	0.031
-152.647	-200.000	-0.044	0.209
-151.633	27.824	-0.225	-0.190
-150.618	57.928	0.323	-0.316
-149.604	195.363	-0.337	-0.512
-148.589	-200.000	0.002	-0.233
-147.574	-48.528	0.190	0.091
-146.560	43.800	0.119	-0.109
-145.545	-200.000	0.043	-0.230
-144.531	95.859	0.149	-0.170
-143.516	119.897	0.155	-0.192
-142.502	-12.824	-0.183	0.119
-141.487	50.312	0.093	-0.088
-140.472	-116.323	-0.163	-0.030
-139.458	-200.000	0.044	0.239
-138.443	800.000	0.079	0.223
-137.429	-140.506	-0.197	0.021
-136.414	-97.259	0.091	-0.024
-135.399	-200.000	-0.002	-0.138
-134.385	-200.000	0.050	0.309
-133.370	-81.977	0.173	0.056
-132.356	32.383	0.076	0.065
-131.341	-89.029	0.128	0.038
-130.326	-66.966	-0.301	0.119
-129.312	-138.687	0.046	-0.005
-128.297	-200.000	-0.039	0.218
-127.283	-200.000	0.030	-0.171
-126.268	-158.480	0.173	-0.010
-125.253	800.000	-0.044	0.128
-124.239	-73.661	-0.190	0.069
-123.224	-40.749	0.202	0.105
-122.210	453.626	0.092	-0.204
-121.195	-200.000	0.026	0.276
