DTS Sentinel unit serial number:	SN413079Multiplexer serial number:	ORYXHardware model number:	OX4-SRSoftware version number:	ORYX F/W v4.00 Oryx Data Collector v3.7.2.0data status	okinstallation	princeton_trtdifferential loss correction	single-endedforward channel	channel 1reverse channel	N/Adate	2019/09/17time	23:18:35forward acquisition time	60.00reverse acquisition time	0.00gamma	496.2192k internal	0.2341k external	0.2341temperature offset calibration	0.9978default loss term (dB/km)	0.3790temperature slope calibration	1.0000multiplexer offset coefficient	1.0000multiplexer slope coefficient	1.0000fibre end	0.00T internal ref (°C)	24.47T ext. ref 1 (°C)	0.17T ext. ref 2 (°C)	17.73length (m)	temperature (°C)	Stokes	anti-Stokes-747.200	-125.892	0.122	-0.018
-746.185	-180.586	-0.225	0.005
-745.171	158.168	-0.070	0.098
-744.156	327.890	0.114	0.219
-743.142	39.963	-0.099	0.089
-742.127	8.359	-0.091	-0.068
-741.112	83.069	-0.145	-0.158
-740.098	257.047	0.112	0.193
-739.083	-200.000	-0.006	-0.149
-738.069	160.445	0.128	0.179
-737.054	137.522	0.048	-0.064
-736.039	-72.507	0.253	-0.094
-735.025	12.341	-0.256	-0.197
-734.010	800.000	0.056	-0.234
-732.996	98.037	-0.112	-0.129
-731.981	75.445	-0.146	-0.154
-730.966	800.000	-0.043	0.189
-729.952	61.501	-0.237	-0.237
-728.937	800.000	0.028	0.109
-727.923	-53.651	-0.254	0.116
-726.908	523.351	-0.037	-0.087
-725.894	-140.440	-0.232	0.024
-724.879	-32.184	-0.178	0.100
-723.864	26.531	0.287	0.240
-722.850	461.450	-0.194	-0.432
-721.835	-200.000	0.002	-0.168
-720.821	-136.373	-0.248	0.029
-719.806	-168.234	-0.058	0.002
-718.791	-200.000	0.031	0.170
-717.777	800.000	-0.064	0.245
-716.762	41.034	0.095	0.086
-715.748	7.335	-0.114	0.086
-714.733	-200.000	0.005	-0.148
-713.718	171.289	0.157	-0.226
-712.704	402.188	0.191	-0.401
-711.689	-163.773	0.200	0.009
-710.675	109.186	-0.257	0.308
-709.660	-82.262	-0.339	0.110
-708.645	-74.813	0.103	0.037
-707.631	484.128	0.059	-0.134
-706.616	134.599	-0.134	-0.174
-705.602	48.850	-0.071	0.067
-704.587	-97.960	-0.246	0.064
-703.572	-119.404	-0.528	0.092
-702.558	60.427	0.230	0.228
-701.543	224.256	0.074	0.120
-700.529	-35.632	0.213	0.115
-699.514	-9.196	-0.289	0.193
-698.499	202.030	-0.105	-0.161
-697.485	516.445	0.133	-0.311
-696.470	48.786	0.071	0.067
-695.456	-200.000	-0.002	-0.219
-694.441	-31.546	0.296	-0.166
-693.426	198.742	0.160	-0.246
-692.412	-200.000	-0.024	0.302
-691.397	-200.000	-0.075	-0.426
-690.383	-102.070	0.198	-0.048
-689.368	-200.000	0.016	0.478
-688.354	-39.950	-0.202	-0.106
-687.339	541.238	-0.208	-0.494
-686.324	39.820	-0.101	0.091
-685.310	216.888	-0.143	0.228
-684.295	22.808	-0.174	-0.142
-683.281	-200.000	0.009	-0.181
-682.266	-76.222	-0.229	0.081
-681.251	-148.510	-0.209	0.017
-680.237	496.012	0.106	0.244
-679.222	11.530	-0.026	-0.020
-678.208	-76.015	-0.528	-0.187
-677.193	209.962	0.125	-0.196
-676.178	-200.000	0.043	-0.287
-675.164	562.756	0.070	0.169
-674.149	-116.997	-0.346	0.063
-673.135	177.278	0.142	0.206
-672.120	-4.272	0.181	0.125
-671.105	-200.000	0.006	0.200
-670.091	332.558	0.064	0.123
-669.076	123.194	0.219	0.274
-668.062	-123.908	-0.426	0.067
-667.047	54.012	0.351	-0.337
-666.032	-36.162	-0.074	0.040
-665.018	-47.375	-0.231	-0.112
-664.003	36.454	0.157	0.139
-662.989	-200.000	0.055	-0.418
-661.974	-200.000	-0.005	-0.040
-660.959	800.000	0.074	-0.245
-659.945	800.000	0.045	0.189
-658.930	-29.160	-0.306	0.175
-657.916	139.593	0.157	0.207
-656.901	50.027	-0.171	0.162
-655.886	-200.000	-0.009	-0.233
-654.872	474.259	0.110	-0.248
-653.857	-200.000	0.025	-0.226
-652.843	-139.336	0.120	-0.013
-651.828	34.868	-0.192	-0.168
-650.814	-89.452	-0.156	0.046
-649.799	3.981	0.273	0.199
-648.784	-200.000	-0.004	-0.195
-647.770	-83.630	-0.139	0.044
-646.755	-53.108	0.357	0.164
-645.741	-103.325	-0.282	-0.066
-644.726	-43.071	0.204	-0.103
-643.711	55.730	-0.039	-0.037
-642.697	-200.000	0.026	-0.345
-641.682	44.594	0.100	0.092
-640.668	151.142	-0.137	0.186
-639.653	319.895	-0.155	-0.293
-638.638	-116.009	0.069	-0.013
-637.624	-25.904	0.104	-0.061
-636.609	-101.307	0.219	0.053
-635.595	-32.759	-0.446	-0.248
-634.580	-138.536	-0.096	-0.011
-633.565	-200.000	-0.001	-0.018
-632.551	-108.842	-0.152	-0.032
-631.536	800.000	0.015	-0.063
-630.522	97.387	0.188	-0.215
-629.507	98.070	0.311	-0.358
-628.492	-25.954	0.206	-0.121
-627.478	800.000	0.036	0.137
-626.463	-200.000	0.055	-0.350
-625.449	800.000	-0.158	-0.451
-624.434	305.752	-0.057	0.106
-623.419	-200.000	-0.011	-0.197
-622.405	80.639	-0.104	0.112
-621.390	350.368	0.164	-0.323
-620.376	-173.869	0.104	-0.003
-619.361	-116.568	-0.179	0.033
-618.346	-164.614	-0.175	0.008
-617.332	50.721	-0.249	-0.235
-616.317	-200.000	0.028	-0.171
-615.303	-126.309	-0.349	-0.052
-614.288	113.970	-0.080	0.097
-613.273	-200.000	0.014	0.237
-612.259	59.442	-0.269	0.265
-611.244	-200.000	0.022	0.121
-610.230	-44.692	0.137	0.068
-609.215	-78.441	0.228	0.078
-608.201	800.000	-0.103	0.303
-607.186	-94.475	0.043	-0.012
-606.171	161.367	-0.091	-0.127
-605.157	-13.650	0.266	-0.172
-604.142	-154.698	-0.329	-0.022
-603.128	-200.000	0.049	-0.279
-602.113	-25.674	0.368	-0.216
-601.098	717.080	-0.103	-0.274
-600.084	800.000	-0.013	0.053
-599.069	-200.000	0.057	0.377
-598.055	-163.113	0.109	0.005
-597.040	-30.093	-0.358	-0.203
-596.025	2.227	-0.331	-0.239
-595.011	-52.416	0.055	0.025
-593.996	288.402	0.110	-0.198
-592.982	61.397	0.084	-0.083
-591.967	-18.650	-0.261	-0.162
-590.952	-168.274	-0.163	-0.006
-589.938	-157.260	0.206	-0.012
-588.923	-72.588	-0.310	0.114
-587.909	68.007	-0.060	0.061
-586.894	-129.843	-0.142	0.019
-585.879	33.629	-0.265	0.229
-584.865	22.504	0.046	-0.037
-583.850	-65.184	-0.136	-0.054
-582.836	302.615	-0.087	-0.161
-581.821	800.000	-0.085	0.283
-580.806	-70.563	0.192	-0.072
-579.792	-168.489	-0.262	0.010
-578.777	120.777	-0.123	0.152
-577.763	779.845	-0.123	-0.336
-576.748	-28.903	0.251	-0.144
-575.733	583.696	0.078	-0.192
-574.719	-195.908	-0.040	0.000
-573.704	-26.219	-0.130	-0.076
-572.690	800.000	-0.055	-0.199
-571.675	-44.246	-0.178	-0.089
-570.661	-111.118	-0.332	-0.068
-569.646	133.867	-0.103	0.132
-568.631	-134.885	-0.308	0.037
-567.617	-200.000	0.024	0.295
-566.602	-107.986	0.358	-0.077
-565.588	-128.990	0.152	0.021
-564.573	-200.000	-0.010	-0.048
-563.558	256.871	0.046	0.079
-562.544	16.561	-0.233	-0.183
-561.529	800.000	-0.053	-0.205
-560.515	-76.940	0.269	-0.093
-559.500	-101.412	-0.185	-0.045
-558.485	-139.287	0.124	-0.013
-557.471	-172.554	0.200	0.006
-556.456	800.000	0.071	0.202
-555.442	656.080	-0.035	-0.089
-554.427	785.866	0.083	0.227
-553.412	-200.000	0.002	-0.069
-552.398	800.000	-0.162	-0.640
-551.383	-200.000	0.007	0.061
-550.369	-39.791	-0.079	0.041
-549.354	-200.000	-0.002	-0.226
-548.339	800.000	0.079	0.217
-547.325	32.435	-0.206	0.177
-546.310	-162.905	-0.255	-0.012
-545.296	135.912	-0.175	-0.227
-544.281	800.000	0.011	0.039
-543.266	-35.356	-0.283	0.153
-542.252	-159.739	0.095	-0.005
-541.237	269.817	-0.205	0.359
-540.223	468.634	0.021	-0.048
-539.208	-102.248	-0.085	-0.020
-538.193	-200.000	-0.018	-0.280
-537.179	-200.000	0.050	0.401
-536.164	-200.000	0.026	0.134
-535.150	22.312	-0.022	0.018
-534.135	344.260	0.145	0.284
-533.121	12.799	-0.081	-0.062
-532.106	275.163	-0.076	-0.133
-531.091	-109.396	-0.190	-0.040
-530.077	-42.684	-0.287	0.145
-529.062	-200.000	-0.020	-0.257
-528.048	-200.000	-0.014	-0.416
-527.033	-200.000	-0.022	0.115
-526.018	-200.000	0.019	-0.096
-525.004	-200.000	0.048	-0.351
-523.989	-6.305	0.120	0.081
-522.975	55.843	-0.101	-0.097
-521.960	-115.402	0.200	-0.037
-520.945	-200.000	-0.012	0.146
-519.931	-23.973	-0.192	-0.114
-518.916	800.000	0.072	0.217
-517.902	-200.000	-0.010	-0.257
-516.887	800.000	0.062	-0.175
-515.872	-179.642	0.219	0.005
-514.858	120.929	0.061	0.075
-513.843	65.357	0.143	-0.144
-512.829	404.662	-0.076	-0.160
-511.814	1.314	-0.168	0.120
-510.799	-135.374	0.205	0.024
-509.785	-200.000	-0.016	0.206
-508.770	-99.651	-0.206	-0.051
-507.756	139.808	0.130	0.170
-506.741	-200.000	-0.013	-0.133
-505.726	-91.565	-0.120	-0.034
-504.712	-56.438	0.036	-0.016
-503.697	-42.921	0.278	0.140
-502.683	598.297	0.072	-0.177
-501.668	-113.889	0.213	-0.041
-500.653	415.156	0.031	-0.065
-499.639	-200.000	-0.027	-0.326
-498.624	800.000	-0.069	-0.194
-497.610	-148.939	-0.087	0.007
-496.595	318.372	0.028	0.053
-495.581	84.844	0.076	-0.082
-494.566	-200.000	-0.024	-0.160
-493.551	-53.814	0.179	-0.081
-492.537	318.603	0.048	0.090
-491.522	-200.000	0.032	0.233
-490.508	-200.000	0.050	-0.220
-489.493	146.615	0.089	0.119
-488.478	-85.471	0.252	0.078
-487.464	-200.000	-0.021	0.092
-486.449	-169.716	0.156	-0.006
-485.435	-74.499	-0.239	0.085
-484.420	13.610	0.245	0.188
-483.405	-113.501	-0.145	0.028
-482.391	195.333	0.173	0.261
-481.376	-121.509	0.024	-0.004
-480.362	-96.305	-0.388	0.102
-479.347	-200.000	0.002	0.136
-478.332	-64.053	0.155	0.063
-477.318	-3.127	0.110	0.076
-476.303	-200.000	0.030	-0.249
-475.289	-13.469	0.154	-0.099
-474.274	-71.827	0.130	0.048
-473.259	800.000	0.096	-0.288
-472.245	371.656	-0.107	0.215
-471.230	-200.000	0.024	0.160
-470.216	88.304	-0.200	-0.221
-469.201	483.728	-0.076	-0.172
-468.186	177.242	0.128	-0.185
-467.172	171.983	0.239	-0.340
-466.157	59.324	0.246	-0.241
-465.143	-31.129	-0.160	-0.090
-464.128	415.536	0.112	-0.237
-463.113	90.126	0.112	-0.124
-462.099	-133.991	-0.454	0.056
-461.084	476.226	-0.028	0.063
-460.070	-157.023	0.210	-0.013
-459.055	83.906	0.050	-0.054
-458.040	130.630	0.233	-0.296
-457.026	499.596	0.111	0.254
-456.011	-83.897	0.320	-0.101
-454.997	130.705	0.203	0.258
-453.982	-140.739	0.069	0.007
-452.968	637.284	0.091	0.229
-451.953	-159.180	-0.223	-0.012
-450.938	252.915	-0.151	-0.255
-449.924	-63.426	-0.244	0.099
-448.909	-200.000	0.019	-0.153
-447.895	51.162	0.080	0.075
-446.880	-86.996	0.197	-0.060
-445.865	-200.000	-0.026	0.178
-444.851	121.699	-0.228	0.282
-443.836	-15.493	-0.118	0.075
-442.822	-119.547	-0.209	0.036
-441.807	-79.240	0.299	0.101
-440.792	-153.893	-0.237	-0.016
-439.778	220.452	-0.077	0.122
-438.763	528.349	0.101	0.236
-437.749	332.440	-0.083	0.158
-436.734	24.823	-0.396	-0.325
-435.719	263.372	-0.064	0.111
-434.705	-138.051	-0.340	-0.037
-433.690	-49.685	0.156	-0.073
-432.676	142.611	-0.123	-0.162
-431.661	-76.785	0.418	0.145
-430.646	344.546	-0.138	0.269
-429.632	-106.215	-0.208	0.046
-428.617	-116.000	0.283	0.052
-427.603	267.742	-0.096	-0.166
-426.588	-200.000	-0.025	0.121
-425.573	369.090	0.110	0.220
-424.559	-160.083	-0.027	0.001
-423.544	-116.920	-0.134	-0.024
-422.530	31.763	0.199	-0.169
-421.515	32.255	0.062	-0.053
-420.500	-29.110	0.199	0.113
-419.486	-25.151	-0.524	-0.307
-418.471	800.000	0.033	-0.128
-417.457	-19.079	0.289	-0.178
-416.442	73.416	-0.064	0.066
-415.428	-160.068	-0.214	-0.012
-414.413	-44.337	-0.100	0.049
-413.398	-103.923	0.186	-0.043
-412.384	800.000	-0.058	-0.204
-411.369	247.850	0.096	0.160
-410.355	419.838	0.107	0.226
-409.340	57.366	0.145	0.140
-408.325	-7.767	0.190	0.127
-407.311	-200.000	-0.013	0.100
-406.296	508.787	0.058	-0.133
-405.282	45.921	0.139	-0.128
-404.267	-58.127	0.254	0.110
-403.252	-107.115	-0.162	-0.035
-402.238	-9.538	0.287	-0.189
-401.223	121.136	0.038	-0.047
-400.209	-200.000	0.065	0.317
-399.194	586.889	0.056	-0.136
-398.179	41.497	0.220	0.197
-397.165	39.643	-0.180	0.160
-396.150	188.826	-0.126	0.186
-395.136	-200.000	-0.024	-0.125
-394.121	-40.154	-0.378	0.195
-393.106	-167.056	-0.065	-0.003
-392.092	78.066	0.192	0.202
-391.077	-74.258	0.087	0.031
-390.063	-65.428	0.070	-0.028
-389.048	-12.007	-0.344	-0.223
-388.033	-142.238	0.267	-0.026
-387.019	-86.155	-0.088	0.027
-386.004	-136.929	-0.301	0.034
-384.990	-200.000	-0.031	0.212
-383.975	-6.535	-0.068	-0.046
-382.960	384.894	-0.087	-0.177
-381.946	269.449	-0.116	0.201
-380.931	-79.314	0.277	-0.093
-379.917	-86.830	-0.374	0.113
-378.902	27.410	-0.101	-0.084
-377.888	-42.969	0.284	0.142
-376.873	385.105	-0.149	0.304
-375.858	-80.512	0.234	0.077
-374.844	62.452	-0.110	-0.108
-373.829	800.000	-0.010	0.039
-372.815	-31.258	-0.247	-0.138
-371.800	-200.000	0.001	0.144
-370.785	-38.013	-0.073	0.038
-369.771	84.324	-0.161	-0.173
-368.756	-0.165	0.079	0.056
-367.742	-200.000	-0.003	0.407
-366.727	-41.873	-0.329	-0.167
-365.712	-67.556	0.152	-0.059
-364.698	11.655	0.328	0.249
-363.683	-200.000	0.017	0.257
-362.669	-157.859	0.034	0.002
-361.654	800.000	-0.047	0.138
-360.639	67.063	-0.030	-0.030
-359.625	-200.000	-0.031	-0.162
-358.610	-48.714	-0.057	0.027
-357.596	-105.928	-0.227	-0.051
-356.581	684.136	0.099	-0.254
-355.566	-48.725	0.425	0.201
-354.552	250.287	0.103	-0.172
-353.537	-100.555	0.272	-0.066
-352.523	-100.450	-0.190	0.046
-351.508	-200.000	-0.017	0.143
-350.493	-34.530	0.326	-0.176
-349.479	-44.554	0.143	0.070
-348.464	-53.390	-0.264	0.119
-347.450	-48.313	0.191	-0.091
-346.435	-24.790	0.250	-0.147
-345.420	-167.768	-0.256	-0.010
-344.406	773.881	0.077	-0.208
-343.391	-148.705	0.126	-0.010
-342.377	65.076	-0.108	0.108
-341.362	-90.497	-0.177	0.050
-340.348	-103.326	-0.233	-0.054
-339.333	-32.357	-0.055	-0.030
-338.318	10.089	0.070	0.052
-337.304	-200.000	-0.042	-0.264
-336.289	56.654	-0.021	-0.020
-335.275	-89.796	0.308	0.089
-334.260	-200.000	0.019	0.237
-333.245	-77.653	0.136	0.046
-332.231	-13.994	-0.225	0.143
-331.216	270.440	0.042	0.073
-330.202	800.000	-0.059	0.187
-329.187	19.817	0.342	0.272
-328.172	-72.084	-0.391	-0.143
-327.158	242.361	-0.267	0.441
-326.143	311.559	-0.092	0.171
-325.129	-53.593	-0.197	-0.089
-324.114	73.373	0.085	-0.088
-323.099	-200.000	0.048	-0.225
-322.085	-47.720	-0.359	-0.172
-321.070	144.722	0.066	0.087
-320.056	-59.648	0.330	0.139
-319.041	-72.778	0.010	-0.004
-318.026	-22.296	0.251	0.150
-317.012	98.362	0.257	0.292
-315.997	-16.084	0.071	0.044
-314.983	-59.910	0.177	-0.075
-313.968	-45.383	0.180	0.088
-312.953	57.726	-0.409	0.394
-311.939	-44.078	0.307	0.152
-310.924	-200.000	-0.000	-0.016
-309.910	-200.000	0.003	-0.088
-308.895	108.163	-0.140	-0.164
-307.880	256.237	0.027	0.045
-306.866	-28.369	-0.154	-0.088
-305.851	-200.000	-0.018	0.262
-304.837	800.000	-0.035	0.136
-303.822	800.000	-0.113	-0.457
-302.807	-81.419	-0.189	0.061
-301.793	-200.000	-0.001	-0.087
-300.778	236.159	-0.244	-0.397
-299.764	93.154	-0.300	0.334
-298.749	-134.326	0.223	0.027
-297.735	15.025	0.126	0.097
-296.720	800.000	0.043	-0.130
-295.705	-104.118	-0.102	-0.023
-294.691	-200.000	-0.005	-0.078
-293.676	800.000	-0.043	0.185
-292.662	104.881	0.188	0.219
-291.647	594.147	-0.050	-0.122
-290.632	-40.358	-0.147	-0.075
-289.618	357.080	-0.140	0.276
-288.603	-200.000	-0.013	0.101
-287.589	202.480	0.221	0.335
-286.574	-113.202	0.247	0.048
-285.559	-200.000	0.022	0.246
-284.545	21.145	0.096	-0.077
-283.530	800.000	0.041	0.115
-282.516	272.601	0.138	0.240
-281.501	-41.928	-0.169	0.085
-280.486	16.794	-0.269	0.210
-279.472	-46.198	-0.152	0.074
-278.457	-198.893	0.134	0.001
-277.443	161.976	0.228	-0.314
-276.428	-200.000	-0.000	0.046
-275.413	-169.353	-0.372	-0.013
-274.399	800.000	-0.063	0.195
-273.384	275.950	0.114	0.198
-272.370	145.160	0.170	-0.223
-271.355	800.000	-0.049	0.136
-270.340	-139.571	0.259	0.027
-269.326	-9.920	-0.161	-0.105
-268.311	-175.185	0.017	-0.000
-267.297	-92.089	0.417	0.116
-266.282	-200.000	0.049	0.269
-265.267	-200.000	0.037	0.274
-264.253	-21.823	-0.311	0.186
-263.238	-70.474	0.103	0.038
-262.224	-19.878	-0.141	-0.086
-261.209	-147.023	0.057	0.005
-260.195	-143.309	0.415	0.039
-259.180	-200.000	-0.016	-0.234
-258.165	-113.827	-0.288	0.055
-257.151	-123.660	0.193	0.030
-256.136	192.042	-0.264	0.391
-255.122	-37.380	0.165	0.087
-254.107	271.935	0.130	0.226
-253.092	301.967	0.097	0.176
-252.078	-200.000	-0.010	0.254
-251.063	-21.763	0.193	0.116
-250.049	-5.575	-0.068	0.046
-249.034	222.824	0.076	-0.121
-248.019	-105.401	0.318	-0.071
-247.005	225.255	-0.050	-0.079
-245.990	477.989	0.068	0.151
-244.976	82.508	0.070	0.075
-243.961	169.166	-0.076	-0.106
-242.946	800.000	-0.013	0.050
-241.932	59.110	-0.211	0.204
-240.917	-86.254	-0.455	0.138
-239.903	-200.000	-0.143	-0.000
-238.888	800.000	-0.106	-0.325
-237.873	-99.526	0.151	0.037
-236.859	800.000	0.078	-0.319
-235.844	-200.000	0.023	-0.166
-234.830	-200.000	0.248	0.001
-233.815	-200.000	-0.003	-0.076
-232.800	-77.071	0.155	0.053
-231.786	-104.803	0.306	-0.069
-230.771	6.656	-0.066	0.048
-229.757	-200.000	-0.008	-0.123
-228.742	-200.000	0.006	-0.251
-227.727	17.957	0.071	0.055
-226.713	-115.714	0.240	-0.044
-225.698	25.471	0.244	0.199
-224.684	-200.000	0.002	0.079
-223.669	-172.414	-0.167	-0.005
-222.655	176.309	0.161	-0.230
-221.640	413.111	0.057	0.120
-220.625	-65.724	0.044	0.017
-219.611	374.603	0.103	0.206
-218.596	-82.616	-0.502	0.160
-217.582	450.713	-0.136	-0.296
-216.567	368.152	0.036	0.071
-215.552	-125.056	0.126	-0.019
-214.538	-200.000	-0.054	-0.310
-213.523	-140.704	0.073	0.007
-212.509	-26.782	0.315	0.181
-211.494	-1.111	-0.356	-0.247
-210.479	19.218	-0.185	-0.145
-209.465	-180.315	0.108	0.002
-208.450	100.375	0.083	0.094
-207.436	-80.949	-0.264	0.086
-206.421	-55.568	0.113	-0.050
-205.406	800.000	-0.035	-0.145
-204.392	569.833	0.022	0.053
-203.377	-74.087	0.090	0.032
-202.363	-136.251	-0.364	-0.042
-201.348	-200.000	0.008	0.060
-200.333	-24.328	0.267	0.157
-199.319	-30.338	-0.174	-0.097
-198.304	800.000	0.041	0.164
-197.290	775.916	-0.151	-0.404
-196.275	69.012	0.335	-0.337
-195.260	571.405	-0.079	-0.189
-194.246	170.717	-0.276	0.388
-193.231	800.000	-0.091	0.248
-192.217	-200.000	0.051	0.342
-191.202	-200.000	0.004	0.075
-190.187	-145.422	0.103	0.009
-189.173	-200.000	0.029	-0.151
-188.158	-200.000	0.018	0.247
-187.144	-200.000	0.018	0.119
-186.129	-83.350	-0.101	-0.032
-185.114	800.000	-0.041	-0.141
-184.100	74.867	0.140	0.145
-183.085	383.803	0.058	-0.116
-182.071	108.077	-0.161	0.189
-181.056	-200.000	0.022	-0.123
-180.042	800.000	0.106	0.372
-179.027	-131.092	-0.299	0.039
-178.012	800.000	-0.055	-0.158
-176.998	800.000	0.041	-0.112
-175.983	-67.123	-0.048	-0.019
-174.969	800.000	0.102	0.358
-173.954	409.375	0.143	0.297
-172.939	271.131	-0.024	-0.041
-171.925	-39.776	0.073	0.037
-170.910	20.207	-0.128	0.101
-169.896	47.563	0.214	-0.195
-168.881	-105.047	-0.070	-0.016
-167.866	-200.000	0.046	-0.245
-166.852	77.660	-0.161	0.168
-165.837	5.929	0.182	0.132
-164.823	207.483	-0.121	-0.186
-163.808	-184.721	0.263	-0.004
-162.793	-200.000	-0.003	-0.110
-161.779	-86.957	-0.191	-0.057
-160.764	800.000	-0.058	-0.211
-159.750	-200.000	-0.033	-0.207
-158.735	-114.254	0.324	0.061
-157.720	-200.000	-0.002	0.146
-156.706	800.000	0.078	-0.291
-155.691	362.683	0.210	-0.413
-154.677	-200.000	0.041	-0.205
-153.662	-16.482	-0.319	-0.198
-152.647	800.000	-0.100	-0.283
-151.633	-100.946	0.424	0.102
-150.618	-200.000	-0.031	0.163
-149.604	88.502	-0.112	-0.122
-148.589	-59.484	0.333	-0.140
-147.574	-40.935	-0.116	0.059
-146.560	348.851	0.033	0.063
-145.545	-200.000	0.009	0.349
-144.531	-120.977	-0.045	-0.007
-143.516	-200.000	0.046	0.215
-142.502	187.975	0.157	0.230
-141.487	-8.981	-0.175	0.115
-140.472	-200.000	0.044	-0.195
-139.458	97.445	-0.061	0.068
-138.443	-127.578	0.058	-0.008
-137.429	-35.291	0.276	0.147
-136.414	-200.000	0.003	-0.208
-135.399	-69.881	-0.295	-0.110
-134.385	730.171	-0.037	0.098
-133.370	-200.000	-0.023	-0.193
-132.356	27.184	0.222	-0.182
-131.341	38.328	-0.165	0.143
-130.326	-200.000	0.054	0.254
-129.312	140.943	-0.213	0.275
-128.297	-78.034	0.266	-0.090
-127.283	40.055	-0.152	0.133
-126.268	-164.095	-0.381	-0.017
-125.253	0.801	-0.199	-0.139
-124.239	187.931	0.218	-0.319
-123.224	534.116	-0.103	0.239
-122.210	92.382	0.110	0.122
-121.195	391.690	-0.103	0.210
