DTS Sentinel unit serial number:	SN413079Multiplexer serial number:	ORYXHardware model number:	OX4-SRSoftware version number:	ORYX F/W v4.00 Oryx Data Collector v3.7.2.0data status	okinstallation	princeton_trtdifferential loss correction	single-endedforward channel	channel 1reverse channel	N/Adate	2019/09/19time	15:38:35forward acquisition time	60.00reverse acquisition time	0.00gamma	496.2192k internal	0.2309k external	0.2309temperature offset calibration	1.0022default loss term (dB/km)	0.3790temperature slope calibration	1.0000multiplexer offset coefficient	1.0000multiplexer slope coefficient	1.0000fibre end	0.00T internal ref (°C)	34.44T ext. ref 1 (°C)	1.16T ext. ref 2 (°C)	32.17length (m)	temperature (°C)	Stokes	anti-Stokes-747.200	-200.000	0.029	0.343
-746.185	708.017	0.100	0.267
-745.171	-59.576	-0.384	0.168
-744.156	146.997	-0.174	0.238
-743.142	-200.000	-0.018	-0.257
-742.127	-200.000	-0.086	0.421
-741.112	-132.432	-0.058	-0.008
-740.098	-39.281	-0.256	-0.137
-739.083	800.000	-0.029	0.103
-738.069	-200.000	-0.003	0.314
-737.054	23.277	0.160	-0.134
-736.039	614.390	0.050	0.128
-735.025	14.457	0.039	0.031
-734.010	-200.000	-0.002	-0.085
-732.996	-200.000	-0.061	-0.281
-731.981	-24.336	-0.020	-0.012
-730.966	9.297	0.075	-0.058
-729.952	-200.000	0.003	0.114
-728.937	175.916	-0.217	-0.321
-727.923	38.951	0.120	-0.109
-726.908	-86.386	-0.149	-0.047
-725.894	126.725	0.056	-0.072
-724.879	-65.266	0.007	-0.003
-723.864	-7.133	-0.298	-0.206
-722.850	15.127	-0.236	-0.188
-721.835	733.274	0.063	-0.171
-720.821	800.000	0.029	-0.110
-719.806	-168.116	0.321	-0.013
-718.791	-107.575	-0.102	-0.023
-717.777	-119.426	-0.190	-0.033
-716.762	-46.723	-0.295	-0.147
-715.748	42.352	-0.304	-0.281
-714.733	9.223	-0.088	0.067
-713.718	511.112	0.013	0.030
-712.704	770.927	0.008	-0.022
-711.689	39.277	0.176	0.160
-710.675	800.000	0.017	0.061
-709.660	147.069	-0.081	-0.111
-708.645	48.763	-0.348	-0.332
-707.631	-200.000	-0.041	-0.429
-706.616	249.761	-0.081	-0.140
-705.602	134.656	-0.044	-0.058
-704.587	167.266	-0.153	0.220
-703.572	800.000	-0.047	0.143
-702.558	246.319	-0.019	-0.032
-701.543	800.000	0.063	0.273
-700.529	-125.244	-0.099	-0.015
-699.514	-111.218	0.409	-0.085
-698.499	-200.000	-0.009	0.205
-697.485	20.617	-0.227	0.186
-696.470	396.475	0.059	-0.126
-695.456	323.559	0.088	-0.171
-694.441	-200.000	0.001	-0.323
-693.426	-200.000	0.013	0.117
-692.412	-200.000	-0.009	0.105
-691.397	-133.113	0.114	0.015
-690.383	-40.627	-0.290	-0.153
-689.368	-200.000	0.014	-0.073
-688.354	-83.554	-0.075	-0.024
-687.339	-84.020	0.053	-0.017
-686.324	-153.657	0.260	-0.018
-685.310	270.855	0.060	0.107
-684.295	-144.151	-0.216	0.020
-683.281	-131.850	0.249	-0.033
-682.266	-149.760	-0.328	0.026
-681.251	-175.153	-0.304	-0.009
-680.237	152.521	-0.166	-0.230
-679.222	-20.918	0.150	0.093
-678.208	-176.509	-0.495	-0.013
-677.193	-103.657	-0.140	0.033
-676.178	8.080	-0.157	-0.119
-675.164	602.545	-0.053	-0.132
-674.149	130.094	-0.149	-0.193
-673.135	-38.427	-0.208	-0.111
-672.120	169.158	-0.148	0.214
-671.105	75.679	-0.195	-0.209
-670.091	-53.567	0.077	-0.036
-669.076	186.160	0.080	0.121
-668.062	-74.484	0.069	0.025
-667.047	-200.000	0.003	0.036
-666.032	-164.832	-0.105	-0.005
-665.018	-98.303	0.255	-0.066
-664.003	-131.894	-0.126	-0.017
-662.989	338.459	0.120	0.236
-661.974	-200.000	-0.021	-0.195
-660.959	-200.000	-0.045	0.228
-659.945	765.348	-0.135	0.372
-658.930	67.165	0.185	0.191
-657.916	-23.498	0.086	0.052
-656.901	800.000	0.073	-0.279
-655.886	-69.346	0.252	0.098
-654.872	-56.318	0.129	0.058
-653.857	57.948	0.284	0.281
-652.843	4.216	-0.146	-0.108
-651.828	-21.691	0.019	-0.012
-650.814	800.000	-0.030	0.099
-649.799	-16.662	0.145	0.093
-648.784	-39.055	0.125	-0.066
-647.770	137.020	0.081	0.107
-646.755	-34.794	-0.221	0.122
-645.741	223.698	-0.146	0.238
-644.726	-97.480	0.057	0.015
-643.711	196.523	-0.048	-0.074
-642.697	-200.000	-0.060	0.296
-641.682	-28.878	0.224	0.130
-640.668	-181.882	-0.281	0.005
-639.653	214.462	0.227	0.364
-638.638	-106.041	-0.158	-0.036
-637.624	-45.188	-0.185	0.093
-636.609	-55.610	0.070	-0.032
-635.595	800.000	-0.056	-0.240
-634.580	-200.000	0.001	0.018
-633.565	-56.930	-0.124	0.055
-632.551	800.000	-0.066	-0.192
-631.536	417.031	0.060	0.130
-630.522	159.032	0.257	0.362
-629.507	30.761	-0.093	-0.081
-628.492	-53.403	-0.121	0.056
-627.478	-200.000	-0.014	0.082
-626.463	560.732	0.078	0.191
-625.449	800.000	0.164	-0.625
-624.434	33.819	0.122	0.107
-623.419	125.279	0.210	-0.267
-622.405	-84.017	0.062	-0.020
-621.390	340.938	0.091	0.180
-620.376	432.106	0.040	0.087
-619.361	10.223	0.139	-0.107
-618.346	-130.858	-0.351	0.048
-617.332	-125.394	0.300	0.046
-616.317	-88.782	-0.378	-0.114
-615.303	-10.834	0.178	0.119
-614.288	787.515	0.023	0.064
-613.273	59.708	0.136	-0.136
-612.259	-39.664	-0.286	-0.151
-611.244	-200.000	0.004	-0.162
-610.230	-149.094	0.182	0.015
-609.215	-7.736	-0.214	-0.146
-608.201	-108.709	0.237	-0.051
-607.186	-68.597	-0.182	0.071
-606.171	434.804	0.126	-0.277
-605.157	-200.000	0.067	0.479
-604.142	-200.000	0.015	-0.089
-603.128	-186.944	0.194	-0.003
-602.113	-44.460	-0.133	-0.067
-601.098	131.702	-0.268	-0.348
-600.084	-85.151	0.263	0.083
-599.069	156.602	0.147	-0.205
-598.055	-173.080	-0.155	-0.005
-597.040	331.570	-0.081	0.158
-596.025	690.886	0.014	-0.038
-595.011	172.665	0.146	-0.213
-593.996	62.077	0.371	-0.374
-592.982	-200.000	-0.007	0.062
-591.967	-8.139	0.141	0.096
-590.952	-171.504	0.061	0.002
-589.938	-83.185	0.164	0.053
-588.923	88.328	-0.285	-0.319
-587.909	-200.000	0.011	0.143
-586.894	17.098	0.369	0.296
-585.879	-200.000	0.015	-0.080
-584.865	-200.000	-0.046	-0.422
-583.850	25.976	0.066	0.055
-582.836	257.299	0.119	0.207
-581.821	21.901	0.074	0.061
-580.806	34.617	-0.387	-0.342
-579.792	311.400	0.075	-0.141
-578.777	800.000	-0.041	0.179
-577.763	98.465	0.157	0.183
-576.748	-171.580	-0.399	0.013
-575.733	-92.540	-0.092	0.026
-574.719	-200.000	0.013	0.100
-573.704	-124.007	-0.327	0.052
-572.690	616.617	0.072	-0.181
-571.675	60.445	-0.048	0.048
-570.661	-200.000	0.026	-0.127
-569.646	-48.741	0.155	-0.075
-568.631	43.552	-0.208	-0.192
-567.617	-27.567	-0.120	0.070
-566.602	777.150	0.051	0.139
-565.588	-12.775	0.305	0.201
-564.573	-200.000	-0.012	-0.137
-563.558	209.377	0.070	-0.111
-562.544	735.382	-0.076	-0.204
-561.529	64.516	0.135	-0.137
-560.515	-145.099	0.120	-0.011
-559.500	-50.050	-0.186	-0.089
-558.485	40.601	-0.100	-0.091
-557.471	-91.866	0.160	0.046
-556.456	56.261	0.139	0.136
-555.442	132.853	0.127	-0.165
-554.427	-200.000	-0.041	0.214
-553.412	209.682	-0.115	-0.181
-552.398	-68.560	0.337	0.132
-551.383	800.000	0.018	0.051
-550.369	-200.000	0.000	-0.120
-549.354	-35.976	0.251	0.137
-548.339	-28.473	0.254	-0.148
-547.325	253.128	-0.124	-0.213
-546.310	800.000	0.094	0.271
-545.296	-127.870	-0.160	-0.023
-544.281	-161.880	-0.227	-0.012
-543.266	124.334	0.194	0.246
-542.252	56.324	-0.122	0.119
-541.237	-187.450	0.061	0.001
-540.223	568.026	-0.046	0.113
-539.208	-98.310	0.303	-0.078
-538.193	-72.484	-0.048	0.018
-537.179	-200.000	-0.005	-0.172
-536.164	-200.000	-0.022	-0.137
-535.150	214.712	-0.115	0.184
-534.135	55.376	0.121	-0.118
-533.121	-103.516	-0.331	0.078
-532.106	-200.000	0.049	-0.292
-531.091	800.000	-0.075	-0.261
-530.077	148.353	0.122	-0.166
-529.062	-64.226	0.193	-0.079
-528.048	-101.110	0.098	0.024
-527.033	301.324	-0.061	0.114
-526.018	452.638	0.105	0.234
-525.004	-200.000	0.025	0.157
-523.989	-15.835	-0.141	-0.090
-522.975	560.010	-0.051	0.124
-521.960	800.000	0.016	-0.058
-520.945	18.453	0.136	-0.110
-519.931	160.340	0.141	0.197
-518.916	-126.721	-0.157	0.023
-517.902	-8.927	-0.236	0.159
-516.887	431.917	-0.102	0.223
-515.872	127.886	0.103	-0.132
-514.858	-158.923	0.219	-0.013
-513.843	-79.408	-0.380	-0.129
-512.829	-88.901	0.398	0.119
-511.814	-65.523	0.286	-0.115
-510.799	361.542	-0.149	-0.302
-509.785	63.181	-0.155	0.156
-508.770	-107.147	0.185	-0.041
-507.756	-200.000	-0.002	0.250
-506.741	-200.000	-0.042	0.281
-505.726	745.589	-0.071	-0.192
-504.712	-51.024	-0.226	-0.107
-503.697	2.467	0.080	0.058
-502.683	243.532	-0.121	-0.204
-501.668	-125.985	0.249	-0.038
-500.653	-94.249	0.127	-0.035
-499.639	-200.000	-0.034	-0.175
-498.624	111.417	-0.226	-0.274
-497.610	467.483	-0.110	-0.247
-496.595	800.000	-0.031	-0.123
-495.581	590.078	0.021	0.052
-494.566	-200.000	-0.004	0.050
-493.551	-200.000	-0.030	-0.153
-492.537	757.015	-0.013	-0.035
-491.522	65.328	0.031	-0.032
-490.508	800.000	0.021	0.083
-489.493	-97.605	0.319	-0.083
-488.478	52.864	0.108	0.104
-487.464	-62.218	0.217	-0.091
-486.449	-38.933	-0.073	0.039
-485.435	17.352	0.118	0.094
-484.420	357.580	0.137	0.274
-483.405	800.000	0.027	-0.110
-482.391	-123.877	-0.229	-0.036
-481.376	-200.000	0.002	0.087
-480.362	-34.734	0.134	0.074
-479.347	-110.538	0.292	0.061
-478.332	-121.282	0.293	-0.049
-477.318	-49.343	-0.111	-0.053
-476.303	88.332	0.197	0.220
-475.289	-101.810	0.232	0.057
-474.274	272.893	0.087	-0.154
-473.259	320.083	0.129	0.246
-472.245	93.614	0.076	-0.087
-471.230	-49.193	0.133	-0.064
-470.216	1.147	-0.249	-0.179
-469.201	-132.129	0.417	0.054
-468.186	-200.000	0.002	-0.013
-467.172	378.903	0.009	0.019
-466.157	-200.000	0.020	-0.095
-465.143	41.441	0.176	-0.160
-464.128	-106.868	-0.203	-0.045
-463.113	224.606	-0.026	0.043
-462.099	-33.450	-0.274	-0.152
-461.084	224.649	-0.162	0.263
-460.070	800.000	-0.084	-0.347
-459.055	773.071	-0.082	-0.224
-458.040	800.000	0.055	-0.200
-457.026	-65.903	-0.258	-0.104
-456.011	800.000	-0.037	0.154
-454.997	-43.459	-0.347	0.176
-453.982	141.347	0.032	-0.042
-452.968	-179.313	0.242	-0.005
-451.953	102.707	-0.142	-0.167
-450.938	-53.529	-0.071	-0.033
-449.924	195.451	-0.035	-0.053
-448.909	-200.000	0.060	-0.348
-447.895	800.000	-0.108	0.304
-446.880	88.899	-0.081	-0.090
-445.865	-159.229	0.225	-0.013
-444.851	124.296	0.210	0.265
-443.836	-34.467	0.244	0.134
-442.822	-200.000	-0.006	0.225
-441.807	223.651	0.045	-0.072
-440.792	-62.315	-0.353	0.147
-439.778	-77.929	-0.131	-0.046
-438.763	-200.000	0.013	-0.068
-437.749	800.000	-0.034	-0.127
-436.734	156.482	0.048	-0.066
-435.719	800.000	0.036	0.154
-434.705	610.140	0.145	0.364
-433.690	800.000	-0.040	0.148
-432.676	134.348	-0.096	-0.126
-431.661	800.000	0.037	0.117
-430.646	94.704	-0.040	-0.045
-429.632	36.833	-0.249	0.221
-428.617	764.543	-0.148	-0.402
-427.603	331.581	-0.063	-0.122
-426.588	-70.186	0.140	-0.053
-425.573	-49.454	-0.339	0.162
-424.559	-200.000	-0.006	-0.224
-423.544	-101.576	0.301	0.073
-422.530	-38.824	-0.233	-0.123
-421.515	-158.089	-0.064	0.004
-420.500	-200.000	0.013	-0.483
-419.486	-96.376	0.180	0.048
-418.471	-200.000	-0.017	-0.153
-417.457	-62.468	-0.131	0.055
-416.442	-108.946	-0.104	0.022
-415.428	283.930	0.054	-0.098
-414.413	800.000	0.037	0.106
-413.398	80.230	-0.125	-0.135
-412.384	-58.044	0.443	0.194
-411.369	800.000	0.027	0.080
-410.355	369.697	-0.050	-0.101
-409.340	239.080	-0.130	-0.217
-408.325	746.020	-0.091	-0.246
-407.311	-93.369	-0.169	0.047
-406.296	-28.408	0.150	0.087
-405.282	-82.640	-0.275	-0.089
-404.267	83.163	-0.129	0.141
-403.252	36.199	0.297	0.263
-402.238	-200.000	0.136	0.000
-401.223	-108.972	0.204	-0.044
-400.209	-53.609	-0.347	-0.159
-399.194	750.996	0.053	-0.144
-398.179	800.000	0.036	-0.118
-397.165	-55.679	-0.204	-0.092
-396.150	-133.632	0.081	0.010
-395.136	31.945	0.142	-0.123
-394.121	-82.224	-0.125	0.041
-393.106	800.000	0.038	-0.160
-392.092	258.949	-0.218	0.377
-391.077	393.514	-0.074	0.155
-390.063	-37.846	0.169	0.090
-389.048	-200.000	0.011	0.068
-388.033	-65.116	-0.474	-0.192
-387.019	43.881	0.182	0.167
-386.004	-37.156	0.103	-0.055
-384.990	49.297	-0.170	-0.161
-383.975	76.622	0.201	-0.214
-382.960	800.000	0.047	-0.183
-381.946	3.998	0.116	-0.085
-380.931	-200.000	0.004	0.067
-379.917	-159.615	0.288	0.016
-378.902	-83.200	-0.259	-0.084
-377.888	-108.318	-0.153	-0.033
-376.873	-69.348	-0.260	-0.100
-375.858	-200.000	-0.016	-0.127
-374.844	-26.157	-0.174	-0.103
-373.829	297.666	0.068	-0.126
-372.815	-36.016	0.079	0.043
-371.800	-200.000	0.035	0.253
-370.785	-92.041	0.326	0.092
-369.771	-176.921	-0.078	-0.002
-368.756	-158.612	0.210	-0.012
-367.742	-68.334	-0.234	0.091
-366.727	-200.000	0.015	-0.154
-365.712	32.640	-0.250	0.216
-364.698	544.312	0.099	0.236
-363.683	-200.000	-0.020	-0.278
-362.669	790.107	-0.087	0.241
-361.654	146.599	-0.187	0.252
-360.639	-200.000	0.035	0.302
-359.625	-109.993	-0.251	0.053
-358.610	-73.332	0.137	-0.050
-357.596	-200.000	0.003	0.174
-356.581	-60.118	-0.297	0.127
-355.566	-76.382	-0.140	-0.049
-354.552	19.233	0.152	0.122
-353.537	800.000	0.066	-0.253
-352.523	219.935	0.073	-0.117
-351.508	66.916	0.103	0.105
-350.493	65.285	-0.159	0.161
-349.479	-183.853	0.344	-0.006
-348.464	601.238	-0.025	0.063
-347.450	520.469	0.073	0.172
-346.435	-38.544	0.067	0.035
-345.420	-86.462	0.372	0.114
-344.406	222.501	0.103	-0.166
-343.391	-200.000	0.017	-0.181
-342.377	135.045	-0.007	-0.009
-341.362	800.000	-0.053	-0.171
-340.348	800.000	0.132	-0.427
-339.333	-100.975	-0.276	0.068
-338.318	-200.000	0.056	-0.406
-337.304	-167.176	-0.171	0.007
-336.289	586.891	0.044	-0.107
-335.275	403.108	0.147	-0.308
-334.260	-109.974	-0.351	0.074
-333.245	-121.009	-0.041	-0.007
-332.231	39.308	0.076	0.068
-331.216	800.000	-0.044	0.177
-330.202	-180.164	-0.193	-0.004
-329.187	800.000	0.073	0.211
-328.172	-59.531	-0.275	0.118
-327.158	800.000	-0.050	-0.197
-326.143	7.610	-0.079	0.059
-325.129	401.342	-0.105	0.220
-324.114	-200.000	0.015	0.095
-323.099	-178.762	-0.200	0.005
-322.085	-200.000	-0.028	-0.159
-321.070	3.633	-0.137	0.100
-320.056	-18.092	0.130	-0.081
-319.041	44.295	-0.172	0.158
-318.026	-91.374	0.050	-0.014
-317.012	361.833	0.113	-0.227
-315.997	-39.025	0.206	-0.108
-314.983	-113.924	-0.291	0.057
-313.968	238.517	-0.084	0.139
-312.953	4.105	-0.154	0.113
-311.939	-74.915	0.423	0.152
-310.924	195.001	0.156	0.236
-309.910	29.546	0.133	-0.113
-308.895	12.104	0.192	0.148
-307.880	-200.000	-0.044	0.341
-306.866	129.369	-0.269	0.344
-305.851	-88.324	0.380	0.114
-304.837	55.881	-0.136	0.132
-303.822	11.774	0.381	-0.292
-302.807	206.090	0.131	0.203
-301.793	-103.431	-0.282	-0.066
-300.778	183.666	-0.101	-0.150
-299.764	-200.000	0.003	0.245
-298.749	-77.430	0.214	0.074
-297.735	741.948	0.047	-0.126
-296.720	129.482	-0.039	-0.049
-295.705	-88.372	0.368	0.110
-294.691	-63.703	0.065	-0.026
-293.676	-149.343	0.266	-0.021
-292.662	-72.457	0.318	-0.117
-291.647	26.308	-0.068	0.057
-290.632	117.492	0.055	-0.068
-289.618	531.399	-0.036	-0.084
-288.603	76.975	0.175	-0.185
-287.589	-142.696	-0.178	0.017
-286.574	-200.000	-0.018	0.242
-285.559	-200.000	-0.011	0.053
-284.545	-110.577	0.053	-0.011
-283.530	-200.000	-0.036	-0.182
-282.516	800.000	0.033	0.107
-281.501	800.000	-0.039	0.146
-280.486	-139.210	0.165	-0.018
-279.472	-151.875	-0.302	-0.022
-278.457	-200.000	-0.043	-0.287
-277.443	-81.092	0.293	0.097
-276.428	44.170	-0.269	0.246
-275.413	42.310	0.073	-0.066
-274.399	36.518	0.073	0.064
-273.384	-24.133	-0.246	-0.147
-272.370	-61.009	-0.179	-0.076
-271.355	79.116	0.194	-0.207
-270.340	-50.391	-0.138	-0.065
-269.326	800.000	-0.014	-0.058
-268.311	-70.299	-0.229	0.087
-267.297	-78.350	-0.269	0.092
-266.282	-200.000	0.018	0.122
-265.267	-45.368	0.225	0.111
-264.253	37.294	-0.121	0.107
-263.238	-50.682	-0.215	-0.101
-262.224	-54.249	0.127	0.058
-261.209	87.405	0.159	0.175
-260.195	153.256	-0.049	-0.067
-259.180	338.270	-0.127	0.247
-258.165	-133.307	-0.095	0.012
-257.151	40.057	0.086	0.077
-256.136	41.112	-0.155	0.140
-255.122	43.989	-0.050	-0.046
-254.107	296.934	-0.084	-0.154
-253.092	-145.078	-0.412	0.037
-252.078	-179.160	-0.112	0.002
-251.063	-89.008	-0.173	0.051
-250.049	-90.029	0.208	0.060
-249.034	-29.345	0.058	-0.033
-248.019	-173.251	0.136	0.004
-247.005	-123.676	-0.106	0.017
-245.990	800.000	0.105	0.297
-244.976	-116.949	0.111	0.020
-243.961	605.501	-0.148	-0.367
-242.946	213.663	-0.124	0.195
-241.932	800.000	-0.114	-0.434
-240.917	143.707	0.231	0.307
-239.903	-140.338	0.087	-0.009
-238.888	-93.271	-0.132	-0.037
-237.873	-195.417	-0.156	0.001
-236.859	-200.000	-0.004	-0.344
-235.844	-33.181	0.023	0.013
-234.830	141.762	0.154	0.204
-233.815	104.811	0.144	0.169
-232.800	88.823	0.077	-0.086
-231.786	-149.579	0.251	-0.020
-230.771	401.536	-0.224	0.469
-229.757	180.168	-0.157	0.229
-228.742	68.611	-0.087	-0.089
-227.727	-106.628	-0.176	0.039
-226.713	32.551	-0.212	-0.183
-225.698	201.792	0.145	0.223
-224.684	189.546	0.189	0.282
-223.669	145.265	-0.226	0.301
-222.655	-107.262	-0.082	0.018
-221.640	-145.442	0.197	0.018
-220.625	508.865	-0.036	0.083
-219.611	264.819	0.114	-0.197
-218.596	-0.581	0.184	0.130
-217.582	95.963	-0.098	-0.112
-216.567	224.221	-0.163	-0.262
-215.552	56.236	0.026	0.025
-214.538	-22.773	-0.375	0.226
-213.523	-84.250	-0.282	-0.089
-212.509	76.458	-0.054	0.057
-211.494	-200.000	-0.028	-0.140
-210.479	534.368	-0.033	-0.077
-209.465	-32.151	0.211	0.117
-208.450	-200.000	0.022	0.192
-207.436	-76.589	0.036	0.013
-206.421	-116.509	-0.242	-0.044
-205.406	-126.546	-0.125	0.019
-204.392	-119.186	-0.115	0.020
-203.377	401.561	-0.123	0.257
-202.363	-200.000	-0.026	0.182
-201.348	-5.914	-0.079	0.054
-200.333	-62.416	-0.116	-0.048
-199.319	-200.000	-0.025	0.117
-198.304	-151.420	-0.162	-0.012
-197.290	-87.123	-0.301	0.091
-196.275	448.503	-0.092	-0.201
-195.260	83.330	-0.106	0.115
-194.246	-200.000	0.042	-0.292
-193.231	800.000	-0.018	-0.052
-192.217	-89.595	0.224	0.065
-191.202	-156.821	-0.215	0.013
-190.187	800.000	0.119	0.350
-189.173	11.449	0.135	-0.103
-188.158	800.000	-0.040	-0.142
-187.144	-162.186	0.177	-0.009
-186.129	15.703	0.113	0.089
-185.114	25.765	0.164	0.136
-184.100	-105.378	-0.232	0.053
-183.085	122.626	-0.034	-0.042
-182.071	-162.064	-0.120	-0.006
-181.056	547.088	0.010	-0.024
-180.042	800.000	-0.084	-0.262
-179.027	-200.000	0.017	-0.217
-178.012	446.840	0.054	-0.119
-176.998	-111.381	-0.345	-0.070
-175.983	800.000	0.037	-0.119
-174.969	165.657	-0.133	-0.187
-173.954	200.606	-0.198	-0.302
-172.939	54.038	0.231	-0.221
-171.925	-36.255	0.322	0.172
-170.910	-200.000	0.016	0.261
-169.896	14.053	-0.095	-0.074
-168.881	-200.000	0.027	0.551
-167.866	28.077	0.126	-0.105
-166.852	-48.524	0.101	-0.048
-165.837	-200.000	0.063	-0.341
-164.823	95.465	0.063	-0.072
-163.808	-135.739	-0.214	0.025
-162.793	-123.717	-0.215	0.034
-161.779	-14.355	0.179	0.115
-160.764	115.752	0.097	0.118
-159.750	-101.034	-0.241	-0.059
-158.735	800.000	0.083	-0.307
-157.720	88.526	0.075	0.083
-156.706	800.000	0.068	0.234
-155.691	94.564	0.163	-0.184
-154.677	-157.330	0.137	-0.008
-153.662	-143.965	0.357	0.033
-152.647	232.355	-0.121	0.196
-151.633	14.463	0.086	0.067
-150.618	357.361	0.160	0.316
-149.604	431.240	0.157	0.338
-148.589	800.000	0.054	-0.192
-147.574	-47.995	-0.092	0.044
-146.560	354.237	-0.145	0.285
-145.545	-28.778	0.256	0.146
-144.531	159.539	-0.110	0.151
-143.516	-187.043	0.049	0.001
-142.502	800.000	0.030	-0.099
-141.487	-200.000	-0.018	-0.313
-140.472	-43.736	0.081	-0.040
-139.458	-54.146	0.231	-0.104
-138.443	-10.643	0.184	-0.121
-137.429	-18.174	-0.357	0.222
-136.414	-64.589	-0.271	-0.109
-135.399	-105.213	-0.247	0.056
-134.385	800.000	0.054	0.148
-133.370	717.845	0.076	-0.200
-132.356	-200.000	-0.090	-0.471
-131.341	-23.512	-0.137	0.082
-130.326	-76.671	0.066	-0.023
-129.312	-23.093	0.242	0.145
-128.297	252.231	0.085	0.144
-127.283	-107.944	0.083	0.018
-126.268	-155.733	0.201	0.013
-125.253	488.362	0.072	-0.164
-124.239	117.817	0.251	-0.306
-123.224	-4.632	-0.109	-0.075
-122.210	-200.000	0.040	0.205
-121.195	-123.964	-0.224	0.035
