DTS Sentinel unit serial number:	SN413079Multiplexer serial number:	ORYXHardware model number:	OX4-SRSoftware version number:	ORYX F/W v4.00 Oryx Data Collector v3.7.2.0data status	okinstallation	princeton_trtdifferential loss correction	single-endedforward channel	channel 1reverse channel	N/Adate	2019/09/12time	14:28:11forward acquisition time	60.00reverse acquisition time	0.00gamma	496.2192k internal	0.2293k external	0.2293temperature offset calibration	1.0055default loss term (dB/km)	0.3790temperature slope calibration	1.0000multiplexer offset coefficient	1.0000multiplexer slope coefficient	1.0000fibre end	0.00T internal ref (°C)	40.08T ext. ref 1 (°C)	2.26T ext. ref 2 (°C)	35.71length (m)	temperature (°C)	Stokes	anti-Stokes-747.200	37.317	-0.223	0.202
-746.185	-107.445	0.070	0.016
-745.171	765.616	-0.109	0.303
-744.156	312.752	-0.136	0.260
-743.142	261.728	-0.072	-0.128
-742.127	71.938	-0.249	-0.265
-741.112	-128.189	0.146	-0.021
-740.098	121.071	0.226	-0.287
-739.083	17.676	0.112	-0.091
-738.069	43.270	-0.165	0.154
-737.054	-200.000	0.022	0.148
-736.039	42.739	0.292	-0.272
-735.025	-200.000	0.018	0.351
-734.010	-40.456	-0.361	0.192
-732.996	-110.102	-0.161	0.034
-731.981	163.128	-0.173	0.248
-730.966	-72.559	-0.230	0.087
-729.952	-200.000	0.019	0.194
-728.937	189.133	-0.118	-0.180
-727.923	190.934	-0.228	0.350
-726.908	616.500	0.017	-0.044
-725.894	68.613	-0.214	0.224
-724.879	50.759	-0.088	0.086
-723.864	800.000	-0.053	-0.169
-722.850	-66.240	-0.149	0.061
-721.835	245.451	-0.043	0.074
-720.821	-140.528	-0.166	-0.018
-719.806	648.142	0.057	-0.149
-718.791	-91.639	-0.171	-0.050
-717.777	-39.166	-0.163	-0.088
-716.762	-200.000	0.105	-0.498
-715.748	72.735	0.023	-0.024
-714.733	-73.698	-0.312	0.116
-713.718	-10.097	-0.163	0.111
-712.704	126.177	0.074	-0.096
-711.689	-173.348	0.255	0.008
-710.675	15.269	0.081	-0.065
-709.660	422.582	-0.126	-0.276
-708.645	-200.000	0.038	-0.188
-707.631	800.000	-0.053	0.203
-706.616	41.350	0.047	0.043
-705.602	393.185	-0.070	-0.149
-704.587	800.000	-0.054	0.191
-703.572	-200.000	0.038	0.294
-702.558	-200.000	-0.026	-0.174
-701.543	-190.703	-0.425	0.005
-700.529	-32.378	-0.328	0.187
-699.514	-111.925	-0.185	-0.038
-698.499	92.939	-0.172	0.199
-697.485	170.286	-0.217	-0.317
-696.470	319.952	-0.216	-0.419
-695.456	-114.863	-0.174	0.034
-694.441	-200.000	0.009	-0.196
-693.426	-89.952	0.199	-0.059
-692.412	-200.000	0.034	0.483
-691.397	-123.264	-0.153	-0.025
-690.383	20.370	-0.172	-0.142
-689.368	147.310	-0.117	-0.161
-688.354	91.322	0.119	-0.136
-687.339	-200.000	0.001	0.202
-686.324	-63.921	0.233	-0.097
-685.310	-72.604	-0.141	0.053
-684.295	-38.979	0.182	0.098
-683.281	126.309	-0.229	-0.296
-682.266	-74.712	-0.023	0.009
-681.251	68.709	-0.153	-0.160
-680.237	492.660	-0.017	-0.039
-679.222	-200.000	-0.008	-0.047
-678.208	-43.626	-0.109	0.056
-677.193	-63.112	0.514	-0.217
-676.178	800.000	-0.051	-0.180
-675.164	-3.608	0.265	-0.188
-674.149	-77.118	-0.320	0.114
-673.135	800.000	0.033	-0.139
-672.120	-17.812	0.196	-0.125
-671.105	-61.470	-0.154	0.066
-670.091	469.401	-0.113	0.258
-669.076	-32.100	-0.150	0.085
-668.062	-110.479	-0.099	-0.021
-667.047	-200.000	-0.053	-0.242
-666.032	-130.299	-0.287	-0.040
-665.018	69.428	0.081	-0.085
-664.003	-200.000	0.018	-0.132
-662.989	800.000	-0.100	-0.327
-661.974	5.826	0.034	-0.025
-660.959	-2.369	0.150	-0.108
-659.945	-30.548	-0.208	-0.120
-658.930	135.862	0.189	0.251
-657.916	64.003	0.189	-0.194
-656.901	-132.491	0.316	-0.041
-655.886	136.664	-0.088	-0.117
-654.872	9.275	0.058	-0.045
-653.857	-200.000	0.015	-0.108
-652.843	800.000	0.028	0.124
-651.828	410.637	-0.145	0.313
-650.814	354.948	-0.097	0.197
-649.799	-200.000	0.001	-0.180
-648.784	-125.354	0.274	0.043
-647.770	-25.413	0.166	0.100
-646.755	-99.235	-0.101	0.026
-645.741	627.406	0.133	0.343
-644.726	360.347	-0.099	0.201
-643.711	-134.594	-0.133	0.017
-642.697	134.112	-0.160	-0.211
-641.682	-200.000	0.002	-0.425
-640.668	378.008	-0.126	0.262
-639.653	-200.000	-0.021	0.149
-638.638	260.960	-0.096	-0.169
-637.624	146.571	-0.151	0.207
-636.609	77.291	0.145	-0.157
-635.595	-134.012	-0.214	0.027
-634.580	45.066	0.040	0.037
-633.565	-200.000	-0.024	0.292
-632.551	52.654	0.247	-0.240
-631.536	-54.914	-0.553	-0.254
-630.522	-169.595	-0.168	-0.006
-629.507	800.000	-0.041	0.133
-628.492	578.186	-0.034	-0.084
-627.478	195.571	0.028	-0.043
-626.463	-200.000	0.008	-0.230
-625.449	-8.059	0.196	-0.135
-624.434	567.982	0.063	0.156
-623.419	-102.961	0.116	-0.028
-622.405	38.681	0.166	0.151
-621.390	-53.325	0.175	-0.081
-620.376	89.829	-0.044	0.050
-619.361	800.000	0.094	-0.417
-618.346	93.968	-0.093	0.108
-617.332	-91.422	0.128	0.037
-616.317	-171.101	0.207	0.007
-615.303	-3.559	0.268	-0.190
-614.288	-200.000	0.092	-0.000
-613.273	353.266	0.067	-0.135
-612.259	448.749	0.103	0.231
-611.244	-200.000	-0.021	0.116
-610.230	-50.676	-0.127	-0.061
-609.215	60.798	0.236	-0.238
-608.201	48.705	0.047	0.045
-607.186	-67.797	-0.141	-0.056
-606.171	-32.631	0.311	0.176
-605.157	128.489	0.011	-0.014
-604.142	-200.000	-0.005	0.058
-603.128	-68.052	0.207	0.082
-602.113	-146.700	0.177	-0.016
-601.098	800.000	-0.043	-0.131
-600.084	-59.176	-0.238	0.104
-599.069	-200.000	0.013	-0.089
-598.055	800.000	-0.078	-0.240
-597.040	142.476	-0.174	0.235
-596.025	168.653	0.163	-0.236
-595.011	-200.000	-0.001	0.024
-593.996	119.107	-0.097	-0.121
-592.982	-60.081	0.219	-0.095
-591.967	140.780	0.247	0.331
-590.952	738.288	0.102	0.278
-589.938	-87.533	0.477	-0.147
-588.923	-190.358	-0.275	-0.003
-587.909	-71.224	-0.104	-0.040
-586.894	-200.000	-0.146	-0.000
-585.879	-33.353	-0.297	-0.167
-584.865	-73.927	0.238	0.088
-583.850	-0.377	0.210	-0.151
-582.836	86.652	-0.070	-0.078
-581.821	-200.000	-0.052	0.286
-580.806	-54.708	-0.171	0.079
-579.792	-124.088	-0.172	0.028
-578.777	-48.230	-0.288	-0.141
-577.763	-48.569	0.121	0.059
-576.748	-200.000	0.040	0.328
-575.733	-128.335	0.176	-0.026
-574.719	-70.736	-0.120	0.046
-573.704	-200.000	-0.001	-0.152
-572.690	-36.958	-0.227	-0.124
-571.675	783.296	-0.090	-0.250
-570.661	141.717	-0.231	-0.311
-569.646	-200.000	0.034	0.167
-568.631	153.886	0.262	0.365
-567.617	-166.447	-0.158	0.007
-566.602	-200.000	-0.042	-0.253
-565.588	-111.596	-0.259	-0.053
-564.573	94.941	-0.209	0.242
-563.558	123.297	-0.143	-0.183
-562.544	157.430	-0.085	0.119
-561.529	9.879	-0.301	0.232
-560.515	800.000	0.025	-0.088
-559.500	-200.000	0.005	0.090
-558.485	255.236	-0.113	-0.197
-557.471	-143.317	0.148	-0.014
-556.456	-48.512	-0.100	-0.049
-555.442	-53.597	-0.253	0.118
-554.427	108.211	0.077	0.093
-553.412	-44.630	-0.206	0.104
-552.398	79.226	0.172	-0.188
-551.383	149.752	-0.216	0.297
-550.369	33.448	0.138	0.122
-549.354	114.963	-0.201	-0.250
-548.339	318.467	-0.118	-0.227
-547.325	-165.591	0.172	0.008
-546.310	-88.779	-0.365	-0.110
-545.296	-133.259	-0.367	-0.047
-544.281	-50.879	-0.305	-0.145
-543.266	-11.174	0.129	0.087
-542.252	800.000	-0.062	-0.191
-541.237	800.000	0.019	0.078
-540.223	-138.822	-0.323	-0.036
-539.208	-31.538	-0.079	-0.045
-538.193	140.237	0.183	0.245
-537.179	26.878	-0.135	-0.115
-536.164	-98.162	-0.213	0.055
-535.150	-60.780	0.133	-0.057
-534.135	70.014	-0.133	0.139
-533.121	-60.016	0.064	0.028
-532.106	800.000	-0.059	-0.177
-531.091	-34.467	-0.199	0.111
-530.077	-10.700	-0.226	-0.151
-529.062	-0.216	-0.139	-0.100
-528.048	-179.914	0.379	0.008
-527.033	443.652	0.089	0.197
-526.018	-12.959	0.237	-0.156
-525.004	-131.163	0.220	-0.030
-523.989	232.627	0.246	0.410
-522.975	-50.139	-0.105	0.050
-521.960	196.260	-0.257	-0.396
-520.945	89.695	0.178	0.201
-519.931	44.055	0.177	-0.164
-518.916	-108.243	-0.370	-0.081
-517.902	-22.199	0.235	-0.144
-516.887	-168.124	-0.154	-0.006
-515.872	290.259	-0.077	0.142
-514.858	-85.211	0.160	-0.051
-513.843	-73.169	0.289	0.107
-512.829	-200.000	0.039	0.356
-511.814	373.269	0.045	0.093
-510.799	196.670	0.176	-0.272
-509.785	-200.000	0.012	-0.071
-508.770	451.177	0.020	0.044
-507.756	-200.000	-0.019	0.174
-506.741	60.888	0.071	0.071
-505.726	800.000	-0.072	0.246
-504.712	72.534	-0.300	-0.317
-503.697	800.000	-0.151	0.476
-502.683	800.000	0.137	0.443
-501.668	800.000	0.061	0.231
-500.653	-16.576	-0.193	-0.124
-499.639	376.780	0.045	-0.092
-498.624	-200.000	0.009	-0.265
-497.610	-155.649	-0.245	0.016
-496.595	800.000	0.044	0.134
-495.581	77.805	0.129	-0.140
-494.566	71.070	-0.159	-0.167
-493.551	-113.684	-0.244	-0.048
-492.537	6.771	0.223	-0.168
-491.522	213.363	0.110	-0.176
-490.508	-200.000	0.005	0.035
-489.493	-200.000	-0.001	0.111
-488.478	283.438	0.203	0.370
-487.464	39.452	0.131	-0.119
-486.449	374.982	-0.178	-0.368
-485.435	-42.256	-0.209	-0.108
-484.420	-200.000	-0.024	-0.364
-483.405	616.339	-0.115	-0.293
-482.391	-75.893	0.275	-0.099
-481.376	37.340	-0.091	0.082
-480.362	-148.019	-0.160	-0.013
-479.347	399.785	0.138	0.294
-478.332	-38.846	-0.190	0.101
-477.318	-79.189	0.129	-0.044
-476.303	72.788	0.195	0.206
-475.289	129.198	-0.077	0.099
-474.274	-112.277	-0.501	-0.102
-473.259	-200.000	0.006	0.122
-472.245	-90.462	0.036	0.011
-471.230	-53.083	0.226	-0.105
-470.216	-38.163	-0.223	0.119
-469.201	800.000	-0.063	0.210
-468.186	-200.000	-0.010	0.142
-467.172	153.882	0.141	-0.195
-466.157	800.000	0.018	-0.058
-465.143	-15.727	-0.251	0.162
-464.128	159.034	0.060	-0.085
-463.113	-6.491	0.383	0.264
-462.099	79.072	-0.179	-0.194
-461.084	53.500	-0.160	-0.155
-460.070	48.281	-0.340	0.322
-459.055	-92.156	0.122	0.035
-458.040	-167.807	-0.275	-0.011
-457.026	-138.445	-0.339	0.038
-456.011	-9.904	0.194	-0.130
-454.997	800.000	-0.032	0.096
-453.982	115.628	-0.048	0.059
-452.968	-200.000	0.076	-0.403
-451.953	205.529	-0.051	-0.079
-450.938	800.000	-0.056	0.207
-449.924	-200.000	-0.029	-0.196
-448.909	-16.652	0.203	0.130
-447.895	-200.000	0.059	-0.401
-446.880	426.224	0.071	-0.155
-445.865	800.000	-0.062	-0.192
-444.851	-200.000	0.016	0.362
-443.836	-96.631	-0.146	0.039
-442.822	43.907	0.127	0.117
-441.807	81.661	0.206	-0.225
-440.792	-44.915	0.317	0.160
-439.778	800.000	0.051	-0.209
-438.763	-74.198	0.204	-0.075
-437.749	-71.549	0.369	0.140
-436.734	-200.000	-0.005	-0.268
-435.719	116.147	-0.257	-0.318
-434.705	116.564	-0.181	-0.225
-433.690	-200.000	-0.065	-0.356
-432.676	3.316	-0.151	-0.111
-431.661	800.000	0.025	0.088
-430.646	26.331	-0.212	0.179
-429.632	85.378	-0.164	0.182
-428.617	-71.302	0.252	0.096
-427.603	800.000	0.032	-0.093
-426.588	199.399	-0.114	0.177
-425.573	-137.286	-0.114	-0.013
-424.559	-108.686	0.149	-0.032
-423.544	-108.982	-0.110	-0.024
-422.530	-200.000	-0.003	0.034
-421.515	361.726	-0.088	-0.178
-420.500	-35.785	0.173	0.094
-419.486	94.723	0.195	0.223
-418.471	470.436	0.022	-0.051
-417.457	-200.000	-0.003	0.063
-416.442	-151.778	-0.171	-0.013
-415.428	-200.000	-0.019	0.118
-414.413	-33.036	0.038	0.021
-413.398	177.997	-0.250	-0.369
-412.384	390.826	-0.077	-0.161
-411.369	-106.756	0.235	-0.053
-410.355	212.595	0.153	0.243
-409.340	800.000	-0.004	-0.013
-408.325	-200.000	-0.029	-0.240
-407.311	59.334	-0.014	-0.013
-406.296	125.033	0.179	-0.227
-405.282	800.000	-0.111	-0.385
-404.267	-84.391	0.266	0.085
-403.252	512.926	0.002	0.006
-402.238	249.870	-0.020	0.034
-401.223	-200.000	0.031	-0.184
-400.209	128.609	0.099	-0.128
-399.194	-49.348	-0.218	0.105
-398.179	-200.000	-0.013	0.133
-397.165	-200.000	0.018	0.170
-396.150	-2.612	0.019	0.014
-395.136	800.000	0.045	0.171
-394.121	-82.761	-0.276	0.090
-393.106	800.000	-0.064	0.204
-392.092	-113.725	-0.164	0.032
-391.077	-200.000	0.014	0.099
-390.063	125.123	0.131	-0.166
-389.048	203.248	-0.084	-0.131
-388.033	-6.369	-0.103	-0.071
-387.019	455.835	0.154	-0.344
-386.004	131.015	0.090	-0.116
-384.990	631.961	0.040	-0.103
-383.975	376.235	-0.165	-0.339
-382.960	800.000	0.078	-0.225
-381.946	23.417	0.016	-0.014
-380.931	-200.000	0.049	-0.276
-379.917	19.208	0.168	-0.136
-378.902	4.861	-0.150	0.111
-377.888	53.758	-0.118	0.114
-376.873	39.135	0.214	0.193
-375.858	-200.000	-0.002	0.253
-374.844	-151.390	-0.190	0.014
-373.829	-162.687	-0.290	0.014
-372.815	-200.000	0.036	0.524
-371.800	-90.687	-0.067	-0.019
-370.785	120.018	0.171	-0.214
-369.771	-27.468	-0.255	-0.150
-368.756	6.250	-0.159	0.119
-367.742	58.750	0.169	0.167
-366.727	66.653	-0.104	0.107
-365.712	34.560	0.169	0.149
-364.698	-200.000	-0.028	-0.270
-363.683	-200.000	0.019	-0.100
-362.669	-23.286	0.142	0.086
-361.654	-55.794	-0.328	-0.148
-360.639	-137.114	-0.141	-0.016
-359.625	45.545	0.115	0.107
-358.610	229.982	0.108	-0.178
-357.596	714.969	-0.037	0.098
-356.581	-200.000	-0.032	-0.211
-355.566	-200.000	0.026	-0.124
-354.552	338.443	-0.156	-0.305
-353.537	4.393	0.383	0.283
-352.523	113.085	-0.090	0.110
-351.508	-156.380	0.244	-0.015
-350.493	-113.697	-0.218	-0.043
-349.479	73.803	-0.043	-0.045
-348.464	8.759	-0.095	-0.072
-347.450	-200.000	-0.027	0.325
-346.435	-162.966	0.101	0.005
-345.420	262.102	-0.139	-0.243
-344.406	-1.868	0.214	-0.152
-343.391	-135.073	0.373	0.045
-342.377	117.318	-0.131	-0.163
-341.362	-38.866	-0.219	0.116
-340.348	800.000	0.067	0.210
-339.333	-123.817	0.191	-0.030
-338.318	-17.498	0.242	0.153
-337.304	415.510	0.051	-0.109
-336.289	-7.421	-0.036	0.024
-335.275	687.447	0.068	0.178
-334.260	-151.757	0.315	0.023
-333.245	-48.092	-0.113	0.055
-332.231	12.025	-0.138	0.107
-331.216	-56.331	0.400	0.179
-330.202	800.000	-0.068	0.223
-329.187	422.763	-0.108	-0.234
-328.172	328.585	0.162	0.314
-327.158	7.078	-0.076	0.057
-326.143	242.552	-0.157	0.265
-325.129	-132.767	-0.144	0.018
-324.114	53.687	0.108	-0.105
-323.099	-21.147	0.183	-0.112
-322.085	-149.808	0.100	0.008
-321.070	-89.591	-0.195	-0.058
-320.056	-82.358	-0.014	-0.005
-319.041	-123.073	0.362	0.058
-318.026	-83.228	-0.103	0.033
-317.012	800.000	-0.034	-0.113
-315.997	100.646	-0.276	0.322
-314.983	-45.363	-0.126	0.063
-313.968	90.043	0.032	0.036
-312.953	-200.000	0.005	-0.164
-311.939	19.614	0.264	0.214
-310.924	-61.990	0.336	-0.141
-309.910	800.000	0.100	0.383
-308.895	105.569	0.151	-0.179
-307.880	123.641	-0.043	-0.055
-306.866	-200.000	0.002	-0.041
-305.851	-200.000	-0.023	0.123
-304.837	-45.300	-0.278	-0.139
-303.822	-45.898	0.235	-0.117
-302.807	-85.520	-0.093	0.029
-301.793	49.481	0.283	0.268
-300.778	-94.290	-0.109	0.030
-299.764	59.773	-0.143	-0.142
-298.749	-3.213	0.085	0.059
-297.735	-72.526	0.479	0.178
-296.720	-112.787	0.338	0.067
-295.705	-69.190	0.150	0.058
-294.691	-184.043	0.040	-0.001
-293.676	161.894	0.096	0.135
-292.662	-48.776	0.312	-0.150
-291.647	-53.289	0.241	-0.111
-290.632	-147.200	-0.056	0.005
-289.618	-137.185	0.132	-0.015
-288.603	290.483	-0.071	0.130
-287.589	800.000	0.062	-0.234
-286.574	-200.000	0.002	0.061
-285.559	215.474	0.132	0.211
-284.545	-144.196	-0.165	0.016
-283.530	-85.131	0.288	0.090
-282.516	-185.980	0.096	-0.001
-281.501	-200.000	0.054	-0.342
-280.486	-64.143	-0.003	0.001
-279.472	410.423	-0.075	-0.159
-278.457	169.485	-0.178	-0.256
-277.443	53.688	-0.143	-0.138
-276.428	6.581	-0.211	0.157
-275.413	800.000	-0.092	0.400
-274.399	124.418	-0.127	-0.160
-273.384	-174.227	-0.240	0.007
-272.370	729.929	0.052	-0.140
-271.355	240.915	-0.134	0.225
-270.340	800.000	0.082	-0.292
-269.326	-119.325	-0.247	-0.043
-268.311	800.000	-0.098	0.315
-267.297	-152.220	0.278	-0.020
-266.282	121.735	-0.035	0.044
-265.267	-49.079	0.478	0.229
-264.253	-120.228	-0.323	0.055
-263.238	-137.381	-0.473	0.054
-262.224	-59.888	-0.213	0.091
-261.209	-53.624	0.155	0.071
-260.195	-104.437	-0.267	0.062
-259.180	-97.669	0.120	-0.031
-258.165	797.163	0.067	0.184
-257.151	528.469	0.066	-0.156
-256.136	-119.265	-0.250	0.044
-255.122	-200.000	0.045	0.252
-254.107	7.147	0.113	-0.084
-253.092	-200.000	0.050	0.300
-252.078	800.000	-0.032	-0.092
-251.063	-200.000	-0.001	0.023
-250.049	614.601	0.059	-0.149
-249.034	579.448	0.089	-0.220
-248.019	264.032	0.053	-0.093
-247.005	-114.984	0.138	0.026
-245.990	-18.167	-0.190	-0.120
-244.976	-74.718	0.105	-0.038
-243.961	133.778	0.167	-0.217
-242.946	97.562	-0.257	-0.296
-241.932	23.553	0.273	-0.225
-240.917	-200.000	0.011	0.085
-239.903	34.238	-0.109	-0.095
-238.888	455.227	0.112	-0.249
-237.873	-200.000	0.020	-0.242
-236.859	-26.376	0.124	0.073
-235.844	-165.035	0.171	0.008
-234.830	319.727	0.139	0.264
-233.815	-200.000	-0.002	-0.119
-232.800	420.462	-0.089	-0.192
-231.786	800.000	-0.051	0.155
-230.771	800.000	0.104	0.350
-229.757	297.390	0.045	-0.083
-228.742	-4.897	0.103	-0.071
-227.727	96.817	0.071	0.081
-226.713	-200.000	0.002	0.021
-225.698	220.325	0.192	0.308
-224.684	-24.067	-0.132	0.079
-223.669	-58.729	-0.067	-0.029
-222.655	-200.000	-0.028	-0.355
-221.640	-68.801	-0.168	0.065
-220.625	546.233	-0.009	-0.021
-219.611	-78.274	-0.265	0.091
-218.596	-200.000	0.024	-0.257
-217.582	-88.071	0.234	0.070
-216.567	-200.000	0.013	0.154
-215.552	-139.411	0.225	-0.024
-214.538	159.387	0.199	0.277
-213.523	-200.000	-0.040	0.223
-212.509	-60.993	0.249	0.105
-211.494	-42.012	0.140	0.072
-210.479	-82.095	-0.384	-0.126
-209.465	386.741	-0.121	0.250
-208.450	-80.368	-0.087	-0.029
-207.436	-18.306	-0.106	-0.066
-206.421	-11.542	-0.098	-0.065
-205.406	-111.288	-0.352	0.072
-204.392	800.000	-0.043	-0.169
-203.377	-13.483	-0.094	-0.061
-202.363	-134.863	-0.324	-0.039
-201.348	190.817	-0.263	-0.397
-200.333	387.844	0.051	-0.106
-199.319	-19.995	-0.140	0.087
-198.304	10.637	0.084	0.064
-197.290	-48.640	-0.128	-0.061
-196.275	-69.531	-0.175	0.067
-195.260	-93.323	0.118	0.033
-194.246	-160.177	0.230	0.013
-193.231	-200.000	0.013	0.327
-192.217	71.097	0.151	-0.156
-191.202	78.847	0.125	0.134
-190.187	-200.000	-0.032	-0.249
-189.173	-38.918	-0.195	-0.103
-188.158	35.720	0.206	-0.181
-187.144	52.281	0.225	-0.215
-186.129	-82.680	-0.110	-0.036
-185.114	-99.227	-0.235	0.059
-184.100	-129.249	-0.411	-0.057
-183.085	110.536	0.054	0.065
-182.071	-91.420	0.444	0.127
-181.056	-86.505	-0.110	0.034
-180.042	-200.000	-0.092	-0.406
-179.027	-21.144	0.647	0.396
-178.012	320.248	-0.187	0.356
-176.998	800.000	0.051	-0.212
-175.983	-200.000	-0.010	0.259
-174.969	53.738	0.131	-0.126
-173.954	108.649	-0.174	-0.208
-172.939	57.979	-0.210	0.205
-171.925	-33.736	0.385	0.213
-170.910	498.373	0.119	-0.274
-169.896	52.821	0.104	0.099
-168.881	346.523	0.107	0.211
-167.866	-51.050	0.092	0.043
-166.852	-40.034	-0.344	0.179
-165.837	-200.000	-0.071	0.342
-164.823	-32.130	0.129	0.072
-163.808	800.000	0.010	-0.041
-162.793	-30.900	0.198	0.112
-161.779	-40.721	0.036	0.018
-160.764	-15.230	-0.034	-0.022
-159.750	800.000	0.081	0.324
-158.735	-64.678	0.158	0.064
-157.720	-56.007	0.050	0.022
-156.706	-45.858	0.157	0.077
-155.691	-51.891	0.013	0.006
-154.677	12.045	-0.106	-0.081
-153.662	118.212	-0.189	0.233
-152.647	-152.925	0.085	0.006
-151.633	718.263	-0.101	-0.269
-150.618	-130.104	-0.166	-0.023
-149.604	-200.000	0.027	-0.332
-148.589	-122.643	0.164	0.027
-147.574	3.290	0.160	-0.116
-146.560	-118.367	0.283	0.050
-145.545	-105.931	-0.238	0.054
-144.531	-38.217	0.209	0.111
-143.516	480.258	0.194	-0.440
-142.502	-165.886	0.421	0.018
-141.487	126.796	0.181	-0.229
-140.472	-200.000	0.007	0.255
-139.458	657.216	-0.009	-0.022
-138.443	423.139	0.091	0.195
-137.429	-81.117	0.149	-0.049
-136.414	-115.004	-0.324	-0.062
-135.399	7.923	0.212	-0.159
-134.385	174.821	0.051	-0.073
-133.370	-125.572	0.318	0.048
-132.356	453.516	-0.112	0.248
-131.341	437.162	0.097	0.211
-130.326	474.025	-0.011	0.026
-129.312	-121.519	0.235	-0.039
-128.297	-200.000	0.033	0.195
-127.283	-92.482	-0.108	-0.030
-126.268	307.461	0.095	0.176
-125.253	-125.589	0.258	-0.039
-124.239	800.000	-0.018	-0.072
-123.224	69.760	0.078	-0.080
-122.210	-58.624	0.311	-0.135
-121.195	246.156	-0.107	0.180
