DTS Sentinel unit serial number:	SN413079Multiplexer serial number:	ORYXHardware model number:	OX4-SRSoftware version number:	ORYX F/W v4.00 Oryx Data Collector v3.7.2.0data status	okinstallation	princeton_trtdifferential loss correction	single-endedforward channel	channel 1reverse channel	N/Adate	2019/09/19time	15:42:35forward acquisition time	60.00reverse acquisition time	0.00gamma	496.2192k internal	0.2307k external	0.2307temperature offset calibration	1.0024default loss term (dB/km)	0.3790temperature slope calibration	1.0000multiplexer offset coefficient	1.0000multiplexer slope coefficient	1.0000fibre end	0.00T internal ref (°C)	34.62T ext. ref 1 (°C)	1.17T ext. ref 2 (°C)	32.94length (m)	temperature (°C)	Stokes	anti-Stokes-747.200	486.746	0.033	-0.077
-746.185	-123.676	-0.143	-0.023
-745.171	125.629	-0.168	0.216
-744.156	92.841	0.134	0.153
-743.142	-159.420	-0.095	-0.005
-742.127	-77.595	0.061	-0.021
-741.112	91.905	-0.276	-0.315
-740.098	47.486	-0.198	0.188
-739.083	354.721	0.120	-0.243
-738.069	-200.000	0.021	-0.140
-737.054	-134.186	-0.209	-0.026
-736.039	-200.000	0.040	-0.227
-735.025	-54.636	0.186	0.086
-734.010	285.807	0.044	0.080
-732.996	588.399	0.156	-0.391
-731.981	451.627	0.072	0.162
-730.966	-147.936	0.267	-0.023
-729.952	-169.390	0.277	-0.010
-728.937	-129.532	0.209	-0.029
-727.923	212.834	0.136	0.218
-726.908	-200.000	0.028	-0.148
-725.894	483.023	-0.196	-0.452
-724.879	-49.991	-0.061	0.029
-723.864	404.322	-0.057	-0.121
-722.850	178.944	0.154	-0.229
-721.835	800.000	-0.084	0.259
-720.821	-200.000	0.063	-0.547
-719.806	176.355	-0.234	-0.345
-718.791	207.180	0.192	-0.304
-717.777	-103.755	-0.141	-0.034
-716.762	252.468	0.245	-0.424
-715.748	-84.347	-0.372	0.120
-714.733	-14.209	-0.047	-0.030
-713.718	233.802	0.033	-0.055
-712.704	-110.480	0.269	-0.057
-711.689	107.071	-0.072	0.087
-710.675	18.218	0.242	0.196
-709.660	208.673	0.129	0.205
-708.645	-39.835	0.319	0.169
-707.631	-138.858	-0.090	0.010
-706.616	151.711	-0.072	-0.099
-705.602	-200.000	0.014	0.173
-704.587	-149.292	0.309	0.025
-703.572	-134.115	-0.277	0.035
-702.558	-97.069	0.056	0.015
-701.543	199.375	0.108	0.168
-700.529	-37.032	-0.212	-0.115
-699.514	-128.601	-0.317	-0.046
-698.499	275.644	-0.055	0.099
-697.485	-24.144	-0.345	0.209
-696.470	-137.473	-0.293	0.034
-695.456	800.000	-0.048	0.181
-694.441	113.170	0.093	0.114
-693.426	-23.018	0.232	-0.142
-692.412	-200.000	-0.032	-0.192
-691.397	-200.000	0.071	-0.329
-690.383	61.978	-0.180	-0.182
-689.368	-42.536	0.072	-0.037
-688.354	-183.848	-0.209	-0.004
-687.339	-113.929	-0.280	0.055
-686.324	39.812	-0.225	0.205
-685.310	-200.000	0.033	0.214
-684.295	-63.006	-0.309	-0.130
-683.281	49.425	-0.142	-0.135
-682.266	101.090	-0.025	-0.029
-681.251	-109.183	-0.188	-0.040
-680.237	536.958	0.088	0.212
-679.222	-79.417	-0.182	-0.062
-678.208	800.000	-0.030	-0.125
-677.193	171.781	-0.149	0.217
-676.178	-84.022	-0.362	-0.117
-675.164	12.085	-0.112	0.087
-674.149	-200.000	0.065	0.340
-673.135	25.685	-0.075	-0.063
-672.120	-2.139	-0.216	-0.154
-671.105	11.617	-0.074	-0.057
-670.091	-117.501	-0.325	-0.060
-669.076	800.000	-0.109	-0.393
-668.062	-200.000	-0.041	-0.408
-667.047	-141.157	0.238	-0.025
-666.032	-40.638	-0.139	-0.073
-665.018	-136.066	0.124	0.015
-664.003	-131.301	0.224	-0.030
-662.989	197.937	-0.135	-0.209
-661.974	568.675	-0.056	-0.137
-660.959	-66.075	-0.323	0.131
-659.945	68.652	0.245	-0.254
-658.930	-59.226	-0.269	-0.117
-657.916	800.000	-0.018	0.062
-656.901	2.944	-0.187	-0.138
-655.886	264.137	0.155	-0.273
-654.872	113.627	-0.224	-0.276
-653.857	79.270	-0.057	-0.061
-652.843	800.000	0.041	-0.161
-651.828	-1.866	0.127	-0.091
-650.814	6.857	0.132	-0.100
-649.799	-166.822	0.170	0.007
-648.784	-75.752	-0.129	0.046
-647.770	-63.460	0.128	0.053
-646.755	-89.961	0.125	0.037
-645.741	120.840	-0.143	0.180
-644.726	-119.482	0.208	-0.037
-643.711	-97.429	-0.147	-0.039
-642.697	-200.000	-0.001	-0.200
-641.682	-93.744	-0.173	-0.048
-640.668	351.479	-0.180	0.362
-639.653	341.114	0.194	0.383
-638.638	-100.538	-0.507	0.127
-637.624	-114.160	-0.168	-0.033
-636.609	474.499	0.044	-0.100
-635.595	141.822	0.069	0.093
-634.580	-130.932	0.096	0.013
-633.565	19.123	-0.240	-0.195
-632.551	83.401	-0.118	0.131
-631.536	230.112	-0.083	0.137
-630.522	-200.000	0.021	0.289
-629.507	-106.218	-0.154	-0.035
-628.492	30.277	-0.224	-0.193
-627.478	19.869	0.258	-0.210
-626.463	13.814	0.314	0.247
-625.449	-19.191	0.343	0.216
-624.434	-101.107	-0.043	-0.011
-623.419	-41.400	-0.099	-0.051
-622.405	-64.234	0.136	-0.056
-621.390	568.175	-0.149	0.366
-620.376	-140.261	0.102	-0.011
-619.361	-63.041	-0.131	0.055
-618.346	655.244	-0.014	0.037
-617.332	3.035	-0.237	0.174
-616.317	168.358	0.038	0.054
-615.303	-67.515	0.077	-0.031
-614.288	-94.181	0.159	-0.044
-613.273	-180.887	0.238	0.005
-612.259	800.000	0.079	-0.251
-611.244	800.000	0.043	-0.181
-610.230	58.643	0.190	0.189
-609.215	-6.250	-0.293	-0.202
-608.201	800.000	-0.090	-0.270
-607.186	3.273	0.272	-0.200
-606.171	-10.008	-0.085	-0.057
-605.157	-143.058	0.214	0.021
-604.142	-200.000	-0.016	-0.086
-603.128	207.514	-0.139	0.219
-602.113	-200.000	0.049	0.436
-601.098	436.782	0.033	-0.073
-600.084	505.814	-0.133	0.311
-599.069	-10.920	-0.134	-0.089
-598.055	-200.000	0.020	-0.151
-597.040	-131.679	-0.334	0.044
-596.025	-166.224	-0.343	-0.015
-595.011	650.300	-0.066	0.171
-593.996	-200.000	-0.026	-0.143
-592.982	168.863	-0.087	0.125
-591.967	-200.000	0.050	-0.423
-590.952	-200.000	0.018	-0.294
-589.938	-200.000	-0.003	-0.116
-588.923	-94.728	0.166	-0.046
-587.909	64.263	0.024	-0.024
-586.894	54.873	0.144	0.141
-585.879	-0.456	0.197	-0.142
-584.865	-73.590	0.098	-0.036
-583.850	-200.000	0.010	-0.197
-582.836	90.675	-0.101	0.114
-581.821	507.005	0.091	-0.212
-580.806	344.585	0.029	0.058
-579.792	130.444	0.253	-0.328
-578.777	13.063	0.223	-0.174
-577.763	-200.000	-0.040	0.357
-576.748	-142.876	-0.069	0.007
-575.733	28.260	0.067	-0.057
-574.719	-200.000	-0.005	-0.091
-573.704	-63.446	-0.235	-0.098
-572.690	-50.149	-0.207	0.099
-571.675	-78.096	-0.200	0.070
-570.661	456.891	0.151	-0.339
-569.646	-50.844	0.227	0.108
-568.631	-109.303	0.146	-0.031
-567.617	-36.397	0.043	0.024
-566.602	-48.112	-0.133	-0.065
-565.588	492.287	0.056	0.129
-564.573	-104.509	-0.219	-0.051
-563.558	-98.278	-0.164	0.042
-562.544	704.771	-0.098	-0.262
-561.529	-97.619	0.159	-0.042
-560.515	45.158	-0.110	0.103
-559.500	-102.322	0.308	0.075
-558.485	-6.055	0.148	0.102
-557.471	-2.733	-0.375	0.265
-556.456	800.000	-0.096	-0.347
-555.442	326.032	-0.021	-0.040
-554.427	-74.341	-0.267	0.097
-553.412	-14.373	0.250	0.163
-552.398	-200.000	-0.018	0.263
-551.383	-109.667	-0.102	-0.022
-550.369	48.107	-0.177	-0.167
-549.354	-109.532	0.078	-0.017
-548.339	-42.318	0.117	-0.060
-547.325	-200.000	0.013	0.086
-546.310	51.587	-0.142	-0.137
-545.296	275.849	0.038	0.068
-544.281	-200.000	0.009	-0.361
-543.266	295.678	0.131	-0.241
-542.252	306.362	-0.200	0.375
-541.237	498.419	-0.069	-0.161
-540.223	58.124	-0.256	-0.253
-539.208	236.365	-0.116	-0.194
-538.193	-200.000	0.019	0.117
-537.179	-60.989	0.258	-0.110
-536.164	632.883	0.157	-0.401
-535.150	101.649	0.137	-0.162
-534.135	111.803	0.186	0.227
-533.121	-132.427	-0.272	-0.035
-532.106	-200.000	0.056	0.428
-531.091	-107.667	0.185	-0.041
-530.077	13.571	-0.040	-0.032
-529.062	-49.433	0.187	-0.090
-528.048	-140.413	-0.276	0.029
-527.033	122.796	-0.198	0.249
-526.018	5.813	0.178	-0.133
-525.004	-200.000	0.090	0.430
-523.989	26.425	-0.107	-0.090
-522.975	-95.849	0.124	0.033
-521.960	-200.000	0.006	-0.054
-520.945	-200.000	-0.031	-0.224
-519.931	166.986	0.113	0.162
-518.916	800.000	-0.064	-0.211
-517.902	122.302	0.126	0.159
-516.887	33.433	0.265	0.232
-515.872	-200.000	-0.010	-0.118
-514.858	800.000	0.081	0.237
-513.843	-107.459	-0.064	0.014
-512.829	-200.000	0.018	0.120
-511.814	-39.308	0.185	-0.098
-510.799	-85.652	-0.197	0.062
-509.785	-48.279	-0.131	0.064
-508.770	-200.000	0.024	-0.241
-507.756	-200.000	-0.020	0.086
-506.741	70.385	0.050	-0.052
-505.726	-112.338	-0.198	0.040
-504.712	-150.315	-0.018	0.001
-503.697	-22.890	-0.224	-0.136
-502.683	530.826	0.104	-0.248
-501.668	-163.375	0.277	0.013
-500.653	-23.628	-0.156	0.094
-499.639	-7.287	0.229	-0.156
-498.624	-117.534	0.373	-0.068
-497.610	96.342	-0.105	-0.121
-496.595	-8.437	-0.186	0.126
-495.581	-1.942	0.415	0.294
-494.566	800.000	-0.012	0.051
-493.551	-200.000	-0.026	-0.137
-492.537	107.596	-0.138	-0.165
-491.522	-26.092	-0.074	-0.044
-490.508	-200.000	0.007	0.043
-489.493	-14.361	0.051	0.033
-488.478	-107.989	0.275	-0.060
-487.464	569.345	-0.047	0.116
-486.449	15.965	0.123	-0.097
-485.435	117.070	-0.166	0.205
-484.420	179.073	0.226	0.332
-483.405	-200.000	-0.004	-0.142
-482.391	800.000	0.080	-0.240
-481.376	-29.276	-0.093	-0.054
-480.362	-23.961	0.192	-0.115
-479.347	-200.000	-0.016	0.117
-478.332	-200.000	0.037	-0.188
-477.318	800.000	-0.125	-0.418
-476.303	-102.319	0.248	-0.060
-475.289	-113.012	-0.426	-0.085
-474.274	-58.678	-0.385	0.168
-473.259	55.214	-0.096	0.093
-472.245	-102.279	0.322	-0.078
-471.230	89.539	0.154	-0.173
-470.216	53.984	-0.218	-0.211
-469.201	-23.042	-0.424	0.257
-468.186	597.016	0.061	0.153
-467.172	-200.000	0.021	0.177
-466.157	35.544	0.089	-0.079
-465.143	-200.000	-0.001	0.288
-464.128	800.000	0.087	0.259
-463.113	-93.066	-0.176	-0.049
-462.099	156.263	0.111	-0.154
-461.084	-119.044	-0.109	0.019
-460.070	-55.971	0.226	-0.101
-459.055	20.858	0.194	-0.158
-458.040	-11.741	0.210	-0.138
-457.026	102.239	0.121	-0.142
-456.011	-200.000	-0.010	0.105
-454.997	-62.614	-0.293	0.122
-453.982	-24.979	0.209	0.125
-452.968	290.632	-0.124	0.227
-451.953	-30.885	-0.068	-0.039
-450.938	-12.984	-0.127	0.083
-449.924	-172.147	-0.332	0.011
-448.909	-68.623	-0.208	-0.081
-447.895	-114.979	0.153	-0.029
-446.880	-37.065	-0.299	-0.161
-445.865	-200.000	0.005	0.124
-444.851	-98.835	-0.118	0.030
-443.836	-15.978	-0.164	-0.105
-442.822	-131.926	-0.174	0.023
-441.807	84.442	0.230	-0.253
-440.792	-28.126	0.400	-0.232
-439.778	165.875	0.061	0.086
-438.763	110.085	0.080	0.097
-437.749	-200.000	-0.027	0.334
-436.734	800.000	-0.108	-0.365
-435.719	105.418	-0.224	-0.265
-434.705	-200.000	-0.019	-0.201
-433.690	237.629	-0.054	-0.090
-432.676	235.678	0.149	0.247
-431.661	643.577	0.058	0.149
-430.646	144.099	-0.121	-0.163
-429.632	322.478	0.027	-0.052
-428.617	-59.333	0.206	0.089
-427.603	-174.297	0.083	0.002
-426.588	-104.177	0.066	0.015
-425.573	-98.388	-0.141	-0.036
-424.559	185.953	0.034	0.051
-423.544	-200.000	0.044	0.221
-422.530	265.863	0.045	-0.080
-421.515	128.632	0.068	-0.088
-420.500	-127.850	0.142	0.021
-419.486	56.778	-0.065	0.064
-418.471	-200.000	-0.043	-0.206
-417.457	90.014	0.258	0.289
-416.442	48.739	0.239	-0.225
-415.428	-3.118	-0.390	0.273
-414.413	45.166	0.041	0.038
-413.398	-200.000	-0.036	-0.494
-412.384	246.426	-0.031	0.053
-411.369	800.000	0.040	-0.112
-410.355	-20.072	0.055	0.034
-409.340	800.000	-0.064	-0.201
-408.325	87.358	-0.125	-0.139
-407.311	-200.000	0.043	0.000
-406.296	-79.616	0.273	0.092
-405.282	-119.520	0.341	-0.059
-404.267	-145.905	0.308	0.027
-403.252	29.210	-0.169	0.144
-402.238	90.651	0.162	0.182
-401.223	-52.100	-0.010	0.005
-400.209	-83.351	0.279	-0.090
-399.194	43.753	-0.072	0.066
-398.179	19.326	0.101	0.082
-397.165	-69.712	-0.212	0.081
-396.150	-66.226	0.174	-0.070
-395.136	19.911	-0.234	-0.189
-394.121	31.951	0.329	0.284
-393.106	-62.019	-0.338	-0.142
-392.092	-53.152	0.298	0.137
-391.077	59.525	0.231	0.229
-390.063	-21.445	0.190	0.116
-389.048	-15.892	0.061	0.039
-388.033	-58.000	0.143	0.063
-387.019	800.000	0.063	-0.230
-386.004	-113.153	-0.267	-0.053
-384.990	590.508	0.054	0.135
-383.975	10.936	-0.093	0.071
-382.960	-86.389	-0.339	-0.104
-381.946	-169.598	0.174	0.006
-380.931	800.000	-0.093	-0.372
-379.917	403.242	-0.045	-0.096
-378.902	800.000	-0.138	0.475
-377.888	553.129	-0.141	0.339
-376.873	23.586	0.165	0.136
-375.858	800.000	-0.078	0.281
-374.844	-46.152	0.051	-0.025
-373.829	99.742	0.240	0.279
-372.815	-200.000	0.013	-0.219
-371.800	-200.000	0.015	-0.175
-370.785	490.941	-0.020	0.045
-369.771	-12.186	0.305	-0.200
-368.756	-134.874	-0.308	-0.037
-367.742	800.000	0.071	-0.210
-366.727	-22.712	0.296	-0.179
-365.712	-200.000	0.035	0.286
-364.698	-66.200	-0.154	0.061
-363.683	52.126	-0.083	-0.079
-362.669	124.168	-0.158	-0.199
-361.654	28.973	-0.274	-0.233
-360.639	130.609	-0.116	-0.149
-359.625	800.000	0.079	-0.241
-358.610	-122.657	0.067	-0.011
-357.596	-111.588	-0.125	0.025
-356.581	137.741	-0.145	0.190
-355.566	65.654	-0.117	0.119
-354.552	-153.216	0.319	-0.022
-353.537	-37.451	-0.220	-0.117
-352.523	-200.000	0.003	0.243
-351.508	419.436	-0.090	0.193
-350.493	374.803	0.115	-0.235
-349.479	108.252	0.109	0.131
-348.464	208.287	0.107	0.168
-347.450	-200.000	-0.036	-0.235
-346.435	214.516	-0.093	-0.147
-345.420	800.000	-0.048	0.202
-344.406	-28.484	-0.119	-0.069
-343.391	-164.673	-0.436	0.020
-342.377	90.367	-0.333	0.373
-341.362	800.000	-0.037	-0.132
-340.348	-135.355	-0.401	-0.048
-339.333	-155.268	0.403	0.026
-338.318	-88.524	0.363	0.108
-337.304	15.932	-0.171	-0.135
-336.289	-87.884	-0.057	-0.017
-335.275	130.617	-0.129	-0.166
-334.260	336.436	0.130	-0.252
-333.245	-22.240	0.234	0.142
-332.231	234.003	0.057	-0.093
-331.216	230.050	0.230	0.376
-330.202	17.892	0.046	0.036
-329.187	523.539	-0.101	-0.237
-328.172	-84.899	0.025	-0.008
-327.158	421.746	0.119	-0.255
-326.143	303.662	-0.141	0.262
-325.129	-103.048	-0.121	0.029
-324.114	-152.800	-0.298	-0.021
-323.099	-15.550	-0.164	0.105
-322.085	598.638	0.098	-0.244
-321.070	-143.918	-0.074	0.007
-320.056	22.240	-0.106	-0.086
-319.041	41.186	-0.249	-0.225
-318.026	-177.923	-0.207	0.005
-317.012	-23.541	-0.336	0.201
-315.997	-173.320	-0.179	-0.005
-314.983	-200.000	-0.007	0.042
-313.968	74.114	0.140	-0.147
-312.953	-98.587	0.074	0.019
-311.939	-70.502	0.209	-0.079
-310.924	-8.922	-0.375	0.251
-309.910	-154.875	0.114	-0.008
-308.895	20.573	0.220	0.178
-307.880	-124.070	-0.315	0.049
-306.866	-164.192	-0.112	0.005
-305.851	655.595	-0.031	-0.079
-304.837	800.000	0.052	-0.220
-303.822	-10.544	-0.301	0.199
-302.807	-113.137	0.387	-0.076
-301.793	-101.964	0.180	0.044
-300.778	-200.000	0.017	0.112
-299.764	56.001	-0.180	0.174
-298.749	183.973	-0.176	0.261
-297.735	-200.000	0.017	-0.168
-296.720	-122.533	-0.086	-0.014
-295.705	-161.988	-0.292	0.015
-294.691	-200.000	-0.019	-0.125
-293.676	206.090	0.030	-0.046
-292.662	800.000	0.049	-0.138
-291.647	800.000	0.036	0.106
-290.632	-154.297	-0.191	0.013
-289.618	89.956	0.001	-0.001
-288.603	-70.995	0.342	-0.128
-287.589	156.530	-0.217	0.299
-286.574	207.925	0.076	-0.119
-285.559	255.292	0.246	-0.420
-284.545	95.729	-0.111	-0.127
-283.530	363.506	-0.128	0.256
-282.516	357.338	-0.037	0.073
-281.501	45.864	0.106	0.098
-280.486	-192.560	0.076	0.001
-279.472	761.489	-0.084	-0.228
-278.457	24.165	0.120	0.099
-277.443	50.797	-0.070	0.067
-276.428	41.823	0.232	-0.210
-275.413	162.264	-0.195	0.272
-274.399	42.608	-0.234	-0.213
-273.384	-200.000	-0.011	-0.184
-272.370	105.544	-0.116	-0.137
-271.355	34.656	-0.054	-0.047
-270.340	642.062	0.085	-0.217
-269.326	-145.992	0.388	-0.034
-268.311	-148.878	-0.093	0.008
-267.297	72.328	-0.043	-0.045
-266.282	-200.000	0.056	-0.295
-265.267	658.103	0.065	0.167
-264.253	-200.000	-0.001	0.039
-263.238	273.237	0.050	-0.087
-262.224	800.000	-0.072	-0.206
-261.209	239.506	0.045	0.074
-260.195	-118.903	0.156	-0.027
-259.180	148.429	-0.133	0.179
-258.165	713.537	-0.121	0.319
-257.151	341.439	0.056	-0.110
-256.136	-37.834	-0.206	0.109
-255.122	1.208	0.099	-0.071
-254.107	-45.710	-0.152	-0.075
-253.092	-200.000	0.035	0.176
-252.078	80.585	0.027	-0.029
-251.063	7.375	0.271	-0.202
-250.049	-76.767	-0.323	0.113
-249.034	-129.011	-0.208	-0.029
-248.019	98.240	-0.033	0.038
-247.005	313.218	-0.201	0.377
-245.990	800.000	0.010	0.042
-244.976	800.000	0.036	-0.108
-243.961	-71.169	0.174	-0.065
-242.946	59.198	-0.361	0.355
-241.932	302.317	-0.092	0.169
-240.917	-51.860	-0.222	-0.103
-239.903	581.548	-0.043	0.106
-238.888	1.914	-0.247	0.177
-237.873	169.406	0.185	-0.264
-236.859	5.638	0.175	-0.129
-235.844	777.134	-0.125	0.339
-234.830	159.079	0.162	-0.225
-233.815	62.949	-0.143	-0.142
-232.800	18.554	-0.002	-0.001
-231.786	-200.000	0.066	0.297
-230.771	385.565	0.095	-0.196
-229.757	-88.576	-0.168	0.050
-228.742	36.656	0.431	0.379
-227.727	-84.614	0.121	-0.038
-226.713	110.990	-0.049	-0.058
-225.698	-1.208	-0.133	-0.094
-224.684	-172.528	-0.416	0.013
-223.669	-95.473	0.485	0.130
-222.655	-200.000	0.011	-0.081
-221.640	-105.177	0.270	-0.061
-220.625	79.053	0.054	0.058
-219.611	-50.578	0.312	0.147
-218.596	-66.198	-0.206	-0.082
-217.582	533.985	-0.027	-0.065
-216.567	-200.000	-0.020	0.161
-215.552	-15.559	0.277	0.176
-214.538	77.965	0.214	0.228
-213.523	-52.010	-0.099	0.046
-212.509	-178.278	0.377	0.009
-211.494	-78.394	-0.283	-0.097
-210.479	501.302	-0.082	-0.189
-209.465	208.480	-0.173	-0.269
-208.450	-200.000	-0.038	0.183
-207.436	-162.083	-0.030	-0.002
-206.421	418.769	-0.086	-0.184
-205.406	800.000	0.120	0.334
-204.392	-83.813	-0.248	0.079
-203.377	-133.343	0.027	0.003
-202.363	41.314	-0.087	-0.078
-201.348	-200.000	-0.006	0.046
-200.333	237.384	0.127	-0.209
-199.319	-82.106	0.181	0.059
-198.304	-200.000	-0.009	0.108
-197.290	800.000	0.148	0.447
-196.275	-175.728	0.068	0.002
-195.260	-79.418	0.076	-0.026
-194.246	-200.000	-0.064	0.327
-193.231	-76.094	-0.039	-0.014
-192.217	314.403	0.118	-0.220
-191.202	-114.598	0.285	0.054
-190.187	800.000	0.038	-0.138
-189.173	-147.585	0.087	-0.007
-188.158	-121.877	-0.223	-0.037
-187.144	-76.347	0.268	0.094
-186.129	4.560	-0.220	-0.160
-185.114	727.181	-0.034	-0.091
-184.100	228.032	-0.145	-0.235
-183.085	-200.000	-0.018	-0.227
-182.071	110.221	0.255	-0.304
-181.056	800.000	0.084	-0.305
-180.042	-200.000	0.193	0.001
-179.027	142.773	-0.076	-0.101
-178.012	72.851	0.080	-0.083
-176.998	-200.000	-0.001	0.067
-175.983	-22.802	0.260	0.156
-174.969	31.875	0.057	-0.049
-173.954	-56.094	-0.093	0.041
-172.939	-59.721	0.294	-0.125
-171.925	214.017	-0.069	0.109
-170.910	-145.771	0.445	0.039
-169.896	-131.469	-0.034	0.005
-168.881	-130.826	-0.545	-0.073
-167.866	-84.840	0.196	-0.061
-166.852	-200.000	0.011	-0.106
-165.837	-200.000	0.028	0.526
-164.823	-38.089	0.305	0.161
-163.808	800.000	-0.033	-0.110
-162.793	-81.320	-0.140	-0.046
-161.779	-191.833	-0.203	0.002
-160.764	-200.000	-0.026	0.142
-159.750	57.494	0.380	0.369
-158.735	800.000	-0.046	0.133
-157.720	2.127	-0.140	0.100
-156.706	73.562	0.079	-0.082
-155.691	-63.670	-0.164	0.067
-154.677	-200.000	0.020	0.146
-153.662	78.524	-0.161	0.171
-152.647	-6.946	-0.089	-0.060
-151.633	-169.679	0.176	-0.006
-150.618	78.183	-0.159	0.168
-149.604	-16.969	-0.289	-0.181
-148.589	67.942	0.140	0.142
-147.574	-200.000	0.016	-0.261
-146.560	-56.718	0.123	0.054
-145.545	-139.629	-0.245	-0.026
-144.531	800.000	0.093	0.305
-143.516	-132.668	-0.109	-0.014
-142.502	80.485	0.095	-0.102
-141.487	-56.416	-0.118	-0.052
-140.472	222.892	-0.231	0.369
-139.458	-153.856	-0.194	-0.013
-138.443	217.430	-0.051	-0.080
-137.429	-200.000	-0.024	-0.320
-136.414	114.728	0.134	0.162
-135.399	341.123	-0.137	-0.265
-134.385	528.084	-0.051	-0.120
-133.370	73.145	-0.037	-0.039
-132.356	-140.832	-0.129	-0.013
-131.341	143.761	-0.084	-0.111
-130.326	-200.000	0.021	-0.301
-129.312	-76.029	-0.295	-0.104
-128.297	-89.004	0.222	0.065
-127.283	-200.000	0.032	0.316
-126.268	644.941	-0.046	-0.116
-125.253	800.000	0.041	-0.148
-124.239	-48.607	0.207	0.099
-123.224	111.173	0.101	-0.120
-122.210	-200.000	0.001	-0.370
