DTS Sentinel unit serial number:	SN413079Multiplexer serial number:	ORYXHardware model number:	OX4-SRSoftware version number:	ORYX F/W v4.00 Oryx Data Collector v3.7.2.0data status	okinstallation	princeton_trtdifferential loss correction	single-endedforward channel	channel 1reverse channel	N/Adate	2019/09/18time	11:02:35forward acquisition time	60.00reverse acquisition time	0.00gamma	496.2192k internal	0.2326k external	0.2326temperature offset calibration	0.9976default loss term (dB/km)	0.3790temperature slope calibration	1.0000multiplexer offset coefficient	1.0000multiplexer slope coefficient	1.0000fibre end	0.00T internal ref (°C)	29.36T ext. ref 1 (°C)	0.41T ext. ref 2 (°C)	25.81length (m)	temperature (°C)	Stokes	anti-Stokes-747.200	-104.533	0.137	-0.032
-746.185	47.119	0.020	-0.019
-745.171	-67.933	0.098	-0.038
-744.156	-155.624	-0.182	0.012
-743.142	-45.121	0.274	0.138
-742.127	800.000	-0.171	0.482
-741.112	259.610	-0.138	0.240
-740.098	-84.196	-0.081	0.026
-739.083	-7.841	0.256	-0.174
-738.069	-200.000	-0.030	0.250
-737.054	26.895	-0.105	-0.089
-736.039	-7.242	-0.365	-0.249
-735.025	-8.322	0.118	0.080
-734.010	-106.766	-0.444	-0.099
-732.996	-37.869	-0.129	0.069
-731.981	-30.041	-0.168	-0.096
-730.966	55.462	0.120	0.117
-729.952	-200.000	-0.036	-0.277
-728.937	-28.758	0.103	0.060
-727.923	123.789	-0.217	-0.275
-726.908	-76.046	-0.077	-0.027
-725.894	186.607	0.207	-0.311
-724.879	363.559	0.050	0.102
-723.864	-156.093	-0.357	0.023
-722.850	800.000	-0.124	-0.366
-721.835	32.516	-0.131	-0.114
-720.821	-43.503	0.291	0.148
-719.806	326.849	-0.055	-0.105
-718.791	-200.000	-0.057	-0.275
-717.777	100.365	-0.037	0.043
-716.762	800.000	-0.124	-0.450
-715.748	-200.000	-0.011	0.085
-714.733	289.012	-0.134	-0.245
-713.718	508.400	-0.105	-0.246
-712.704	800.000	-0.037	-0.109
-711.689	281.672	-0.158	-0.284
-710.675	-46.808	-0.260	-0.128
-709.660	-0.251	0.281	-0.201
-708.645	-98.879	-0.168	0.043
-707.631	-200.000	-0.000	0.007
-706.616	-25.724	0.247	0.147
-705.602	131.253	0.090	-0.116
-704.587	36.596	-0.341	-0.304
-703.572	174.230	-0.185	0.270
-702.558	15.741	0.295	-0.234
-701.543	-167.730	0.422	0.017
-700.529	-24.004	0.104	0.063
-699.514	-137.801	-0.207	0.023
-698.499	-200.000	-0.001	0.083
-697.485	105.447	0.069	-0.082
-696.470	318.820	0.103	-0.197
-695.456	-52.665	-0.186	-0.086
-694.441	87.489	-0.216	-0.240
-693.426	-16.810	-0.037	0.023
-692.412	484.449	-0.031	0.072
-691.397	524.184	-0.058	-0.138
-690.383	800.000	-0.090	-0.324
-689.368	-160.643	-0.225	0.012
-688.354	596.236	-0.057	0.143
-687.339	-146.637	-0.295	0.026
-686.324	141.502	-0.053	0.071
-685.310	-200.000	0.020	-0.242
-684.295	-97.278	0.049	0.013
-683.281	-200.000	-0.030	-0.466
-682.266	800.000	-0.038	-0.143
-681.251	40.793	-0.082	0.074
-680.237	127.321	0.143	-0.183
-679.222	-200.000	0.071	-0.337
-678.208	-200.000	0.004	0.139
-677.193	800.000	-0.023	-0.069
-676.178	-71.581	0.421	-0.158
-675.164	275.036	-0.167	0.298
-674.149	-86.962	-0.410	0.126
-673.135	-131.459	-0.059	-0.008
-672.120	6.666	0.056	0.042
-671.105	-12.435	0.035	0.023
-670.091	-20.128	-0.277	-0.172
-669.076	-62.051	0.139	0.059
-668.062	-123.704	0.274	0.044
-667.047	800.000	-0.072	0.256
-666.032	130.822	0.134	0.173
-665.018	37.626	-0.023	-0.020
-664.003	-113.536	-0.166	-0.033
-662.989	58.305	0.179	-0.176
-661.974	-23.150	0.266	-0.161
-660.959	60.427	-0.177	0.176
-659.945	-200.000	0.025	-0.193
-658.930	110.495	-0.285	0.344
-657.916	106.491	0.153	-0.183
-656.901	-82.249	-0.484	-0.158
-655.886	562.253	-0.125	-0.304
-654.872	73.873	0.044	-0.046
-653.857	166.176	0.144	0.205
-652.843	467.256	-0.068	-0.153
-651.828	615.885	-0.073	-0.185
-650.814	4.476	0.168	-0.124
-649.799	-69.946	-0.203	0.078
-648.784	41.415	0.137	-0.125
-647.770	-200.000	0.009	-0.049
-646.755	566.852	0.047	-0.115
-645.741	172.623	0.080	0.116
-644.726	-49.860	0.256	-0.122
-643.711	-117.693	0.240	0.043
-642.697	800.000	-0.076	0.221
-641.682	44.999	-0.066	-0.061
-640.668	-8.988	-0.238	0.160
-639.653	202.388	-0.132	-0.204
-638.638	19.910	0.274	0.222
-637.624	461.628	-0.102	-0.228
-636.609	9.810	0.235	-0.179
-635.595	76.994	-0.044	-0.047
-634.580	48.262	-0.104	-0.098
-633.565	-164.732	-0.364	0.016
-632.551	577.236	0.062	-0.153
-631.536	-92.160	0.132	0.037
-630.522	800.000	0.035	-0.109
-629.507	177.394	0.030	0.043
-628.492	800.000	-0.071	0.212
-627.478	337.594	-0.104	0.203
-626.463	31.278	0.130	-0.112
-625.449	694.469	0.144	0.379
-624.434	-131.188	0.133	0.018
-623.419	-200.000	0.016	0.076
-622.405	-200.000	-0.007	-0.329
-621.390	389.247	0.093	0.193
-620.376	800.000	0.082	0.275
-619.361	-200.000	-0.011	0.135
-618.346	140.271	-0.033	-0.044
-617.332	800.000	-0.069	-0.196
-616.317	167.356	-0.087	0.124
-615.303	-200.000	-0.009	0.206
-614.288	207.995	0.092	0.144
-613.273	401.475	0.040	0.084
-612.259	83.323	-0.150	-0.164
-611.244	-94.802	-0.181	0.049
-610.230	-35.229	-0.113	0.062
-609.215	116.947	-0.134	0.165
-608.201	314.420	0.046	-0.086
-607.186	91.276	0.079	-0.089
-606.171	800.000	0.049	0.204
-605.157	-98.487	0.150	0.039
-604.142	-49.047	-0.159	-0.076
-603.128	-200.000	0.049	-0.225
-602.113	-139.236	0.046	0.005
-601.098	158.863	-0.210	-0.293
-600.084	278.165	0.082	0.147
-599.069	-104.688	-0.180	0.042
-598.055	-123.143	0.183	-0.029
-597.040	61.421	-0.215	-0.214
-596.025	800.000	0.011	0.035
-595.011	-200.000	-0.061	0.373
-593.996	-94.007	0.075	0.021
-592.982	698.562	-0.086	0.228
-591.967	9.680	-0.062	-0.047
-590.952	545.070	-0.094	0.226
-589.938	-35.114	0.157	-0.086
-588.923	-200.000	-0.041	0.255
-587.909	743.975	-0.022	0.058
-586.894	-85.720	-0.221	-0.069
-585.879	-18.869	-0.092	0.057
-584.865	-74.252	0.349	0.126
-583.850	800.000	0.043	0.170
-582.836	187.579	0.052	0.078
-581.821	-39.778	0.055	-0.029
-580.806	-200.000	0.044	-0.248
-579.792	-3.064	0.182	0.128
-578.777	-73.928	0.085	0.031
-577.763	-121.756	0.098	0.016
-576.748	361.808	-0.070	0.140
-575.733	-155.864	-0.269	-0.017
-574.719	-4.497	0.235	0.163
-573.704	311.738	0.188	-0.353
-572.690	-61.003	-0.140	-0.059
-571.675	800.000	-0.045	0.136
-570.661	-27.609	-0.011	-0.007
-569.646	-200.000	-0.077	0.347
-568.631	43.279	0.052	-0.047
-567.617	800.000	0.068	-0.245
-566.602	800.000	0.062	0.175
-565.588	-69.040	0.162	-0.063
-564.573	51.922	0.130	0.124
-563.558	-88.297	0.199	-0.059
-562.544	-200.000	-0.041	-0.183
-561.529	-19.692	-0.276	-0.171
-560.515	-200.000	0.013	-0.106
-559.500	-50.347	-0.275	-0.130
-558.485	-80.041	0.202	0.068
-557.471	499.195	-0.143	0.330
-556.456	245.479	-0.177	0.298
-555.442	800.000	-0.075	0.298
-554.427	8.127	-0.345	-0.259
-553.412	92.340	-0.145	0.163
-552.398	79.573	0.069	-0.074
-551.383	-25.367	0.059	-0.035
-550.369	445.728	-0.104	0.229
-549.354	261.778	-0.068	-0.119
-548.339	113.752	0.076	-0.093
-547.325	198.902	0.068	0.104
-546.310	-32.795	-0.142	0.079
-545.296	-161.184	-0.209	0.011
-544.281	329.133	0.044	-0.084
-543.266	-92.909	-0.209	-0.058
-542.252	-157.497	0.240	-0.014
-541.237	800.000	-0.059	-0.191
-540.223	-93.711	0.305	0.084
-539.208	333.528	-0.135	-0.262
-538.193	-42.560	-0.221	-0.113
-537.179	458.753	-0.070	-0.156
-536.164	-1.056	-0.089	0.063
-535.150	-80.603	0.205	0.068
-534.135	-83.694	0.286	-0.091
-533.121	-124.953	0.118	0.018
-532.106	-117.056	-0.175	-0.032
-531.091	-200.000	0.008	0.126
-530.077	-127.619	0.215	-0.031
-529.062	-23.261	-0.232	0.140
-528.048	12.415	0.252	0.195
-527.033	800.000	-0.058	-0.160
-526.018	-200.000	0.067	0.386
-525.004	223.854	-0.125	0.203
-523.989	63.065	0.134	-0.134
-522.975	656.092	0.054	-0.139
-521.960	-200.000	-0.031	-0.236
-520.945	-35.292	-0.048	-0.026
-519.931	323.571	-0.051	-0.096
-518.916	201.099	0.218	0.335
-517.902	-52.827	0.034	-0.015
-516.887	-135.259	-0.443	-0.053
-515.872	-177.317	-0.096	-0.002
-514.858	-200.000	0.017	-0.332
-513.843	105.470	0.072	0.085
-512.829	48.450	0.149	-0.139
-511.814	-200.000	0.002	0.119
-510.799	147.481	-0.113	-0.152
-509.785	-101.816	0.199	-0.048
-508.770	-174.696	-0.253	0.007
-507.756	-152.817	-0.182	0.013
-506.741	45.231	0.131	0.121
-505.726	-0.593	0.096	0.068
-504.712	800.000	0.031	0.115
-503.697	-200.000	-0.005	0.039
-502.683	466.817	0.177	-0.395
-501.668	50.672	0.032	-0.030
-500.653	800.000	-0.090	0.283
-499.639	-200.000	0.026	0.133
-498.624	-200.000	0.008	0.236
-497.610	-133.021	0.067	0.008
-496.595	145.494	-0.215	-0.287
-495.581	-200.000	0.004	-0.187
-494.566	-1.576	-0.224	-0.158
-493.551	509.215	0.120	0.279
-492.537	118.482	0.096	-0.119
-491.522	-173.026	-0.231	0.007
-490.508	-200.000	-0.033	-0.254
-489.493	-113.469	0.250	-0.049
-488.478	-170.949	-0.208	-0.007
-487.464	-148.613	-0.290	0.024
-486.449	-10.300	-0.198	0.131
-485.435	-200.000	0.024	-0.174
-484.420	-112.433	-0.112	0.022
-483.405	19.115	0.147	-0.118
-482.391	679.948	-0.111	-0.289
-481.376	162.012	0.069	0.096
-480.362	-169.169	0.310	0.011
-479.347	-105.614	-0.361	-0.082
-478.332	81.090	-0.159	0.171
-477.318	443.655	-0.059	0.130
-476.303	58.371	0.191	-0.187
-475.289	-19.089	-0.081	0.050
-474.274	-47.024	-0.108	-0.053
-473.259	329.895	0.057	-0.109
-472.245	-175.895	0.222	-0.006
-471.230	102.364	-0.251	-0.293
-470.216	800.000	0.104	-0.453
-469.201	800.000	0.059	-0.202
-468.186	-8.020	0.066	0.044
-467.172	-200.000	0.039	-0.175
-466.157	64.111	0.113	-0.114
-465.143	526.476	-0.097	-0.229
-464.128	-37.990	0.255	-0.135
-463.113	800.000	0.069	0.197
-462.099	-104.549	-0.274	-0.063
-461.084	-164.831	-0.089	-0.004
-460.070	-200.000	0.043	-0.297
-459.055	-105.990	-0.352	-0.079
-458.040	424.572	-0.096	0.205
-457.026	-154.709	0.220	0.015
-456.011	29.064	-0.138	0.116
-454.997	800.000	-0.229	-0.702
-453.982	594.948	0.051	-0.127
-452.968	-6.155	-0.186	-0.127
-451.953	-200.000	-0.013	0.065
-450.938	800.000	0.071	-0.243
-449.924	-200.000	0.064	-0.353
-448.909	172.161	0.074	-0.106
-447.895	7.513	-0.175	0.130
-446.880	-82.427	0.181	-0.059
-445.865	93.626	0.237	-0.267
-444.851	-168.391	-0.174	-0.007
-443.836	291.406	-0.085	0.154
-442.822	188.096	-0.234	0.349
-441.807	-89.707	-0.158	-0.046
-440.792	563.003	-0.088	0.213
-439.778	226.588	-0.136	0.220
-438.763	-200.000	0.034	0.472
-437.749	392.289	-0.071	0.147
-436.734	-200.000	-0.016	0.148
-435.719	104.657	-0.140	-0.165
-434.705	-60.488	0.198	0.084
-433.690	727.600	0.025	-0.067
-432.676	-138.420	0.308	-0.034
-431.661	-38.148	0.320	0.169
-430.646	-76.295	-0.406	-0.142
-429.632	800.000	-0.058	0.217
-428.617	800.000	0.110	-0.303
-427.603	-200.000	0.015	0.206
-426.588	83.430	-0.053	0.058
-425.573	-134.723	0.266	-0.032
-424.559	173.970	0.153	-0.221
-423.544	472.530	0.120	0.269
-422.530	262.345	0.066	0.113
-421.515	800.000	0.042	-0.182
-420.500	437.051	0.102	0.221
-419.486	-32.575	-0.143	-0.079
-418.471	61.117	0.127	0.126
-417.457	-200.000	0.008	-0.210
-416.442	-128.799	0.370	-0.052
-415.428	78.970	-0.174	0.185
-414.413	-157.893	0.282	-0.017
-413.398	-66.054	-0.304	0.121
-412.384	44.211	0.112	0.103
-411.369	-200.000	-0.051	-0.250
-410.355	70.773	0.099	-0.102
-409.340	-200.000	-0.076	-0.406
-408.325	-180.690	-0.430	0.009
-407.311	-30.920	-0.133	0.075
-406.296	681.199	-0.064	0.167
-405.282	-103.724	0.125	-0.029
-404.267	126.158	-0.086	0.108
-403.252	-200.000	0.002	-0.048
-402.238	-25.671	-0.110	0.064
-401.223	-42.481	-0.107	0.054
-400.209	4.504	-0.150	0.109
-399.194	2.081	0.216	0.155
-398.179	800.000	-0.042	-0.173
-397.165	-2.158	-0.054	-0.038
-396.150	-196.205	0.150	-0.001
-395.136	-33.246	0.093	0.051
-394.121	-200.000	0.013	-0.189
-393.106	-112.351	-0.128	0.026
-392.092	800.000	-0.080	0.296
-391.077	-74.792	-0.272	-0.097
-390.063	-129.753	-0.298	-0.041
-389.048	45.569	0.220	0.202
-388.033	51.883	-0.190	0.180
-387.019	-200.000	-0.002	0.443
-386.004	151.213	-0.109	0.147
-384.990	-66.249	0.176	-0.070
-383.975	-200.000	-0.003	-0.084
-382.960	-120.810	-0.197	-0.033
-381.946	-98.204	-0.371	-0.095
-380.931	110.715	0.214	-0.256
-379.917	800.000	-0.067	-0.210
-378.902	-19.830	0.093	0.057
-377.888	650.709	0.025	0.064
-376.873	-200.000	-0.032	0.387
-375.858	547.942	-0.035	0.083
-374.844	-42.571	-0.299	0.151
-373.829	-88.649	0.366	0.108
-372.815	-21.884	0.444	-0.268
-371.800	-28.832	-0.200	-0.114
-370.785	-103.128	0.339	-0.080
-369.771	-155.605	0.392	-0.025
-368.756	-189.621	-0.198	0.002
-367.742	-200.000	-0.043	-0.191
-366.727	-166.054	0.257	0.011
-365.712	217.475	-0.091	-0.145
-364.698	-66.795	0.251	-0.099
-363.683	314.694	-0.171	-0.320
-362.669	-123.934	0.169	0.026
-361.654	800.000	-0.031	-0.114
-360.639	82.373	-0.101	0.109
-359.625	-7.529	0.305	0.205
-358.610	-86.261	-0.439	-0.134
-357.596	-83.661	-0.146	0.046
-356.581	142.536	0.131	-0.172
-355.566	-40.886	-0.201	-0.103
-354.552	316.305	0.120	0.225
-353.537	125.333	-0.099	-0.124
-352.523	139.119	-0.055	0.072
-351.508	-60.232	0.093	0.039
-350.493	-200.000	0.086	0.538
-349.479	-200.000	0.004	0.110
-348.464	-200.000	-0.046	0.207
-347.450	-71.953	0.209	-0.077
-346.435	800.000	-0.032	-0.122
-345.420	-126.960	0.376	-0.055
-344.406	800.000	-0.028	-0.089
-343.391	72.490	0.221	0.229
-342.377	-62.513	0.128	-0.053
-341.362	46.434	-0.079	0.073
-340.348	77.576	-0.128	0.136
-339.333	87.617	0.065	0.071
-338.318	-200.000	0.033	-0.247
-337.304	-44.472	-0.467	-0.232
-336.289	-120.778	-0.131	0.022
-335.275	-200.000	0.026	-0.138
-334.260	-128.069	-0.272	0.039
-333.245	-88.326	-0.206	0.061
-332.231	-200.000	0.011	-0.217
-331.216	10.452	0.081	-0.061
-330.202	-26.080	0.185	-0.108
-329.187	-27.520	-0.092	-0.053
-328.172	-140.481	0.240	-0.025
-327.158	800.000	-0.073	0.231
-326.143	-200.000	-0.081	0.372
-325.129	800.000	-0.074	-0.216
-324.114	-132.444	0.303	-0.039
-323.099	-152.961	0.254	-0.018
-322.085	105.776	-0.241	0.283
-321.070	82.712	0.252	-0.272
-320.056	28.575	0.139	-0.116
-319.041	204.909	0.110	0.169
-318.026	800.000	-0.029	0.101
-317.012	218.272	0.061	-0.097
-315.997	-200.000	0.004	0.273
-314.983	282.164	-0.108	-0.192
-313.968	122.085	-0.366	-0.454
-312.953	119.694	-0.091	-0.112
-311.939	511.683	0.099	-0.229
-310.924	12.740	0.250	-0.191
-309.910	-97.118	0.141	-0.036
-308.895	634.460	0.048	0.122
-307.880	678.778	-0.099	-0.255
-306.866	800.000	0.085	-0.246
-305.851	800.000	-0.032	-0.118
-304.837	-200.000	0.017	0.161
-303.822	-200.000	-0.103	0.477
-302.807	-200.000	0.061	0.289
-301.793	-200.000	-0.013	0.208
-300.778	551.118	-0.044	0.104
-299.764	94.196	-0.152	0.171
-298.749	-74.510	-0.120	0.043
-297.735	-200.000	-0.038	-0.293
-296.720	-200.000	-0.019	-0.148
-295.705	144.438	-0.076	0.101
-294.691	-56.766	0.356	-0.156
-293.676	-28.027	-0.270	-0.155
-292.662	511.280	0.088	-0.203
-291.647	-108.985	0.307	-0.065
-290.632	-89.608	-0.272	-0.079
-289.618	661.841	0.120	0.306
-288.603	-42.388	-0.201	0.101
-287.589	-85.231	-0.383	-0.119
-286.574	-200.000	0.019	-0.188
-285.559	179.883	-0.161	-0.233
-284.545	-200.000	-0.016	-0.278
-283.530	-108.041	0.339	0.073
-282.516	800.000	0.044	0.166
-281.501	73.909	-0.162	0.168
-280.486	376.312	0.123	0.249
-279.472	298.476	-0.016	-0.029
-278.457	22.924	-0.210	-0.171
-277.443	419.291	0.036	-0.076
-276.428	98.569	-0.100	-0.114
-275.413	-34.447	-0.037	0.020
-274.399	800.000	-0.064	0.255
-273.384	800.000	-0.102	-0.400
-272.370	154.828	-0.110	0.150
-271.355	212.553	0.056	0.088
-270.340	376.475	-0.131	0.266
-269.326	5.313	0.077	0.056
-268.311	800.000	0.086	0.258
-267.297	72.337	0.125	0.128
-266.282	108.355	0.101	0.119
-265.267	800.000	-0.053	-0.209
-264.253	-74.936	-0.351	0.124
-263.238	-78.201	-0.297	-0.101
-262.224	-50.744	0.190	-0.089
-261.209	-22.420	0.274	-0.164
-260.195	8.421	0.040	-0.030
-259.180	-14.429	0.243	-0.154
-258.165	800.000	-0.055	-0.177
-257.151	-117.470	0.028	0.005
-256.136	-74.436	-0.161	0.058
-255.122	-200.000	0.009	0.047
-254.107	-200.000	-0.028	0.148
-253.092	-93.067	-0.252	0.070
-252.078	323.594	-0.106	0.200
-251.063	159.904	-0.098	-0.135
-250.049	392.353	0.067	0.139
-249.034	28.365	0.066	-0.055
-248.019	-200.000	0.025	0.138
-247.005	141.200	0.338	0.442
-245.990	142.161	0.177	-0.232
-244.976	-72.611	0.150	0.055
-243.961	-141.442	0.408	0.041
-242.946	354.139	-0.042	0.082
-241.932	800.000	0.127	0.379
-240.917	30.112	0.087	0.073
-239.903	-164.413	-0.250	0.011
-238.888	-71.585	0.059	0.022
-237.873	-200.000	-0.003	-0.068
-236.859	427.526	0.122	0.259
-235.844	-111.653	0.130	0.026
-234.830	-158.934	0.129	-0.007
-233.815	64.597	0.212	0.212
-232.800	-79.042	-0.286	0.096
-231.786	-200.000	-0.005	0.394
-230.771	-200.000	0.070	0.441
-229.757	-30.479	0.111	0.062
-228.742	-84.936	0.158	0.049
-227.727	-109.847	-0.203	0.042
-226.713	-74.482	-0.215	0.077
-225.698	-200.000	0.015	-0.223
-224.684	88.252	0.115	-0.126
-223.669	279.903	-0.105	0.185
-222.655	44.795	-0.300	-0.272
-221.640	-49.315	0.172	-0.081
-220.625	800.000	0.083	0.228
-219.611	-67.816	0.196	-0.076
-218.596	-200.000	0.019	0.102
-217.582	800.000	-0.047	-0.134
-216.567	-116.217	0.186	0.034
-215.552	106.816	-0.021	0.025
-214.538	89.078	-0.162	0.178
-213.523	800.000	-0.036	0.104
-212.509	800.000	-0.045	0.176
-211.494	101.215	0.194	-0.223
-210.479	241.021	-0.171	-0.282
-209.465	-41.470	0.428	0.217
-208.450	800.000	-0.050	-0.153
-207.436	-108.326	0.185	-0.039
-206.421	-51.893	0.180	0.083
-205.406	-200.000	0.028	-0.220
-204.392	85.374	-0.182	0.197
-203.377	94.789	-0.053	0.059
-202.363	-200.000	-0.013	0.166
-201.348	40.782	0.218	-0.194
-200.333	244.838	-0.088	-0.146
-199.319	-190.925	-0.144	0.001
-198.304	-105.558	0.084	-0.019
-197.290	-125.032	0.237	-0.036
-196.275	330.245	0.090	0.171
-195.260	-200.000	0.018	0.135
-194.246	-63.608	0.097	0.039
-193.231	800.000	-0.081	-0.228
-192.217	-69.055	-0.156	0.059
-191.202	98.328	0.086	0.098
-190.187	-127.585	-0.095	0.014
-189.173	-200.000	0.015	-0.228
-188.158	-26.646	0.242	0.140
-187.144	113.053	-0.201	-0.240
-186.129	-65.303	0.416	0.165
-185.114	97.583	-0.123	-0.139
-184.100	355.273	-0.026	-0.051
-183.085	-104.818	-0.171	-0.039
-182.071	-184.032	0.393	-0.006
-181.056	-200.000	0.041	-0.176
-180.042	771.540	0.065	-0.174
-179.027	535.389	0.168	-0.393
-178.012	-10.040	-0.447	-0.293
-176.998	-72.872	-0.092	0.033
-175.983	-200.000	0.038	-0.281
-174.969	-153.859	0.097	0.007
-173.954	800.000	0.074	-0.219
-172.939	484.736	-0.076	-0.172
-171.925	-80.262	0.301	0.099
-170.910	352.351	-0.214	0.418
-169.896	-200.000	-0.055	0.264
-168.881	-200.000	-0.016	0.175
-167.866	365.505	-0.060	-0.120
-166.852	-30.626	-0.178	-0.099
-165.837	99.823	0.160	-0.182
-164.823	34.518	0.293	0.253
-163.808	-105.375	0.075	-0.017
-162.793	-14.922	-0.185	-0.117
-161.779	747.915	0.115	-0.307
-160.764	269.872	-0.046	-0.079
-159.750	-75.740	0.078	0.027
-158.735	264.600	0.033	-0.057
-157.720	675.060	-0.156	0.399
-156.706	101.552	-0.143	-0.165
-155.691	661.094	0.103	0.262
-154.677	-118.725	-0.086	-0.015
-153.662	-200.000	-0.037	-0.275
-152.647	47.535	0.241	-0.221
-151.633	-118.042	-0.445	0.078
-150.618	-110.046	-0.233	-0.048
-149.604	139.051	0.157	0.204
-148.589	-150.458	-0.149	0.011
-147.574	469.676	0.130	-0.288
-146.560	-200.000	-0.002	0.058
-145.545	800.000	-0.069	-0.260
-144.531	-55.667	-0.151	-0.066
-143.516	121.278	0.558	0.685
-142.502	15.771	-0.154	0.120
-141.487	-60.327	0.270	-0.113
-140.472	260.411	0.062	-0.106
-139.458	800.000	0.093	0.283
-138.443	29.267	-0.091	-0.076
-137.429	351.533	-0.087	-0.171
-136.414	-0.298	0.226	-0.158
-135.399	694.140	0.096	-0.248
-134.385	519.281	-0.103	-0.237
-133.370	113.343	0.100	0.120
-132.356	-149.307	-0.038	0.003
-131.341	-47.152	-0.204	0.098
-130.326	-200.000	0.050	-0.222
-129.312	427.902	-0.116	0.246
-128.297	271.755	0.073	-0.127
-127.283	-22.732	-0.159	-0.094
-126.268	41.739	-0.078	-0.069
-125.253	-51.298	-0.271	-0.125
-124.239	-135.686	-0.313	0.037
-123.224	2.294	0.255	0.182
-122.210	800.000	0.016	-0.047
-121.195	2.305	-0.253	-0.180
