DTS Sentinel unit serial number:	SN413079Multiplexer serial number:	ORYXHardware model number:	OX4-SRSoftware version number:	ORYX F/W v4.00 Oryx Data Collector v3.7.2.0data status	okinstallation	princeton_trtdifferential loss correction	single-endedforward channel	channel 1reverse channel	N/Adate	2019/09/16time	01:34:35forward acquisition time	60.00reverse acquisition time	0.00gamma	496.2192k internal	0.2333k external	0.2333temperature offset calibration	0.9977default loss term (dB/km)	0.3790temperature slope calibration	1.0000multiplexer offset coefficient	1.0000multiplexer slope coefficient	1.0000fibre end	0.00T internal ref (°C)	27.31T ext. ref 1 (°C)	9.95T ext. ref 2 (°C)	22.14length (m)	temperature (°C)	Stokes	anti-Stokes-747.200	-97.820	0.176	0.046
-746.185	42.049	-0.310	0.283
-745.171	-200.000	0.003	-0.023
-744.156	-108.475	-0.554	-0.120
-743.142	-200.000	-0.036	0.187
-742.127	532.719	0.028	0.066
-741.112	179.972	0.160	0.235
-740.098	102.433	-0.291	0.342
-739.083	580.709	0.047	0.116
-738.069	332.295	-0.225	0.437
-737.054	413.733	0.070	-0.150
-736.039	-96.187	-0.235	-0.063
-735.025	-33.237	-0.192	0.107
-734.010	-67.794	-0.102	-0.040
-732.996	-200.000	0.018	0.209
-731.981	226.047	-0.109	-0.177
-730.966	-29.925	-0.267	-0.153
-729.952	-58.237	-0.166	-0.073
-728.937	-83.911	-0.207	-0.066
-727.923	80.423	0.070	0.076
-726.908	-41.844	-0.157	0.081
-725.894	33.856	-0.144	-0.126
-724.879	-200.000	0.016	0.092
-723.864	-50.030	0.140	0.067
-722.850	212.417	-0.188	0.298
-721.835	-84.468	-0.201	-0.064
-720.821	240.956	-0.036	0.060
-719.806	237.991	0.073	0.122
-718.791	179.632	0.151	0.222
-717.777	35.394	-0.091	-0.080
-716.762	-38.558	0.333	0.177
-715.748	64.199	0.280	-0.283
-714.733	212.716	0.215	0.340
-713.718	15.537	-0.092	0.072
-712.704	140.596	-0.116	0.154
-711.689	63.885	-0.073	0.074
-710.675	341.634	0.119	-0.233
-709.660	148.054	-0.125	-0.169
-708.645	-82.185	0.250	-0.082
-707.631	800.000	0.009	0.024
-706.616	322.960	0.123	-0.236
-705.602	74.260	-0.162	-0.170
-704.587	-18.195	0.114	-0.072
-703.572	308.262	0.164	-0.308
-702.558	-53.721	0.243	-0.111
-701.543	447.677	-0.063	0.139
-700.529	800.000	-0.093	-0.366
-699.514	-200.000	0.009	-0.102
-698.499	-8.035	-0.167	-0.113
-697.485	-156.443	-0.315	-0.020
-696.470	55.305	-0.204	0.198
-695.456	123.284	0.188	-0.236
-694.441	800.000	-0.049	0.190
-693.426	232.215	0.084	0.138
-692.412	-24.935	-0.072	0.043
-691.397	231.537	-0.298	-0.490
-690.383	-124.280	0.220	-0.035
-689.368	-47.115	-0.042	-0.020
-688.354	35.544	0.104	-0.092
-687.339	87.829	-0.314	-0.349
-686.324	-141.464	0.182	-0.018
-685.310	-149.738	-0.192	-0.015
-684.295	210.587	-0.127	-0.200
-683.281	102.206	-0.068	-0.079
-682.266	-96.100	-0.232	0.062
-681.251	-200.000	0.050	0.230
-680.237	-85.131	-0.331	-0.104
-679.222	-200.000	-0.027	-0.184
-678.208	-200.000	-0.004	0.324
-677.193	185.430	0.193	-0.287
-676.178	15.313	0.362	0.285
-675.164	-32.299	-0.044	0.025
-674.149	-200.000	0.038	0.174
-673.135	7.053	-0.255	-0.191
-672.120	157.007	0.018	-0.025
-671.105	-98.853	-0.120	-0.031
-670.091	17.904	-0.087	-0.070
-669.076	127.148	-0.040	-0.051
-668.062	-200.000	-0.012	0.300
-667.047	-200.000	0.047	0.206
-666.032	-200.000	-0.005	-0.165
-665.018	-200.000	-0.016	0.127
-664.003	800.000	0.051	0.182
-662.989	-200.000	0.031	0.208
-661.974	-19.117	-0.017	0.011
-660.959	-200.000	0.003	0.252
-659.945	26.699	-0.107	-0.090
-658.930	-200.000	0.007	-0.102
-657.916	-23.457	-0.194	-0.117
-656.901	3.338	0.123	0.089
-655.886	-106.761	-0.082	-0.018
-654.872	45.711	0.083	-0.077
-653.857	-109.798	0.091	-0.019
-652.843	-112.254	-0.179	-0.036
-651.828	-136.667	-0.155	-0.018
-650.814	-104.022	-0.168	0.039
-649.799	800.000	0.066	-0.288
-648.784	65.095	-0.309	-0.313
-647.770	-200.000	0.013	-0.123
-646.755	174.665	-0.059	0.086
-645.741	800.000	-0.020	0.073
-644.726	340.302	-0.127	0.248
-643.711	20.048	0.223	-0.180
-642.697	800.000	0.076	-0.274
-641.682	-149.450	0.081	0.006
-640.668	-100.954	-0.350	0.086
-639.653	389.234	-0.065	-0.135
-638.638	471.179	0.230	0.517
-637.624	-90.299	0.132	0.038
-636.609	-200.000	-0.038	-0.308
-635.595	800.000	0.045	-0.142
-634.580	-103.800	0.180	0.042
-633.565	800.000	-0.087	0.250
-632.551	-200.000	0.036	0.446
-631.536	-173.229	-0.085	0.003
-630.522	-55.742	0.248	0.111
-629.507	-60.757	-0.551	-0.234
-628.492	114.143	0.033	0.040
-627.478	32.260	0.265	0.229
-626.463	-64.349	0.364	0.148
-625.449	-120.210	0.033	-0.006
-624.434	154.815	0.099	-0.136
-623.419	80.292	0.261	-0.281
-622.405	92.910	-0.326	-0.369
-621.390	800.000	0.012	-0.044
-620.376	-147.418	-0.330	0.028
-619.361	800.000	0.063	-0.247
-618.346	-161.869	-0.232	0.012
-617.332	-79.555	0.373	0.126
-616.317	-200.000	0.004	0.302
-615.303	147.727	0.187	-0.251
-614.288	7.470	0.049	-0.036
-613.273	-74.208	-0.243	0.088
-612.259	196.220	-0.166	0.252
-611.244	-200.000	0.051	0.243
-610.230	-200.000	0.046	-0.203
-609.215	740.745	0.146	-0.393
-608.201	-200.000	-0.001	0.327
-607.186	-149.821	0.077	-0.006
-606.171	74.465	0.210	-0.221
-605.157	66.801	0.045	0.046
-604.142	-200.000	0.022	0.270
-603.128	248.603	0.186	0.314
-602.113	2.411	0.148	0.107
-601.098	108.537	-0.250	-0.299
-600.084	-172.157	0.278	0.009
-599.069	318.221	-0.092	0.174
-598.055	117.666	-0.192	-0.236
-597.040	-78.735	-0.124	0.042
-596.025	214.446	0.093	-0.147
-595.011	-153.223	-0.309	-0.022
-593.996	102.105	-0.034	0.040
-592.982	58.337	0.109	0.107
-591.967	119.708	-0.079	-0.097
-590.952	569.156	0.078	-0.188
-589.938	-3.484	0.298	-0.207
-588.923	20.115	0.256	0.207
-587.909	133.207	-0.065	0.083
-586.894	9.187	-0.236	0.178
-585.879	-79.448	0.253	-0.086
-584.865	161.749	0.023	0.032
-583.850	-200.000	0.006	-0.039
-582.836	800.000	-0.009	0.025
-581.821	-37.984	-0.169	0.090
-580.806	-29.690	0.286	0.163
-579.792	280.531	0.097	0.173
-578.777	10.423	0.422	-0.321
-577.763	581.341	-0.065	0.159
-576.748	-85.363	-0.119	-0.037
-575.733	800.000	-0.028	-0.090
-574.719	662.444	-0.092	-0.236
-573.704	156.819	0.157	0.217
-572.690	86.806	-0.118	-0.130
-571.675	170.778	0.083	-0.119
-570.661	-133.711	0.265	0.033
-569.646	-3.056	0.137	-0.096
-568.631	6.126	-0.185	-0.137
-567.617	7.428	-0.205	-0.153
-566.602	45.301	0.039	-0.036
-565.588	210.574	-0.142	-0.223
-564.573	590.602	-0.055	-0.136
-563.558	299.455	0.066	0.121
-562.544	-125.575	0.156	-0.024
-561.529	800.000	-0.067	-0.242
-560.515	-20.514	-0.247	-0.152
-559.500	-159.927	0.299	0.016
-558.485	-126.256	-0.365	0.054
-557.471	51.171	-0.114	-0.108
-556.456	365.970	-0.072	0.145
-555.442	-106.637	-0.234	0.052
-554.427	-200.000	-0.046	-0.209
-553.412	369.412	-0.200	0.404
-552.398	396.866	-0.024	0.050
-551.383	27.100	-0.120	-0.101
-550.369	-133.152	-0.213	-0.027
-549.354	467.547	-0.029	0.064
-548.339	-167.190	-0.141	-0.006
-547.325	-88.898	0.108	0.032
-546.310	-200.000	-0.027	-0.129
-545.296	-200.000	-0.047	0.425
-544.281	-187.017	0.362	0.005
-543.266	-27.333	0.388	0.225
-542.252	-110.561	-0.333	0.069
-541.237	72.365	-0.141	0.147
-540.223	800.000	-0.076	-0.272
-539.208	-55.339	0.074	-0.033
-538.193	-52.063	-0.145	-0.067
-537.179	282.276	-0.216	-0.386
-536.164	800.000	-0.031	-0.135
-535.150	130.965	-0.016	0.020
-534.135	174.412	0.113	-0.163
-533.121	156.890	0.167	-0.230
-532.106	-191.865	0.130	0.001
-531.091	99.489	0.024	0.028
-530.077	401.930	-0.171	0.357
-529.062	99.624	0.095	0.110
-528.048	183.595	0.177	0.261
-527.033	-61.565	0.066	0.027
-526.018	735.253	0.012	0.031
-525.004	14.627	-0.072	0.056
-523.989	-200.000	-0.022	-0.200
-522.975	-75.862	-0.436	0.154
-521.960	800.000	0.097	-0.379
-520.945	97.988	0.046	-0.053
-519.931	367.169	-0.109	0.219
-518.916	12.970	-0.293	-0.226
-517.902	-103.647	0.421	-0.098
-516.887	-128.067	-0.279	-0.040
-515.872	-139.172	0.324	-0.035
-514.858	-200.000	0.058	-0.353
-513.843	-88.272	-0.549	0.164
-512.829	-71.049	-0.152	-0.057
-511.814	-126.334	0.189	0.028
-510.799	-200.000	-0.051	-0.298
-509.785	-101.230	0.133	-0.032
-508.770	580.464	0.128	-0.313
-507.756	-59.383	-0.278	-0.119
-506.741	340.851	0.062	-0.121
-505.726	-200.000	0.001	0.016
-504.712	-22.878	-0.127	0.076
-503.697	-0.546	0.118	-0.084
-502.683	516.423	0.073	0.169
-501.668	-101.804	0.162	0.039
-500.653	470.180	-0.212	0.476
-499.639	73.052	0.228	0.237
-498.624	-200.000	-0.006	-0.247
-497.610	-150.437	-0.185	-0.014
-496.595	546.696	-0.120	-0.285
-495.581	33.567	-0.283	-0.244
-494.566	-50.732	0.177	-0.083
-493.551	-200.000	0.026	0.197
-492.537	-50.272	0.155	0.073
-491.522	-33.956	0.150	-0.082
-490.508	186.803	-0.171	-0.253
-489.493	-65.852	-0.267	-0.106
-488.478	660.898	0.137	-0.350
-487.464	132.870	-0.140	-0.180
-486.449	-200.000	0.055	-0.299
-485.435	800.000	-0.135	0.459
-484.420	800.000	-0.033	0.098
-483.405	9.956	0.128	-0.097
-482.391	-49.557	0.057	0.027
-481.376	-84.368	-0.075	0.024
-480.362	-116.701	-0.319	0.058
-479.347	317.253	0.080	-0.150
-478.332	705.260	0.097	0.254
-477.318	-54.006	-0.131	-0.059
-476.303	304.965	-0.084	-0.156
-475.289	-200.000	0.058	-0.472
-474.274	148.759	-0.057	0.077
-473.259	0.776	-0.024	-0.017
-472.245	800.000	-0.113	-0.357
-471.230	-200.000	0.006	-0.212
-470.216	-144.115	-0.250	-0.023
-469.201	-21.570	-0.423	0.257
-468.186	-11.436	-0.160	0.105
-467.172	246.194	0.015	-0.025
-466.157	-120.862	-0.180	-0.030
-465.143	432.343	-0.044	-0.095
-464.128	-164.176	0.252	-0.012
-463.113	662.081	0.112	0.288
-462.099	-48.246	0.116	-0.056
-461.084	12.176	-0.112	0.086
-460.070	86.070	0.083	0.091
-459.055	-119.299	0.207	0.036
-458.040	-3.846	-0.125	-0.087
-457.026	654.789	0.072	-0.184
-456.011	-58.309	0.095	-0.041
-454.997	103.590	-0.042	-0.049
-453.982	413.570	-0.037	-0.078
-452.968	800.000	-0.074	-0.235
-451.953	381.548	0.009	0.018
-450.938	-115.572	0.173	-0.032
-449.924	752.820	0.085	0.229
-448.909	800.000	0.069	0.248
-447.895	504.384	0.044	0.101
-446.880	800.000	0.029	-0.109
-445.865	-75.321	-0.082	0.029
-444.851	-123.880	0.431	0.067
-443.836	270.400	-0.071	-0.125
-442.822	-200.000	-0.019	0.126
-441.807	-200.000	-0.012	0.332
-440.792	275.893	-0.106	0.187
-439.778	-200.000	0.036	0.220
-438.763	-200.000	-0.014	0.122
-437.749	800.000	-0.097	-0.378
-436.734	775.773	-0.210	-0.568
-435.719	-103.195	0.212	0.050
-434.705	254.288	-0.105	-0.178
-433.690	24.051	0.318	-0.261
-432.676	-32.807	-0.281	0.155
-431.661	-53.779	0.098	-0.044
-430.646	500.427	0.076	-0.173
-429.632	800.000	-0.079	0.240
-428.617	138.712	-0.135	0.175
-427.603	0.014	0.071	-0.050
-426.588	-18.269	0.410	0.255
-425.573	800.000	-0.017	0.048
-424.559	-103.619	0.065	0.015
-423.544	-100.403	-0.328	0.081
-422.530	106.987	0.106	0.125
-421.515	-136.031	0.138	0.016
-420.500	-32.040	0.135	0.075
-419.486	147.463	0.124	0.166
-418.471	-152.505	-0.360	-0.026
-417.457	-200.000	-0.277	-0.000
-416.442	274.027	0.055	-0.097
-415.428	130.725	0.254	0.323
-414.413	-37.127	-0.057	0.031
-413.398	-94.298	0.187	-0.051
-412.384	661.305	0.140	0.359
-411.369	-194.843	-0.209	-0.002
-410.355	158.398	-0.176	-0.242
-409.340	-120.053	0.077	0.013
-408.325	3.786	-0.167	0.121
-407.311	788.655	0.043	0.117
-406.296	-63.112	-0.053	0.022
-405.282	360.893	0.083	-0.165
-404.267	-200.000	0.009	-0.093
-403.252	-109.491	-0.230	0.048
-402.238	313.834	-0.064	0.119
-401.223	-26.268	0.105	0.061
-400.209	-32.363	0.351	-0.194
-399.194	-63.555	-0.171	-0.069
-398.179	-200.000	0.021	-0.108
-397.165	69.502	-0.253	-0.258
-396.150	-200.000	-0.104	0.520
-395.136	-68.299	-0.269	0.104
-394.121	-36.307	0.118	0.063
-393.106	-64.287	0.328	-0.132
-392.092	170.246	-0.165	-0.234
-391.077	96.995	0.200	-0.227
-390.063	-49.692	-0.165	-0.078
-389.048	-64.630	-0.350	-0.141
-388.033	94.246	0.235	0.264
-387.019	-128.018	0.191	-0.027
-386.004	51.819	-0.185	0.174
-384.990	-6.500	0.209	-0.141
-383.975	556.674	-0.076	0.182
-382.960	162.106	-0.088	0.122
-381.946	-200.000	-0.018	-0.309
-380.931	-51.173	-0.518	-0.241
-379.917	-200.000	0.010	0.226
-378.902	800.000	0.091	0.290
-377.888	800.000	0.152	-0.444
-376.873	-200.000	-0.023	-0.259
-375.858	280.173	0.041	-0.072
-374.844	-51.476	0.088	0.041
-373.829	-126.067	0.110	0.016
-372.815	-200.000	0.012	0.182
-371.800	-200.000	0.024	0.153
-370.785	-200.000	0.010	-0.110
-369.771	800.000	0.022	-0.086
-368.756	-118.213	0.113	-0.020
-367.742	547.093	0.034	-0.081
-366.727	-200.000	0.055	-0.328
-365.712	-200.000	-0.372	0.001
-364.698	68.112	0.157	0.159
-363.683	-200.000	-0.061	0.450
-362.669	-200.000	-0.074	0.411
-361.654	-4.948	0.261	-0.178
-360.639	106.238	0.235	0.275
-359.625	78.330	-0.118	0.125
-358.610	-195.609	0.312	0.002
-357.596	75.869	-0.049	-0.051
-356.581	-145.913	0.128	-0.011
-355.566	118.321	-0.187	-0.228
-354.552	773.701	0.059	0.158
-353.537	800.000	-0.116	0.391
-352.523	398.523	-0.075	-0.156
-351.508	235.851	-0.174	-0.285
-350.493	-80.111	-0.298	-0.099
-349.479	185.840	-0.186	0.274
-348.464	-200.000	-0.006	0.075
-347.450	-114.927	-0.171	-0.032
-346.435	772.253	0.129	0.349
-345.420	18.106	0.143	-0.113
-344.406	800.000	0.096	-0.313
-343.391	-52.555	0.355	0.162
-342.377	161.278	0.074	-0.103
-341.362	-45.302	0.273	-0.134
-340.348	-125.932	-0.126	0.019
-339.333	-200.000	0.017	0.348
-338.318	538.399	0.033	0.078
-337.304	258.899	-0.070	0.120
-336.289	-161.258	-0.369	-0.019
-335.275	-6.959	-0.151	-0.101
-334.260	800.000	0.067	-0.266
-333.245	-55.944	0.164	-0.072
-332.231	-200.000	-0.013	-0.293
-331.216	61.866	0.212	0.209
-330.202	727.318	0.054	-0.143
-329.187	-200.000	0.022	-0.402
-328.172	121.581	-0.324	0.399
-327.158	-138.290	0.333	0.036
-326.143	569.829	-0.099	-0.239
-325.129	-77.820	0.224	0.076
-324.114	-43.899	0.200	-0.099
-323.099	-28.424	-0.359	-0.205
-322.085	307.888	-0.104	-0.191
-321.070	-119.607	-0.360	0.062
-320.056	-200.000	0.015	-0.171
-319.041	77.081	-0.102	0.107
-318.026	-127.672	0.106	0.015
-317.012	114.434	-0.112	-0.135
-315.997	-34.419	-0.136	0.074
-314.983	-60.737	0.176	-0.074
-313.968	-2.459	-0.381	0.264
-312.953	-56.411	-0.087	-0.038
-311.939	-25.386	-0.248	0.145
-310.924	-200.000	-0.009	-0.219
-309.910	-20.149	-0.244	0.149
-308.895	-42.929	-0.261	0.131
-307.880	26.529	-0.004	-0.003
-306.866	32.854	-0.177	0.152
-305.851	800.000	0.017	0.052
-304.837	800.000	-0.047	0.144
-303.822	-75.347	0.253	0.089
-302.807	91.622	0.160	-0.178
-301.793	91.781	0.220	-0.245
-300.778	-49.457	0.118	-0.056
-299.764	201.495	0.134	-0.204
-298.749	349.383	-0.116	-0.226
-297.735	800.000	0.067	0.262
-296.720	800.000	-0.035	0.139
-295.705	-190.644	-0.110	-0.001
-294.691	62.963	0.076	-0.075
-293.676	428.479	0.020	0.044
-292.662	-21.498	-0.180	0.108
-291.647	73.664	-0.270	0.280
-290.632	119.864	-0.060	0.073
-289.618	-20.161	0.225	-0.137
-288.603	245.435	0.067	-0.112
-287.589	-126.433	-0.185	-0.027
-286.574	241.140	0.199	0.328
-285.559	385.659	0.037	0.076
-284.545	-200.000	0.059	0.282
-283.530	800.000	-0.025	0.087
-282.516	266.855	-0.067	-0.116
-281.501	-28.158	0.211	0.120
-280.486	95.383	0.379	0.427
-279.472	0.413	0.137	0.097
-278.457	-52.689	-0.073	0.033
-277.443	-115.328	-0.303	-0.057
-276.428	370.497	0.063	0.126
-275.413	-85.452	0.213	0.065
-274.399	380.037	0.104	0.211
-273.384	527.357	0.078	-0.181
-272.370	136.204	-0.092	0.119
-271.355	-73.805	-0.320	-0.115
-270.340	508.689	-0.100	0.229
-269.326	-200.000	-0.002	0.215
-268.311	-200.000	0.015	0.098
-267.297	15.918	0.133	-0.103
-266.282	-200.000	-0.005	-0.030
-265.267	89.500	0.123	-0.136
-264.253	-200.000	-0.023	0.179
-263.238	-122.691	0.295	-0.047
-262.224	-53.227	-0.217	0.098
-261.209	800.000	0.123	0.337
-260.195	-107.547	0.165	0.036
-259.180	-200.000	0.012	-0.090
-258.165	-96.681	0.107	0.028
-257.151	800.000	0.047	-0.159
-256.136	-200.000	0.052	-0.327
-255.122	198.064	0.050	0.075
-254.107	-40.075	-0.233	0.120
-253.092	-172.294	0.164	-0.005
-252.078	800.000	-0.101	-0.375
-251.063	-101.695	-0.291	0.070
-250.049	17.034	-0.074	-0.058
-249.034	800.000	-0.033	0.098
-248.019	148.482	0.189	-0.251
-247.005	-200.000	0.007	-0.254
-245.990	-39.066	-0.350	-0.182
-244.976	-81.680	-0.467	0.151
-243.961	459.863	0.073	-0.161
-242.946	433.881	0.097	0.208
-241.932	-200.000	-0.036	0.241
-240.917	800.000	-0.080	-0.271
-239.903	800.000	-0.036	0.130
-238.888	-83.767	0.428	0.135
-237.873	-42.027	0.417	-0.210
-236.859	556.192	-0.149	-0.355
-235.844	105.337	-0.144	-0.168
-234.830	-95.881	-0.136	-0.036
-233.815	-200.000	-0.017	0.311
-232.800	69.061	0.040	-0.040
-231.786	52.725	-0.195	0.183
-230.771	800.000	0.096	0.264
-229.757	-96.470	0.219	-0.057
-228.742	-200.000	-0.040	0.189
-227.727	462.697	-0.108	-0.238
-226.713	23.328	-0.113	-0.091
-225.698	35.407	-0.057	-0.050
-224.684	-200.000	-0.043	0.270
-223.669	13.926	0.060	-0.046
-222.655	800.000	-0.105	-0.369
-221.640	-18.961	-0.100	0.061
-220.625	800.000	0.084	-0.275
-219.611	-60.058	-0.228	0.096
-218.596	214.653	-0.073	-0.115
-217.582	-200.000	0.047	0.376
-216.567	-11.523	0.180	-0.116
-215.552	-53.171	0.118	0.053
-214.538	-200.000	-0.009	0.314
-213.523	107.116	-0.128	0.150
-212.509	-200.000	-0.026	0.234
-211.494	132.214	0.250	0.317
-210.479	800.000	0.030	0.096
-209.465	-65.889	0.461	0.181
-208.450	-64.784	0.458	-0.183
-207.436	-100.290	-0.101	-0.025
-206.421	-200.000	-0.013	-0.216
-205.406	-147.727	0.116	0.010
-204.392	800.000	0.152	-0.419
-203.377	-123.222	-0.245	-0.039
-202.363	383.690	0.116	0.235
-201.348	481.912	0.018	-0.040
-200.333	159.669	-0.143	-0.196
-199.319	800.000	0.015	-0.059
-198.304	-1.748	0.175	0.121
-197.290	659.604	0.051	0.129
-196.275	437.395	-0.136	0.293
-195.260	61.947	0.104	0.102
-194.246	-30.407	-0.167	-0.093
-193.231	-0.271	-0.114	0.080
-192.217	-122.141	0.244	-0.039
-191.202	114.717	0.092	0.110
-190.187	-144.909	-0.183	0.017
-189.173	138.526	-0.120	-0.154
-188.158	-107.562	-0.057	0.012
-187.144	-142.690	0.222	-0.021
-186.129	-158.673	0.253	0.014
-185.114	-169.188	-0.259	0.009
-184.100	-109.327	0.118	0.025
-183.085	-183.031	-0.123	-0.002
-182.071	-27.514	0.204	0.117
-181.056	316.554	0.240	0.445
-180.042	-43.371	0.159	0.079
-179.027	149.853	-0.125	-0.166
-178.012	-107.507	0.093	0.020
-176.998	83.165	-0.031	-0.033
-175.983	-23.450	-0.296	0.175
-174.969	-200.000	0.020	-0.138
-173.954	86.215	0.311	-0.336
-172.939	-200.000	-0.062	-0.310
-171.925	800.000	0.045	0.146
-170.910	34.018	-0.192	-0.164
-169.896	9.529	-0.171	-0.128
-168.881	-179.861	0.081	-0.002
-167.866	-200.000	0.041	0.198
-166.852	78.550	-0.096	0.101
-165.837	50.348	-0.083	-0.077
-164.823	-118.391	0.216	-0.038
-163.808	337.101	0.142	0.272
-162.793	-101.584	0.281	0.067
-161.779	162.516	0.105	0.145
-160.764	146.172	-0.176	-0.232
-159.750	-200.000	-0.027	0.248
-158.735	333.228	0.258	0.490
-157.720	-87.301	0.285	0.085
-156.706	789.125	0.119	-0.321
-155.691	141.283	-0.210	-0.273
-154.677	-200.000	0.035	-0.283
-153.662	294.886	-0.047	0.084
-152.647	-200.000	0.001	0.292
-151.633	800.000	-0.027	0.103
-150.618	800.000	0.045	-0.155
-149.604	251.838	0.199	-0.332
-148.589	-200.000	-0.001	-0.261
-147.574	-200.000	0.085	0.405
-146.560	-21.522	-0.179	-0.107
-145.545	-42.282	-0.127	0.064
-144.531	44.801	0.322	-0.291
-143.516	800.000	-0.131	0.533
-142.502	-200.000	0.022	0.259
-141.487	800.000	0.101	0.279
-140.472	104.253	0.294	-0.340
-139.458	-48.499	0.150	-0.071
-138.443	57.977	0.102	0.098
-137.429	20.579	0.316	0.251
-136.414	-57.680	-0.060	0.026
-135.399	400.180	-0.104	0.214
-134.385	340.361	-0.032	-0.062
-133.370	123.993	0.103	0.127
-132.356	78.624	0.091	-0.096
-131.341	-200.000	0.015	0.085
-130.326	-72.061	0.252	0.092
-129.312	800.000	0.177	0.487
-128.297	-200.000	0.004	-0.077
-127.283	0.298	0.189	0.132
-126.268	350.182	0.229	-0.443
-125.253	84.224	0.118	-0.126
-124.239	-53.796	-0.133	0.060
-123.224	-95.603	0.243	-0.064
-122.210	-22.601	-0.334	-0.198
-121.195	674.609	0.048	0.123
