DTS Sentinel unit serial number:	SN413079Multiplexer serial number:	ORYXHardware model number:	OX4-SRSoftware version number:	ORYX F/W v4.00 Oryx Data Collector v3.7.2.0data status	okinstallation	princeton_trtdifferential loss correction	single-endedforward channel	channel 1reverse channel	N/Adate	2019/09/14time	07:50:35forward acquisition time	60.00reverse acquisition time	0.00gamma	496.2192k internal	0.2335k external	0.2335temperature offset calibration	1.0071default loss term (dB/km)	0.3790temperature slope calibration	1.0000multiplexer offset coefficient	1.0000multiplexer slope coefficient	1.0000fibre end	0.00T internal ref (°C)	26.50T ext. ref 1 (°C)	3.51T ext. ref 2 (°C)	23.08length (m)	temperature (°C)	Stokes	anti-Stokes-747.200	507.802	0.139	0.324
-746.185	-123.652	-0.122	-0.019
-745.171	7.829	0.119	-0.090
-744.156	103.247	-0.091	0.107
-743.142	-200.000	-0.028	0.308
-742.127	306.471	-0.046	-0.086
-741.112	-108.290	-0.350	0.076
-740.098	-49.782	0.132	0.063
-739.083	-143.868	-0.340	-0.032
-738.069	-200.000	0.012	0.126
-737.054	83.382	0.189	0.207
-736.039	-109.716	-0.267	-0.056
-735.025	37.458	-0.094	-0.083
-734.010	655.507	0.098	-0.252
-732.996	-58.634	-0.086	-0.038
-731.981	-81.051	0.164	0.054
-730.966	-200.000	0.077	-0.370
-729.952	8.264	-0.305	-0.230
-728.937	-200.000	0.061	-0.415
-727.923	14.410	0.162	0.127
-726.908	-138.888	0.312	-0.034
-725.894	-113.844	-0.211	0.041
-724.879	10.554	0.217	0.166
-723.864	-200.000	0.018	-0.094
-722.850	-200.000	-0.019	-0.159
-721.835	-200.000	-0.006	0.177
-720.821	579.717	-0.059	0.145
-719.806	-131.495	-0.206	-0.027
-718.791	16.172	-0.166	-0.131
-717.777	-170.658	0.227	0.008
-716.762	-7.608	0.117	-0.080
-715.748	65.441	-0.269	-0.274
-714.733	-140.438	0.427	-0.045
-713.718	-46.333	-0.316	-0.156
-712.704	-200.000	0.012	-0.099
-711.689	427.593	-0.032	0.070
-710.675	393.428	0.033	0.069
-709.660	-200.000	0.088	-0.387
-708.645	319.197	-0.071	0.135
-707.631	73.610	-0.098	0.103
-706.616	-22.750	0.371	0.225
-705.602	398.026	0.127	-0.267
-704.587	-78.629	-0.238	-0.081
-703.572	-101.858	0.110	0.027
-702.558	-146.321	-0.355	0.031
-701.543	-146.116	0.277	-0.024
-700.529	-80.677	0.099	-0.033
-699.514	4.441	-0.166	0.122
-698.499	-57.431	-0.308	-0.136
-697.485	713.171	0.108	-0.286
-696.470	-200.000	0.009	0.193
-695.456	89.817	0.200	-0.224
-694.441	50.639	0.123	-0.117
-693.426	-187.449	-0.253	-0.003
-692.412	-6.116	0.165	-0.113
-691.397	600.241	-0.172	0.428
-690.383	394.000	-0.046	0.096
-689.368	127.682	-0.328	-0.418
-688.354	35.155	-0.118	0.104
-687.339	-83.697	0.458	-0.147
-686.324	-3.404	-0.159	0.111
-685.310	-53.292	-0.290	0.133
-684.295	-47.374	-0.176	-0.086
-683.281	-200.000	-0.038	-0.330
-682.266	-39.307	-0.342	0.180
-681.251	172.355	0.054	0.078
-680.237	74.634	0.379	-0.400
-679.222	-148.922	0.117	-0.009
-678.208	-200.000	-0.006	-0.504
-677.193	-101.321	-0.307	-0.075
-676.178	702.033	0.127	-0.335
-675.164	47.187	0.030	-0.028
-674.149	37.846	0.195	-0.174
-673.135	0.006	-0.252	-0.180
-672.120	332.651	-0.185	-0.359
-671.105	733.676	-0.042	-0.113
-670.091	-131.285	-0.325	-0.043
-669.076	-200.000	-0.010	0.046
-668.062	-200.000	0.005	0.325
-667.047	-200.000	0.026	0.174
-666.032	221.679	-0.116	-0.187
-665.018	328.661	0.210	-0.404
-664.003	-0.451	-0.021	-0.015
-662.989	-200.000	0.048	-0.248
-661.974	170.302	-0.241	-0.346
-660.959	148.731	-0.264	-0.357
-659.945	-113.912	0.256	-0.050
-658.930	-42.812	-0.185	-0.094
-657.916	800.000	0.082	-0.335
-656.901	539.037	0.071	-0.170
-655.886	-129.002	0.299	0.042
-654.872	-200.000	0.019	-0.294
-653.857	-186.901	-0.278	0.004
-652.843	-91.686	-0.304	0.087
-651.828	-134.851	0.290	-0.035
-650.814	26.275	0.141	0.118
-649.799	279.505	-0.114	0.204
-648.784	-57.036	0.047	-0.021
-647.770	800.000	0.126	-0.370
-646.755	33.892	-0.111	0.097
-645.741	-136.049	0.268	-0.031
-644.726	-0.462	-0.092	-0.065
-643.711	-91.997	-0.147	0.042
-642.697	586.157	-0.076	-0.188
-641.682	-23.561	0.073	-0.044
-640.668	800.000	-0.074	-0.261
-639.653	154.443	-0.209	-0.288
-638.638	-40.914	0.168	0.087
-637.624	182.646	-0.088	0.130
-636.609	134.467	-0.153	0.199
-635.595	-143.951	0.208	-0.020
-634.580	800.000	-0.035	0.124
-633.565	800.000	-0.091	-0.333
-632.551	66.534	-0.049	0.050
-631.536	0.877	0.268	-0.192
-630.522	-91.704	-0.119	-0.034
-629.507	224.990	0.023	0.037
-628.492	87.460	0.095	0.105
-627.478	-122.166	0.153	-0.025
-626.463	-145.706	-0.288	0.026
-625.449	36.664	0.037	-0.033
-624.434	800.000	0.056	0.218
-623.419	3.214	-0.234	0.170
-622.405	-117.495	-0.277	-0.050
-621.390	-200.000	0.006	-0.128
-620.376	-200.000	0.031	-0.278
-619.361	-143.367	0.318	0.030
-618.346	-200.000	0.027	0.120
-617.332	67.929	0.065	0.067
-616.317	800.000	0.034	0.128
-615.303	-164.227	-0.335	-0.015
-614.288	100.318	0.011	0.012
-613.273	800.000	0.028	0.103
-612.259	222.782	-0.083	0.134
-611.244	247.852	0.108	-0.182
-610.230	-22.408	0.066	-0.040
-609.215	-64.800	0.283	0.114
-608.201	142.333	-0.097	0.129
-607.186	56.671	0.229	-0.223
-606.171	-188.500	0.240	0.003
-605.157	800.000	-0.060	0.227
-604.142	-106.178	0.346	-0.077
-603.128	211.132	0.099	0.156
-602.113	-117.229	0.164	0.030
-601.098	64.922	0.215	-0.217
-600.084	278.960	-0.103	0.184
-599.069	-123.159	-0.266	0.043
-598.055	-200.000	0.078	0.354
-597.040	-5.625	-0.226	0.155
-596.025	-39.190	-0.308	-0.162
-595.011	-32.595	-0.457	0.254
-593.996	185.465	0.077	0.115
-592.982	-125.467	0.026	0.004
-591.967	-200.000	0.071	0.367
-590.952	232.036	-0.091	0.149
-589.938	5.420	0.251	0.185
-588.923	800.000	0.078	-0.222
-587.909	-200.000	0.004	-0.284
-586.894	327.206	-0.071	-0.136
-585.879	-200.000	0.021	0.220
-584.865	-200.000	0.046	0.268
-583.850	-93.941	-0.269	-0.074
-582.836	220.917	0.153	0.245
-581.821	-156.457	0.486	-0.030
-580.806	-200.000	-0.009	0.073
-579.792	141.943	-0.219	-0.289
-578.777	13.784	-0.250	-0.194
-577.763	350.911	-0.012	-0.024
-576.748	128.433	0.032	-0.040
-575.733	-2.793	0.223	-0.156
-574.719	-26.699	0.200	-0.117
-573.704	-200.000	0.017	0.131
-572.690	328.932	-0.172	-0.329
-571.675	118.153	-0.036	-0.044
-570.661	-200.000	-0.003	0.136
-569.646	-106.528	0.207	-0.046
-568.631	-137.905	-0.145	-0.016
-567.617	-77.507	0.206	-0.071
-566.602	-73.360	-0.233	-0.085
-565.588	616.299	0.119	-0.298
-564.573	-80.106	0.211	-0.071
-563.558	114.784	0.162	-0.197
-562.544	191.297	0.033	0.049
-561.529	138.350	-0.157	0.205
-560.515	-163.031	-0.283	-0.014
-559.500	-136.410	0.078	-0.009
-558.485	-200.000	0.002	-0.058
-557.471	-200.000	-0.002	0.205
-556.456	338.160	-0.157	0.305
-555.442	-93.307	-0.102	-0.028
-554.427	5.964	-0.084	-0.062
-553.412	-197.641	0.312	-0.002
-552.398	-144.380	0.454	0.042
-551.383	509.316	0.038	0.089
-550.369	704.705	-0.083	0.218
-549.354	79.250	-0.179	0.191
-548.339	198.913	0.210	-0.320
-547.325	-102.371	0.183	0.044
-546.310	34.969	-0.038	0.033
-545.296	800.000	-0.017	0.071
-544.281	308.379	0.045	0.084
-543.266	283.033	-0.158	-0.282
-542.252	-41.483	0.303	-0.156
-541.237	-97.463	-0.234	-0.061
-540.223	-33.261	-0.069	-0.038
-539.208	-143.731	-0.120	0.011
-538.193	-26.195	-0.066	0.039
-537.179	-121.574	0.385	-0.064
-536.164	-62.430	-0.168	-0.070
-535.150	-144.947	-0.235	0.021
-534.135	-69.297	-0.380	-0.145
-533.121	-172.373	0.093	-0.003
-532.106	183.996	-0.139	0.205
-531.091	215.164	-0.019	-0.030
-530.077	-200.000	-0.039	0.219
-529.062	528.585	-0.102	-0.240
-528.048	773.917	-0.103	0.280
-527.033	28.586	0.176	-0.149
-526.018	800.000	0.022	-0.088
-525.004	-78.217	0.187	-0.064
-523.989	-47.008	-0.268	-0.130
-522.975	-200.000	0.028	0.228
-521.960	-200.000	0.063	0.608
-520.945	2.105	0.254	0.182
-519.931	-75.944	-0.249	0.088
-518.916	-200.000	0.010	-0.207
-517.902	43.943	0.273	-0.250
-516.887	143.857	-0.250	-0.332
-515.872	1.860	0.104	-0.075
-514.858	111.947	-0.090	-0.109
-513.843	135.435	-0.137	-0.178
-512.829	-200.000	0.037	-0.387
-511.814	-59.274	-0.175	0.075
-510.799	800.000	0.036	0.146
-509.785	-59.233	-0.306	-0.131
-508.770	587.160	-0.153	-0.375
-507.756	455.368	0.033	-0.074
-506.741	-200.000	-0.010	0.186
-505.726	197.600	-0.190	-0.288
-504.712	-67.873	0.084	0.033
-503.697	7.595	-0.066	0.049
-502.683	-170.472	0.073	0.003
-501.668	-138.601	0.244	0.027
-500.653	-200.000	-0.073	-0.362
-499.639	800.000	-0.041	-0.147
-498.624	-77.879	0.253	0.087
-497.610	780.313	-0.039	-0.106
-496.595	110.102	-0.081	0.097
-495.581	-144.899	0.245	-0.022
-494.566	-126.619	0.176	0.026
-493.551	143.948	0.109	-0.145
-492.537	-114.020	0.045	0.009
-491.522	-89.390	0.369	0.108
-490.508	-55.622	0.113	0.050
-489.493	-81.280	-0.210	0.069
-488.478	-88.300	0.133	0.040
-487.464	25.449	-0.258	0.214
-486.449	93.091	-0.057	0.064
-485.435	-200.000	0.035	-0.179
-484.420	335.728	0.011	-0.021
-483.405	624.272	-0.059	-0.148
-482.391	-165.490	-0.192	0.008
-481.376	28.900	-0.127	-0.107
-480.362	-173.102	0.048	-0.001
-479.347	800.000	-0.045	-0.168
-478.332	110.769	-0.179	0.214
-477.318	18.729	-0.308	0.245
-476.303	-4.880	0.052	0.035
-475.289	800.000	0.004	-0.017
-474.274	-148.857	-0.317	-0.026
-473.259	-94.564	-0.249	0.067
-472.245	-51.134	-0.098	-0.046
-471.230	-39.046	-0.062	0.033
-470.216	188.865	0.067	-0.100
-469.201	-64.593	-0.260	0.105
-468.186	7.546	0.092	-0.068
-467.172	256.675	0.140	0.240
-466.157	85.833	0.396	-0.433
-465.143	137.511	0.116	-0.151
-464.128	-99.098	0.337	-0.085
-463.113	56.853	-0.292	0.282
-462.099	-200.000	0.039	0.199
-461.084	-200.000	-0.011	0.335
-460.070	-200.000	-0.044	0.300
-459.055	-80.714	-0.210	0.069
-458.040	-200.000	0.063	-0.277
-457.026	-142.335	0.268	0.026
-456.011	37.767	0.168	0.149
-454.997	-126.626	-0.057	0.008
-453.982	-1.977	-0.087	0.061
-452.968	-73.455	0.054	0.020
-451.953	800.000	0.047	-0.164
-450.938	158.868	-0.091	-0.126
-449.924	-200.000	0.000	-0.405
-448.909	-18.769	0.190	-0.118
-447.895	-187.794	-0.082	0.001
-446.880	-200.000	-0.005	-0.095
-445.865	800.000	0.061	-0.247
-444.851	13.758	-0.190	0.147
-443.836	210.819	-0.209	0.326
-442.822	21.293	0.234	-0.188
-441.807	-72.119	0.083	0.030
-440.792	-111.034	0.049	0.010
-439.778	-200.000	-0.019	-0.124
-438.763	-71.500	0.193	0.072
-437.749	-21.135	-0.258	-0.156
-436.734	-100.297	0.172	-0.042
-435.719	111.443	0.140	-0.168
-434.705	-200.000	-0.013	0.121
-433.690	-200.000	0.006	0.141
-432.676	-123.907	0.234	-0.037
-431.661	4.362	0.200	0.145
-430.646	-64.792	0.098	0.039
-429.632	449.143	-0.101	-0.221
-428.617	-36.013	-0.186	0.100
-427.603	297.823	0.177	0.323
-426.588	-200.000	0.014	-0.303
-425.573	76.245	-0.093	0.097
-424.559	-72.006	-0.267	-0.099
-423.544	-40.427	0.133	0.068
-422.530	286.473	-0.066	0.118
-421.515	-200.000	-0.042	-0.225
-420.500	250.444	0.099	0.166
-419.486	-148.995	-0.258	-0.021
-418.471	-65.977	0.306	0.121
-417.457	-62.942	-0.303	0.124
-416.442	170.737	-0.075	-0.107
-415.428	273.952	-0.056	-0.099
-414.413	29.252	-0.020	0.016
-413.398	-200.000	-0.023	0.180
-412.384	53.300	-0.104	0.099
-411.369	-200.000	-0.011	-0.147
-410.355	320.587	0.074	0.140
-409.340	-101.759	0.087	0.021
-408.325	-43.537	0.143	0.072
-407.311	-181.331	-0.242	-0.005
-406.296	30.043	0.093	-0.078
-405.282	29.468	0.111	0.094
-404.267	347.521	0.092	0.180
-403.252	19.299	-0.222	-0.177
-402.238	645.535	0.172	-0.436
-401.223	-200.000	0.100	-0.472
-400.209	-62.587	0.285	-0.117
-399.194	268.183	-0.086	-0.150
-398.179	-200.000	-0.022	0.285
-397.165	218.805	0.355	-0.563
-396.150	800.000	-0.015	-0.047
-395.136	-10.803	0.216	-0.142
-394.121	-4.909	-0.076	-0.052
-393.106	42.509	0.070	0.063
-392.092	293.008	-0.034	0.061
-391.077	-200.000	0.046	-0.364
-390.063	104.893	0.278	0.325
-389.048	-74.974	0.142	-0.050
-388.033	272.651	0.046	-0.081
-387.019	-200.000	-0.015	-0.274
-386.004	-200.000	-0.004	-0.311
-384.990	-200.000	-0.007	-0.239
-383.975	-24.350	-0.215	-0.127
-382.960	-60.378	-0.161	-0.068
-381.946	-9.221	0.213	0.141
-380.931	-154.938	0.155	0.010
-379.917	723.186	0.060	-0.158
-378.902	-101.527	-0.227	0.055
-377.888	-200.000	-0.062	0.300
-376.873	-200.000	0.024	0.155
-375.858	690.163	-0.107	-0.277
-374.844	1.095	0.147	0.104
-373.829	800.000	-0.062	-0.260
-372.815	106.307	-0.017	0.020
-371.800	-24.392	-0.166	0.098
-370.785	50.650	-0.251	0.235
-369.771	722.377	0.106	0.279
-368.756	55.730	-0.214	0.205
-367.742	-97.882	-0.331	-0.085
-366.727	467.682	-0.057	0.126
-365.712	22.011	0.075	0.060
-364.698	37.768	0.209	-0.183
-363.683	800.000	0.051	0.185
-362.669	-82.960	0.060	0.019
-361.654	-53.611	0.044	0.020
-360.639	417.885	-0.123	0.260
-359.625	-178.204	0.114	-0.003
-358.610	71.501	-0.245	0.252
-357.596	-28.737	0.248	0.141
-356.581	24.534	0.192	0.157
-355.566	-200.000	0.007	0.178
-354.552	-200.000	-0.009	0.143
-353.537	-200.000	-0.024	-0.143
-352.523	150.138	0.067	-0.090
-351.508	-200.000	-0.025	-0.160
-350.493	-25.236	-0.250	0.146
-349.479	587.066	-0.080	0.195
-348.464	30.069	0.190	-0.160
-347.450	555.586	0.066	0.156
-346.435	-2.527	-0.130	0.090
-345.420	-200.000	0.037	-0.241
-344.406	-123.351	-0.156	0.025
-343.391	643.919	0.023	-0.059
-342.377	9.003	0.196	0.147
-341.362	-119.761	0.352	-0.060
-340.348	800.000	0.101	-0.351
-339.333	63.586	-0.224	-0.223
-338.318	800.000	0.037	0.103
-337.304	50.647	0.093	-0.087
-336.289	-52.903	-0.181	-0.082
-335.275	221.249	0.068	-0.108
-334.260	-200.000	0.024	0.130
-333.245	-108.538	0.322	-0.068
-332.231	-39.887	-0.114	0.059
-331.216	-141.940	0.083	0.008
-330.202	-47.722	0.125	-0.060
-329.187	-117.826	0.266	-0.047
-328.172	-37.452	-0.248	-0.131
-327.158	-83.010	0.288	0.092
-326.143	-93.416	-0.188	0.052
-325.129	-78.663	-0.022	-0.007
-324.114	66.606	-0.104	0.105
-323.099	34.131	0.321	0.277
-322.085	123.004	-0.080	-0.099
-321.070	-26.963	-0.165	0.095
-320.056	-95.153	0.325	0.087
-319.041	-106.419	-0.255	-0.056
-318.026	-200.000	0.025	-0.132
-317.012	752.813	-0.110	-0.293
-315.997	425.357	-0.105	-0.223
-314.983	-41.756	0.144	-0.073
-313.968	-5.826	0.240	0.162
-312.953	-19.101	-0.237	0.145
-311.939	133.356	0.149	0.191
-310.924	-200.000	-0.008	0.107
-309.910	-200.000	0.018	0.133
-308.895	-105.564	-0.534	-0.120
-307.880	-200.000	0.032	0.463
-306.866	-22.541	-0.229	0.137
-305.851	-200.000	-0.015	-0.192
-304.837	-53.904	0.039	0.017
-303.822	9.730	0.130	0.097
-302.807	-200.000	-0.005	-0.166
-301.793	160.262	-0.070	-0.096
-300.778	-42.829	-0.435	0.218
-299.764	-114.516	-0.117	-0.022
-298.749	-93.650	-0.172	-0.047
-297.735	397.761	-0.048	-0.099
-296.720	72.152	0.196	0.201
-295.705	-200.000	0.038	0.206
-294.691	800.000	0.062	0.182
-293.676	800.000	-0.023	0.076
-292.662	-121.132	-0.496	0.082
-291.647	132.233	0.180	-0.229
-290.632	546.777	0.124	-0.292
-289.618	58.856	-0.198	-0.192
-288.603	650.785	0.112	0.282
-287.589	33.011	-0.211	0.181
-286.574	36.986	-0.325	-0.284
-285.559	16.071	-0.385	0.300
-284.545	-200.000	0.014	-0.108
-283.530	90.989	-0.251	0.278
-282.516	-127.662	-0.286	0.041
-281.501	-200.000	0.004	0.147
-280.486	306.370	0.108	0.198
-279.472	-126.777	-0.190	0.028
-278.457	176.054	0.143	-0.205
-277.443	-147.362	-0.220	-0.018
-276.428	-200.000	-0.057	0.547
-275.413	-154.949	0.343	-0.022
-274.399	-46.971	0.201	-0.097
-273.384	800.000	0.101	0.289
-272.370	76.979	0.256	0.268
-271.355	113.391	-0.192	-0.229
-270.340	-49.631	0.281	0.132
-269.326	-17.630	0.059	0.036
-268.311	-0.169	0.245	-0.172
-267.297	-53.475	-0.388	-0.175
-266.282	369.904	-0.046	-0.093
-265.267	573.595	-0.056	-0.134
-264.253	53.322	0.176	0.166
-263.238	162.467	0.187	0.258
-262.224	190.314	0.277	0.410
-261.209	77.566	-0.193	-0.202
-260.195	252.745	-0.195	-0.328
-259.180	800.000	-0.073	0.216
-258.165	-84.649	0.499	-0.155
-257.151	44.368	-0.143	0.129
-256.136	239.598	-0.064	0.105
-255.122	-35.224	0.329	-0.177
-254.107	-110.276	0.196	-0.040
-253.092	-172.642	0.090	-0.003
-252.078	-200.000	0.019	0.190
-251.063	64.606	-0.085	-0.085
-250.049	158.851	-0.083	0.113
-249.034	-33.374	-0.181	0.098
-248.019	-136.692	-0.248	0.028
-247.005	-48.305	-0.265	-0.126
-245.990	14.302	-0.119	0.091
-244.976	-200.000	0.051	0.224
-243.961	217.545	0.101	0.159
-242.946	-200.000	-0.003	-0.133
-241.932	-200.000	-0.022	0.188
-240.917	-200.000	-0.007	-0.144
-239.903	-200.000	0.040	-0.525
-238.888	107.025	0.024	-0.028
-237.873	800.000	0.027	-0.080
-236.859	-72.138	-0.206	-0.075
-235.844	189.671	-0.227	-0.335
-234.830	-200.000	-0.032	-0.138
-233.815	-200.000	0.006	-0.260
-232.800	20.012	-0.158	0.126
-231.786	149.431	0.056	-0.075
-230.771	-200.000	-0.007	-0.213
-229.757	-68.039	0.063	0.024
-228.742	-200.000	-0.007	-0.117
-227.727	-200.000	0.014	0.094
-226.713	-200.000	-0.051	0.223
-225.698	-72.368	0.229	-0.083
-224.684	70.091	-0.097	0.099
-223.669	-200.000	-0.070	-0.389
-222.655	-113.363	-0.300	-0.058
-221.640	800.000	0.023	0.080
-220.625	33.194	0.045	0.038
-219.611	455.523	-0.050	-0.110
-218.596	-200.000	0.008	0.062
-217.582	-123.324	0.215	-0.034
-216.567	-74.452	-0.016	0.006
-215.552	502.639	0.107	0.243
-214.538	-73.008	0.152	0.055
-213.523	509.985	-0.105	-0.239
-212.509	215.723	0.199	0.311
-211.494	-200.000	-0.057	-0.251
-210.479	251.702	0.235	-0.394
-209.465	-200.000	0.032	-0.147
-208.450	-56.360	0.041	-0.018
-207.436	71.375	-0.134	-0.137
-206.421	-75.337	-0.139	-0.049
-205.406	35.541	0.117	-0.101
-204.392	371.541	0.039	0.077
-203.377	239.621	-0.142	0.233
-202.363	800.000	0.058	0.208
-201.348	8.564	-0.141	0.105
-200.333	-200.000	-0.022	0.111
-199.319	-200.000	0.029	0.158
-198.304	-200.000	-0.013	-0.193
-197.290	284.684	0.068	0.120
-196.275	-29.211	0.254	0.143
-195.260	-154.432	-0.252	0.017
-194.246	-80.781	0.238	0.078
-193.231	-151.658	-0.031	0.002
-192.217	-15.619	-0.157	0.098
-191.202	-12.459	-0.146	0.094
-190.187	119.892	0.036	-0.044
-189.173	-200.000	-0.020	-0.184
-188.158	421.688	0.082	0.172
-187.144	7.978	0.141	0.104
-186.129	-200.000	-0.035	0.442
-185.114	-200.000	0.012	-0.230
-184.100	32.126	-0.236	-0.200
-183.085	-200.000	-0.000	0.032
-182.071	-129.520	-0.295	0.040
-181.056	216.324	-0.106	0.166
-180.042	-50.161	0.274	0.127
-179.027	-3.485	0.237	0.162
-178.012	800.000	-0.114	-0.392
-176.998	-26.133	-0.083	0.048
-175.983	-200.000	0.012	0.057
-174.969	-139.654	-0.103	-0.011
-173.954	345.620	0.080	-0.154
-172.939	44.426	0.063	-0.057
-171.925	-200.000	-0.014	-0.100
-170.910	-158.877	-0.225	-0.013
-169.896	43.002	-0.165	0.147
-168.881	-80.816	0.137	0.045
-167.866	800.000	0.012	-0.047
-166.852	91.514	-0.146	0.161
-165.837	-60.926	0.141	0.058
-164.823	-138.277	-0.258	-0.028
-163.808	195.674	0.144	-0.215
-162.793	40.669	0.211	-0.187
-161.779	-76.790	0.453	0.156
-160.764	726.293	-0.076	-0.200
-159.750	413.721	-0.045	0.094
-158.735	-200.000	-0.047	0.295
-157.720	-116.841	-0.087	0.016
-156.706	-200.000	-0.050	0.312
-155.691	-78.623	0.367	-0.123
-154.677	-101.846	0.437	-0.104
-153.662	-75.257	-0.332	0.116
-152.647	-200.000	0.031	-0.312
-151.633	398.967	0.207	0.427
-150.618	-60.512	0.357	-0.149
-149.604	-200.000	0.011	-0.162
-148.589	-82.185	-0.217	0.069
-147.574	145.874	0.082	0.108
-146.560	-200.000	0.084	0.507
-145.545	-79.407	0.114	-0.038
-144.531	800.000	0.073	-0.295
-143.516	-200.000	0.030	-0.203
-142.502	-147.650	-0.402	0.033
-141.487	-41.732	0.371	0.187
-140.472	204.376	-0.156	-0.237
-139.458	-142.554	0.302	-0.029
-138.443	8.534	-0.129	-0.095
-137.429	190.565	-0.086	-0.127
-136.414	-36.835	0.117	-0.061
-135.399	182.425	-0.167	-0.242
-134.385	-200.000	-0.046	-0.266
-133.370	800.000	0.147	0.432
-132.356	749.570	0.073	0.194
-131.341	155.050	-0.075	-0.101
-130.326	22.162	-0.156	-0.125
-129.312	-200.000	-0.022	0.179
-128.297	800.000	-0.008	-0.024
-127.283	-19.175	-0.068	-0.042
-126.268	-91.855	-0.341	-0.095
-125.253	-101.407	-0.125	-0.030
-124.239	159.488	-0.049	-0.067
-123.224	-51.950	-0.335	-0.153
-122.210	118.371	0.289	-0.349
