DTS Sentinel unit serial number:	SN413079Multiplexer serial number:	ORYXHardware model number:	OX4-SRSoftware version number:	ORYX F/W v4.00 Oryx Data Collector v3.7.2.0data status	okinstallation	princeton_trtdifferential loss correction	single-endedforward channel	channel 1reverse channel	N/Adate	2019/09/12time	19:18:34forward acquisition time	15.00reverse acquisition time	0.00gamma	496.2192k internal	0.2320k external	0.2320temperature offset calibration	1.0118default loss term (dB/km)	0.3790temperature slope calibration	1.0000multiplexer offset coefficient	1.0000multiplexer slope coefficient	1.0000fibre end	0.00T internal ref (°C)	32.44T ext. ref 1 (°C)	3.19T ext. ref 2 (°C)	27.01length (m)	temperature (°C)	Stokes	anti-Stokes-747.200	-148.326	0.719	0.060
-746.185	-101.655	-1.105	-0.271
-745.171	180.239	0.260	-0.386
-744.156	-63.687	0.672	-0.279
-743.142	486.778	-0.139	-0.320
-742.127	133.678	0.133	-0.174
-741.112	-47.116	-0.987	0.487
-740.098	-158.586	0.700	-0.041
-739.083	80.222	-0.311	-0.338
-738.069	-62.571	0.348	-0.146
-737.054	318.585	0.232	0.444
-736.039	-200.000	0.022	0.268
-735.025	-200.000	-0.015	-0.572
-734.010	-148.320	-0.491	-0.041
-732.996	-80.100	-0.381	-0.129
-731.981	-37.247	0.565	0.305
-730.966	-115.718	0.109	-0.021
-729.952	93.289	-0.362	0.414
-728.937	88.994	0.097	0.110
-727.923	37.833	-0.580	0.521
-726.908	-70.482	-1.079	-0.413
-725.894	800.000	0.117	-0.448
-724.879	255.024	-0.538	-0.932
-723.864	-157.818	-0.715	0.043
-722.850	59.407	-0.272	0.270
-721.835	-62.644	-0.575	-0.241
-720.821	32.612	-0.377	0.329
-719.806	-97.913	0.795	-0.207
-718.791	800.000	0.192	0.833
-717.777	-200.000	-0.134	0.610
-716.762	123.440	0.100	0.127
-715.748	-109.493	0.401	0.086
-714.733	-50.439	-0.433	-0.207
-713.718	-200.000	-0.073	-0.333
-712.704	663.388	-0.284	-0.740
-711.689	800.000	-0.043	-0.160
-710.675	-173.146	0.614	0.019
-709.660	-84.050	-1.230	0.395
-708.645	165.112	0.435	0.620
-707.631	-36.792	0.285	0.154
-706.616	800.000	-0.086	-0.357
-705.602	9.962	-0.307	-0.235
-704.587	595.154	0.207	-0.516
-703.572	142.602	-0.312	-0.418
-702.558	-32.754	-0.583	-0.327
-701.543	-200.000	-0.090	0.615
-700.529	-200.000	0.018	0.386
-699.514	-24.013	-0.277	-0.167
-698.499	656.300	0.184	0.478
-697.485	44.637	0.765	0.710
-696.470	-51.097	-0.246	0.117
-695.456	-129.203	0.262	-0.037
-694.441	-61.329	-0.158	0.067
-693.426	-37.038	-0.504	0.273
-692.412	800.000	-0.045	-0.172
-691.397	-51.225	0.182	-0.086
-690.383	-200.000	-0.068	-0.404
-689.368	-200.000	-0.009	0.356
-688.354	243.635	0.429	0.726
-687.339	121.418	-0.238	0.299
-686.324	526.202	0.298	-0.707
-685.310	-200.000	0.040	0.549
-684.295	78.232	-0.441	-0.475
-683.281	-65.075	0.513	0.209
-682.266	56.468	0.223	0.219
-681.251	57.851	0.199	-0.196
-680.237	800.000	0.150	-0.511
-679.222	-200.000	-0.190	0.877
-678.208	83.513	-0.227	-0.249
-677.193	229.492	0.163	-0.269
-676.178	113.140	-0.546	-0.667
-675.164	800.000	-0.116	-0.372
-674.149	85.117	-0.006	0.006
-673.135	238.265	0.221	-0.370
-672.120	-122.699	1.175	-0.192
-671.105	-200.000	0.045	0.364
-670.091	-20.581	-0.816	0.505
-669.076	-16.142	1.335	-0.855
-668.062	645.951	0.287	-0.739
-667.047	800.000	0.248	0.807
-666.032	186.524	0.379	-0.569
-665.018	800.000	-0.141	-0.577
-664.003	-140.749	-0.456	0.047
-662.989	-35.879	-0.457	0.249
-661.974	-127.182	0.809	0.119
-660.959	-56.162	0.396	0.177
-659.945	-108.290	-0.452	0.098
-658.930	-92.614	-0.164	0.046
-657.916	-109.193	-0.307	0.066
-656.901	-109.619	0.785	0.167
-655.886	-61.050	1.086	0.462
-654.872	-8.794	-0.229	0.155
-653.857	-80.335	0.431	0.145
-652.843	165.788	-0.121	0.172
-651.828	800.000	0.053	0.196
-650.814	800.000	0.245	0.695
-649.799	-73.516	-0.793	-0.292
-648.784	-200.000	-0.039	0.805
-647.770	-12.017	-0.602	0.397
-646.755	-110.213	-0.625	-0.131
-645.741	20.630	0.650	-0.530
-644.726	-22.414	0.127	-0.077
-643.711	115.508	-0.232	0.286
-642.697	-56.455	0.641	-0.286
-641.682	-79.578	0.124	0.042
-640.668	-15.361	-0.346	-0.223
-639.653	800.000	-0.251	0.719
-638.638	589.736	0.346	0.858
-637.624	-76.320	-0.672	-0.238
-636.609	-68.758	0.166	-0.065
-635.595	-20.141	0.574	-0.356
-634.580	-78.567	0.544	0.187
-633.565	800.000	0.040	-0.156
-632.551	800.000	-0.105	0.370
-631.536	-200.000	-0.010	-0.215
-630.522	214.385	0.147	-0.234
-629.507	-108.885	-0.811	0.174
-628.492	-12.700	0.501	0.329
-627.478	139.469	0.524	-0.694
-626.463	800.000	0.233	-0.952
-625.449	800.000	-0.050	-0.142
-624.434	280.590	-0.200	-0.359
-623.419	-1.775	0.050	-0.036
-622.405	44.430	0.062	0.057
-621.390	-200.000	-0.127	-0.751
-620.376	-104.538	0.240	0.056
-619.361	3.499	-0.954	-0.700
-618.346	-4.557	-0.927	-0.644
-617.332	-200.000	-0.062	0.536
-616.317	-200.000	0.112	0.712
-615.303	-167.399	-0.872	0.035
-614.288	-95.974	0.073	-0.019
-613.273	800.000	0.175	0.501
-612.259	49.755	-0.407	-0.386
-611.244	35.174	-0.514	-0.453
-610.230	18.465	0.297	0.239
-609.215	162.891	0.307	-0.433
-608.201	800.000	-0.255	0.814
-607.186	12.297	0.423	-0.327
-606.171	311.504	-0.278	0.525
-605.157	174.156	0.361	0.525
-604.142	-54.900	-0.990	0.449
-603.128	-148.573	-0.445	-0.037
-602.113	-70.797	0.643	-0.244
-601.098	800.000	-0.098	-0.320
-600.084	-93.386	0.902	-0.251
-599.069	46.673	-0.749	0.699
-598.055	43.051	-0.491	0.450
-597.040	9.492	0.155	-0.118
-596.025	-200.000	-0.013	-0.689
-595.011	139.462	0.194	0.257
-593.996	-118.875	-0.209	-0.037
-592.982	-104.689	-0.814	0.189
-591.967	-140.622	-0.745	-0.078
-590.952	-111.028	0.476	0.098
-589.938	-147.514	-0.847	-0.072
-588.923	-200.000	0.019	0.114
-587.909	591.906	0.162	0.402
-586.894	248.569	0.330	-0.562
-585.879	-106.504	-0.404	0.091
-584.865	-0.783	0.561	0.400
-583.850	54.425	0.423	-0.409
-582.836	-160.113	-0.344	0.019
-581.821	-200.000	0.093	-0.835
-580.806	-200.000	0.084	-0.813
-579.792	-158.281	0.494	-0.029
-578.777	155.799	0.470	-0.651
-577.763	800.000	-0.138	0.549
-576.748	-119.425	0.779	-0.136
-575.733	0.825	-0.902	0.649
-574.719	13.667	0.117	0.091
-573.704	131.956	-0.607	0.785
-572.690	-129.676	0.915	-0.127
-571.675	-89.694	0.602	-0.177
-570.661	212.641	0.418	-0.662
-569.646	-200.000	0.049	-0.649
-568.631	-114.390	-0.437	0.084
-567.617	15.938	-0.680	0.538
-566.602	174.974	0.524	-0.762
-565.588	40.063	0.193	0.174
-564.573	-70.512	-0.834	0.317
-563.558	257.039	-0.112	0.193
-562.544	-145.764	-0.241	-0.022
-561.529	-93.937	-0.247	0.068
-560.515	58.263	-0.593	-0.584
-559.500	-200.000	0.006	0.149
-558.485	47.206	0.029	0.027
-557.471	800.000	0.221	0.757
-556.456	-57.314	0.479	0.211
-555.442	-200.000	0.062	-0.506
-554.427	-200.000	0.045	0.305
-553.412	-200.000	-0.050	0.238
-552.398	24.989	0.450	0.375
-551.383	214.496	-0.479	0.761
-550.369	800.000	0.168	-0.653
-549.354	-173.087	-0.410	0.013
-548.339	-200.000	0.037	0.609
-547.325	-200.000	-0.126	0.588
-546.310	-10.300	0.305	-0.203
-545.296	-64.890	-0.905	-0.367
-544.281	-2.005	0.338	0.238
-543.266	326.440	0.089	0.171
-542.252	-91.172	0.289	-0.083
-541.237	-200.000	-0.038	-0.435
-540.223	-129.986	0.181	0.025
-539.208	35.475	-0.507	0.446
-538.193	66.221	0.192	-0.196
-537.179	-1.039	0.348	-0.247
-536.164	81.572	1.024	1.111
-535.150	-18.163	-0.223	0.140
-534.135	21.197	-0.387	0.315
-533.121	-65.092	-0.557	-0.225
-532.106	678.223	-0.227	0.592
-531.091	800.000	0.028	0.105
-530.077	12.716	0.905	-0.701
-529.062	358.843	-0.328	-0.656
-528.048	41.640	0.274	0.249
-527.033	-200.000	0.128	-0.746
-526.018	392.292	0.284	0.592
-525.004	626.531	0.134	0.338
-523.989	-176.838	-0.110	0.003
-522.975	10.590	0.298	0.228
-521.960	-200.000	0.238	0.000
-520.945	29.489	0.682	-0.581
-519.931	58.445	0.549	-0.540
-518.916	-104.971	0.278	0.064
-517.902	-133.818	-0.747	-0.093
-516.887	-200.000	-0.082	0.599
-515.872	-200.000	-0.138	0.690
-514.858	-105.069	-0.116	-0.027
-513.843	-111.060	-0.690	0.142
-512.829	-46.787	0.339	0.166
-511.814	168.520	0.586	-0.837
-510.799	-19.959	0.570	-0.352
-509.785	-200.000	-0.050	0.331
-508.770	208.481	-0.231	0.362
-507.756	-200.000	-0.061	0.632
-506.741	-200.000	0.084	0.430
-505.726	-200.000	0.027	-0.352
-504.712	230.324	-0.288	-0.472
-503.697	18.280	0.880	0.704
-502.683	-49.491	0.263	0.125
-501.668	800.000	-0.221	0.764
-500.653	800.000	-0.142	-0.469
-499.639	-81.776	0.529	0.174
-498.624	-106.743	-0.809	-0.180
-497.610	-165.471	-0.220	-0.010
-496.595	239.120	0.486	-0.809
-495.581	-155.261	-0.945	-0.062
-494.566	-105.429	0.821	-0.187
-493.551	-37.598	-0.634	0.338
-492.537	-107.372	1.380	0.303
-491.522	-68.166	0.345	0.134
-490.508	-44.342	0.862	0.432
-489.493	-6.078	1.052	-0.720
-488.478	95.246	-0.196	0.223
-487.464	89.071	-0.187	0.209
-486.449	-200.000	0.061	0.388
-485.435	-182.068	-0.699	0.013
-484.420	-124.402	0.147	0.023
-483.405	-109.055	-0.320	0.068
-482.391	109.893	0.323	-0.387
-481.376	-200.000	0.068	0.389
-480.362	-200.000	-0.123	-1.130
-479.347	216.305	-0.227	-0.361
-478.332	80.881	0.508	0.548
-477.318	139.714	-0.171	0.226
-476.303	61.614	-0.325	-0.324
-475.289	-162.588	0.188	0.009
-474.274	-50.685	0.784	0.369
-473.259	-81.393	0.576	-0.190
-472.245	-90.210	0.688	-0.200
-471.230	3.158	0.287	-0.209
-470.216	-38.250	-0.426	-0.226
-469.201	60.012	-0.530	-0.524
-468.186	-200.000	0.030	-0.605
-467.172	88.068	0.197	0.218
-466.157	369.007	-0.253	-0.512
-465.143	-155.569	0.165	-0.011
-464.128	-67.602	-0.092	-0.036
-463.113	257.271	0.366	-0.630
-462.099	800.000	-0.213	0.626
-461.084	-125.469	-0.501	-0.076
-460.070	-200.000	0.040	0.642
-459.055	-198.077	-0.643	-0.004
-458.040	-15.623	0.361	-0.230
-457.026	281.385	0.216	-0.386
-456.011	-21.567	0.215	-0.131
-454.997	253.940	0.157	-0.269
-453.982	-85.140	-0.959	-0.300
-452.968	800.000	0.085	-0.242
-451.953	233.093	0.272	-0.447
-450.938	352.256	-0.150	0.298
-449.924	91.696	-0.421	-0.473
-448.909	72.671	-0.170	0.177
-447.895	105.531	-0.523	0.617
-446.880	-64.394	1.321	0.537
-445.865	576.976	-0.115	0.280
-444.851	-200.000	-0.051	0.516
-443.836	184.546	0.313	-0.463
-442.822	-129.854	0.328	0.045
-441.807	800.000	-0.063	0.207
-440.792	-150.218	0.408	0.032
-439.778	47.841	0.234	-0.218
-438.763	379.931	-0.115	-0.236
-437.749	127.538	0.373	-0.473
-436.734	765.522	0.162	-0.441
-435.719	-108.017	0.791	-0.172
-434.705	130.403	-0.211	0.271
-433.690	800.000	0.099	-0.276
-432.676	711.167	-0.112	-0.295
-431.661	800.000	-0.272	0.827
-430.646	-200.000	0.014	-0.080
-429.632	-0.267	-0.809	-0.575
-428.617	-200.000	-0.102	0.659
-427.603	38.946	0.384	0.343
-426.588	5.736	0.242	-0.179
-425.573	82.756	-0.204	-0.222
-424.559	52.475	0.029	0.028
-423.544	-83.272	0.448	0.144
-422.530	-72.229	-0.368	0.136
-421.515	150.720	-0.098	-0.133
-420.500	25.754	-0.711	0.592
-419.486	-53.762	0.469	-0.214
-418.471	-10.856	-0.082	0.054
-417.457	-200.000	0.032	0.641
-416.442	548.424	-0.184	-0.439
-415.428	-122.992	0.309	-0.050
-414.413	32.431	-0.576	0.497
-413.398	-200.000	0.025	0.183
-412.384	-200.000	-0.003	0.166
-411.369	478.236	-0.340	0.769
-410.355	-17.548	0.535	-0.336
-409.340	-178.589	-0.249	0.006
-408.325	-200.000	0.043	-0.234
-407.311	-153.975	-0.526	-0.036
-406.296	43.192	0.369	0.336
-405.282	-186.317	-0.715	0.010
-404.267	569.180	-0.161	-0.391
-403.252	800.000	0.106	0.338
-402.238	800.000	-0.143	-0.550
-401.223	-113.482	-1.756	-0.343
-400.209	-17.459	0.420	0.263
-399.194	-46.688	1.152	-0.563
-398.179	74.163	0.189	0.197
-397.165	-28.359	-0.844	0.486
-396.150	-200.000	0.008	0.740
-395.136	-30.243	0.361	0.205
-394.121	195.832	-0.133	-0.202
-393.106	66.998	-0.491	-0.499
-392.092	524.469	0.303	0.712
-391.077	221.567	0.506	0.810
-390.063	-115.176	-0.092	0.017
-389.048	-136.706	0.194	0.022
-388.033	184.555	0.452	-0.668
-387.019	-66.812	0.360	-0.142
-386.004	147.065	-0.097	-0.130
-384.990	-3.096	-0.511	-0.355
-383.975	-200.000	0.004	0.147
-382.960	-113.232	0.394	-0.077
-381.946	-121.842	-0.135	-0.022
-380.931	-94.887	-0.405	0.109
-379.917	-107.465	-0.173	-0.038
-378.902	0.139	-0.569	0.404
-377.888	49.426	-0.875	-0.821
-376.873	-148.461	-0.313	0.026
-375.858	-91.427	-0.612	-0.174
-374.844	-53.502	-0.716	-0.327
-373.829	296.365	0.240	0.439
-372.815	541.275	-0.074	-0.176
-371.800	-77.593	-0.342	0.118
-370.785	-200.000	0.064	-0.302
-369.771	383.069	-0.145	-0.297
-368.756	285.368	0.291	0.522
-367.742	378.945	0.139	0.284
-366.727	69.796	-0.239	0.245
-365.712	14.864	-0.254	-0.198
-364.698	395.773	0.399	-0.830
-363.683	-200.000	0.089	-0.825
-362.669	-200.000	0.100	-0.514
-361.654	-200.000	0.034	0.480
-360.639	-56.119	0.566	-0.251
-359.625	378.563	0.057	-0.116
-358.610	-200.000	-0.120	0.949
-357.596	-200.000	-0.069	0.463
-356.581	-67.350	0.459	0.180
-355.566	261.482	0.162	0.279
-354.552	-200.000	-0.136	0.680
-353.537	-176.441	0.620	0.016
-352.523	-200.000	-0.025	-0.479
-351.508	-71.634	-0.855	-0.318
-350.493	800.000	-0.128	-0.366
-349.479	-158.692	0.251	0.014
-348.464	-51.565	-0.139	-0.064
-347.450	-200.000	-0.171	1.031
-346.435	800.000	0.116	-0.391
-345.420	800.000	-0.170	-0.576
-344.406	-162.465	0.963	0.047
-343.391	-92.693	-0.627	0.175
-342.377	-37.084	0.077	0.041
-341.362	-116.971	0.437	0.079
-340.348	-29.284	-0.276	0.157
-339.333	302.787	-0.316	-0.583
-338.318	-48.153	0.409	-0.197
-337.304	800.000	0.131	0.443
-336.289	218.495	-0.423	0.672
-335.275	565.909	-0.032	-0.077
-334.260	222.647	-0.060	0.096
-333.245	-68.694	0.468	0.180
-332.231	-92.185	-0.678	0.190
-331.216	-45.625	-0.283	0.139
-330.202	143.153	-0.330	-0.437
-329.187	-200.000	0.032	-0.254
-328.172	-166.603	0.490	0.020
-327.158	-200.000	0.120	0.627
-326.143	-93.876	0.436	-0.119
-325.129	142.271	-0.311	-0.411
-324.114	-35.654	0.031	-0.017
-323.099	82.947	-0.517	-0.560
-322.085	364.374	-0.281	-0.561
-321.070	334.938	0.168	-0.323
-320.056	-200.000	-0.040	-0.460
-319.041	179.802	-0.366	0.533
-318.026	336.730	0.104	-0.201
-317.012	-5.575	-0.314	-0.214
-315.997	-109.514	-0.253	-0.053
-314.983	638.807	0.506	-1.280
-313.968	-41.758	-0.862	-0.440
-312.953	-19.841	0.681	-0.418
-311.939	-91.605	0.211	0.060
-310.924	-28.461	-0.553	0.317
-309.910	-149.256	0.469	0.037
-308.895	800.000	0.048	0.167
-307.880	800.000	0.004	0.019
-306.866	-70.243	-0.095	0.036
-305.851	191.358	0.254	-0.381
-304.837	-15.238	0.465	-0.296
-303.822	356.648	0.300	-0.593
-302.807	-83.503	0.702	0.223
-301.793	-120.216	0.641	-0.109
-300.778	47.808	-0.314	-0.292
-299.764	133.109	0.266	-0.341
-298.749	800.000	-0.163	0.578
-297.735	800.000	0.132	0.560
-296.720	-200.000	-0.025	0.245
-295.705	16.292	-0.563	-0.442
-294.691	-100.488	0.527	0.129
-293.676	-200.000	-0.046	0.864
-292.662	-200.000	-0.108	0.722
-291.647	800.000	0.128	-0.472
-290.632	-23.433	0.115	-0.069
-289.618	-90.783	-0.645	0.185
-288.603	-7.708	-0.549	0.368
-287.589	111.195	-0.067	0.080
-286.574	32.340	0.349	-0.300
-285.559	-103.032	-0.439	-0.103
-284.545	-200.000	0.061	0.451
-283.530	-200.000	-0.151	0.850
-282.516	84.763	0.315	0.342
-281.501	-120.975	0.849	0.142
-280.486	-200.000	0.003	-0.706
-279.472	88.922	-0.386	-0.427
-278.457	-50.647	-0.904	0.423
-277.443	-52.727	-0.176	-0.081
-276.428	43.696	-0.239	-0.218
-275.413	-44.350	-0.462	-0.230
-274.399	23.870	-0.410	-0.335
-273.384	-82.176	0.592	-0.191
-272.370	525.089	-0.320	0.748
-271.355	-113.337	1.042	0.203
-270.340	114.359	-0.176	0.213
-269.326	-47.017	-0.885	0.429
-268.311	-66.428	0.264	-0.104
-267.297	777.551	0.172	-0.467
-266.282	180.023	0.409	-0.595
-265.267	-200.000	-0.078	0.424
-264.253	42.258	-0.365	-0.329
-263.238	-35.919	0.133	-0.071
-262.224	-110.729	-0.528	0.108
-261.209	-53.842	0.223	0.101
-260.195	226.092	0.310	0.499
-259.180	89.998	-0.099	-0.109
-258.165	458.818	-0.162	-0.358
-257.151	32.589	0.793	0.680
-256.136	266.629	-0.617	-1.070
-255.122	-123.519	0.773	0.122
-254.107	-200.000	-0.017	0.088
-253.092	800.000	-0.099	0.345
-252.078	-3.083	0.102	0.071
-251.063	448.545	-0.072	-0.158
-250.049	321.969	0.133	0.251
-249.034	177.087	0.557	0.804
-248.019	207.559	-0.202	-0.312
-247.005	-36.190	1.228	0.658
-245.990	-200.000	0.260	-1.151
-244.976	-76.694	0.492	-0.171
-243.961	800.000	0.089	0.312
-242.946	-76.345	-0.361	-0.126
-241.932	266.127	-0.242	0.419
-240.917	800.000	-0.121	-0.494
-239.903	-64.665	0.362	-0.146
-238.888	-200.000	0.056	0.409
-237.873	106.037	-0.378	0.444
-236.859	49.401	0.511	0.476
-235.844	-104.599	0.705	-0.161
-234.830	-200.000	0.078	-0.700
-233.815	-200.000	0.062	0.646
-232.800	-200.000	0.089	0.524
-231.786	65.660	-0.349	-0.350
-230.771	-197.748	-0.356	0.002
-229.757	68.265	-0.394	-0.400
-228.742	-125.144	-0.631	-0.096
-227.727	-112.071	0.866	0.173
-226.713	506.200	0.083	0.190
-225.698	-200.000	0.009	-0.167
-224.684	547.116	-0.191	-0.454
-223.669	17.643	-0.781	-0.615
-222.655	-43.911	0.450	0.224
-221.640	-85.131	0.480	0.149
-220.625	106.955	-0.462	0.543
-219.611	-200.000	0.054	-0.509
-218.596	-200.000	-0.224	1.133
-217.582	-127.526	1.045	0.150
-216.567	566.824	-0.486	-1.167
-215.552	-55.803	-0.766	0.339
-214.538	173.783	0.501	0.717
-213.523	442.350	-0.143	-0.311
-212.509	-64.878	-0.377	-0.151
-211.494	24.443	-0.143	0.117
-210.479	629.558	0.299	-0.749
-209.465	-77.127	-0.361	0.125
-208.450	800.000	0.411	-1.413
-207.436	397.882	0.407	0.843
-206.421	-200.000	0.006	0.136
-205.406	223.603	-0.208	0.332
-204.392	65.043	0.712	-0.712
-203.377	-36.731	0.712	-0.379
-202.363	73.636	-0.350	0.363
-201.348	-167.061	0.599	0.024
-200.333	78.819	-0.047	-0.050
-199.319	-173.230	0.876	-0.026
-198.304	110.598	-0.497	-0.591
-197.290	20.362	-0.385	0.308
-196.275	484.514	-0.179	0.404
-195.260	-200.000	0.018	-0.225
-194.246	-135.190	0.381	-0.045
-193.231	9.263	-0.172	0.128
-192.217	-177.911	0.303	0.007
-191.202	-200.000	-0.047	0.720
-190.187	125.053	-0.343	-0.427
-189.173	-184.439	0.852	-0.014
-188.158	-70.803	0.192	0.072
-187.144	-116.914	-0.619	0.112
-186.129	-7.981	-0.765	0.510
-185.114	-46.416	0.344	0.167
-184.100	-143.687	-0.438	-0.041
-183.085	-200.000	-0.045	0.360
-182.071	-112.482	0.558	0.110
-181.056	98.160	-0.683	-0.778
-180.042	-200.000	0.095	-0.781
-179.027	-200.000	-0.078	-1.013
-178.012	98.899	-0.398	0.455
-176.998	32.843	0.122	-0.105
-175.983	453.304	-0.185	-0.406
-174.969	24.403	-0.314	-0.257
-173.954	50.696	0.243	-0.228
-172.939	-91.050	-0.640	-0.182
-171.925	21.906	0.050	-0.040
-170.910	539.492	0.320	0.753
-169.896	-93.995	0.023	-0.006
-168.881	-200.000	-0.010	0.507
-167.866	28.734	0.370	0.310
-166.852	41.829	-0.320	0.287
-165.837	-128.361	-0.387	0.054
-164.823	56.553	-0.256	-0.246
-163.808	-156.329	-0.329	0.020
-162.793	-104.193	0.659	-0.151
-161.779	-82.063	-0.972	-0.314
-160.764	-158.523	-0.543	-0.031
-159.750	-44.483	0.225	0.111
-158.735	-109.938	-0.502	0.104
-157.720	-76.564	-0.601	0.209
-156.706	24.826	0.770	0.630
-155.691	-200.000	-0.028	-0.777
-154.677	66.238	0.123	-0.124
-153.662	-169.066	0.610	-0.022
-152.647	-200.000	0.091	0.444
-151.633	800.000	0.225	0.940
-150.618	19.626	-0.360	-0.286
-149.604	-34.444	-0.230	0.124
-148.589	-2.544	-0.297	-0.206
-147.574	800.000	-0.134	0.436
-146.560	-46.379	-0.124	0.060
-145.545	-200.000	0.108	0.720
-144.531	47.414	0.466	0.428
-143.516	242.294	-0.452	0.747
-142.502	209.869	-0.346	0.536
-141.487	-54.371	-0.421	0.189
-140.472	-85.966	0.474	0.145
-139.458	-200.000	-0.060	-0.260
-138.443	36.011	0.767	-0.667
-137.429	-200.000	0.065	0.320
-136.414	800.000	-0.212	-0.787
-135.399	-17.546	-0.166	0.103
-134.385	-0.816	-0.211	0.147
-133.370	-22.725	0.573	0.342
-132.356	-127.106	0.631	-0.091
-131.341	-67.402	-0.573	-0.222
-130.326	800.000	0.142	0.548
-129.312	-116.375	-0.631	-0.115
-128.297	-200.000	0.030	0.150
-127.283	107.146	-0.416	0.488
-126.268	-106.677	0.473	-0.104
-125.253	131.379	-0.150	-0.190
-124.239	-104.007	-0.416	0.096
-123.224	-48.268	0.215	-0.102
-122.210	3.157	0.526	0.377
-121.195	76.899	-0.295	-0.309
