DTS Sentinel unit serial number:	SN413079Multiplexer serial number:	ORYXHardware model number:	OX4-SRSoftware version number:	ORYX F/W v4.00 Oryx Data Collector v3.7.2.0data status	okinstallation	princeton_trtdifferential loss correction	single-endedforward channel	channel 1reverse channel	N/Adate	2019/09/12time	19:25:34forward acquisition time	15.00reverse acquisition time	0.00gamma	496.2192k internal	0.2322k external	0.2322temperature offset calibration	1.0114default loss term (dB/km)	0.3790temperature slope calibration	1.0000multiplexer offset coefficient	1.0000multiplexer slope coefficient	1.0000fibre end	0.00T internal ref (°C)	32.37T ext. ref 1 (°C)	3.25T ext. ref 2 (°C)	26.90length (m)	temperature (°C)	Stokes	anti-Stokes-747.200	23.072	0.305	-0.253
-746.185	-78.881	-0.706	0.243
-745.171	-135.764	0.969	-0.116
-744.156	706.881	0.295	0.787
-743.142	800.000	0.122	-0.539
-742.127	-200.000	0.013	-0.115
-741.112	800.000	0.073	0.313
-740.098	162.371	-0.366	0.518
-739.083	-107.560	0.323	0.072
-738.069	42.652	0.186	-0.171
-737.054	-99.135	0.666	-0.170
-736.039	33.433	-0.785	-0.689
-735.025	800.000	-0.329	1.131
-734.010	-200.000	-0.008	0.595
-732.996	-200.000	-0.018	0.298
-731.981	-26.758	0.596	-0.352
-730.966	-51.401	0.336	-0.159
-729.952	-200.000	-0.019	-0.113
-728.937	310.575	0.242	-0.457
-727.923	800.000	0.115	0.377
-726.908	800.000	-0.133	-0.582
-725.894	38.271	0.337	-0.303
-724.879	-200.000	0.032	0.342
-723.864	-79.275	-0.237	-0.081
-722.850	250.101	0.438	0.751
-721.835	-37.258	0.188	0.101
-720.821	367.208	0.108	0.221
-719.806	-200.000	-0.106	-1.103
-718.791	55.325	0.190	0.186
-717.777	-74.389	0.441	0.161
-716.762	394.643	0.215	-0.452
-715.748	29.100	0.743	0.636
-714.733	364.989	-0.182	-0.370
-713.718	-101.279	0.401	0.099
-712.704	800.000	-0.111	0.345
-711.689	-141.400	-0.305	0.031
-710.675	-64.009	0.647	0.267
-709.660	800.000	0.123	0.394
-708.645	158.831	0.117	0.164
-707.631	337.519	0.265	0.520
-706.616	-200.000	0.260	0.000
-705.602	-26.729	-0.465	-0.274
-704.587	-73.034	-0.301	0.111
-703.572	25.919	0.579	-0.487
-702.558	-200.000	-0.047	-0.875
-701.543	-119.171	-0.127	-0.022
-700.529	800.000	-0.145	0.460
-699.514	195.833	0.400	0.614
-698.499	6.295	0.634	0.474
-697.485	800.000	-0.161	-0.653
-696.470	800.000	0.160	0.591
-695.456	7.212	-0.651	0.490
-694.441	-37.717	0.443	0.238
-693.426	-114.066	0.114	0.022
-692.412	23.769	-0.237	-0.197
-691.397	340.895	-0.359	-0.707
-690.383	288.962	0.104	0.191
-689.368	-200.000	0.083	-0.447
-688.354	142.341	-0.279	-0.373
-687.339	800.000	-0.212	-0.753
-686.324	26.271	-0.645	-0.543
-685.310	77.438	-0.665	-0.713
-684.295	245.208	0.161	0.273
-683.281	30.202	0.649	-0.558
-682.266	800.000	-0.091	0.281
-681.251	27.738	-0.358	0.304
-680.237	-200.000	0.022	0.396
-679.222	-169.958	-0.137	0.005
-678.208	-126.859	0.420	-0.062
-677.193	800.000	0.143	0.605
-676.178	793.437	0.069	-0.192
-675.164	227.344	-0.259	-0.424
-674.149	-137.221	0.709	0.081
-673.135	-200.000	-0.108	0.652
-672.120	-75.418	0.702	-0.252
-671.105	-200.000	0.050	-0.520
-670.091	-200.000	-0.125	-0.601
-669.076	-139.214	0.422	0.046
-668.062	-36.343	0.235	0.127
-667.047	189.991	-0.363	0.548
-666.032	268.380	0.271	-0.478
-665.018	60.453	-0.148	0.147
-664.003	184.821	0.248	0.370
-662.989	-40.889	0.050	-0.026
-661.974	768.184	0.311	0.853
-660.959	-166.760	-0.575	-0.024
-659.945	-173.353	-0.324	0.010
-658.930	-54.768	0.265	-0.120
-657.916	-98.394	0.488	-0.126
-656.901	85.925	-0.270	0.299
-655.886	260.969	0.252	0.439
-654.872	-131.471	0.211	-0.028
-653.857	-151.567	-0.437	-0.033
-652.843	248.757	-0.065	0.111
-651.828	-142.751	-0.544	-0.053
-650.814	6.371	0.759	0.567
-649.799	287.219	-0.373	0.679
-648.784	-128.969	-0.663	-0.094
-647.770	-6.168	0.663	-0.456
-646.755	8.556	-0.554	-0.420
-645.741	-134.080	-0.282	0.035
-644.726	384.904	0.137	0.284
-643.711	371.439	0.210	0.428
-642.697	-200.000	-0.137	-0.676
-641.682	-132.568	0.388	0.050
-640.668	-133.880	0.875	-0.109
-639.653	13.045	-0.283	0.221
-638.638	-117.836	-0.829	-0.150
-637.624	552.084	0.087	-0.211
-636.609	-2.908	0.607	0.427
-635.595	-69.607	0.818	0.315
-634.580	64.230	0.221	-0.224
-633.565	326.777	-0.164	0.315
-632.551	-38.979	1.160	0.614
-631.536	215.299	0.310	-0.495
-630.522	-58.977	0.746	0.324
-629.507	-45.414	0.459	0.229
-628.492	3.030	-0.671	-0.490
-627.478	-200.000	-0.001	-0.140
-626.463	-112.233	0.590	-0.119
-625.449	-200.000	0.024	-0.506
-624.434	-200.000	0.048	-0.619
-623.419	-200.000	-0.023	-0.394
-622.405	-147.406	-0.384	0.033
-621.390	-200.000	0.066	0.333
-620.376	-150.749	-0.348	-0.027
-619.361	800.000	0.034	0.142
-618.346	21.051	-0.359	0.293
-617.332	66.814	-0.276	-0.282
-616.317	800.000	0.151	-0.423
-615.303	147.547	0.143	-0.193
-614.288	76.629	0.522	0.557
-613.273	366.234	-0.137	0.277
-612.259	-92.008	0.389	0.111
-611.244	-118.331	-1.012	-0.181
-610.230	-4.973	0.598	0.414
-609.215	-24.016	-0.405	0.244
-608.201	-58.086	0.705	0.309
-607.186	-200.000	0.010	-0.489
-606.171	-200.000	0.032	0.403
-605.157	-200.000	0.016	-0.530
-604.142	-200.000	0.075	0.458
-603.128	263.176	-0.073	0.127
-602.113	5.456	0.375	-0.278
-601.098	-166.102	-0.753	-0.032
-600.084	-32.062	-0.246	0.138
-599.069	-200.000	-0.051	1.014
-598.055	57.875	-0.275	0.271
-597.040	-93.452	0.465	-0.129
-596.025	4.182	0.187	0.138
-595.011	-15.149	-0.281	0.181
-593.996	8.969	0.573	-0.434
-592.982	-52.538	-0.834	-0.387
-591.967	-99.472	0.159	-0.040
-590.952	-200.000	-0.021	0.175
-589.938	-134.476	-0.788	0.097
-588.923	13.289	-0.316	0.246
-587.909	654.077	0.223	0.575
-586.894	-45.390	-0.249	-0.124
-585.879	-200.000	0.045	0.359
-584.865	-149.099	0.233	0.019
-583.850	-48.956	0.367	-0.177
-582.836	183.155	-0.119	-0.177
-581.821	-200.000	-0.255	-1.318
-580.806	-91.795	-0.406	0.116
-579.792	2.931	0.701	0.511
-578.777	-99.943	-0.516	-0.129
-577.763	800.000	-0.233	0.842
-576.748	118.612	0.484	0.599
-575.733	138.510	0.187	-0.246
-574.719	-102.032	-1.110	-0.268
-573.704	-181.117	0.256	-0.005
-572.690	-20.322	0.509	0.315
-571.675	236.470	0.174	0.289
-570.661	-200.000	0.027	-0.401
-569.646	57.770	-0.349	0.342
-568.631	-112.220	0.395	0.079
-567.617	-79.565	-0.372	-0.126
-566.602	800.000	0.172	-0.628
-565.588	82.143	-0.357	-0.388
-564.573	-66.460	-0.430	0.171
-563.558	-136.271	1.065	-0.125
-562.544	-200.000	-0.024	-0.372
-561.529	-200.000	0.282	1.646
-560.515	-91.173	0.263	-0.076
-559.500	33.219	-0.650	0.565
-558.485	800.000	-0.209	0.789
-557.471	-64.727	-0.293	-0.119
-556.456	-31.158	0.163	0.092
-555.442	-98.191	-0.892	0.230
-554.427	11.421	-0.254	0.195
-553.412	321.795	-0.337	-0.643
-552.398	-200.000	0.156	-0.790
-551.383	56.780	-0.577	-0.563
-550.369	465.391	-0.280	-0.627
-549.354	346.904	-0.478	-0.942
-548.339	647.602	0.216	-0.553
-547.325	58.033	0.244	0.240
-546.310	-200.000	0.012	-0.421
-545.296	164.568	-0.542	0.766
-544.281	471.134	0.234	-0.527
-543.266	173.821	0.226	0.327
-542.252	169.145	0.127	-0.182
-541.237	1.780	0.688	0.497
-540.223	-13.147	-0.096	-0.062
-539.208	34.447	0.488	0.427
-538.193	-141.092	-0.906	-0.093
-537.179	19.439	-0.594	0.478
-536.164	82.362	0.546	0.594
-535.150	58.240	0.483	0.474
-534.135	-34.098	-0.602	0.332
-533.121	-70.272	0.187	-0.071
-532.106	-200.000	0.040	-0.405
-531.091	800.000	-0.228	0.644
-530.077	-200.000	0.108	0.806
-529.062	-122.527	0.213	0.035
-528.048	800.000	-0.170	0.612
-527.033	-117.586	-0.345	0.062
-526.018	800.000	-0.033	0.097
-525.004	-200.000	0.015	0.322
-523.989	369.896	-0.163	-0.330
-522.975	-36.035	0.530	0.287
-521.960	800.000	-0.080	-0.349
-520.945	800.000	0.062	0.212
-519.931	-89.476	-0.820	0.241
-518.916	32.327	0.444	-0.384
-517.902	54.838	0.408	-0.394
-516.887	-85.164	-0.263	-0.082
-515.872	58.847	-0.201	-0.198
-514.858	-91.625	-0.255	0.073
-513.843	272.278	0.649	-1.146
-512.829	-139.050	0.971	0.105
-511.814	44.419	0.499	-0.459
-510.799	307.967	-0.113	0.211
-509.785	738.820	0.102	-0.273
-508.770	423.124	0.325	-0.699
-507.756	-200.000	0.002	-0.731
-506.741	-33.295	-0.888	-0.492
-505.726	-200.000	-0.082	0.691
-504.712	-94.574	1.031	-0.281
-503.697	33.721	-0.533	-0.464
-502.683	-7.138	-0.804	-0.546
-501.668	212.747	-0.129	0.204
-500.653	-78.415	0.933	0.320
-499.639	-92.305	0.494	-0.139
-498.624	800.000	-0.249	0.757
-497.610	26.200	0.360	0.301
-496.595	800.000	-0.075	0.283
-495.581	-109.594	0.210	0.044
-494.566	24.537	0.421	-0.348
-493.551	-128.508	-0.741	0.105
-492.537	-38.889	-0.455	0.240
-491.522	265.751	-0.026	0.046
-490.508	158.457	0.603	-0.838
-489.493	82.054	-0.196	-0.213
-488.478	58.508	0.292	-0.287
-487.464	-87.358	0.872	0.264
-486.449	74.459	-0.275	0.289
-485.435	-64.420	0.434	0.176
-484.420	528.486	0.154	-0.362
-483.405	-52.502	1.095	-0.506
-482.391	800.000	0.136	0.528
-481.376	34.741	-0.435	-0.381
-480.362	6.471	-0.534	0.396
-479.347	92.898	-0.283	-0.320
-478.332	-158.444	0.847	-0.049
-477.318	129.572	0.415	0.530
-476.303	158.351	-0.259	0.359
-475.289	-33.762	-0.272	-0.150
-474.274	-101.447	-0.712	0.173
-473.259	-80.749	0.817	0.271
-472.245	-31.428	-0.383	0.215
-471.230	-168.784	-0.511	-0.019
-470.216	-5.713	0.495	0.339
-469.201	-109.676	0.176	-0.037
-468.186	-200.000	0.102	0.590
-467.172	72.111	0.401	0.417
-466.157	-70.995	0.423	0.159
-465.143	221.330	0.198	-0.317
-464.128	-200.000	0.056	0.477
-463.113	-200.000	-0.117	-0.632
-462.099	-2.223	-0.025	-0.018
-461.084	416.309	-0.223	-0.476
-460.070	-65.640	-0.326	0.131
-459.055	-28.543	0.911	-0.524
-458.040	-200.000	0.022	0.366
-457.026	-96.844	0.673	-0.176
-456.011	606.593	0.213	-0.531
-454.997	-36.126	-0.437	-0.236
-453.982	-147.506	0.553	-0.047
-452.968	-1.205	0.578	0.408
-451.953	800.000	0.298	-0.837
-450.938	-177.229	0.318	0.008
-449.924	-146.984	-0.681	0.058
-448.909	5.136	-0.629	-0.463
-447.895	6.791	-0.301	0.224
-446.880	-90.094	-0.318	-0.092
-445.865	40.718	-0.286	0.257
-444.851	-30.711	-0.531	0.300
-443.836	117.422	0.537	0.660
-442.822	347.945	-0.147	-0.290
-441.807	800.000	-0.077	0.216
-440.792	162.118	0.106	-0.148
-439.778	215.310	-0.200	0.317
-438.763	101.570	0.751	-0.874
-437.749	49.786	0.240	-0.226
-436.734	-200.000	0.060	-0.796
-435.719	-99.941	-0.719	0.179
-434.705	-200.000	-0.011	-0.380
-433.690	4.077	0.540	-0.395
-432.676	-73.684	0.403	-0.147
-431.661	57.512	0.631	-0.615
-430.646	-107.214	0.251	-0.055
-429.632	-200.000	0.154	-1.010
-428.617	73.254	-0.268	0.279
-427.603	-149.623	-0.356	-0.028
-426.588	-17.291	0.683	0.429
-425.573	-200.000	-0.040	-0.218
-424.559	127.998	-0.441	-0.559
-423.544	-200.000	-0.045	-0.441
-422.530	335.730	-0.099	-0.191
-421.515	800.000	-0.346	-1.005
-420.500	348.259	0.318	0.626
-419.486	-110.478	-0.649	-0.134
-418.471	18.164	0.580	0.461
-417.457	141.950	-0.050	0.066
-416.442	-108.363	0.537	-0.115
-415.428	-166.241	-0.374	-0.016
-414.413	-108.380	-0.681	-0.146
-413.398	-200.000	-0.033	0.256
-412.384	-114.548	-0.466	0.089
-411.369	-116.424	-0.652	-0.120
-410.355	-14.679	0.582	0.373
-409.340	-16.515	-0.658	0.416
-408.325	-99.484	-0.335	0.084
-407.311	8.907	0.285	-0.214
-406.296	-15.572	-0.495	0.315
-405.282	-110.217	0.607	0.126
-404.267	185.190	0.410	0.607
-403.252	-4.826	0.269	0.185
-402.238	-104.304	-0.569	0.132
-401.223	-63.391	-0.372	-0.153
-400.209	-200.000	-0.016	0.690
-399.194	28.893	-0.198	0.167
-398.179	355.246	0.254	0.503
-397.165	-2.710	0.436	-0.304
-396.150	-200.000	0.008	-0.138
-395.136	-22.643	0.463	0.279
-394.121	-85.259	0.881	0.274
-393.106	-44.204	-0.212	0.106
-392.092	-74.344	0.751	-0.270
-391.077	-40.745	0.396	0.204
-390.063	285.003	0.183	-0.328
-389.048	307.029	-0.128	0.238
-388.033	28.265	0.605	0.509
-387.019	221.476	-0.045	-0.073
-386.004	73.699	-0.432	0.451
-384.990	-48.755	0.733	-0.350
-383.975	800.000	0.240	-0.746
-382.960	147.392	0.045	0.060
-381.946	630.154	-0.294	-0.741
-380.931	-200.000	-0.018	0.600
-379.917	-57.406	0.249	0.109
-378.902	800.000	-0.277	-1.127
-377.888	121.371	0.468	-0.580
-376.873	-200.000	0.071	-0.639
-375.858	181.765	-0.142	0.208
-374.844	146.504	0.429	0.574
-373.829	362.832	0.303	0.606
-372.815	41.604	-0.132	0.119
-371.800	-38.767	-0.347	-0.182
-370.785	-59.481	0.517	-0.221
-369.771	-7.615	0.274	0.185
-368.756	-200.000	0.064	0.405
-367.742	-60.127	0.385	-0.164
-366.727	20.293	0.201	0.161
-365.712	-95.951	0.718	0.190
-364.698	323.793	-0.310	-0.589
-363.683	63.491	0.379	0.378
-362.669	155.944	0.211	-0.289
-361.654	-23.532	0.589	0.352
-360.639	257.460	0.269	-0.460
-359.625	25.595	0.598	-0.495
-358.610	-200.000	-0.086	-0.417
-357.596	-200.000	-0.012	-0.060
-356.581	564.415	0.432	-1.040
-355.566	35.073	-0.500	0.436
-354.552	-47.197	-0.396	0.192
-353.537	-200.000	0.062	0.685
-352.523	121.208	0.538	0.666
-351.508	-92.122	0.252	-0.071
-350.493	3.636	0.436	0.316
-349.479	-62.183	-0.264	0.110
-348.464	-200.000	0.110	0.935
-347.450	-200.000	0.028	-0.579
-346.435	-127.469	1.069	0.155
-345.420	23.942	0.097	0.080
-344.406	796.672	0.236	0.646
-343.391	-200.000	-0.035	0.334
-342.377	-97.426	-0.347	0.090
-341.362	217.895	0.236	0.375
-340.348	-120.898	-0.788	0.132
-339.333	-89.346	-0.579	0.170
-338.318	21.144	-0.652	0.526
-337.304	52.218	-0.412	-0.390
-336.289	189.369	-0.069	-0.102
-335.275	800.000	-0.069	0.244
-334.260	800.000	0.228	-0.673
-333.245	637.930	-0.357	-0.903
-332.231	-123.124	-0.554	-0.088
-331.216	446.484	-0.177	0.387
-330.202	-34.554	-0.907	-0.493
-329.187	-78.693	-0.682	0.231
-328.172	228.987	0.222	0.360
-327.158	800.000	0.136	0.560
-326.143	8.901	-0.423	0.317
-325.129	414.497	-0.269	-0.569
-324.114	202.173	0.523	0.801
-323.099	-200.000	0.149	0.682
-322.085	318.840	0.179	0.336
-321.070	-146.595	-0.235	0.020
-320.056	96.090	0.594	-0.674
-319.041	-97.541	-0.500	0.129
-318.026	33.065	-0.373	0.321
-317.012	800.000	0.083	-0.236
-315.997	-200.000	-0.015	-0.122
-314.983	-30.225	0.294	-0.166
-313.968	-8.223	0.758	0.507
-312.953	103.715	-0.421	0.491
-311.939	133.554	-0.192	0.246
-310.924	-200.000	0.022	-0.146
-309.910	-200.000	0.013	0.139
-308.895	-69.563	-0.440	-0.167
-307.880	-119.864	0.340	-0.058
-306.866	39.175	0.355	0.316
-305.851	52.114	-0.573	0.542
-304.837	-145.380	-0.822	-0.074
-303.822	194.489	-0.095	-0.144
-302.807	247.790	-0.410	0.687
-301.793	20.839	0.128	-0.103
-300.778	-40.901	-0.803	0.412
-299.764	-168.751	0.709	-0.027
-298.749	-84.749	-0.466	-0.146
-297.735	-48.191	-0.881	-0.422
-296.720	221.259	0.244	-0.388
-295.705	-200.000	0.532	0.002
-294.691	-95.210	0.167	0.045
-293.676	-200.000	0.110	-0.688
-292.662	29.407	-0.200	-0.169
-291.647	-150.947	-0.577	0.043
-290.632	-200.000	0.153	0.764
-289.618	8.189	-0.676	-0.504
-288.603	358.756	0.153	0.303
-287.589	328.051	0.359	-0.684
-286.574	31.400	-0.454	0.387
-285.559	-18.186	0.669	-0.415
-284.545	-7.208	0.770	-0.518
-283.530	-59.100	0.023	-0.010
-282.516	-200.000	0.168	0.811
-281.501	-172.315	0.243	-0.008
-280.486	1.967	0.531	0.380
-279.472	111.667	0.176	-0.210
-278.457	72.982	0.400	-0.415
-277.443	-43.958	-1.112	0.555
-276.428	-100.734	0.553	0.135
-275.413	167.712	-0.142	0.201
-274.399	295.870	-0.322	0.585
-273.384	-200.000	0.010	0.145
-272.370	196.216	-0.059	0.089
-271.355	91.556	0.050	-0.055
-270.340	101.058	-0.150	-0.173
-269.326	-37.595	-0.392	0.207
-268.311	-76.009	-0.330	0.116
-267.297	-100.269	-0.400	0.099
-266.282	-191.488	-0.408	-0.004
-265.267	800.000	0.112	-0.318
-264.253	-72.795	-0.351	-0.128
-263.238	-200.000	-0.044	-0.269
-262.224	-91.772	-0.228	-0.064
-261.209	-15.176	-0.726	0.461
-260.195	39.327	-0.139	0.123
-259.180	-65.166	0.575	-0.230
-258.165	306.185	0.293	-0.541
-257.151	-131.083	0.763	-0.101
-256.136	260.720	-0.125	0.214
-255.122	-142.890	-0.634	0.061
-254.107	-200.000	-0.076	0.542
-253.092	65.970	-0.263	0.265
-252.078	-200.000	-0.018	0.507
-251.063	-148.687	-0.211	0.017
-250.049	-200.000	-0.001	-0.087
-249.034	-72.930	-0.279	-0.102
-248.019	-41.584	-0.373	0.190
-247.005	265.123	-0.186	-0.322
-245.990	19.471	0.578	0.460
-244.976	-113.997	0.451	-0.087
-243.961	-200.000	0.097	1.061
-242.946	-200.000	-0.037	-0.695
-241.932	-200.000	0.091	-0.993
-240.917	-105.880	-0.493	-0.110
-239.903	-63.428	-0.429	0.175
-238.888	202.592	-0.147	-0.224
-237.873	487.511	0.158	-0.357
-236.859	-93.054	0.387	-0.107
-235.844	-200.000	0.069	-0.402
-234.830	-97.103	-0.643	-0.166
-233.815	147.617	-0.911	-1.216
-232.800	-53.871	-0.444	0.200
-231.786	800.000	-0.176	0.689
-230.771	193.842	-0.226	-0.339
-229.757	361.210	0.232	-0.459
-228.742	18.675	-0.428	-0.339
-227.727	-137.516	0.240	0.027
-226.713	30.957	0.374	0.317
-225.698	800.000	-0.296	-0.851
-224.684	260.365	-0.195	-0.333
-223.669	-61.414	0.878	0.365
-222.655	71.824	-0.528	-0.544
-221.640	-150.710	0.261	0.020
-220.625	-200.000	-0.136	1.255
-219.611	800.000	-0.198	0.601
-218.596	-37.951	-0.585	0.307
-217.582	-128.298	0.308	0.043
-216.567	-46.730	-0.410	0.199
-215.552	-115.720	-0.896	0.166
-214.538	-107.992	0.864	-0.186
-213.523	-56.478	-0.375	0.165
-212.509	800.000	-0.352	-1.314
-211.494	46.949	0.372	-0.342
-210.479	69.538	-0.432	-0.440
-209.465	49.640	0.114	0.106
-208.450	2.388	0.683	-0.489
-207.436	-79.759	0.622	-0.207
-206.421	-200.000	-0.003	0.280
-205.406	-200.000	0.073	0.803
-204.392	800.000	0.291	0.884
-203.377	180.774	0.502	-0.730
-202.363	71.974	-0.393	-0.404
-201.348	-30.612	-0.229	0.128
-200.333	-62.296	0.663	0.273
-199.319	-159.319	0.098	-0.005
-198.304	-151.101	-0.459	0.034
-197.290	237.742	-0.113	-0.185
-196.275	-50.884	0.607	-0.282
-195.260	18.739	-0.221	-0.175
-194.246	279.346	-0.375	-0.662
-193.231	-151.770	0.366	0.027
-192.217	-143.679	0.161	-0.015
-191.202	123.391	0.308	-0.382
-190.187	429.872	-0.152	-0.326
-189.173	-200.000	0.014	1.172
-188.158	7.975	0.415	0.308
-187.144	-200.000	0.067	-0.796
-186.129	129.219	-0.084	0.106
-185.114	-200.000	-0.078	0.483
-184.100	58.873	-0.437	-0.424
-183.085	-68.881	0.685	0.261
-182.071	-5.928	0.360	-0.244
-181.056	29.741	-0.553	-0.465
-180.042	254.352	-0.107	0.180
-179.027	365.838	0.258	0.514
-178.012	207.316	-0.400	-0.616
-176.998	-94.441	0.245	-0.066
-175.983	-136.912	-0.584	0.066
-174.969	-27.745	0.181	0.104
-173.954	636.445	-0.292	0.732
-172.939	-42.745	-1.039	-0.522
-171.925	-98.947	-0.428	0.107
-170.910	123.071	-0.246	0.305
-169.896	22.345	0.286	-0.231
-168.881	-80.702	-0.536	0.176
-167.866	94.258	0.478	-0.536
-166.852	-124.863	0.287	0.044
-165.837	-139.196	-0.636	-0.068
-164.823	-40.896	-0.509	0.260
-163.808	-162.209	0.097	-0.005
-162.793	-45.916	0.551	-0.268
-161.779	170.372	-0.301	-0.425
-160.764	-77.183	-0.974	-0.335
-159.750	-59.619	-0.213	0.090
-158.735	260.825	-0.437	-0.747
-157.720	153.885	-0.185	-0.250
-156.706	-71.396	-0.614	-0.227
-155.691	73.033	0.642	-0.663
-154.677	280.022	0.673	1.187
-153.662	800.000	-0.226	0.704
-152.647	-25.527	-0.353	-0.206
-151.633	800.000	-0.039	-0.148
-150.618	-100.664	-0.254	0.062
-149.604	-33.190	-0.632	0.345
-148.589	45.828	0.378	0.345
-147.574	318.993	0.237	-0.443
-146.560	77.253	-0.378	-0.396
-145.545	-200.000	0.041	-0.491
-144.531	-200.000	0.048	0.605
-143.516	7.241	0.039	-0.028
-142.502	81.688	0.278	0.297
-141.487	-61.914	0.299	0.124
-140.472	-52.057	0.651	0.298
-139.458	36.171	-0.453	0.394
-138.443	564.979	0.076	0.182
-137.429	-200.000	-0.002	0.218
-136.414	413.465	-0.122	-0.257
-135.399	124.737	0.057	-0.071
-134.385	-200.000	-0.022	-0.120
-133.370	-95.651	0.575	0.152
-132.356	-43.114	0.394	-0.197
-131.341	573.428	-0.048	-0.115
-130.326	-200.000	-0.085	0.992
-129.312	71.732	-0.258	-0.265
-128.297	-25.014	-0.702	-0.411
-127.283	74.909	0.470	-0.488
-126.268	-200.000	0.036	-0.175
-125.253	-69.748	1.066	0.402
-124.239	-200.000	0.019	0.305
-123.224	-3.171	0.375	0.257
-122.210	-51.062	0.513	0.237
-121.195	800.000	0.132	-0.363
-120.180	-142.998	0.401	0.038
-119.166	487.196	-0.440	-0.990
