DTS Sentinel unit serial number:	SN413079Multiplexer serial number:	ORYXHardware model number:	OX4-SRSoftware version number:	ORYX F/W v4.00 Oryx Data Collector v3.7.2.0data status	okinstallation	princeton_trtdifferential loss correction	single-endedforward channel	channel 1reverse channel	N/Adate	2019/09/16time	13:50:35forward acquisition time	60.00reverse acquisition time	0.00gamma	496.2192k internal	0.2294k external	0.2294temperature offset calibration	0.9949default loss term (dB/km)	0.3790temperature slope calibration	1.0000multiplexer offset coefficient	1.0000multiplexer slope coefficient	1.0000fibre end	0.00T internal ref (°C)	42.31T ext. ref 1 (°C)	13.97T ext. ref 2 (°C)	38.64length (m)	temperature (°C)	Stokes	anti-Stokes-747.200	-84.364	0.125	0.041
-746.185	5.495	-0.075	0.057
-745.171	-200.000	-0.004	0.204
-744.156	-58.089	0.290	-0.129
-743.142	-159.076	0.129	-0.007
-742.127	127.783	-0.059	-0.076
-741.112	316.720	-0.111	0.215
-740.098	-200.000	0.033	0.274
-739.083	-129.427	0.248	-0.035
-738.069	-174.283	0.195	0.006
-737.054	175.560	-0.077	-0.114
-736.039	800.000	-0.054	0.186
-735.025	-1.696	0.232	0.167
-734.010	-100.999	-0.340	0.085
-732.996	-200.000	-0.012	0.065
-731.981	-200.000	0.001	-0.086
-730.966	531.801	-0.021	0.052
-729.952	168.327	0.101	-0.147
-728.937	61.413	0.202	-0.205
-727.923	266.564	-0.064	-0.114
-726.908	-100.645	-0.302	0.076
-725.894	800.000	0.079	0.271
-724.879	-142.845	0.378	0.038
-723.864	-35.555	-0.080	-0.044
-722.850	-72.487	-0.260	0.098
-721.835	122.925	0.158	-0.202
-720.821	-200.000	0.022	-0.161
-719.806	-168.632	-0.133	0.005
-718.791	-72.105	0.048	-0.018
-717.777	4.799	-0.173	0.130
-716.762	700.324	-0.064	0.173
-715.748	45.660	-0.161	0.152
-714.733	205.554	0.046	0.073
-713.718	19.651	-0.059	-0.048
-712.704	800.000	0.082	-0.305
-711.689	-73.383	0.269	-0.100
-710.675	122.011	-0.061	-0.077
-709.660	-42.488	0.104	-0.054
-708.645	-184.010	-0.297	-0.005
-707.631	-65.781	0.142	0.058
-706.616	175.563	0.185	-0.274
-705.602	-200.000	0.000	0.057
-704.587	-195.359	-0.200	-0.002
-703.572	672.579	-0.063	0.167
-702.558	55.785	-0.160	0.158
-701.543	-27.912	0.438	-0.259
-700.529	-42.764	-0.154	-0.080
-699.514	25.741	0.090	0.076
-698.499	800.000	0.057	-0.255
-697.485	-200.000	-0.009	0.397
-696.470	-112.887	-0.200	0.040
-695.456	-160.512	-0.141	0.008
-694.441	800.000	-0.069	-0.283
-693.426	21.282	0.115	-0.095
-692.412	-200.000	0.040	0.423
-691.397	-49.006	-0.291	-0.142
-690.383	9.005	-0.120	0.092
-689.368	84.079	-0.095	0.106
-688.354	800.000	-0.059	-0.184
-687.339	-187.423	0.193	0.003
-686.324	-119.754	0.020	0.004
-685.310	145.426	-0.116	0.158
-684.295	800.000	0.070	0.210
-683.281	-75.135	-0.348	0.127
-682.266	-73.966	0.349	-0.129
-681.251	-200.000	0.015	-0.150
-680.237	1.657	-0.137	0.100
-679.222	-82.549	-0.322	0.107
-678.208	800.000	-0.123	0.350
-677.193	-117.384	-0.058	-0.011
-676.178	800.000	0.038	-0.137
-675.164	-11.175	-0.245	0.165
-674.149	38.565	-0.132	-0.120
-673.135	800.000	0.029	0.098
-672.120	-200.000	-0.032	-0.164
-671.105	7.776	-0.051	-0.039
-670.091	545.885	-0.023	0.057
-669.076	-67.731	0.241	-0.096
-668.062	800.000	0.111	-0.390
-667.047	-137.342	0.330	-0.038
-666.032	-129.096	-0.104	-0.015
-665.018	-96.846	-0.329	-0.088
-664.003	25.134	0.150	0.127
-662.989	247.568	0.189	-0.325
-661.974	-200.000	0.008	-0.128
-660.959	-21.958	-0.168	-0.104
-659.945	38.109	0.206	-0.187
-658.930	-108.923	-0.323	0.070
-657.916	-137.557	0.123	-0.014
-656.901	-93.243	-0.149	-0.042
-655.886	591.058	0.147	-0.371
-654.872	383.135	0.077	0.161
-653.857	-143.342	0.109	0.011
-652.843	12.943	0.305	0.241
-651.828	-0.454	0.006	0.004
-650.814	507.879	0.223	0.527
-649.799	-116.761	0.354	-0.066
-648.784	463.359	-0.077	0.175
-647.770	116.078	-0.114	-0.142
-646.755	107.051	-0.279	-0.337
-645.741	399.425	0.033	-0.070
-644.726	-44.510	0.142	0.073
-643.711	-200.000	0.005	0.209
-642.697	3.042	-0.304	0.225
-641.682	-200.000	-0.084	-0.384
-640.668	149.552	-0.166	0.229
-639.653	109.999	0.088	-0.108
-638.638	162.561	0.107	-0.153
-637.624	113.871	-0.244	-0.302
-636.609	-136.146	0.165	0.020
-635.595	123.313	-0.059	0.075
-634.580	800.000	-0.125	-0.556
-633.565	430.963	0.139	-0.306
-632.551	-200.000	-0.019	-0.176
-631.536	-158.868	0.118	-0.007
-630.522	276.539	0.105	-0.191
-629.507	-200.000	-0.038	0.236
-628.492	318.352	-0.017	-0.032
-627.478	-200.000	-0.002	0.045
-626.463	-200.000	0.030	-0.351
-625.449	464.984	-0.090	-0.206
-624.434	12.539	-0.205	0.161
-623.419	174.636	-0.260	0.382
-622.405	-52.082	-0.193	-0.091
-621.390	-97.787	0.154	0.041
-620.376	321.225	-0.099	0.192
-619.361	-107.674	-0.091	0.020
-618.346	53.483	-0.089	-0.087
-617.332	-44.532	0.104	0.053
-616.317	-91.279	-0.243	0.071
-615.303	531.847	-0.013	-0.030
-614.288	-85.456	-0.599	-0.190
-613.273	-135.682	0.147	-0.018
-612.259	123.081	0.050	-0.064
-611.244	528.234	0.107	-0.257
-610.230	30.398	0.231	0.201
-609.215	-137.090	0.379	-0.044
-608.201	800.000	-0.090	-0.274
-607.186	218.436	0.096	-0.156
-606.171	337.993	0.049	0.097
-605.157	120.602	-0.092	-0.117
-604.142	-45.711	-0.230	0.116
-603.128	-56.091	-0.026	-0.012
-602.113	-35.560	0.047	-0.026
-601.098	456.450	-0.044	0.099
-600.084	149.017	-0.202	-0.278
-599.069	70.157	0.352	0.370
-598.055	18.210	-0.149	0.121
-597.040	197.543	0.028	0.044
-596.025	800.000	-0.013	-0.052
-595.011	-200.000	0.030	0.175
-593.996	-200.000	-0.012	0.077
-592.982	208.466	0.086	0.137
-591.967	188.284	-0.250	-0.380
-590.952	-139.005	-0.163	0.018
-589.938	764.990	-0.079	-0.218
-588.923	438.757	-0.042	0.092
-587.909	88.546	-0.056	0.064
-586.894	800.000	0.082	0.243
-585.879	-189.581	-0.086	0.001
-584.865	-200.000	-0.008	-0.226
-583.850	800.000	-0.014	0.042
-582.836	69.694	-0.085	0.089
-581.821	-200.000	-0.043	-0.223
-580.806	-15.145	-0.167	-0.109
-579.792	-28.912	0.132	-0.077
-578.777	-200.000	-0.005	-0.032
-577.763	-200.000	0.060	-0.349
-576.748	-163.188	0.200	0.010
-575.733	-84.445	0.188	-0.060
-574.719	-129.716	0.285	-0.040
-573.704	459.344	0.077	0.175
-572.690	304.133	0.156	0.294
-571.675	237.673	0.200	-0.336
-570.661	-129.743	-0.137	0.019
-569.646	158.066	0.323	-0.455
-568.631	-78.212	0.300	-0.105
-567.617	7.842	-0.300	-0.229
-566.602	-81.761	-0.311	0.103
-565.588	-12.243	-0.056	-0.037
-564.573	800.000	-0.034	0.122
-563.558	-5.328	-0.047	0.032
-562.544	-112.209	-0.133	-0.027
-561.529	58.056	0.222	-0.221
-560.515	-198.756	0.085	-0.000
-559.500	-69.756	-0.336	0.130
-558.485	637.766	-0.160	0.414
-557.471	-200.000	-0.017	0.186
-556.456	-11.719	-0.282	0.188
-555.442	115.620	0.124	-0.153
-554.427	596.356	-0.024	0.060
-553.412	-67.044	0.151	0.061
-552.398	-159.199	-0.224	-0.013
-551.383	566.281	0.059	-0.144
-550.369	112.122	-0.062	0.076
-549.354	49.149	-0.102	0.097
-548.339	49.446	-0.169	0.161
-547.325	-200.000	-0.048	0.276
-546.310	299.374	-0.131	0.246
-545.296	-39.758	0.166	-0.088
-544.281	-30.008	0.143	0.083
-543.266	-200.000	-0.024	0.184
-542.252	433.964	-0.150	0.331
-541.237	528.914	0.110	-0.264
-540.223	-121.474	-0.255	0.043
-539.208	174.766	0.123	0.180
-538.193	-200.000	0.008	-0.264
-537.179	-22.402	-0.139	0.085
-536.164	412.635	-0.016	0.035
-535.150	764.162	0.055	0.151
-534.135	53.346	-0.118	0.115
-533.121	98.179	-0.066	0.077
-532.106	-76.742	-0.170	0.061
-531.091	-70.912	0.024	0.009
-530.077	-0.231	-0.182	-0.131
-529.062	-92.510	0.118	-0.034
-528.048	63.726	-0.123	-0.125
-527.033	52.966	-0.321	-0.312
-526.018	-166.764	0.315	0.013
-525.004	10.588	-0.023	-0.017
-523.989	-4.710	-0.072	0.050
-522.975	-12.732	0.494	-0.327
-521.960	800.000	0.078	-0.300
-520.945	-105.718	0.125	-0.029
-519.931	-200.000	0.022	-0.122
-518.916	-47.420	-0.106	0.052
-517.902	-200.000	-0.021	-0.164
-516.887	285.441	0.071	0.130
-515.872	26.897	0.144	-0.123
-514.858	44.535	-0.197	0.183
-513.843	-46.419	-0.041	0.020
-512.829	-36.122	0.269	0.147
-511.814	-200.000	0.064	-0.315
-510.799	-101.435	0.289	-0.071
-509.785	800.000	0.136	0.439
-508.770	20.412	-0.137	0.112
-507.756	-200.000	0.017	-0.210
-506.741	107.294	0.086	0.103
-505.726	-14.375	-0.216	-0.141
-504.712	51.363	-0.054	0.052
-503.697	-57.699	0.142	-0.063
-502.683	53.738	-0.215	-0.209
-501.668	-76.646	0.061	0.022
-500.653	218.294	-0.077	0.124
-499.639	39.779	0.296	0.269
-498.624	-57.903	0.146	0.065
-497.610	-35.782	0.184	0.101
-496.595	-52.803	-0.278	-0.130
-495.581	-200.000	-0.029	0.346
-494.566	49.686	-0.236	0.225
-493.551	-154.024	0.204	0.014
-492.537	-63.942	0.161	-0.067
-491.522	28.007	-0.275	-0.235
-490.508	-66.780	0.310	0.124
-489.493	-200.000	-0.051	-0.356
-488.478	-65.216	-0.304	-0.124
-487.464	556.269	-0.064	0.156
-486.449	238.237	0.176	0.297
-485.435	384.188	-0.096	0.200
-484.420	-200.000	-0.013	0.140
-483.405	-47.120	0.223	-0.110
-482.391	8.535	-0.211	0.160
-481.376	-200.000	-0.026	0.268
-480.362	-43.819	0.085	-0.044
-479.347	562.409	0.142	-0.347
-478.332	-4.107	0.230	-0.161
-477.318	-200.000	-0.017	-0.087
-476.303	-67.027	0.428	-0.171
-475.289	102.292	0.134	-0.159
-474.274	-200.000	-0.013	-0.265
-473.259	9.113	-0.159	-0.121
-472.245	-145.931	0.207	0.019
-471.230	24.377	0.111	0.093
-470.216	-200.000	0.004	-0.051
-469.201	190.172	0.132	-0.200
-468.186	800.000	-0.026	0.101
-467.172	173.964	0.096	-0.140
-466.157	-128.543	0.215	-0.031
-465.143	795.619	0.059	-0.163
-464.128	-113.979	-0.201	-0.039
-463.113	-13.297	0.186	0.122
-462.099	800.000	-0.045	0.163
-461.084	-172.105	0.178	-0.006
-460.070	-24.494	-0.162	-0.098
-459.055	436.837	0.091	0.201
-458.040	240.309	-0.099	0.167
-457.026	221.027	0.078	0.127
-456.011	-98.762	0.320	-0.082
-454.997	40.722	0.227	-0.207
-453.982	295.747	-0.136	-0.251
-452.968	-141.148	-0.261	0.027
-451.953	209.388	-0.243	-0.385
-450.938	-200.000	0.005	-0.072
-449.924	12.902	-0.227	-0.178
-448.909	-53.700	-0.133	-0.061
-447.895	-53.621	-0.198	-0.091
-446.880	-96.090	0.077	-0.021
-445.865	-79.795	-0.280	-0.095
-444.851	-94.164	-0.271	0.075
-443.836	-177.258	0.149	-0.004
-442.822	157.437	-0.126	-0.177
-441.807	-116.234	0.186	-0.035
-440.792	9.186	-0.317	-0.242
-439.778	-91.687	0.369	0.106
-438.763	529.936	-0.023	-0.055
-437.749	-116.482	-0.234	-0.044
-436.734	-68.900	-0.201	-0.078
-435.719	-11.251	-0.147	0.098
-434.705	-200.000	-0.017	-0.191
-433.690	13.394	0.188	-0.147
-432.676	-89.061	0.120	-0.036
-431.661	-185.920	0.418	-0.006
-430.646	71.363	0.108	-0.113
-429.632	-200.000	0.005	-0.048
-428.617	-20.560	-0.126	-0.078
-427.603	355.106	0.132	0.265
-426.588	800.000	0.049	0.178
-425.573	-45.896	0.188	0.094
-424.559	105.616	-0.222	0.265
-423.544	-112.942	0.348	0.070
-422.530	-200.000	-0.004	0.114
-421.515	0.472	0.101	0.073
-420.500	800.000	0.126	-0.515
-419.486	-35.382	-0.114	0.062
-418.471	-56.639	-0.237	-0.106
-417.457	-33.199	-0.151	0.085
-416.442	-96.457	0.179	0.048
-415.428	-200.000	0.011	0.157
-414.413	352.224	-0.024	0.047
-413.398	-200.000	-0.029	-0.264
-412.384	-109.927	0.380	0.080
-411.369	103.694	0.249	-0.295
-410.355	-129.579	-0.468	0.065
-409.340	-200.000	-0.005	0.234
-408.325	614.656	0.048	-0.121
-407.311	28.682	-0.104	-0.089
-406.296	-200.000	-0.014	0.078
-405.282	-200.000	-0.013	0.083
-404.267	-200.000	0.039	0.281
-403.252	99.962	-0.050	-0.059
-402.238	-43.274	-0.179	-0.091
-401.223	56.140	0.136	0.133
-400.209	165.966	0.109	-0.155
-399.194	42.032	-0.287	0.263
-398.179	48.176	-0.194	-0.183
-397.165	-179.228	0.233	-0.005
-396.150	-92.454	-0.148	0.042
-395.136	-200.000	-0.005	-0.074
-394.121	-159.242	0.310	-0.018
-393.106	98.822	-0.117	-0.136
-392.092	-143.830	-0.172	-0.016
-391.077	-26.432	0.094	-0.056
-390.063	-38.854	-0.213	-0.113
-389.048	-200.000	0.055	-0.326
-388.033	67.534	-0.201	-0.207
-387.019	-57.307	-0.212	0.094
-386.004	-1.082	-0.149	-0.106
-384.990	627.788	0.147	-0.373
-383.975	327.007	-0.252	0.486
-382.960	33.313	-0.266	-0.232
-381.946	-200.000	-0.015	-0.224
-380.931	-152.560	-0.086	0.006
-379.917	91.277	0.111	0.126
-378.902	142.016	-0.112	-0.150
-377.888	2.023	0.185	-0.135
-376.873	-120.539	-0.430	-0.074
-375.858	3.082	-0.249	-0.183
-374.844	531.380	-0.057	0.136
-373.829	219.454	-0.104	0.168
-372.815	182.501	0.026	-0.038
-371.800	-96.398	-0.419	-0.112
-370.785	-93.214	0.286	0.080
-369.771	-29.395	-0.155	0.089
-368.756	792.543	-0.068	-0.187
-367.742	-58.581	-0.435	-0.190
-366.727	25.855	0.056	0.047
-365.712	320.303	-0.096	0.184
-364.698	-65.531	-0.273	-0.111
-363.683	474.052	-0.040	-0.091
-362.669	449.201	0.146	-0.324
-361.654	-54.224	0.104	0.048
-360.639	800.000	0.029	-0.103
-359.625	-40.850	0.181	-0.095
-358.610	-101.666	-0.169	0.041
-357.596	135.460	-0.090	-0.118
-356.581	800.000	0.073	0.290
-355.566	-37.434	-0.141	0.076
-354.552	57.842	0.129	0.127
-353.537	-68.386	0.378	-0.148
-352.523	432.405	-0.030	-0.065
-351.508	232.134	0.189	-0.313
-350.493	-40.640	0.391	-0.204
-349.479	800.000	-0.048	-0.206
-348.464	122.463	-0.154	0.194
-347.450	134.148	0.092	0.121
-346.435	-66.281	-0.106	-0.043
-345.420	-73.758	-0.232	0.085
-344.406	800.000	0.115	0.341
-343.391	48.521	0.371	-0.350
-342.377	31.824	-0.206	0.179
-341.362	-18.375	0.342	0.215
-340.348	-200.000	-0.009	0.161
-339.333	800.000	-0.077	-0.291
-338.318	367.084	0.205	0.417
-337.304	-124.517	-0.218	-0.034
-336.289	61.337	0.160	0.160
-335.275	800.000	0.082	0.242
-334.260	-116.153	0.090	0.017
-333.245	-48.899	-0.023	-0.011
-332.231	-200.000	0.051	0.612
-331.216	38.491	-0.143	0.128
-330.202	-175.386	-0.416	-0.011
-329.187	213.117	0.129	0.205
-328.172	-158.919	0.200	-0.011
-327.158	800.000	-0.068	0.193
-326.143	-145.090	0.266	-0.024
-325.129	-32.757	-0.112	-0.063
-324.114	-119.457	-0.057	0.010
-323.099	-200.000	-0.013	0.140
-322.085	-77.554	-0.222	-0.078
-321.070	4.631	0.148	-0.109
-320.056	-72.605	0.164	0.061
-319.041	36.249	0.088	0.078
-318.026	800.000	0.017	-0.059
-317.012	-84.527	0.169	-0.054
-315.997	64.155	-0.113	0.114
-314.983	721.198	0.116	0.309
-313.968	-146.869	-0.052	-0.004
-312.953	-124.634	0.167	0.026
-311.939	-54.029	0.385	0.176
-310.924	111.479	-0.047	-0.057
-309.910	-200.000	0.017	0.122
-308.895	-200.000	-0.044	0.358
-307.880	126.540	-0.255	0.324
-306.866	25.399	-0.343	0.287
-305.851	-26.817	-0.062	0.036
-304.837	122.525	-0.058	-0.073
-303.822	-200.000	-0.249	-0.001
-302.807	-200.000	-0.093	-0.434
-301.793	-200.000	0.003	0.080
-300.778	-130.678	-0.292	-0.040
-299.764	-134.543	0.082	0.010
-298.749	-160.951	-0.323	0.017
-297.735	-200.000	0.014	-0.083
-296.720	74.831	0.291	0.308
-295.705	-56.295	-0.120	-0.054
-294.691	-157.276	-0.167	-0.010
-293.676	140.205	0.121	0.160
-292.662	-121.057	0.137	0.023
-291.647	-86.609	0.309	-0.095
-290.632	-102.717	-0.080	0.019
-289.618	-63.262	0.182	-0.075
-288.603	254.750	-0.090	-0.155
-287.589	76.098	0.162	-0.172
-286.574	-200.000	-0.034	-0.221
-285.559	-4.691	-0.182	-0.126
-284.545	-10.855	-0.233	-0.155
-283.530	403.487	-0.040	0.084
-282.516	137.995	-0.117	0.154
-281.501	-11.888	-0.233	-0.153
-280.486	-117.332	-0.263	-0.048
-279.472	-30.789	-0.207	-0.118
-278.457	-200.000	0.047	0.251
-277.443	21.457	0.213	0.174
-276.428	-108.822	-0.306	-0.066
-275.413	-200.000	-0.029	0.158
-274.399	506.940	-0.114	-0.266
-273.384	-106.769	-0.239	0.053
-272.370	144.626	0.186	-0.249
-271.355	-64.099	0.123	0.050
-270.340	-170.899	0.243	-0.008
-269.326	22.810	0.202	0.166
-268.311	-29.116	0.336	0.193
-267.297	295.223	0.104	0.191
-266.282	-200.000	-0.018	-0.155
-265.267	767.515	-0.022	-0.061
-264.253	88.185	0.074	-0.083
-263.238	-55.904	-0.086	-0.038
-262.224	-50.232	0.219	0.104
-261.209	-29.288	-0.243	-0.140
-260.195	123.617	0.059	0.075
-259.180	60.767	-0.128	-0.127
-258.165	800.000	0.057	0.239
-257.151	160.166	0.149	-0.208
-256.136	-54.708	0.493	-0.223
-255.122	-142.187	0.144	-0.014
-254.107	620.401	-0.125	0.315
-253.092	18.523	0.153	-0.123
-252.078	797.476	-0.124	0.342
-251.063	-35.912	0.148	0.080
-250.049	24.032	-0.169	-0.139
-249.034	-200.000	0.021	-0.162
-248.019	-155.249	-0.281	0.018
-247.005	81.081	0.093	-0.101
-245.990	-200.000	-0.034	-0.266
-244.976	-200.000	0.023	-0.214
-243.961	395.045	0.125	-0.262
-242.946	-200.000	0.031	-0.191
-241.932	664.791	-0.097	-0.252
-240.917	429.416	-0.116	-0.251
-239.903	-81.689	0.354	0.117
-238.888	-200.000	0.013	0.412
-237.873	-200.000	-0.009	-0.089
-236.859	800.000	0.067	0.189
-235.844	-63.320	-0.268	-0.111
-234.830	-38.877	-0.328	-0.173
-233.815	-1.336	-0.161	0.114
-232.800	-200.000	-0.004	-0.048
-231.786	23.639	0.002	-0.001
-230.771	-4.218	-0.138	-0.096
-229.757	-200.000	0.032	-0.381
-228.742	800.000	-0.060	0.260
-227.727	-200.000	0.014	0.273
-226.713	800.000	0.095	0.395
-225.698	-200.000	-0.005	0.032
-224.684	-63.207	-0.344	-0.142
-223.669	-106.001	-0.176	0.040
-222.655	649.586	0.037	0.094
-221.640	-124.467	0.194	-0.030
-220.625	-107.091	-0.055	-0.012
-219.611	136.274	-0.092	-0.120
-218.596	-200.000	0.010	-0.061
-217.582	-118.959	0.138	0.024
-216.567	-85.660	0.069	-0.021
-215.552	132.933	0.070	0.090
-214.538	-73.343	-0.293	0.107
-213.523	26.498	-0.150	0.126
-212.509	186.473	0.194	0.290
-211.494	44.479	0.063	-0.058
-210.479	39.501	-0.217	0.195
-209.465	347.036	0.086	0.170
-208.450	-158.931	-0.123	-0.007
-207.436	94.637	0.144	-0.164
-206.421	231.450	0.205	0.337
-205.406	-81.099	0.362	-0.120
-204.392	-68.149	0.279	0.109
-203.377	800.000	0.058	0.231
-202.363	-200.000	0.019	0.098
-201.348	119.123	0.169	0.209
-200.333	564.453	0.037	0.091
-199.319	-144.983	0.170	0.016
-198.304	800.000	0.067	0.253
-197.290	-101.849	0.231	0.056
-196.275	799.692	0.056	0.156
-195.260	-50.914	0.274	0.129
-194.246	-200.000	-0.015	0.093
-193.231	622.345	0.070	-0.176
-192.217	450.950	0.231	0.511
-191.202	-24.272	-0.246	0.147
-190.187	-122.134	0.068	-0.011
-189.173	800.000	0.038	0.122
-188.158	-141.706	-0.114	-0.011
-187.144	-200.000	-0.034	0.310
-186.129	727.207	-0.087	0.232
-185.114	-91.355	-0.110	-0.032
-184.100	-171.896	0.272	0.009
-183.085	800.000	-0.135	0.508
-182.071	-66.341	0.168	-0.067
-181.056	-90.583	0.165	0.048
-180.042	36.035	0.164	-0.145
-179.027	800.000	-0.060	-0.212
-178.012	800.000	0.052	-0.186
-176.998	-200.000	0.072	0.326
-175.983	316.689	0.098	-0.184
-174.969	112.792	0.255	0.309
-173.954	211.844	-0.077	0.121
-172.939	-157.606	-0.188	0.011
-171.925	-5.252	-0.113	-0.078
-170.910	-200.000	-0.045	-0.238
-169.896	-56.184	-0.201	0.090
-168.881	-147.809	0.147	0.012
-167.866	472.714	0.116	0.262
-166.852	-200.000	-0.022	-0.206
-165.837	-27.127	-0.149	-0.087
-164.823	-141.173	0.140	-0.014
-163.808	93.126	0.150	0.169
-162.793	-151.004	-0.232	0.017
-161.779	-117.073	0.151	0.028
-160.764	2.450	0.138	-0.100
-159.750	-17.928	-0.058	0.036
-158.735	-92.627	0.188	-0.053
-157.720	82.610	-0.122	-0.133
-156.706	-49.005	0.172	0.082
-155.691	-129.388	0.318	-0.044
-154.677	355.380	0.091	-0.181
-153.662	13.709	-0.207	0.161
-152.647	693.247	0.082	0.215
-151.633	569.704	0.078	-0.190
-150.618	-42.172	0.303	-0.155
-149.604	-145.421	0.107	0.010
-148.589	-49.476	-0.157	0.075
-147.574	-3.891	-0.097	0.067
-146.560	-33.987	0.127	-0.070
-145.545	111.619	-0.140	0.168
-144.531	-200.000	0.015	-0.102
-143.516	28.409	0.193	-0.163
-142.502	721.480	0.097	-0.257
-141.487	-36.391	0.160	0.086
-140.472	-200.000	-0.023	0.179
-139.458	63.070	0.186	0.186
-138.443	95.589	-0.165	-0.187
-137.429	218.795	-0.087	0.138
-136.414	64.446	-0.128	-0.128
-135.399	-31.728	-0.102	0.057
-134.385	280.466	-0.142	-0.254
-133.370	-51.519	-0.115	-0.054
-132.356	-200.000	-0.021	-0.196
-131.341	516.675	-0.070	0.162
-130.326	-33.182	-0.122	-0.068
-129.312	-123.755	0.196	-0.031
-128.297	268.349	0.096	0.168
-127.283	336.489	-0.035	0.067
-126.268	-134.900	-0.378	0.046
-125.253	-154.832	0.095	-0.006
-124.239	-200.000	0.008	0.060
-123.224	131.705	-0.163	0.210
-122.210	79.031	0.075	0.080
-121.195	-30.590	0.185	0.105
