DTS Sentinel unit serial number:	SN413079Multiplexer serial number:	ORYXHardware model number:	OX4-SRSoftware version number:	ORYX F/W v4.00 Oryx Data Collector v3.7.2.0data status	okinstallation	princeton_trtdifferential loss correction	single-endedforward channel	channel 1reverse channel	N/Adate	2019/09/13time	23:58:35forward acquisition time	60.00reverse acquisition time	0.00gamma	496.2192k internal	0.2337k external	0.2337temperature offset calibration	1.0084default loss term (dB/km)	0.3790temperature slope calibration	1.0000multiplexer offset coefficient	1.0000multiplexer slope coefficient	1.0000fibre end	0.00T internal ref (°C)	26.52T ext. ref 1 (°C)	3.17T ext. ref 2 (°C)	21.34length (m)	temperature (°C)	Stokes	anti-Stokes-747.200	800.000	0.030	-0.104
-746.185	-35.473	-0.305	0.166
-745.171	528.091	0.171	0.405
-744.156	-16.994	-0.167	-0.106
-743.142	-113.323	0.377	-0.074
-742.127	-174.345	-0.526	-0.015
-741.112	44.248	0.328	-0.302
-740.098	-150.405	-0.416	0.032
-739.083	800.000	-0.009	0.036
-738.069	176.922	-0.177	0.259
-737.054	800.000	-0.042	0.124
-736.039	-177.243	-0.431	0.011
-735.025	-200.000	-0.004	0.161
-734.010	-103.294	-0.095	0.023
-732.996	297.229	-0.201	-0.371
-731.981	-200.000	0.088	-0.393
-730.966	-200.000	-0.041	-0.246
-729.952	93.569	-0.198	-0.225
-728.937	295.583	-0.054	0.099
-727.923	-19.891	-0.200	-0.124
-726.908	-52.018	-0.187	-0.087
-725.894	80.388	0.042	-0.046
-724.879	-121.832	0.161	-0.027
-723.864	-200.000	0.012	0.280
-722.850	-149.302	-0.121	0.010
-721.835	57.340	0.102	-0.100
-720.821	-145.232	-0.212	-0.019
-719.806	218.518	-0.170	-0.273
-718.791	7.609	0.196	-0.147
-717.777	-95.616	-0.126	0.034
-716.762	76.237	-0.149	0.158
-715.748	-141.273	-0.248	0.025
-714.733	-182.131	-0.186	-0.003
-713.718	-94.696	0.193	0.052
-712.704	-45.635	-0.119	-0.059
-711.689	180.585	-0.137	-0.202
-710.675	126.601	-0.038	-0.048
-709.660	-79.270	0.137	0.047
-708.645	4.945	0.133	-0.098
-707.631	-74.751	-0.204	-0.074
-706.616	68.306	0.217	0.223
-705.602	-38.672	0.344	-0.182
-704.587	762.660	0.105	-0.286
-703.572	-200.000	-0.021	0.177
-702.558	-69.176	-0.092	-0.036
-701.543	30.157	-0.472	0.404
-700.529	249.551	-0.112	-0.190
-699.514	800.000	0.102	-0.335
-698.499	-65.337	-0.356	-0.144
-697.485	-200.000	-0.042	0.337
-696.470	-83.506	-0.090	0.029
-695.456	201.617	0.158	0.245
-694.441	-104.711	0.233	0.054
-693.426	-91.710	-0.294	-0.084
-692.412	9.580	0.223	0.169
-691.397	-172.841	0.089	-0.003
-690.383	-163.140	0.223	-0.011
-689.368	-184.019	-0.206	0.003
-688.354	214.742	0.112	0.178
-687.339	17.179	0.066	0.053
-686.324	-0.261	0.032	-0.022
-685.310	-88.766	0.262	0.078
-684.295	-200.000	0.019	-0.280
-683.281	258.552	-0.070	-0.120
-682.266	187.008	0.129	0.192
-681.251	-150.464	0.235	-0.018
-680.237	800.000	0.072	0.218
-679.222	-72.073	-0.326	-0.121
-678.208	-2.769	-0.184	0.129
-677.193	-71.569	-0.197	0.074
-676.178	-200.000	-0.004	-0.118
-675.164	800.000	-0.080	-0.261
-674.149	-146.671	0.146	0.013
-673.135	41.409	0.168	0.152
-672.120	269.600	0.064	0.112
-671.105	41.106	-0.270	0.244
-670.091	65.315	-0.063	-0.064
-669.076	134.043	-0.086	-0.111
-668.062	-88.876	-0.154	-0.046
-667.047	26.283	0.293	0.245
-666.032	-121.132	0.195	0.033
-665.018	-44.240	-0.245	-0.123
-664.003	-43.937	0.227	0.114
-662.989	217.540	0.160	0.256
-661.974	-103.285	0.164	0.039
-660.959	162.216	-0.147	-0.207
-659.945	5.305	-0.051	-0.037
-658.930	90.279	-0.212	-0.237
-657.916	-59.450	0.232	0.100
-656.901	-54.819	-0.228	0.103
-655.886	-129.859	0.161	0.022
-654.872	-126.471	-0.125	0.019
-653.857	-79.397	0.190	-0.064
-652.843	-3.502	-0.193	0.135
-651.828	46.750	0.032	0.030
-650.814	-200.000	-0.029	-0.228
-649.799	800.000	-0.046	0.179
-648.784	240.425	-0.061	0.101
-647.770	-105.728	-0.376	-0.085
-646.755	-91.572	-0.155	0.044
-645.741	-147.611	0.264	0.022
-644.726	590.065	0.097	-0.240
-643.711	-156.541	0.247	0.015
-642.697	-200.000	0.004	-0.199
-641.682	-62.793	-0.181	-0.075
-640.668	-99.814	0.208	0.052
-639.653	-200.000	-0.019	0.126
-638.638	103.103	0.066	0.077
-637.624	398.592	0.094	-0.197
-636.609	-36.869	-0.339	-0.182
-635.595	34.941	-0.131	0.114
-634.580	-165.374	0.084	-0.004
-633.565	-200.000	-0.187	0.001
-632.551	-98.351	0.154	-0.039
-631.536	-115.474	-0.153	-0.029
-630.522	-46.528	0.079	0.039
-629.507	-58.054	0.240	0.105
-628.492	-41.243	-0.083	-0.043
-627.478	-148.151	0.057	-0.005
-626.463	26.091	0.210	-0.175
-625.449	211.824	-0.165	-0.259
-624.434	-200.000	0.008	-0.234
-623.419	-142.851	-0.216	-0.021
-622.405	-116.364	-0.229	-0.042
-621.390	126.760	0.200	0.253
-620.376	46.346	-0.051	-0.047
-619.361	44.555	0.117	0.107
-618.346	147.289	0.289	-0.388
-617.332	547.098	0.130	0.310
-616.317	-28.640	-0.280	-0.161
-615.303	-17.824	-0.123	-0.077
-614.288	-57.811	-0.109	0.048
-613.273	-139.779	-0.030	0.003
-612.259	-13.064	-0.305	-0.198
-611.244	7.114	-0.105	0.078
-610.230	-122.068	-0.575	0.094
-609.215	-86.155	-0.287	-0.088
-608.201	800.000	-0.075	0.227
-607.186	-200.000	0.020	-0.132
-606.171	274.874	0.212	-0.375
-605.157	32.292	-0.144	0.124
-604.142	235.754	0.107	0.177
-603.128	800.000	0.107	-0.400
-602.113	202.230	0.062	-0.095
-601.098	-157.609	-0.043	0.003
-600.084	800.000	-0.011	-0.037
-599.069	491.734	0.044	-0.101
-598.055	-200.000	0.037	-0.232
-597.040	-116.077	-0.277	0.051
-596.025	6.288	0.245	-0.181
-595.011	-200.000	0.016	-0.231
-593.996	-200.000	0.014	-0.203
-592.982	-6.290	-0.154	-0.105
-591.967	-200.000	0.002	-0.106
-590.952	-200.000	0.040	-0.423
-589.938	-200.000	-0.000	0.009
-588.923	-27.532	-0.258	0.150
-587.909	5.012	0.015	0.011
-586.894	800.000	0.110	0.304
-585.879	238.763	-0.143	-0.237
-584.865	-19.244	-0.088	-0.054
-583.850	800.000	-0.022	0.064
-582.836	161.713	-0.087	-0.122
-581.821	53.792	-0.145	0.139
-580.806	800.000	0.067	0.190
-579.792	-71.489	0.065	-0.024
-578.777	141.790	0.211	-0.278
-577.763	125.535	0.207	-0.260
-576.748	-178.008	0.115	0.003
-575.733	-67.208	0.079	-0.031
-574.719	-200.000	0.012	-0.062
-573.704	-143.947	-0.357	-0.033
-572.690	19.336	-0.171	0.137
-571.675	-65.477	-0.057	-0.023
-570.661	348.489	0.032	0.062
-569.646	-163.042	-0.066	0.003
-568.631	-37.140	0.150	0.080
-567.617	-145.610	0.176	-0.016
-566.602	218.615	-0.185	-0.295
-565.588	35.821	-0.073	0.064
-564.573	-200.000	0.011	-0.107
-563.558	-153.470	0.108	0.007
-562.544	484.074	-0.090	0.204
-561.529	-159.240	0.345	0.019
-560.515	-59.794	-0.220	0.094
-559.500	-13.046	0.356	0.231
-558.485	305.454	-0.174	-0.323
-557.471	681.846	0.038	0.099
-556.456	800.000	0.101	0.331
-555.442	800.000	0.051	0.141
-554.427	-200.000	0.012	-0.212
-553.412	36.402	-0.121	-0.106
-552.398	-95.584	0.365	0.097
-551.383	38.842	-0.197	0.175
-550.369	800.000	-0.058	0.195
-549.354	-71.213	0.270	-0.101
-548.339	49.928	-0.273	-0.256
-547.325	-99.075	-0.315	0.079
-546.310	-200.000	0.009	-0.057
-545.296	800.000	-0.127	-0.513
-544.281	-56.179	-0.151	-0.067
-543.266	-75.482	0.138	-0.049
-542.252	800.000	0.084	0.350
-541.237	-8.761	-0.133	-0.089
-540.223	800.000	0.037	-0.155
-539.208	238.530	-0.206	0.341
-538.193	98.366	-0.031	0.036
-537.179	-200.000	0.004	-0.302
-536.164	-200.000	0.017	-0.344
-535.150	-200.000	-0.037	0.237
-534.135	800.000	-0.072	-0.229
-533.121	59.795	0.145	0.142
-532.106	4.773	-0.090	0.066
-531.091	2.894	-0.041	0.030
-530.077	-105.183	0.261	0.059
-529.062	-57.781	-0.305	-0.133
-528.048	800.000	0.039	-0.155
-527.033	-95.778	0.198	-0.053
-526.018	111.186	-0.235	-0.282
-525.004	80.492	-0.146	0.157
-523.989	-200.000	0.077	0.372
-522.975	45.942	0.183	-0.168
-521.960	-127.613	-0.205	-0.030
-520.945	101.762	0.173	0.201
-519.931	144.913	0.354	-0.471
-518.916	-200.000	-0.008	-0.119
-517.902	-100.119	0.319	0.079
-516.887	-31.089	-0.120	0.068
-515.872	-148.182	-0.398	-0.033
-514.858	92.485	0.039	-0.043
-513.843	103.902	0.106	0.124
-512.829	141.534	0.093	-0.122
-511.814	513.149	0.020	-0.046
-510.799	426.164	0.051	-0.110
-509.785	-96.934	0.208	0.054
-508.770	-1.316	-0.452	0.317
-507.756	-59.929	0.169	-0.072
-506.741	27.555	0.256	0.215
-505.726	722.137	-0.068	0.181
-504.712	-102.556	-0.116	-0.028
-503.697	386.876	-0.135	0.277
-502.683	-48.861	0.146	-0.070
-501.668	-18.844	-0.182	-0.113
-500.653	-19.980	0.307	-0.188
-499.639	-200.000	0.373	-0.002
-498.624	40.392	0.123	-0.111
-497.610	-100.568	0.310	-0.076
-496.595	-65.546	-0.298	0.119
-495.581	-75.924	-0.283	-0.100
-494.566	-62.508	0.215	0.089
-493.551	449.032	-0.199	0.437
-492.537	31.258	-0.056	-0.048
-491.522	214.771	-0.167	-0.264
-490.508	-43.767	0.049	-0.024
-489.493	-79.177	-0.178	-0.060
-488.478	35.185	-0.373	-0.325
-487.464	72.442	0.028	-0.029
-486.449	-179.399	0.328	0.007
-485.435	163.014	0.064	-0.090
-484.420	55.668	0.114	0.110
-483.405	800.000	-0.093	-0.368
-482.391	-84.975	-0.254	0.079
-481.376	23.297	0.168	-0.138
-480.362	800.000	-0.044	0.129
-479.347	9.301	0.352	-0.264
-478.332	123.468	0.110	-0.137
-477.318	-56.745	-0.361	-0.159
-476.303	-128.950	0.518	0.072
-475.289	-125.742	0.321	0.048
-474.274	41.758	-0.041	0.037
-473.259	108.435	0.120	0.143
-472.245	-200.000	-0.047	0.227
-471.230	535.519	-0.093	0.220
-470.216	-13.979	-0.075	-0.048
-469.201	145.642	-0.214	0.285
-468.186	-160.609	-0.198	-0.010
-467.172	473.418	0.055	-0.124
-466.157	-123.850	0.170	0.027
-465.143	-106.316	0.129	-0.029
-464.128	-78.639	-0.097	0.033
-463.113	-26.991	0.241	0.139
-462.099	-144.494	-0.200	-0.018
-461.084	178.798	-0.147	-0.214
-460.070	4.265	-0.156	-0.114
-459.055	-129.111	0.187	0.026
-458.040	249.601	-0.143	0.241
-457.026	-35.374	-0.149	-0.081
-456.011	-200.000	0.014	0.112
-454.997	-200.000	-0.005	-0.048
-453.982	235.234	-0.067	-0.109
-452.968	-200.000	-0.018	-0.342
-451.953	542.450	-0.036	-0.085
-450.938	-33.975	0.230	0.125
-449.924	178.421	-0.124	0.180
-448.909	-53.971	0.159	0.072
-447.895	-118.566	-0.142	0.025
-446.880	-200.000	0.011	0.112
-445.865	-23.761	-0.282	0.168
-444.851	-44.153	-0.116	-0.058
-443.836	800.000	0.032	0.116
-442.822	-200.000	0.029	-0.155
-441.807	-61.583	-0.205	-0.085
-440.792	-200.000	0.027	-0.231
-439.778	248.786	-0.068	0.114
-438.763	-64.480	0.253	0.102
-437.749	800.000	0.069	-0.283
-436.734	250.429	0.126	0.213
-435.719	246.984	-0.035	0.059
-434.705	43.431	-0.163	-0.148
-433.690	-191.721	0.156	0.002
-432.676	238.119	0.173	-0.285
-431.661	-182.229	0.323	0.006
-430.646	-73.051	0.070	0.026
-429.632	-200.000	-0.025	0.114
-428.617	282.537	0.034	-0.061
-427.603	675.338	0.048	-0.124
-426.588	-200.000	-0.022	0.146
-425.573	-133.922	-0.197	-0.024
-424.559	-200.000	0.031	0.158
-423.544	-200.000	0.019	0.116
-422.530	652.101	0.152	0.386
-421.515	73.808	-0.197	0.204
-420.500	-39.923	0.112	-0.058
-419.486	800.000	-0.065	-0.264
-418.471	-53.690	0.432	-0.195
-417.457	-200.000	-0.004	0.183
-416.442	53.201	-0.108	0.103
-415.428	800.000	-0.069	-0.242
-414.413	73.941	0.148	0.154
-413.398	126.975	0.092	-0.115
-412.384	-62.081	-0.346	-0.143
-411.369	-0.721	-0.070	-0.049
-410.355	-200.000	0.007	0.188
-409.340	181.499	0.107	0.157
-408.325	-173.806	0.497	0.015
-407.311	800.000	0.019	-0.061
-406.296	-135.048	-0.179	0.021
-405.282	-28.506	0.250	0.143
-404.267	-63.430	-0.339	0.138
-403.252	-132.860	0.121	-0.015
-402.238	277.939	0.081	-0.143
-401.223	-23.572	0.139	0.083
-400.209	-200.000	0.028	-0.180
-399.194	-200.000	-0.001	0.182
-398.179	44.163	-0.110	-0.100
-397.165	-77.858	-0.343	0.117
-396.150	36.919	-0.180	-0.158
-395.136	-200.000	0.002	0.074
-394.121	-90.580	-0.305	0.087
-393.106	498.742	0.109	0.250
-392.092	800.000	0.020	-0.062
-391.077	-3.201	-0.323	-0.223
-390.063	262.758	-0.029	0.049
-389.048	10.541	0.113	-0.085
-388.033	88.467	0.066	0.073
-387.019	-90.563	0.099	0.028
-386.004	204.640	0.237	0.364
-384.990	-66.751	0.133	0.052
-383.975	800.000	0.068	-0.249
-382.960	-48.125	0.297	-0.142
-381.946	-164.832	0.185	0.008
-380.931	-99.635	0.325	0.081
-379.917	-200.000	0.015	0.126
-378.902	111.400	0.161	0.192
-377.888	723.149	-0.093	-0.244
-376.873	205.539	-0.051	-0.078
-375.858	-34.792	-0.094	0.051
-374.844	447.682	0.065	0.142
-373.829	-25.706	0.104	0.061
-372.815	-200.000	0.012	0.197
-371.800	-80.809	0.119	0.039
-370.785	-40.074	-0.097	0.050
-369.771	29.262	-0.252	0.211
-368.756	289.093	-0.136	-0.244
-367.742	-94.337	0.204	-0.055
-366.727	800.000	-0.057	0.163
-365.712	-26.289	-0.205	-0.119
-364.698	1.482	0.291	-0.207
-363.683	741.782	-0.027	0.072
-362.669	-82.105	-0.192	-0.062
-361.654	38.483	-0.139	0.123
-360.639	800.000	0.114	0.321
-359.625	800.000	-0.034	0.134
-358.610	800.000	0.053	0.166
-357.596	-61.232	0.110	-0.046
-356.581	-46.348	-0.067	-0.033
-355.566	110.042	0.035	0.041
-354.552	23.768	-0.051	0.042
-353.537	107.747	0.076	0.089
-352.523	800.000	0.053	-0.164
-351.508	80.126	-0.141	0.150
-350.493	-138.509	-0.401	0.044
-349.479	800.000	0.040	0.137
-348.464	-91.768	-0.075	0.021
-347.450	-79.239	0.387	0.130
-346.435	17.665	-0.234	0.184
-345.420	-200.000	-0.044	-0.349
-344.406	337.367	-0.092	-0.176
-343.391	47.075	-0.024	0.022
-342.377	115.161	-0.116	0.140
-341.362	800.000	-0.069	0.231
-340.348	141.699	-0.141	0.185
-339.333	800.000	-0.084	0.232
-338.318	182.708	-0.157	0.228
-337.304	4.684	0.039	0.028
-336.289	-16.616	-0.150	0.094
-335.275	-99.654	-0.294	0.073
-334.260	800.000	0.107	0.305
-333.245	-97.389	0.293	0.075
-332.231	-142.425	-0.118	0.011
-331.216	-92.080	-0.209	0.058
-330.202	-86.909	0.133	-0.040
-329.187	-200.000	-0.080	0.353
-328.172	96.332	-0.174	-0.197
-327.158	-200.000	-0.013	0.129
-326.143	19.870	-0.177	0.141
-325.129	225.864	-0.063	0.100
-324.114	42.329	0.230	0.207
-323.099	316.770	0.048	-0.089
-322.085	519.550	0.085	0.197
-321.070	314.855	-0.046	0.085
-320.056	-200.000	-0.003	0.327
-319.041	213.945	0.132	0.206
-318.026	310.910	-0.019	-0.036
-317.012	73.638	0.119	0.123
-315.997	-200.000	0.007	-0.196
-314.983	-22.750	0.361	0.215
-313.968	616.080	0.065	-0.161
-312.953	310.108	0.072	0.133
-311.939	575.868	-0.148	0.356
-310.924	72.686	-0.120	-0.123
-309.910	531.225	0.047	0.110
-308.895	-200.000	0.033	-0.242
-307.880	-200.000	-0.005	-0.121
-306.866	-46.858	-0.173	0.083
-305.851	-98.469	0.117	-0.029
-304.837	507.497	0.047	0.108
-303.822	-200.000	-0.001	0.090
-302.807	-200.000	0.064	-0.292
-301.793	137.520	-0.090	-0.117
-300.778	7.397	0.141	-0.104
-299.764	-141.927	-0.174	-0.017
-298.749	45.448	-0.191	-0.174
-297.735	-200.000	0.001	0.155
-296.720	183.021	-0.257	0.374
-295.705	687.129	0.018	0.047
-294.691	83.354	-0.070	-0.075
-293.676	-2.129	0.224	-0.155
-292.662	52.450	-0.307	-0.289
-291.647	800.000	-0.031	0.131
-290.632	-200.000	0.024	0.125
-289.618	487.086	0.060	0.134
-288.603	-153.272	0.152	-0.010
-287.589	-127.918	-0.316	-0.045
-286.574	-34.118	-0.102	0.055
-285.559	536.974	0.090	-0.210
-284.545	800.000	0.138	-0.379
-283.530	671.424	0.107	-0.275
-282.516	187.207	0.096	-0.141
-281.501	-137.043	0.169	0.019
-280.486	561.601	-0.094	-0.225
-279.472	-22.092	0.274	-0.164
-278.457	65.080	0.201	-0.200
-277.443	-136.779	-0.054	-0.006
-276.428	457.616	0.063	0.138
-275.413	-79.750	-0.261	-0.086
-274.399	-200.000	0.073	-0.334
-273.384	15.634	0.114	-0.088
-272.370	180.042	-0.060	0.087
-271.355	40.801	0.380	-0.338
-270.340	-32.377	-0.033	-0.018
-269.326	639.200	-0.056	0.141
-268.311	800.000	0.061	-0.239
-267.297	27.949	-0.117	-0.097
-266.282	-135.021	0.049	0.006
-265.267	24.650	0.090	-0.073
-264.253	800.000	0.106	-0.337
-263.238	185.425	-0.213	0.311
-262.224	-200.000	0.390	0.000
-261.209	-200.000	0.037	-0.169
-260.195	82.568	0.197	-0.211
-259.180	196.151	-0.099	0.149
-258.165	214.680	-0.104	-0.162
-257.151	72.956	-0.090	-0.092
-256.136	-51.758	-0.193	-0.089
-255.122	391.443	-0.179	0.367
-254.107	48.879	-0.320	0.295
-253.092	-49.869	0.418	0.195
-252.078	-121.430	0.343	0.056
-251.063	-121.892	-0.259	-0.042
-250.049	-132.019	-0.242	0.031
-249.034	85.607	-0.159	0.173
-248.019	-156.920	-0.402	-0.024
-247.005	185.314	0.130	0.190
-245.990	-200.000	-0.042	0.358
-244.976	-200.000	0.001	0.096
-243.961	-160.171	0.224	0.012
-242.946	799.061	0.045	0.123
-241.932	115.573	0.060	-0.073
-240.917	-176.872	0.159	-0.004
-239.903	118.122	0.149	0.180
-238.888	0.813	0.091	-0.064
-237.873	32.836	0.335	0.285
-236.859	27.880	0.044	0.037
-235.844	-17.840	0.167	0.103
-234.830	-200.000	0.016	0.222
-233.815	162.433	0.127	0.175
-232.800	133.877	-0.092	0.117
-231.786	-200.000	-0.053	-0.332
-230.771	246.233	0.077	-0.127
-229.757	-200.000	0.044	0.205
-228.742	-67.205	0.263	-0.102
-227.727	-132.698	-0.005	0.001
-226.713	258.176	0.106	-0.180
-225.698	-32.159	-0.198	0.109
-224.684	716.196	-0.070	-0.184
-223.669	800.000	-0.078	0.234
-222.655	-130.634	-0.139	-0.018
-221.640	143.256	0.214	0.280
-220.625	200.175	0.068	0.103
-219.611	-72.479	-0.318	0.116
-218.596	210.270	0.087	-0.134
-217.582	-45.732	0.080	0.039
-216.567	-105.161	-0.038	0.009
-215.552	-29.843	-0.100	0.056
-214.538	-98.918	0.175	-0.044
-213.523	389.439	0.047	-0.097
-212.509	566.109	-0.075	-0.180
-211.494	152.074	-0.126	0.169
-210.479	-187.118	0.114	0.002
-209.465	-74.462	-0.164	-0.058
-208.450	-87.931	0.109	-0.032
-207.436	-59.730	-0.181	-0.076
-206.421	-73.264	0.118	-0.042
-205.406	-71.802	-0.196	0.072
-204.392	723.969	-0.097	-0.253
-203.377	-0.816	-0.242	0.169
-202.363	-200.000	0.022	-0.495
-201.348	187.088	-0.121	-0.177
-200.333	-55.858	-0.153	-0.067
-199.319	228.432	0.192	-0.308
-198.304	110.610	-0.177	0.209
-197.290	54.721	-0.016	-0.015
-196.275	-91.220	0.130	0.037
-195.260	-138.500	0.074	-0.008
-194.246	-133.360	-0.297	-0.037
-193.231	521.312	0.101	0.234
-192.217	218.208	-0.174	0.273
-191.202	0.814	-0.256	0.180
-190.187	800.000	-0.007	-0.030
-189.173	-200.000	-0.016	0.086
-188.158	800.000	-0.036	-0.144
-187.144	165.762	-0.089	-0.124
-186.129	800.000	-0.075	0.280
-185.114	-84.776	-0.261	-0.081
-184.100	235.328	0.126	-0.204
-183.085	132.158	0.114	-0.144
-182.071	800.000	-0.075	-0.238
-181.056	-171.576	-0.240	-0.008
-180.042	-200.000	-0.060	0.322
-179.027	244.687	-0.135	0.222
-178.012	-200.000	-0.023	0.230
-176.998	461.875	0.073	0.160
-175.983	309.515	0.084	-0.155
-174.969	-154.297	0.349	-0.023
-173.954	-108.887	0.172	0.036
-172.939	125.808	0.139	-0.173
-171.925	-54.404	0.254	-0.113
-170.910	-200.000	0.010	-0.057
-169.896	-82.306	0.342	0.109
-168.881	-97.845	0.176	-0.045
-167.866	182.611	0.170	0.246
-166.852	-68.812	-0.182	0.069
-165.837	248.111	0.034	-0.056
-164.823	45.180	0.156	-0.141
-163.808	98.468	0.068	-0.076
-162.793	-29.918	0.195	0.109
-161.779	-107.943	0.146	0.031
-160.764	-46.492	0.371	0.178
-159.750	-69.089	-0.263	-0.099
-158.735	-187.243	-0.239	0.003
-157.720	-114.687	0.112	0.021
-156.706	424.147	-0.164	0.346
-155.691	401.030	0.092	-0.190
-154.677	228.398	-0.174	-0.278
-153.662	-200.000	-0.004	0.129
-152.647	-200.000	0.074	-0.324
-151.633	-200.000	0.020	-0.165
-150.618	800.000	0.087	-0.356
-149.604	163.591	0.074	-0.102
-148.589	-166.155	-0.452	-0.019
-147.574	-58.500	-0.106	-0.045
-146.560	-89.559	-0.421	0.121
-145.545	-40.025	0.301	-0.154
-144.531	-115.699	-0.213	0.039
-143.516	44.700	-0.099	-0.089
-142.502	-85.819	0.050	0.015
-141.487	18.503	-0.371	0.291
-140.472	119.675	-0.145	0.176
-139.458	233.932	0.084	-0.136
-138.443	610.300	0.057	-0.141
-137.429	208.751	-0.067	-0.103
-136.414	118.270	0.104	-0.126
-135.399	-23.832	-0.332	-0.195
-134.385	-117.606	0.006	-0.001
-133.370	-35.076	0.228	-0.122
-132.356	800.000	-0.048	0.197
-131.341	377.064	0.158	0.316
-130.326	-200.000	0.028	-0.306
-129.312	-30.824	-0.203	-0.113
-128.297	85.519	0.087	0.093
-127.283	800.000	0.047	0.147
-126.268	-26.757	-0.062	-0.035
-125.253	42.174	-0.137	0.122
-124.239	-96.642	-0.152	0.039
-123.224	328.528	0.144	-0.271
-122.210	-127.043	0.266	-0.038
-121.195	-117.721	0.297	0.052
-120.180	173.546	0.399	0.564
