DTS Sentinel unit serial number:	SN413079Multiplexer serial number:	ORYXHardware model number:	OX4-SRSoftware version number:	ORYX F/W v4.00 Oryx Data Collector v3.7.2.0data status	okinstallation	princeton_trtdifferential loss correction	single-endedforward channel	channel 1reverse channel	N/Adate	2019/09/15time	15:58:35forward acquisition time	60.00reverse acquisition time	0.00gamma	496.2192k internal	0.2291k external	0.2291temperature offset calibration	0.9939default loss term (dB/km)	0.3790temperature slope calibration	1.0000multiplexer offset coefficient	1.0000multiplexer slope coefficient	1.0000fibre end	0.00T internal ref (°C)	42.64T ext. ref 1 (°C)	5.31T ext. ref 2 (°C)	40.39length (m)	temperature (°C)	Stokes	anti-Stokes-747.200	-200.000	-0.060	-0.479
-746.185	491.408	-0.223	0.523
-745.171	89.752	-0.246	-0.281
-744.156	-200.000	0.001	0.057
-743.142	-46.644	0.209	-0.105
-742.127	800.000	-0.092	0.263
-741.112	27.238	-0.148	0.128
-740.098	-200.000	0.058	0.264
-739.083	800.000	-0.035	-0.103
-738.069	800.000	0.086	0.312
-737.054	-113.615	0.285	0.057
-736.039	191.882	-0.272	0.419
-735.025	-200.000	0.000	0.153
-734.010	312.832	-0.119	-0.229
-732.996	45.679	-0.028	0.026
-731.981	271.123	0.068	0.123
-730.966	153.905	0.028	-0.039
-729.952	221.424	-0.180	-0.295
-728.937	-200.000	0.010	0.176
-727.923	-200.000	-0.016	0.227
-726.908	800.000	-0.146	0.526
-725.894	-181.073	0.326	-0.007
-724.879	85.549	0.144	0.161
-723.864	-10.164	-0.246	-0.167
-722.850	-200.000	0.007	0.101
-721.835	28.384	-0.079	0.069
-720.821	314.117	-0.156	-0.301
-719.806	-9.858	-0.311	0.212
-718.791	-100.066	-0.135	-0.035
-717.777	141.655	0.073	0.099
-716.762	-127.369	-0.084	0.013
-715.748	-1.689	-0.276	-0.199
-714.733	-98.867	0.169	0.044
-713.718	-85.146	-0.476	-0.152
-712.704	571.403	-0.054	-0.136
-711.689	47.465	-0.109	-0.104
-710.675	800.000	0.046	0.199
-709.660	-168.660	0.283	-0.011
-708.645	36.256	-0.252	-0.227
-707.631	23.265	-0.186	0.156
-706.616	-62.444	0.516	-0.220
-705.602	237.679	0.104	-0.176
-704.587	-72.511	0.239	-0.090
-703.572	203.205	-0.086	-0.136
-702.558	-121.208	-0.140	-0.024
-701.543	-200.000	-0.023	-0.107
-700.529	-110.982	-0.176	-0.037
-699.514	121.835	-0.015	0.019
-698.499	10.051	-0.104	0.081
-697.485	-163.534	0.211	-0.010
-696.470	138.657	-0.058	0.077
-695.456	203.063	-0.136	0.215
-694.441	800.000	-0.070	-0.202
-693.426	-180.295	-0.222	-0.005
-692.412	45.857	-0.081	-0.076
-691.397	-84.646	-0.313	0.101
-690.383	-87.505	-0.129	0.040
-689.368	-180.711	-0.185	0.004
-688.354	800.000	-0.067	-0.253
-687.339	454.548	0.061	0.139
-686.324	-95.857	-0.243	0.066
-685.310	-200.000	-0.015	-0.243
-684.295	-143.117	-0.197	0.019
-683.281	-122.005	0.123	-0.021
-682.266	-109.458	-0.193	-0.042
-681.251	-90.176	-0.205	-0.061
-680.237	-200.000	0.010	0.095
-679.222	-200.000	0.016	-0.125
-678.208	-130.128	0.032	-0.004
-677.193	482.513	0.103	-0.240
-676.178	-200.000	-0.015	0.307
-675.164	231.851	0.164	-0.275
-674.149	395.562	0.022	0.047
-673.135	203.220	-0.129	-0.204
-672.120	-96.497	0.362	0.098
-671.105	-90.754	-0.192	-0.057
-670.091	-89.591	-0.102	0.030
-669.076	-200.000	-0.017	0.331
-668.062	543.287	0.083	0.201
-667.047	-55.073	-0.227	0.104
-666.032	-200.000	0.024	-0.228
-665.018	-200.000	-0.022	0.145
-664.003	-9.718	0.057	0.039
-662.989	-15.929	-0.031	0.020
-661.974	800.000	-0.092	-0.329
-660.959	294.944	0.210	-0.392
-659.945	-94.151	0.256	0.072
-658.930	-29.565	-0.405	0.236
-657.916	-85.820	0.438	0.138
-656.901	-39.316	-0.229	-0.122
-655.886	286.498	-0.201	-0.370
-654.872	-200.000	-0.022	0.185
-653.857	108.149	-0.193	-0.234
-652.843	-55.987	-0.139	-0.063
-651.828	800.000	-0.018	0.058
-650.814	25.810	0.041	-0.035
-649.799	0.992	0.269	0.197
-648.784	76.538	-0.275	-0.297
-647.770	13.285	-0.249	0.197
-646.755	9.692	-0.182	0.141
-645.741	-72.587	0.062	0.023
-644.726	78.183	0.251	-0.273
-643.711	172.663	-0.029	-0.042
-642.697	-200.000	0.004	-0.056
-641.682	11.954	0.173	-0.136
-640.668	798.125	-0.068	-0.191
-639.653	444.368	-0.048	0.107
-638.638	93.187	0.195	-0.225
-637.624	-128.585	-0.284	-0.041
-636.609	-114.506	-0.109	-0.021
-635.595	-51.686	0.209	0.099
-634.580	-200.000	0.017	0.150
-633.565	-89.303	-0.108	-0.032
-632.551	-126.387	0.218	-0.033
-631.536	800.000	-0.018	-0.068
-630.522	-74.092	-0.171	0.063
-629.507	743.575	-0.114	-0.312
-628.492	-200.000	0.162	-0.734
-627.478	-41.102	-0.095	-0.050
-626.463	22.378	-0.281	-0.234
-625.449	-4.656	0.211	-0.149
-624.434	22.178	0.153	-0.127
-623.419	-73.501	-0.181	0.067
-622.405	282.510	0.072	-0.131
-621.390	-200.000	0.019	-0.170
-620.376	247.811	-0.069	0.120
-619.361	10.733	0.185	0.144
-618.346	35.438	-0.139	-0.125
-617.332	-34.856	-0.056	-0.031
-616.317	-80.491	-0.173	-0.059
-615.303	325.608	0.169	-0.330
-614.288	800.000	-0.110	0.383
-613.273	-132.878	0.329	-0.043
-612.259	251.305	0.241	-0.417
-611.244	139.919	0.141	-0.189
-610.230	10.496	-0.176	0.136
-609.215	-142.466	-0.299	-0.030
-608.201	-123.286	0.166	0.027
-607.186	5.365	0.267	-0.201
-606.171	551.164	0.170	-0.414
-605.157	220.680	-0.061	-0.100
-604.142	-34.796	-0.313	-0.174
-603.128	-141.713	0.210	-0.021
-602.113	-84.924	-0.171	-0.055
-601.098	800.000	0.091	-0.272
-600.084	-200.000	0.004	-0.208
-599.069	-200.000	-0.032	-0.354
-598.055	-169.858	-0.337	-0.012
-597.040	800.000	0.056	-0.159
-596.025	-157.537	-0.275	0.017
-595.011	-124.494	0.322	0.051
-593.996	-72.162	-0.183	0.069
-592.982	-3.427	-0.337	-0.239
-591.967	-138.048	-0.198	-0.022
-590.952	123.940	-0.055	0.071
-589.938	-75.509	-0.297	0.108
-588.923	-200.000	0.003	-0.061
-587.909	333.919	-0.090	0.177
-586.894	-105.552	-0.386	-0.089
-585.879	-24.288	0.295	-0.179
-584.865	-78.261	0.302	-0.106
-583.850	-21.919	-0.475	0.294
-582.836	55.548	-0.091	0.090
-581.821	-39.975	0.071	-0.038
-580.806	-152.452	0.296	0.022
-579.792	71.444	-0.057	-0.060
-578.777	-200.000	-0.045	0.207
-577.763	-200.000	-0.028	0.378
-576.748	245.592	-0.115	0.198
-575.733	271.121	0.089	-0.159
-574.719	15.969	0.282	0.226
-573.704	34.733	0.231	-0.206
-572.690	351.624	0.093	-0.187
-571.675	50.736	0.186	0.179
-570.661	-2.611	0.146	-0.104
-569.646	-31.244	-0.101	-0.058
-568.631	144.158	0.075	0.102
-567.617	800.000	-0.053	-0.178
-566.602	-200.000	-0.037	-0.348
-565.588	800.000	0.076	-0.276
-564.573	-22.449	-0.302	-0.186
-563.558	263.419	-0.141	-0.250
-562.544	-112.954	0.065	0.013
-561.529	-6.468	0.128	0.089
-560.515	94.788	-0.114	-0.132
-559.500	-16.200	-0.206	-0.133
-558.485	662.464	-0.051	-0.133
-557.471	-126.563	0.114	-0.017
-556.456	27.048	-0.155	0.133
-555.442	-54.337	0.066	0.030
-554.427	-200.000	-0.007	0.234
-553.412	38.660	0.071	-0.064
-552.398	117.641	-0.155	0.193
-551.383	-200.000	-0.075	0.549
-550.369	-114.053	-0.311	-0.061
-549.354	-200.000	-0.006	0.035
-548.339	-115.990	0.155	-0.029
-547.325	-176.972	0.174	-0.004
-546.310	71.456	-0.089	0.094
-545.296	-200.000	-0.014	-0.124
-544.281	79.649	-0.097	-0.106
-543.266	123.196	0.210	0.267
-542.252	-46.072	0.196	0.098
-541.237	-97.700	-0.052	-0.014
-540.223	-23.775	-0.405	0.247
-539.208	-200.000	0.011	0.083
-538.193	-181.351	0.160	-0.003
-537.179	626.798	0.055	-0.140
-536.164	12.336	-0.298	0.233
-535.150	-200.000	-0.013	0.120
-534.135	-167.858	-0.455	0.018
-533.121	203.597	0.093	-0.146
-532.106	148.100	0.154	-0.211
-531.091	575.222	-0.084	0.208
-530.077	-94.331	-0.101	-0.028
-529.062	277.995	-0.083	0.149
-528.048	-188.107	-0.359	0.005
-527.033	-95.972	0.013	-0.004
-526.018	90.914	0.103	-0.118
-525.004	-25.023	0.155	0.093
-523.989	165.763	0.026	0.038
-522.975	36.946	-0.259	0.233
-521.960	224.702	0.072	-0.118
-520.945	800.000	-0.114	0.367
-519.931	-104.115	0.334	0.079
-518.916	-170.755	0.085	-0.003
-517.902	374.802	0.043	0.089
-516.887	-70.305	-0.406	-0.156
-515.872	422.746	-0.150	-0.328
-514.858	-135.875	-0.574	-0.069
-513.843	-200.000	0.005	0.219
-512.829	800.000	-0.025	-0.075
-511.814	168.535	-0.076	0.110
-510.799	-200.000	0.001	0.038
-509.785	800.000	-0.045	0.134
-508.770	-123.899	0.596	-0.095
-507.756	11.102	0.201	-0.156
-506.741	-200.000	-0.040	-0.189
-505.726	-90.188	-0.253	0.075
-504.712	-70.242	-0.093	-0.036
-503.697	250.868	0.031	0.053
-502.683	-116.817	-0.320	0.060
-501.668	55.913	-0.218	-0.214
-500.653	-200.000	-0.016	-0.105
-499.639	478.868	-0.147	-0.337
-498.624	-11.109	0.319	-0.213
-497.610	-93.911	0.139	0.039
-496.595	130.230	0.056	-0.073
-495.581	365.280	-0.068	0.139
-494.566	-200.000	-0.080	0.579
-493.551	6.808	0.023	-0.017
-492.537	-99.807	-0.277	0.070
-491.522	558.958	-0.083	-0.203
-490.508	-142.042	0.218	0.022
-489.493	-114.199	0.277	-0.054
-488.478	339.143	-0.172	-0.339
-487.464	-200.000	0.002	0.037
-486.449	63.675	0.095	-0.096
-485.435	75.453	-0.217	0.232
-484.420	-16.410	0.148	-0.095
-483.405	-54.889	-0.092	-0.042
-482.391	-100.386	0.267	0.067
-481.376	800.000	0.066	-0.205
-480.362	150.535	0.096	0.133
-479.347	-115.689	0.183	-0.035
-478.332	800.000	0.065	-0.203
-477.318	-169.893	0.399	-0.014
-476.303	-19.051	0.242	-0.152
-475.289	35.543	-0.099	-0.088
-474.274	-186.248	0.425	0.006
-473.259	-102.304	0.510	-0.124
-472.245	-200.000	0.059	-0.397
-471.230	-40.912	0.176	-0.092
-470.216	445.675	0.186	0.413
-469.201	-85.482	0.192	-0.061
-468.186	-116.988	-0.205	-0.038
-467.172	-4.891	0.168	0.117
-466.157	-8.312	0.280	-0.191
-465.143	-194.551	-0.284	0.002
-464.128	-113.538	0.298	-0.059
-463.113	-48.379	0.333	-0.162
-462.099	31.357	-0.138	0.120
-461.084	16.005	-0.296	-0.236
-460.070	316.373	-0.098	-0.187
-459.055	67.593	-0.160	0.166
-458.040	800.000	0.069	0.278
-457.026	-69.684	-0.159	0.062
-456.011	-91.629	0.205	-0.059
-454.997	800.000	-0.027	-0.077
-453.982	220.400	-0.101	0.163
-452.968	-23.813	0.075	-0.045
-451.953	800.000	0.027	0.093
-450.938	381.316	-0.088	0.184
-449.924	284.247	-0.105	0.191
-448.909	71.922	0.051	-0.054
-447.895	-107.443	0.109	0.024
-446.880	-200.000	0.040	0.249
-445.865	-44.499	-0.141	0.071
-444.851	39.368	-0.208	0.188
-443.836	800.000	-0.013	0.053
-442.822	-200.000	-0.066	-0.473
-441.807	-21.269	0.283	-0.175
-440.792	-62.477	0.265	0.111
-439.778	-17.410	-0.215	0.137
-438.763	115.345	0.176	-0.217
-437.749	-37.352	-0.223	-0.121
-436.734	-200.000	-0.030	-0.235
-435.719	66.732	0.214	-0.220
-434.705	800.000	-0.040	-0.124
-433.690	-194.906	-0.229	0.002
-432.676	-74.620	-0.130	0.047
-431.661	73.168	-0.388	-0.411
-430.646	87.775	0.182	0.204
-429.632	-19.567	0.106	0.067
-428.617	364.162	-0.093	0.189
-427.603	800.000	-0.074	0.234
-426.588	-200.000	-0.035	-0.343
-425.573	-41.217	0.204	-0.107
-424.559	152.280	-0.066	-0.092
-423.544	-129.250	-0.180	-0.025
-422.530	69.686	0.149	0.155
-421.515	-200.000	0.003	0.042
-420.500	34.736	-0.166	-0.147
-419.486	-64.819	0.162	0.066
-418.471	-98.383	0.116	-0.030
-417.457	40.288	0.160	0.145
-416.442	-146.066	0.048	-0.004
-415.428	-200.000	-0.001	-0.079
-414.413	239.427	-0.131	0.220
-413.398	-106.098	-0.209	-0.047
-412.384	800.000	-0.022	0.063
-411.369	-200.000	0.032	0.346
-410.355	-35.660	-0.262	0.143
-409.340	-52.267	-0.144	0.067
-408.325	-100.378	-0.151	0.038
-407.311	-97.549	0.095	0.025
-406.296	-200.000	-0.071	0.354
-405.282	156.540	0.013	-0.019
-404.267	-200.000	0.026	0.502
-403.252	-190.853	-0.140	0.001
-402.238	-112.716	0.165	0.033
-401.223	47.826	-0.116	0.110
-400.209	-22.600	-0.150	0.091
-399.194	-93.601	-0.549	-0.153
-398.179	-35.963	0.062	-0.034
-397.165	-58.618	-0.355	-0.155
-396.150	-188.759	-0.329	0.004
-395.136	-36.752	0.447	-0.242
-394.121	-5.329	-0.178	-0.123
-393.106	800.000	0.039	-0.164
-392.092	-57.161	0.141	0.063
-391.077	85.526	-0.214	0.238
-390.063	-163.984	0.075	-0.004
-389.048	-199.295	0.248	-0.001
-388.033	-72.702	-0.161	-0.060
-387.019	-68.620	0.182	-0.071
-386.004	-200.000	0.103	-0.000
-384.990	658.135	0.130	0.339
-383.975	-200.000	-0.010	0.171
-382.960	162.555	0.153	0.216
-381.946	210.653	0.191	0.303
-380.931	-21.679	-0.356	0.219
-379.917	-200.000	-0.032	-0.145
-378.902	1.177	0.205	0.149
-377.888	113.167	-0.103	-0.127
-376.873	20.800	0.354	0.290
-375.858	167.400	-0.052	0.075
-374.844	-200.000	-0.036	-0.377
-373.829	22.840	0.117	0.097
-372.815	47.507	0.222	-0.209
-371.800	-200.000	0.006	-0.167
-370.785	-12.521	-0.130	-0.086
-369.771	221.867	0.179	0.291
-368.756	-77.664	0.195	0.068
-367.742	-42.961	0.243	0.125
-366.727	-101.745	-0.182	0.044
-365.712	-200.000	-0.013	-0.109
-364.698	800.000	-0.173	0.579
-363.683	92.591	-0.314	0.357
-362.669	182.118	-0.077	-0.114
-361.654	-70.623	-0.560	0.213
-360.639	160.061	0.210	0.295
-359.625	-80.908	-0.145	-0.048
-358.610	800.000	0.101	-0.339
-357.596	204.145	-0.060	-0.094
-356.581	-113.443	0.074	-0.015
-355.566	-143.943	-0.101	-0.010
-354.552	-123.595	-0.184	0.029
-353.537	68.348	-0.117	-0.121
-352.523	800.000	-0.073	-0.298
-351.508	-200.000	-0.061	0.331
-350.493	-49.213	0.409	0.197
-349.479	-137.454	-0.253	-0.029
-348.464	207.816	0.165	0.260
-347.450	-169.741	-0.222	0.008
-346.435	-80.448	0.339	0.114
-345.420	-138.833	-0.138	0.015
-344.406	-59.569	0.073	-0.032
-343.391	-60.888	-0.334	0.143
-342.377	-72.574	0.273	0.102
-341.362	-200.000	0.016	0.365
-340.348	375.194	0.077	0.158
-339.333	-126.199	0.131	0.020
-338.318	130.862	-0.170	-0.220
-337.304	473.332	-0.052	-0.118
-336.289	-6.534	-0.082	-0.056
-335.275	-118.166	0.128	0.023
-334.260	607.136	0.157	0.395
-333.245	-18.691	0.134	0.084
-332.231	-22.422	0.225	-0.137
-331.216	473.570	0.020	-0.044
-330.202	-77.918	-0.064	-0.022
-329.187	-18.286	0.116	-0.073
-328.172	-200.000	0.005	-0.152
-327.158	-20.992	0.137	-0.085
-326.143	800.000	0.103	-0.360
-325.129	91.340	-0.102	0.115
-324.114	-101.892	0.092	0.022
-323.099	411.287	-0.033	-0.071
-322.085	-200.000	0.042	-0.282
-321.070	94.594	-0.119	-0.136
-320.056	-133.608	0.474	-0.060
-319.041	14.571	-0.164	-0.129
-318.026	121.987	-0.133	0.167
-317.012	8.259	-0.183	0.138
-315.997	-98.545	0.190	-0.049
-314.983	-111.796	0.109	0.022
-313.968	307.012	-0.037	0.069
-312.953	106.537	0.276	0.329
-311.939	-200.000	-0.028	0.182
-310.924	-101.063	-0.251	-0.062
-309.910	-200.000	-0.012	0.233
-308.895	-17.376	-0.202	-0.128
-307.880	62.034	0.149	0.149
-306.866	291.390	0.118	0.217
-305.851	-118.240	-0.303	-0.054
-304.837	-200.000	0.009	-0.046
-303.822	-200.000	-0.044	-0.203
-302.807	557.578	0.031	0.075
-301.793	-93.983	-0.145	0.040
-300.778	800.000	0.143	-0.400
-299.764	800.000	-0.051	0.155
-298.749	605.776	-0.057	0.142
-297.735	-200.000	0.002	-0.125
-296.720	-200.000	-0.016	0.155
-295.705	330.464	0.064	0.124
-294.691	142.876	-0.076	0.102
-293.676	-26.342	0.217	-0.128
-292.662	-19.374	0.180	0.112
-291.647	800.000	0.138	0.422
-290.632	244.167	0.048	-0.081
-289.618	366.481	0.071	-0.145
-288.603	137.131	-0.200	0.263
-287.589	-200.000	-0.005	-0.333
-286.574	94.078	-0.209	-0.238
-285.559	800.000	-0.037	-0.152
-284.545	-164.647	0.475	0.022
-283.530	400.636	0.080	-0.168
-282.516	-200.000	-0.004	-0.198
-281.501	37.836	0.033	-0.029
-280.486	-168.909	0.155	0.006
-279.472	-159.080	-0.259	0.015
-278.457	-200.000	-0.009	-0.284
-277.443	-116.313	0.191	-0.035
-276.428	462.420	0.062	0.139
-275.413	146.071	0.098	0.132
-274.399	-16.241	0.145	-0.093
-273.384	-200.000	-0.060	-0.291
-272.370	-94.109	0.115	0.032
-271.355	-170.136	0.341	-0.012
-270.340	190.862	-0.010	-0.016
-269.326	-200.000	-0.044	0.278
-268.311	-40.142	0.122	-0.064
-267.297	-115.294	-0.436	0.083
-266.282	237.923	0.135	-0.225
-265.267	-77.056	0.140	0.049
-264.253	-9.179	0.163	0.109
-263.238	-200.000	0.036	-0.179
-262.224	63.285	0.064	-0.065
-261.209	-200.000	-0.021	0.370
-260.195	192.811	0.297	0.451
-259.180	-3.985	-0.226	-0.158
-258.165	216.941	-0.114	-0.182
-257.151	-139.008	-0.292	-0.032
-256.136	47.449	0.114	-0.107
-255.122	-11.952	-0.126	-0.083
-254.107	-3.365	-0.198	0.139
-253.092	679.883	0.099	-0.258
-252.078	80.938	-0.113	0.123
-251.063	11.469	-0.058	0.045
-250.049	30.480	0.054	-0.047
-249.034	-129.942	-0.186	0.026
-248.019	800.000	-0.047	-0.178
-247.005	-35.250	0.325	0.178
-245.990	2.760	0.123	-0.090
-244.976	-200.000	-0.002	-0.016
-243.961	800.000	-0.036	0.127
-242.946	800.000	0.044	0.182
-241.932	-109.947	-0.310	0.065
-240.917	13.969	-0.051	-0.039
-239.903	-25.625	-0.231	-0.137
-238.888	-165.405	0.277	-0.012
-237.873	-126.440	0.202	0.030
-236.859	-92.191	0.393	-0.111
-235.844	-84.188	-0.150	-0.048
-234.830	-17.589	-0.130	-0.082
-233.815	800.000	-0.048	0.146
-232.800	-70.623	-0.351	-0.133
-231.786	-200.000	0.026	-0.234
-230.771	649.611	0.048	0.124
-229.757	-114.911	0.398	0.076
-228.742	-200.000	0.045	0.374
-227.727	-101.129	-0.366	0.090
-226.713	-200.000	-0.002	-0.234
-225.698	159.800	0.238	-0.333
-224.684	-93.790	-0.197	0.054
-223.669	-185.968	-0.266	-0.004
-222.655	190.260	-0.109	-0.165
-221.640	557.344	0.079	0.190
-220.625	103.558	-0.284	0.334
-219.611	49.407	-0.301	-0.284
-218.596	268.175	0.050	-0.088
-217.582	146.747	0.274	0.370
-216.567	127.602	0.104	-0.132
-215.552	-56.076	-0.143	0.064
-214.538	24.287	-0.249	0.206
-213.523	-200.000	-0.029	-0.236
-212.509	-42.491	-0.156	-0.080
-211.494	1.617	0.099	-0.072
-210.479	347.050	0.143	0.282
-209.465	233.695	0.214	0.353
-208.450	-53.659	0.180	0.082
-207.436	122.704	-0.089	0.112
-206.421	-103.832	0.343	0.080
-205.406	322.614	-0.009	-0.017
-204.392	800.000	-0.022	0.070
-203.377	180.425	0.119	0.174
-202.363	5.969	0.200	0.148
-201.348	-200.000	0.018	-0.164
-200.333	-41.548	-0.201	0.104
-199.319	-164.997	0.178	0.008
-198.304	-142.043	-0.104	0.010
-197.290	6.317	0.221	-0.165
-196.275	262.303	0.079	-0.137
-195.260	-12.964	-0.241	-0.157
-194.246	404.148	0.086	-0.181
-193.231	-200.000	-0.147	0.001
-192.217	-66.445	-0.139	-0.055
-191.202	-69.379	0.396	0.152
-190.187	-60.887	-0.463	-0.196
-189.173	-79.636	-0.321	0.108
-188.158	-66.358	-0.084	0.033
-187.144	38.103	0.142	0.127
-186.129	315.368	0.043	0.081
-185.114	-174.788	0.265	0.007
-184.100	-200.000	0.094	0.478
-183.085	-200.000	0.031	0.177
-182.071	800.000	-0.103	0.366
-181.056	147.149	0.083	-0.112
-180.042	21.059	0.049	-0.040
-179.027	800.000	0.094	0.324
-178.012	-8.057	0.089	0.060
-176.998	-39.443	0.219	-0.115
-175.983	-136.907	-0.328	-0.038
-174.969	-200.000	0.004	-0.241
-173.954	-200.000	0.014	-0.197
-172.939	-200.000	-0.069	0.416
-171.925	1.315	0.094	0.068
-170.910	274.545	0.059	0.105
-169.896	-200.000	-0.042	-0.201
-168.881	117.920	0.090	-0.112
-167.866	-83.469	0.195	0.063
-166.852	-110.311	0.332	-0.069
-165.837	-67.980	-0.175	0.068
-164.823	-10.491	0.339	0.225
-163.808	-47.606	0.207	0.101
-162.793	-66.848	-0.035	-0.014
-161.779	209.630	-0.086	-0.135
-160.764	379.206	-0.161	-0.330
-159.750	-95.195	0.177	-0.048
-158.735	-125.347	0.098	0.015
-157.720	87.758	-0.239	0.265
-156.706	581.590	-0.078	0.191
-155.691	18.992	0.015	0.012
-154.677	-200.000	-0.008	-0.301
-153.662	-200.000	-0.034	-0.177
-152.647	-18.619	-0.165	0.103
-151.633	158.653	-0.149	0.207
-150.618	277.348	-0.122	0.217
-149.604	227.366	-0.011	0.018
-148.589	281.645	-0.164	0.294
-147.574	232.122	-0.069	0.113
-146.560	-138.610	-0.322	0.035
-145.545	-136.098	0.152	-0.018
-144.531	17.806	0.170	-0.135
-143.516	-149.593	0.143	-0.011
-142.502	-138.823	-0.231	0.025
-141.487	-200.000	0.001	-0.134
-140.472	388.815	0.075	0.155
-139.458	-200.000	0.007	0.050
-138.443	37.792	0.098	0.087
-137.429	69.694	-0.120	-0.124
-136.414	-200.000	-0.057	-0.412
-135.399	800.000	0.051	0.176
-134.385	99.113	0.091	-0.105
-133.370	-134.025	-0.131	-0.016
-132.356	229.656	-0.142	-0.232
-131.341	-148.296	0.207	-0.017
-130.326	13.643	-0.145	-0.113
-129.312	-190.325	-0.175	-0.002
-128.297	-0.608	-0.150	0.106
-127.283	231.735	0.206	0.338
-126.268	-162.733	0.059	-0.003
-125.253	-188.705	-0.134	0.002
-124.239	800.000	0.081	0.303
-123.224	59.139	0.123	-0.121
-122.210	-200.000	-0.016	0.233
