DTS Sentinel unit serial number:	SN413079Multiplexer serial number:	ORYXHardware model number:	OX4-SRSoftware version number:	ORYX F/W v4.00 Oryx Data Collector v3.7.2.0data status	okinstallation	princeton_trtdifferential loss correction	single-endedforward channel	channel 1reverse channel	N/Adate	2019/09/11time	20:36:11forward acquisition time	60.00reverse acquisition time	0.00gamma	496.2192k internal	0.2305k external	0.2305temperature offset calibration	1.0045default loss term (dB/km)	0.3790temperature slope calibration	1.0000multiplexer offset coefficient	1.0000multiplexer slope coefficient	1.0000fibre end	0.00T internal ref (°C)	37.41T ext. ref 1 (°C)	1.53T ext. ref 2 (°C)	30.82length (m)	temperature (°C)	Stokes	anti-Stokes-747.200	-97.974	-0.269	0.071
-746.185	-68.426	-0.241	-0.095
-745.171	54.043	-0.105	-0.103
-744.156	800.000	0.105	0.357
-743.142	-66.743	-0.203	0.082
-742.127	800.000	-0.126	0.546
-741.112	-100.869	0.257	-0.064
-740.098	62.857	0.240	0.244
-739.083	708.340	0.044	0.118
-738.069	195.357	0.312	0.482
-737.054	171.374	-0.031	0.046
-736.039	-75.724	-0.194	0.070
-735.025	800.000	0.046	0.162
-734.010	220.108	0.121	0.198
-732.996	-154.813	-0.257	-0.017
-731.981	-128.270	0.111	-0.016
-730.966	65.206	-0.130	-0.134
-729.952	-200.000	-0.016	-0.075
-728.937	410.211	-0.082	-0.177
-727.923	-130.368	0.209	-0.029
-726.908	-200.000	0.003	-0.103
-725.894	800.000	0.068	-0.218
-724.879	625.148	-0.061	0.156
-723.864	-43.341	-0.513	0.264
-722.850	168.972	-0.017	-0.024
-721.835	91.022	-0.150	-0.171
-720.821	62.162	-0.156	0.158
-719.806	-88.469	-0.172	0.052
-718.791	450.197	-0.113	0.254
-717.777	-3.233	-0.204	0.144
-716.762	-200.000	0.050	-0.390
-715.748	20.032	0.089	-0.073
-714.733	127.561	-0.082	-0.105
-713.718	-62.855	-0.255	-0.107
-712.704	800.000	0.177	0.536
-711.689	657.915	0.125	0.327
-710.675	800.000	0.055	-0.201
-709.660	-200.000	-0.025	-0.227
-708.645	800.000	-0.093	-0.355
-707.631	-200.000	-0.014	-0.096
-706.616	34.170	0.160	0.142
-705.602	207.036	0.061	-0.096
-704.587	-200.000	-0.341	0.000
-703.572	-54.895	0.041	0.019
-702.558	-33.097	-0.031	-0.017
-701.543	800.000	0.078	-0.327
-700.529	-200.000	0.030	0.335
-699.514	-200.000	0.002	-0.083
-698.499	-72.251	0.348	-0.131
-697.485	-133.969	0.093	0.012
-696.470	800.000	0.060	-0.248
-695.456	-125.287	-0.236	0.037
-694.441	420.243	-0.111	0.242
-693.426	394.089	-0.157	0.331
-692.412	-20.967	-0.023	-0.014
-691.397	-65.018	-0.262	-0.107
-690.383	-33.159	-0.193	0.109
-689.368	64.567	0.098	0.100
-688.354	6.863	0.101	-0.076
-687.339	240.538	0.136	0.231
-686.324	553.977	-0.041	0.099
-685.310	107.283	-0.214	0.258
-684.295	23.288	-0.305	0.255
-683.281	-159.483	-0.252	-0.014
-682.266	-52.519	0.178	0.084
-681.251	-48.599	-0.219	0.107
-680.237	91.318	0.158	-0.181
-679.222	280.549	0.095	0.172
-678.208	-200.000	0.023	0.147
-677.193	-23.863	0.448	0.272
-676.178	-142.038	-0.193	-0.019
-675.164	18.315	-0.265	-0.215
-674.149	-15.396	0.053	-0.034
-673.135	-199.229	-0.110	-0.001
-672.120	-103.075	-0.345	0.083
-671.105	-200.000	0.020	-0.328
-670.091	-76.156	0.080	0.029
-669.076	201.710	0.087	-0.137
-668.062	729.196	-0.076	0.205
-667.047	61.919	-0.147	-0.149
-666.032	-157.949	-0.217	-0.013
-665.018	-148.214	0.193	-0.016
-664.003	426.075	0.052	-0.115
-662.989	-30.102	0.310	0.179
-661.974	193.581	-0.119	-0.183
-660.959	-117.438	0.272	-0.050
-659.945	-200.000	-0.011	0.237
-658.930	102.032	0.033	-0.039
-657.916	792.378	-0.041	-0.116
-656.901	-200.000	-0.004	0.221
-655.886	267.737	-0.079	-0.140
-654.872	166.633	-0.086	0.123
-653.857	-11.914	-0.248	0.165
-652.843	-31.705	0.196	-0.112
-651.828	-200.000	0.001	-0.070
-650.814	152.326	-0.095	0.131
-649.799	800.000	0.036	0.129
-648.784	13.344	-0.136	0.107
-647.770	-50.916	0.398	0.190
-646.755	24.355	-0.025	0.021
-645.741	-101.182	0.191	-0.047
-644.726	457.777	-0.129	-0.291
-643.711	-165.061	0.130	0.006
-642.697	-7.179	-0.225	-0.154
-641.682	800.000	-0.036	0.107
-640.668	24.353	0.261	0.219
-639.653	-46.852	-0.353	0.175
-638.638	-147.418	-0.230	0.020
-637.624	-154.932	0.028	-0.002
-636.609	800.000	0.059	-0.206
-635.595	6.051	0.265	0.199
-634.580	-70.582	-0.196	0.075
-633.565	-200.000	0.024	-0.222
-632.551	104.566	-0.137	0.164
-631.536	800.000	-0.023	0.074
-630.522	-11.835	-0.320	-0.212
-629.507	-40.736	-0.292	-0.153
-628.492	-179.533	-0.281	0.006
-627.478	-127.471	-0.130	0.019
-626.463	-200.000	-0.027	0.128
-625.449	-51.252	0.037	-0.018
-624.434	-117.203	-0.024	0.004
-623.419	-138.835	0.161	0.018
-622.405	51.245	-0.289	-0.277
-621.390	489.692	-0.061	-0.141
-620.376	-200.000	-0.056	0.343
-619.361	40.772	-0.156	-0.143
-618.346	800.000	-0.130	0.416
-617.332	-42.125	0.064	0.033
-616.317	-84.876	0.118	0.037
-615.303	-79.868	-0.081	-0.028
-614.288	-167.579	0.305	-0.012
-613.273	43.634	-0.081	-0.075
-612.259	-200.000	0.036	0.167
-611.244	31.033	0.153	0.133
-610.230	800.000	-0.045	-0.129
-609.215	214.344	0.151	-0.242
-608.201	-133.999	-0.056	-0.007
-607.186	-25.053	-0.256	0.154
-606.171	-11.684	0.187	-0.124
-605.157	-200.000	-0.034	0.299
-604.142	-81.425	-0.158	0.053
-603.128	207.903	0.162	-0.255
-602.113	-141.544	-0.157	-0.016
-601.098	-48.599	0.110	-0.054
-600.084	-200.000	0.030	-0.215
-599.069	-87.970	0.266	-0.081
-598.055	-17.661	0.153	-0.097
-597.040	-74.577	-0.192	-0.070
-596.025	-120.196	0.342	-0.059
-595.011	-200.000	0.024	-0.264
-593.996	-79.374	0.241	0.083
-592.982	78.054	-0.260	0.281
-591.967	800.000	0.041	-0.171
-590.952	-150.242	-0.441	0.035
-589.938	149.904	-0.005	0.007
-588.923	-13.281	0.294	0.193
-587.909	2.095	-0.030	0.022
-586.894	21.202	0.114	-0.094
-585.879	162.678	-0.144	-0.204
-584.865	-177.934	-0.077	0.002
-583.850	-95.973	-0.401	0.108
-582.836	-59.652	-0.369	-0.160
-581.821	53.396	-0.146	0.142
-580.806	-81.402	-0.179	0.060
-579.792	133.809	0.121	0.158
-578.777	34.574	0.059	0.052
-577.763	504.897	0.091	0.212
-576.748	729.587	0.067	0.182
-575.733	-2.065	0.183	0.130
-574.719	-59.601	-0.194	0.084
-573.704	-200.000	-0.011	0.456
-572.690	-200.000	0.003	-0.175
-571.675	317.817	-0.034	-0.064
-570.661	-166.935	-0.216	-0.009
-569.646	800.000	0.122	-0.469
-568.631	147.901	0.022	-0.030
-567.617	-128.802	0.053	0.008
-566.602	-181.324	0.569	-0.011
-565.588	67.762	-0.144	-0.149
-564.573	-65.078	0.171	-0.070
-563.558	-125.431	-0.342	-0.053
-562.544	42.297	0.225	-0.206
-561.529	163.715	0.193	-0.275
-560.515	-56.437	-0.041	0.018
-559.500	64.320	-0.119	-0.121
-558.485	9.084	0.184	0.140
-557.471	-143.642	0.244	0.023
-556.456	800.000	-0.049	-0.145
-555.442	76.171	-0.135	-0.144
-554.427	-200.000	0.032	-0.142
-553.412	800.000	0.141	-0.427
-552.398	-118.674	0.025	0.005
-551.383	798.367	-0.045	0.124
-550.369	484.402	-0.032	-0.074
-549.354	-39.471	-0.187	-0.099
-548.339	319.283	0.096	0.184
-547.325	-89.427	0.188	-0.056
-546.310	-200.000	0.003	0.204
-545.296	-13.136	0.315	-0.207
-544.281	-200.000	-0.014	0.193
-543.266	800.000	0.014	0.046
-542.252	-87.102	0.111	-0.034
-541.237	-31.248	0.427	0.243
-540.223	-85.826	-0.190	0.060
-539.208	-137.721	-0.406	-0.046
-538.193	-35.306	-0.037	-0.020
-537.179	102.172	0.137	-0.162
-536.164	-200.000	0.017	0.227
-535.150	-8.370	0.409	-0.278
-534.135	-54.138	0.243	0.112
-533.121	-53.820	-0.084	-0.039
-532.106	-183.381	-0.223	-0.004
-531.091	-64.938	-0.156	-0.064
-530.077	121.446	-0.273	-0.344
-529.062	381.472	0.030	-0.062
-528.048	-152.364	0.216	0.016
-527.033	35.100	0.080	0.070
-526.018	101.730	0.116	0.137
-525.004	65.079	0.187	-0.190
-523.989	-90.254	0.202	-0.059
-522.975	141.659	0.087	0.116
-521.960	218.263	-0.160	0.258
-520.945	207.030	-0.065	-0.101
-519.931	52.139	-0.221	-0.212
-518.916	-200.000	-0.007	-0.250
-517.902	397.774	-0.203	0.429
-516.887	69.273	-0.056	0.058
-515.872	106.836	-0.206	-0.246
-514.858	-74.499	-0.059	-0.022
-513.843	-200.000	0.025	0.467
-512.829	-67.056	-0.319	0.127
-511.814	114.352	-0.184	-0.226
-510.799	-177.721	0.274	0.007
-509.785	-129.664	0.262	-0.036
-508.770	800.000	0.031	0.121
-507.756	800.000	-0.020	0.058
-506.741	-115.152	-0.137	-0.026
-505.726	-134.532	0.320	0.039
-504.712	-92.978	0.228	0.064
-503.697	-97.096	-0.103	0.027
-502.683	210.831	-0.097	0.153
-501.668	21.103	-0.219	-0.180
-500.653	-158.903	0.106	0.006
-499.639	-5.420	-0.239	-0.165
-498.624	38.142	-0.049	-0.044
-497.610	800.000	0.024	-0.085
-496.595	21.553	-0.135	0.111
-495.581	355.932	-0.078	-0.157
-494.566	-183.995	-0.316	0.005
-493.551	71.811	0.126	0.132
-492.537	-155.691	-0.303	-0.020
-491.522	-106.474	0.211	0.047
-490.508	-91.218	0.200	-0.058
-489.493	154.953	0.160	-0.222
-488.478	55.493	-0.169	-0.165
-487.464	800.000	0.024	0.069
-486.449	376.726	0.153	0.315
-485.435	61.397	0.139	-0.139
-484.420	213.608	0.113	-0.180
-483.405	-115.448	0.306	-0.058
-482.391	800.000	-0.101	-0.301
-481.376	-40.511	-0.407	-0.213
-480.362	150.664	0.038	0.052
-479.347	-80.874	0.247	-0.083
-478.332	-200.000	0.025	-0.191
-477.318	10.867	-0.285	-0.219
-476.303	130.629	0.191	-0.247
-475.289	-14.500	0.109	-0.071
-474.274	-96.498	0.169	0.045
-473.259	-112.048	0.173	-0.035
-472.245	-47.725	0.091	-0.044
-471.230	651.653	0.074	-0.191
-470.216	-78.104	0.342	0.119
-469.201	-97.504	0.057	-0.015
-468.186	140.415	0.093	0.124
-467.172	569.849	0.125	-0.306
-466.157	213.329	-0.060	-0.096
-465.143	800.000	-0.013	0.048
-464.128	-2.084	0.130	0.092
-463.113	-153.889	-0.129	0.009
-462.099	-20.499	-0.133	0.082
-461.084	-22.242	0.267	-0.163
-460.070	-115.937	-0.273	0.051
-459.055	79.530	0.038	-0.041
-458.040	800.000	-0.062	0.257
-457.026	-200.000	-0.017	0.258
-456.011	800.000	0.032	0.140
-454.997	721.803	-0.009	0.025
-453.982	-85.785	0.105	-0.033
-452.968	126.142	-0.149	-0.190
-451.953	77.375	-0.150	-0.160
-450.938	381.881	0.075	-0.155
-449.924	800.000	-0.073	0.294
-448.909	13.060	-0.196	-0.152
-447.895	-157.263	-0.227	-0.014
-446.880	636.696	-0.082	-0.209
-445.865	-170.570	0.238	0.008
-444.851	608.921	0.088	0.221
-443.836	-200.000	-0.072	0.336
-442.822	-200.000	-0.029	0.213
-441.807	224.176	-0.066	0.107
-440.792	96.036	0.148	0.170
-439.778	-200.000	-0.020	-0.139
-438.763	-27.712	0.192	0.112
-437.749	-148.805	0.188	-0.015
-436.734	-200.000	0.033	0.213
-435.719	-62.983	0.375	-0.156
-434.705	-137.564	0.257	-0.029
-433.690	-37.667	0.097	0.052
-432.676	-200.000	0.007	0.202
-431.661	-200.000	0.018	0.235
-430.646	-200.000	-0.012	-0.100
-429.632	104.057	-0.088	-0.104
-428.617	-53.340	-0.238	-0.110
-427.603	-66.043	-0.312	0.125
-426.588	117.166	0.138	0.170
-425.573	-132.868	0.358	0.046
-424.559	300.261	0.080	-0.149
-423.544	-200.000	0.008	-0.390
-422.530	-31.635	0.207	0.117
-421.515	28.928	-0.279	-0.237
-420.500	538.413	0.128	0.307
-419.486	-97.294	-0.302	-0.079
-418.471	704.312	-0.085	-0.225
-417.457	689.359	0.077	-0.203
-416.442	-200.000	0.000	-0.114
-415.428	223.632	-0.053	-0.086
-414.413	16.436	0.192	0.152
-413.398	104.334	0.091	-0.107
-412.384	-200.000	0.025	0.321
-411.369	-200.000	-0.055	-0.324
-410.355	13.414	0.307	-0.239
-409.340	247.904	-0.160	-0.271
-408.325	435.123	0.040	0.086
-407.311	1.416	0.160	-0.116
-406.296	800.000	-0.084	-0.281
-405.282	226.786	-0.081	-0.132
-404.267	800.000	-0.094	0.366
-403.252	-113.344	0.013	-0.003
-402.238	-200.000	0.010	-0.074
-401.223	-70.041	0.277	0.106
-400.209	3.833	0.054	0.039
-399.194	-0.498	0.150	-0.107
-398.179	-200.000	0.011	0.459
-397.165	370.745	0.060	0.122
-396.150	212.409	-0.041	-0.064
-395.136	-5.578	-0.149	0.103
-394.121	800.000	-0.088	-0.372
-393.106	101.192	-0.174	-0.204
-392.092	349.509	-0.104	0.206
-391.077	41.628	-0.101	-0.092
-390.063	800.000	0.042	-0.176
-389.048	-17.763	-0.124	0.078
-388.033	-200.000	-0.065	0.647
-387.019	6.511	-0.186	0.139
-386.004	-200.000	-0.083	-0.390
-384.990	-54.848	-0.206	0.093
-383.975	-127.335	-0.296	-0.043
-382.960	-195.984	-0.084	0.001
-381.946	-42.113	0.089	-0.046
-380.931	148.323	-0.092	0.124
-379.917	-200.000	0.022	-0.349
-378.902	-13.039	0.184	-0.120
-377.888	800.000	0.054	-0.158
-376.873	174.526	0.217	0.315
-375.858	-42.107	0.221	0.113
-374.844	-200.000	-0.018	-0.317
-373.829	288.630	-0.107	0.195
-372.815	-84.861	-0.081	-0.026
-371.800	-148.608	0.382	-0.031
-370.785	111.338	0.208	-0.251
-369.771	-147.264	-0.328	0.028
-368.756	175.052	-0.192	0.279
-367.742	-200.000	-0.017	-0.466
-366.727	-46.523	0.161	0.079
-365.712	7.480	-0.137	-0.103
-364.698	41.926	-0.215	-0.196
-363.683	305.800	0.114	-0.213
-362.669	-88.906	0.323	-0.096
-361.654	-2.173	-0.310	0.218
-360.639	800.000	0.115	0.357
-359.625	369.553	0.055	0.113
-358.610	52.930	-0.236	0.226
-357.596	204.739	-0.123	0.192
-356.581	-200.000	0.014	-0.090
-355.566	-200.000	-0.040	-0.388
-354.552	83.223	-0.190	0.207
-353.537	800.000	0.016	0.044
-352.523	-110.838	0.117	0.024
-351.508	265.631	0.064	0.112
-350.493	-123.496	-0.188	-0.030
-349.479	77.133	-0.269	-0.286
-348.464	-200.000	0.003	-0.191
-347.450	-72.933	0.148	0.055
-346.435	-94.006	0.172	-0.047
-345.420	-155.555	-0.279	-0.018
-344.406	97.013	-0.039	0.045
-343.391	338.480	-0.088	-0.172
-342.377	49.012	-0.108	0.101
-341.362	800.000	0.027	-0.103
-340.348	64.000	-0.062	-0.063
-339.333	-200.000	0.033	0.487
-338.318	159.818	0.141	-0.197
-337.304	93.830	0.224	0.255
-336.289	-200.000	-0.010	0.116
-335.275	-45.995	-0.161	0.080
-334.260	-12.374	-0.442	0.290
-333.245	-153.192	0.230	0.016
-332.231	31.183	-0.218	0.188
-331.216	676.222	-0.050	0.129
-330.202	40.274	0.131	-0.118
-329.187	-200.000	-0.001	0.178
-328.172	-200.000	-0.091	0.488
-327.158	673.086	0.109	0.283
-326.143	54.638	0.264	-0.255
-325.129	-67.390	0.115	-0.045
-324.114	35.099	-0.122	-0.107
-323.099	209.753	0.175	-0.275
-322.085	192.537	0.259	0.392
-321.070	194.036	-0.195	-0.296
-320.056	800.000	-0.053	-0.181
-319.041	-145.780	0.209	0.019
-318.026	108.155	0.092	-0.110
-317.012	-122.616	-0.172	-0.028
-315.997	70.463	0.144	0.149
-314.983	85.208	0.089	-0.097
-313.968	800.000	0.049	-0.137
-312.953	85.507	0.012	-0.013
-311.939	241.978	0.177	0.296
-310.924	-106.249	0.170	-0.038
-309.910	308.066	-0.096	0.179
-308.895	-37.395	0.351	0.187
-307.880	800.000	0.039	0.110
-306.866	800.000	-0.061	-0.209
-305.851	800.000	-0.066	-0.287
-304.837	137.953	0.162	-0.213
-303.822	800.000	0.075	0.214
-302.807	-13.798	0.242	-0.157
-301.793	521.984	0.102	0.239
-300.778	-101.092	-0.075	0.018
-299.764	191.529	-0.205	-0.308
-298.749	-45.898	-0.262	0.129
-297.735	-69.914	-0.189	-0.072
-296.720	-71.178	-0.393	-0.148
-295.705	109.452	-0.119	-0.143
-294.691	-163.308	-0.042	0.002
-293.676	-30.676	-0.121	0.069
-292.662	411.773	-0.095	0.201
-291.647	-200.000	-0.001	0.067
-290.632	97.338	0.018	-0.020
-289.618	-82.354	0.323	0.105
-288.603	-154.015	0.191	0.013
-287.589	-119.873	-0.503	0.087
-286.574	800.000	0.034	-0.127
-285.559	-173.095	-0.106	-0.003
-284.545	129.466	0.166	0.212
-283.530	48.356	-0.229	0.214
-282.516	67.195	0.107	0.109
-281.501	20.162	0.423	0.342
-280.486	238.210	-0.279	0.463
-279.472	-117.620	-0.286	-0.052
-278.457	99.909	-0.060	0.070
-277.443	223.222	-0.045	-0.072
-276.428	800.000	0.004	0.013
-275.413	-118.353	0.255	0.045
-274.399	-200.000	0.047	0.365
-273.384	-125.198	0.020	0.003
-272.370	55.272	-0.088	-0.085
-271.355	40.989	0.028	0.025
-270.340	-108.206	-0.240	0.052
-269.326	-132.361	0.259	-0.033
-268.311	-82.148	-0.129	0.042
-267.297	31.837	0.326	-0.281
-266.282	5.125	0.204	-0.150
-265.267	328.235	0.012	-0.022
-264.253	421.154	-0.066	0.141
-263.238	360.559	-0.141	0.281
-262.224	225.160	-0.125	-0.202
-261.209	226.676	-0.182	0.295
-260.195	-166.486	-0.144	0.006
-259.180	800.000	0.030	-0.096
-258.165	65.765	0.109	0.110
-257.151	-106.189	0.177	-0.040
-256.136	-182.285	-0.227	-0.004
-255.122	37.353	-0.168	-0.148
-254.107	82.873	0.062	-0.067
-253.092	8.719	0.113	-0.085
-252.078	41.013	-0.163	-0.147
-251.063	8.721	-0.056	0.042
-250.049	-200.000	0.004	0.200
-249.034	339.884	-0.075	0.146
-248.019	-200.000	0.004	0.112
-247.005	800.000	-0.102	-0.321
-245.990	-200.000	-0.022	0.151
-244.976	242.579	0.132	0.220
-243.961	800.000	0.059	0.251
-242.946	-200.000	0.011	0.086
-241.932	394.781	0.061	0.127
-240.917	-25.943	-0.168	0.099
-239.903	292.374	0.266	0.483
-238.888	800.000	-0.037	0.117
-237.873	-153.893	0.302	0.021
-236.859	-124.967	0.216	0.033
-235.844	103.309	0.088	-0.103
-234.830	-5.474	0.086	0.059
-233.815	-47.195	0.269	0.131
-232.800	-160.649	0.182	-0.010
-231.786	-200.000	0.001	0.234
-230.771	-92.133	-0.193	0.054
-229.757	800.000	0.047	0.132
-228.742	-90.700	0.143	-0.041
-227.727	800.000	-0.152	-0.423
-226.713	173.526	-0.144	-0.208
-225.698	13.482	-0.260	-0.201
-224.684	178.885	0.086	-0.126
-223.669	-125.388	0.143	-0.022
-222.655	-78.365	-0.233	0.080
-221.640	-25.838	0.177	0.104
-220.625	201.426	-0.102	-0.157
-219.611	-60.231	0.109	0.046
-218.596	-102.638	-0.200	-0.048
-217.582	161.302	0.230	0.321
-216.567	138.425	0.034	0.044
-215.552	475.075	-0.108	-0.243
-214.538	-146.796	0.262	0.023
-213.523	176.382	-0.060	0.087
-212.509	35.743	-0.232	-0.204
-211.494	186.613	0.025	-0.037
-210.479	800.000	-0.084	-0.261
-209.465	-55.384	0.309	0.138
-208.450	23.810	0.160	0.131
-207.436	106.004	-0.207	-0.244
-206.421	-200.000	0.042	0.204
-205.406	-120.114	-0.207	-0.035
-204.392	-80.102	-0.209	0.070
-203.377	800.000	-0.082	-0.307
-202.363	-41.881	0.196	0.100
-201.348	-200.000	-0.005	0.249
-200.333	11.712	0.258	0.197
-199.319	-53.361	-0.223	0.102
-198.304	-109.947	0.284	0.059
-197.290	-96.061	0.215	0.057
-196.275	4.397	0.265	0.193
-195.260	481.825	-0.102	0.231
-194.246	-200.000	0.033	0.181
-193.231	39.786	-0.315	-0.282
-192.217	41.173	0.354	-0.319
-191.202	-12.147	-0.371	-0.242
-190.187	800.000	0.061	0.224
-189.173	594.791	-0.111	-0.273
-188.158	140.753	-0.246	0.323
-187.144	205.463	-0.039	-0.060
-186.129	-200.000	0.018	-0.086
-185.114	236.495	-0.082	-0.134
-184.100	-76.082	0.101	0.036
-183.085	150.151	-0.185	-0.250
-182.071	346.517	0.161	-0.315
-181.056	21.085	0.136	0.110
-180.042	-31.281	-0.092	0.051
-179.027	697.898	0.040	-0.105
-178.012	-164.468	0.186	-0.008
-176.998	39.585	-0.248	-0.222
-175.983	-200.000	0.039	-0.317
-174.969	211.708	0.080	-0.125
-173.954	93.774	-0.179	0.201
-172.939	-97.206	-0.274	0.071
-171.925	-200.000	0.011	0.259
-170.910	-75.557	-0.265	0.094
-169.896	-46.130	-0.315	0.154
-168.881	34.313	0.248	-0.215
-167.866	800.000	0.135	-0.496
-166.852	213.486	-0.074	-0.117
-165.837	-97.423	-0.142	0.037
-164.823	-54.480	-0.184	0.083
-163.808	-162.136	-0.339	-0.017
-162.793	-200.000	-0.038	0.205
-161.779	94.086	0.270	0.305
-160.764	-200.000	-0.006	0.249
-159.750	-167.543	0.463	0.018
-158.735	28.551	-0.173	0.146
-157.720	-96.765	-0.238	-0.062
-156.706	202.354	0.103	-0.158
-155.691	-200.000	-0.004	-0.166
-154.677	-200.000	-0.004	-0.025
-153.662	307.734	-0.043	0.079
-152.647	800.000	0.090	-0.389
-151.633	-5.855	0.187	-0.127
-150.618	72.218	0.160	-0.166
-149.604	70.194	0.158	0.162
-148.589	25.559	0.076	0.063
-147.574	416.289	0.040	0.084
-146.560	19.491	-0.180	-0.144
-145.545	800.000	0.010	0.031
-144.531	-109.932	-0.169	0.035
-143.516	800.000	-0.004	0.018
-142.502	-148.563	0.034	-0.003
-141.487	-108.367	-0.243	0.052
-140.472	-69.053	-0.202	-0.077
-139.458	-1.877	0.199	-0.139
-138.443	-75.367	-0.127	-0.045
-137.429	332.749	0.112	0.216
-136.414	159.204	0.200	0.277
-135.399	459.950	0.130	-0.289
-134.385	286.608	-0.073	0.131
-133.370	574.018	0.180	0.435
-132.356	359.939	0.036	0.072
-131.341	229.688	0.099	-0.161
-130.326	-80.765	-0.049	-0.016
-129.312	800.000	0.104	0.304
-128.297	260.204	0.107	0.184
-127.283	-9.285	0.155	0.103
-126.268	800.000	-0.016	0.053
-125.253	337.855	0.091	-0.176
-124.239	-53.215	-0.138	0.063
-123.224	650.390	0.136	0.345
-122.210	-104.739	-0.028	0.006
-121.195	-54.695	-0.240	0.108
-120.180	-101.495	0.135	-0.033
