DTS Sentinel unit serial number:	SN413079Multiplexer serial number:	ORYXHardware model number:	OX4-SRSoftware version number:	ORYX F/W v4.00 Oryx Data Collector v3.7.2.0data status	okinstallation	princeton_trtdifferential loss correction	single-endedforward channel	channel 1reverse channel	N/Adate	2019/09/11time	00:08:11forward acquisition time	60.00reverse acquisition time	0.00gamma	496.2192k internal	0.2331k external	0.2331temperature offset calibration	0.9935default loss term (dB/km)	0.3790temperature slope calibration	1.0000multiplexer offset coefficient	1.0000multiplexer slope coefficient	1.0000fibre end	0.00T internal ref (°C)	29.37T ext. ref 1 (°C)	-0.30T ext. ref 2 (°C)	22.86length (m)	temperature (°C)	Stokes	anti-Stokes-747.200	-22.813	0.391	0.237
-746.185	48.444	-0.192	0.181
-745.171	-146.897	0.099	-0.009
-744.156	-200.000	-0.004	0.228
-743.142	800.000	0.151	0.570
-742.127	-51.536	-0.204	0.096
-741.112	-126.640	0.221	-0.033
-740.098	111.286	-0.164	0.199
-739.083	245.032	0.104	-0.175
-738.069	356.253	-0.033	0.066
-737.054	-166.686	-0.429	0.018
-736.039	-200.000	0.009	-0.085
-735.025	-171.705	0.078	-0.003
-734.010	60.580	-0.173	-0.172
-732.996	-30.003	-0.139	0.080
-731.981	-95.593	-0.370	-0.100
-730.966	45.164	0.257	0.238
-729.952	-200.000	-0.007	-0.355
-728.937	209.945	-0.136	0.215
-727.923	147.619	-0.305	-0.413
-726.908	28.238	0.195	-0.166
-725.894	-131.591	-0.255	-0.034
-724.879	-107.164	0.300	-0.066
-723.864	13.507	-0.191	0.149
-722.850	-143.992	-0.574	-0.054
-721.835	-7.919	-0.107	-0.072
-720.821	50.975	-0.069	0.065
-719.806	-103.484	0.331	0.078
-718.791	-80.362	-0.227	0.076
-717.777	-200.000	-0.003	-0.242
-716.762	-6.273	0.028	0.020
-715.748	20.837	-0.300	0.244
-714.733	-192.716	0.040	-0.000
-713.718	800.000	-0.041	-0.130
-712.704	508.629	-0.073	-0.171
-711.689	-200.000	-0.077	0.423
-710.675	54.438	-0.116	-0.112
-709.660	119.185	-0.062	-0.077
-708.645	9.836	-0.030	-0.023
-707.631	166.328	0.274	0.389
-706.616	-37.755	-0.078	-0.042
-705.602	-200.000	-0.015	-0.176
-704.587	-26.765	0.287	-0.169
-703.572	-191.469	0.344	0.003
-702.558	-117.819	-0.542	0.098
-701.543	195.144	-0.060	-0.092
-700.529	-15.302	-0.123	-0.079
-699.514	133.059	-0.109	-0.142
-698.499	101.317	0.162	-0.189
-697.485	74.110	0.149	-0.157
-696.470	742.410	0.053	-0.144
-695.456	-61.594	-0.215	-0.091
-694.441	-167.374	0.362	-0.015
-693.426	55.007	0.275	-0.267
-692.412	50.903	0.062	0.059
-691.397	413.824	-0.106	-0.227
-690.383	-7.151	-0.133	0.091
-689.368	-200.000	-0.015	-0.247
-688.354	-124.520	-0.194	-0.030
-687.339	-68.463	-0.169	0.066
-686.324	540.647	-0.132	0.316
-685.310	-109.526	0.407	0.086
-684.295	127.031	-0.173	0.220
-683.281	-200.000	-0.011	0.213
-682.266	-200.000	-0.012	0.055
-681.251	97.139	-0.167	0.193
-680.237	-200.000	0.007	-0.094
-679.222	130.962	-0.173	0.223
-678.208	-200.000	-0.041	-0.298
-677.193	-26.619	0.317	0.186
-676.178	56.364	-0.144	-0.140
-675.164	-60.395	0.130	0.056
-674.149	133.004	0.081	-0.105
-673.135	359.019	-0.102	0.204
-672.120	90.961	-0.048	0.054
-671.105	-200.000	0.043	0.592
-670.091	156.428	0.084	-0.116
-669.076	-200.000	-0.040	-0.279
-668.062	-29.532	-0.455	-0.261
-667.047	200.083	-0.154	-0.237
-666.032	-200.000	0.003	0.248
-665.018	-29.510	0.098	-0.056
-664.003	54.248	0.104	-0.101
-662.989	418.504	-0.101	-0.216
-661.974	370.951	0.061	0.125
-660.959	-2.006	-0.068	-0.048
-659.945	322.550	-0.211	-0.403
-658.930	32.387	-0.340	-0.294
-657.916	-130.185	-0.204	-0.028
-656.901	78.787	0.268	-0.287
-655.886	-73.757	0.187	0.068
-654.872	800.000	-0.071	0.294
-653.857	-200.000	0.010	0.222
-652.843	800.000	-0.064	0.206
-651.828	-200.000	-0.014	0.082
-650.814	-123.905	-0.242	-0.038
-649.799	-176.637	0.396	-0.010
-648.784	-54.767	0.182	0.082
-647.770	800.000	0.042	-0.174
-646.755	7.587	-0.050	-0.038
-645.741	-31.975	-0.178	-0.100
-644.726	-29.225	0.126	-0.072
-643.711	21.693	-0.169	-0.138
-642.697	-200.000	0.019	-0.200
-641.682	-25.056	-0.147	-0.087
-640.668	96.603	-0.355	-0.408
-639.653	609.566	-0.118	-0.295
-638.638	-58.016	-0.135	-0.059
-637.624	-119.183	-0.084	0.015
-636.609	-200.000	-0.048	-0.290
-635.595	59.037	-0.165	-0.162
-634.580	-155.739	-0.131	0.008
-633.565	-200.000	0.015	-0.134
-632.551	22.937	-0.241	-0.198
-631.536	-200.000	0.004	-0.095
-630.522	-1.875	0.084	0.059
-629.507	-110.437	-0.379	0.079
-628.492	-56.685	-0.265	0.118
-627.478	-48.823	-0.146	-0.070
-626.463	98.779	-0.147	0.170
-625.449	323.389	-0.065	-0.123
-624.434	56.625	-0.346	-0.337
-623.419	-200.000	-0.010	-0.137
-622.405	-26.644	-0.141	-0.083
-621.390	492.396	0.141	-0.324
-620.376	-168.483	0.111	-0.004
-619.361	-161.514	-0.388	0.020
-618.346	104.860	-0.210	-0.247
-617.332	-200.000	0.045	0.419
-616.317	122.645	-0.106	-0.133
-615.303	66.262	-0.090	-0.092
-614.288	75.534	-0.176	0.186
-613.273	-13.588	-0.313	-0.203
-612.259	46.218	-0.245	0.227
-611.244	-200.000	-0.010	-0.240
-610.230	-63.134	-0.168	-0.069
-609.215	142.936	-0.133	-0.177
-608.201	-108.883	0.045	0.010
-607.186	138.175	0.210	-0.276
-606.171	289.688	-0.204	0.371
-605.157	-200.000	0.002	-0.090
-604.142	-2.950	-0.149	0.104
-603.128	-24.960	0.204	0.121
-602.113	800.000	0.073	-0.247
-601.098	-63.780	-0.241	-0.099
-600.084	-97.092	0.115	0.030
-599.069	800.000	-0.076	-0.213
-598.055	200.513	0.128	0.197
-597.040	-108.076	-0.102	0.022
-596.025	-131.088	-0.279	-0.037
-595.011	59.647	0.194	0.192
-593.996	-77.024	0.138	0.048
-592.982	401.633	0.247	0.520
-591.967	74.074	-0.110	-0.115
-590.952	664.248	-0.039	-0.100
-589.938	-63.695	-0.217	0.089
-588.923	-52.506	-0.208	-0.096
-587.909	250.120	-0.073	-0.124
-586.894	-174.538	-0.371	-0.011
-585.879	-21.343	0.273	-0.167
-584.865	-126.178	0.185	0.028
-583.850	-15.969	0.296	-0.189
-582.836	-30.675	0.040	0.023
-581.821	14.527	-0.096	-0.075
-580.806	1.712	0.103	0.074
-579.792	60.146	-0.106	-0.104
-578.777	-59.551	-0.322	0.138
-577.763	-25.400	0.179	0.106
-576.748	29.204	-0.330	-0.280
-575.733	-122.515	0.265	0.043
-574.719	-186.464	0.068	0.001
-573.704	-103.702	0.188	-0.044
-572.690	-73.548	-0.340	-0.124
-571.675	-200.000	0.008	-0.096
-570.661	-99.730	0.117	0.029
-569.646	800.000	-0.028	-0.112
-568.631	-147.751	0.288	-0.024
-567.617	-1.574	-0.026	0.018
-566.602	93.722	0.096	-0.109
-565.588	-25.363	-0.110	-0.065
-564.573	-38.146	0.281	0.149
-563.558	-59.726	0.423	0.181
-562.544	427.771	0.015	0.033
-561.529	55.063	-0.138	0.134
-560.515	131.011	0.153	-0.196
-559.500	-200.000	0.034	0.187
-558.485	184.336	0.146	0.215
-557.471	603.847	-0.011	0.027
-556.456	-144.170	0.198	-0.018
-555.442	180.915	0.226	-0.332
-554.427	127.446	0.281	-0.357
-553.412	59.844	-0.143	0.141
-552.398	2.133	0.203	0.147
-551.383	435.379	-0.023	0.050
-550.369	-181.659	-0.327	-0.006
-549.354	66.812	0.057	-0.058
-548.339	-43.192	0.214	0.108
-547.325	-90.505	-0.269	0.078
-546.310	-114.586	-0.447	-0.086
-545.296	151.276	-0.076	-0.104
-544.281	97.789	-0.050	0.058
-543.266	-42.406	0.268	0.137
-542.252	8.394	0.090	-0.067
-541.237	595.852	-0.142	0.351
-540.223	-200.000	-0.009	0.202
-539.208	-200.000	0.002	0.204
-538.193	-4.335	0.147	-0.102
-537.179	-103.251	0.371	0.087
-536.164	-42.153	-0.112	-0.057
-535.150	-5.880	0.048	0.033
-534.135	62.803	0.116	-0.116
-533.121	110.871	0.259	-0.312
-532.106	-200.000	-0.003	-0.020
-531.091	107.939	-0.133	-0.159
-530.077	800.000	0.086	-0.277
-529.062	-92.121	-0.181	0.051
-528.048	-200.000	0.047	0.283
-527.033	-112.985	0.180	-0.035
-526.018	417.518	0.095	-0.203
-525.004	-112.880	0.118	0.023
-523.989	-200.000	0.006	0.153
-522.975	-107.181	-0.214	0.047
-521.960	800.000	0.113	-0.344
-520.945	800.000	0.052	-0.214
-519.931	-70.691	0.452	-0.170
-518.916	-115.892	0.082	0.015
-517.902	-200.000	-0.005	-0.231
-516.887	97.537	-0.091	-0.105
-515.872	113.299	-0.130	0.157
-514.858	-93.365	-0.110	0.031
-513.843	-200.000	0.011	0.105
-512.829	243.770	-0.068	-0.114
-511.814	-122.741	0.223	0.036
-510.799	-1.808	-0.127	0.089
-509.785	89.861	0.082	-0.091
-508.770	-17.201	-0.463	0.291
-507.756	800.000	0.039	-0.141
-506.741	-200.000	-0.024	0.208
-505.726	-48.329	0.350	-0.168
-504.712	-179.926	-0.450	-0.010
-503.697	-49.097	-0.204	-0.097
-502.683	-62.932	0.158	0.065
-501.668	-90.781	-0.157	-0.045
-500.653	-152.076	-0.565	-0.041
-499.639	-200.000	0.016	-0.167
-498.624	295.340	0.144	-0.263
-497.610	6.008	0.006	0.005
-496.595	171.163	-0.062	0.089
-495.581	57.583	-0.061	0.060
-494.566	-32.249	0.189	0.105
-493.551	-88.544	-0.042	0.012
-492.537	65.336	0.045	-0.045
-491.522	-200.000	0.005	-0.121
-490.508	-200.000	0.060	0.314
-489.493	-85.967	0.273	0.084
-488.478	17.236	-0.075	-0.059
-487.464	-79.218	-0.222	0.075
-486.449	-137.667	0.217	-0.024
-485.435	45.405	0.184	-0.170
-484.420	800.000	0.137	-0.443
-483.405	-108.700	-0.075	0.016
-482.391	-55.769	0.066	0.029
-481.376	-30.224	0.155	0.088
-480.362	-109.146	0.171	0.036
-479.347	-200.000	0.027	0.117
-478.332	126.930	0.085	-0.107
-477.318	766.849	-0.054	0.145
-476.303	-200.000	0.331	0.001
-475.289	-36.748	0.077	-0.041
-474.274	-126.924	-0.249	-0.036
-473.259	366.613	0.140	0.281
-472.245	-112.792	0.301	0.059
-471.230	-168.054	0.147	-0.006
-470.216	164.287	0.257	-0.361
-469.201	-5.829	0.120	-0.081
-468.186	211.885	0.046	0.072
-467.172	800.000	0.114	-0.480
-466.157	800.000	0.058	-0.234
-465.143	296.643	0.038	-0.070
-464.128	-178.142	-0.086	-0.002
-463.113	800.000	-0.059	0.188
-462.099	-184.594	0.623	0.010
-461.084	69.820	-0.138	0.142
-460.070	39.821	0.054	0.048
-459.055	3.197	-0.128	-0.093
-458.040	10.319	-0.227	0.172
-457.026	122.635	0.278	-0.345
-456.011	196.820	0.145	-0.219
-454.997	436.190	0.102	-0.221
-453.982	475.513	0.076	-0.171
-452.968	22.186	0.157	0.127
-451.953	800.000	-0.090	0.315
-450.938	800.000	-0.069	-0.253
-449.924	202.143	-0.191	0.293
-448.909	800.000	0.039	0.119
-447.895	257.660	0.123	-0.210
-446.880	50.050	0.390	0.366
-445.865	11.288	-0.160	0.122
-444.851	391.925	0.061	0.125
-443.836	-66.877	-0.303	0.119
-442.822	1.490	-0.439	-0.314
-441.807	-126.292	-0.165	0.025
-440.792	3.869	-0.074	-0.054
-439.778	-55.597	0.437	0.195
-438.763	526.564	0.229	-0.536
-437.749	139.597	-0.312	0.408
-436.734	107.370	-0.222	0.262
-435.719	499.598	0.102	0.234
-434.705	97.086	0.082	0.094
-433.690	22.234	0.213	0.173
-432.676	610.418	0.016	0.040
-431.661	111.729	-0.115	-0.138
-430.646	15.325	-0.142	-0.111
-429.632	321.804	0.137	-0.258
-428.617	-77.254	-0.440	0.152
-427.603	-200.000	-0.075	-0.325
-426.588	156.458	0.019	-0.026
-425.573	-123.629	0.695	0.110
-424.559	479.865	-0.073	0.165
-423.544	-150.351	-0.197	0.015
-422.530	94.439	-0.050	-0.056
-421.515	14.713	-0.421	0.327
-420.500	-59.886	0.386	-0.164
-419.486	-148.996	0.038	0.003
-418.471	164.159	-0.026	0.037
-417.457	-112.403	0.365	-0.073
-416.442	33.434	0.170	0.147
-415.428	78.239	0.146	-0.155
-414.413	206.154	0.057	-0.087
-413.398	107.221	0.105	-0.125
-412.384	-82.761	-0.302	-0.097
-411.369	252.751	-0.036	-0.061
-410.355	-112.558	-0.281	0.056
-409.340	-64.392	0.080	0.032
-408.325	-138.227	-0.141	0.016
-407.311	-200.000	0.001	-0.102
-406.296	-83.357	0.349	-0.111
-405.282	-93.149	0.140	-0.039
-404.267	800.000	0.052	-0.179
-403.252	158.929	-0.144	0.199
-402.238	286.893	0.060	0.107
-401.223	49.922	-0.010	0.010
-400.209	618.794	-0.104	-0.260
-399.194	-200.000	-0.004	0.065
-398.179	279.030	-0.199	-0.353
-397.165	44.375	-0.128	0.117
-396.150	-28.373	-0.078	-0.045
-395.136	-144.441	0.039	0.004
-394.121	226.618	0.065	0.105
-393.106	143.536	-0.049	-0.065
-392.092	513.563	-0.030	0.069
-391.077	80.502	-0.264	-0.283
-390.063	248.710	0.255	-0.428
-389.048	47.459	-0.244	0.226
-388.033	-200.000	-0.037	0.329
-387.019	28.365	0.338	-0.284
-386.004	-200.000	0.013	-0.058
-384.990	-64.686	-0.127	0.051
-383.975	49.482	-0.121	-0.113
-382.960	-158.419	0.190	0.011
-381.946	800.000	-0.075	0.212
-380.931	-95.228	-0.101	0.027
-379.917	-23.547	-0.116	0.069
-378.902	292.176	-0.103	0.186
-377.888	601.619	-0.068	-0.168
-376.873	170.755	0.149	0.211
-375.858	-40.511	0.221	0.114
-374.844	800.000	-0.057	0.196
-373.829	423.785	-0.100	-0.213
-372.815	158.358	0.038	0.052
-371.800	800.000	0.159	0.456
-370.785	-42.414	0.203	-0.103
-369.771	800.000	0.009	-0.029
-368.756	29.101	0.227	0.191
-367.742	800.000	0.072	0.308
-366.727	67.380	0.091	0.092
-365.712	-41.139	-0.188	0.096
-364.698	-45.823	0.233	0.114
-363.683	139.250	-0.204	0.266
-362.669	31.958	-0.162	0.139
-361.654	-52.006	-0.197	0.091
-360.639	-118.859	-0.353	0.062
-359.625	75.961	-0.212	-0.223
-358.610	-76.577	-0.078	-0.027
-357.596	-51.008	0.226	0.105
-356.581	-200.000	-0.008	-0.083
-355.566	-123.765	0.093	0.015
-354.552	31.884	-0.122	-0.104
-353.537	-46.764	0.242	-0.117
-352.523	3.692	-0.121	0.088
-351.508	123.980	-0.086	-0.107
-350.493	800.000	-0.072	0.244
-349.479	-200.000	-0.005	0.222
-348.464	-200.000	0.004	-0.398
-347.450	-85.293	0.197	-0.061
-346.435	-200.000	-0.001	0.068
-345.420	270.504	0.182	0.317
-344.406	-200.000	-0.026	0.176
-343.391	-180.169	0.167	-0.003
-342.377	-103.260	0.168	-0.039
-341.362	-141.457	0.216	0.022
-340.348	-68.144	0.338	-0.130
-339.333	-82.343	-0.162	0.052
-338.318	330.653	0.180	-0.344
-337.304	-45.527	0.287	0.141
-336.289	-200.000	-0.105	-0.456
-335.275	36.559	-0.131	-0.114
-334.260	126.930	0.267	0.335
-333.245	91.326	0.148	0.165
-332.231	-50.523	-0.091	-0.043
-331.216	-88.829	0.158	-0.047
-330.202	-200.000	-0.008	-0.271
-329.187	284.930	0.167	0.298
-328.172	-93.523	-0.286	-0.078
-327.158	-35.311	0.070	-0.038
-326.143	299.038	-0.175	-0.318
-325.129	-200.000	0.011	0.457
-324.114	-142.319	-0.128	0.013
-323.099	800.000	-0.039	0.153
-322.085	19.583	-0.116	0.092
-321.070	-155.359	-0.425	0.027
-320.056	109.945	0.173	-0.205
-319.041	444.025	0.035	0.076
-318.026	-89.599	-0.299	0.087
-317.012	800.000	-0.084	0.315
-315.997	106.597	-0.070	-0.082
-314.983	-200.000	-0.037	-0.198
-313.968	101.881	-0.212	0.245
-312.953	-33.199	0.369	0.202
-311.939	12.232	-0.079	0.061
-310.924	14.815	-0.139	-0.108
-309.910	-115.592	-0.187	-0.035
-308.895	800.000	-0.084	-0.249
-307.880	-67.604	-0.206	0.080
-306.866	-59.884	-0.259	0.110
-305.851	36.963	0.204	-0.178
-304.837	-96.210	-0.264	0.069
-303.822	-200.000	-0.042	0.261
-302.807	-173.671	-0.254	0.008
-301.793	-38.110	0.239	0.125
-300.778	-64.459	0.279	0.112
-299.764	386.745	-0.114	0.233
-298.749	-86.709	-0.401	0.121
-297.735	-200.000	0.055	0.345
-296.720	-141.121	-0.234	-0.024
-295.705	295.673	-0.157	0.284
-294.691	74.863	-0.023	0.024
-293.676	80.518	0.208	0.222
-292.662	271.519	-0.163	0.285
-291.647	-200.000	-0.015	-0.207
-290.632	800.000	-0.110	-0.303
-289.618	286.047	-0.148	0.264
-288.603	184.409	0.065	0.095
-287.589	18.715	-0.134	-0.106
-286.574	-97.969	0.243	-0.062
-285.559	-112.236	-0.188	-0.037
-284.545	-134.921	-0.270	-0.032
-283.530	66.211	-0.374	0.375
-282.516	168.912	0.103	-0.146
-281.501	-5.109	-0.258	-0.175
-280.486	-200.000	-0.041	0.291
-279.472	136.993	0.157	0.203
-278.457	266.263	0.089	0.154
-277.443	-164.249	0.090	0.004
-276.428	166.690	-0.110	0.154
-275.413	82.330	0.121	-0.129
-274.399	800.000	0.029	0.121
-273.384	50.959	0.179	0.168
-272.370	-89.971	-0.271	0.078
-271.355	-12.292	-0.066	-0.043
-270.340	31.441	-0.155	-0.132
-269.326	132.999	0.076	-0.097
-268.311	6.564	0.174	0.128
-267.297	-133.565	0.510	0.063
-266.282	-15.643	-0.224	-0.141
-265.267	140.717	0.128	-0.167
-264.253	-76.167	-0.181	0.063
-263.238	348.709	0.063	-0.122
-262.224	195.822	0.151	-0.227
-261.209	-80.765	-0.118	0.039
-260.195	-200.000	-0.039	0.371
-259.180	800.000	-0.031	0.130
-258.165	221.318	0.153	0.243
-257.151	-102.776	-0.264	0.062
-256.136	426.739	-0.143	0.304
-255.122	-200.000	-0.001	-0.142
-254.107	-13.883	-0.135	-0.086
-253.092	201.124	-0.251	-0.381
-252.078	800.000	0.029	0.087
-251.063	-135.601	-0.131	0.015
-250.049	-66.352	-0.195	-0.077
-249.034	311.278	0.056	0.104
-248.019	90.913	-0.044	0.048
-247.005	-40.878	0.147	-0.075
-245.990	54.504	-0.111	0.106
-244.976	3.649	0.048	0.035
-243.961	-166.117	0.062	-0.003
-242.946	208.006	-0.136	-0.209
-241.932	71.854	0.232	-0.238
-240.917	-91.601	0.323	-0.091
-239.903	-51.341	0.308	0.142
-238.888	-141.792	0.242	0.024
-237.873	-127.621	0.276	0.039
-236.859	-200.000	-0.011	-0.137
-235.844	-200.000	0.057	-0.284
-234.830	324.640	0.134	0.252
-233.815	-176.501	-0.225	0.006
-232.800	223.795	-0.112	-0.178
-231.786	-200.000	-0.022	-0.293
-230.771	140.657	-0.020	-0.026
-229.757	-126.856	-0.244	-0.035
-228.742	-126.853	-0.355	-0.052
-227.727	-68.360	-0.301	0.115
-226.713	54.354	-0.145	-0.138
-225.698	-82.180	-0.181	0.058
-224.684	-200.000	-0.034	0.184
-223.669	-4.848	0.165	0.112
-222.655	190.425	-0.223	0.330
-221.640	-91.173	-0.102	0.029
-220.625	-47.664	-0.109	0.052
-219.611	800.000	0.061	-0.222
-218.596	-10.643	0.310	-0.202
-217.582	5.665	0.317	0.231
-216.567	-109.085	0.387	0.081
-215.552	-200.000	0.014	-0.167
-214.538	-70.335	0.143	0.053
-213.523	75.828	0.074	0.077
-212.509	46.765	-0.096	0.088
-211.494	54.993	0.152	0.144
-210.479	250.098	0.199	0.332
-209.465	486.171	-0.072	0.163
-208.450	367.162	0.135	-0.269
-207.436	14.731	0.165	0.127
-206.421	-152.019	0.231	-0.017
-205.406	358.467	0.157	-0.309
-204.392	-19.091	-0.203	-0.124
-203.377	197.304	0.194	0.292
-202.363	-18.634	0.100	-0.061
-201.348	-200.000	0.029	-0.303
-200.333	112.727	-0.096	-0.115
-199.319	-44.499	-0.126	-0.062
-198.304	13.483	-0.149	-0.114
-197.290	58.826	-0.176	-0.170
-196.275	494.490	-0.082	-0.185
-195.260	800.000	-0.051	0.144
-194.246	217.174	0.177	0.277
-193.231	88.207	0.153	0.167
-192.217	83.236	0.056	-0.060
-191.202	-34.130	0.203	0.110
-190.187	53.403	-0.223	-0.211
-189.173	141.955	-0.055	-0.071
-188.158	162.158	-0.220	0.304
-187.144	153.029	-0.141	0.189
-186.129	4.717	-0.265	-0.192
-185.114	-74.361	0.199	0.071
-184.100	8.061	0.113	-0.083
-183.085	452.330	-0.124	-0.269
-182.071	-29.851	0.166	0.093
-181.056	277.824	0.120	-0.210
-180.042	66.626	0.176	-0.177
-179.027	18.861	-0.089	-0.070
-178.012	-50.581	-0.090	-0.042
-176.998	-25.876	-0.097	0.056
-175.983	723.176	-0.166	-0.435
-174.969	83.019	0.149	0.160
-173.954	-200.000	0.037	0.218
-172.939	-133.404	-0.163	0.020
-171.925	-86.668	0.152	-0.046
-170.910	800.000	0.127	0.527
-169.896	-47.562	0.058	0.028
-168.881	-200.000	0.008	-0.231
-167.866	-88.018	0.189	-0.056
-166.852	20.580	-0.278	0.221
-165.837	-87.791	0.027	0.008
-164.823	461.899	-0.057	-0.126
-163.808	182.779	0.167	0.242
-162.793	-122.349	-0.128	0.021
-161.779	101.003	0.275	0.315
-160.764	-128.701	0.150	-0.021
-159.750	-8.214	0.113	0.075
-158.735	-37.372	0.268	0.141
-157.720	-200.000	-0.033	-0.248
-156.706	82.429	0.251	0.268
-155.691	-200.000	-0.044	0.232
-154.677	501.378	0.129	0.293
-153.662	-35.787	0.247	0.132
-152.647	84.939	-0.113	-0.122
-151.633	15.347	0.228	-0.176
-150.618	159.876	0.139	0.190
-149.604	-109.055	-0.200	0.042
-148.589	602.868	-0.223	-0.546
-147.574	-3.005	-0.088	0.060
-146.560	45.484	-0.287	-0.261
-145.545	-200.000	0.019	0.092
-144.531	-200.000	0.067	0.350
-143.516	-86.227	0.263	0.080
-142.502	359.793	-0.093	-0.183
-141.487	61.075	-0.247	0.241
-140.472	-78.995	0.243	-0.081
-139.458	-58.174	-0.180	0.077
-138.443	37.230	0.137	0.119
-137.429	195.964	0.186	-0.278
-136.414	-8.609	-0.379	0.250
-135.399	-15.344	-0.084	0.053
-134.385	58.615	-0.307	-0.296
-133.370	-28.863	-0.229	-0.129
-132.356	-200.000	0.023	0.244
-131.341	-38.264	-0.218	-0.114
-130.326	31.410	-0.166	-0.140
-129.312	-200.000	0.029	0.522
-128.297	29.148	0.350	0.292
-127.283	-147.612	-0.193	-0.016
-126.268	-93.884	0.087	0.024
-125.253	-200.000	-0.013	-0.327
-124.239	-53.275	0.181	-0.082
-123.224	-200.000	0.007	-0.039
-122.210	-128.067	-0.215	0.030
-121.195	-44.975	0.182	-0.089
-120.180	150.917	0.124	0.166
