DTS Sentinel unit serial number:	SN413079Multiplexer serial number:	ORYXHardware model number:	OX4-SRSoftware version number:	ORYX F/W v4.00 Oryx Data Collector v3.7.2.0data status	okinstallation	princeton_trtdifferential loss correction	single-endedforward channel	channel 1reverse channel	N/Adate	2019/09/12time	18:39:34forward acquisition time	15.00reverse acquisition time	0.00gamma	496.2192k internal	0.2319k external	0.2319temperature offset calibration	1.0098default loss term (dB/km)	0.3790temperature slope calibration	1.0000multiplexer offset coefficient	1.0000multiplexer slope coefficient	1.0000fibre end	0.00T internal ref (°C)	33.12T ext. ref 1 (°C)	2.93T ext. ref 2 (°C)	27.68length (m)	temperature (°C)	Stokes	anti-Stokes-747.200	-23.304	0.562	-0.342
-746.185	-90.344	-0.234	-0.069
-745.171	511.491	0.289	-0.681
-744.156	98.003	-0.216	0.251
-743.142	800.000	-0.195	-0.740
-742.127	-95.691	-0.112	-0.030
-741.112	-11.254	0.525	-0.350
-740.098	-200.000	-0.119	-0.827
-739.083	446.003	-0.276	-0.613
-738.069	800.000	0.141	0.473
-737.054	-114.680	0.838	0.162
-736.039	-85.623	-0.306	-0.096
-735.025	-34.631	0.645	-0.357
-734.010	-162.978	-1.041	0.051
-732.996	800.000	-0.169	-0.590
-731.981	7.365	-0.697	-0.526
-730.966	154.922	-0.491	-0.683
-729.952	-54.315	0.479	-0.220
-728.937	800.000	-0.363	1.410
-727.923	-169.739	-0.203	0.007
-726.908	-1.292	0.940	0.671
-725.894	-200.000	0.111	-0.709
-724.879	800.000	0.098	0.416
-723.864	22.465	0.148	0.122
-722.850	657.148	-0.234	-0.608
-721.835	44.121	-0.300	-0.278
-720.821	-104.682	-0.646	-0.150
-719.806	412.393	0.404	0.868
-718.791	-200.000	-0.000	0.499
-717.777	10.257	0.155	0.119
-716.762	6.227	-0.311	-0.233
-715.748	278.800	0.176	0.317
-714.733	-200.000	-0.015	-0.745
-713.718	800.000	0.166	-0.571
-712.704	630.777	0.442	-1.131
-711.689	-128.627	0.040	0.006
-710.675	186.030	-0.376	-0.564
-709.660	-200.000	-0.082	-0.973
-708.645	-136.107	0.676	-0.080
-707.631	-25.984	-0.887	0.527
-706.616	-34.043	0.737	-0.410
-705.602	-5.746	0.505	-0.349
-704.587	800.000	-0.113	-0.325
-703.572	800.000	0.175	0.677
-702.558	511.459	-0.217	-0.511
-701.543	-29.369	-0.234	0.135
-700.529	-200.000	0.039	0.217
-699.514	-200.000	-0.233	-1.445
-698.499	143.606	0.070	-0.094
-697.485	322.374	0.356	-0.684
-696.470	-21.310	-0.159	0.098
-695.456	-100.622	-0.878	-0.219
-694.441	-117.008	-0.706	0.130
-693.426	-200.000	-0.009	0.160
-692.412	-72.535	-1.034	-0.385
-691.397	800.000	-0.217	-0.849
-690.383	767.837	-0.295	0.811
-689.368	49.743	0.363	0.345
-688.354	-157.971	-0.955	0.057
-687.339	9.394	-0.904	-0.690
-686.324	166.171	0.530	0.758
-685.310	800.000	-0.187	0.646
-684.295	23.332	0.402	-0.334
-683.281	-12.124	-0.639	-0.422
-682.266	-87.835	-0.707	-0.215
-681.251	-43.081	0.615	0.314
-680.237	-73.520	-0.208	0.077
-679.222	-63.700	-0.430	0.178
-678.208	54.218	0.247	-0.240
-677.193	-200.000	0.001	0.159
-676.178	-45.600	-0.680	0.340
-675.164	-64.422	0.420	0.172
-674.149	672.972	-0.187	0.490
-673.135	-17.303	-0.798	-0.507
-672.120	800.000	0.072	0.210
-671.105	-25.479	0.168	0.100
-670.091	-200.000	-0.036	-0.637
-669.076	462.036	0.186	0.419
-668.062	-26.825	-0.294	-0.173
-667.047	-32.781	-0.473	-0.265
-666.032	-68.559	0.487	0.190
-665.018	-63.332	-0.291	-0.121
-664.003	52.499	-0.361	0.347
-662.989	-40.669	-0.296	0.155
-661.974	-184.925	-0.375	-0.006
-660.959	21.032	-0.167	0.137
-659.945	13.462	0.688	-0.538
-658.930	-82.511	-0.525	-0.172
-657.916	118.555	0.395	0.492
-656.901	-73.173	0.762	-0.281
-655.886	26.198	-0.501	0.421
-654.872	56.600	-0.451	0.442
-653.857	29.785	0.505	-0.433
-652.843	-98.888	-0.225	0.058
-651.828	128.263	-0.159	-0.204
-650.814	-29.539	0.700	-0.403
-649.799	-200.000	0.047	-0.279
-648.784	154.267	-0.281	-0.389
-647.770	517.186	0.089	0.209
-646.755	-25.578	-0.242	-0.144
-645.741	43.418	-0.260	0.239
-644.726	101.774	0.250	0.294
-643.711	210.766	-0.237	0.375
-642.697	106.383	-0.176	-0.211
-641.682	-67.171	0.743	0.295
-640.668	-60.805	-0.523	0.223
-639.653	-62.614	-0.659	-0.275
-638.638	-56.768	-0.294	-0.131
-637.624	800.000	-0.194	-0.673
-636.609	46.295	0.573	-0.535
-635.595	24.331	0.335	-0.279
-634.580	47.355	-0.184	0.172
-633.565	-200.000	0.001	-0.051
-632.551	-27.065	-0.316	0.186
-631.536	-26.194	0.442	0.261
-630.522	475.246	-0.342	-0.777
-629.507	230.431	0.100	0.165
-628.492	-8.104	-0.493	0.335
-627.478	-80.235	-0.426	0.144
-626.463	-123.376	0.342	0.055
-625.449	-156.529	-0.152	-0.010
-624.434	181.749	-0.117	0.173
-623.419	72.704	-0.054	-0.057
-622.405	-200.000	0.047	-0.316
-621.390	-191.300	0.273	0.003
-620.376	18.543	-0.242	0.194
-619.361	526.121	-0.162	0.383
-618.346	800.000	0.157	-0.613
-617.332	800.000	0.254	-0.805
-616.317	63.121	-0.324	0.327
-615.303	-100.717	-0.878	0.218
-614.288	-200.000	0.025	0.282
-613.273	121.524	-0.144	-0.181
-612.259	157.586	0.434	0.605
-611.244	-68.151	0.589	0.231
-610.230	-39.547	-0.780	-0.411
-609.215	252.064	-0.544	0.933
-608.201	156.747	0.573	0.796
-607.186	800.000	-0.225	0.876
-606.171	309.616	0.106	-0.200
-605.157	-99.184	-0.283	0.072
-604.142	166.537	-0.167	0.238
-603.128	-115.699	1.193	0.225
-602.113	399.063	0.129	-0.272
-601.098	-49.153	0.636	-0.306
-600.084	101.194	-0.402	-0.471
-599.069	-200.000	-0.038	0.264
-598.055	-158.125	0.446	0.026
-597.040	14.840	1.261	-0.992
-596.025	78.315	-0.347	0.372
-595.011	-200.000	-0.042	0.363
-593.996	231.858	0.463	0.763
-592.982	-200.000	0.090	0.471
-591.967	-66.365	-0.450	-0.180
-590.952	-54.260	-0.243	-0.111
-589.938	-116.767	0.735	-0.136
-588.923	-121.373	0.500	-0.084
-587.909	-98.819	0.738	-0.189
-586.894	122.584	-0.038	0.048
-585.879	732.773	0.096	-0.259
-584.865	-80.413	0.743	-0.249
-583.850	-124.888	-0.580	-0.090
-582.836	-32.250	-0.207	0.116
-581.821	-86.359	0.154	-0.048
-580.806	-16.452	0.556	0.355
-579.792	154.737	0.305	-0.421
-578.777	800.000	0.130	-0.440
-577.763	-57.815	0.749	-0.329
-576.748	76.674	-0.324	0.345
-575.733	-75.216	0.459	0.165
-574.719	-200.000	0.121	0.652
-573.704	-200.000	0.076	0.407
-572.690	77.636	0.289	-0.309
-571.675	-45.231	0.703	0.351
-570.661	-180.884	0.437	-0.009
-569.646	-200.000	-0.113	-0.644
-568.631	679.305	0.184	-0.480
-567.617	-200.000	-0.016	-0.266
-566.602	101.562	-0.243	0.284
-565.588	-14.847	-0.390	-0.251
-564.573	-16.180	0.452	-0.288
-563.558	-89.942	0.664	0.195
-562.544	800.000	0.195	-0.566
-561.529	-181.423	0.075	-0.001
-560.515	-200.000	-0.206	1.002
-559.500	572.249	0.107	0.261
-558.485	-200.000	-0.022	-0.490
-557.471	736.635	-0.190	-0.512
-556.456	-84.964	-0.452	-0.142
-555.442	-52.653	0.203	0.094
-554.427	-200.000	0.029	0.397
-553.412	-200.000	0.010	-0.589
-552.398	-97.512	-0.520	-0.136
-551.383	-200.000	-0.084	0.500
-550.369	800.000	-0.229	-0.655
-549.354	13.147	0.453	-0.352
-548.339	-200.000	-0.083	1.000
-547.325	-32.316	0.780	-0.437
-546.310	-82.974	0.601	-0.195
-545.296	-27.167	-0.354	-0.207
-544.281	-50.628	-0.946	-0.447
-543.266	17.678	-0.322	0.257
-542.252	800.000	-0.112	0.342
-541.237	62.961	0.251	-0.253
-540.223	-34.298	-0.782	-0.431
-539.208	60.156	-0.185	-0.184
-538.193	-200.000	-0.010	-0.282
-537.179	-97.583	0.091	0.024
-536.164	800.000	-0.228	-0.744
-535.150	55.476	0.584	0.567
-534.135	800.000	-0.092	-0.301
-533.121	-81.395	0.300	0.099
-532.106	-195.960	-0.630	0.004
-531.091	16.559	-0.339	-0.269
-530.077	-65.058	-0.766	0.310
-529.062	13.672	-0.095	-0.074
-528.048	-60.086	0.211	-0.090
-527.033	188.222	-0.162	-0.243
-526.018	-65.727	-0.889	-0.357
-525.004	-200.000	-0.002	0.052
-523.989	591.636	0.173	-0.429
-522.975	-200.000	0.180	-0.857
-521.960	-87.804	0.433	0.131
-520.945	250.316	-0.082	0.139
-519.931	800.000	-0.365	-1.119
-518.916	-200.000	0.151	-0.760
-517.902	-125.828	0.267	-0.040
-516.887	-30.049	0.465	0.265
-515.872	-120.785	-0.344	-0.058
-514.858	800.000	-0.302	-1.013
-513.843	8.916	-0.698	-0.528
-512.829	90.267	-0.321	0.360
-511.814	61.794	0.568	-0.567
-510.799	223.403	-0.224	-0.362
-509.785	410.353	-0.252	-0.536
-508.770	10.694	-0.202	0.154
-507.756	-200.000	0.211	-1.311
-506.741	-167.987	0.240	0.009
-505.726	-92.297	-0.387	0.109
-504.712	147.634	0.256	-0.345
-503.697	-29.210	-0.613	0.352
-502.683	-22.800	0.454	-0.275
-501.668	-3.376	0.746	-0.521
-500.653	276.302	-0.403	-0.717
-499.639	-43.824	-0.259	0.131
-498.624	703.031	0.205	0.542
-497.610	250.835	-0.198	0.338
-496.595	-147.051	-0.448	-0.038
-495.581	-100.363	0.180	0.045
-494.566	32.089	-0.268	-0.231
-493.551	800.000	0.132	0.501
-492.537	-34.150	-0.820	-0.451
-491.522	-122.577	0.195	0.032
-490.508	220.264	0.172	0.276
-489.493	800.000	-0.240	-0.888
-488.478	55.314	-0.273	0.264
-487.464	800.000	0.096	-0.371
-486.449	-200.000	0.100	0.670
-485.435	88.477	0.628	-0.699
-484.420	800.000	-0.221	-0.696
-483.405	81.601	0.127	-0.137
-482.391	-200.000	-0.132	0.668
-481.376	533.083	0.107	0.255
-480.362	257.797	-0.201	0.347
-479.347	-160.272	-0.224	-0.012
-478.332	-37.272	-0.443	0.237
-477.318	-200.000	0.197	1.221
-476.303	-200.000	-0.055	0.624
-475.289	115.393	-0.231	0.283
-474.274	-119.955	1.098	-0.189
-473.259	14.574	-0.545	0.426
-472.245	124.913	0.070	0.088
-471.230	197.839	-0.142	-0.218
-470.216	-73.120	-0.292	0.107
-469.201	-66.599	-0.735	-0.292
-468.186	-25.091	-0.283	0.168
-467.172	-68.261	0.472	-0.184
-466.157	800.000	-0.099	-0.283
-465.143	-200.000	0.053	-0.624
-464.128	-22.733	0.088	0.053
-463.113	28.775	-0.376	-0.318
-462.099	-200.000	-0.096	-0.598
-461.084	301.762	0.507	0.937
-460.070	-110.482	-0.132	-0.027
-459.055	800.000	-0.237	-0.856
-458.040	681.087	0.267	-0.696
-457.026	-200.000	-0.567	-0.001
-456.011	-114.945	-0.828	-0.158
-454.997	-8.674	0.244	-0.164
-453.982	-28.100	0.411	-0.238
-452.968	800.000	0.211	0.584
-451.953	-200.000	-0.042	-1.122
-450.938	-200.000	0.012	0.143
-449.924	-200.000	0.128	0.787
-448.909	-70.249	0.317	0.120
-447.895	499.698	0.185	0.427
-446.880	-200.000	-0.111	0.552
-445.865	-3.720	-0.504	-0.350
-444.851	337.255	0.058	0.113
-443.836	137.003	-0.158	0.206
-442.822	-200.000	-0.011	-0.727
-441.807	55.488	-0.478	0.463
-440.792	76.274	-0.204	-0.216
-439.778	17.528	0.769	-0.611
-438.763	-57.912	0.324	-0.141
-437.749	-200.000	-0.079	0.407
-436.734	-41.177	0.536	-0.276
-435.719	-78.423	-0.394	0.135
-434.705	219.068	0.232	0.371
-433.690	240.370	-0.109	-0.182
-432.676	-179.199	-1.093	-0.024
-431.661	140.629	-0.330	0.436
-430.646	65.925	0.415	-0.420
-429.632	89.251	-0.163	0.182
-428.617	-200.000	-0.028	-0.239
-427.603	-155.394	0.925	0.060
-426.588	800.000	0.193	0.821
-425.573	-200.000	-0.171	0.775
-424.559	-200.000	0.031	-0.432
-423.544	-155.442	-0.643	-0.042
-422.530	-32.465	-0.423	-0.235
-421.515	-157.673	1.054	-0.063
-420.500	800.000	0.149	0.450
-419.486	-200.000	-0.023	0.775
-418.471	198.065	-0.055	-0.084
-417.457	800.000	0.348	1.022
-416.442	110.121	0.559	0.670
-415.428	-84.081	0.377	0.120
-414.413	-105.331	-1.305	0.297
-413.398	349.560	-0.398	-0.784
-412.384	220.432	0.211	-0.337
-411.369	131.361	-0.435	0.558
-410.355	-122.486	-0.210	-0.034
-409.340	-200.000	0.017	-1.094
-408.325	-200.000	-0.032	0.590
-407.311	345.956	0.286	-0.561
-406.296	139.719	0.218	0.287
-405.282	-70.728	0.277	-0.104
-404.267	54.086	-0.536	-0.514
-403.252	-62.840	0.554	0.229
-402.238	38.437	0.516	0.459
-401.223	198.644	0.339	0.518
-400.209	174.257	0.251	0.363
-399.194	-81.199	0.565	-0.186
-398.179	-149.243	0.122	0.010
-397.165	-72.576	-1.020	-0.376
-396.150	-31.280	-0.617	0.346
-395.136	-109.171	-0.829	-0.176
-394.121	-52.414	-0.349	-0.161
-393.106	737.785	0.227	-0.608
-392.092	-200.000	0.019	-0.427
-391.077	10.493	-0.294	0.223
-390.063	-96.244	0.703	-0.186
-389.048	-200.000	-0.031	0.148
-388.033	-89.380	-0.437	-0.128
-387.019	43.667	-0.737	0.672
-386.004	800.000	-0.347	-0.971
-384.990	26.130	-0.234	0.195
-383.975	-200.000	0.020	0.121
-382.960	235.307	0.268	-0.441
-381.946	-119.409	-0.124	0.021
-380.931	-56.601	0.663	0.293
-379.917	-57.504	0.463	0.203
-378.902	-133.874	-0.945	-0.117
-377.888	800.000	0.150	0.538
-376.873	93.734	0.313	-0.354
-375.858	283.091	-0.652	-1.168
-374.844	46.634	1.004	-0.929
-373.829	582.733	0.101	-0.246
-372.815	-27.084	-0.177	-0.103
-371.800	674.228	0.318	0.823
-370.785	715.496	-0.029	-0.077
-369.771	-27.140	0.823	-0.478
-368.756	129.048	-0.354	0.451
-367.742	-200.000	-0.024	-0.359
-366.727	-122.301	-0.222	-0.036
-365.712	-200.000	0.032	-0.357
-364.698	7.428	0.192	-0.143
-363.683	-151.886	-0.538	-0.039
-362.669	-192.414	-0.325	-0.003
-361.654	-200.000	0.041	-0.430
-360.639	697.296	-0.051	-0.134
-359.625	658.775	0.218	0.560
-358.610	-200.000	-0.029	-0.198
-357.596	-143.819	0.553	-0.052
-356.581	70.436	0.674	0.695
-355.566	-117.238	-0.552	-0.100
-354.552	196.206	-0.289	0.438
-353.537	387.289	0.120	0.248
-352.523	-200.000	-0.039	-0.800
-351.508	-98.088	-0.217	-0.056
-350.493	-81.841	-0.407	-0.133
-349.479	197.871	0.751	1.143
-348.464	-78.471	-0.459	0.156
-347.450	558.205	0.309	0.742
-346.435	-42.066	-1.176	0.600
-345.420	-200.000	-0.097	0.971
-344.406	-200.000	-0.175	0.799
-343.391	15.008	0.766	-0.597
-342.377	-200.000	-0.003	-0.432
-341.362	608.521	0.199	0.496
-340.348	130.023	-0.268	-0.341
-339.333	-43.227	-0.376	0.189
-338.318	-152.484	0.803	0.057
-337.304	305.038	0.514	-0.951
-336.289	45.825	-0.180	0.166
-335.275	56.169	0.451	0.436
-334.260	-4.522	-0.428	0.294
-333.245	-108.141	-0.086	-0.018
-332.231	22.074	0.503	-0.409
-331.216	800.000	0.219	0.730
-330.202	-101.332	0.776	-0.189
-329.187	-200.000	-0.003	-0.187
-328.172	191.572	-0.358	-0.536
-327.158	103.234	-0.570	0.665
-326.143	-200.000	0.021	0.175
-325.129	-25.095	0.635	-0.374
-324.114	-74.529	-0.382	0.137
-323.099	200.486	0.407	-0.622
-322.085	297.444	0.075	0.137
-321.070	-200.000	-0.005	0.923
-320.056	36.613	-0.137	0.120
-319.041	-200.000	0.073	0.903
-318.026	-52.997	0.872	0.399
-317.012	444.780	-0.322	-0.703
-315.997	-103.471	0.762	-0.178
-314.983	83.708	0.239	0.260
-313.968	443.327	0.237	0.516
-312.953	800.000	0.197	-0.579
-311.939	-34.011	0.398	-0.218
-310.924	-138.285	0.753	0.083
-309.910	-200.000	0.094	-0.445
-308.895	319.477	0.155	0.293
-307.880	-200.000	0.167	0.977
-306.866	-200.000	0.077	0.428
-305.851	-79.341	0.189	-0.064
-304.837	800.000	0.148	0.590
-303.822	5.928	-0.408	0.300
-302.807	95.140	0.170	0.192
-301.793	17.246	-0.068	0.053
-300.778	-8.343	-0.410	0.274
-299.764	-41.928	0.141	-0.072
-298.749	-93.687	0.936	0.257
-297.735	-81.229	-0.983	0.323
-296.720	-92.383	-0.600	-0.168
-295.705	-95.054	0.252	-0.068
-294.691	-42.560	-0.311	0.158
-293.676	800.000	-0.178	-0.493
-292.662	-115.526	0.611	0.114
-291.647	366.832	0.461	-0.925
-290.632	-96.047	1.166	-0.308
-289.618	-37.836	-0.472	-0.249
-288.603	-32.446	-0.187	-0.103
-287.589	138.978	0.465	-0.607
-286.574	191.307	-0.381	0.570
-285.559	800.000	0.381	1.083
-284.545	-200.000	0.036	-0.380
-283.530	-200.000	-0.100	-0.622
-282.516	-117.803	-1.369	0.244
-281.501	-171.594	-1.072	0.035
-280.486	340.842	-0.114	0.222
-279.472	-114.333	-0.387	-0.074
-278.457	-151.151	0.179	0.013
-277.443	-86.698	0.801	0.244
-276.428	90.253	-0.579	-0.644
-275.413	588.604	-0.243	0.594
-274.399	-20.000	0.255	-0.157
-273.384	17.143	0.766	0.603
-272.370	-48.210	-0.546	0.262
-271.355	-200.000	-0.027	-0.530
-270.340	-78.599	0.117	0.040
-269.326	-200.000	0.088	0.383
-268.311	183.228	-0.115	0.168
-267.297	-110.461	-0.145	0.030
-266.282	242.265	-0.469	-0.779
-265.267	800.000	0.073	0.287
-264.253	-200.000	-0.196	1.249
-263.238	91.538	0.476	0.531
-262.224	-173.594	0.799	-0.024
-261.209	-161.699	-0.651	0.033
-260.195	-200.000	-0.169	-0.740
-259.180	-111.848	-0.441	-0.088
-258.165	104.327	0.534	-0.624
-257.151	-144.117	-0.264	0.025
-256.136	5.295	-0.229	-0.168
-255.122	-2.178	0.739	0.515
-254.107	-200.000	-0.038	1.164
-253.092	9.336	-0.690	-0.518
-252.078	-32.966	-0.552	-0.304
-251.063	-117.107	0.517	-0.093
-250.049	-118.988	0.209	-0.036
-249.034	-150.237	0.639	0.049
-248.019	-3.012	0.410	0.284
-247.005	800.000	-0.185	-0.515
-245.990	-200.000	-0.041	-0.536
-244.976	-61.148	-0.449	-0.188
-243.961	-87.151	0.636	-0.192
-242.946	393.405	-0.171	0.353
-241.932	-200.000	0.082	0.372
-240.917	-181.065	-0.351	0.007
-239.903	232.854	-0.136	0.221
-238.888	22.679	0.269	-0.218
-237.873	25.841	-0.586	-0.485
-236.859	182.452	0.452	0.661
-235.844	-72.926	0.090	-0.033
-234.830	-71.287	0.427	-0.159
-233.815	-200.000	0.047	-0.872
-232.800	-200.000	0.057	0.296
-231.786	-200.000	0.015	-0.540
-230.771	138.987	0.606	-0.790
-229.757	-14.780	0.323	0.205
-228.742	410.411	-0.170	-0.357
-227.727	329.004	0.273	-0.520
-226.713	-200.000	0.048	-0.521
-225.698	800.000	0.155	0.430
-224.684	-151.803	-0.414	0.030
-223.669	-23.797	0.292	-0.174
-222.655	70.942	-0.221	0.227
-221.640	-120.747	-0.340	0.057
-220.625	-200.000	0.095	0.543
-219.611	-98.319	0.709	0.180
-218.596	122.581	0.375	-0.464
-217.582	180.338	0.365	0.531
-216.567	-69.999	0.595	-0.225
-215.552	-200.000	-0.036	-0.485
-214.538	-48.150	-0.239	-0.114
-213.523	-200.000	0.049	-0.501
-212.509	800.000	-0.068	-0.191
-211.494	-200.000	-0.098	0.965
-210.479	-34.061	-0.836	0.455
-209.465	-151.686	0.379	-0.028
-208.450	144.534	-0.229	-0.303
-207.436	158.687	0.192	-0.263
-206.421	-55.542	0.487	0.216
-205.406	99.683	-0.343	0.394
-204.392	-107.104	-0.443	0.097
-203.377	-0.408	-0.152	0.107
-202.363	341.891	0.090	-0.174
-201.348	132.304	-0.436	-0.556
-200.333	800.000	-0.038	-0.132
-199.319	329.698	0.128	-0.244
-198.304	-200.000	-0.145	-0.781
-197.290	-104.466	-0.355	0.081
-196.275	-44.694	0.374	-0.185
-195.260	-151.932	-0.452	0.033
-194.246	91.454	0.608	0.676
-193.231	13.221	-0.282	0.217
-192.217	-169.173	-0.907	-0.033
-191.202	-163.710	-0.089	0.004
-190.187	3.875	0.351	-0.254
-189.173	42.336	-0.290	-0.261
-188.158	-7.560	-0.263	0.176
-187.144	-200.000	-0.110	0.615
-186.129	-200.000	-0.057	-0.556
-185.114	78.237	-0.280	0.296
-184.100	800.000	0.288	1.147
-183.085	-78.304	-0.836	-0.284
-182.071	65.949	0.141	-0.141
-181.056	-200.000	-0.149	0.907
-180.042	-52.911	0.736	-0.335
-179.027	-31.726	-1.489	0.827
-178.012	75.837	-0.311	0.325
-176.998	131.030	0.574	-0.729
-175.983	-57.931	-0.617	-0.267
-174.969	800.000	-0.234	-0.815
-173.954	4.060	-0.344	-0.249
-172.939	93.005	0.298	0.334
-171.925	-7.903	-0.504	0.336
-170.910	-14.667	0.281	-0.179
-169.896	-200.000	-0.061	-0.328
-168.881	40.912	0.216	-0.193
-167.866	226.824	-0.533	0.857
-166.852	-162.535	0.588	0.029
-165.837	-200.000	-0.040	0.289
-164.823	78.991	-0.741	-0.784
-163.808	16.849	1.086	0.850
-162.793	222.470	-0.782	1.245
-161.779	646.552	0.175	0.442
-160.764	-200.000	0.123	0.882
-159.750	-138.405	0.963	0.105
-158.735	800.000	-0.059	-0.243
-157.720	-163.238	-0.804	0.038
-156.706	-124.773	0.696	0.106
-155.691	260.477	0.396	0.677
-154.677	-50.667	-0.185	-0.086
-153.662	-4.180	-1.105	0.756
-152.647	57.665	0.246	-0.238
-151.633	-200.000	0.052	0.309
-150.618	0.271	-0.757	0.534
-149.604	-200.000	0.017	0.123
-148.589	131.674	0.458	-0.582
-147.574	-142.553	-0.321	-0.031
-146.560	-26.992	-0.511	0.295
-145.545	-200.000	-0.067	0.723
-144.531	-7.444	0.589	-0.394
-143.516	-75.601	0.750	0.263
-142.502	-200.000	-0.015	-0.469
-141.487	-45.794	-0.645	-0.315
-140.472	250.926	-0.112	0.188
-139.458	233.405	0.340	0.552
-138.443	-47.810	0.137	0.066
-137.429	654.828	-0.075	-0.190
-136.414	-200.000	0.054	0.648
-135.399	32.601	0.280	-0.239
-134.385	-77.654	0.597	-0.204
-133.370	31.017	-0.376	-0.318
-132.356	-134.664	0.546	0.066
-131.341	-86.921	0.345	-0.104
-130.326	-200.000	-0.067	-0.617
-129.312	800.000	-0.123	0.520
-128.297	-90.532	-0.228	-0.065
-127.283	303.986	-0.380	0.695
-126.268	-200.000	0.021	-0.259
-125.253	415.313	0.108	0.227
-124.239	-115.610	0.815	0.151
-123.224	34.806	0.264	-0.228
-122.210	-200.000	0.118	-1.343
