DTS Sentinel unit serial number:	SN413079Multiplexer serial number:	ORYXHardware model number:	OX4-SRSoftware version number:	ORYX F/W v4.00 Oryx Data Collector v3.7.2.0data status	okinstallation	princeton_trtdifferential loss correction	single-endedforward channel	channel 1reverse channel	N/Adate	2019/09/14time	19:46:35forward acquisition time	60.00reverse acquisition time	0.00gamma	496.2192k internal	0.2313k external	0.2313temperature offset calibration	1.0029default loss term (dB/km)	0.3790temperature slope calibration	1.0000multiplexer offset coefficient	1.0000multiplexer slope coefficient	1.0000fibre end	0.00T internal ref (°C)	34.37T ext. ref 1 (°C)	4.89T ext. ref 2 (°C)	28.57length (m)	temperature (°C)	Stokes	anti-Stokes-747.200	137.666	0.041	0.055
-746.185	312.892	-0.081	0.154
-745.171	-98.176	0.173	0.045
-744.156	51.947	-0.129	0.125
-743.142	-65.914	-0.182	-0.074
-742.127	384.802	0.108	0.226
-741.112	53.338	0.275	0.268
-740.098	-200.000	0.048	0.240
-739.083	-63.958	-0.239	0.099
-738.069	-163.818	-0.468	0.022
-737.054	205.808	0.109	-0.172
-736.039	-11.514	-0.184	0.123
-735.025	-132.426	0.413	-0.054
-734.010	-66.516	0.122	0.049
-732.996	-51.853	-0.159	-0.075
-731.981	0.432	0.030	-0.022
-730.966	8.202	-0.132	0.101
-729.952	-200.000	0.037	-0.212
-728.937	-172.725	-0.109	-0.003
-727.923	-80.492	0.061	-0.021
-726.908	-72.976	-0.112	-0.042
-725.894	-200.000	0.010	-0.134
-724.879	-200.000	-0.033	-0.287
-723.864	-103.401	-0.347	-0.083
-722.850	800.000	-0.053	0.177
-721.835	50.969	-0.030	-0.029
-720.821	25.797	-0.171	0.144
-719.806	617.284	0.181	-0.460
-718.791	148.834	-0.233	-0.319
-717.777	742.173	0.076	-0.208
-716.762	-200.000	0.042	-0.272
-715.748	-108.966	0.346	-0.075
-714.733	-0.313	0.415	0.299
-713.718	-46.527	0.185	-0.092
-712.704	74.111	-0.186	-0.198
-711.689	-60.125	0.283	-0.122
-710.675	-107.373	-0.242	-0.054
-709.660	196.706	0.109	0.167
-708.645	133.944	0.234	0.306
-707.631	23.995	0.133	-0.111
-706.616	-28.770	-0.168	0.098
-705.602	800.000	0.110	0.397
-704.587	221.283	0.169	0.275
-703.572	800.000	-0.042	-0.173
-702.558	-200.000	0.024	0.231
-701.543	145.676	0.198	-0.268
-700.529	25.983	0.224	-0.189
-699.514	5.738	0.028	-0.021
-698.499	-200.000	-0.018	-0.228
-697.485	125.292	0.127	-0.162
-696.470	-6.683	0.165	0.114
-695.456	88.584	-0.084	-0.095
-694.441	358.496	-0.145	-0.293
-693.426	-200.000	-0.055	0.488
-692.412	37.483	0.043	-0.038
-691.397	-120.900	0.053	0.009
-690.383	-200.000	-0.018	-0.380
-689.368	-77.083	0.073	-0.026
-688.354	-100.946	0.303	0.075
-687.339	12.774	-0.320	-0.250
-686.324	-81.020	-0.433	0.145
-685.310	72.093	-0.112	0.118
-684.295	285.077	-0.217	-0.395
-683.281	4.546	0.191	-0.142
-682.266	800.000	-0.063	-0.277
-681.251	-140.036	0.158	0.017
-680.237	6.838	-0.137	-0.103
-679.222	-200.000	0.001	-0.047
-678.208	-132.512	-0.109	0.014
-677.193	800.000	0.093	0.350
-676.178	-200.000	-0.069	-0.375
-675.164	-200.000	-0.039	-0.233
-674.149	136.881	-0.136	-0.180
-673.135	136.398	0.324	0.428
-672.120	-178.834	-0.099	-0.002
-671.105	-200.000	0.039	-0.176
-670.091	45.403	-0.132	0.123
-669.076	621.219	0.066	-0.168
-668.062	-200.000	0.054	-0.386
-667.047	-62.944	-0.238	0.099
-666.032	800.000	-0.038	0.153
-665.018	-49.799	-0.183	-0.088
-664.003	165.587	-0.097	0.139
-662.989	-200.000	0.057	-0.302
-661.974	800.000	-0.069	-0.201
-660.959	-200.000	-0.005	0.137
-659.945	73.304	0.094	-0.100
-658.930	-68.371	-0.123	0.048
-657.916	283.015	0.129	-0.234
-656.901	368.502	0.073	0.149
-655.886	-94.277	-0.201	-0.055
-654.872	-19.392	0.199	-0.124
-653.857	-152.151	-0.423	0.031
-652.843	-131.938	-0.149	-0.020
-651.828	800.000	-0.015	-0.048
-650.814	-141.515	0.395	-0.040
-649.799	-30.782	-0.183	0.105
-648.784	11.700	-0.231	-0.179
-647.770	754.344	-0.152	-0.415
-646.755	3.796	0.211	0.155
-645.741	-56.880	0.232	0.103
-644.726	-200.000	-0.043	-0.245
-643.711	800.000	0.057	-0.205
-642.697	-41.570	-0.265	0.137
-641.682	23.967	-0.126	-0.105
-640.668	67.661	0.065	0.067
-639.653	540.982	-0.133	0.319
-638.638	49.147	-0.166	-0.158
-637.624	-91.001	-0.118	0.034
-636.609	58.483	0.033	0.033
-635.595	-90.387	-0.148	-0.043
-634.580	614.909	0.010	0.026
-633.565	-100.823	-0.260	-0.065
-632.551	27.192	-0.105	-0.089
-631.536	-107.849	-0.242	-0.053
-630.522	23.608	0.194	0.161
-629.507	-200.000	-0.008	-0.166
-628.492	-135.492	-0.311	0.037
-627.478	210.323	0.046	0.073
-626.463	332.187	0.080	-0.156
-625.449	238.335	0.178	-0.299
-624.434	-13.019	0.263	-0.172
-623.419	-65.227	-0.374	-0.152
-622.405	120.319	0.046	-0.058
-621.390	-200.000	0.039	0.330
-620.376	800.000	0.020	-0.069
-619.361	-128.991	0.129	0.018
-618.346	-22.037	-0.200	0.122
-617.332	-100.129	-0.074	0.019
-616.317	800.000	-0.059	0.242
-615.303	18.733	-0.126	-0.101
-614.288	-40.820	-0.351	-0.183
-613.273	-36.646	0.287	-0.156
-612.259	-12.684	-0.285	0.188
-611.244	-65.898	0.100	-0.040
-610.230	-123.442	0.161	-0.026
-609.215	800.000	-0.147	-0.417
-608.201	-68.086	-0.017	0.007
-607.186	-158.211	-0.291	-0.017
-606.171	185.458	-0.070	0.105
-605.157	104.079	-0.134	-0.158
-604.142	-109.986	-0.135	-0.029
-603.128	-83.824	-0.228	-0.073
-602.113	663.215	0.121	-0.315
-601.098	1.016	-0.090	-0.065
-600.084	-200.000	-0.037	-0.292
-599.069	-15.553	-0.167	0.107
-598.055	73.802	0.190	-0.200
-597.040	-196.206	-0.226	0.002
-596.025	120.870	0.198	-0.248
-595.011	-136.554	-0.044	-0.005
-593.996	-46.986	-0.239	-0.118
-592.982	-85.373	0.298	0.094
-591.967	-76.576	0.323	-0.114
-590.952	-90.942	-0.274	0.080
-589.938	250.185	0.132	0.226
-588.923	-200.000	0.038	0.382
-587.909	-2.229	-0.094	-0.067
-586.894	86.736	-0.221	0.246
-585.879	-68.307	-0.236	-0.092
-584.865	393.776	-0.053	0.112
-583.850	-185.651	-0.269	0.004
-582.836	-121.604	-0.160	0.027
-581.821	-200.000	-0.026	-0.383
-580.806	221.330	-0.040	0.065
-579.792	19.039	-0.114	0.092
-578.777	-200.000	-0.002	-0.340
-577.763	112.784	-0.201	-0.245
-576.748	-139.849	0.456	-0.049
-575.733	96.408	0.182	0.210
-574.719	16.750	0.134	-0.107
-573.704	-38.455	-0.114	-0.061
-572.690	-123.912	0.050	0.008
-571.675	257.987	0.111	0.192
-570.661	-73.755	-0.410	-0.150
-569.646	15.891	0.059	-0.047
-568.631	103.642	0.170	-0.201
-567.617	-153.861	0.383	-0.026
-566.602	-27.562	-0.156	0.091
-565.588	-200.000	-0.027	-0.369
-564.573	-43.243	-0.319	-0.162
-563.558	-133.416	0.211	0.027
-562.544	-119.327	0.116	-0.020
-561.529	-136.769	-0.363	-0.042
-560.515	-200.000	0.054	0.286
-559.500	255.986	0.056	0.097
-558.485	-136.227	0.240	-0.028
-557.471	-200.000	0.019	0.092
-556.456	-47.481	-0.068	0.034
-555.442	-111.762	-0.201	-0.041
-554.427	800.000	-0.049	0.194
-553.412	80.221	0.129	-0.139
-552.398	-60.039	-0.180	-0.077
-551.383	800.000	-0.096	0.287
-550.369	-71.772	-0.331	0.124
-549.354	-6.738	0.087	0.059
-548.339	-53.497	0.376	0.173
-547.325	304.664	0.134	-0.250
-546.310	653.590	-0.030	0.077
-545.296	-9.894	-0.168	-0.112
-544.281	45.357	0.094	0.087
-543.266	-200.000	-0.014	-0.301
-542.252	-29.865	0.023	-0.013
-541.237	186.769	0.051	-0.077
-540.223	-124.161	-0.164	0.026
-539.208	-39.771	-0.137	-0.072
-538.193	-17.569	-0.045	-0.029
-537.179	-82.562	-0.323	0.105
-536.164	-66.684	0.146	0.058
-535.150	-200.000	-0.026	0.187
-534.135	-200.000	0.075	0.391
-533.121	-200.000	0.011	-0.144
-532.106	-75.094	-0.183	0.066
-531.091	-75.954	-0.163	-0.058
-530.077	-72.721	-0.237	-0.088
-529.062	291.811	0.167	-0.306
-528.048	-43.495	-0.350	-0.178
-527.033	71.475	-0.128	-0.134
-526.018	22.708	0.230	0.189
-525.004	-85.653	-0.202	0.063
-523.989	486.128	-0.258	0.591
-522.975	800.000	-0.027	0.084
-521.960	800.000	0.060	-0.250
-520.945	-200.000	0.182	-0.001
-519.931	800.000	0.053	-0.230
-518.916	303.198	0.028	0.051
-517.902	-200.000	-0.042	0.259
-516.887	362.954	0.114	0.231
-515.872	468.060	-0.111	-0.250
-514.858	-39.966	-0.072	0.038
-513.843	425.095	-0.097	0.209
-512.829	-20.861	0.215	0.133
-511.814	-111.735	0.137	0.028
-510.799	568.460	0.125	0.304
-509.785	26.206	-0.210	-0.177
-508.770	10.700	0.184	0.141
-507.756	-23.661	0.240	0.144
-506.741	55.614	0.199	0.194
-505.726	44.050	0.245	-0.226
-504.712	-200.000	-0.041	-0.335
-503.697	-142.292	-0.336	0.033
-502.683	-200.000	0.017	-0.081
-501.668	-70.856	-0.310	0.117
-500.653	800.000	-0.082	0.351
-499.639	-162.078	-0.266	-0.013
-498.624	-200.000	-0.028	0.127
-497.610	-158.910	0.224	-0.013
-496.595	800.000	0.058	-0.226
-495.581	-51.716	-0.368	-0.172
-494.566	-200.000	0.050	-0.472
-493.551	-74.765	0.204	0.074
-492.537	165.006	-0.153	0.216
-491.522	197.428	-0.034	0.051
-490.508	355.619	-0.034	-0.067
-489.493	-200.000	-0.036	0.168
-488.478	-200.000	0.017	0.125
-487.464	-21.989	-0.133	0.081
-486.449	63.796	0.256	0.259
-485.435	800.000	0.047	-0.187
-484.420	-200.000	0.021	-0.263
-483.405	-82.945	-0.131	0.042
-482.391	513.866	0.054	0.126
-481.376	133.937	0.211	-0.275
-480.362	601.729	0.048	0.120
-479.347	-152.619	0.198	-0.014
-478.332	-200.000	0.007	-0.032
-477.318	273.673	-0.125	0.222
-476.303	121.822	0.068	0.085
-475.289	5.972	0.086	0.064
-474.274	8.658	0.281	-0.212
-473.259	7.127	0.329	0.246
-472.245	28.559	-0.241	-0.204
-471.230	-118.998	0.260	-0.046
-470.216	-107.915	0.376	0.082
-469.201	145.526	-0.064	-0.086
-468.186	-29.678	0.339	-0.194
-467.172	800.000	-0.058	0.224
-466.157	-200.000	-0.013	-0.212
-465.143	-83.472	-0.086	-0.028
-464.128	60.495	0.048	-0.047
-463.113	55.019	-0.083	0.081
-462.099	113.453	-0.040	0.048
-461.084	-99.792	0.200	0.050
-460.070	-89.751	-0.338	0.099
-459.055	800.000	0.053	0.211
-458.040	-200.000	0.335	-0.001
-457.026	312.989	0.066	-0.124
-456.011	-80.296	-0.034	0.012
-454.997	184.612	0.182	0.270
-453.982	-200.000	-0.003	-0.123
-452.968	800.000	0.110	-0.352
-451.953	800.000	0.055	-0.165
-450.938	800.000	-0.017	-0.056
-449.924	-92.830	0.223	-0.063
-448.909	800.000	0.084	0.297
-447.895	170.242	0.170	0.244
-446.880	294.314	0.086	-0.157
-445.865	-130.961	-0.276	0.037
-444.851	-19.888	-0.171	-0.106
-443.836	-200.000	-0.025	-0.266
-442.822	-200.000	0.014	-0.168
-441.807	-200.000	0.001	0.015
-440.792	100.733	0.114	-0.133
-439.778	82.598	-0.022	-0.024
-438.763	-101.265	0.087	0.021
-437.749	-68.454	-0.243	-0.094
-436.734	254.767	-0.073	0.125
-435.719	555.215	-0.026	-0.063
-434.705	-87.259	0.258	0.079
-433.690	113.098	-0.071	0.087
-432.676	-99.287	-0.031	0.008
-431.661	-120.488	-0.338	0.057
-430.646	-46.036	0.096	-0.048
-429.632	61.997	0.202	0.201
-428.617	-148.135	0.352	-0.029
-427.603	-51.625	0.119	0.055
-426.588	27.926	-0.150	0.127
-425.573	-124.030	0.169	0.027
-424.559	25.342	-0.041	-0.034
-423.544	-200.000	0.017	0.107
-422.530	-108.054	-0.600	0.130
-421.515	15.535	-0.313	0.246
-420.500	-200.000	-0.015	0.429
-419.486	800.000	0.062	0.199
-418.471	-9.566	0.202	0.135
-417.457	669.788	-0.092	-0.238
-416.442	-138.315	0.258	-0.029
-415.428	-200.000	-0.059	-0.272
-414.413	-179.677	-0.175	0.004
-413.398	-16.063	0.033	-0.021
-412.384	-200.000	0.008	-0.132
-411.369	-114.064	-0.214	0.042
-410.355	-68.605	0.077	-0.030
-409.340	172.725	0.168	-0.242
-408.325	431.452	0.031	-0.066
-407.311	625.140	-0.035	0.087
-406.296	-200.000	0.037	-0.209
-405.282	-52.240	0.150	-0.069
-404.267	15.373	-0.136	0.107
-403.252	-35.227	0.122	-0.066
-402.238	284.657	0.214	0.386
-401.223	-170.567	0.049	-0.002
-400.209	224.341	0.169	0.274
-399.194	218.918	-0.075	-0.121
-398.179	-102.975	0.169	0.040
-397.165	-200.000	-0.016	0.537
-396.150	-134.872	-0.247	-0.030
-395.136	-200.000	0.029	0.217
-394.121	280.092	-0.068	-0.121
-393.106	-83.466	0.253	-0.081
-392.092	-96.015	-0.249	-0.066
-391.077	194.901	-0.103	0.156
-390.063	-200.000	-0.022	0.327
-389.048	86.997	-0.211	-0.233
-388.033	160.991	0.097	-0.136
-387.019	-69.382	-0.152	0.058
-386.004	288.974	-0.152	-0.275
-384.990	-37.107	-0.121	0.065
-383.975	23.915	-0.055	0.046
-382.960	142.729	-0.020	0.026
-381.946	338.057	0.011	0.021
-380.931	-74.364	-0.397	0.143
-379.917	-3.311	0.205	-0.143
-378.902	-200.000	-0.018	-0.405
-377.888	-200.000	-0.010	0.262
-376.873	540.477	0.138	0.329
-375.858	236.790	0.035	-0.058
-374.844	342.965	0.090	-0.175
-373.829	-10.696	-0.218	-0.144
-372.815	138.848	0.169	0.222
-371.800	800.000	0.078	-0.224
-370.785	-200.000	0.011	0.367
-369.771	-200.000	-0.020	-0.160
-368.756	-200.000	0.054	0.398
-367.742	-200.000	-0.066	0.349
-366.727	800.000	-0.067	0.266
-365.712	161.601	-0.056	-0.078
-364.698	16.374	0.227	-0.179
-363.683	-87.682	0.238	-0.072
-362.669	14.856	0.112	-0.087
-361.654	-157.654	-0.223	-0.013
-360.639	-121.545	0.213	-0.035
-359.625	-154.903	0.452	-0.030
-358.610	-79.451	0.046	0.016
-357.596	-67.693	-0.333	0.130
-356.581	-102.394	0.273	0.065
-355.566	-200.000	0.088	0.392
-354.552	-94.197	-0.298	-0.082
-353.537	707.538	-0.051	-0.134
-352.523	2.313	0.185	-0.134
-351.508	60.767	0.167	0.166
-350.493	-131.109	0.169	-0.022
-349.479	280.601	-0.116	0.206
-348.464	34.751	-0.172	-0.150
-347.450	-29.021	0.130	-0.074
-346.435	50.947	-0.180	-0.170
-345.420	-200.000	0.095	-0.429
-344.406	-12.979	-0.185	0.120
-343.391	-95.357	-0.289	-0.078
-342.377	-57.508	0.231	-0.101
-341.362	800.000	0.044	-0.194
-340.348	11.826	-0.256	0.196
-339.333	-200.000	-0.009	0.360
-338.318	45.595	-0.198	0.182
-337.304	-200.000	0.007	-0.180
-336.289	-200.000	-0.018	-0.387
-335.275	138.266	-0.116	0.151
-334.260	800.000	-0.063	0.272
-333.245	-200.000	-0.004	-0.311
-332.231	800.000	0.091	0.275
-331.216	-200.000	0.038	-0.318
-330.202	-31.654	0.251	-0.141
-329.187	800.000	-0.017	-0.065
-328.172	223.954	-0.088	-0.142
-327.158	-58.912	0.127	0.055
-326.143	-113.525	-0.296	0.058
-325.129	-35.673	0.110	0.059
-324.114	-33.565	0.301	0.166
-323.099	-79.326	0.199	0.067
-322.085	-5.813	0.186	0.127
-321.070	179.871	-0.143	0.210
-320.056	113.542	0.187	0.227
-319.041	265.055	-0.105	0.182
-318.026	130.552	0.114	-0.145
-317.012	1.761	0.160	-0.115
-315.997	8.019	-0.229	-0.171
-314.983	-126.083	-0.267	0.040
-313.968	179.834	0.131	0.191
-312.953	800.000	-0.119	0.511
-311.939	624.797	-0.122	0.308
-310.924	473.219	-0.024	0.053
-309.910	-152.334	0.102	-0.007
-308.895	175.450	-0.161	-0.232
-307.880	750.008	-0.108	-0.292
-306.866	368.018	0.242	-0.488
-305.851	259.884	-0.103	0.178
-304.837	800.000	-0.080	0.312
-303.822	-96.598	0.250	-0.066
-302.807	445.818	0.128	-0.280
-301.793	800.000	0.056	0.240
-300.778	800.000	-0.070	-0.205
-299.764	-51.694	0.129	0.060
-298.749	-56.918	0.091	-0.040
-297.735	162.859	-0.169	0.237
-296.720	-200.000	0.003	0.230
-295.705	92.466	-0.147	0.165
-294.691	-60.101	-0.161	-0.069
-293.676	-87.668	0.069	-0.021
-292.662	800.000	0.040	-0.139
-291.647	-83.112	-0.199	-0.064
-290.632	107.208	-0.074	-0.087
-289.618	-69.037	0.295	0.113
-288.603	-76.945	-0.282	0.098
-287.589	77.793	0.198	-0.210
-286.574	-157.080	0.187	-0.011
-285.559	36.915	0.132	0.116
-284.545	-7.206	-0.094	0.064
-283.530	3.484	0.049	-0.036
-282.516	68.114	0.181	0.185
-281.501	180.026	-0.102	-0.149
-280.486	120.402	0.105	0.129
-279.472	-23.200	-0.176	0.106
-278.457	109.487	-0.046	-0.055
-277.443	-177.304	-0.160	0.004
-276.428	-61.912	0.147	0.061
-275.413	-166.721	0.283	-0.012
-274.399	625.561	-0.022	0.056
-273.384	424.909	0.100	-0.214
-272.370	-119.996	0.340	-0.058
-271.355	-15.981	-0.124	-0.079
-270.340	800.000	-0.101	0.312
-269.326	-82.749	0.108	0.035
-268.311	72.431	0.217	0.225
-267.297	-49.133	-0.339	-0.161
-266.282	-200.000	-0.029	0.235
-265.267	68.024	-0.114	0.117
-264.253	-200.000	0.024	0.109
-263.238	-62.212	0.122	-0.051
-262.224	5.445	-0.119	0.088
-261.209	85.650	0.160	-0.175
-260.195	-0.583	0.188	0.132
-259.180	109.227	0.194	-0.231
-258.165	139.380	-0.214	-0.280
-257.151	-200.000	0.003	-0.115
-256.136	255.477	0.205	-0.349
-255.122	-27.402	-0.289	0.167
-254.107	800.000	-0.053	-0.169
-253.092	308.878	-0.035	0.065
-252.078	-71.686	0.388	-0.144
-251.063	-58.267	0.558	-0.242
-250.049	-200.000	-0.085	-0.377
-249.034	88.626	0.073	-0.081
-248.019	-111.266	-0.329	0.067
-247.005	-137.846	0.189	-0.021
-245.990	308.617	-0.099	0.185
-244.976	-127.212	-0.282	0.041
-243.961	-112.532	0.286	0.057
-242.946	-37.706	-0.417	0.221
-241.932	-7.566	0.161	0.108
-240.917	151.307	0.087	0.118
-239.903	800.000	0.044	-0.138
-238.888	248.786	-0.072	0.122
-237.873	-200.000	-0.012	-0.141
-236.859	-153.071	-0.114	-0.008
-235.844	-200.000	-0.006	0.191
-234.830	-172.735	0.203	0.006
-233.815	-93.153	-0.069	-0.019
-232.800	4.874	0.351	-0.257
-231.786	531.235	0.118	0.277
-230.771	-200.000	-0.116	0.000
-229.757	462.466	0.107	-0.237
-228.742	-200.000	0.004	0.424
-227.727	33.799	0.072	-0.062
-226.713	-93.708	0.453	-0.124
-225.698	161.616	0.077	-0.107
-224.684	-200.000	-0.078	0.380
-223.669	-200.000	-0.031	0.222
-222.655	450.031	-0.096	0.210
-221.640	-133.475	-0.266	0.033
-220.625	-117.975	-0.195	0.035
-219.611	-200.000	-0.054	0.348
-218.596	-200.000	0.003	-0.175
-217.582	-125.483	-0.116	-0.018
-216.567	-80.922	-0.064	-0.021
-215.552	-99.364	0.495	-0.124
-214.538	-200.000	0.027	-0.188
-213.523	147.547	0.167	0.223
-212.509	-200.000	0.004	-0.022
-211.494	800.000	0.102	0.370
-210.479	800.000	-0.051	-0.147
-209.465	5.951	0.124	-0.091
-208.450	131.389	-0.194	0.247
-207.436	-113.284	0.079	0.015
-206.421	254.772	0.126	-0.215
-205.406	581.362	0.091	-0.221
-204.392	224.923	-0.152	-0.244
-203.377	664.010	-0.110	-0.282
-202.363	358.036	0.137	-0.272
-201.348	203.168	-0.149	0.229
-200.333	522.687	-0.127	0.297
-199.319	-133.143	0.169	-0.021
-198.304	244.058	-0.044	0.074
-197.290	-158.929	-0.123	0.007
-196.275	-159.173	0.267	-0.015
-195.260	800.000	0.052	-0.150
-194.246	-200.000	-0.016	-0.155
-193.231	-109.999	0.323	-0.067
-192.217	-200.000	-0.018	0.104
-191.202	370.020	0.101	0.203
-190.187	-107.796	-0.169	-0.037
-189.173	-40.784	0.133	-0.069
-188.158	-200.000	0.010	0.134
-187.144	89.726	0.087	0.096
-186.129	800.000	0.046	0.142
-185.114	457.074	0.084	-0.185
-184.100	126.624	-0.089	0.111
-183.085	425.880	0.055	0.118
-182.071	-148.892	-0.072	0.006
-181.056	24.584	-0.167	-0.137
-180.042	-41.471	0.116	-0.059
-179.027	743.058	0.150	-0.399
-178.012	-200.000	0.019	0.170
-176.998	101.641	0.260	-0.301
-175.983	-103.824	-0.093	0.021
-174.969	-55.824	-0.276	0.122
-173.954	45.459	-0.156	0.143
-172.939	-173.939	0.171	0.005
-171.925	-86.201	-0.186	-0.057
-170.910	-37.524	0.174	-0.092
-169.896	800.000	0.116	0.388
-168.881	3.309	-0.304	0.219
-167.866	54.624	-0.144	0.138
-166.852	292.462	-0.034	0.062
-165.837	-57.060	0.070	0.031
-164.823	21.389	-0.053	-0.042
-163.808	225.898	-0.211	-0.340
-162.793	-60.811	0.308	-0.129
-161.779	679.589	0.020	-0.052
-160.764	224.271	0.150	-0.240
-159.750	-78.749	0.279	-0.095
-158.735	-159.263	-0.284	-0.016
-157.720	-94.657	-0.145	0.039
-156.706	-200.000	-0.048	-0.287
-155.691	-200.000	-0.025	-0.231
-154.677	800.000	0.096	-0.334
-153.662	546.126	0.098	0.233
-152.647	800.000	0.064	-0.266
-151.633	-197.017	-0.265	-0.002
-150.618	22.173	0.356	0.288
-149.604	-200.000	0.049	-0.294
-148.589	188.367	-0.303	0.448
-147.574	800.000	0.106	0.402
-146.560	-76.522	-0.185	0.064
-145.545	-32.405	0.203	0.112
-144.531	-133.026	0.249	0.031
-143.516	141.761	0.349	0.458
-142.502	95.494	-0.154	0.174
-141.487	-31.307	-0.212	0.118
-140.472	148.710	0.063	0.084
-139.458	-200.000	-0.025	0.155
-138.443	417.268	-0.102	-0.216
-137.429	-124.387	-0.091	0.014
-136.414	166.395	0.190	-0.267
-135.399	37.194	-0.221	0.193
-134.385	-109.302	0.187	0.039
-133.370	-4.173	0.264	0.181
-132.356	-85.678	0.099	0.031
-131.341	-126.485	-0.159	-0.023
-130.326	-200.000	0.057	0.259
-129.312	77.457	-0.089	-0.094
-128.297	-200.000	0.026	0.158
-127.283	-91.479	0.008	-0.002
-126.268	201.571	-0.172	0.263
-125.253	-77.078	0.165	-0.057
-124.239	-45.934	-0.088	0.043
-123.224	-10.341	-0.183	0.120
-122.210	-100.840	-0.152	-0.037
-121.195	-200.000	-0.048	-0.222
