DTS Sentinel unit serial number:	SN413079Multiplexer serial number:	ORYXHardware model number:	OX4-SRSoftware version number:	ORYX F/W v4.00 Oryx Data Collector v3.7.2.0data status	okinstallation	princeton_trtdifferential loss correction	single-endedforward channel	channel 1reverse channel	N/Adate	2019/09/14time	17:06:35forward acquisition time	60.00reverse acquisition time	0.00gamma	496.2192k internal	0.2295k external	0.2295temperature offset calibration	1.0056default loss term (dB/km)	0.3790temperature slope calibration	1.0000multiplexer offset coefficient	1.0000multiplexer slope coefficient	1.0000fibre end	0.00T internal ref (°C)	37.95T ext. ref 1 (°C)	4.99T ext. ref 2 (°C)	32.98length (m)	temperature (°C)	Stokes	anti-Stokes-747.200	800.000	0.010	-0.036
-746.185	586.892	0.103	0.260
-745.171	122.460	-0.178	-0.227
-744.156	-200.000	0.050	0.364
-743.142	-60.557	-0.069	0.030
-742.127	-14.578	-0.180	0.118
-741.112	177.299	-0.209	0.311
-740.098	370.302	0.058	-0.121
-739.083	-200.000	-0.061	-0.297
-738.069	800.000	0.051	0.157
-737.054	-107.433	-0.222	-0.050
-736.039	7.686	-0.280	-0.214
-735.025	195.987	0.226	-0.352
-734.010	-200.000	0.024	-0.143
-732.996	21.346	0.146	0.121
-731.981	800.000	0.047	0.147
-730.966	403.189	-0.025	-0.053
-729.952	183.716	-0.151	0.228
-728.937	124.301	-0.205	-0.263
-727.923	195.452	-0.112	0.174
-726.908	-19.505	-0.301	-0.191
-725.894	-200.000	-0.260	-0.001
-724.879	-200.000	-0.021	0.194
-723.864	423.327	-0.082	-0.181
-722.850	-200.000	-0.023	0.105
-721.835	-3.571	-0.030	-0.021
-720.821	-200.000	0.002	0.109
-719.806	800.000	-0.103	-0.362
-718.791	-146.570	-0.440	-0.039
-717.777	153.557	-0.131	0.183
-716.762	-166.380	-0.066	0.003
-715.748	-27.606	-0.157	0.093
-714.733	69.684	0.160	0.169
-713.718	-9.454	-0.141	-0.096
-712.704	37.410	-0.056	-0.050
-711.689	-109.613	0.265	-0.057
-710.675	-28.837	-0.107	0.063
-709.660	800.000	0.063	0.189
-708.645	321.133	0.068	0.132
-707.631	-174.668	0.395	-0.011
-706.616	-115.110	0.137	0.027
-705.602	-61.315	0.399	0.172
-704.587	-32.377	0.081	-0.046
-703.572	800.000	-0.156	0.494
-702.558	-200.000	-0.016	0.148
-701.543	67.549	0.307	0.320
-700.529	121.276	0.153	-0.195
-699.514	-154.924	-0.280	0.019
-698.499	94.299	0.117	-0.136
-697.485	1.109	-0.153	-0.112
-696.470	-200.000	-0.008	0.049
-695.456	524.483	-0.044	-0.105
-694.441	800.000	0.037	-0.134
-693.426	649.343	0.123	-0.321
-692.412	-200.000	-0.050	0.275
-691.397	146.003	-0.370	-0.506
-690.383	310.958	-0.060	0.115
-689.368	-6.254	0.179	0.125
-688.354	-49.909	0.310	0.150
-687.339	800.000	0.058	-0.174
-686.324	-200.000	-0.009	-0.085
-685.310	-81.613	-0.212	0.071
-684.295	-183.492	-0.177	0.003
-683.281	107.299	0.050	0.060
-682.266	179.471	0.090	0.135
-681.251	58.181	0.114	-0.114
-680.237	800.000	-0.047	0.144
-679.222	-86.267	-0.244	-0.077
-678.208	-106.919	0.258	-0.058
-677.193	111.458	-0.147	-0.181
-676.178	140.181	-0.043	-0.058
-675.164	301.952	-0.097	0.183
-674.149	345.465	-0.005	0.010
-673.135	-158.724	0.335	0.020
-672.120	186.717	-0.051	-0.077
-671.105	800.000	-0.035	-0.139
-670.091	-139.163	0.212	-0.023
-669.076	78.568	0.054	0.058
-668.062	68.920	-0.233	0.243
-667.047	714.179	0.061	0.165
-666.032	615.994	0.122	0.311
-665.018	-200.000	-0.002	0.153
-664.003	-25.362	0.145	0.087
-662.989	-96.196	0.298	-0.081
-661.974	800.000	0.062	0.228
-660.959	-200.000	-0.036	0.429
-659.945	70.027	-0.169	-0.177
-658.930	56.789	0.238	-0.236
-657.916	-53.090	-0.190	0.089
-656.901	378.609	-0.052	0.109
-655.886	-44.949	-0.056	0.028
-654.872	-82.121	-0.208	-0.069
-653.857	-164.954	-0.411	0.019
-652.843	49.543	0.071	0.068
-651.828	18.301	0.112	0.091
-650.814	18.831	-0.207	-0.169
-649.799	97.399	0.186	-0.217
-648.784	-42.185	-0.037	0.019
-647.770	588.041	0.030	-0.075
-646.755	354.632	0.116	-0.234
-645.741	215.263	-0.222	-0.359
-644.726	-12.336	0.240	-0.160
-643.711	527.182	-0.053	-0.127
-642.697	369.668	-0.060	-0.125
-641.682	176.550	-0.221	-0.327
-640.668	-38.855	-0.074	-0.040
-639.653	109.118	0.021	-0.025
-638.638	166.868	-0.164	-0.237
-637.624	-25.594	-0.402	0.242
-636.609	800.000	0.045	-0.169
-635.595	-23.946	-0.135	0.082
-634.580	-30.736	-0.177	0.102
-633.565	-15.426	-0.313	-0.203
-632.551	-159.056	-0.065	-0.004
-631.536	4.423	-0.226	-0.169
-630.522	-200.000	0.000	0.166
-629.507	509.708	0.025	0.058
-628.492	4.852	-0.232	0.173
-627.478	-138.272	-0.262	-0.030
-626.463	-122.598	0.400	-0.066
-625.449	-84.123	0.365	-0.118
-624.434	-96.141	-0.314	-0.085
-623.419	-147.110	0.234	0.020
-622.405	430.883	0.042	0.091
-621.390	494.101	0.167	-0.390
-620.376	-12.829	0.084	-0.056
-619.361	-1.353	0.039	-0.028
-618.346	398.713	0.145	-0.309
-617.332	331.350	-0.138	-0.271
-616.317	-88.697	-0.250	0.076
-615.303	199.082	0.021	0.033
-614.288	-151.089	-0.064	0.005
-613.273	-118.937	-0.290	-0.052
-612.259	-200.000	-0.023	0.240
-611.244	183.430	0.082	-0.123
-610.230	-3.295	-0.176	0.125
-609.215	-60.506	0.245	0.106
-608.201	-200.000	0.016	0.086
-607.186	-200.000	0.020	-0.162
-606.171	-200.000	-0.003	0.317
-605.157	-22.227	0.176	0.109
-604.142	314.618	-0.106	-0.204
-603.128	-124.593	-0.216	0.034
-602.113	-71.989	0.203	-0.077
-601.098	-58.688	-0.325	-0.143
-600.084	149.026	0.274	-0.377
-599.069	-200.000	0.040	0.279
-598.055	224.717	-0.107	-0.175
-597.040	193.148	-0.151	-0.232
-596.025	17.705	-0.194	0.157
-595.011	800.000	-0.053	-0.191
-593.996	800.000	0.100	0.317
-592.982	452.235	-0.096	-0.215
-591.967	-67.009	0.236	0.095
-590.952	-55.274	-0.380	0.174
-589.938	60.581	-0.145	0.146
-588.923	-129.227	-0.199	0.028
-587.909	110.586	0.095	0.116
-586.894	-200.000	0.022	0.131
-585.879	438.930	-0.124	-0.274
-584.865	-44.169	0.087	-0.044
-583.850	-200.000	0.016	0.189
-582.836	-200.000	-0.051	-0.276
-581.821	-200.000	-0.068	-0.392
-580.806	-20.199	-0.287	-0.180
-579.792	-127.026	0.061	-0.009
-578.777	-0.630	0.118	0.085
-577.763	-200.000	0.044	0.334
-576.748	-8.625	-0.108	-0.073
-575.733	-110.862	-0.341	0.071
-574.719	-72.980	-0.118	-0.044
-573.704	32.146	0.137	0.120
-572.690	-200.000	-0.044	0.283
-571.675	800.000	-0.020	-0.074
-570.661	-103.340	-0.086	-0.021
-569.646	-59.801	0.194	0.084
-568.631	800.000	-0.148	-0.478
-567.617	800.000	-0.021	-0.078
-566.602	-160.088	0.347	-0.019
-565.588	-78.906	-0.420	0.145
-564.573	-109.357	-0.423	0.091
-563.558	-13.170	-0.389	0.256
-562.544	498.752	0.078	0.182
-561.529	-126.749	0.116	-0.017
-560.515	626.331	-0.102	0.261
-559.500	800.000	0.045	-0.173
-558.485	2.334	0.128	-0.094
-557.471	-189.419	0.212	0.003
-556.456	-105.570	0.332	0.076
-555.442	-95.134	-0.364	0.100
-554.427	-85.628	-0.106	-0.033
-553.412	104.140	-0.069	-0.082
-552.398	-79.082	0.397	0.137
-551.383	800.000	0.017	-0.070
-550.369	784.363	-0.010	0.027
-549.354	-200.000	-0.015	-0.106
-548.339	69.076	0.085	0.089
-547.325	-200.000	0.007	-0.183
-546.310	-25.383	-0.416	-0.249
-545.296	-200.000	0.009	0.119
-544.281	-200.000	-0.015	-0.092
-543.266	-71.454	0.157	-0.060
-542.252	-200.000	0.000	-0.121
-541.237	155.730	0.104	-0.146
-540.223	68.709	0.136	-0.142
-539.208	-154.820	-0.193	-0.013
-538.193	81.606	-0.112	0.123
-537.179	800.000	-0.065	-0.258
-536.164	104.827	0.152	0.181
-535.150	-200.000	-0.065	-0.514
-534.135	-200.000	-0.046	-0.280
-533.121	-111.901	0.207	-0.042
-532.106	-97.182	0.018	-0.005
-531.091	113.512	-0.097	-0.120
-530.077	-200.000	0.019	0.130
-529.062	50.062	-0.080	-0.077
-528.048	206.393	0.070	0.110
-527.033	794.273	0.101	0.282
-526.018	-104.588	0.216	-0.050
-525.004	-120.021	-0.162	0.028
-523.989	-9.851	0.043	-0.029
-522.975	-28.253	-0.128	-0.075
-521.960	-54.616	-0.206	0.095
-520.945	183.927	0.124	0.186
-519.931	-166.090	-0.289	-0.012
-518.916	-91.702	-0.158	0.045
-517.902	-200.000	-0.055	0.416
-516.887	476.658	0.172	0.393
-515.872	-31.771	0.227	0.129
-514.858	-200.000	-0.009	0.066
-513.843	-16.136	0.274	-0.177
-512.829	-75.956	0.326	-0.117
-511.814	18.986	-0.347	-0.282
-510.799	-200.000	0.047	0.553
-509.785	-200.000	0.006	0.195
-508.770	-106.281	0.406	0.092
-507.756	-71.871	0.156	-0.059
-506.741	-139.152	-0.558	-0.061
-505.726	99.655	0.068	-0.080
-504.712	-83.496	-0.227	0.073
-503.697	14.616	0.147	0.117
-502.683	-200.000	-0.008	0.084
-501.668	-40.257	0.351	-0.185
-500.653	-11.447	-0.126	0.084
-499.639	55.072	0.120	-0.118
-498.624	-3.379	0.207	-0.146
-497.610	320.654	-0.017	0.033
-496.595	-143.744	-0.257	-0.025
-495.581	800.000	0.036	-0.123
-494.566	-35.371	0.024	0.013
-493.551	119.069	-0.165	0.207
-492.537	-139.114	0.199	0.022
-491.522	192.329	-0.029	0.044
-490.508	237.249	0.052	-0.087
-489.493	352.736	0.082	0.164
-488.478	46.327	0.345	0.324
-487.464	-200.000	-0.004	-0.043
-486.449	-200.000	-0.009	0.099
-485.435	800.000	-0.060	-0.236
-484.420	0.132	-0.351	-0.254
-483.405	-200.000	0.022	0.108
-482.391	79.975	0.211	0.229
-481.376	-51.897	-0.328	-0.154
-480.362	145.434	0.153	0.207
-479.347	800.000	-0.060	0.242
-478.332	-156.034	0.398	0.026
-477.318	137.367	-0.166	-0.220
-476.303	-14.166	-0.183	-0.120
-475.289	-116.429	0.255	-0.048
-474.274	222.892	0.063	0.103
-473.259	-69.549	0.370	-0.143
-472.245	-113.506	0.092	-0.018
-471.230	-54.804	-0.098	-0.045
-470.216	-200.000	0.017	0.460
-469.201	800.000	-0.075	0.215
-468.186	89.304	-0.197	0.222
-467.172	800.000	-0.104	-0.330
-466.157	225.865	-0.272	-0.446
-465.143	29.928	0.293	0.252
-464.128	207.126	-0.130	0.205
-463.113	800.000	-0.043	0.138
-462.099	4.340	-0.054	-0.040
-461.084	-58.148	-0.193	0.085
-460.070	57.885	0.136	0.134
-459.055	253.443	-0.038	0.065
-458.040	111.821	-0.213	-0.260
-457.026	226.799	0.152	-0.250
-456.011	-147.878	0.153	-0.013
-454.997	-131.252	0.478	0.064
-453.982	351.006	0.066	-0.132
-452.968	55.152	-0.080	-0.078
-451.953	19.865	0.063	-0.051
-450.938	-8.005	-0.194	0.132
-449.924	-11.006	0.089	0.060
-448.909	-145.718	0.087	-0.008
-447.895	-89.423	0.136	0.040
-446.880	268.285	0.076	0.134
-445.865	800.000	0.006	0.022
-444.851	-200.000	0.052	-0.255
-443.836	492.644	-0.155	-0.359
-442.822	-200.000	-0.023	-0.321
-441.807	624.093	0.058	-0.149
-440.792	800.000	0.042	0.137
-439.778	-53.762	-0.136	0.063
-438.763	-67.234	-0.147	0.059
-437.749	-77.158	-0.235	0.083
-436.734	800.000	-0.041	0.160
-435.719	800.000	0.071	0.269
-434.705	265.950	-0.123	-0.217
-433.690	-187.330	-0.162	0.002
-432.676	152.601	0.138	0.190
-431.661	493.942	-0.037	-0.085
-430.646	100.656	0.132	-0.155
-429.632	67.954	0.092	-0.095
-428.617	-200.000	-0.046	-0.445
-427.603	-130.153	-0.207	-0.029
-426.588	532.365	0.100	-0.239
-425.573	800.000	0.080	0.242
-424.559	-200.000	-0.016	0.177
-423.544	23.171	-0.138	0.115
-422.530	14.935	-0.065	0.052
-421.515	800.000	-0.025	-0.070
-420.500	-14.449	-0.309	-0.201
-419.486	800.000	0.062	-0.182
-418.471	627.613	0.026	-0.066
-417.457	-27.885	0.102	-0.060
-416.442	-15.978	0.075	0.048
-415.428	-200.000	0.015	0.210
-414.413	279.315	-0.105	0.189
-413.398	-200.000	0.056	-0.304
-412.384	-33.077	-0.259	-0.145
-411.369	-133.029	0.082	0.011
-410.355	-200.000	0.035	0.367
-409.340	-128.415	-0.230	0.033
-408.325	-185.907	0.049	-0.001
-407.311	324.387	-0.079	-0.152
-406.296	72.725	-0.173	0.182
-405.282	800.000	0.075	-0.295
-404.267	197.183	0.067	0.104
-403.252	122.961	0.100	0.126
-402.238	-69.978	-0.248	0.095
-401.223	-57.100	0.314	0.140
-400.209	103.548	-0.160	-0.189
-399.194	-143.974	0.412	-0.039
-398.179	134.871	-0.289	-0.378
-397.165	31.490	0.040	0.034
-396.150	-77.158	0.158	-0.055
-395.136	-200.000	-0.057	-0.274
-394.121	116.859	0.156	0.193
-393.106	-103.378	-0.273	-0.065
-392.092	800.000	0.039	0.155
-391.077	-1.712	0.136	-0.097
-390.063	-43.640	0.436	0.222
-389.048	28.387	0.278	-0.236
-388.033	-54.474	0.025	-0.011
-387.019	-200.000	0.002	-0.188
-386.004	6.839	0.081	0.061
-384.990	271.508	-0.075	0.133
-383.975	711.126	-0.097	-0.259
-382.960	-13.391	-0.064	-0.042
-381.946	83.558	-0.165	-0.181
-380.931	543.602	0.179	-0.430
-379.917	81.186	-0.197	-0.215
-378.902	800.000	0.038	0.163
-377.888	-62.787	-0.159	-0.066
-376.873	-100.904	-0.218	0.054
-375.858	-97.063	0.327	0.086
-374.844	-66.263	0.300	0.120
-373.829	-99.899	0.277	-0.070
-372.815	184.396	-0.101	-0.150
-371.800	4.343	0.308	0.228
-370.785	603.229	0.167	-0.418
-369.771	179.965	-0.191	-0.283
-368.756	-25.846	-0.388	0.230
-367.742	-34.556	0.235	-0.130
-366.727	-200.000	-0.003	0.016
-365.712	-200.000	-0.070	0.000
-364.698	366.088	0.101	0.204
-363.683	229.436	-0.116	-0.190
-362.669	-16.501	-0.266	0.170
-361.654	84.881	0.041	-0.045
-360.639	230.595	0.119	-0.197
-359.625	49.622	0.183	0.174
-358.610	-200.000	-0.030	-0.146
-357.596	-200.000	0.050	0.258
-356.581	569.574	0.054	-0.133
-355.566	66.623	-0.317	-0.325
-354.552	-92.895	-0.120	0.034
-353.537	78.858	0.202	-0.218
-352.523	800.000	-0.083	0.326
-351.508	104.801	-0.252	0.300
-350.493	260.462	0.212	0.369
-349.479	-87.237	-0.108	0.033
-348.464	-61.015	-0.201	-0.085
-347.450	199.826	0.044	-0.068
-346.435	-122.686	-0.101	0.016
-345.420	344.011	0.040	0.078
-344.406	566.763	0.102	-0.248
-343.391	800.000	-0.032	-0.090
-342.377	800.000	-0.013	0.041
-341.362	-200.000	0.017	0.192
-340.348	-137.224	0.189	-0.022
-339.333	-200.000	0.005	0.448
-338.318	800.000	0.036	-0.138
-337.304	293.551	-0.244	-0.447
-336.289	-11.211	0.115	0.076
-335.275	85.450	-0.304	-0.335
-334.260	163.560	-0.178	-0.251
-333.245	-84.811	0.274	-0.087
-332.231	-200.000	0.039	0.265
-331.216	-100.081	0.093	0.023
-330.202	33.497	0.178	0.156
-329.187	529.226	0.051	0.120
-328.172	319.851	0.056	0.106
-327.158	-78.936	0.096	0.033
-326.143	184.850	-0.070	-0.105
-325.129	51.010	0.212	-0.202
-324.114	35.140	-0.103	0.091
-323.099	-120.130	-0.226	-0.039
-322.085	-148.717	0.447	-0.037
-321.070	515.713	-0.076	-0.178
-320.056	290.708	-0.068	-0.124
-319.041	5.080	0.091	0.067
-318.026	61.964	0.168	0.169
-317.012	-200.000	0.009	0.108
-315.997	-97.538	0.287	-0.075
-314.983	-29.625	-0.169	0.097
-313.968	-200.000	-0.006	0.093
-312.953	196.921	0.090	0.137
-311.939	140.531	0.193	-0.256
-310.924	-81.575	0.090	0.030
-309.910	-8.402	0.219	0.148
-308.895	-87.043	-0.123	-0.038
-307.880	13.194	-0.083	0.064
-306.866	189.799	-0.153	0.230
-305.851	13.085	0.129	0.101
-304.837	-67.356	0.077	0.030
-303.822	-69.605	-0.374	0.144
-302.807	-77.687	0.402	0.140
-301.793	84.757	-0.060	-0.066
-300.778	-200.000	0.015	0.331
-299.764	-75.240	-0.197	0.071
-298.749	229.096	-0.153	-0.250
-297.735	128.974	0.037	-0.048
-296.720	-88.632	0.523	-0.156
-295.705	-34.265	0.330	-0.182
-294.691	-143.123	0.149	0.014
-293.676	800.000	-0.142	0.417
-292.662	93.700	0.210	0.239
-291.647	-152.089	-0.340	-0.025
-290.632	548.913	-0.110	0.264
-289.618	754.845	-0.112	0.305
-288.603	37.039	-0.101	0.089
-287.589	-153.359	0.106	-0.007
-286.574	27.626	0.185	0.156
-285.559	710.436	-0.078	0.207
-284.545	-133.553	0.289	-0.036
-283.530	-117.064	-0.230	-0.042
-282.516	73.991	-0.130	0.136
-281.501	26.071	0.032	0.027
-280.486	-115.902	0.207	0.039
-279.472	-200.000	0.015	-0.133
-278.457	-194.115	0.108	-0.001
-277.443	-56.236	0.253	0.113
-276.428	485.768	-0.025	0.057
-275.413	398.706	0.069	-0.145
-274.399	69.139	0.105	0.108
-273.384	-165.674	0.195	-0.008
-272.370	64.277	-0.205	-0.208
-271.355	264.900	-0.044	-0.076
-270.340	-113.252	-0.120	0.024
-269.326	-29.437	-0.065	-0.037
-268.311	-89.809	-0.047	0.014
-267.297	-66.303	0.028	-0.011
-266.282	-78.370	0.379	0.130
-265.267	-42.085	-0.198	-0.102
-264.253	114.357	-0.189	0.230
-263.238	-158.646	0.191	-0.011
-262.224	800.000	0.123	0.380
-261.209	800.000	0.072	-0.228
-260.195	-200.000	0.007	0.085
-259.180	44.268	-0.296	-0.272
-258.165	182.671	-0.118	0.175
-257.151	-200.000	0.115	0.585
-256.136	-24.495	-0.263	0.157
-255.122	599.047	-0.039	0.098
-254.107	800.000	-0.100	0.434
-253.092	-146.955	-0.148	-0.013
-252.078	122.766	-0.155	-0.194
-251.063	34.443	0.103	0.090
-250.049	-200.000	0.012	-0.324
-249.034	107.642	0.223	0.266
-248.019	-83.827	0.109	0.035
-247.005	-111.567	0.047	-0.010
-245.990	460.827	-0.145	0.323
-244.976	-200.000	0.073	0.423
-243.961	8.715	0.398	0.300
-242.946	219.187	-0.110	-0.176
-241.932	243.675	0.114	-0.191
-240.917	214.970	-0.014	0.022
-239.903	-168.497	-0.198	0.008
-238.888	295.007	0.157	-0.288
-237.873	-152.217	0.074	0.005
-236.859	-200.000	-0.060	-0.292
-235.844	800.000	-0.074	0.249
-234.830	200.281	0.044	0.067
-233.815	427.752	-0.062	0.134
-232.800	242.318	-0.173	-0.289
-231.786	-71.395	-0.372	0.140
-230.771	-189.440	-0.304	0.004
-229.757	260.384	-0.075	0.129
-228.742	-22.612	0.175	0.106
-227.727	-200.000	-0.021	-0.343
-226.713	-76.139	-0.074	0.026
-225.698	-69.941	-0.085	-0.033
-224.684	339.369	-0.093	0.182
-223.669	125.847	-0.165	0.208
-222.655	34.662	-0.101	-0.088
-221.640	800.000	0.036	0.104
-220.625	10.784	-0.220	0.168
-219.611	93.342	-0.082	0.093
-218.596	-85.579	0.350	0.109
-217.582	-111.462	-0.218	0.044
-216.567	-143.044	0.327	0.032
-215.552	-90.224	0.201	-0.059
-214.538	-200.000	0.002	0.088
-213.523	-133.787	-0.219	-0.027
-212.509	59.722	-0.178	-0.176
-211.494	-3.154	-0.184	0.128
-210.479	71.511	0.208	-0.216
-209.465	435.077	0.048	-0.104
-208.450	649.318	0.130	-0.332
-207.436	-25.092	0.187	-0.111
-206.421	157.572	-0.168	0.233
-205.406	-200.000	-0.006	0.309
-204.392	-137.870	-0.105	-0.012
-203.377	-107.469	-0.095	-0.021
-202.363	-200.000	0.046	-0.416
-201.348	-68.574	-0.049	-0.019
-200.333	30.026	-0.046	-0.039
-199.319	355.449	0.239	0.476
-198.304	729.574	-0.036	-0.095
-197.290	30.386	-0.252	-0.216
-196.275	-176.703	-0.342	0.009
-195.260	110.675	0.221	-0.266
-194.246	-75.581	-0.151	0.054
-193.231	-200.000	-0.022	0.227
-192.217	411.627	0.080	-0.170
-191.202	8.066	0.314	-0.235
-190.187	70.886	-0.138	-0.143
-189.173	92.381	-0.018	-0.020
-188.158	-101.020	0.145	-0.036
-187.144	-61.651	0.259	-0.109
-186.129	-151.990	0.373	-0.027
-185.114	-54.866	0.091	-0.041
-184.100	297.087	0.156	0.285
-183.085	-85.813	0.226	0.070
-182.071	183.435	-0.085	-0.126
-181.056	-200.000	-0.056	0.257
-180.042	-79.333	-0.278	-0.094
-179.027	-125.188	0.145	0.022
-178.012	800.000	0.087	0.326
-176.998	-69.867	0.236	-0.090
-175.983	-126.938	-0.319	0.047
-174.969	-77.672	-0.111	-0.038
-173.954	-200.000	0.006	0.119
-172.939	-23.478	-0.276	0.166
-171.925	-72.426	0.326	-0.121
-170.910	-200.000	0.006	-0.083
-169.896	574.224	0.123	-0.300
-168.881	-36.173	0.173	-0.094
-167.866	-19.650	-0.229	-0.141
-166.852	205.236	0.076	-0.118
-165.837	-65.253	-0.159	-0.064
-164.823	-85.729	0.308	-0.096
-163.808	479.407	0.158	-0.358
-162.793	-110.878	-0.128	0.026
-161.779	365.524	-0.056	0.113
-160.764	-46.209	-0.183	0.090
-159.750	121.997	0.195	0.244
-158.735	-200.000	0.043	0.254
-157.720	-145.826	0.037	-0.003
-156.706	246.039	0.117	-0.197
-155.691	800.000	-0.052	0.216
-154.677	-200.000	0.014	0.273
-153.662	-200.000	-0.045	0.225
-152.647	-24.895	0.251	-0.149
-151.633	351.084	0.103	0.203
-150.618	800.000	-0.025	-0.088
-149.604	205.033	0.187	0.290
-148.589	19.709	-0.218	-0.175
-147.574	800.000	0.010	-0.029
-146.560	-200.000	0.029	-0.227
-145.545	-200.000	0.002	0.050
-144.531	-100.225	0.380	0.094
-143.516	35.584	-0.090	-0.079
-142.502	399.393	0.010	0.020
-141.487	33.622	-0.190	-0.165
-140.472	-13.740	0.182	0.117
-139.458	334.733	0.058	-0.113
-138.443	90.226	0.175	-0.196
-137.429	-200.000	0.024	-0.255
-136.414	800.000	-0.021	0.087
-135.399	-47.025	-0.156	0.076
-134.385	-131.807	-0.225	0.029
-133.370	89.000	0.106	-0.118
-132.356	-137.484	-0.354	-0.040
-131.341	29.250	-0.197	0.167
-130.326	76.095	-0.268	-0.283
-129.312	11.764	-0.331	-0.253
-128.297	428.347	-0.109	-0.235
-127.283	359.125	0.115	-0.229
-126.268	56.237	-0.051	-0.049
-125.253	-39.386	-0.370	0.193
-124.239	-4.279	-0.399	0.275
-123.224	-41.132	-0.017	0.009
-122.210	-111.093	0.296	0.061
-121.195	-107.429	-0.119	-0.026
