DTS Sentinel unit serial number:	SN413079Multiplexer serial number:	ORYXHardware model number:	OX4-SRSoftware version number:	ORYX F/W v4.00 Oryx Data Collector v3.7.2.0data status	okinstallation	princeton_trtdifferential loss correction	single-endedforward channel	channel 1reverse channel	N/Adate	2019/09/11time	13:48:11forward acquisition time	60.00reverse acquisition time	0.00gamma	496.2192k internal	0.2294k external	0.2294temperature offset calibration	0.9983default loss term (dB/km)	0.3790temperature slope calibration	1.0000multiplexer offset coefficient	1.0000multiplexer slope coefficient	1.0000fibre end	0.00T internal ref (°C)	41.89T ext. ref 1 (°C)	0.83T ext. ref 2 (°C)	35.92length (m)	temperature (°C)	Stokes	anti-Stokes-747.200	662.205	0.164	0.433
-746.185	-26.508	-0.064	0.039
-745.171	-17.557	0.106	-0.068
-744.156	-98.286	0.265	0.070
-743.142	-65.399	0.279	0.115
-742.127	-200.000	-0.030	0.261
-741.112	640.031	0.156	0.405
-740.098	-149.725	0.220	0.018
-739.083	800.000	-0.034	0.105
-738.069	-199.019	0.320	-0.002
-737.054	-30.821	0.134	0.077
-736.039	136.356	-0.264	0.352
-735.025	17.919	0.117	0.096
-734.010	-200.000	0.070	0.318
-732.996	-47.368	0.319	-0.159
-731.981	477.164	-0.041	0.095
-730.966	-166.507	0.096	-0.004
-729.952	607.599	0.076	0.194
-728.937	64.595	-0.120	-0.123
-727.923	582.490	0.188	-0.473
-726.908	583.704	0.096	-0.241
-725.894	-28.879	0.083	0.049
-724.879	-14.957	-0.156	-0.103
-723.864	800.000	-0.055	0.177
-722.850	-166.019	0.074	-0.003
-721.835	-142.439	-0.326	-0.033
-720.821	340.775	-0.045	0.090
-719.806	-46.299	-0.159	-0.080
-718.791	-144.999	-0.219	-0.020
-717.777	-87.477	-0.265	-0.082
-716.762	23.474	0.008	-0.007
-715.748	656.030	0.057	0.149
-714.733	-200.000	0.012	0.080
-713.718	800.000	0.078	0.240
-712.704	645.736	0.055	-0.144
-711.689	-35.508	0.118	-0.065
-710.675	-200.000	-0.046	0.301
-709.660	72.606	-0.304	-0.324
-708.645	-200.000	0.039	-0.262
-707.631	43.933	0.165	0.154
-706.616	24.909	0.224	0.189
-705.602	-55.707	-0.288	-0.132
-704.587	602.674	0.112	0.284
-703.572	319.333	-0.062	-0.121
-702.558	-16.753	0.135	-0.087
-701.543	-20.765	0.051	-0.032
-700.529	645.418	-0.117	-0.306
-699.514	179.825	-0.155	0.232
-698.499	800.000	0.040	-0.160
-697.485	-97.354	0.151	-0.040
-696.470	-200.000	0.011	-0.202
-695.456	121.830	0.136	-0.173
-694.441	-80.159	-0.191	0.065
-693.426	-162.920	0.275	0.014
-692.412	90.654	-0.127	-0.145
-691.397	-200.000	-0.074	-0.374
-690.383	-156.072	-0.142	-0.009
-689.368	199.127	-0.210	0.328
-688.354	-70.621	0.131	0.051
-687.339	270.165	-0.017	-0.031
-686.324	800.000	0.100	-0.378
-685.310	187.480	0.021	0.032
-684.295	800.000	-0.065	0.274
-683.281	240.286	0.033	0.057
-682.266	-56.466	-0.396	0.179
-681.251	-109.916	-0.180	0.039
-680.237	-59.832	0.208	-0.091
-679.222	-200.000	-0.017	-0.311
-678.208	-136.580	0.284	-0.033
-677.193	-200.000	0.008	0.176
-676.178	-173.478	-0.301	0.009
-675.164	19.004	0.099	-0.081
-674.149	-200.000	-0.008	0.209
-673.135	6.228	-0.115	-0.087
-672.120	414.756	-0.108	-0.235
-671.105	-200.000	-0.033	-0.219
-670.091	800.000	-0.108	-0.438
-669.076	-89.475	0.074	-0.022
-668.062	68.544	0.099	-0.103
-667.047	-26.926	0.056	0.033
-666.032	-200.000	0.044	0.300
-665.018	800.000	-0.085	-0.270
-664.003	-200.000	0.021	-0.253
-662.989	421.996	0.067	0.146
-661.974	-108.933	0.212	0.046
-660.959	-200.000	-0.009	-0.042
-659.945	-200.000	-0.006	-0.046
-658.930	-200.000	-0.024	0.207
-657.916	-200.000	0.020	-0.226
-656.901	-200.000	-0.027	-0.294
-655.886	-117.910	-0.278	-0.051
-654.872	679.310	-0.054	0.143
-653.857	446.187	0.040	-0.090
-652.843	175.875	-0.055	-0.081
-651.828	-161.669	-0.012	0.001
-650.814	-139.292	-0.261	0.029
-649.799	90.412	0.162	0.185
-648.784	-200.000	0.036	0.262
-647.770	-17.513	-0.124	0.080
-646.755	-29.016	-0.040	-0.024
-645.741	138.902	-0.126	-0.169
-644.726	60.023	-0.180	0.182
-643.711	-177.886	-0.375	-0.009
-642.697	489.647	0.003	0.007
-641.682	-96.206	-0.364	0.098
-640.668	-96.622	0.202	-0.054
-639.653	95.814	-0.098	-0.114
-638.638	-48.055	-0.356	0.175
-637.624	-200.000	0.013	-0.088
-636.609	121.104	0.307	0.389
-635.595	283.838	-0.070	0.128
-634.580	-200.000	0.039	-0.202
-633.565	-173.360	0.359	-0.011
-632.551	-148.765	-0.070	-0.006
-631.536	23.436	0.118	-0.099
-630.522	41.388	-0.173	-0.159
-629.507	-91.799	0.321	0.093
-628.492	409.303	-0.198	0.427
-627.478	14.582	0.337	-0.268
-626.463	800.000	-0.058	-0.224
-625.449	49.069	0.138	-0.132
-624.434	44.789	-0.143	-0.134
-623.419	512.789	-0.115	0.273
-622.405	793.186	-0.224	0.627
-621.390	-19.611	0.109	-0.068
-620.376	-200.000	-0.022	-0.258
-619.361	301.755	0.068	-0.129
-618.346	-101.262	-0.296	-0.074
-617.332	236.936	0.087	0.146
-616.317	18.971	-0.204	0.166
-615.303	718.666	0.066	0.177
-614.288	299.332	0.056	0.105
-613.273	-200.000	0.032	0.170
-612.259	-200.000	-0.007	-0.287
-611.244	682.610	-0.083	-0.220
-610.230	-117.234	-0.266	-0.049
-609.215	153.159	0.196	0.273
-608.201	78.343	-0.079	-0.086
-607.186	-160.163	0.214	-0.012
-606.171	-196.162	0.230	-0.002
-605.157	-25.365	0.068	-0.041
-604.142	-132.995	0.116	-0.015
-603.128	-116.690	0.200	0.037
-602.113	69.467	0.204	-0.213
-601.098	-200.000	-0.035	0.185
-600.084	335.443	-0.093	-0.184
-599.069	-16.707	-0.111	-0.072
-598.055	800.000	0.026	-0.096
-597.040	32.246	-0.179	-0.157
-596.025	-70.336	-0.317	-0.122
-595.011	19.935	-0.085	0.070
-593.996	-131.756	-0.179	-0.024
-592.982	-62.427	-0.078	0.033
-591.967	96.858	-0.121	-0.140
-590.952	104.803	0.097	0.117
-589.938	-200.000	-0.016	-0.119
-588.923	-18.387	-0.302	-0.192
-587.909	168.317	-0.097	-0.140
-586.894	192.013	0.129	-0.198
-585.879	-72.897	0.050	0.019
-584.865	272.786	0.072	-0.129
-583.850	-10.906	-0.312	0.209
-582.836	-200.000	0.027	0.246
-581.821	-118.924	0.219	-0.039
-580.806	800.000	-0.091	0.262
-579.792	162.860	-0.149	0.212
-578.777	-17.071	-0.040	0.026
-577.763	274.430	0.053	0.095
-576.748	800.000	0.163	-0.542
-575.733	480.106	-0.049	-0.112
-574.719	-200.000	0.013	-0.068
-573.704	496.195	-0.109	0.255
-572.690	-5.702	-0.652	-0.454
-571.675	24.895	0.307	-0.259
-570.661	-200.000	-0.051	-0.410
-569.646	112.709	0.068	-0.083
-568.631	265.784	-0.371	-0.658
-567.617	-146.602	-0.345	-0.030
-566.602	800.000	0.095	0.282
-565.588	-200.000	0.054	0.245
-564.573	290.021	-0.252	0.465
-563.558	-200.000	-0.005	0.106
-562.544	34.020	0.239	-0.211
-561.529	-200.000	-0.050	0.234
-560.515	-164.891	-0.148	0.007
-559.500	-200.000	0.004	0.095
-558.485	-200.000	-0.020	0.235
-557.471	-48.311	-0.183	-0.090
-556.456	-200.000	0.022	-0.134
-555.442	35.754	0.082	0.073
-554.427	-200.000	0.032	0.205
-553.412	-83.459	-0.180	0.059
-552.398	-84.615	0.524	-0.168
-551.383	-34.945	-0.284	0.157
-550.369	-200.000	-0.000	-0.053
-549.354	-91.314	-0.064	-0.019
-548.339	-200.000	-0.047	0.259
-547.325	204.046	-0.086	-0.135
-546.310	-200.000	-0.018	-0.201
-545.296	-103.246	-0.191	-0.046
-544.281	-200.000	0.069	-0.400
-543.266	46.608	0.167	-0.157
-542.252	-200.000	0.012	0.087
-541.237	-127.483	-0.072	0.011
-540.223	-200.000	0.008	0.353
-539.208	-91.033	-0.142	0.041
-538.193	-83.089	0.142	-0.046
-537.179	800.000	0.100	0.305
-536.164	14.337	-0.174	-0.137
-535.150	-0.034	0.124	-0.089
-534.135	-200.000	-0.008	-0.434
-533.121	547.895	0.068	-0.164
-532.106	-200.000	-0.009	0.210
-531.091	230.902	0.058	-0.096
-530.077	-200.000	-0.004	0.125
-529.062	-115.658	-0.428	-0.081
-528.048	800.000	0.063	0.214
-527.033	-125.337	0.106	0.016
-526.018	-6.244	0.076	-0.053
-525.004	-88.844	0.076	0.023
-523.989	157.490	-0.136	-0.191
-522.975	-200.000	0.040	0.213
-521.960	436.006	-0.091	0.200
-520.945	-56.192	-0.115	0.052
-519.931	0.105	0.086	0.062
-518.916	-23.459	0.283	0.172
-517.902	-47.366	-0.246	0.121
-516.887	-200.000	-0.016	0.311
-515.872	51.485	-0.187	-0.180
-514.858	-200.000	0.001	0.068
-513.843	201.877	-0.288	0.450
-512.829	48.940	0.053	0.050
-511.814	-59.082	-0.109	0.048
-510.799	-28.267	-0.112	0.066
-509.785	159.347	0.133	-0.188
-508.770	109.372	0.054	-0.066
-507.756	13.128	-0.034	0.027
-506.741	-82.413	-0.362	0.119
-505.726	-200.000	-0.001	-0.022
-504.712	800.000	0.059	0.257
-503.697	-200.000	0.012	0.119
-502.683	209.681	-0.204	-0.324
-501.668	-200.000	-0.024	0.225
-500.653	99.184	0.175	0.205
-499.639	-200.000	-0.085	0.422
-498.624	105.512	0.149	-0.178
-497.610	140.974	0.129	-0.173
-496.595	-77.665	-0.252	-0.088
-495.581	-33.340	0.093	0.052
-494.566	42.162	-0.102	0.093
-493.551	-200.000	0.013	-0.525
-492.537	-38.468	0.308	-0.165
-491.522	-113.518	0.182	-0.036
-490.508	282.387	-0.224	-0.406
-489.493	-174.010	-0.073	-0.002
-488.478	44.125	-0.093	0.087
-487.464	81.016	0.044	-0.048
-486.449	-200.000	0.029	-0.211
-485.435	-200.000	-0.044	-0.275
-484.420	170.440	0.196	0.284
-483.405	-200.000	-0.001	0.185
-482.391	-200.000	0.019	0.248
-481.376	28.683	0.186	0.159
-480.362	-200.000	0.006	-0.191
-479.347	93.599	-0.128	-0.146
-478.332	-200.000	-0.074	0.334
-477.318	800.000	0.017	-0.056
-476.303	-200.000	-0.034	0.169
-475.289	289.828	0.133	0.244
-474.274	-200.000	-0.062	0.292
-473.259	71.353	-0.218	-0.229
-472.245	800.000	-0.023	-0.065
-471.230	800.000	0.079	-0.258
-470.216	441.898	0.082	-0.181
-469.201	-49.336	-0.133	-0.064
-468.186	14.329	0.144	-0.113
-467.172	241.490	-0.028	0.048
-466.157	-53.255	-0.279	0.130
-465.143	-200.000	-0.007	-0.113
-464.128	-200.000	-0.009	-0.149
-463.113	-71.163	0.219	-0.083
-462.099	-6.872	0.380	-0.261
-461.084	-22.645	0.113	0.069
-460.070	-121.551	0.159	0.027
-459.055	-149.505	-0.281	-0.023
-458.040	-200.000	-0.011	-0.059
-457.026	300.863	-0.205	-0.384
-456.011	-200.000	-0.039	0.000
-454.997	42.025	0.298	0.273
-453.982	-166.126	-0.380	-0.016
-452.968	16.937	-0.082	-0.066
-451.953	187.337	-0.103	-0.156
-450.938	-13.062	0.190	-0.125
-449.924	180.113	-0.150	0.222
-448.909	-31.915	-0.188	0.106
-447.895	-77.746	0.048	0.017
-446.880	800.000	0.054	0.202
-445.865	48.990	0.188	-0.178
-444.851	50.431	-0.105	-0.100
-443.836	-39.140	0.122	-0.065
-442.822	136.652	0.060	-0.079
-441.807	-40.270	-0.281	0.148
-440.792	-121.060	0.074	-0.013
-439.778	800.000	0.119	-0.394
-438.763	37.135	0.022	-0.020
-437.749	-93.651	0.414	-0.115
-436.734	314.948	0.115	0.219
-435.719	-188.670	0.227	0.003
-434.705	380.350	-0.205	0.425
-433.690	-26.381	0.085	-0.050
-432.676	86.124	0.214	-0.239
-431.661	-69.250	-0.274	-0.107
-430.646	-1.238	0.297	-0.212
-429.632	276.654	-0.051	0.092
-428.617	-200.000	0.016	-0.102
-427.603	-26.567	-0.130	0.077
-426.588	207.126	-0.235	0.370
-425.573	650.121	0.117	0.302
-424.559	-131.919	0.173	-0.023
-423.544	-46.878	0.182	0.090
-422.530	36.803	0.311	0.278
-421.515	57.912	0.301	0.297
-420.500	267.098	-0.058	-0.102
-419.486	218.520	0.286	0.462
-418.471	35.049	0.228	0.202
-417.457	-200.000	0.013	0.228
-416.442	385.849	-0.164	0.342
-415.428	-133.594	0.163	0.021
-414.413	452.337	0.026	-0.059
-413.398	-41.438	-0.298	-0.155
-412.384	207.574	-0.080	-0.126
-411.369	-42.134	-0.332	-0.172
-410.355	-200.000	-0.050	0.287
-409.340	-113.473	0.414	-0.082
-408.325	-19.303	0.135	0.085
-407.311	42.670	0.136	-0.125
-406.296	41.989	0.211	-0.193
-405.282	67.124	-0.263	-0.271
-404.267	-1.179	-0.129	0.092
-403.252	-103.064	-0.320	-0.077
-402.238	800.000	0.026	-0.074
-401.223	14.275	0.136	0.107
-400.209	125.949	-0.097	0.123
-399.194	-82.853	0.108	0.035
-398.179	135.261	-0.103	0.135
-397.165	-200.000	-0.005	-0.051
-396.150	148.874	0.080	0.109
-395.136	-200.000	-0.040	-0.183
-394.121	800.000	0.112	-0.339
-393.106	-200.000	-0.000	-0.241
-392.092	23.877	-0.176	0.146
-391.077	-200.000	0.031	-0.143
-390.063	-200.000	0.064	-0.321
-389.048	-50.658	-0.196	0.093
-388.033	-42.454	0.205	0.106
-387.019	-200.000	-0.021	0.222
-386.004	102.480	0.280	0.330
-384.990	181.639	0.082	0.122
-383.975	-62.757	0.124	0.052
-382.960	114.544	-0.080	0.098
-381.946	528.818	-0.090	0.214
-380.931	689.434	-0.103	0.273
-379.917	516.161	-0.136	0.320
-378.902	-168.301	0.160	-0.006
-377.888	800.000	-0.055	-0.178
-376.873	-71.043	-0.288	0.109
-375.858	196.516	0.260	0.399
-374.844	-199.361	-0.167	-0.001
-373.829	-130.627	0.205	-0.028
-372.815	-200.000	0.035	-0.182
-371.800	81.272	0.189	0.206
-370.785	-36.676	-0.146	0.079
-369.771	800.000	0.039	-0.169
-368.756	78.496	0.096	0.103
-367.742	-144.529	-0.310	0.029
-366.727	191.988	0.066	-0.100
-365.712	88.320	-0.117	-0.131
-364.698	-200.000	0.049	-0.253
-363.683	12.873	0.159	0.124
-362.669	240.819	-0.111	0.187
-361.654	-200.000	-0.000	0.283
-360.639	-112.660	-0.061	-0.012
-359.625	-37.949	-0.061	0.032
-358.610	-200.000	0.020	0.111
-357.596	-200.000	-0.007	-0.190
-356.581	268.292	0.272	-0.480
-355.566	274.750	0.111	-0.197
-354.552	-78.122	-0.199	0.069
-353.537	-123.059	-0.067	-0.011
-352.523	-25.079	0.276	-0.165
-351.508	45.852	0.207	-0.193
-350.493	-25.602	0.244	-0.145
-349.479	-35.580	-0.348	0.190
-348.464	800.000	-0.046	0.130
-347.450	184.516	0.238	-0.355
-346.435	-7.853	0.134	-0.091
-345.420	108.973	0.109	-0.132
-344.406	-200.000	-0.021	-0.218
-343.391	-44.093	-0.171	0.086
-342.377	-200.000	-0.002	0.278
-341.362	125.957	-0.104	0.133
-340.348	-62.665	-0.296	-0.124
-339.333	-68.596	0.104	-0.040
-338.318	72.789	-0.088	-0.092
-337.304	-9.137	0.257	0.173
-336.289	-95.738	-0.026	0.007
-335.275	-49.901	0.081	0.039
-334.260	-149.653	-0.137	-0.011
-333.245	-22.853	0.084	-0.051
-332.231	-200.000	0.008	-0.056
-331.216	800.000	-0.017	-0.071
-330.202	-97.267	0.267	0.070
-329.187	214.732	-0.033	-0.053
-328.172	-42.028	-0.084	0.044
-327.158	-41.866	-0.221	-0.114
-326.143	-14.214	-0.029	0.019
-325.129	120.677	-0.065	0.081
-324.114	-137.680	0.252	-0.028
-323.099	-104.467	0.239	0.056
-322.085	73.480	-0.212	0.224
-321.070	-200.000	-0.021	-0.182
-320.056	-27.555	0.253	0.148
-319.041	-18.680	-0.525	0.329
-318.026	800.000	-0.047	-0.132
-317.012	310.640	0.049	-0.093
-315.997	-12.496	-0.297	-0.195
-314.983	172.588	-0.205	-0.297
-313.968	484.041	0.151	-0.346
-312.953	-134.531	-0.191	0.024
-311.939	-200.000	-0.051	0.236
-310.924	-138.668	-0.175	-0.019
-309.910	183.079	-0.096	-0.142
-308.895	-74.575	-0.159	0.058
-307.880	63.001	0.127	-0.128
-306.866	15.688	0.171	0.135
-305.851	-108.418	-0.077	-0.017
-304.837	-12.661	0.279	0.183
-303.822	-51.023	-0.221	-0.104
-302.807	-129.321	0.109	0.015
-301.793	-80.352	-0.163	0.055
-300.778	177.137	0.095	-0.139
-299.764	800.000	0.064	-0.253
-298.749	-200.000	-0.349	-0.002
-297.735	67.789	0.026	0.027
-296.720	284.017	0.109	-0.197
-295.705	-20.361	-0.086	-0.053
-294.691	-151.650	0.205	-0.015
-293.676	389.290	0.128	0.266
-292.662	-25.214	0.377	0.224
-291.647	53.235	0.040	0.039
-290.632	-112.681	0.309	0.062
-289.618	-147.564	-0.237	0.020
-288.603	-172.195	-0.259	0.008
-287.589	2.498	0.100	-0.073
-286.574	-29.412	-0.335	-0.192
-285.559	-102.590	0.192	0.046
-284.545	800.000	0.042	0.178
-283.530	-35.103	0.236	0.129
-282.516	112.634	-0.136	-0.165
-281.501	-200.000	0.006	-0.174
-280.486	-8.016	-0.370	-0.251
-279.472	-28.663	0.101	0.059
-278.457	240.221	-0.030	-0.050
-277.443	343.957	-0.109	0.215
-276.428	-140.160	0.162	0.017
-275.413	-33.206	-0.144	-0.080
-274.399	-81.456	-0.156	0.052
-273.384	-185.107	0.236	-0.004
-272.370	-14.236	-0.166	-0.107
-271.355	-61.960	0.172	-0.072
-270.340	-53.101	0.159	-0.073
-269.326	11.158	-0.232	-0.178
-268.311	-39.684	-0.194	0.102
-267.297	-78.696	0.051	-0.017
-266.282	312.049	0.090	-0.170
-265.267	-15.093	0.076	-0.049
-264.253	11.795	0.054	0.041
-263.238	235.223	0.125	-0.207
-262.224	-78.115	-0.263	-0.091
-261.209	322.000	0.117	-0.223
-260.195	-200.000	0.056	-0.300
-259.180	-80.196	0.200	-0.067
-258.165	-200.000	-0.005	-0.163
-257.151	276.643	-0.048	-0.086
-256.136	5.009	-0.147	-0.108
-255.122	219.685	0.230	0.369
-254.107	19.156	-0.392	-0.316
-253.092	800.000	0.095	0.355
-252.078	-46.346	-0.173	0.085
-251.063	800.000	-0.076	-0.243
-250.049	-200.000	-0.028	0.143
-249.034	-100.121	0.174	0.043
-248.019	-122.863	0.089	-0.014
-247.005	136.298	0.123	0.161
-245.990	-200.000	-0.020	0.174
-244.976	196.697	0.090	0.137
-243.961	-200.000	0.023	-0.404
-242.946	-94.517	0.048	0.013
-241.932	233.149	0.264	0.435
-240.917	-200.000	0.008	0.167
-239.903	-200.000	0.028	0.221
-238.888	-116.650	-0.133	0.024
-237.873	-110.847	-0.137	-0.028
-236.859	-200.000	-0.004	-0.032
-235.844	-200.000	0.026	0.256
-234.830	564.082	-0.005	-0.013
-233.815	54.251	-0.154	-0.149
-232.800	134.515	-0.162	0.210
-231.786	133.552	0.278	-0.360
-230.771	389.325	-0.099	-0.206
-229.757	652.001	-0.134	0.344
-228.742	-99.457	0.142	0.036
-227.727	-99.051	0.273	-0.069
-226.713	-56.590	0.438	-0.194
-225.698	-146.602	-0.062	0.005
-224.684	317.042	-0.084	-0.159
-223.669	-101.553	-0.113	0.028
-222.655	-125.064	0.319	-0.049
-221.640	-200.000	0.011	-0.096
-220.625	41.576	0.026	-0.024
-219.611	40.076	-0.168	-0.151
-218.596	-41.620	0.149	0.077
-217.582	111.680	0.137	-0.166
-216.567	-138.701	0.079	-0.009
-215.552	444.943	0.196	0.430
-214.538	-149.346	-0.128	-0.010
-213.523	-31.049	0.318	-0.180
-212.509	107.379	0.192	-0.229
-211.494	-154.043	-0.256	0.017
-210.479	236.890	0.123	-0.204
-209.465	-51.721	-0.210	0.098
-208.450	133.270	0.164	0.212
-207.436	206.298	-0.103	-0.160
-206.421	-30.440	0.359	-0.204
-205.406	800.000	-0.043	0.175
-204.392	753.746	-0.130	-0.351
-203.377	-87.341	-0.302	0.092
-202.363	11.024	0.078	-0.060
-201.348	800.000	-0.036	-0.129
-200.333	-200.000	0.011	0.152
-199.319	-200.000	-0.005	0.276
-198.304	800.000	0.086	0.273
-197.290	-200.000	-0.012	0.329
-196.275	154.722	0.149	0.205
-195.260	578.542	0.092	-0.224
-194.246	-200.000	0.023	-0.271
-193.231	-16.616	0.256	-0.162
-192.217	13.641	-0.259	0.201
-191.202	-78.238	-0.311	0.107
-190.187	-200.000	-0.003	-0.058
-189.173	237.600	-0.097	0.161
-188.158	-131.682	0.237	0.031
-187.144	-140.149	0.323	-0.034
-186.129	769.484	0.016	0.043
-185.114	251.710	0.090	-0.154
-184.100	-145.094	0.232	-0.021
-183.085	21.365	-0.172	0.140
-182.071	-200.000	-0.001	-0.059
-181.056	-200.000	0.008	0.307
-180.042	343.730	-0.087	-0.170
-179.027	-200.000	-0.017	-0.110
-178.012	-61.282	-0.180	0.076
-176.998	-100.457	0.154	0.038
-175.983	4.882	-0.151	0.111
-174.969	-77.390	-0.277	-0.096
-173.954	-16.876	-0.155	-0.098
-172.939	-156.859	-0.071	0.004
-171.925	277.698	0.132	0.235
-170.910	-200.000	-0.001	0.028
-169.896	-200.000	0.003	-0.076
-168.881	-178.340	0.214	-0.005
-167.866	74.495	-0.102	0.107
-166.852	-200.000	-0.019	-0.329
-165.837	16.794	0.181	-0.143
-164.823	-109.794	-0.283	0.059
-163.808	-44.038	0.092	0.046
-162.793	800.000	0.014	-0.042
-161.779	800.000	-0.071	0.280
-160.764	-95.516	0.619	-0.166
-159.750	27.635	-0.334	-0.281
-158.735	271.013	-0.012	-0.022
-157.720	37.457	0.103	0.092
-156.706	-154.204	-0.140	-0.009
-155.691	485.469	-0.051	0.115
-154.677	309.949	0.073	0.136
-153.662	-144.708	0.291	-0.027
-152.647	-8.902	0.197	0.132
-151.633	-200.000	0.025	-0.216
-150.618	-200.000	-0.020	0.147
-149.604	-200.000	0.002	0.032
-148.589	-66.936	0.168	-0.066
-147.574	-200.000	-0.052	0.283
-146.560	304.585	-0.207	0.384
-145.545	-12.004	0.171	0.112
-144.531	800.000	-0.029	-0.110
-143.516	114.237	-0.184	0.224
-142.502	16.780	-0.212	0.168
-141.487	-107.870	-0.104	0.023
-140.472	-84.656	0.196	0.062
-139.458	132.096	0.278	-0.358
-138.443	253.875	0.073	-0.124
-137.429	-200.000	0.022	0.124
-136.414	-82.673	0.170	-0.055
-135.399	-200.000	-0.006	0.275
-134.385	800.000	0.097	0.325
-133.370	46.410	-0.136	0.126
-132.356	90.345	0.063	-0.070
-131.341	341.687	0.051	-0.099
-130.326	800.000	-0.043	0.121
-129.312	243.562	-0.106	0.177
-128.297	-200.000	0.013	-0.213
-127.283	-86.461	0.239	0.073
-126.268	800.000	0.054	0.226
-125.253	-25.527	0.261	0.154
-124.239	662.794	-0.033	-0.084
-123.224	-161.491	0.098	0.005
-122.210	-158.461	0.282	-0.016
