DTS Sentinel unit serial number:	SN413079Multiplexer serial number:	ORYXHardware model number:	OX4-SRSoftware version number:	ORYX F/W v4.00 Oryx Data Collector v3.7.2.0data status	okinstallation	princeton_trtdifferential loss correction	single-endedforward channel	channel 1reverse channel	N/Adate	2019/09/18time	16:46:35forward acquisition time	60.00reverse acquisition time	0.00gamma	496.2192k internal	0.2292k external	0.2292temperature offset calibration	0.9994default loss term (dB/km)	0.3790temperature slope calibration	1.0000multiplexer offset coefficient	1.0000multiplexer slope coefficient	1.0000fibre end	0.00T internal ref (°C)	39.92T ext. ref 1 (°C)	0.85T ext. ref 2 (°C)	35.85length (m)	temperature (°C)	Stokes	anti-Stokes-747.200	800.000	-0.077	-0.260
-746.185	800.000	-0.127	0.502
-745.171	-109.790	-0.111	-0.024
-744.156	800.000	-0.061	-0.184
-743.142	-105.060	0.053	-0.012
-742.127	537.920	-0.080	0.196
-741.112	-171.918	0.120	0.004
-740.098	-200.000	0.007	0.169
-739.083	-105.896	0.443	0.102
-738.069	77.999	0.052	0.057
-737.054	139.079	0.068	0.091
-736.039	-64.646	-0.075	-0.031
-735.025	166.562	-0.160	0.231
-734.010	408.895	0.118	-0.255
-732.996	-91.755	-0.095	-0.028
-731.981	-7.196	-0.319	-0.221
-730.966	-200.000	0.000	-0.097
-729.952	-44.020	-0.044	0.022
-728.937	800.000	-0.027	0.095
-727.923	64.761	0.156	0.161
-726.908	216.112	0.119	0.193
-725.894	-122.806	-0.077	0.013
-724.879	104.463	0.051	-0.061
-723.864	-161.757	-0.274	0.014
-722.850	156.163	-0.056	-0.080
-721.835	164.168	-0.141	0.204
-720.821	12.633	0.167	-0.132
-719.806	87.222	-0.199	0.225
-718.791	294.541	-0.018	-0.034
-717.777	-137.552	-0.446	-0.051
-716.762	800.000	-0.070	-0.293
-715.748	-104.529	0.111	-0.026
-714.733	-143.257	-0.209	-0.021
-713.718	800.000	-0.015	-0.064
-712.704	203.969	0.110	-0.174
-711.689	-47.410	-0.183	0.091
-710.675	68.778	-0.271	-0.284
-709.660	294.768	-0.120	-0.225
-708.645	800.000	0.081	-0.353
-707.631	142.450	-0.024	-0.032
-706.616	-57.609	-0.228	-0.102
-705.602	-200.000	0.028	0.231
-704.587	222.922	0.119	0.196
-703.572	595.952	0.067	0.171
-702.558	-72.620	0.300	0.113
-701.543	-68.354	-0.089	-0.035
-700.529	367.751	0.041	0.085
-699.514	-33.046	-0.139	-0.079
-698.499	-36.484	0.266	-0.146
-697.485	344.033	-0.091	-0.182
-696.470	-8.672	0.197	0.135
-695.456	-200.000	-0.015	-0.216
-694.441	-102.259	0.263	-0.065
-693.426	-68.102	-0.213	-0.085
-692.412	-200.000	-0.028	0.271
-691.397	222.159	0.100	0.165
-690.383	295.430	-0.091	-0.171
-689.368	142.958	0.061	0.083
-688.354	-118.971	0.099	-0.018
-687.339	451.619	0.054	0.122
-686.324	609.037	-0.015	0.037
-685.310	-104.606	0.389	0.092
-684.295	733.116	-0.114	-0.311
-683.281	-200.000	-0.086	0.506
-682.266	-200.000	-0.005	-0.051
-681.251	-88.978	0.062	0.019
-680.237	-26.991	-0.226	0.135
-679.222	800.000	0.063	0.200
-678.208	-26.411	0.181	-0.109
-677.193	493.584	0.210	-0.492
-676.178	485.264	-0.104	-0.241
-675.164	800.000	-0.060	-0.260
-674.149	-163.456	-0.303	0.015
-673.135	-145.458	0.217	0.020
-672.120	800.000	0.104	-0.371
-671.105	800.000	-0.033	0.103
-670.091	127.689	0.033	0.043
-669.076	-7.449	-0.315	0.218
-668.062	-121.619	0.301	0.051
-667.047	-200.000	0.042	0.282
-666.032	-200.000	-0.042	0.223
-665.018	-40.024	0.053	0.028
-664.003	279.585	0.149	0.272
-662.989	632.919	-0.082	0.213
-661.974	-136.868	-0.251	0.029
-660.959	246.374	-0.149	0.256
-659.945	86.873	-0.105	0.119
-658.930	-98.531	-0.069	-0.018
-657.916	250.066	-0.094	-0.163
-656.901	-105.183	-0.316	-0.074
-655.886	351.929	-0.042	0.085
-654.872	-200.000	-0.053	-0.361
-653.857	-55.063	0.060	-0.027
-652.843	-200.000	-0.005	-0.098
-651.828	335.057	0.119	-0.236
-650.814	-142.465	-0.476	-0.048
-649.799	-200.000	-0.037	0.234
-648.784	-200.000	0.019	-0.253
-647.770	-200.000	0.037	-0.347
-646.755	156.449	0.129	0.182
-645.741	166.986	0.058	0.084
-644.726	800.000	0.006	0.023
-643.711	-200.000	-0.061	-0.324
-642.697	-57.985	-0.027	0.012
-641.682	97.615	0.081	0.095
-640.668	382.222	-0.119	0.250
-639.653	-200.000	0.071	-0.532
-638.638	287.779	0.189	-0.349
-637.624	631.135	0.224	0.577
-636.609	800.000	0.069	0.250
-635.595	-76.773	-0.060	0.022
-634.580	-43.752	-0.072	-0.037
-633.565	344.700	-0.033	-0.067
-632.551	-200.000	-0.060	-0.279
-631.536	18.787	-0.123	-0.101
-630.522	-200.000	-0.023	-0.170
-629.507	800.000	-0.155	-0.578
-628.492	223.936	-0.059	-0.098
-627.478	-123.552	-0.392	-0.063
-626.463	302.147	-0.056	0.106
-625.449	-55.312	0.191	-0.087
-624.434	-108.906	0.235	0.051
-623.419	-200.000	0.012	-0.204
-622.405	800.000	0.090	0.358
-621.390	-30.338	-0.202	-0.117
-620.376	37.907	0.153	0.138
-619.361	365.706	-0.050	0.103
-618.346	96.105	-0.235	-0.274
-617.332	373.850	-0.174	-0.360
-616.317	-64.113	0.152	0.063
-615.303	718.787	0.129	0.349
-614.288	-85.922	0.102	-0.032
-613.273	-31.337	0.422	-0.242
-612.259	239.807	-0.093	0.157
-611.244	-121.030	-0.205	0.035
-610.230	-200.000	0.020	0.104
-609.215	800.000	-0.042	0.144
-608.201	78.696	0.237	-0.258
-607.186	-13.172	-0.032	0.021
-606.171	-200.000	0.015	-0.120
-605.157	-184.530	0.172	-0.003
-604.142	-92.577	0.297	-0.085
-603.128	-55.596	0.064	-0.029
-602.113	-200.000	0.040	0.319
-601.098	257.135	0.076	-0.133
-600.084	120.682	0.083	-0.105
-599.069	41.359	-0.225	-0.207
-598.055	-13.423	-0.251	0.166
-597.040	-5.852	-0.113	0.079
-596.025	-200.000	-0.039	-0.225
-595.011	52.185	-0.215	0.208
-593.996	325.829	0.100	-0.194
-592.982	-150.179	-0.336	-0.026
-591.967	800.000	-0.075	-0.237
-590.952	-103.952	-0.084	0.020
-589.938	-200.000	-0.008	0.098
-588.923	-148.146	-0.431	-0.036
-587.909	-160.779	0.265	0.014
-586.894	10.508	-0.246	-0.190
-585.879	24.863	0.146	0.123
-584.865	-200.000	0.032	-0.388
-583.850	-46.022	-0.306	-0.153
-582.836	46.018	0.040	-0.038
-581.821	4.969	-0.164	-0.122
-580.806	-200.000	0.005	0.232
-579.792	-34.314	-0.186	0.104
-578.777	-46.729	-0.393	-0.196
-577.763	414.535	-0.066	0.142
-576.748	141.789	0.067	-0.090
-575.733	-70.236	-0.063	-0.024
-574.719	-130.861	0.507	0.069
-573.704	-82.915	-0.273	0.090
-572.690	134.589	-0.089	0.118
-571.675	-16.605	-0.221	0.142
-570.661	-37.535	0.383	0.208
-569.646	220.150	0.118	0.193
-568.631	-11.651	0.193	0.129
-567.617	-13.553	-0.270	-0.178
-566.602	135.300	0.059	-0.078
-565.588	199.524	0.070	0.109
-564.573	386.706	0.124	0.260
-563.558	144.912	-0.098	0.133
-562.544	263.645	0.045	-0.079
-561.529	-200.000	-0.024	0.268
-560.515	-200.000	0.042	-0.278
-559.500	-31.831	0.027	0.015
-558.485	-53.207	-0.219	-0.102
-557.471	16.006	-0.193	0.155
-556.456	-25.246	-0.122	-0.073
-555.442	-200.000	-0.022	-0.208
-554.427	586.773	-0.117	-0.292
-553.412	-200.000	-0.043	0.265
-552.398	-200.000	-0.021	-0.138
-551.383	259.744	0.190	0.333
-550.369	336.169	-0.104	-0.205
-549.354	134.093	0.096	0.127
-548.339	60.111	0.182	-0.182
-547.325	284.966	-0.096	0.175
-546.310	-200.000	0.014	-0.183
-545.296	-200.000	0.008	0.093
-544.281	-44.000	0.350	-0.179
-543.266	103.165	0.104	0.124
-542.252	800.000	0.070	-0.297
-541.237	-91.367	0.098	0.028
-540.223	-107.151	-0.600	-0.134
-539.208	-84.891	-0.161	-0.051
-538.193	-200.000	-0.011	0.248
-537.179	-200.000	0.006	-0.032
-536.164	-45.856	0.325	0.163
-535.150	547.913	-0.047	-0.113
-534.135	104.701	0.161	-0.193
-533.121	-144.958	-0.345	0.032
-532.106	136.252	-0.033	0.043
-531.091	122.531	0.075	-0.096
-530.077	281.196	-0.070	0.127
-529.062	313.467	0.134	0.256
-528.048	-55.934	-0.442	0.200
-527.033	-39.178	0.160	0.085
-526.018	-70.016	-0.339	0.131
-525.004	312.868	-0.081	0.154
-523.989	-75.527	-0.036	-0.013
-522.975	94.669	-0.157	-0.181
-521.960	800.000	-0.129	0.474
-520.945	-200.000	-0.034	0.000
-519.931	-200.000	0.053	-0.502
-518.916	117.869	0.238	0.298
-517.902	111.394	-0.124	0.152
-516.887	-200.000	-0.000	0.186
-515.872	-89.871	-0.416	0.123
-514.858	272.487	0.097	-0.174
-513.843	229.218	0.032	0.053
-512.829	-80.518	-0.393	0.133
-511.814	-38.382	0.368	0.198
-510.799	771.022	-0.091	0.252
-509.785	-200.000	0.073	0.341
-508.770	88.578	0.099	0.112
-507.756	-55.777	0.138	-0.063
-506.741	-200.000	-0.020	-0.159
-505.726	45.835	0.189	-0.177
-504.712	443.727	-0.045	-0.101
-503.697	72.654	0.153	0.162
-502.683	6.397	-0.340	-0.256
-501.668	-123.839	0.405	0.065
-500.653	-102.908	0.128	-0.031
-499.639	-76.222	0.214	0.077
-498.624	-111.680	-0.157	0.032
-497.610	205.791	-0.155	-0.244
-496.595	31.916	-0.082	0.071
-495.581	73.220	-0.135	0.144
-494.566	-92.824	-0.160	-0.045
-493.551	131.809	0.056	-0.073
-492.537	54.571	-0.225	0.220
-491.522	496.688	0.105	-0.244
-490.508	66.053	-0.195	0.200
-489.493	215.105	-0.092	0.148
-488.478	-0.003	-0.129	0.093
-487.464	-200.000	0.033	0.550
-486.449	-13.048	0.267	-0.176
-485.435	502.582	0.036	-0.085
-484.420	84.624	-0.124	0.138
-483.405	-66.945	-0.239	-0.096
-482.391	-43.228	0.303	-0.156
-481.376	-135.939	0.205	0.024
-480.362	-107.234	0.063	-0.014
-479.347	-200.000	0.009	-0.193
-478.332	-133.001	-0.249	-0.032
-477.318	102.655	-0.200	0.238
-476.303	764.121	0.063	0.173
-475.289	-14.548	0.268	0.174
-474.274	8.836	0.188	0.144
-473.259	-106.115	0.255	-0.058
-472.245	800.000	0.067	0.261
-471.230	-200.000	0.010	-0.146
-470.216	-200.000	0.023	-0.207
-469.201	-96.492	0.135	-0.036
-468.186	-70.356	0.343	0.132
-467.172	100.845	-0.106	0.125
-466.157	-200.000	0.073	-0.386
-465.143	11.067	-0.076	0.059
-464.128	-13.616	0.299	-0.196
-463.113	800.000	0.118	-0.337
-462.099	39.090	-0.169	-0.153
-461.084	4.392	0.405	0.301
-460.070	800.000	-0.027	-0.112
-459.055	800.000	-0.075	-0.254
-458.040	-100.773	0.424	0.106
-457.026	-86.877	0.166	-0.051
-456.011	-27.103	0.264	-0.156
-454.997	-200.000	0.025	-0.177
-453.982	-9.393	-0.035	0.024
-452.968	85.201	-0.086	0.096
-451.953	113.968	0.168	0.207
-450.938	-200.000	0.041	-0.244
-449.924	-80.043	0.199	-0.068
-448.909	344.439	-0.082	0.163
-447.895	-75.524	-0.041	-0.015
-446.880	45.483	0.174	0.162
-445.865	-146.740	0.431	0.038
-444.851	230.559	-0.049	0.081
-443.836	-82.389	0.110	0.036
-442.822	-200.000	0.030	-0.144
-441.807	-66.957	-0.195	0.078
-440.792	-158.860	-0.240	-0.014
-439.778	-128.033	-0.504	0.073
-438.763	-200.000	0.057	0.267
-437.749	203.396	0.077	0.120
-436.734	-119.325	-0.292	0.051
-435.719	-40.916	0.244	0.128
-434.705	-105.691	0.356	-0.082
-433.690	37.258	-0.127	0.114
-432.676	-106.540	0.272	-0.061
-431.661	140.250	-0.161	-0.215
-430.646	-97.623	0.375	0.098
-429.632	-200.000	0.011	-0.368
-428.617	70.408	-0.155	0.161
-427.603	-188.526	0.141	-0.002
-426.588	-200.000	0.063	0.311
-425.573	-134.058	0.259	-0.032
-424.559	113.197	-0.133	0.163
-423.544	-200.000	0.082	-0.362
-422.530	371.394	0.187	-0.383
-421.515	-99.670	0.258	-0.065
-420.500	800.000	-0.045	0.172
-419.486	230.813	0.142	-0.234
-418.471	-119.408	-0.234	-0.041
-417.457	-200.000	0.036	-0.191
-416.442	-103.071	-0.264	0.063
-415.428	144.745	-0.039	-0.052
-414.413	-122.092	-0.152	-0.025
-413.398	-73.340	-0.152	0.056
-412.384	120.756	0.212	-0.267
-411.369	-200.000	0.018	-0.083
-410.355	4.911	-0.417	-0.310
-409.340	59.788	0.175	-0.175
-408.325	-70.715	-0.335	-0.128
-407.311	-152.099	-0.235	0.017
-406.296	-114.430	0.295	-0.057
-405.282	67.916	-0.162	-0.167
-404.267	778.030	0.097	0.267
-403.252	22.893	0.112	-0.093
-402.238	-62.022	-0.219	-0.092
-401.223	18.313	0.323	-0.261
-400.209	-118.036	0.128	-0.023
-399.194	800.000	0.016	0.067
-398.179	142.907	-0.012	-0.016
-397.165	72.080	0.104	0.110
-396.150	-87.824	-0.090	0.027
-395.136	86.281	0.121	-0.135
-394.121	-200.000	0.031	0.137
-393.106	800.000	0.040	-0.154
-392.092	-200.000	-0.004	0.044
-391.077	-146.593	-0.198	0.017
-390.063	800.000	-0.040	0.137
-389.048	135.228	-0.114	0.149
-388.033	-200.000	0.042	0.345
-387.019	800.000	0.110	-0.453
-386.004	-133.632	-0.374	0.047
-384.990	69.283	0.100	0.104
-383.975	-128.570	-0.097	0.014
-382.960	-36.928	-0.307	-0.166
-381.946	-98.007	-0.163	-0.042
-380.931	382.940	-0.112	-0.233
-379.917	674.268	-0.032	-0.084
-378.902	210.353	0.055	0.087
-377.888	-200.000	0.009	-0.129
-376.873	139.642	-0.184	-0.244
-375.858	-55.571	0.402	0.182
-374.844	-46.876	0.258	-0.127
-373.829	114.410	-0.224	-0.275
-372.815	-169.502	-0.174	0.006
-371.800	228.244	-0.121	-0.199
-370.785	-6.384	-0.225	-0.155
-369.771	-65.574	-0.332	0.134
-368.756	-200.000	0.001	0.083
-367.742	86.974	-0.142	-0.158
-366.727	-200.000	0.054	-0.310
-365.712	-200.000	0.033	0.250
-364.698	-74.071	-0.574	0.210
-363.683	19.754	-0.228	-0.185
-362.669	-23.800	-0.154	0.093
-361.654	-29.407	0.110	-0.064
-360.639	-191.265	-0.172	-0.002
-359.625	-104.158	-0.085	-0.020
-358.610	103.518	0.087	0.103
-357.596	-66.879	0.291	0.116
-356.581	-15.368	0.195	-0.126
-355.566	-71.038	0.220	0.083
-354.552	-155.969	0.200	-0.013
-353.537	-1.262	-0.157	-0.112
-352.523	-105.974	0.370	0.084
-351.508	-70.562	-0.181	0.069
-350.493	-159.791	-0.262	-0.015
-349.479	-182.519	0.129	-0.002
-348.464	322.462	-0.127	-0.244
-347.450	187.122	-0.120	-0.181
-346.435	-3.615	-0.082	-0.057
-345.420	491.036	-0.024	-0.055
-344.406	-40.853	-0.029	0.015
-343.391	611.733	-0.030	-0.076
-342.377	-122.104	0.210	0.035
-341.362	-106.112	0.148	0.034
-340.348	-200.000	-0.007	0.129
-339.333	-200.000	-0.000	-0.042
-338.318	172.174	-0.209	-0.303
-337.304	12.294	-0.210	0.163
-336.289	-200.000	-0.060	0.268
-335.275	636.794	-0.026	-0.065
-334.260	-68.156	0.207	0.081
-333.245	277.027	-0.018	-0.033
-332.231	249.358	0.076	0.129
-331.216	59.476	0.189	0.188
-330.202	307.828	-0.108	0.204
-329.187	168.967	0.104	-0.149
-328.172	-65.681	0.016	0.007
-327.158	-51.009	-0.251	0.119
-326.143	39.435	-0.139	-0.126
-325.129	192.719	-0.207	-0.315
-324.114	97.204	-0.077	0.089
-323.099	-173.278	0.243	-0.007
-322.085	-186.376	0.092	-0.001
-321.070	800.000	-0.083	0.250
-320.056	-56.632	0.188	0.084
-319.041	461.802	-0.057	-0.128
-318.026	-200.000	-0.068	-0.339
-317.012	-200.000	-0.021	0.173
-315.997	-97.338	-0.107	0.028
-314.983	-142.735	-0.303	-0.030
-313.968	10.882	0.192	-0.147
-312.953	800.000	0.127	0.373
-311.939	28.216	-0.089	-0.076
-310.924	-16.371	0.026	-0.017
-309.910	124.421	0.022	0.028
-308.895	800.000	-0.019	0.078
-307.880	-25.393	0.211	0.126
-306.866	439.541	0.138	-0.304
-305.851	-103.833	0.452	-0.106
-304.837	447.227	-0.082	0.181
-303.822	-137.904	0.205	-0.023
-302.807	-3.459	0.171	0.120
-301.793	-200.000	0.043	0.245
-300.778	-4.717	0.043	0.030
-299.764	-137.521	0.196	0.022
-298.749	-15.249	-0.385	0.248
-297.735	-43.931	0.313	-0.159
-296.720	63.930	0.213	-0.215
-295.705	-200.000	-0.005	-0.046
-294.691	-32.787	0.168	0.094
-293.676	0.666	0.091	-0.066
-292.662	-200.000	0.029	0.135
-291.647	146.449	-0.125	-0.169
-290.632	-200.000	0.002	0.117
-289.618	77.373	-0.149	-0.160
-288.603	-17.949	-0.440	0.277
-287.589	-1.664	-0.135	0.096
-286.574	-57.488	0.143	-0.063
-285.559	-200.000	0.029	0.233
-284.545	-121.830	-0.108	-0.018
-283.530	-200.000	-0.042	0.302
-282.516	-98.694	0.313	0.080
-281.501	-118.904	0.106	0.019
-280.486	-200.000	0.034	0.232
-279.472	221.123	-0.280	0.452
-278.457	-60.427	0.469	0.200
-277.443	103.975	0.088	0.103
-276.428	-127.381	0.286	0.042
-275.413	-68.958	-0.303	-0.117
-274.399	588.330	0.149	0.368
-273.384	27.760	0.075	0.063
-272.370	-200.000	-0.064	0.298
-271.355	800.000	-0.013	-0.053
-270.340	77.655	0.140	-0.150
-269.326	-24.959	0.222	0.133
-268.311	440.266	-0.115	-0.253
-267.297	202.962	0.252	0.392
-266.282	-61.146	0.188	-0.080
-265.267	27.255	-0.255	-0.215
-264.253	-200.000	0.030	0.339
-263.238	8.693	0.522	0.395
-262.224	-200.000	0.004	0.255
-261.209	24.145	0.275	-0.228
-260.195	46.969	0.261	-0.244
-259.180	225.405	0.109	-0.177
-258.165	325.549	0.047	-0.090
-257.151	87.448	-0.155	-0.172
-256.136	-96.606	-0.208	-0.055
-255.122	-42.238	-0.274	0.140
-254.107	-155.023	-0.318	-0.021
-253.092	376.544	-0.152	-0.312
-252.078	-200.000	-0.002	-0.179
-251.063	-200.000	-0.063	0.357
-250.049	446.631	0.151	0.334
-249.034	-86.102	0.469	0.145
-248.019	378.570	-0.144	0.297
-247.005	-200.000	0.033	-0.205
-245.990	-150.832	0.279	-0.021
-244.976	-200.000	-0.020	-0.146
-243.961	-200.000	0.007	-0.074
-242.946	800.000	0.062	-0.196
-241.932	246.371	0.093	0.157
-240.917	14.422	-0.060	0.047
-239.903	25.482	-0.125	0.104
-238.888	-200.000	-0.003	-0.023
-237.873	186.143	-0.151	-0.226
-236.859	410.257	-0.033	-0.070
-235.844	24.027	0.129	-0.107
-234.830	-122.696	0.329	0.053
-233.815	-200.000	-0.014	-0.215
-232.800	-91.254	-0.093	-0.027
-231.786	61.347	0.333	0.332
-230.771	184.055	-0.135	0.201
-229.757	-58.507	-0.074	0.032
-228.742	484.000	0.052	0.120
-227.727	103.792	-0.286	0.336
-226.713	-90.418	-0.123	0.036
-225.698	531.306	0.075	0.179
-224.684	0.394	-0.348	0.249
-223.669	-83.253	0.141	-0.045
-222.655	36.119	-0.113	0.100
-221.640	-200.000	0.015	-0.237
-220.625	367.884	0.128	0.260
-219.611	800.000	-0.080	-0.344
-218.596	-103.297	-0.414	-0.098
-217.582	800.000	0.074	0.272
-216.567	800.000	0.047	-0.136
-215.552	-54.118	-0.232	-0.106
-214.538	-200.000	0.056	-0.277
-213.523	-105.971	-0.300	-0.068
-212.509	800.000	-0.079	-0.278
-211.494	157.398	0.081	0.113
-210.479	-124.858	-0.021	-0.003
-209.465	-200.000	0.029	0.133
-208.450	259.041	-0.072	-0.125
-207.436	-106.133	-0.254	0.057
-206.421	-6.498	0.062	-0.042
-205.406	-180.653	0.341	-0.007
-204.392	-27.680	-0.404	-0.235
-203.377	-200.000	0.005	-0.330
-202.363	-27.958	-0.044	-0.025
-201.348	-131.271	-0.309	-0.041
-200.333	-115.245	0.339	0.064
-199.319	-66.408	-0.093	0.037
-198.304	-200.000	0.028	-0.389
-197.290	-200.000	0.033	-0.196
-196.275	268.416	-0.063	0.110
-195.260	264.220	0.082	0.143
-194.246	13.109	-0.241	0.187
-193.231	-200.000	-0.002	0.044
-192.217	-98.328	-0.040	0.010
-191.202	800.000	0.055	0.221
-190.187	99.119	-0.103	0.119
-189.173	800.000	0.097	-0.305
-188.158	73.296	0.121	0.127
-187.144	295.932	0.051	0.094
-186.129	71.373	-0.099	0.103
-185.114	66.780	0.377	-0.384
-184.100	-87.610	0.042	0.013
-183.085	-29.167	-0.130	0.075
-182.071	91.039	0.076	0.085
-181.056	-200.000	-0.012	-0.198
-180.042	-122.502	0.262	0.043
-179.027	212.805	0.055	-0.087
-178.012	121.219	-0.081	-0.101
-176.998	159.558	-0.200	0.278
-175.983	-134.451	-0.224	0.027
-174.969	-200.000	-0.037	-0.361
-173.954	-34.501	-0.103	-0.056
-172.939	-175.534	-0.109	0.003
-171.925	800.000	0.039	0.141
-170.910	581.859	0.087	0.214
-169.896	-41.051	-0.232	0.120
-168.881	-200.000	0.000	-0.130
-167.866	-108.429	-0.188	-0.041
-166.852	438.541	0.099	0.215
-165.837	800.000	0.041	-0.160
-164.823	85.416	-0.189	0.208
-163.808	-200.000	0.021	-0.184
-162.793	-200.000	0.184	0.000
-161.779	36.894	0.142	0.126
-160.764	-167.206	0.165	0.007
-159.750	23.210	-0.236	-0.194
-158.735	35.413	0.096	-0.084
-157.720	-200.000	-0.079	0.667
-156.706	171.609	0.061	0.087
-155.691	-200.000	-0.031	-0.201
-154.677	-22.891	0.374	-0.226
-153.662	-110.597	-0.054	-0.011
-152.647	-200.000	0.008	-0.076
-151.633	-55.061	-0.126	-0.057
-150.618	-3.027	-0.154	0.108
-149.604	-79.920	0.273	0.092
-148.589	344.004	-0.061	0.120
-147.574	-1.511	0.285	0.201
-146.560	-7.729	0.225	0.152
-145.545	98.118	0.166	-0.191
-144.531	-101.312	0.385	-0.094
-143.516	800.000	0.074	0.263
-142.502	800.000	0.084	-0.302
-141.487	-98.929	-0.067	-0.017
-140.472	213.197	-0.119	0.188
-139.458	216.415	-0.048	0.076
-138.443	-115.180	0.378	-0.072
-137.429	40.501	-0.186	0.167
-136.414	-55.091	0.374	0.168
-135.399	-124.937	0.516	0.079
-134.385	278.540	-0.043	-0.076
-133.370	800.000	-0.047	0.138
-132.356	-122.998	0.361	-0.058
-131.341	-87.492	0.301	0.091
-130.326	800.000	-0.060	-0.198
-129.312	-200.000	-0.044	-0.331
-128.297	517.900	0.123	-0.289
-127.283	-108.100	-0.071	0.015
-126.268	-200.000	-0.049	0.247
-125.253	333.238	0.074	-0.144
-124.239	800.000	0.037	-0.154
-123.224	-94.985	0.117	-0.032
-122.210	-200.000	0.027	0.194
