DTS Sentinel unit serial number:	SN413079Multiplexer serial number:	ORYXHardware model number:	OX4-SRSoftware version number:	ORYX F/W v4.00 Oryx Data Collector v3.7.2.0data status	okinstallation	princeton_trtdifferential loss correction	single-endedforward channel	channel 1reverse channel	N/Adate	2019/09/13time	10:34:35forward acquisition time	60.00reverse acquisition time	0.00gamma	496.2192k internal	0.2321k external	0.2321temperature offset calibration	1.0155default loss term (dB/km)	0.3790temperature slope calibration	1.0000multiplexer offset coefficient	1.0000multiplexer slope coefficient	1.0000fibre end	0.00T internal ref (°C)	31.28T ext. ref 1 (°C)	4.56T ext. ref 2 (°C)	28.30length (m)	temperature (°C)	Stokes	anti-Stokes-747.200	74.664	0.107	0.114
-746.185	691.266	-0.112	0.297
-745.171	-181.187	-0.202	0.004
-744.156	-200.000	-0.024	0.354
-743.142	-179.268	-0.512	0.011
-742.127	731.410	0.056	0.152
-741.112	-7.202	0.154	0.105
-740.098	-58.652	-0.138	0.061
-739.083	-169.641	0.261	0.010
-738.069	36.089	-0.135	-0.120
-737.054	-200.000	-0.026	0.263
-736.039	36.875	-0.200	-0.178
-735.025	-99.274	-0.138	0.035
-734.010	25.136	0.184	0.154
-732.996	525.110	0.155	0.369
-731.981	-116.721	0.312	-0.058
-730.966	-195.558	-0.146	0.001
-729.952	-200.000	-0.054	-0.283
-728.937	-200.000	-0.037	0.174
-727.923	-200.000	-0.002	-0.084
-726.908	-42.711	0.119	0.061
-725.894	95.053	0.221	-0.254
-724.879	112.279	-0.037	0.045
-723.864	-65.803	0.186	0.075
-722.850	332.640	0.120	0.233
-721.835	104.977	0.214	-0.255
-720.821	46.582	-0.203	0.191
-719.806	72.022	-0.116	-0.122
-718.791	-11.671	-0.266	0.176
-717.777	-146.087	-0.302	-0.027
-716.762	-200.000	-0.015	-0.198
-715.748	-14.403	-0.402	-0.261
-714.733	33.834	0.293	-0.258
-713.718	-59.138	-0.369	-0.160
-712.704	800.000	-0.108	-0.341
-711.689	-24.245	0.109	-0.065
-710.675	104.888	-0.095	-0.113
-709.660	-200.000	-0.062	-0.480
-708.645	126.387	-0.040	0.051
-707.631	65.540	-0.051	0.052
-706.616	177.604	-0.069	0.102
-705.602	61.456	-0.151	-0.152
-704.587	-200.000	-0.049	0.276
-703.572	259.439	0.024	-0.041
-702.558	231.067	-0.024	0.040
-701.543	-40.701	-0.320	0.167
-700.529	-44.015	-0.151	-0.076
-699.514	157.952	0.122	-0.171
-698.499	-200.000	0.287	-0.001
-697.485	332.134	-0.042	-0.082
-696.470	147.439	0.266	0.361
-695.456	-25.585	0.261	-0.155
-694.441	-184.575	0.403	0.007
-693.426	141.518	0.065	0.087
-692.412	-158.202	0.365	-0.022
-691.397	700.663	-0.091	-0.240
-690.383	-200.000	-0.072	-0.457
-689.368	-169.761	-0.257	-0.009
-688.354	-152.413	-0.215	-0.016
-687.339	-175.640	0.103	0.003
-686.324	-3.465	-0.180	0.126
-685.310	-200.000	-0.207	-0.001
-684.295	449.335	0.018	-0.039
-683.281	-91.241	-0.378	0.109
-682.266	-176.336	-0.383	-0.010
-681.251	-50.107	-0.120	-0.057
-680.237	77.719	-0.105	-0.113
-679.222	-200.000	0.011	0.141
-678.208	-159.538	0.243	-0.014
-677.193	800.000	-0.152	0.499
-676.178	151.737	0.102	0.141
-675.164	798.068	-0.069	0.191
-674.149	-157.527	0.505	0.030
-673.135	-0.943	-0.029	-0.021
-672.120	-94.618	-0.158	0.043
-671.105	-53.001	0.457	-0.212
-670.091	-0.487	-0.147	0.105
-669.076	-119.402	0.305	-0.053
-668.062	-25.455	0.299	-0.178
-667.047	-200.000	0.003	-0.197
-666.032	800.000	-0.057	-0.165
-665.018	12.166	0.151	-0.117
-664.003	143.578	0.129	0.173
-662.989	69.961	-0.021	0.022
-661.974	800.000	0.056	-0.169
-660.959	-200.000	0.028	-0.465
-659.945	-54.724	0.131	0.060
-658.930	-57.408	0.214	-0.094
-657.916	43.060	0.239	0.219
-656.901	305.934	-0.136	-0.255
-655.886	-86.036	-0.238	0.074
-654.872	-39.108	0.253	-0.134
-653.857	-69.242	-0.364	0.141
-652.843	245.260	0.215	0.364
-651.828	-64.149	0.253	0.104
-650.814	530.879	0.034	-0.082
-649.799	800.000	0.049	0.186
-648.784	-200.000	0.040	-0.247
-647.770	335.272	-0.098	-0.191
-646.755	194.868	-0.159	-0.242
-645.741	-200.000	0.046	-0.367
-644.726	-116.891	0.048	0.009
-643.711	-200.000	0.009	-0.175
-642.697	-81.956	0.511	0.168
-641.682	190.854	-0.334	-0.505
-640.668	-68.582	0.141	-0.055
-639.653	31.272	0.105	0.091
-638.638	22.395	0.145	-0.120
-637.624	-19.683	-0.285	0.177
-636.609	701.161	0.073	-0.194
-635.595	63.160	-0.096	-0.097
-634.580	-93.920	0.424	-0.117
-633.565	-21.891	0.182	0.111
-632.551	-138.642	-0.390	0.043
-631.536	73.636	0.134	0.141
-630.522	695.070	0.084	-0.221
-629.507	-200.000	-0.010	0.091
-628.492	7.352	0.369	-0.278
-627.478	-164.402	0.145	-0.007
-626.463	-176.597	-0.184	0.005
-625.449	116.225	0.133	0.164
-624.434	-200.000	0.024	-0.221
-623.419	123.927	0.206	-0.260
-622.405	108.709	0.036	-0.044
-621.390	44.042	0.083	0.076
-620.376	-33.739	0.293	-0.163
-619.361	-44.731	-0.235	-0.118
-618.346	-39.827	0.230	-0.121
-617.332	-63.303	-0.166	0.069
-616.317	800.000	-0.086	-0.278
-615.303	-132.127	0.164	-0.021
-614.288	-138.807	-0.317	0.035
-613.273	-122.686	-0.252	-0.041
-612.259	-84.993	0.398	-0.125
-611.244	-200.000	0.010	0.207
-610.230	187.126	-0.144	-0.216
-609.215	141.082	-0.157	-0.208
-608.201	309.263	-0.092	-0.173
-607.186	-200.000	-0.045	0.232
-606.171	-200.000	0.019	0.307
-605.157	722.774	-0.048	0.129
-604.142	-200.000	0.048	0.264
-603.128	34.767	0.070	0.062
-602.113	-130.364	-0.218	-0.030
-601.098	282.394	0.046	-0.083
-600.084	-104.658	0.491	-0.114
-599.069	-110.044	-0.015	-0.003
-598.055	4.709	-0.118	0.087
-597.040	-29.189	-0.324	0.187
-596.025	800.000	0.094	-0.328
-595.011	800.000	0.086	-0.343
-593.996	27.384	-0.101	0.085
-592.982	-200.000	0.056	0.354
-591.967	156.533	0.228	-0.316
-590.952	238.621	0.019	-0.031
-589.938	44.861	0.454	0.420
-588.923	-26.488	-0.162	-0.095
-587.909	-200.000	-0.003	-0.185
-586.894	267.413	-0.067	-0.117
-585.879	227.732	0.077	-0.125
-584.865	115.630	-0.167	-0.205
-583.850	523.293	0.174	-0.410
-582.836	22.942	-0.038	0.031
-581.821	-92.926	-0.187	0.052
-580.806	42.179	0.172	-0.157
-579.792	119.731	0.157	-0.196
-578.777	-200.000	0.034	-0.297
-577.763	800.000	0.062	0.265
-576.748	-142.729	0.358	-0.035
-575.733	106.736	-0.145	-0.172
-574.719	800.000	0.116	-0.362
-573.704	-25.379	-0.020	-0.012
-572.690	72.625	0.113	-0.119
-571.675	-89.814	-0.091	0.027
-570.661	800.000	0.030	-0.117
-569.646	-7.834	-0.104	-0.071
-568.631	-200.000	-0.079	-0.371
-567.617	-67.635	-0.213	-0.084
-566.602	28.120	-0.270	0.229
-565.588	444.253	0.024	-0.053
-564.573	-45.753	0.262	-0.130
-563.558	-200.000	-0.046	-0.231
-562.544	-136.022	0.031	-0.004
-561.529	-200.000	-0.053	0.248
-560.515	323.292	0.095	-0.182
-559.500	76.465	0.142	0.151
-558.485	109.807	0.062	0.074
-557.471	503.442	-0.040	0.093
-556.456	596.113	-0.070	-0.175
-555.442	166.238	-0.166	-0.237
-554.427	8.022	0.032	0.024
-553.412	201.309	-0.116	-0.180
-552.398	124.590	-0.091	-0.115
-551.383	153.534	0.101	-0.138
-550.369	-200.000	0.011	-0.374
-549.354	10.831	0.054	-0.041
-548.339	-13.470	0.130	0.085
-547.325	-105.802	0.064	0.015
-546.310	-200.000	-0.028	-0.135
-545.296	800.000	0.047	0.143
-544.281	-94.525	-0.343	0.094
-543.266	158.060	-0.100	0.140
-542.252	-153.033	0.295	0.021
-541.237	800.000	-0.075	0.259
-540.223	-25.905	-0.258	0.152
-539.208	800.000	-0.144	0.502
-538.193	-108.958	0.346	-0.074
-537.179	-22.273	0.213	0.130
-536.164	220.831	-0.096	0.155
-535.150	239.621	0.156	-0.260
-534.135	-200.000	0.035	-0.167
-533.121	-200.000	0.004	0.191
-532.106	-163.199	-0.007	0.000
-531.091	-200.000	-0.015	0.123
-530.077	564.317	0.145	0.352
-529.062	-89.306	-0.205	-0.061
-528.048	-200.000	0.001	-0.274
-527.033	420.952	0.059	-0.127
-526.018	-200.000	0.052	-0.283
-525.004	79.186	0.096	-0.103
-523.989	11.182	0.132	-0.101
-522.975	-54.533	0.353	-0.160
-521.960	4.476	0.162	-0.119
-520.945	595.171	-0.085	-0.212
-519.931	-200.000	0.028	-0.127
-518.916	544.374	0.065	0.156
-517.902	-106.130	0.129	-0.029
-516.887	52.199	-0.176	0.168
-515.872	118.940	-0.230	0.285
-514.858	121.955	-0.153	-0.191
-513.843	-57.589	-0.250	0.110
-512.829	-53.748	0.105	0.048
-511.814	169.018	0.162	0.232
-510.799	24.957	-0.180	0.150
-509.785	-71.510	0.199	-0.075
-508.770	-10.679	-0.175	-0.116
-507.756	800.000	0.026	-0.114
-506.741	800.000	0.027	0.083
-505.726	-19.666	0.140	0.087
-504.712	-108.170	0.310	0.067
-503.697	614.636	-0.167	0.419
-502.683	-121.272	0.419	-0.070
-501.668	228.301	0.117	0.191
-500.653	118.280	-0.218	0.269
-499.639	7.735	-0.088	0.066
-498.624	-200.000	0.003	0.026
-497.610	46.091	0.232	0.215
-496.595	-61.725	-0.171	-0.072
-495.581	142.175	0.101	-0.134
-494.566	56.756	0.183	-0.178
-493.551	-64.986	0.065	-0.026
-492.537	-135.820	-0.268	0.032
-491.522	-30.248	-0.277	0.157
-490.508	-117.332	0.219	0.040
-489.493	800.000	0.034	0.144
-488.478	-66.612	0.143	-0.057
-487.464	352.900	-0.048	-0.094
-486.449	800.000	0.063	-0.212
-485.435	-136.573	-0.293	0.034
-484.420	-200.000	0.009	0.183
-483.405	-47.170	-0.264	0.129
-482.391	240.449	-0.026	-0.043
-481.376	538.503	-0.109	0.258
-480.362	-200.000	-0.018	0.222
-479.347	18.451	0.122	0.098
-478.332	-23.108	0.222	0.134
-477.318	-78.561	-0.290	0.099
-476.303	212.008	-0.204	-0.321
-475.289	-200.000	0.002	-0.113
-474.274	136.449	0.128	0.167
-473.259	-50.608	-0.162	0.076
-472.245	1.285	-0.182	-0.131
-471.230	-106.944	0.226	0.050
-470.216	-46.067	0.330	0.162
-469.201	92.245	0.107	-0.120
-468.186	-21.862	-0.449	0.273
-467.172	-173.095	0.168	-0.005
-466.157	-200.000	0.005	0.217
-465.143	112.865	0.141	-0.171
-464.128	-115.650	-0.252	-0.047
-463.113	-54.383	0.075	0.034
-462.099	411.091	0.038	0.081
-461.084	244.898	-0.162	0.273
-460.070	44.339	-0.118	-0.108
-459.055	-161.241	0.348	-0.018
-458.040	267.261	-0.284	-0.497
-457.026	-200.000	0.046	-0.208
-456.011	-34.313	-0.151	0.083
-454.997	62.718	0.069	0.069
-453.982	337.489	-0.145	0.281
-452.968	28.471	0.067	-0.057
-451.953	800.000	-0.033	0.117
-450.938	744.527	-0.060	-0.162
-449.924	490.928	0.054	-0.125
-448.909	-5.333	-0.358	0.246
-447.895	-49.340	0.194	0.092
-446.880	118.621	-0.073	-0.091
-445.865	107.245	-0.145	0.172
-444.851	-200.000	-0.002	0.045
-443.836	-200.000	-0.001	0.181
-442.822	-200.000	0.045	0.232
-441.807	4.002	0.305	0.223
-440.792	648.019	0.099	0.254
-439.778	355.043	-0.053	0.106
-438.763	135.428	-0.376	0.489
-437.749	113.281	-0.152	0.184
-436.734	800.000	-0.069	0.291
-435.719	84.798	-0.085	0.093
-434.705	-161.128	-0.139	-0.007
-433.690	485.168	0.082	-0.186
-432.676	229.440	-0.081	-0.133
-431.661	5.317	0.072	0.053
-430.646	800.000	-0.144	-0.422
-429.632	-200.000	-0.044	-0.443
-428.617	-26.302	-0.309	-0.181
-427.603	-200.000	0.048	-0.219
-426.588	-200.000	-0.039	-0.187
-425.573	311.068	-0.160	-0.300
-424.559	106.616	0.232	0.274
-423.544	41.415	-0.094	-0.085
-422.530	70.981	0.116	0.120
-421.515	800.000	0.076	0.273
-420.500	-200.000	0.009	0.060
-419.486	-84.881	-0.284	-0.089
-418.471	-94.734	0.161	0.044
-417.457	-119.143	-0.138	-0.024
-416.442	-9.692	-0.273	-0.182
-415.428	165.248	0.174	-0.246
-414.413	-200.000	0.036	0.288
-413.398	-102.199	-0.343	0.082
-412.384	734.589	0.022	-0.058
-411.369	216.040	-0.153	0.242
-410.355	-200.000	-0.007	0.173
-409.340	-54.348	-0.190	-0.086
-408.325	-200.000	-0.050	-0.340
-407.311	513.804	-0.080	0.185
-406.296	-56.051	0.127	0.056
-405.282	-117.028	0.399	0.073
-404.267	-41.778	0.138	-0.071
-403.252	1.417	-0.143	0.102
-402.238	-200.000	0.137	0.000
-401.223	-123.020	0.211	-0.034
-400.209	-34.352	0.207	0.113
-399.194	50.384	0.216	-0.203
-398.179	136.514	-0.162	0.211
-397.165	133.366	-0.454	0.585
-396.150	-33.661	0.111	0.061
-395.136	-39.816	0.084	0.044
-394.121	800.000	0.023	0.081
-393.106	-39.092	-0.210	-0.110
-392.092	135.459	0.111	-0.144
-391.077	33.246	-0.220	-0.190
-390.063	-79.759	0.264	0.089
-389.048	-5.148	-0.023	0.016
-388.033	-139.469	-0.171	-0.018
-387.019	-121.589	0.240	-0.040
-386.004	800.000	0.059	-0.175
-384.990	43.341	-0.284	0.259
-383.975	-200.000	-0.037	0.432
-382.960	-36.181	-0.125	0.067
-381.946	147.731	0.121	0.163
-380.931	-200.000	0.018	0.193
-379.917	329.647	0.101	-0.193
-378.902	-88.991	0.110	-0.033
-377.888	165.005	-0.081	0.115
-376.873	166.133	-0.103	0.145
-375.858	-200.000	-0.007	0.073
-374.844	445.358	-0.079	0.173
-373.829	483.659	0.013	0.029
-372.815	85.354	0.187	0.204
-371.800	-125.897	-0.110	0.017
-370.785	-11.855	0.267	0.175
-369.771	-200.000	-0.049	-0.232
-368.756	-153.839	0.375	-0.026
-367.742	-120.909	0.240	0.040
-366.727	-200.000	-0.003	-0.047
-365.712	-55.899	-0.271	-0.121
-364.698	-200.000	-0.007	0.057
-363.683	-200.000	0.007	-0.257
-362.669	104.794	0.048	-0.057
-361.654	329.290	0.133	-0.254
-360.639	134.019	-0.027	-0.035
-359.625	-2.244	-0.098	0.069
-358.610	-160.992	-0.193	0.010
-357.596	-39.664	0.096	0.050
-356.581	273.475	-0.054	-0.094
-355.566	800.000	-0.049	0.184
-354.552	-32.757	0.099	-0.055
-353.537	-200.000	0.009	-0.171
-352.523	-200.000	0.014	0.068
-351.508	-78.181	0.035	0.012
-350.493	-96.074	0.321	-0.085
-349.479	170.469	-0.184	0.262
-348.464	-200.000	0.049	0.306
-347.450	-200.000	-0.063	-0.276
-346.435	41.707	-0.248	0.224
-345.420	-127.869	-0.143	0.021
-344.406	-200.000	0.003	-0.082
-343.391	121.150	0.032	0.040
-342.377	-200.000	0.024	-0.115
-341.362	-62.542	0.055	-0.023
-340.348	200.419	0.072	-0.109
-339.333	-65.293	0.355	-0.142
-338.318	-21.317	0.222	0.135
-337.304	105.335	0.183	0.215
-336.289	-81.016	-0.168	0.055
-335.275	108.351	0.102	-0.121
-334.260	800.000	-0.024	0.092
-333.245	141.122	-0.089	-0.117
-332.231	466.943	0.017	0.038
-331.216	37.186	0.131	-0.115
-330.202	-200.000	-0.028	0.173
-329.187	66.935	0.043	0.043
-328.172	800.000	-0.075	-0.240
-327.158	-111.727	-0.252	0.051
-326.143	800.000	0.047	-0.191
-325.129	362.663	-0.200	0.399
-324.114	269.824	-0.143	-0.250
-323.099	82.484	-0.161	0.174
-322.085	-163.438	0.217	0.010
-321.070	-112.345	-0.291	-0.058
-320.056	112.566	0.030	-0.036
-319.041	-17.947	0.183	0.114
-318.026	1.263	0.155	0.111
-317.012	-66.451	-0.298	0.118
-315.997	276.157	0.073	0.128
-314.983	34.691	-0.095	0.083
-313.968	28.391	-0.054	0.046
-312.953	-16.885	-0.015	0.010
-311.939	-57.736	-0.175	-0.076
-310.924	-99.728	0.278	0.069
-309.910	59.815	-0.151	0.149
-308.895	-15.998	0.260	0.164
-307.880	168.009	0.061	-0.086
-306.866	-160.587	0.151	-0.008
-305.851	290.328	-0.072	0.130
-304.837	183.924	-0.048	0.071
-303.822	386.691	0.106	0.218
-302.807	-90.678	-0.206	0.059
-301.793	-79.079	0.066	-0.022
-300.778	-200.000	-0.057	0.410
-299.764	9.738	-0.175	-0.132
-298.749	800.000	-0.015	0.060
-297.735	-83.724	-0.101	-0.032
-296.720	-200.000	0.037	-0.164
-295.705	-103.102	-0.213	-0.050
-294.691	-200.000	0.016	-0.084
-293.676	-90.930	-0.151	0.043
-292.662	-200.000	-0.010	-0.266
-291.647	-118.505	0.268	-0.047
-290.632	122.785	-0.086	-0.107
-289.618	-103.163	0.155	-0.036
-288.603	172.850	-0.092	0.131
-287.589	-129.779	0.235	0.032
-286.574	-33.676	0.062	0.034
-285.559	-26.199	-0.296	-0.173
-284.545	-177.276	-0.307	-0.008
-283.530	144.075	0.043	0.057
-282.516	-154.677	-0.150	-0.010
-281.501	-93.369	-0.425	-0.117
-280.486	-4.292	0.066	0.045
-279.472	800.000	-0.107	0.297
-278.457	-51.101	0.159	0.074
-277.443	575.608	-0.098	-0.237
-276.428	12.641	0.091	-0.069
-275.413	157.258	-0.059	0.081
-274.399	-79.119	-0.258	-0.087
-273.384	40.260	-0.020	-0.018
-272.370	-200.000	-0.062	0.285
-271.355	-57.428	0.336	-0.146
-270.340	800.000	-0.080	-0.291
-269.326	11.523	0.195	0.148
-268.311	80.180	-0.195	0.208
-267.297	72.523	-0.080	-0.083
-266.282	128.406	0.045	-0.056
-265.267	-173.569	-0.289	0.009
-264.253	-200.000	0.050	-0.296
-263.238	91.832	0.196	0.218
-262.224	-122.927	-0.326	-0.052
-261.209	30.245	-0.101	0.086
-260.195	-31.670	-0.400	-0.223
-259.180	-170.871	0.179	0.006
-258.165	267.024	-0.079	0.137
-257.151	-194.337	0.279	-0.002
-256.136	-100.583	-0.276	-0.068
-255.122	174.200	-0.068	-0.097
-254.107	46.743	0.242	-0.223
-253.092	800.000	-0.081	0.345
-252.078	19.788	0.160	-0.128
-251.063	-200.000	0.001	-0.061
-250.049	143.917	0.096	0.127
-249.034	-24.125	-0.157	0.093
-248.019	-142.071	-0.229	-0.023
-247.005	32.257	-0.119	0.101
-245.990	-115.391	0.358	0.067
-244.976	-200.000	-0.018	0.203
-243.961	-200.000	0.016	0.232
-242.946	24.486	-0.180	-0.148
-241.932	38.849	0.216	0.191
-240.917	-190.461	-0.110	0.001
-239.903	107.607	0.046	-0.055
-238.888	-93.816	-0.198	-0.054
-237.873	-200.000	0.031	0.336
-236.859	77.394	0.078	0.083
-235.844	362.997	0.146	0.290
-234.830	-77.578	-0.226	0.078
-233.815	-183.563	-0.137	-0.002
-232.800	172.298	0.298	-0.424
-231.786	26.318	-0.126	-0.104
-230.771	-120.569	0.290	-0.049
-229.757	-75.592	0.342	0.120
-228.742	-200.000	-0.063	-0.383
-227.727	-55.478	-0.188	-0.084
-226.713	143.943	0.069	-0.092
-225.698	462.300	0.046	0.102
-224.684	-200.000	-0.005	-0.116
-223.669	-200.000	-0.061	-0.327
-222.655	-72.438	0.120	-0.044
-221.640	800.000	0.065	0.180
-220.625	-108.651	0.173	0.037
-219.611	-200.000	0.040	0.229
-218.596	142.700	-0.133	0.174
-217.582	141.126	0.024	-0.031
-216.567	-6.634	0.068	-0.046
-215.552	-124.348	-0.358	0.055
-214.538	72.600	-0.071	0.073
-213.523	3.212	0.127	-0.091
-212.509	800.000	0.039	-0.112
-211.494	-69.127	-0.158	-0.060
-210.479	597.945	-0.049	0.119
-209.465	777.386	0.113	0.305
-208.450	72.338	-0.083	0.086
-207.436	-103.914	0.060	-0.014
-206.421	800.000	-0.119	0.327
-205.406	131.894	0.085	-0.108
-204.392	-200.000	-0.014	-0.157
-203.377	-46.715	0.499	-0.242
-202.363	85.562	-0.057	-0.062
-201.348	128.771	0.049	0.062
-200.333	111.344	-0.200	0.239
-199.319	-54.621	-0.162	0.073
-198.304	800.000	0.014	-0.045
-197.290	-142.678	-0.312	0.030
-196.275	-24.233	0.132	0.078
-195.260	-200.000	-0.020	0.196
-194.246	110.064	-0.076	-0.090
-193.231	630.429	0.039	-0.098
-192.217	-200.000	0.015	-0.284
-191.202	-200.000	-0.021	-0.299
-190.187	-113.638	0.552	-0.107
-189.173	-200.000	0.050	0.307
-188.158	-200.000	-0.011	0.148
-187.144	-155.016	0.102	-0.007
-186.129	-18.217	-0.297	0.183
-185.114	163.150	0.118	-0.164
-184.100	800.000	0.037	0.108
-183.085	141.284	0.061	0.079
-182.071	-3.006	0.245	0.169
-181.056	-74.603	0.089	-0.032
-180.042	-29.851	-0.262	0.147
-179.027	-145.810	0.442	-0.039
-178.012	16.638	-0.072	0.057
-176.998	800.000	-0.144	-0.412
-175.983	97.223	-0.236	0.268
-174.969	-165.453	0.377	-0.016
-173.954	151.551	-0.162	0.218
-172.939	-200.000	-0.004	0.128
-171.925	86.119	0.021	0.023
-170.910	246.605	0.117	-0.194
-169.896	223.168	0.134	-0.213
-168.881	-101.771	-0.234	0.056
-167.866	800.000	0.046	-0.141
-166.852	800.000	0.125	-0.377
-165.837	-135.252	-0.187	0.022
-164.823	-69.366	-0.236	0.089
-163.808	155.759	-0.162	-0.221
-162.793	-138.361	-0.180	0.020
-161.779	116.303	-0.229	0.277
-160.764	-11.495	0.161	0.105
-159.750	99.251	0.038	-0.044
-158.735	-17.764	0.197	-0.122
-157.720	-200.000	-0.013	-0.073
-156.706	100.756	-0.206	-0.237
-155.691	-133.193	0.168	-0.021
-154.677	-94.510	-0.165	0.044
-153.662	24.405	0.204	-0.167
-152.647	345.080	0.128	-0.248
-151.633	-200.000	0.013	-0.180
-150.618	458.654	-0.027	0.059
-149.604	776.686	-0.027	-0.072
-148.589	56.799	0.086	0.083
-147.574	-155.509	-0.200	0.013
-146.560	-51.245	-0.189	-0.087
-145.545	194.869	0.151	0.226
-144.531	394.679	-0.098	-0.202
-143.516	-55.235	0.254	-0.113
-142.502	-95.395	-0.036	0.010
-141.487	-200.000	0.009	-0.415
-140.472	800.000	0.029	-0.089
-139.458	-68.590	-0.225	-0.086
-138.443	-73.725	0.105	-0.038
-137.429	-77.142	-0.054	0.018
-136.414	800.000	-0.068	0.195
-135.399	531.943	0.057	0.133
-134.385	-200.000	-0.003	-0.032
-133.370	-88.643	-0.259	0.076
-132.356	122.073	-0.240	0.296
-131.341	14.151	-0.185	0.142
-130.326	-124.509	0.215	0.033
-129.312	253.384	0.029	-0.049
-128.297	-29.654	-0.398	-0.224
-127.283	-14.923	-0.112	0.071
-126.268	-65.000	-0.252	-0.101
-125.253	-200.000	0.004	0.150
-124.239	-63.211	-0.057	0.023
-123.224	505.308	-0.157	-0.359
-122.210	384.277	-0.141	-0.286
-121.195	139.536	-0.381	0.494
