DTS Sentinel unit serial number:	SN413079Multiplexer serial number:	ORYXHardware model number:	OX4-SRSoftware version number:	ORYX F/W v4.00 Oryx Data Collector v3.7.2.0data status	okinstallation	princeton_trtdifferential loss correction	single-endedforward channel	channel 1reverse channel	N/Adate	2019/09/13time	09:26:35forward acquisition time	60.00reverse acquisition time	0.00gamma	496.2192k internal	0.2325k external	0.2325temperature offset calibration	1.0156default loss term (dB/km)	0.3790temperature slope calibration	1.0000multiplexer offset coefficient	1.0000multiplexer slope coefficient	1.0000fibre end	0.00T internal ref (°C)	29.37T ext. ref 1 (°C)	4.40T ext. ref 2 (°C)	26.23length (m)	temperature (°C)	Stokes	anti-Stokes-747.200	523.604	-0.066	-0.158
-746.185	-74.770	0.127	-0.046
-745.171	97.917	0.109	-0.127
-744.156	-55.524	0.201	-0.091
-743.142	-200.000	0.010	0.089
-742.127	415.504	0.040	-0.086
-741.112	533.792	0.048	-0.116
-740.098	-131.149	-0.196	-0.026
-739.083	-32.136	0.073	-0.041
-738.069	-25.704	-0.172	-0.103
-737.054	9.154	-0.176	0.134
-736.039	-130.387	-0.446	-0.061
-735.025	-200.000	-0.070	0.332
-734.010	468.794	-0.114	0.258
-732.996	-200.000	-0.003	0.304
-731.981	-88.604	-0.211	0.063
-730.966	147.015	-0.154	-0.209
-729.952	-94.928	0.204	0.056
-728.937	-149.417	0.215	-0.017
-727.923	-173.732	-0.295	0.009
-726.908	-43.125	-0.110	0.056
-725.894	-32.560	-0.199	0.112
-724.879	-6.386	0.121	-0.083
-723.864	-200.000	-0.025	-0.432
-722.850	119.760	0.185	-0.232
-721.835	-200.000	0.004	-0.294
-720.821	13.915	-0.628	0.493
-719.806	-103.917	-0.263	-0.062
-718.791	119.783	0.036	0.045
-717.777	21.133	-0.112	-0.092
-716.762	-200.000	-0.022	-0.271
-715.748	246.523	-0.045	-0.077
-714.733	42.751	0.039	0.035
-713.718	340.774	0.027	0.053
-712.704	800.000	-0.085	-0.275
-711.689	-200.000	-0.007	-0.417
-710.675	-6.822	-0.346	-0.237
-709.660	16.876	0.176	0.140
-708.645	55.404	-0.189	0.184
-707.631	74.793	0.248	0.263
-706.616	96.885	-0.147	-0.170
-705.602	41.573	0.252	-0.230
-704.587	-79.177	-0.233	0.080
-703.572	396.285	-0.104	-0.219
-702.558	-88.835	-0.190	-0.057
-701.543	-74.243	-0.148	0.054
-700.529	-144.018	0.312	-0.030
-699.514	49.302	-0.448	0.424
-698.499	6.172	-0.085	0.064
-697.485	234.691	0.157	0.260
-696.470	86.319	0.041	0.046
-695.456	-48.241	-0.044	0.021
-694.441	-200.000	-0.018	0.085
-693.426	-40.614	0.380	-0.198
-692.412	-174.484	0.216	0.006
-691.397	-200.000	-0.016	0.228
-690.383	56.288	-0.286	-0.280
-689.368	16.845	-0.189	0.150
-688.354	800.000	0.035	-0.125
-687.339	-100.602	-0.139	0.035
-686.324	-200.000	-0.030	-0.151
-685.310	-82.266	0.135	0.044
-684.295	404.851	0.072	0.153
-683.281	800.000	0.026	0.110
-682.266	41.903	0.221	-0.202
-681.251	-153.631	-0.302	-0.021
-680.237	-131.427	0.115	0.015
-679.222	800.000	0.061	-0.264
-678.208	112.159	0.172	-0.209
-677.193	194.559	-0.097	-0.147
-676.178	-200.000	-0.032	-0.146
-675.164	-75.897	0.096	-0.034
-674.149	-77.483	0.271	0.095
-673.135	52.866	-0.162	0.156
-672.120	-200.000	-0.115	-0.516
-671.105	-200.000	-0.008	-0.191
-670.091	156.827	0.059	-0.082
-669.076	-139.492	-0.185	-0.020
-668.062	258.629	0.192	0.333
-667.047	-127.766	0.298	-0.043
-666.032	458.313	-0.102	0.228
-665.018	-45.334	0.247	-0.123
-664.003	286.326	-0.089	0.161
-662.989	156.905	0.250	0.348
-661.974	32.473	0.166	-0.144
-660.959	15.836	0.037	0.029
-659.945	102.529	-0.297	0.349
-658.930	738.844	0.093	-0.252
-657.916	-123.177	-0.288	-0.046
-656.901	-54.958	0.222	-0.101
-655.886	-101.459	-0.048	-0.012
-654.872	-41.487	-0.349	0.180
-653.857	-69.778	-0.192	0.074
-652.843	-123.673	-0.447	0.071
-651.828	358.922	-0.073	0.147
-650.814	-200.000	-0.001	-0.171
-649.799	-25.901	0.101	-0.060
-648.784	-2.138	-0.157	0.111
-647.770	169.355	0.025	-0.036
-646.755	-99.866	0.319	0.080
-645.741	-142.242	-0.439	0.044
-644.726	-108.892	-0.165	-0.035
-643.711	-38.444	0.198	-0.105
-642.697	-15.063	0.132	0.085
-641.682	-40.765	0.190	-0.099
-640.668	119.769	0.070	0.088
-639.653	-200.000	0.030	-0.232
-638.638	682.732	0.047	-0.123
-637.624	-109.475	-0.284	0.060
-636.609	-200.000	-0.073	-0.344
-635.595	23.655	-0.255	-0.211
-634.580	-89.160	-0.208	-0.062
-633.565	61.752	-0.097	-0.097
-632.551	800.000	-0.146	0.435
-631.536	-200.000	0.074	-0.365
-630.522	-134.433	0.075	-0.009
-629.507	-137.414	0.210	0.024
-628.492	-27.498	0.192	-0.112
-627.478	-22.200	0.313	-0.191
-626.463	-142.737	0.324	0.032
-625.449	-133.048	-0.335	-0.043
-624.434	45.748	0.246	0.228
-623.419	-140.471	-0.102	0.011
-622.405	-200.000	0.015	-0.183
-621.390	154.663	0.038	0.053
-620.376	97.692	-0.087	0.100
-619.361	-172.743	-0.142	0.004
-618.346	800.000	0.045	0.197
-617.332	37.202	0.148	0.132
-616.317	-200.000	0.005	0.265
-615.303	49.757	-0.121	0.114
-614.288	260.297	-0.056	-0.097
-613.273	-0.814	0.159	0.113
-612.259	800.000	-0.108	-0.308
-611.244	-200.000	0.010	0.136
-610.230	-200.000	0.010	-0.050
-609.215	-118.233	-0.150	0.027
-608.201	478.062	-0.044	0.101
-607.186	-92.119	0.298	0.085
-606.171	-125.458	0.209	0.032
-605.157	-200.000	0.041	-0.193
-604.142	357.636	-0.112	-0.224
-603.128	426.547	0.139	-0.301
-602.113	220.781	-0.190	0.305
-601.098	-22.878	-0.229	0.139
-600.084	341.446	0.043	-0.084
-599.069	-135.565	0.100	0.012
-598.055	-42.164	0.172	0.088
-597.040	800.000	0.081	-0.256
-596.025	712.085	0.039	0.105
-595.011	-21.270	-0.089	0.054
-593.996	640.795	0.030	0.077
-592.982	-114.986	-0.079	0.015
-591.967	800.000	0.066	-0.232
-590.952	-12.870	0.145	-0.095
-589.938	201.875	0.086	0.133
-588.923	800.000	0.078	-0.321
-587.909	-46.423	-0.390	0.192
-586.894	-200.000	-0.020	-0.198
-585.879	103.385	-0.084	0.099
-584.865	278.999	0.095	0.171
-583.850	-108.774	0.186	0.040
-582.836	-152.308	-0.494	0.036
-581.821	-134.026	0.310	-0.038
-580.806	77.692	0.255	-0.272
-579.792	-167.337	0.365	-0.015
-578.777	31.390	-0.093	-0.080
-577.763	-110.553	-0.228	0.047
-576.748	-56.153	-0.298	0.133
-575.733	-15.640	0.288	0.184
-574.719	-25.853	-0.295	-0.174
-573.704	50.938	-0.194	-0.185
-572.690	40.106	0.275	0.248
-571.675	-124.151	-0.165	0.026
-570.661	-84.190	-0.273	-0.087
-569.646	284.936	0.151	-0.272
-568.631	136.011	-0.041	-0.053
-567.617	212.813	-0.250	-0.396
-566.602	204.258	0.028	0.044
-565.588	28.110	-0.396	0.335
-564.573	486.468	-0.142	-0.325
-563.558	800.000	-0.087	0.271
-562.544	-200.000	0.038	0.293
-561.529	11.470	0.231	-0.177
-560.515	120.797	-0.099	-0.123
-559.500	84.189	0.043	0.047
-558.485	347.142	-0.126	0.248
-557.471	-96.780	-0.117	0.031
-556.456	358.913	0.110	-0.221
-555.442	-33.315	-0.331	0.184
-554.427	-31.574	-0.218	0.123
-553.412	800.000	0.065	0.185
-552.398	-135.103	0.298	-0.036
-551.383	37.239	0.226	0.200
-550.369	-34.392	0.099	0.054
-549.354	-86.413	-0.319	-0.098
-548.339	-200.000	-0.001	-0.418
-547.325	-70.098	0.027	-0.010
-546.310	280.922	0.043	0.076
-545.296	-100.864	0.044	0.011
-544.281	360.565	-0.226	0.453
-543.266	31.721	0.175	-0.151
-542.252	239.951	-0.111	0.186
-541.237	66.863	-0.012	-0.012
-540.223	76.448	-0.162	0.171
-539.208	19.514	-0.191	-0.154
-538.193	-179.197	0.253	-0.006
-537.179	38.301	-0.396	-0.353
-536.164	800.000	0.037	-0.124
-535.150	-200.000	-0.036	-0.184
-534.135	-200.000	-0.012	-0.271
-533.121	613.638	0.041	-0.102
-532.106	132.271	-0.010	0.013
-531.091	-71.355	0.267	0.100
-530.077	-200.000	-0.015	0.068
-529.062	-59.167	-0.276	-0.119
-528.048	-139.010	0.077	-0.008
-527.033	-104.226	-0.311	0.072
-526.018	-192.930	0.066	0.001
-525.004	484.898	0.112	0.254
-523.989	-39.781	0.106	-0.056
-522.975	530.635	-0.129	0.306
-521.960	216.445	0.167	0.266
-520.945	2.132	0.174	0.126
-519.931	-200.000	0.017	0.154
-518.916	800.000	-0.126	0.546
-517.902	-175.105	-0.080	0.002
-516.887	800.000	-0.085	0.240
-515.872	-36.649	0.124	-0.067
-514.858	-32.756	0.132	0.074
-513.843	-85.619	-0.239	0.074
-512.829	-7.380	-0.086	-0.058
-511.814	800.000	0.086	0.332
-510.799	800.000	-0.031	-0.134
-509.785	-79.690	-0.085	0.029
-508.770	359.881	-0.065	0.130
-507.756	570.257	-0.095	-0.231
-506.741	22.019	0.234	-0.191
-505.726	800.000	-0.047	-0.184
-504.712	-128.399	-0.197	-0.028
-503.697	-78.402	-0.250	0.086
-502.683	-200.000	0.026	-0.162
-501.668	3.835	0.095	0.070
-500.653	-4.701	-0.201	-0.138
-499.639	-33.186	0.033	-0.018
-498.624	212.066	0.110	-0.173
-497.610	-148.569	0.044	-0.004
-496.595	223.572	-0.193	-0.311
-495.581	229.337	-0.262	0.428
-494.566	-188.250	0.137	0.002
-493.551	-46.304	-0.252	-0.124
-492.537	-5.733	-0.170	-0.116
-491.522	469.766	-0.068	0.152
-490.508	-151.403	-0.183	0.014
-489.493	-200.000	0.042	-0.252
-488.478	9.654	-0.217	-0.164
-487.464	-200.000	-0.032	-0.435
-486.449	569.013	-0.117	-0.284
-485.435	6.149	-0.229	-0.170
-484.420	-122.244	0.261	0.043
-483.405	-200.000	-0.005	0.065
-482.391	-50.063	-0.211	-0.100
-481.376	100.586	-0.202	0.235
-480.362	225.900	-0.073	-0.117
-479.347	144.253	0.123	-0.164
-478.332	-65.948	0.061	-0.025
-477.318	-95.367	0.476	-0.128
-476.303	-45.524	-0.333	-0.165
-475.289	-5.073	0.438	0.301
-474.274	786.110	-0.023	-0.062
-473.259	21.793	0.008	0.007
-472.245	-200.000	0.020	0.171
-471.230	5.134	0.160	-0.118
-470.216	-200.000	-0.007	0.058
-469.201	43.386	0.048	-0.044
-468.186	-145.084	0.267	-0.024
-467.172	-32.789	-0.044	0.024
-466.157	121.671	0.179	-0.223
-465.143	25.087	-0.103	0.085
-464.128	-33.135	0.202	0.112
-463.113	366.609	0.169	0.341
-462.099	24.346	0.223	0.184
-461.084	-200.000	0.004	0.355
-460.070	38.298	0.279	-0.248
-459.055	-200.000	-0.030	-0.169
-458.040	-101.107	-0.158	0.039
-457.026	78.186	-0.325	-0.347
-456.011	-200.000	-0.002	0.112
-454.997	469.340	-0.208	-0.466
-453.982	-133.610	-0.108	0.013
-452.968	353.059	-0.017	-0.033
-451.953	27.636	0.025	-0.021
-450.938	-200.000	0.043	-0.199
-449.924	800.000	-0.051	0.186
-448.909	175.425	-0.102	0.147
-447.895	800.000	0.083	0.298
-446.880	177.315	-0.100	0.145
-445.865	800.000	0.037	0.139
-444.851	161.542	-0.150	-0.209
-443.836	151.802	0.103	0.139
-442.822	-200.000	0.006	0.047
-441.807	106.876	-0.050	0.059
-440.792	-42.396	0.413	-0.210
-439.778	725.825	-0.031	-0.083
-438.763	-178.862	-0.157	-0.004
-437.749	166.058	0.063	0.089
-436.734	-61.054	-0.093	0.039
-435.719	-63.689	0.294	-0.120
-434.705	-2.566	-0.165	0.115
-433.690	213.632	-0.032	-0.050
-432.676	158.838	-0.112	-0.155
-431.661	100.551	-0.104	0.121
-430.646	-46.465	-0.116	-0.057
-429.632	-200.000	-0.072	-0.323
-428.617	334.837	0.049	-0.094
-427.603	34.495	0.102	-0.089
-426.588	31.120	-0.133	-0.113
-425.573	276.059	-0.016	-0.028
-424.559	-74.305	0.238	0.086
-423.544	5.383	-0.139	0.102
-422.530	-155.444	-0.486	0.031
-421.515	-200.000	0.065	-0.318
-420.500	-200.000	0.006	-0.034
-419.486	659.612	0.061	-0.157
-418.471	43.989	-0.192	0.176
-417.457	-168.251	0.155	-0.006
-416.442	-191.536	0.371	0.004
-415.428	-13.153	0.073	-0.047
-414.413	-61.085	0.299	0.126
-413.398	182.929	0.134	0.197
-412.384	-16.270	0.446	0.282
-411.369	800.000	-0.077	0.306
-410.355	96.750	-0.147	0.167
-409.340	24.256	-0.174	0.143
-408.325	280.754	-0.044	-0.078
-407.311	-200.000	-0.022	-0.201
-406.296	-81.768	0.160	0.052
-405.282	800.000	-0.072	-0.280
-404.267	-24.110	-0.286	-0.170
-403.252	-131.032	0.083	0.011
-402.238	261.510	0.215	0.372
-401.223	-11.478	-0.439	0.288
-400.209	1.820	0.033	-0.024
-399.194	796.288	0.040	-0.110
-398.179	-200.000	-0.014	0.244
-397.165	-200.000	0.070	-0.338
-396.150	-200.000	-0.069	-0.316
-395.136	213.825	-0.223	-0.351
-394.121	-59.749	0.143	0.061
-393.106	-162.584	0.402	0.020
-392.092	107.675	-0.142	-0.169
-391.077	800.000	-0.046	0.133
-390.063	-200.000	0.007	0.180
-389.048	-200.000	-0.017	0.106
-388.033	-164.083	0.126	-0.006
-387.019	-200.000	-0.012	-0.290
-386.004	-8.450	-0.127	-0.085
-384.990	0.901	-0.114	0.081
-383.975	-34.958	0.067	-0.036
-382.960	800.000	-0.051	-0.174
-381.946	128.418	0.174	-0.220
-380.931	-193.850	0.219	-0.002
-379.917	-200.000	0.001	0.063
-378.902	223.644	0.245	0.393
-377.888	-98.082	-0.155	-0.040
-376.873	17.733	0.090	-0.071
-375.858	21.791	0.132	0.107
-374.844	683.688	0.066	-0.171
-373.829	-94.841	-0.205	-0.055
-372.815	800.000	-0.084	0.291
-371.800	800.000	-0.015	-0.056
-370.785	-61.610	0.115	-0.048
-369.771	800.000	-0.070	-0.240
-368.756	165.957	0.043	0.060
-367.742	-88.575	0.086	-0.025
-366.727	-86.279	0.162	0.050
-365.712	206.669	0.106	-0.165
-364.698	800.000	-0.080	-0.329
-363.683	-29.580	0.248	-0.141
-362.669	-200.000	0.057	-0.258
-361.654	181.138	0.153	0.223
-360.639	-81.961	0.179	0.058
-359.625	64.367	-0.276	-0.276
-358.610	-94.041	-0.258	-0.070
-357.596	-129.170	0.430	-0.060
-356.581	-148.743	-0.248	0.020
-355.566	-200.000	-0.059	0.282
-354.552	-137.387	0.169	-0.019
-353.537	-77.550	0.269	-0.093
-352.523	-200.000	-0.018	0.244
-351.508	800.000	-0.020	-0.071
-350.493	50.881	-0.065	-0.061
-349.479	110.451	0.179	0.213
-348.464	-4.492	0.160	0.110
-347.450	91.128	-0.179	-0.199
-346.435	91.872	-0.357	-0.399
-345.420	123.239	0.200	0.250
-344.406	-85.127	0.157	0.049
-343.391	144.706	-0.125	0.166
-342.377	-166.052	-0.289	-0.012
-341.362	-109.345	0.176	-0.037
-340.348	-200.000	0.061	0.439
-339.333	152.454	0.144	-0.195
-338.318	27.876	-0.119	-0.100
-337.304	-180.271	0.157	-0.003
-336.289	190.570	-0.313	-0.467
-335.275	-39.203	0.053	0.028
-334.260	-200.000	0.018	-0.169
-333.245	-52.546	-0.092	0.042
-332.231	800.000	-0.062	0.239
-331.216	-7.654	-0.138	0.092
-330.202	307.636	0.034	-0.063
-329.187	-54.331	-0.104	0.047
-328.172	-84.563	0.209	0.065
-327.158	800.000	0.047	0.182
-326.143	166.467	0.076	0.107
-325.129	-183.343	-0.540	0.009
-324.114	231.576	0.105	-0.171
-323.099	334.849	0.076	-0.147
-322.085	-107.885	0.002	-0.000
-321.070	-200.000	0.012	-0.220
-320.056	-85.810	0.172	0.053
-319.041	-104.178	0.208	0.048
-318.026	-50.885	-0.129	0.060
-317.012	8.846	0.133	-0.099
-315.997	-86.388	0.352	0.107
-314.983	-22.703	0.308	0.185
-313.968	56.489	0.036	0.035
-312.953	22.826	-0.212	-0.172
-311.939	-200.000	0.005	0.224
-310.924	-69.166	-0.226	0.086
-309.910	-106.766	0.160	-0.035
-308.895	-200.000	0.015	0.079
-307.880	4.580	0.229	0.167
-306.866	-200.000	-0.030	-0.229
-305.851	-54.408	0.183	0.082
-304.837	67.649	0.108	-0.109
-303.822	-89.437	0.120	0.035
-302.807	192.226	0.078	0.117
-301.793	-192.446	-0.347	0.003
-300.778	800.000	0.039	-0.140
-299.764	-88.469	0.241	0.071
-298.749	-94.298	-0.275	-0.075
-297.735	-59.393	0.222	-0.094
-296.720	-87.326	-0.112	0.034
-295.705	-124.860	0.117	-0.018
-294.691	417.539	0.022	-0.046
-293.676	-162.239	-0.187	-0.009
-292.662	-42.987	0.360	0.181
-291.647	-171.074	-0.396	0.013
-290.632	-66.517	0.108	-0.042
-289.618	-200.000	0.002	0.055
-288.603	-200.000	0.036	0.211
-287.589	800.000	-0.062	-0.199
-286.574	130.167	-0.206	-0.261
-285.559	124.340	0.081	-0.101
-284.545	3.996	0.242	0.176
-283.530	-51.066	0.086	0.040
-282.516	-4.583	0.428	-0.293
-281.501	800.000	-0.025	-0.093
-280.486	800.000	-0.081	-0.352
-279.472	-41.520	-0.120	0.061
-278.457	88.629	-0.065	-0.071
-277.443	800.000	-0.094	0.280
-276.428	-200.000	0.013	0.231
-275.413	35.089	-0.145	-0.126
-274.399	155.428	-0.119	0.162
-273.384	-83.354	-0.225	-0.072
-272.370	-60.511	0.262	-0.110
-271.355	800.000	-0.039	-0.112
-270.340	96.512	-0.224	0.254
-269.326	-103.575	0.242	0.056
-268.311	33.322	0.095	-0.082
-267.297	118.251	0.133	-0.162
-266.282	296.160	0.104	-0.189
-265.267	-33.010	-0.191	0.105
-264.253	-98.522	-0.169	0.043
-263.238	-122.637	0.297	-0.048
-262.224	-200.000	-0.011	0.072
-261.209	-97.274	0.169	0.044
-260.195	87.324	-0.192	-0.210
-259.180	155.510	0.152	-0.207
-258.165	578.553	0.126	-0.306
-257.151	40.689	-0.234	-0.209
-256.136	-200.000	-0.002	-0.216
-255.122	800.000	0.007	0.021
-254.107	308.310	0.004	-0.008
-253.092	-104.689	-0.143	-0.033
-252.078	339.385	-0.129	0.248
-251.063	-30.410	0.346	0.194
-250.049	-100.884	-0.232	0.056
-249.034	-200.000	-0.016	0.112
-248.019	-200.000	0.041	0.187
-247.005	233.463	-0.006	0.010
-245.990	14.650	0.034	0.026
-244.976	176.295	0.189	-0.272
-243.961	75.709	-0.037	-0.039
-242.946	37.992	0.082	-0.072
-241.932	-100.239	-0.357	0.088
-240.917	-109.354	-0.275	0.058
-239.903	42.472	0.173	-0.155
-238.888	668.482	0.101	0.260
-237.873	136.295	0.101	0.130
-236.859	37.732	-0.119	0.104
-235.844	110.910	-0.045	0.054
-234.830	308.153	0.164	-0.303
-233.815	694.788	-0.118	0.307
-232.800	-0.660	-0.099	-0.069
-231.786	-92.933	-0.148	-0.041
-230.771	-92.579	-0.085	0.024
-229.757	-200.000	-0.182	0.000
-228.742	-200.000	0.072	-0.435
-227.727	-167.334	-0.239	0.009
-226.713	26.120	-0.196	0.161
-225.698	-25.260	-0.020	-0.012
-224.684	39.640	0.183	-0.163
-223.669	-125.071	0.037	-0.006
-222.655	104.421	0.111	-0.130
-221.640	-200.000	-0.056	0.498
-220.625	-19.022	0.232	0.142
-219.611	158.662	-0.022	0.030
-218.596	375.589	0.077	0.154
-217.582	670.159	0.093	0.237
-216.567	800.000	-0.024	0.087
-215.552	-97.738	-0.172	0.044
-214.538	276.723	-0.015	0.027
-213.523	-95.549	0.201	-0.053
-212.509	-66.269	-0.081	0.032
-211.494	-35.449	0.420	-0.225
-210.479	-155.176	-0.182	-0.012
-209.465	-200.000	0.006	-0.085
-208.450	99.514	-0.489	0.559
-207.436	-124.572	0.075	-0.012
-206.421	-115.208	0.096	0.018
-205.406	6.748	0.207	-0.152
-204.392	246.037	-0.117	-0.195
-203.377	-25.209	-0.108	0.063
-202.363	74.112	0.114	0.118
-201.348	-200.000	0.045	0.457
-200.333	80.677	-0.197	0.210
-199.319	-200.000	-0.008	0.098
-198.304	-200.000	0.019	-0.281
-197.290	-30.400	0.025	-0.014
-196.275	28.614	0.237	0.198
-195.260	125.372	-0.277	0.345
-194.246	175.593	0.173	0.248
-193.231	-99.030	0.289	0.072
-192.217	-127.990	0.141	-0.020
-191.202	68.075	-0.129	0.131
-190.187	800.000	-0.075	0.209
-189.173	302.264	0.085	0.156
-188.158	800.000	0.035	-0.148
-187.144	118.906	-0.241	-0.294
-186.129	-104.300	0.362	-0.083
-185.114	589.437	0.088	0.214
-184.100	110.065	-0.081	-0.096
-183.085	-200.000	0.052	0.274
-182.071	800.000	0.030	-0.102
-181.056	515.119	-0.095	0.219
-180.042	-63.514	0.043	-0.017
-179.027	-139.625	0.294	-0.031
-178.012	-200.000	-0.035	-0.362
-176.998	-200.000	0.024	0.284
-175.983	-200.000	-0.020	0.096
-174.969	-128.218	0.363	-0.051
-173.954	331.443	-0.079	0.151
-172.939	24.823	-0.174	0.142
-171.925	412.813	0.223	0.467
-170.910	800.000	-0.038	0.133
-169.896	-88.438	-0.203	0.060
-168.881	-129.207	0.341	0.047
-167.866	95.403	0.139	-0.157
-166.852	-8.979	-0.127	-0.084
-165.837	268.878	0.056	-0.097
-164.823	-68.175	-0.049	0.019
-163.808	800.000	-0.065	0.216
-162.793	-192.873	-0.066	0.001
-161.779	-140.537	-0.230	0.024
-160.764	-200.000	-0.010	0.062
-159.750	25.618	0.146	0.120
-158.735	-200.000	0.046	-0.425
-157.720	-50.444	-0.084	-0.039
-156.706	-104.578	0.259	-0.059
-155.691	-83.958	-0.478	-0.150
-154.677	309.184	-0.147	0.270
-153.662	-74.687	-0.145	-0.051
-152.647	48.900	-0.153	-0.141
-151.633	-171.387	-0.087	-0.003
-150.618	-77.618	0.254	-0.087
-149.604	17.867	0.223	0.175
-148.589	424.118	0.040	-0.085
-147.574	266.763	0.218	-0.376
-146.560	-102.218	0.126	-0.030
-145.545	175.438	-0.175	0.250
-144.531	83.412	0.114	0.122
-143.516	703.693	-0.116	-0.301
-142.502	-200.000	-0.031	-0.248
-141.487	-67.461	0.127	-0.049
-140.472	153.578	0.235	-0.318
-139.458	25.930	-0.193	0.159
-138.443	-125.508	-0.232	-0.035
-137.429	-109.763	-0.041	0.008
-136.414	68.529	0.067	-0.067
-135.399	16.750	-0.088	-0.068
-134.385	194.987	-0.019	0.028
-133.370	800.000	0.059	0.171
-132.356	449.356	-0.125	0.271
-131.341	-198.657	-0.288	0.002
-130.326	-128.623	-0.298	-0.042
-129.312	220.799	0.104	-0.164
-128.297	168.101	-0.223	-0.313
-127.283	800.000	-0.122	-0.378
-126.268	-200.000	0.037	0.251
-125.253	-74.473	0.240	-0.085
-124.239	-70.102	0.308	-0.115
-123.224	-71.951	0.295	0.108
-122.210	199.384	-0.225	-0.339
-121.195	512.931	0.101	0.232
-120.180	6.720	0.060	0.044
