DTS Sentinel unit serial number:	SN413079Multiplexer serial number:	ORYXHardware model number:	OX4-SRSoftware version number:	ORYX F/W v4.00 Oryx Data Collector v3.7.2.0data status	okinstallation	princeton_trtdifferential loss correction	single-endedforward channel	channel 1reverse channel	N/Adate	2019/09/14time	13:10:35forward acquisition time	60.00reverse acquisition time	0.00gamma	496.2192k internal	0.2294k external	0.2294temperature offset calibration	1.0087default loss term (dB/km)	0.3790temperature slope calibration	1.0000multiplexer offset coefficient	1.0000multiplexer slope coefficient	1.0000fibre end	0.00T internal ref (°C)	37.95T ext. ref 1 (°C)	4.87T ext. ref 2 (°C)	34.06length (m)	temperature (°C)	Stokes	anti-Stokes-747.200	-21.891	0.058	0.036
-746.185	-200.000	-0.035	0.169
-745.171	-76.827	-0.368	-0.132
-744.156	330.235	-0.083	0.163
-743.142	-138.343	0.424	-0.048
-742.127	-84.746	0.257	-0.083
-741.112	31.727	0.107	-0.094
-740.098	-103.565	0.235	0.057
-739.083	-60.073	-0.290	0.127
-738.069	-200.000	0.019	0.251
-737.054	-200.000	0.009	0.248
-736.039	8.464	-0.314	0.242
-735.025	88.507	-0.064	-0.073
-734.010	70.477	0.150	-0.159
-732.996	242.151	0.045	0.077
-731.981	-11.921	0.214	0.144
-730.966	-53.985	-0.091	-0.042
-729.952	-82.906	-0.110	-0.036
-728.937	-200.000	0.001	-0.050
-727.923	-200.000	0.041	-0.232
-726.908	12.902	-0.291	-0.230
-725.894	153.717	-0.118	-0.165
-724.879	109.504	0.147	-0.180
-723.864	155.164	-0.100	-0.140
-722.850	800.000	-0.127	-0.365
-721.835	310.761	0.153	0.293
-720.821	800.000	0.029	0.094
-719.806	-200.000	-0.029	-0.314
-718.791	3.018	-0.066	-0.049
-717.777	-200.000	-0.010	-0.080
-716.762	-200.000	-0.037	0.317
-715.748	-21.473	0.078	0.049
-714.733	-135.580	0.096	0.012
-713.718	330.337	0.119	-0.234
-712.704	-56.036	-0.478	-0.218
-711.689	0.404	0.165	-0.120
-710.675	-2.188	-0.025	0.018
-709.660	257.965	0.137	-0.240
-708.645	-186.040	-0.144	-0.002
-707.631	118.531	0.226	-0.285
-706.616	165.366	0.098	0.142
-705.602	112.135	-0.255	-0.315
-704.587	740.690	0.084	0.232
-703.572	-78.355	-0.153	0.054
-702.558	591.312	0.053	0.133
-701.543	800.000	0.082	0.289
-700.529	49.798	-0.135	0.130
-699.514	800.000	0.035	0.154
-698.499	0.010	0.235	-0.171
-697.485	-110.291	0.059	0.012
-696.470	23.181	-0.260	0.218
-695.456	-81.464	0.257	0.086
-694.441	-200.000	-0.016	-0.082
-693.426	-177.127	-0.064	-0.002
-692.412	-113.777	-0.297	-0.059
-691.397	800.000	0.058	0.188
-690.383	800.000	0.042	-0.120
-689.368	-145.250	-0.392	0.036
-688.354	-200.000	-0.044	-0.245
-687.339	27.497	0.154	0.132
-686.324	445.110	-0.078	0.174
-685.310	616.047	0.035	0.089
-684.295	62.459	-0.085	-0.086
-683.281	287.812	0.176	-0.324
-682.266	-0.431	-0.377	0.273
-681.251	800.000	-0.070	0.304
-680.237	-87.217	-0.192	-0.059
-679.222	-170.782	0.262	0.009
-678.208	-158.344	-0.244	0.014
-677.193	-200.000	-0.027	-0.153
-676.178	800.000	0.041	-0.126
-675.164	-75.261	0.144	-0.053
-674.149	438.671	-0.103	-0.229
-673.135	-34.850	-0.425	0.237
-672.120	-46.906	-0.094	0.047
-671.105	-65.554	0.288	0.118
-670.091	-171.408	0.272	0.009
-669.076	121.166	-0.070	0.089
-668.062	-44.061	0.116	-0.059
-667.047	-119.489	-0.299	0.053
-666.032	1.012	0.276	0.202
-665.018	-126.819	-0.245	-0.037
-664.003	-26.157	-0.174	0.104
-662.989	108.577	-0.178	-0.217
-661.974	376.601	0.038	0.079
-660.959	800.000	0.134	0.425
-659.945	-200.000	0.023	-0.292
-658.930	-43.943	-0.061	-0.031
-657.916	-96.895	-0.327	-0.087
-656.901	-56.886	-0.247	-0.111
-655.886	1.804	0.175	-0.129
-654.872	-169.227	0.091	-0.003
-653.857	-125.246	-0.070	0.011
-652.843	-194.965	-0.398	0.003
-651.828	-83.126	0.322	-0.105
-650.814	82.096	-0.167	0.184
-649.799	-200.000	0.019	-0.503
-648.784	-53.467	-0.156	0.073
-647.770	-103.080	0.397	0.096
-646.755	497.602	0.080	-0.188
-645.741	-200.000	-0.012	-0.136
-644.726	117.284	-0.291	0.364
-643.711	24.101	-0.325	0.273
-642.697	-135.938	0.174	0.021
-641.682	218.002	-0.023	0.037
-640.668	-200.000	-0.004	-0.232
-639.653	-41.369	0.051	-0.027
-638.638	-109.913	0.457	-0.097
-637.624	64.401	0.122	-0.125
-636.609	-97.536	-0.203	0.054
-635.595	-44.689	0.197	0.100
-634.580	427.019	-0.149	0.328
-633.565	-35.586	0.152	-0.084
-632.551	-181.864	0.023	-0.000
-631.536	74.477	-0.065	-0.070
-630.522	-200.000	-0.001	-0.135
-629.507	-3.192	-0.190	-0.135
-628.492	273.376	-0.006	-0.011
-627.478	800.000	-0.077	0.254
-626.463	-33.647	0.051	0.029
-625.449	-37.889	0.344	-0.186
-624.434	-147.384	-0.225	0.019
-623.419	-54.363	-0.060	0.028
-622.405	-120.227	0.144	-0.025
-621.390	-85.086	-0.239	0.076
-620.376	-87.465	0.442	0.136
-619.361	-200.000	-0.034	-0.220
-618.346	191.919	-0.126	-0.193
-617.332	-138.740	0.006	0.001
-616.317	-38.159	-0.143	-0.077
-615.303	-134.568	0.217	0.027
-614.288	205.679	-0.192	0.303
-613.273	-3.826	-0.011	-0.008
-612.259	-127.823	-0.243	-0.036
-611.244	8.440	-0.247	-0.189
-610.230	74.407	0.212	0.226
-609.215	99.162	-0.243	-0.286
-608.201	-59.179	-0.548	0.240
-607.186	-89.303	-0.227	-0.068
-606.171	294.545	0.110	0.204
-605.157	231.172	-0.139	-0.232
-604.142	-200.000	0.067	-0.316
-603.128	800.000	0.086	-0.332
-602.113	60.669	0.088	0.089
-601.098	-200.000	0.003	-0.016
-600.084	-37.986	-0.228	-0.123
-599.069	800.000	-0.068	-0.195
-598.055	-94.778	-0.119	0.033
-597.040	612.555	0.118	-0.301
-596.025	-200.000	0.025	0.156
-595.011	-184.698	-0.149	0.002
-593.996	-200.000	0.045	-0.288
-592.982	55.486	-0.263	-0.258
-591.967	-164.207	0.304	-0.014
-590.952	-51.210	-0.093	0.044
-589.938	-95.505	0.232	0.063
-588.923	458.762	0.039	-0.089
-587.909	-200.000	-0.080	-0.405
-586.894	-135.669	0.201	-0.024
-585.879	-18.616	-0.153	-0.097
-584.865	-200.000	-0.023	0.117
-583.850	-34.003	0.287	0.160
-582.836	100.734	0.118	-0.140
-581.821	176.528	0.139	-0.205
-580.806	-129.285	-0.308	-0.044
-579.792	-200.000	-0.024	-0.167
-578.777	-109.669	0.104	-0.022
-577.763	-200.000	-0.022	0.332
-576.748	-107.092	0.258	-0.058
-575.733	-200.000	0.011	0.077
-574.719	62.647	0.038	0.039
-573.704	94.923	0.143	0.166
-572.690	-86.778	-0.280	-0.087
-571.675	-36.340	-0.225	-0.123
-570.661	44.617	0.110	0.102
-569.646	23.016	-0.114	0.095
-568.631	800.000	-0.092	-0.286
-567.617	-9.891	0.187	-0.127
-566.602	35.140	-0.168	-0.150
-565.588	-33.905	-0.268	-0.150
-564.573	-98.260	0.081	-0.021
-563.558	-200.000	-0.003	-0.324
-562.544	260.806	0.256	-0.450
-561.529	-0.694	0.117	-0.084
-560.515	-200.000	0.072	0.339
-559.500	-200.000	0.060	0.279
-558.485	435.498	0.063	0.139
-557.471	-79.380	-0.310	0.107
-556.456	42.507	0.112	0.104
-555.442	-21.430	-0.201	0.124
-554.427	426.181	-0.101	0.221
-553.412	37.491	-0.174	-0.156
-552.398	-126.381	-0.083	0.013
-551.383	-119.067	0.092	0.016
-550.369	-87.243	0.103	-0.032
-549.354	452.573	0.087	-0.195
-548.339	-90.112	0.042	-0.013
-547.325	-27.416	-0.073	-0.043
-546.310	-80.080	-0.066	-0.022
-545.296	-200.000	0.000	-0.034
-544.281	-113.038	-0.225	-0.045
-543.266	-200.000	0.002	-0.024
-542.252	800.000	0.089	0.378
-541.237	-200.000	-0.018	0.367
-540.223	77.481	0.063	0.068
-539.208	-149.872	-0.140	0.011
-538.193	-122.484	0.173	-0.029
-537.179	13.780	-0.193	-0.152
-536.164	158.350	0.195	0.274
-535.150	1.151	0.057	0.042
-534.135	303.892	0.303	-0.569
-533.121	-20.122	0.382	-0.239
-532.106	-57.417	-0.246	0.110
-531.091	-200.000	0.014	-0.083
-530.077	-200.000	-0.018	-0.106
-529.062	-200.000	-0.009	-0.079
-528.048	204.452	-0.057	-0.089
-527.033	-96.602	-0.200	0.053
-526.018	-200.000	0.040	-0.240
-525.004	676.173	-0.011	0.030
-523.989	275.153	-0.014	0.025
-522.975	-55.689	0.143	0.065
-521.960	-23.315	-0.111	0.068
-520.945	800.000	0.061	-0.214
-519.931	800.000	-0.048	-0.141
-518.916	-57.952	0.204	0.090
-517.902	-200.000	0.023	-0.259
-516.887	-183.770	0.129	0.002
-515.872	-187.954	-0.414	-0.005
-514.858	-166.310	0.226	0.010
-513.843	-13.211	-0.243	0.160
-512.829	800.000	-0.066	-0.229
-511.814	-75.967	0.219	0.079
-510.799	146.887	-0.016	0.021
-509.785	-200.000	0.066	0.354
-508.770	28.675	0.168	-0.144
-507.756	-114.279	0.324	0.063
-506.741	-132.469	0.264	-0.034
-505.726	-200.000	-0.014	0.084
-504.712	194.116	-0.155	0.237
-503.697	800.000	-0.059	0.176
-502.683	-200.000	0.055	-0.258
-501.668	59.043	-0.189	0.189
-500.653	67.658	-0.120	0.124
-499.639	-164.894	0.073	0.003
-498.624	-13.119	-0.133	-0.087
-497.610	380.127	-0.028	-0.058
-496.595	-200.000	-0.019	-0.377
-495.581	67.254	0.122	0.126
-494.566	216.686	-0.041	-0.065
-493.551	-84.916	0.196	0.062
-492.537	-80.820	-0.109	0.036
-491.522	-118.670	0.269	-0.048
-490.508	116.158	0.158	-0.197
-489.493	-25.077	-0.236	-0.141
-488.478	-164.201	0.188	0.009
-487.464	510.679	0.138	0.325
-486.449	212.843	-0.125	-0.200
-485.435	-36.439	0.225	0.123
-484.420	-36.944	0.310	-0.168
-483.405	67.270	-0.159	-0.165
-482.391	-16.155	-0.372	0.240
-481.376	134.669	0.114	-0.150
-480.362	-200.000	0.003	-0.141
-479.347	211.739	-0.127	-0.202
-478.332	-200.000	-0.007	0.076
-477.318	60.819	-0.080	-0.080
-476.303	-123.322	0.256	0.041
-475.289	-50.231	-0.244	0.117
-474.274	-112.027	0.114	-0.023
-473.259	25.357	0.039	-0.033
-472.245	62.411	-0.146	-0.147
-471.230	-200.000	-0.000	0.023
-470.216	-200.000	-0.059	0.363
-469.201	-96.051	0.088	0.024
-468.186	75.797	-0.026	0.028
-467.172	-109.141	0.351	-0.075
-466.157	65.922	-0.134	0.137
-465.143	800.000	-0.137	0.456
-464.128	92.059	-0.352	-0.401
-463.113	15.199	0.290	-0.230
-462.099	-200.000	-0.072	0.320
-461.084	440.335	0.030	-0.065
-460.070	-133.255	-0.329	0.042
-459.055	85.515	-0.384	-0.426
-458.040	-105.613	-0.051	-0.012
-457.026	-200.000	-0.026	0.282
-456.011	-91.812	0.081	0.023
-454.997	800.000	-0.052	0.176
-453.982	417.934	0.144	-0.312
-452.968	209.905	-0.099	0.157
-451.953	53.798	-0.230	-0.223
-450.938	422.360	-0.195	-0.424
-449.924	138.166	0.086	-0.114
-448.909	-186.538	0.148	0.002
-447.895	-28.656	-0.265	-0.154
-446.880	-200.000	-0.002	0.048
-445.865	-76.197	-0.133	-0.047
-444.851	286.135	0.061	-0.112
-443.836	207.029	-0.071	-0.113
-442.822	457.269	0.100	0.224
-441.807	-200.000	0.054	-0.287
-440.792	106.839	-0.155	0.186
-439.778	-53.338	0.315	0.146
-438.763	-165.502	-0.308	-0.014
-437.749	427.140	-0.095	-0.208
-436.734	-200.000	-0.011	-0.159
-435.719	-65.459	-0.142	-0.058
-434.705	-72.071	-0.363	0.136
-433.690	-43.212	0.037	-0.019
-432.676	-157.323	0.215	-0.013
-431.661	-116.687	0.237	0.044
-430.646	191.145	-0.082	-0.124
-429.632	-200.000	0.032	0.213
-428.617	-131.763	-0.174	-0.023
-427.603	89.869	-0.106	0.119
-426.588	43.982	-0.100	0.093
-425.573	-200.000	0.032	0.316
-424.559	-41.765	-0.393	0.204
-423.544	-125.089	0.071	-0.011
-422.530	800.000	-0.015	-0.042
-421.515	-200.000	0.006	0.097
-420.500	-41.021	0.204	-0.106
-419.486	39.881	-0.054	-0.049
-418.471	-57.502	-0.298	-0.132
-417.457	-200.000	0.004	0.225
-416.442	-17.065	0.222	0.142
-415.428	221.700	0.109	0.177
-414.413	-122.701	-0.318	0.052
-413.398	-124.440	-0.257	0.040
-412.384	-104.085	-0.188	0.044
-411.369	-200.000	0.012	-0.054
-410.355	-120.314	0.176	-0.030
-409.340	-200.000	0.004	0.129
-408.325	89.864	0.215	0.242
-407.311	-200.000	-0.031	-0.156
-406.296	-69.540	-0.221	-0.086
-405.282	-109.281	-0.231	0.049
-404.267	-20.836	-0.122	-0.076
-403.252	-200.000	0.007	0.283
-402.238	-122.260	0.303	0.050
-401.223	-47.324	0.281	-0.138
-400.209	117.736	-0.211	-0.262
-399.194	-200.000	0.043	0.336
-398.179	-200.000	-0.011	0.183
-397.165	89.588	0.160	-0.180
-396.150	-9.114	-0.099	-0.067
-395.136	-76.429	-0.137	-0.049
-394.121	-200.000	-0.041	0.316
-393.106	-89.353	0.153	0.046
-392.092	13.863	0.345	0.271
-391.077	-77.105	-0.287	0.101
-390.063	36.355	0.098	0.087
-389.048	-200.000	0.008	0.166
-388.033	-170.003	-0.195	0.007
-387.019	-200.000	0.021	0.101
-386.004	179.787	-0.067	0.099
-384.990	800.000	0.036	0.141
-383.975	800.000	-0.195	0.593
-382.960	-200.000	-0.027	0.219
-381.946	-31.552	-0.066	-0.038
-380.931	-75.445	-0.058	-0.021
-379.917	-16.992	-0.061	0.039
-378.902	-142.382	0.282	0.028
-377.888	-49.254	-0.191	-0.092
-376.873	79.796	-0.259	-0.280
-375.858	210.127	0.050	-0.079
-374.844	-200.000	0.023	0.151
-373.829	-24.162	-0.229	-0.138
-372.815	-76.115	-0.132	0.047
-371.800	-200.000	0.044	-0.242
-370.785	-182.451	0.359	0.007
-369.771	-32.305	0.195	0.110
-368.756	644.955	0.080	0.205
-367.742	-124.873	-0.077	-0.012
-366.727	-152.948	-0.025	0.002
-365.712	-200.000	0.029	-0.154
-364.698	-157.749	-0.260	-0.016
-363.683	8.621	-0.214	-0.162
-362.669	-161.993	-0.190	0.010
-361.654	305.761	0.191	-0.358
-360.639	134.605	0.182	0.238
-359.625	-23.888	0.160	0.097
-358.610	685.434	0.070	-0.185
-357.596	-200.000	-0.036	0.230
-356.581	-200.000	0.019	0.128
-355.566	176.242	-0.111	0.162
-354.552	800.000	-0.117	0.350
-353.537	83.112	-0.135	0.148
-352.523	48.131	0.179	0.169
-351.508	91.341	-0.145	-0.164
-350.493	-10.619	0.234	0.156
-349.479	128.379	-0.199	-0.255
-348.464	-40.591	0.141	0.074
-347.450	-69.295	-0.207	-0.080
-346.435	-78.520	-0.106	0.037
-345.420	163.209	0.128	0.182
-344.406	800.000	-0.025	-0.099
-343.391	335.119	0.140	0.274
-342.377	14.406	0.262	-0.205
-341.362	-9.079	-0.125	0.084
-340.348	-29.171	0.281	0.162
-339.333	800.000	-0.137	0.504
-338.318	-69.623	-0.055	0.021
-337.304	-200.000	-0.001	0.100
-336.289	-85.297	-0.041	0.013
-335.275	-33.748	-0.221	0.123
-334.260	-116.283	0.207	-0.039
-333.245	800.000	0.107	0.344
-332.231	-73.462	0.152	0.056
-331.216	-14.374	0.177	-0.115
-330.202	221.255	-0.093	0.151
-329.187	-200.000	-0.032	0.199
-328.172	21.456	-0.225	0.184
-327.158	307.227	-0.040	-0.075
-326.143	-28.967	-0.253	-0.146
-325.129	-29.357	0.289	-0.167
-324.114	1.290	-0.157	0.113
-323.099	-5.495	0.103	-0.071
-322.085	144.536	0.284	0.381
-321.070	-97.248	0.272	0.071
-320.056	39.678	-0.185	0.166
-319.041	-200.000	-0.004	0.141
-318.026	153.866	-0.093	0.128
-317.012	-45.412	0.232	-0.116
-315.997	509.169	0.136	-0.317
-314.983	16.981	-0.258	-0.206
-313.968	-40.151	-0.169	-0.089
-312.953	100.942	-0.137	0.160
-311.939	-99.610	-0.155	0.039
-310.924	800.000	-0.036	0.134
-309.910	239.672	-0.031	-0.051
-308.895	-111.453	0.291	0.060
-307.880	-0.686	-0.249	-0.177
-306.866	-42.844	0.244	0.125
-305.851	359.222	-0.055	-0.111
-304.837	-86.404	-0.206	0.064
-303.822	59.889	0.169	0.168
-302.807	139.741	-0.095	0.126
-301.793	-122.315	0.225	0.037
-300.778	-57.913	-0.312	0.137
-299.764	800.000	0.070	0.235
-298.749	-69.944	0.092	-0.035
-297.735	-88.473	0.166	0.050
-296.720	188.088	-0.104	-0.156
-295.705	-70.858	-0.145	-0.055
-294.691	47.033	0.165	-0.154
-293.676	-200.000	0.038	-0.169
-292.662	-48.726	0.102	-0.049
-291.647	173.923	-0.200	-0.290
-290.632	-30.452	-0.264	-0.151
-289.618	-171.052	0.087	0.003
-288.603	116.041	0.138	-0.169
-287.589	682.986	0.085	-0.222
-286.574	-14.267	-0.163	-0.105
-285.559	45.652	-0.045	-0.042
-284.545	-21.704	-0.241	0.148
-283.530	24.087	0.009	0.007
-282.516	666.435	-0.029	-0.076
-281.501	-117.972	0.111	-0.020
-280.486	-4.616	0.256	-0.177
-279.472	-128.752	-0.028	0.004
-278.457	800.000	-0.012	-0.037
-277.443	-200.000	0.008	-0.162
-276.428	-80.010	0.169	-0.057
-275.413	-200.000	0.056	-0.317
-274.399	800.000	0.125	-0.437
-273.384	-200.000	-0.035	0.166
-272.370	-177.485	-0.195	0.005
-271.355	11.736	0.091	-0.070
-270.340	-179.105	-0.101	0.002
-269.326	800.000	-0.042	0.159
-268.311	-195.798	-0.198	-0.001
-267.297	-200.000	-0.060	-0.349
-266.282	-93.893	-0.165	0.045
-265.267	-200.000	0.009	-0.183
-264.253	-200.000	0.046	-0.240
-263.238	311.118	-0.131	0.247
-262.224	-96.571	0.170	-0.045
-261.209	-140.130	0.094	0.010
-260.195	800.000	0.060	-0.249
-259.180	-200.000	0.036	-0.242
-258.165	-15.381	0.290	0.186
-257.151	-35.346	-0.264	0.144
-256.136	800.000	0.041	0.113
-255.122	11.556	0.238	-0.183
-254.107	800.000	0.106	0.297
-253.092	-200.000	-0.012	0.056
-252.078	45.907	0.124	0.115
-251.063	-129.897	0.288	-0.040
-250.049	97.658	0.262	-0.302
-249.034	800.000	0.066	0.217
-248.019	-67.289	-0.281	0.111
-247.005	-72.216	-0.156	-0.058
-245.990	23.147	0.162	0.133
-244.976	-85.913	0.441	-0.137
-243.961	132.014	0.266	-0.343
-242.946	347.858	0.098	0.193
-241.932	-17.331	0.139	0.088
-240.917	193.430	-0.154	-0.233
-239.903	95.594	-0.163	-0.186
-238.888	332.187	0.087	0.167
-237.873	-87.729	0.318	0.096
-236.859	127.259	0.086	0.109
-235.844	-100.038	-0.124	-0.031
-234.830	-166.323	-0.049	0.002
-233.815	-200.000	-0.019	-0.367
-232.800	-35.605	0.158	-0.086
-231.786	-99.422	0.138	0.035
-230.771	-131.645	0.233	-0.031
-229.757	33.089	0.016	0.014
-228.742	4.352	0.315	-0.231
-227.727	234.267	-0.080	-0.133
-226.713	191.688	0.067	0.101
-225.698	32.067	0.362	0.313
-224.684	307.145	0.061	0.114
-223.669	-61.380	0.092	0.039
-222.655	-52.448	-0.103	0.048
-221.640	-149.596	0.252	0.020
-220.625	-158.702	-0.173	-0.010
-219.611	-200.000	-0.016	0.207
-218.596	800.000	-0.041	0.130
-217.582	-59.978	0.305	-0.131
-216.567	33.845	-0.069	0.060
-215.552	-99.440	-0.147	-0.037
-214.538	-60.304	-0.313	0.134
-213.523	800.000	-0.113	0.370
-212.509	28.503	-0.078	-0.066
-211.494	-122.842	0.198	0.032
-210.479	-94.402	-0.134	0.037
-209.465	-200.000	-0.004	0.444
-208.450	-77.670	-0.061	-0.021
-207.436	-87.737	-0.088	0.026
-206.421	7.540	-0.185	-0.139
-205.406	-17.575	-0.187	-0.118
-204.392	-128.311	0.364	0.052
-203.377	-200.000	0.045	0.222
-202.363	-80.407	-0.178	0.059
-201.348	346.729	0.050	-0.098
-200.333	-200.000	-0.079	-0.379
-199.319	361.856	0.149	-0.300
-198.304	68.357	-0.128	-0.132
-197.290	-105.103	-0.190	-0.044
-196.275	-7.558	-0.297	0.201
-195.260	357.370	0.138	0.275
-194.246	80.797	0.304	0.328
-193.231	-33.680	0.168	0.093
-192.217	-125.864	0.266	-0.040
-191.202	-200.000	0.019	0.139
-190.187	-49.427	-0.162	0.077
-189.173	745.040	0.029	0.078
-188.158	110.947	-0.197	0.237
-187.144	29.527	0.236	-0.201
-186.129	-200.000	-0.003	-0.051
-185.114	-115.935	-0.104	0.019
-184.100	529.786	0.028	-0.066
-183.085	-140.853	-0.293	-0.030
-182.071	-94.485	-0.243	-0.066
-181.056	207.402	-0.074	0.115
-180.042	800.000	-0.032	-0.114
-179.027	-200.000	0.014	-0.210
-178.012	80.717	0.132	0.142
-176.998	19.267	0.092	0.074
-175.983	17.788	0.180	0.143
-174.969	-112.008	-0.415	-0.084
-173.954	-54.237	0.350	-0.159
-172.939	-120.344	0.264	-0.045
-171.925	18.888	-0.336	0.269
-170.910	-168.397	0.264	0.010
-169.896	800.000	0.067	-0.221
-168.881	-143.977	0.253	-0.024
-167.866	-148.571	-0.298	-0.024
-166.852	-62.300	0.138	0.057
-165.837	-200.000	-0.001	-0.262
-164.823	-200.000	-0.023	0.199
-163.808	-70.208	-0.344	-0.131
-162.793	683.806	-0.041	0.106
-161.779	-200.000	-0.022	-0.136
-160.764	117.320	0.184	0.226
-159.750	-36.223	0.062	0.033
-158.735	94.002	0.172	0.195
-157.720	-116.810	0.253	0.046
-156.706	213.783	-0.120	-0.189
-155.691	-52.638	0.358	0.165
-154.677	69.165	-0.203	0.208
-153.662	-200.000	-0.112	-0.500
-152.647	399.304	-0.093	-0.194
-151.633	176.130	0.198	0.287
-150.618	60.748	0.313	0.310
-149.604	-81.716	0.348	-0.114
-148.589	-200.000	0.006	-0.071
-147.574	800.000	-0.058	0.225
-146.560	-26.856	0.236	0.138
-145.545	356.147	0.108	-0.216
-144.531	206.383	0.146	0.227
-143.516	-60.264	0.177	0.076
-142.502	-62.109	-0.302	-0.126
-141.487	69.062	0.272	-0.279
-140.472	-59.604	0.104	0.045
-139.458	177.852	-0.163	-0.238
-138.443	158.919	0.100	-0.138
-137.429	-124.570	-0.132	0.020
-136.414	800.000	-0.052	0.208
-135.399	442.723	-0.074	-0.162
-134.385	-136.576	-0.382	0.044
-133.370	-52.419	-0.158	0.073
-132.356	30.946	0.236	0.202
-131.341	-21.554	0.153	-0.093
-130.326	-142.040	-0.399	0.040
-129.312	800.000	0.182	0.529
-128.297	176.208	-0.026	0.037
-127.283	159.210	-0.189	-0.262
-126.268	800.000	-0.105	0.380
-125.253	-98.425	-0.122	-0.031
-124.239	-139.808	-0.116	-0.012
-123.224	10.772	0.127	0.096
-122.210	-24.295	-0.332	0.198
-121.195	-131.306	0.081	0.011
