DTS Sentinel unit serial number:	SN413079Multiplexer serial number:	ORYXHardware model number:	OX4-SRSoftware version number:	ORYX F/W v4.00 Oryx Data Collector v3.7.2.0data status	okinstallation	princeton_trtdifferential loss correction	single-endedforward channel	channel 1reverse channel	N/Adate	2019/09/19time	14:34:35forward acquisition time	60.00reverse acquisition time	0.00gamma	496.2192k internal	0.2320k external	0.2320temperature offset calibration	1.0021default loss term (dB/km)	0.3790temperature slope calibration	1.0000multiplexer offset coefficient	1.0000multiplexer slope coefficient	1.0000fibre end	0.00T internal ref (°C)	32.31T ext. ref 1 (°C)	1.07T ext. ref 2 (°C)	29.24length (m)	temperature (°C)	Stokes	anti-Stokes-747.200	-200.000	0.000	0.319
-746.185	-163.931	-0.069	-0.003
-745.171	800.000	0.038	-0.120
-744.156	800.000	-0.101	0.311
-743.142	3.949	0.251	0.186
-742.127	199.378	0.059	0.091
-741.112	800.000	0.059	0.252
-740.098	-200.000	0.003	0.181
-739.083	48.304	-0.142	0.135
-738.069	-200.000	-0.046	0.342
-737.054	162.148	0.061	0.087
-736.039	-192.724	-0.303	-0.003
-735.025	-200.000	-0.032	0.157
-734.010	-115.919	-0.506	0.095
-732.996	-86.347	-0.428	0.133
-731.981	-151.283	-0.322	-0.024
-730.966	-103.414	0.334	-0.079
-729.952	-152.160	-0.237	-0.017
-728.937	-13.060	-0.067	-0.044
-727.923	-200.000	0.035	0.298
-726.908	67.915	0.042	0.043
-725.894	61.576	-0.396	-0.398
-724.879	239.922	-0.056	0.094
-723.864	-116.786	-0.105	0.019
-722.850	260.549	-0.152	-0.265
-721.835	174.652	0.227	-0.331
-720.821	800.000	0.061	-0.252
-719.806	37.059	-0.181	-0.162
-718.791	-59.772	-0.150	-0.065
-717.777	232.281	-0.083	0.138
-716.762	-47.559	-0.345	0.169
-715.748	-91.685	0.126	-0.036
-714.733	-200.000	-0.074	0.434
-713.718	-12.699	0.423	0.278
-712.704	-200.000	-0.008	-0.202
-711.689	30.913	-0.101	-0.087
-710.675	48.786	-0.343	-0.325
-709.660	-57.001	0.149	-0.066
-708.645	-32.529	-0.097	-0.054
-707.631	133.715	0.037	0.049
-706.616	-19.483	-0.029	-0.018
-705.602	-200.000	0.001	-0.199
-704.587	-66.605	0.152	-0.061
-703.572	800.000	-0.008	0.036
-702.558	800.000	-0.035	-0.101
-701.543	135.041	0.158	0.208
-700.529	-87.754	-0.317	-0.096
-699.514	50.523	0.259	0.248
-698.499	-119.520	-0.186	0.033
-697.485	670.594	-0.162	-0.424
-696.470	800.000	-0.025	0.072
-695.456	-78.916	-0.114	0.039
-694.441	275.679	-0.216	-0.387
-693.426	482.266	0.202	0.464
-692.412	800.000	0.053	0.210
-691.397	453.289	0.080	0.180
-690.383	-200.000	0.013	0.125
-689.368	-126.723	-0.184	0.027
-688.354	128.046	-0.147	-0.189
-687.339	-51.457	0.284	-0.134
-686.324	-32.830	0.086	-0.048
-685.310	107.293	0.208	-0.250
-684.295	-200.000	0.068	-0.473
-683.281	-200.000	0.012	-0.147
-682.266	-1.504	-0.097	-0.069
-681.251	-41.132	-0.385	-0.201
-680.237	565.732	-0.125	-0.306
-679.222	364.868	-0.022	-0.044
-678.208	72.284	-0.048	0.051
-677.193	268.413	0.151	0.266
-676.178	394.163	0.106	-0.222
-675.164	50.292	0.119	-0.114
-674.149	-107.614	0.248	0.055
-673.135	601.923	-0.079	-0.199
-672.120	513.596	0.008	0.019
-671.105	-147.987	-0.232	0.019
-670.091	-10.273	0.099	0.066
-669.076	-21.823	0.162	-0.099
-668.062	-200.000	0.005	-0.148
-667.047	-15.277	0.081	0.052
-666.032	273.935	0.137	-0.245
-665.018	-103.044	-0.245	0.059
-664.003	-14.782	-0.272	-0.176
-662.989	69.464	-0.081	-0.084
-661.974	5.106	0.053	0.039
-660.959	-148.807	-0.133	-0.011
-659.945	234.114	0.081	0.134
-658.930	20.788	-0.193	0.157
-657.916	-200.000	0.030	0.146
-656.901	119.833	-0.249	0.311
-655.886	-80.633	0.173	0.058
-654.872	-128.307	-0.351	-0.050
-653.857	9.202	-0.292	0.223
-652.843	123.682	-0.185	0.234
-651.828	715.383	0.109	0.292
-650.814	-200.000	-0.018	0.350
-649.799	186.691	0.156	-0.234
-648.784	-71.147	0.504	0.191
-647.770	-200.000	-0.041	0.204
-646.755	280.118	-0.067	-0.120
-645.741	146.571	-0.053	-0.071
-644.726	800.000	-0.110	-0.423
-643.711	-200.000	0.063	-0.361
-642.697	-162.134	-0.200	-0.010
-641.682	223.512	0.137	-0.222
-640.668	187.196	0.019	-0.028
-639.653	-200.000	0.014	0.233
-638.638	-72.032	-0.105	0.039
-637.624	800.000	0.055	0.240
-636.609	20.049	0.091	-0.074
-635.595	-38.313	-0.344	0.184
-634.580	800.000	0.049	-0.168
-633.565	-48.106	-0.106	-0.052
-632.551	800.000	-0.023	0.084
-631.536	152.449	0.146	-0.201
-630.522	-151.382	0.133	0.010
-629.507	145.508	-0.109	0.147
-628.492	-200.000	0.025	-0.288
-627.478	26.210	0.141	-0.119
-626.463	-179.447	-0.155	0.003
-625.449	-70.169	-0.174	-0.067
-624.434	78.189	0.086	-0.093
-623.419	-133.785	0.136	-0.017
-622.405	326.526	-0.124	0.240
-621.390	-36.535	-0.417	0.226
-620.376	-99.925	-0.082	0.021
-619.361	47.714	-0.131	0.123
-618.346	-27.105	0.061	0.036
-617.332	-80.087	-0.055	0.019
-616.317	-153.270	-0.364	0.026
-615.303	21.206	-0.442	0.362
-614.288	51.450	-0.011	-0.011
-613.273	-200.000	-0.027	-0.251
-612.259	655.883	-0.146	-0.378
-611.244	-200.000	0.007	0.074
-610.230	144.988	0.127	0.171
-609.215	-66.320	-0.173	-0.069
-608.201	800.000	-0.038	-0.139
-607.186	-166.318	-0.179	-0.008
-606.171	-4.566	0.084	0.058
-605.157	138.829	-0.174	-0.230
-604.142	800.000	-0.078	0.231
-603.128	-9.244	0.167	0.112
-602.113	10.092	-0.246	0.188
-601.098	217.288	0.136	-0.218
-600.084	-72.812	-0.387	-0.143
-599.069	-58.103	0.103	0.045
-598.055	-29.874	-0.100	-0.057
-597.040	76.067	0.180	0.191
-596.025	182.951	-0.125	0.186
-595.011	-98.310	-0.097	-0.025
-593.996	-43.243	0.318	-0.162
-592.982	-45.746	-0.228	0.113
-591.967	1.828	0.086	0.062
-590.952	108.766	-0.126	-0.151
-589.938	-200.000	0.009	-0.120
-588.923	-47.273	0.061	-0.030
-587.909	-83.289	-0.184	-0.059
-586.894	43.764	0.020	0.018
-585.879	-57.741	-0.151	0.066
-584.865	357.327	-0.170	-0.340
-583.850	348.659	-0.097	0.191
-582.836	800.000	0.074	-0.281
-581.821	-16.114	0.029	0.019
-580.806	108.832	-0.198	0.238
-579.792	155.262	-0.066	-0.092
-578.777	56.992	-0.025	-0.024
-577.763	-16.069	-0.243	0.155
-576.748	420.139	-0.115	-0.248
-575.733	75.851	-0.236	-0.251
-574.719	24.987	-0.044	-0.037
-573.704	121.873	-0.173	-0.216
-572.690	-12.781	0.192	0.126
-571.675	-11.917	-0.429	-0.283
-570.661	168.983	-0.301	-0.432
-569.646	800.000	-0.078	-0.268
-568.631	-30.930	-0.039	-0.022
-567.617	629.678	0.067	-0.169
-566.602	295.508	0.039	0.071
-565.588	-118.014	-0.197	-0.035
-564.573	-194.227	0.090	0.001
-563.558	134.814	0.208	0.271
-562.544	-200.000	0.010	0.190
-561.529	-102.664	0.170	-0.041
-560.515	44.649	-0.111	-0.102
-559.500	800.000	0.070	0.205
-558.485	-10.012	-0.080	-0.053
-557.471	49.973	0.168	0.159
-556.456	451.403	0.068	0.151
-555.442	-122.939	-0.524	0.085
-554.427	282.941	-0.162	-0.292
-553.412	132.144	0.166	0.215
-552.398	100.051	-0.148	0.173
-551.383	473.462	0.093	-0.210
-550.369	-30.174	-0.311	0.177
-549.354	-65.847	-0.045	-0.018
-548.339	161.043	0.036	0.051
-547.325	-113.480	-0.033	0.007
-546.310	237.684	0.089	-0.147
-545.296	10.357	-0.168	0.128
-544.281	351.553	-0.066	-0.131
-543.266	-138.067	0.148	-0.016
-542.252	206.423	-0.059	0.093
-541.237	-65.645	-0.273	0.110
-540.223	14.497	0.385	-0.302
-539.208	318.084	0.095	-0.181
-538.193	-200.000	0.028	0.219
-537.179	-70.969	-0.166	-0.063
-536.164	196.743	0.055	-0.084
-535.150	-175.115	-0.208	-0.006
-534.135	72.124	0.159	0.166
-533.121	800.000	0.120	0.430
-532.106	247.839	-0.122	0.207
-531.091	-98.352	-0.069	0.018
-530.077	-88.879	-0.367	0.109
-529.062	46.755	0.051	0.048
-528.048	200.265	0.098	-0.151
-527.033	800.000	-0.137	-0.427
-526.018	101.152	-0.232	-0.270
-525.004	-200.000	-0.013	-0.308
-523.989	-200.000	-0.032	0.336
-522.975	-200.000	0.014	0.075
-521.960	-65.377	0.231	-0.093
-520.945	-200.000	-0.016	0.128
-519.931	-78.205	-0.069	-0.024
-518.916	-104.930	0.034	0.008
-517.902	-200.000	0.019	-0.176
-516.887	380.668	0.072	-0.149
-515.872	55.773	-0.195	0.190
-514.858	-200.000	-0.020	0.092
-513.843	206.056	0.094	0.147
-512.829	-65.063	0.295	-0.120
-511.814	47.219	0.247	0.231
-510.799	500.824	0.060	-0.138
-509.785	-200.000	-0.006	-0.087
-508.770	-200.000	-0.047	0.248
-507.756	-13.145	0.325	-0.212
-506.741	-166.579	0.309	-0.013
-505.726	-106.383	0.044	0.010
-504.712	-115.466	-0.172	-0.033
-503.697	215.512	0.158	0.252
-502.683	-158.242	-0.226	0.013
-501.668	800.000	0.020	0.058
-500.653	-144.168	-0.297	0.028
-499.639	-90.996	0.173	-0.050
-498.624	-117.324	0.398	-0.072
-497.610	800.000	0.046	0.193
-496.595	-114.247	0.190	-0.037
-495.581	1.700	0.130	0.094
-494.566	-65.819	-0.171	-0.068
-493.551	-20.772	-0.039	0.024
-492.537	93.461	-0.152	0.173
-491.522	-151.143	0.243	0.018
-490.508	11.814	0.142	0.109
-489.493	-200.000	-0.033	0.230
-488.478	318.515	-0.085	0.161
-487.464	-59.364	0.410	0.176
-486.449	-76.791	0.302	0.106
-485.435	-125.633	0.372	-0.056
-484.420	41.998	0.178	-0.162
-483.405	-200.000	-0.352	0.000
-482.391	-200.000	0.012	0.057
-481.376	193.637	-0.058	0.088
-480.362	-200.000	-0.007	-0.242
-479.347	66.966	0.436	0.445
-478.332	-200.000	-0.036	0.288
-477.318	190.028	-0.091	0.137
-476.303	-196.302	0.257	-0.002
-475.289	-32.540	-0.123	-0.069
-474.274	-160.744	-0.112	0.006
-473.259	-156.534	-0.422	0.026
-472.245	64.243	-0.136	-0.137
-471.230	-96.804	-0.194	-0.051
-470.216	137.769	-0.139	-0.182
-469.201	88.986	0.074	-0.082
-468.186	596.541	-0.024	-0.059
-467.172	-56.743	0.233	0.103
-466.157	103.908	0.199	0.234
-465.143	-80.586	0.177	0.059
-464.128	-22.383	0.203	-0.123
-463.113	-109.069	-0.269	-0.057
-462.099	-43.903	-0.063	-0.032
-461.084	-49.641	0.208	0.099
-460.070	32.737	-0.232	0.200
-459.055	209.845	0.134	-0.209
-458.040	79.782	-0.256	0.275
-457.026	-189.778	-0.170	-0.002
-456.011	-93.300	0.336	-0.093
-454.997	134.062	-0.104	-0.135
-453.982	-98.521	-0.469	-0.120
-452.968	204.459	-0.016	0.024
-451.953	-49.185	0.185	-0.088
-450.938	800.000	0.095	0.371
-449.924	-58.367	-0.159	-0.069
-448.909	7.974	-0.193	-0.145
-447.895	-11.485	-0.219	-0.144
-446.880	125.881	-0.202	-0.256
-445.865	-104.874	0.265	-0.061
-444.851	-45.398	-0.334	-0.166
-443.836	74.781	0.035	0.037
-442.822	-105.471	0.228	-0.052
-441.807	-34.328	0.256	0.140
-440.792	-11.335	0.162	0.106
-439.778	-200.000	-0.033	-0.160
-438.763	800.000	0.091	0.280
-437.749	-200.000	-0.021	-0.338
-436.734	523.326	0.014	-0.032
-435.719	-114.850	0.079	-0.015
-434.705	-29.105	0.101	-0.058
-433.690	-113.767	-0.140	-0.027
-432.676	8.614	0.293	0.221
-431.661	149.018	-0.152	-0.205
-430.646	492.527	-0.213	-0.489
-429.632	65.923	0.173	-0.175
-428.617	786.846	0.052	-0.144
-427.603	107.292	0.121	0.144
-426.588	28.819	0.189	0.160
-425.573	800.000	0.099	0.298
-424.559	800.000	0.056	-0.197
-423.544	-60.160	-0.063	-0.027
-422.530	-71.443	0.421	0.157
-421.515	-200.000	0.010	0.095
-420.500	-29.607	-0.111	-0.064
-419.486	-121.279	0.242	0.040
-418.471	800.000	0.045	0.146
-417.457	-200.000	-0.010	-0.077
-416.442	206.840	0.059	-0.092
-415.428	50.197	-0.245	0.231
-414.413	-71.789	-0.130	-0.048
-413.398	153.798	0.107	-0.147
-412.384	-129.353	-0.239	-0.033
-411.369	410.648	0.058	0.122
-410.355	-200.000	-0.013	-0.060
-409.340	-200.000	-0.006	-0.377
-408.325	60.865	-0.317	-0.314
-407.311	-90.030	-0.283	0.082
-406.296	655.055	0.092	-0.236
-405.282	123.726	-0.034	0.043
-404.267	286.053	0.070	-0.126
-403.252	29.952	-0.155	0.132
-402.238	3.438	0.165	0.120
-401.223	800.000	0.067	-0.191
-400.209	-200.000	-0.032	-0.151
-399.194	-93.133	0.209	0.058
-398.179	800.000	0.077	-0.294
-397.165	-128.892	0.298	0.042
-396.150	-109.851	-0.050	-0.010
-395.136	-131.252	-0.026	-0.003
-394.121	-10.352	-0.200	-0.132
-393.106	69.811	-0.041	0.042
-392.092	-200.000	-0.034	-0.514
-391.077	59.808	0.212	-0.208
-390.063	419.235	-0.095	-0.203
-389.048	-57.559	0.377	0.165
-388.033	2.856	-0.266	0.193
-387.019	-200.000	-0.063	0.496
-386.004	-60.074	0.201	0.086
-384.990	139.411	0.074	-0.097
-383.975	81.857	0.034	0.037
-382.960	-70.096	0.098	0.037
-381.946	27.415	-0.151	-0.126
-380.931	-39.271	-0.132	0.069
-379.917	-200.000	0.041	0.262
-378.902	351.933	0.110	0.217
-377.888	58.248	-0.173	0.169
-376.873	-28.681	0.503	0.289
-375.858	25.361	0.113	-0.094
-374.844	-154.755	0.263	0.017
-373.829	590.452	-0.086	0.213
-372.815	2.259	0.385	0.277
-371.800	-200.000	0.009	0.294
-370.785	191.757	0.136	-0.205
-369.771	-46.691	0.154	0.075
-368.756	7.576	-0.178	0.133
-367.742	-27.216	0.250	-0.145
-366.727	146.564	-0.041	0.055
-365.712	-177.763	0.241	-0.006
-364.698	800.000	-0.061	-0.199
-363.683	-54.508	0.133	-0.060
-362.669	-109.183	0.293	0.062
-361.654	-175.622	-0.210	-0.006
-360.639	-185.469	0.254	0.004
-359.625	-200.000	0.013	0.122
-358.610	58.622	-0.151	0.147
-357.596	-42.593	-0.332	0.168
-356.581	18.330	0.165	-0.132
-355.566	-87.210	-0.341	0.103
-354.552	-83.026	-0.157	-0.050
-353.537	-163.466	-0.166	0.008
-352.523	551.543	-0.042	-0.099
-351.508	-9.159	-0.159	0.106
-350.493	-70.329	-0.039	0.015
-349.479	800.000	0.112	0.314
-348.464	-123.251	-0.273	-0.043
-347.450	800.000	-0.117	-0.438
-346.435	80.961	0.204	-0.219
-345.420	83.134	-0.109	-0.118
-344.406	-75.537	0.053	0.019
-343.391	-200.000	0.005	0.217
-342.377	-103.075	0.331	0.078
-341.362	-200.000	-0.016	0.090
-340.348	-200.000	-0.029	0.355
-339.333	71.580	0.115	0.119
-338.318	800.000	-0.044	-0.132
-337.304	96.481	0.090	0.103
-336.289	-76.168	-0.087	-0.031
-335.275	105.159	-0.139	-0.163
-334.260	-106.465	-0.217	0.048
-333.245	-106.767	-0.165	-0.037
-332.231	-54.093	0.301	-0.136
-331.216	-141.874	0.300	0.030
-330.202	400.904	0.134	0.279
-329.187	-38.739	-0.355	0.187
-328.172	800.000	0.070	-0.263
-327.158	-177.392	0.285	0.007
-326.143	-76.571	-0.311	0.109
-325.129	800.000	-0.126	0.364
-324.114	-125.756	-0.054	-0.008
-323.099	-55.010	0.092	-0.041
-322.085	-185.878	-0.130	-0.002
-321.070	-38.660	-0.243	0.128
-320.056	-200.000	0.001	-0.231
-319.041	800.000	0.088	0.337
-318.026	57.862	-0.095	0.093
-317.012	800.000	0.016	0.056
-315.997	153.321	0.275	0.374
-314.983	-88.098	-0.194	-0.058
-313.968	-56.086	-0.517	-0.229
-312.953	-116.051	0.091	-0.017
-311.939	268.640	-0.089	-0.156
-310.924	-200.000	-0.069	-0.330
-309.910	-72.801	-0.207	-0.076
-308.895	240.372	-0.169	-0.280
-307.880	-200.000	-0.022	0.138
-306.866	800.000	-0.061	-0.204
-305.851	134.274	0.126	-0.162
-304.837	-38.003	0.267	-0.141
-303.822	-200.000	0.055	0.256
-302.807	30.915	0.184	-0.156
-301.793	308.888	0.096	-0.178
-300.778	-200.000	0.015	-0.259
-299.764	119.034	0.286	-0.351
-298.749	68.427	-0.187	0.190
-297.735	-110.402	-0.057	-0.012
-296.720	-200.000	-0.053	0.245
-295.705	-7.409	-0.134	0.090
-294.691	26.113	-0.090	0.075
-293.676	-200.000	0.015	0.263
-292.662	197.164	0.091	0.137
-291.647	236.706	0.038	0.063
-290.632	732.654	-0.100	-0.265
-289.618	-200.000	-0.073	0.000
-288.603	178.892	0.085	0.124
-287.589	-38.572	0.108	0.057
-286.574	766.847	0.048	0.130
-285.559	-200.000	0.010	0.148
-284.545	-200.000	0.012	0.167
-283.530	12.748	-0.220	-0.169
-282.516	-67.153	0.205	-0.080
-281.501	794.524	-0.057	-0.157
-280.486	48.960	0.232	-0.216
-279.472	122.132	0.076	-0.094
-278.457	55.298	0.100	0.096
-277.443	-119.269	-0.157	-0.027
-276.428	41.488	-0.165	-0.148
-275.413	-68.619	0.094	-0.036
-274.399	-135.368	0.270	0.032
-273.384	800.000	-0.017	0.064
-272.370	800.000	0.051	-0.162
-271.355	235.823	-0.166	-0.272
-270.340	71.679	0.086	0.089
-269.326	-29.580	-0.209	-0.118
-268.311	178.229	0.037	-0.054
-267.297	-79.569	-0.140	0.047
-266.282	170.090	-0.048	-0.069
-265.267	-32.758	0.089	0.049
-264.253	75.631	0.121	-0.127
-263.238	-129.160	0.086	0.012
-262.224	104.000	-0.094	0.110
-261.209	210.543	0.126	0.196
-260.195	-89.129	0.180	0.053
-259.180	800.000	0.078	0.296
-258.165	18.801	0.213	-0.169
-257.151	-96.468	0.081	0.021
-256.136	-200.000	-0.048	-0.217
-255.122	800.000	-0.048	-0.200
-254.107	-113.936	-0.046	0.009
-253.092	220.194	-0.164	-0.260
-252.078	800.000	0.021	0.080
-251.063	414.491	-0.064	-0.136
-250.049	-115.590	0.232	-0.043
-249.034	800.000	-0.018	0.054
-248.019	-154.064	0.379	-0.026
-247.005	-26.563	0.380	0.221
-245.990	-98.660	-0.563	0.143
-244.976	-122.118	-0.047	-0.008
-243.961	-98.125	0.062	-0.016
-242.946	44.784	0.112	-0.102
-241.932	-200.000	-0.054	-0.266
-240.917	158.356	0.064	-0.088
-239.903	38.237	-0.311	-0.275
-238.888	-167.794	0.224	0.009
-237.873	-58.535	-0.056	0.024
-236.859	-136.881	0.112	0.013
-235.844	-200.000	0.016	-0.144
-234.830	95.477	-0.077	0.087
-233.815	-200.000	0.005	-0.239
-232.800	-70.890	0.190	0.071
-231.786	-20.979	0.068	0.041
-230.771	94.385	0.151	-0.170
-229.757	-200.000	0.005	-0.067
-228.742	14.783	-0.180	-0.139
-227.727	-33.260	-0.136	-0.075
-226.713	-168.140	-0.135	-0.005
-225.698	-80.994	-0.189	-0.062
-224.684	295.921	-0.025	-0.045
-223.669	-44.152	-0.067	0.034
-222.655	-43.033	-0.196	-0.098
-221.640	-158.535	-0.332	0.019
-220.625	374.285	-0.100	0.202
-219.611	-154.915	0.166	0.011
-218.596	800.000	-0.105	0.309
-217.582	174.398	0.174	0.250
-216.567	-91.579	-0.295	-0.083
-215.552	-174.253	-0.098	0.003
-214.538	-87.194	0.219	0.066
-213.523	-175.162	0.152	-0.004
-212.509	553.262	0.101	0.240
-211.494	-83.823	-0.278	0.088
-210.479	-27.560	-0.309	0.178
-209.465	21.106	0.381	-0.306
-208.450	-65.470	0.143	0.057
-207.436	511.900	-0.062	0.143
-206.421	326.179	-0.200	-0.380
-205.406	140.331	0.051	-0.066
-204.392	38.505	-0.264	-0.233
-203.377	-200.000	-0.043	-0.289
-202.363	-119.124	-0.160	-0.028
-201.348	-34.075	0.126	-0.069
-200.333	-200.000	0.008	-0.212
-199.319	-193.506	0.156	0.001
-198.304	92.652	0.073	0.081
-197.290	-200.000	-0.039	0.267
-196.275	-8.637	-0.082	-0.055
-195.260	-75.447	-0.064	-0.022
-194.246	-34.967	0.182	-0.098
-193.231	21.676	0.055	0.044
-192.217	305.430	0.101	-0.186
-191.202	-61.097	-0.153	0.064
-190.187	99.419	-0.045	0.052
-189.173	33.272	0.207	0.178
-188.158	-111.626	0.273	-0.055
-187.144	-24.448	-0.132	0.078
-186.129	-65.939	0.353	-0.140
-185.114	0.292	-0.316	-0.223
-184.100	-128.878	0.378	0.053
-183.085	-200.000	0.064	0.317
-182.071	110.940	0.244	0.291
-181.056	10.067	0.272	-0.204
-180.042	-124.672	0.276	-0.042
-179.027	109.161	0.119	0.141
-178.012	-5.614	0.118	0.080
-176.998	517.989	0.122	0.283
-175.983	-200.000	0.069	0.394
-174.969	154.971	0.027	0.037
-173.954	434.313	-0.131	-0.282
-172.939	31.167	-0.090	-0.076
-171.925	72.049	-0.126	-0.129
-170.910	-200.000	0.206	0.000
-169.896	-200.000	0.073	-0.000
-168.881	-200.000	-0.012	0.374
-167.866	-50.329	-0.340	0.159
-166.852	-73.308	0.177	0.064
-165.837	-7.534	0.004	-0.003
-164.823	79.735	-0.129	0.137
-163.808	88.116	0.180	-0.197
-162.793	195.146	0.137	-0.206
-161.779	-64.753	-0.483	0.193
-160.764	-85.051	0.350	-0.109
-159.750	-200.000	0.054	0.520
-158.735	301.877	0.194	0.354
-157.720	-200.000	0.013	0.113
-156.706	800.000	0.031	0.091
-155.691	102.983	-0.195	0.226
-154.677	451.877	0.101	0.222
-153.662	-34.716	0.100	0.054
-152.647	237.362	-0.097	-0.159
-151.633	103.259	0.077	0.089
-150.618	-200.000	0.000	-0.088
-149.604	-200.000	0.026	0.233
-148.589	800.000	0.116	0.421
-147.574	800.000	-0.068	-0.250
-146.560	-29.247	-0.337	-0.191
-145.545	350.916	-0.207	-0.405
-144.531	-200.000	0.053	-0.230
-143.516	228.340	-0.106	0.171
-142.502	-118.384	0.450	0.079
-141.487	-138.479	0.230	0.025
-140.472	11.197	0.157	0.118
-139.458	-142.638	0.247	-0.024
-138.443	-200.000	0.008	0.099
-137.429	404.208	-0.125	-0.261
-136.414	-200.000	-0.157	-0.000
-135.399	-30.259	-0.191	0.107
-134.385	-120.550	-0.359	-0.060
-133.370	-103.879	0.441	0.102
-132.356	471.207	-0.118	-0.261
-131.341	-200.000	0.064	-0.483
-130.326	90.961	-0.360	-0.398
-129.312	-61.655	0.185	0.076
-128.297	37.254	0.256	0.224
-127.283	254.560	0.060	0.101
-126.268	-52.585	-0.131	-0.060
-125.253	-128.250	0.319	-0.045
-124.239	-74.321	-0.257	0.092
-123.224	389.228	0.081	-0.165
-122.210	-137.304	0.426	0.048
-121.195	-29.282	0.226	0.128
-120.180	3.329	-0.149	-0.107
