DTS Sentinel unit serial number:	SN413079Multiplexer serial number:	ORYXHardware model number:	OX4-SRSoftware version number:	ORYX F/W v4.00 Oryx Data Collector v3.7.2.0data status	okinstallation	princeton_trtdifferential loss correction	single-endedforward channel	channel 1reverse channel	N/Adate	2019/09/14time	14:14:35forward acquisition time	60.00reverse acquisition time	0.00gamma	496.2192k internal	0.2293k external	0.2293temperature offset calibration	1.0082default loss term (dB/km)	0.3790temperature slope calibration	1.0000multiplexer offset coefficient	1.0000multiplexer slope coefficient	1.0000fibre end	0.00T internal ref (°C)	38.62T ext. ref 1 (°C)	5.09T ext. ref 2 (°C)	36.79length (m)	temperature (°C)	Stokes	anti-Stokes-747.200	-165.522	-0.116	-0.005
-746.185	-92.811	0.101	0.029
-745.171	224.229	-0.166	-0.274
-744.156	199.429	-0.154	0.241
-743.142	-146.982	-0.206	0.018
-742.127	-19.805	0.202	0.128
-741.112	-117.048	0.170	-0.032
-740.098	25.017	-0.092	0.078
-739.083	-200.000	0.011	0.077
-738.069	-123.234	-0.162	0.027
-737.054	-142.437	-0.351	-0.035
-736.039	-200.000	-0.025	-0.245
-735.025	800.000	-0.094	0.357
-734.010	-75.920	0.040	-0.014
-732.996	52.243	0.105	-0.103
-731.981	284.648	0.154	0.283
-730.966	-160.144	-0.249	0.014
-729.952	-200.000	-0.017	0.083
-728.937	-67.754	-0.349	0.140
-727.923	800.000	-0.059	-0.197
-726.908	125.481	0.148	0.192
-725.894	-2.827	-0.170	-0.122
-724.879	-20.409	-0.324	-0.204
-723.864	-200.000	-0.004	0.097
-722.850	-130.160	0.397	-0.055
-721.835	-51.146	-0.260	-0.125
-720.821	9.516	0.225	-0.174
-719.806	-13.097	-0.223	0.148
-718.791	-139.829	-0.371	-0.040
-717.777	-72.926	0.243	-0.091
-716.762	50.771	-0.165	0.159
-715.748	-91.092	-0.058	0.017
-714.733	-81.736	-0.120	-0.040
-713.718	16.119	-0.280	0.225
-712.704	478.112	-0.021	0.049
-711.689	-29.171	-0.178	0.104
-710.675	-69.911	0.224	-0.087
-709.660	-66.324	-0.213	0.087
-708.645	-34.378	0.149	-0.084
-707.631	144.406	0.033	-0.045
-706.616	96.419	0.067	0.079
-705.602	-200.000	-0.024	-0.302
-704.587	-171.838	-0.155	-0.005
-703.572	-89.531	0.265	-0.080
-702.558	-200.000	-0.026	0.152
-701.543	-200.000	-0.030	-0.194
-700.529	262.310	-0.159	-0.281
-699.514	55.279	0.069	-0.068
-698.499	277.687	0.124	-0.225
-697.485	-124.553	0.141	-0.022
-696.470	751.039	-0.122	-0.336
-695.456	716.705	0.039	-0.106
-694.441	-200.000	0.044	0.239
-693.426	-134.597	-0.343	0.043
-692.412	800.000	0.040	-0.146
-691.397	489.769	-0.119	-0.277
-690.383	-95.362	-0.244	-0.067
-689.368	293.635	-0.035	-0.066
-688.354	425.376	-0.154	-0.338
-687.339	88.706	0.197	0.224
-686.324	410.027	-0.099	-0.214
-685.310	-109.060	0.152	0.033
-684.295	-72.595	0.207	0.078
-683.281	-200.000	0.022	0.175
-682.266	-35.500	-0.140	0.078
-681.251	-163.678	0.200	-0.010
-680.237	-159.785	-0.190	-0.011
-679.222	-200.000	0.040	-0.207
-678.208	-63.366	-0.258	-0.108
-677.193	88.915	-0.239	0.271
-676.178	-11.596	-0.085	-0.057
-675.164	-200.000	-0.016	-0.333
-674.149	-137.681	-0.075	-0.009
-673.135	-36.493	0.189	-0.104
-672.120	716.662	-0.045	-0.122
-671.105	-42.176	-0.270	0.141
-670.091	-15.762	-0.395	-0.257
-669.076	207.732	0.125	0.200
-668.062	-200.000	0.004	0.341
-667.047	-10.469	-0.103	-0.070
-666.032	-12.322	-0.408	0.272
-665.018	10.842	-0.277	0.216
-664.003	-200.000	0.010	-0.129
-662.989	-84.940	-0.257	-0.082
-661.974	-200.000	-0.029	-0.316
-660.959	-11.069	-0.258	-0.174
-659.945	-200.000	0.002	0.403
-658.930	-181.797	-0.204	-0.004
-657.916	800.000	-0.024	0.074
-656.901	-200.000	-0.070	0.000
-655.886	87.602	0.062	0.069
-654.872	1.740	0.221	0.162
-653.857	334.157	0.050	-0.099
-652.843	-103.974	0.115	0.027
-651.828	-200.000	0.009	-0.060
-650.814	-74.118	-0.147	-0.054
-649.799	-106.884	-0.265	-0.060
-648.784	-162.194	-0.314	-0.016
-647.770	125.761	0.078	-0.100
-646.755	-87.724	0.294	0.090
-645.741	-104.967	-0.208	0.049
-644.726	-145.038	-0.099	0.009
-643.711	-32.482	0.461	-0.262
-642.697	9.099	-0.026	-0.020
-641.682	259.467	0.126	0.222
-640.668	337.218	-0.063	-0.125
-639.653	-200.000	0.012	0.099
-638.638	-47.239	0.353	-0.175
-637.624	-71.152	0.083	0.032
-636.609	7.860	0.299	-0.228
-635.595	142.021	-0.078	0.105
-634.580	-200.000	0.070	-0.321
-633.565	-23.502	0.073	0.045
-632.551	315.988	0.050	-0.096
-631.536	-200.000	0.001	-0.180
-630.522	403.338	0.099	-0.213
-629.507	800.000	-0.103	-0.396
-628.492	-94.227	-0.411	-0.115
-627.478	171.721	-0.041	-0.060
-626.463	44.400	0.148	-0.139
-625.449	157.634	-0.138	0.195
-624.434	-200.000	0.009	-0.183
-623.419	800.000	-0.089	-0.286
-622.405	-52.190	-0.368	0.174
-621.390	-110.079	-0.147	0.031
-620.376	160.021	-0.073	-0.104
-619.361	245.345	-0.134	-0.229
-618.346	-200.000	-0.009	0.131
-617.332	-200.000	0.020	0.312
-616.317	-200.000	0.031	0.254
-615.303	-200.000	-0.002	0.326
-614.288	-200.000	0.014	0.206
-613.273	129.488	-0.135	-0.176
-612.259	9.440	-0.139	0.107
-611.244	800.000	0.077	-0.300
-610.230	800.000	-0.053	-0.198
-609.215	-2.997	0.306	-0.218
-608.201	22.634	-0.109	-0.091
-607.186	800.000	0.048	0.169
-606.171	-200.000	0.026	-0.116
-605.157	-0.956	-0.317	-0.228
-604.142	60.864	0.371	-0.374
-603.128	800.000	0.108	-0.445
-602.113	-200.000	0.033	0.179
-601.098	-149.049	0.276	-0.023
-600.084	101.647	-0.159	0.189
-599.069	21.908	0.205	0.170
-598.055	-200.000	-0.002	0.057
-597.040	-56.091	-0.367	-0.166
-596.025	215.151	-0.089	0.143
-595.011	373.551	-0.053	0.110
-593.996	162.162	-0.122	-0.174
-592.982	184.205	-0.260	0.392
-591.967	-48.078	0.211	0.104
-590.952	-200.000	-0.026	-0.221
-589.938	-115.161	-0.349	-0.067
-588.923	-52.496	-0.051	0.024
-587.909	-16.314	0.302	0.195
-586.894	800.000	-0.092	-0.281
-585.879	-91.484	-0.095	0.028
-584.865	49.447	-0.295	-0.282
-583.850	-112.428	0.086	0.017
-582.836	84.689	0.082	0.091
-581.821	-20.107	0.146	0.092
-580.806	-171.223	-0.121	-0.004
-579.792	-200.000	0.036	-0.320
-578.777	-200.000	0.034	-0.259
-577.763	-200.000	-0.004	0.297
-576.748	-200.000	-0.011	-0.104
-575.733	-151.182	-0.382	-0.029
-574.719	800.000	0.045	0.158
-573.704	-0.459	0.230	0.166
-572.690	-199.777	-0.115	-0.001
-571.675	-63.126	0.141	0.059
-570.661	506.383	0.120	-0.283
-569.646	-88.998	0.218	-0.066
-568.631	-87.523	0.443	0.136
-567.617	-155.554	-0.281	0.018
-566.602	800.000	0.020	0.055
-565.588	-2.610	-0.041	-0.030
-564.573	109.977	-0.136	0.165
-563.558	800.000	0.087	-0.260
-562.544	138.558	0.212	0.283
-561.529	-124.093	-0.202	-0.032
-560.515	-54.931	-0.380	0.174
-559.500	73.918	0.116	-0.124
-558.485	-200.000	0.050	0.234
-557.471	-200.000	-0.004	-0.145
-556.456	-81.820	-0.288	-0.096
-555.442	524.350	0.035	-0.084
-554.427	52.871	0.272	-0.264
-553.412	37.380	-0.173	0.156
-552.398	-47.382	-0.384	0.190
-551.383	800.000	0.075	0.238
-550.369	-200.000	-0.001	-0.089
-549.354	-150.350	-0.275	0.022
-548.339	164.764	0.026	-0.037
-547.325	18.885	0.265	-0.216
-546.310	-170.635	-0.435	0.015
-545.296	-97.148	-0.177	0.047
-544.281	191.793	-0.147	0.224
-543.266	180.753	0.081	0.121
-542.252	-23.171	0.143	-0.088
-541.237	-118.678	0.352	0.063
-540.223	-23.160	0.151	-0.092
-539.208	800.000	0.068	-0.262
-538.193	583.556	0.155	-0.387
-537.179	-200.000	0.012	-0.175
-536.164	-125.748	0.192	-0.030
-535.150	-200.000	0.021	0.317
-534.135	118.059	-0.295	-0.369
-533.121	83.496	0.101	-0.112
-532.106	-119.948	0.115	0.020
-531.091	800.000	0.118	0.395
-530.077	-200.000	0.071	0.327
-529.062	800.000	0.068	0.222
-528.048	322.782	0.136	0.263
-527.033	-36.545	-0.236	-0.129
-526.018	131.621	0.053	0.070
-525.004	350.928	0.068	0.136
-523.989	-200.000	0.032	0.148
-522.975	800.000	0.015	-0.057
-521.960	118.056	-0.071	-0.089
-520.945	-92.485	0.242	-0.069
-519.931	800.000	0.044	0.138
-518.916	219.730	-0.078	-0.126
-517.902	-200.000	0.001	0.022
-516.887	-154.062	-0.062	-0.004
-515.872	446.911	0.091	0.204
-514.858	-200.000	-0.020	0.172
-513.843	-62.154	0.333	-0.141
-512.829	-200.000	-0.003	0.044
-511.814	464.200	-0.134	0.303
-510.799	-153.414	-0.120	0.008
-509.785	123.242	-0.032	0.040
-508.770	54.430	0.027	0.027
-507.756	-88.056	-0.067	0.020
-506.741	497.819	0.041	-0.095
-505.726	-200.000	-0.001	0.147
-504.712	-138.634	-0.468	-0.052
-503.697	-200.000	-0.023	-0.250
-502.683	-166.909	-0.140	0.006
-501.668	800.000	-0.047	0.190
-500.653	-200.000	0.014	-0.305
-499.639	-78.733	0.041	-0.014
-498.624	102.114	0.403	0.477
-497.610	-26.626	-0.171	-0.101
-496.595	30.843	0.173	-0.150
-495.581	-170.084	0.218	-0.008
-494.566	89.061	-0.059	0.066
-493.551	-39.369	0.048	0.026
-492.537	800.000	-0.072	-0.224
-491.522	408.695	-0.112	0.240
-490.508	-111.410	-0.140	-0.029
-489.493	800.000	0.067	0.189
-488.478	-73.067	-0.267	0.099
-487.464	426.764	0.056	-0.123
-486.449	-151.462	-0.176	0.013
-485.435	348.767	-0.106	-0.213
-484.420	-200.000	0.030	0.231
-483.405	-36.558	-0.449	-0.244
-482.391	139.967	-0.173	-0.231
-481.376	-126.823	-0.170	0.025
-480.362	94.204	0.036	-0.042
-479.347	-74.418	-0.186	-0.068
-478.332	-11.493	-0.124	-0.083
-477.318	-200.000	-0.031	-0.389
-476.303	55.228	-0.104	-0.102
-475.289	-200.000	-0.067	0.350
-474.274	-33.768	0.077	-0.043
-473.259	-52.498	-0.462	0.216
-472.245	98.902	-0.247	0.288
-471.230	16.120	0.057	0.045
-470.216	89.783	0.094	-0.106
-469.201	-174.465	0.051	0.001
-468.186	-200.000	0.031	0.402
-467.172	50.941	-0.068	-0.065
-466.157	-129.320	0.160	-0.023
-465.143	-141.293	-0.114	-0.012
-464.128	-200.000	0.010	0.106
-463.113	146.959	-0.161	0.218
-462.099	49.790	-0.218	-0.208
-461.084	-128.934	-0.093	0.013
-460.070	295.495	-0.199	0.368
-459.055	-110.856	0.150	0.031
-458.040	-200.000	-0.061	-0.465
-457.026	-72.599	0.355	-0.133
-456.011	8.415	-0.097	-0.074
-454.997	-22.661	0.206	0.126
-453.982	174.866	-0.093	0.136
-452.968	-200.000	-0.014	-0.137
-451.953	-140.917	-0.093	-0.010
-450.938	-145.553	-0.664	0.060
-449.924	-37.105	0.154	-0.083
-448.909	240.380	-0.142	-0.239
-447.895	16.425	0.241	-0.192
-446.880	219.795	-0.105	0.169
-445.865	705.923	0.168	-0.449
-444.851	524.234	-0.122	-0.291
-443.836	-193.016	0.379	0.003
-442.822	81.511	0.201	0.219
-441.807	23.176	-0.153	-0.127
-440.792	-73.150	0.083	-0.031
-439.778	549.362	0.098	0.237
-438.763	360.400	-0.110	0.222
-437.749	340.218	0.146	0.287
-436.734	-102.309	0.259	0.063
-435.719	51.368	-0.362	0.348
-434.705	-200.000	-0.004	-0.084
-433.690	-133.350	0.209	0.027
-432.676	196.123	0.119	0.183
-431.661	293.917	0.116	0.213
-430.646	153.820	0.143	0.198
-429.632	484.371	-0.037	0.084
-428.617	-62.978	0.290	0.121
-427.603	-200.000	-0.026	0.140
-426.588	45.579	-0.139	-0.130
-425.573	503.893	0.117	-0.274
-424.559	-160.087	0.248	-0.014
-423.544	-39.663	-0.093	-0.049
-422.530	-9.084	0.401	0.271
-421.515	212.261	0.232	0.369
-420.500	800.000	-0.151	0.465
-419.486	-122.981	0.286	0.046
-418.471	0.951	0.352	0.255
-417.457	-51.905	0.224	-0.105
-416.442	-200.000	-0.009	-0.368
-415.428	-5.771	-0.175	-0.121
-414.413	482.208	-0.167	-0.384
-413.398	223.079	0.091	-0.148
-412.384	162.190	-0.046	0.065
-411.369	-200.000	0.022	-0.220
-410.355	-200.000	-0.100	0.000
-409.340	12.695	0.099	0.077
-408.325	30.039	-0.051	-0.044
-407.311	-37.295	-0.155	0.083
-406.296	800.000	0.044	0.140
-405.282	-200.000	-0.004	-0.264
-404.267	399.763	-0.191	-0.405
-403.252	-80.134	0.239	-0.081
-402.238	76.484	0.299	-0.320
-401.223	-164.274	-0.236	-0.011
-400.209	800.000	0.013	0.042
-399.194	17.887	-0.116	-0.094
-398.179	-99.647	0.409	0.104
-397.165	-167.742	-0.137	-0.005
-396.150	-5.818	-0.147	-0.102
-395.136	360.883	-0.027	0.055
-394.121	-200.000	0.017	-0.123
-393.106	14.524	0.173	0.136
-392.092	-200.000	-0.072	-0.406
-391.077	-38.696	-0.218	-0.116
-390.063	33.920	-0.109	-0.096
-389.048	-93.972	0.140	-0.039
-388.033	800.000	0.045	-0.159
-387.019	-71.198	-0.106	-0.040
-386.004	-140.013	0.064	0.007
-384.990	-200.000	0.038	-0.267
-383.975	12.064	-0.046	-0.036
-382.960	154.174	0.164	-0.227
-381.946	-157.902	-0.092	0.005
-380.931	-143.171	-0.116	-0.011
-379.917	800.000	0.073	-0.290
-378.902	-200.000	-0.020	-0.192
-377.888	409.877	0.102	0.217
-376.873	800.000	-0.076	0.276
-375.858	454.001	-0.085	-0.190
-374.844	155.118	-0.044	0.061
-373.829	800.000	-0.080	-0.283
-372.815	149.634	0.148	-0.202
-371.800	103.828	-0.203	0.240
-370.785	-77.640	-0.375	-0.131
-369.771	-22.219	0.199	0.122
-368.756	14.733	-0.308	-0.243
-367.742	146.123	-0.066	-0.089
-366.727	-132.191	0.195	-0.026
-365.712	151.709	0.071	0.097
-364.698	800.000	0.022	-0.075
-363.683	-147.902	-0.422	-0.035
-362.669	181.659	0.081	0.121
-361.654	800.000	0.042	0.177
-360.639	-18.038	0.202	-0.127
-359.625	123.947	0.359	0.455
-358.610	-81.206	0.110	-0.036
-357.596	-46.175	0.258	-0.128
-356.581	-117.872	-0.174	0.031
-355.566	154.477	0.143	0.198
-354.552	-81.102	-0.235	0.078
-353.537	194.364	-0.192	0.293
-352.523	-126.757	-0.194	-0.029
-351.508	75.823	0.154	0.164
-350.493	-106.123	-0.191	-0.043
-349.479	800.000	0.117	-0.477
-348.464	-27.853	0.104	-0.061
-347.450	-148.246	0.168	0.014
-346.435	-155.478	-0.175	-0.011
-345.420	800.000	-0.025	-0.078
-344.406	282.160	-0.077	0.138
-343.391	-61.108	-0.193	-0.082
-342.377	238.454	0.205	0.343
-341.362	-200.000	-0.003	0.108
-340.348	130.255	0.123	0.159
-339.333	-200.000	0.032	-0.315
-338.318	-200.000	0.007	0.069
-337.304	118.732	-0.162	-0.202
-336.289	-200.000	0.056	0.401
-335.275	-72.182	-0.236	0.088
-334.260	-158.342	0.139	-0.008
-333.245	29.862	0.175	0.150
-332.231	800.000	0.047	0.147
-331.216	-114.480	-0.150	-0.029
-330.202	-200.000	-0.018	0.083
-329.187	800.000	-0.015	0.043
-328.172	52.132	0.171	-0.164
-327.158	71.093	-0.250	0.261
-326.143	-200.000	0.004	0.198
-325.129	800.000	-0.043	0.146
-324.114	192.129	0.185	-0.282
-323.099	-21.159	0.221	-0.136
-322.085	-120.573	-0.053	-0.009
-321.070	273.666	-0.059	-0.106
-320.056	130.735	0.164	-0.212
-319.041	-200.000	-0.013	0.088
-318.026	-194.087	-0.283	-0.002
-317.012	-12.494	0.087	-0.057
-315.997	-45.986	0.139	0.069
-314.983	-66.448	-0.202	0.081
-313.968	772.921	0.030	0.081
-312.953	150.132	0.164	0.223
-311.939	232.769	0.101	-0.168
-310.924	52.034	0.077	-0.073
-309.910	-200.000	0.039	0.189
-308.895	-166.101	0.111	0.005
-307.880	-91.859	0.076	-0.022
-306.866	-200.000	-0.003	0.264
-305.851	194.331	0.066	0.101
-304.837	-25.933	-0.051	0.030
-303.822	183.154	-0.204	-0.303
-302.807	800.000	0.089	-0.252
-301.793	153.711	0.077	0.106
-300.778	451.429	-0.200	0.443
-299.764	800.000	-0.081	-0.274
-298.749	-200.000	-0.045	-0.214
-297.735	465.152	-0.067	0.150
-296.720	-106.513	0.211	0.047
-295.705	-83.104	-0.148	-0.048
-294.691	800.000	-0.040	0.165
-293.676	-139.499	0.138	-0.015
-292.662	-200.000	0.311	0.000
-291.647	-79.046	-0.306	-0.105
-290.632	-39.218	0.327	-0.172
-289.618	550.566	0.061	0.147
-288.603	137.415	0.201	0.265
-287.589	79.731	0.120	-0.130
-286.574	-200.000	-0.017	0.369
-285.559	800.000	-0.059	-0.240
-284.545	-200.000	-0.035	0.243
-283.530	-70.917	0.248	0.094
-282.516	-109.999	0.312	-0.066
-281.501	-54.581	0.230	0.105
-280.486	-140.791	-0.299	0.031
-279.472	177.227	-0.159	0.232
-278.457	-94.182	0.142	-0.039
-277.443	-121.616	0.500	-0.083
-276.428	61.337	-0.267	-0.267
-275.413	-51.405	0.083	0.039
-274.399	13.110	0.267	0.208
-273.384	-1.110	-0.250	-0.177
-272.370	352.392	-0.051	0.101
-271.355	81.416	-0.196	0.213
-270.340	-127.921	0.250	0.036
-269.326	618.408	-0.117	0.295
-268.311	301.426	-0.262	-0.486
-267.297	32.320	0.130	0.113
-266.282	800.000	0.041	-0.142
-265.267	-200.000	-0.056	-0.339
-264.253	-128.856	-0.098	0.014
-263.238	-17.053	0.154	0.098
-262.224	800.000	-0.026	-0.076
-261.209	84.197	0.108	0.118
-260.195	648.961	-0.137	-0.351
-259.180	800.000	0.045	0.145
-258.165	-130.338	0.200	0.027
-257.151	-110.352	0.090	0.019
-256.136	481.221	0.035	-0.079
-255.122	-50.719	-0.194	-0.092
-254.107	391.425	0.058	-0.121
-253.092	114.859	0.021	-0.026
-252.078	-200.000	-0.055	-0.273
-251.063	-87.643	-0.119	-0.036
-250.049	800.000	0.048	0.179
-249.034	-200.000	-0.006	0.254
-248.019	-38.728	0.135	0.071
-247.005	800.000	0.052	0.180
-245.990	624.088	-0.070	0.177
-244.976	-64.118	0.217	0.089
-243.961	267.622	0.103	-0.181
-242.946	-166.684	-0.193	0.008
-241.932	-136.599	0.084	0.010
-240.917	108.270	0.047	0.056
-239.903	350.449	0.173	-0.342
-238.888	-109.415	0.183	0.039
-237.873	329.886	0.149	0.288
-236.859	582.771	-0.045	0.112
-235.844	-96.879	-0.680	-0.179
-234.830	-200.000	0.056	0.274
-233.815	680.987	0.014	0.035
-232.800	74.186	0.083	0.087
-231.786	-139.397	-0.156	0.017
-230.771	24.583	0.321	-0.266
-229.757	-28.043	-0.191	-0.111
-228.742	637.564	-0.045	0.116
-227.727	34.767	0.189	0.165
-226.713	92.139	-0.217	0.246
-225.698	-200.000	0.053	0.234
-224.684	299.816	0.116	0.214
-223.669	42.123	-0.123	0.112
-222.655	313.369	0.109	-0.205
-221.640	79.167	0.237	0.255
-220.625	-107.027	-0.185	-0.041
-219.611	388.957	0.121	0.252
-218.596	-31.879	0.138	0.078
-217.582	800.000	-0.049	0.148
-216.567	-200.000	-0.018	-0.085
-215.552	-58.207	-0.123	-0.054
-214.538	199.696	-0.134	-0.206
-213.523	-200.000	-0.006	-0.189
-212.509	341.146	0.071	-0.138
-211.494	74.209	-0.157	-0.165
-210.479	186.615	-0.143	-0.213
-209.465	-28.289	-0.261	0.151
-208.450	85.129	-0.248	-0.272
-207.436	-143.683	0.155	-0.015
-206.421	-200.000	0.031	-0.262
-205.406	-200.000	-0.010	0.090
-204.392	-55.684	0.289	-0.130
-203.377	358.210	0.015	-0.030
-202.363	-74.495	-0.139	0.050
-201.348	54.621	-0.124	-0.120
-200.333	160.531	-0.065	-0.091
-199.319	652.658	0.126	0.324
-198.304	-30.912	-0.222	-0.126
-197.290	-67.816	0.175	0.069
-196.275	183.298	0.200	-0.296
-195.260	-17.775	-0.225	0.142
-194.246	-192.810	-0.393	0.004
-193.231	800.000	-0.029	0.093
-192.217	-39.431	-0.294	-0.154
-191.202	800.000	-0.108	-0.314
-190.187	-200.000	-0.073	0.388
-189.173	-200.000	0.015	-0.101
-188.158	-92.311	-0.053	0.015
-187.144	-102.782	-0.349	0.083
-186.129	281.921	-0.043	0.076
-185.114	-63.431	0.199	-0.082
-184.100	-122.915	0.533	0.086
-183.085	-23.505	0.172	-0.103
-182.071	-200.000	0.017	0.112
-181.056	-97.979	0.346	-0.089
-180.042	104.104	-0.286	0.337
-179.027	800.000	0.063	0.227
-178.012	-200.000	0.025	-0.265
-176.998	800.000	0.088	-0.283
-175.983	-140.362	-0.363	-0.038
-174.969	-57.480	0.231	0.102
-173.954	-79.313	0.124	0.042
-172.939	24.676	0.183	0.152
-171.925	91.158	0.194	0.218
-170.910	-200.000	0.003	0.228
-169.896	-141.067	-0.174	0.018
-168.881	-200.000	0.011	-0.192
-167.866	143.249	0.081	-0.108
-166.852	-53.987	-0.408	-0.186
-165.837	-75.970	-0.125	0.044
-164.823	7.643	-0.071	0.053
-163.808	79.818	0.109	0.117
-162.793	-200.000	-0.037	-0.312
-161.779	-200.000	-0.006	0.213
-160.764	800.000	0.101	0.333
-159.750	-81.456	0.216	0.071
-158.735	-86.219	0.166	0.051
-157.720	-118.454	-0.160	0.028
-156.706	48.039	0.151	-0.141
-155.691	-77.995	0.215	0.074
-154.677	800.000	0.028	0.108
-153.662	137.914	-0.183	0.240
-152.647	-182.354	-0.144	-0.003
-151.633	313.774	0.062	-0.117
-150.618	-112.608	0.364	0.072
-149.604	-137.297	0.149	-0.017
-148.589	150.740	0.076	-0.104
-147.574	113.068	-0.156	-0.189
-146.560	358.915	-0.128	-0.256
-145.545	-85.488	-0.103	0.032
-144.531	-37.987	0.109	0.058
-143.516	-200.000	0.036	-0.181
-142.502	-37.612	-0.265	0.141
-141.487	409.011	-0.166	-0.352
-140.472	-200.000	0.017	0.173
-139.458	-81.598	-0.178	0.059
-138.443	800.000	0.056	0.230
-137.429	391.316	-0.060	0.124
-136.414	800.000	-0.085	-0.267
-135.399	-118.440	0.285	-0.050
-134.385	599.965	0.120	0.297
-133.370	249.472	0.093	-0.158
-132.356	800.000	-0.061	-0.214
-131.341	-103.943	0.288	-0.067
-130.326	377.526	-0.164	0.334
-129.312	385.410	0.044	-0.091
-128.297	-32.383	0.405	-0.226
-127.283	137.254	0.183	-0.240
-126.268	180.408	-0.046	-0.068
-125.253	-99.408	0.044	-0.011
-124.239	-6.583	0.161	-0.109
-123.224	-46.927	0.420	-0.205
-122.210	-200.000	-0.037	0.348
