DTS Sentinel unit serial number:	SN413079Multiplexer serial number:	ORYXHardware model number:	OX4-SRSoftware version number:	ORYX F/W v4.00 Oryx Data Collector v3.7.2.0data status	okinstallation	princeton_trtdifferential loss correction	single-endedforward channel	channel 1reverse channel	N/Adate	2019/09/16time	18:18:35forward acquisition time	60.00reverse acquisition time	0.00gamma	496.2192k internal	0.2303k external	0.2303temperature offset calibration	0.9968default loss term (dB/km)	0.3790temperature slope calibration	1.0000multiplexer offset coefficient	1.0000multiplexer slope coefficient	1.0000fibre end	0.00T internal ref (°C)	37.03T ext. ref 1 (°C)	15.75T ext. ref 2 (°C)	30.56length (m)	temperature (°C)	Stokes	anti-Stokes-747.200	-136.623	0.138	0.016
-746.185	253.448	0.072	-0.125
-745.171	-97.970	-0.139	0.037
-744.156	155.164	0.278	0.390
-743.142	800.000	-0.093	0.293
-742.127	-200.000	0.041	0.369
-741.112	-138.938	-0.122	-0.014
-740.098	-54.850	-0.224	0.103
-739.083	-104.348	0.402	0.095
-738.069	800.000	0.051	-0.214
-737.054	-40.850	-0.241	-0.127
-736.039	-168.075	-0.559	0.022
-735.025	-152.702	0.416	-0.030
-734.010	94.609	-0.061	0.071
-732.996	30.190	-0.166	0.144
-731.981	89.651	-0.139	-0.158
-730.966	-106.887	0.124	-0.028
-729.952	800.000	-0.012	-0.053
-728.937	188.580	0.094	-0.143
-727.923	46.322	0.047	0.044
-726.908	131.283	0.133	0.174
-725.894	168.650	-0.128	-0.186
-724.879	800.000	0.024	0.088
-723.864	294.416	-0.021	-0.039
-722.850	-170.794	-0.423	0.015
-721.835	-53.638	-0.191	0.089
-720.821	-45.383	-0.355	-0.179
-719.806	800.000	-0.092	-0.360
-718.791	263.264	-0.078	0.138
-717.777	-145.146	-0.100	0.009
-716.762	-200.000	0.040	-0.177
-715.748	-200.000	-0.005	0.156
-714.733	157.906	-0.152	-0.215
-713.718	800.000	-0.036	-0.142
-712.704	68.745	0.101	0.105
-711.689	207.648	-0.095	0.152
-710.675	122.972	-0.228	-0.291
-709.660	-200.000	-0.005	0.214
-708.645	125.667	0.110	-0.141
-707.631	-200.000	0.186	0.000
-706.616	-19.082	0.105	0.066
-705.602	-0.605	0.343	0.248
-704.587	178.318	0.200	-0.297
-703.572	800.000	0.064	0.182
-702.558	-185.003	-0.197	-0.003
-701.543	800.000	-0.078	-0.273
-700.529	497.976	-0.161	-0.376
-699.514	-200.000	-0.050	0.309
-698.499	-200.000	-0.027	-0.307
-697.485	-200.000	0.041	-0.391
-696.470	-200.000	0.002	0.158
-695.456	-104.806	-0.143	-0.033
-694.441	104.821	0.029	-0.035
-693.426	26.669	-0.225	0.191
-692.412	-117.132	-0.219	0.040
-691.397	117.813	-0.068	-0.085
-690.383	281.338	0.116	0.211
-689.368	800.000	-0.082	-0.240
-688.354	-200.000	-0.046	0.268
-687.339	-57.902	0.132	0.059
-686.324	-200.000	-0.008	0.130
-685.310	-142.830	0.025	0.002
-684.295	-95.894	0.087	0.024
-683.281	118.173	0.029	0.036
-682.266	-137.257	-0.243	-0.028
-681.251	-140.668	0.518	-0.055
-680.237	353.451	0.073	0.147
-679.222	104.381	0.083	-0.100
-678.208	761.480	0.068	0.187
-677.193	-168.586	-0.193	0.007
-676.178	-124.839	-0.276	0.043
-675.164	83.656	-0.152	0.168
-674.149	48.681	0.112	0.107
-673.135	-14.737	-0.344	-0.224
-672.120	-200.000	0.008	-0.114
-671.105	-57.826	0.438	0.195
-670.091	-200.000	0.002	0.109
-669.076	6.744	-0.235	0.177
-668.062	707.000	-0.100	0.268
-667.047	-13.113	-0.161	0.106
-666.032	-90.416	0.242	0.071
-665.018	158.991	-0.184	0.259
-664.003	-75.822	0.243	-0.088
-662.989	-59.666	-0.040	-0.017
-661.974	-200.000	0.051	-0.361
-660.959	-86.602	-0.556	0.173
-659.945	580.275	0.101	0.252
-658.930	-113.045	-0.185	0.037
-657.916	-11.535	-0.100	0.067
-656.901	116.085	0.185	0.231
-655.886	-12.335	0.259	-0.172
-654.872	-200.000	-0.048	0.315
-653.857	-23.813	0.283	0.172
-652.843	60.869	-0.210	0.211
-651.828	-30.957	0.334	-0.191
-650.814	800.000	-0.035	-0.120
-649.799	-200.000	0.064	-0.427
-648.784	42.503	-0.128	0.118
-647.770	54.060	-0.056	-0.055
-646.755	800.000	-0.049	-0.218
-645.741	800.000	0.025	-0.110
-644.726	431.696	-0.206	-0.452
-643.711	-70.404	-0.368	-0.142
-642.697	46.267	-0.078	-0.073
-641.682	-37.759	0.285	0.154
-640.668	-133.218	-0.318	0.041
-639.653	37.435	-0.187	0.168
-638.638	-200.000	0.084	0.427
-637.624	800.000	-0.010	-0.042
-636.609	526.978	0.031	-0.074
-635.595	128.500	0.069	0.089
-634.580	28.115	0.032	0.027
-633.565	-96.502	0.161	0.043
-632.551	242.292	0.104	-0.177
-631.536	-200.000	0.003	-0.130
-630.522	-168.198	-0.108	-0.004
-629.507	-177.964	0.262	0.006
-628.492	-200.000	0.083	-0.484
-627.478	-108.994	-0.263	0.057
-626.463	50.757	0.179	0.171
-625.449	800.000	-0.053	0.198
-624.434	-163.924	0.105	0.005
-623.419	-14.460	0.311	-0.203
-622.405	-144.458	-0.055	-0.005
-621.390	-161.113	-0.283	-0.015
-620.376	559.094	-0.012	0.030
-619.361	246.187	-0.073	0.125
-618.346	-84.894	-0.153	0.049
-617.332	-72.828	-0.527	0.197
-616.317	20.297	0.112	-0.092
-615.303	-16.038	-0.201	0.129
-614.288	-122.307	-0.452	0.075
-613.273	-71.748	-0.215	0.081
-612.259	-132.553	0.083	0.011
-611.244	800.000	-0.048	0.212
-610.230	-176.249	-0.316	0.008
-609.215	-19.138	0.037	-0.023
-608.201	-42.956	0.211	0.108
-607.186	418.036	0.041	0.090
-606.171	-106.537	-0.078	0.018
-605.157	-200.000	-0.189	0.001
-604.142	110.855	0.202	0.246
-603.128	-200.000	-0.006	-0.169
-602.113	800.000	0.051	-0.194
-601.098	24.383	0.254	-0.213
-600.084	86.347	0.120	0.134
-599.069	-111.070	-0.289	-0.060
-598.055	-200.000	-0.005	0.212
-597.040	107.442	-0.050	0.060
-596.025	-200.000	-0.012	0.147
-595.011	-60.505	-0.197	0.085
-593.996	800.000	-0.035	-0.142
-592.982	407.214	-0.184	0.393
-591.967	-29.326	-0.155	-0.090
-590.952	-85.438	-0.141	0.045
-589.938	488.567	-0.081	-0.188
-588.923	575.025	-0.079	-0.194
-587.909	-200.000	0.006	0.093
-586.894	-101.930	-0.174	-0.042
-585.879	-200.000	-0.022	-0.259
-584.865	51.287	-0.221	-0.213
-583.850	-161.489	-0.352	-0.018
-582.836	-200.000	-0.201	0.001
-581.821	-159.160	-0.339	0.019
-580.806	-200.000	0.416	0.001
-579.792	-200.000	0.008	-0.262
-578.777	-94.328	-0.351	-0.097
-577.763	137.900	0.252	-0.334
-576.748	-200.000	0.011	0.158
-575.733	144.356	-0.299	0.405
-574.719	493.272	-0.152	-0.353
-573.704	310.762	0.143	-0.272
-572.690	-65.224	0.264	0.108
-571.675	20.541	0.350	0.287
-570.661	153.246	0.190	0.263
-569.646	227.014	0.239	0.393
-568.631	-147.976	0.237	-0.020
-567.617	-49.796	0.208	-0.100
-566.602	35.026	-0.174	0.154
-565.588	-82.163	-0.100	-0.033
-564.573	800.000	0.082	-0.237
-563.558	-54.345	0.305	-0.140
-562.544	-200.000	0.117	0.599
-561.529	140.717	0.054	0.072
-560.515	72.716	0.156	-0.165
-559.500	-16.235	0.132	-0.085
-558.485	266.574	-0.080	-0.141
-557.471	-105.309	0.316	0.073
-556.456	75.493	-0.237	-0.253
-555.442	-200.000	-0.009	-0.061
-554.427	126.724	0.041	-0.052
-553.412	723.032	-0.115	-0.310
-552.398	312.749	0.109	0.206
-551.383	-86.110	-0.207	-0.065
-550.369	3.390	-0.351	0.259
-549.354	-182.071	-0.361	0.007
-548.339	-200.000	0.052	0.248
-547.325	252.522	0.094	0.162
-546.310	-200.000	-0.065	-0.304
-545.296	-200.000	-0.032	-0.402
-544.281	-200.000	-0.021	-0.180
-543.266	-35.225	0.273	0.150
-542.252	290.591	0.175	0.321
-541.237	209.497	0.147	0.232
-540.223	88.641	0.074	-0.083
-539.208	-14.760	0.263	0.171
-538.193	86.461	-0.116	0.130
-537.179	-138.683	-0.252	-0.028
-536.164	-152.495	0.159	0.012
-535.150	800.000	-0.099	-0.279
-534.135	1.858	0.247	0.180
-533.121	168.398	0.035	-0.050
-532.106	800.000	-0.079	0.225
-531.091	-77.708	0.104	0.036
-530.077	-77.341	-0.103	0.036
-529.062	-200.000	-0.016	-0.134
-528.048	290.718	0.080	-0.146
-527.033	56.811	-0.120	-0.118
-526.018	19.338	-0.232	0.189
-525.004	167.724	-0.127	0.182
-523.989	-200.000	0.013	-0.245
-522.975	800.000	0.138	0.477
-521.960	-142.577	0.198	0.020
-520.945	-122.010	0.095	0.016
-519.931	-6.205	0.046	-0.031
-518.916	800.000	-0.080	-0.337
-517.902	-78.843	-0.037	0.013
-516.887	367.628	-0.064	0.130
-515.872	132.000	-0.130	0.169
-514.858	-200.000	-0.039	-0.238
-513.843	-200.000	-0.048	0.210
-512.829	81.792	-0.052	0.057
-511.814	-200.000	0.055	-0.397
-510.799	230.695	-0.079	0.130
-509.785	-126.232	0.135	0.020
-508.770	127.499	-0.036	-0.046
-507.756	666.859	-0.015	-0.039
-506.741	-200.000	-0.043	0.251
-505.726	-42.364	0.250	0.129
-504.712	-65.891	-0.493	-0.199
-503.697	79.761	-0.067	-0.073
-502.683	-69.101	0.180	0.070
-501.668	-200.000	-0.079	0.000
-500.653	88.387	0.186	0.208
-499.639	-200.000	-0.024	0.197
-498.624	-44.615	0.266	-0.134
-497.610	312.734	-0.100	0.190
-496.595	95.035	0.127	-0.146
-495.581	201.712	0.046	-0.072
-494.566	-176.959	0.137	0.003
-493.551	-26.860	-0.120	-0.071
-492.537	-41.319	-0.181	-0.094
-491.522	110.571	0.052	0.063
-490.508	190.578	0.033	0.050
-489.493	-90.747	-0.272	0.079
-488.478	-73.773	-0.258	-0.095
-487.464	57.509	0.086	-0.085
-486.449	60.981	0.208	0.208
-485.435	54.252	-0.071	-0.069
-484.420	-200.000	0.036	-0.219
-483.405	134.659	0.115	0.151
-482.391	-165.702	-0.203	-0.009
-481.376	-134.065	-0.151	-0.019
-480.362	800.000	-0.061	-0.186
-479.347	-80.790	-0.203	-0.068
-478.332	800.000	-0.073	-0.308
-477.318	-78.428	-0.131	-0.045
-476.303	695.056	-0.163	0.432
-475.289	-200.000	-0.002	-0.158
-474.274	-86.316	-0.133	-0.041
-473.259	-71.759	-0.212	-0.080
-472.245	-127.883	-0.098	-0.014
-471.230	-118.606	0.365	-0.065
-470.216	254.478	0.057	0.098
-469.201	377.269	-0.101	0.208
-468.186	-24.306	-0.229	0.138
-467.172	-139.443	0.187	-0.020
-466.157	56.580	0.346	-0.339
-465.143	-130.895	0.355	-0.048
-464.128	666.962	0.157	0.408
-463.113	-133.365	0.313	-0.040
-462.099	402.780	-0.041	-0.088
-461.084	-65.452	-0.033	-0.014
-460.070	-65.114	-0.364	0.148
-459.055	-200.000	0.024	0.132
-458.040	110.538	-0.162	-0.196
-457.026	-14.417	-0.052	-0.033
-456.011	-90.391	0.179	-0.052
-454.997	-52.244	0.270	-0.126
-453.982	132.507	0.063	0.081
-452.968	800.000	-0.160	0.480
-451.953	280.495	-0.022	0.039
-450.938	-118.539	-0.415	0.074
-449.924	-200.000	-0.058	0.487
-448.909	-63.092	0.266	0.110
-447.895	180.718	-0.111	-0.164
-446.880	546.980	0.039	-0.095
-445.865	443.499	-0.016	0.036
-444.851	800.000	-0.079	0.324
-443.836	-200.000	0.025	-0.136
-442.822	-97.465	-0.132	0.035
-441.807	-23.778	0.109	0.066
-440.792	21.064	0.156	0.128
-439.778	-152.920	-0.249	-0.018
-438.763	-14.632	-0.086	0.056
-437.749	136.148	-0.134	0.176
-436.734	-81.726	0.206	0.068
-435.719	-50.053	-0.211	-0.101
-434.705	-140.218	0.211	0.022
-433.690	200.035	-0.146	-0.225
-432.676	-62.943	-0.178	-0.074
-431.661	-200.000	-0.016	-0.115
-430.646	18.924	0.108	-0.087
-429.632	-73.416	-0.102	-0.038
-428.617	404.875	0.070	-0.148
-427.603	-69.904	-0.177	0.068
-426.588	25.811	0.110	-0.092
-425.573	-141.157	-0.295	-0.030
-424.559	54.696	0.275	0.267
-423.544	-200.000	0.059	-0.276
-422.530	-88.646	-0.186	-0.056
-421.515	60.490	0.032	0.032
-420.500	-200.000	0.006	-0.143
-419.486	800.000	-0.093	0.302
-418.471	-24.510	-0.238	0.143
-417.457	48.431	0.211	-0.199
-416.442	-25.266	0.428	0.255
-415.428	11.765	0.133	0.103
-414.413	259.197	-0.067	-0.116
-413.398	-125.553	0.066	-0.010
-412.384	-14.144	-0.446	0.289
-411.369	800.000	0.061	-0.226
-410.355	291.662	-0.216	-0.395
-409.340	-54.627	-0.229	-0.104
-408.325	-28.842	0.151	-0.087
-407.311	-3.374	-0.403	-0.282
-406.296	373.381	0.011	0.023
-405.282	239.126	-0.218	-0.364
-404.267	-85.940	0.132	0.041
-403.252	67.089	-0.270	0.277
-402.238	168.687	-0.261	-0.373
-401.223	142.473	-0.066	-0.089
-400.209	111.020	0.108	-0.131
-399.194	21.986	-0.038	0.031
-398.179	192.598	0.108	0.164
-397.165	-195.560	-0.233	-0.002
-396.150	-200.000	0.026	-0.183
-395.136	-76.129	0.293	0.104
-394.121	800.000	0.040	-0.154
-393.106	178.259	-0.163	-0.239
-392.092	184.258	-0.046	-0.068
-391.077	-18.685	0.304	0.191
-390.063	155.690	-0.058	0.080
-389.048	452.762	0.093	0.207
-388.033	-127.559	0.364	-0.053
-387.019	-200.000	0.083	0.383
-386.004	-71.966	0.264	-0.099
-384.990	-200.000	0.011	-0.322
-383.975	-111.975	-0.113	0.023
-382.960	-200.000	0.026	-0.121
-381.946	93.583	0.079	0.090
-380.931	-130.634	0.079	0.011
-379.917	-200.000	-0.031	0.194
-378.902	-200.000	-0.007	-0.210
-377.888	-55.524	-0.260	-0.117
-376.873	13.512	0.231	-0.180
-375.858	109.937	0.054	0.065
-374.844	-60.264	-0.223	-0.095
-373.829	800.000	0.044	0.173
-372.815	-200.000	0.004	0.108
-371.800	-104.570	0.168	-0.039
-370.785	588.641	0.175	0.432
-369.771	800.000	-0.047	0.170
-368.756	-155.909	0.196	-0.013
-367.742	-137.475	-0.229	0.026
-366.727	369.459	0.125	-0.254
-365.712	563.163	-0.182	-0.442
-364.698	-76.959	0.243	0.085
-363.683	26.424	-0.023	0.019
-362.669	308.720	-0.227	0.425
-361.654	-49.016	-0.205	-0.099
-360.639	-152.375	0.282	0.020
-359.625	-91.769	0.394	0.112
-358.610	27.397	0.155	0.131
-357.596	336.398	-0.082	0.160
-356.581	128.665	0.194	0.248
-355.566	-0.739	-0.324	0.230
-354.552	392.002	-0.131	0.273
-353.537	-128.187	-0.090	-0.013
-352.523	-131.507	0.183	0.024
-351.508	-71.708	0.147	-0.055
-350.493	373.047	-0.034	-0.070
-349.479	4.629	-0.245	-0.180
-348.464	-63.126	0.223	0.092
-347.450	-79.140	0.239	-0.081
-346.435	225.220	0.156	0.253
-345.420	79.869	0.228	0.245
-344.406	-73.895	-0.183	0.067
-343.391	135.843	-0.185	0.241
-342.377	182.859	0.041	0.060
-341.362	-101.535	0.323	0.079
-340.348	800.000	-0.020	0.088
-339.333	116.854	0.054	-0.067
-338.318	-158.961	0.027	0.002
-337.304	92.801	-0.190	-0.215
-336.289	127.566	-0.051	0.065
-335.275	89.934	-0.271	-0.303
-334.260	-149.155	0.380	0.030
-333.245	249.835	-0.255	0.433
-332.231	-200.000	0.025	-0.225
-331.216	-46.243	0.272	-0.134
-330.202	260.906	-0.042	-0.074
-329.187	195.842	-0.050	-0.076
-328.172	-200.000	0.018	-0.106
-327.158	800.000	-0.127	-0.385
-326.143	800.000	0.130	0.363
-325.129	800.000	-0.084	-0.266
-324.114	-52.851	0.090	0.041
-323.099	-17.683	0.255	0.161
-322.085	50.015	0.182	0.172
-321.070	-38.355	0.041	-0.022
-320.056	609.697	0.076	-0.191
-319.041	-200.000	0.020	-0.522
-318.026	-31.353	-0.135	-0.076
-317.012	441.678	0.064	-0.141
-315.997	800.000	-0.035	-0.145
-314.983	-18.263	-0.213	-0.133
-313.968	-200.000	0.003	-0.076
-312.953	22.521	-0.267	-0.219
-311.939	-148.604	-0.144	0.012
-310.924	1.845	0.216	-0.156
-309.910	-200.000	0.004	-0.403
-308.895	-146.950	-0.257	-0.022
-307.880	-32.179	0.129	0.072
-306.866	-200.000	-0.025	-0.184
-305.851	-3.009	0.229	0.160
-304.837	-200.000	0.017	-0.116
-303.822	-75.306	0.192	0.069
-302.807	-115.209	-0.134	0.025
-301.793	-200.000	0.025	-0.136
-300.778	-6.934	-0.208	-0.141
-299.764	413.092	-0.170	-0.361
-298.749	419.772	-0.194	-0.416
-297.735	-200.000	-0.067	0.462
-296.720	-88.003	-0.301	-0.091
-295.705	-156.046	0.343	0.022
-294.691	258.877	0.053	-0.091
-293.676	800.000	-0.044	-0.166
-292.662	115.247	-0.157	-0.192
-291.647	800.000	0.082	0.355
-290.632	-24.672	0.151	-0.090
-289.618	-131.582	0.317	-0.042
-288.603	-200.000	0.009	0.377
-287.589	-78.350	0.293	0.101
-286.574	-173.653	-0.049	0.001
-285.559	-74.651	-0.062	0.022
-284.545	-9.718	-0.073	0.048
-283.530	183.724	0.077	0.114
-282.516	-113.937	0.327	-0.064
-281.501	297.585	-0.083	-0.153
-280.486	-124.755	-0.138	0.021
-279.472	31.602	0.028	-0.024
-278.457	149.331	0.164	0.222
-277.443	79.156	-0.182	-0.195
-276.428	130.233	-0.242	0.310
-275.413	-200.000	-0.014	0.158
-274.399	-200.000	0.047	-0.286
-273.384	-200.000	0.023	-0.140
-272.370	-56.744	0.239	-0.106
-271.355	-200.000	-0.034	0.287
-270.340	212.294	0.166	0.262
-269.326	-95.114	-0.272	0.073
-268.311	800.000	0.032	-0.102
-267.297	9.701	-0.097	-0.074
-266.282	-200.000	0.034	-0.153
-265.267	-12.341	-0.189	0.123
-264.253	800.000	-0.143	-0.476
-263.238	21.040	-0.081	-0.066
-262.224	-45.531	0.097	-0.048
-261.209	378.514	-0.079	-0.161
-260.195	149.356	0.036	0.048
-259.180	423.255	-0.156	-0.334
-258.165	-88.874	-0.234	-0.069
-257.151	770.463	-0.048	0.132
-256.136	-85.592	-0.069	-0.022
-255.122	800.000	0.028	0.087
-254.107	-141.998	0.276	-0.027
-253.092	-96.356	0.107	-0.028
-252.078	-54.345	0.318	-0.144
-251.063	92.108	0.169	0.191
-250.049	800.000	0.066	0.238
-249.034	-200.000	0.014	-0.263
-248.019	749.700	-0.054	0.146
-247.005	288.176	-0.112	-0.202
-245.990	71.563	0.142	0.147
-244.976	235.213	-0.074	-0.122
-243.961	800.000	-0.012	-0.051
-242.946	-67.719	0.150	-0.059
-241.932	-163.641	0.306	-0.014
-240.917	-69.510	0.270	0.103
-239.903	-200.000	0.005	0.137
-238.888	-39.692	-0.246	-0.129
-237.873	90.014	-0.021	0.024
-236.859	-125.116	0.106	0.016
-235.844	172.152	0.166	0.239
-234.830	-66.084	-0.214	-0.085
-233.815	-82.688	0.242	0.078
-232.800	34.143	-0.027	-0.023
-231.786	-117.522	-0.165	-0.030
-230.771	-42.258	0.226	0.115
-229.757	-200.000	0.017	0.078
-228.742	-84.549	-0.314	0.099
-227.727	25.837	0.190	0.158
-226.713	-200.000	0.010	0.059
-225.698	-0.829	0.272	-0.193
-224.684	168.603	0.082	0.117
-223.669	-74.388	0.323	-0.116
-222.655	-106.560	-0.119	-0.026
-221.640	193.767	0.291	0.440
-220.625	-143.505	-0.146	0.014
-219.611	77.447	0.106	-0.113
-218.596	24.513	-0.027	-0.022
-217.582	42.530	-0.094	-0.085
-216.567	9.408	0.128	0.097
-215.552	-64.962	-0.095	0.038
-214.538	92.387	0.108	-0.122
-213.523	-124.501	-0.148	0.023
-212.509	407.717	-0.094	-0.198
-211.494	-74.260	-0.134	0.048
-210.479	-101.406	0.257	0.062
-209.465	-29.448	0.262	0.149
-208.450	-108.835	-0.160	-0.034
-207.436	-200.000	0.004	0.149
-206.421	-137.687	-0.036	0.004
-205.406	-200.000	0.012	-0.148
-204.392	800.000	-0.057	0.175
-203.377	-38.325	0.473	0.250
-202.363	-28.694	0.194	-0.111
-201.348	-19.626	-0.176	-0.109
-200.333	-50.998	0.250	0.117
-199.319	-57.340	-0.267	0.117
-198.304	6.741	0.186	-0.138
-197.290	205.849	0.195	-0.303
-196.275	-200.000	0.003	0.189
-195.260	-112.192	-0.386	-0.077
-194.246	527.223	-0.040	-0.094
-193.231	-107.549	0.140	-0.031
-192.217	-86.791	-0.095	-0.029
-191.202	112.755	0.205	0.248
-190.187	-16.375	-0.197	0.124
-189.173	-116.603	-0.357	-0.065
-188.158	79.606	0.037	-0.039
-187.144	800.000	0.079	-0.295
-186.129	727.269	0.090	0.239
-185.114	512.283	-0.067	0.155
-184.100	467.841	0.141	-0.314
-183.085	-117.159	-0.533	-0.097
-182.071	-116.168	0.332	0.061
-181.056	-3.685	0.177	-0.122
-180.042	151.398	0.132	-0.179
-179.027	800.000	0.053	-0.183
-178.012	-168.403	-0.087	-0.003
-176.998	210.383	-0.072	0.113
-175.983	-200.000	-0.038	0.302
-174.969	800.000	0.050	0.203
-173.954	-200.000	-0.001	-0.062
-172.939	-88.699	0.226	0.067
-171.925	639.758	0.081	-0.205
-170.910	2.167	0.222	0.160
-169.896	-71.881	-0.129	0.048
-168.881	595.313	-0.055	-0.135
-167.866	70.344	0.224	0.230
-166.852	563.098	0.058	-0.139
-165.837	32.329	-0.288	-0.248
-164.823	-200.000	0.056	0.253
-163.808	800.000	-0.059	0.208
-162.793	800.000	0.075	0.317
-161.779	800.000	-0.057	-0.232
-160.764	106.814	0.128	-0.151
-159.750	195.574	0.088	0.133
-158.735	-200.000	-0.004	-0.071
-157.720	-200.000	0.048	-0.251
-156.706	-200.000	-0.023	0.265
-155.691	92.071	0.299	0.335
-154.677	-24.794	-0.132	0.078
-153.662	24.773	-0.233	0.192
-152.647	-22.471	0.269	-0.162
-151.633	-52.254	-0.307	0.142
-150.618	767.638	0.050	0.136
-149.604	-200.000	0.051	0.368
-148.589	-59.536	-0.188	0.081
-147.574	-143.989	-0.267	-0.025
-146.560	69.974	-0.147	0.151
-145.545	-200.000	0.087	0.391
-144.531	-50.935	0.413	0.193
-143.516	-200.000	0.012	0.252
-142.502	800.000	-0.077	0.302
-141.487	-70.971	-0.167	-0.062
-140.472	800.000	-0.068	0.229
-139.458	800.000	-0.072	-0.215
-138.443	351.546	0.188	-0.371
-137.429	-52.553	-0.129	0.059
-136.414	32.868	0.149	0.128
-135.399	101.666	0.118	-0.137
-134.385	-5.744	0.063	0.043
-133.370	562.849	0.148	0.356
-132.356	154.663	-0.228	0.311
-131.341	-19.623	-0.130	0.080
-130.326	-28.471	-0.138	-0.079
-129.312	-189.912	0.376	0.004
-128.297	-126.527	0.134	-0.020
-127.283	800.000	0.064	-0.276
-126.268	204.203	-0.169	0.260
-125.253	-85.431	-0.365	-0.113
-124.239	-152.588	0.164	0.012
-123.224	-91.729	0.165	-0.047
-122.210	-68.020	0.079	0.031
-121.195	-64.412	0.101	0.041
