DTS Sentinel unit serial number:	SN413079Multiplexer serial number:	ORYXHardware model number:	OX4-SRSoftware version number:	ORYX F/W v4.00 Oryx Data Collector v3.7.2.0data status	okinstallation	princeton_trtdifferential loss correction	single-endedforward channel	channel 1reverse channel	N/Adate	2019/09/14time	23:58:35forward acquisition time	60.00reverse acquisition time	0.00gamma	496.2192k internal	0.2320k external	0.2320temperature offset calibration	0.9995default loss term (dB/km)	0.3790temperature slope calibration	1.0000multiplexer offset coefficient	1.0000multiplexer slope coefficient	1.0000fibre end	0.00T internal ref (°C)	32.25T ext. ref 1 (°C)	4.60T ext. ref 2 (°C)	27.11length (m)	temperature (°C)	Stokes	anti-Stokes-747.200	757.459	0.088	-0.242
-746.185	800.000	0.023	0.095
-745.171	-191.360	-0.039	0.000
-744.156	-59.654	-0.274	0.119
-743.142	41.818	-0.150	0.137
-742.127	800.000	0.123	0.400
-741.112	27.418	-0.043	-0.036
-740.098	8.997	-0.149	0.113
-739.083	129.816	-0.322	0.417
-738.069	-16.154	0.228	0.146
-737.054	190.071	-0.247	0.374
-736.039	346.164	0.104	-0.206
-735.025	-126.290	0.502	0.076
-734.010	22.300	0.117	-0.097
-732.996	-135.866	-0.195	-0.023
-731.981	-200.000	0.004	-0.128
-730.966	800.000	-0.075	-0.246
-729.952	-54.679	-0.188	-0.086
-728.937	279.606	0.103	-0.186
-727.923	-200.000	0.000	-0.119
-726.908	6.106	-0.273	0.204
-725.894	-79.284	-0.239	0.082
-724.879	431.882	0.142	0.311
-723.864	-91.928	-0.173	0.050
-722.850	-166.232	0.135	0.006
-721.835	209.717	0.025	-0.040
-720.821	92.816	-0.245	0.280
-719.806	75.486	-0.065	-0.069
-718.791	800.000	0.098	-0.382
-717.777	800.000	0.027	0.113
-716.762	800.000	-0.004	0.013
-715.748	-58.878	0.107	0.047
-714.733	82.850	-0.128	-0.141
-713.718	-119.065	0.216	0.038
-712.704	239.425	0.053	-0.089
-711.689	-86.477	-0.018	0.005
-710.675	425.262	-0.008	0.018
-709.660	-200.000	0.010	0.213
-708.645	18.862	-0.271	0.219
-707.631	201.510	-0.130	0.202
-706.616	302.307	-0.228	-0.426
-705.602	-200.000	0.019	-0.267
-704.587	-3.050	0.044	0.031
-703.572	800.000	0.046	0.142
-702.558	-97.680	0.125	-0.033
-701.543	141.807	-0.120	-0.160
-700.529	-114.048	0.218	0.043
-699.514	-24.754	-0.254	0.152
-698.499	-24.671	0.033	0.020
-697.485	-200.000	0.022	-0.206
-696.470	82.900	0.151	-0.166
-695.456	-66.816	0.073	0.029
-694.441	-74.168	-0.417	-0.152
-693.426	418.359	-0.119	-0.256
-692.412	218.276	-0.115	-0.186
-691.397	632.962	0.033	0.085
-690.383	142.553	0.091	-0.122
-689.368	-81.388	-0.235	0.078
-688.354	-80.986	0.365	-0.122
-687.339	-85.443	-0.174	-0.055
-686.324	-200.000	-0.025	0.123
-685.310	-200.000	-0.013	-0.338
-684.295	64.594	0.156	-0.158
-683.281	-163.100	-0.467	0.023
-682.266	-84.939	-0.243	0.077
-681.251	645.781	0.032	0.083
-680.237	-25.544	-0.159	0.095
-679.222	-69.238	-0.281	0.109
-678.208	-139.258	-0.163	-0.018
-677.193	366.389	0.089	-0.181
-676.178	-67.912	-0.204	-0.080
-675.164	-77.414	-0.247	-0.087
-674.149	-120.472	-0.217	0.037
-673.135	-200.000	0.039	-0.188
-672.120	185.965	0.208	-0.312
-671.105	-58.551	0.130	-0.057
-670.091	2.889	-0.113	0.083
-669.076	93.767	0.117	-0.134
-668.062	-118.315	0.131	-0.024
-667.047	-103.900	-0.257	-0.060
-666.032	-39.739	0.341	-0.180
-665.018	-31.188	0.090	-0.051
-664.003	-161.563	-0.236	-0.012
-662.989	289.202	0.133	0.243
-661.974	136.236	0.053	-0.070
-660.959	-127.033	0.149	0.022
-659.945	800.000	-0.038	0.152
-658.930	-40.416	-0.160	-0.084
-657.916	-34.105	-0.177	0.098
-656.901	-200.000	0.029	0.193
-655.886	74.407	-0.272	0.288
-654.872	160.467	-0.075	0.106
-653.857	47.408	-0.194	0.182
-652.843	800.000	0.119	-0.362
-651.828	-124.264	0.199	0.031
-650.814	-141.614	0.047	-0.005
-649.799	167.166	0.207	-0.296
-648.784	800.000	-0.039	0.131
-647.770	132.636	0.136	0.177
-646.755	303.531	-0.150	-0.279
-645.741	-82.253	0.206	0.068
-644.726	383.041	-0.182	-0.377
-643.711	800.000	0.114	0.424
-642.697	34.684	-0.173	0.152
-641.682	-53.666	-0.255	-0.117
-640.668	186.414	0.106	0.159
-639.653	-28.490	-0.113	-0.066
-638.638	800.000	-0.025	0.087
-637.624	-100.700	-0.074	-0.018
-636.609	800.000	0.029	-0.100
-635.595	800.000	0.062	0.266
-634.580	-140.050	0.294	0.031
-633.565	110.454	-0.045	0.054
-632.551	-83.459	-0.368	-0.119
-631.536	159.446	0.188	-0.263
-630.522	256.082	-0.114	-0.198
-629.507	800.000	0.152	-0.501
-628.492	674.181	-0.065	-0.170
-627.478	-87.426	0.119	0.036
-626.463	-200.000	-0.017	-0.114
-625.449	156.795	-0.037	-0.051
-624.434	656.658	-0.090	-0.233
-623.419	-133.814	-0.481	0.060
-622.405	339.974	0.131	0.257
-621.390	222.696	-0.111	0.180
-620.376	-200.000	0.004	-0.053
-619.361	382.211	-0.117	-0.241
-618.346	-93.248	-0.126	-0.035
-617.332	741.798	-0.057	0.153
-616.317	108.496	-0.153	0.184
-615.303	800.000	0.099	-0.358
-614.288	800.000	-0.063	0.201
-613.273	-70.061	0.167	-0.064
-612.259	430.396	0.109	-0.238
-611.244	-29.943	-0.283	-0.162
-610.230	-200.000	0.028	-0.190
-609.215	104.456	0.220	-0.261
-608.201	-79.015	-0.403	0.138
-607.186	283.357	-0.081	-0.147
-606.171	-200.000	0.007	0.113
-605.157	-200.000	-0.014	0.138
-604.142	155.234	-0.050	-0.069
-603.128	35.651	-0.190	-0.168
-602.113	-200.000	0.007	0.058
-601.098	279.047	0.080	-0.144
-600.084	0.024	-0.029	-0.021
-599.069	-24.293	-0.179	-0.107
-598.055	-200.000	0.018	-0.100
-597.040	-66.276	0.152	0.061
-596.025	-167.663	0.078	-0.003
-595.011	-33.751	0.148	0.082
-593.996	213.090	-0.108	-0.171
-592.982	800.000	-0.027	-0.113
-591.967	27.271	0.039	0.033
-590.952	-163.685	-0.213	0.010
-589.938	-67.195	-0.236	0.093
-588.923	-200.000	-0.020	-0.167
-587.909	205.136	-0.044	0.068
-586.894	34.089	0.274	0.240
-585.879	-42.133	0.134	0.069
-584.865	9.627	0.142	0.108
-583.850	-44.216	-0.245	-0.124
-582.836	800.000	0.050	0.152
-581.821	-90.121	-0.418	0.122
-580.806	800.000	-0.072	0.212
-579.792	-200.000	0.004	0.147
-578.777	412.158	0.014	0.031
-577.763	221.126	-0.051	-0.082
-576.748	-108.765	0.197	-0.042
-575.733	-12.780	-0.086	-0.056
-574.719	125.545	-0.046	-0.059
-573.704	237.598	-0.078	-0.130
-572.690	34.557	-0.200	-0.176
-571.675	-158.115	-0.444	-0.026
-570.661	-82.345	-0.101	-0.033
-569.646	110.211	-0.118	-0.142
-568.631	-88.445	0.169	-0.051
-567.617	-27.209	0.446	-0.261
-566.602	-28.376	-0.050	-0.029
-565.588	685.283	0.030	0.078
-564.573	668.121	-0.141	-0.366
-563.558	-200.000	0.009	0.138
-562.544	-112.334	-0.370	0.074
-561.529	8.510	0.113	-0.086
-560.515	800.000	0.044	0.190
-559.500	-46.031	0.053	-0.026
-558.485	800.000	0.098	0.298
-557.471	-139.927	0.359	-0.038
-556.456	-52.542	-0.097	0.045
-555.442	126.116	0.182	0.231
-554.427	-120.850	-0.077	0.013
-553.412	201.068	0.125	-0.193
-552.398	326.756	0.044	0.086
-551.383	-136.617	0.149	-0.017
-550.369	190.654	-0.016	-0.024
-549.354	289.505	0.064	-0.117
-548.339	154.531	0.053	0.073
-547.325	795.005	0.029	-0.079
-546.310	-173.144	0.223	-0.007
-545.296	-200.000	-0.034	0.239
-544.281	52.407	-0.432	0.413
-543.266	45.587	0.174	0.161
-542.252	48.383	0.286	-0.269
-541.237	116.054	-0.060	-0.074
-540.223	-133.450	-0.226	0.028
-539.208	-64.259	-0.320	0.131
-538.193	678.929	-0.076	0.199
-537.179	-84.564	-0.128	-0.041
-536.164	-200.000	-0.037	-0.407
-535.150	-200.000	-0.012	0.304
-534.135	-200.000	-0.047	-0.267
-533.121	-143.619	-0.321	-0.031
-532.106	-58.573	0.214	-0.093
-531.091	-3.108	0.238	-0.166
-530.077	-200.000	0.002	0.066
-529.062	-200.000	-0.047	-0.427
-528.048	-200.000	-0.021	-0.121
-527.033	-26.435	-0.073	0.043
-526.018	-200.000	-0.024	0.174
-525.004	108.041	0.104	0.124
-523.989	286.736	-0.080	-0.145
-522.975	-136.664	-0.153	-0.018
-521.960	-41.327	0.077	-0.040
-520.945	-179.069	-0.026	0.001
-519.931	108.655	-0.251	-0.300
-518.916	378.486	-0.140	-0.287
-517.902	-24.628	-0.177	0.106
-516.887	-125.263	-0.250	-0.038
-515.872	-22.307	0.171	-0.104
-514.858	267.977	0.212	0.371
-513.843	-200.000	-0.028	0.216
-512.829	592.409	-0.070	0.173
-511.814	454.675	-0.087	0.192
-510.799	-2.948	0.170	0.119
-509.785	-45.258	0.383	-0.191
-508.770	-2.095	-0.062	0.044
-507.756	16.396	-0.176	-0.140
-506.741	203.984	-0.255	0.395
-505.726	490.202	0.118	-0.269
-504.712	392.081	0.088	-0.183
-503.697	-68.571	-0.276	0.107
-502.683	-200.000	0.007	0.049
-501.668	182.875	-0.134	-0.198
-500.653	-200.000	-0.017	-0.110
-499.639	-200.000	-0.008	0.055
-498.624	800.000	0.020	-0.065
-497.610	9.262	0.120	-0.091
-496.595	-47.295	-0.156	-0.076
-495.581	20.971	-0.100	0.081
-494.566	-36.060	-0.123	-0.067
-493.551	452.621	-0.068	0.151
-492.537	-182.812	0.090	0.002
-491.522	469.212	-0.090	-0.202
-490.508	800.000	0.147	-0.476
-489.493	800.000	-0.028	0.085
-488.478	73.108	-0.073	0.076
-487.464	-200.000	-0.012	-0.164
-486.449	800.000	0.078	0.232
-485.435	603.915	-0.059	-0.148
-484.420	-55.374	0.239	-0.108
-483.405	-135.992	-0.132	0.016
-482.391	-69.713	-0.180	-0.069
-481.376	146.338	0.109	-0.146
-480.362	-200.000	0.000	-0.009
-479.347	411.086	0.192	0.407
-478.332	-200.000	-0.023	0.182
-477.318	-79.676	0.242	-0.082
-476.303	39.124	-0.078	0.070
-475.289	-33.081	-0.183	0.101
-474.274	-52.410	0.100	-0.046
-473.259	156.849	-0.035	0.048
-472.245	74.602	-0.187	0.197
-471.230	-69.949	0.128	-0.049
-470.216	148.046	-0.218	-0.294
-469.201	585.173	-0.112	0.276
-468.186	255.099	0.158	0.271
-467.172	-200.000	-0.023	0.369
-466.157	-19.281	-0.056	-0.035
-465.143	723.857	-0.036	-0.096
-464.128	386.845	0.205	0.424
-463.113	-142.433	-0.247	0.024
-462.099	110.222	-0.223	0.268
-461.084	49.596	-0.043	0.041
-460.070	-88.347	0.235	-0.070
-459.055	144.380	0.230	-0.307
-458.040	-101.127	0.040	-0.010
-457.026	-200.000	0.014	0.107
-456.011	512.169	0.100	0.232
-454.997	-10.397	0.097	0.064
-453.982	197.078	0.101	-0.153
-452.968	-200.000	-0.001	-0.013
-451.953	-200.000	0.015	0.083
-450.938	-97.331	-0.215	-0.056
-449.924	-22.549	-0.212	-0.128
-448.909	-9.138	-0.180	0.120
-447.895	-200.000	-0.009	-0.149
-446.880	-41.862	-0.107	0.055
-445.865	-200.000	0.031	0.245
-444.851	800.000	0.089	-0.389
-443.836	153.539	0.173	0.237
-442.822	252.582	-0.083	-0.141
-441.807	316.658	0.029	0.054
-440.792	95.816	-0.172	0.196
-439.778	73.206	-0.066	-0.069
-438.763	40.946	-0.093	-0.084
-437.749	173.499	-0.084	0.121
-436.734	72.718	-0.227	0.237
-435.719	-4.682	0.334	-0.230
-434.705	178.484	0.072	-0.104
-433.690	800.000	0.034	0.122
-432.676	-62.418	0.244	0.101
-431.661	-200.000	0.004	0.055
-430.646	-200.000	0.058	0.292
-429.632	70.023	-0.247	-0.254
-428.617	757.752	0.083	-0.224
-427.603	79.581	0.226	-0.242
-426.588	-130.572	-0.413	0.056
-425.573	-200.000	-0.040	0.373
-424.559	-200.000	-0.010	0.059
-423.544	-45.526	-0.181	0.090
-422.530	800.000	-0.059	0.256
-421.515	206.973	-0.186	-0.289
-420.500	183.143	0.188	-0.277
-419.486	-200.000	-0.030	-0.213
-418.471	800.000	0.030	-0.100
-417.457	-2.605	0.447	-0.312
-416.442	800.000	-0.028	0.113
-415.428	-123.501	0.387	-0.062
-414.413	-166.471	0.115	-0.005
-413.398	-149.606	0.339	0.027
-412.384	-46.917	0.115	0.056
-411.369	-200.000	0.027	0.133
-410.355	-151.065	-0.260	-0.020
-409.340	-59.079	0.210	-0.091
-408.325	-62.314	-0.401	0.167
-407.311	800.000	-0.021	0.078
-406.296	-120.497	-0.150	0.025
-405.282	0.933	-0.434	-0.310
-404.267	-54.731	0.184	-0.083
-403.252	-76.905	-0.222	-0.077
-402.238	-98.248	0.428	-0.110
-401.223	32.804	0.062	0.053
-400.209	623.018	0.045	-0.113
-399.194	14.955	0.030	-0.023
-398.179	-121.886	-0.259	-0.043
-397.165	56.580	0.115	0.112
-396.150	-133.146	-0.233	-0.029
-395.136	524.912	0.036	0.085
-394.121	17.281	0.074	-0.059
-393.106	-37.763	-0.118	-0.063
-392.092	59.242	0.116	-0.114
-391.077	-200.000	-0.030	0.373
-390.063	-200.000	0.008	-0.108
-389.048	-137.479	-0.427	0.048
-388.033	54.886	-0.047	0.045
-387.019	-115.738	-0.159	-0.030
-386.004	-168.922	0.027	0.001
-384.990	-56.662	0.099	0.044
-383.975	-112.019	-0.174	0.035
-382.960	-56.593	0.237	0.105
-381.946	20.848	0.146	0.118
-380.931	-97.779	-0.486	-0.125
-379.917	-62.793	-0.286	0.118
-378.902	210.673	-0.189	0.297
-377.888	28.827	0.121	0.102
-376.873	-43.097	-0.068	0.034
-375.858	128.965	0.103	0.130
-374.844	-200.000	0.012	-0.452
-373.829	51.324	-0.193	0.183
-372.815	19.313	-0.293	0.235
-371.800	800.000	-0.043	0.176
-370.785	800.000	-0.058	0.213
-369.771	-72.083	-0.332	-0.123
-368.756	-41.480	-0.082	-0.042
-367.742	-0.141	0.283	0.201
-366.727	-200.000	-0.041	-0.299
-365.712	178.009	0.074	-0.108
-364.698	800.000	-0.031	0.087
-363.683	230.340	-0.054	0.088
-362.669	20.351	0.227	-0.183
-361.654	800.000	0.049	-0.143
-360.639	687.914	0.008	-0.020
-359.625	-74.846	0.166	-0.059
-358.610	375.876	0.025	-0.051
-357.596	-120.283	0.196	-0.033
-356.581	224.490	-0.122	0.196
-355.566	488.241	-0.104	0.237
-354.552	-3.819	0.067	-0.047
-353.537	62.366	0.224	0.223
-352.523	-200.000	0.022	0.125
-351.508	-69.969	-0.261	0.099
-350.493	-15.483	0.075	0.048
-349.479	-66.405	0.230	-0.091
-348.464	-200.000	-0.030	0.531
-347.450	-24.453	-0.114	-0.068
-346.435	-80.122	0.175	0.058
-345.420	5.254	-0.389	-0.286
-344.406	176.033	0.302	-0.436
-343.391	-83.969	0.300	-0.095
-342.377	-102.785	0.172	-0.041
-341.362	-200.000	-0.019	-0.141
-340.348	-19.622	-0.204	0.125
-339.333	433.962	-0.037	0.080
-338.318	104.475	-0.129	0.151
-337.304	384.164	-0.076	0.157
-336.289	-142.757	-0.207	0.020
-335.275	-30.028	-0.143	-0.081
-334.260	-122.994	-0.215	0.034
-333.245	239.982	0.103	0.171
-332.231	-136.581	-0.240	-0.028
-331.216	-97.549	0.378	-0.098
-330.202	-37.175	0.180	-0.096
-329.187	-35.519	-0.183	-0.099
-328.172	-70.119	0.346	-0.131
-327.158	81.025	-0.145	0.156
-326.143	800.000	0.087	0.309
-325.129	-141.249	-0.135	0.014
-324.114	800.000	-0.038	0.120
-323.099	46.330	0.102	0.094
-322.085	42.715	0.088	-0.080
-321.070	-200.000	0.047	0.296
-320.056	-200.000	0.034	-0.364
-319.041	800.000	0.041	-0.132
-318.026	117.813	-0.035	0.043
-317.012	101.320	0.156	-0.181
-315.997	-50.319	-0.055	0.026
-314.983	-8.015	0.204	0.136
-313.968	-42.873	-0.101	0.051
-312.953	-1.880	0.173	-0.121
-311.939	-41.986	-0.179	-0.091
-310.924	-146.085	-0.099	-0.009
-309.910	-75.795	0.125	-0.044
-308.895	-70.011	0.467	-0.177
-307.880	-75.825	-0.263	0.093
-306.866	-64.324	0.179	-0.072
-305.851	-108.342	0.316	0.068
-304.837	-200.000	0.011	-0.080
-303.822	-200.000	-0.016	-0.264
-302.807	-83.433	0.045	-0.014
-301.793	800.000	-0.042	0.172
-300.778	155.522	-0.106	-0.144
-299.764	43.276	-0.236	-0.214
-298.749	-25.516	0.337	-0.198
-297.735	113.637	-0.235	0.284
-296.720	-200.000	0.046	-0.271
-295.705	527.894	0.113	-0.264
-294.691	-200.000	0.003	0.511
-293.676	-200.000	0.018	0.217
-292.662	-151.286	0.237	-0.018
-291.647	800.000	-0.022	0.074
-290.632	-200.000	0.013	-0.197
-289.618	-183.612	0.322	0.005
-288.603	11.219	0.238	0.181
-287.589	800.000	-0.048	-0.140
-286.574	-200.000	-0.039	-0.177
-285.559	-200.000	-0.032	0.181
-284.545	-200.000	-0.027	0.247
-283.530	800.000	0.030	0.117
-282.516	-200.000	0.010	-0.121
-281.501	496.898	0.175	-0.399
-280.486	459.316	-0.113	0.250
-279.472	-200.000	-0.020	0.118
-278.457	-51.481	0.336	-0.156
-277.443	171.527	-0.112	-0.160
-276.428	-100.911	-0.187	-0.046
-275.413	800.000	0.087	0.250
-274.399	189.373	-0.207	-0.308
-273.384	800.000	-0.027	0.115
-272.370	37.619	0.089	-0.078
-271.355	-200.000	-0.011	-0.079
-270.340	20.704	0.318	0.256
-269.326	800.000	-0.018	-0.060
-268.311	-138.382	-0.200	-0.022
-267.297	163.997	-0.134	0.187
-266.282	-83.217	0.098	-0.031
-265.267	800.000	0.067	-0.185
-264.253	-84.664	0.111	-0.035
-263.238	-152.098	0.082	0.006
-262.224	-16.687	0.210	0.132
-261.209	800.000	0.071	0.262
-260.195	111.051	0.108	0.129
-259.180	800.000	0.059	0.189
-258.165	356.257	0.102	-0.202
-257.151	2.373	0.061	-0.044
-256.136	-75.011	0.110	-0.039
-255.122	-165.623	-0.127	0.005
-254.107	196.421	-0.047	-0.072
-253.092	-30.343	0.126	-0.071
-252.078	-136.312	-0.142	-0.016
-251.063	37.235	0.353	0.310
-250.049	800.000	-0.046	0.148
-249.034	176.740	0.055	-0.079
-248.019	-84.051	-0.137	0.043
-247.005	333.116	0.067	0.129
-245.990	-80.408	0.183	-0.061
-244.976	263.969	0.122	-0.210
-243.961	-200.000	-0.002	-0.061
-242.946	31.815	0.058	0.049
-241.932	800.000	0.046	-0.180
-240.917	590.234	-0.045	-0.111
-239.903	152.783	0.263	0.356
-238.888	223.561	-0.143	0.229
-237.873	110.037	-0.230	0.274
-236.859	44.857	0.083	0.076
-235.844	695.867	-0.218	0.566
-234.830	292.213	0.102	0.185
-233.815	-13.301	0.131	-0.084
-232.800	-200.000	-0.021	0.404
-231.786	23.383	0.144	-0.117
-230.771	127.652	0.126	0.158
-229.757	778.133	0.105	-0.285
-228.742	128.037	-0.047	0.059
-227.727	-81.539	-0.281	-0.092
-226.713	-195.707	0.043	-0.000
-225.698	115.851	-0.188	0.227
-224.684	96.286	0.025	0.028
-223.669	-90.574	-0.170	-0.049
-222.655	200.618	0.115	-0.175
-221.640	278.990	0.112	-0.198
-220.625	-59.986	0.218	-0.092
-219.611	800.000	-0.096	-0.351
-218.596	134.316	0.043	0.055
-217.582	714.378	-0.042	-0.111
-216.567	122.309	0.213	-0.263
-215.552	231.974	-0.179	-0.291
-214.538	222.659	0.112	-0.179
-213.523	51.171	-0.019	0.018
-212.509	-135.311	0.356	0.042
-211.494	204.670	-0.068	-0.104
-210.479	-131.345	0.476	-0.062
-209.465	-162.997	-0.210	0.010
-208.450	-200.000	0.083	-0.382
-207.436	95.573	0.139	0.157
-206.421	42.314	-0.073	0.066
-205.406	-131.228	0.371	0.049
-204.392	-31.628	0.211	0.118
-203.377	13.922	-0.135	0.104
-202.363	-10.884	-0.246	0.161
-201.348	550.030	0.068	0.161
-200.333	58.529	0.082	-0.080
-199.319	-200.000	-0.028	-0.125
-198.304	800.000	-0.061	-0.252
-197.290	-23.535	-0.239	0.142
-196.275	800.000	-0.019	0.065
-195.260	-180.367	0.110	-0.002
-194.246	800.000	-0.117	-0.350
-193.231	510.085	0.095	-0.219
-192.217	-10.076	0.148	-0.097
-191.202	296.979	-0.178	-0.323
-190.187	800.000	-0.208	-0.619
-189.173	-171.344	0.196	0.006
-188.158	307.101	0.045	0.083
-187.144	289.241	0.048	0.087
-186.129	-200.000	0.021	0.205
-185.114	-200.000	-0.001	0.151
-184.100	-100.118	0.101	0.025
-183.085	-61.102	0.264	0.110
-182.071	9.683	-0.359	-0.269
-181.056	439.029	0.140	0.302
-180.042	126.110	0.033	0.041
-179.027	800.000	0.090	-0.269
-178.012	5.773	0.060	0.044
-176.998	-200.000	0.049	0.363
-175.983	331.989	0.061	-0.116
-174.969	636.336	0.017	0.042
-173.954	295.635	-0.064	-0.115
-172.939	228.963	-0.200	0.322
-171.925	444.267	-0.083	0.180
-170.910	800.000	-0.047	-0.165
-169.896	-122.167	0.320	0.052
-168.881	54.322	-0.095	0.091
-167.866	800.000	0.072	-0.268
-166.852	-200.000	-0.022	0.280
-165.837	-99.762	-0.243	-0.060
-164.823	-200.000	0.029	0.132
-163.808	-88.942	0.240	0.070
-162.793	186.208	0.130	0.191
-161.779	-200.000	0.079	0.365
-160.764	-165.533	-0.256	-0.011
-159.750	276.165	0.118	0.207
-158.735	40.207	-0.123	0.109
-157.720	-196.063	-0.280	-0.002
-156.706	-156.085	-0.177	-0.011
-155.691	-89.555	0.309	-0.090
-154.677	-47.070	0.216	-0.104
-153.662	-69.841	-0.244	0.092
-152.647	81.342	0.172	0.183
-151.633	-49.095	0.116	-0.055
-150.618	362.946	0.098	-0.194
-149.604	20.032	-0.189	-0.151
-148.589	-38.693	-0.347	0.181
-147.574	328.582	-0.115	0.218
-146.560	800.000	0.036	-0.139
-145.545	-149.853	0.009	0.001
-144.531	85.831	-0.196	-0.213
-143.516	-200.000	-0.010	0.195
-142.502	380.313	-0.125	-0.254
-141.487	346.184	0.043	-0.083
-140.472	-96.564	-0.314	-0.082
-139.458	-35.806	-0.239	-0.128
-138.443	-65.293	-0.116	-0.046
-137.429	800.000	0.042	0.171
-136.414	206.584	-0.035	-0.054
-135.399	-200.000	0.002	-0.143
-134.385	800.000	-0.089	0.310
-133.370	800.000	0.060	0.209
-132.356	-121.426	-0.272	-0.045
-131.341	495.702	-0.070	0.158
-130.326	-200.000	-0.025	-0.109
-129.312	800.000	-0.066	-0.257
-128.297	152.504	-0.059	-0.080
-127.283	74.833	0.221	-0.230
-126.268	-136.850	0.171	-0.019
-125.253	126.064	0.064	-0.080
-124.239	345.118	0.092	-0.179
-123.224	-33.891	0.091	-0.049
-122.210	-116.994	0.191	-0.034
-121.195	33.679	0.383	0.328
