DTS Sentinel unit serial number:	SN413079Multiplexer serial number:	ORYXHardware model number:	OX4-SRSoftware version number:	ORYX F/W v4.00 Oryx Data Collector v3.7.2.0data status	okinstallation	princeton_trtdifferential loss correction	single-endedforward channel	channel 1reverse channel	N/Adate	2019/09/18time	10:18:35forward acquisition time	60.00reverse acquisition time	0.00gamma	496.2192k internal	0.2329k external	0.2329temperature offset calibration	0.9977default loss term (dB/km)	0.3790temperature slope calibration	1.0000multiplexer offset coefficient	1.0000multiplexer slope coefficient	1.0000fibre end	0.00T internal ref (°C)	28.00T ext. ref 1 (°C)	0.34T ext. ref 2 (°C)	24.33length (m)	temperature (°C)	Stokes	anti-Stokes-747.200	-113.670	0.082	-0.016
-746.185	-182.420	-0.149	0.003
-745.171	43.941	0.307	-0.283
-744.156	79.243	-0.290	0.314
-743.142	58.357	0.240	0.237
-742.127	103.413	-0.140	0.166
-741.112	-200.000	0.035	0.195
-740.098	-137.798	-0.290	-0.033
-739.083	153.535	-0.242	0.334
-738.069	105.264	0.077	-0.092
-737.054	800.000	-0.110	0.319
-736.039	-200.000	-0.029	0.129
-735.025	155.227	-0.073	-0.102
-734.010	415.676	-0.114	-0.244
-732.996	45.611	-0.380	-0.353
-731.981	-200.000	0.007	-0.448
-730.966	-29.555	0.041	-0.024
-729.952	800.000	-0.063	-0.268
-728.937	-44.353	-0.374	0.189
-727.923	-200.000	-0.001	-0.093
-726.908	-200.000	-0.035	-0.306
-725.894	-92.502	-0.102	-0.029
-724.879	84.380	0.161	0.178
-723.864	-200.000	0.028	0.151
-722.850	-124.623	-0.092	-0.014
-721.835	-6.540	0.143	0.098
-720.821	245.405	-0.128	-0.217
-719.806	-33.460	-0.196	-0.109
-718.791	47.082	0.136	-0.127
-717.777	-134.332	-0.254	-0.031
-716.762	245.903	0.115	-0.196
-715.748	800.000	0.093	-0.336
-714.733	47.717	0.162	0.152
-713.718	-200.000	0.022	-0.125
-712.704	-110.042	-0.295	-0.062
-711.689	-126.276	-0.324	0.049
-710.675	270.422	-0.201	-0.356
-709.660	475.991	0.126	-0.286
-708.645	422.879	-0.056	0.122
-707.631	60.916	-0.168	0.167
-706.616	172.409	-0.156	0.226
-705.602	-200.000	0.030	-0.199
-704.587	-200.000	0.013	-0.466
-703.572	-88.301	0.181	0.054
-702.558	196.855	-0.110	0.168
-701.543	-86.485	0.304	0.094
-700.529	491.075	0.052	0.119
-699.514	46.927	0.247	0.231
-698.499	39.060	-0.197	0.177
-697.485	458.373	-0.019	0.043
-696.470	-183.245	-0.137	0.002
-695.456	-86.995	-0.125	-0.038
-694.441	-200.000	0.017	-0.118
-693.426	-24.334	-0.383	0.230
-692.412	800.000	0.080	-0.288
-691.397	50.362	-0.187	-0.177
-690.383	800.000	0.064	-0.237
-689.368	137.108	-0.164	0.216
-688.354	422.811	-0.068	0.147
-687.339	214.421	-0.145	-0.230
-686.324	7.269	0.105	-0.079
-685.310	-200.000	-0.014	0.157
-684.295	40.057	-0.143	-0.129
-683.281	-124.545	-0.137	0.021
-682.266	1.899	-0.062	-0.045
-681.251	348.150	0.044	-0.088
-680.237	800.000	0.053	0.225
-679.222	-100.722	0.139	-0.035
-678.208	-200.000	-0.006	0.249
-677.193	273.682	-0.183	-0.326
-676.178	-200.000	0.013	-0.345
-675.164	800.000	0.005	-0.020
-674.149	2.058	-0.344	-0.249
-673.135	-105.761	0.201	0.046
-672.120	-108.655	-0.368	-0.079
-671.105	-200.000	0.022	-0.215
-670.091	-55.135	0.173	0.078
-669.076	-200.000	0.005	-0.371
-668.062	-130.922	-0.223	0.030
-667.047	-200.000	-0.023	0.132
-666.032	-199.734	0.213	0.001
-665.018	-117.987	-0.427	0.077
-664.003	785.283	0.129	0.355
-662.989	-200.000	-0.004	-0.076
-661.974	316.173	-0.214	-0.406
-660.959	-83.137	-0.221	-0.072
-659.945	-74.605	-0.169	0.061
-658.930	15.975	-0.142	-0.112
-657.916	-200.000	0.019	0.154
-656.901	-50.310	-0.103	-0.049
-655.886	-122.593	0.137	-0.022
-654.872	-200.000	0.007	0.076
-653.857	125.807	-0.260	-0.329
-652.843	87.010	-0.146	-0.162
-651.828	301.507	0.071	-0.132
-650.814	-200.000	-0.020	-0.096
-649.799	-88.735	-0.349	0.104
-648.784	259.060	-0.127	0.220
-647.770	-61.533	-0.181	0.076
-646.755	-200.000	-0.021	0.177
-645.741	-61.357	-0.084	-0.035
-644.726	-52.285	-0.338	0.157
-643.711	637.491	-0.067	-0.170
-642.697	-151.221	-0.068	-0.005
-641.682	17.578	-0.256	0.204
-640.668	-114.868	-0.035	-0.007
-639.653	-29.455	0.082	0.047
-638.638	-114.278	0.228	-0.044
-637.624	-33.664	-0.205	0.113
-636.609	-139.429	-0.241	0.026
-635.595	-200.000	-0.031	0.200
-634.580	151.936	-0.220	0.302
-633.565	800.000	-0.104	-0.328
-632.551	800.000	0.092	0.361
-631.536	23.886	-0.132	-0.109
-630.522	-123.552	-0.271	-0.043
-629.507	-200.000	-0.011	-0.212
-628.492	-200.000	0.020	-0.109
-627.478	800.000	-0.030	0.091
-626.463	-180.700	0.089	-0.002
-625.449	66.786	-0.141	-0.144
-624.434	-144.125	0.226	0.021
-623.419	-108.094	0.175	0.038
-622.405	800.000	-0.054	-0.153
-621.390	64.006	-0.081	-0.082
-620.376	-142.763	0.367	-0.036
-619.361	-200.000	0.022	0.252
-618.346	-102.744	0.281	-0.067
-617.332	-200.000	-0.001	-0.455
-616.317	-65.745	0.055	-0.022
-615.303	157.751	0.038	0.053
-614.288	-200.000	-0.054	0.372
-613.273	134.940	0.185	-0.241
-612.259	293.345	0.021	-0.039
-611.244	132.961	-0.029	-0.037
-610.230	36.193	0.306	-0.271
-609.215	-65.333	-0.232	-0.093
-608.201	198.657	-0.118	-0.181
-607.186	-127.520	0.456	0.066
-606.171	115.829	0.168	0.206
-605.157	-200.000	0.015	-0.151
-604.142	-47.816	-0.242	0.117
-603.128	224.214	-0.098	0.158
-602.113	-57.574	-0.058	-0.025
-601.098	253.394	0.033	-0.056
-600.084	297.906	-0.173	-0.319
-599.069	-69.997	-0.335	0.128
-598.055	13.226	-0.318	0.247
-597.040	383.323	0.088	-0.181
-596.025	73.030	0.114	0.119
-595.011	-200.000	0.032	-0.195
-593.996	-86.595	-0.145	0.044
-592.982	220.919	0.071	0.114
-591.967	298.683	-0.060	-0.111
-590.952	800.000	0.095	0.302
-589.938	-200.000	0.014	0.264
-588.923	-8.976	-0.213	0.143
-587.909	6.790	-0.188	-0.140
-586.894	5.080	-0.069	-0.051
-585.879	-44.384	0.152	-0.076
-584.865	-200.000	0.006	0.073
-583.850	-142.393	-0.213	-0.021
-582.836	59.968	0.247	0.244
-581.821	-60.888	0.040	-0.017
-580.806	800.000	0.121	0.388
-579.792	28.381	-0.230	-0.195
-578.777	-114.921	0.391	0.074
-577.763	-143.120	-0.270	0.026
-576.748	13.621	-0.086	0.067
-575.733	194.951	0.143	-0.217
-574.719	-200.000	-0.012	0.067
-573.704	-82.865	-0.277	0.089
-572.690	286.318	0.151	0.273
-571.675	-99.359	0.241	0.061
-570.661	-7.314	0.098	0.066
-569.646	536.409	0.067	-0.158
-568.631	60.947	-0.099	0.098
-567.617	-186.762	-0.325	0.005
-566.602	-165.191	0.016	-0.001
-565.588	-62.431	-0.075	-0.031
-564.573	245.317	0.169	-0.284
-563.558	800.000	-0.036	0.157
-562.544	-200.000	-0.000	-0.194
-561.529	-200.000	-0.031	0.412
-560.515	-185.760	0.320	0.005
-559.500	46.316	0.142	-0.132
-558.485	-104.191	-0.323	-0.075
-557.471	94.172	0.104	0.118
-556.456	-85.061	0.251	-0.079
-555.442	-1.907	-0.306	0.215
-554.427	128.154	-0.126	0.160
-553.412	-57.079	0.143	-0.063
-552.398	-200.000	0.021	-0.214
-551.383	-153.709	-0.275	-0.019
-550.369	-108.998	-0.525	0.112
-549.354	-120.053	0.159	0.027
-548.339	222.337	-0.161	-0.260
-547.325	-200.000	-0.031	0.195
-546.310	800.000	0.041	-0.139
-545.296	-200.000	0.022	0.409
-544.281	33.208	0.166	0.144
-543.266	-148.426	-0.369	-0.030
-542.252	800.000	0.085	-0.294
-541.237	-37.608	-0.320	-0.170
-540.223	-20.186	-0.348	-0.214
-539.208	-103.829	0.316	0.074
-538.193	-45.456	0.128	0.064
-537.179	214.532	0.114	0.181
-536.164	-77.254	-0.144	0.050
-535.150	-85.970	0.108	-0.033
-534.135	-71.775	-0.169	-0.063
-533.121	800.000	0.067	0.289
-532.106	638.918	0.092	-0.234
-531.091	-200.000	-0.074	-0.401
-530.077	-131.988	0.368	-0.048
-529.062	-165.812	0.220	0.009
-528.048	-200.000	-0.002	0.126
-527.033	144.069	-0.096	0.128
-526.018	-53.725	-0.134	0.061
-525.004	-11.480	0.407	-0.267
-523.989	71.441	0.028	-0.029
-522.975	-129.320	0.138	-0.019
-521.960	-77.046	-0.085	0.029
-520.945	15.937	-0.148	-0.116
-519.931	-81.621	-0.196	0.064
-518.916	-200.000	-0.008	0.138
-517.902	-200.000	-0.010	0.139
-516.887	98.889	0.039	0.045
-515.872	-13.347	0.288	0.186
-514.858	95.638	0.097	0.110
-513.843	-166.006	-0.245	0.010
-512.829	264.999	0.063	-0.109
-511.814	49.026	0.186	-0.174
-510.799	-200.000	-0.097	-0.476
-509.785	-115.529	-0.234	0.044
-508.770	-200.000	-0.030	-0.192
-507.756	800.000	0.101	-0.358
-506.741	51.602	0.071	0.067
-505.726	-105.244	0.175	-0.040
-504.712	-135.020	-0.151	0.018
-503.697	-21.163	0.295	-0.180
-502.683	23.918	0.312	-0.256
-501.668	54.971	0.259	0.250
-500.653	-73.284	-0.150	0.055
-499.639	-76.329	0.254	-0.089
-498.624	-128.289	-0.362	-0.051
-497.610	800.000	0.091	0.322
-496.595	800.000	0.051	0.148
-495.581	-200.000	0.076	0.362
-494.566	408.122	-0.054	0.113
-493.551	167.396	-0.053	0.075
-492.537	-61.499	0.156	-0.066
-491.522	800.000	0.053	0.169
-490.508	800.000	-0.105	0.305
-489.493	-133.392	0.192	0.024
-488.478	196.611	-0.157	0.238
-487.464	-200.000	-0.014	-0.263
-486.449	800.000	0.066	-0.215
-485.435	-200.000	-0.010	0.319
-484.420	442.726	-0.040	0.087
-483.405	125.767	-0.290	0.365
-482.391	-15.437	-0.112	0.071
-481.376	416.695	0.050	0.106
-480.362	307.587	0.054	-0.101
-479.347	-99.932	0.204	0.051
-478.332	-87.117	-0.219	0.067
-477.318	-191.270	0.471	0.005
-476.303	-20.906	0.133	0.081
-475.289	32.776	-0.194	0.168
-474.274	-174.081	-0.396	0.012
-473.259	-200.000	-0.017	-0.186
-472.245	-85.501	0.092	0.029
-471.230	-97.175	0.456	-0.119
-470.216	159.787	0.051	0.071
-469.201	-200.000	-0.049	-0.291
-468.186	-16.265	-0.328	-0.208
-467.172	-85.945	-0.099	-0.031
-466.157	-106.921	-0.113	0.025
-465.143	562.259	0.033	-0.079
-464.128	-108.110	0.388	-0.084
-463.113	-126.431	0.097	-0.014
-462.099	449.420	0.039	-0.085
-461.084	800.000	0.119	0.399
-460.070	-69.776	-0.157	-0.060
-459.055	-107.742	-0.126	-0.027
-458.040	-120.448	0.066	0.011
-457.026	800.000	-0.055	-0.184
-456.011	-200.000	-0.441	0.001
-454.997	105.698	0.270	0.318
-453.982	41.415	-0.112	0.101
-452.968	410.746	0.076	0.161
-451.953	235.738	0.145	-0.238
-450.938	-200.000	-0.002	0.097
-449.924	-114.865	-0.226	-0.043
-448.909	-200.000	0.001	-0.372
-447.895	-200.000	-0.016	-0.178
-446.880	168.531	-0.032	-0.046
-445.865	800.000	0.096	0.303
-444.851	-200.000	-0.030	-0.199
-443.836	-21.428	0.269	0.163
-442.822	800.000	-0.058	0.185
-441.807	135.776	0.136	-0.176
-440.792	-79.515	-0.113	0.038
-439.778	221.522	0.097	0.154
-438.763	557.490	0.063	-0.151
-437.749	191.884	-0.068	0.101
-436.734	-13.927	-0.322	0.207
-435.719	92.151	0.177	-0.199
-434.705	113.657	-0.220	0.266
-433.690	-82.428	-0.020	0.006
-432.676	103.904	-0.320	-0.374
-431.661	800.000	0.029	0.101
-430.646	-80.674	0.102	-0.034
-429.632	148.416	0.121	0.162
-428.617	70.723	-0.037	-0.038
-427.603	-108.485	0.033	-0.007
-426.588	-108.901	-0.131	-0.028
-425.573	800.000	0.093	0.371
-424.559	645.884	0.115	-0.291
-423.544	65.743	-0.254	0.256
-422.530	-62.010	-0.114	-0.047
-421.515	177.566	-0.128	-0.186
-420.500	249.918	-0.099	0.166
-419.486	147.243	0.130	-0.174
-418.471	578.385	0.122	0.297
-417.457	-200.000	0.038	0.206
-416.442	-167.732	-0.258	0.010
-415.428	69.906	0.183	0.188
-414.413	-169.308	0.070	0.003
-413.398	163.612	0.067	0.094
-412.384	-200.000	0.023	0.227
-411.369	325.326	0.132	-0.251
-410.355	-200.000	0.005	-0.253
-409.340	-136.194	0.270	-0.031
-408.325	800.000	0.012	0.041
-407.311	473.432	0.149	0.334
-406.296	3.431	-0.140	-0.101
-405.282	126.636	-0.084	-0.106
-404.267	-60.173	-0.282	0.120
-403.252	800.000	-0.029	0.094
-402.238	31.868	0.319	-0.273
-401.223	165.805	0.143	-0.201
-400.209	194.095	-0.014	0.021
-399.194	459.858	0.068	0.151
-398.179	-200.000	-0.005	0.121
-397.165	11.672	-0.394	0.301
-396.150	24.702	-0.169	0.139
-395.136	-200.000	-0.011	0.098
-394.121	-49.899	0.217	0.103
-393.106	800.000	0.048	-0.170
-392.092	-161.349	-0.353	0.018
-391.077	91.116	0.174	-0.194
-390.063	-22.733	0.329	-0.198
-389.048	18.560	0.376	-0.299
-388.033	128.889	0.113	0.143
-387.019	-200.000	-0.252	0.001
-386.004	11.707	-0.030	-0.023
-384.990	524.995	-0.062	0.146
-383.975	-200.000	-0.021	0.109
-382.960	800.000	0.133	0.386
-381.946	-71.878	0.192	0.071
-380.931	800.000	0.039	-0.166
-379.917	-55.117	0.272	0.121
-378.902	-55.748	-0.099	0.044
-377.888	-19.237	-0.268	0.165
-376.873	-31.418	0.098	-0.055
-375.858	60.451	0.083	0.082
-374.844	800.000	-0.074	-0.205
-373.829	708.341	-0.046	-0.120
-372.815	-3.163	-0.303	-0.210
-371.800	-138.559	0.167	-0.018
-370.785	104.873	-0.222	-0.260
-369.771	-200.000	-0.028	-0.129
-368.756	430.470	0.241	-0.518
-367.742	-21.853	0.151	-0.091
-366.727	81.284	0.059	0.063
-365.712	107.851	-0.097	0.115
-364.698	112.440	-0.086	0.103
-363.683	-0.258	0.255	0.180
-362.669	-200.000	-0.020	-0.298
-361.654	-126.193	0.194	-0.029
-360.639	15.119	0.266	-0.207
-359.625	800.000	-0.043	0.180
-358.610	-126.093	-0.154	0.023
-357.596	50.535	0.041	-0.039
-356.581	-105.245	0.342	0.078
-355.566	800.000	0.074	-0.269
-354.552	132.735	-0.261	-0.334
-353.537	-123.088	0.247	0.039
-352.523	800.000	0.041	-0.154
-351.508	-132.533	-0.142	-0.018
-350.493	-1.197	0.029	0.020
-349.479	10.376	-0.023	-0.017
-348.464	800.000	-0.037	0.129
-347.450	-200.000	-0.026	-0.206
-346.435	428.924	0.114	0.244
-345.420	-78.209	-0.084	0.029
-344.406	-105.320	0.090	0.020
-343.391	-5.395	0.084	-0.057
-342.377	-200.000	0.020	0.153
-341.362	184.775	0.114	0.167
-340.348	246.225	-0.163	-0.273
-339.333	14.596	-0.339	-0.262
-338.318	406.499	0.010	-0.021
-337.304	-200.000	-0.008	-0.181
-336.289	-34.946	-0.285	0.154
-335.275	474.586	-0.080	-0.179
-334.260	232.361	0.056	-0.091
-333.245	94.505	-0.094	0.106
-332.231	-114.706	-0.197	-0.037
-331.216	-200.000	0.069	-0.403
-330.202	-66.509	-0.107	0.042
-329.187	-54.281	-0.013	-0.006
-328.172	-15.970	0.261	-0.165
-327.158	-200.000	-0.055	-0.482
-326.143	43.957	-0.101	0.091
-325.129	800.000	0.024	0.072
-324.114	148.396	0.064	-0.085
-323.099	-200.000	-0.010	-0.292
-322.085	515.574	-0.044	0.102
-321.070	-0.063	0.155	-0.109
-320.056	800.000	-0.085	0.247
-319.041	69.549	-0.201	-0.205
-318.026	791.208	-0.230	-0.625
-317.012	3.838	0.227	0.164
-315.997	-80.160	-0.096	0.032
-314.983	-80.509	-0.132	0.044
-313.968	-58.284	0.203	0.088
-312.953	-51.907	-0.251	-0.116
-311.939	-141.799	0.137	-0.014
-310.924	-35.049	-0.428	0.231
-309.910	-156.557	0.192	0.012
-308.895	-73.902	0.506	-0.182
-307.880	-48.217	-0.126	0.060
-306.866	-200.000	-0.001	0.112
-305.851	22.906	0.278	0.226
-304.837	219.098	0.097	0.154
-303.822	800.000	0.098	-0.325
-302.807	-165.366	0.422	0.018
-301.793	800.000	0.117	0.324
-300.778	-8.221	-0.188	0.126
-299.764	642.493	0.151	-0.382
-298.749	800.000	0.057	-0.198
-297.735	-126.002	-0.123	0.018
-296.720	-200.000	0.055	-0.301
-295.705	24.624	0.053	-0.044
-294.691	44.983	-0.246	-0.224
-293.676	-129.142	-0.278	0.038
-292.662	-74.377	0.147	0.053
-291.647	-156.497	-0.255	0.016
-290.632	172.966	-0.181	-0.258
-289.618	-200.000	-0.011	-0.106
-288.603	99.445	0.189	-0.216
-287.589	800.000	-0.133	-0.381
-286.574	2.930	0.320	0.230
-285.559	-195.120	0.251	0.002
-284.545	183.758	-0.016	0.024
-283.530	82.035	-0.215	-0.230
-282.516	-200.000	0.024	0.235
-281.501	-86.500	-0.105	0.032
-280.486	800.000	-0.024	0.099
-279.472	-100.102	0.125	0.031
-278.457	-59.167	-0.278	-0.119
-277.443	-142.971	-0.395	0.038
-276.428	52.495	-0.132	-0.125
-275.413	-200.000	0.012	-0.109
-274.399	-88.311	-0.468	-0.138
-273.384	-134.172	0.192	0.023
-272.370	307.914	0.118	0.218
-271.355	-200.000	0.013	0.072
-270.340	-12.133	0.083	-0.054
-269.326	-62.612	0.472	0.194
-268.311	163.797	0.089	0.124
-267.297	-200.000	-0.015	-0.136
-266.282	409.886	-0.083	0.173
-265.267	-200.000	-0.022	0.201
-264.253	39.566	0.156	0.138
-263.238	-200.000	-0.003	0.383
-262.224	-26.789	0.475	-0.275
-261.209	800.000	-0.015	-0.049
-260.195	-200.000	0.053	0.323
-259.180	-200.000	0.008	-0.167
-258.165	717.000	0.064	-0.168
-257.151	36.158	0.069	0.060
-256.136	159.178	-0.174	0.238
-255.122	184.816	0.089	-0.130
-254.107	-200.000	-0.021	0.218
-253.092	-200.000	-0.014	0.093
-252.078	631.083	0.180	0.450
-251.063	-200.000	-0.036	-0.525
-250.049	800.000	-0.105	0.407
-249.034	-200.000	0.009	0.040
-248.019	-32.072	-0.091	-0.050
-247.005	729.119	-0.232	-0.612
-245.990	-22.678	0.047	0.028
-244.976	23.073	0.197	-0.160
-243.961	-15.084	-0.315	-0.199
-242.946	56.367	-0.293	-0.281
-241.932	800.000	-0.049	-0.153
-240.917	800.000	0.088	0.298
-239.903	-79.360	-0.286	-0.096
-238.888	212.333	0.127	0.197
-237.873	73.450	-0.147	-0.152
-236.859	25.195	0.217	0.178
-235.844	-45.676	0.194	0.095
-234.830	-134.750	0.142	-0.017
-233.815	-200.000	-0.016	0.149
-232.800	800.000	-0.131	0.565
-231.786	-141.664	0.350	0.035
-230.771	110.073	-0.051	0.061
-229.757	507.077	-0.082	0.188
-228.742	-163.732	0.158	-0.007
-227.727	22.036	-0.222	0.179
-226.713	84.397	0.209	-0.226
-225.698	-80.016	-0.099	-0.033
-224.684	-97.351	-0.132	-0.034
-223.669	-38.688	0.268	0.140
-222.655	-100.895	-0.149	-0.036
-221.640	-93.447	0.067	-0.018
-220.625	310.105	0.099	0.183
-219.611	-53.639	0.161	0.073
-218.596	180.153	0.058	-0.084
-217.582	15.442	-0.182	-0.141
-216.567	7.583	0.307	0.227
-215.552	-200.000	0.031	-0.290
-214.538	-47.037	0.256	-0.124
-213.523	190.622	-0.122	0.180
-212.509	-196.001	0.228	0.002
-211.494	-147.524	0.340	-0.028
-210.479	-35.766	-0.309	0.165
-209.465	-145.788	0.221	-0.019
-208.450	-200.000	-0.085	-0.372
-207.436	-27.325	-0.085	-0.049
-206.421	-200.000	0.018	0.324
-205.406	537.057	0.045	0.105
-204.392	39.349	-0.339	-0.299
-203.377	13.140	-0.177	0.135
-202.363	129.786	-0.174	-0.219
-201.348	152.476	-0.127	-0.171
-200.333	-134.704	0.204	0.024
-199.319	12.912	0.116	0.088
-198.304	12.939	0.106	0.081
-197.290	800.000	0.009	-0.028
-196.275	-162.305	0.241	0.012
-195.260	-200.000	-0.063	0.467
-194.246	-162.048	-0.234	-0.012
-193.231	35.060	-0.174	-0.150
-192.217	44.547	0.045	0.041
-191.202	18.402	-0.091	-0.072
-190.187	83.344	0.082	0.088
-189.173	-200.000	0.004	0.080
-188.158	-195.258	0.275	0.002
-187.144	321.649	-0.196	-0.367
-186.129	-51.600	0.116	0.053
-185.114	-74.301	0.146	0.052
-184.100	-14.263	-0.305	0.194
-183.085	-64.086	0.130	-0.052
-182.071	551.129	-0.064	0.152
-181.056	198.515	0.199	-0.300
-180.042	-0.985	0.220	0.153
-179.027	-200.000	-0.064	-0.359
-178.012	96.122	0.267	-0.300
-176.998	-101.941	-0.095	0.023
-175.983	0.398	0.110	0.077
-174.969	-23.226	-0.217	0.128
-173.954	674.394	-0.106	0.272
-172.939	-33.676	0.355	0.193
-171.925	-165.290	0.306	-0.013
-170.910	-29.906	-0.290	-0.163
-169.896	32.438	-0.100	-0.085
-168.881	800.000	0.018	0.073
-167.866	-94.550	-0.238	-0.064
-166.852	-60.353	0.171	-0.072
-165.837	-9.651	-0.326	0.214
-164.823	-62.481	-0.442	-0.181
-163.808	-200.000	0.060	-0.287
-162.793	27.403	0.093	-0.077
-161.779	-68.385	0.181	-0.069
-160.764	-112.098	0.049	0.010
-159.750	-72.476	0.489	0.178
-158.735	-34.196	0.127	0.069
-157.720	590.141	0.045	-0.108
-156.706	-4.767	0.255	-0.173
-155.691	64.865	-0.244	0.242
-154.677	-200.000	-0.559	-0.001
-153.662	-5.633	-0.278	-0.188
-152.647	103.481	-0.327	0.378
-151.633	176.344	0.085	-0.122
-150.618	82.455	0.047	0.050
-149.604	118.619	-0.077	0.094
-148.589	166.307	-0.172	-0.240
-147.574	-87.820	-0.217	-0.064
-146.560	-200.000	0.008	0.316
-145.545	28.722	-0.205	-0.170
-144.531	-80.588	0.218	-0.071
-143.516	-28.999	0.080	-0.045
-142.502	494.662	0.037	0.084
-141.487	-200.000	-0.025	0.127
-140.472	81.871	0.195	-0.208
-139.458	0.387	-0.483	0.339
-138.443	-144.110	-0.014	-0.001
-137.429	-57.774	0.277	-0.119
-136.414	12.485	-0.215	0.163
-135.399	-65.243	0.301	-0.119
-134.385	655.556	-0.070	-0.177
-133.370	-200.000	-0.011	-0.050
-132.356	268.679	-0.222	-0.382
-131.341	-137.340	0.040	0.004
-130.326	-41.488	0.168	-0.085
-129.312	-123.157	-0.194	-0.031
-128.297	59.420	0.151	0.147
-127.283	800.000	-0.084	-0.251
-126.268	161.687	-0.077	0.107
-125.253	-200.000	-0.019	-0.109
-124.239	-48.700	-0.205	0.097
-123.224	279.161	0.149	0.261
-122.210	-13.079	-0.064	0.041
-121.195	800.000	-0.031	0.093
