DTS Sentinel unit serial number:	SN413079Multiplexer serial number:	ORYXHardware model number:	OX4-SRSoftware version number:	ORYX F/W v4.00 Oryx Data Collector v3.7.2.0data status	okinstallation	princeton_trtdifferential loss correction	single-endedforward channel	channel 1reverse channel	N/Adate	2019/09/17time	14:26:35forward acquisition time	60.00reverse acquisition time	0.00gamma	496.2192k internal	0.2298k external	0.2298temperature offset calibration	0.9968default loss term (dB/km)	0.3790temperature slope calibration	1.0000multiplexer offset coefficient	1.0000multiplexer slope coefficient	1.0000fibre end	0.00T internal ref (°C)	36.34T ext. ref 1 (°C)	0.41T ext. ref 2 (°C)	33.33length (m)	temperature (°C)	Stokes	anti-Stokes-747.200	-200.000	-0.016	0.168
-746.185	800.000	0.122	0.473
-745.171	-91.351	0.075	-0.022
-744.156	800.000	-0.017	0.050
-743.142	-23.452	0.083	0.051
-742.127	336.222	-0.125	0.248
-741.112	-116.849	0.089	0.017
-740.098	-101.740	-0.397	0.098
-739.083	-40.183	-0.278	0.148
-738.069	-200.000	0.010	0.280
-737.054	327.993	-0.054	-0.105
-736.039	-164.099	0.268	0.013
-735.025	-137.209	-0.177	0.021
-734.010	-200.000	-0.084	0.392
-732.996	16.771	-0.405	0.327
-731.981	-30.501	0.010	0.006
-730.966	-65.720	-0.151	-0.062
-729.952	-35.787	0.105	-0.058
-728.937	104.795	0.205	-0.246
-727.923	562.652	0.027	0.066
-726.908	184.643	-0.092	-0.139
-725.894	-48.386	0.145	-0.071
-724.879	-117.671	-0.200	0.037
-723.864	247.229	0.062	-0.107
-722.850	106.843	-0.068	-0.083
-721.835	160.518	0.156	0.222
-720.821	-36.585	-0.413	0.227
-719.806	17.597	-0.308	-0.250
-718.791	-124.910	-0.249	0.039
-717.777	-28.569	0.525	-0.309
-716.762	-52.038	0.191	-0.090
-715.748	-110.044	-0.177	0.038
-714.733	-86.512	-0.324	0.101
-713.718	-200.000	-0.085	-0.438
-712.704	755.654	0.064	-0.177
-711.689	-200.000	0.006	0.090
-710.675	-200.000	-0.069	0.392
-709.660	-119.282	-0.331	0.059
-708.645	24.112	0.188	-0.158
-707.631	14.402	-0.279	-0.222
-706.616	-177.052	0.208	0.005
-705.602	-200.000	0.005	0.276
-704.587	-200.000	0.055	0.318
-703.572	800.000	-0.045	-0.185
-702.558	436.816	0.204	0.452
-701.543	32.762	0.081	-0.072
-700.529	130.391	0.115	-0.150
-699.514	-72.039	0.218	0.083
-698.499	-200.000	0.038	0.247
-697.485	-55.127	0.295	-0.135
-696.470	-34.450	0.201	0.112
-695.456	-11.946	-0.264	0.176
-694.441	-200.000	0.046	0.497
-693.426	-200.000	-0.020	0.178
-692.412	81.108	-0.130	-0.143
-691.397	800.000	-0.035	-0.131
-690.383	5.055	0.191	0.143
-689.368	-200.000	0.024	-0.112
-688.354	140.556	0.331	-0.446
-687.339	-42.823	-0.372	-0.193
-686.324	-125.652	0.296	0.046
-685.310	800.000	-0.079	-0.235
-684.295	-32.360	0.159	0.090
-683.281	416.977	-0.085	0.184
-682.266	88.804	-0.253	-0.286
-681.251	244.046	-0.107	-0.183
-680.237	-200.000	0.011	-0.232
-679.222	-131.088	0.283	0.038
-678.208	-43.421	0.192	-0.099
-677.193	-200.000	0.048	-0.213
-676.178	-128.262	0.089	-0.013
-675.164	-200.000	-0.012	0.324
-674.149	222.428	0.165	-0.270
-673.135	82.188	0.215	0.237
-672.120	-34.160	-0.245	-0.137
-671.105	800.000	-0.061	-0.197
-670.091	-144.185	-0.362	0.034
-669.076	-17.797	-0.085	0.054
-668.062	-171.104	-0.395	0.014
-667.047	3.463	0.128	-0.095
-666.032	-60.979	0.239	0.103
-665.018	-200.000	0.020	0.210
-664.003	-99.759	-0.405	0.103
-662.989	800.000	0.114	-0.445
-661.974	-200.000	-0.004	-0.052
-660.959	108.278	-0.090	-0.110
-659.945	-200.000	0.035	-0.160
-658.930	285.911	-0.138	0.253
-657.916	35.448	0.080	-0.072
-656.901	573.897	-0.074	0.184
-655.886	19.644	0.055	-0.045
-654.872	-49.070	0.049	-0.024
-653.857	-126.478	-0.098	-0.015
-652.843	772.210	0.077	-0.212
-651.828	-66.657	-0.208	-0.084
-650.814	286.067	0.135	0.249
-649.799	-200.000	0.018	0.172
-648.784	-99.978	-0.247	0.063
-647.770	-81.375	0.326	0.109
-646.755	-25.064	-0.216	-0.130
-645.741	-200.000	-0.055	0.273
-644.726	-22.028	0.240	-0.148
-643.711	-117.735	-0.266	-0.049
-642.697	-54.987	-0.393	0.180
-641.682	645.286	-0.056	0.146
-640.668	-108.719	0.276	0.060
-639.653	-106.605	0.141	0.032
-638.638	-200.000	-0.025	-0.339
-637.624	28.661	0.159	0.137
-636.609	-200.000	-0.018	-0.222
-635.595	800.000	0.088	0.255
-634.580	193.604	0.139	0.214
-633.565	-200.000	-0.009	-0.198
-632.551	426.262	-0.078	0.171
-631.536	58.820	0.084	0.084
-630.522	31.599	0.333	-0.291
-629.507	800.000	-0.039	0.109
-628.492	-12.822	-0.089	0.059
-627.478	-57.018	-0.212	-0.095
-626.463	584.497	0.027	0.066
-625.449	41.009	0.148	-0.135
-624.434	-176.737	0.309	-0.008
-623.419	-200.000	-0.001	0.163
-622.405	-200.000	-0.349	-0.001
-621.390	23.591	-0.180	0.151
-620.376	-62.364	-0.354	0.150
-619.361	227.113	0.225	-0.372
-618.346	82.663	0.077	-0.085
-617.332	5.679	-0.255	-0.192
-616.317	99.725	-0.232	-0.273
-615.303	-200.000	-0.213	-0.001
-614.288	-51.963	0.367	0.173
-613.273	78.001	0.208	-0.225
-612.259	123.064	0.036	0.046
-611.244	-68.610	0.540	0.212
-610.230	117.850	-0.042	0.052
-609.215	-200.000	-0.005	-0.247
-608.201	-117.351	-0.096	0.018
-607.186	13.336	0.373	-0.294
-606.171	26.570	-0.259	-0.220
-605.157	12.100	-0.162	0.127
-604.142	-200.000	0.012	-0.081
-603.128	7.715	-0.370	0.282
-602.113	167.990	0.043	0.063
-601.098	171.455	-0.035	0.052
-600.084	90.282	-0.096	-0.109
-599.069	-200.000	0.020	0.136
-598.055	-13.222	0.049	-0.032
-597.040	-155.783	-0.183	0.012
-596.025	-92.342	0.260	-0.074
-595.011	-38.176	0.191	0.103
-593.996	29.166	-0.167	0.143
-592.982	-97.042	-0.062	0.016
-591.967	-126.289	0.298	0.045
-590.952	-96.981	-0.218	0.058
-589.938	-109.149	-0.364	0.079
-588.923	-10.065	-0.215	-0.145
-587.909	-68.013	-0.044	-0.018
-586.894	-134.412	0.165	0.020
-585.879	343.223	-0.082	0.163
-584.865	111.598	0.112	0.138
-583.850	-138.942	-0.223	0.025
-582.836	-82.844	-0.119	0.039
-581.821	-55.687	-0.363	-0.165
-580.806	-72.285	-0.264	-0.099
-579.792	-77.824	0.190	-0.066
-578.777	592.812	0.162	-0.405
-577.763	566.097	0.105	-0.258
-576.748	-27.985	-0.181	0.106
-575.733	-200.000	0.006	0.150
-574.719	800.000	-0.026	-0.073
-573.704	26.445	0.277	-0.235
-572.690	-64.890	-0.299	-0.123
-571.675	145.218	-0.075	-0.102
-570.661	-200.000	-0.028	0.225
-569.646	-105.375	0.049	0.011
-568.631	-114.703	0.217	0.042
-567.617	126.264	-0.046	0.058
-566.602	-200.000	-0.034	-0.154
-565.588	-35.403	0.070	-0.039
-564.573	-51.113	0.224	-0.107
-563.558	25.062	0.200	0.168
-562.544	128.374	-0.091	-0.117
-561.529	286.269	-0.085	0.156
-560.515	-200.000	0.046	-0.297
-559.500	-200.000	-0.011	-0.210
-558.485	113.153	-0.225	0.277
-557.471	-80.606	-0.061	0.021
-556.456	24.633	0.159	-0.133
-555.442	-105.351	0.355	0.082
-554.427	800.000	0.014	-0.054
-553.412	-200.000	0.002	0.057
-552.398	-47.758	-0.250	-0.123
-551.383	-200.000	0.009	0.072
-550.369	-200.000	0.013	0.208
-549.354	-138.253	-0.397	-0.045
-548.339	-0.702	0.103	0.074
-547.325	187.735	0.117	0.178
-546.310	132.188	-0.174	-0.228
-545.296	39.361	0.134	-0.121
-544.281	165.249	-0.059	0.084
-543.266	78.942	-0.148	0.160
-542.252	-10.116	-0.227	-0.153
-541.237	-45.915	-0.325	0.163
-540.223	13.697	-0.179	-0.140
-539.208	196.527	0.072	-0.112
-538.193	-181.649	0.104	0.002
-537.179	-200.000	0.050	-0.228
-536.164	337.275	-0.106	-0.209
-535.150	608.618	-0.089	-0.225
-534.135	260.675	-0.079	0.139
-533.121	-132.850	-0.229	-0.030
-532.106	-40.307	-0.179	-0.094
-531.091	-200.000	-0.020	-0.182
-530.077	37.049	-0.209	-0.187
-529.062	175.622	0.150	0.220
-528.048	-200.000	-0.043	-0.301
-527.033	-51.975	-0.357	-0.168
-526.018	212.758	-0.151	-0.242
-525.004	-200.000	-0.014	0.164
-523.989	323.012	-0.153	-0.295
-522.975	207.689	-0.208	0.329
-521.960	-24.702	-0.152	-0.091
-520.945	-21.526	-0.208	-0.128
-519.931	-39.585	-0.274	0.145
-518.916	-177.219	0.238	0.006
-517.902	173.608	0.072	0.105
-516.887	70.160	0.018	-0.019
-515.872	460.462	-0.057	0.129
-514.858	173.459	0.103	-0.150
-513.843	800.000	-0.067	-0.209
-512.829	-164.366	-0.225	0.010
-511.814	1.321	-0.347	0.252
-510.799	468.545	-0.099	-0.224
-509.785	-200.000	0.073	0.336
-508.770	33.953	-0.073	0.064
-507.756	-25.793	-0.217	0.129
-506.741	800.000	0.036	0.119
-505.726	256.020	0.064	-0.111
-504.712	111.160	0.244	0.298
-503.697	800.000	-0.023	-0.092
-502.683	61.456	0.104	0.104
-501.668	408.531	0.060	0.128
-500.653	780.737	-0.076	-0.212
-499.639	800.000	-0.007	-0.030
-498.624	-78.591	0.120	-0.041
-497.610	-78.903	-0.020	-0.007
-496.595	-56.383	-0.182	0.082
-495.581	145.753	-0.031	-0.042
-494.566	737.755	-0.025	-0.067
-493.551	-142.965	-0.215	0.021
-492.537	800.000	0.073	-0.259
-491.522	-134.314	0.242	-0.030
-490.508	-132.964	0.358	-0.046
-489.493	10.304	0.079	-0.060
-488.478	-200.000	-0.052	0.409
-487.464	68.902	-0.136	-0.141
-486.449	-31.150	0.261	-0.149
-485.435	-120.455	-0.477	-0.082
-484.420	187.645	-0.059	0.089
-483.405	-200.000	-0.003	0.039
-482.391	800.000	-0.093	-0.331
-481.376	15.529	0.212	0.168
-480.362	-0.841	-0.198	0.142
-479.347	16.706	0.055	-0.044
-478.332	-57.098	0.076	-0.034
-477.318	-116.534	0.187	-0.035
-476.303	-61.591	-0.113	-0.048
-475.289	1.181	-0.213	-0.155
-474.274	-200.000	-0.042	-0.241
-473.259	-137.955	0.091	0.010
-472.245	301.919	0.048	-0.090
-471.230	-200.000	-0.005	0.199
-470.216	47.816	0.120	0.113
-469.201	-172.342	0.398	-0.013
-468.186	-75.824	-0.139	-0.050
-467.172	-50.827	-0.198	-0.094
-466.157	204.558	0.172	0.270
-465.143	-154.253	0.208	-0.014
-464.128	-149.122	0.279	0.023
-463.113	800.000	0.054	0.196
-462.099	-200.000	0.031	0.283
-461.084	-200.000	0.006	0.220
-460.070	22.295	0.236	-0.195
-459.055	528.168	-0.025	-0.060
-458.040	243.826	0.033	0.055
-457.026	-200.000	-0.008	0.199
-456.011	-47.121	0.144	0.071
-454.997	-138.626	-0.207	-0.023
-453.982	-19.111	-0.122	0.077
-452.968	-184.885	0.173	0.003
-451.953	-200.000	-0.002	-0.027
-450.938	-16.637	-0.281	-0.179
-449.924	-200.000	-0.013	0.175
-448.909	-135.058	0.033	0.004
-447.895	-30.726	0.239	0.136
-446.880	573.499	-0.165	-0.407
-445.865	800.000	-0.057	-0.244
-444.851	-125.606	0.210	-0.032
-443.836	47.028	-0.095	0.089
-442.822	554.948	0.068	-0.165
-441.807	733.451	0.134	-0.361
-440.792	113.011	-0.031	0.038
-439.778	-72.939	0.167	-0.062
-438.763	-98.566	0.127	-0.033
-437.749	-155.604	-0.527	-0.034
-436.734	-200.000	0.016	-0.182
-435.719	-200.000	0.016	-0.116
-434.705	-94.885	-0.181	-0.049
-433.690	756.715	0.034	0.093
-432.676	41.726	0.255	0.233
-431.661	800.000	-0.101	0.344
-430.646	448.720	-0.065	0.144
-429.632	800.000	0.047	-0.138
-428.617	-92.148	0.047	0.013
-427.603	-200.000	-0.028	0.127
-426.588	-63.470	-0.303	-0.125
-425.573	-68.393	0.287	-0.112
-424.559	171.174	0.187	0.271
-423.544	128.944	0.276	0.354
-422.530	635.957	0.090	-0.229
-421.515	25.797	-0.112	-0.094
-420.500	-200.000	0.040	0.282
-419.486	369.491	0.098	0.199
-418.471	-106.910	-0.236	0.053
-417.457	800.000	-0.064	-0.270
-416.442	45.685	0.385	-0.359
-415.428	125.413	-0.083	-0.106
-414.413	-54.635	0.398	0.181
-413.398	705.511	-0.005	-0.014
-412.384	800.000	0.036	0.108
-411.369	-34.700	-0.203	-0.112
-410.355	461.653	0.098	-0.220
-409.340	216.078	-0.056	-0.090
-408.325	-81.748	0.105	-0.035
-407.311	119.077	0.178	0.222
-406.296	48.650	0.184	-0.174
-405.282	-183.621	0.385	-0.007
-404.267	29.364	-0.209	-0.179
-403.252	94.730	-0.012	0.014
-402.238	-68.177	-0.149	-0.058
-401.223	211.885	0.221	-0.351
-400.209	-200.000	0.036	0.178
-399.194	-116.285	-0.299	-0.056
-398.179	-44.068	-0.103	-0.052
-397.165	-4.208	0.227	-0.158
-396.150	-200.000	-0.051	-0.301
-395.136	-60.866	0.274	-0.117
-394.121	213.051	-0.032	0.050
-393.106	-200.000	-0.001	0.039
-392.092	-116.277	-0.274	-0.051
-391.077	-173.321	-0.222	-0.007
-390.063	-145.885	0.131	0.012
-389.048	-154.980	-0.238	0.016
-388.033	476.750	-0.179	0.406
-387.019	59.285	0.294	0.292
-386.004	255.126	-0.192	-0.330
-384.990	-136.668	0.354	0.041
-383.975	-114.828	-0.186	0.036
-382.960	594.024	0.065	-0.162
-381.946	-55.955	-0.226	0.101
-380.931	544.719	-0.153	0.369
-379.917	-200.000	0.015	-0.092
-378.902	-200.000	0.035	0.166
-377.888	78.379	0.183	-0.197
-376.873	-20.576	0.142	-0.088
-375.858	-51.574	0.217	-0.102
-374.844	185.859	0.241	0.360
-373.829	-61.144	-0.242	-0.103
-372.815	-142.953	0.346	0.034
-371.800	-200.000	0.020	-0.243
-370.785	-64.710	0.202	-0.082
-369.771	76.139	-0.087	-0.092
-368.756	-26.572	-0.118	-0.069
-367.742	94.860	0.125	0.143
-366.727	123.168	-0.118	0.148
-365.712	610.920	-0.050	-0.126
-364.698	-56.287	0.085	-0.038
-363.683	-200.000	0.315	0.001
-362.669	36.148	0.057	0.051
-361.654	24.672	-0.220	0.183
-360.639	183.434	-0.227	0.337
-359.625	89.739	0.187	0.210
-358.610	-200.000	-0.050	-0.469
-357.596	-200.000	-0.023	-0.250
-356.581	-123.255	-0.060	0.010
-355.566	51.167	0.151	-0.144
-354.552	569.986	-0.016	-0.039
-353.537	800.000	-0.055	0.240
-352.523	-84.526	0.054	0.017
-351.508	-114.427	0.401	0.078
-350.493	-58.914	-0.482	-0.209
-349.479	-200.000	-0.045	-0.296
-348.464	-200.000	-0.003	0.264
-347.450	49.618	0.153	-0.145
-346.435	102.860	0.064	0.075
-345.420	-200.000	-0.054	0.285
-344.406	-200.000	-0.026	-0.188
-343.391	800.000	-0.037	-0.143
-342.377	-200.000	0.040	-0.405
-341.362	-28.977	0.233	0.134
-340.348	-131.677	-0.269	-0.035
-339.333	-44.016	0.189	-0.095
-338.318	321.006	0.047	0.090
-337.304	800.000	0.064	0.278
-336.289	-84.817	-0.252	-0.079
-335.275	-176.937	-0.325	-0.008
-334.260	800.000	0.129	-0.469
-333.245	-200.000	-0.041	-0.198
-332.231	-8.943	0.363	0.244
-331.216	4.272	0.177	-0.130
-330.202	199.383	-0.018	0.027
-329.187	-62.729	0.224	0.093
-328.172	28.567	0.230	0.196
-327.158	-157.975	0.368	0.022
-326.143	-109.044	0.294	-0.063
-325.129	49.315	0.099	-0.093
-324.114	-200.000	0.021	-0.219
-323.099	-200.000	0.005	-0.375
-322.085	-75.797	-0.264	-0.094
-321.070	-57.298	0.128	-0.057
-320.056	67.407	0.033	-0.034
-319.041	-200.000	0.073	-0.349
-318.026	-86.671	0.405	-0.124
-317.012	44.841	0.191	0.176
-315.997	-200.000	0.004	0.031
-314.983	459.977	0.149	0.333
-313.968	-200.000	0.036	-0.338
-312.953	252.159	0.157	-0.268
-311.939	428.266	-0.111	0.240
-310.924	119.442	0.128	0.159
-309.910	752.638	0.189	-0.513
-308.895	-105.754	0.357	-0.081
-307.880	720.881	0.181	-0.483
-306.866	-200.000	-0.042	0.227
-305.851	-50.907	-0.274	0.129
-304.837	800.000	0.124	0.358
-303.822	130.041	-0.028	0.036
-302.807	-200.000	-0.036	0.192
-301.793	-88.894	0.123	0.036
-300.778	-140.486	-0.215	0.022
-299.764	-55.407	-0.075	-0.034
-298.749	49.430	0.102	0.097
-297.735	-34.119	0.162	0.090
-296.720	-149.868	-0.153	0.012
-295.705	2.557	-0.211	-0.153
-294.691	43.532	0.059	-0.054
-293.676	-21.453	-0.132	-0.081
-292.662	321.600	-0.129	-0.246
-291.647	-28.689	0.119	0.068
-290.632	37.476	0.223	0.198
-289.618	-43.398	-0.337	-0.171
-288.603	226.596	-0.027	0.044
-287.589	800.000	0.045	0.193
-286.574	127.675	-0.229	-0.292
-285.559	-182.552	0.136	-0.002
-284.545	-101.300	-0.137	-0.033
-283.530	-97.012	-0.333	-0.087
-282.516	-18.859	0.028	0.017
-281.501	-55.163	-0.121	0.055
-280.486	-57.327	-0.034	-0.015
-279.472	54.118	-0.064	0.062
-278.457	11.187	0.173	0.133
-277.443	99.604	0.168	-0.195
-276.428	-120.596	-0.043	0.007
-275.413	-72.923	-0.040	0.015
-274.399	-145.553	-0.120	0.011
-273.384	395.112	-0.099	-0.206
-272.370	-112.727	-0.500	0.100
-271.355	62.965	0.136	0.136
-270.340	-200.000	-0.015	0.072
-269.326	613.702	0.089	0.222
-268.311	95.594	-0.088	0.101
-267.297	7.676	-0.158	0.119
-266.282	800.000	-0.029	-0.101
-265.267	800.000	0.053	-0.159
-264.253	74.251	-0.073	-0.077
-263.238	619.282	-0.062	-0.157
-262.224	155.393	0.176	-0.243
-261.209	787.452	0.062	-0.171
-260.195	-14.194	0.161	0.104
-259.180	-148.249	0.177	0.015
-258.165	-147.081	-0.197	-0.017
-257.151	-18.447	0.062	-0.039
-256.136	-84.714	-0.138	0.044
-255.122	-8.819	-0.057	0.038
-254.107	244.659	-0.131	0.221
-253.092	347.633	0.098	-0.193
-252.078	-27.596	-0.105	0.061
-251.063	72.386	0.133	0.139
-250.049	146.579	-0.095	-0.128
-249.034	147.628	0.070	-0.094
-248.019	-165.328	0.364	0.016
-247.005	-116.548	-0.042	-0.008
-245.990	34.968	-0.263	0.231
-244.976	-12.638	0.288	0.188
-243.961	-86.423	0.237	0.073
-242.946	800.000	-0.101	-0.349
-241.932	800.000	0.069	0.196
-240.917	48.572	0.116	-0.109
-239.903	800.000	-0.057	0.166
-238.888	148.554	0.193	0.261
-237.873	-31.829	-0.253	0.142
-236.859	-69.660	-0.293	0.112
-235.844	800.000	0.019	0.065
-234.830	-200.000	0.012	-0.173
-233.815	-200.000	-0.059	0.351
-232.800	-26.788	-0.063	0.037
-231.786	-32.915	-0.144	-0.080
-230.771	271.254	-0.039	0.068
-229.757	-102.362	0.096	-0.023
-228.742	-91.765	-0.198	0.056
-227.727	-34.847	0.160	0.088
-226.713	-5.284	0.090	-0.062
-225.698	-52.286	-0.112	0.052
-224.684	-178.670	-0.079	0.002
-223.669	-16.331	0.066	0.042
-222.655	230.189	0.107	0.175
-221.640	-200.000	0.000	0.464
-220.625	-22.925	-0.286	0.172
-219.611	211.891	0.148	-0.233
-218.596	85.085	0.095	0.104
-217.582	-200.000	0.000	0.180
-216.567	15.779	-0.091	0.072
-215.552	-45.563	0.387	-0.192
-214.538	-55.526	0.220	0.099
-213.523	-11.969	0.294	0.193
-212.509	800.000	0.048	0.158
-211.494	507.051	0.019	-0.044
-210.479	-200.000	-0.077	0.368
-209.465	616.684	0.073	0.182
-208.450	16.828	0.210	0.166
-207.436	-163.186	0.296	0.014
-206.421	800.000	0.136	0.423
-205.406	-200.000	0.067	-0.310
-204.392	-200.000	0.006	-0.088
-203.377	-148.314	0.028	-0.002
-202.363	390.693	0.098	0.203
-201.348	-200.000	0.005	-0.112
-200.333	34.752	-0.178	0.156
-199.319	-35.287	0.026	-0.014
-198.304	-21.251	0.210	0.128
-197.290	-77.486	0.271	-0.094
-196.275	11.988	-0.229	-0.176
-195.260	53.344	0.146	0.140
-194.246	104.052	0.081	0.095
-193.231	-15.490	-0.259	0.166
-192.217	-19.108	-0.103	-0.064
-191.202	8.108	-0.226	0.169
-190.187	-52.283	-0.480	-0.222
-189.173	155.965	0.138	0.190
-188.158	123.645	0.004	-0.005
-187.144	-200.000	0.002	0.048
-186.129	119.462	-0.203	-0.251
-185.114	-80.626	0.181	0.060
-184.100	800.000	0.106	0.386
-183.085	6.087	0.166	0.123
-182.071	-76.688	0.044	-0.016
-181.056	-200.000	0.013	-0.175
-180.042	800.000	-0.063	0.202
-179.027	49.304	-0.007	0.007
-178.012	-125.457	-0.156	0.024
-176.998	80.621	0.055	0.060
-175.983	259.929	-0.145	0.249
-174.969	51.650	-0.439	0.417
-173.954	-101.280	-0.148	0.036
-172.939	-110.315	-0.247	0.051
-171.925	-87.850	-0.315	0.095
-170.910	51.817	-0.238	-0.226
-169.896	-200.000	-0.011	-0.223
-168.881	-20.233	0.193	-0.118
-167.866	407.178	-0.068	-0.143
-166.852	800.000	-0.102	-0.344
-165.837	-68.030	0.051	0.020
-164.823	-39.242	0.253	0.133
-163.808	-200.000	0.028	-0.222
-162.793	-200.000	0.008	0.290
-161.779	282.537	-0.183	0.327
-160.764	-200.000	0.013	-0.342
-159.750	89.956	0.016	-0.018
-158.735	-1.484	0.161	0.114
-157.720	-200.000	0.090	0.424
-156.706	246.906	-0.047	0.079
-155.691	-82.935	-0.152	-0.049
-154.677	-14.553	-0.278	-0.178
-153.662	-200.000	0.037	-0.174
-152.647	41.235	0.042	0.038
-151.633	773.523	0.126	0.342
-150.618	-46.823	0.273	-0.133
-149.604	800.000	0.050	0.188
-148.589	28.256	0.201	-0.169
-147.574	144.295	0.142	0.189
-146.560	-84.821	-0.402	-0.126
-145.545	-200.000	0.010	0.173
-144.531	70.461	0.183	-0.189
-143.516	800.000	-0.021	-0.083
-142.502	75.503	-0.071	0.075
-141.487	-200.000	0.006	0.125
-140.472	-51.560	-0.249	-0.116
-139.458	-200.000	-0.105	-0.463
-138.443	-144.291	0.361	-0.033
-137.429	167.948	-0.187	-0.265
-136.414	90.161	0.047	0.053
-135.399	-200.000	-0.012	-0.146
-134.385	112.345	-0.203	0.245
-133.370	10.861	-0.162	0.123
-132.356	-200.000	-0.024	-0.252
-131.341	181.411	-0.202	-0.297
-130.326	-140.496	0.271	0.028
-129.312	800.000	-0.059	0.168
-128.297	-153.573	-0.078	-0.005
-127.283	-8.817	-0.183	-0.123
-126.268	25.696	0.156	0.129
-125.253	425.303	-0.163	0.349
-124.239	12.460	-0.075	0.058
-123.224	31.747	-0.210	0.180
-122.210	608.683	0.124	0.309
-121.195	-200.000	0.042	-0.244
-120.180	58.287	-0.153	0.149
