DTS Sentinel unit serial number:	SN413079Multiplexer serial number:	ORYXHardware model number:	OX4-SRSoftware version number:	ORYX F/W v4.00 Oryx Data Collector v3.7.2.0data status	okinstallation	princeton_trtdifferential loss correction	single-endedforward channel	channel 1reverse channel	N/Adate	2019/09/16time	11:06:35forward acquisition time	60.00reverse acquisition time	0.00gamma	496.2192k internal	0.2300k external	0.2300temperature offset calibration	0.9967default loss term (dB/km)	0.3790temperature slope calibration	1.0000multiplexer offset coefficient	1.0000multiplexer slope coefficient	1.0000fibre end	0.00T internal ref (°C)	37.00T ext. ref 1 (°C)	12.80T ext. ref 2 (°C)	33.61length (m)	temperature (°C)	Stokes	anti-Stokes-747.200	-20.146	-0.145	-0.091
-746.185	435.046	0.077	0.170
-745.171	-122.846	0.349	-0.057
-744.156	227.288	-0.105	0.175
-743.142	546.171	-0.097	-0.237
-742.127	70.545	0.062	0.065
-741.112	-177.190	0.112	0.003
-740.098	113.587	0.147	0.183
-739.083	-153.992	-0.052	0.004
-738.069	352.644	-0.103	0.209
-737.054	-7.728	-0.134	0.093
-736.039	18.490	-0.392	0.319
-735.025	-78.952	0.141	0.049
-734.010	-90.713	-0.420	0.124
-732.996	28.523	-0.171	-0.148
-731.981	223.026	0.085	0.139
-730.966	397.814	-0.121	0.259
-729.952	151.864	0.106	0.148
-728.937	-107.168	0.229	0.051
-727.923	-200.000	0.089	-0.436
-726.908	-118.100	-0.090	0.016
-725.894	-200.000	-0.031	-0.190
-724.879	347.495	0.079	0.158
-723.864	-167.330	-0.112	-0.005
-722.850	63.525	-0.086	-0.088
-721.835	-200.000	-0.028	-0.197
-720.821	-50.029	0.150	0.072
-719.806	37.056	0.085	-0.077
-718.791	800.000	-0.072	0.311
-717.777	422.892	0.042	0.092
-716.762	96.413	0.262	0.305
-715.748	636.344	0.071	0.183
-714.733	28.115	0.232	0.200
-713.718	-200.000	-0.006	0.075
-712.704	716.513	-0.023	-0.063
-711.689	18.829	-0.059	-0.048
-710.675	800.000	0.022	0.083
-709.660	800.000	0.075	-0.301
-708.645	451.367	-0.130	-0.292
-707.631	-200.000	0.024	0.127
-706.616	53.659	-0.171	-0.167
-705.602	-200.000	-0.000	-0.141
-704.587	777.645	0.071	0.197
-703.572	-66.962	-0.173	0.070
-702.558	-200.000	0.005	-0.033
-701.543	100.120	-0.120	-0.142
-700.529	-200.000	0.017	0.209
-699.514	48.676	-0.416	0.397
-698.499	-200.000	0.039	-0.245
-697.485	384.462	0.066	-0.139
-696.470	-172.627	-0.208	-0.007
-695.456	396.523	0.042	0.089
-694.441	-84.325	-0.124	0.040
-693.426	-124.296	-0.141	-0.022
-692.412	48.462	-0.408	-0.389
-691.397	171.117	-0.149	-0.217
-690.383	760.238	0.094	0.260
-689.368	83.611	0.143	-0.159
-688.354	-92.090	0.209	-0.060
-687.339	-88.074	-0.211	-0.064
-686.324	-200.000	-0.054	0.331
-685.310	-182.698	0.266	0.005
-684.295	800.000	-0.088	-0.282
-683.281	-200.000	0.020	0.243
-682.266	301.280	-0.082	-0.153
-681.251	271.112	-0.144	-0.259
-680.237	-200.000	-0.056	-0.470
-679.222	38.806	-0.277	0.252
-678.208	800.000	-0.101	-0.344
-677.193	310.969	0.091	0.173
-676.178	30.379	-0.278	0.242
-675.164	-200.000	-0.013	-0.244
-674.149	62.605	-0.171	-0.174
-673.135	800.000	-0.059	-0.212
-672.120	88.024	0.215	0.243
-671.105	16.841	0.149	-0.120
-670.091	125.203	-0.185	-0.238
-669.076	-128.380	-0.635	0.092
-668.062	-118.645	0.221	-0.040
-667.047	-15.208	-0.114	0.074
-666.032	-44.467	0.159	0.081
-665.018	-48.470	0.066	-0.032
-664.003	155.144	-0.203	0.284
-662.989	-13.558	0.108	0.071
-661.974	479.382	0.043	0.098
-660.959	359.718	-0.150	0.306
-659.945	90.723	-0.152	-0.173
-658.930	-107.939	-0.164	-0.036
-657.916	-22.594	-0.395	-0.243
-656.901	800.000	0.055	0.212
-655.886	1.192	-0.210	0.153
-654.872	-28.752	0.045	0.027
-653.857	-109.034	-0.359	-0.078
-652.843	63.446	-0.333	0.340
-651.828	-60.475	0.252	0.109
-650.814	16.347	-0.027	0.022
-649.799	800.000	-0.016	-0.070
-648.784	-105.306	0.251	-0.058
-647.770	-200.000	-0.002	0.145
-646.755	800.000	0.071	-0.212
-645.741	53.127	-0.070	-0.068
-644.726	94.867	-0.226	-0.261
-643.711	-90.486	-0.553	-0.163
-642.697	-73.302	-0.283	0.105
-641.682	345.098	0.056	0.112
-640.668	5.637	0.297	-0.223
-639.653	84.121	0.237	0.263
-638.638	-60.747	-0.137	0.059
-637.624	-22.025	0.182	0.112
-636.609	-93.326	-0.214	-0.060
-635.595	4.886	-0.040	-0.030
-634.580	143.148	0.040	0.054
-633.565	-74.661	-0.395	0.144
-632.551	-140.850	-0.135	0.014
-631.536	293.613	0.050	-0.093
-630.522	-102.578	0.186	0.045
-629.507	-148.796	-0.247	-0.020
-628.492	90.100	-0.167	-0.190
-627.478	57.402	-0.147	0.145
-626.463	-200.000	-0.032	-0.151
-625.449	-111.066	-0.242	0.050
-624.434	-94.866	-0.286	0.079
-623.419	34.755	-0.178	-0.158
-622.405	15.779	-0.150	0.120
-621.390	228.420	0.133	0.220
-620.376	-15.032	0.105	0.068
-619.361	69.354	0.270	-0.283
-618.346	-15.464	0.158	-0.103
-617.332	-200.000	-0.007	-0.088
-616.317	800.000	-0.060	0.251
-615.303	516.162	-0.122	0.288
-614.288	800.000	0.062	-0.196
-613.273	-161.318	0.087	-0.005
-612.259	349.859	0.137	0.274
-611.244	-200.000	0.030	0.152
-610.230	-131.785	-0.124	-0.016
-609.215	-137.615	-0.348	-0.040
-608.201	-104.921	0.142	0.033
-607.186	-142.270	0.164	-0.016
-606.171	30.047	-0.218	-0.189
-605.157	-200.000	-0.043	0.262
-604.142	64.403	-0.116	0.119
-603.128	178.359	-0.142	0.210
-602.113	361.525	-0.076	0.155
-601.098	-61.172	-0.075	-0.032
-600.084	-200.000	-0.002	0.296
-599.069	-6.032	-0.042	0.029
-598.055	-89.561	0.144	0.043
-597.040	800.000	0.047	-0.206
-596.025	67.839	0.148	0.154
-595.011	-64.856	-0.199	-0.081
-593.996	75.767	0.117	-0.126
-592.982	183.045	-0.056	0.084
-591.967	60.033	-0.162	0.162
-590.952	126.504	0.322	-0.413
-589.938	492.128	-0.133	0.308
-588.923	471.181	0.057	-0.130
-587.909	4.469	-0.095	0.071
-586.894	800.000	-0.071	-0.286
-585.879	-138.521	0.315	-0.035
-584.865	272.827	-0.084	-0.151
-583.850	-97.384	-0.391	0.103
-582.836	-50.251	-0.414	-0.199
-581.821	94.203	0.225	0.259
-580.806	-51.052	0.274	0.130
-579.792	783.377	0.072	-0.200
-578.777	354.095	-0.166	-0.335
-577.763	-126.662	0.139	0.021
-576.748	-190.120	-0.161	0.002
-575.733	-200.000	0.013	0.253
-574.719	-101.537	-0.405	-0.100
-573.704	38.023	-0.137	-0.123
-572.690	-114.190	-0.469	-0.092
-571.675	-17.321	-0.231	-0.147
-570.661	53.780	0.219	-0.213
-569.646	2.172	0.190	0.139
-568.631	-96.960	-0.115	0.031
-567.617	48.411	-0.263	-0.249
-566.602	200.643	0.225	-0.350
-565.588	-147.559	-0.096	0.008
-564.573	315.759	-0.147	0.280
-563.558	64.199	0.196	-0.200
-562.544	414.702	0.101	0.218
-561.529	-13.377	-0.215	-0.141
-560.515	496.385	-0.051	0.118
-559.500	-37.759	0.260	0.140
-558.485	271.891	0.111	0.199
-557.471	-200.000	-0.023	0.187
-556.456	-132.071	0.066	-0.009
-555.442	-200.000	0.001	-0.083
-554.427	-51.717	0.259	0.122
-553.412	-200.000	0.062	0.338
-552.398	-112.914	-0.031	0.006
-551.383	-120.547	0.091	-0.016
-550.369	-25.891	0.052	-0.031
-549.354	-200.000	0.012	-0.080
-548.339	672.824	0.095	-0.249
-547.325	800.000	0.030	0.088
-546.310	-200.000	-0.005	0.130
-545.296	116.395	0.169	-0.210
-544.281	-96.696	0.376	0.100
-543.266	-29.234	0.424	-0.246
-542.252	29.947	-0.280	-0.241
-541.237	-70.601	-0.046	-0.018
-540.223	20.255	-0.223	-0.182
-539.208	800.000	-0.025	0.089
-538.193	-17.486	-0.147	-0.094
-537.179	800.000	0.054	-0.170
-536.164	64.988	0.167	0.171
-535.150	-159.861	0.275	-0.015
-534.135	409.916	0.072	-0.154
-533.121	800.000	0.122	0.351
-532.106	268.307	-0.110	0.194
-531.091	178.701	0.033	-0.049
-530.077	67.937	-0.292	-0.302
-529.062	-200.000	-0.002	0.284
-528.048	-91.690	0.279	-0.080
-527.033	-36.169	-0.133	0.072
-526.018	19.302	-0.049	-0.040
-525.004	271.617	0.032	-0.056
-523.989	-80.058	-0.170	0.057
-522.975	-186.493	-0.278	0.004
-521.960	-145.874	-0.130	-0.012
-520.945	-200.000	-0.039	0.230
-519.931	-200.000	0.060	0.276
-518.916	23.872	0.210	0.175
-517.902	-200.000	0.020	-0.214
-516.887	752.495	-0.124	0.338
-515.872	291.203	-0.030	-0.054
-514.858	-61.124	0.083	-0.035
-513.843	-99.723	0.136	0.034
-512.829	446.660	0.013	0.029
-511.814	800.000	0.088	0.293
-510.799	100.861	-0.049	-0.058
-509.785	3.060	0.070	0.051
-508.770	-147.937	-0.347	-0.029
-507.756	-200.000	-0.002	-0.460
-506.741	116.383	-0.047	-0.059
-505.726	-136.174	0.407	-0.048
-504.712	-37.958	0.261	-0.140
-503.697	-91.574	-0.468	-0.135
-502.683	86.430	0.116	-0.129
-501.668	-164.654	0.311	-0.014
-500.653	-89.286	0.239	-0.071
-499.639	-92.238	-0.232	-0.066
-498.624	-174.716	0.389	-0.011
-497.610	562.678	-0.050	0.122
-496.595	395.051	-0.092	-0.195
-495.581	67.128	-0.156	-0.161
-494.566	-200.000	0.007	-0.145
-493.551	-35.306	-0.440	-0.242
-492.537	-146.585	0.191	0.017
-491.522	-133.469	0.237	0.030
-490.508	800.000	0.028	-0.109
-489.493	-119.818	0.399	0.069
-488.478	297.021	0.192	-0.356
-487.464	-101.353	-0.168	0.041
-486.449	35.793	-0.226	0.201
-485.435	-190.752	0.371	-0.004
-484.420	-141.017	0.367	-0.038
-483.405	-70.138	-0.195	0.075
-482.391	-200.000	-0.031	-0.366
-481.376	-83.020	-0.199	-0.065
-480.362	-185.655	-0.039	0.001
-479.347	-200.000	0.019	0.148
-478.332	-121.357	-0.198	-0.033
-477.318	-30.554	-0.336	0.192
-476.303	-67.069	-0.108	-0.043
-475.289	-120.942	-0.178	-0.030
-474.274	402.404	-0.179	0.379
-473.259	6.878	0.150	0.113
-472.245	247.872	0.034	0.058
-471.230	-56.736	0.136	-0.061
-470.216	342.695	-0.174	0.343
-469.201	-154.198	0.105	0.007
-468.186	76.690	0.174	-0.187
-467.172	775.434	-0.081	-0.223
-466.157	-122.505	-0.300	0.049
-465.143	83.358	-0.227	0.250
-464.128	-200.000	0.016	-0.135
-463.113	-136.143	0.450	-0.053
-462.099	800.000	0.058	0.243
-461.084	189.729	0.179	0.271
-460.070	-48.389	0.128	0.062
-459.055	-40.931	-0.260	0.136
-458.040	-74.546	-0.683	0.248
-457.026	-200.000	-0.033	-0.615
-456.011	-103.139	0.348	-0.083
-454.997	390.129	-0.065	-0.135
-453.982	-200.000	-0.026	0.181
-452.968	-82.048	-0.147	0.048
-451.953	-200.000	-0.036	0.310
-450.938	98.641	0.118	0.137
-449.924	-200.000	-0.009	-0.295
-448.909	-77.561	0.082	-0.029
-447.895	-8.606	0.121	-0.082
-446.880	800.000	-0.096	0.333
-445.865	81.607	0.086	-0.094
-444.851	-155.907	0.428	-0.027
-443.836	95.699	-0.237	-0.272
-442.822	-104.886	-0.192	-0.045
-441.807	-171.065	-0.100	0.003
-440.792	-143.603	-0.148	-0.014
-439.778	65.438	0.183	-0.187
-438.763	-0.895	-0.114	0.082
-437.749	-57.474	0.102	0.045
-436.734	135.830	0.226	-0.296
-435.719	-83.684	-0.110	0.035
-434.705	-89.720	0.189	-0.056
-433.690	-200.000	-0.090	0.472
-432.676	-6.436	-0.132	-0.091
-431.661	800.000	0.045	0.169
-430.646	-200.000	0.080	0.492
-429.632	-125.413	0.104	0.016
-428.617	369.246	-0.100	0.203
-427.603	-6.570	0.055	0.038
-426.588	-31.438	-0.010	-0.006
-425.573	438.079	-0.054	-0.120
-424.559	-18.544	0.440	0.276
-423.544	-140.296	0.264	0.028
-422.530	-131.876	0.065	0.008
-421.515	115.826	-0.120	0.148
-420.500	157.971	-0.108	-0.151
-419.486	-200.000	-0.029	-0.293
-418.471	-200.000	0.019	0.204
-417.457	-185.881	-0.138	-0.002
-416.442	34.168	0.132	0.116
-415.428	-94.188	-0.260	0.072
-414.413	252.851	0.129	-0.221
-413.398	800.000	-0.065	-0.276
-412.384	-153.962	0.219	0.015
-411.369	-200.000	0.042	-0.249
-410.355	-57.998	-0.159	-0.070
-409.340	-49.327	-0.110	0.053
-408.325	11.388	-0.152	-0.117
-407.311	-168.802	0.152	-0.006
-406.296	-65.981	0.186	0.075
-405.282	-97.266	0.227	0.060
-404.267	137.849	0.077	-0.102
-403.252	265.168	-0.157	-0.276
-402.238	-32.653	-0.100	0.056
-401.223	-102.716	-0.110	-0.026
-400.209	-200.000	-0.010	-0.193
-399.194	-200.000	0.036	-0.240
-398.179	-200.000	-0.041	0.199
-397.165	-116.738	-0.248	0.046
-396.150	-76.479	-0.462	-0.163
-395.136	-200.000	0.026	0.200
-394.121	-27.570	0.135	-0.079
-393.106	-53.850	-0.173	-0.079
-392.092	-169.536	-0.412	-0.015
-391.077	-200.000	0.039	-0.252
-390.063	800.000	-0.100	0.398
-389.048	-33.063	-0.205	0.114
-388.033	-200.000	-0.009	-0.094
-387.019	-200.000	-0.026	0.186
-386.004	97.508	-0.118	0.136
-384.990	-200.000	0.058	0.426
-383.975	800.000	0.130	0.400
-382.960	-114.696	0.171	0.033
-381.946	800.000	0.091	0.325
-380.931	-21.968	-0.239	0.146
-379.917	148.610	0.192	-0.261
-378.902	50.817	0.185	0.176
-377.888	152.241	-0.135	0.186
-376.873	800.000	-0.125	0.359
-375.858	140.840	-0.212	0.281
-374.844	800.000	0.153	0.630
-373.829	-80.796	0.419	-0.140
-372.815	66.177	0.092	-0.094
-371.800	-20.132	-0.138	-0.085
-370.785	-42.997	-0.061	0.031
-369.771	31.568	0.089	0.077
-368.756	-124.623	0.302	0.047
-367.742	-153.589	0.406	-0.028
-366.727	150.518	0.014	-0.019
-365.712	3.862	0.273	-0.201
-364.698	-136.997	0.483	0.056
-363.683	783.065	0.045	-0.124
-362.669	-78.987	-0.168	-0.057
-361.654	40.518	0.253	-0.229
-360.639	-69.387	0.249	-0.096
-359.625	-91.859	-0.225	-0.064
-358.610	-99.013	-0.026	0.007
-357.596	-58.278	0.299	-0.131
-356.581	527.371	-0.064	0.151
-355.566	228.374	0.101	0.165
-354.552	192.170	0.055	-0.083
-353.537	-126.752	-0.156	-0.023
-352.523	170.753	0.150	-0.216
-351.508	317.080	0.179	0.340
-350.493	343.580	0.144	-0.283
-349.479	-89.415	-0.360	0.106
-348.464	-200.000	0.004	-0.024
-347.450	31.526	0.279	0.241
-346.435	-200.000	-0.035	0.179
-345.420	-57.988	-0.153	-0.067
-344.406	-200.000	0.005	-0.216
-343.391	-94.061	0.259	-0.071
-342.377	-42.544	-0.333	-0.170
-341.362	-75.221	-0.075	0.027
-340.348	-130.860	-0.217	-0.029
-339.333	-200.000	0.017	-0.217
-338.318	-15.585	0.327	-0.210
-337.304	-200.000	-0.027	-0.477
-336.289	326.157	-0.228	-0.438
-335.275	800.000	0.084	0.234
-334.260	-114.180	0.221	0.043
-333.245	151.208	-0.252	-0.344
-332.231	-194.000	0.304	0.003
-331.216	-35.862	0.152	0.083
-330.202	-136.427	-0.026	0.003
-329.187	800.000	-0.084	-0.305
-328.172	27.637	-0.237	-0.200
-327.158	793.498	0.067	0.186
-326.143	-178.214	-0.088	-0.002
-325.129	631.278	-0.037	0.094
-324.114	396.133	-0.030	0.064
-323.099	-76.509	0.459	0.162
-322.085	10.836	-0.056	-0.043
-321.070	254.878	0.149	-0.256
-320.056	233.583	-0.135	-0.223
-319.041	-106.454	0.178	-0.040
-318.026	-98.779	0.233	-0.060
-317.012	227.343	-0.048	0.079
-315.997	-200.000	-0.031	-0.343
-314.983	-113.686	-0.155	-0.030
-313.968	-200.000	0.027	0.359
-312.953	-51.143	-0.124	-0.058
-311.939	241.173	0.175	0.292
-310.924	-113.019	-0.206	0.041
-309.910	-19.148	0.194	-0.121
-308.895	104.567	0.070	-0.083
-307.880	593.908	0.042	0.105
-306.866	-154.237	0.158	0.011
-305.851	37.042	-0.106	0.094
-304.837	156.337	0.260	0.360
-303.822	-68.078	0.165	0.064
-302.807	-62.413	-0.248	0.103
-301.793	533.524	-0.183	-0.435
-300.778	-165.963	-0.321	-0.014
-299.764	90.960	-0.170	0.191
-298.749	-47.815	0.419	-0.204
-297.735	-124.081	-0.262	-0.041
-296.720	-200.000	0.026	0.125
-295.705	66.732	-0.194	-0.198
-294.691	101.392	-0.073	-0.085
-293.676	-191.241	-0.160	0.002
-292.662	-111.256	0.321	0.066
-291.647	-65.068	-0.239	-0.097
-290.632	98.723	0.177	0.205
-289.618	333.035	-0.196	0.379
-288.603	-200.000	-0.001	0.041
-287.589	800.000	-0.049	0.176
-286.574	5.864	0.107	-0.079
-285.559	-28.505	0.214	-0.124
-284.545	-38.831	0.042	-0.022
-283.530	9.328	-0.137	0.104
-282.516	30.185	-0.125	0.107
-281.501	394.006	-0.037	-0.076
-280.486	269.093	0.205	0.361
-279.472	371.960	-0.054	-0.110
-278.457	-156.769	0.041	0.003
-277.443	-66.594	-0.180	-0.071
-276.428	800.000	-0.028	0.125
-275.413	381.299	-0.038	-0.078
-274.399	800.000	-0.120	0.481
-273.384	-174.282	-0.353	-0.010
-272.370	-67.935	-0.121	0.047
-271.355	23.290	-0.204	-0.168
-270.340	225.950	-0.091	0.148
-269.326	-171.749	0.380	0.012
-268.311	-98.586	0.336	0.086
-267.297	133.687	-0.037	-0.048
-266.282	668.121	-0.091	-0.235
-265.267	800.000	0.064	0.232
-264.253	445.504	0.130	0.286
-263.238	123.715	-0.181	-0.228
-262.224	707.888	0.029	-0.077
-261.209	0.026	-0.389	0.278
-260.195	-200.000	-0.079	-0.442
-259.180	-119.383	0.341	0.059
-258.165	-164.516	0.082	0.004
-257.151	96.674	-0.174	0.199
-256.136	-200.000	-0.016	0.077
-255.122	-49.282	0.142	-0.068
-254.107	37.476	-0.241	0.214
-253.092	-155.703	0.303	-0.019
-252.078	91.751	-0.123	-0.139
-251.063	-2.093	-0.373	-0.262
-250.049	128.507	0.112	0.143
-249.034	-45.568	-0.175	-0.087
-248.019	-80.043	0.105	-0.035
-247.005	47.252	-0.134	0.125
-245.990	362.778	0.121	0.243
-244.976	800.000	0.070	-0.234
-243.961	-112.639	-0.190	0.038
-242.946	-200.000	0.011	0.401
-241.932	13.122	0.089	-0.069
-240.917	-91.828	-0.063	0.018
-239.903	800.000	-0.085	-0.299
-238.888	-161.769	0.429	-0.022
-237.873	4.749	0.165	-0.121
-236.859	-70.481	0.249	-0.094
-235.844	24.870	0.151	-0.125
-234.830	-23.712	-0.162	-0.097
-233.815	25.996	0.019	0.016
-232.800	-93.163	0.115	0.032
-231.786	-200.000	-0.007	-0.325
-230.771	92.593	-0.196	-0.221
-229.757	65.380	-0.346	0.350
-228.742	-160.461	0.128	0.007
-227.727	-84.684	0.299	-0.094
-226.713	-120.461	0.392	-0.067
-225.698	-200.000	0.013	-0.058
-224.684	-1.281	0.258	-0.182
-223.669	-7.617	-0.214	0.145
-222.655	-200.000	-0.011	-0.182
-221.640	87.187	0.160	-0.177
-220.625	-6.711	-0.186	-0.126
-219.611	32.536	-0.263	-0.227
-218.596	79.356	-0.061	0.065
-217.582	717.727	0.125	-0.331
-216.567	701.906	-0.101	0.265
-215.552	400.032	0.088	0.184
-214.538	-163.863	0.102	0.005
-213.523	-3.417	0.231	-0.160
-212.509	-189.832	0.315	0.004
-211.494	-47.811	-0.269	-0.130
-210.479	478.745	-0.049	-0.110
-209.465	-200.000	-0.006	0.103
-208.450	-89.609	-0.347	0.102
-207.436	-164.917	0.303	0.014
-206.421	-87.359	-0.105	0.032
-205.406	124.622	-0.071	0.089
-204.392	-52.538	0.116	0.054
-203.377	-200.000	-0.011	-0.124
-202.363	-54.689	0.289	0.131
-201.348	321.784	-0.097	-0.184
-200.333	-26.026	-0.307	-0.181
-199.319	-200.000	0.015	0.070
-198.304	-18.309	-0.433	-0.270
-197.290	444.776	-0.201	-0.441
-196.275	-52.192	0.258	0.119
-195.260	-25.987	0.237	0.139
-194.246	231.751	0.065	0.107
-193.231	-64.484	-0.106	0.043
-192.217	-165.125	0.383	0.017
-191.202	-0.326	0.201	-0.143
-190.187	227.107	-0.084	0.137
-189.173	67.597	-0.177	-0.181
-188.158	73.203	0.362	-0.378
-187.144	-170.702	-0.232	-0.008
-186.129	-87.379	0.065	-0.020
-185.114	412.861	-0.088	-0.186
-184.100	-200.000	0.033	-0.192
-183.085	800.000	0.101	-0.350
-182.071	102.772	0.054	0.063
-181.056	800.000	0.102	0.332
-180.042	165.008	-0.120	0.169
-179.027	-200.000	-0.024	0.223
-178.012	-200.000	-0.018	-0.223
-176.998	114.908	-0.243	0.295
-175.983	767.883	0.074	-0.200
-174.969	54.735	-0.123	0.119
-173.954	34.507	-0.113	-0.098
-172.939	-200.000	0.007	-0.158
-171.925	-39.159	0.290	0.152
-170.910	11.126	-0.128	0.098
-169.896	-123.081	0.109	0.018
-168.881	-119.122	0.286	0.050
-167.866	-100.561	0.259	-0.064
-166.852	-83.575	0.244	-0.078
-165.837	800.000	-0.054	0.153
-164.823	-157.453	-0.139	0.008
-163.808	-129.473	0.090	0.012
-162.793	461.753	-0.107	0.238
-161.779	-120.841	-0.176	-0.030
-160.764	-140.521	0.284	0.029
-159.750	-116.353	-0.126	-0.023
-158.735	-89.570	-0.278	0.081
-157.720	800.000	-0.104	0.362
-156.706	-95.753	0.101	-0.027
-155.691	-100.125	-0.217	0.054
-154.677	-200.000	0.015	0.201
-153.662	800.000	0.066	0.209
-152.647	101.147	-0.050	-0.058
-151.633	88.762	-0.132	-0.146
-150.618	442.929	-0.087	0.191
-149.604	142.853	0.079	0.104
-148.589	22.729	-0.487	0.398
-147.574	710.231	-0.009	0.023
-146.560	-92.983	-0.368	0.102
-145.545	-130.957	-0.223	0.030
-144.531	-200.000	-0.001	0.290
-143.516	-200.000	-0.019	0.395
-142.502	-200.000	0.067	0.354
-141.487	800.000	0.044	-0.147
-140.472	17.643	-0.151	-0.120
-139.458	176.494	0.088	-0.127
-138.443	-65.061	0.098	-0.039
-137.429	389.072	-0.203	-0.418
-136.414	347.776	-0.224	-0.440
-135.399	309.256	0.131	-0.245
-134.385	21.992	0.122	-0.099
-133.370	67.714	0.057	0.058
-132.356	800.000	0.007	-0.030
-131.341	117.425	0.199	0.244
-130.326	186.111	-0.043	-0.063
-129.312	241.468	-0.053	-0.088
-128.297	91.920	-0.216	0.242
-127.283	34.255	0.255	0.222
-126.268	800.000	0.122	0.381
-125.253	119.639	0.093	0.115
-124.239	-6.374	-0.316	-0.215
-123.224	153.767	0.141	0.192
-122.210	-200.000	0.025	-0.293
-121.195	212.043	0.205	0.321
