DTS Sentinel unit serial number:	SN413079Multiplexer serial number:	ORYXHardware model number:	OX4-SRSoftware version number:	ORYX F/W v4.00 Oryx Data Collector v3.7.2.0data status	okinstallation	princeton_trtdifferential loss correction	single-endedforward channel	channel 1reverse channel	N/Adate	2019/09/12time	19:42:34forward acquisition time	15.00reverse acquisition time	0.00gamma	496.2192k internal	0.2323k external	0.2323temperature offset calibration	1.0124default loss term (dB/km)	0.3790temperature slope calibration	1.0000multiplexer offset coefficient	1.0000multiplexer slope coefficient	1.0000fibre end	0.00T internal ref (°C)	32.06T ext. ref 1 (°C)	3.30T ext. ref 2 (°C)	26.64length (m)	temperature (°C)	Stokes	anti-Stokes-747.200	-91.233	-0.600	-0.174
-746.185	99.299	-0.212	0.247
-745.171	-77.834	-0.654	0.228
-744.156	-200.000	0.007	-0.126
-743.142	-200.000	-0.193	1.225
-742.127	-38.388	-0.512	0.274
-741.112	-55.406	0.686	-0.311
-740.098	47.490	-0.452	-0.425
-739.083	-15.368	-0.875	0.565
-738.069	-136.507	-0.747	-0.088
-737.054	271.757	-0.100	-0.177
-736.039	615.696	-0.398	-1.007
-735.025	-83.040	1.001	-0.326
-734.010	-200.000	-0.048	-0.707
-732.996	-33.023	0.152	0.085
-731.981	-200.000	0.011	0.432
-730.966	-112.063	-0.614	0.125
-729.952	13.490	-0.406	-0.318
-728.937	-200.000	0.032	0.573
-727.923	-32.629	0.593	-0.333
-726.908	10.182	-0.456	0.350
-725.894	-200.000	0.017	0.320
-724.879	-200.000	-0.129	0.766
-723.864	126.578	0.400	0.512
-722.850	523.220	-0.052	0.123
-721.835	29.948	-0.130	-0.112
-720.821	-186.671	-0.447	0.006
-719.806	226.186	-0.281	-0.460
-718.791	800.000	0.068	0.264
-717.777	64.156	-0.258	0.262
-716.762	-200.000	-0.096	0.517
-715.748	-28.199	-0.880	-0.513
-714.733	-200.000	0.013	-0.851
-713.718	-200.000	-0.047	-0.601
-712.704	211.257	0.131	-0.207
-711.689	50.423	-0.168	-0.161
-710.675	-64.827	-0.377	-0.154
-709.660	-178.709	-0.561	-0.013
-708.645	49.810	-0.186	-0.177
-707.631	-200.000	0.210	1.495
-706.616	800.000	-0.180	0.508
-705.602	-200.000	-0.130	1.225
-704.587	-95.375	-0.731	0.198
-703.572	18.109	0.390	0.314
-702.558	-116.156	0.401	0.075
-701.543	-200.000	0.033	0.574
-700.529	-65.208	0.099	-0.040
-699.514	-160.538	-0.621	-0.033
-698.499	-200.000	0.053	-0.431
-697.485	-195.572	-0.421	0.003
-696.470	-32.803	-0.121	0.068
-695.456	-115.072	-0.515	0.099
-694.441	-200.000	-0.005	-1.138
-693.426	-8.892	-0.779	0.526
-692.412	-200.000	0.004	-0.139
-691.397	-200.000	-0.165	0.870
-690.383	-132.650	-0.096	0.012
-689.368	110.498	0.192	-0.233
-688.354	800.000	-0.113	-0.378
-687.339	-108.372	0.281	-0.061
-686.324	160.861	0.400	-0.563
-685.310	125.665	0.708	-0.901
-684.295	327.962	-0.121	-0.234
-683.281	-152.753	-0.324	-0.023
-682.266	-99.124	-0.808	-0.206
-681.251	388.195	-0.319	0.665
-680.237	-3.590	0.544	-0.381
-679.222	53.070	0.474	-0.457
-678.208	40.404	-0.650	0.590
-677.193	-200.000	-0.122	0.711
-676.178	20.306	-0.409	-0.333
-675.164	32.821	-0.340	0.296
-674.149	-56.579	-0.614	0.274
-673.135	-14.186	-0.784	0.509
-672.120	458.170	0.073	-0.163
-671.105	-200.000	-0.138	-1.103
-670.091	-200.000	-0.190	-1.153
-669.076	-15.165	0.098	0.063
-668.062	800.000	-0.138	0.514
-667.047	-32.073	0.692	0.390
-666.032	-117.453	-0.709	-0.129
-665.018	-200.000	0.038	0.184
-664.003	-92.691	1.027	0.290
-662.989	84.422	0.089	0.098
-661.974	-116.551	0.396	-0.073
-660.959	482.080	-0.115	0.263
-659.945	92.055	0.681	-0.772
-658.930	178.675	0.429	-0.631
-657.916	-200.000	-0.071	0.672
-656.901	800.000	0.092	-0.389
-655.886	-154.607	0.707	0.047
-654.872	-40.200	0.681	0.357
-653.857	21.423	-0.128	-0.105
-652.843	-130.157	0.475	-0.065
-651.828	196.609	0.087	0.133
-650.814	325.221	-0.080	0.154
-649.799	-57.395	-0.378	0.167
-648.784	63.975	-0.638	-0.646
-647.770	120.184	-0.490	-0.612
-646.755	411.735	-0.488	1.042
-645.741	-200.000	0.002	-0.097
-644.726	-105.544	0.383	0.087
-643.711	24.366	-0.451	0.375
-642.697	30.119	-0.433	0.372
-641.682	95.535	0.493	0.566
-640.668	25.069	-0.355	-0.296
-639.653	-66.221	-0.131	0.053
-638.638	345.643	-0.207	0.410
-637.624	35.268	-0.301	0.266
-636.609	-48.070	-0.310	0.151
-635.595	-200.000	0.005	-0.821
-634.580	-169.575	0.272	-0.010
-633.565	-200.000	-0.120	0.939
-632.551	-31.312	-0.315	-0.178
-631.536	16.437	-0.312	0.248
-630.522	-164.290	0.662	-0.031
-629.507	42.869	-0.348	0.319
-628.492	-56.867	-0.644	-0.286
-627.478	362.079	-0.351	-0.709
-626.463	-168.359	-0.469	0.018
-625.449	-200.000	0.007	0.254
-624.434	-200.000	0.080	-0.890
-623.419	-200.000	-0.023	1.091
-622.405	-200.000	-0.085	0.764
-621.390	-89.618	0.135	0.040
-620.376	2.925	-0.601	0.439
-619.361	79.241	-0.300	-0.324
-618.346	31.283	0.509	-0.439
-617.332	-200.000	-0.012	0.855
-616.317	-200.000	0.004	-0.423
-615.303	-200.000	0.101	0.617
-614.288	-200.000	0.090	-0.432
-613.273	364.001	0.145	-0.294
-612.259	63.252	0.365	0.367
-611.244	144.727	-0.238	-0.319
-610.230	409.605	-0.153	-0.325
-609.215	-57.390	-0.610	-0.269
-608.201	778.333	0.216	0.594
-607.186	-200.000	-0.064	-0.427
-606.171	-162.437	0.423	0.021
-605.157	-120.542	-0.451	-0.077
-604.142	-1.980	0.177	0.125
-603.128	129.086	0.146	-0.187
-602.113	43.523	0.269	-0.247
-601.098	-200.000	0.020	0.198
-600.084	26.163	-0.657	0.551
-599.069	315.881	0.226	0.429
-598.055	-40.916	0.179	-0.093
-597.040	-82.803	-0.323	-0.105
-596.025	-161.971	-0.859	0.044
-595.011	-77.058	-0.128	0.045
-593.996	271.229	0.142	-0.251
-592.982	-160.969	0.421	0.022
-591.967	-101.047	0.700	-0.172
-590.952	260.078	0.359	-0.623
-589.938	-29.524	-0.610	0.350
-588.923	-109.664	0.445	0.094
-587.909	441.241	-0.206	-0.452
-586.894	-200.000	0.170	0.974
-585.879	474.786	0.106	0.240
-584.865	-6.441	-0.591	-0.404
-583.850	33.041	-0.189	-0.165
-582.836	40.525	0.088	-0.079
-581.821	-25.588	0.234	0.139
-580.806	-72.490	1.051	0.390
-579.792	-200.000	0.062	0.500
-578.777	-55.791	-0.665	0.298
-577.763	60.086	0.182	0.181
-576.748	-200.000	-0.021	-0.309
-575.733	178.117	0.155	0.226
-574.719	-84.591	0.350	-0.111
-573.704	-56.812	-0.564	0.250
-572.690	89.650	-0.272	0.304
-571.675	-24.996	0.120	-0.072
-570.661	-37.585	0.251	0.134
-569.646	-200.000	-0.105	-0.847
-568.631	-200.000	0.014	0.245
-567.617	69.749	0.484	0.501
-566.602	-0.634	-0.202	-0.144
-565.588	800.000	0.319	0.968
-564.573	-200.000	-0.066	0.790
-563.558	-30.151	0.575	-0.328
-562.544	197.768	0.143	0.219
-561.529	-200.000	-0.000	0.516
-560.515	-41.392	0.965	-0.498
-559.500	-135.977	0.474	-0.056
-558.485	147.078	0.437	-0.589
-557.471	-92.789	0.176	0.049
-556.456	61.856	-0.376	0.376
-555.442	-22.404	0.077	-0.047
-554.427	569.396	-0.137	0.333
-553.412	-91.689	-0.200	0.057
-552.398	800.000	-0.175	-0.705
-551.383	-17.116	-0.571	0.361
-550.369	-150.981	0.248	-0.019
-549.354	-200.000	-0.057	0.525
-548.339	800.000	-0.107	0.336
-547.325	-82.999	0.267	-0.086
-546.310	800.000	0.109	0.452
-545.296	200.161	-0.299	-0.460
-544.281	-67.898	0.214	0.084
-543.266	-120.116	0.861	0.148
-542.252	-195.387	0.121	0.001
-541.237	800.000	-0.156	-0.682
-540.223	52.676	-0.322	-0.308
-539.208	-200.000	-0.052	0.750
-538.193	497.748	0.304	-0.702
-537.179	800.000	0.178	-0.680
-536.164	-200.000	-0.035	0.711
-535.150	42.828	0.525	-0.479
-534.135	-61.882	-0.280	0.118
-533.121	-96.054	-1.133	-0.302
-532.106	46.046	-0.267	-0.247
-531.091	-200.000	0.015	-0.287
-530.077	-34.771	0.554	0.303
-529.062	800.000	0.074	0.273
-528.048	144.678	0.469	0.627
-527.033	448.567	0.271	-0.598
-526.018	478.444	-0.449	1.018
-525.004	713.577	0.327	0.869
-523.989	47.378	-0.515	-0.480
-522.975	-85.133	-0.861	0.270
-521.960	-179.160	0.289	-0.006
-520.945	-31.399	-1.199	-0.676
-519.931	120.742	0.424	-0.528
-518.916	-179.205	-0.161	-0.004
-517.902	-200.000	0.099	1.049
-516.887	-200.000	-0.074	0.553
-515.872	-44.684	-0.364	-0.182
-514.858	-84.313	0.250	0.079
-513.843	-200.000	-0.022	-0.431
-512.829	735.385	-0.131	-0.350
-511.814	55.304	0.379	0.367
-510.799	-31.888	-0.347	-0.195
-509.785	24.716	-0.420	0.348
-508.770	800.000	0.192	0.544
-507.756	80.310	-0.394	0.424
-506.741	-72.739	0.582	-0.215
-505.726	-63.790	0.478	0.196
-504.712	-41.893	0.507	0.260
-503.697	49.602	0.370	0.349
-502.683	-75.417	0.634	-0.226
-501.668	-100.227	0.666	-0.166
-500.653	800.000	-0.074	-0.307
-499.639	-89.400	-0.603	-0.177
-498.624	-200.000	0.050	-0.421
-497.610	-148.769	-0.488	-0.040
-496.595	-200.000	0.029	0.434
-495.581	-102.474	0.407	-0.097
-494.566	-200.000	0.009	-0.320
-493.551	67.688	-0.072	-0.074
-492.537	-34.249	0.346	0.190
-491.522	-48.751	0.918	-0.441
-490.508	127.706	0.234	-0.297
-489.493	210.493	-0.113	-0.178
-488.478	-200.000	0.099	-0.678
-487.464	88.578	0.177	0.197
-486.449	800.000	-0.117	-0.381
-485.435	-200.000	0.105	-0.622
-484.420	209.949	-0.222	-0.349
-483.405	578.638	-0.056	-0.137
-482.391	396.714	-0.134	-0.279
-481.376	-94.679	-0.228	-0.062
-480.362	344.655	-0.381	-0.748
-479.347	800.000	0.328	0.982
-478.332	-91.490	0.592	0.169
-477.318	-200.000	0.011	0.390
-476.303	-106.621	-0.754	-0.168
-475.289	-12.113	0.500	0.327
-474.274	20.856	-0.861	0.698
-473.259	-4.249	-0.290	0.200
-472.245	-44.779	-0.803	-0.400
-471.230	49.144	0.123	-0.116
-470.216	-5.643	-0.235	0.161
-469.201	-200.000	-0.035	0.214
-468.186	-91.262	-0.755	0.216
-467.172	552.709	0.407	0.978
-466.157	-200.000	-0.199	1.084
-465.143	-173.410	-0.107	-0.003
-464.128	156.077	-0.235	-0.323
-463.113	-200.000	0.027	-1.380
-462.099	236.037	-0.134	-0.222
-461.084	-138.978	0.054	-0.006
-460.070	-52.787	-0.843	0.388
-459.055	172.654	0.447	-0.643
-458.040	-46.925	-0.058	0.028
-457.026	-200.000	0.407	-0.002
-456.011	235.689	-0.536	0.885
-454.997	-43.376	-0.359	0.181
-453.982	157.543	-0.442	-0.611
-452.968	67.572	-0.562	0.573
-451.953	100.223	-0.257	0.298
-450.938	63.863	-0.319	0.320
-449.924	404.258	0.238	-0.501
-448.909	-200.000	-0.073	0.564
-447.895	-161.249	0.265	-0.014
-446.880	-56.819	0.446	0.197
-445.865	-20.252	-0.079	0.049
-444.851	800.000	-0.179	-0.612
-443.836	258.289	-0.386	0.664
-442.822	-200.000	-0.021	0.186
-441.807	-86.081	-0.479	0.148
-440.792	-200.000	0.086	-0.642
-439.778	-124.537	-0.301	-0.047
-438.763	1.334	-0.749	0.537
-437.749	104.405	-0.416	-0.489
-436.734	35.034	-0.299	-0.261
-435.719	126.053	0.518	-0.653
-434.705	311.563	-0.178	-0.334
-433.690	4.867	0.533	0.391
-432.676	305.583	-0.286	-0.530
-431.661	-71.925	0.394	-0.146
-430.646	-94.164	-0.895	-0.245
-429.632	-155.212	0.429	-0.028
-428.617	-200.000	-0.037	0.755
-427.603	-200.000	0.037	0.667
-426.588	-116.123	-0.071	0.013
-425.573	-23.055	-0.451	0.271
-424.559	-200.000	-0.047	0.998
-423.544	91.444	0.405	0.453
-422.530	399.415	0.225	-0.470
-421.515	-133.928	-0.605	0.075
-420.500	379.283	0.236	-0.482
-419.486	-100.819	-0.446	0.109
-418.471	-200.000	-0.016	1.227
-417.457	12.273	-0.301	-0.232
-416.442	-200.000	0.088	0.947
-415.428	21.041	0.861	0.696
-414.413	165.228	-0.194	0.273
-413.398	291.627	0.453	-0.821
-412.384	-115.465	0.307	0.058
-411.369	-129.066	0.611	-0.085
-410.355	-119.936	0.557	0.095
-409.340	159.821	-0.225	0.313
-408.325	800.000	-0.284	-1.034
-407.311	109.720	0.408	-0.488
-406.296	28.131	-0.452	0.381
-405.282	-161.610	-0.886	0.045
-404.267	800.000	-0.085	0.283
-403.252	69.014	0.678	-0.695
-402.238	165.339	-0.545	0.768
-401.223	225.468	0.119	-0.192
-400.209	321.802	0.189	0.359
-399.194	-200.000	0.043	0.388
-398.179	-200.000	0.037	-0.406
-397.165	800.000	0.084	0.273
-396.150	-43.965	-0.723	-0.362
-395.136	800.000	-0.134	0.396
-394.121	144.003	-0.587	-0.780
-393.106	-5.613	0.303	0.207
-392.092	-9.923	0.590	-0.391
-391.077	-5.614	-0.057	0.039
-390.063	-72.318	0.338	-0.125
-389.048	231.487	-0.345	0.563
-388.033	86.571	0.328	-0.361
-387.019	-182.093	-0.423	-0.008
-386.004	4.771	0.267	0.196
-384.990	652.225	0.176	0.449
-383.975	-130.984	-0.143	-0.019
-382.960	-33.267	0.485	-0.267
-381.946	-69.920	-0.359	-0.136
-380.931	-200.000	-0.079	-0.862
-379.917	231.651	-0.203	-0.332
-378.902	28.739	-0.938	0.791
-377.888	16.003	-0.111	0.087
-376.873	322.751	0.250	-0.475
-375.858	-89.440	0.294	-0.086
-374.844	-133.240	-0.724	-0.091
-373.829	-26.260	-0.654	0.383
-372.815	594.247	-0.155	0.382
-371.800	551.142	-0.398	0.951
-370.785	135.116	-0.252	-0.326
-369.771	141.584	0.189	-0.250
-368.756	-157.790	-0.253	-0.015
-367.742	60.168	0.523	0.514
-366.727	-200.000	-0.024	-0.131
-365.712	-2.219	0.370	0.258
-364.698	227.306	-0.433	-0.701
-363.683	-200.000	0.038	0.196
-362.669	800.000	0.168	-0.720
-361.654	-152.438	0.368	-0.026
-360.639	-115.822	0.300	-0.056
-359.625	-37.369	0.292	-0.155
-358.610	66.186	0.024	-0.024
-357.596	12.342	-0.576	-0.442
-356.581	365.525	-0.055	-0.110
-355.566	-105.737	-0.400	-0.090
-354.552	189.813	0.431	0.643
-353.537	-200.000	-0.128	1.006
-352.523	74.119	0.186	0.194
-351.508	233.930	0.372	0.609
-350.493	-37.185	-0.730	0.388
-349.479	-22.141	-0.361	0.218
-348.464	32.387	-0.290	-0.249
-347.450	-120.103	0.098	0.017
-346.435	45.544	-0.382	0.350
-345.420	-2.760	0.796	0.553
-344.406	338.996	0.126	0.245
-343.391	-19.886	-0.898	-0.552
-342.377	-200.000	0.004	-0.795
-341.362	800.000	-0.209	-0.831
-340.348	753.300	-0.324	-0.872
-339.333	800.000	0.070	0.211
-338.318	800.000	0.111	-0.425
-337.304	800.000	0.259	-0.803
-336.289	56.838	0.377	0.365
-335.275	-15.826	0.304	0.193
-334.260	-119.888	-0.502	-0.086
-333.245	-63.973	0.142	0.058
-332.231	-200.000	0.127	0.692
-331.216	49.877	0.546	-0.512
-330.202	-200.000	0.005	-0.142
-329.187	-157.085	-0.157	0.009
-328.172	382.246	-0.174	-0.356
-327.158	-38.089	0.325	-0.171
-326.143	-106.168	0.320	0.071
-325.129	-200.000	-0.059	-0.328
-324.114	70.421	0.653	0.671
-323.099	-200.000	-0.071	0.514
-322.085	800.000	0.120	0.392
-321.070	-4.490	-0.524	-0.360
-320.056	-113.758	1.103	0.214
-319.041	33.779	-0.296	-0.255
-318.026	60.631	0.375	-0.369
-317.012	-200.000	0.132	-0.780
-315.997	-200.000	-0.020	0.659
-314.983	119.807	0.459	-0.565
-313.968	-104.105	-0.554	0.128
-312.953	53.262	0.305	-0.290
-311.939	-200.000	0.038	-0.376
-310.924	5.582	-0.561	-0.412
-309.910	-128.041	0.613	-0.087
-308.895	731.673	0.376	0.999
-307.880	-40.484	0.507	-0.262
-306.866	-124.729	-0.551	-0.085
-305.851	121.717	0.376	-0.466
-304.837	-134.725	-0.895	-0.108
-303.822	36.156	0.107	-0.094
-302.807	-2.993	-0.477	-0.331
-301.793	113.584	-0.495	0.597
-300.778	-14.543	0.798	-0.509
-299.764	133.608	0.244	-0.314
-298.749	-146.386	0.745	-0.065
-297.735	-200.000	0.001	-0.258
-296.720	800.000	0.152	-0.551
-295.705	173.827	0.274	-0.393
-294.691	323.938	-0.266	0.504
-293.676	800.000	0.048	-0.182
-292.662	11.802	0.134	0.102
-291.647	800.000	-0.161	0.661
-290.632	-200.000	-0.009	0.663
-289.618	174.141	0.099	-0.142
-288.603	-132.922	1.022	0.129
-287.589	563.763	0.157	-0.378
-286.574	-200.000	-0.061	1.005
-285.559	-72.747	-0.820	0.300
-284.545	23.547	-0.132	0.108
-283.530	-200.000	0.155	-1.033
-282.516	-115.756	-0.434	-0.081
-281.501	429.887	0.259	0.556
-280.486	-50.448	-0.956	-0.448
-279.472	-23.266	-0.474	0.283
-278.457	52.528	-0.566	-0.536
-277.443	169.398	-0.323	0.457
-276.428	800.000	-0.269	-0.748
-275.413	-91.473	0.629	-0.178
-274.399	28.577	0.550	-0.461
-273.384	-75.604	0.437	-0.154
-272.370	371.599	0.110	-0.220
-271.355	188.575	0.437	-0.648
-270.340	800.000	-0.188	-0.533
-269.326	72.091	0.629	-0.650
-268.311	262.663	0.177	-0.304
-267.297	-58.219	0.508	-0.219
-266.282	167.540	-0.346	-0.488
-265.267	800.000	-0.106	0.378
-264.253	-121.406	0.836	0.138
-263.238	368.600	0.369	-0.739
-262.224	-31.951	0.257	-0.143
-261.209	-150.114	-0.391	0.030
-260.195	-3.501	0.184	0.127
-259.180	-107.634	0.224	0.048
-258.165	37.238	0.272	-0.238
-257.151	38.133	0.359	-0.316
-256.136	-88.746	-0.627	0.185
-255.122	-200.000	-0.058	-0.932
-254.107	-3.815	-0.559	0.385
-253.092	-96.704	-0.599	-0.156
-252.078	60.602	-0.526	-0.517
-251.063	-73.527	-0.043	0.015
-250.049	-19.967	-0.109	0.066
-249.034	-155.001	-0.679	-0.044
-248.019	-125.467	0.572	-0.086
-247.005	52.407	0.224	-0.212
-245.990	-24.037	0.862	-0.510
-244.976	664.418	0.379	0.968
-243.961	-125.611	-0.200	0.030
-242.946	124.660	-0.345	0.430
-241.932	49.507	0.083	0.077
-240.917	-161.419	-0.667	0.034
-239.903	-28.436	0.500	0.286
-238.888	-183.702	-0.513	0.009
-237.873	-98.833	-0.592	-0.149
-236.859	77.401	0.344	-0.363
-235.844	-71.118	-0.714	-0.266
-234.830	270.649	0.459	-0.800
-233.815	144.441	0.051	-0.068
-232.800	20.978	0.244	0.196
-231.786	-131.662	-0.338	-0.044
-230.771	-60.271	-0.284	-0.120
-229.757	116.653	-0.322	0.392
-228.742	-22.273	0.713	0.428
-227.727	233.089	0.402	0.655
-226.713	1.961	0.940	-0.672
-225.698	91.381	-0.652	-0.725
-224.684	-145.668	0.384	0.034
-223.669	578.678	0.111	-0.268
-222.655	-200.000	-0.051	0.501
-221.640	-49.495	-0.640	-0.302
-220.625	-18.876	-0.410	0.252
-219.611	-109.017	1.070	-0.226
-218.596	-1.619	-0.780	0.544
-217.582	-11.088	1.078	-0.703
-216.567	-63.688	-0.247	-0.100
-215.552	-4.791	0.219	-0.150
-214.538	49.111	0.300	0.278
-213.523	-200.000	-0.087	-0.653
-212.509	202.186	0.355	0.542
-211.494	-200.000	-0.038	0.593
-210.479	-17.578	1.029	0.640
-209.465	294.367	-0.040	-0.073
-208.450	397.446	-0.391	-0.808
-207.436	-200.000	-0.027	-0.185
-206.421	-200.000	0.007	-0.417
-205.406	800.000	-0.213	-0.708
-204.392	236.509	0.288	-0.471
-203.377	-200.000	0.005	0.377
-202.363	247.299	-0.236	0.394
-201.348	360.644	0.409	-0.809
-200.333	594.872	0.309	0.757
-199.319	-200.000	0.057	-0.587
-198.304	158.971	0.222	-0.305
-197.290	69.020	-0.246	-0.249
-196.275	800.000	0.045	-0.152
-195.260	306.759	-0.113	-0.209
-194.246	122.420	0.485	-0.600
-193.231	61.695	-0.651	0.640
-192.217	800.000	-0.027	0.075
-191.202	211.944	-0.168	0.261
-190.187	-7.284	0.225	-0.150
-189.173	114.313	0.587	0.707
-188.158	-54.972	0.905	0.403
-187.144	-200.000	0.063	-0.653
-186.129	320.100	0.068	0.127
-185.114	-18.284	0.203	0.126
-184.100	-48.520	-0.408	0.194
-183.085	800.000	0.134	-0.547
-182.071	207.704	-0.245	0.378
-181.056	-200.000	0.030	-0.167
-180.042	65.180	-0.695	-0.694
-179.027	-121.171	0.904	0.149
-178.012	366.509	0.285	0.568
-176.998	-200.000	0.008	0.299
-175.983	514.409	-0.023	0.054
-174.969	-200.000	-0.117	0.712
-173.954	325.911	-0.287	-0.543
-172.939	800.000	0.120	-0.449
-171.925	272.731	0.341	0.595
-170.910	73.800	-0.498	-0.516
-169.896	149.105	0.108	0.144
-168.881	662.402	0.352	-0.897
-167.866	435.447	0.191	0.410
-166.852	-99.428	0.464	-0.115
-165.837	-126.312	-0.421	-0.062
-164.823	194.653	-0.615	0.921
-163.808	-165.501	-0.114	-0.005
-162.793	-200.000	-0.107	0.643
-161.779	463.294	0.067	0.147
-160.764	-31.171	0.762	-0.424
-159.750	353.788	0.369	0.723
-158.735	14.921	0.750	0.579
-157.720	-200.000	0.047	-0.741
-156.706	800.000	0.066	-0.278
-155.691	335.327	0.410	0.785
-154.677	-56.105	-0.436	-0.192
-153.662	-73.008	0.507	-0.184
-152.647	78.436	-0.099	-0.104
-151.633	-200.000	-0.031	-0.145
-150.618	401.596	0.114	0.237
-149.604	133.593	-0.279	-0.356
-148.589	-21.129	0.505	0.305
-147.574	-115.032	-0.212	-0.040
-146.560	-140.177	0.633	-0.066
-145.545	88.166	-0.430	0.470
-144.531	-200.000	-0.185	0.000
-143.516	63.904	-0.954	0.946
-142.502	314.578	0.417	0.774
-141.487	-119.762	-0.397	-0.068
-140.472	-200.000	0.059	0.545
-139.458	-176.778	0.325	-0.008
-138.443	-200.000	0.020	-0.127
-137.429	-14.363	-0.255	-0.162
-136.414	800.000	0.195	-0.706
-135.399	-5.787	-0.381	-0.258
-134.385	100.643	1.044	-1.196
-133.370	69.182	-0.230	-0.233
-132.356	-200.000	0.041	-0.254
-131.341	-136.434	1.057	0.121
-130.326	-150.279	-1.015	-0.077
-129.312	199.143	0.174	-0.264
-128.297	112.305	-0.213	0.254
-127.283	-75.899	-0.192	-0.067
-126.268	-3.867	-0.233	-0.160
-125.253	-200.000	-0.035	0.443
-124.239	174.514	0.278	-0.397
-123.224	8.834	-0.804	0.597
-122.210	106.533	0.234	-0.273
-121.195	-200.000	-0.115	0.923
