DTS Sentinel unit serial number:	SN413079Multiplexer serial number:	ORYXHardware model number:	OX4-SRSoftware version number:	ORYX F/W v4.00 Oryx Data Collector v3.7.2.0data status	okinstallation	princeton_trtdifferential loss correction	single-endedforward channel	channel 1reverse channel	N/Adate	2019/09/16time	14:38:35forward acquisition time	60.00reverse acquisition time	0.00gamma	496.2192k internal	0.2293k external	0.2293temperature offset calibration	0.9951default loss term (dB/km)	0.3790temperature slope calibration	1.0000multiplexer offset coefficient	1.0000multiplexer slope coefficient	1.0000fibre end	0.00T internal ref (°C)	41.73T ext. ref 1 (°C)	14.30T ext. ref 2 (°C)	36.15length (m)	temperature (°C)	Stokes	anti-Stokes-747.200	91.711	-0.024	-0.027
-746.185	-200.000	-0.041	0.253
-745.171	-54.857	-0.255	-0.118
-744.156	800.000	-0.052	0.155
-743.142	-83.951	0.108	-0.035
-742.127	183.150	-0.191	0.289
-741.112	246.863	0.015	-0.026
-740.098	-136.803	-0.298	0.035
-739.083	-20.722	0.064	0.040
-738.069	-46.240	0.184	0.093
-737.054	800.000	-0.060	0.220
-736.039	-15.496	-0.142	0.093
-735.025	577.461	0.192	0.480
-734.010	-57.412	0.183	0.082
-732.996	-5.010	-0.130	0.092
-731.981	-82.385	-0.267	-0.089
-730.966	307.230	-0.054	0.103
-729.952	800.000	-0.025	0.093
-728.937	800.000	-0.077	-0.340
-727.923	-149.467	-0.091	-0.007
-726.908	419.652	-0.077	-0.168
-725.894	64.923	-0.165	0.170
-724.879	721.299	-0.014	0.038
-723.864	-57.529	-0.167	0.075
-722.850	23.604	0.040	0.034
-721.835	236.881	-0.145	-0.246
-720.821	-42.694	0.170	0.088
-719.806	800.000	0.028	-0.090
-718.791	85.954	-0.143	0.161
-717.777	184.132	-0.236	0.356
-716.762	800.000	0.071	0.271
-715.748	-24.515	0.167	-0.101
-714.733	493.665	-0.077	0.179
-713.718	436.310	0.041	0.091
-712.704	-200.000	0.024	0.180
-711.689	43.761	-0.115	0.108
-710.675	800.000	-0.040	-0.114
-709.660	800.000	0.058	0.257
-708.645	-154.666	0.192	-0.013
-707.631	-10.298	-0.153	-0.104
-706.616	-200.000	0.024	-0.356
-705.602	-60.130	-0.212	-0.092
-704.587	-40.964	0.137	-0.072
-703.572	760.325	-0.080	-0.222
-702.558	-96.031	-0.172	0.047
-701.543	-38.536	-0.224	-0.121
-700.529	-8.501	-0.107	-0.074
-699.514	-200.000	0.004	0.103
-698.499	97.268	0.112	-0.131
-697.485	613.658	-0.126	0.321
-696.470	-132.411	-0.227	0.030
-695.456	-26.190	-0.396	0.238
-694.441	34.648	0.242	-0.216
-693.426	701.587	-0.081	-0.219
-692.412	35.869	0.150	0.135
-691.397	-112.521	-0.319	0.065
-690.383	-86.264	-0.300	-0.094
-689.368	-21.774	-0.287	-0.178
-688.354	-81.262	0.247	-0.083
-687.339	567.763	0.054	0.133
-686.324	-154.083	0.281	0.019
-685.310	426.592	-0.062	-0.137
-684.295	-200.000	-0.017	-0.334
-683.281	9.271	-0.174	0.135
-682.266	-91.393	0.164	-0.048
-681.251	-200.000	0.059	-0.407
-680.237	346.281	0.077	-0.154
-679.222	372.959	-0.180	-0.373
-678.208	-172.112	0.356	-0.012
-677.193	131.101	-0.135	0.177
-676.178	324.158	-0.056	0.108
-675.164	-90.346	-0.127	-0.037
-674.149	513.670	0.111	0.263
-673.135	-200.000	-0.026	0.290
-672.120	-103.410	0.218	-0.052
-671.105	800.000	-0.062	0.210
-670.091	800.000	-0.097	-0.334
-669.076	-127.627	-0.144	-0.021
-668.062	123.886	-0.096	0.123
-667.047	30.490	-0.168	-0.147
-666.032	-200.000	0.015	0.091
-665.018	-197.036	0.484	0.003
-664.003	-200.000	0.013	0.450
-662.989	-6.633	0.082	0.057
-661.974	125.669	0.213	0.274
-660.959	116.658	-0.200	-0.251
-659.945	-90.922	0.341	0.100
-658.930	-118.124	0.205	0.037
-657.916	-105.893	0.052	-0.012
-656.901	-94.345	0.240	-0.067
-655.886	27.742	-0.208	-0.178
-654.872	-47.080	0.094	0.047
-653.857	-107.753	-0.084	0.019
-652.843	-200.000	-0.040	0.355
-651.828	-116.009	-0.193	0.037
-650.814	-200.000	-0.014	-0.232
-649.799	800.000	-0.088	-0.302
-648.784	584.456	0.075	-0.187
-647.770	8.147	-0.305	0.234
-646.755	42.495	-0.169	0.157
-645.741	398.281	0.053	0.114
-644.726	58.669	0.229	0.229
-643.711	-90.585	-0.088	-0.026
-642.697	445.723	-0.042	-0.095
-641.682	-68.794	-0.263	0.104
-640.668	179.341	0.056	0.083
-639.653	89.141	0.138	0.156
-638.638	-53.297	0.279	0.130
-637.624	95.928	0.206	-0.239
-636.609	-200.000	-0.016	-0.202
-635.595	-200.000	0.024	-0.236
-634.580	-154.012	-0.115	0.008
-633.565	-3.176	0.213	0.151
-632.551	395.875	-0.143	-0.304
-631.536	-200.000	-0.015	0.379
-630.522	471.308	-0.084	-0.191
-629.507	148.728	-0.233	-0.321
-628.492	13.626	0.098	0.078
-627.478	-64.667	-0.222	0.092
-626.463	-200.000	0.008	-0.243
-625.449	-42.555	-0.128	0.066
-624.434	129.696	0.070	-0.090
-623.419	52.424	-0.156	-0.152
-622.405	-73.796	-0.106	0.039
-621.390	800.000	-0.040	0.174
-620.376	-4.789	-0.229	0.161
-619.361	277.936	0.091	-0.164
-618.346	-113.308	-0.434	0.087
-617.332	-54.544	-0.206	-0.095
-616.317	108.635	-0.146	-0.178
-615.303	151.309	0.128	-0.178
-614.288	-75.849	0.283	0.102
-613.273	553.223	-0.108	-0.263
-612.259	-19.868	-0.285	-0.179
-611.244	-72.695	-0.243	-0.091
-610.230	-166.756	0.320	0.013
-609.215	-116.381	0.299	0.056
-608.201	-200.000	-0.010	0.347
-607.186	310.296	-0.153	-0.292
-606.171	663.867	-0.142	-0.372
-605.157	-200.000	-0.025	0.191
-604.142	132.932	0.236	0.310
-603.128	18.624	-0.211	0.172
-602.113	-122.531	-0.106	0.018
-601.098	525.033	-0.107	-0.256
-600.084	-34.703	0.245	-0.136
-599.069	103.382	0.110	-0.132
-598.055	-200.000	-0.026	0.163
-597.040	140.934	0.243	-0.327
-596.025	-69.722	0.310	0.121
-595.011	-6.534	0.327	0.227
-593.996	-142.081	-0.221	-0.022
-592.982	-73.266	0.150	0.056
-591.967	800.000	0.013	0.054
-590.952	15.185	0.081	-0.064
-589.938	-52.565	0.224	-0.105
-588.923	-103.606	-0.218	0.052
-587.909	14.567	0.231	0.184
-586.894	-64.167	0.113	0.047
-585.879	-0.166	-0.034	0.025
-584.865	32.677	0.088	-0.077
-583.850	23.800	-0.093	0.078
-582.836	133.061	0.184	0.242
-581.821	-14.649	0.206	-0.135
-580.806	32.809	-0.308	-0.271
-579.792	219.024	-0.098	0.159
-578.777	-10.353	0.315	0.212
-577.763	264.355	-0.089	0.157
-576.748	-200.000	-0.020	-0.181
-575.733	-108.045	0.267	0.059
-574.719	-200.000	-0.030	-0.305
-573.704	-119.280	0.250	-0.044
-572.690	-48.982	-0.350	-0.170
-571.675	800.000	-0.026	0.108
-570.661	122.708	0.083	-0.105
-569.646	239.033	0.147	0.249
-568.631	-169.424	-0.076	0.003
-567.617	-200.000	-0.022	-0.429
-566.602	800.000	-0.073	0.317
-565.588	-63.787	-0.257	0.107
-564.573	-123.246	-0.094	-0.015
-563.558	215.282	-0.048	-0.077
-562.544	38.845	-0.060	0.055
-561.529	-200.000	0.009	0.529
-560.515	212.202	0.106	0.170
-559.500	-0.763	0.055	0.040
-558.485	18.162	-0.233	-0.189
-557.471	-42.803	0.169	0.087
-556.456	180.660	-0.109	-0.162
-555.442	800.000	-0.081	-0.281
-554.427	-188.001	-0.125	0.002
-553.412	800.000	-0.029	0.124
-552.398	-105.733	0.148	-0.034
-551.383	-117.885	-0.163	-0.030
-550.369	325.590	0.065	-0.127
-549.354	-185.674	0.092	0.001
-548.339	-85.524	0.132	-0.042
-547.325	11.625	-0.205	-0.160
-546.310	-178.257	-0.093	-0.002
-545.296	-200.000	-0.013	-0.148
-544.281	19.699	-0.134	0.110
-543.266	477.619	0.077	0.176
-542.252	141.681	-0.198	0.267
-541.237	-174.621	0.075	-0.002
-540.223	-17.327	-0.315	-0.201
-539.208	-131.666	-0.287	-0.038
-538.193	800.000	-0.113	-0.440
-537.179	279.677	0.255	-0.462
-536.164	193.913	0.104	-0.160
-535.150	-200.000	-0.025	0.212
-534.135	-71.537	0.151	0.057
-533.121	-76.636	-0.307	0.109
-532.106	-200.000	-0.056	0.252
-531.091	22.261	-0.126	-0.104
-530.077	240.484	-0.103	-0.175
-529.062	-117.387	-0.310	-0.057
-528.048	79.675	0.168	0.183
-527.033	-200.000	0.042	-0.287
-526.018	314.962	-0.028	0.053
-525.004	800.000	0.044	0.165
-523.989	694.789	0.026	0.070
-522.975	800.000	0.071	0.215
-521.960	321.488	0.034	0.066
-520.945	-200.000	0.013	-0.153
-519.931	800.000	-0.100	-0.428
-518.916	77.670	0.084	0.091
-517.902	15.792	-0.242	0.193
-516.887	800.000	-0.021	-0.074
-515.872	-200.000	0.001	0.209
-514.858	687.789	0.081	-0.215
-513.843	64.028	-0.100	0.102
-512.829	800.000	0.052	-0.214
-511.814	-91.515	-0.114	-0.033
-510.799	38.433	0.052	-0.047
-509.785	-119.620	0.317	0.056
-508.770	-58.079	-0.206	0.091
-507.756	800.000	0.036	0.124
-506.741	800.000	0.038	0.148
-505.726	74.569	0.051	0.055
-504.712	-77.484	-0.227	-0.080
-503.697	-32.811	-0.288	0.162
-502.683	137.189	-0.009	0.013
-501.668	332.578	0.188	0.368
-500.653	800.000	0.050	0.142
-499.639	-188.835	-0.229	0.003
-498.624	-84.902	0.161	-0.051
-497.610	-186.898	-0.253	-0.004
-496.595	-200.000	-0.002	-0.090
-495.581	415.267	0.086	-0.187
-494.566	-200.000	0.030	-0.267
-493.551	-54.485	0.363	-0.167
-492.537	-200.000	0.001	0.131
-491.522	800.000	-0.006	0.019
-490.508	53.725	-0.228	-0.222
-489.493	295.960	0.045	-0.083
-488.478	35.918	-0.149	0.133
-487.464	800.000	-0.052	0.202
-486.449	678.897	0.030	-0.079
-485.435	-23.828	-0.179	-0.109
-484.420	-127.150	0.092	-0.014
-483.405	-31.174	0.157	0.090
-482.391	19.910	-0.170	-0.138
-481.376	800.000	-0.179	0.523
-480.362	230.160	-0.036	-0.059
-479.347	-7.762	0.195	0.133
-478.332	-200.000	-0.040	-0.181
-477.318	128.636	-0.079	0.102
-476.303	-31.816	-0.182	-0.103
-475.289	-32.933	0.063	0.035
-474.274	800.000	0.063	-0.199
-473.259	119.165	0.037	0.046
-472.245	-36.647	0.377	0.205
-471.230	-82.299	0.303	-0.100
-470.216	406.726	0.066	0.141
-469.201	102.698	-0.165	0.196
-468.186	10.798	0.355	-0.274
-467.172	-200.000	0.016	-0.309
-466.157	386.698	0.114	0.237
-465.143	-200.000	-0.057	-0.378
-464.128	-114.891	0.052	-0.010
-463.113	319.809	-0.098	-0.187
-462.099	51.648	0.058	-0.055
-461.084	211.617	-0.201	-0.321
-460.070	-69.057	-0.058	-0.022
-459.055	298.900	0.095	-0.177
-458.040	800.000	-0.081	-0.229
-457.026	300.005	-0.055	0.103
-456.011	76.959	-0.146	-0.156
-454.997	800.000	-0.010	-0.039
-453.982	127.621	-0.133	0.171
-452.968	-97.452	-0.360	-0.095
-451.953	-200.000	-0.050	-0.283
-450.938	31.103	-0.206	0.178
-449.924	170.791	0.016	0.023
-448.909	123.703	0.224	-0.285
-447.895	128.906	-0.176	0.227
-446.880	78.348	-0.313	0.338
-445.865	8.523	0.154	-0.117
-444.851	72.033	0.124	-0.131
-443.836	59.044	-0.063	0.063
-442.822	68.398	-0.268	0.278
-441.807	355.097	-0.083	0.166
-440.792	-200.000	-0.010	0.150
-439.778	434.057	0.052	0.113
-438.763	-72.033	-0.052	0.019
-437.749	-132.502	0.162	-0.021
-436.734	-58.693	-0.205	-0.090
-435.719	-200.000	0.054	0.314
-434.705	-118.908	0.346	0.061
-433.690	501.762	0.114	-0.266
-432.676	468.883	-0.101	-0.229
-431.661	-32.356	0.109	0.061
-430.646	-200.000	0.022	-0.101
-429.632	-153.747	-0.112	-0.008
-428.617	27.486	0.275	0.234
-427.603	-57.500	-0.292	-0.130
-426.588	-200.000	0.033	0.236
-425.573	-62.354	-0.088	-0.037
-424.559	617.118	0.103	-0.261
-423.544	-101.558	-0.265	-0.065
-422.530	365.889	-0.150	0.305
-421.515	-139.662	-0.382	0.041
-420.500	38.091	0.144	0.129
-419.486	-139.103	-0.213	0.023
-418.471	-42.261	-0.308	-0.159
-417.457	-133.222	0.126	0.016
-416.442	61.048	-0.130	-0.130
-415.428	-37.751	0.254	-0.137
-414.413	-5.974	0.159	-0.110
-413.398	-200.000	-0.003	-0.351
-412.384	-0.547	0.113	-0.081
-411.369	520.148	0.154	0.365
-410.355	-126.006	0.070	-0.011
-409.340	-200.000	-0.048	-0.272
-408.325	-127.167	0.405	-0.060
-407.311	-116.359	0.177	0.033
-406.296	138.623	-0.058	-0.077
-405.282	-129.644	-0.092	0.013
-404.267	-136.403	0.292	0.034
-403.252	245.504	-0.076	-0.129
-402.238	-70.146	0.260	-0.100
-401.223	389.791	0.188	-0.394
-400.209	263.290	0.117	-0.205
-399.194	-78.507	-0.153	0.053
-398.179	-23.752	-0.124	-0.075
-397.165	-200.000	-0.004	-0.168
-396.150	-82.745	-0.235	-0.077
-395.136	-6.304	-0.045	0.031
-394.121	509.695	-0.062	-0.145
-393.106	224.046	-0.144	-0.234
-392.092	-200.000	0.015	0.106
-391.077	-200.000	-0.072	0.442
-390.063	449.798	0.114	0.254
-389.048	-200.000	0.018	-0.324
-388.033	-141.737	-0.108	0.011
-387.019	23.726	0.111	-0.092
-386.004	-156.689	-0.107	0.007
-384.990	800.000	0.045	-0.185
-383.975	-136.344	0.432	0.051
-382.960	115.037	-0.164	-0.202
-381.946	66.473	0.205	-0.210
-380.931	800.000	-0.083	0.306
-379.917	800.000	-0.052	-0.170
-378.902	-74.731	-0.267	-0.097
-377.888	43.017	0.058	-0.053
-376.873	40.994	0.079	0.072
-375.858	-151.686	0.098	-0.007
-374.844	-200.000	0.006	-0.306
-373.829	-38.638	0.132	-0.070
-372.815	-78.739	-0.219	-0.075
-371.800	71.020	-0.180	-0.188
-370.785	119.960	-0.035	0.044
-369.771	-200.000	0.017	-0.307
-368.756	462.247	0.077	-0.173
-367.742	-35.939	0.039	-0.021
-366.727	-200.000	0.006	-0.096
-365.712	262.771	0.070	-0.123
-364.698	-160.910	-0.435	0.023
-363.683	201.154	-0.230	-0.356
-362.669	66.297	0.127	-0.130
-361.654	132.808	0.101	0.132
-360.639	9.392	-0.206	0.157
-359.625	-12.912	-0.072	-0.047
-358.610	-200.000	0.222	0.000
-357.596	44.826	0.223	0.207
-356.581	605.833	0.141	0.354
-355.566	122.279	0.132	-0.166
-354.552	-156.216	0.228	0.014
-353.537	102.084	0.072	-0.085
-352.523	-200.000	-0.021	0.114
-351.508	776.523	-0.072	-0.198
-350.493	-115.637	0.208	-0.039
-349.479	102.266	0.088	0.103
-348.464	-108.137	-0.086	0.019
-347.450	156.113	-0.118	0.164
-346.435	-200.000	-0.007	-0.120
-345.420	-200.000	-0.037	0.193
-344.406	-146.005	-0.229	-0.020
-343.391	41.214	0.275	0.250
-342.377	-148.321	-0.117	-0.010
-341.362	-91.936	-0.286	0.082
-340.348	-83.212	0.279	0.090
-339.333	228.418	-0.036	-0.059
-338.318	-200.000	-0.001	0.082
-337.304	478.622	0.090	0.206
-336.289	736.357	-0.132	-0.356
-335.275	-0.058	-0.308	0.221
-334.260	724.021	0.048	0.128
-333.245	-143.325	0.057	-0.005
-332.231	-156.584	-0.234	-0.015
-331.216	3.172	0.149	0.109
-330.202	363.997	0.049	0.100
-329.187	730.505	-0.063	-0.170
-328.172	381.385	-0.255	-0.528
-327.158	85.675	0.105	0.116
-326.143	629.404	0.176	0.447
-325.129	-162.659	0.231	0.011
-324.114	-129.187	-0.142	0.020
-323.099	-200.000	0.012	0.149
-322.085	-200.000	-0.009	0.424
-321.070	-200.000	0.004	0.365
-320.056	144.371	0.083	0.111
-319.041	-88.186	0.058	0.017
-318.026	-200.000	0.000	0.022
-317.012	-200.000	-0.014	0.100
-315.997	-82.385	-0.299	0.098
-314.983	208.580	0.036	-0.056
-313.968	591.953	-0.040	-0.099
-312.953	-200.000	-0.026	-0.207
-311.939	-119.763	0.255	-0.044
-310.924	544.724	0.076	-0.183
-309.910	-200.000	-0.023	0.161
-308.895	120.645	0.046	-0.058
-307.880	-143.508	-0.241	-0.023
-306.866	-140.021	0.098	-0.010
-305.851	-75.357	-0.064	-0.023
-304.837	52.174	-0.200	0.191
-303.822	-103.356	0.339	0.080
-302.807	-98.865	0.085	-0.022
-301.793	151.277	0.106	-0.146
-300.778	322.439	-0.107	0.205
-299.764	-200.000	-0.005	0.061
-298.749	131.597	-0.118	-0.153
-297.735	479.486	0.085	0.195
-296.720	491.506	0.057	0.132
-295.705	586.344	-0.040	0.099
-294.691	800.000	-0.071	0.262
-293.676	-200.000	0.035	-0.233
-292.662	-70.225	0.138	0.053
-291.647	-61.109	0.485	-0.206
-290.632	316.818	-0.023	0.043
-289.618	-121.454	-0.206	0.035
-288.603	13.559	-0.156	-0.122
-287.589	-92.959	-0.143	-0.040
-286.574	-200.000	0.060	-0.390
-285.559	34.415	0.245	0.215
-284.545	-137.312	0.233	0.027
-283.530	-200.000	0.011	-0.088
-282.516	270.112	0.111	0.195
-281.501	-99.953	0.262	-0.066
-280.486	-106.400	0.241	-0.054
-279.472	152.793	0.059	-0.082
-278.457	62.340	-0.169	0.170
-277.443	800.000	-0.064	-0.209
-276.428	222.089	0.036	0.058
-275.413	-69.197	0.221	0.085
-274.399	-146.127	-0.168	-0.015
-273.384	-72.153	0.269	0.100
-272.370	24.384	0.049	-0.041
-271.355	97.733	0.159	0.183
-270.340	-75.796	0.089	-0.032
-269.326	16.602	0.221	0.175
-268.311	-30.841	0.105	-0.060
-267.297	183.546	-0.087	0.129
-266.282	-200.000	0.020	0.201
-265.267	134.101	0.191	0.248
-264.253	17.205	-0.083	0.066
-263.238	800.000	-0.087	0.285
-262.224	144.051	-0.140	0.188
-261.209	38.498	0.010	0.009
-260.195	84.996	-0.187	-0.205
-259.180	-24.201	-0.192	0.115
-258.165	-94.024	0.200	0.055
-257.151	800.000	-0.043	0.147
-256.136	800.000	-0.029	0.118
-255.122	-47.076	0.218	0.107
-254.107	-74.810	-0.373	0.135
-253.092	-40.859	-0.266	-0.138
-252.078	306.241	0.182	0.339
-251.063	-6.928	-0.085	0.058
-250.049	-172.676	0.462	0.015
-249.034	349.939	-0.187	-0.372
-248.019	78.056	0.074	-0.079
-247.005	152.393	-0.104	0.142
-245.990	-200.000	0.032	0.196
-244.976	-126.890	-0.047	-0.007
-243.961	205.046	0.138	-0.215
-242.946	-111.672	0.219	-0.045
-241.932	-200.000	-0.007	0.030
-240.917	-26.323	-0.300	-0.177
-239.903	-68.680	0.246	-0.096
-238.888	-200.000	-0.036	0.162
-237.873	23.749	-0.258	-0.213
-236.859	-70.757	-0.245	0.093
-235.844	-135.105	-0.077	-0.009
-234.830	-102.784	0.169	0.040
-233.815	23.775	0.066	-0.054
-232.800	127.973	0.108	-0.137
-231.786	-69.280	0.186	0.072
-230.771	-200.000	0.009	-0.164
-229.757	-62.338	-0.179	-0.075
-228.742	-18.252	0.207	0.130
-227.727	60.783	0.203	-0.202
-226.713	-200.000	0.017	-0.233
-225.698	208.513	0.233	0.365
-224.684	-73.050	-0.136	-0.050
-223.669	-14.452	-0.077	0.050
-222.655	256.263	-0.126	0.217
-221.640	-173.871	-0.371	-0.011
-220.625	78.986	0.173	0.186
-219.611	506.008	0.087	-0.202
-218.596	-200.000	0.003	0.081
-217.582	-140.890	-0.287	0.030
-216.567	136.019	-0.259	0.338
-215.552	6.582	-0.149	0.111
-214.538	-0.055	-0.245	-0.175
-213.523	-176.115	-0.180	0.005
-212.509	-169.488	-0.339	0.012
-211.494	41.820	0.258	-0.234
-210.479	-19.782	0.185	-0.114
-209.465	-107.163	0.055	-0.012
-208.450	30.671	-0.260	0.223
-207.436	-61.867	0.261	0.109
-206.421	310.472	-0.055	0.103
-205.406	800.000	-0.069	0.251
-204.392	237.519	-0.198	-0.329
-203.377	-19.108	-0.125	-0.077
-202.363	236.211	-0.232	0.385
-201.348	800.000	0.058	0.240
-200.333	528.601	0.080	-0.188
-199.319	-101.096	-0.133	-0.033
-198.304	-46.039	0.198	-0.098
-197.290	-118.360	0.130	-0.023
-196.275	-63.586	0.154	0.063
-195.260	-112.761	-0.230	-0.046
-194.246	-36.904	-0.085	0.045
-193.231	-116.790	-0.078	-0.014
-192.217	59.910	0.194	0.192
-191.202	-113.939	0.315	-0.061
-190.187	58.466	-0.144	-0.142
-189.173	-94.717	0.180	-0.049
-188.158	44.754	0.103	0.094
-187.144	-81.085	0.161	0.053
-186.129	-132.178	-0.166	0.022
-185.114	-169.097	0.323	-0.012
-184.100	-160.037	0.355	0.019
-183.085	-13.858	-0.222	-0.144
-182.071	312.539	-0.196	-0.368
-181.056	-151.912	0.233	-0.017
-180.042	-200.000	-0.020	0.304
-179.027	269.642	0.198	0.348
-178.012	765.973	0.125	0.340
-176.998	306.189	-0.090	-0.167
-175.983	172.218	0.099	-0.142
-174.969	-22.778	0.236	0.143
-173.954	159.696	-0.046	0.064
-172.939	172.592	0.169	0.243
-171.925	405.774	-0.025	0.054
-170.910	-162.121	-0.316	-0.016
-169.896	-73.134	-0.166	-0.061
-168.881	-42.928	0.390	-0.198
-167.866	-110.260	0.194	-0.040
-166.852	33.288	-0.247	0.214
-165.837	145.823	0.234	0.313
-164.823	-70.738	0.125	-0.047
-163.808	-99.539	0.208	0.052
-162.793	-121.170	-0.119	0.020
-161.779	-39.292	0.020	-0.011
-160.764	183.222	0.112	-0.165
-159.750	800.000	0.082	-0.236
-158.735	-35.685	-0.401	0.217
-157.720	-17.191	0.144	0.091
-156.706	100.187	-0.192	0.223
-155.691	-164.918	0.383	0.017
-154.677	-200.000	-0.059	-0.278
-153.662	54.770	0.070	0.067
-152.647	-77.540	-0.278	0.096
-151.633	-108.380	0.111	0.024
-150.618	-49.034	-0.127	0.061
-149.604	-93.939	0.285	-0.078
-148.589	-16.713	0.112	-0.071
-147.574	-82.755	0.341	0.110
-146.560	-112.972	0.155	0.031
-145.545	376.291	0.038	0.077
-144.531	-10.899	0.227	0.150
-143.516	-122.049	-0.228	0.037
-142.502	679.268	0.158	0.410
-141.487	-108.457	0.247	0.053
-140.472	328.210	-0.119	0.228
-139.458	650.385	-0.154	0.394
-138.443	276.221	-0.113	0.200
-137.429	-6.066	0.178	-0.121
-136.414	68.332	0.081	0.083
-135.399	-80.134	-0.207	0.069
-134.385	624.308	-0.134	0.338
-133.370	-81.604	0.330	0.108
-132.356	-200.000	0.012	0.153
-131.341	-94.858	-0.126	-0.034
-130.326	-200.000	-0.010	0.090
-129.312	4.278	-0.274	-0.201
-128.297	-47.216	0.096	-0.047
-127.283	-111.686	0.341	0.069
-126.268	189.098	0.143	0.215
-125.253	-200.000	0.027	0.162
-124.239	675.290	0.044	0.114
-123.224	3.207	-0.303	0.220
-122.210	-63.304	0.052	-0.021
-121.195	800.000	0.056	0.156
