DTS Sentinel unit serial number:	SN413079Multiplexer serial number:	ORYXHardware model number:	OX4-SRSoftware version number:	ORYX F/W v4.00 Oryx Data Collector v3.7.2.0data status	okinstallation	princeton_trtdifferential loss correction	single-endedforward channel	channel 1reverse channel	N/Adate	2019/09/16time	19:18:36forward acquisition time	60.00reverse acquisition time	0.00gamma	496.2192k internal	0.2314k external	0.2314temperature offset calibration	0.9947default loss term (dB/km)	0.3790temperature slope calibration	1.0000multiplexer offset coefficient	1.0000multiplexer slope coefficient	1.0000fibre end	0.00T internal ref (°C)	34.94T ext. ref 1 (°C)	0.07T ext. ref 2 (°C)	28.12length (m)	temperature (°C)	Stokes	anti-Stokes-747.200	800.000	0.078	0.231
-746.185	346.089	-0.119	0.237
-745.171	-173.241	0.005	-0.000
-744.156	800.000	-0.108	0.398
-743.142	-141.122	-0.259	0.027
-742.127	-40.934	-0.393	0.206
-741.112	-200.000	-0.033	0.188
-740.098	-56.216	-0.239	0.108
-739.083	-200.000	0.003	-0.122
-738.069	-60.743	-0.274	-0.118
-737.054	7.257	0.252	0.190
-736.039	-46.668	-0.219	-0.109
-735.025	-55.063	0.193	0.088
-734.010	51.950	-0.350	-0.337
-732.996	-127.204	-0.251	0.037
-731.981	800.000	0.091	-0.301
-730.966	213.311	0.084	-0.135
-729.952	-64.652	-0.331	-0.136
-728.937	-3.241	-0.356	0.251
-727.923	96.555	0.243	-0.282
-726.908	-70.996	-0.180	0.069
-725.894	634.915	-0.144	0.370
-724.879	-200.000	-0.004	-0.089
-723.864	-200.000	0.050	0.269
-722.850	-28.266	0.079	0.046
-721.835	-71.686	-0.118	-0.045
-720.821	-24.172	-0.039	0.024
-719.806	800.000	-0.035	-0.120
-718.791	71.374	-0.062	-0.065
-717.777	126.501	0.049	0.063
-716.762	168.390	0.119	0.171
-715.748	-200.000	0.005	-0.065
-714.733	401.308	-0.096	-0.204
-713.718	-178.897	0.104	-0.002
-712.704	78.508	-0.270	-0.292
-711.689	800.000	0.045	-0.170
-710.675	-130.558	0.326	0.045
-709.660	800.000	0.066	0.188
-708.645	297.270	-0.130	-0.241
-707.631	153.707	-0.052	0.072
-706.616	344.965	0.121	0.240
-705.602	71.903	-0.128	-0.135
-704.587	19.628	0.196	0.160
-703.572	-129.139	0.090	0.013
-702.558	57.344	-0.151	0.149
-701.543	-78.543	0.226	0.078
-700.529	-130.622	-0.161	0.022
-699.514	213.499	-0.131	0.210
-698.499	572.098	0.161	0.396
-697.485	800.000	0.073	-0.272
-696.470	166.882	-0.184	-0.264
-695.456	-200.000	-0.002	0.129
-694.441	498.453	0.098	0.229
-693.426	7.073	0.092	-0.069
-692.412	88.176	0.175	0.197
-691.397	-105.547	0.316	0.072
-690.383	-57.919	-0.114	0.050
-689.368	-200.000	-0.003	0.202
-688.354	121.298	0.107	0.135
-687.339	91.984	-0.201	0.228
-686.324	113.826	-0.179	0.220
-685.310	102.452	0.043	0.050
-684.295	-58.034	-0.366	-0.162
-683.281	-46.822	0.228	-0.113
-682.266	84.158	-0.114	0.126
-681.251	-37.985	0.127	-0.068
-680.237	-32.154	-0.196	-0.111
-679.222	-155.295	0.235	-0.015
-678.208	61.151	-0.113	-0.114
-677.193	138.891	-0.074	-0.099
-676.178	-63.704	-0.180	-0.075
-675.164	-54.400	0.116	-0.053
-674.149	-41.020	0.037	-0.019
-673.135	-60.697	0.067	0.029
-672.120	-179.604	0.271	-0.006
-671.105	800.000	-0.152	0.433
-670.091	-91.283	0.141	0.041
-669.076	-54.940	0.180	0.082
-668.062	203.996	-0.291	-0.456
-667.047	23.944	-0.320	-0.267
-666.032	480.623	-0.035	0.081
-665.018	-41.364	-0.250	0.130
-664.003	107.721	0.345	0.415
-662.989	211.075	-0.147	-0.234
-661.974	-67.636	-0.117	-0.046
-660.959	-15.324	-0.115	-0.074
-659.945	800.000	-0.095	0.364
-658.930	74.952	-0.260	-0.277
-657.916	800.000	0.003	0.010
-656.901	-200.000	-0.033	-0.216
-655.886	-77.621	0.432	0.151
-654.872	325.498	-0.040	-0.076
-653.857	-3.567	0.186	-0.130
-652.843	800.000	0.046	-0.191
-651.828	139.636	0.028	-0.037
-650.814	-84.496	-0.144	0.046
-649.799	1.143	-0.104	-0.075
-648.784	-162.747	0.165	0.008
-647.770	44.088	-0.118	-0.109
-646.755	800.000	0.082	-0.324
-645.741	17.659	-0.155	-0.124
-644.726	116.847	0.092	-0.114
-643.711	83.289	-0.321	-0.352
-642.697	225.709	-0.033	-0.055
-641.682	302.170	0.044	0.082
-640.668	-14.805	-0.148	0.096
-639.653	394.203	-0.095	-0.200
-638.638	622.171	0.083	-0.210
-637.624	102.783	-0.132	0.156
-636.609	-44.784	0.266	-0.134
-635.595	657.532	0.014	0.037
-634.580	800.000	0.120	-0.344
-633.565	163.967	-0.130	-0.184
-632.551	800.000	-0.028	-0.086
-631.536	0.671	-0.246	-0.177
-630.522	800.000	0.082	0.238
-629.507	312.162	0.063	-0.120
-628.492	-100.022	-0.263	-0.066
-627.478	-45.818	0.275	-0.137
-626.463	143.044	-0.045	-0.061
-625.449	164.136	0.115	0.163
-624.434	800.000	0.038	0.113
-623.419	302.540	-0.179	0.334
-622.405	329.082	-0.206	-0.399
-621.390	272.277	-0.201	-0.359
-620.376	203.845	-0.102	-0.160
-619.361	37.254	-0.181	-0.162
-618.346	-179.103	0.111	0.003
-617.332	-141.076	0.427	-0.044
-616.317	-65.871	0.084	0.034
-615.303	-158.795	-0.288	0.017
-614.288	36.461	-0.024	-0.021
-613.273	-110.348	-0.299	-0.063
-612.259	-60.933	-0.173	0.074
-611.244	-200.000	-0.043	-0.272
-610.230	-200.000	0.029	0.201
-609.215	-50.656	-0.146	0.069
-608.201	57.685	0.024	-0.024
-607.186	107.171	-0.178	0.213
-606.171	348.292	-0.076	-0.151
-605.157	-34.270	-0.323	-0.179
-604.142	131.014	-0.037	-0.047
-603.128	-25.337	-0.254	0.151
-602.113	-13.725	-0.164	0.107
-601.098	-126.006	0.114	0.017
-600.084	99.162	0.174	-0.203
-599.069	800.000	0.156	0.501
-598.055	24.186	-0.232	-0.193
-597.040	6.007	-0.112	-0.084
-596.025	-200.000	0.048	-0.356
-595.011	800.000	0.045	0.154
-593.996	800.000	-0.061	0.205
-592.982	-117.580	0.161	-0.029
-591.967	-200.000	0.009	0.287
-590.952	21.723	-0.089	-0.073
-589.938	110.684	-0.146	0.177
-588.923	-200.000	-0.004	0.033
-587.909	-200.000	0.055	0.296
-586.894	-54.968	-0.044	0.020
-585.879	670.158	0.075	-0.196
-584.865	-40.076	0.215	0.113
-583.850	-200.000	0.024	-0.161
-582.836	-26.149	0.255	-0.151
-581.821	-200.000	-0.012	0.130
-580.806	-25.473	-0.151	-0.090
-579.792	46.795	0.167	-0.157
-578.777	-1.252	0.131	-0.093
-577.763	82.072	0.127	0.139
-576.748	-132.388	0.307	0.040
-575.733	800.000	0.026	-0.074
-574.719	-84.743	-0.449	0.142
-573.704	-20.221	0.081	-0.050
-572.690	94.086	0.169	-0.193
-571.675	55.288	-0.049	0.048
-570.661	-128.192	0.378	0.054
-569.646	15.118	-0.227	-0.179
-568.631	76.059	0.191	-0.204
-567.617	800.000	-0.053	-0.228
-566.602	-199.807	-0.267	-0.001
-565.588	-77.051	0.445	-0.156
-564.573	30.716	0.260	-0.224
-563.558	-200.000	-0.001	0.119
-562.544	68.539	-0.082	0.085
-561.529	-200.000	-0.001	0.141
-560.515	0.975	-0.267	0.193
-559.500	800.000	-0.065	0.196
-558.485	-70.008	-0.034	-0.013
-557.471	18.862	0.043	-0.035
-556.456	-124.493	0.206	0.032
-555.442	587.621	-0.101	-0.250
-554.427	-200.000	-0.009	-0.107
-553.412	103.800	0.215	0.254
-552.398	800.000	0.088	-0.259
-551.383	800.000	-0.041	-0.136
-550.369	-129.308	0.281	0.039
-549.354	254.835	-0.364	-0.626
-548.339	800.000	0.051	-0.163
-547.325	-200.000	-0.021	-0.287
-546.310	-131.864	-0.144	-0.019
-545.296	-80.580	0.268	0.090
-544.281	192.472	-0.026	-0.040
-543.266	391.445	0.211	0.440
-542.252	-90.968	-0.109	-0.032
-541.237	-200.000	0.007	0.081
-540.223	-80.065	-0.307	-0.103
-539.208	83.576	-0.163	-0.178
-538.193	6.035	0.339	-0.253
-537.179	-28.936	-0.339	-0.196
-536.164	730.983	-0.025	-0.067
-535.150	-200.000	-0.043	0.383
-534.135	-200.000	0.009	-0.441
-533.121	-200.000	-0.013	-0.263
-532.106	800.000	-0.129	0.361
-531.091	154.108	0.332	0.457
-530.077	-96.193	-0.170	-0.045
-529.062	-69.721	-0.204	0.079
-528.048	413.901	0.203	-0.434
-527.033	426.028	-0.122	0.265
-526.018	-10.265	-0.257	-0.171
-525.004	340.846	-0.096	-0.188
-523.989	66.352	-0.393	0.402
-522.975	77.232	-0.044	0.047
-521.960	-150.842	-0.471	0.036
-520.945	14.260	0.272	0.213
-519.931	-200.000	0.021	0.098
-518.916	-200.000	0.031	0.223
-517.902	-86.970	0.146	0.045
-516.887	-200.000	-0.023	0.280
-515.872	405.904	-0.082	-0.174
-514.858	198.866	0.122	0.188
-513.843	96.582	0.085	-0.098
-512.829	372.966	0.095	0.194
-511.814	-56.939	-0.159	0.071
-510.799	390.776	-0.058	-0.121
-509.785	53.977	0.195	0.189
-508.770	-170.071	-0.249	0.009
-507.756	145.695	0.118	-0.159
-506.741	100.127	0.183	0.213
-505.726	-72.729	0.266	-0.098
-504.712	-145.643	0.157	0.014
-503.697	-200.000	-0.001	-0.006
-502.683	-163.814	-0.157	0.007
-501.668	-92.146	-0.156	-0.044
-500.653	800.000	-0.043	0.122
-499.639	-200.000	0.044	-0.283
-498.624	389.221	-0.098	0.204
-497.610	102.059	-0.095	0.111
-496.595	553.448	0.034	0.081
-495.581	-109.411	-0.187	0.040
-494.566	-98.882	-0.247	0.063
-493.551	-152.270	-0.174	-0.013
-492.537	-200.000	-0.021	0.178
-491.522	-26.578	0.401	0.236
-490.508	-62.266	0.498	0.208
-489.493	-200.000	-0.034	0.327
-488.478	-72.516	0.146	0.054
-487.464	-110.913	-0.068	-0.014
-486.449	-200.000	-0.023	-0.196
-485.435	-113.039	-0.393	-0.078
-484.420	-200.000	-0.044	0.213
-483.405	9.674	0.148	0.112
-482.391	252.769	-0.128	-0.218
-481.376	-46.602	0.131	0.064
-480.362	401.940	0.100	0.212
-479.347	-98.823	0.190	-0.048
-478.332	800.000	0.081	-0.231
-477.318	22.793	0.072	-0.060
-476.303	430.107	-0.144	-0.313
-475.289	-200.000	0.011	0.080
-474.274	-158.337	-0.265	-0.015
-473.259	800.000	0.085	0.341
-472.245	57.060	0.165	0.162
-471.230	-200.000	0.009	0.094
-470.216	44.510	0.313	-0.288
-469.201	-200.000	-0.024	0.129
-468.186	800.000	-0.109	0.337
-467.172	-120.064	-0.340	0.058
-466.157	-73.262	-0.132	0.049
-465.143	-17.095	0.308	-0.195
-464.128	-108.946	-0.373	0.080
-463.113	800.000	0.111	-0.347
-462.099	-100.027	0.077	-0.019
-461.084	127.382	0.063	0.080
-460.070	-58.886	-0.251	-0.109
-459.055	348.165	-0.093	-0.184
-458.040	175.536	0.089	0.129
-457.026	-157.170	0.424	0.026
-456.011	-19.681	-0.148	-0.091
-454.997	-123.239	-0.456	-0.073
-453.982	111.840	-0.151	-0.182
-452.968	-119.505	0.178	0.031
-451.953	-120.687	0.395	0.067
-450.938	80.717	-0.064	0.070
-449.924	800.000	-0.075	-0.253
-448.909	-86.672	0.120	0.037
-447.895	-200.000	-0.001	0.294
-446.880	-123.622	0.096	0.015
-445.865	-79.318	0.018	0.006
-444.851	-36.239	-0.072	-0.039
-443.836	-200.000	-0.005	-0.043
-442.822	-73.189	-0.051	-0.019
-441.807	-25.468	-0.251	-0.148
-440.792	110.245	-0.249	0.300
-439.778	-200.000	-0.088	0.468
-438.763	800.000	-0.040	-0.116
-437.749	-200.000	-0.052	-0.263
-436.734	800.000	-0.095	0.318
-435.719	669.282	0.030	-0.078
-434.705	800.000	0.084	-0.240
-433.690	800.000	0.073	-0.202
-432.676	-200.000	0.031	-0.379
-431.661	110.413	-0.157	-0.189
-430.646	-102.277	0.104	0.025
-429.632	-55.202	-0.110	0.050
-428.617	528.188	0.073	0.172
-427.603	-110.116	-0.362	-0.076
-426.588	-20.588	0.306	0.188
-425.573	-79.791	0.260	0.088
-424.559	-14.886	-0.258	0.166
-423.544	84.496	-0.220	0.241
-422.530	10.402	-0.099	0.075
-421.515	-200.000	-0.025	0.344
-420.500	-200.000	-0.008	0.113
-419.486	55.171	-0.171	-0.166
-418.471	-13.423	-0.125	0.081
-417.457	800.000	-0.096	-0.412
-416.442	800.000	-0.041	0.128
-415.428	29.421	-0.232	0.198
-414.413	-119.898	0.063	-0.011
-413.398	88.546	-0.190	0.211
-412.384	129.216	-0.114	0.146
-411.369	-200.000	-0.008	0.131
-410.355	-135.249	-0.147	-0.018
-409.340	-129.334	0.225	-0.031
-408.325	-200.000	-0.025	0.123
-407.311	162.333	0.145	0.203
-406.296	-146.913	0.131	-0.011
-405.282	-200.000	-0.001	0.073
-404.267	-37.171	-0.302	-0.162
-403.252	-71.574	0.244	-0.091
-402.238	664.249	0.114	0.295
-401.223	-185.871	0.480	-0.007
-400.209	-106.570	0.136	-0.030
-399.194	657.822	0.108	0.278
-398.179	800.000	0.013	0.048
-397.165	-16.534	0.251	-0.159
-396.150	194.138	-0.061	-0.092
-395.136	-200.000	0.025	0.126
-394.121	520.201	0.037	-0.087
-393.106	-87.367	-0.110	0.033
-392.092	317.341	-0.057	0.108
-391.077	-200.000	-0.028	0.197
-390.063	72.302	-0.172	-0.179
-389.048	-85.750	0.293	-0.091
-388.033	184.500	-0.123	0.183
-387.019	-85.242	0.201	-0.063
-386.004	-9.582	-0.171	0.114
-384.990	103.690	0.181	0.213
-383.975	-200.000	-0.039	0.488
-382.960	800.000	0.096	-0.291
-381.946	241.132	-0.092	0.153
-380.931	-112.594	0.345	0.069
-379.917	-36.559	-0.168	-0.090
-378.902	14.199	0.122	-0.095
-377.888	-200.000	-0.025	-0.128
-376.873	-132.861	0.121	0.015
-375.858	77.061	0.226	0.240
-374.844	-11.394	-0.147	-0.097
-373.829	-124.909	0.358	0.055
-372.815	230.719	0.145	0.238
-371.800	124.110	0.238	-0.299
-370.785	-200.000	0.015	0.187
-369.771	224.117	0.138	0.223
-368.756	-66.360	-0.180	0.071
-367.742	-140.073	-0.045	0.005
-366.727	348.616	-0.055	-0.109
-365.712	800.000	0.038	-0.129
-364.698	35.617	0.173	-0.152
-363.683	-60.242	0.250	0.107
-362.669	-76.203	0.123	-0.043
-361.654	-140.922	0.375	-0.038
-360.639	-109.144	0.234	-0.050
-359.625	76.761	0.126	0.134
-358.610	-200.000	0.019	0.144
-357.596	-200.000	-0.029	0.147
-356.581	88.186	0.127	0.141
-355.566	327.274	0.069	-0.133
-354.552	-118.751	-0.301	-0.053
-353.537	-55.434	-0.145	-0.065
-352.523	-124.972	0.141	0.022
-351.508	800.000	-0.037	0.157
-350.493	32.899	-0.088	-0.076
-349.479	20.868	0.322	-0.260
-348.464	-157.576	0.131	0.008
-347.450	90.688	0.165	-0.184
-346.435	-123.603	0.147	0.023
-345.420	-39.611	-0.180	-0.094
-344.406	566.403	0.057	0.138
-343.391	68.289	-0.066	0.067
-342.377	-200.000	-0.014	0.113
-341.362	384.191	-0.040	0.082
-340.348	485.747	0.070	0.159
-339.333	200.684	0.070	-0.107
-338.318	-138.313	-0.263	-0.029
-337.304	151.728	0.104	0.141
-336.289	78.955	-0.121	0.129
-335.275	-200.000	0.055	0.315
-334.260	-25.723	0.257	0.151
-333.245	-101.930	-0.383	-0.092
-332.231	54.303	0.077	0.074
-331.216	-200.000	0.015	0.077
-330.202	150.653	-0.083	-0.113
-329.187	-4.119	0.151	0.105
-328.172	-42.696	-0.082	0.042
-327.158	800.000	0.018	-0.056
-326.143	-42.998	-0.207	-0.105
-325.129	797.789	0.049	-0.135
-324.114	-74.430	0.084	-0.030
-323.099	486.491	-0.039	-0.089
-322.085	800.000	0.060	-0.250
-321.070	44.231	0.100	0.091
-320.056	75.740	-0.161	0.170
-319.041	133.880	0.056	-0.072
-318.026	-133.208	-0.177	0.022
-317.012	-119.902	0.229	0.039
-315.997	287.011	-0.148	-0.267
-314.983	-27.247	-0.235	0.137
-313.968	-128.361	0.259	0.037
-312.953	-17.924	0.180	-0.113
-311.939	-75.724	0.580	-0.205
-310.924	296.080	0.053	-0.097
-309.910	190.020	0.100	0.150
-308.895	-53.706	-0.160	-0.073
-307.880	-130.415	-0.229	-0.031
-306.866	-120.949	0.111	0.019
-305.851	-200.000	-0.017	-0.120
-304.837	800.000	-0.019	0.061
-303.822	-125.694	-0.290	0.044
-302.807	800.000	0.062	0.216
-301.793	122.276	0.179	-0.223
-300.778	-70.315	-0.284	0.107
-299.764	13.658	-0.104	-0.080
-298.749	85.965	-0.142	-0.156
-297.735	340.076	0.067	-0.131
-296.720	-53.058	-0.158	-0.072
-295.705	411.921	-0.144	-0.305
-294.691	-2.117	-0.102	0.071
-293.676	110.348	-0.071	-0.084
-292.662	-200.000	-0.026	0.188
-291.647	-145.730	-0.139	-0.012
-290.632	-48.366	-0.064	0.031
-289.618	10.178	-0.235	-0.178
-288.603	-104.512	-0.221	-0.051
-287.589	79.710	-0.361	0.386
-286.574	-125.195	0.280	-0.043
-285.559	800.000	0.050	0.167
-284.545	800.000	-0.093	0.313
-283.530	62.935	-0.118	0.118
-282.516	800.000	-0.013	0.051
-281.501	472.551	-0.141	-0.316
-280.486	187.360	0.113	-0.168
-279.472	-85.358	-0.150	0.046
-278.457	11.632	-0.034	0.026
-277.443	-185.237	0.213	-0.003
-276.428	194.852	-0.251	0.379
-275.413	-9.969	0.341	0.226
-274.399	686.300	0.135	-0.351
-273.384	-200.000	0.032	0.156
-272.370	-98.354	-0.157	0.040
-271.355	267.014	0.137	-0.238
-270.340	302.342	-0.128	0.236
-269.326	73.451	-0.201	0.209
-268.311	29.218	0.217	0.184
-267.297	80.845	0.125	0.134
-266.282	-114.613	0.220	0.042
-265.267	-52.203	-0.078	-0.036
-264.253	-25.155	-0.367	0.216
-263.238	371.981	-0.169	0.341
-262.224	-43.841	0.132	-0.066
-261.209	-128.462	-0.148	0.021
-260.195	340.326	0.164	-0.318
-259.180	800.000	-0.126	-0.406
-258.165	-121.756	0.064	0.011
-257.151	-70.280	0.193	0.073
-256.136	-67.761	0.197	-0.076
-255.122	-117.738	0.247	-0.044
-254.107	-166.147	-0.077	0.003
-253.092	-106.993	0.255	0.056
-252.078	-123.115	0.146	-0.023
-251.063	-159.480	-0.389	-0.022
-250.049	-38.913	-0.104	-0.055
-249.034	279.261	-0.069	0.123
-248.019	800.000	0.113	-0.350
-247.005	244.957	-0.072	-0.120
-245.990	109.275	-0.054	-0.064
-244.976	800.000	-0.118	0.502
-243.961	-169.664	0.120	-0.004
-242.946	800.000	0.054	-0.169
-241.932	-167.610	0.293	-0.012
-240.917	-137.912	-0.379	-0.042
-239.903	4.968	0.314	-0.230
-238.888	-200.000	0.017	0.179
-237.873	800.000	-0.096	0.412
-236.859	-68.643	-0.142	0.054
-235.844	800.000	-0.114	0.344
-234.830	-56.361	-0.328	0.145
-233.815	-200.000	0.000	0.006
-232.800	46.837	0.210	0.194
-231.786	-169.098	-0.217	-0.008
-230.771	-33.916	0.132	-0.072
-229.757	-200.000	-0.034	-0.151
-228.742	-200.000	-0.032	0.242
-227.727	103.252	-0.105	-0.122
-226.713	-200.000	0.030	0.146
-225.698	-131.953	-0.330	-0.043
-224.684	-200.000	0.026	-0.222
-223.669	415.289	-0.101	-0.213
-222.655	-200.000	0.023	-0.232
-221.640	800.000	0.113	-0.350
-220.625	129.696	-0.181	-0.230
-219.611	-200.000	-0.026	0.129
-218.596	-200.000	0.025	-0.299
-217.582	-143.438	0.245	0.023
-216.567	89.967	0.032	-0.036
-215.552	-34.023	-0.137	-0.075
-214.538	57.919	0.065	-0.063
-213.523	-104.251	0.193	0.045
-212.509	-80.667	-0.278	0.092
-211.494	800.000	0.032	0.120
-210.479	-12.009	0.203	0.132
-209.465	59.561	-0.013	-0.012
-208.450	800.000	-0.065	0.242
-207.436	5.997	0.140	0.103
-206.421	-39.874	0.244	0.127
-205.406	-153.286	-0.186	0.013
-204.392	-200.000	-0.038	-0.185
-203.377	86.774	0.114	-0.124
-202.363	36.659	0.256	-0.225
-201.348	-154.860	0.095	-0.006
-200.333	-83.242	-0.301	-0.096
-199.319	-36.039	-0.058	-0.031
-198.304	-99.942	0.117	-0.029
-197.290	-176.243	0.321	-0.008
-196.275	238.679	0.178	-0.294
-195.260	-200.000	-0.052	0.267
-194.246	-56.140	-0.172	-0.076
-193.231	351.144	0.150	-0.294
-192.217	-56.941	0.122	0.053
-191.202	414.530	-0.085	-0.179
-190.187	399.700	0.043	0.090
-189.173	-200.000	-0.007	-0.135
-188.158	-68.565	0.308	-0.118
-187.144	354.942	0.141	0.278
-186.129	-172.601	0.104	0.003
-185.114	-141.359	0.414	0.042
-184.100	-58.162	-0.174	0.075
-183.085	-50.651	-0.200	0.093
-182.071	120.073	0.123	0.151
-181.056	-17.088	0.217	0.136
-180.042	800.000	-0.042	0.144
-179.027	-31.766	0.156	0.087
-178.012	789.711	0.041	-0.113
-176.998	-152.085	0.208	0.015
-175.983	-51.220	-0.314	0.146
-174.969	-200.000	0.005	0.175
-173.954	-29.368	-0.307	-0.174
-172.939	125.201	0.291	0.364
-171.925	19.086	-0.095	-0.076
-170.910	14.014	-0.223	0.172
-169.896	800.000	0.052	-0.177
-168.881	51.019	0.165	-0.155
-167.866	-158.041	0.186	0.011
-166.852	40.506	-0.326	-0.291
-165.837	102.411	-0.096	-0.111
-164.823	-34.579	0.247	0.134
-163.808	-200.000	-0.001	-0.101
-162.793	-2.411	0.100	0.070
-161.779	236.056	0.165	-0.270
-160.764	183.902	0.109	-0.160
-159.750	-167.361	-0.198	-0.008
-158.735	189.253	0.059	0.088
-157.720	-200.000	-0.012	-0.135
-156.706	200.941	0.056	-0.085
-155.691	800.000	0.023	-0.066
-154.677	-63.200	-0.617	-0.252
-153.662	-90.128	0.202	-0.058
-152.647	800.000	-0.075	-0.263
-151.633	800.000	0.017	0.073
-150.618	-26.464	-0.107	0.062
-149.604	-7.629	-0.203	-0.136
-148.589	-200.000	0.007	0.035
-147.574	410.512	-0.042	-0.087
-146.560	800.000	0.035	-0.101
-145.545	72.376	0.156	-0.161
-144.531	-45.730	0.236	0.116
-143.516	619.921	0.064	0.159
-142.502	68.297	0.112	0.113
-141.487	66.647	0.113	0.114
-140.472	297.587	-0.048	0.086
-139.458	-86.679	0.180	0.054
-138.443	-200.000	0.048	-0.230
-137.429	29.183	-0.294	0.247
-136.414	-68.332	-0.041	-0.016
-135.399	-59.002	0.248	0.106
-134.385	241.035	-0.049	-0.082
-133.370	800.000	0.113	0.355
-132.356	800.000	-0.109	0.386
-131.341	130.335	-0.085	-0.107
-130.326	-103.048	0.136	0.032
-129.312	52.813	0.222	0.210
-128.297	-30.076	0.324	0.182
-127.283	579.252	0.121	-0.292
-126.268	121.567	0.245	-0.302
-125.253	-45.047	-0.086	0.042
-124.239	59.758	-0.309	-0.302
-123.224	-122.228	0.462	0.075
-122.210	16.444	-0.188	-0.147
-121.195	-101.809	0.271	-0.065
