DTS Sentinel unit serial number:	SN413079Multiplexer serial number:	ORYXHardware model number:	OX4-SRSoftware version number:	ORYX F/W v4.00 Oryx Data Collector v3.7.2.0data status	okinstallation	princeton_trtdifferential loss correction	single-endedforward channel	channel 1reverse channel	N/Adate	2019/09/11time	23:28:11forward acquisition time	60.00reverse acquisition time	0.00gamma	496.2192k internal	0.2318k external	0.2318temperature offset calibration	1.0063default loss term (dB/km)	0.3790temperature slope calibration	1.0000multiplexer offset coefficient	1.0000multiplexer slope coefficient	1.0000fibre end	0.00T internal ref (°C)	34.25T ext. ref 1 (°C)	1.86T ext. ref 2 (°C)	28.22length (m)	temperature (°C)	Stokes	anti-Stokes-747.200	66.551	-0.169	-0.174
-746.185	-187.629	-0.579	0.008
-745.171	-200.000	0.037	-0.198
-744.156	800.000	0.072	-0.234
-743.142	-6.259	-0.193	-0.133
-742.127	629.253	0.117	0.299
-741.112	452.035	0.045	0.102
-740.098	400.369	0.031	0.066
-739.083	11.354	0.177	-0.137
-738.069	-23.883	-0.057	0.035
-737.054	637.176	-0.022	-0.057
-736.039	19.473	-0.309	-0.251
-735.025	-102.758	0.111	0.027
-734.010	1.898	0.168	0.123
-732.996	-200.000	-0.021	-0.161
-731.981	422.154	-0.150	-0.325
-730.966	-59.318	0.308	-0.134
-729.952	-86.739	-0.166	0.051
-728.937	-129.781	0.258	-0.036
-727.923	146.426	-0.075	-0.101
-726.908	13.675	-0.237	-0.186
-725.894	-200.000	-0.017	0.264
-724.879	-200.000	-0.042	0.351
-723.864	498.298	0.115	-0.268
-722.850	133.590	0.086	0.113
-721.835	-200.000	0.018	-0.083
-720.821	-200.000	-0.106	-0.478
-719.806	9.490	0.340	0.261
-718.791	-72.850	0.119	0.044
-717.777	-79.712	-0.196	0.067
-716.762	-200.000	-0.005	0.065
-715.748	21.288	-0.278	0.228
-714.733	-200.000	0.033	-0.160
-713.718	756.016	0.054	0.146
-712.704	-200.000	-0.001	-0.237
-711.689	-90.647	-0.238	-0.070
-710.675	697.123	0.054	0.143
-709.660	800.000	-0.072	0.231
-708.645	160.641	-0.138	0.194
-707.631	-82.162	-0.276	-0.091
-706.616	-52.715	0.371	0.173
-705.602	-123.347	-0.226	-0.036
-704.587	-55.975	-0.052	0.024
-703.572	-34.628	0.245	0.135
-702.558	285.105	0.061	0.111
-701.543	-113.082	0.165	0.033
-700.529	-145.189	0.157	-0.014
-699.514	252.826	0.086	0.148
-698.499	-200.000	-0.003	-0.210
-697.485	101.348	-0.109	-0.129
-696.470	77.240	-0.099	-0.106
-695.456	800.000	0.040	0.177
-694.441	-200.000	-0.050	0.325
-693.426	-38.083	-0.113	-0.061
-692.412	-82.071	0.105	-0.035
-691.397	62.218	0.114	0.115
-690.383	44.145	0.153	-0.142
-689.368	-200.000	-0.023	-0.101
-688.354	-123.182	-0.115	-0.019
-687.339	-102.071	0.140	-0.034
-686.324	94.131	0.164	0.188
-685.310	-54.573	-0.014	0.007
-684.295	412.883	-0.135	0.289
-683.281	782.404	0.041	0.113
-682.266	389.703	0.088	-0.183
-681.251	146.617	-0.126	0.171
-680.237	-43.239	0.198	0.101
-679.222	-144.128	-0.316	-0.030
-678.208	55.404	-0.229	-0.224
-677.193	-200.000	0.030	-0.198
-676.178	302.120	-0.072	-0.134
-675.164	-200.000	-0.016	-0.227
-674.149	-200.000	-0.052	0.299
-673.135	60.142	-0.103	0.103
-672.120	-200.000	-0.035	0.398
-671.105	-84.847	0.139	0.044
-670.091	-82.531	-0.121	-0.040
-669.076	37.973	0.059	0.053
-668.062	-103.821	0.177	0.042
-667.047	-200.000	-0.016	0.236
-666.032	238.900	0.074	-0.125
-665.018	800.000	0.060	-0.185
-664.003	440.109	-0.102	-0.225
-662.989	-164.705	0.438	0.020
-661.974	-3.921	-0.101	-0.071
-660.959	-127.303	-0.043	-0.006
-659.945	23.438	-0.253	-0.210
-658.930	-200.000	-0.002	-0.402
-657.916	271.995	0.044	-0.078
-656.901	-23.279	0.250	0.151
-655.886	-104.106	-0.080	-0.019
-654.872	-200.000	0.062	-0.375
-653.857	-89.281	-0.159	0.047
-652.843	-182.991	-0.142	0.003
-651.828	-49.919	-0.243	-0.116
-650.814	-54.275	-0.234	-0.107
-649.799	-38.955	-0.049	0.026
-648.784	-89.573	0.404	-0.120
-647.770	7.570	-0.324	-0.244
-646.755	-200.000	-0.010	0.163
-645.741	-200.000	-0.010	0.390
-644.726	576.215	-0.068	-0.168
-643.711	255.845	-0.157	-0.272
-642.697	-200.000	-0.026	-0.232
-641.682	291.932	-0.051	0.094
-640.668	-84.531	-0.261	-0.083
-639.653	104.512	0.064	0.076
-638.638	36.440	-0.254	-0.226
-637.624	218.488	-0.195	0.314
-636.609	-200.000	0.011	-0.271
-635.595	-147.254	-0.176	0.015
-634.580	289.109	-0.070	-0.128
-633.565	-59.750	-0.118	-0.051
-632.551	-165.766	-0.208	-0.009
-631.536	-134.431	-0.086	0.011
-630.522	-68.115	0.117	0.046
-629.507	-30.878	-0.301	-0.171
-628.492	-200.000	-0.007	-0.183
-627.478	254.438	-0.054	0.093
-626.463	-81.653	0.264	-0.087
-625.449	248.372	-0.103	-0.175
-624.434	800.000	-0.049	0.212
-623.419	800.000	0.057	0.224
-622.405	-144.963	0.198	-0.018
-621.390	527.366	0.121	-0.287
-620.376	-106.764	-0.087	0.019
-619.361	150.769	-0.099	0.136
-618.346	800.000	0.079	-0.255
-617.332	16.975	-0.185	-0.148
-616.317	118.795	0.052	0.065
-615.303	800.000	0.019	-0.067
-614.288	-72.434	0.080	-0.030
-613.273	-70.865	-0.120	-0.046
-612.259	800.000	0.118	-0.382
-611.244	-77.794	0.280	-0.097
-610.230	-200.000	-0.092	0.420
-609.215	-200.000	0.024	0.118
-608.201	-200.000	-0.004	-0.040
-607.186	-104.812	0.048	0.011
-606.171	-58.412	0.227	0.099
-605.157	-147.178	0.269	-0.023
-604.142	-200.000	-0.015	0.087
-603.128	311.328	0.211	-0.397
-602.113	606.939	0.042	-0.106
-601.098	-200.000	0.088	-0.416
-600.084	-137.205	-0.258	-0.030
-599.069	-200.000	0.018	-0.122
-598.055	61.276	0.054	0.054
-597.040	590.653	0.086	-0.213
-596.025	-200.000	-0.011	0.149
-595.011	50.891	0.137	0.131
-593.996	-40.058	0.195	0.102
-592.982	800.000	-0.053	0.170
-591.967	4.122	0.213	0.157
-590.952	19.075	-0.088	0.071
-589.938	-168.794	-0.377	0.014
-588.923	-200.000	0.011	-0.130
-587.909	-200.000	-0.043	-0.272
-586.894	800.000	0.013	0.053
-585.879	-109.552	0.443	-0.094
-584.865	-97.943	0.446	0.116
-583.850	-125.353	0.022	0.003
-582.836	26.961	-0.200	0.169
-581.821	-185.356	-0.194	0.003
-580.806	800.000	-0.095	-0.289
-579.792	-113.644	-0.200	-0.039
-578.777	-126.491	0.050	-0.008
-577.763	182.310	-0.056	-0.084
-576.748	-200.000	0.044	-0.233
-575.733	85.995	-0.069	0.076
-574.719	77.728	0.077	0.083
-573.704	35.133	0.203	-0.178
-572.690	-47.112	0.095	-0.047
-571.675	275.676	-0.021	-0.038
-570.661	118.446	-0.112	-0.139
-569.646	34.132	-0.362	-0.317
-568.631	5.193	0.175	0.129
-567.617	-33.939	-0.100	0.055
-566.602	161.668	-0.172	-0.242
-565.588	17.726	-0.385	-0.308
-564.573	-200.000	0.016	-0.287
-563.558	-200.000	0.016	-0.219
-562.544	269.705	0.053	-0.094
-561.529	685.422	-0.063	-0.165
-560.515	-190.320	-0.289	0.003
-559.500	376.360	-0.070	0.143
-558.485	16.300	0.288	-0.228
-557.471	257.762	-0.109	-0.188
-556.456	-48.997	0.162	-0.078
-555.442	-75.089	0.246	-0.088
-554.427	-200.000	0.051	0.232
-553.412	-107.703	0.144	0.032
-552.398	-67.690	-0.362	0.142
-551.383	800.000	0.089	-0.340
-550.369	120.744	-0.155	0.193
-549.354	-152.397	-0.286	0.021
-548.339	-200.000	0.025	0.129
-547.325	-108.463	0.329	-0.071
-546.310	-93.134	-0.291	-0.081
-545.296	-200.000	-0.034	-0.402
-544.281	-144.503	0.164	0.015
-543.266	-154.452	0.162	0.011
-542.252	13.012	0.022	-0.017
-541.237	95.238	0.090	-0.103
-540.223	-200.000	-0.041	-0.487
-539.208	171.148	0.223	0.321
-538.193	78.066	-0.067	0.072
-537.179	800.000	-0.056	-0.189
-536.164	800.000	0.043	0.126
-535.150	305.890	-0.013	0.024
-534.135	222.197	-0.032	0.051
-533.121	-200.000	0.048	-0.282
-532.106	-200.000	-0.015	-0.136
-531.091	-9.757	-0.025	-0.017
-530.077	736.222	0.045	0.121
-529.062	26.735	-0.279	-0.234
-528.048	-31.416	0.018	-0.010
-527.033	83.272	0.220	-0.241
-526.018	800.000	0.084	0.243
-525.004	-66.235	0.248	-0.099
-523.989	-200.000	-0.024	-0.193
-522.975	-69.105	0.276	0.107
-521.960	240.715	-0.081	-0.135
-520.945	-200.000	0.026	0.375
-519.931	241.721	-0.130	-0.218
-518.916	145.750	-0.074	0.099
-517.902	108.736	-0.102	0.123
-516.887	-5.333	-0.236	-0.162
-515.872	-68.969	-0.306	0.118
-514.858	102.730	0.131	-0.154
-513.843	552.190	0.086	-0.207
-512.829	-86.428	0.031	-0.010
-511.814	72.194	0.087	-0.091
-510.799	-200.000	-0.022	-0.196
-509.785	-200.000	0.001	0.020
-508.770	-119.350	-0.064	-0.011
-507.756	-86.071	0.290	-0.090
-506.741	-200.000	0.014	-0.106
-505.726	236.126	-0.129	0.214
-504.712	-109.459	-0.005	-0.001
-503.697	-200.000	0.002	-0.136
-502.683	-126.194	-0.120	0.018
-501.668	-154.174	0.389	0.026
-500.653	-200.000	-0.014	0.292
-499.639	6.310	-0.244	0.181
-498.624	-200.000	-0.025	-0.214
-497.610	-20.383	-0.056	0.035
-496.595	653.204	0.139	0.356
-495.581	617.246	0.090	-0.227
-494.566	800.000	0.010	-0.038
-493.551	-91.742	-0.190	-0.054
-492.537	800.000	-0.012	-0.040
-491.522	29.036	0.269	0.229
-490.508	-65.881	-0.417	-0.167
-489.493	800.000	0.025	-0.102
-488.478	421.453	0.089	-0.191
-487.464	-69.956	-0.306	0.117
-486.449	218.382	-0.157	0.252
-485.435	-138.951	0.398	-0.043
-484.420	-45.878	0.077	-0.038
-483.405	108.709	-0.112	0.135
-482.391	800.000	-0.054	0.202
-481.376	800.000	-0.084	-0.344
-480.362	-84.509	0.265	0.084
-479.347	57.246	-0.165	0.161
-478.332	99.146	-0.150	-0.174
-477.318	-36.243	-0.030	0.016
-476.303	215.237	0.100	-0.158
-475.289	174.622	0.072	-0.104
-474.274	800.000	-0.031	-0.091
-473.259	-21.559	0.115	-0.070
-472.245	177.776	-0.050	0.072
-471.230	800.000	0.127	0.421
-470.216	-79.345	0.134	0.045
-469.201	-81.794	-0.128	-0.042
-468.186	-200.000	0.055	-0.339
-467.172	-46.633	0.109	0.053
-466.157	-89.695	-0.025	0.007
-465.143	-76.744	-0.231	0.081
-464.128	-62.420	0.163	0.068
-463.113	-200.000	0.057	-0.250
-462.099	-200.000	-0.026	-0.142
-461.084	-133.466	-0.520	0.065
-460.070	83.852	0.110	-0.120
-459.055	-200.000	-0.012	0.211
-458.040	3.507	0.090	-0.065
-457.026	-139.414	0.242	0.026
-456.011	433.292	-0.073	-0.158
-454.997	-200.000	-0.005	-0.321
-453.982	132.342	0.084	0.109
-452.968	-200.000	-0.038	-0.304
-451.953	-180.498	-0.195	0.004
-450.938	26.708	-0.077	0.065
-449.924	-66.777	0.142	-0.056
-448.909	-162.557	0.176	0.009
-447.895	232.050	-0.138	0.226
-446.880	-174.293	-0.156	0.005
-445.865	-200.000	-0.020	-0.133
-444.851	260.605	0.135	0.233
-443.836	-200.000	0.036	-0.177
-442.822	194.432	-0.076	-0.115
-441.807	503.160	0.034	-0.079
-440.792	37.406	0.145	-0.129
-439.778	-77.796	-0.125	0.043
-438.763	800.000	0.101	-0.442
-437.749	4.661	-0.152	-0.112
-436.734	-200.000	0.099	0.633
-435.719	84.106	-0.234	0.256
-434.705	-108.849	0.284	0.061
-433.690	-200.000	0.037	-0.259
-432.676	-89.107	-0.317	-0.094
-431.661	-57.288	-0.256	0.112
-430.646	55.647	-0.118	0.114
-429.632	-62.699	0.032	0.013
-428.617	458.824	-0.049	-0.109
-427.603	599.320	-0.150	0.371
-426.588	111.527	-0.170	-0.205
-425.573	-200.000	-0.019	0.247
-424.559	14.532	-0.237	-0.185
-423.544	28.224	-0.137	0.115
-422.530	-90.247	0.210	-0.061
-421.515	-200.000	-0.295	0.001
-420.500	549.736	-0.047	0.112
-419.486	66.543	0.200	-0.203
-418.471	294.761	-0.141	0.257
-417.457	206.734	0.152	-0.236
-416.442	-200.000	-0.002	0.019
-415.428	138.633	-0.146	0.192
-414.413	-55.915	0.039	-0.017
-413.398	-99.226	-0.353	0.089
-412.384	723.920	-0.079	-0.211
-411.369	-200.000	-0.022	0.131
-410.355	108.881	-0.126	0.151
-409.340	-200.000	-0.039	-0.191
-408.325	25.625	0.030	0.025
-407.311	-200.000	0.006	-0.149
-406.296	-200.000	0.002	0.127
-405.282	-200.000	0.016	0.403
-404.267	800.000	0.020	-0.074
-403.252	400.595	-0.038	-0.080
-402.238	-200.000	-0.024	-0.121
-401.223	47.075	0.109	0.101
-400.209	-59.076	-0.323	0.139
-399.194	-200.000	-0.027	-0.165
-398.179	584.123	-0.108	-0.264
-397.165	619.479	-0.063	0.158
-396.150	-110.258	-0.279	0.058
-395.136	128.058	-0.138	0.176
-394.121	32.468	0.273	0.236
-393.106	75.437	0.061	0.064
-392.092	-137.975	0.157	0.017
-391.077	-147.428	0.080	0.007
-390.063	493.494	-0.106	0.243
-389.048	38.733	0.272	0.243
-388.033	-98.662	-0.386	-0.098
-387.019	-37.840	0.160	0.085
-386.004	-33.237	0.111	-0.061
-384.990	282.996	-0.073	0.131
-383.975	43.083	0.337	0.307
-382.960	529.359	0.063	0.149
-381.946	800.000	-0.030	0.130
-380.931	217.407	0.111	-0.177
-379.917	19.850	-0.040	0.032
-378.902	-200.000	-0.048	-0.211
-377.888	100.538	0.117	0.136
-376.873	-61.347	-0.278	0.117
-375.858	-119.623	-0.130	0.022
-374.844	-165.757	0.094	0.004
-373.829	5.589	0.201	0.148
-372.815	800.000	0.033	-0.137
-371.800	-135.603	-0.018	0.002
-370.785	-21.311	-0.122	-0.074
-369.771	-137.368	0.042	-0.005
-368.756	-86.644	0.163	-0.050
-367.742	11.297	-0.289	-0.221
-366.727	-28.343	-0.140	-0.081
-365.712	-7.756	0.223	0.150
-364.698	254.398	0.099	-0.169
-363.683	800.000	0.047	0.194
-362.669	-60.373	0.309	0.131
-361.654	26.981	0.128	0.107
-360.639	125.976	-0.082	0.103
-359.625	710.527	0.178	-0.471
-358.610	443.900	0.250	-0.546
-357.596	68.923	-0.255	-0.262
-356.581	-126.058	-0.102	-0.015
-355.566	0.261	0.171	-0.121
-354.552	-200.000	-0.017	-0.165
-353.537	800.000	-0.015	0.058
-352.523	800.000	0.097	0.346
-351.508	-83.975	0.220	-0.070
-350.493	-200.000	-0.001	-0.198
-349.479	800.000	0.050	-0.205
-348.464	109.211	-0.006	-0.007
-347.450	800.000	-0.029	0.111
-346.435	2.796	0.268	0.193
-345.420	128.050	0.331	-0.419
-344.406	19.632	-0.417	0.334
-343.391	-166.628	0.271	-0.011
-342.377	4.016	-0.401	-0.292
-341.362	69.706	0.166	0.171
-340.348	-200.000	-0.023	-0.295
-339.333	-112.078	-0.168	-0.034
-338.318	350.240	-0.085	-0.167
-337.304	273.261	0.081	0.142
-336.289	-51.516	0.095	-0.044
-335.275	43.888	0.186	-0.170
-334.260	-74.037	0.147	-0.053
-333.245	5.747	0.203	0.150
-332.231	14.632	0.080	0.062
-331.216	75.014	0.127	0.133
-330.202	48.186	0.137	0.127
-329.187	-31.719	0.274	0.153
-328.172	800.000	0.102	-0.300
-327.158	-89.767	0.067	-0.020
-326.143	-85.062	0.260	0.081
-325.129	-25.385	-0.212	0.125
-324.114	-138.632	0.428	0.047
-323.099	-200.000	-0.022	-0.163
-322.085	91.835	-0.109	-0.122
-321.070	800.000	0.014	-0.055
-320.056	85.768	0.147	-0.161
-319.041	107.290	0.056	-0.066
-318.026	-56.294	0.033	0.015
-317.012	-33.715	-0.461	0.253
-315.997	-7.473	0.358	0.241
-314.983	-97.182	0.139	0.036
-313.968	-82.655	-0.126	0.041
-312.953	-200.000	0.072	0.404
-311.939	800.000	-0.098	0.349
-310.924	-44.751	0.271	0.135
-309.910	-155.572	0.167	0.011
-308.895	539.083	0.160	0.379
-307.880	23.718	-0.241	0.197
-306.866	-200.000	0.013	0.190
-305.851	-19.347	-0.325	0.200
-304.837	-200.000	0.008	-0.208
-303.822	184.005	0.081	0.119
-302.807	-46.547	-0.041	0.020
-301.793	15.052	-0.142	-0.111
-300.778	-169.482	-0.113	-0.004
-299.764	45.837	-0.131	-0.121
-298.749	247.300	0.321	0.539
-297.735	-84.949	-0.059	-0.018
-296.720	-29.404	0.129	-0.073
-295.705	-52.599	0.052	-0.024
-294.691	800.000	0.042	0.168
-293.676	-200.000	-0.049	0.222
-292.662	512.280	0.139	-0.322
-291.647	66.227	0.077	0.078
-290.632	217.814	0.128	-0.203
-289.618	170.837	0.137	0.196
-288.603	199.504	-0.050	0.076
-287.589	800.000	0.081	-0.288
-286.574	-123.257	0.129	0.021
-285.559	-83.598	0.175	-0.056
-284.545	-146.988	0.132	-0.011
-283.530	-73.091	-0.233	0.085
-282.516	554.025	-0.131	0.313
-281.501	124.005	-0.106	-0.132
-280.486	79.092	0.122	0.130
-279.472	800.000	-0.182	0.504
-278.457	-200.000	-0.045	0.268
-277.443	800.000	0.088	0.359
-276.428	627.422	0.121	-0.305
-275.413	283.387	0.112	-0.200
-274.399	-142.462	0.113	0.011
-273.384	-200.000	0.030	0.188
-272.370	800.000	0.014	0.050
-271.355	182.014	-0.101	0.148
-270.340	-171.122	-0.065	-0.002
-269.326	-200.000	0.008	0.192
-268.311	-72.117	-0.314	0.116
-267.297	-142.900	0.305	-0.029
-266.282	-55.582	0.312	-0.139
-265.267	-145.147	-0.378	0.034
-264.253	-67.082	-0.092	-0.036
-263.238	-200.000	-0.084	0.402
-262.224	-90.090	-0.090	-0.026
-261.209	-89.073	0.141	-0.041
-260.195	-49.815	-0.133	0.063
-259.180	-153.541	0.152	0.010
-258.165	88.415	0.062	-0.069
-257.151	1.556	0.347	0.248
-256.136	-59.021	-0.086	0.037
-255.122	-200.000	0.016	-0.094
-254.107	-86.407	-0.253	0.077
-253.092	-63.230	0.154	0.063
-252.078	-118.730	-0.095	0.017
-251.063	-15.417	0.115	0.073
-250.049	800.000	0.025	-0.099
-249.034	745.607	0.091	-0.244
-248.019	326.492	0.116	-0.221
-247.005	-200.000	0.020	-0.136
-245.990	-95.284	0.119	0.032
-244.976	162.602	0.055	-0.076
-243.961	-106.949	-0.257	0.056
-242.946	527.905	0.118	0.277
-241.932	155.877	0.241	0.329
-240.917	71.225	-0.189	-0.194
-239.903	-104.437	-0.174	0.040
-238.888	800.000	-0.014	0.045
-237.873	-7.648	0.478	0.321
-236.859	141.835	0.251	0.331
-235.844	-22.567	0.314	-0.188
-234.830	-33.501	0.233	-0.128
-233.815	-113.855	-0.307	0.059
-232.800	-131.512	0.193	0.025
-231.786	232.849	-0.093	-0.152
-230.771	123.952	0.087	-0.109
-229.757	-200.000	0.016	-0.174
-228.742	-58.311	-0.103	0.045
-227.727	67.150	0.068	-0.069
-226.713	800.000	-0.058	0.177
-225.698	-200.000	-0.018	0.137
-224.684	94.063	0.336	0.378
-223.669	-18.527	-0.114	-0.071
-222.655	-200.000	0.004	0.346
-221.640	800.000	-0.053	0.223
-220.625	-82.130	-0.115	0.037
-219.611	800.000	-0.026	-0.082
-218.596	-162.687	0.308	-0.015
-217.582	-129.803	-0.197	0.027
-216.567	11.408	-0.043	-0.032
-215.552	-122.785	-0.249	0.040
-214.538	-30.094	-0.226	0.128
-213.523	-33.049	-0.124	0.068
-212.509	-3.507	-0.177	-0.122
-211.494	-126.010	-0.245	-0.036
-210.479	-137.122	-0.092	0.010
-209.465	61.441	0.225	-0.222
-208.450	-200.000	-0.011	0.317
-207.436	-0.523	-0.140	0.099
-206.421	-200.000	0.019	-0.258
-205.406	139.526	-0.205	-0.267
-204.392	-200.000	-0.016	-0.128
-203.377	21.537	0.034	0.027
-202.363	-180.449	0.356	0.007
-201.348	-86.467	-0.072	0.022
-200.333	-200.000	-0.001	0.264
-199.319	-141.732	0.387	0.039
-198.304	26.233	0.247	0.204
-197.290	-200.000	-0.002	0.147
-196.275	46.327	0.021	-0.019
-195.260	-112.058	-0.270	-0.054
-194.246	217.703	0.146	-0.231
-193.231	-200.000	0.013	-0.203
-192.217	20.734	0.167	0.134
-191.202	325.505	0.129	-0.244
-190.187	-54.206	0.172	0.077
-189.173	80.890	0.165	-0.177
-188.158	21.499	-0.128	0.103
-187.144	86.818	-0.159	0.174
-186.129	63.552	-0.133	0.132
-185.114	17.308	0.178	-0.140
-184.100	-3.682	-0.275	0.189
-183.085	-189.895	-0.128	-0.001
-182.071	-200.000	-0.027	-0.134
-181.056	800.000	-0.062	-0.172
-180.042	29.418	-0.097	0.082
-179.027	59.600	0.150	-0.146
-178.012	-200.000	0.036	0.519
-176.998	-200.000	0.036	-0.243
-175.983	-106.974	0.048	0.011
-174.969	201.314	-0.197	0.300
-173.954	73.526	-0.223	0.231
-172.939	-200.000	0.010	0.097
-171.925	-114.832	-0.285	-0.054
-170.910	-28.176	-0.166	-0.095
-169.896	-69.991	0.175	-0.066
-168.881	39.375	0.106	0.094
-167.866	-53.020	-0.108	-0.049
-166.852	34.177	0.342	0.295
-165.837	-1.593	-0.123	-0.086
-164.823	-200.000	-0.004	0.039
-163.808	-158.989	-0.434	-0.024
-162.793	-200.000	0.008	0.312
-161.779	-149.765	-0.316	0.025
-160.764	-72.026	0.171	-0.063
-159.750	-117.317	-0.079	-0.014
-158.735	800.000	-0.047	0.158
-157.720	-200.000	-0.008	-0.297
-156.706	-138.805	-0.206	0.022
-155.691	-4.373	-0.378	0.259
-154.677	-86.131	-0.193	-0.059
-153.662	-50.687	-0.120	0.056
-152.647	-196.213	-0.095	0.001
-151.633	42.219	-0.069	-0.062
-150.618	271.658	0.066	0.114
-149.604	-15.392	0.214	0.135
-148.589	800.000	-0.020	-0.058
-147.574	-82.813	-0.145	-0.046
-146.560	80.211	0.161	0.171
-145.545	-4.832	0.179	-0.122
-144.531	467.762	0.167	-0.371
-143.516	-200.000	0.067	-0.449
-142.502	68.025	0.182	-0.184
-141.487	-149.469	-0.185	-0.015
-140.472	-169.737	0.168	0.006
-139.458	3.844	0.176	0.127
-138.443	-200.000	-0.028	-0.225
-137.429	-143.602	0.072	-0.007
-136.414	-64.161	-0.118	0.048
-135.399	-75.855	0.184	0.065
-134.385	-58.151	0.171	-0.073
-133.370	-200.000	0.091	-0.439
-132.356	-200.000	-0.001	0.309
-131.341	11.404	-0.175	-0.133
-130.326	96.503	-0.044	0.050
-129.312	145.930	0.015	-0.020
-128.297	800.000	-0.033	-0.141
-127.283	-130.403	0.389	0.052
-126.268	-98.042	0.223	-0.057
-125.253	-66.993	-0.237	0.092
-124.239	-18.803	0.202	-0.124
-123.224	-187.647	0.180	-0.002
-122.210	-171.551	0.121	-0.004
-121.195	-74.397	0.063	0.022
