DTS Sentinel unit serial number:	SN413079Multiplexer serial number:	ORYXHardware model number:	OX4-SRSoftware version number:	ORYX F/W v4.00 Oryx Data Collector v3.7.2.0data status	okinstallation	princeton_trtdifferential loss correction	single-endedforward channel	channel 1reverse channel	N/Adate	2019/09/12time	15:24:11forward acquisition time	60.00reverse acquisition time	0.00gamma	496.2192k internal	0.2292k external	0.2292temperature offset calibration	1.0066default loss term (dB/km)	0.3790temperature slope calibration	1.0000multiplexer offset coefficient	1.0000multiplexer slope coefficient	1.0000fibre end	0.00T internal ref (°C)	40.75T ext. ref 1 (°C)	2.41T ext. ref 2 (°C)	35.14length (m)	temperature (°C)	Stokes	anti-Stokes-747.200	67.585	0.148	-0.155
-746.185	13.582	0.321	0.255
-745.171	414.084	0.074	-0.162
-744.156	-200.000	0.015	-0.133
-743.142	-28.114	0.127	-0.075
-742.127	384.824	-0.100	0.210
-741.112	0.643	0.225	0.165
-740.098	-200.000	0.089	0.453
-739.083	743.343	0.056	0.154
-738.069	-200.000	0.003	0.231
-737.054	150.601	0.228	-0.317
-736.039	-67.977	-0.386	-0.154
-735.025	-7.890	0.195	0.135
-734.010	-200.000	0.019	0.173
-732.996	117.786	-0.278	-0.351
-731.981	-33.148	-0.376	-0.213
-730.966	447.898	0.151	0.341
-729.952	-32.737	-0.109	0.062
-728.937	372.499	-0.052	-0.109
-727.923	394.174	-0.072	-0.154
-726.908	-200.000	0.053	-0.253
-725.894	632.492	0.098	-0.255
-724.879	221.373	0.117	-0.192
-723.864	800.000	0.063	0.212
-722.850	89.245	-0.085	-0.096
-721.835	68.675	0.087	-0.091
-720.821	-21.172	-0.223	-0.140
-719.806	61.507	0.025	-0.026
-718.791	-177.153	-0.183	-0.005
-717.777	-200.000	-0.031	-0.261
-716.762	2.051	0.299	0.220
-715.748	74.246	-0.143	-0.153
-714.733	-200.000	-0.035	-0.182
-713.718	-175.336	0.071	0.002
-712.704	774.509	-0.079	-0.221
-711.689	561.107	0.062	-0.152
-710.675	384.196	0.157	0.330
-709.660	50.092	-0.067	-0.065
-708.645	302.278	-0.161	-0.304
-707.631	-132.910	-0.172	-0.022
-706.616	-200.000	0.072	0.397
-705.602	404.798	-0.040	0.086
-704.587	-200.000	-0.018	-0.212
-703.572	226.942	-0.081	0.135
-702.558	-200.000	0.003	0.247
-701.543	-200.000	-0.066	-0.328
-700.529	-53.457	0.185	0.086
-699.514	-200.000	0.016	-0.123
-698.499	-144.592	0.179	0.017
-697.485	800.000	0.065	-0.192
-696.470	-107.826	-0.034	-0.007
-695.456	-104.828	0.108	-0.025
-694.441	800.000	0.032	0.120
-693.426	-95.826	-0.317	0.086
-692.412	-37.599	-0.103	0.056
-691.397	-200.000	-0.043	-0.215
-690.383	-16.406	-0.075	0.048
-689.368	-120.714	0.313	-0.054
-688.354	308.223	-0.070	0.134
-687.339	138.546	-0.145	0.194
-686.324	310.880	0.058	0.110
-685.310	95.611	-0.111	-0.129
-684.295	113.972	-0.286	-0.356
-683.281	800.000	-0.093	-0.274
-682.266	19.808	0.098	-0.081
-681.251	205.632	0.159	-0.252
-680.237	-200.000	-0.047	-0.226
-679.222	-16.059	-0.286	0.185
-678.208	800.000	-0.012	-0.052
-677.193	28.723	-0.125	-0.108
-676.178	-22.260	-0.134	-0.083
-675.164	-57.623	0.241	-0.108
-674.149	119.137	-0.158	-0.200
-673.135	-195.856	0.296	-0.002
-672.120	207.590	0.004	-0.006
-671.105	-86.444	-0.037	-0.012
-670.091	-200.000	0.032	0.165
-669.076	201.792	-0.125	0.196
-668.062	-200.000	-0.023	-0.104
-667.047	-122.971	-0.321	0.053
-666.032	-98.523	-0.418	0.109
-665.018	93.068	0.149	-0.172
-664.003	98.738	-0.190	0.223
-662.989	64.813	0.049	0.051
-661.974	192.899	-0.093	-0.143
-660.959	157.181	0.155	0.219
-659.945	196.429	-0.097	0.150
-658.930	-48.302	0.162	0.079
-657.916	800.000	-0.034	0.096
-656.901	-89.393	0.181	-0.054
-655.886	468.407	0.092	-0.210
-654.872	-36.955	-0.378	0.207
-653.857	38.111	-0.116	0.106
-652.843	11.177	0.112	0.087
-651.828	548.273	-0.057	-0.138
-650.814	262.300	-0.125	-0.222
-649.799	10.091	-0.103	-0.079
-648.784	1.096	-0.270	-0.198
-647.770	-200.000	-0.006	0.416
-646.755	-23.914	-0.243	-0.148
-645.741	-200.000	0.064	-0.294
-644.726	-69.106	0.091	0.036
-643.711	-200.000	0.019	0.174
-642.697	-88.549	-0.226	0.069
-641.682	-200.000	-0.040	-0.319
-640.668	42.468	-0.126	-0.117
-639.653	-20.199	-0.466	-0.293
-638.638	-200.000	0.016	-0.229
-637.624	-18.499	-0.172	0.109
-636.609	93.816	0.087	-0.100
-635.595	173.349	0.069	-0.102
-634.580	91.119	-0.134	-0.154
-633.565	-200.000	-0.012	0.073
-632.551	229.901	0.088	0.146
-631.536	27.854	0.041	-0.035
-630.522	-117.973	-0.219	-0.040
-629.507	69.349	0.032	-0.033
-628.492	312.476	0.142	0.271
-627.478	44.261	0.271	-0.253
-626.463	-161.864	0.142	0.007
-625.449	-20.444	0.314	0.197
-624.434	-71.414	-0.127	0.049
-623.419	-46.480	-0.152	0.076
-622.405	-200.000	-0.009	0.050
-621.390	-148.099	0.302	-0.025
-620.376	800.000	0.131	0.441
-619.361	712.577	0.025	0.068
-618.346	-42.791	-0.236	0.122
-617.332	-200.000	-0.038	-0.170
-616.317	-50.356	-0.317	0.153
-615.303	-200.000	-0.013	-0.060
-614.288	-200.000	0.032	-0.343
-613.273	-200.000	-0.040	-0.435
-612.259	37.460	0.075	0.068
-611.244	324.872	0.112	0.217
-610.230	-200.000	-0.013	-0.181
-609.215	300.351	-0.083	-0.156
-608.201	-200.000	0.069	-0.359
-607.186	-19.872	-0.205	0.129
-606.171	-139.837	-0.060	-0.006
-605.157	-8.734	-0.035	-0.024
-604.142	-11.962	0.348	0.232
-603.128	575.753	-0.180	0.448
-602.113	284.915	-0.103	0.188
-601.098	218.868	0.084	-0.137
-600.084	320.347	0.132	-0.255
-599.069	200.654	-0.061	-0.095
-598.055	-200.000	-0.035	0.179
-597.040	118.094	0.056	0.070
-596.025	-178.326	0.458	0.011
-595.011	800.000	-0.111	-0.480
-593.996	78.553	0.157	-0.171
-592.982	800.000	-0.052	-0.153
-591.967	-57.557	0.109	0.048
-590.952	-142.612	0.299	-0.030
-589.938	800.000	-0.052	-0.169
-588.923	-118.309	-0.061	-0.011
-587.909	-200.000	-0.029	0.194
-586.894	310.437	-0.035	-0.066
-585.879	201.182	0.061	0.096
-584.865	-173.795	-0.165	0.005
-583.850	-56.257	-0.114	0.052
-582.836	-83.387	0.141	-0.046
-581.821	2.702	-0.155	-0.115
-580.806	74.397	0.053	-0.056
-579.792	-3.774	-0.356	-0.251
-578.777	-113.796	-0.183	0.036
-577.763	-106.339	-0.120	0.027
-576.748	-7.613	0.334	-0.230
-575.733	800.000	-0.064	-0.219
-574.719	121.128	0.182	-0.230
-573.704	46.347	-0.070	-0.066
-572.690	-114.508	-0.378	0.074
-571.675	-148.986	0.302	-0.025
-570.661	216.659	0.161	0.260
-569.646	56.140	-0.160	-0.158
-568.631	800.000	-0.019	0.075
-567.617	-85.295	-0.260	-0.083
-566.602	800.000	0.046	-0.140
-565.588	140.505	0.132	-0.177
-564.573	-200.000	0.008	-0.199
-563.558	-166.114	-0.290	0.013
-562.544	800.000	-0.031	-0.107
-561.529	-37.219	-0.180	0.098
-560.515	-45.549	-0.115	-0.058
-559.500	-82.562	0.222	-0.073
-558.485	-200.000	0.020	-0.349
-557.471	197.263	0.102	0.158
-556.456	317.591	0.070	-0.134
-555.442	35.921	-0.266	-0.238
-554.427	27.819	-0.326	0.279
-553.412	-200.000	0.011	-0.116
-552.398	-200.000	0.022	0.110
-551.383	-28.917	-0.257	0.150
-550.369	137.280	-0.035	-0.046
-549.354	-200.000	0.013	-0.249
-548.339	-147.229	-0.051	0.004
-547.325	73.255	-0.235	-0.250
-546.310	-176.710	-0.226	0.006
-545.296	-112.241	-0.142	0.029
-544.281	-200.000	-0.035	-0.253
-543.266	-200.000	-0.034	0.268
-542.252	-29.687	0.183	-0.106
-541.237	30.243	0.097	-0.084
-540.223	396.409	-0.130	-0.276
-539.208	-0.922	0.072	-0.052
-538.193	114.082	0.129	0.159
-537.179	247.492	0.034	-0.059
-536.164	649.952	0.031	-0.079
-535.150	-32.548	0.376	-0.213
-534.135	800.000	0.034	0.101
-533.121	14.062	0.157	-0.124
-532.106	-36.417	0.101	-0.055
-531.091	-12.690	-0.332	0.220
-530.077	103.511	0.182	-0.217
-529.062	379.854	0.089	0.186
-528.048	800.000	0.092	-0.356
-527.033	-36.066	0.209	0.115
-526.018	-200.000	0.014	-0.141
-525.004	-97.402	0.269	-0.071
-523.989	-200.000	-0.122	-0.637
-522.975	163.042	-0.045	-0.064
-521.960	-7.411	0.216	0.148
-520.945	-72.375	-0.350	0.131
-519.931	-3.377	-0.121	0.086
-518.916	800.000	-0.027	0.114
-517.902	800.000	-0.087	0.296
-516.887	800.000	0.047	-0.179
-515.872	-27.735	0.111	0.065
-514.858	-200.000	-0.016	-0.272
-513.843	34.531	-0.093	0.082
-512.829	-116.917	-0.252	-0.047
-511.814	444.533	0.074	-0.164
-510.799	-200.000	0.027	0.286
-509.785	-120.952	-0.211	-0.036
-508.770	10.049	-0.086	0.066
-507.756	261.396	-0.107	0.189
-506.741	368.240	-0.130	0.266
-505.726	800.000	-0.025	0.084
-504.712	207.436	-0.085	0.135
-503.697	-200.000	-0.083	-0.000
-502.683	-200.000	-0.029	0.144
-501.668	-200.000	-0.095	0.460
-500.653	-85.060	0.113	-0.036
-499.639	-111.048	-0.168	-0.035
-498.624	-200.000	0.015	0.164
-497.610	12.744	0.210	-0.164
-496.595	-97.566	0.190	-0.050
-495.581	-118.422	0.070	-0.013
-494.566	-66.086	-0.366	-0.148
-493.551	234.429	-0.067	0.113
-492.537	-200.000	0.033	0.157
-491.522	-200.000	0.017	-0.086
-490.508	-200.000	-0.018	-0.133
-489.493	-107.050	-0.105	0.024
-488.478	800.000	-0.026	-0.089
-487.464	-200.000	-0.020	0.105
-486.449	-7.364	0.440	-0.302
-485.435	-125.123	-0.387	-0.060
-484.420	-200.000	-0.005	-0.367
-483.405	-200.000	-0.016	0.245
-482.391	32.979	0.055	-0.048
-481.376	800.000	0.028	-0.095
-480.362	-164.500	0.072	0.003
-479.347	-154.804	-0.092	0.006
-478.332	13.652	-0.205	-0.161
-477.318	-200.000	0.056	0.366
-476.303	157.663	-0.060	-0.084
-475.289	-81.580	-0.255	-0.085
-474.274	-97.286	-0.294	-0.078
-473.259	173.041	0.013	-0.019
-472.245	800.000	0.028	0.102
-471.230	-122.702	0.346	-0.057
-470.216	-92.619	-0.041	-0.012
-469.201	241.657	0.097	-0.164
-468.186	-58.603	0.124	-0.054
-467.172	-76.263	-0.140	-0.050
-466.157	110.949	0.041	0.049
-465.143	17.712	-0.216	0.174
-464.128	-200.000	0.021	0.292
-463.113	-159.400	0.172	0.010
-462.099	19.446	-0.162	-0.132
-461.084	115.162	-0.189	0.234
-460.070	-29.945	0.084	-0.048
-459.055	-200.000	-0.032	0.248
-458.040	-200.000	-0.034	0.206
-457.026	-67.333	0.125	0.050
-456.011	-134.502	0.189	0.023
-454.997	-200.000	-0.004	0.094
-453.982	53.209	0.229	0.222
-452.968	238.526	0.011	-0.018
-451.953	-50.109	-0.335	0.160
-450.938	122.371	-0.141	-0.178
-449.924	243.961	0.082	0.139
-448.909	25.875	-0.054	-0.046
-447.895	78.424	-0.053	0.058
-446.880	-78.099	0.101	-0.035
-445.865	-109.795	-0.220	-0.047
-444.851	78.826	-0.253	0.274
-443.836	-200.000	-0.028	0.183
-442.822	-123.748	-0.365	-0.058
-441.807	133.257	0.300	0.392
-440.792	-200.000	0.000	0.180
-439.778	-200.000	0.024	0.148
-438.763	-151.032	0.377	-0.029
-437.749	800.000	0.062	0.179
-436.734	98.157	0.344	0.401
-435.719	23.571	-0.049	0.041
-434.705	800.000	-0.023	0.082
-433.690	199.708	-0.066	-0.102
-432.676	-93.366	0.250	-0.070
-431.661	121.875	-0.044	0.056
-430.646	317.150	0.209	0.399
-429.632	-200.000	-0.086	-0.457
-428.617	62.927	0.154	0.156
-427.603	-26.986	0.166	-0.098
-426.588	-166.238	0.373	0.016
-425.573	-200.000	-0.026	0.326
-424.559	-200.000	0.009	0.285
-423.544	-200.000	-0.005	0.358
-422.530	6.550	-0.340	0.256
-421.515	-78.246	-0.160	0.056
-420.500	-174.768	0.351	0.010
-419.486	800.000	-0.044	0.183
-418.471	275.139	0.214	-0.383
-417.457	23.157	0.210	-0.174
-416.442	70.874	-0.043	-0.045
-415.428	151.945	-0.154	-0.212
-414.413	-12.098	-0.083	-0.055
-413.398	-200.000	-0.031	-0.241
-412.384	59.090	0.169	0.169
-411.369	-8.826	-0.137	0.093
-410.355	-75.790	0.307	0.110
-409.340	123.329	-0.132	0.167
-408.325	-129.010	0.306	0.043
-407.311	-200.000	-0.014	-0.273
-406.296	-34.413	-0.050	0.028
-405.282	-134.423	0.514	-0.064
-404.267	-63.065	-0.378	0.158
-403.252	-100.590	-0.106	-0.026
-402.238	410.387	0.102	-0.219
-401.223	252.214	0.075	0.130
-400.209	-149.940	0.503	0.040
-399.194	668.059	-0.105	-0.275
-398.179	-23.858	0.153	-0.092
-397.165	-96.259	-0.100	-0.027
-396.150	-200.000	0.004	-0.081
-395.136	173.254	-0.078	-0.113
-394.121	164.060	-0.075	0.107
-393.106	39.655	-0.144	0.131
-392.092	-17.043	-0.159	0.101
-391.077	800.000	-0.042	-0.125
-390.063	58.793	-0.083	0.083
-389.048	32.348	0.257	-0.224
-388.033	-200.000	0.001	-0.442
-387.019	-67.445	0.257	0.102
-386.004	8.580	-0.349	0.265
-384.990	-55.271	0.277	0.126
-383.975	-200.000	0.032	0.193
-382.960	18.011	0.303	0.244
-381.946	-153.986	0.487	-0.033
-380.931	-200.000	-0.031	-0.342
-379.917	800.000	0.104	-0.372
-378.902	-154.879	-0.228	-0.015
-377.888	-191.838	-0.218	-0.002
-376.873	-200.000	-0.024	-0.244
-375.858	-37.097	0.138	-0.075
-374.844	-200.000	0.009	-0.084
-373.829	516.342	-0.068	0.161
-372.815	-200.000	0.029	0.239
-371.800	-99.099	-0.205	-0.052
-370.785	800.000	0.116	0.374
-369.771	179.814	-0.110	0.163
-368.756	105.344	-0.003	-0.004
-367.742	378.210	0.079	-0.162
-366.727	800.000	0.077	0.335
-365.712	800.000	-0.086	-0.267
-364.698	-184.346	0.130	0.002
-363.683	705.164	0.008	-0.021
-362.669	-200.000	0.009	0.168
-361.654	62.321	-0.325	-0.327
-360.639	-85.734	-0.292	-0.091
-359.625	138.888	0.218	0.289
-358.610	406.042	0.106	0.226
-357.596	-126.015	-0.185	-0.028
-356.581	8.426	0.234	-0.177
-355.566	-10.797	-0.277	0.185
-354.552	354.980	-0.144	0.289
-353.537	-60.641	0.254	-0.109
-352.523	-200.000	0.002	0.138
-351.508	271.601	-0.146	-0.260
-350.493	-100.830	-0.271	0.067
-349.479	575.483	-0.125	0.309
-348.464	-200.000	0.020	0.137
-347.450	152.943	-0.168	-0.231
-346.435	-114.614	0.082	0.016
-345.420	148.098	-0.137	0.186
-344.406	37.295	0.111	-0.099
-343.391	72.314	-0.147	-0.155
-342.377	-10.846	0.096	-0.064
-341.362	684.068	-0.083	0.218
-340.348	-200.000	-0.002	0.413
-339.333	712.616	0.054	-0.144
-338.318	-82.054	-0.100	-0.033
-337.304	-10.976	-0.291	-0.194
-336.289	-123.619	0.081	-0.013
-335.275	-140.669	0.098	-0.010
-334.260	800.000	0.059	-0.188
-333.245	-37.238	0.196	0.105
-332.231	-129.259	-0.115	-0.016
-331.216	-66.039	0.064	0.026
-330.202	-64.584	-0.091	-0.037
-329.187	-39.621	-0.197	-0.104
-328.172	0.386	0.110	-0.079
-327.158	34.963	-0.255	0.225
-326.143	-0.493	0.147	-0.105
-325.129	-9.387	-0.127	-0.085
-324.114	-195.652	0.356	-0.003
-323.099	-1.791	0.192	0.136
-322.085	-80.753	0.158	-0.053
-321.070	-102.227	0.282	-0.068
-320.056	800.000	-0.043	-0.133
-319.041	-200.000	-0.018	-0.205
-318.026	-200.000	-0.075	0.340
-317.012	196.939	-0.143	-0.219
-315.997	167.292	0.159	0.227
-314.983	-60.320	-0.254	-0.109
-313.968	-200.000	-0.068	-0.314
-312.953	112.535	-0.201	0.245
-311.939	-97.781	-0.181	0.047
-310.924	-138.286	0.138	-0.015
-309.910	-13.124	0.073	0.048
-308.895	-119.085	-0.288	0.051
-307.880	-200.000	-0.036	-0.295
-306.866	-36.287	0.085	-0.046
-305.851	34.532	-0.141	-0.124
-304.837	-169.335	0.263	0.010
-303.822	544.521	0.129	-0.310
-302.807	800.000	-0.031	-0.103
-301.793	561.533	-0.117	0.284
-300.778	2.421	-0.185	0.135
-299.764	-77.715	0.118	0.041
-298.749	-200.000	-0.022	-0.142
-297.735	-95.710	-0.252	-0.068
-296.720	-200.000	0.001	-0.019
-295.705	-200.000	-0.024	0.167
-294.691	-200.000	0.054	-0.314
-293.676	258.489	-0.086	-0.150
-292.662	-106.673	0.255	0.057
-291.647	-52.925	0.243	0.113
-290.632	-184.154	0.316	-0.005
-289.618	133.688	0.044	-0.058
-288.603	-136.198	0.115	-0.014
-287.589	5.060	-0.104	-0.077
-286.574	-17.304	0.054	0.035
-285.559	-97.172	0.078	-0.020
-284.545	205.307	0.107	-0.167
-283.530	-106.648	0.208	-0.047
-282.516	158.066	-0.189	-0.263
-281.501	800.000	-0.097	0.417
-280.486	75.628	-0.131	-0.139
-279.472	-148.617	0.068	0.006
-278.457	-163.676	-0.384	0.018
-277.443	-100.726	-0.088	-0.022
-276.428	29.722	-0.201	0.172
-275.413	-28.836	-0.289	-0.167
-274.399	34.776	0.142	-0.124
-273.384	-93.612	0.162	0.045
-272.370	-95.055	0.252	0.068
-271.355	-32.565	0.097	-0.055
-270.340	0.924	0.210	0.151
-269.326	11.209	0.170	0.130
-268.311	1.282	0.170	0.123
-267.297	-200.000	0.016	0.258
-266.282	800.000	0.071	-0.258
-265.267	16.376	0.132	0.105
-264.253	658.715	0.063	-0.163
-263.238	120.626	-0.178	-0.222
-262.224	45.832	0.300	0.278
-261.209	-40.613	-0.338	-0.176
-260.195	-55.994	0.246	0.110
-259.180	-138.936	0.364	0.040
-258.165	26.980	-0.254	0.214
-257.151	800.000	-0.042	0.145
-256.136	-200.000	-0.017	-0.117
-255.122	101.058	0.192	-0.224
-254.107	257.296	-0.268	-0.463
-253.092	53.804	-0.175	-0.169
-252.078	-200.000	0.043	-0.201
-251.063	66.387	-0.140	-0.143
-250.049	800.000	0.046	-0.186
-249.034	-200.000	-0.007	-0.053
-248.019	17.281	-0.058	0.046
-247.005	-155.893	-0.405	-0.026
-245.990	-120.101	-0.271	-0.047
-244.976	-155.427	0.456	0.030
-243.961	642.511	-0.017	0.043
-242.946	-30.515	-0.302	0.172
-241.932	96.085	-0.131	-0.150
-240.917	-200.000	0.066	0.324
-239.903	-200.000	-0.010	0.090
-238.888	218.766	0.097	0.155
-237.873	-160.499	0.112	-0.006
-236.859	-88.757	0.447	0.133
-235.844	79.364	0.028	0.030
-234.830	-200.000	-0.019	-0.096
-233.815	800.000	0.070	0.297
-232.800	446.745	-0.156	-0.345
-231.786	-196.518	0.098	0.001
-230.771	477.188	0.144	0.326
-229.757	800.000	0.069	-0.213
-228.742	-200.000	-0.017	-0.093
-227.727	-54.845	-0.141	-0.064
-226.713	-200.000	0.022	0.404
-225.698	70.011	-0.210	0.217
-224.684	-200.000	-0.010	-0.123
-223.669	4.195	0.290	0.213
-222.655	-87.764	-0.218	-0.066
-221.640	-105.737	-0.262	-0.059
-220.625	333.767	-0.191	-0.371
-219.611	800.000	-0.098	0.397
-218.596	-25.235	-0.168	-0.100
-217.582	-135.077	0.243	0.029
-216.567	-117.886	0.212	-0.038
-215.552	-132.843	-0.115	0.015
-214.538	193.316	-0.099	-0.150
-213.523	-180.576	-0.320	0.007
-212.509	80.723	-0.055	-0.060
-211.494	190.776	-0.235	0.354
-210.479	800.000	-0.091	-0.351
-209.465	800.000	-0.030	0.121
-208.450	-114.602	0.333	-0.064
-207.436	-200.000	-0.052	0.479
-206.421	277.790	0.060	0.108
-205.406	212.414	0.030	-0.048
-204.392	103.300	0.178	0.209
-203.377	-43.438	-0.153	-0.078
-202.363	321.295	0.097	0.185
-201.348	469.304	-0.029	0.065
-200.333	13.268	0.084	0.066
-199.319	-19.617	-0.072	-0.044
-198.304	24.097	-0.102	0.084
-197.290	-46.061	-0.035	-0.017
-196.275	-52.689	0.324	-0.150
-195.260	-200.000	-0.060	0.347
-194.246	299.095	-0.079	0.147
-193.231	-172.588	0.270	-0.009
-192.217	-80.204	-0.152	-0.051
-191.202	-126.559	0.282	-0.042
-190.187	0.157	0.215	-0.153
-189.173	23.051	0.100	0.082
-188.158	113.013	-0.086	0.104
-187.144	19.836	0.076	-0.061
-186.129	-113.579	0.267	-0.052
-185.114	-200.000	0.016	-0.340
-184.100	-20.095	-0.201	-0.124
-183.085	21.251	0.030	-0.024
-182.071	173.352	-0.186	-0.268
-181.056	213.003	0.245	-0.387
-180.042	-200.000	-0.009	0.172
-179.027	800.000	-0.093	0.266
-178.012	50.438	-0.178	0.168
-176.998	800.000	-0.015	0.044
-175.983	112.270	-0.127	-0.154
-174.969	171.252	0.150	0.215
-173.954	26.833	-0.121	-0.101
-172.939	-23.354	0.331	-0.199
-171.925	-117.609	0.165	0.030
-170.910	-200.000	-0.006	-0.119
-169.896	203.312	-0.164	-0.254
-168.881	14.145	0.090	0.070
-167.866	-13.930	0.113	0.073
-166.852	-200.000	-0.065	0.351
-165.837	-23.425	0.099	-0.060
-164.823	-179.704	0.188	0.004
-163.808	800.000	0.123	0.379
-162.793	190.539	-0.127	-0.191
-161.779	800.000	-0.076	0.258
-160.764	-60.174	-0.024	-0.010
-159.750	800.000	0.023	0.087
-158.735	30.295	0.181	0.155
-157.720	-90.653	0.123	0.036
-156.706	46.958	0.278	0.258
-155.691	-12.409	-0.103	-0.067
-154.677	-107.816	-0.359	0.078
-153.662	-77.153	0.306	-0.107
-152.647	-200.000	0.040	0.366
-151.633	-126.580	0.131	-0.019
-150.618	-79.350	-0.099	-0.034
-149.604	-154.738	0.113	-0.007
-148.589	18.555	0.284	0.227
-147.574	-200.000	0.006	0.058
-146.560	-40.993	0.547	-0.282
-145.545	130.168	-0.212	0.272
-144.531	201.236	0.111	-0.171
-143.516	11.579	-0.227	0.174
-142.502	-76.959	-0.254	-0.089
-141.487	410.038	0.080	-0.170
-140.472	298.971	0.177	0.326
-139.458	-43.105	-0.263	0.133
-138.443	-173.599	0.072	-0.002
-137.429	27.957	0.242	-0.204
-136.414	357.556	-0.010	0.020
-135.399	520.951	-0.069	0.161
-134.385	-33.734	-0.091	0.050
-133.370	1.208	0.218	0.156
-132.356	-200.000	0.005	-0.351
-131.341	-45.357	-0.290	-0.144
-130.326	-122.669	0.311	-0.050
-129.312	-31.137	0.068	-0.039
-128.297	-200.000	-0.028	0.200
-127.283	532.711	0.181	0.427
-126.268	-200.000	0.025	-0.151
-125.253	-137.414	-0.116	-0.013
-124.239	-5.237	0.359	-0.247
-123.224	441.485	-0.100	-0.219
-122.210	6.478	0.205	-0.152
