DTS Sentinel unit serial number:	SN413079Multiplexer serial number:	ORYXHardware model number:	OX4-SRSoftware version number:	ORYX F/W v4.00 Oryx Data Collector v3.7.2.0data status	okinstallation	princeton_trtdifferential loss correction	single-endedforward channel	channel 1reverse channel	N/Adate	2019/09/14time	08:54:35forward acquisition time	60.00reverse acquisition time	0.00gamma	496.2192k internal	0.2325k external	0.2325temperature offset calibration	1.0072default loss term (dB/km)	0.3790temperature slope calibration	1.0000multiplexer offset coefficient	1.0000multiplexer slope coefficient	1.0000fibre end	0.00T internal ref (°C)	29.59T ext. ref 1 (°C)	3.70T ext. ref 2 (°C)	27.60length (m)	temperature (°C)	Stokes	anti-Stokes-747.200	-38.946	-0.217	0.116
-746.185	800.000	0.074	0.313
-745.171	-200.000	-0.015	-0.088
-744.156	-200.000	-0.014	0.086
-743.142	135.213	0.100	-0.131
-742.127	574.418	-0.092	0.226
-741.112	11.564	0.029	0.022
-740.098	-40.770	-0.124	0.065
-739.083	800.000	-0.027	-0.102
-738.069	107.544	0.074	0.089
-737.054	23.334	-0.185	0.153
-736.039	50.795	-0.453	-0.433
-735.025	-200.000	-0.023	0.245
-734.010	-0.914	0.135	0.096
-732.996	1.234	0.034	-0.024
-731.981	238.032	0.058	0.098
-730.966	-78.142	0.141	0.049
-729.952	482.840	-0.085	0.196
-728.937	-137.383	0.170	-0.019
-727.923	-200.000	-0.048	0.301
-726.908	-128.875	0.384	0.054
-725.894	611.011	0.027	-0.069
-724.879	-200.000	0.030	-0.190
-723.864	-200.000	0.031	0.297
-722.850	-89.360	-0.319	0.095
-721.835	155.977	0.250	-0.348
-720.821	-160.290	-0.270	-0.015
-719.806	-200.000	0.020	-0.377
-718.791	-86.290	-0.315	-0.098
-717.777	-200.000	0.024	0.270
-716.762	15.743	-0.164	-0.130
-715.748	135.933	-0.043	-0.057
-714.733	-34.894	-0.241	0.133
-713.718	712.798	0.146	-0.389
-712.704	800.000	0.138	0.419
-711.689	69.648	-0.130	0.135
-710.675	-127.644	-0.193	-0.028
-709.660	-14.242	-0.115	-0.075
-708.645	-155.925	0.102	-0.007
-707.631	-94.887	-0.220	0.060
-706.616	518.700	-0.030	-0.072
-705.602	-132.756	-0.174	0.022
-704.587	-200.000	0.023	-0.113
-703.572	-12.953	-0.067	0.044
-702.558	-200.000	0.074	0.562
-701.543	-200.000	0.029	-0.158
-700.529	-34.364	0.085	-0.047
-699.514	-200.000	-0.014	0.085
-698.499	-173.866	-0.245	0.007
-697.485	198.468	0.075	0.116
-696.470	-200.000	-0.033	-0.164
-695.456	-69.048	-0.195	0.076
-694.441	-135.746	-0.124	-0.015
-693.426	102.317	0.262	0.308
-692.412	800.000	-0.114	0.337
-691.397	-50.304	-0.162	-0.077
-690.383	-200.000	-0.024	-0.430
-689.368	-94.573	-0.194	-0.053
-688.354	123.240	0.077	0.097
-687.339	-200.000	0.008	-0.170
-686.324	-200.000	0.004	-0.542
-685.310	-101.048	-0.352	0.087
-684.295	327.416	0.099	0.191
-683.281	-200.000	-0.017	-0.109
-682.266	-46.887	0.154	0.076
-681.251	-74.975	0.101	-0.036
-680.237	125.653	-0.271	-0.345
-679.222	661.773	0.154	-0.400
-678.208	-43.979	0.141	-0.072
-677.193	-72.504	-0.124	-0.046
-676.178	0.469	-0.412	-0.297
-675.164	-124.402	-0.302	0.047
-674.149	-39.275	-0.110	0.058
-673.135	81.848	-0.223	-0.243
-672.120	-66.797	-0.063	0.025
-671.105	761.605	-0.048	0.132
-670.091	-200.000	-0.004	-0.033
-669.076	-3.320	-0.029	0.020
-668.062	800.000	0.037	0.110
-667.047	800.000	0.018	0.065
-666.032	-23.212	0.364	-0.220
-665.018	-168.457	0.027	0.001
-664.003	-200.000	-0.011	0.322
-662.989	-130.831	-0.259	0.035
-661.974	-134.045	-0.116	0.014
-660.959	73.888	0.194	-0.205
-659.945	-200.000	-0.004	-0.030
-658.930	-94.415	-0.251	0.069
-657.916	116.737	-0.115	-0.142
-656.901	-83.051	0.243	0.079
-655.886	-55.754	0.251	-0.113
-654.872	54.879	0.139	-0.135
-653.857	-13.421	0.297	0.194
-652.843	-37.955	-0.314	-0.168
-651.828	800.000	0.082	-0.234
-650.814	223.023	0.111	-0.181
-649.799	-86.670	-0.088	-0.027
-648.784	22.322	0.143	-0.118
-647.770	-10.696	-0.456	0.303
-646.755	229.895	0.064	-0.105
-645.741	-22.009	-0.325	0.198
-644.726	-21.534	0.182	-0.112
-643.711	-200.000	0.027	-0.168
-642.697	-136.803	-0.255	-0.030
-641.682	-43.651	-0.298	0.151
-640.668	-115.515	-0.167	0.032
-639.653	-83.028	-0.251	-0.081
-638.638	-167.418	-0.276	-0.011
-637.624	-200.000	0.066	-0.300
-636.609	117.622	-0.144	-0.178
-635.595	34.251	-0.179	0.157
-634.580	-64.459	0.153	0.063
-633.565	30.378	-0.106	-0.091
-632.551	-84.103	0.249	0.079
-631.536	390.226	-0.124	0.258
-630.522	-85.694	0.379	0.118
-629.507	-39.036	0.199	0.105
-628.492	-5.642	-0.262	-0.181
-627.478	800.000	0.012	-0.039
-626.463	27.222	-0.178	0.150
-625.449	800.000	0.029	-0.126
-624.434	125.901	-0.154	-0.196
-623.419	-189.749	-0.338	0.004
-622.405	125.059	0.203	0.257
-621.390	122.807	-0.076	-0.095
-620.376	286.194	0.094	0.170
-619.361	184.645	-0.007	-0.010
-618.346	208.923	0.091	-0.143
-617.332	800.000	-0.041	-0.173
-616.317	-92.122	0.169	-0.048
-615.303	51.628	-0.106	-0.101
-614.288	-8.772	0.076	-0.051
-613.273	-96.333	-0.356	0.095
-612.259	-127.900	0.088	0.013
-611.244	84.954	0.150	-0.165
-610.230	85.079	-0.225	-0.248
-609.215	-32.593	-0.254	-0.142
-608.201	701.567	-0.109	0.287
-607.186	-108.132	0.442	0.096
-606.171	95.814	-0.075	-0.086
-605.157	-200.000	-0.003	0.117
-604.142	332.032	0.094	0.181
-603.128	181.688	-0.178	0.263
-602.113	800.000	0.038	0.155
-601.098	54.924	-0.167	0.162
-600.084	43.964	0.025	0.023
-599.069	-94.762	0.346	0.094
-598.055	-150.031	0.091	0.007
-597.040	-116.103	0.153	0.029
-596.025	-200.000	0.001	-0.041
-595.011	-167.727	0.131	0.005
-593.996	-46.891	0.326	0.160
-592.982	800.000	-0.048	-0.162
-591.967	-200.000	0.004	0.075
-590.952	277.661	-0.052	0.093
-589.938	-72.086	0.141	-0.053
-588.923	-146.745	-0.231	-0.020
-587.909	10.376	0.248	0.189
-586.894	-200.000	-0.054	-0.245
-585.879	-200.000	0.054	-0.511
-584.865	584.317	-0.049	-0.122
-583.850	-200.000	0.034	-0.174
-582.836	-200.000	-0.088	-0.436
-581.821	-137.230	0.203	-0.023
-580.806	-23.550	-0.232	-0.140
-579.792	-200.000	0.006	0.065
-578.777	-12.591	0.326	0.213
-577.763	1.142	-0.072	-0.052
-576.748	-200.000	0.011	-0.102
-575.733	-200.000	-0.002	0.037
-574.719	190.310	0.108	-0.162
-573.704	-76.096	0.263	-0.093
-572.690	282.421	0.207	-0.371
-571.675	800.000	-0.093	-0.402
-570.661	104.191	0.175	-0.206
-569.646	-42.048	-0.130	-0.067
-568.631	-40.662	-0.158	-0.082
-567.617	740.986	-0.127	0.343
-566.602	800.000	0.059	-0.231
-565.588	508.087	-0.125	-0.291
-564.573	295.834	0.087	0.159
-563.558	-162.913	-0.116	-0.006
-562.544	-164.455	0.179	0.008
-561.529	9.619	-0.268	0.204
-560.515	517.837	0.070	-0.163
-559.500	-1.803	0.122	-0.086
-558.485	-145.859	-0.179	0.016
-557.471	84.553	-0.186	0.204
-556.456	-200.000	0.002	-0.163
-555.442	-200.000	-0.036	-0.175
-554.427	-104.172	0.137	0.032
-553.412	-45.309	-0.113	-0.056
-552.398	-62.630	0.121	-0.050
-551.383	-96.865	0.201	-0.053
-550.369	36.691	-0.095	0.084
-549.354	57.899	0.137	0.135
-548.339	800.000	0.051	0.197
-547.325	-140.048	0.089	-0.009
-546.310	244.102	-0.059	0.099
-545.296	784.835	-0.126	-0.347
-544.281	113.434	-0.033	-0.040
-543.266	20.343	-0.197	0.159
-542.252	-11.682	0.065	0.043
-541.237	700.671	0.112	-0.295
-540.223	-14.483	-0.056	-0.036
-539.208	430.877	0.059	-0.129
-538.193	800.000	0.040	0.129
-537.179	-142.372	0.327	0.032
-536.164	-130.097	0.235	0.032
-535.150	-84.357	0.311	0.099
-534.135	-160.280	-0.247	-0.013
-533.121	362.955	0.138	0.277
-532.106	8.253	-0.115	0.086
-531.091	-12.723	-0.253	-0.165
-530.077	-200.000	-0.020	0.115
-529.062	-200.000	-0.002	0.117
-528.048	-53.328	-0.117	0.054
-527.033	-55.059	-0.131	0.059
-526.018	-69.284	0.142	-0.054
-525.004	431.605	0.037	-0.081
-523.989	-200.000	0.078	-0.399
-522.975	290.841	-0.208	0.379
-521.960	-200.000	0.057	-0.321
-520.945	-81.766	0.194	0.064
-519.931	-79.586	-0.158	-0.053
-518.916	527.361	-0.140	-0.330
-517.902	-200.000	0.011	-0.084
-516.887	-127.630	0.227	-0.033
-515.872	56.248	-0.297	0.288
-514.858	-144.715	0.170	0.016
-513.843	-49.537	0.064	0.031
-512.829	-0.825	-0.119	0.084
-511.814	246.144	-0.099	-0.166
-510.799	333.955	-0.118	-0.228
-509.785	28.591	-0.014	-0.012
-508.770	-158.810	-0.172	0.010
-507.756	777.824	0.055	-0.150
-506.741	5.316	0.074	-0.054
-505.726	275.142	0.203	-0.359
-504.712	418.698	0.121	-0.258
-503.697	-23.156	0.219	-0.132
-502.683	-160.962	-0.220	0.012
-501.668	-56.953	0.188	-0.083
-500.653	-200.000	0.022	-0.123
-499.639	-66.373	-0.742	-0.295
-498.624	-22.056	0.285	0.173
-497.610	62.789	0.269	-0.269
-496.595	59.158	-0.185	0.182
-495.581	-98.108	0.021	-0.005
-494.566	-200.000	-0.015	-0.210
-493.551	432.710	-0.056	0.122
-492.537	112.976	-0.123	-0.149
-491.522	-83.362	0.295	-0.094
-490.508	-200.000	-0.365	0.002
-489.493	57.461	-0.155	-0.152
-488.478	-39.316	0.295	-0.155
-487.464	-79.167	0.206	0.070
-486.449	-200.000	-0.052	-0.229
-485.435	238.443	-0.148	-0.245
-484.420	339.367	-0.092	-0.178
-483.405	-200.000	0.017	-0.147
-482.391	-200.000	0.050	-0.235
-481.376	-25.731	-0.183	0.108
-480.362	41.859	0.015	-0.014
-479.347	800.000	-0.016	0.045
-478.332	-200.000	0.006	0.148
-477.318	-5.806	-0.210	-0.143
-476.303	-1.138	0.229	-0.162
-475.289	-117.028	0.121	0.022
-474.274	-200.000	0.152	0.000
-473.259	-93.248	-0.185	0.051
-472.245	800.000	-0.067	0.213
-471.230	-184.975	-0.226	-0.004
-470.216	-3.055	-0.262	0.182
-469.201	-32.652	0.117	0.065
-468.186	800.000	0.095	0.262
-467.172	-58.280	-0.354	-0.154
-466.157	84.480	0.093	0.101
-465.143	-76.815	-0.182	-0.064
-464.128	225.019	0.036	-0.058
-463.113	288.843	-0.132	0.239
-462.099	-165.366	0.092	0.004
-461.084	195.591	0.071	0.107
-460.070	-200.000	-0.004	0.070
-459.055	231.991	0.029	0.047
-458.040	160.408	-0.081	-0.113
-457.026	304.935	0.175	-0.324
-456.011	94.274	0.157	0.178
-454.997	800.000	0.063	0.178
-453.982	0.117	-0.191	0.136
-452.968	-200.000	0.022	-0.348
-451.953	-107.627	0.190	-0.041
-450.938	-200.000	0.019	-0.086
-449.924	-66.222	-0.182	-0.072
-448.909	780.509	-0.085	0.233
-447.895	-99.928	-0.310	0.077
-446.880	272.551	0.130	0.229
-445.865	-69.425	-0.200	-0.076
-444.851	247.348	0.131	-0.220
-443.836	-200.000	0.002	0.282
-442.822	-200.000	0.018	0.197
-441.807	-168.339	-0.058	0.002
-440.792	800.000	0.074	-0.218
-439.778	-200.000	0.023	-0.258
-438.763	-148.405	-0.124	0.010
-437.749	-136.654	0.196	-0.023
-436.734	-38.317	-0.085	0.045
-435.719	-42.112	0.071	0.036
-434.705	800.000	-0.078	0.340
-433.690	800.000	-0.099	0.312
-432.676	267.953	-0.174	0.304
-431.661	306.236	0.069	-0.129
-430.646	31.635	0.077	0.066
-429.632	510.130	-0.067	0.156
-428.617	137.940	0.083	-0.109
-427.603	800.000	-0.071	0.200
-426.588	225.249	-0.121	-0.196
-425.573	-14.260	-0.231	-0.148
-424.559	157.483	0.082	-0.113
-423.544	-82.212	0.293	-0.095
-422.530	86.433	0.179	-0.196
-421.515	103.363	0.097	0.114
-420.500	-64.856	-0.192	0.077
-419.486	-200.000	-0.011	0.197
-418.471	30.730	0.037	-0.032
-417.457	-25.899	0.156	0.092
-416.442	-91.232	-0.053	0.015
-415.428	-45.940	-0.289	-0.142
-414.413	-200.000	-0.022	0.191
-413.398	497.783	0.192	-0.440
-412.384	435.050	0.101	-0.219
-411.369	-99.525	-0.228	0.057
-410.355	-77.521	0.202	-0.070
-409.340	-41.895	0.175	-0.089
-408.325	41.305	0.144	0.130
-407.311	241.696	-0.050	0.082
-406.296	-200.000	-0.047	0.347
-405.282	-200.000	-0.008	0.047
-404.267	800.000	-0.019	-0.057
-403.252	-27.903	-0.196	-0.113
-402.238	-98.402	-0.115	-0.029
-401.223	-200.000	0.022	0.156
-400.209	-87.672	-0.265	0.080
-399.194	337.485	0.039	0.075
-398.179	44.997	-0.286	-0.262
-397.165	-116.217	-0.076	-0.014
-396.150	9.896	0.240	0.181
-395.136	-110.138	0.297	0.062
-394.121	76.408	-0.103	0.109
-393.106	-22.262	0.129	-0.078
-392.092	-200.000	-0.010	-0.084
-391.077	-130.241	-0.228	0.031
-390.063	800.000	-0.051	0.145
-389.048	-175.765	0.200	-0.005
-388.033	-70.397	-0.165	-0.062
-387.019	-180.993	-0.111	-0.002
-386.004	39.934	-0.109	0.097
-384.990	607.115	-0.114	0.282
-383.975	260.794	-0.057	-0.098
-382.960	-21.546	-0.098	0.059
-381.946	-200.000	-0.018	0.281
-380.931	-200.000	-0.011	0.100
-379.917	-36.453	0.159	0.085
-378.902	87.377	-0.140	-0.154
-377.888	-149.327	0.156	0.012
-376.873	-74.016	-0.166	0.060
-375.858	-200.000	-0.008	-0.134
-374.844	-200.000	0.007	-0.035
-373.829	115.610	-0.146	0.177
-372.815	800.000	-0.151	0.644
-371.800	197.824	-0.191	0.290
-370.785	-200.000	0.024	0.111
-369.771	-200.000	0.000	-0.152
-368.756	69.922	0.067	0.068
-367.742	-102.361	0.442	0.105
-366.727	341.088	-0.054	-0.104
-365.712	52.462	0.116	-0.110
-364.698	-200.000	-0.048	-0.232
-363.683	48.808	0.310	-0.289
-362.669	7.815	-0.116	-0.086
-361.654	-31.043	0.121	0.068
-360.639	72.759	0.137	0.142
-359.625	337.578	-0.069	0.134
-358.610	-101.230	-0.196	0.048
-357.596	-200.000	-0.030	-0.139
-356.581	286.491	0.123	-0.220
-355.566	424.925	0.058	0.125
-354.552	168.143	0.157	-0.222
-353.537	143.919	-0.249	0.330
-352.523	-113.943	-0.122	-0.024
-351.508	-122.885	0.066	0.011
-350.493	-157.967	0.127	-0.007
-349.479	800.000	-0.056	-0.231
-348.464	-103.877	-0.152	-0.035
-347.450	-200.000	-0.001	-0.189
-346.435	800.000	0.047	-0.147
-345.420	800.000	-0.036	0.117
-344.406	-165.565	0.258	0.011
-343.391	-69.639	0.166	0.063
-342.377	-5.016	0.112	-0.077
-341.362	33.458	-0.234	-0.202
-340.348	108.596	0.062	-0.073
-339.333	8.947	0.138	-0.103
-338.318	97.669	-0.045	0.051
-337.304	8.868	-0.110	-0.083
-336.289	-121.996	-0.315	0.051
-335.275	793.922	0.074	0.202
-334.260	20.079	-0.094	0.076
-333.245	299.929	0.025	0.045
-332.231	76.693	0.133	-0.140
-331.216	-200.000	-0.024	0.160
-330.202	-57.576	-0.128	-0.056
-329.187	-200.000	0.019	-0.306
-328.172	-175.260	-0.065	0.002
-327.158	-105.158	-0.360	0.082
-326.143	-59.218	-0.185	-0.079
-325.129	-94.724	-0.230	0.062
-324.114	-200.000	-0.028	0.158
-323.099	800.000	0.100	-0.324
-322.085	800.000	-0.035	0.131
-321.070	117.182	-0.245	0.299
-320.056	-171.802	0.064	0.002
-319.041	-23.619	0.244	0.145
-318.026	199.385	-0.033	0.050
-317.012	-150.710	0.326	0.025
-315.997	576.684	0.024	-0.059
-314.983	10.473	0.234	0.177
-313.968	-94.647	-0.146	0.039
-312.953	-200.000	-0.016	-0.289
-311.939	800.000	0.058	0.189
-310.924	-18.959	0.105	0.065
-309.910	-200.000	-0.016	0.102
-308.895	800.000	-0.051	-0.139
-307.880	-200.000	-0.016	0.160
-306.866	299.656	0.068	0.125
-305.851	-200.000	-0.008	-0.199
-304.837	-74.402	-0.083	0.030
-303.822	-25.442	-0.330	0.193
-302.807	800.000	0.068	0.191
-301.793	-37.773	-0.216	0.114
-300.778	117.005	-0.088	-0.107
-299.764	-144.677	-0.115	0.011
-298.749	-200.000	0.021	-0.128
-297.735	-137.439	0.191	0.021
-296.720	18.082	0.221	0.175
-295.705	33.125	0.385	0.331
-294.691	-132.201	0.030	-0.004
-293.676	-65.190	-0.257	-0.103
-292.662	-200.000	0.038	0.313
-291.647	654.724	-0.076	0.194
-290.632	800.000	0.038	0.146
-289.618	-93.114	0.078	0.022
-288.603	800.000	0.071	-0.222
-287.589	-123.396	0.499	0.079
-286.574	12.855	0.049	0.038
-285.559	800.000	0.014	0.046
-284.545	156.415	0.185	0.253
-283.530	-79.919	0.206	0.069
-282.516	22.596	-0.044	0.036
-281.501	-65.645	-0.185	0.074
-280.486	163.383	0.197	0.274
-279.472	-200.000	0.003	-0.139
-278.457	-200.000	0.024	0.291
-277.443	153.543	-0.188	-0.255
-276.428	-200.000	-0.040	0.269
-275.413	154.169	-0.095	0.128
-274.399	398.956	0.031	-0.064
-273.384	-106.522	0.036	-0.008
-272.370	-7.970	0.173	0.116
-271.355	151.076	-0.071	0.095
-270.340	8.298	0.185	-0.138
-269.326	61.962	0.144	-0.142
-268.311	17.190	-0.065	0.051
-267.297	64.158	0.237	-0.236
-266.282	24.789	0.027	0.022
-265.267	714.557	0.097	-0.254
-264.253	800.000	0.027	0.078
-263.238	-14.641	0.256	0.163
-262.224	-86.497	-0.218	-0.066
-261.209	26.686	0.259	-0.215
-260.195	-51.822	0.195	-0.090
-259.180	-113.360	-0.118	0.023
-258.165	-147.722	0.062	-0.005
-257.151	279.710	0.185	0.327
-256.136	-200.000	-0.006	-0.043
-255.122	-119.314	-0.265	-0.046
-254.107	53.133	-0.131	0.124
-253.092	283.847	-0.097	0.172
-252.078	-200.000	-0.026	-0.188
-251.063	-60.194	0.238	-0.100
-250.049	-200.000	0.015	0.166
-249.034	-78.707	0.093	-0.031
-248.019	-21.072	-0.148	-0.090
-247.005	47.260	0.230	0.212
-245.990	171.858	0.132	-0.187
-244.976	-24.372	-0.260	0.153
-243.961	395.845	0.070	0.145
-242.946	102.383	0.016	-0.018
-241.932	-96.190	0.338	-0.089
-240.917	126.801	-0.048	0.060
-239.903	-114.967	-0.213	0.040
-238.888	80.568	0.198	0.211
-237.873	-42.075	0.255	-0.129
-236.859	65.112	0.148	-0.148
-235.844	-10.369	-0.375	0.246
-234.830	345.693	0.034	-0.067
-233.815	-200.000	0.004	0.229
-232.800	277.713	0.052	-0.092
-231.786	-74.966	0.324	0.115
-230.771	-147.096	-0.279	-0.024
-229.757	437.876	0.067	-0.145
-228.742	121.097	0.080	0.098
-227.727	800.000	-0.036	0.153
-226.713	-44.863	-0.016	0.008
-225.698	665.608	0.043	0.109
-224.684	4.944	-0.025	-0.018
-223.669	129.039	0.078	0.098
-222.655	-200.000	0.010	0.204
-221.640	800.000	-0.097	0.321
-220.625	-107.983	-0.118	-0.025
-219.611	265.034	-0.041	-0.071
-218.596	-200.000	0.037	0.256
-217.582	-42.870	0.201	0.101
-216.567	5.218	-0.193	0.141
-215.552	-116.160	0.446	-0.082
-214.538	31.636	0.084	0.071
-213.523	800.000	0.058	-0.178
-212.509	800.000	-0.053	-0.221
-211.494	117.398	0.223	0.271
-210.479	-200.000	0.082	-0.417
-209.465	373.227	0.125	0.251
-208.450	800.000	0.071	-0.208
-207.436	-20.819	-0.352	0.213
-206.421	-33.105	0.075	0.041
-205.406	-200.000	0.056	-0.360
-204.392	59.679	-0.243	-0.237
-203.377	142.769	0.041	-0.054
-202.363	-30.372	-0.123	0.069
-201.348	-69.088	0.095	0.036
-200.333	-49.731	-0.225	-0.106
-199.319	-38.835	0.124	0.065
-198.304	-200.000	-0.013	0.142
-197.290	376.673	-0.068	0.137
-196.275	-75.585	0.417	-0.147
-195.260	437.055	0.047	-0.100
-194.246	125.028	-0.075	0.093
-193.231	-200.000	0.005	-0.102
-192.217	-97.832	-0.267	0.068
-191.202	-5.668	0.314	0.212
-190.187	151.921	0.042	0.057
-189.173	42.867	0.197	-0.177
-188.158	302.299	-0.047	0.086
-187.144	800.000	0.102	-0.288
-186.129	-200.000	-0.053	-0.304
-185.114	800.000	0.046	0.170
-184.100	74.553	-0.201	-0.209
-183.085	800.000	-0.018	-0.074
-182.071	45.534	-0.070	0.063
-181.056	800.000	0.069	0.222
-180.042	800.000	0.005	-0.017
-179.027	800.000	-0.107	-0.299
-178.012	-12.232	-0.274	-0.177
-176.998	139.068	0.059	0.076
-175.983	86.752	0.279	-0.304
-174.969	-24.395	0.159	-0.094
-173.954	-200.000	0.031	0.450
-172.939	-54.783	-0.187	0.083
-171.925	-22.499	0.205	-0.122
-170.910	-31.184	-0.158	-0.088
-169.896	-105.735	0.150	0.033
-168.881	-200.000	0.037	0.253
-167.866	23.182	-0.206	-0.167
-166.852	-124.380	-0.502	-0.077
-165.837	-1.562	0.071	-0.049
-164.823	-200.000	-0.036	0.185
-163.808	94.037	0.108	-0.121
-162.793	-200.000	-0.051	-0.284
-161.779	410.006	-0.020	-0.041
-160.764	800.000	0.065	-0.212
-159.750	43.712	-0.139	0.126
-158.735	-108.272	-0.205	0.044
-157.720	-200.000	0.019	0.088
-156.706	106.962	-0.088	0.102
-155.691	-99.304	0.297	0.074
-154.677	-167.446	0.372	0.015
-153.662	800.000	-0.064	0.214
-152.647	-31.845	-0.141	0.078
-151.633	-90.073	-0.311	0.089
-150.618	-200.000	-0.010	0.105
-149.604	-117.375	-0.026	0.005
-148.589	-200.000	-0.009	-0.188
-147.574	-136.105	-0.316	0.037
-146.560	682.415	-0.100	-0.257
-145.545	-1.160	-0.121	-0.084
-144.531	65.987	-0.173	-0.173
-143.516	363.527	0.115	-0.228
-142.502	-200.000	-0.013	-0.117
-141.487	44.221	-0.146	-0.132
-140.472	205.094	-0.172	-0.263
-139.458	231.894	-0.069	0.112
-138.443	-200.000	0.022	0.276
-137.429	69.556	0.096	0.097
-136.414	-154.054	-0.164	-0.011
-135.399	7.657	0.196	-0.144
-134.385	-153.215	-0.368	-0.025
-133.370	-161.387	-0.245	0.012
-132.356	-120.027	0.041	0.007
-131.341	-65.978	0.095	0.037
-130.326	-24.150	-0.307	-0.181
-129.312	400.519	0.013	0.028
-128.297	-31.639	0.079	-0.043
-127.283	625.608	-0.179	-0.445
-126.268	209.838	0.108	0.167
-125.253	-140.775	-0.088	-0.009
-124.239	-107.016	0.314	0.068
-123.224	-200.000	0.022	0.180
-122.210	-73.802	0.182	0.065
-121.195	-5.580	-0.195	-0.132
