DTS Sentinel unit serial number:	SN413079Multiplexer serial number:	ORYXHardware model number:	OX4-SRSoftware version number:	ORYX F/W v4.00 Oryx Data Collector v3.7.2.0data status	okinstallation	princeton_trtdifferential loss correction	single-endedforward channel	channel 1reverse channel	N/Adate	2019/09/16time	17:22:35forward acquisition time	60.00reverse acquisition time	0.00gamma	496.2192k internal	0.2296k external	0.2296temperature offset calibration	0.9965default loss term (dB/km)	0.3790temperature slope calibration	1.0000multiplexer offset coefficient	1.0000multiplexer slope coefficient	1.0000fibre end	0.00T internal ref (°C)	38.69T ext. ref 1 (°C)	15.41T ext. ref 2 (°C)	32.72length (m)	temperature (°C)	Stokes	anti-Stokes-747.200	-200.000	0.034	-0.181
-746.185	-200.000	0.035	0.168
-745.171	143.316	-0.031	0.042
-744.156	-200.000	-0.004	0.177
-743.142	800.000	-0.004	-0.014
-742.127	-200.000	0.055	0.381
-741.112	-200.000	0.006	0.303
-740.098	170.565	-0.092	0.135
-739.083	-132.493	0.363	-0.048
-738.069	-200.000	0.019	0.411
-737.054	-1.592	-0.085	0.061
-736.039	-95.302	-0.211	-0.058
-735.025	463.931	-0.178	0.406
-734.010	800.000	-0.072	0.273
-732.996	143.752	-0.150	-0.204
-731.981	-47.162	-0.317	-0.158
-730.966	-200.000	-0.035	-0.260
-729.952	-108.906	-0.246	-0.054
-728.937	-200.000	0.021	-0.238
-727.923	27.898	-0.259	-0.223
-726.908	800.000	0.064	-0.199
-725.894	12.224	0.276	-0.217
-724.879	-200.000	-0.009	0.459
-723.864	-39.194	0.166	0.089
-722.850	-58.685	0.177	-0.078
-721.835	14.239	0.271	-0.216
-720.821	41.666	0.135	0.125
-719.806	-119.415	0.099	0.018
-718.791	95.830	-0.153	-0.178
-717.777	90.759	0.172	-0.196
-716.762	598.927	0.082	0.207
-715.748	202.137	-0.051	-0.081
-714.733	19.087	-0.113	-0.093
-713.718	317.776	-0.172	-0.332
-712.704	-92.888	-0.156	-0.044
-711.689	22.542	-0.042	0.035
-710.675	52.223	-0.010	0.009
-709.660	518.385	-0.102	0.245
-708.645	291.210	0.176	0.327
-707.631	-200.000	0.008	-0.038
-706.616	800.000	-0.060	0.240
-705.602	163.692	-0.402	-0.576
-704.587	-73.328	-0.279	0.104
-703.572	-66.051	0.172	-0.070
-702.558	270.775	0.033	0.059
-701.543	-165.679	-0.021	0.001
-700.529	-82.461	0.129	0.043
-699.514	128.807	-0.201	-0.262
-698.499	800.000	0.031	-0.092
-697.485	-100.232	-0.305	0.077
-696.470	-174.212	-0.177	0.005
-695.456	786.205	0.076	0.214
-694.441	-16.202	-0.126	0.081
-693.426	-87.431	0.106	0.033
-692.412	260.645	0.175	0.308
-691.397	-13.296	-0.291	-0.193
-690.383	-200.000	0.026	-0.319
-689.368	125.081	-0.139	-0.179
-688.354	176.396	0.131	-0.195
-687.339	-50.046	0.140	0.068
-686.324	96.192	-0.050	0.058
-685.310	800.000	-0.065	-0.194
-684.295	-142.393	-0.320	-0.032
-683.281	800.000	0.072	-0.257
-682.266	506.995	0.137	-0.324
-681.251	-190.142	-0.113	-0.001
-680.237	-185.399	0.291	-0.005
-679.222	43.488	0.195	-0.182
-678.208	-81.561	-0.247	0.083
-677.193	-44.616	-0.097	-0.049
-676.178	800.000	-0.099	-0.282
-675.164	-173.244	-0.279	0.009
-674.149	-4.911	0.060	0.042
-673.135	188.635	0.191	-0.291
-672.120	85.791	0.097	-0.109
-671.105	11.564	-0.375	-0.293
-670.091	15.358	0.438	-0.350
-669.076	-6.166	0.020	0.014
-668.062	-69.918	0.331	0.129
-667.047	800.000	0.062	0.204
-666.032	-72.799	0.237	-0.089
-665.018	-107.366	-0.364	0.081
-664.003	800.000	-0.055	-0.160
-662.989	-48.922	-0.336	-0.164
-661.974	234.362	-0.287	-0.481
-660.959	591.172	0.161	-0.405
-659.945	-102.588	-0.085	0.021
-658.930	263.672	-0.121	-0.214
-657.916	-200.000	-0.005	-0.085
-656.901	24.046	0.235	0.198
-655.886	107.279	0.150	-0.182
-654.872	-30.880	-0.225	-0.129
-653.857	-9.020	0.160	-0.109
-652.843	164.045	-0.294	-0.422
-651.828	169.115	-0.173	-0.252
-650.814	239.942	0.072	0.122
-649.799	304.636	0.108	-0.203
-648.784	-124.681	0.216	0.034
-647.770	800.000	0.027	0.117
-646.755	87.095	0.056	0.063
-645.741	-50.772	0.111	-0.053
-644.726	23.514	-0.090	-0.075
-643.711	-135.680	-0.194	-0.023
-642.697	-200.000	0.037	0.240
-641.682	-9.525	-0.262	0.178
-640.668	21.122	0.265	-0.219
-639.653	-139.137	-0.173	0.019
-638.638	-7.822	-0.032	-0.022
-637.624	-128.729	0.158	0.023
-636.609	-200.000	0.011	0.213
-635.595	800.000	-0.097	0.281
-634.580	-85.521	-0.078	0.025
-633.565	-200.000	-0.018	0.211
-632.551	-156.570	0.187	0.012
-631.536	-200.000	-0.006	-0.123
-630.522	-85.887	-0.259	-0.082
-629.507	37.163	-0.267	-0.240
-628.492	-28.311	-0.174	-0.102
-627.478	-11.655	-0.231	-0.154
-626.463	-200.000	0.090	-0.462
-625.449	-200.000	0.018	0.157
-624.434	-53.539	-0.202	0.094
-623.419	-200.000	0.013	0.211
-622.405	800.000	0.100	0.409
-621.390	-200.000	-0.023	-0.452
-620.376	800.000	-0.136	-0.443
-619.361	-200.000	-0.028	-0.153
-618.346	69.147	-0.044	-0.046
-617.332	-92.870	-0.306	-0.087
-616.317	-14.524	-0.374	-0.245
-615.303	-200.000	-0.060	-0.280
-614.288	-50.392	0.227	0.109
-613.273	-134.193	-0.328	-0.041
-612.259	661.002	0.139	-0.364
-611.244	-200.000	0.012	-0.173
-610.230	800.000	0.062	0.192
-609.215	582.738	0.088	0.220
-608.201	322.133	-0.175	-0.339
-607.186	462.606	0.109	-0.247
-606.171	66.059	-0.120	0.123
-605.157	512.621	-0.085	-0.201
-604.142	-164.580	0.346	0.016
-603.128	130.043	-0.063	-0.081
-602.113	-200.000	-0.008	0.125
-601.098	540.584	0.189	0.457
-600.084	-200.000	-0.080	0.386
-599.069	4.163	-0.313	0.232
-598.055	800.000	0.130	-0.505
-597.040	366.960	-0.033	0.068
-596.025	-56.185	-0.398	-0.180
-595.011	-8.201	0.215	-0.147
-593.996	96.542	-0.331	-0.385
-592.982	-155.215	-0.138	-0.009
-591.967	-103.942	0.212	-0.050
-590.952	702.835	-0.055	-0.148
-589.938	-24.153	-0.260	0.158
-588.923	-200.000	-0.033	0.183
-587.909	137.850	0.091	-0.121
-586.894	-200.000	0.008	-0.116
-585.879	220.587	0.157	0.255
-584.865	-131.087	0.118	0.016
-583.850	800.000	0.020	-0.082
-582.836	14.177	0.129	-0.102
-581.821	-146.561	0.238	-0.021
-580.806	-200.000	0.003	-0.048
-579.792	-70.798	0.185	-0.071
-578.777	-39.712	-0.197	0.104
-577.763	-87.213	-0.213	-0.066
-576.748	290.579	-0.032	-0.059
-575.733	50.511	0.237	-0.228
-574.719	103.504	-0.272	-0.324
-573.704	800.000	-0.057	-0.232
-572.690	462.089	0.147	0.332
-571.675	-200.000	-0.017	0.144
-570.661	7.046	-0.029	0.022
-569.646	-200.000	-0.019	0.285
-568.631	800.000	-0.108	-0.373
-567.617	205.435	-0.190	-0.300
-566.602	-34.726	0.222	-0.123
-565.588	800.000	-0.055	-0.199
-564.573	244.114	-0.111	-0.190
-563.558	-200.000	-0.003	-0.465
-562.544	-127.553	0.260	-0.038
-561.529	-46.095	-0.377	0.188
-560.515	215.181	-0.040	-0.065
-559.500	-147.472	-0.162	0.014
-558.485	85.698	-0.219	-0.244
-557.471	1.658	0.095	0.070
-556.456	-200.000	-0.014	-0.083
-555.442	80.098	-0.049	0.054
-554.427	-135.780	0.284	0.034
-553.412	35.934	0.167	0.149
-552.398	69.167	-0.131	-0.136
-551.383	-1.371	0.222	0.159
-550.369	-156.926	-0.362	0.022
-549.354	-121.280	0.437	-0.074
-548.339	55.541	-0.166	-0.163
-547.325	575.157	0.082	-0.204
-546.310	-200.000	-0.039	0.246
-545.296	26.847	-0.326	-0.277
-544.281	362.796	0.053	0.108
-543.266	-136.341	-0.074	-0.009
-542.252	-171.556	0.383	-0.013
-541.237	-62.452	0.167	-0.070
-540.223	-6.962	-0.326	-0.225
-539.208	-35.241	-0.255	-0.140
-538.193	695.899	0.122	-0.325
-537.179	-200.000	-0.029	-0.233
-536.164	545.216	-0.078	0.190
-535.150	72.685	0.181	-0.192
-534.135	-129.881	0.477	-0.066
-533.121	-152.429	-0.229	0.017
-532.106	-146.967	0.028	-0.002
-531.091	-200.000	0.012	-0.057
-530.077	-70.890	0.402	0.153
-529.062	800.000	-0.029	0.088
-528.048	-2.101	0.214	-0.152
-527.033	-200.000	-0.015	0.141
-526.018	-200.000	0.092	0.481
-525.004	130.945	-0.053	-0.068
-523.989	-200.000	0.024	-0.167
-522.975	-70.987	-0.275	-0.105
-521.960	178.227	-0.084	0.124
-520.945	3.887	0.258	-0.191
-519.931	-76.942	-0.201	0.071
-518.916	-89.204	-0.255	-0.076
-517.902	165.992	-0.055	0.079
-516.887	194.775	0.157	0.241
-515.872	-3.008	-0.369	0.261
-514.858	-41.763	0.173	-0.090
-513.843	571.738	0.124	-0.305
-512.829	800.000	-0.079	-0.348
-511.814	170.468	0.061	0.089
-510.799	-91.333	-0.105	0.031
-509.785	45.973	0.355	-0.333
-508.770	6.974	-0.197	0.149
-507.756	-200.000	-0.040	0.473
-506.741	-199.134	0.639	0.003
-505.726	9.083	0.364	-0.278
-504.712	-45.931	0.103	0.052
-503.697	1.442	-0.186	-0.135
-502.683	133.872	0.064	-0.083
-501.668	327.076	0.178	-0.345
-500.653	475.273	0.087	-0.199
-499.639	800.000	0.028	-0.111
-498.624	157.254	-0.049	-0.068
-497.610	800.000	0.014	-0.059
-496.595	15.107	0.132	-0.105
-495.581	-13.833	0.382	-0.250
-494.566	-16.313	0.344	-0.221
-493.551	-90.756	-0.128	-0.037
-492.537	32.115	-0.158	-0.138
-491.522	-75.219	0.257	-0.093
-490.508	-23.256	-0.292	-0.177
-489.493	359.749	-0.122	-0.247
-488.478	-189.595	0.110	-0.001
-487.464	72.704	0.154	0.163
-486.449	143.645	0.094	0.126
-485.435	-72.166	-0.205	-0.077
-484.420	-119.325	-0.160	-0.028
-483.405	132.436	-0.103	-0.134
-482.391	103.174	0.151	0.179
-481.376	46.192	-0.096	0.090
-480.362	82.915	0.195	0.215
-479.347	318.245	0.118	0.227
-478.332	-173.123	0.214	-0.007
-477.318	94.517	-0.228	-0.262
-476.303	-200.000	-0.014	0.075
-475.289	-200.000	-0.020	0.171
-474.274	-32.896	-0.310	0.174
-473.259	-33.615	0.128	-0.072
-472.245	-59.295	-0.056	-0.024
-471.230	-200.000	-0.048	0.255
-470.216	-200.000	0.014	0.142
-469.201	-200.000	0.072	0.329
-468.186	-96.323	-0.285	0.076
-467.172	194.960	0.176	-0.270
-466.157	-200.000	-0.027	0.198
-465.143	-65.256	-0.212	-0.086
-464.128	-28.055	0.272	-0.159
-463.113	-84.366	0.446	0.142
-462.099	128.613	0.168	0.216
-461.084	-117.206	-0.177	0.033
-460.070	-149.297	-0.253	0.020
-459.055	-91.524	-0.461	-0.133
-458.040	-200.000	-0.055	-0.355
-457.026	-120.245	-0.131	-0.023
-456.011	231.163	-0.111	-0.184
-454.997	254.584	-0.054	0.093
-453.982	-194.040	-0.047	-0.000
-452.968	800.000	-0.030	-0.114
-451.953	-108.524	-0.393	-0.085
-450.938	24.791	-0.099	-0.083
-449.924	800.000	0.027	-0.078
-448.909	66.471	-0.299	-0.307
-447.895	-144.359	-0.170	-0.016
-446.880	702.006	0.109	0.290
-445.865	-63.564	-0.139	0.058
-444.851	-64.565	-0.531	0.218
-443.836	-157.718	0.424	-0.025
-442.822	-58.304	0.160	-0.070
-441.807	47.298	-0.189	0.178
-440.792	-39.241	-0.207	-0.110
-439.778	-84.334	0.095	0.030
-438.763	221.127	-0.141	0.228
-437.749	66.520	-0.204	0.209
-436.734	-64.299	0.322	0.132
-435.719	-133.920	-0.320	-0.040
-434.705	-200.000	0.089	-0.416
-433.690	45.175	0.062	-0.058
-432.676	-112.010	0.284	0.058
-431.661	-141.233	-0.151	0.016
-430.646	73.896	0.078	-0.083
-429.632	800.000	-0.052	-0.151
-428.617	215.552	0.173	0.277
-427.603	90.414	-0.082	-0.092
-426.588	-123.054	0.153	-0.025
-425.573	800.000	0.018	-0.079
-424.559	800.000	0.057	0.238
-423.544	-200.000	-0.000	0.228
-422.530	86.331	0.120	0.134
-421.515	346.365	0.027	0.054
-420.500	193.507	0.125	0.191
-419.486	-58.769	0.256	0.112
-418.471	-200.000	-0.022	0.225
-417.457	-23.492	0.202	0.122
-416.442	-53.046	-0.390	0.181
-415.428	383.994	0.159	0.330
-414.413	185.121	-0.097	0.146
-413.398	-33.482	0.140	0.078
-412.384	-200.000	-0.034	0.228
-411.369	-59.742	-0.179	0.077
-410.355	224.036	-0.052	-0.084
-409.340	55.960	0.143	-0.140
-408.325	-200.000	0.010	-0.376
-407.311	95.839	0.265	0.305
-406.296	-38.821	-0.050	-0.026
-405.282	-33.779	0.219	-0.122
-404.267	97.845	0.116	0.134
-403.252	-200.000	0.004	-0.027
-402.238	-200.000	-0.022	0.422
-401.223	40.649	0.078	0.071
-400.209	385.888	-0.101	-0.209
-399.194	-200.000	-0.014	0.164
-398.179	106.226	-0.049	-0.058
-397.165	-52.349	0.136	0.063
-396.150	334.370	0.149	-0.291
-395.136	-1.353	0.041	0.029
-394.121	-194.848	-0.198	0.002
-393.106	-93.098	-0.411	-0.115
-392.092	800.000	0.030	-0.088
-391.077	-18.796	-0.225	-0.141
-390.063	31.561	0.137	-0.119
-389.048	-103.368	0.181	0.043
-388.033	-120.095	-0.086	0.015
-387.019	317.635	0.042	0.081
-386.004	766.665	0.037	0.100
-384.990	-46.094	-0.249	0.124
-383.975	93.205	0.153	0.175
-382.960	150.609	-0.088	-0.120
-381.946	800.000	0.078	-0.282
-380.931	688.095	-0.097	0.256
-379.917	100.179	0.109	0.127
-378.902	54.710	0.338	-0.328
-377.888	207.292	-0.094	-0.148
-376.873	-8.137	0.163	-0.110
-375.858	-21.869	-0.059	-0.036
-374.844	1.172	0.184	0.133
-373.829	800.000	-0.035	-0.100
-372.815	-57.616	-0.164	0.072
-371.800	-78.713	-0.233	0.080
-370.785	-200.000	0.011	0.123
-369.771	-200.000	0.010	-0.067
-368.756	-200.000	0.001	-0.091
-367.742	-33.007	0.227	0.127
-366.727	-95.679	0.212	-0.057
-365.712	-200.000	-0.002	-0.039
-364.698	13.911	0.086	-0.068
-363.683	112.545	0.081	0.099
-362.669	-138.376	-0.342	-0.038
-361.654	-39.237	0.229	-0.121
-360.639	-62.095	-0.293	0.123
-359.625	51.004	-0.118	-0.113
-358.610	120.081	0.084	0.104
-357.596	370.918	0.033	-0.066
-356.581	-78.356	0.307	-0.106
-355.566	-1.925	0.128	0.090
-354.552	49.150	-0.123	0.116
-353.537	-38.308	0.062	-0.033
-352.523	26.022	0.178	0.149
-351.508	-124.148	-0.148	-0.023
-350.493	-200.000	0.034	0.205
-349.479	145.097	0.163	0.219
-348.464	128.165	0.030	0.039
-347.450	-89.045	-0.096	0.028
-346.435	98.070	-0.261	0.302
-345.420	-200.000	-0.043	0.218
-344.406	-123.174	-0.204	-0.033
-343.391	65.621	-0.090	0.092
-342.377	-143.714	-0.327	-0.031
-341.362	-160.262	0.072	0.004
-340.348	-104.976	0.147	-0.034
-339.333	-200.000	-0.017	-0.177
-338.318	85.961	-0.272	0.301
-337.304	-61.248	-0.197	0.083
-336.289	623.070	-0.121	0.307
-335.275	69.922	0.078	0.081
-334.260	-126.057	0.159	-0.024
-333.245	76.041	0.305	-0.325
-332.231	-119.312	-0.130	0.023
-331.216	-200.000	-0.019	-0.221
-330.202	792.887	0.025	-0.070
-329.187	81.409	0.284	0.309
-328.172	-121.130	-0.166	-0.028
-327.158	545.555	0.063	0.151
-326.143	-200.000	0.021	0.140
-325.129	-31.287	-0.177	0.100
-324.114	-55.225	0.238	-0.107
-323.099	132.378	0.072	-0.094
-322.085	92.330	-0.207	-0.235
-321.070	-76.302	0.146	-0.052
-320.056	319.583	-0.168	0.321
-319.041	141.100	0.073	-0.097
-318.026	201.244	0.238	0.368
-317.012	-12.190	0.410	0.270
-315.997	219.055	0.217	0.349
-314.983	-200.000	-0.029	0.137
-313.968	7.440	0.192	0.144
-312.953	-200.000	-0.023	0.257
-311.939	0.150	0.068	-0.048
-310.924	67.833	0.142	-0.146
-309.910	2.373	-0.153	-0.111
-308.895	727.782	0.037	0.099
-307.880	180.988	0.109	-0.160
-306.866	-149.453	0.247	0.020
-305.851	800.000	0.068	-0.239
-304.837	-92.053	-0.184	-0.052
-303.822	800.000	-0.046	0.141
-302.807	89.379	0.058	0.065
-301.793	169.369	-0.175	0.250
-300.778	-99.537	0.225	-0.057
-299.764	-140.339	0.149	0.016
-298.749	-184.462	-0.178	-0.003
-297.735	461.741	0.186	-0.418
-296.720	149.561	-0.173	0.235
-295.705	-200.000	-0.021	0.148
-294.691	273.949	0.133	-0.237
-293.676	83.948	0.272	-0.299
-292.662	800.000	0.108	0.319
-291.647	16.211	0.107	-0.085
-290.632	1.840	-0.200	-0.145
-289.618	138.006	0.143	-0.188
-288.603	-200.000	-0.009	-0.110
-287.589	623.989	-0.074	0.187
-286.574	59.273	0.157	0.156
-285.559	388.384	-0.029	-0.060
-284.545	718.758	-0.093	-0.249
-283.530	455.410	-0.088	0.196
-282.516	177.947	-0.161	0.236
-281.501	163.954	-0.085	0.121
-280.486	-121.262	0.320	-0.054
-279.472	-123.868	-0.241	-0.038
-278.457	-31.324	-0.355	0.201
-277.443	-183.947	0.144	0.002
-276.428	-6.464	0.212	-0.145
-275.413	-74.889	0.137	-0.049
-274.399	-35.299	-0.205	0.112
-273.384	121.354	-0.016	-0.020
-272.370	13.158	-0.091	0.071
-271.355	52.552	0.249	-0.239
-270.340	10.244	-0.145	0.111
-269.326	-40.594	-0.163	0.085
-268.311	-67.284	0.224	-0.088
-267.297	-123.871	-0.237	0.037
-266.282	-46.940	-0.095	-0.047
-265.267	-91.226	0.133	0.038
-264.253	215.245	0.056	-0.088
-263.238	-200.000	-0.012	0.184
-262.224	-67.066	0.114	-0.045
-261.209	-55.821	0.312	-0.140
-260.195	170.232	-0.117	-0.167
-259.180	-76.820	-0.212	0.074
-258.165	-15.706	-0.353	-0.226
-257.151	-5.759	0.203	0.140
-256.136	800.000	0.088	0.321
-255.122	-26.353	0.137	0.080
-254.107	800.000	-0.049	-0.138
-253.092	16.452	-0.060	-0.048
-252.078	39.405	0.206	-0.185
-251.063	-124.186	0.283	-0.044
-250.049	800.000	-0.113	0.331
-249.034	-131.612	0.230	0.030
-248.019	-62.389	0.293	0.122
-247.005	-58.765	-0.235	0.102
-245.990	800.000	0.030	0.120
-244.976	-53.629	-0.172	0.079
-243.961	-99.487	-0.099	0.025
-242.946	129.223	-0.163	0.208
-241.932	800.000	0.011	-0.047
-240.917	800.000	0.030	-0.108
-239.903	56.296	-0.137	0.134
-238.888	-152.943	-0.137	0.010
-237.873	237.535	0.069	0.114
-236.859	-4.425	0.285	0.197
-235.844	-151.973	-0.034	-0.002
-234.830	-79.834	-0.160	-0.054
-233.815	38.501	0.146	0.130
-232.800	-54.545	-0.241	0.109
-231.786	341.263	-0.152	-0.298
-230.771	800.000	-0.105	-0.308
-229.757	-113.353	0.068	-0.013
-228.742	0.293	0.390	0.279
-227.727	-107.197	-0.369	-0.081
-226.713	378.591	-0.036	0.073
-225.698	369.666	0.153	-0.310
-224.684	-86.580	0.239	-0.073
-223.669	149.345	-0.110	0.149
-222.655	156.176	0.136	0.188
-221.640	14.302	0.058	-0.046
-220.625	800.000	0.095	-0.327
-219.611	-9.498	0.156	0.104
-218.596	-129.409	-0.117	0.016
-217.582	28.226	0.180	-0.152
-216.567	-70.614	-0.313	-0.118
-215.552	800.000	0.056	0.165
-214.538	68.264	0.183	0.187
-213.523	311.720	-0.186	0.348
-212.509	-33.071	0.150	-0.083
-211.494	-200.000	-0.013	-0.168
-210.479	-200.000	0.063	-0.313
-209.465	61.657	-0.132	0.132
-208.450	-67.025	0.125	-0.049
-207.436	442.802	-0.129	-0.282
-206.421	-67.433	-0.098	-0.038
-205.406	-86.908	0.174	0.053
-204.392	-84.767	0.218	0.069
-203.377	-170.374	-0.363	-0.013
-202.363	-76.681	-0.266	0.093
-201.348	-163.520	-0.239	0.011
-200.333	114.222	0.080	-0.097
-199.319	199.088	0.112	-0.172
-198.304	800.000	0.061	0.197
-197.290	-86.677	0.143	0.044
-196.275	-195.956	-0.223	-0.002
-195.260	-58.967	0.086	-0.037
-194.246	45.090	0.023	-0.021
-193.231	-14.613	0.078	0.050
-192.217	-200.000	-0.033	0.398
-191.202	-17.669	-0.134	-0.084
-190.187	-48.765	0.151	0.072
-189.173	133.629	-0.082	0.106
-188.158	-82.285	-0.264	-0.086
-187.144	-117.547	-0.051	0.009
-186.129	-200.000	-0.007	0.114
-185.114	405.273	0.008	0.017
-184.100	-200.000	-0.032	-0.288
-183.085	-200.000	-0.006	-0.334
-182.071	-74.552	-0.295	-0.106
-181.056	21.781	-0.187	0.152
-180.042	-88.104	-0.270	-0.081
-179.027	-32.389	0.209	0.117
-178.012	491.312	0.036	0.083
-176.998	800.000	0.128	-0.460
-175.983	-40.014	0.080	-0.042
-174.969	86.712	0.120	-0.132
-173.954	-145.593	0.368	-0.033
-172.939	-200.000	-0.015	-0.124
-171.925	800.000	0.099	-0.362
-170.910	159.149	-0.201	0.279
-169.896	800.000	0.075	0.280
-168.881	377.834	-0.127	0.259
-167.866	112.121	-0.116	-0.140
-166.852	800.000	0.158	0.483
-165.837	-106.208	-0.084	-0.019
-164.823	-64.089	0.188	0.077
-163.808	134.073	-0.091	0.117
-162.793	523.031	-0.104	0.245
-161.779	-49.497	-0.311	-0.148
-160.764	565.156	-0.046	-0.112
-159.750	800.000	0.075	0.228
-158.735	-87.107	0.344	-0.104
-157.720	216.397	-0.120	0.191
-156.706	118.615	-0.296	0.365
-155.691	151.328	0.045	0.062
-154.677	159.864	0.127	-0.177
-153.662	105.043	-0.096	-0.113
-152.647	-200.000	0.057	0.256
-151.633	800.000	0.115	0.347
-150.618	-47.032	0.210	0.103
-149.604	-14.485	0.181	-0.116
-148.589	739.942	-0.031	0.082
-147.574	26.731	0.063	-0.053
-146.560	476.946	-0.074	0.167
-145.545	-22.930	-0.209	-0.126
-144.531	-200.000	0.026	-0.120
-143.516	161.830	0.028	0.040
-142.502	800.000	-0.032	-0.111
-141.487	800.000	-0.043	0.160
-140.472	800.000	0.064	0.233
-139.458	546.865	0.054	0.129
-138.443	-104.323	0.080	0.018
-137.429	387.223	-0.117	0.241
-136.414	-36.886	-0.203	-0.109
-135.399	-49.118	0.295	0.141
-134.385	-200.000	-0.046	-0.283
-133.370	-200.000	-0.009	-0.231
-132.356	-114.089	-0.146	-0.028
-131.341	-124.011	-0.282	-0.044
-130.326	-48.603	0.104	-0.050
-129.312	-167.450	-0.310	0.012
-128.297	800.000	-0.081	0.282
-127.283	46.792	-0.133	0.124
-126.268	-134.717	0.173	-0.021
-125.253	-8.863	-0.131	0.088
-124.239	49.238	0.141	0.132
-123.224	7.494	-0.130	0.097
-122.210	-50.359	-0.195	-0.092
-121.195	-25.120	-0.191	-0.113
