DTS Sentinel unit serial number:	SN413079Multiplexer serial number:	ORYXHardware model number:	OX4-SRSoftware version number:	ORYX F/W v4.00 Oryx Data Collector v3.7.2.0data status	okinstallation	princeton_trtdifferential loss correction	single-endedforward channel	channel 1reverse channel	N/Adate	2019/09/13time	14:26:35forward acquisition time	60.00reverse acquisition time	0.00gamma	496.2192k internal	0.2303k external	0.2303temperature offset calibration	1.0162default loss term (dB/km)	0.3790temperature slope calibration	1.0000multiplexer offset coefficient	1.0000multiplexer slope coefficient	1.0000fibre end	0.00T internal ref (°C)	35.27T ext. ref 1 (°C)	4.63T ext. ref 2 (°C)	30.83length (m)	temperature (°C)	Stokes	anti-Stokes-747.200	-19.960	0.066	-0.041
-746.185	100.137	-0.227	-0.268
-745.171	800.000	-0.032	-0.135
-744.156	8.791	-0.277	0.213
-743.142	-200.000	-0.267	-0.001
-742.127	431.852	-0.017	0.038
-741.112	-119.467	0.385	0.068
-740.098	54.032	-0.169	0.166
-739.083	-157.016	0.132	-0.008
-738.069	800.000	0.024	0.101
-737.054	-200.000	0.003	-0.163
-736.039	198.135	0.173	-0.269
-735.025	-200.000	0.046	-0.321
-734.010	-200.000	-0.030	0.247
-732.996	-68.743	-0.433	-0.171
-731.981	-200.000	-0.028	-0.301
-730.966	4.271	0.151	0.112
-729.952	-120.115	-0.301	0.052
-728.937	-10.176	0.177	-0.120
-727.923	800.000	0.054	-0.231
-726.908	598.125	0.120	-0.302
-725.894	100.119	-0.149	-0.176
-724.879	6.502	-0.332	0.251
-723.864	438.827	-0.066	-0.146
-722.850	-68.570	-0.245	0.097
-721.835	66.178	-0.180	-0.186
-720.821	-63.156	0.299	-0.125
-719.806	-78.828	-0.179	-0.062
-718.791	-87.294	0.099	-0.031
-717.777	280.532	-0.055	-0.100
-716.762	-200.000	0.032	0.188
-715.748	-71.389	0.196	0.075
-714.733	-200.000	-0.059	0.342
-713.718	91.154	0.054	-0.061
-712.704	-181.463	-0.212	0.004
-711.689	279.114	-0.154	-0.280
-710.675	781.654	-0.091	0.253
-709.660	-129.285	-0.256	-0.036
-708.645	71.949	-0.162	0.172
-707.631	137.324	0.286	-0.380
-706.616	188.607	-0.034	0.052
-705.602	132.849	-0.048	-0.063
-704.587	-200.000	0.006	-0.068
-703.572	280.887	-0.132	-0.240
-702.558	115.239	-0.226	-0.281
-701.543	-112.401	-0.099	-0.020
-700.529	132.954	-0.078	-0.103
-699.514	124.921	-0.056	-0.071
-698.499	96.106	-0.191	-0.222
-697.485	-98.654	0.160	0.042
-696.470	136.619	-0.243	-0.322
-695.456	800.000	-0.023	-0.098
-694.441	800.000	0.084	-0.317
-693.426	28.063	-0.080	0.068
-692.412	240.872	-0.029	0.049
-691.397	800.000	-0.068	-0.236
-690.383	-165.946	0.234	0.010
-689.368	800.000	0.058	-0.188
-688.354	-56.435	0.261	-0.118
-687.339	273.918	-0.025	0.045
-686.324	16.286	-0.014	0.012
-685.310	-200.000	-0.021	0.173
-684.295	-161.188	0.187	-0.010
-683.281	800.000	-0.055	0.229
-682.266	-13.837	-0.091	-0.060
-681.251	434.628	-0.044	-0.098
-680.237	-35.786	-0.317	-0.174
-679.222	399.463	0.129	-0.276
-678.208	-53.016	-0.265	0.124
-677.193	-148.598	0.184	-0.015
-676.178	-200.000	-0.007	-0.043
-675.164	-180.348	0.091	-0.002
-674.149	93.899	-0.022	0.026
-673.135	-124.437	0.099	0.016
-672.120	-200.000	0.002	-0.146
-671.105	11.931	-0.105	0.082
-670.091	800.000	0.021	-0.083
-669.076	800.000	-0.074	0.287
-668.062	-200.000	-0.003	0.090
-667.047	281.900	0.080	-0.146
-666.032	-53.673	-0.049	0.023
-665.018	4.228	-0.169	0.126
-664.003	-84.793	-0.265	-0.085
-662.989	577.792	-0.074	-0.183
-661.974	-200.000	-0.006	0.128
-660.959	-182.756	0.210	0.004
-659.945	-36.400	-0.259	-0.142
-658.930	-181.604	0.249	0.005
-657.916	-44.665	-0.160	0.081
-656.901	-9.775	0.162	0.109
-655.886	-166.736	-0.069	0.003
-654.872	-200.000	0.040	0.333
-653.857	-58.082	0.124	0.055
-652.843	150.499	-0.318	0.439
-651.828	-80.232	-0.340	0.116
-650.814	-200.000	0.045	0.201
-649.799	800.000	0.083	0.291
-648.784	800.000	-0.054	0.182
-647.770	-200.000	0.023	-0.167
-646.755	310.119	0.123	-0.233
-645.741	99.178	0.204	0.240
-644.726	800.000	-0.029	-0.099
-643.711	72.582	0.056	0.059
-642.697	-200.000	-0.054	0.613
-641.682	134.392	-0.201	-0.264
-640.668	36.938	-0.195	0.175
-639.653	800.000	0.079	0.232
-638.638	-58.138	-0.330	-0.146
-637.624	-156.711	0.153	0.010
-636.609	-141.901	0.297	0.030
-635.595	-87.052	0.247	-0.076
-634.580	278.545	-0.152	0.276
-633.565	-200.000	-0.002	0.058
-632.551	16.061	-0.230	0.184
-631.536	800.000	-0.043	-0.150
-630.522	49.309	0.215	-0.205
-629.507	-8.461	0.107	0.073
-628.492	-41.355	0.044	-0.023
-627.478	226.709	-0.173	-0.284
-626.463	457.048	0.089	-0.200
-625.449	20.935	-0.013	-0.010
-624.434	68.024	-0.109	0.113
-623.419	-63.342	-0.248	0.103
-622.405	25.659	-0.270	0.228
-621.390	252.613	0.146	-0.252
-620.376	-98.876	0.229	-0.059
-619.361	800.000	0.053	0.168
-618.346	525.357	-0.054	0.128
-617.332	244.529	0.177	-0.302
-616.317	-161.321	0.254	0.013
-615.303	514.996	-0.072	0.170
-614.288	-200.000	0.002	0.011
-613.273	142.332	0.122	0.164
-612.259	-3.476	-0.265	-0.187
-611.244	-60.762	-0.122	0.052
-610.230	-58.981	0.188	0.082
-609.215	-200.000	-0.049	-0.313
-608.201	128.620	0.031	-0.040
-607.186	-77.394	0.226	-0.080
-606.171	49.108	0.160	-0.152
-605.157	-200.000	-0.039	-0.184
-604.142	454.413	-0.138	0.311
-603.128	-81.194	0.257	-0.086
-602.113	202.099	0.181	0.283
-601.098	-102.467	-0.256	0.062
-600.084	65.224	0.070	0.072
-599.069	494.145	0.140	0.326
-598.055	800.000	0.021	0.086
-597.040	-0.389	-0.083	0.060
-596.025	6.697	-0.109	-0.082
-595.011	-142.880	0.248	-0.024
-593.996	-164.412	-0.090	-0.004
-592.982	800.000	-0.070	-0.307
-591.967	-135.753	0.289	-0.035
-590.952	-137.743	0.190	-0.022
-589.938	192.663	-0.068	-0.104
-588.923	91.252	0.072	0.081
-587.909	466.031	0.035	-0.079
-586.894	-34.130	-0.145	0.081
-585.879	-200.000	0.044	-0.221
-584.865	-200.000	0.004	-0.056
-583.850	-30.515	-0.142	0.082
-582.836	-139.087	-0.112	-0.012
-581.821	739.037	-0.057	-0.154
-580.806	-124.566	0.219	-0.034
-579.792	-128.272	-0.152	0.022
-578.777	556.098	0.195	0.475
-577.763	33.489	0.360	0.316
-576.748	157.311	-0.208	0.291
-575.733	-108.960	-0.384	-0.083
-574.719	-200.000	-0.052	0.249
-573.704	301.032	-0.234	0.437
-572.690	-200.000	0.028	-0.210
-571.675	249.272	0.130	-0.224
-570.661	276.756	0.181	-0.325
-569.646	-9.862	0.278	0.188
-568.631	68.998	-0.093	0.097
-567.617	800.000	0.027	-0.103
-566.602	800.000	0.051	0.217
-565.588	-200.000	-0.022	-0.356
-564.573	49.548	-0.144	0.137
-563.558	-39.557	0.178	-0.094
-562.544	287.141	0.041	-0.075
-561.529	-108.596	-0.161	-0.035
-560.515	-132.871	-0.246	0.032
-559.500	-200.000	-0.067	-0.458
-558.485	800.000	-0.048	-0.208
-557.471	61.020	-0.291	0.292
-556.456	134.902	-0.140	0.183
-555.442	-200.000	0.098	-0.444
-554.427	-200.000	0.014	0.113
-553.412	800.000	-0.017	0.054
-552.398	-130.856	-0.140	0.019
-551.383	-82.014	-0.138	0.046
-550.369	800.000	0.020	0.074
-549.354	86.055	0.064	0.071
-548.339	800.000	-0.102	-0.317
-547.325	475.016	-0.151	-0.345
-546.310	244.169	-0.110	-0.187
-545.296	-200.000	-0.049	-0.225
-544.281	-200.000	0.059	-0.336
-543.266	-200.000	0.027	-0.134
-542.252	800.000	0.090	-0.295
-541.237	800.000	-0.020	0.070
-540.223	113.270	-0.184	-0.226
-539.208	-60.627	0.243	0.104
-538.193	44.018	-0.121	-0.112
-537.179	361.319	-0.117	0.237
-536.164	46.882	-0.049	-0.046
-535.150	-9.986	0.442	-0.297
-534.135	224.017	-0.209	-0.341
-533.121	-115.171	0.185	0.035
-532.106	438.323	0.139	0.307
-531.091	147.675	-0.120	0.164
-530.077	186.331	0.121	0.182
-529.062	800.000	-0.013	0.050
-528.048	67.504	-0.184	-0.190
-527.033	164.469	0.157	-0.223
-526.018	120.626	-0.071	-0.089
-525.004	251.031	-0.049	0.084
-523.989	-200.000	0.018	0.112
-522.975	-53.827	0.203	0.094
-521.960	-134.909	0.100	-0.012
-520.945	126.811	0.108	0.139
-519.931	199.012	0.089	0.138
-518.916	-200.000	-0.024	-0.122
-517.902	-103.967	-0.186	-0.044
-516.887	-26.617	-0.089	-0.053
-515.872	68.316	0.125	-0.129
-514.858	656.749	0.109	-0.282
-513.843	363.193	-0.116	-0.236
-512.829	246.540	0.071	0.122
-511.814	52.239	-0.208	0.200
-510.799	-200.000	-0.048	-0.255
-509.785	800.000	0.030	0.114
-508.770	50.155	0.192	-0.183
-507.756	205.789	-0.035	0.056
-506.741	800.000	0.040	0.177
-505.726	147.844	0.208	0.283
-504.712	-62.995	0.194	-0.081
-503.697	60.634	0.304	-0.304
-502.683	-94.555	-0.194	-0.053
-501.668	800.000	-0.121	-0.407
-500.653	163.728	0.119	-0.169
-499.639	-124.923	0.043	-0.007
-498.624	602.156	-0.116	-0.291
-497.610	-19.320	-0.218	-0.137
-496.595	76.007	0.078	0.083
-495.581	175.903	-0.209	0.307
-494.566	379.521	-0.085	-0.175
-493.551	-118.090	-0.223	-0.040
-492.537	-74.079	0.334	0.122
-491.522	29.125	0.186	0.159
-490.508	12.751	-0.078	-0.061
-489.493	800.000	-0.070	0.268
-488.478	-200.000	-0.060	-0.312
-487.464	-200.000	0.011	-0.231
-486.449	-149.704	0.131	-0.010
-485.435	-117.519	0.195	-0.036
-484.420	800.000	0.091	0.293
-483.405	-178.093	-0.264	-0.006
-482.391	205.362	0.088	0.139
-481.376	-9.977	0.279	-0.187
-480.362	-56.777	-0.370	0.165
-479.347	-149.225	0.401	-0.032
-478.332	-200.000	-0.024	-0.291
-477.318	238.367	-0.128	0.214
-476.303	-122.206	0.235	-0.039
-475.289	-200.000	0.057	0.261
-474.274	-45.807	0.132	0.066
-473.259	-139.789	-0.162	-0.017
-472.245	-200.000	-0.015	-0.073
-471.230	-109.532	0.149	-0.032
-470.216	568.049	-0.068	-0.166
-469.201	109.382	-0.166	-0.200
-468.186	800.000	0.099	0.323
-467.172	195.123	0.104	0.159
-466.157	-15.019	0.150	0.097
-465.143	-200.000	-0.028	0.225
-464.128	-200.000	0.003	-0.105
-463.113	-147.915	-0.112	-0.009
-462.099	800.000	-0.085	-0.273
-461.084	-200.000	-0.037	-0.235
-460.070	1.456	0.277	-0.201
-459.055	115.843	-0.210	0.259
-458.040	113.456	-0.062	-0.076
-457.026	-57.904	0.265	-0.117
-456.011	618.433	0.020	0.050
-454.997	800.000	-0.029	-0.105
-453.982	165.937	-0.108	0.154
-452.968	-98.660	0.309	0.079
-451.953	-200.000	-0.010	0.108
-450.938	-200.000	0.073	-0.456
-449.924	-86.107	0.123	-0.038
-448.909	-118.119	0.617	0.111
-447.895	489.309	-0.050	0.115
-446.880	-200.000	0.024	-0.159
-445.865	109.543	0.195	-0.235
-444.851	-200.000	0.015	0.082
-443.836	-166.056	0.322	-0.014
-442.822	-10.730	-0.425	-0.283
-441.807	23.818	-0.135	0.112
-440.792	27.997	0.047	-0.040
-439.778	-118.741	-0.436	0.077
-438.763	-172.275	0.270	-0.009
-437.749	-14.189	-0.203	-0.132
-436.734	800.000	-0.028	-0.090
-435.719	-200.000	0.008	-0.118
-434.705	535.033	0.049	0.118
-433.690	115.580	0.108	0.133
-432.676	190.557	0.134	0.202
-431.661	-3.619	-0.401	-0.280
-430.646	-200.000	0.025	0.184
-429.632	719.087	0.078	-0.208
-428.617	249.597	-0.107	0.183
-427.603	280.341	-0.077	-0.139
-426.588	-60.376	0.128	0.055
-425.573	79.370	0.012	-0.013
-424.559	315.263	-0.123	-0.234
-423.544	118.475	0.111	0.138
-422.530	-137.370	-0.205	0.023
-421.515	392.081	-0.115	0.240
-420.500	-200.000	0.019	0.138
-419.486	439.007	0.077	0.169
-418.471	-60.360	-0.038	-0.016
-417.457	367.416	0.089	-0.181
-416.442	56.244	-0.065	-0.064
-415.428	800.000	0.061	-0.172
-414.413	-96.146	-0.257	0.069
-413.398	286.945	-0.100	-0.181
-412.384	-200.000	0.043	-0.219
-411.369	800.000	-0.058	0.224
-410.355	14.331	-0.114	-0.090
-409.340	-141.918	0.207	-0.021
-408.325	-200.000	-0.027	0.146
-407.311	-61.775	-0.075	0.031
-406.296	26.594	0.386	-0.325
-405.282	-180.346	0.247	-0.005
-404.267	-139.529	0.155	-0.017
-403.252	-69.531	-0.125	0.048
-402.238	-10.134	-0.309	-0.206
-401.223	-63.728	0.134	0.055
-400.209	190.713	0.065	-0.098
-399.194	-200.000	-0.019	0.285
-398.179	170.256	-0.083	-0.119
-397.165	47.319	0.129	0.121
-396.150	156.368	0.211	0.292
-395.136	464.127	-0.040	-0.091
-394.121	-43.382	0.247	-0.125
-393.106	-161.590	0.179	-0.009
-392.092	800.000	-0.069	-0.204
-391.077	8.446	-0.220	0.167
-390.063	16.451	0.074	-0.059
-389.048	-59.437	0.210	0.091
-388.033	-80.258	-0.448	-0.150
-387.019	253.241	0.081	0.139
-386.004	142.953	0.073	0.098
-384.990	-113.522	-0.259	-0.051
-383.975	-200.000	-0.009	0.177
-382.960	271.804	0.109	0.193
-381.946	20.155	-0.164	0.133
-380.931	-200.000	-0.011	0.071
-379.917	-147.986	-0.191	-0.016
-378.902	-200.000	-0.021	-0.154
-377.888	23.907	0.330	0.273
-376.873	24.080	0.023	-0.019
-375.858	-200.000	-0.008	-0.277
-374.844	-39.916	-0.164	-0.086
-373.829	91.361	-0.056	0.063
-372.815	-80.187	0.300	0.101
-371.800	-200.000	-0.003	0.309
-370.785	227.217	0.097	0.158
-369.771	180.274	0.077	0.113
-368.756	72.382	0.229	0.239
-367.742	-200.000	-0.027	0.295
-366.727	366.925	-0.144	0.291
-365.712	-200.000	-0.037	0.250
-364.698	311.771	-0.081	0.152
-363.683	800.000	0.059	-0.238
-362.669	-200.000	-0.061	-0.327
-361.654	381.587	-0.066	0.137
-360.639	92.817	-0.194	0.220
-359.625	-62.406	0.190	-0.079
-358.610	718.555	0.098	-0.262
-357.596	-21.003	0.205	0.126
-356.581	102.787	0.207	0.243
-355.566	-105.165	0.083	0.019
-354.552	-77.286	0.159	-0.055
-353.537	-58.738	-0.164	-0.071
-352.523	800.000	-0.110	-0.384
-351.508	-47.046	-0.076	-0.037
-350.493	800.000	0.080	-0.346
-349.479	752.723	-0.059	0.160
-348.464	768.391	-0.085	0.231
-347.450	32.471	-0.114	-0.099
-346.435	800.000	-0.078	-0.239
-345.420	-77.313	-0.208	-0.073
-344.406	194.999	0.030	0.046
-343.391	-19.595	-0.084	-0.052
-342.377	465.556	-0.032	0.072
-341.362	800.000	-0.049	-0.163
-340.348	-200.000	-0.037	0.293
-339.333	-180.382	0.388	-0.008
-338.318	604.722	-0.024	-0.060
-337.304	50.429	0.048	0.046
-336.289	800.000	-0.031	0.100
-335.275	800.000	-0.024	-0.094
-334.260	16.619	-0.090	0.072
-333.245	-124.822	0.060	0.009
-332.231	800.000	0.072	-0.207
-331.216	302.049	-0.073	0.135
-330.202	646.991	0.073	-0.188
-329.187	761.673	-0.180	0.491
-328.172	-200.000	-0.021	-0.212
-327.158	248.808	-0.072	-0.122
-326.143	-105.288	-0.207	0.047
-325.129	243.839	0.177	0.298
-324.114	41.765	0.255	0.232
-323.099	-173.118	-0.181	-0.006
-322.085	-65.884	0.279	-0.112
-321.070	-34.450	-0.160	0.088
-320.056	-66.571	0.297	0.118
-319.041	-90.331	0.304	0.089
-318.026	800.000	0.038	-0.128
-317.012	-107.779	0.348	0.076
-315.997	-30.868	0.244	-0.138
-314.983	-143.503	-0.173	0.017
-313.968	-109.471	-0.069	-0.015
-312.953	38.834	0.185	0.165
-311.939	-200.000	-0.005	-0.068
-310.924	2.135	0.148	-0.107
-309.910	289.839	-0.102	0.185
-308.895	-137.712	-0.208	0.023
-307.880	-200.000	-0.072	0.398
-306.866	197.839	0.127	-0.195
-305.851	-57.480	0.120	0.053
-304.837	-191.385	-0.388	-0.004
-303.822	-10.071	-0.148	0.099
-302.807	-40.334	0.034	0.018
-301.793	164.299	-0.096	0.136
-300.778	-200.000	0.026	-0.127
-299.764	-153.327	-0.192	0.013
-298.749	19.852	0.312	0.251
-297.735	-48.319	-0.143	0.069
-296.720	-144.554	0.395	0.037
-295.705	-91.919	0.216	-0.061
-294.691	219.553	-0.054	-0.086
-293.676	210.980	-0.030	-0.047
-292.662	-125.474	0.081	-0.012
-291.647	-200.000	-0.018	0.170
-290.632	-138.695	-0.134	0.015
-289.618	-200.000	0.029	0.212
-288.603	-200.000	-0.008	0.118
-287.589	-200.000	-0.014	0.076
-286.574	-200.000	-0.018	0.087
-285.559	403.686	-0.092	-0.194
-284.545	-129.447	-0.277	0.038
-283.530	-40.844	-0.164	-0.085
-282.516	-8.590	0.212	0.142
-281.501	43.661	-0.201	0.184
-280.486	-200.000	0.063	-0.347
-279.472	-87.382	0.151	-0.046
-278.457	-126.872	-0.182	-0.027
-277.443	-200.000	0.004	0.370
-276.428	96.921	0.223	0.255
-275.413	227.849	0.167	0.272
-274.399	-75.572	-0.146	0.052
-273.384	-6.607	0.003	0.002
-272.370	-17.986	-0.356	-0.223
-271.355	-75.529	-0.171	-0.061
-270.340	11.668	-0.115	0.088
-269.326	-153.996	0.118	0.008
-268.311	800.000	0.025	0.077
-267.297	208.167	-0.104	0.162
-266.282	-200.000	-0.012	-0.075
-265.267	130.449	-0.122	0.157
-264.253	-200.000	0.036	-0.231
-263.238	48.407	0.136	0.128
-262.224	-200.000	0.007	-0.047
-261.209	-200.000	0.010	0.315
-260.195	-46.479	0.265	-0.130
-259.180	25.804	0.061	0.051
-258.165	800.000	0.075	0.304
-257.151	-41.096	0.176	-0.091
-256.136	800.000	0.143	-0.417
-255.122	-97.343	0.169	-0.044
-254.107	-9.789	-0.065	-0.043
-253.092	27.898	-0.236	0.199
-252.078	800.000	0.077	-0.264
-251.063	800.000	0.019	-0.071
-250.049	-132.529	-0.308	-0.040
-249.034	-176.712	-0.221	-0.006
-248.019	-200.000	0.009	-0.050
-247.005	210.133	0.167	-0.262
-245.990	-200.000	0.019	0.192
-244.976	-200.000	0.081	0.416
-243.961	447.069	0.094	0.207
-242.946	19.360	0.223	-0.179
-241.932	176.031	0.075	-0.109
-240.917	198.867	-0.089	-0.136
-239.903	435.922	0.059	0.127
-238.888	-78.758	-0.183	0.062
-237.873	133.034	-0.171	-0.221
-236.859	766.846	-0.042	-0.114
-235.844	-30.684	-0.321	0.181
-234.830	-67.169	0.181	0.071
-233.815	268.468	-0.170	0.298
-232.800	323.104	-0.151	-0.288
-231.786	119.449	-0.197	-0.244
-230.771	-200.000	0.037	-0.242
-229.757	57.718	0.025	0.024
-228.742	-165.194	-0.087	-0.004
-227.727	-200.000	-0.051	-0.268
-226.713	800.000	0.135	0.484
-225.698	-63.924	0.045	0.018
-224.684	-32.155	-0.378	-0.211
-223.669	542.514	0.156	0.372
-222.655	-78.816	-0.160	0.054
-221.640	96.824	-0.217	0.248
-220.625	-200.000	-0.056	0.276
-219.611	-200.000	0.010	-0.405
-218.596	530.327	-0.119	-0.281
-217.582	40.963	-0.194	-0.174
-216.567	-200.000	-0.012	-0.090
-215.552	800.000	0.029	0.116
-214.538	-15.780	0.242	-0.154
-213.523	203.099	0.179	0.276
-212.509	-36.148	0.284	0.153
-211.494	-200.000	-0.046	0.253
-210.479	-68.171	-0.097	0.038
-209.465	44.253	-0.357	-0.327
-208.450	-73.884	-0.074	-0.027
-207.436	-59.042	-0.155	-0.067
-206.421	-113.757	0.272	-0.053
-205.406	201.585	-0.137	-0.211
-204.392	445.645	-0.130	-0.284
-203.377	83.433	-0.044	-0.048
-202.363	391.574	0.122	0.252
-201.348	-200.000	-0.027	0.123
-200.333	800.000	0.111	-0.322
-199.319	-191.253	0.225	0.002
-198.304	249.366	0.112	0.189
-197.290	-162.399	0.514	-0.025
-196.275	800.000	-0.069	-0.210
-195.260	9.075	-0.207	0.156
-194.246	288.925	0.069	0.125
-193.231	-51.322	-0.170	0.079
-192.217	-200.000	-0.007	0.111
-191.202	245.865	-0.061	0.102
-190.187	28.019	0.084	-0.070
-189.173	334.928	-0.062	0.120
-188.158	-0.419	0.174	-0.123
-187.144	-63.562	0.075	0.031
-186.129	-42.687	-0.088	-0.045
-185.114	338.350	0.115	-0.223
-184.100	275.475	-0.067	-0.118
-183.085	-200.000	-0.045	-0.368
-182.071	-51.499	-0.438	0.204
-181.056	-161.346	0.252	-0.013
-180.042	-200.000	-0.008	-0.332
-179.027	800.000	-0.028	-0.087
-178.012	768.081	-0.122	-0.331
-176.998	-146.559	0.086	0.007
-175.983	-200.000	-0.005	-0.150
-174.969	-200.000	-0.004	0.123
-173.954	-55.065	-0.211	0.095
-172.939	204.690	0.085	-0.131
-171.925	351.651	0.056	0.110
-170.910	-200.000	0.014	0.210
-169.896	150.217	-0.158	0.214
-168.881	-200.000	0.063	0.378
-167.866	624.428	-0.087	-0.217
-166.852	271.194	0.112	-0.196
-165.837	56.094	-0.186	-0.180
-164.823	-123.647	-0.168	-0.027
-163.808	-102.254	-0.132	0.032
-162.793	107.238	0.093	0.110
-161.779	59.999	0.126	0.124
-160.764	-110.025	-0.377	0.079
-159.750	-45.757	-0.315	0.155
-158.735	-61.749	-0.014	0.006
-157.720	-56.283	0.056	0.025
-156.706	-107.258	-0.192	0.042
-155.691	-148.350	-0.372	0.030
-154.677	800.000	-0.006	-0.016
-153.662	-26.993	-0.314	-0.183
-152.647	-157.810	0.102	-0.006
-151.633	38.789	-0.180	-0.160
-150.618	290.680	0.069	-0.124
-149.604	-121.329	-0.357	0.059
-148.589	800.000	0.018	-0.064
-147.574	-18.685	-0.142	0.088
-146.560	800.000	-0.056	0.202
-145.545	174.414	0.040	-0.058
-144.531	685.774	-0.063	-0.164
-143.516	17.492	0.240	0.189
-142.502	-20.145	-0.044	-0.027
-141.487	142.312	0.072	-0.096
-140.472	-200.000	-0.003	0.057
-139.458	88.747	-0.041	-0.046
-138.443	155.342	0.390	-0.534
-137.429	50.091	0.165	0.155
-136.414	372.582	-0.078	-0.158
-135.399	-122.589	-0.430	-0.069
-134.385	655.728	-0.061	0.155
-133.370	-122.492	0.222	-0.036
-132.356	550.006	0.031	-0.074
-131.341	236.864	0.048	0.080
-130.326	-200.000	-0.013	0.177
-129.312	115.700	0.188	-0.229
-128.297	18.451	0.235	0.187
-127.283	-120.131	0.459	-0.078
-126.268	-9.832	0.120	0.080
-125.253	131.436	-0.169	0.216
-124.239	-200.000	-0.028	-0.190
-123.224	794.734	-0.074	-0.203
-122.210	-43.467	-0.215	-0.108
