DTS Sentinel unit serial number:	SN413079Multiplexer serial number:	ORYXHardware model number:	OX4-SRSoftware version number:	ORYX F/W v4.00 Oryx Data Collector v3.7.2.0data status	okinstallation	princeton_trtdifferential loss correction	single-endedforward channel	channel 1reverse channel	N/Adate	2019/09/13time	03:30:35forward acquisition time	60.00reverse acquisition time	0.00gamma	496.2192k internal	0.2331k external	0.2331temperature offset calibration	1.0164default loss term (dB/km)	0.3790temperature slope calibration	1.0000multiplexer offset coefficient	1.0000multiplexer slope coefficient	1.0000fibre end	0.00T internal ref (°C)	27.31T ext. ref 1 (°C)	4.09T ext. ref 2 (°C)	21.79length (m)	temperature (°C)	Stokes	anti-Stokes-747.200	-88.991	-0.233	0.069
-746.185	781.776	-0.230	0.633
-745.171	70.973	0.078	-0.081
-744.156	258.184	0.180	0.312
-743.142	106.669	-0.138	0.165
-742.127	196.273	-0.130	0.199
-741.112	-200.000	-0.010	-0.163
-740.098	44.921	-0.154	0.143
-739.083	-38.224	-0.140	0.075
-738.069	-71.274	-0.167	0.063
-737.054	-200.000	0.020	0.164
-736.039	-48.329	-0.080	-0.039
-735.025	-76.887	-0.020	0.007
-734.010	-88.614	-0.305	-0.091
-732.996	260.077	-0.153	-0.265
-731.981	185.560	0.085	-0.127
-730.966	-137.486	-0.336	0.038
-729.952	-88.600	-0.345	-0.103
-728.937	84.752	-0.338	-0.372
-727.923	-53.113	-0.130	0.060
-726.908	-95.871	0.465	-0.125
-725.894	7.320	-0.089	-0.067
-724.879	-185.730	-0.090	-0.001
-723.864	-43.486	-0.254	0.129
-722.850	345.432	0.136	0.269
-721.835	116.896	-0.053	0.066
-720.821	-4.324	-0.164	0.114
-719.806	252.809	-0.054	0.092
-718.791	432.033	0.035	-0.077
-717.777	-200.000	-0.059	-0.272
-716.762	-117.526	-0.259	-0.047
-715.748	234.627	0.105	-0.174
-714.733	800.000	0.099	-0.325
-713.718	587.873	-0.103	-0.254
-712.704	95.030	0.083	-0.095
-711.689	800.000	-0.125	0.350
-710.675	85.868	0.392	0.433
-709.660	-200.000	-0.079	0.366
-708.645	312.841	-0.092	-0.173
-707.631	1.965	-0.028	0.020
-706.616	800.000	0.071	0.294
-705.602	24.936	0.166	-0.138
-704.587	-144.913	-0.461	0.042
-703.572	-157.624	0.141	-0.008
-702.558	185.044	-0.088	-0.131
-701.543	49.657	0.139	-0.132
-700.529	-200.000	0.016	-0.069
-699.514	7.546	-0.172	0.130
-698.499	-101.196	-0.278	0.068
-697.485	-85.367	-0.168	0.053
-696.470	252.354	-0.034	0.058
-695.456	-200.000	0.004	0.039
-694.441	143.430	-0.085	-0.113
-693.426	800.000	-0.110	0.314
-692.412	70.736	-0.251	0.261
-691.397	-171.849	0.264	0.009
-690.383	-145.395	-0.235	0.021
-689.368	9.839	-0.091	0.070
-688.354	-112.244	-0.134	-0.027
-687.339	-52.739	-0.258	0.120
-686.324	800.000	-0.041	-0.178
-685.310	115.889	0.117	-0.144
-684.295	-200.000	0.041	0.291
-683.281	-70.946	-0.465	0.176
-682.266	-110.989	0.442	-0.091
-681.251	53.282	-0.016	-0.015
-680.237	277.142	0.079	0.142
-679.222	288.993	0.149	-0.271
-678.208	-87.417	0.369	-0.112
-677.193	602.500	0.174	-0.434
-676.178	-97.210	-0.177	0.046
-675.164	800.000	0.079	0.308
-674.149	229.295	0.097	0.158
-673.135	780.294	-0.067	0.183
-672.120	-200.000	-0.022	-0.097
-671.105	800.000	-0.057	-0.198
-670.091	15.455	0.060	-0.047
-669.076	83.561	0.190	0.208
-668.062	800.000	-0.071	0.237
-667.047	-104.896	0.073	-0.017
-666.032	126.307	-0.109	-0.139
-665.018	-141.762	0.153	-0.015
-664.003	-38.772	-0.431	0.228
-662.989	-200.000	-0.070	-0.409
-661.974	359.805	-0.105	-0.210
-660.959	145.450	-0.166	-0.223
-659.945	278.916	0.069	0.123
-658.930	-153.118	0.072	0.005
-657.916	774.258	0.109	-0.298
-656.901	-36.403	-0.311	0.168
-655.886	-23.855	-0.172	-0.104
-654.872	-200.000	-0.003	-0.264
-653.857	-24.726	-0.100	-0.059
-652.843	50.637	-0.183	-0.174
-651.828	-62.791	0.255	-0.106
-650.814	-16.678	0.279	-0.177
-649.799	-200.000	0.009	-0.197
-648.784	179.292	0.245	-0.359
-647.770	-52.748	-0.063	-0.029
-646.755	90.132	0.116	-0.131
-645.741	160.280	-0.124	-0.173
-644.726	-139.433	-0.209	-0.022
-643.711	800.000	0.090	-0.345
-642.697	-0.084	0.269	-0.192
-641.682	800.000	-0.081	-0.315
-640.668	-200.000	-0.012	-0.236
-639.653	-169.710	0.163	0.006
-638.638	-200.000	-0.031	0.142
-637.624	-200.000	0.030	-0.142
-636.609	-24.293	-0.157	-0.094
-635.595	-200.000	-0.005	-0.048
-634.580	132.341	0.115	-0.148
-633.565	-200.000	0.042	-0.263
-632.551	61.416	0.074	0.074
-631.536	-127.580	-0.203	-0.029
-630.522	-55.102	-0.121	-0.055
-629.507	165.169	0.194	-0.275
-628.492	-200.000	0.000	-0.164
-627.478	643.546	-0.101	0.258
-626.463	-86.523	0.186	0.057
-625.449	-19.363	0.097	-0.060
-624.434	-6.193	-0.310	-0.212
-623.419	-21.940	0.123	-0.075
-622.405	98.217	0.186	-0.214
-621.390	-92.311	0.093	0.026
-620.376	-63.172	0.192	0.079
-619.361	152.613	0.262	-0.358
-618.346	-5.128	0.131	-0.091
-617.332	-97.373	-0.209	0.054
-616.317	-67.800	-0.073	-0.028
-615.303	187.127	-0.159	0.238
-614.288	223.664	0.035	-0.057
-613.273	42.608	0.189	-0.172
-612.259	191.180	-0.281	-0.424
-611.244	73.798	0.262	-0.275
-610.230	-129.259	-0.207	0.029
-609.215	382.179	-0.069	0.142
-608.201	263.292	-0.037	-0.064
-607.186	26.791	-0.300	0.252
-606.171	-152.288	-0.203	-0.015
-605.157	-46.461	-0.276	0.136
-604.142	-162.569	-0.061	0.003
-603.128	366.317	0.078	-0.156
-602.113	46.626	-0.194	0.180
-601.098	27.198	0.396	-0.333
-600.084	-29.297	-0.136	0.078
-599.069	-200.000	-0.007	0.195
-598.055	800.000	-0.032	-0.104
-597.040	518.508	0.053	-0.124
-596.025	-200.000	-0.003	0.036
-595.011	800.000	0.021	-0.082
-593.996	-56.241	0.330	0.147
-592.982	-200.000	-0.028	-0.277
-591.967	-74.414	0.212	-0.077
-590.952	5.029	-0.195	0.144
-589.938	-100.784	-0.040	0.010
-588.923	58.141	0.131	-0.129
-587.909	800.000	0.057	0.218
-586.894	-143.393	0.034	0.003
-585.879	153.228	-0.281	0.384
-584.865	-162.157	-0.418	-0.021
-583.850	-200.000	0.036	0.245
-582.836	132.186	-0.059	0.076
-581.821	800.000	-0.061	0.243
-580.806	736.413	0.063	-0.168
-579.792	-200.000	-0.003	-0.052
-578.777	256.889	-0.153	0.263
-577.763	4.694	0.247	-0.182
-576.748	-141.615	-0.386	0.039
-575.733	-149.826	0.513	-0.040
-574.719	-15.828	0.080	-0.051
-573.704	-200.000	-0.009	0.146
-572.690	-200.000	0.059	-0.404
-571.675	-200.000	0.014	0.070
-570.661	-68.401	0.152	0.059
-569.646	60.308	-0.062	0.061
-568.631	800.000	-0.105	0.409
-567.617	684.223	0.074	0.194
-566.602	106.503	-0.193	-0.228
-565.588	-54.485	-0.220	-0.100
-564.573	800.000	-0.025	0.077
-563.558	-200.000	-0.054	0.330
-562.544	368.591	-0.071	-0.143
-561.529	686.638	0.165	-0.430
-560.515	-31.465	0.356	0.200
-559.500	744.664	-0.072	-0.193
-558.485	-200.000	0.009	0.175
-557.471	791.802	0.074	-0.204
-556.456	110.053	-0.045	0.053
-555.442	109.858	0.074	0.088
-554.427	-66.953	0.167	0.066
-553.412	-200.000	0.020	0.163
-552.398	-1.632	-0.319	-0.225
-551.383	-126.467	0.344	-0.051
-550.369	-69.173	-0.122	-0.047
-549.354	800.000	0.132	0.420
-548.339	-91.606	0.195	-0.055
-547.325	-25.989	0.277	0.163
-546.310	-8.375	0.163	0.109
-545.296	731.661	0.108	-0.289
-544.281	-169.693	0.128	-0.005
-543.266	85.238	-0.305	-0.334
-542.252	-200.000	-0.010	0.193
-541.237	-200.000	0.038	-0.173
-540.223	-150.197	0.240	0.019
-539.208	-70.148	0.201	0.076
-538.193	-75.063	0.068	0.024
-537.179	242.204	0.057	-0.095
-536.164	-132.064	-0.264	-0.034
-535.150	-119.833	0.310	0.053
-534.135	-116.232	-0.147	-0.027
-533.121	-85.164	0.361	0.113
-532.106	314.985	-0.124	0.233
-531.091	-121.101	-0.034	-0.006
-530.077	-14.337	-0.135	-0.087
-529.062	-200.000	-0.015	-0.302
-528.048	1.001	-0.307	0.219
-527.033	139.739	-0.180	0.236
-526.018	-200.000	-0.011	-0.147
-525.004	349.778	0.059	-0.116
-523.989	800.000	0.043	-0.177
-522.975	74.637	-0.057	-0.060
-521.960	247.968	0.043	0.073
-520.945	399.201	-0.058	-0.122
-519.931	319.679	0.084	0.159
-518.916	-19.212	0.090	0.056
-517.902	-94.792	0.350	0.095
-516.887	27.202	0.027	0.023
-515.872	676.004	0.106	-0.276
-514.858	800.000	-0.056	-0.201
-513.843	115.946	0.083	-0.101
-512.829	400.789	-0.077	-0.162
-511.814	585.557	0.090	-0.221
-510.799	-14.222	0.114	-0.073
-509.785	-154.580	-0.400	-0.027
-508.770	-200.000	0.019	-0.333
-507.756	-200.000	0.007	-0.408
-506.741	-200.000	-0.017	0.252
-505.726	138.669	0.294	0.386
-504.712	104.017	-0.053	0.062
-503.697	-78.206	-0.284	-0.097
-502.683	-200.000	-0.064	-0.307
-501.668	-64.002	0.283	-0.115
-500.653	-89.518	0.200	0.059
-499.639	-200.000	-0.003	-0.378
-498.624	-200.000	0.033	-0.195
-497.610	94.284	0.240	0.271
-496.595	42.049	0.402	-0.364
-495.581	-200.000	0.028	-0.231
-494.566	469.233	0.062	-0.138
-493.551	14.918	0.051	0.040
-492.537	-200.000	0.018	0.119
-491.522	221.006	-0.049	0.078
-490.508	-117.908	-0.269	0.048
-489.493	473.969	-0.122	-0.274
-488.478	-9.790	-0.050	-0.033
-487.464	-96.802	-0.319	0.084
-486.449	-59.971	0.429	0.183
-485.435	82.091	-0.073	-0.078
-484.420	-200.000	0.014	0.084
-483.405	-39.684	-0.087	0.045
-482.391	3.428	-0.161	0.117
-481.376	1.519	0.215	-0.154
-480.362	-170.743	-0.311	-0.011
-479.347	410.283	-0.106	0.224
-478.332	369.885	-0.144	0.291
-477.318	-9.322	0.347	0.231
-476.303	716.759	0.098	-0.259
-475.289	-200.000	0.065	0.339
-474.274	83.917	0.063	-0.068
-473.259	79.631	-0.207	-0.221
-472.245	-162.544	0.226	-0.011
-471.230	584.831	0.057	0.140
-470.216	148.854	0.122	0.164
-469.201	19.170	0.019	-0.015
-468.186	-200.000	-0.051	-0.287
-467.172	-125.040	-0.209	-0.032
-466.157	-54.971	0.199	-0.089
-465.143	-180.821	-0.302	-0.006
-464.128	46.947	-0.072	-0.067
-463.113	731.948	0.039	0.104
-462.099	445.728	0.073	-0.159
-461.084	-200.000	0.091	-0.415
-460.070	-93.747	0.268	-0.074
-459.055	43.828	0.042	0.038
-458.040	-200.000	0.026	-0.149
-457.026	-200.000	0.086	0.442
-456.011	32.333	0.245	0.211
-454.997	800.000	-0.028	-0.083
-453.982	-49.617	-0.265	0.125
-452.968	204.444	-0.082	-0.126
-451.953	-30.446	-0.256	0.145
-450.938	-152.247	0.248	0.018
-449.924	179.342	0.222	0.323
-448.909	-200.000	0.046	0.310
-447.895	187.071	0.086	0.127
-446.880	134.098	-0.117	-0.150
-445.865	-78.759	0.190	-0.065
-444.851	786.650	-0.018	-0.050
-443.836	-46.699	-0.094	0.046
-442.822	-68.972	0.272	-0.104
-441.807	-87.226	-0.310	-0.094
-440.792	-121.488	0.116	0.019
-439.778	31.829	-0.233	-0.200
-438.763	-200.000	0.061	0.321
-437.749	-28.756	0.204	0.116
-436.734	-200.000	0.004	0.145
-435.719	503.147	0.052	0.120
-434.705	-152.439	0.243	0.017
-433.690	-7.923	0.126	0.085
-432.676	-35.926	-0.235	0.126
-431.661	800.000	0.004	0.012
-430.646	-38.092	-0.175	0.092
-429.632	44.170	-0.173	-0.158
-428.617	800.000	-0.014	-0.054
-427.603	-18.763	-0.361	-0.224
-426.588	345.210	0.092	0.179
-425.573	-200.000	-0.031	-0.143
-424.559	132.127	0.276	-0.353
-423.544	-127.466	-0.225	0.033
-422.530	11.690	-0.300	-0.229
-421.515	-200.000	0.006	-0.300
-420.500	438.396	-0.076	0.164
-419.486	-91.514	-0.312	-0.088
-418.471	94.012	0.117	0.132
-417.457	-73.218	0.265	-0.096
-416.442	24.494	-0.183	-0.150
-415.428	91.576	-0.139	0.156
-414.413	-37.045	-0.235	0.125
-413.398	-200.000	-0.044	-0.231
-412.384	-64.699	0.192	0.077
-411.369	-0.687	-0.129	0.091
-410.355	-69.896	0.320	-0.121
-409.340	343.711	-0.136	-0.266
-408.325	123.426	-0.165	0.205
-407.311	-94.274	0.264	-0.072
-406.296	-139.400	-0.055	-0.006
-405.282	71.532	0.152	0.157
-404.267	204.428	-0.065	0.099
-403.252	-157.301	0.291	-0.017
-402.238	471.283	0.050	-0.113
-401.223	-200.000	-0.012	0.333
-400.209	48.619	0.151	-0.141
-399.194	139.379	-0.090	0.117
-398.179	-22.179	-0.301	-0.181
-397.165	-200.000	-0.044	-0.221
-396.150	676.975	-0.065	-0.168
-395.136	168.696	-0.032	0.046
-394.121	342.045	0.161	0.313
-393.106	-129.032	0.108	0.015
-392.092	17.350	-0.164	0.129
-391.077	-65.751	-0.137	-0.054
-390.063	89.660	0.052	-0.057
-389.048	123.062	-0.109	-0.136
-388.033	624.436	0.034	0.084
-387.019	155.442	0.075	-0.103
-386.004	-85.217	-0.213	-0.066
-384.990	54.584	0.068	0.065
-383.975	-200.000	-0.038	-0.169
-382.960	31.944	0.201	0.172
-381.946	378.881	-0.108	0.220
-380.931	-53.654	-0.498	-0.226
-379.917	89.379	0.327	0.361
-378.902	-20.733	-0.238	0.145
-377.888	-125.363	0.446	-0.067
-376.873	-200.000	0.001	0.148
-375.858	-200.000	-0.045	-0.227
-374.844	-19.791	-0.174	-0.107
-373.829	243.516	-0.095	-0.159
-372.815	23.529	-0.085	-0.069
-371.800	218.093	0.054	0.086
-370.785	131.571	0.083	0.106
-369.771	175.954	0.110	-0.159
-368.756	46.378	0.106	-0.097
-367.742	-200.000	-0.037	-0.222
-366.727	-1.894	-0.180	0.126
-365.712	800.000	0.052	0.193
-364.698	-90.580	0.332	0.095
-363.683	220.371	-0.251	0.399
-362.669	-93.100	-0.384	0.106
-361.654	447.100	-0.051	-0.111
-360.639	-32.118	-0.161	-0.089
-359.625	-115.760	-0.162	0.030
-358.610	-128.331	-0.154	0.022
-357.596	11.213	0.158	-0.120
-356.581	-85.722	0.182	0.056
-355.566	14.378	0.148	-0.114
-354.552	-164.174	0.149	-0.007
-353.537	-33.224	0.204	-0.112
-352.523	-125.344	-0.149	0.022
-351.508	-129.503	-0.181	0.025
-350.493	112.749	0.075	0.090
-349.479	-16.826	0.293	0.184
-348.464	355.193	-0.232	0.457
-347.450	11.311	-0.138	0.105
-346.435	-1.795	-0.174	0.122
-345.420	-200.000	-0.025	0.139
-344.406	-65.093	-0.177	0.071
-343.391	-200.000	-0.021	-0.184
-342.377	-89.835	0.076	-0.022
-341.362	-200.000	0.009	-0.040
-340.348	9.096	-0.067	-0.050
-339.333	268.429	-0.183	0.317
-338.318	-200.000	-0.034	-0.406
-337.304	353.314	0.110	0.217
-336.289	-200.000	0.005	-0.093
-335.275	-200.000	-0.025	0.281
-334.260	370.223	-0.094	-0.188
-333.245	-13.518	-0.166	0.106
-332.231	-86.314	0.376	0.115
-331.216	-75.330	-0.186	0.066
-330.202	-189.453	0.280	-0.003
-329.187	335.621	0.074	0.142
-328.172	131.471	-0.047	0.060
-327.158	12.476	-0.154	-0.118
-326.143	94.550	-0.027	0.030
-325.129	-150.581	-0.357	-0.027
-324.114	132.347	0.214	-0.273
-323.099	28.910	-0.100	-0.084
-322.085	-95.347	-0.041	0.011
-321.070	-200.000	0.009	-0.077
-320.056	-103.223	0.315	-0.074
-319.041	-195.408	-0.225	-0.002
-318.026	328.980	0.083	-0.157
-317.012	-165.992	0.007	0.000
-315.997	-86.888	0.093	0.028
-314.983	800.000	0.087	0.332
-313.968	18.315	0.121	0.096
-312.953	-28.411	0.167	0.095
-311.939	-2.459	0.158	-0.110
-310.924	-150.037	-0.164	-0.013
-309.910	-200.000	-0.038	-0.199
-308.895	-200.000	-0.057	-0.404
-307.880	7.110	0.180	0.133
-306.866	-13.749	0.167	-0.107
-305.851	-75.059	-0.382	-0.135
-304.837	-132.773	-0.263	-0.033
-303.822	11.314	-0.089	-0.067
-302.807	395.562	0.048	-0.099
-301.793	-122.970	0.236	-0.038
-300.778	47.488	-0.077	0.071
-299.764	-47.545	-0.183	0.088
-298.749	169.319	-0.156	-0.220
-297.735	195.517	0.076	0.114
-296.720	-200.000	0.056	-0.358
-295.705	-134.221	0.255	0.031
-294.691	443.147	0.056	0.122
-293.676	12.248	0.220	0.168
-292.662	257.773	-0.104	-0.176
-291.647	-200.000	-0.015	0.417
-290.632	800.000	-0.066	0.237
-289.618	800.000	0.084	0.270
-288.603	-35.867	0.058	-0.031
-287.589	-106.826	-0.125	-0.027
-286.574	-103.429	-0.171	0.040
-285.559	-75.687	-0.290	0.102
-284.545	153.543	-0.143	-0.194
-283.530	-120.427	-0.080	0.013
-282.516	52.090	0.122	0.115
-281.501	110.863	-0.128	0.152
-280.486	800.000	-0.056	0.199
-279.472	97.107	0.121	0.138
-278.457	201.602	-0.360	0.548
-277.443	629.951	-0.166	0.416
-276.428	-71.989	-0.425	-0.156
-275.413	-20.422	-0.304	0.185
-274.399	-22.911	0.319	0.190
-273.384	800.000	0.086	0.341
-272.370	441.372	-0.055	-0.119
-271.355	14.607	-0.198	-0.153
-270.340	-200.000	0.004	-0.197
-269.326	-38.721	-0.125	-0.065
-268.311	-200.000	-0.022	-0.130
-267.297	-116.299	-0.216	-0.039
-266.282	29.772	0.030	0.025
-265.267	306.588	-0.051	0.094
-264.253	-120.091	-0.153	0.026
-263.238	-200.000	0.017	-0.367
-262.224	-52.410	0.250	0.114
-261.209	-58.140	-0.164	-0.070
-260.195	-200.000	0.001	0.175
-259.180	-200.000	-0.020	0.111
-258.165	-53.336	0.318	0.144
-257.151	-146.259	-0.220	0.019
-256.136	-105.865	0.108	0.024
-255.122	-41.577	-0.076	-0.039
-254.107	247.243	0.130	0.217
-253.092	292.997	-0.032	0.057
-252.078	-96.175	0.374	0.098
-251.063	506.660	0.109	0.251
-250.049	-9.484	-0.154	-0.101
-249.034	-200.000	0.009	-0.518
-248.019	69.761	0.208	-0.212
-247.005	380.080	-0.236	0.476
-245.990	-57.065	0.201	0.088
-244.976	51.484	-0.186	-0.174
-243.961	-24.396	0.068	-0.040
-242.946	67.385	-0.115	0.116
-241.932	-166.040	0.233	0.010
-240.917	800.000	0.043	0.129
-239.903	-110.187	-0.218	0.045
-238.888	-33.017	0.196	-0.107
-237.873	55.278	0.291	0.277
-236.859	91.626	-0.116	0.129
-235.844	-200.000	-0.022	-0.165
-234.830	-200.000	0.017	0.159
-233.815	352.638	0.149	-0.292
-232.800	106.493	-0.098	0.114
-231.786	-127.652	0.171	-0.024
-230.771	-109.465	-0.134	0.028
-229.757	208.739	-0.112	0.173
-228.742	-151.094	0.173	0.013
-227.727	-34.777	-0.208	-0.112
-226.713	71.147	-0.410	-0.419
-225.698	101.326	0.117	-0.135
-224.684	-90.162	0.325	-0.093
-223.669	-200.000	0.025	0.126
-222.655	-4.647	0.197	0.134
-221.640	32.344	-0.132	0.112
-220.625	-41.991	-0.209	-0.106
-219.611	61.062	-0.058	0.056
-218.596	-59.130	-0.165	0.070
-217.582	-126.467	0.056	-0.008
-216.567	800.000	-0.015	-0.043
-215.552	-29.399	0.161	-0.091
-214.538	128.596	0.116	0.145
-213.523	-62.558	0.201	0.082
-212.509	707.951	-0.079	0.205
-211.494	110.517	0.156	0.185
-210.479	525.011	0.163	0.377
-209.465	240.753	0.032	-0.053
-208.450	331.802	0.135	0.257
-207.436	35.240	-0.254	0.220
-206.421	-200.000	-0.001	0.230
-205.406	-160.443	0.110	-0.006
-204.392	-200.000	-0.013	0.181
-203.377	7.701	-0.084	0.062
-202.363	35.843	0.376	-0.326
-201.348	-16.137	-0.222	-0.139
-200.333	566.790	0.086	-0.207
-199.319	-200.000	-0.004	0.205
-198.304	505.323	-0.074	-0.170
-197.290	184.787	0.167	-0.244
-196.275	641.576	0.033	-0.082
-195.260	75.240	-0.087	0.091
-194.246	800.000	0.015	-0.044
-193.231	111.374	0.071	-0.084
-192.217	-92.557	0.169	0.047
-191.202	531.199	-0.016	0.036
-190.187	-38.901	-0.193	-0.100
-189.173	183.241	0.170	-0.248
-188.158	135.780	-0.251	0.322
-187.144	4.783	-0.231	0.167
-186.129	384.161	-0.094	0.190
-185.114	146.042	0.081	-0.107
-184.100	229.913	-0.062	-0.100
-183.085	719.913	-0.091	-0.238
-182.071	-171.238	0.403	-0.013
-181.056	33.318	-0.161	0.138
-180.042	78.544	-0.190	0.199
-179.027	-170.206	0.056	-0.002
-178.012	-200.000	0.036	-0.171
-176.998	404.158	0.131	0.272
-175.983	72.752	-0.046	0.047
-174.969	-55.075	0.206	0.091
-173.954	173.217	0.158	-0.224
-172.939	-1.977	-0.196	0.136
-171.925	517.361	0.106	0.245
-170.910	-200.000	0.034	0.229
-169.896	19.333	-0.264	0.209
-168.881	769.150	0.157	0.421
-167.866	-164.684	-0.258	0.011
-166.852	135.987	0.098	0.125
-165.837	27.351	-0.299	-0.247
-164.823	-68.020	-0.169	0.065
-163.808	-107.945	0.322	-0.069
-162.793	80.842	0.120	-0.127
-161.779	-48.460	0.052	0.025
-160.764	66.365	-0.229	-0.229
-159.750	61.387	-0.154	-0.151
-158.735	-90.565	-0.214	0.061
-157.720	-131.729	0.229	-0.030
-156.706	652.413	0.047	-0.118
-155.691	63.606	-0.356	0.351
-154.677	-200.000	0.057	-0.311
-153.662	-2.349	0.169	-0.117
-152.647	25.364	0.129	0.106
-151.633	800.000	-0.049	0.159
-150.618	-200.000	0.032	-0.149
-149.604	800.000	0.051	0.195
-148.589	-119.042	-0.311	-0.053
-147.574	-117.527	0.357	-0.063
-146.560	-50.161	-0.161	-0.075
-145.545	800.000	0.077	0.299
-144.531	-99.999	0.228	-0.056
-143.516	-200.000	-0.001	0.050
-142.502	800.000	0.098	0.352
-141.487	800.000	-0.046	-0.125
-140.472	-200.000	0.025	-0.121
-139.458	143.315	0.231	-0.303
-138.443	-97.769	-0.272	-0.069
-137.429	54.763	0.128	0.122
-136.414	36.284	0.217	-0.188
-135.399	-60.238	-0.145	-0.061
-134.385	22.157	0.272	0.218
-133.370	-68.432	-0.406	0.155
-132.356	-67.247	0.227	0.088
-131.341	342.745	0.087	0.168
-130.326	-200.000	-0.018	-0.180
-129.312	800.000	0.025	0.098
-128.297	800.000	0.042	0.140
-127.283	-147.946	-0.153	0.013
-126.268	-69.508	0.078	0.029
-125.253	274.942	0.151	0.263
-124.239	-6.418	0.044	-0.029
-123.224	5.508	0.197	0.143
-122.210	-200.000	0.008	-0.107
-121.195	-57.480	0.138	0.059
-120.180	87.868	0.103	-0.112
