DTS Sentinel unit serial number:	SN413079Multiplexer serial number:	ORYXHardware model number:	OX4-SRSoftware version number:	ORYX F/W v4.00 Oryx Data Collector v3.7.2.0data status	okinstallation	princeton_trtdifferential loss correction	single-endedforward channel	channel 1reverse channel	N/Adate	2019/09/11time	12:16:11forward acquisition time	60.00reverse acquisition time	0.00gamma	496.2192k internal	0.2294k external	0.2294temperature offset calibration	0.9938default loss term (dB/km)	0.3790temperature slope calibration	1.0000multiplexer offset coefficient	1.0000multiplexer slope coefficient	1.0000fibre end	0.00T internal ref (°C)	39.94T ext. ref 1 (°C)	0.20T ext. ref 2 (°C)	38.06length (m)	temperature (°C)	Stokes	anti-Stokes-747.200	15.716	0.420	0.338
-746.185	131.608	-0.050	0.066
-745.171	-53.986	-0.205	0.095
-744.156	-160.231	-0.109	-0.006
-743.142	-140.689	0.277	-0.029
-742.127	-56.291	0.169	0.077
-741.112	41.763	-0.130	-0.120
-740.098	58.703	0.185	0.186
-739.083	800.000	-0.032	0.091
-738.069	218.485	0.207	0.339
-737.054	-75.155	0.234	0.085
-736.039	4.911	-0.471	-0.354
-735.025	319.111	0.158	-0.306
-734.010	-128.846	-0.401	0.058
-732.996	-86.151	-0.246	-0.077
-731.981	-61.566	-0.136	-0.058
-730.966	800.000	-0.074	-0.231
-729.952	132.841	-0.054	0.072
-728.937	-19.797	-0.371	-0.235
-727.923	47.332	-0.412	-0.392
-726.908	365.536	0.079	0.163
-725.894	526.919	0.110	-0.264
-724.879	-135.869	-0.126	0.015
-723.864	-200.000	-0.270	0.000
-722.850	-82.124	-0.128	0.043
-721.835	-200.000	0.017	0.084
-720.821	73.242	-0.056	-0.060
-719.806	-90.161	-0.136	0.041
-718.791	-200.000	0.009	-0.047
-717.777	-111.040	-0.333	-0.070
-716.762	238.385	-0.206	-0.350
-715.748	167.463	-0.103	0.150
-714.733	-36.710	-0.181	-0.099
-713.718	-52.790	-0.047	-0.022
-712.704	800.000	-0.004	0.013
-711.689	-190.278	-0.261	-0.003
-710.675	648.708	0.095	-0.248
-709.660	-75.207	0.195	0.071
-708.645	-83.948	0.052	-0.017
-707.631	-147.312	0.293	0.025
-706.616	34.957	-0.180	0.161
-705.602	-200.000	-0.050	-0.224
-704.587	110.038	0.098	0.120
-703.572	-180.781	-0.462	-0.010
-702.558	259.009	-0.064	-0.113
-701.543	25.187	0.255	-0.217
-700.529	-200.000	-0.002	0.008
-699.514	0.595	-0.299	0.219
-698.499	123.183	0.153	0.195
-697.485	-200.000	-0.009	-0.245
-696.470	199.981	0.082	-0.128
-695.456	800.000	-0.059	0.244
-694.441	209.494	0.056	-0.090
-693.426	-69.429	-0.317	0.124
-692.412	800.000	0.042	0.154
-691.397	-200.000	-0.004	0.150
-690.383	97.256	0.148	-0.173
-689.368	-49.416	0.313	-0.152
-688.354	-200.000	0.028	-0.587
-687.339	105.586	0.207	-0.250
-686.324	-139.158	0.130	-0.014
-685.310	57.493	-0.263	0.263
-684.295	-124.474	0.180	-0.029
-683.281	231.291	-0.065	0.108
-682.266	800.000	-0.040	-0.131
-681.251	28.481	0.375	0.324
-680.237	-47.327	0.195	0.097
-679.222	-200.000	0.018	-0.270
-678.208	123.093	-0.220	-0.281
-677.193	800.000	-0.079	0.231
-676.178	26.146	-0.063	0.053
-675.164	-200.000	0.011	-0.100
-674.149	-200.000	-0.013	-0.165
-673.135	-70.209	0.041	0.016
-672.120	-200.000	-0.017	-0.130
-671.105	14.159	-0.111	0.088
-670.091	-200.000	0.025	-0.164
-669.076	99.537	-0.201	0.237
-668.062	-200.000	0.016	-0.208
-667.047	-58.755	0.339	-0.150
-666.032	-77.638	-0.146	0.051
-665.018	-94.912	0.211	-0.058
-664.003	150.303	-0.125	-0.173
-662.989	-79.027	0.306	0.106
-661.974	-200.000	-0.039	-0.210
-660.959	31.325	-0.030	0.026
-659.945	-72.242	-0.179	0.068
-658.930	-200.000	-0.154	-0.001
-657.916	4.738	-0.283	-0.212
-656.901	-1.538	-0.148	0.106
-655.886	433.103	-0.090	-0.199
-654.872	-200.000	-0.029	-0.164
-653.857	800.000	0.056	0.177
-652.843	563.664	0.007	0.016
-651.828	410.217	-0.052	-0.111
-650.814	103.326	-0.246	0.294
-649.799	-165.750	0.247	-0.011
-648.784	-66.019	-0.487	-0.198
-647.770	68.764	0.127	0.133
-646.755	36.875	-0.369	0.332
-645.741	-138.431	-0.415	0.047
-644.726	800.000	-0.082	-0.288
-643.711	-129.431	0.181	0.026
-642.697	-116.334	0.089	0.017
-641.682	-6.317	0.297	0.207
-640.668	-200.000	0.003	-0.053
-639.653	-61.658	0.319	-0.136
-638.638	532.983	0.040	-0.097
-637.624	57.721	-0.184	-0.184
-636.609	-14.345	0.218	-0.143
-635.595	800.000	-0.016	0.052
-634.580	116.077	0.097	0.121
-633.565	-134.410	-0.282	0.035
-632.551	-200.000	0.049	-0.309
-631.536	-72.395	-0.089	0.033
-630.522	-83.535	-0.158	0.052
-629.507	73.229	-0.137	-0.146
-628.492	8.600	-0.267	0.205
-627.478	-200.000	-0.009	0.130
-626.463	-200.000	-0.008	-0.282
-625.449	164.973	0.117	-0.168
-624.434	-200.000	0.013	-0.172
-623.419	-10.515	-0.133	-0.089
-622.405	15.030	0.019	-0.015
-621.390	17.754	-0.153	0.124
-620.376	-122.373	0.074	0.012
-619.361	-2.026	0.117	-0.084
-618.346	800.000	0.125	-0.414
-617.332	-200.000	-0.000	0.059
-616.317	-163.331	-0.219	-0.011
-615.303	480.752	0.030	0.069
-614.288	-147.093	-0.167	-0.014
-613.273	82.761	0.122	0.135
-612.259	-27.931	-0.085	0.050
-611.244	117.718	0.154	0.192
-610.230	7.917	-0.319	0.243
-609.215	-200.000	-0.036	-0.189
-608.201	-12.347	-0.056	-0.037
-607.186	32.295	-0.122	-0.107
-606.171	-132.127	-0.443	0.059
-605.157	-200.000	0.070	-0.458
-604.142	72.428	-0.275	-0.292
-603.128	531.873	0.013	-0.032
-602.113	-93.273	0.113	-0.032
-601.098	-80.507	0.058	0.020
-600.084	758.855	0.112	-0.308
-599.069	-123.964	-0.191	0.031
-598.055	114.655	-0.154	-0.191
-597.040	352.211	-0.135	-0.273
-596.025	-18.078	-0.117	-0.075
-595.011	283.898	0.178	-0.326
-593.996	-38.453	-0.211	-0.113
-592.982	758.858	0.151	0.415
-591.967	-180.342	0.254	0.005
-590.952	-200.000	-0.012	0.373
-589.938	-41.997	-0.113	-0.059
-588.923	59.899	-0.329	0.331
-587.909	157.626	0.062	-0.087
-586.894	75.648	-0.230	-0.247
-585.879	800.000	0.076	-0.273
-584.865	800.000	0.037	-0.121
-583.850	-76.748	0.195	0.069
-582.836	64.247	0.072	0.073
-581.821	-119.287	-0.157	0.028
-580.806	545.181	-0.131	-0.318
-579.792	800.000	0.064	-0.213
-578.777	-84.440	0.040	-0.013
-577.763	-190.582	0.140	0.002
-576.748	253.095	0.140	0.243
-575.733	172.967	0.106	0.155
-574.719	-57.819	0.240	-0.107
-573.704	800.000	-0.060	-0.168
-572.690	41.978	-0.100	0.092
-571.675	800.000	-0.039	-0.170
-570.661	-200.000	0.012	0.283
-569.646	-66.518	0.130	0.052
-568.631	460.220	0.072	0.162
-567.617	-59.702	0.157	0.068
-566.602	-200.000	0.020	0.177
-565.588	39.202	0.154	0.140
-564.573	-95.728	-0.420	0.114
-563.558	-49.094	0.116	0.057
-562.544	800.000	0.027	0.076
-561.529	800.000	0.071	-0.285
-560.515	-200.000	-0.005	0.133
-559.500	141.374	0.069	-0.093
-558.485	-156.494	0.404	-0.026
-557.471	-171.281	-0.249	0.008
-556.456	-46.641	-0.284	0.142
-555.442	357.933	-0.114	0.231
-554.427	140.722	-0.015	-0.020
-553.412	20.580	-0.146	0.120
-552.398	-200.000	0.005	0.097
-551.383	-39.073	0.370	-0.197
-550.369	169.581	-0.091	0.132
-549.354	-136.563	0.344	-0.040
-548.339	127.179	0.098	0.126
-547.325	380.029	0.043	-0.089
-546.310	16.109	-0.150	-0.120
-545.296	-200.000	0.008	-0.255
-544.281	-200.000	0.062	-0.337
-543.266	120.266	-0.239	-0.301
-542.252	42.343	-0.140	0.129
-541.237	-25.368	-0.133	0.080
-540.223	-75.029	-0.236	-0.086
-539.208	800.000	0.028	0.100
-538.193	242.422	-0.030	-0.051
-537.179	-200.000	0.025	-0.142
-536.164	-200.000	-0.008	0.201
-535.150	-200.000	0.025	0.267
-534.135	149.887	0.231	-0.317
-533.121	724.574	-0.094	0.253
-532.106	-200.000	-0.026	0.209
-531.091	-92.984	0.236	0.067
-530.077	-101.309	-0.304	0.075
-529.062	138.412	-0.098	-0.130
-528.048	-53.060	-0.127	-0.059
-527.033	-82.803	-0.213	0.070
-526.018	800.000	0.032	0.129
-525.004	243.191	0.262	-0.446
-523.989	-200.000	-0.017	-0.197
-522.975	13.279	-0.373	-0.293
-521.960	10.647	-0.088	-0.068
-520.945	-94.553	0.242	0.067
-519.931	-113.427	0.373	0.074
-518.916	440.129	0.175	0.387
-517.902	24.991	-0.192	0.162
-516.887	124.055	-0.034	0.044
-515.872	-36.798	-0.116	0.063
-514.858	663.178	0.135	-0.352
-513.843	75.980	-0.231	-0.247
-512.829	-200.000	-0.003	-0.151
-511.814	-140.170	-0.126	-0.013
-510.799	76.411	-0.180	0.193
-509.785	-200.000	0.016	-0.288
-508.770	-17.512	0.099	-0.063
-507.756	-200.000	0.009	-0.198
-506.741	800.000	-0.063	0.186
-505.726	291.473	-0.147	0.271
-504.712	444.917	-0.045	-0.099
-503.697	59.906	-0.277	-0.277
-502.683	15.825	-0.109	-0.087
-501.668	228.342	-0.046	0.076
-500.653	17.606	0.153	0.123
-499.639	714.872	0.099	0.265
-498.624	203.852	0.030	0.048
-497.610	-23.779	0.395	0.240
-496.595	433.649	0.009	0.021
-495.581	452.655	-0.226	-0.505
-494.566	-109.397	-0.170	0.037
-493.551	229.395	0.137	0.226
-492.537	-200.000	0.088	0.430
-491.522	-65.376	0.205	-0.083
-490.508	-133.270	0.309	-0.039
-489.493	103.027	0.244	0.289
-488.478	254.553	0.057	-0.099
-487.464	221.075	-0.135	-0.220
-486.449	-64.614	0.442	-0.182
-485.435	-164.275	0.144	-0.007
-484.420	114.892	-0.144	0.178
-483.405	800.000	-0.029	0.081
-482.391	12.828	0.280	-0.219
-481.376	800.000	-0.023	0.094
-480.362	149.596	-0.121	0.166
-479.347	92.901	0.304	-0.348
-478.332	347.096	0.040	-0.079
-477.318	-17.136	-0.144	0.092
-476.303	52.665	0.159	0.154
-475.289	-169.216	-0.429	-0.016
-474.274	173.230	0.164	-0.239
-473.259	101.691	0.227	-0.268
-472.245	-200.000	-0.054	0.280
-471.230	-200.000	0.020	-0.257
-470.216	-108.698	0.140	-0.030
-469.201	187.326	0.097	0.146
-468.186	220.175	-0.089	-0.145
-467.172	-167.477	-0.082	-0.003
-466.157	800.000	-0.068	-0.217
-465.143	-200.000	0.006	-0.151
-464.128	760.518	0.212	0.581
-463.113	-190.925	0.269	-0.003
-462.099	-50.331	-0.396	-0.189
-461.084	5.456	0.084	-0.063
-460.070	-200.000	-0.045	-0.240
-459.055	-92.068	-0.041	0.012
-458.040	136.195	-0.073	-0.097
-457.026	105.905	-0.072	0.086
-456.011	-115.916	0.119	-0.023
-454.997	800.000	0.064	-0.279
-453.982	486.712	-0.039	0.091
-452.968	11.682	-0.150	-0.117
-451.953	177.895	0.159	0.234
-450.938	-31.266	0.176	-0.100
-449.924	116.753	0.127	0.158
-448.909	119.077	0.123	-0.154
-447.895	-200.000	0.010	0.147
-446.880	-200.000	0.004	0.053
-445.865	2.457	-0.273	-0.200
-444.851	238.617	-0.042	-0.071
-443.836	31.060	-0.079	0.068
-442.822	-54.545	0.175	-0.080
-441.807	33.162	-0.212	-0.185
-440.792	-95.724	-0.106	-0.029
-439.778	572.666	-0.079	0.195
-438.763	254.909	-0.240	0.415
-437.749	162.437	-0.113	-0.160
-436.734	370.928	0.041	0.084
-435.719	-169.275	0.085	0.003
-434.705	-13.269	0.315	-0.207
-433.690	-81.474	-0.244	0.081
-432.676	183.321	0.054	0.081
-431.661	46.056	0.140	-0.131
-430.646	-196.465	-0.428	0.003
-429.632	-73.421	0.228	-0.084
-428.617	-80.630	0.288	0.097
-427.603	-176.876	0.399	-0.010
-426.588	-110.826	0.147	0.031
-425.573	-200.000	0.020	-0.189
-424.559	11.878	-0.191	-0.149
-423.544	-200.000	-0.028	-0.136
-422.530	-73.651	-0.199	0.073
-421.515	639.146	0.080	0.204
-420.500	-82.563	0.033	-0.011
-419.486	800.000	-0.083	-0.337
-418.471	75.727	0.081	-0.087
-417.457	-98.652	-0.211	-0.054
-416.442	556.110	-0.094	-0.228
-415.428	-91.616	0.158	0.045
-414.413	-4.038	0.224	0.157
-413.398	800.000	-0.068	-0.203
-412.384	-87.912	-0.348	0.106
-411.369	-0.203	0.066	0.047
-410.355	198.673	0.034	-0.052
-409.340	-147.088	-0.068	-0.006
-408.325	-59.992	-0.405	0.175
-407.311	-109.933	-0.175	-0.037
-406.296	3.070	0.243	0.178
-405.282	324.618	0.039	-0.075
-404.267	-56.615	0.111	0.050
-403.252	59.384	-0.175	0.174
-402.238	-200.000	0.015	-0.399
-401.223	81.354	0.110	-0.120
-400.209	80.179	0.054	0.059
-399.194	-93.315	-0.271	-0.076
-398.179	7.696	0.273	-0.206
-397.165	126.731	0.115	0.147
-396.150	-200.000	-0.034	-0.186
-395.136	2.039	-0.161	-0.117
-394.121	-191.753	0.227	-0.002
-393.106	800.000	-0.008	0.029
-392.092	184.971	-0.086	0.129
-391.077	-0.849	0.170	-0.122
-390.063	381.063	0.012	0.024
-389.048	447.518	-0.125	-0.277
-388.033	137.164	0.097	0.128
-387.019	280.199	-0.031	0.055
-386.004	-5.234	-0.156	0.108
-384.990	110.883	0.079	0.096
-383.975	318.391	-0.028	0.053
-382.960	-17.363	-0.351	0.223
-381.946	-70.777	-0.166	-0.063
-380.931	-200.000	-0.067	0.326
-379.917	-200.000	0.020	-0.134
-378.902	342.954	-0.034	0.067
-377.888	0.216	-0.152	0.110
-376.873	287.161	0.241	0.439
-375.858	-200.000	0.022	-0.211
-374.844	-59.601	0.200	-0.087
-373.829	-94.211	-0.186	0.051
-372.815	-75.491	-0.111	0.040
-371.800	-200.000	-0.057	0.266
-370.785	-131.662	-0.099	-0.013
-369.771	51.578	-0.283	-0.271
-368.756	475.296	-0.032	-0.073
-367.742	-200.000	0.010	-0.060
-366.727	-183.028	0.014	-0.000
-365.712	156.536	0.076	0.106
-364.698	-139.542	-0.093	0.010
-363.683	32.954	0.068	-0.059
-362.669	37.909	0.229	0.205
-361.654	61.822	0.178	0.179
-360.639	-200.000	-0.018	0.105
-359.625	800.000	0.025	0.105
-358.610	108.532	0.066	0.080
-357.596	-107.403	0.166	0.037
-356.581	-33.190	-0.311	0.174
-355.566	-200.000	0.009	-0.388
-354.552	-112.065	-0.257	-0.052
-353.537	713.196	-0.078	0.207
-352.523	-106.329	0.109	0.025
-351.508	90.487	0.068	0.076
-350.493	-173.307	0.195	0.006
-349.479	-200.000	-0.002	0.025
-348.464	3.990	-0.128	-0.094
-347.450	-87.427	-0.148	-0.045
-346.435	-83.108	-0.292	-0.095
-345.420	800.000	0.099	-0.383
-344.406	-60.588	0.157	-0.067
-343.391	-74.062	-0.346	-0.126
-342.377	-40.860	-0.196	-0.102
-341.362	-58.449	0.254	0.111
-340.348	-69.796	-0.170	0.065
-339.333	-126.844	-0.145	0.021
-338.318	800.000	-0.030	0.120
-337.304	800.000	0.075	-0.273
-336.289	37.320	0.209	0.187
-335.275	27.344	-0.153	-0.129
-334.260	800.000	0.060	0.206
-333.245	-101.973	-0.090	0.022
-332.231	46.595	-0.163	-0.152
-331.216	-200.000	0.002	-0.021
-330.202	490.201	0.121	0.279
-329.187	-200.000	0.037	-0.241
-328.172	-200.000	-0.081	-0.435
-327.158	43.431	-0.079	-0.073
-326.143	57.109	0.150	-0.147
-325.129	800.000	0.040	-0.113
-324.114	92.065	-0.293	0.332
-323.099	84.909	-0.072	-0.080
-322.085	282.738	0.062	-0.113
-321.070	39.930	0.218	0.197
-320.056	703.027	-0.030	-0.081
-319.041	-200.000	-0.015	0.128
-318.026	195.315	0.178	0.272
-317.012	134.588	0.047	0.062
-315.997	-9.270	-0.092	-0.062
-314.983	-91.766	0.412	0.118
-313.968	10.175	0.093	0.071
-312.953	-200.000	-0.001	-0.100
-311.939	-56.763	0.317	0.141
-310.924	73.722	-0.193	-0.204
-309.910	-200.000	-0.017	0.179
-308.895	99.255	-0.104	0.121
-307.880	-200.000	-0.061	-0.346
-306.866	207.524	0.119	0.187
-305.851	378.905	-0.040	-0.082
-304.837	-88.204	0.176	-0.053
-303.822	-59.328	0.131	0.057
-302.807	29.374	-0.202	-0.173
-301.793	-178.361	0.242	0.006
-300.778	53.019	0.182	0.175
-299.764	90.363	0.166	0.187
-298.749	13.532	-0.305	-0.238
-297.735	-200.000	0.064	-0.348
-296.720	-82.851	-0.116	-0.038
-295.705	65.325	0.053	-0.054
-294.691	10.441	0.212	0.162
-293.676	-200.000	-0.018	-0.152
-292.662	800.000	-0.050	-0.205
-291.647	356.089	-0.113	-0.227
-290.632	146.609	-0.119	-0.160
-289.618	-200.000	0.005	-0.086
-288.603	800.000	0.072	-0.249
-287.589	-155.937	-0.177	0.011
-286.574	-79.650	-0.242	-0.082
-285.559	-0.512	-0.212	0.151
-284.545	-34.305	0.199	0.109
-283.530	51.050	0.095	0.091
-282.516	17.235	-0.211	0.169
-281.501	-151.574	0.260	0.019
-280.486	3.098	0.314	-0.229
-279.472	-164.858	0.296	-0.013
-278.457	12.471	0.093	0.072
-277.443	-177.918	-0.227	-0.005
-276.428	-200.000	0.016	0.216
-275.413	-76.534	-0.013	-0.005
-274.399	-108.680	0.191	-0.041
-273.384	-23.371	-0.178	0.108
-272.370	295.634	0.178	-0.327
-271.355	-92.704	-0.095	-0.027
-270.340	-59.253	0.248	0.107
-269.326	-57.249	-0.250	-0.110
-268.311	-94.012	0.146	-0.040
-267.297	-200.000	-0.032	0.208
-266.282	99.270	0.143	0.166
-265.267	-200.000	-0.033	-0.219
-264.253	164.833	-0.126	0.179
-263.238	-0.391	0.040	0.028
-262.224	133.339	-0.095	-0.124
-261.209	-74.910	-0.001	0.000
-260.195	-154.563	0.098	-0.007
-259.180	22.902	-0.089	0.073
-258.165	-50.555	0.119	-0.056
-257.151	800.000	0.049	-0.136
-256.136	-47.898	0.151	-0.073
-255.122	14.937	-0.231	0.181
-254.107	-186.268	0.171	0.002
-253.092	-50.121	-0.186	0.088
-252.078	43.927	0.237	-0.218
-251.063	283.442	0.106	0.191
-250.049	-200.000	-0.072	0.392
-249.034	-200.000	0.027	0.349
-248.019	10.432	-0.215	-0.164
-247.005	-4.683	0.127	0.088
-245.990	-136.858	0.144	0.017
-244.976	494.817	0.085	0.195
-243.961	-200.000	0.015	-0.148
-242.946	110.828	0.224	0.270
-241.932	-200.000	0.071	0.360
-240.917	800.000	0.032	-0.120
-239.903	4.202	-0.208	0.153
-238.888	13.836	-0.073	0.057
-237.873	159.436	0.113	-0.158
-236.859	52.502	0.113	0.108
-235.844	800.000	0.045	-0.194
-234.830	-104.181	0.193	0.045
-233.815	271.164	-0.174	-0.307
-232.800	-34.160	0.092	-0.050
-231.786	337.887	0.240	0.468
-230.771	-200.000	0.009	-0.145
-229.757	-200.000	0.003	-0.051
-228.742	-11.671	0.276	0.182
-227.727	-122.025	-0.108	0.018
-226.713	-200.000	0.033	-0.283
-225.698	303.384	0.091	0.168
-224.684	-21.160	0.299	0.183
-223.669	-124.624	-0.088	0.014
-222.655	-200.000	0.041	0.318
-221.640	-81.899	-0.266	-0.087
-220.625	18.847	0.135	-0.109
-219.611	140.994	-0.119	0.158
-218.596	62.079	0.167	-0.167
-217.582	635.087	-0.097	-0.248
-216.567	152.260	-0.115	0.157
-215.552	320.221	0.069	0.131
-214.538	800.000	0.008	-0.023
-213.523	-101.928	-0.199	0.048
-212.509	-200.000	0.019	-0.151
-211.494	-200.000	-0.022	0.107
-210.479	-94.788	-0.243	0.066
-209.465	-200.000	0.044	0.365
-208.450	800.000	0.068	-0.240
-207.436	217.525	0.090	0.144
-206.421	500.480	0.052	0.120
-205.406	188.541	-0.050	0.074
-204.392	-40.961	-0.157	-0.081
-203.377	-51.070	0.137	-0.064
-202.363	-63.564	0.346	0.142
-201.348	736.151	-0.093	0.249
-200.333	37.974	0.349	0.311
-199.319	-183.181	0.221	-0.004
-198.304	-3.349	-0.279	0.194
-197.290	-200.000	-0.015	0.156
-196.275	-38.213	-0.368	0.195
-195.260	-196.345	0.048	-0.000
-194.246	-87.043	-0.369	-0.113
-193.231	202.463	0.152	0.234
-192.217	-111.678	0.261	-0.053
-191.202	-84.209	0.092	-0.029
-190.187	-200.000	0.015	0.198
-189.173	119.383	-0.164	0.203
-188.158	29.857	-0.161	-0.138
-187.144	-200.000	-0.047	-0.283
-186.129	304.154	-0.080	0.149
-185.114	-128.653	0.332	-0.047
-184.100	-28.843	0.113	0.065
-183.085	82.995	0.124	-0.135
-182.071	-139.959	0.149	-0.016
-181.056	-200.000	0.012	0.142
-180.042	-110.946	-0.337	0.069
-179.027	579.396	0.060	-0.148
-178.012	-200.000	-0.019	0.117
-176.998	95.844	-0.164	0.188
-175.983	394.556	0.034	0.072
-174.969	-200.000	-0.037	-0.195
-173.954	61.620	0.221	-0.220
-172.939	-200.000	0.008	0.222
-171.925	-200.000	0.019	-0.148
-170.910	288.593	-0.009	0.017
-169.896	-88.837	-0.290	-0.086
-168.881	226.625	0.002	0.004
-167.866	-29.470	-0.267	0.153
-166.852	-97.254	0.046	0.012
-165.837	38.420	0.247	0.220
-164.823	-72.078	0.239	0.089
-163.808	-85.021	0.361	0.113
-162.793	79.861	-0.135	0.145
-161.779	-132.806	0.567	-0.072
-160.764	77.346	-0.283	0.301
-159.750	234.658	-0.061	0.101
-158.735	-200.000	0.075	-0.329
-157.720	-17.182	-0.150	0.094
-156.706	800.000	-0.076	0.330
-155.691	223.153	-0.175	0.282
-154.677	438.104	-0.110	-0.241
-153.662	-78.099	0.273	-0.094
-152.647	-93.612	-0.495	0.137
-151.633	-76.357	-0.145	-0.051
-150.618	126.587	0.115	0.145
-149.604	-54.130	-0.074	-0.034
-148.589	-200.000	0.012	-0.164
-147.574	28.200	0.146	-0.123
-146.560	5.951	0.136	-0.101
-145.545	-200.000	0.039	-0.174
-144.531	187.451	0.217	-0.324
-143.516	331.928	-0.039	0.075
-142.502	-132.997	0.266	-0.034
-141.487	60.118	-0.122	-0.120
-140.472	-89.916	0.223	0.065
-139.458	380.652	-0.150	0.307
-138.443	-51.456	0.185	-0.086
-137.429	179.930	0.033	-0.048
-136.414	-200.000	-0.015	-0.104
-135.399	93.521	0.079	0.089
-134.385	178.540	-0.079	0.116
-133.370	800.000	-0.036	-0.136
-132.356	435.648	-0.044	0.096
-131.341	-200.000	-0.043	0.218
-130.326	-57.171	-0.219	0.096
-129.312	-12.537	-0.126	0.082
-128.297	-152.200	-0.346	0.025
-127.283	-72.253	0.277	0.102
-126.268	-200.000	-0.040	-0.314
-125.253	-162.118	-0.173	0.009
-124.239	-148.724	-0.203	0.016
-123.224	-108.166	-0.141	0.030
-122.210	-200.000	-0.040	-0.199
-121.195	-7.490	0.171	0.115
-120.180	0.794	0.304	-0.217
