DTS Sentinel unit serial number:	SN413079Multiplexer serial number:	ORYXHardware model number:	OX4-SRSoftware version number:	ORYX F/W v4.00 Oryx Data Collector v3.7.2.0data status	okinstallation	princeton_trtdifferential loss correction	single-endedforward channel	channel 1reverse channel	N/Adate	2019/09/14time	16:58:35forward acquisition time	60.00reverse acquisition time	0.00gamma	496.2192k internal	0.2295k external	0.2295temperature offset calibration	1.0051default loss term (dB/km)	0.3790temperature slope calibration	1.0000multiplexer offset coefficient	1.0000multiplexer slope coefficient	1.0000fibre end	0.00T internal ref (°C)	38.00T ext. ref 1 (°C)	4.99T ext. ref 2 (°C)	33.25length (m)	temperature (°C)	Stokes	anti-Stokes-747.200	254.329	-0.164	-0.287
-746.185	-54.260	0.145	0.067
-745.171	-200.000	-0.042	-0.469
-744.156	-41.634	-0.157	0.082
-743.142	-200.000	0.071	-0.643
-742.127	-48.160	-0.111	0.055
-741.112	-200.000	-0.181	-0.000
-740.098	-27.940	-0.186	0.110
-739.083	565.680	-0.125	0.311
-738.069	61.870	0.219	0.223
-737.054	341.062	-0.126	-0.252
-736.039	-59.138	0.212	-0.093
-735.025	483.314	0.141	0.327
-734.010	-200.000	0.008	-0.249
-732.996	-14.826	-0.269	-0.176
-731.981	199.965	-0.175	0.275
-730.966	409.940	-0.127	0.275
-729.952	-22.817	-0.154	-0.095
-728.937	67.201	0.121	0.126
-727.923	-150.613	-0.331	0.026
-726.908	94.263	-0.132	0.153
-725.894	-200.000	0.019	-0.142
-724.879	13.000	-0.169	0.133
-723.864	-200.000	-0.035	-0.367
-722.850	170.315	-0.141	-0.206
-721.835	468.125	-0.006	0.013
-720.821	178.737	0.093	-0.139
-719.806	-200.000	0.073	0.376
-718.791	-2.666	-0.107	0.077
-717.777	800.000	-0.066	0.245
-716.762	-45.093	-0.303	-0.154
-715.748	800.000	0.120	-0.534
-714.733	-135.642	-0.066	0.008
-713.718	-200.000	-0.019	-0.278
-712.704	-200.000	0.005	-0.075
-711.689	116.412	-0.162	-0.203
-710.675	-22.622	-0.213	-0.131
-709.660	-140.359	-0.357	0.038
-708.645	-200.000	0.008	0.042
-707.631	750.694	-0.023	-0.063
-706.616	-104.945	0.215	0.050
-705.602	94.792	0.199	-0.231
-704.587	139.783	-0.153	-0.205
-703.572	-200.000	0.028	-0.212
-702.558	-200.000	-0.011	0.135
-701.543	-200.000	-0.038	-0.355
-700.529	-200.000	-0.015	0.147
-699.514	800.000	0.093	-0.341
-698.499	104.898	-0.224	0.270
-697.485	56.121	-0.034	-0.033
-696.470	-200.000	-0.026	-0.152
-695.456	344.157	0.170	-0.340
-694.441	-161.622	0.288	0.015
-693.426	-162.549	0.074	0.004
-692.412	-200.000	0.027	0.270
-691.397	-200.000	-0.005	-0.434
-690.383	-68.194	-0.286	-0.113
-689.368	-62.343	-0.269	0.114
-688.354	131.023	0.087	0.114
-687.339	13.432	-0.226	-0.179
-686.324	-33.578	0.214	0.120
-685.310	266.320	0.022	0.040
-684.295	-48.548	0.125	-0.061
-683.281	-77.905	-0.214	-0.075
-682.266	-92.836	-0.208	0.059
-681.251	-200.000	0.003	-0.406
-680.237	-52.665	0.194	0.091
-679.222	195.196	-0.123	-0.190
-678.208	-139.044	0.292	0.032
-677.193	-7.505	-0.099	-0.068
-676.178	156.299	0.216	-0.304
-675.164	-84.625	-0.535	-0.172
-674.149	67.183	-0.223	0.232
-673.135	-67.210	0.122	-0.049
-672.120	278.623	0.125	-0.227
-671.105	115.529	-0.109	-0.136
-670.091	800.000	0.079	0.282
-669.076	-200.000	0.034	-0.254
-668.062	6.718	0.420	-0.319
-667.047	800.000	-0.054	-0.155
-666.032	-40.904	-0.440	-0.232
-665.018	785.353	0.130	-0.363
-664.003	-134.811	0.161	0.020
-662.989	224.527	-0.104	0.172
-661.974	-200.000	0.026	-0.160
-660.959	124.712	0.267	-0.342
-659.945	800.000	0.008	-0.035
-658.930	-165.029	0.154	0.007
-657.916	-40.216	0.179	0.095
-656.901	-35.084	-0.163	-0.091
-655.886	37.490	0.120	0.109
-654.872	-164.131	0.173	-0.008
-653.857	-200.000	-0.068	-0.449
-652.843	-8.890	-0.113	-0.077
-651.828	-30.486	0.045	0.026
-650.814	800.000	0.037	0.151
-649.799	-200.000	-0.021	-0.133
-648.784	-79.024	0.135	0.047
-647.770	-17.288	-0.099	0.063
-646.755	-59.060	0.111	-0.049
-645.741	-200.000	0.003	-0.278
-644.726	-200.000	0.035	-0.230
-643.711	800.000	0.040	0.147
-642.697	182.114	0.084	-0.127
-641.682	-32.688	-0.045	-0.026
-640.668	-12.048	-0.087	-0.058
-639.653	-14.650	-0.392	-0.257
-638.638	-104.017	0.168	0.040
-637.624	-200.000	-0.005	0.308
-636.609	-96.558	0.144	-0.039
-635.595	567.455	0.091	0.226
-634.580	-200.000	0.013	-0.106
-633.565	-200.000	0.023	-0.210
-632.551	562.147	-0.123	-0.302
-631.536	-162.499	-0.268	-0.013
-630.522	-22.993	0.207	-0.127
-629.507	800.000	-0.014	-0.054
-628.492	-4.679	0.068	0.048
-627.478	-128.893	0.371	-0.053
-626.463	-79.491	-0.199	0.068
-625.449	-75.586	-0.249	-0.090
-624.434	21.270	0.045	0.037
-623.419	27.576	0.246	0.210
-622.405	134.329	0.182	0.240
-621.390	50.164	-0.305	0.293
-620.376	587.495	0.076	0.190
-619.361	87.745	0.187	0.210
-618.346	-182.366	-0.419	0.008
-617.332	-56.380	-0.292	-0.132
-616.317	52.941	0.299	0.291
-615.303	800.000	0.019	0.082
-614.288	553.741	-0.083	0.202
-613.273	54.216	0.060	-0.058
-612.259	-47.854	-0.286	0.141
-611.244	22.403	-0.238	-0.198
-610.230	248.888	0.111	-0.192
-609.215	609.071	-0.069	-0.175
-608.201	416.371	0.038	0.083
-607.186	226.216	-0.062	0.102
-606.171	172.959	-0.101	0.147
-605.157	-104.647	0.075	-0.017
-604.142	-137.128	0.190	0.022
-603.128	-36.044	-0.130	-0.071
-602.113	-194.302	-0.201	0.002
-601.098	-120.443	-0.076	0.013
-600.084	54.357	0.169	0.166
-599.069	-97.398	0.264	0.070
-598.055	179.936	0.129	-0.193
-597.040	-200.000	-0.010	0.048
-596.025	-145.917	0.181	0.016
-595.011	-200.000	0.026	0.154
-593.996	703.436	0.065	0.174
-592.982	74.067	-0.097	0.103
-591.967	-0.975	0.135	0.097
-590.952	402.912	0.083	0.177
-589.938	-112.802	-0.145	-0.029
-588.923	203.247	-0.214	-0.337
-587.909	236.941	-0.197	-0.332
-586.894	800.000	0.006	-0.017
-585.879	-200.000	0.069	0.571
-584.865	-200.000	0.018	0.343
-583.850	-87.975	-0.163	-0.050
-582.836	-29.227	0.147	0.085
-581.821	-9.725	-0.361	-0.245
-580.806	-184.732	0.098	-0.002
-579.792	-200.000	-0.003	-0.146
-578.777	489.600	0.077	-0.180
-577.763	126.544	-0.089	-0.115
-576.748	329.366	-0.090	0.176
-575.733	217.599	0.030	-0.049
-574.719	-49.006	0.438	0.213
-573.704	-80.770	-0.129	0.043
-572.690	3.341	-0.121	0.090
-571.675	1.778	-0.304	0.223
-570.661	800.000	-0.068	0.301
-569.646	-200.000	-0.017	-0.328
-568.631	612.488	0.110	-0.280
-567.617	-52.563	0.211	0.099
-566.602	42.518	-0.116	0.107
-565.588	1.983	0.220	-0.161
-564.573	-33.114	0.282	-0.159
-563.558	-135.769	0.188	0.023
-562.544	9.116	-0.303	0.233
-561.529	-52.005	0.322	0.152
-560.515	84.044	-0.101	-0.112
-559.500	-200.000	0.019	-0.339
-558.485	-67.586	0.126	0.050
-557.471	-59.832	0.181	-0.079
-556.456	122.660	0.147	0.187
-555.442	19.885	0.303	-0.248
-554.427	-136.531	-0.103	0.012
-553.412	800.000	-0.041	-0.164
-552.398	-160.342	0.048	-0.003
-551.383	-200.000	-0.031	0.261
-550.369	99.681	-0.028	0.032
-549.354	-166.495	0.342	-0.015
-548.339	-200.000	-0.043	0.227
-547.325	-156.613	-0.340	0.021
-546.310	14.269	0.112	0.089
-545.296	-126.431	-0.286	0.043
-544.281	-200.000	0.065	0.308
-543.266	-165.453	0.297	-0.013
-542.252	-109.238	0.188	0.041
-541.237	-25.544	-0.090	0.054
-540.223	16.737	0.182	-0.146
-539.208	312.836	-0.042	-0.081
-538.193	-200.000	-0.030	0.483
-537.179	-200.000	-0.005	0.333
-536.164	-200.000	0.003	0.079
-535.150	-200.000	0.034	-0.312
-534.135	-90.077	0.357	-0.105
-533.121	519.974	-0.091	-0.217
-532.106	800.000	-0.022	-0.074
-531.091	171.749	-0.072	-0.104
-530.077	-110.163	0.561	0.119
-529.062	47.854	-0.243	-0.230
-528.048	17.793	-0.178	0.144
-527.033	199.278	-0.191	-0.297
-526.018	74.872	0.217	-0.231
-525.004	-119.155	0.114	0.020
-523.989	-200.000	-0.008	0.051
-522.975	-57.451	-0.079	0.035
-521.960	-123.246	0.229	-0.037
-520.945	-138.402	-0.281	-0.031
-519.931	25.365	-0.311	0.262
-518.916	-200.000	-0.045	0.337
-517.902	-177.410	0.374	-0.009
-516.887	-200.000	0.000	0.138
-515.872	128.173	0.307	0.395
-514.858	157.616	-0.052	0.073
-513.843	-102.577	0.189	-0.046
-512.829	130.716	-0.074	0.097
-511.814	-123.270	-0.119	-0.019
-510.799	800.000	-0.041	-0.150
-509.785	-200.000	0.075	0.390
-508.770	-92.984	-0.233	0.066
-507.756	13.242	-0.308	-0.242
-506.741	-145.932	-0.143	-0.013
-505.726	374.206	0.189	-0.391
-504.712	-58.825	-0.292	-0.128
-503.697	-71.989	0.408	-0.154
-502.683	-83.288	0.240	0.078
-501.668	320.527	-0.075	0.144
-500.653	800.000	-0.060	-0.228
-499.639	82.911	-0.261	-0.287
-498.624	-200.000	-0.012	0.065
-497.610	240.803	-0.138	0.233
-496.595	-4.051	0.363	-0.255
-495.581	11.490	0.189	-0.147
-494.566	508.319	0.114	-0.268
-493.551	-78.905	0.194	-0.067
-492.537	-200.000	-0.024	0.360
-491.522	-68.516	0.249	-0.098
-490.508	-66.831	0.144	0.057
-489.493	-200.000	-0.031	-0.215
-488.478	800.000	0.062	0.244
-487.464	675.256	0.053	-0.140
-486.449	25.113	-0.204	-0.172
-485.435	217.450	-0.090	-0.145
-484.420	211.235	-0.150	-0.239
-483.405	-94.921	-0.192	0.053
-482.391	208.167	0.262	0.415
-481.376	543.508	0.048	0.115
-480.362	-67.880	-0.143	-0.057
-479.347	-58.254	0.034	0.015
-478.332	-81.568	-0.090	0.030
-477.318	-9.260	-0.303	-0.205
-476.303	-37.040	-0.231	-0.125
-475.289	70.422	0.099	-0.103
-474.274	48.763	0.015	-0.015
-473.259	800.000	-0.048	-0.164
-472.245	391.887	0.095	0.199
-471.230	-90.090	0.357	-0.105
-470.216	17.500	-0.126	0.101
-469.201	15.392	-0.360	0.285
-468.186	114.376	0.038	0.047
-467.172	50.160	-0.129	-0.123
-466.157	141.029	-0.111	0.148
-465.143	-93.239	0.262	0.074
-464.128	49.399	0.215	-0.204
-463.113	-130.636	-0.035	-0.005
-462.099	-146.874	0.222	0.019
-461.084	-200.000	-0.002	-0.111
-460.070	-68.355	0.075	0.030
-459.055	-170.140	-0.355	-0.013
-458.040	33.825	-0.248	-0.218
-457.026	-27.658	0.129	0.076
-456.011	280.515	0.096	0.173
-454.997	-200.000	0.041	0.330
-453.982	-38.290	0.480	-0.257
-452.968	-41.860	0.290	0.150
-451.953	-37.874	-0.211	-0.114
-450.938	56.573	0.075	-0.074
-449.924	-200.000	-0.066	0.414
-448.909	138.516	-0.122	0.161
-447.895	800.000	-0.049	0.143
-446.880	-141.064	0.188	0.019
-445.865	-200.000	-0.010	-0.064
-444.851	-106.936	0.058	0.013
-443.836	-67.167	-0.209	-0.083
-442.822	107.849	0.115	-0.139
-441.807	-85.719	-0.477	-0.150
-440.792	18.819	-0.096	-0.077
-439.778	-43.248	-0.160	0.082
-438.763	-83.755	0.260	-0.084
-437.749	-200.000	0.015	0.551
-436.734	60.769	0.201	0.201
-435.719	-148.543	-0.164	0.014
-434.705	110.263	0.115	0.139
-433.690	118.058	0.153	-0.191
-432.676	-200.000	0.043	-0.275
-431.661	58.461	0.098	0.097
-430.646	-175.703	-0.533	-0.015
-429.632	-178.790	-0.283	-0.007
-428.617	151.997	-0.110	0.151
-427.603	36.747	-0.084	-0.075
-426.588	-58.216	-0.475	-0.209
-425.573	137.812	-0.043	-0.057
-424.559	-190.021	0.109	0.001
-423.544	126.895	0.167	-0.214
-422.530	-200.000	0.017	-0.116
-421.515	-19.508	0.104	-0.065
-420.500	-42.675	-0.118	0.060
-419.486	249.394	0.176	-0.301
-418.471	-80.176	0.206	0.070
-417.457	-200.000	-0.092	-0.501
-416.442	90.022	-0.393	-0.443
-415.428	-200.000	-0.033	-0.179
-414.413	-5.104	-0.111	0.077
-413.398	-200.000	-0.006	0.048
-412.384	-78.032	0.196	0.068
-411.369	-40.356	0.167	-0.088
-410.355	132.294	0.102	-0.132
-409.340	75.034	0.064	0.068
-408.325	58.309	-0.114	-0.113
-407.311	-27.573	0.287	-0.168
-406.296	-200.000	0.013	-0.170
-405.282	-56.275	0.189	0.085
-404.267	-51.609	-0.300	-0.141
-403.252	800.000	-0.052	-0.198
-402.238	57.163	-0.103	-0.102
-401.223	-9.084	0.037	-0.025
-400.209	-200.000	0.045	-0.208
-399.194	22.642	-0.464	-0.383
-398.179	-200.000	0.012	-0.260
-397.165	289.761	0.141	0.258
-396.150	-200.000	0.063	-0.287
-395.136	800.000	0.065	-0.185
-394.121	316.079	0.067	-0.128
-393.106	-200.000	-0.024	-0.176
-392.092	19.529	-0.221	0.179
-391.077	177.114	0.004	-0.005
-390.063	150.093	0.273	-0.374
-389.048	103.107	-0.327	-0.386
-388.033	-112.322	-0.286	-0.058
-387.019	-200.000	0.052	-0.275
-386.004	800.000	-0.118	0.428
-384.990	758.866	-0.095	0.260
-383.975	800.000	0.050	0.218
-382.960	-146.592	0.041	0.004
-381.946	-200.000	0.056	0.291
-380.931	-120.979	0.245	0.041
-379.917	-200.000	0.392	-0.002
-378.902	473.224	0.051	0.117
-377.888	-90.200	0.184	0.054
-376.873	30.587	-0.210	-0.181
-375.858	49.291	-0.338	-0.320
-374.844	-4.434	-0.293	-0.204
-373.829	167.974	-0.121	0.173
-372.815	48.826	-0.135	0.128
-371.800	269.479	0.215	-0.380
-370.785	318.639	-0.111	-0.211
-369.771	128.091	-0.234	0.299
-368.756	46.002	0.082	-0.076
-367.742	-46.972	-0.266	0.131
-366.727	123.694	0.320	0.404
-365.712	-200.000	0.040	0.210
-364.698	362.108	0.155	0.313
-363.683	-151.438	-0.140	-0.010
-362.669	-111.779	0.260	0.053
-361.654	17.809	0.140	-0.113
-360.639	-141.337	-0.135	0.014
-359.625	-177.208	0.277	-0.007
-358.610	17.960	0.282	0.226
-357.596	-200.000	-0.050	0.244
-356.581	-79.685	-0.118	-0.040
-355.566	-95.308	-0.376	-0.102
-354.552	328.610	0.020	0.039
-353.537	800.000	0.082	0.231
-352.523	136.911	-0.172	0.226
-351.508	435.599	-0.135	0.296
-350.493	356.232	0.130	-0.262
-349.479	41.584	0.140	-0.128
-348.464	800.000	-0.066	-0.240
-347.450	800.000	-0.056	-0.184
-346.435	-200.000	0.082	-0.488
-345.420	-145.334	-0.285	0.026
-344.406	-165.732	0.188	0.008
-343.391	-200.000	-0.018	0.180
-342.377	-177.713	-0.157	-0.004
-341.362	-38.873	0.272	0.144
-340.348	-118.209	0.208	-0.037
-339.333	800.000	0.061	0.204
-338.318	364.280	-0.160	0.325
-337.304	-3.080	-0.171	0.120
-336.289	138.414	0.141	0.187
-335.275	-46.758	-0.220	0.109
-334.260	-45.485	-0.132	0.066
-333.245	121.352	0.220	-0.275
-332.231	260.600	-0.205	-0.357
-331.216	-9.051	-0.498	-0.336
-330.202	165.540	0.139	-0.198
-329.187	54.244	-0.267	-0.258
-328.172	-142.924	0.174	0.017
-327.158	0.535	0.187	-0.134
-326.143	20.355	0.181	0.147
-325.129	39.158	-0.058	-0.052
-324.114	171.915	0.208	0.301
-323.099	513.765	-0.190	0.446
-322.085	-9.138	-0.071	-0.048
-321.070	-67.723	0.138	0.055
-320.056	-62.137	-0.191	0.080
-319.041	118.425	0.274	-0.340
-318.026	651.975	-0.027	0.069
-317.012	-71.705	0.136	-0.051
-315.997	800.000	0.025	0.104
-314.983	-61.095	0.238	-0.101
-313.968	-200.000	0.011	-0.514
-312.953	-79.376	0.114	-0.039
-311.939	109.427	0.158	0.190
-310.924	272.521	0.092	0.163
-309.910	-4.332	0.033	-0.023
-308.895	800.000	-0.067	-0.264
-307.880	-3.436	-0.132	0.092
-306.866	225.637	-0.034	-0.055
-305.851	-107.187	-0.293	-0.065
-304.837	257.147	0.245	0.423
-303.822	-53.759	0.378	-0.173
-302.807	-200.000	-0.078	0.450
-301.793	-200.000	-0.015	0.246
-300.778	-78.266	0.118	-0.041
-299.764	800.000	0.047	0.174
-298.749	-18.527	0.095	-0.060
-297.735	-40.699	0.292	-0.152
-296.720	800.000	0.109	0.428
-295.705	-91.871	0.267	0.076
-294.691	800.000	0.030	-0.093
-293.676	-200.000	-0.056	-0.378
-292.662	-191.926	-0.026	-0.000
-291.647	786.616	-0.073	-0.202
-290.632	-116.975	0.268	0.049
-289.618	93.521	0.109	0.124
-288.603	-121.345	0.315	-0.053
-287.589	-73.524	0.226	0.083
-286.574	46.887	0.113	-0.105
-285.559	800.000	-0.082	0.298
-284.545	-132.704	0.265	-0.034
-283.530	-18.613	-0.154	0.096
-282.516	349.840	0.034	-0.067
-281.501	426.883	-0.146	0.315
-280.486	18.259	-0.211	0.169
-279.472	800.000	-0.043	0.165
-278.457	4.143	-0.108	0.080
-277.443	95.789	0.409	0.469
-276.428	-200.000	-0.043	-0.307
-275.413	583.651	0.069	-0.170
-274.399	21.429	-0.282	-0.230
-273.384	314.354	-0.062	0.116
-272.370	-200.000	-0.044	0.382
-271.355	-200.000	0.039	0.468
-270.340	800.000	-0.039	-0.161
-269.326	139.543	0.065	-0.086
-268.311	-86.971	-0.131	-0.040
-267.297	-2.822	-0.363	0.254
-266.282	384.656	-0.053	-0.109
-265.267	3.983	0.455	-0.334
-264.253	-172.017	0.218	-0.007
-263.238	185.411	0.124	0.184
-262.224	-200.000	-0.028	-0.235
-261.209	-99.562	-0.130	-0.033
-260.195	270.243	0.021	0.037
-259.180	188.991	0.048	-0.072
-258.165	-140.751	-0.169	0.018
-257.151	-25.697	-0.085	0.050
-256.136	-194.964	-0.275	0.002
-255.122	-34.261	-0.090	0.050
-254.107	-70.332	-0.110	0.042
-253.092	-149.083	0.070	0.006
-252.078	-85.703	-0.195	-0.061
-251.063	133.416	0.089	-0.115
-250.049	-200.000	0.045	-0.197
-249.034	800.000	-0.050	-0.177
-248.019	800.000	-0.067	0.240
-247.005	-88.349	-0.120	-0.036
-245.990	-200.000	-0.007	0.228
-244.976	-51.396	0.037	0.018
-243.961	-24.945	-0.321	0.191
-242.946	-97.565	-0.331	-0.086
-241.932	-15.696	0.209	0.133
-240.917	-181.909	0.286	-0.005
-239.903	-200.000	0.053	-0.261
-238.888	-200.000	-0.002	-0.208
-237.873	321.628	0.165	-0.315
-236.859	-139.648	0.116	0.012
-235.844	-187.087	-0.089	0.001
-234.830	800.000	-0.076	0.273
-233.815	-200.000	-0.026	0.302
-232.800	-200.000	0.020	0.181
-231.786	-200.000	0.081	-0.508
-230.771	52.172	-0.176	-0.168
-229.757	-88.531	0.233	-0.070
-228.742	-78.744	0.134	-0.046
-227.727	-200.000	-0.041	0.425
-226.713	-116.748	0.316	0.058
-225.698	-200.000	-0.034	0.206
-224.684	114.266	0.191	-0.233
-223.669	-138.172	0.297	0.033
-222.655	-23.450	-0.096	-0.058
-221.640	87.103	-0.114	-0.126
-220.625	-158.550	-0.152	0.009
-219.611	195.803	-0.032	0.049
-218.596	-74.364	0.254	-0.092
-217.582	234.478	0.070	-0.115
-216.567	-200.000	0.000	0.328
-215.552	81.697	0.144	-0.156
-214.538	63.021	0.092	-0.092
-213.523	-4.163	0.051	-0.035
-212.509	-13.366	-0.158	-0.103
-211.494	1.046	-0.032	0.023
-210.479	-163.766	0.354	0.017
-209.465	103.896	0.247	-0.290
-208.450	-53.382	-0.134	-0.061
-207.436	-73.402	0.150	0.055
-206.421	-50.100	0.221	0.105
-205.406	248.440	-0.029	-0.049
-204.392	245.452	-0.134	0.225
-203.377	-2.627	-0.183	0.128
-202.363	526.791	-0.059	0.139
-201.348	-6.488	-0.228	-0.156
-200.333	-200.000	-0.023	-0.167
-199.319	34.066	0.085	-0.074
-198.304	-0.056	-0.249	0.178
-197.290	-97.440	0.252	0.065
-196.275	424.796	0.023	0.050
-195.260	67.840	-0.320	-0.327
-194.246	343.757	0.019	0.038
-193.231	-82.666	-0.382	0.124
-192.217	-59.889	0.231	0.099
-191.202	288.609	0.012	-0.021
-190.187	314.144	-0.217	0.409
-189.173	4.522	-0.164	-0.120
-188.158	-133.994	0.268	-0.033
-187.144	800.000	0.038	0.141
-186.129	-127.921	-0.169	-0.024
-185.114	-200.000	-0.300	-0.001
-184.100	547.511	0.061	-0.146
-183.085	800.000	0.027	0.082
-182.071	384.962	-0.115	-0.237
-181.056	338.413	0.088	-0.172
-180.042	639.233	-0.061	-0.156
-179.027	157.630	-0.141	-0.195
-178.012	-72.478	-0.227	-0.084
-176.998	-91.486	0.130	-0.037
-175.983	67.633	-0.089	-0.091
-174.969	361.368	-0.038	-0.077
-173.954	-200.000	-0.018	0.159
-172.939	6.801	-0.166	0.123
-171.925	-200.000	-0.034	0.184
-170.910	259.318	-0.087	-0.151
-169.896	140.607	-0.122	-0.161
-168.881	-134.968	0.050	-0.006
-167.866	188.331	0.008	-0.012
-166.852	68.931	-0.235	0.242
-165.837	800.000	0.101	0.329
-164.823	800.000	0.078	0.241
-163.808	49.984	-0.189	0.178
-162.793	-101.436	-0.156	0.038
-161.779	800.000	0.042	-0.150
-160.764	-83.422	0.175	0.056
-159.750	114.831	-0.123	0.150
-158.735	-200.000	-0.029	-0.367
-157.720	-152.073	-0.294	-0.021
-156.706	248.967	0.054	-0.091
-155.691	342.228	0.056	0.109
-154.677	800.000	-0.024	-0.093
-153.662	765.985	-0.086	0.235
-152.647	-86.794	-0.204	-0.062
-151.633	-90.499	-0.471	0.136
-150.618	-200.000	-0.011	-0.328
-149.604	-30.334	-0.340	-0.193
-148.589	-200.000	-0.004	-0.091
-147.574	800.000	0.062	0.223
-146.560	-125.578	0.149	-0.023
-145.545	-200.000	-0.028	-0.410
-144.531	-53.760	0.097	0.044
-143.516	140.815	-0.095	0.125
-142.502	7.421	-0.271	-0.202
-141.487	800.000	0.033	-0.105
-140.472	-200.000	0.052	-0.338
-139.458	-107.948	0.183	-0.040
-138.443	231.538	-0.101	0.165
-137.429	35.975	-0.285	0.250
-136.414	-119.825	0.119	0.021
-135.399	62.599	0.087	-0.087
-134.385	116.573	-0.145	-0.178
-133.370	73.303	-0.200	-0.209
-132.356	11.822	-0.308	0.236
-131.341	800.000	-0.030	0.114
-130.326	-107.033	-0.249	-0.055
-129.312	-54.134	0.221	-0.100
-128.297	9.004	0.189	-0.143
-127.283	-200.000	-0.004	-0.132
-126.268	34.068	0.261	-0.227
-125.253	-5.504	0.094	0.064
-124.239	-200.000	-0.036	0.245
-123.224	-28.104	0.089	0.051
-122.210	-45.782	0.358	0.177
-121.195	800.000	0.063	0.206
