DTS Sentinel unit serial number:	SN413079Multiplexer serial number:	ORYXHardware model number:	OX4-SRSoftware version number:	ORYX F/W v4.00 Oryx Data Collector v3.7.2.0data status	okinstallation	princeton_trtdifferential loss correction	single-endedforward channel	channel 1reverse channel	N/Adate	2019/09/11time	21:24:11forward acquisition time	60.00reverse acquisition time	0.00gamma	496.2192k internal	0.2309k external	0.2309temperature offset calibration	1.0049default loss term (dB/km)	0.3790temperature slope calibration	1.0000multiplexer offset coefficient	1.0000multiplexer slope coefficient	1.0000fibre end	0.00T internal ref (°C)	36.12T ext. ref 1 (°C)	1.57T ext. ref 2 (°C)	30.06length (m)	temperature (°C)	Stokes	anti-Stokes-747.200	184.656	-0.115	0.174
-746.185	185.016	-0.323	0.487
-745.171	-200.000	0.019	0.259
-744.156	-22.812	-0.308	-0.189
-743.142	401.398	-0.023	-0.048
-742.127	-24.252	0.300	0.182
-741.112	148.268	0.100	-0.137
-740.098	293.187	0.328	0.607
-739.083	27.734	-0.043	-0.037
-738.069	91.098	0.083	0.094
-737.054	132.258	-0.091	-0.120
-736.039	77.561	-0.095	-0.103
-735.025	-36.055	0.282	0.155
-734.010	43.014	-0.106	0.098
-732.996	-24.191	-0.226	-0.137
-731.981	-200.000	0.029	0.151
-730.966	-45.005	-0.163	-0.083
-729.952	-200.000	0.001	-0.139
-728.937	39.207	0.107	-0.097
-727.923	408.798	0.137	-0.294
-726.908	127.292	-0.227	0.293
-725.894	16.481	-0.061	-0.049
-724.879	179.224	0.097	0.145
-723.864	-88.048	-0.185	-0.057
-722.850	46.631	0.281	0.265
-721.835	-10.432	-0.032	-0.022
-720.821	-200.000	-0.004	0.281
-719.806	800.000	0.014	0.052
-718.791	189.244	0.089	0.135
-717.777	93.874	0.156	-0.180
-716.762	-135.181	0.313	0.038
-715.748	-67.615	0.332	-0.132
-714.733	-200.000	0.018	-0.092
-713.718	-200.000	-0.016	-0.284
-712.704	-200.000	0.005	-0.405
-711.689	185.376	-0.099	0.149
-710.675	-157.028	0.249	-0.015
-709.660	34.677	-0.216	0.192
-708.645	-102.894	0.230	-0.055
-707.631	-110.748	-0.034	0.007
-706.616	-48.770	-0.294	-0.143
-705.602	-200.000	-0.029	-0.256
-704.587	-109.403	-0.057	-0.012
-703.572	-90.871	-0.153	0.045
-702.558	597.881	0.080	-0.201
-701.543	-56.089	0.135	-0.061
-700.529	-200.000	0.046	0.231
-699.514	-196.281	-0.040	-0.000
-698.499	759.468	0.048	0.132
-697.485	800.000	0.130	-0.432
-696.470	-79.627	0.378	-0.129
-695.456	800.000	-0.078	-0.315
-694.441	-169.259	0.456	0.017
-693.426	-130.219	0.385	-0.053
-692.412	43.644	0.230	0.213
-691.397	40.731	0.112	0.103
-690.383	237.396	0.166	0.280
-689.368	76.829	0.050	-0.054
-688.354	-33.732	0.120	0.067
-687.339	4.996	-0.320	-0.238
-686.324	54.867	-0.144	-0.141
-685.310	97.479	-0.064	0.075
-684.295	-161.215	-0.174	-0.009
-683.281	68.824	-0.135	-0.141
-682.266	-200.000	0.063	-0.347
-681.251	-104.248	-0.542	-0.127
-680.237	800.000	-0.040	-0.154
-679.222	-116.594	-0.382	-0.071
-678.208	486.677	-0.016	-0.037
-677.193	165.712	0.149	0.214
-676.178	-200.000	0.055	-0.299
-675.164	116.699	0.007	0.009
-674.149	95.862	0.150	0.174
-673.135	175.861	-0.180	0.264
-672.120	-97.533	-0.249	0.066
-671.105	237.435	0.076	-0.127
-670.091	-137.680	-0.184	-0.021
-669.076	40.563	-0.270	0.246
-668.062	335.178	-0.160	0.315
-667.047	-99.398	-0.211	-0.054
-666.032	800.000	-0.123	0.362
-665.018	-200.000	0.081	0.399
-664.003	-155.987	0.242	-0.016
-662.989	465.134	0.144	0.327
-661.974	309.674	-0.019	-0.036
-660.959	-96.226	-0.145	-0.039
-659.945	-44.957	0.222	0.112
-658.930	-6.509	0.119	0.082
-657.916	318.244	0.020	-0.039
-656.901	-117.189	0.446	-0.082
-655.886	-84.694	0.096	-0.031
-654.872	-6.968	0.155	0.107
-653.857	-200.000	-0.047	-0.337
-652.843	68.249	-0.082	0.085
-651.828	145.639	-0.117	-0.159
-650.814	-200.000	-0.002	0.079
-649.799	-200.000	-0.041	-0.293
-648.784	-76.149	-0.144	0.051
-647.770	-144.952	-0.127	0.012
-646.755	-130.284	-0.116	0.016
-645.741	414.140	0.079	0.169
-644.726	-200.000	-0.021	-0.102
-643.711	112.349	-0.015	0.018
-642.697	-161.335	-0.272	0.014
-641.682	-3.848	0.069	-0.048
-640.668	12.463	-0.087	-0.068
-639.653	-200.000	0.016	-0.192
-638.638	-161.602	-0.263	-0.014
-637.624	-63.809	0.433	0.179
-636.609	-9.582	-0.336	-0.227
-635.595	-28.314	-0.331	0.193
-634.580	471.396	0.024	0.055
-633.565	800.000	-0.048	-0.155
-632.551	-184.307	-0.322	0.005
-631.536	-55.364	0.102	-0.046
-630.522	-68.081	0.269	0.106
-629.507	-200.000	-0.009	0.135
-628.492	-200.000	0.010	0.112
-627.478	-200.000	-0.029	0.379
-626.463	-141.929	-0.401	0.041
-625.449	351.238	0.070	-0.140
-624.434	-200.000	0.004	0.120
-623.419	-56.969	-0.021	-0.009
-622.405	-155.811	0.253	0.016
-621.390	-101.050	0.419	0.104
-620.376	-200.000	0.004	0.154
-619.361	29.809	-0.200	-0.172
-618.346	-25.460	-0.226	-0.135
-617.332	8.280	-0.175	0.133
-616.317	-200.000	-0.024	0.139
-615.303	2.021	0.187	0.137
-614.288	-85.803	0.234	-0.073
-613.273	-97.863	0.139	-0.036
-612.259	-33.115	0.058	-0.033
-611.244	71.602	0.020	0.022
-610.230	800.000	-0.073	-0.256
-609.215	-200.000	0.078	-0.421
-608.201	714.443	0.079	0.212
-607.186	430.757	0.097	0.212
-606.171	-11.073	-0.056	-0.037
-605.157	800.000	0.086	-0.373
-604.142	-78.142	0.102	-0.036
-603.128	41.868	-0.154	-0.141
-602.113	-107.892	-0.231	-0.051
-601.098	-200.000	0.045	0.229
-600.084	-200.000	-0.056	0.333
-599.069	49.162	0.164	0.156
-598.055	36.146	0.196	-0.174
-597.040	782.580	-0.101	0.280
-596.025	-200.000	0.034	0.243
-595.011	78.979	0.089	-0.096
-593.996	-200.000	0.045	-0.332
-592.982	356.968	0.129	-0.260
-591.967	93.039	0.107	0.122
-590.952	44.812	-0.176	0.163
-589.938	65.102	0.150	-0.153
-588.923	104.477	0.178	0.212
-587.909	800.000	0.074	-0.231
-586.894	800.000	0.014	0.055
-585.879	-10.173	-0.223	-0.149
-584.865	800.000	0.051	-0.161
-583.850	-200.000	0.035	0.225
-582.836	20.348	-0.211	-0.172
-581.821	-100.780	0.338	-0.084
-580.806	65.618	-0.114	0.116
-579.792	465.510	-0.083	0.188
-578.777	-38.653	-0.126	0.067
-577.763	-107.884	-0.042	0.009
-576.748	-117.945	-0.235	-0.042
-575.733	-163.167	0.213	-0.010
-574.719	-200.000	0.022	-0.351
-573.704	800.000	-0.032	-0.118
-572.690	-174.293	-0.284	-0.008
-571.675	452.836	-0.046	-0.103
-570.661	526.312	0.052	-0.124
-569.646	413.801	0.067	0.145
-568.631	198.998	0.084	0.130
-567.617	227.783	-0.175	0.287
-566.602	-45.325	-0.124	0.062
-565.588	126.847	0.088	0.112
-564.573	651.132	-0.034	0.088
-563.558	511.731	0.130	0.305
-562.544	-57.142	0.095	0.042
-561.529	69.694	-0.191	-0.199
-560.515	-49.824	-0.230	-0.110
-559.500	107.401	0.043	0.052
-558.485	-200.000	-0.009	-0.053
-557.471	191.366	-0.031	0.047
-556.456	330.811	-0.093	0.181
-555.442	256.746	0.177	0.307
-554.427	-97.795	0.157	-0.041
-553.412	-17.490	-0.035	-0.022
-552.398	46.035	-0.113	-0.106
-551.383	-98.118	-0.278	0.072
-550.369	-22.182	0.270	-0.165
-549.354	-2.686	0.325	-0.229
-548.339	-42.768	0.324	0.166
-547.325	-200.000	-0.027	-0.149
-546.310	800.000	0.089	-0.260
-545.296	-2.099	-0.096	-0.068
-544.281	-200.000	0.013	-0.328
-543.266	317.200	-0.222	-0.422
-542.252	-101.023	-0.184	0.045
-541.237	303.714	-0.007	0.014
-540.223	-49.982	0.021	-0.010
-539.208	-200.000	-0.074	-0.358
-538.193	86.130	0.012	0.013
-537.179	-91.932	-0.394	-0.113
-536.164	203.954	-0.101	0.157
-535.150	-74.155	0.253	-0.092
-534.135	-9.285	0.199	0.134
-533.121	-127.103	0.263	-0.039
-532.106	-200.000	0.041	-0.253
-531.091	-83.761	0.176	-0.057
-530.077	-104.709	-0.224	-0.052
-529.062	3.368	-0.134	-0.098
-528.048	-144.766	-0.149	-0.014
-527.033	-200.000	0.018	-0.256
-526.018	-169.524	-0.246	0.009
-525.004	82.644	0.063	0.069
-523.989	519.758	0.177	0.418
-522.975	-26.911	-0.164	0.097
-521.960	148.904	-0.141	-0.192
-520.945	101.668	-0.090	0.106
-519.931	109.202	0.267	0.321
-518.916	-29.240	0.085	0.049
-517.902	-20.016	0.172	-0.107
-516.887	-200.000	0.048	0.434
-515.872	-76.364	0.128	-0.046
-514.858	5.815	0.175	-0.131
-513.843	39.702	0.342	0.309
-512.829	97.993	0.158	0.183
-511.814	29.747	-0.143	-0.123
-510.799	41.243	0.172	-0.157
-509.785	135.829	-0.087	0.115
-508.770	0.226	-0.109	-0.079
-507.756	489.236	-0.159	0.365
-506.741	268.469	-0.061	0.107
-505.726	-163.824	0.252	0.012
-504.712	-200.000	0.033	-0.172
-503.697	24.185	-0.201	0.167
-502.683	-157.637	0.289	0.017
-501.668	485.302	0.025	-0.058
-500.653	-176.791	0.121	-0.003
-499.639	800.000	-0.072	0.246
-498.624	-103.642	-0.192	-0.045
-497.610	5.881	0.270	0.201
-496.595	-112.534	0.259	-0.052
-495.581	-200.000	-0.029	0.240
-494.566	152.301	-0.108	-0.148
-493.551	118.751	-0.069	-0.085
-492.537	-200.000	0.027	-0.187
-491.522	-140.577	-0.271	0.028
-490.508	-200.000	0.016	0.118
-489.493	-8.659	-0.171	0.115
-488.478	32.151	0.063	0.054
-487.464	-127.597	0.184	0.027
-486.449	67.703	-0.107	-0.110
-485.435	-38.798	0.239	0.127
-484.420	16.964	0.118	-0.094
-483.405	341.913	-0.163	-0.321
-482.391	198.781	-0.221	-0.340
-481.376	800.000	0.028	-0.080
-480.362	-200.000	0.024	-0.288
-479.347	77.435	0.210	-0.225
-478.332	-122.023	-0.458	0.076
-477.318	-200.000	0.022	0.108
-476.303	220.079	-0.002	0.004
-475.289	37.810	0.185	-0.165
-474.274	354.211	-0.043	-0.085
-473.259	12.211	0.068	0.052
-472.245	56.692	-0.205	0.200
-471.230	800.000	-0.020	-0.072
-470.216	166.020	0.157	-0.224
-469.201	-79.711	0.072	-0.024
-468.186	218.522	0.075	-0.120
-467.172	224.226	0.193	0.314
-466.157	800.000	-0.051	0.194
-465.143	-200.000	-0.020	-0.221
-464.128	275.355	0.123	-0.219
-463.113	-178.513	-0.121	-0.003
-462.099	232.526	0.131	0.216
-461.084	-200.000	0.052	0.378
-460.070	-200.000	0.024	0.198
-459.055	341.630	0.084	-0.164
-458.040	63.300	-0.190	0.191
-457.026	-71.992	-0.337	-0.126
-456.011	88.498	0.066	-0.074
-454.997	563.946	-0.014	-0.034
-453.982	-149.725	0.189	-0.015
-452.968	-200.000	0.013	0.356
-451.953	-200.000	0.031	0.196
-450.938	67.340	-0.217	0.222
-449.924	25.681	0.166	0.139
-448.909	-105.002	0.132	0.030
-447.895	-28.011	-0.086	-0.050
-446.880	-134.811	-0.207	0.025
-445.865	525.727	-0.055	0.130
-444.851	-171.200	-0.245	0.008
-443.836	3.495	-0.141	-0.103
-442.822	-97.124	-0.175	-0.046
-441.807	183.993	-0.114	-0.169
-440.792	-200.000	0.017	-0.411
-439.778	-26.301	0.449	-0.265
-438.763	180.148	-0.166	0.244
-437.749	51.074	-0.099	-0.094
-436.734	800.000	-0.022	0.096
-435.719	-112.128	0.172	0.035
-434.705	244.233	-0.056	-0.095
-433.690	-119.772	-0.185	0.032
-432.676	-0.655	-0.139	0.099
-431.661	-95.867	0.158	0.042
-430.646	15.395	-0.131	0.103
-429.632	-10.831	-0.157	-0.104
-428.617	398.586	0.125	-0.262
-427.603	323.025	0.058	0.111
-426.588	148.106	-0.098	-0.132
-425.573	-200.000	0.027	-0.199
-424.559	118.864	0.236	-0.292
-423.544	800.000	0.060	0.214
-422.530	-66.935	-0.045	0.018
-421.515	302.706	-0.136	0.253
-420.500	800.000	0.050	-0.140
-419.486	196.658	-0.086	-0.132
-418.471	204.598	0.108	0.167
-417.457	56.024	-0.223	-0.217
-416.442	174.307	0.073	-0.106
-415.428	-137.968	-0.134	0.015
-414.413	-49.838	-0.115	0.055
-413.398	-200.000	-0.055	0.240
-412.384	-30.667	0.248	0.141
-411.369	-133.515	0.046	-0.006
-410.355	110.978	-0.136	-0.164
-409.340	2.996	-0.197	-0.143
-408.325	795.585	0.087	-0.241
-407.311	-13.898	0.140	0.091
-406.296	800.000	-0.016	-0.062
-405.282	289.304	-0.154	-0.280
-404.267	-63.155	-0.249	0.103
-403.252	45.347	0.128	0.119
-402.238	-200.000	-0.004	0.208
-401.223	414.880	0.138	0.294
-400.209	-39.734	0.273	-0.143
-399.194	-200.000	-0.018	-0.176
-398.179	800.000	-0.019	0.075
-397.165	251.644	0.164	0.280
-396.150	51.850	-0.186	-0.178
-395.136	163.659	-0.067	-0.094
-394.121	-200.000	0.003	-0.189
-393.106	123.516	0.124	0.155
-392.092	469.253	0.088	0.197
-391.077	-56.504	0.323	0.143
-390.063	-183.810	-0.314	-0.005
-389.048	505.704	-0.150	0.348
-388.033	-41.983	-0.119	-0.061
-387.019	58.290	-0.241	0.236
-386.004	46.063	-0.041	0.038
-384.990	-114.033	0.204	0.040
-383.975	251.390	-0.095	-0.162
-382.960	-169.674	0.123	0.004
-381.946	-130.799	0.358	-0.048
-380.931	-120.908	0.311	-0.052
-379.917	22.278	0.265	-0.216
-378.902	-200.000	-0.008	-0.271
-377.888	69.098	-0.031	-0.032
-376.873	536.058	0.100	-0.237
-375.858	-200.000	0.042	-0.250
-374.844	-200.000	0.003	0.143
-373.829	-146.029	-0.107	-0.009
-372.815	800.000	0.025	0.100
-371.800	-200.000	-0.012	-0.650
-370.785	52.336	0.163	-0.156
-369.771	428.595	-0.110	0.239
-368.756	-43.119	-0.297	0.151
-367.742	-46.496	-0.202	0.099
-366.727	-200.000	0.006	0.227
-365.712	-84.501	0.280	0.089
-364.698	-14.942	0.341	-0.219
-363.683	-200.000	0.000	0.092
-362.669	474.496	0.089	-0.200
-361.654	-93.953	-0.265	0.073
-360.639	800.000	-0.051	0.145
-359.625	148.623	0.251	0.339
-358.610	-153.691	0.235	-0.016
-357.596	25.114	-0.271	0.225
-356.581	800.000	0.132	0.371
-355.566	800.000	0.076	0.250
-354.552	86.463	0.096	0.106
-353.537	41.198	-0.099	-0.090
-352.523	-143.680	0.240	-0.023
-351.508	800.000	-0.097	-0.312
-350.493	61.043	0.172	0.171
-349.479	651.831	0.105	-0.270
-348.464	-163.369	0.159	0.008
-347.450	-3.508	-0.183	-0.127
-346.435	80.545	-0.014	0.015
-345.420	-12.717	-0.188	0.123
-344.406	-122.523	0.237	0.039
-343.391	800.000	-0.105	0.365
-342.377	317.875	0.173	0.327
-341.362	-142.934	-0.210	0.020
-340.348	-162.143	0.068	-0.003
-339.333	800.000	0.087	0.247
-338.318	-200.000	0.026	-0.253
-337.304	-90.756	0.162	0.047
-336.289	-117.246	-0.608	0.110
-335.275	800.000	0.045	0.159
-334.260	148.102	-0.254	0.343
-333.245	-83.158	-0.322	0.104
-332.231	217.471	0.056	0.088
-331.216	-200.000	0.010	-0.312
-330.202	-200.000	-0.026	0.240
-329.187	-104.513	0.133	-0.031
-328.172	-35.356	0.166	-0.090
-327.158	-139.388	0.176	-0.019
-326.143	-200.000	0.026	0.256
-325.129	800.000	0.014	-0.056
-324.114	145.126	0.289	-0.386
-323.099	-116.404	-0.324	0.060
-322.085	-129.561	0.282	-0.039
-321.070	-64.520	0.256	-0.104
-320.056	-138.839	-0.230	0.025
-319.041	800.000	0.044	-0.146
-318.026	-135.446	0.369	0.044
-317.012	663.813	-0.024	0.063
-315.997	-200.000	0.006	-0.361
-314.983	-200.000	-0.012	-0.204
-313.968	60.521	-0.135	0.134
-312.953	392.005	-0.169	0.350
-311.939	755.763	-0.040	-0.109
-310.924	-85.706	0.378	0.117
-309.910	256.047	-0.092	-0.158
-308.895	42.506	-0.239	0.217
-307.880	-200.000	0.061	0.453
-306.866	348.756	-0.099	0.195
-305.851	47.694	-0.250	0.233
-304.837	89.008	0.280	-0.311
-303.822	-200.000	0.030	0.154
-302.807	-116.428	-0.203	-0.037
-301.793	284.854	0.028	0.050
-300.778	-200.000	0.012	-0.430
-299.764	800.000	0.082	-0.329
-298.749	-49.478	0.077	0.037
-297.735	66.916	-0.179	0.182
-296.720	-2.147	0.194	-0.136
-295.705	302.680	-0.065	-0.120
-294.691	-155.953	-0.122	-0.008
-293.676	-106.821	0.214	-0.047
-292.662	-11.393	-0.127	-0.083
-291.647	-195.983	0.024	0.000
-290.632	-58.766	0.185	0.080
-289.618	55.614	-0.141	0.137
-288.603	15.800	0.033	-0.026
-287.589	800.000	-0.024	0.070
-286.574	-66.772	-0.097	0.038
-285.559	70.819	-0.140	0.144
-284.545	13.457	-0.205	0.159
-283.530	-73.895	-0.240	-0.087
-282.516	-45.610	0.241	0.119
-281.501	-200.000	0.039	0.196
-280.486	14.482	0.199	-0.155
-279.472	8.533	0.170	0.128
-278.457	30.462	-0.225	0.192
-277.443	-39.777	-0.465	-0.242
-276.428	-138.113	-0.185	-0.020
-275.413	-200.000	0.003	-0.244
-274.399	-9.417	-0.374	-0.249
-273.384	-154.308	-0.245	-0.016
-272.370	-172.280	-0.325	0.010
-271.355	800.000	-0.050	-0.138
-270.340	-200.000	-0.001	0.030
-269.326	71.625	-0.177	-0.183
-268.311	120.680	0.094	-0.117
-267.297	800.000	-0.067	-0.242
-266.282	-200.000	-0.007	0.251
-265.267	-200.000	0.012	-0.156
-264.253	-34.901	0.075	0.041
-263.238	-126.131	0.286	-0.043
-262.224	-189.706	-0.117	-0.001
-261.209	-55.945	0.121	0.054
-260.195	30.581	0.325	-0.277
-259.180	-96.846	-0.178	-0.047
-258.165	207.000	-0.138	-0.214
-257.151	-55.264	0.049	-0.022
-256.136	-139.113	0.063	0.007
-255.122	800.000	-0.140	0.508
-254.107	-200.000	-0.005	-0.210
-253.092	-108.193	0.146	-0.032
-252.078	-2.396	-0.155	0.109
-251.063	-186.322	0.383	0.006
-250.049	230.385	-0.052	-0.084
-249.034	291.092	-0.110	-0.200
-248.019	800.000	0.089	-0.302
-247.005	-91.359	-0.290	0.083
-245.990	-200.000	-0.002	-0.106
-244.976	-33.023	0.150	-0.083
-243.961	-57.951	-0.212	0.092
-242.946	323.979	-0.109	0.208
-241.932	75.258	0.058	-0.061
-240.917	152.263	0.162	0.220
-239.903	-200.000	0.018	-0.153
-238.888	106.432	-0.393	-0.464
-237.873	33.808	0.065	-0.056
-236.859	-87.607	-0.186	-0.056
-235.844	37.670	0.151	-0.134
-234.830	800.000	-0.051	0.149
-233.815	-152.922	0.188	0.013
-232.800	-143.083	0.156	-0.015
-231.786	-41.163	0.159	-0.082
-230.771	7.922	-0.087	-0.065
-229.757	-97.214	0.141	-0.037
-228.742	800.000	0.036	0.110
-227.727	-200.000	-0.058	0.320
-226.713	36.179	-0.072	-0.063
-225.698	-200.000	-0.027	-0.223
-224.684	545.748	0.074	0.176
-223.669	-200.000	0.057	0.261
-222.655	-59.056	0.136	-0.059
-221.640	662.601	0.075	-0.193
-220.625	44.875	0.115	0.105
-219.611	-105.731	0.134	-0.030
-218.596	98.273	0.073	0.084
-217.582	800.000	0.064	0.199
-216.567	-114.927	-0.243	-0.046
-215.552	-137.417	0.475	0.054
-214.538	800.000	-0.054	-0.225
-213.523	800.000	0.065	-0.213
-212.509	269.855	0.079	-0.137
-211.494	-200.000	0.035	0.172
-210.479	-80.379	0.085	0.028
-209.465	800.000	0.102	0.280
-208.450	53.761	0.266	0.255
-207.436	251.162	-0.074	-0.124
-206.421	224.316	-0.043	0.068
-205.406	-160.719	0.258	-0.014
-204.392	-200.000	-0.045	-0.392
-203.377	-112.362	0.169	-0.034
-202.363	-200.000	-0.046	-0.240
-201.348	-23.102	-0.106	0.064
-200.333	74.880	-0.195	-0.204
-199.319	-200.000	-0.013	-0.094
-198.304	24.736	0.063	-0.052
-197.290	199.309	-0.141	-0.215
-196.275	101.401	0.253	-0.293
-195.260	-200.000	-0.012	-0.109
-194.246	271.889	0.127	0.223
-193.231	71.444	0.170	0.175
-192.217	24.236	0.036	-0.030
-191.202	283.820	0.199	0.356
-190.187	-200.000	0.007	-0.111
-189.173	800.000	-0.121	-0.331
-188.158	-200.000	-0.038	0.414
-187.144	-40.033	-0.191	0.099
-186.129	-89.042	-0.086	0.025
-185.114	459.162	0.107	-0.237
-184.100	800.000	-0.088	-0.248
-183.085	-89.089	-0.349	0.103
-182.071	31.493	-0.088	0.075
-181.056	396.921	-0.037	0.078
-180.042	33.791	-0.159	-0.137
-179.027	789.933	-0.082	0.223
-178.012	96.244	0.219	0.248
-176.998	-166.223	0.251	-0.011
-175.983	-103.166	-0.283	-0.066
-174.969	800.000	0.089	-0.257
-173.954	-200.000	0.002	-0.018
-172.939	-200.000	0.003	0.352
-171.925	276.792	-0.082	-0.144
-170.910	-178.133	-0.095	0.002
-169.896	-47.636	-0.152	0.073
-168.881	-200.000	-0.028	-0.144
-167.866	-84.938	0.271	-0.084
-166.852	300.935	-0.109	0.199
-165.837	-74.231	-0.185	0.066
-164.823	550.078	0.142	0.339
-163.808	-46.455	-0.242	0.118
-162.793	-54.042	-0.369	0.167
-161.779	149.522	-0.084	0.113
-160.764	-134.884	-0.155	-0.019
-159.750	-200.000	0.047	-0.350
-158.735	51.601	0.106	0.100
-157.720	43.304	-0.148	0.134
-156.706	800.000	0.057	0.218
-155.691	111.048	0.161	-0.192
-154.677	800.000	0.070	-0.255
-153.662	249.649	-0.140	0.235
-152.647	123.130	0.078	-0.098
-151.633	-93.670	0.201	0.055
-150.618	56.965	0.319	0.309
-149.604	-47.927	-0.163	-0.078
-148.589	123.308	-0.206	0.256
-147.574	-78.552	0.176	0.060
-146.560	503.374	0.019	-0.045
-145.545	578.299	-0.040	-0.096
-144.531	182.010	0.190	0.278
-143.516	342.075	0.071	0.138
-142.502	-31.734	0.303	-0.169
-141.487	800.000	-0.059	0.179
-140.472	-91.633	0.310	0.088
-139.458	-10.647	0.108	0.071
-138.443	-200.000	-0.010	-0.153
-137.429	308.075	-0.077	-0.142
-136.414	-48.343	0.116	0.055
-135.399	149.724	0.118	0.159
-134.385	-128.859	0.285	0.040
-133.370	-161.000	-0.085	-0.004
-132.356	-200.000	-0.050	-0.701
-131.341	-86.174	0.262	0.080
-130.326	223.041	0.136	0.218
-129.312	-129.266	-0.129	-0.018
-128.297	691.159	0.034	-0.089
-127.283	-200.000	0.012	0.083
-126.268	106.321	-0.180	0.211
-125.253	-152.063	-0.226	-0.016
-124.239	-25.866	0.133	0.078
-123.224	800.000	0.085	0.261
-122.210	202.804	-0.176	-0.270
-121.195	-50.706	0.353	0.165
