DTS Sentinel unit serial number:	SN413079Multiplexer serial number:	ORYXHardware model number:	OX4-SRSoftware version number:	ORYX F/W v4.00 Oryx Data Collector v3.7.2.0data status	okinstallation	princeton_trtdifferential loss correction	single-endedforward channel	channel 1reverse channel	N/Adate	2019/09/15time	09:42:35forward acquisition time	60.00reverse acquisition time	0.00gamma	496.2192k internal	0.2310k external	0.2310temperature offset calibration	0.9983default loss term (dB/km)	0.3790temperature slope calibration	1.0000multiplexer offset coefficient	1.0000multiplexer slope coefficient	1.0000fibre end	0.00T internal ref (°C)	33.94T ext. ref 1 (°C)	4.93T ext. ref 2 (°C)	29.69length (m)	temperature (°C)	Stokes	anti-Stokes-747.200	-24.702	0.114	0.069
-746.185	-10.028	-0.289	0.195
-745.171	-200.000	-0.013	0.392
-744.156	30.967	0.182	0.159
-743.142	800.000	-0.043	-0.120
-742.127	800.000	0.112	0.338
-741.112	29.872	-0.041	0.035
-740.098	-200.000	-0.022	0.203
-739.083	10.608	-0.075	-0.058
-738.069	-109.697	-0.239	0.051
-737.054	-146.492	0.536	0.047
-736.039	34.121	-0.221	-0.195
-735.025	-124.354	-0.289	-0.046
-734.010	544.349	-0.111	-0.269
-732.996	156.753	0.134	-0.187
-731.981	253.190	0.094	-0.163
-730.966	146.753	-0.143	0.195
-729.952	110.415	0.007	0.009
-728.937	-25.344	-0.266	-0.160
-727.923	-20.287	-0.184	-0.115
-726.908	-10.074	0.093	-0.063
-725.894	-42.035	-0.100	-0.052
-724.879	67.198	-0.293	-0.303
-723.864	64.274	0.176	0.180
-722.850	44.698	0.053	-0.050
-721.835	-200.000	0.037	-0.284
-720.821	-9.613	0.159	-0.108
-719.806	142.284	0.066	-0.089
-718.791	800.000	-0.048	0.149
-717.777	147.953	-0.161	-0.220
-716.762	800.000	0.041	0.139
-715.748	117.331	-0.194	-0.242
-714.733	-200.000	-0.004	0.285
-713.718	-134.536	0.480	-0.059
-712.704	-119.442	-0.289	0.051
-711.689	-200.000	-0.008	-0.317
-710.675	-15.812	0.474	-0.306
-709.660	-68.588	0.257	0.101
-708.645	156.778	-0.088	0.123
-707.631	-112.973	-0.114	0.023
-706.616	152.432	-0.239	0.331
-705.602	179.054	-0.209	0.310
-704.587	-158.432	-0.087	-0.005
-703.572	-139.375	0.212	0.023
-702.558	-139.862	0.316	0.034
-701.543	-200.000	0.031	0.221
-700.529	498.312	-0.131	0.305
-699.514	240.878	0.070	-0.119
-698.499	800.000	0.053	-0.229
-697.485	-200.000	-0.027	-0.224
-696.470	-52.327	-0.358	-0.168
-695.456	205.859	0.182	0.286
-694.441	-8.746	-0.075	0.051
-693.426	-200.000	-0.011	0.223
-692.412	42.065	0.059	-0.055
-691.397	531.625	-0.026	-0.063
-690.383	153.407	0.085	-0.118
-689.368	-200.000	-0.014	0.070
-688.354	86.300	-0.048	0.054
-687.339	800.000	-0.123	-0.412
-686.324	-200.000	0.011	0.259
-685.310	-200.000	0.022	0.169
-684.295	-136.776	0.292	0.034
-683.281	27.025	0.032	-0.027
-682.266	-14.920	-0.150	-0.097
-681.251	73.612	0.055	0.059
-680.237	152.227	-0.118	-0.164
-679.222	138.831	-0.114	-0.152
-678.208	-200.000	-0.034	-0.251
-677.193	30.047	0.159	-0.137
-676.178	-139.671	0.104	0.011
-675.164	-200.000	-0.026	0.423
-674.149	-38.353	0.065	-0.035
-673.135	43.628	-0.153	0.142
-672.120	-99.466	-0.154	0.039
-671.105	414.809	0.164	-0.354
-670.091	-200.000	-0.053	-0.250
-669.076	-189.729	-0.055	-0.001
-668.062	52.777	0.093	-0.090
-667.047	-200.000	0.019	0.175
-666.032	34.525	-0.161	0.142
-665.018	-36.226	-0.396	0.216
-664.003	-187.224	-0.038	-0.001
-662.989	-122.267	-0.095	-0.016
-661.974	-89.408	0.371	0.110
-660.959	286.606	-0.056	-0.103
-659.945	-139.257	-0.337	0.037
-658.930	-200.000	0.007	-0.380
-657.916	86.614	-0.177	-0.197
-656.901	-76.412	-0.232	-0.083
-655.886	43.464	0.117	0.108
-654.872	-64.773	0.188	-0.077
-653.857	-162.446	-0.144	0.007
-652.843	-129.454	-0.346	-0.049
-651.828	-50.792	-0.266	0.126
-650.814	40.062	0.149	0.136
-649.799	2.778	0.202	-0.148
-648.784	800.000	-0.137	-0.559
-647.770	533.691	-0.116	-0.277
-646.755	10.863	0.177	-0.136
-645.741	800.000	0.102	0.344
-644.726	8.127	0.286	-0.217
-643.711	158.341	-0.088	-0.123
-642.697	-163.397	-0.107	0.005
-641.682	758.831	-0.079	0.217
-640.668	800.000	-0.029	-0.115
-639.653	209.753	0.195	0.310
-638.638	-48.286	0.282	0.138
-637.624	-52.526	0.197	0.092
-636.609	-80.178	0.231	-0.078
-635.595	800.000	0.033	-0.119
-634.580	-144.321	0.118	0.011
-633.565	-200.000	-0.002	0.208
-632.551	-145.400	-0.242	0.022
-631.536	206.281	0.118	-0.186
-630.522	235.922	0.137	-0.229
-629.507	557.846	0.022	-0.053
-628.492	-0.394	0.088	-0.063
-627.478	37.653	-0.321	-0.288
-626.463	-15.286	-0.249	-0.161
-625.449	-102.296	0.352	0.085
-624.434	260.346	-0.100	-0.174
-623.419	-200.000	0.002	0.243
-622.405	800.000	0.099	-0.389
-621.390	175.471	-0.114	0.166
-620.376	16.421	0.187	0.149
-619.361	800.000	-0.032	0.121
-618.346	-107.323	-0.362	0.080
-617.332	476.771	0.046	-0.106
-616.317	-57.542	0.320	-0.142
-615.303	800.000	0.016	0.049
-614.288	-200.000	-0.012	-0.099
-613.273	-200.000	-0.005	0.149
-612.259	458.975	0.158	-0.356
-611.244	46.689	-0.270	-0.254
-610.230	-53.901	-0.381	0.175
-609.215	-115.786	-0.028	-0.005
-608.201	14.083	0.024	-0.019
-607.186	316.881	-0.165	0.315
-606.171	384.834	0.110	0.230
-605.157	10.585	0.111	0.085
-604.142	-47.474	0.093	-0.046
-603.128	79.811	-0.244	-0.265
-602.113	-12.078	-0.121	-0.080
-601.098	800.000	0.124	0.378
-600.084	800.000	-0.148	-0.454
-599.069	-155.365	-0.620	-0.041
-598.055	-200.000	-0.006	0.065
-597.040	23.757	-0.164	-0.137
-596.025	-113.447	-0.098	-0.019
-595.011	109.406	0.185	0.224
-593.996	-7.594	0.123	-0.084
-592.982	-140.813	-0.313	-0.033
-591.967	430.592	0.015	-0.033
-590.952	257.875	0.017	0.029
-589.938	-40.144	0.203	-0.107
-588.923	98.911	-0.038	-0.045
-587.909	-128.918	-0.200	0.028
-586.894	800.000	0.087	-0.338
-585.879	-87.518	-0.524	-0.160
-584.865	800.000	-0.036	0.102
-583.850	-113.483	-0.268	-0.053
-582.836	717.747	-0.113	-0.303
-581.821	329.918	0.247	0.479
-580.806	-57.579	0.119	0.053
-579.792	133.243	-0.168	0.219
-578.777	4.382	-0.120	-0.089
-577.763	39.954	0.123	-0.111
-576.748	390.944	0.007	-0.016
-575.733	800.000	0.080	0.228
-574.719	-137.230	0.046	0.005
-573.704	83.281	0.130	-0.143
-572.690	-154.704	-0.094	0.006
-571.675	113.345	0.124	-0.152
-570.661	70.567	0.120	0.125
-569.646	90.460	-0.043	0.049
-568.631	1.699	-0.207	-0.150
-567.617	-111.985	-0.453	-0.092
-566.602	245.551	-0.133	-0.226
-565.588	183.487	-0.165	0.246
-564.573	264.764	-0.116	-0.204
-563.558	-200.000	0.023	0.147
-562.544	508.744	-0.085	0.199
-561.529	-45.270	0.165	0.083
-560.515	37.556	-0.016	0.014
-559.500	-103.185	-0.347	0.083
-558.485	176.001	0.098	0.144
-557.471	723.837	-0.054	-0.145
-556.456	-86.818	-0.182	0.056
-555.442	144.147	-0.018	0.024
-554.427	800.000	-0.115	-0.390
-553.412	-115.399	-0.140	0.027
-552.398	120.855	0.210	-0.263
-551.383	-90.834	0.149	-0.043
-550.369	120.238	0.164	-0.206
-549.354	55.145	0.251	-0.244
-548.339	259.201	0.159	-0.277
-547.325	386.594	0.060	0.125
-546.310	-200.000	-0.038	0.285
-545.296	122.083	-0.057	0.072
-544.281	-200.000	0.006	-0.227
-543.266	800.000	0.039	0.124
-542.252	56.694	-0.297	-0.291
-541.237	-110.172	-0.106	0.022
-540.223	251.747	0.088	-0.151
-539.208	120.487	0.277	0.347
-538.193	160.778	-0.103	0.145
-537.179	-77.849	-0.163	0.057
-536.164	-35.482	0.136	0.075
-535.150	-111.311	0.367	-0.075
-534.135	-34.525	0.308	0.170
-533.121	55.847	-0.121	-0.118
-532.106	79.471	-0.224	-0.243
-531.091	220.650	-0.116	-0.187
-530.077	96.937	0.221	-0.255
-529.062	200.703	0.218	-0.338
-528.048	706.706	0.058	0.155
-527.033	800.000	-0.078	0.273
-526.018	800.000	-0.047	0.148
-525.004	-60.831	-0.181	0.077
-523.989	-173.791	-0.152	0.005
-522.975	455.032	-0.095	-0.213
-521.960	-63.500	-0.377	-0.156
-520.945	95.280	0.305	-0.350
-519.931	321.498	-0.085	0.163
-518.916	456.010	-0.167	-0.373
-517.902	396.355	-0.061	-0.129
-516.887	-200.000	-0.042	0.360
-515.872	562.354	-0.126	0.307
-514.858	-200.000	-0.025	-0.134
-513.843	316.256	-0.128	-0.243
-512.829	384.140	0.097	-0.201
-511.814	-25.451	0.453	-0.269
-510.799	-84.844	-0.294	-0.093
-509.785	-93.056	0.217	0.061
-508.770	241.234	0.270	-0.453
-507.756	800.000	-0.031	0.087
-506.741	376.042	-0.078	-0.160
-505.726	-200.000	-0.005	0.070
-504.712	20.591	-0.100	0.082
-503.697	800.000	0.077	-0.322
-502.683	-10.068	-0.198	0.133
-501.668	-149.457	0.114	-0.009
-500.653	21.346	-0.104	-0.085
-499.639	236.492	-0.077	0.129
-498.624	504.920	-0.102	-0.237
-497.610	800.000	-0.056	-0.193
-496.595	512.171	-0.119	0.279
-495.581	-121.581	0.188	-0.031
-494.566	104.574	0.104	0.123
-493.551	-166.125	-0.318	0.014
-492.537	61.625	-0.078	0.078
-491.522	237.112	-0.131	0.219
-490.508	268.877	-0.048	0.085
-489.493	-200.000	-0.031	0.260
-488.478	-128.132	0.027	0.004
-487.464	-36.140	0.093	-0.050
-486.449	800.000	0.112	-0.386
-485.435	800.000	0.049	0.190
-484.420	641.607	0.086	0.220
-483.405	481.844	0.072	-0.165
-482.391	25.713	-0.121	-0.102
-481.376	62.926	-0.186	0.188
-480.362	87.940	0.244	-0.272
-479.347	-200.000	-0.054	-0.256
-478.332	-29.601	-0.200	-0.115
-477.318	-200.000	0.004	-0.090
-476.303	-132.855	-0.140	-0.018
-475.289	-200.000	-0.018	0.085
-474.274	-184.081	0.175	0.003
-473.259	-153.409	0.137	-0.010
-472.245	-181.036	-0.079	0.002
-471.230	-187.737	0.051	0.001
-470.216	105.943	0.242	0.287
-469.201	-55.059	-0.492	-0.222
-468.186	399.162	0.093	-0.196
-467.172	-139.127	-0.143	0.016
-466.157	-103.350	0.158	-0.037
-465.143	-200.000	-0.016	-0.082
-464.128	367.159	0.038	0.077
-463.113	142.305	-0.134	-0.178
-462.099	63.348	0.321	0.323
-461.084	800.000	-0.039	-0.130
-460.070	800.000	0.049	0.161
-459.055	-200.000	0.012	-0.178
-458.040	800.000	0.038	0.158
-457.026	800.000	0.056	-0.187
-456.011	-200.000	-0.055	0.307
-454.997	800.000	-0.029	-0.096
-453.982	-200.000	-0.010	0.104
-452.968	297.500	0.163	0.301
-451.953	55.606	-0.108	-0.105
-450.938	82.935	0.108	-0.118
-449.924	82.649	-0.144	-0.157
-448.909	-51.365	-0.192	-0.090
-447.895	800.000	0.036	0.134
-446.880	-28.395	0.422	-0.244
-445.865	-200.000	0.029	0.217
-444.851	-200.000	-0.037	0.322
-443.836	-97.719	-0.119	-0.031
-442.822	-118.884	0.186	-0.033
-441.807	60.840	-0.064	-0.064
-440.792	-200.000	0.020	-0.244
-439.778	169.832	0.101	-0.145
-438.763	-200.000	-0.017	-0.196
-437.749	-42.547	0.077	0.039
-436.734	-124.006	-0.563	0.089
-435.719	-200.000	0.011	-0.213
-434.705	383.303	-0.140	-0.290
-433.690	90.807	0.045	-0.050
-432.676	491.173	0.068	-0.157
-431.661	-200.000	-0.007	-0.141
-430.646	64.514	0.160	0.162
-429.632	-53.561	-0.097	-0.044
-428.617	26.100	0.235	-0.196
-427.603	-65.265	-0.053	0.021
-426.588	-24.167	0.054	-0.033
-425.573	800.000	0.084	0.284
-424.559	766.075	-0.076	-0.208
-423.544	-200.000	0.005	0.113
-422.530	34.785	0.097	0.085
-421.515	18.854	0.154	0.124
-420.500	55.093	0.043	0.041
-419.486	87.291	-0.171	0.189
-418.471	-140.765	-0.306	0.032
-417.457	424.511	-0.053	-0.113
-416.442	-18.442	0.136	0.085
-415.428	13.980	-0.212	0.165
-414.413	-41.497	-0.109	-0.056
-413.398	73.429	0.280	-0.294
-412.384	-65.994	-0.086	-0.035
-411.369	-200.000	-0.001	0.285
-410.355	14.524	-0.026	-0.020
-409.340	248.789	-0.137	-0.233
-408.325	241.599	0.139	0.232
-407.311	-103.021	-0.383	0.091
-406.296	-62.181	-0.297	0.124
-405.282	109.409	-0.226	0.271
-404.267	800.000	0.012	0.037
-403.252	-79.862	-0.248	-0.084
-402.238	-77.436	-0.250	-0.087
-401.223	-200.000	-0.062	-0.293
-400.209	-156.977	-0.159	0.010
-399.194	-59.162	0.104	0.045
-398.179	54.687	-0.098	0.095
-397.165	402.003	-0.089	-0.186
-396.150	800.000	0.072	0.205
-395.136	142.133	0.132	-0.175
-394.121	-200.000	-0.013	0.169
-393.106	-46.425	0.373	0.183
-392.092	232.728	0.104	0.171
-391.077	610.902	0.066	-0.166
-390.063	130.209	0.117	0.150
-389.048	-54.376	0.100	0.045
-388.033	-200.000	0.002	0.269
-387.019	800.000	0.031	-0.135
-386.004	59.028	0.241	-0.238
-384.990	-10.527	0.174	-0.115
-383.975	-13.130	-0.147	-0.096
-382.960	67.047	0.025	-0.026
-381.946	130.136	0.040	-0.051
-380.931	-106.586	-0.394	-0.088
-379.917	-124.807	-0.181	0.028
-378.902	-200.000	0.003	0.326
-377.888	166.438	0.200	0.283
-376.873	-83.710	0.248	-0.079
-375.858	57.255	-0.324	0.317
-374.844	83.914	-0.069	-0.075
-373.829	800.000	-0.036	0.117
-372.815	42.694	0.039	-0.036
-371.800	-102.288	-0.218	-0.052
-370.785	238.701	-0.063	0.106
-369.771	-103.786	-0.190	-0.044
-368.756	800.000	0.029	-0.096
-367.742	-200.000	0.056	-0.445
-366.727	113.698	0.037	0.045
-365.712	800.000	-0.054	-0.167
-364.698	102.569	-0.090	-0.105
-363.683	-24.391	0.186	-0.111
-362.669	258.592	-0.180	0.310
-361.654	-78.999	0.099	-0.034
-360.639	800.000	-0.134	0.389
-359.625	800.000	-0.030	-0.111
-358.610	-2.985	-0.318	0.222
-357.596	800.000	0.004	-0.015
-356.581	-153.014	0.162	0.011
-355.566	-200.000	-0.024	0.198
-354.552	800.000	0.047	-0.137
-353.537	265.572	-0.046	0.080
-352.523	-200.000	-0.046	0.273
-351.508	-98.222	-0.121	0.031
-350.493	-200.000	0.021	-0.111
-349.479	-200.000	-0.013	0.059
-348.464	-200.000	-0.023	-0.113
-347.450	-200.000	0.004	-0.182
-346.435	-73.020	0.142	-0.052
-345.420	-71.844	-0.249	0.093
-344.406	-159.602	0.487	0.027
-343.391	-151.356	0.067	-0.005
-342.377	193.023	0.154	0.233
-341.362	-129.459	-0.170	0.024
-340.348	758.951	-0.020	-0.054
-339.333	-77.332	0.199	-0.069
-338.318	-92.985	-0.076	-0.021
-337.304	-178.839	0.193	-0.004
-336.289	-200.000	-0.045	-0.234
-335.275	-55.464	0.145	0.065
-334.260	-200.000	-0.086	0.402
-333.245	393.213	0.074	0.154
-332.231	5.052	-0.046	-0.034
-331.216	7.931	0.060	0.045
-330.202	112.490	-0.213	0.258
-329.187	800.000	0.027	-0.082
-328.172	-200.000	-0.031	0.157
-327.158	-200.000	-0.023	-0.222
-326.143	654.210	-0.026	0.066
-325.129	-200.000	0.020	0.148
-324.114	75.721	-0.076	0.080
-323.099	450.537	0.020	0.044
-322.085	800.000	-0.006	0.020
-321.070	-34.566	0.041	0.022
-320.056	800.000	-0.067	-0.262
-319.041	-200.000	-0.018	0.163
-318.026	534.387	0.104	-0.247
-317.012	17.509	-0.193	-0.153
-315.997	98.469	0.133	0.153
-314.983	800.000	0.007	-0.022
-313.968	581.267	0.031	0.076
-312.953	-88.956	0.424	0.125
-311.939	193.458	-0.122	-0.185
-310.924	-191.400	0.257	-0.003
-309.910	-200.000	0.046	-0.203
-308.895	442.222	0.067	0.148
-307.880	800.000	-0.046	-0.167
-306.866	104.742	0.152	-0.179
-305.851	-200.000	0.024	-0.113
-304.837	-200.000	-0.001	0.338
-303.822	23.414	-0.136	0.112
-302.807	284.318	0.074	0.134
-301.793	73.098	-0.137	-0.143
-300.778	239.975	-0.065	-0.108
-299.764	370.793	0.035	-0.072
-298.749	-100.106	0.217	0.054
-297.735	-22.003	-0.320	0.194
-296.720	93.850	0.086	-0.097
-295.705	416.020	0.090	0.192
-294.691	52.885	0.049	-0.046
-293.676	-200.000	0.030	0.241
-292.662	11.582	0.200	-0.153
-291.647	-105.043	0.151	-0.034
-290.632	-200.000	-0.002	0.361
-289.618	-200.000	0.033	0.200
-288.603	548.839	-0.054	-0.130
-287.589	17.223	-0.505	0.400
-286.574	56.861	-0.223	0.216
-285.559	-69.334	-0.035	0.013
-284.545	-115.678	-0.269	0.050
-283.530	17.445	0.057	0.045
-282.516	-11.996	-0.087	-0.057
-281.501	-104.059	0.150	-0.035
-280.486	0.284	0.109	-0.078
-279.472	-108.711	0.280	0.060
-278.457	3.096	-0.079	-0.057
-277.443	31.249	-0.008	-0.007
-276.428	494.891	0.093	0.213
-275.413	-99.547	0.355	-0.089
-274.399	163.198	0.084	-0.117
-273.384	492.094	-0.084	0.191
-272.370	800.000	0.043	0.177
-271.355	157.637	-0.142	0.196
-270.340	-200.000	0.009	0.059
-269.326	-152.720	-0.175	0.012
-268.311	149.206	-0.106	0.143
-267.297	-125.567	0.450	-0.068
-266.282	-18.206	-0.356	-0.222
-265.267	-24.146	0.026	-0.015
-264.253	-55.193	-0.225	-0.101
-263.238	-110.521	0.129	-0.027
-262.224	-68.762	0.302	0.116
-261.209	127.990	0.079	-0.100
-260.195	-89.980	-0.295	0.086
-259.180	-200.000	-0.003	-0.483
-258.165	-83.210	0.041	0.013
-257.151	800.000	0.124	0.363
-256.136	389.133	-0.054	0.111
-255.122	-200.000	-0.018	0.209
-254.107	786.418	-0.094	0.256
-253.092	-172.200	-0.286	0.009
-252.078	588.164	0.041	0.102
-251.063	216.504	-0.078	-0.124
-250.049	-198.108	0.088	-0.001
-249.034	-200.000	-0.019	0.296
-248.019	-121.927	0.115	0.019
-247.005	-33.631	0.183	0.100
-245.990	800.000	-0.045	-0.193
-244.976	50.513	-0.131	-0.123
-243.961	84.077	0.177	0.193
-242.946	-200.000	0.007	-0.240
-241.932	-200.000	0.051	-0.314
-240.917	-73.762	-0.118	0.043
-239.903	-10.678	0.192	-0.126
-238.888	6.914	-0.264	-0.196
-237.873	-48.784	0.132	0.063
-236.859	-8.361	0.164	-0.110
-235.844	243.578	-0.107	-0.178
-234.830	6.369	0.160	0.118
-233.815	-105.913	-0.303	-0.068
-232.800	40.675	-0.193	0.174
-231.786	156.655	0.125	0.172
-230.771	800.000	0.056	-0.158
-229.757	-91.167	0.217	0.062
-228.742	-124.496	0.257	0.040
-227.727	-37.088	0.181	0.097
-226.713	285.659	0.163	0.292
-225.698	23.721	0.295	0.242
-224.684	-36.297	0.291	0.156
-223.669	706.581	0.156	0.411
-222.655	-94.803	0.116	-0.031
-221.640	-63.883	-0.159	-0.065
-220.625	147.736	0.275	-0.369
-219.611	-87.438	-0.404	-0.122
-218.596	80.674	-0.014	-0.015
-217.582	-73.366	0.402	-0.146
-216.567	207.075	0.145	0.225
-215.552	6.058	0.165	0.122
-214.538	-28.107	-0.065	0.038
-213.523	153.610	0.152	0.206
-212.509	332.771	0.185	-0.355
-211.494	660.740	0.032	-0.083
-210.479	39.467	-0.132	0.117
-209.465	-90.239	0.220	-0.063
-208.450	-26.903	0.153	-0.089
-207.436	785.693	0.147	0.401
-206.421	-141.123	0.214	0.022
-205.406	-75.572	0.090	-0.032
-204.392	40.961	0.012	0.011
-203.377	-23.634	0.138	-0.082
-202.363	-63.619	-0.219	0.089
-201.348	620.717	-0.146	0.366
-200.333	-74.786	0.124	0.044
-199.319	-172.767	-0.136	-0.004
-198.304	-77.215	-0.224	0.077
-197.290	-169.565	-0.187	0.007
-196.275	-123.086	-0.336	0.054
-195.260	-200.000	0.002	-0.151
-194.246	-200.000	0.092	0.422
-193.231	206.387	0.073	0.113
-192.217	106.542	-0.100	-0.117
-191.202	-53.714	0.112	-0.051
-190.187	-39.832	0.115	0.059
-189.173	309.611	-0.116	-0.216
-188.158	563.915	-0.097	-0.234
-187.144	258.111	-0.069	0.119
-186.129	-200.000	0.049	0.255
-185.114	-200.000	0.002	-0.212
-184.100	330.884	-0.043	0.083
-183.085	-10.535	0.346	0.228
-182.071	-200.000	0.004	0.157
-181.056	105.546	0.121	-0.142
-180.042	638.032	0.049	-0.123
-179.027	800.000	-0.065	-0.234
-178.012	-95.978	0.075	0.020
-176.998	-114.677	-0.215	0.041
-175.983	-103.510	-0.224	0.052
-174.969	561.950	-0.087	-0.209
-173.954	-200.000	-0.025	0.265
-172.939	101.561	0.142	-0.165
-171.925	-87.705	-0.263	0.079
-170.910	800.000	0.111	0.335
-169.896	-24.633	0.211	-0.125
-168.881	213.033	-0.153	-0.239
-167.866	-16.874	0.107	-0.067
-166.852	-158.177	-0.070	0.004
-165.837	800.000	0.102	0.308
-164.823	-82.359	0.085	-0.027
-163.808	-77.035	-0.169	0.059
-162.793	297.392	0.136	-0.248
-161.779	456.716	-0.133	-0.293
-160.764	800.000	-0.067	0.226
-159.750	-147.043	0.261	0.022
-158.735	-77.379	0.241	0.083
-157.720	-35.375	-0.075	0.041
-156.706	741.733	0.109	0.290
-155.691	148.886	-0.101	-0.136
-154.677	-200.000	0.020	0.119
-153.662	-200.000	0.011	0.254
-152.647	-119.543	0.143	-0.025
-151.633	112.027	0.108	-0.129
-150.618	404.943	-0.054	-0.112
-149.604	254.422	0.144	-0.244
-148.589	-64.887	0.322	-0.129
-147.574	-72.730	-0.220	-0.081
-146.560	-146.540	-0.310	-0.027
-145.545	800.000	-0.083	0.331
-144.531	-78.145	-0.031	0.010
-143.516	800.000	0.021	0.071
-142.502	-200.000	0.020	0.111
-141.487	-133.446	0.077	-0.010
-140.472	151.409	0.131	0.177
-139.458	-179.404	-0.188	0.004
-138.443	635.316	-0.129	0.325
-137.429	800.000	0.044	0.134
-136.414	140.072	0.157	0.206
-135.399	-93.972	0.179	-0.049
-134.385	317.443	0.172	-0.323
-133.370	199.512	-0.063	0.096
-132.356	-200.000	0.003	0.164
-131.341	218.647	-0.059	-0.093
-130.326	-191.503	-0.112	0.001
-129.312	382.695	0.079	-0.162
-128.297	-184.350	-0.406	-0.007
-127.283	78.261	0.207	-0.219
-126.268	161.268	-0.054	-0.075
-125.253	46.494	0.125	-0.115
-124.239	300.830	0.152	-0.278
-123.224	-55.083	-0.327	-0.146
-122.210	-82.771	-0.190	0.061
-121.195	800.000	-0.106	0.327
