DTS Sentinel unit serial number:	SN413079Multiplexer serial number:	ORYXHardware model number:	OX4-SRSoftware version number:	ORYX F/W v4.00 Oryx Data Collector v3.7.2.0data status	okinstallation	princeton_trtdifferential loss correction	single-endedforward channel	channel 1reverse channel	N/Adate	2019/09/17time	02:14:35forward acquisition time	60.00reverse acquisition time	0.00gamma	496.2192k internal	0.2324k external	0.2324temperature offset calibration	0.9955default loss term (dB/km)	0.3790temperature slope calibration	1.0000multiplexer offset coefficient	1.0000multiplexer slope coefficient	1.0000fibre end	0.00T internal ref (°C)	29.73T ext. ref 1 (°C)	0.12T ext. ref 2 (°C)	24.68length (m)	temperature (°C)	Stokes	anti-Stokes-747.200	-101.023	-0.145	0.036
-746.185	-200.000	-0.038	0.303
-745.171	142.755	-0.120	-0.160
-744.156	-200.000	0.067	0.503
-743.142	156.401	-0.143	-0.199
-742.127	249.228	-0.169	0.289
-741.112	210.917	0.126	-0.200
-740.098	-200.000	-0.032	0.200
-739.083	800.000	0.047	0.150
-738.069	-200.000	0.013	0.308
-737.054	-163.835	-0.027	0.001
-736.039	-21.360	-0.277	-0.170
-735.025	-46.140	0.468	0.233
-734.010	-94.906	-0.289	0.079
-732.996	124.738	0.113	0.144
-731.981	3.409	-0.197	0.145
-730.966	-129.393	0.240	-0.034
-729.952	800.000	0.027	0.089
-728.937	800.000	-0.109	-0.439
-727.923	-200.000	0.034	-0.175
-726.908	-14.383	-0.120	-0.078
-725.894	338.002	0.052	0.101
-724.879	-153.241	-0.138	0.010
-723.864	723.471	0.152	-0.409
-722.850	800.000	-0.078	-0.231
-721.835	63.323	-0.393	0.397
-720.821	800.000	0.030	0.124
-719.806	-4.741	-0.284	-0.198
-718.791	-136.456	-0.368	-0.043
-717.777	-200.000	0.006	0.205
-716.762	409.437	-0.053	-0.114
-715.748	-200.000	0.023	0.107
-714.733	-42.560	0.057	0.029
-713.718	-165.034	-0.174	0.008
-712.704	-140.468	0.102	-0.011
-711.689	148.213	-0.285	-0.388
-710.675	-200.000	-0.031	-0.215
-709.660	-72.293	0.130	-0.049
-708.645	-143.245	0.116	0.011
-707.631	-200.000	-0.005	-0.271
-706.616	-137.612	-0.227	0.026
-705.602	69.329	-0.059	-0.061
-704.587	-87.291	-0.176	0.054
-703.572	-35.452	-0.037	0.020
-702.558	76.114	-0.319	-0.340
-701.543	-104.909	0.332	0.077
-700.529	-141.156	-0.208	-0.021
-699.514	149.505	0.207	-0.282
-698.499	117.701	-0.066	0.082
-697.485	-59.402	0.543	-0.235
-696.470	-149.258	0.132	-0.011
-695.456	-10.522	-0.329	0.220
-694.441	179.289	-0.024	-0.035
-693.426	-47.724	-0.045	-0.022
-692.412	-98.636	-0.214	-0.055
-691.397	84.068	-0.183	-0.201
-690.383	175.967	-0.096	0.141
-689.368	4.334	-0.058	0.043
-688.354	-200.000	-0.024	-0.173
-687.339	-11.499	0.184	0.122
-686.324	800.000	0.110	-0.424
-685.310	-92.755	-0.207	0.058
-684.295	-112.615	-0.010	0.002
-683.281	209.275	-0.124	-0.196
-682.266	800.000	-0.036	-0.159
-681.251	-72.944	-0.225	0.083
-680.237	-87.901	-0.008	-0.002
-679.222	-4.984	0.132	0.091
-678.208	440.063	-0.164	0.362
-677.193	-108.924	-0.245	0.053
-676.178	-200.000	-0.013	0.120
-675.164	60.408	0.116	0.115
-674.149	-200.000	-0.024	0.238
-673.135	300.445	0.142	-0.265
-672.120	340.215	-0.101	-0.198
-671.105	800.000	0.107	0.307
-670.091	-112.875	-0.057	-0.011
-669.076	800.000	-0.097	-0.310
-668.062	800.000	-0.027	-0.118
-667.047	4.072	-0.308	0.227
-666.032	800.000	-0.049	-0.166
-665.018	800.000	0.070	-0.265
-664.003	19.675	-0.098	-0.080
-662.989	-200.000	0.052	-0.423
-661.974	-200.000	-0.003	0.205
-660.959	490.038	0.108	0.249
-659.945	800.000	0.040	0.119
-658.930	46.156	-0.280	-0.261
-657.916	-170.572	0.180	-0.006
-656.901	752.608	0.081	0.220
-655.886	-200.000	-0.012	0.186
-654.872	113.998	0.178	0.217
-653.857	70.445	-0.130	-0.136
-652.843	-113.898	-0.269	0.053
-651.828	-68.681	0.321	0.125
-650.814	-9.793	-0.079	-0.053
-649.799	409.146	0.024	0.052
-648.784	70.383	-0.273	-0.284
-647.770	219.914	-0.081	0.130
-646.755	-200.000	0.059	0.294
-645.741	-82.370	0.117	-0.038
-644.726	800.000	0.092	-0.402
-643.711	-76.162	-0.297	-0.105
-642.697	87.721	-0.140	-0.156
-641.682	-76.641	0.110	0.039
-640.668	23.637	-0.097	-0.080
-639.653	800.000	-0.025	-0.089
-638.638	246.284	-0.079	-0.134
-637.624	-15.963	-0.056	0.036
-636.609	800.000	-0.111	0.317
-635.595	-187.122	0.189	0.003
-634.580	-61.553	-0.323	0.136
-633.565	-37.255	-0.039	-0.021
-632.551	39.852	-0.614	0.554
-631.536	92.875	-0.217	-0.247
-630.522	129.977	0.068	-0.087
-629.507	206.368	0.050	-0.078
-628.492	-200.000	-0.023	0.256
-627.478	-200.000	0.020	-0.344
-626.463	408.083	0.143	0.305
-625.449	-19.454	0.121	-0.075
-624.434	-111.895	-0.381	-0.077
-623.419	-200.000	-0.006	-0.319
-622.405	-200.000	-0.038	-0.194
-621.390	242.573	-0.106	-0.178
-620.376	-73.862	0.337	0.123
-619.361	-9.087	-0.184	-0.124
-618.346	-34.871	-0.278	-0.153
-617.332	255.847	0.233	-0.401
-616.317	-12.634	-0.384	-0.251
-615.303	-62.875	-0.330	-0.137
-614.288	320.006	-0.084	0.159
-613.273	800.000	-0.073	0.290
-612.259	669.255	-0.033	-0.086
-611.244	-157.926	0.164	0.010
-610.230	-37.423	-0.261	-0.140
-609.215	-200.000	0.017	0.114
-608.201	-91.959	0.171	-0.049
-607.186	-142.888	0.068	0.007
-606.171	-103.232	0.249	-0.059
-605.157	-109.673	-0.073	0.016
-604.142	-200.000	0.016	-0.143
-603.128	-7.457	0.189	-0.128
-602.113	15.660	0.227	0.179
-601.098	133.920	0.081	0.105
-600.084	-103.462	0.223	-0.053
-599.069	-14.790	0.264	-0.170
-598.055	-200.000	-0.027	-0.406
-597.040	-112.742	0.153	0.030
-596.025	-29.559	-0.267	-0.153
-595.011	800.000	-0.054	-0.161
-593.996	17.746	0.137	0.109
-592.982	-186.496	-0.099	0.001
-591.967	800.000	-0.025	0.096
-590.952	-160.841	-0.057	-0.003
-589.938	773.393	-0.088	-0.241
-588.923	-48.887	0.221	0.106
-587.909	60.072	0.137	0.136
-586.894	800.000	0.056	0.186
-585.879	283.161	0.144	-0.259
-584.865	800.000	-0.034	0.125
-583.850	-106.740	0.131	0.029
-582.836	472.054	-0.067	-0.151
-581.821	-200.000	-0.003	-0.032
-580.806	-200.000	-0.009	0.053
-579.792	90.243	0.127	0.143
-578.777	800.000	-0.057	0.188
-577.763	204.186	-0.187	0.291
-576.748	43.542	0.224	0.205
-575.733	-200.000	-0.095	-0.421
-574.719	-165.934	-0.472	0.020
-573.704	192.506	0.134	-0.203
-572.690	-200.000	-0.014	-0.105
-571.675	-82.315	0.303	0.099
-570.661	-105.480	-0.236	-0.054
-569.646	-180.403	-0.147	0.003
-568.631	-200.000	-0.004	0.182
-567.617	-10.650	-0.189	0.125
-566.602	458.384	0.070	-0.156
-565.588	-53.201	-0.075	0.035
-564.573	770.360	-0.083	-0.226
-563.558	5.262	-0.150	-0.111
-562.544	-0.954	-0.107	0.076
-561.529	347.300	-0.164	-0.324
-560.515	-173.977	-0.113	-0.003
-559.500	-200.000	-0.011	0.211
-558.485	262.609	0.110	0.192
-557.471	149.814	0.298	-0.405
-556.456	-200.000	-0.038	-0.267
-555.442	-164.862	-0.305	-0.014
-554.427	-200.000	0.009	0.080
-553.412	800.000	-0.047	0.155
-552.398	-122.662	0.232	0.038
-551.383	17.290	-0.079	-0.063
-550.369	-5.215	0.135	0.093
-549.354	161.365	0.073	-0.102
-548.339	-154.508	0.174	-0.012
-547.325	526.446	-0.032	0.075
-546.310	-191.674	-0.082	0.001
-545.296	243.411	0.271	0.456
-544.281	155.473	-0.082	0.113
-543.266	26.379	0.121	0.101
-542.252	-11.724	0.113	0.074
-541.237	-53.486	0.202	-0.093
-540.223	446.953	0.118	-0.260
-539.208	-21.475	0.348	0.213
-538.193	79.175	0.158	-0.170
-537.179	-33.394	0.087	-0.048
-536.164	-124.470	0.526	-0.082
-535.150	705.206	0.073	-0.192
-534.135	47.788	-0.107	0.100
-533.121	507.378	0.117	0.272
-532.106	1.808	-0.255	-0.184
-531.091	-138.672	-0.159	0.017
-530.077	175.041	0.206	-0.299
-529.062	-113.942	-0.265	-0.051
-528.048	186.602	-0.096	-0.143
-527.033	-164.738	0.287	-0.013
-526.018	-119.481	0.125	-0.022
-525.004	-200.000	0.030	-0.259
-523.989	-57.866	-0.328	-0.144
-522.975	19.435	0.389	-0.313
-521.960	-0.758	0.062	-0.044
-520.945	252.851	0.062	-0.106
-519.931	-200.000	-0.001	0.195
-518.916	-200.000	0.001	0.140
-517.902	76.712	0.403	-0.427
-516.887	-41.933	0.374	0.192
-515.872	237.590	0.023	0.038
-514.858	-147.411	-0.141	0.012
-513.843	-148.019	-0.297	-0.025
-512.829	17.804	-0.327	0.260
-511.814	-177.115	-0.211	0.005
-510.799	-82.715	-0.013	-0.004
-509.785	-200.000	0.013	-0.212
-508.770	-200.000	-0.014	-0.072
-507.756	-29.598	-0.202	0.116
-506.741	470.045	0.038	-0.084
-505.726	-9.651	0.322	-0.215
-504.712	800.000	0.007	-0.027
-503.697	-200.000	-0.003	0.113
-502.683	2.933	-0.338	0.245
-501.668	-200.000	0.032	0.269
-500.653	-4.788	-0.129	-0.089
-499.639	-70.478	0.345	0.131
-498.624	-162.353	-0.062	0.003
-497.610	-131.932	-0.341	-0.044
-496.595	-109.672	-0.446	-0.094
-495.581	800.000	-0.036	-0.113
-494.566	-115.361	-0.172	0.032
-493.551	88.656	-0.260	0.289
-492.537	782.456	-0.172	0.471
-491.522	-57.000	-0.129	0.057
-490.508	-200.000	0.030	0.139
-489.493	-32.638	0.123	-0.068
-488.478	800.000	-0.019	-0.077
-487.464	49.063	-0.196	-0.184
-486.449	27.514	0.189	-0.159
-485.435	256.660	0.108	-0.186
-484.420	57.860	0.226	0.221
-483.405	-94.261	-0.084	0.023
-482.391	28.399	0.292	-0.247
-481.376	-98.544	-0.319	-0.081
-480.362	119.373	0.078	0.096
-479.347	261.623	0.043	0.074
-478.332	-200.000	-0.008	-0.044
-477.318	-159.728	0.182	-0.010
-476.303	493.935	-0.169	-0.388
-475.289	145.257	-0.150	0.200
-474.274	49.421	-0.131	0.123
-473.259	29.328	-0.216	0.184
-472.245	107.656	0.155	-0.184
-471.230	59.894	0.273	-0.269
-470.216	-21.939	-0.281	-0.171
-469.201	189.195	-0.174	0.260
-468.186	-134.526	0.195	-0.024
-467.172	8.335	0.179	-0.134
-466.157	-200.000	0.053	0.265
-465.143	186.888	-0.123	0.183
-464.128	-65.506	-0.197	-0.079
-463.113	299.248	0.055	0.101
-462.099	385.732	0.104	0.214
-461.084	765.591	-0.108	0.293
-460.070	-200.000	0.002	0.131
-459.055	156.909	-0.096	-0.132
-458.040	-99.204	-0.460	-0.116
-457.026	91.293	-0.113	0.127
-456.011	149.982	0.218	-0.295
-454.997	-4.021	0.118	0.082
-453.982	141.771	-0.078	0.103
-452.968	-37.573	0.142	-0.075
-451.953	-200.000	-0.022	-0.120
-450.938	-92.715	-0.397	0.111
-449.924	-200.000	0.002	-0.012
-448.909	-200.000	0.029	0.315
-447.895	41.785	-0.062	0.056
-446.880	-73.144	0.012	-0.004
-445.865	-200.000	-0.017	-0.118
-444.851	-200.000	0.057	-0.281
-443.836	-19.402	-0.304	-0.188
-442.822	91.707	0.160	-0.180
-441.807	-81.978	0.419	0.137
-440.792	398.432	-0.136	-0.285
-439.778	-195.321	0.107	-0.001
-438.763	800.000	-0.122	-0.474
-437.749	-200.000	0.085	-0.392
-436.734	-117.439	-0.135	0.024
-435.719	-116.107	0.186	0.035
-434.705	229.894	0.097	-0.158
-433.690	800.000	0.045	-0.137
-432.676	-145.418	0.498	0.045
-431.661	-200.000	0.032	0.271
-430.646	-68.864	0.170	-0.066
-429.632	170.195	-0.122	-0.174
-428.617	-200.000	0.022	-0.236
-427.603	800.000	0.044	-0.136
-426.588	-45.470	-0.093	0.046
-425.573	800.000	0.064	0.241
-424.559	-200.000	0.060	0.273
-423.544	-57.774	0.190	0.083
-422.530	-200.000	0.010	0.435
-421.515	-95.252	0.111	0.030
-420.500	18.886	-0.164	0.131
-419.486	-200.000	-0.019	-0.218
-418.471	-110.528	0.154	0.032
-417.457	-57.526	-0.341	-0.149
-416.442	800.000	0.016	0.056
-415.428	65.271	0.159	0.160
-414.413	-51.942	0.342	-0.158
-413.398	-120.623	-0.334	0.056
-412.384	800.000	0.145	-0.473
-411.369	-200.000	-0.054	0.320
-410.355	-118.749	0.055	0.010
-409.340	-75.370	0.155	0.055
-408.325	-53.916	-0.104	0.047
-407.311	-126.036	-0.233	-0.035
-406.296	-200.000	-0.002	0.018
-405.282	108.458	0.049	-0.059
-404.267	87.162	0.190	-0.210
-403.252	85.477	0.256	-0.280
-402.238	-8.454	0.213	0.143
-401.223	-59.484	-0.052	0.022
-400.209	238.493	0.154	-0.255
-399.194	-103.169	0.151	-0.036
-398.179	-80.066	-0.086	0.029
-397.165	398.206	0.129	0.269
-396.150	555.707	0.106	0.254
-395.136	1.707	-0.262	-0.188
-394.121	-163.270	-0.145	-0.007
-393.106	800.000	-0.110	0.310
-392.092	124.796	-0.060	0.075
-391.077	39.172	-0.046	0.041
-390.063	467.143	0.033	0.073
-389.048	-200.000	0.042	-0.219
-388.033	-73.603	-0.322	0.117
-387.019	-200.000	-0.018	-0.199
-386.004	800.000	-0.126	-0.397
-384.990	504.485	0.121	0.279
-383.975	517.664	0.135	0.314
-382.960	800.000	0.119	0.333
-381.946	-43.871	0.312	-0.156
-380.931	-200.000	-0.041	-0.246
-379.917	180.827	0.162	-0.237
-378.902	800.000	-0.026	0.090
-377.888	-100.713	-0.067	-0.017
-376.873	-44.483	0.188	-0.094
-375.858	-200.000	0.002	-0.119
-374.844	-169.300	-0.120	0.004
-373.829	-200.000	-0.010	-0.073
-372.815	-200.000	-0.023	0.242
-371.800	-93.135	-0.168	0.047
-370.785	-73.085	-0.129	-0.047
-369.771	139.922	-0.136	0.179
-368.756	441.461	0.114	-0.248
-367.742	15.442	-0.047	0.036
-366.727	19.762	0.185	0.148
-365.712	177.348	0.166	-0.240
-364.698	-0.627	-0.193	-0.136
-363.683	97.597	-0.080	-0.091
-362.669	-101.422	-0.405	0.098
-361.654	-24.442	-0.195	-0.116
-360.639	-100.119	-0.049	-0.012
-359.625	-200.000	-0.019	0.166
-358.610	-139.443	-0.227	0.024
-357.596	131.005	0.213	0.272
-356.581	-112.353	-0.239	-0.048
-355.566	-107.303	0.073	-0.016
-354.552	561.807	-0.011	-0.027
-353.537	143.329	-0.075	-0.099
-352.523	-200.000	0.023	-0.116
-351.508	-2.948	-0.337	-0.234
-350.493	-96.466	0.136	-0.036
-349.479	-124.968	0.108	-0.017
-348.464	-17.738	0.116	-0.072
-347.450	-1.550	-0.104	-0.073
-346.435	-78.518	0.270	0.092
-345.420	-169.273	0.039	0.001
-344.406	-200.000	-0.006	0.083
-343.391	-176.027	0.302	0.008
-342.377	251.128	0.167	-0.282
-341.362	-200.000	0.068	0.341
-340.348	325.169	-0.109	0.207
-339.333	-115.013	0.096	-0.018
-338.318	-195.548	0.436	-0.003
-337.304	80.484	-0.280	0.299
-336.289	30.596	-0.076	-0.065
-335.275	132.787	-0.035	0.045
-334.260	126.153	-0.084	-0.105
-333.245	95.306	0.144	0.163
-332.231	499.807	0.036	0.083
-331.216	87.924	-0.296	0.326
-330.202	-79.962	0.112	0.037
-329.187	800.000	0.022	0.085
-328.172	-92.492	0.193	-0.054
-327.158	-120.545	-0.370	0.062
-326.143	-200.000	-0.024	-0.125
-325.129	-200.000	0.014	-0.278
-324.114	-22.350	0.199	-0.120
-323.099	81.791	-0.103	0.111
-322.085	-69.983	0.292	-0.111
-321.070	-2.455	-0.142	-0.099
-320.056	311.527	0.052	-0.097
-319.041	-125.964	-0.344	0.051
-318.026	-166.099	-0.131	-0.006
-317.012	800.000	-0.060	-0.246
-315.997	800.000	-0.100	-0.428
-314.983	753.947	0.077	-0.208
-313.968	-200.000	0.046	-0.215
-312.953	-200.000	0.015	-0.331
-311.939	256.367	-0.130	-0.222
-310.924	-200.000	0.003	0.081
-309.910	-200.000	0.093	0.488
-308.895	-8.338	0.222	0.148
-307.880	1.733	-0.162	0.116
-306.866	800.000	0.103	-0.300
-305.851	-154.303	0.321	-0.021
-304.837	-34.062	-0.199	-0.109
-303.822	-182.393	0.246	-0.005
-302.807	-138.986	-0.122	0.013
-301.793	-24.157	0.299	-0.177
-300.778	-33.283	0.409	0.225
-299.764	-80.732	-0.091	-0.030
-298.749	145.355	-0.219	-0.291
-297.735	93.309	-0.102	0.114
-296.720	-200.000	-0.033	0.354
-295.705	-200.000	0.030	0.301
-294.691	712.106	-0.059	0.154
-293.676	171.009	-0.228	-0.325
-292.662	-119.991	-0.179	0.030
-291.647	-200.000	-0.001	0.009
-290.632	-200.000	0.003	-0.217
-289.618	-80.708	0.388	-0.128
-288.603	18.848	0.077	0.061
-287.589	-167.610	-0.175	0.007
-286.574	77.221	0.027	-0.029
-285.559	49.298	0.169	-0.157
-284.545	-200.000	-0.001	0.034
-283.530	170.012	-0.198	0.281
-282.516	800.000	-0.087	0.283
-281.501	-66.071	0.057	0.022
-280.486	-200.000	-0.003	0.077
-279.472	209.151	0.228	0.354
-278.457	-96.558	-0.128	0.033
-277.443	-33.601	-0.016	-0.009
-276.428	-19.676	0.148	-0.091
-275.413	596.024	0.049	0.120
-274.399	800.000	-0.059	-0.231
-273.384	-70.293	-0.252	-0.095
-272.370	129.117	0.141	0.179
-271.355	444.078	0.031	-0.068
-270.340	-173.043	-0.231	-0.007
-269.326	194.876	0.101	0.151
-268.311	287.987	0.016	0.029
-267.297	-200.000	0.013	0.244
-266.282	800.000	0.020	-0.066
-265.267	360.214	0.044	0.087
-264.253	-108.279	-0.038	0.008
-263.238	77.174	-0.229	-0.241
-262.224	-200.000	0.033	0.184
-261.209	155.082	0.042	0.057
-260.195	224.608	0.065	-0.104
-259.180	436.608	-0.042	0.090
-258.165	-200.000	-0.045	0.503
-257.151	-79.270	-0.404	0.136
-256.136	-14.652	0.376	0.239
-255.122	188.103	0.122	-0.181
-254.107	-102.775	0.236	0.056
-253.092	-32.599	0.238	0.131
-252.078	-110.946	-0.173	-0.035
-251.063	84.637	-0.121	-0.132
-250.049	62.323	0.065	0.064
-249.034	180.186	-0.113	-0.164
-248.019	-12.758	0.115	-0.074
-247.005	385.366	0.110	0.224
-245.990	197.667	0.125	0.189
-244.976	-148.384	0.185	-0.015
-243.961	-200.000	-0.476	0.001
-242.946	263.466	-0.139	0.240
-241.932	-200.000	-0.136	0.000
-240.917	-82.878	0.349	-0.112
-239.903	-200.000	-0.017	-0.076
-238.888	-61.289	-0.013	-0.006
-237.873	-137.960	0.269	-0.030
-236.859	42.940	0.205	0.185
-235.844	-70.640	0.443	0.166
-234.830	-200.000	0.053	-0.277
-233.815	194.924	-0.257	0.386
-232.800	-44.271	0.132	0.065
-231.786	800.000	-0.080	-0.339
-230.771	437.537	0.098	0.210
-229.757	7.128	-0.140	0.104
-228.742	-93.187	0.158	0.044
-227.727	233.867	-0.120	0.196
-226.713	-200.000	0.015	-0.310
-225.698	75.419	-0.227	0.237
-224.684	-200.000	0.021	-0.211
-223.669	108.918	-0.191	0.226
-222.655	102.109	0.040	-0.047
-221.640	42.093	0.146	0.131
-220.625	-62.998	-0.283	0.116
-219.611	-34.724	0.188	-0.102
-218.596	-151.252	-0.198	0.015
-217.582	-200.000	0.001	0.160
-216.567	-200.000	0.001	0.110
-215.552	42.495	0.288	0.259
-214.538	-6.431	-0.208	0.140
-213.523	5.461	-0.160	0.117
-212.509	15.799	-0.247	0.192
-211.494	65.888	0.117	0.118
-210.479	175.349	-0.246	0.352
-209.465	-94.385	-0.333	-0.090
-208.450	-35.632	0.067	-0.036
-207.436	-79.820	-0.199	-0.066
-206.421	419.823	-0.130	0.276
-205.406	-13.782	0.318	-0.203
-204.392	267.603	-0.158	0.274
-203.377	-107.478	-0.226	-0.049
-202.363	127.561	-0.015	-0.019
-201.348	31.829	-0.211	0.179
-200.333	273.519	0.033	-0.058
-199.319	-200.000	0.009	0.151
-198.304	327.366	-0.214	0.406
-197.290	-43.877	-0.143	-0.071
-196.275	800.000	0.029	-0.095
-195.260	597.991	0.088	0.215
-194.246	357.896	-0.069	-0.135
-193.231	-136.940	0.242	0.027
-192.217	-200.000	0.020	0.248
-191.202	-70.420	-0.104	-0.039
-190.187	584.557	-0.054	-0.130
-189.173	-67.923	0.292	-0.113
-188.158	-122.940	0.088	-0.014
-187.144	-200.000	-0.085	0.379
-186.129	-200.000	-0.028	-0.218
-185.114	256.944	-0.097	-0.164
-184.100	-123.515	-0.049	0.008
-183.085	-53.914	0.019	0.008
-182.071	71.536	0.164	0.168
-181.056	106.643	-0.145	0.169
-180.042	-109.831	0.323	-0.067
-179.027	-4.000	0.059	0.040
-178.012	196.167	0.148	-0.223
-176.998	-34.205	0.060	-0.033
-175.983	-54.617	0.214	0.096
-174.969	532.006	0.153	-0.356
-173.954	-200.000	0.025	0.143
-172.939	-77.619	-0.278	0.095
-171.925	-200.000	0.007	-0.045
-170.910	-23.824	0.104	0.061
-169.896	-1.613	-0.189	0.132
-168.881	-200.000	0.367	-0.000
-167.866	78.035	-0.230	-0.242
-166.852	292.298	-0.189	-0.340
-165.837	150.488	0.103	0.138
-164.823	-2.095	0.318	-0.220
-163.808	-113.683	0.335	-0.064
-162.793	-37.818	0.257	0.135
-161.779	-13.051	-0.092	0.059
-160.764	14.813	0.294	0.227
-159.750	-14.936	0.085	-0.054
-158.735	-47.814	-0.130	-0.062
-157.720	221.842	0.193	0.306
-156.706	17.018	0.044	0.034
-155.691	-200.000	-0.014	-0.184
-154.677	-74.574	-0.192	-0.068
-153.662	800.000	-0.061	0.206
-152.647	342.695	-0.016	0.030
-151.633	57.971	-0.235	-0.227
-150.618	-120.199	-0.219	-0.037
-149.604	12.886	-0.165	-0.126
-148.589	-149.496	0.181	0.014
-147.574	-200.000	-0.019	0.249
-146.560	-200.000	0.006	-0.041
-145.545	681.310	-0.042	-0.109
-144.531	-56.938	-0.223	-0.097
-143.516	-88.025	-0.301	-0.089
-142.502	-122.892	-0.203	0.032
-141.487	-92.120	0.118	0.033
-140.472	-100.592	-0.337	-0.082
-139.458	-141.034	0.163	0.016
-138.443	34.144	-0.126	-0.109
-137.429	-18.353	-0.286	-0.176
-136.414	-200.000	0.024	-0.161
-135.399	-200.000	-0.030	0.284
-134.385	72.726	-0.088	0.091
-133.370	-59.016	-0.153	0.065
-132.356	-105.430	0.154	0.035
-131.341	244.678	-0.078	-0.129
-130.326	-43.706	0.301	0.150
-129.312	-129.189	0.375	-0.052
-128.297	65.726	0.008	0.007
-127.283	-45.046	-0.487	0.239
-126.268	285.149	0.084	-0.148
-125.253	-124.170	-0.416	0.064
-124.239	221.079	-0.137	0.216
-123.224	-200.000	-0.003	-0.398
-122.210	65.892	0.158	-0.158
