DTS Sentinel unit serial number:	SN413079Multiplexer serial number:	ORYXHardware model number:	OX4-SRSoftware version number:	ORYX F/W v4.00 Oryx Data Collector v3.7.2.0data status	okinstallation	princeton_trtdifferential loss correction	single-endedforward channel	channel 1reverse channel	N/Adate	2019/09/17time	14:10:35forward acquisition time	60.00reverse acquisition time	0.00gamma	496.2192k internal	0.2300k external	0.2300temperature offset calibration	0.9967default loss term (dB/km)	0.3790temperature slope calibration	1.0000multiplexer offset coefficient	1.0000multiplexer slope coefficient	1.0000fibre end	0.00T internal ref (°C)	35.87T ext. ref 1 (°C)	0.40T ext. ref 2 (°C)	32.84length (m)	temperature (°C)	Stokes	anti-Stokes-747.200	-61.936	-0.252	0.107
-746.185	-77.268	0.240	0.085
-745.171	800.000	0.040	0.147
-744.156	-84.685	-0.080	-0.026
-743.142	131.431	0.208	-0.273
-742.127	249.548	-0.134	0.231
-741.112	-54.998	0.192	0.088
-740.098	-20.859	0.078	0.049
-739.083	-65.018	0.235	0.097
-738.069	419.939	0.064	0.140
-737.054	-61.190	-0.163	0.070
-736.039	287.306	-0.203	-0.375
-735.025	-200.000	0.022	-0.209
-734.010	-200.000	0.016	0.189
-732.996	402.563	-0.233	-0.500
-731.981	41.240	-0.039	0.036
-730.966	-200.000	0.001	0.066
-729.952	-59.708	-0.354	-0.155
-728.937	32.518	0.139	-0.122
-727.923	61.339	-0.086	0.087
-726.908	-72.717	0.190	0.072
-725.894	-145.381	0.083	0.008
-724.879	800.000	-0.092	-0.278
-723.864	-102.422	-0.443	0.108
-722.850	110.541	-0.100	-0.122
-721.835	163.345	-0.144	-0.206
-720.821	-113.358	0.207	0.041
-719.806	-200.000	-0.023	-0.452
-718.791	-188.983	0.187	0.002
-717.777	-200.000	-0.011	0.211
-716.762	-3.269	-0.245	-0.174
-715.748	621.806	0.152	-0.390
-714.733	71.050	-0.104	-0.109
-713.718	-51.931	0.102	0.048
-712.704	88.595	0.075	-0.085
-711.689	800.000	-0.088	0.254
-710.675	-157.932	-0.374	0.022
-709.660	-27.714	-0.199	-0.118
-708.645	-172.594	0.173	0.006
-707.631	31.292	-0.131	0.114
-706.616	-62.794	-0.236	-0.100
-705.602	-119.946	-0.389	-0.068
-704.587	55.782	-0.069	-0.068
-703.572	800.000	0.046	0.130
-702.558	-23.806	-0.062	0.038
-701.543	19.605	0.265	0.217
-700.529	23.318	-0.151	0.126
-699.514	-200.000	-0.005	-0.222
-698.499	-14.460	-0.145	-0.095
-697.485	-62.849	0.159	-0.067
-696.470	79.279	-0.214	0.234
-695.456	-119.276	0.133	-0.024
-694.441	-190.420	0.383	-0.004
-693.426	112.078	-0.153	0.189
-692.412	-155.798	0.161	0.010
-691.397	800.000	0.124	0.422
-690.383	274.563	-0.064	-0.116
-689.368	-200.000	-0.034	0.185
-688.354	414.144	-0.068	0.148
-687.339	324.466	-0.070	-0.136
-686.324	398.403	0.132	-0.281
-685.310	-200.000	0.090	-0.422
-684.295	162.973	0.213	-0.305
-683.281	-150.535	-0.315	-0.025
-682.266	-43.760	0.174	-0.089
-681.251	197.270	-0.155	-0.241
-680.237	375.018	-0.145	-0.300
-679.222	-162.876	-0.163	-0.008
-678.208	-6.612	-0.272	-0.188
-677.193	-46.962	-0.195	0.097
-676.178	-168.453	-0.070	0.003
-675.164	-73.263	0.077	0.029
-674.149	103.724	-0.247	0.295
-673.135	156.109	0.034	-0.048
-672.120	-23.387	-0.104	-0.064
-671.105	-144.869	-0.360	0.034
-670.091	538.051	0.094	-0.228
-669.076	-80.986	0.323	0.109
-668.062	-3.144	0.168	-0.119
-667.047	-110.170	-0.149	-0.032
-666.032	-31.934	-0.122	0.070
-665.018	-1.034	-0.117	0.084
-664.003	-197.855	-0.181	0.001
-662.989	201.168	0.124	-0.193
-661.974	-122.347	-0.069	-0.012
-660.959	-46.279	0.090	0.045
-659.945	800.000	-0.088	-0.305
-658.930	57.140	0.119	-0.118
-657.916	46.951	-0.133	0.126
-656.901	439.680	-0.022	-0.049
-655.886	-200.000	-0.004	0.117
-654.872	153.612	-0.080	-0.111
-653.857	-34.129	-0.126	-0.070
-652.843	-200.000	0.024	-0.583
-651.828	-61.889	-0.099	-0.042
-650.814	124.685	-0.102	0.130
-649.799	269.815	-0.015	-0.026
-648.784	-200.000	-0.030	0.148
-647.770	303.852	-0.038	0.071
-646.755	3.117	-0.119	0.088
-645.741	12.290	-0.175	0.137
-644.726	-23.771	-0.150	0.091
-643.711	-160.822	-0.341	0.018
-642.697	-200.000	-0.008	-0.080
-641.682	58.315	-0.278	-0.277
-640.668	386.499	-0.095	-0.199
-639.653	21.759	0.188	0.155
-638.638	-61.124	-0.356	0.152
-637.624	-200.000	0.044	0.396
-636.609	32.593	-0.144	0.127
-635.595	499.494	-0.078	0.184
-634.580	800.000	0.074	0.302
-633.565	150.403	-0.052	-0.071
-632.551	-2.602	0.196	-0.139
-631.536	-200.000	-0.040	-0.477
-630.522	0.086	-0.041	-0.030
-629.507	77.806	0.162	0.176
-628.492	83.736	0.178	0.197
-627.478	169.585	0.167	0.242
-626.463	409.486	-0.161	-0.347
-625.449	-171.599	-0.316	0.011
-624.434	-200.000	-0.007	-0.200
-623.419	-39.417	0.395	-0.211
-622.405	-200.000	0.020	0.131
-621.390	-114.181	-0.213	-0.042
-620.376	800.000	0.033	-0.105
-619.361	44.543	-0.042	-0.039
-618.346	-50.589	-0.180	-0.086
-617.332	-66.851	0.167	-0.067
-616.317	-200.000	0.051	-0.483
-615.303	62.592	0.256	0.259
-614.288	-200.000	0.000	0.342
-613.273	32.659	0.112	0.098
-612.259	-6.474	-0.136	0.094
-611.244	800.000	-0.050	0.223
-610.230	-90.143	-0.348	0.103
-609.215	800.000	0.033	0.115
-608.201	-7.504	0.068	0.047
-607.186	800.000	-0.080	0.334
-606.171	615.571	-0.084	0.215
-605.157	-137.013	0.308	0.036
-604.142	-200.000	0.021	-0.166
-603.128	-200.000	0.012	0.102
-602.113	-189.191	0.290	0.004
-601.098	-149.696	0.185	0.015
-600.084	800.000	0.070	-0.278
-599.069	-176.078	0.208	0.006
-598.055	52.352	-0.090	-0.087
-597.040	300.942	0.110	0.207
-596.025	-200.000	0.015	0.156
-595.011	-26.290	-0.036	-0.021
-593.996	698.799	0.118	0.314
-592.982	117.685	0.136	0.170
-591.967	-3.989	0.364	-0.256
-590.952	-17.476	0.275	-0.176
-589.938	-200.000	0.032	0.157
-588.923	390.024	0.073	0.153
-587.909	91.379	-0.101	0.115
-586.894	-200.000	-0.014	0.402
-585.879	-200.000	0.011	0.064
-584.865	-126.664	0.271	0.041
-583.850	-88.167	-0.305	0.093
-582.836	-200.000	0.008	0.041
-581.821	-127.649	0.342	0.050
-580.806	-128.183	-0.283	0.041
-579.792	-37.564	-0.112	-0.061
-578.777	-86.199	0.433	-0.135
-577.763	-119.314	-0.328	0.058
-576.748	-5.096	-0.159	0.111
-575.733	800.000	-0.120	0.461
-574.719	399.898	-0.051	0.108
-573.704	-141.588	0.092	0.009
-572.690	-81.021	-0.292	0.098
-571.675	-200.000	-0.018	0.141
-570.661	137.255	-0.073	-0.096
-569.646	-83.269	0.335	-0.109
-568.631	53.180	0.226	-0.219
-567.617	-2.143	0.347	-0.247
-566.602	-20.154	-0.310	-0.193
-565.588	800.000	0.043	0.158
-564.573	303.064	0.175	0.328
-563.558	586.490	-0.024	-0.060
-562.544	-0.881	-0.225	0.162
-561.529	-150.123	0.245	0.019
-560.515	-190.309	-0.128	-0.001
-559.500	-200.000	-0.020	0.132
-558.485	800.000	0.040	0.171
-557.471	548.008	-0.104	-0.253
-556.456	18.581	-0.181	-0.147
-555.442	-48.064	0.359	-0.176
-554.427	-85.507	0.252	0.079
-553.412	-127.436	-0.332	0.049
-552.398	-57.834	-0.213	-0.094
-551.383	42.230	0.081	0.074
-550.369	132.115	0.069	0.090
-549.354	-85.483	-0.319	-0.101
-548.339	-166.716	0.069	-0.003
-547.325	-31.192	-0.206	0.117
-546.310	110.175	-0.048	-0.059
-545.296	-68.342	-0.141	0.055
-544.281	38.613	-0.069	-0.062
-543.266	800.000	-0.055	0.169
-542.252	-27.958	0.252	-0.147
-541.237	243.618	0.087	0.147
-540.223	-57.915	-0.186	0.082
-539.208	-200.000	0.028	-0.212
-538.193	-200.000	0.084	-0.417
-537.179	70.395	0.092	0.096
-536.164	-58.399	0.076	-0.033
-535.150	-61.259	-0.294	0.125
-534.135	-137.226	-0.288	-0.033
-533.121	-200.000	-0.004	0.062
-532.106	-78.899	0.137	-0.047
-531.091	173.542	0.033	0.049
-530.077	1.802	0.332	-0.242
-529.062	166.307	-0.176	0.252
-528.048	-123.877	0.360	-0.057
-527.033	23.877	-0.149	0.124
-526.018	2.054	-0.104	-0.076
-525.004	-93.738	-0.307	0.085
-523.989	800.000	0.019	0.062
-522.975	800.000	0.031	-0.135
-521.960	-69.554	0.155	-0.060
-520.945	-200.000	0.017	0.133
-519.931	1.072	-0.286	-0.208
-518.916	20.874	0.098	0.081
-517.902	171.338	0.084	0.122
-516.887	55.657	-0.170	-0.167
-515.872	-200.000	0.023	-0.155
-514.858	50.331	0.162	0.155
-513.843	98.989	-0.195	-0.228
-512.829	-174.203	-0.301	0.009
-511.814	-200.000	0.009	0.065
-510.799	-132.980	-0.322	-0.041
-509.785	-121.290	0.157	0.027
-508.770	-119.325	-0.053	-0.009
-507.756	442.868	0.186	0.413
-506.741	384.187	-0.120	0.249
-505.726	28.405	-0.025	0.022
-504.712	-64.909	-0.053	-0.022
-503.697	800.000	0.009	0.039
-502.683	345.034	0.083	-0.164
-501.668	263.261	0.078	0.137
-500.653	800.000	0.043	-0.137
-499.639	78.527	0.162	-0.175
-498.624	-200.000	-0.017	-0.288
-497.610	65.286	0.231	0.236
-496.595	-89.228	-0.134	0.040
-495.581	16.662	0.171	-0.137
-494.566	97.807	-0.215	-0.250
-493.551	35.115	-0.117	-0.104
-492.537	-66.779	0.113	-0.045
-491.522	-148.775	0.398	-0.033
-490.508	800.000	0.044	-0.128
-489.493	271.335	-0.081	-0.144
-488.478	-200.000	-0.063	0.445
-487.464	-126.199	-0.229	0.035
-486.449	800.000	0.036	-0.148
-485.435	800.000	0.175	-0.532
-484.420	240.193	0.148	-0.249
-483.405	800.000	-0.026	0.096
-482.391	-200.000	-0.015	-0.257
-481.376	109.858	0.033	-0.040
-480.362	-7.963	0.164	0.111
-479.347	695.979	-0.112	0.297
-478.332	426.493	0.111	0.241
-477.318	-132.377	0.232	0.030
-476.303	-200.000	-0.039	0.191
-475.289	-172.525	0.207	0.007
-474.274	-200.000	-0.037	0.286
-473.259	-200.000	-0.015	0.194
-472.245	24.814	-0.089	-0.075
-471.230	-200.000	-0.042	-0.342
-470.216	46.708	-0.082	-0.077
-469.201	392.519	0.041	-0.087
-468.186	40.420	0.121	0.110
-467.172	-78.568	-0.147	-0.051
-466.157	60.437	0.097	-0.097
-465.143	800.000	-0.085	0.278
-464.128	-49.427	-0.350	0.168
-463.113	438.939	0.038	0.083
-462.099	-190.616	0.255	0.003
-461.084	-200.000	-0.043	0.326
-460.070	9.007	0.392	0.299
-459.055	800.000	-0.078	0.217
-458.040	783.364	0.047	0.130
-457.026	51.973	-0.064	-0.061
-456.011	213.247	-0.027	-0.043
-454.997	-200.000	-0.001	0.167
-453.982	-45.262	0.241	-0.121
-452.968	800.000	0.095	0.390
-451.953	-156.044	-0.264	-0.017
-450.938	396.749	-0.012	0.025
-449.924	-200.000	0.026	0.299
-448.909	176.819	0.180	0.265
-447.895	-200.000	-0.009	0.099
-446.880	37.489	0.183	-0.163
-445.865	-67.108	-0.430	-0.171
-444.851	137.293	0.149	0.197
-443.836	23.528	-0.341	0.283
-442.822	800.000	-0.069	0.272
-441.807	800.000	-0.077	-0.221
-440.792	-67.101	-0.180	0.072
-439.778	-77.687	0.263	-0.092
-438.763	-130.284	-0.150	-0.021
-437.749	800.000	-0.081	0.242
-436.734	-163.981	-0.230	-0.011
-435.719	43.808	-0.191	0.177
-434.705	-144.870	-0.352	-0.032
-433.690	-2.284	0.167	-0.118
-432.676	-147.147	0.040	0.003
-431.661	-200.000	0.022	-0.218
-430.646	475.971	0.016	0.037
-429.632	35.443	0.177	-0.156
-428.617	-79.566	0.283	-0.096
-427.603	-200.000	-0.066	0.339
-426.588	-20.152	-0.133	0.083
-425.573	-135.988	-0.221	-0.026
-424.559	-200.000	-0.091	-0.481
-423.544	800.000	-0.060	-0.253
-422.530	544.538	-0.126	0.302
-421.515	-200.000	-0.007	-0.032
-420.500	68.763	0.262	0.271
-419.486	-200.000	0.045	0.260
-418.471	-200.000	-0.016	-0.232
-417.457	254.795	-0.172	0.296
-416.442	-81.151	-0.121	0.040
-415.428	42.555	0.154	-0.141
-414.413	-99.096	0.242	-0.062
-413.398	-16.186	-0.107	0.068
-412.384	-122.624	-0.405	-0.066
-411.369	117.446	-0.166	0.206
-410.355	70.335	-0.191	-0.199
-409.340	-3.133	-0.073	-0.051
-408.325	-45.781	0.108	0.054
-407.311	-89.563	0.145	-0.043
-406.296	-8.792	-0.279	0.189
-405.282	-184.479	-0.540	0.009
-404.267	303.530	-0.099	0.184
-403.252	-97.935	0.056	-0.014
-402.238	-125.954	0.288	-0.044
-401.223	-200.000	0.000	-0.020
-400.209	104.974	-0.044	-0.052
-399.194	-178.541	0.182	0.004
-398.179	139.300	0.150	0.198
-397.165	58.783	0.036	-0.035
-396.150	-37.563	-0.401	0.215
-395.136	-200.000	-0.029	0.354
-394.121	273.040	-0.088	0.156
-393.106	-159.155	0.140	0.008
-392.092	-106.365	0.266	0.060
-391.077	27.412	0.182	0.154
-390.063	194.969	0.072	-0.110
-389.048	-200.000	0.047	-0.241
-388.033	31.333	-0.111	0.096
-387.019	-128.755	0.230	0.033
-386.004	-200.000	0.034	0.265
-384.990	-125.667	-0.112	-0.017
-383.975	-139.216	0.213	-0.023
-382.960	56.179	0.214	0.209
-381.946	35.848	0.093	0.082
-380.931	-59.435	-0.059	0.025
-379.917	580.471	0.095	-0.233
-378.902	-200.000	-0.016	-0.147
-377.888	-28.779	0.143	0.083
-376.873	-62.392	-0.186	0.078
-375.858	259.570	-0.068	-0.117
-374.844	-200.000	-0.058	-0.296
-373.829	800.000	0.039	0.109
-372.815	-200.000	-0.090	0.410
-371.800	176.123	0.084	-0.123
-370.785	-200.000	0.005	0.035
-369.771	76.132	-0.012	0.012
-368.756	-109.519	0.171	0.036
-367.742	168.308	0.094	-0.134
-366.727	-160.199	0.299	-0.016
-365.712	-200.000	0.013	-0.081
-364.698	701.435	-0.026	0.069
-363.683	39.120	0.265	0.238
-362.669	-200.000	0.026	-0.404
-361.654	659.401	-0.048	-0.124
-360.639	-18.532	0.085	0.053
-359.625	-168.273	-0.278	-0.011
-358.610	-118.023	-0.124	0.022
-357.596	-200.000	-0.021	-0.140
-356.581	217.894	0.033	0.053
-355.566	168.890	0.026	-0.037
-354.552	800.000	-0.044	0.158
-353.537	71.920	0.135	-0.141
-352.523	319.581	0.042	-0.080
-351.508	518.880	-0.063	-0.149
-350.493	-74.171	-0.114	-0.041
-349.479	-26.371	0.234	0.138
-348.464	-200.000	-0.049	0.224
-347.450	131.903	-0.166	0.215
-346.435	-37.681	-0.160	0.085
-345.420	-200.000	0.004	-0.151
-344.406	-200.000	-0.012	0.161
-343.391	-173.835	-0.202	0.006
-342.377	-200.000	0.020	0.164
-341.362	-120.095	-0.488	0.084
-340.348	60.047	-0.123	0.122
-339.333	1.306	0.122	0.088
-338.318	-100.971	0.341	-0.084
-337.304	-200.000	0.035	-0.175
-336.289	800.000	-0.081	-0.286
-335.275	-200.000	0.043	-0.231
-334.260	-166.662	0.166	0.007
-333.245	12.751	0.295	0.229
-332.231	-82.038	-0.128	0.042
-331.216	-54.235	-0.521	-0.237
-330.202	283.119	0.023	0.042
-329.187	721.130	0.122	-0.325
-328.172	196.363	-0.135	0.206
-327.158	27.839	0.246	0.208
-326.143	800.000	-0.048	0.175
-325.129	27.337	-0.100	0.085
-324.114	-65.330	0.350	-0.141
-323.099	66.881	-0.158	-0.161
-322.085	-200.000	-0.007	-0.263
-321.070	-94.277	-0.172	-0.047
-320.056	800.000	-0.051	-0.205
-319.041	-89.196	0.036	-0.011
-318.026	-82.357	0.073	0.024
-317.012	262.102	-0.211	-0.367
-315.997	-200.000	0.009	-0.129
-314.983	436.652	-0.078	-0.170
-313.968	-54.722	-0.297	-0.135
-312.953	800.000	-0.048	-0.146
-311.939	-60.418	0.168	0.072
-310.924	-112.865	0.120	-0.024
-309.910	800.000	-0.123	0.346
-308.895	-52.717	0.140	-0.065
-307.880	152.883	0.157	-0.216
-306.866	-200.000	-0.113	-0.537
-305.851	107.540	0.145	-0.173
-304.837	50.484	0.060	-0.057
-303.822	-95.719	0.036	-0.010
-302.807	3.694	-0.200	0.147
-301.793	-198.165	0.090	0.001
-300.778	-97.476	0.131	-0.034
-299.764	-135.750	0.312	-0.037
-298.749	16.127	-0.135	0.107
-297.735	49.712	0.229	0.216
-296.720	10.735	-0.201	0.154
-295.705	-35.111	-0.272	0.149
-294.691	43.862	0.174	-0.160
-293.676	-200.000	-0.033	-0.263
-292.662	313.955	0.117	-0.220
-291.647	-123.228	-0.364	0.058
-290.632	-93.236	0.111	0.031
-289.618	-120.251	-0.218	0.037
-288.603	338.218	-0.070	0.136
-287.589	-41.099	0.169	-0.088
-286.574	-200.000	0.039	0.226
-285.559	92.911	-0.382	-0.433
-284.545	344.051	-0.229	-0.451
-283.530	101.262	-0.142	0.166
-282.516	-60.426	-0.322	-0.137
-281.501	-200.000	-0.027	-0.222
-280.486	-158.623	-0.323	0.019
-279.472	55.598	0.163	-0.158
-278.457	374.522	0.113	-0.230
-277.443	-200.000	0.010	-0.293
-276.428	-11.577	0.130	0.086
-275.413	800.000	0.056	0.168
-274.399	-128.566	-0.193	0.027
-273.384	41.845	-0.220	0.200
-272.370	-200.000	0.048	-0.351
-271.355	-200.000	-0.030	-0.217
-270.340	368.692	0.149	0.301
-269.326	-22.372	0.212	-0.128
-268.311	-74.142	0.171	0.062
-267.297	10.026	0.269	0.205
-266.282	-200.000	-0.023	-0.223
-265.267	-177.312	0.315	0.008
-264.253	-157.581	0.269	0.016
-263.238	123.496	-0.114	0.143
-262.224	-112.879	0.280	0.055
-261.209	714.769	0.029	0.076
-260.195	512.136	0.102	0.237
-259.180	430.605	-0.083	0.179
-258.165	-195.411	-0.149	0.001
-257.151	-94.074	0.325	-0.089
-256.136	-23.229	-0.116	-0.070
-255.122	-8.297	-0.055	-0.037
-254.107	-87.168	0.156	-0.048
-253.092	139.539	0.097	-0.128
-252.078	-200.000	-0.013	-0.086
-251.063	-172.527	0.036	0.001
-250.049	-59.999	0.307	0.131
-249.034	96.018	0.243	0.278
-248.019	-98.557	-0.278	-0.071
-247.005	212.712	0.093	-0.147
-245.990	221.545	0.267	-0.429
-244.976	-89.838	0.139	0.041
-243.961	56.124	-0.057	0.055
-242.946	197.365	0.171	-0.261
-241.932	135.669	-0.021	0.028
-240.917	-124.579	0.272	0.042
-239.903	-75.211	-0.190	0.068
-238.888	279.261	-0.196	-0.349
-237.873	-130.768	-0.367	-0.049
-236.859	-55.488	-0.083	0.037
-235.844	22.377	0.247	0.202
-234.830	-83.525	0.143	0.046
-233.815	-200.000	-0.013	-0.100
-232.800	98.123	0.183	-0.211
-231.786	-105.274	0.097	0.022
-230.771	168.119	0.228	-0.324
-229.757	79.982	-0.149	-0.160
-228.742	-13.639	0.320	-0.207
-227.727	-65.927	0.057	0.023
-226.713	-6.861	-0.157	0.107
-225.698	-145.586	0.366	0.033
-224.684	-39.162	-0.340	0.179
-223.669	-200.000	-0.024	0.179
-222.655	418.703	-0.113	-0.241
-221.640	-2.619	-0.250	-0.175
-220.625	-43.105	-0.284	-0.144
-219.611	-90.844	-0.297	-0.086
-218.596	49.015	0.287	-0.269
-217.582	14.270	-0.364	-0.284
-216.567	433.903	0.154	-0.333
-215.552	54.585	0.106	0.102
-214.538	-140.956	-0.250	-0.026
-213.523	-200.000	0.008	-0.333
-212.509	568.452	0.047	0.113
-211.494	-200.000	-0.073	0.337
-210.479	743.398	-0.059	-0.160
-209.465	494.494	-0.066	-0.152
-208.450	-200.000	-0.008	-0.235
-207.436	31.852	0.148	-0.127
-206.421	-71.845	-0.217	-0.081
-205.406	800.000	0.096	-0.345
-204.392	3.666	0.100	0.073
-203.377	-159.886	-0.408	-0.022
-202.363	-118.429	0.183	0.032
-201.348	496.999	0.081	-0.185
-200.333	132.559	0.196	-0.253
-199.319	-67.848	0.260	-0.102
-198.304	-142.054	-0.119	0.012
-197.290	63.866	-0.046	-0.046
-196.275	142.150	0.270	0.357
-195.260	-200.000	0.039	0.220
-194.246	373.880	0.080	-0.163
-193.231	-200.000	-0.053	0.269
-192.217	76.673	0.230	0.244
-191.202	-200.000	-0.003	-0.160
-190.187	-112.266	0.195	-0.039
-189.173	283.499	-0.082	0.146
-188.158	349.779	-0.076	-0.150
-187.144	393.702	-0.131	-0.271
-186.129	96.126	0.433	0.494
-185.114	94.830	0.081	0.092
-184.100	-96.708	0.160	-0.042
-183.085	800.000	-0.046	0.174
-182.071	90.200	-0.147	-0.164
-181.056	-38.995	0.142	0.075
-180.042	16.813	0.018	-0.014
-179.027	800.000	-0.075	-0.270
-178.012	-200.000	-0.004	-0.140
-176.998	800.000	0.058	-0.178
-175.983	-99.570	0.310	-0.078
-174.969	-200.000	0.069	0.375
-173.954	800.000	0.044	0.164
-172.939	-4.816	-0.282	0.194
-171.925	800.000	-0.019	0.068
-170.910	-200.000	0.004	0.317
-169.896	-200.000	0.016	-0.132
-168.881	-86.374	-0.136	0.042
-167.866	-200.000	0.113	-0.000
-166.852	800.000	0.116	-0.373
-165.837	200.249	-0.222	0.340
-164.823	-101.139	-0.305	-0.074
-163.808	-48.030	-0.253	-0.122
-162.793	-170.909	0.203	-0.007
-161.779	-71.039	-0.169	-0.063
-160.764	-94.514	-0.054	0.015
-159.750	800.000	-0.099	-0.372
-158.735	28.841	-0.040	0.034
-157.720	49.777	-0.100	-0.094
-156.706	509.319	-0.025	-0.058
-155.691	-28.567	-0.206	-0.118
-154.677	-67.398	-0.265	0.104
-153.662	-64.388	0.249	-0.101
-152.647	-80.267	0.059	-0.020
-151.633	55.612	-0.165	-0.160
-150.618	90.791	0.176	0.197
-149.604	-55.397	0.086	-0.039
-148.589	92.357	0.145	-0.163
-147.574	20.339	0.360	0.290
-146.560	800.000	-0.044	-0.124
-145.545	115.256	-0.173	-0.210
-144.531	123.892	0.181	0.227
-143.516	545.316	-0.104	0.248
-142.502	-200.000	0.086	0.416
-141.487	-84.387	-0.263	0.083
-140.472	217.018	0.258	-0.409
-139.458	-200.000	-0.057	0.301
-138.443	300.850	0.126	0.232
-137.429	-163.727	-0.287	0.013
-136.414	-117.731	0.104	-0.019
-135.399	-36.845	-0.127	-0.068
-134.385	-200.000	-0.047	-0.256
-133.370	27.695	0.134	0.112
-132.356	418.539	-0.059	0.126
-131.341	125.075	-0.176	0.221
-130.326	-97.228	0.083	0.022
-129.312	-150.578	0.218	0.017
-128.297	-51.925	-0.178	-0.082
-127.283	-60.973	0.160	0.068
-126.268	-64.313	-0.190	0.077
-125.253	-200.000	-0.017	0.110
-124.239	800.000	-0.051	0.223
-123.224	128.775	-0.137	-0.174
-122.210	196.621	-0.190	0.289
-121.195	18.882	0.105	0.083
