DTS Sentinel unit serial number:	SN413079Multiplexer serial number:	ORYXHardware model number:	OX4-SRSoftware version number:	ORYX F/W v4.00 Oryx Data Collector v3.7.2.0data status	okinstallation	princeton_trtdifferential loss correction	single-endedforward channel	channel 1reverse channel	N/Adate	2019/09/12time	12:24:11forward acquisition time	60.00reverse acquisition time	0.00gamma	496.2192k internal	0.2292k external	0.2292temperature offset calibration	1.0045default loss term (dB/km)	0.3790temperature slope calibration	1.0000multiplexer offset coefficient	1.0000multiplexer slope coefficient	1.0000fibre end	0.00T internal ref (°C)	40.56T ext. ref 1 (°C)	2.03T ext. ref 2 (°C)	35.47length (m)	temperature (°C)	Stokes	anti-Stokes-747.200	800.000	-0.089	-0.357
-746.185	-117.072	0.354	0.066
-745.171	-122.487	0.109	-0.018
-744.156	-42.839	-0.139	0.072
-743.142	-98.025	0.165	0.044
-742.127	80.494	-0.147	0.162
-741.112	16.419	0.225	-0.182
-740.098	-42.687	-0.127	0.066
-739.083	-74.473	-0.304	-0.112
-738.069	-200.000	0.073	-0.385
-737.054	-72.115	0.314	0.119
-736.039	194.933	0.073	-0.113
-735.025	36.772	0.217	0.196
-734.010	-51.515	-0.302	-0.144
-732.996	-154.940	-0.369	-0.025
-731.981	-118.384	-0.042	0.008
-730.966	35.751	0.258	0.232
-729.952	141.975	0.207	-0.281
-728.937	17.714	-0.149	0.121
-727.923	379.879	-0.147	-0.307
-726.908	-44.198	-0.131	-0.067
-725.894	800.000	0.130	-0.418
-724.879	-89.179	-0.365	-0.110
-723.864	-29.745	-0.249	-0.145
-722.850	800.000	0.039	-0.160
-721.835	258.836	-0.117	0.205
-720.821	42.550	0.112	0.104
-719.806	-49.696	-0.306	-0.149
-718.791	-56.162	-0.140	-0.064
-717.777	-200.000	-0.066	0.302
-716.762	388.247	-0.200	-0.422
-715.748	-190.193	0.272	0.003
-714.733	-200.000	-0.000	0.054
-713.718	-137.423	0.084	0.010
-712.704	-200.000	0.018	-0.204
-711.689	-200.000	0.025	0.833
-710.675	12.670	0.168	0.133
-709.660	-200.000	-0.037	-0.198
-708.645	10.619	-0.218	0.170
-707.631	309.027	0.162	-0.310
-706.616	-169.174	-0.071	0.003
-705.602	-4.417	-0.184	0.130
-704.587	248.999	-0.202	-0.350
-703.572	62.945	-0.099	-0.101
-702.558	239.747	-0.052	-0.089
-701.543	-200.000	-0.038	0.322
-700.529	334.778	0.160	-0.317
-699.514	175.813	0.164	-0.243
-698.499	101.176	0.075	0.089
-697.485	-27.892	0.162	-0.096
-696.470	775.152	0.011	0.032
-695.456	-109.125	-0.066	-0.014
-694.441	59.969	-0.037	-0.038
-693.426	-199.293	-0.212	0.001
-692.412	115.020	-0.112	0.140
-691.397	110.416	0.328	0.403
-690.383	610.118	-0.129	-0.329
-689.368	-91.980	0.066	0.019
-688.354	800.000	-0.097	-0.336
-687.339	88.723	-0.307	0.348
-686.324	-200.000	0.010	-0.246
-685.310	82.483	0.125	0.139
-684.295	-44.804	-0.151	0.077
-683.281	130.637	0.151	-0.197
-682.266	-196.643	0.070	0.000
-681.251	-200.000	-0.043	-0.297
-680.237	800.000	-0.125	-0.358
-679.222	-12.168	-0.139	0.093
-678.208	800.000	-0.083	-0.346
-677.193	86.413	-0.210	-0.236
-676.178	800.000	0.030	0.099
-675.164	208.979	-0.123	0.196
-674.149	-200.000	0.016	0.101
-673.135	-101.829	0.429	-0.106
-672.120	-91.679	0.033	0.010
-671.105	274.143	0.066	-0.120
-670.091	-200.000	0.077	-0.459
-669.076	483.659	0.056	-0.130
-668.062	692.989	-0.087	-0.233
-667.047	341.184	-0.156	-0.311
-666.032	-108.990	-0.434	-0.094
-665.018	696.088	-0.096	-0.257
-664.003	-200.000	-0.045	-0.282
-662.989	-109.632	-0.126	0.027
-661.974	-44.507	0.208	0.106
-660.959	-14.532	-0.221	0.145
-659.945	-168.739	-0.111	-0.004
-658.930	34.008	-0.163	0.145
-657.916	237.847	-0.082	0.139
-656.901	-23.677	0.527	0.322
-655.886	800.000	-0.077	-0.329
-654.872	-166.705	-0.198	-0.008
-653.857	681.701	0.095	-0.252
-652.843	-148.986	-0.248	-0.020
-651.828	393.920	-0.093	-0.198
-650.814	-200.000	-0.072	-0.412
-649.799	504.638	-0.085	0.200
-648.784	800.000	-0.098	0.352
-647.770	-200.000	-0.085	-0.404
-646.755	800.000	-0.045	-0.191
-645.741	12.558	0.025	-0.020
-644.726	-162.032	-0.191	-0.010
-643.711	715.083	-0.013	-0.035
-642.697	-200.000	0.058	-0.310
-641.682	-200.000	-0.048	-0.249
-640.668	83.806	-0.140	0.155
-639.653	61.668	-0.064	-0.065
-638.638	6.273	-0.147	-0.111
-637.624	-53.834	-0.084	-0.039
-636.609	-124.385	0.262	0.042
-635.595	-10.417	-0.331	0.224
-634.580	35.111	0.110	-0.099
-633.565	-37.826	-0.187	-0.101
-632.551	146.508	-0.133	0.182
-631.536	203.298	-0.096	0.151
-630.522	276.040	-0.032	-0.058
-629.507	714.464	-0.072	-0.194
-628.492	291.621	-0.115	-0.213
-627.478	-139.285	-0.395	0.043
-626.463	225.660	0.122	0.202
-625.449	-200.000	-0.015	-0.265
-624.434	-200.000	0.043	-0.194
-623.419	668.661	0.190	-0.500
-622.405	800.000	0.007	0.028
-621.390	-122.131	0.290	0.048
-620.376	374.603	-0.083	0.172
-619.361	164.728	-0.216	0.310
-618.346	66.779	0.023	0.024
-617.332	-49.961	-0.206	-0.099
-616.317	103.097	-0.068	0.081
-615.303	93.456	0.059	-0.067
-614.288	5.043	-0.237	-0.178
-613.273	11.052	-0.196	0.152
-612.259	-96.851	0.096	0.026
-611.244	24.285	0.126	0.106
-610.230	527.618	0.038	0.091
-609.215	179.366	0.084	0.126
-608.201	-200.000	0.001	-0.294
-607.186	-39.896	0.369	0.196
-606.171	9.664	0.214	0.165
-605.157	-2.718	-0.130	-0.093
-604.142	-200.000	0.050	0.326
-603.128	-17.856	0.233	0.149
-602.113	190.454	0.190	0.291
-601.098	363.493	-0.193	0.394
-600.084	-79.321	0.224	-0.077
-599.069	247.100	0.132	-0.227
-598.055	282.940	0.094	-0.172
-597.040	158.015	0.145	-0.204
-596.025	-163.304	0.243	0.012
-595.011	196.787	0.109	-0.169
-593.996	143.333	-0.157	-0.212
-592.982	-200.000	-0.023	0.125
-591.967	174.754	0.058	0.086
-590.952	-4.204	-0.112	-0.079
-589.938	-200.000	0.009	-0.198
-588.923	-200.000	-0.044	-0.203
-587.909	-157.481	-0.237	0.014
-586.894	261.629	0.021	0.037
-585.879	166.320	0.205	-0.295
-584.865	-80.956	-0.120	0.040
-583.850	181.802	0.107	0.160
-582.836	-200.000	-0.016	-0.186
-581.821	-125.249	-0.244	0.038
-580.806	86.611	-0.120	-0.134
-579.792	800.000	0.035	0.109
-578.777	-107.603	0.174	-0.039
-577.763	-39.561	0.407	-0.217
-576.748	-178.894	0.239	0.006
-575.733	-200.000	-0.005	0.103
-574.719	-160.715	0.225	-0.012
-573.704	651.953	0.021	0.055
-572.690	248.887	-0.118	-0.203
-571.675	-26.469	-0.217	-0.129
-570.661	34.217	-0.253	-0.224
-569.646	113.740	0.220	0.272
-568.631	800.000	0.081	-0.243
-567.617	-200.000	-0.011	-0.091
-566.602	770.958	0.066	0.182
-565.588	48.148	0.176	-0.168
-564.573	129.771	-0.114	0.148
-563.558	501.494	-0.126	0.296
-562.544	39.431	0.121	0.111
-561.529	17.890	0.340	0.275
-560.515	595.403	0.103	0.259
-559.500	-191.430	-0.191	-0.002
-558.485	-41.889	0.170	0.089
-557.471	800.000	-0.042	-0.132
-556.456	-70.971	-0.124	0.047
-555.442	87.159	0.045	-0.050
-554.427	-147.175	0.215	-0.019
-553.412	5.870	-0.179	0.134
-552.398	-42.728	0.115	0.059
-551.383	-74.540	0.027	-0.010
-550.369	-200.000	-0.004	0.316
-549.354	-17.735	-0.371	0.237
-548.339	-102.568	0.151	0.037
-547.325	-200.000	-0.008	-0.047
-546.310	-200.000	0.015	0.157
-545.296	-129.078	0.284	-0.040
-544.281	-200.000	0.002	0.076
-543.266	-200.000	-0.055	0.315
-542.252	42.468	-0.111	0.103
-541.237	-69.095	0.105	-0.041
-540.223	-169.307	-0.251	0.009
-539.208	800.000	0.081	0.341
-538.193	12.427	0.114	-0.089
-537.179	-43.695	0.161	0.082
-536.164	237.664	0.120	0.201
-535.150	-42.980	-0.164	0.085
-534.135	-200.000	0.048	0.216
-533.121	-200.000	0.008	0.110
-532.106	-34.148	0.060	0.034
-531.091	47.821	-0.153	-0.145
-530.077	470.180	0.148	-0.337
-529.062	382.781	0.105	0.219
-528.048	-186.696	-0.241	0.003
-527.033	-90.580	0.272	-0.080
-526.018	800.000	-0.033	0.140
-525.004	370.494	-0.177	0.364
-523.989	-200.000	-0.024	-0.268
-522.975	-16.432	0.083	0.053
-521.960	800.000	0.132	0.393
-520.945	800.000	-0.029	0.117
-519.931	-200.000	0.000	0.288
-518.916	-61.876	-0.098	0.041
-517.902	355.398	-0.102	-0.207
-516.887	-200.000	0.022	0.122
-515.872	-200.000	0.070	0.523
-514.858	800.000	0.038	0.135
-513.843	97.345	0.247	0.287
-512.829	800.000	-0.046	0.156
-511.814	-76.903	-0.301	0.107
-510.799	-200.000	-0.004	-0.206
-509.785	-117.908	0.209	-0.038
-508.770	-74.381	-0.324	0.118
-507.756	-48.388	0.234	0.115
-506.741	-44.668	-0.306	-0.155
-505.726	-157.249	-0.131	0.008
-504.712	-200.000	-0.008	-0.081
-503.697	-184.405	0.136	0.002
-502.683	-191.847	0.183	-0.002
-501.668	-200.000	-0.022	-0.442
-500.653	693.329	-0.063	0.168
-499.639	-200.000	-0.032	-0.167
-498.624	2.610	0.216	-0.158
-497.610	-136.695	-0.174	0.020
-496.595	317.881	0.189	-0.362
-495.581	-17.490	0.262	0.167
-494.566	-70.208	-0.042	0.016
-493.551	536.224	-0.038	-0.092
-492.537	-200.000	-0.021	0.368
-491.522	-47.856	0.193	-0.095
-490.508	-24.834	0.143	0.086
-489.493	-78.489	-0.148	-0.051
-488.478	188.775	0.269	-0.408
-487.464	132.553	-0.085	-0.111
-486.449	-115.003	-0.183	-0.035
-485.435	-117.948	-0.321	-0.058
-484.420	98.031	0.188	0.219
-483.405	-200.000	0.005	-0.215
-482.391	25.129	0.132	-0.111
-481.376	-150.193	-0.104	-0.008
-480.362	184.660	0.157	-0.236
-479.347	800.000	0.039	0.161
-478.332	128.789	0.327	0.422
-477.318	-115.077	-0.136	0.026
-476.303	-44.460	0.482	0.244
-475.289	38.837	-0.265	-0.240
-474.274	-200.000	-0.010	-0.060
-473.259	-24.607	0.170	-0.103
-472.245	-200.000	-0.003	-0.193
-471.230	-130.780	0.255	-0.035
-470.216	-3.565	0.338	-0.238
-469.201	800.000	-0.049	-0.189
-468.186	262.707	0.175	-0.308
-467.172	-86.707	-0.261	0.081
-466.157	470.545	-0.134	-0.304
-465.143	389.276	0.077	-0.162
-464.128	-200.000	0.047	-0.342
-463.113	471.231	0.008	0.018
-462.099	344.660	0.127	0.253
-461.084	800.000	0.126	0.398
-460.070	2.158	-0.141	-0.103
-459.055	-53.926	-0.080	-0.037
-458.040	-12.988	-0.167	0.110
-457.026	800.000	-0.080	0.289
-456.011	47.426	-0.085	-0.081
-454.997	91.167	0.075	0.085
-453.982	-148.653	-0.104	0.009
-452.968	47.325	-0.170	-0.160
-451.953	-44.438	0.131	0.067
-450.938	-200.000	-0.097	-0.519
-449.924	-91.748	-0.123	-0.035
-448.909	110.978	-0.263	-0.320
-447.895	0.771	-0.310	-0.224
-446.880	134.574	0.143	-0.188
-445.865	-200.000	0.012	0.113
-444.851	476.243	-0.047	0.107
-443.836	-79.549	0.282	0.096
-442.822	-200.000	0.009	0.102
-441.807	672.628	-0.142	0.373
-440.792	-90.326	0.060	-0.018
-439.778	-70.180	-0.265	0.102
-438.763	-7.855	-0.144	0.098
-437.749	194.377	0.036	-0.056
-436.734	-200.000	-0.016	0.105
-435.719	-156.448	0.081	-0.005
-434.705	800.000	0.073	-0.309
-433.690	800.000	-0.067	-0.229
-432.676	-156.684	0.358	-0.022
-431.661	-78.244	-0.128	0.044
-430.646	-200.000	0.038	-0.195
-429.632	89.558	0.120	-0.135
-428.617	4.739	0.144	0.107
-427.603	-126.667	-0.232	-0.035
-426.588	-121.400	-0.283	-0.048
-425.573	88.038	-0.253	0.284
-424.559	-24.115	0.253	-0.153
-423.544	35.154	0.167	0.148
-422.530	-148.047	-0.112	0.009
-421.515	701.745	0.083	-0.221
-420.500	369.415	0.120	0.246
-419.486	-43.067	0.098	-0.050
-418.471	-84.213	0.187	-0.060
-417.457	800.000	0.086	0.257
-416.442	-200.000	0.028	0.204
-415.428	29.009	-0.054	0.046
-414.413	508.042	0.094	-0.220
-413.398	-147.763	0.154	0.013
-412.384	142.035	-0.028	0.038
-411.369	11.085	0.184	0.142
-410.355	-179.346	0.055	0.001
-409.340	79.641	0.287	0.312
-408.325	-72.249	0.167	-0.063
-407.311	435.770	-0.049	-0.108
-406.296	434.102	-0.043	0.094
-405.282	56.017	-0.129	0.126
-404.267	50.610	-0.042	-0.041
-403.252	-59.950	-0.184	-0.079
-402.238	141.838	0.191	-0.255
-401.223	800.000	-0.066	0.261
-400.209	-36.987	0.228	-0.124
-399.194	-200.000	0.021	0.315
-398.179	180.353	-0.136	0.201
-397.165	-52.648	0.157	0.073
-396.150	-54.139	0.288	-0.132
-395.136	800.000	-0.025	-0.103
-394.121	-178.697	0.229	-0.005
-393.106	800.000	-0.028	0.114
-392.092	-200.000	0.026	-0.125
-391.077	-150.771	-0.289	-0.022
-390.063	45.770	-0.087	0.081
-389.048	-200.000	-0.004	0.033
-388.033	-200.000	0.001	-0.160
-387.019	800.000	-0.049	-0.187
-386.004	-15.056	-0.105	-0.068
-384.990	-200.000	-0.172	0.000
-383.975	-180.794	-0.042	-0.001
-382.960	-200.000	-0.053	0.239
-381.946	-200.000	0.036	0.322
-380.931	414.833	-0.063	0.136
-379.917	188.907	-0.264	0.399
-378.902	-52.617	0.186	0.087
-377.888	194.786	-0.060	0.091
-376.873	-119.557	0.252	0.044
-375.858	-200.000	0.011	-0.168
-374.844	-27.629	-0.516	-0.303
-373.829	-111.775	-0.117	0.024
-372.815	-200.000	-0.017	-0.291
-371.800	-1.418	-0.127	0.090
-370.785	-37.339	-0.115	-0.062
-369.771	800.000	0.099	-0.405
-368.756	67.254	-0.084	-0.087
-367.742	-86.016	-0.379	0.118
-366.727	-3.521	0.198	-0.139
-365.712	-85.236	0.085	-0.027
-364.698	-24.280	-0.287	-0.173
-363.683	-150.530	0.217	-0.017
-362.669	800.000	0.097	0.286
-361.654	-200.000	0.016	0.181
-360.639	744.238	0.084	0.229
-359.625	719.593	0.112	0.300
-358.610	-200.000	-0.027	-0.313
-357.596	800.000	-0.052	0.186
-356.581	-200.000	-0.062	-0.313
-355.566	-115.325	0.255	-0.049
-354.552	-118.605	-0.247	-0.044
-353.537	389.323	0.114	0.239
-352.523	-96.102	-0.384	-0.103
-351.508	-200.000	-0.071	0.336
-350.493	193.934	0.186	0.284
-349.479	-50.852	0.198	-0.094
-348.464	718.322	0.133	-0.357
-347.450	-104.066	-0.175	-0.041
-346.435	670.967	-0.064	-0.168
-345.420	-120.895	-0.193	-0.033
-344.406	-23.789	0.137	0.083
-343.391	-35.527	-0.008	-0.004
-342.377	-200.000	-0.009	0.188
-341.362	278.871	-0.021	-0.038
-340.348	47.580	-0.131	0.123
-339.333	-122.949	-0.551	0.089
-338.318	-66.923	-0.438	-0.174
-337.304	-120.597	-0.146	0.025
-336.289	-129.926	-0.511	-0.071
-335.275	-200.000	0.006	-0.058
-334.260	205.326	0.111	-0.173
-333.245	20.776	0.249	-0.203
-332.231	-200.000	-0.032	0.294
-331.216	800.000	-0.080	-0.229
-330.202	-75.544	-0.243	0.087
-329.187	800.000	0.043	-0.158
-328.172	-74.799	0.232	-0.084
-327.158	-10.815	-0.113	-0.075
-326.143	800.000	0.023	-0.081
-325.129	-88.711	0.226	-0.068
-324.114	-200.000	0.007	-0.163
-323.099	-168.988	-0.318	-0.012
-322.085	205.427	0.253	-0.396
-321.070	800.000	0.061	0.216
-320.056	-44.817	0.271	0.136
-319.041	-200.000	0.005	-0.069
-318.026	78.197	-0.084	-0.091
-317.012	202.161	0.039	0.061
-315.997	12.111	0.124	0.096
-314.983	-109.498	-0.438	0.093
-313.968	-200.000	0.024	-0.214
-312.953	31.758	-0.220	-0.191
-311.939	-1.381	0.144	0.102
-310.924	11.200	0.099	-0.076
-309.910	-49.685	-0.203	0.097
-308.895	-143.037	-0.101	0.010
-307.880	141.436	-0.243	-0.323
-306.866	-56.261	-0.150	0.067
-305.851	800.000	0.067	0.277
-304.837	-146.112	-0.035	-0.003
-303.822	475.905	0.135	-0.308
-302.807	-200.000	-0.018	0.214
-301.793	-131.351	-0.265	-0.035
-300.778	624.900	-0.088	-0.222
-299.764	84.716	0.028	-0.031
-298.749	-117.104	-0.290	-0.053
-297.735	140.867	0.062	0.083
-296.720	-110.086	0.156	0.033
-295.705	186.351	0.173	-0.259
-294.691	-200.000	-0.001	0.072
-293.676	202.652	0.052	0.081
-292.662	55.884	0.166	-0.162
-291.647	-123.839	0.352	0.056
-290.632	800.000	0.052	0.163
-289.618	800.000	-0.075	0.232
-288.603	-29.555	0.213	-0.122
-287.589	-200.000	0.008	-0.129
-286.574	-79.815	-0.091	0.031
-285.559	433.735	-0.020	-0.043
-284.545	76.204	-0.117	0.124
-283.530	-17.112	-0.043	-0.027
-282.516	40.388	-0.027	0.024
-281.501	17.974	0.118	-0.094
-280.486	304.081	0.165	0.308
-279.472	30.750	-0.201	0.173
-278.457	800.000	0.036	0.149
-277.443	20.866	0.193	-0.157
-276.428	46.212	-0.317	0.295
-275.413	-200.000	-0.074	-0.373
-274.399	-175.507	-0.196	0.005
-273.384	-135.056	0.215	0.026
-272.370	-21.313	0.255	-0.156
-271.355	150.703	-0.205	0.280
-270.340	190.018	0.193	-0.291
-269.326	28.859	-0.123	0.105
-268.311	283.884	-0.018	-0.032
-267.297	800.000	-0.042	-0.169
-266.282	-142.187	0.256	-0.025
-265.267	-50.417	0.201	-0.095
-264.253	0.772	-0.318	-0.229
-263.238	-114.545	0.190	-0.037
-262.224	-16.007	-0.115	-0.074
-261.209	-200.000	0.001	-0.164
-260.195	187.884	-0.012	0.019
-259.180	-83.461	-0.289	-0.093
-258.165	-71.127	0.170	-0.064
-257.151	800.000	-0.056	0.194
-256.136	229.434	-0.112	0.183
-255.122	-200.000	0.039	-0.201
-254.107	-200.000	0.028	0.150
-253.092	-35.328	0.257	0.140
-252.078	-123.223	-0.249	0.040
-251.063	-68.190	0.201	0.078
-250.049	131.984	0.146	-0.189
-249.034	-200.000	-0.065	-0.437
-248.019	188.060	0.191	0.286
-247.005	602.527	-0.022	0.055
-245.990	8.273	0.101	-0.076
-244.976	16.339	0.103	-0.081
-243.961	173.469	-0.195	0.282
-242.946	169.241	-0.162	-0.232
-241.932	-81.931	0.116	0.038
-240.917	260.966	0.102	0.176
-239.903	-200.000	-0.027	-0.178
-238.888	-200.000	0.061	-0.359
-237.873	-200.000	0.102	-0.449
-236.859	-200.000	-0.009	-0.125
-235.844	-124.210	-0.309	-0.049
-234.830	-111.270	-0.069	0.014
-233.815	-166.701	0.185	-0.008
-232.800	34.713	-0.133	0.117
-231.786	800.000	0.095	0.384
-230.771	-85.117	0.054	-0.017
-229.757	379.016	0.201	0.413
-228.742	59.940	0.086	0.085
-227.727	-200.000	0.007	-0.125
-226.713	-153.520	-0.039	-0.003
-225.698	-121.518	0.351	-0.059
-224.684	122.515	-0.040	0.050
-223.669	-124.527	-0.167	-0.026
-222.655	800.000	0.018	-0.066
-221.640	-200.000	-0.005	0.224
-220.625	78.563	0.095	-0.102
-219.611	-106.234	-0.137	-0.031
-218.596	-88.235	-0.199	0.060
-217.582	-200.000	0.005	0.053
-216.567	800.000	-0.103	0.309
-215.552	-200.000	-0.020	-0.175
-214.538	46.334	-0.151	-0.140
-213.523	-50.404	0.170	-0.080
-212.509	-200.000	-0.020	-0.215
-211.494	-200.000	-0.046	-0.388
-210.479	171.251	-0.174	-0.250
-209.465	-51.457	-0.103	-0.048
-208.450	-200.000	-0.028	-0.248
-207.436	-200.000	0.022	0.114
-206.421	-32.348	0.315	0.176
-205.406	800.000	-0.086	0.253
-204.392	41.280	0.224	-0.203
-203.377	800.000	-0.132	-0.433
-202.363	-46.333	-0.173	-0.085
-201.348	-54.191	-0.166	-0.075
-200.333	98.244	0.073	0.084
-199.319	128.540	0.124	-0.158
-198.304	224.441	0.219	0.355
-197.290	241.444	0.054	-0.091
-196.275	-200.000	-0.025	0.285
-195.260	800.000	0.050	-0.189
-194.246	-200.000	-0.019	-0.161
-193.231	120.948	-0.165	-0.205
-192.217	134.659	0.078	-0.101
-191.202	155.697	0.212	0.292
-190.187	-200.000	-0.028	0.237
-189.173	-111.929	0.174	-0.035
-188.158	140.183	-0.018	0.024
-187.144	-24.861	0.178	0.106
-186.129	251.307	-0.076	0.129
-185.114	15.331	0.157	0.124
-184.100	31.886	-0.119	-0.103
-183.085	86.532	0.133	-0.146
-182.071	-59.841	0.266	-0.114
-181.056	-70.258	0.309	-0.117
-180.042	-200.000	-0.010	0.191
-179.027	-200.000	-0.033	-0.245
-178.012	-76.753	-0.275	0.096
-176.998	-38.878	0.089	0.047
-175.983	-200.000	-0.028	0.129
-174.969	96.763	0.055	-0.063
-173.954	800.000	0.087	0.347
-172.939	-200.000	-0.022	0.195
-171.925	-70.695	-0.128	-0.048
-170.910	800.000	-0.132	0.374
-169.896	-62.326	-0.323	0.135
-168.881	-200.000	-0.051	-0.354
-167.866	-114.302	-0.149	-0.029
-166.852	800.000	0.086	0.266
-165.837	-200.000	-0.015	-0.335
-164.823	-62.579	0.269	0.112
-163.808	143.117	-0.194	-0.258
-162.793	-35.956	-0.086	0.047
-161.779	495.473	-0.073	0.169
-160.764	-200.000	0.018	0.227
-159.750	327.708	0.071	-0.137
-158.735	77.839	-0.182	-0.194
-157.720	374.581	-0.106	0.217
-156.706	20.585	-0.262	0.212
-155.691	-97.097	0.102	0.027
-154.677	800.000	0.082	0.295
-153.662	-200.000	-0.051	0.306
-152.647	-141.790	-0.142	-0.014
-151.633	-200.000	0.032	-0.190
-150.618	3.646	-0.086	-0.063
-149.604	800.000	0.033	-0.104
-148.589	-78.538	0.217	-0.074
-147.574	115.508	0.130	-0.158
-146.560	-57.279	0.308	-0.136
-145.545	-200.000	-0.050	-0.381
-144.531	-57.308	0.235	-0.103
-143.516	-200.000	0.021	0.104
-142.502	-6.223	-0.088	-0.060
-141.487	-26.679	-0.269	0.157
-140.472	-32.065	-0.279	0.156
-139.458	-62.546	0.338	0.140
-138.443	63.806	0.192	0.192
-137.429	-95.655	0.193	0.052
-136.414	-200.000	-0.005	-0.382
-135.399	-43.181	0.149	0.075
-134.385	86.830	-0.138	-0.152
-133.370	-200.000	0.038	0.185
-132.356	-153.917	-0.213	-0.015
-131.341	800.000	0.108	0.345
-130.326	-169.292	0.170	0.006
-129.312	38.123	0.179	-0.159
-128.297	-91.175	0.126	0.036
-127.283	-21.086	0.120	-0.073
-126.268	115.170	-0.089	-0.108
-125.253	147.460	-0.238	0.320
-124.239	-200.000	0.028	-0.133
-123.224	-66.532	-0.202	0.080
-122.210	125.636	-0.078	0.098
