DTS Sentinel unit serial number:	SN413079Multiplexer serial number:	ORYXHardware model number:	OX4-SRSoftware version number:	ORYX F/W v4.00 Oryx Data Collector v3.7.2.0data status	okinstallation	princeton_trtdifferential loss correction	single-endedforward channel	channel 1reverse channel	N/Adate	2019/09/16time	13:10:35forward acquisition time	60.00reverse acquisition time	0.00gamma	496.2192k internal	0.2294k external	0.2294temperature offset calibration	0.9951default loss term (dB/km)	0.3790temperature slope calibration	1.0000multiplexer offset coefficient	1.0000multiplexer slope coefficient	1.0000fibre end	0.00T internal ref (°C)	40.94T ext. ref 1 (°C)	13.66T ext. ref 2 (°C)	38.87length (m)	temperature (°C)	Stokes	anti-Stokes-747.200	-200.000	-0.005	-0.222
-746.185	172.928	-0.118	0.174
-745.171	6.587	-0.119	-0.090
-744.156	-200.000	-0.120	0.568
-743.142	453.126	-0.104	0.236
-742.127	-200.000	0.050	0.564
-741.112	-5.844	0.189	0.132
-740.098	674.117	0.039	0.103
-739.083	-0.829	-0.082	0.059
-738.069	81.778	0.144	0.159
-737.054	493.738	-0.056	0.130
-736.039	-98.402	-0.179	0.047
-735.025	-69.528	0.372	0.146
-734.010	-137.680	-0.311	0.036
-732.996	-75.155	-0.342	0.125
-731.981	20.637	-0.130	0.108
-730.966	83.968	0.094	-0.105
-729.952	280.383	0.059	0.108
-728.937	-200.000	-0.021	-0.147
-727.923	-158.217	-0.184	0.011
-726.908	221.755	0.093	-0.153
-725.894	-200.000	-0.041	0.446
-724.879	34.288	-0.365	0.326
-723.864	800.000	-0.070	-0.281
-722.850	546.513	0.071	0.174
-721.835	-130.293	0.142	-0.020
-720.821	99.095	-0.469	-0.554
-719.806	165.656	0.199	-0.287
-718.791	-34.882	0.226	-0.126
-717.777	800.000	-0.042	-0.157
-716.762	103.883	0.176	-0.211
-715.748	-126.812	0.443	-0.067
-714.733	361.078	-0.055	-0.113
-713.718	133.129	-0.166	0.219
-712.704	-200.000	-0.017	0.180
-711.689	-25.143	0.116	-0.070
-710.675	89.633	0.122	0.139
-709.660	218.585	0.223	0.365
-708.645	-92.687	-0.517	0.148
-707.631	-200.000	0.041	-0.223
-706.616	800.000	-0.038	-0.154
-705.602	69.032	-0.262	-0.275
-704.587	-62.397	0.181	0.077
-703.572	571.850	0.226	0.561
-702.558	73.038	-0.100	0.106
-701.543	34.848	0.145	0.130
-700.529	-104.199	-0.138	-0.033
-699.514	-59.290	0.275	0.121
-698.499	217.076	-0.037	-0.061
-697.485	-200.000	0.060	-0.322
-696.470	800.000	-0.022	0.086
-695.456	-72.326	-0.327	0.124
-694.441	20.474	-0.147	0.121
-693.426	40.092	-0.116	0.106
-692.412	266.684	-0.081	-0.144
-691.397	-37.681	0.225	-0.122
-690.383	47.711	-0.122	-0.116
-689.368	282.724	0.081	0.148
-688.354	-200.000	-0.007	-0.039
-687.339	-97.302	0.157	-0.042
-686.324	-200.000	0.100	-0.589
-685.310	-92.286	0.212	-0.061
-684.295	-200.000	0.007	-0.132
-683.281	103.887	0.113	0.136
-682.266	30.338	0.138	-0.120
-681.251	-129.004	0.483	-0.069
-680.237	-106.803	-0.276	-0.062
-679.222	-182.924	-0.107	0.002
-678.208	800.000	-0.057	0.178
-677.193	152.951	0.169	0.236
-676.178	-85.837	-0.097	-0.031
-675.164	800.000	-0.029	-0.117
-674.149	-53.779	0.113	0.052
-673.135	-6.187	0.132	0.092
-672.120	-200.000	0.055	-0.412
-671.105	-141.107	0.566	-0.059
-670.091	38.355	-0.245	-0.223
-669.076	4.793	0.214	0.160
-668.062	-103.730	-0.148	-0.035
-667.047	75.130	0.105	0.112
-666.032	-27.893	-0.347	0.205
-665.018	-200.000	-0.005	-0.068
-664.003	653.790	-0.146	-0.382
-662.989	-200.000	-0.134	0.000
-661.974	312.015	-0.073	-0.139
-660.959	124.753	-0.240	-0.309
-659.945	-200.000	-0.067	-0.374
-658.930	69.666	-0.213	-0.223
-657.916	-68.903	0.264	0.104
-656.901	305.192	-0.027	-0.051
-655.886	372.487	0.108	-0.223
-654.872	-54.724	0.402	-0.185
-653.857	-104.473	-0.369	-0.087
-652.843	258.056	-0.183	0.322
-651.828	-200.000	0.009	0.161
-650.814	-120.740	0.189	0.033
-649.799	-123.430	-0.158	-0.026
-648.784	141.294	-0.155	-0.209
-647.770	-87.037	-0.375	0.116
-646.755	-144.872	-0.209	0.019
-645.741	-73.541	-0.252	-0.094
-644.726	800.000	-0.045	-0.175
-643.711	552.707	-0.072	0.176
-642.697	-153.353	0.097	0.007
-641.682	-91.143	0.100	-0.029
-640.668	424.088	-0.086	0.189
-639.653	-88.323	-0.236	-0.072
-638.638	800.000	-0.024	0.083
-637.624	-148.413	-0.205	0.017
-636.609	-123.147	0.265	0.043
-635.595	165.292	-0.085	0.122
-634.580	495.259	-0.079	0.185
-633.565	5.734	-0.226	-0.170
-632.551	363.837	0.103	-0.210
-631.536	260.502	0.085	0.149
-630.522	-50.374	0.062	-0.030
-629.507	147.708	0.004	-0.006
-628.492	-200.000	0.025	-0.133
-627.478	-133.669	-0.345	-0.044
-626.463	-200.000	-0.001	0.104
-625.449	369.881	-0.121	0.250
-624.434	309.603	0.037	-0.071
-623.419	398.892	-0.036	0.076
-622.405	129.159	-0.122	-0.158
-621.390	74.208	-0.358	0.382
-620.376	169.087	-0.200	-0.291
-619.361	800.000	0.137	0.524
-618.346	-200.000	-0.014	0.071
-617.332	-83.807	0.344	-0.112
-616.317	54.315	0.219	-0.214
-615.303	-200.000	-0.008	0.045
-614.288	-200.000	0.049	0.362
-613.273	-200.000	0.011	0.075
-612.259	7.635	-0.205	-0.156
-611.244	710.986	-0.029	-0.079
-610.230	-61.357	0.162	0.069
-609.215	237.268	0.134	0.225
-608.201	-104.607	0.120	0.028
-607.186	-187.478	-0.115	0.002
-606.171	225.618	0.043	-0.070
-605.157	70.162	-0.206	0.217
-604.142	-105.007	-0.106	-0.025
-603.128	-200.000	-0.003	-0.051
-602.113	-17.047	-0.063	0.041
-601.098	26.544	0.246	0.209
-600.084	-142.387	-0.169	-0.017
-599.069	48.123	0.121	0.115
-598.055	141.716	-0.082	-0.110
-597.040	-200.000	0.030	-0.133
-596.025	-71.866	0.096	-0.036
-595.011	-200.000	0.012	-0.244
-593.996	66.781	0.248	-0.256
-592.982	234.954	0.053	-0.089
-591.967	-26.667	-0.272	0.162
-590.952	383.381	-0.091	-0.191
-589.938	-176.509	-0.203	-0.005
-588.923	273.358	0.054	-0.098
-587.909	50.584	-0.166	-0.160
-586.894	-64.121	-0.112	0.046
-585.879	-55.509	0.269	-0.122
-584.865	-11.389	-0.178	-0.119
-583.850	-164.111	-0.537	0.025
-582.836	-191.273	0.279	0.003
-581.821	18.060	0.119	-0.096
-580.806	-200.000	0.012	-0.237
-579.792	65.302	0.100	0.103
-578.777	-86.456	0.063	-0.020
-577.763	150.841	-0.259	0.357
-576.748	53.483	-0.152	-0.148
-575.733	-200.000	0.022	-0.332
-574.719	791.446	-0.037	0.104
-573.704	-167.304	-0.113	0.005
-572.690	80.222	0.332	-0.362
-571.675	415.569	0.070	0.152
-570.661	-59.221	0.406	-0.178
-569.646	-200.000	0.007	-0.241
-568.631	329.728	0.141	-0.276
-567.617	555.511	0.062	-0.152
-566.602	-94.186	0.110	0.031
-565.588	-200.000	-0.008	-0.258
-564.573	-2.619	-0.154	0.109
-563.558	56.286	-0.172	0.169
-562.544	316.427	0.043	-0.082
-561.529	-200.000	-0.042	0.415
-560.515	-200.000	-0.012	0.281
-559.500	-155.724	-0.021	0.001
-558.485	211.404	0.200	-0.319
-557.471	-44.801	-0.301	-0.153
-556.456	-200.000	0.015	0.311
-555.442	-200.000	0.021	-0.246
-554.427	552.777	-0.125	0.306
-553.412	563.810	0.045	0.110
-552.398	-144.429	-0.297	0.028
-551.383	-167.932	-0.268	-0.011
-550.369	800.000	-0.129	-0.451
-549.354	-40.127	0.360	0.191
-548.339	800.000	0.060	-0.261
-547.325	-106.636	-0.194	-0.044
-546.310	67.406	0.079	-0.082
-545.296	-26.203	-0.308	-0.184
-544.281	330.796	-0.128	0.250
-543.266	181.528	-0.139	0.208
-542.252	-85.921	0.233	0.073
-541.237	-200.000	-0.027	0.228
-540.223	800.000	0.058	-0.195
-539.208	-135.894	-0.077	-0.009
-538.193	-200.000	0.005	0.296
-537.179	-51.268	-0.306	0.145
-536.164	-86.563	-0.069	0.021
-535.150	-17.461	0.072	-0.046
-534.135	119.388	0.062	-0.078
-533.121	-200.000	-0.016	-0.077
-532.106	-26.756	-0.183	0.108
-531.091	-200.000	0.013	0.198
-530.077	-101.145	-0.180	0.045
-529.062	-34.403	0.028	-0.016
-528.048	-101.649	0.169	-0.041
-527.033	-9.351	0.100	0.068
-526.018	800.000	-0.045	-0.160
-525.004	130.620	0.149	0.194
-523.989	-152.404	-0.321	-0.023
-522.975	800.000	0.040	0.124
-521.960	-111.084	-0.221	0.046
-520.945	-98.713	0.144	0.037
-519.931	388.137	-0.116	0.244
-518.916	-68.197	-0.088	-0.035
-517.902	-200.000	0.021	0.101
-516.887	-200.000	0.001	-0.103
-515.872	-39.106	-0.116	0.062
-514.858	-151.081	0.226	0.017
-513.843	-45.003	-0.251	-0.127
-512.829	800.000	-0.051	0.171
-511.814	366.167	0.155	-0.316
-510.799	800.000	0.096	0.279
-509.785	-40.828	0.219	-0.115
-508.770	-132.885	-0.174	-0.023
-507.756	62.097	-0.098	-0.099
-506.741	-34.521	-0.330	0.183
-505.726	56.563	0.125	-0.123
-504.712	228.904	-0.074	-0.122
-503.697	81.496	0.205	0.224
-502.683	-19.530	-0.079	-0.050
-501.668	-200.000	0.005	0.028
-500.653	14.205	0.076	0.060
-499.639	-60.451	-0.218	-0.094
-498.624	-130.907	0.268	-0.036
-497.610	338.703	-0.030	0.058
-496.595	-136.824	0.385	0.045
-495.581	-192.884	-0.283	0.003
-494.566	-200.000	0.023	0.163
-493.551	-70.469	-0.044	0.017
-492.537	-77.122	-0.131	0.046
-491.522	75.306	-0.230	-0.246
-490.508	224.660	0.095	0.155
-489.493	-200.000	0.038	0.291
-488.478	-126.531	-0.137	0.021
-487.464	23.197	-0.060	0.050
-486.449	-184.634	0.280	-0.005
-485.435	381.583	-0.123	-0.255
-484.420	-160.006	-0.293	0.016
-483.405	412.732	0.104	0.224
-482.391	657.290	-0.037	-0.096
-481.376	800.000	-0.031	0.111
-480.362	183.795	-0.091	0.136
-479.347	-105.468	0.192	0.044
-478.332	-43.869	-0.064	-0.033
-477.318	148.285	-0.205	0.280
-476.303	-27.371	-0.178	0.105
-475.289	126.875	-0.092	-0.119
-474.274	107.622	0.102	-0.123
-473.259	-92.492	-0.139	-0.039
-472.245	263.547	-0.078	0.137
-471.230	-200.000	-0.056	-0.412
-470.216	-27.821	-0.380	0.223
-469.201	-200.000	0.052	0.254
-468.186	-200.000	-0.006	-0.097
-467.172	-95.368	-0.360	0.098
-466.157	162.948	0.091	0.129
-465.143	43.887	0.130	-0.120
-464.128	-200.000	0.029	-0.177
-463.113	-69.354	0.513	-0.199
-462.099	774.390	-0.092	0.253
-461.084	164.303	0.152	0.217
-460.070	33.296	-0.315	-0.277
-459.055	76.476	-0.157	0.168
-458.040	-59.645	0.273	-0.118
-457.026	800.000	0.089	0.326
-456.011	800.000	-0.039	-0.152
-454.997	59.997	-0.362	-0.362
-453.982	800.000	0.034	0.138
-452.968	280.012	-0.075	-0.135
-451.953	800.000	-0.015	0.059
-450.938	32.624	0.071	-0.062
-449.924	-75.337	0.410	-0.148
-448.909	-59.714	-0.205	0.089
-447.895	-34.989	0.110	-0.061
-446.880	206.586	0.060	0.095
-445.865	-32.403	0.250	0.141
-444.851	-133.742	0.154	0.019
-443.836	-39.377	-0.132	0.070
-442.822	-200.000	-0.023	0.454
-441.807	46.245	-0.184	-0.173
-440.792	185.918	-0.073	0.110
-439.778	-31.168	0.206	0.118
-438.763	723.235	-0.075	-0.203
-437.749	21.843	0.082	-0.068
-436.734	518.635	-0.059	0.140
-435.719	218.351	0.141	0.227
-434.705	-19.222	-0.060	-0.037
-433.690	-200.000	-0.035	0.348
-432.676	69.065	-0.081	-0.084
-431.661	41.713	0.094	-0.086
-430.646	291.773	0.157	-0.289
-429.632	-200.000	-0.035	-0.355
-428.617	221.324	-0.182	0.296
-427.603	480.841	0.137	-0.313
-426.588	247.483	-0.061	0.104
-425.573	800.000	-0.046	-0.129
-424.559	-200.000	-0.029	0.268
-423.544	-172.088	0.340	-0.011
-422.530	-73.925	0.270	-0.099
-421.515	130.581	0.067	-0.087
-420.500	-16.501	-0.170	0.109
-419.486	-55.509	-0.213	0.097
-418.471	54.792	-0.145	0.141
-417.457	-1.601	0.063	0.045
-416.442	-200.000	0.021	-0.270
-415.428	-0.764	0.050	0.036
-414.413	122.946	0.120	0.152
-413.398	-167.924	-0.098	0.004
-412.384	-200.000	-0.057	-0.334
-411.369	-200.000	0.012	-0.167
-410.355	-200.000	-0.018	-0.196
-409.340	-179.057	-0.204	0.005
-408.325	241.813	-0.114	0.193
-407.311	-25.568	0.347	0.207
-406.296	-30.311	-0.205	-0.118
-405.282	-100.201	0.167	0.042
-404.267	-200.000	0.034	0.196
-403.252	-5.322	0.158	0.110
-402.238	-200.000	-0.106	-0.503
-401.223	-37.243	0.152	0.082
-400.209	321.408	0.152	0.291
-399.194	177.939	-0.092	-0.135
-398.179	-108.099	0.256	0.056
-397.165	-116.563	-0.083	0.015
-396.150	-171.266	-0.225	-0.008
-395.136	800.000	-0.183	-0.525
-394.121	-136.047	0.070	0.008
-393.106	259.144	0.175	-0.304
-392.092	-25.138	0.158	0.095
-391.077	-116.131	-0.177	0.033
-390.063	-140.871	0.664	0.069
-389.048	284.961	0.060	0.110
-388.033	-50.731	-0.272	0.129
-387.019	671.323	0.060	0.158
-386.004	-13.907	0.191	-0.124
-384.990	-149.205	0.036	-0.003
-383.975	50.028	0.077	-0.073
-382.960	-200.000	-0.011	-0.312
-381.946	800.000	-0.070	0.205
-380.931	116.318	-0.158	-0.195
-379.917	187.927	0.067	-0.100
-378.902	-200.000	0.105	0.471
-377.888	-38.595	0.301	0.161
-376.873	157.282	-0.297	0.415
-375.858	-200.000	-0.009	-0.272
-374.844	157.239	0.067	-0.093
-373.829	125.584	0.035	0.045
-372.815	109.255	0.037	-0.044
-371.800	0.774	-0.142	-0.103
-370.785	29.838	-0.156	0.134
-369.771	-131.042	0.232	-0.031
-368.756	-200.000	0.003	-0.058
-367.742	-200.000	0.010	-0.093
-366.727	-17.731	0.166	-0.105
-365.712	17.047	-0.058	-0.046
-364.698	-43.863	0.355	0.180
-363.683	-62.621	0.053	-0.022
-362.669	53.600	0.248	0.240
-361.654	246.284	0.243	0.413
-360.639	-142.065	-0.388	0.039
-359.625	-200.000	0.058	-0.403
-358.610	-200.000	0.013	-0.248
-357.596	-200.000	0.001	-0.084
-356.581	-135.217	-0.400	-0.048
-355.566	2.943	0.150	-0.110
-354.552	1.184	0.362	0.262
-353.537	-200.000	0.060	-0.390
-352.523	800.000	0.156	-0.434
-351.508	683.682	0.162	0.426
-350.493	-142.817	0.145	-0.014
-349.479	26.581	-0.075	0.063
-348.464	184.398	-0.208	-0.311
-347.450	800.000	0.060	-0.215
-346.435	-200.000	0.056	0.395
-345.420	132.775	0.122	0.158
-344.406	78.846	0.146	-0.158
-343.391	-67.089	0.044	0.018
-342.377	-145.728	0.323	0.029
-341.362	535.553	-0.106	-0.253
-340.348	800.000	-0.046	0.161
-339.333	89.636	-0.143	-0.161
-338.318	-56.747	0.204	0.091
-337.304	-34.796	0.087	-0.048
-336.289	-79.534	0.217	0.074
-335.275	-85.947	0.212	0.066
-334.260	51.590	-0.366	0.350
-333.245	800.000	0.008	0.034
-332.231	250.128	-0.188	-0.321
-331.216	-137.885	-0.258	-0.029
-330.202	-200.000	0.023	-0.129
-329.187	-200.000	-0.002	0.191
-328.172	105.204	-0.082	-0.097
-327.158	119.088	0.160	-0.199
-326.143	48.279	0.265	0.250
-325.129	800.000	-0.061	-0.251
-324.114	-117.501	0.263	-0.048
-323.099	206.424	0.034	0.053
-322.085	-171.455	-0.039	-0.001
-321.070	-40.768	0.235	0.122
-320.056	-200.000	0.026	-0.436
-319.041	433.751	0.117	-0.256
-318.026	74.411	-0.169	-0.179
-317.012	-150.318	-0.143	0.011
-315.997	-98.091	0.160	0.041
-314.983	-200.000	-0.042	0.271
-313.968	166.965	0.121	0.173
-312.953	84.964	0.033	-0.037
-311.939	218.505	-0.082	0.131
-310.924	-138.284	0.177	0.020
-309.910	-200.000	0.067	-0.322
-308.895	117.587	0.193	0.238
-307.880	-65.173	0.089	-0.036
-306.866	800.000	0.077	-0.302
-305.851	-104.958	0.130	-0.030
-304.837	-92.691	0.077	-0.022
-303.822	229.512	0.100	-0.164
-302.807	800.000	0.062	0.207
-301.793	-200.000	-0.028	0.419
-300.778	-43.593	-0.318	-0.161
-299.764	-110.448	-0.246	0.051
-298.749	83.552	-0.133	0.146
-297.735	223.755	0.110	-0.179
-296.720	113.361	-0.139	-0.170
-295.705	10.798	0.337	0.259
-294.691	87.359	0.158	-0.176
-293.676	-200.000	0.049	-0.241
-292.662	46.500	0.320	0.299
-291.647	124.010	0.203	-0.257
-290.632	-200.000	0.028	0.248
-289.618	427.587	0.050	-0.109
-288.603	800.000	0.100	-0.281
-287.589	-200.000	-0.028	0.334
-286.574	96.851	-0.014	-0.016
-285.559	-142.839	-0.087	0.008
-284.545	143.623	-0.045	-0.060
-283.530	-200.000	-0.022	0.107
-282.516	800.000	-0.087	0.262
-281.501	800.000	-0.067	-0.282
-280.486	143.626	-0.068	-0.091
-279.472	451.935	0.135	0.299
-278.457	-9.061	0.103	-0.069
-277.443	203.536	-0.169	-0.263
-276.428	-6.030	-0.257	-0.176
-275.413	74.972	-0.134	-0.142
-274.399	-122.682	0.145	-0.024
-273.384	-200.000	0.008	-0.178
-272.370	-97.654	0.135	0.035
-271.355	-200.000	0.029	-0.163
-270.340	41.367	-0.158	0.144
-269.326	475.637	-0.029	0.067
-268.311	402.489	0.006	-0.013
-267.297	1.977	-0.197	-0.143
-266.282	-32.682	-0.059	-0.033
-265.267	-53.722	0.100	0.046
-264.253	38.820	-0.178	0.159
-263.238	241.168	-0.052	-0.087
-262.224	-95.183	0.372	0.101
-261.209	-181.241	0.066	-0.001
-260.195	64.521	0.102	-0.104
-259.180	-137.390	-0.487	-0.055
-258.165	-200.000	-0.005	0.078
-257.151	-61.146	-0.009	0.004
-256.136	-133.407	-0.070	-0.009
-255.122	2.976	-0.370	-0.270
-254.107	224.210	0.093	-0.151
-253.092	-128.686	-0.129	0.018
-252.078	-200.000	0.029	0.131
-251.063	-6.285	0.169	0.116
-250.049	-174.307	-0.228	0.007
-249.034	-32.857	-0.387	-0.215
-248.019	-93.587	-0.234	-0.065
-247.005	522.351	-0.068	-0.161
-245.990	-29.025	0.037	-0.021
-244.976	185.261	0.139	0.207
-243.961	800.000	-0.034	-0.150
-242.946	-144.823	-0.055	-0.005
-241.932	-200.000	-0.018	0.152
-240.917	-114.622	0.354	-0.068
-239.903	63.516	-0.047	0.047
-238.888	424.788	-0.035	-0.076
-237.873	-65.307	-0.218	0.088
-236.859	19.968	-0.096	0.077
-235.844	-90.121	-0.357	-0.104
-234.830	-144.767	0.050	-0.005
-233.815	60.124	0.151	-0.150
-232.800	-200.000	-0.038	-0.369
-231.786	182.640	-0.079	-0.116
-230.771	165.720	0.092	0.131
-229.757	116.820	-0.126	0.155
-228.742	124.117	0.123	0.155
-227.727	-200.000	0.030	0.178
-226.713	-200.000	0.006	0.043
-225.698	-118.228	0.123	0.022
-224.684	-200.000	0.011	0.157
-223.669	-10.700	0.179	-0.119
-222.655	-82.842	-0.139	0.045
-221.640	21.334	0.297	0.242
-220.625	-62.904	-0.344	0.143
-219.611	-200.000	0.008	0.040
-218.596	-132.286	-0.088	-0.011
-217.582	-200.000	0.033	0.193
-216.567	-200.000	0.019	0.273
-215.552	800.000	-0.079	0.222
-214.538	-128.614	-0.575	-0.081
-213.523	5.182	0.139	-0.103
-212.509	800.000	0.036	-0.105
-211.494	-25.827	0.116	0.068
-210.479	-114.925	0.219	-0.042
-209.465	-105.871	0.371	-0.084
-208.450	-83.373	0.196	-0.063
-207.436	21.453	-0.070	0.057
-206.421	-200.000	-0.023	-0.369
-205.406	13.983	0.209	0.163
-204.392	220.963	0.118	0.190
-203.377	31.321	0.251	0.216
-202.363	-190.546	0.093	-0.001
-201.348	317.802	-0.132	0.250
-200.333	131.260	-0.070	0.090
-199.319	545.066	-0.047	-0.113
-198.304	-40.966	0.202	0.105
-197.290	146.181	0.051	0.069
-196.275	4.188	-0.103	-0.076
-195.260	246.235	0.187	-0.316
-194.246	97.091	0.210	-0.241
-193.231	-200.000	-0.023	-0.192
-192.217	-10.393	0.136	-0.090
-191.202	-200.000	-0.014	-0.177
-190.187	-31.320	0.291	-0.164
-189.173	283.991	0.011	-0.019
-188.158	524.885	0.035	-0.083
-187.144	-83.153	-0.359	-0.116
-186.129	-147.450	0.325	0.027
-185.114	800.000	-0.036	-0.127
-184.100	800.000	0.031	0.109
-183.085	394.922	0.103	0.214
-182.071	-46.499	0.033	0.016
-181.056	800.000	0.124	-0.402
-180.042	-134.010	0.263	0.033
-179.027	310.157	0.066	0.123
-178.012	6.663	-0.295	0.219
-176.998	689.736	0.061	0.159
-175.983	800.000	0.075	0.216
-174.969	-29.695	-0.219	0.125
-173.954	-142.677	-0.069	0.007
-172.939	800.000	0.053	-0.214
-171.925	-40.061	-0.125	-0.065
-170.910	-200.000	-0.010	0.093
-169.896	800.000	0.113	0.441
-168.881	800.000	0.090	-0.264
-167.866	-84.671	-0.350	0.110
-166.852	78.821	0.102	-0.109
-165.837	-48.938	0.217	0.104
-164.823	-36.116	0.108	-0.059
-163.808	800.000	0.110	0.418
-162.793	800.000	0.060	-0.252
-161.779	-63.822	0.048	-0.020
-160.764	-173.480	-0.367	-0.011
-159.750	-200.000	-0.046	-0.448
-158.735	60.558	0.105	0.104
-157.720	372.980	-0.158	0.321
-156.706	800.000	-0.120	-0.333
-155.691	-42.066	0.122	0.063
-154.677	-90.610	0.226	0.065
-153.662	-42.835	-0.046	0.023
-152.647	800.000	-0.079	0.278
-151.633	-43.796	-0.136	0.068
-150.618	-200.000	-0.096	-0.491
-149.604	5.146	0.149	0.109
-148.589	-69.033	0.311	-0.120
-147.574	-200.000	0.028	0.231
-146.560	-148.614	0.167	-0.014
-145.545	-60.910	-0.212	0.090
-144.531	-10.890	0.093	-0.061
-143.516	-200.000	0.044	0.204
-142.502	45.553	-0.251	-0.232
-141.487	800.000	-0.022	0.081
-140.472	-200.000	0.017	-0.197
-139.458	419.218	0.092	-0.196
-138.443	-51.895	-0.156	0.073
-137.429	706.492	0.015	0.040
-136.414	-110.858	-0.062	-0.013
-135.399	-200.000	-0.038	0.235
-134.385	22.499	-0.082	-0.067
-133.370	-165.045	0.358	0.016
-132.356	-200.000	-0.015	0.207
-131.341	800.000	0.024	-0.103
-130.326	-177.500	0.210	0.005
-129.312	8.135	-0.235	-0.176
-128.297	800.000	0.134	0.471
-127.283	-200.000	0.019	0.278
-126.268	145.228	0.062	-0.083
-125.253	107.549	-0.207	-0.246
-124.239	-115.256	-0.088	-0.017
-123.224	392.210	0.131	0.273
-122.210	311.139	-0.228	-0.427
-121.195	365.978	-0.155	-0.313
