DTS Sentinel unit serial number:	SN413079Multiplexer serial number:	ORYXHardware model number:	OX4-SRSoftware version number:	ORYX F/W v4.00 Oryx Data Collector v3.7.2.0data status	okinstallation	princeton_trtdifferential loss correction	single-endedforward channel	channel 1reverse channel	N/Adate	2019/09/19time	08:58:35forward acquisition time	60.00reverse acquisition time	0.00gamma	496.2192k internal	0.2343k external	0.2343temperature offset calibration	1.0003default loss term (dB/km)	0.3790temperature slope calibration	1.0000multiplexer offset coefficient	1.0000multiplexer slope coefficient	1.0000fibre end	0.00T internal ref (°C)	21.44T ext. ref 1 (°C)	0.59T ext. ref 2 (°C)	17.64length (m)	temperature (°C)	Stokes	anti-Stokes-747.200	132.763	0.062	0.080
-746.185	-200.000	0.054	0.272
-745.171	800.000	-0.037	-0.151
-744.156	128.965	-0.170	-0.217
-743.142	-170.517	0.041	-0.001
-742.127	-34.263	-0.366	0.201
-741.112	137.947	0.022	0.029
-740.098	-34.693	0.085	0.046
-739.083	-174.651	0.181	-0.005
-738.069	-200.000	-0.014	0.212
-737.054	-91.941	-0.343	-0.097
-736.039	-200.000	-0.028	-0.233
-735.025	-47.126	-0.155	0.076
-734.010	-135.949	-0.346	-0.041
-732.996	514.946	-0.003	-0.006
-731.981	386.553	-0.152	-0.313
-730.966	210.267	0.085	-0.134
-729.952	232.827	0.130	-0.213
-728.937	76.272	0.097	-0.103
-727.923	81.046	-0.082	-0.088
-726.908	128.596	-0.165	-0.210
-725.894	-54.416	-0.181	-0.082
-724.879	21.527	-0.268	0.218
-723.864	190.561	0.014	-0.021
-722.850	18.563	-0.302	-0.241
-721.835	-44.973	0.269	-0.134
-720.821	800.000	-0.169	-0.485
-719.806	-134.482	-0.232	0.028
-718.791	-68.695	-0.047	-0.018
-717.777	17.390	-0.157	-0.125
-716.762	-186.997	-0.233	-0.003
-715.748	800.000	0.015	-0.051
-714.733	52.277	-0.270	0.258
-713.718	-122.855	-0.169	0.027
-712.704	-137.790	-0.428	0.048
-711.689	-92.711	0.170	0.048
-710.675	-200.000	0.092	-0.420
-709.660	-200.000	-0.008	-0.414
-708.645	28.477	0.134	-0.114
-707.631	413.187	0.090	-0.191
-706.616	167.601	0.017	-0.025
-705.602	-200.000	0.020	-0.177
-704.587	-200.000	-0.037	0.173
-703.572	-49.198	-0.081	-0.039
-702.558	800.000	-0.024	0.068
-701.543	-200.000	-0.070	0.467
-700.529	-155.100	-0.222	-0.014
-699.514	800.000	-0.060	-0.230
-698.499	20.569	-0.205	0.166
-697.485	200.966	-0.076	0.116
-696.470	55.381	0.193	-0.187
-695.456	230.989	-0.153	-0.250
-694.441	-5.566	-0.098	-0.067
-693.426	-118.402	0.084	0.015
-692.412	-200.000	0.180	-0.001
-691.397	136.760	-0.101	0.132
-690.383	-200.000	-0.084	0.375
-689.368	-200.000	-0.010	0.205
-688.354	-163.812	0.322	-0.015
-687.339	-25.279	-0.117	-0.069
-686.324	-30.987	0.249	0.141
-685.310	-116.394	-0.062	-0.011
-684.295	-66.604	0.052	-0.020
-683.281	-200.000	-0.007	-0.265
-682.266	28.842	-0.120	0.101
-681.251	800.000	0.028	0.110
-680.237	-200.000	-0.060	-0.435
-679.222	800.000	0.162	-0.464
-678.208	624.115	0.097	-0.245
-677.193	69.187	-0.210	-0.215
-676.178	-78.837	-0.341	-0.116
-675.164	-111.577	0.504	0.102
-674.149	-161.907	-0.456	0.023
-673.135	66.710	-0.233	-0.236
-672.120	-103.274	-0.062	-0.014
-671.105	-200.000	0.032	0.529
-670.091	-113.785	-0.089	0.017
-669.076	-112.824	-0.221	0.044
-668.062	-200.000	-0.254	-0.001
-667.047	51.006	0.107	-0.101
-666.032	-126.255	-0.233	0.035
-665.018	-200.000	-0.065	-0.303
-664.003	-69.766	-0.264	-0.101
-662.989	-66.821	0.167	0.066
-661.974	118.345	0.175	0.216
-660.959	282.464	0.130	-0.233
-659.945	-114.871	-0.448	-0.085
-658.930	-200.000	-0.015	-0.149
-657.916	622.392	0.100	0.251
-656.901	114.499	-0.047	-0.057
-655.886	-200.000	-0.027	0.181
-654.872	-153.490	-0.420	-0.029
-653.857	-164.081	-0.253	-0.012
-652.843	-3.498	0.153	-0.106
-651.828	223.543	-0.065	0.105
-650.814	249.890	-0.036	0.061
-649.799	57.787	-0.060	-0.058
-648.784	800.000	-0.055	-0.201
-647.770	-30.758	0.256	-0.145
-646.755	553.595	0.105	-0.251
-645.741	-97.916	-0.429	-0.111
-644.726	-200.000	-0.037	0.194
-643.711	14.237	-0.300	0.233
-642.697	-27.507	0.197	-0.114
-641.682	-148.938	-0.070	-0.006
-640.668	25.963	0.076	0.063
-639.653	-61.510	0.113	0.048
-638.638	-200.000	0.017	0.163
-637.624	-200.000	0.035	0.247
-636.609	209.482	0.138	0.216
-635.595	-128.228	-0.229	-0.033
-634.580	43.165	-0.263	0.239
-633.565	65.158	-0.095	0.096
-632.551	47.670	0.146	-0.135
-631.536	800.000	0.061	0.169
-630.522	3.225	0.283	-0.206
-629.507	800.000	0.054	-0.176
-628.492	800.000	-0.106	0.316
-627.478	219.323	-0.064	-0.102
-626.463	11.391	-0.250	-0.191
-625.449	-200.000	-0.010	-0.053
-624.434	-20.630	-0.097	0.059
-623.419	100.975	-0.196	0.227
-622.405	166.414	-0.290	-0.409
-621.390	18.878	0.064	0.051
-620.376	97.714	-0.157	-0.180
-619.361	800.000	-0.050	0.166
-618.346	-29.854	0.408	0.232
-617.332	-142.032	-0.484	-0.048
-616.317	-200.000	-0.076	0.388
-615.303	800.000	0.029	0.094
-614.288	-43.480	-0.282	-0.142
-613.273	28.158	0.111	0.094
-612.259	93.163	0.096	-0.108
-611.244	-13.293	0.161	0.104
-610.230	115.894	0.096	0.117
-609.215	-78.207	0.085	0.029
-608.201	-200.000	0.003	0.133
-607.186	409.909	-0.087	-0.184
-606.171	-138.869	0.135	0.015
-605.157	-144.795	0.341	-0.031
-604.142	275.773	-0.046	-0.082
-603.128	800.000	0.054	0.187
-602.113	-138.519	-0.279	-0.031
-601.098	800.000	0.054	0.154
-600.084	56.478	-0.124	0.120
-599.069	-200.000	0.005	0.364
-598.055	10.416	0.138	-0.105
-597.040	85.083	0.023	-0.025
-596.025	87.252	0.189	-0.208
-595.011	83.836	0.281	0.306
-593.996	790.997	-0.034	-0.093
-592.982	445.541	0.100	-0.218
-591.967	189.136	0.060	0.090
-590.952	-89.567	-0.329	-0.096
-589.938	-101.207	-0.126	-0.031
-588.923	-68.853	-0.072	0.028
-587.909	9.294	0.148	-0.112
-586.894	-95.651	-0.252	0.067
-585.879	-12.149	0.284	0.185
-584.865	111.289	0.119	0.143
-583.850	-48.732	-0.154	0.074
-582.836	759.032	-0.046	-0.123
-581.821	-200.000	-0.050	0.266
-580.806	-40.464	0.070	-0.036
-579.792	-200.000	-0.013	-0.111
-578.777	371.559	0.064	0.129
-577.763	-111.365	0.148	-0.030
-576.748	-72.573	0.215	-0.079
-575.733	16.681	0.171	0.135
-574.719	-160.107	0.356	-0.019
-573.704	279.357	-0.080	-0.141
-572.690	-32.341	0.169	-0.094
-571.675	-200.000	0.000	0.031
-570.661	-109.244	-0.306	0.065
-569.646	-16.778	-0.078	-0.049
-568.631	109.606	0.105	-0.125
-567.617	-91.364	-0.244	0.069
-566.602	-16.983	0.162	0.102
-565.588	273.936	-0.075	0.131
-564.573	194.273	0.116	0.175
-563.558	800.000	-0.120	0.376
-562.544	-13.008	0.186	-0.120
-561.529	-65.138	0.264	-0.106
-560.515	-200.000	0.017	-0.193
-559.500	-155.949	0.190	-0.012
-558.485	89.248	0.093	0.103
-557.471	-200.000	-0.035	-0.367
-556.456	-100.591	0.199	-0.049
-555.442	-140.685	-0.294	-0.030
-554.427	39.898	0.325	0.290
-553.412	-177.157	-0.142	-0.004
-552.398	-200.000	0.025	-0.154
-551.383	680.098	0.051	-0.132
-550.369	241.426	0.081	0.135
-549.354	-200.000	0.003	0.182
-548.339	74.420	0.033	0.034
-547.325	9.606	-0.013	-0.009
-546.310	357.059	0.124	0.245
-545.296	-69.747	-0.065	-0.025
-544.281	-157.280	-0.362	-0.022
-543.266	-90.109	0.087	-0.025
-542.252	115.309	-0.145	0.175
-541.237	3.184	-0.069	0.050
-540.223	-51.377	0.274	-0.127
-539.208	-200.000	0.036	-0.367
-538.193	-128.982	0.165	-0.023
-537.179	-73.159	-0.321	0.117
-536.164	191.257	-0.125	0.187
-535.150	-53.516	-0.293	0.133
-534.135	158.635	-0.124	-0.171
-533.121	-54.094	0.178	0.080
-532.106	129.107	-0.108	0.137
-531.091	-200.000	0.044	-0.206
-530.077	152.001	-0.189	0.255
-529.062	-57.221	-0.051	-0.022
-528.048	800.000	0.136	-0.390
-527.033	79.383	0.103	0.110
-526.018	163.414	-0.060	0.083
-525.004	44.301	0.017	0.015
-523.989	-15.822	-0.106	-0.067
-522.975	3.915	-0.294	-0.213
-521.960	-200.000	-0.020	0.117
-520.945	-200.000	0.003	0.013
-519.931	146.424	0.203	-0.271
-518.916	97.007	-0.005	0.006
-517.902	-82.617	-0.187	0.060
-516.887	-98.024	0.141	-0.036
-515.872	-125.295	0.141	-0.021
-514.858	800.000	0.079	0.234
-513.843	227.507	0.008	0.014
-512.829	23.995	0.173	-0.142
-511.814	364.169	0.052	-0.104
-510.799	-17.355	0.114	-0.071
-509.785	-77.391	-0.191	0.066
-508.770	-63.725	-0.088	-0.036
-507.756	-81.869	-0.186	-0.061
-506.741	800.000	0.073	0.271
-505.726	166.578	0.163	-0.230
-504.712	800.000	0.051	-0.153
-503.697	370.935	0.041	0.082
-502.683	192.904	-0.085	-0.127
-501.668	-200.000	-0.022	-0.412
-500.653	48.175	0.234	0.217
-499.639	800.000	-0.035	0.153
-498.624	-55.432	-0.053	0.023
-497.610	12.187	-0.308	0.235
-496.595	-125.827	-0.202	0.030
-495.581	248.518	0.136	0.229
-494.566	-15.099	0.058	0.037
-493.551	-164.243	0.144	0.007
-492.537	800.000	-0.052	-0.145
-491.522	-200.000	-0.011	-0.090
-490.508	125.800	0.157	-0.196
-489.493	32.392	-0.153	0.131
-488.478	-200.000	0.002	0.191
-487.464	-138.669	-0.254	0.028
-486.449	-37.838	-0.100	-0.053
-485.435	661.085	0.075	0.190
-484.420	-200.000	-0.033	-0.271
-483.405	-200.000	-0.040	0.392
-482.391	-89.649	0.146	-0.042
-481.376	214.168	-0.183	-0.287
-480.362	-113.305	-0.169	-0.033
-479.347	388.360	0.138	0.283
-478.332	-126.836	-0.288	-0.042
-477.318	800.000	0.068	-0.238
-476.303	-16.482	0.107	-0.067
-475.289	186.006	0.078	0.115
-474.274	-200.000	-0.008	0.238
-473.259	-22.900	0.040	0.024
-472.245	-57.299	0.145	0.063
-471.230	-136.420	0.152	-0.017
-470.216	-123.892	-0.235	0.037
-469.201	267.533	0.144	0.250
-468.186	44.280	0.273	0.248
-467.172	304.364	0.143	-0.263
-466.157	597.119	0.169	-0.413
-465.143	-200.000	-0.003	-0.084
-464.128	-56.932	-0.135	-0.059
-463.113	800.000	-0.080	0.224
-462.099	-68.514	0.181	-0.069
-461.084	308.338	0.089	-0.164
-460.070	8.448	-0.044	-0.032
-459.055	180.961	-0.064	-0.093
-458.040	565.990	0.153	0.368
-457.026	138.972	-0.140	0.183
-456.011	800.000	-0.081	-0.254
-454.997	1.224	-0.215	0.153
-453.982	49.579	0.056	-0.052
-452.968	398.087	0.071	0.148
-451.953	-26.151	0.338	0.197
-450.938	332.097	0.144	0.275
-449.924	25.688	0.209	0.173
-448.909	-52.795	-0.308	0.141
-447.895	-200.000	0.075	0.414
-446.880	261.692	0.093	0.159
-445.865	800.000	0.093	-0.295
-444.851	-200.000	-0.001	-0.079
-443.836	-30.174	0.287	0.162
-442.822	-200.000	-0.007	0.139
-441.807	120.171	-0.068	0.084
-440.792	-104.631	0.316	0.072
-439.778	566.622	-0.104	0.249
-438.763	-200.000	-0.012	-0.321
-437.749	-123.607	0.132	-0.021
-436.734	-64.633	-0.156	0.063
-435.719	403.215	-0.199	0.414
-434.705	800.000	-0.077	0.316
-433.690	85.131	0.218	0.237
-432.676	199.006	-0.293	-0.444
-431.661	-168.675	-0.351	-0.013
-430.646	-7.424	0.178	0.119
-429.632	-200.000	-0.017	-0.457
-428.617	8.979	-0.078	-0.058
-427.603	111.656	0.161	-0.192
-426.588	394.847	-0.053	-0.109
-425.573	-193.790	-0.441	-0.004
-424.559	-150.081	-0.096	-0.007
-423.544	800.000	-0.103	0.288
-422.530	174.604	0.195	-0.279
-421.515	228.600	-0.206	-0.332
-420.500	-107.163	-0.304	-0.066
-419.486	-200.000	0.031	0.160
-418.471	-200.000	0.018	0.224
-417.457	108.654	-0.110	0.130
-416.442	-7.082	-0.153	0.103
-415.428	229.233	0.141	0.227
-414.413	8.219	0.150	0.111
-413.398	-46.077	0.244	-0.119
-412.384	-100.603	-0.357	-0.087
-411.369	215.189	-0.134	0.210
-410.355	26.260	0.070	-0.058
-409.340	-11.745	-0.246	-0.160
-408.325	-120.008	-0.342	-0.058
-407.311	-200.000	0.046	0.233
-406.296	-19.168	-0.339	-0.208
-405.282	-200.000	-0.017	0.214
-404.267	4.005	0.165	0.120
-403.252	-200.000	-0.027	-0.388
-402.238	724.961	0.119	-0.313
-401.223	-183.542	0.176	0.003
-400.209	-106.898	0.074	0.016
-399.194	533.297	0.035	-0.082
-398.179	-200.000	-0.000	-0.247
-397.165	34.699	-0.074	0.064
-396.150	-34.116	0.074	-0.040
-395.136	-200.000	-0.025	-0.119
-394.121	800.000	-0.106	-0.291
-393.106	800.000	0.039	-0.128
-392.092	-37.873	0.168	-0.088
-391.077	-200.000	-0.004	-0.208
-390.063	29.053	0.259	-0.217
-389.048	800.000	0.086	-0.259
-388.033	-200.000	-0.005	-0.117
-387.019	-10.285	-0.153	0.100
-386.004	-24.925	-0.304	-0.178
-384.990	800.000	0.092	0.286
-383.975	59.163	-0.199	-0.193
-382.960	243.913	-0.051	-0.085
-381.946	-100.716	0.391	-0.095
-380.931	-142.899	-0.238	-0.023
-379.917	-200.000	-0.092	-0.420
-378.902	800.000	-0.101	-0.289
-377.888	113.572	-0.138	-0.165
-376.873	-76.763	0.081	-0.028
-375.858	-200.000	0.012	-0.249
-374.844	-73.778	0.342	-0.123
-373.829	800.000	-0.077	0.285
-372.815	526.441	-0.047	0.110
-371.800	-102.413	-0.202	0.048
-370.785	58.585	-0.069	0.067
-369.771	800.000	0.048	-0.176
-368.756	-148.434	0.169	0.014
-367.742	800.000	0.096	0.287
-366.727	191.005	0.157	0.232
-365.712	-122.622	0.272	-0.044
-364.698	51.892	-0.123	0.116
-363.683	23.221	0.067	-0.054
-362.669	430.047	0.088	0.188
-361.654	682.356	-0.106	-0.274
-360.639	271.422	-0.084	0.146
-359.625	800.000	0.064	-0.223
-358.610	713.990	-0.075	-0.195
-357.596	128.348	0.235	-0.295
-356.581	406.086	-0.076	-0.157
-355.566	-200.000	-0.033	-0.192
-354.552	103.867	-0.145	0.167
-353.537	-70.759	0.384	0.143
-352.523	-15.761	0.142	0.089
-351.508	-200.000	0.019	0.181
-350.493	-200.000	-0.006	0.117
-349.479	-200.000	-0.047	-0.229
-348.464	-88.674	-0.203	0.059
-347.450	-200.000	0.057	0.359
-346.435	350.073	-0.128	-0.249
-345.420	134.629	-0.175	-0.224
-344.406	-78.693	0.231	0.078
-343.391	18.980	-0.087	0.069
-342.377	-18.240	-0.063	0.039
-341.362	163.336	-0.181	0.251
-340.348	-78.028	-0.189	-0.064
-339.333	514.958	0.105	-0.241
-338.318	-78.985	0.231	-0.078
-337.304	169.448	-0.134	0.189
-336.289	-132.159	-0.411	-0.053
-335.275	800.000	0.100	-0.305
-334.260	800.000	-0.050	0.144
-333.245	-200.000	0.041	0.221
-332.231	87.553	0.196	0.214
-331.216	229.758	-0.248	0.399
-330.202	75.248	0.255	0.265
-329.187	-98.460	-0.305	0.077
-328.172	581.171	-0.064	0.154
-327.158	32.734	-0.136	0.116
-326.143	-77.162	0.035	-0.012
-325.129	396.738	-0.066	0.135
-324.114	-64.077	0.249	-0.100
-323.099	-200.000	-0.018	-0.214
-322.085	264.346	-0.126	-0.215
-321.070	200.276	0.234	-0.354
-320.056	57.833	-0.114	-0.110
-319.041	-18.820	-0.223	0.137
-318.026	-200.000	0.046	0.233
-317.012	52.311	-0.095	0.090
-315.997	134.376	-0.163	-0.208
-314.983	-69.336	-0.094	0.035
-313.968	-200.000	0.036	0.268
-312.953	264.183	0.168	0.288
-311.939	738.418	-0.047	0.123
-310.924	5.651	-0.160	0.117
-309.910	800.000	0.039	0.135
-308.895	146.270	-0.195	-0.257
-307.880	800.000	-0.135	0.397
-306.866	-141.523	-0.109	0.011
-305.851	-200.000	0.015	0.227
-304.837	285.535	0.042	-0.075
-303.822	-200.000	0.015	0.288
-302.807	-130.545	0.244	-0.032
-301.793	800.000	-0.116	-0.419
-300.778	-22.759	-0.335	0.199
-299.764	55.147	0.134	0.127
-298.749	-200.000	0.005	-0.045
-297.735	800.000	0.076	0.313
-296.720	800.000	0.082	0.258
-295.705	-200.000	0.005	0.279
-294.691	132.003	0.070	0.089
-293.676	319.908	-0.218	-0.408
-292.662	505.947	-0.067	0.152
-291.647	170.766	0.230	-0.324
-290.632	78.482	-0.050	-0.053
-289.618	12.259	-0.103	-0.078
-288.603	-91.826	-0.325	0.091
-287.589	77.991	-0.079	-0.083
-286.574	54.599	-0.005	-0.005
-285.559	800.000	-0.127	-0.367
-284.545	800.000	-0.107	0.319
-283.530	-42.779	-0.142	-0.071
-282.516	-87.503	0.482	0.143
-281.501	239.551	0.222	0.363
-280.486	-200.000	0.000	-0.234
-279.472	46.865	-0.319	-0.291
-278.457	-63.188	-0.366	-0.149
-277.443	25.162	0.036	0.030
-276.428	-200.000	0.011	0.272
-275.413	-112.489	0.394	-0.077
-274.399	36.443	-0.184	-0.160
-273.384	800.000	0.092	0.304
-272.370	-200.000	0.012	-0.196
-271.355	800.000	-0.105	0.396
-270.340	-83.583	0.292	-0.092
-269.326	592.746	0.087	-0.212
-268.311	-177.832	0.494	-0.012
-267.297	-200.000	0.038	0.309
-266.282	86.422	0.142	0.154
-265.267	624.784	0.093	-0.230
-264.253	-185.764	-0.269	-0.004
-263.238	-200.000	0.020	-0.168
-262.224	-58.661	0.254	0.108
-261.209	-200.000	0.000	-0.213
-260.195	-14.207	0.137	0.087
-259.180	16.137	0.055	-0.043
-258.165	151.735	0.141	-0.189
-257.151	270.992	-0.046	-0.080
-256.136	-52.920	-0.393	-0.178
-255.122	-21.611	0.339	-0.203
-254.107	-84.830	-0.175	-0.054
-253.092	-200.000	0.085	-0.427
-252.078	258.684	-0.227	-0.384
-251.063	162.305	0.149	0.205
-250.049	800.000	0.030	0.110
-249.034	151.670	0.229	-0.307
-248.019	-142.424	0.195	-0.019
-247.005	-200.000	0.010	-0.241
-245.990	-133.686	-0.178	-0.022
-244.976	2.092	-0.070	0.050
-243.961	-103.697	-0.212	-0.049
-242.946	-77.584	-0.180	0.061
-241.932	-133.074	-0.476	0.059
-240.917	132.969	-0.009	0.012
-239.903	172.514	0.038	0.054
-238.888	-60.307	0.160	0.067
-237.873	-70.148	0.310	-0.116
-236.859	222.466	0.096	-0.151
-235.844	-200.000	-0.053	0.299
-234.830	-149.186	0.174	0.014
-233.815	800.000	0.051	-0.187
-232.800	-70.058	-0.169	-0.063
-231.786	202.005	0.070	-0.106
-230.771	37.422	-0.090	-0.078
-229.757	-200.000	0.041	0.211
-228.742	434.054	0.056	0.119
-227.727	-200.000	-0.049	-0.335
-226.713	-99.308	-0.333	-0.082
-225.698	-200.000	0.004	-0.304
-224.684	-17.652	0.202	-0.125
-223.669	800.000	0.064	0.225
-222.655	-102.466	-0.270	-0.063
-221.640	80.169	0.089	-0.094
-220.625	-200.000	0.022	0.390
-219.611	-200.000	0.000	-0.174
-218.596	-200.000	0.014	0.093
-217.582	-106.035	0.480	-0.106
-216.567	-200.000	-0.003	0.122
-215.552	-28.468	-0.188	0.106
-214.538	745.986	-0.119	0.313
-213.523	222.102	-0.046	0.073
-212.509	-156.080	-0.153	-0.009
-211.494	-61.661	0.066	-0.027
-210.479	800.000	-0.029	-0.116
-209.465	800.000	-0.100	-0.278
-208.450	525.879	0.068	-0.157
-207.436	-200.000	0.044	0.293
-206.421	-35.573	-0.111	0.059
-205.406	37.394	0.216	-0.188
-204.392	18.966	0.217	-0.171
-203.377	-200.000	-0.003	0.262
-202.363	-0.415	-0.092	0.064
-201.348	-65.540	0.313	0.123
-200.333	-151.199	0.232	-0.017
-199.319	-200.000	0.002	0.098
-198.304	17.385	-0.089	-0.069
-197.290	-2.438	0.260	-0.179
-196.275	138.472	0.154	0.198
-195.260	-200.000	-0.021	-0.206
-194.246	-127.252	-0.296	0.042
-193.231	102.161	0.127	-0.146
-192.217	800.000	-0.037	-0.157
-191.202	360.401	-0.249	-0.488
-190.187	-146.127	0.165	-0.014
-189.173	-64.023	0.356	-0.142
-188.158	42.564	-0.213	0.190
-187.144	165.082	-0.140	0.194
-186.129	-200.000	-0.010	0.047
-185.114	-96.534	0.327	-0.085
-184.100	-68.064	-0.310	-0.118
-183.085	-14.724	0.074	-0.047
-182.071	-105.951	-0.142	-0.031
-181.056	-200.000	0.010	-0.074
-180.042	29.678	0.195	-0.162
-179.027	38.931	0.106	0.093
-178.012	10.421	-0.167	-0.124
-176.998	633.500	0.098	0.243
-175.983	800.000	-0.017	-0.051
-174.969	57.956	-0.178	-0.171
-173.954	181.226	-0.028	-0.040
-172.939	-80.366	-0.090	-0.029
-171.925	64.240	0.073	0.072
-170.910	183.673	-0.196	0.283
-169.896	-45.172	0.115	-0.056
-168.881	-52.380	-0.025	-0.012
-167.866	304.695	-0.083	-0.150
-166.852	237.861	0.133	-0.216
-165.837	304.665	-0.104	-0.190
-164.823	273.274	-0.061	0.106
-163.808	114.942	-0.112	-0.134
-162.793	800.000	-0.069	0.195
-161.779	-200.000	-0.005	-0.279
-160.764	-163.818	0.134	0.006
-159.750	263.189	-0.165	0.280
-158.735	-177.449	0.140	-0.003
-157.720	-164.237	0.373	0.017
-156.706	94.790	-0.076	0.085
-155.691	-184.324	0.048	0.001
-154.677	201.581	0.210	0.316
-153.662	-7.694	0.310	-0.205
-152.647	136.070	-0.045	-0.058
-151.633	-200.000	0.008	0.044
-150.618	-200.000	-0.037	0.332
-149.604	-200.000	-0.019	-0.230
-148.589	-173.442	0.157	0.005
-147.574	-140.283	0.249	-0.025
-146.560	-41.198	-0.278	0.140
-145.545	309.482	-0.098	0.179
-144.531	2.847	0.330	0.234
-143.516	3.120	-0.153	0.109
-142.502	-200.000	0.025	-0.254
-141.487	800.000	-0.100	0.272
-140.472	-92.023	0.439	0.121
-139.458	423.896	-0.069	-0.144
-138.443	-69.342	-0.144	-0.054
-137.429	-200.000	0.014	0.187
-136.414	800.000	-0.053	-0.171
-135.399	178.204	0.140	0.200
-134.385	54.619	-0.343	-0.324
-133.370	0.269	0.190	-0.132
-132.356	-200.000	-0.012	0.059
-131.341	59.306	-0.202	0.194
-130.326	-200.000	0.049	-0.243
-129.312	49.655	0.238	0.219
-128.297	442.913	0.126	0.269
-127.283	-93.235	-0.195	-0.053
-126.268	-83.081	0.426	-0.134
-125.253	-19.667	-0.313	0.189
-124.239	-57.872	0.333	-0.142
-123.224	-200.000	0.044	-0.347
-122.210	800.000	0.074	0.308
