DTS Sentinel unit serial number:	SN413079Multiplexer serial number:	ORYXHardware model number:	OX4-SRSoftware version number:	ORYX F/W v4.00 Oryx Data Collector v3.7.2.0data status	okinstallation	princeton_trtdifferential loss correction	single-endedforward channel	channel 1reverse channel	N/Adate	2019/09/10time	20:44:11forward acquisition time	60.00reverse acquisition time	0.00gamma	496.2192k internal	0.2327k external	0.2327temperature offset calibration	0.9934default loss term (dB/km)	0.3790temperature slope calibration	1.0000multiplexer offset coefficient	1.0000multiplexer slope coefficient	1.0000fibre end	0.00T internal ref (°C)	31.81T ext. ref 1 (°C)	-0.32T ext. ref 2 (°C)	25.21length (m)	temperature (°C)	Stokes	anti-Stokes-747.200	137.633	0.234	-0.309
-746.185	800.000	0.035	0.154
-745.171	-27.689	-0.110	0.064
-744.156	-9.069	-0.475	0.320
-743.142	110.983	0.161	0.196
-742.127	560.169	0.194	0.473
-741.112	100.541	-0.116	-0.135
-740.098	-200.000	0.027	0.149
-739.083	800.000	-0.083	0.360
-738.069	-4.255	0.259	-0.181
-737.054	146.837	-0.087	0.118
-736.039	189.466	-0.121	-0.182
-735.025	-117.286	0.283	0.052
-734.010	-19.601	-0.360	-0.225
-732.996	204.358	-0.266	-0.416
-731.981	98.198	-0.133	0.154
-730.966	800.000	0.078	0.280
-729.952	90.829	-0.100	0.113
-728.937	800.000	-0.068	-0.288
-727.923	405.146	0.092	-0.194
-726.908	-107.827	-0.142	-0.031
-725.894	231.690	-0.128	-0.212
-724.879	304.328	-0.104	-0.195
-723.864	-111.578	-0.161	0.033
-722.850	800.000	-0.052	-0.149
-721.835	32.172	-0.218	0.189
-720.821	-88.980	-0.282	0.084
-719.806	-28.109	-0.150	0.088
-718.791	-151.345	0.337	0.025
-717.777	800.000	-0.033	-0.117
-716.762	-200.000	0.024	0.108
-715.748	32.598	-0.128	0.111
-714.733	114.348	-0.247	-0.303
-713.718	554.901	-0.149	-0.362
-712.704	-77.923	-0.314	-0.109
-711.689	42.997	-0.113	0.104
-710.675	31.290	-0.069	0.060
-709.660	-98.094	0.317	0.082
-708.645	384.380	-0.139	0.288
-707.631	102.191	0.302	0.355
-706.616	114.557	-0.101	0.124
-705.602	15.738	0.234	0.186
-704.587	-200.000	-0.011	-0.068
-703.572	-28.084	0.346	0.201
-702.558	-22.521	-0.224	-0.136
-701.543	-142.113	0.391	0.039
-700.529	152.365	-0.036	0.050
-699.514	-82.245	0.132	0.043
-698.499	-200.000	-0.048	0.313
-697.485	59.138	-0.027	-0.027
-696.470	-200.000	-0.016	0.408
-695.456	-120.781	-0.126	0.021
-694.441	-200.000	-0.006	-0.301
-693.426	-109.429	0.117	0.025
-692.412	-200.000	0.008	0.040
-691.397	-108.346	-0.449	0.097
-690.383	9.532	-0.209	-0.160
-689.368	-39.225	0.195	-0.103
-688.354	800.000	0.083	0.280
-687.339	-57.681	-0.053	-0.023
-686.324	-19.690	-0.264	0.165
-685.310	800.000	0.138	0.441
-684.295	155.193	-0.107	0.148
-683.281	6.443	0.192	-0.144
-682.266	-22.746	-0.355	-0.216
-681.251	208.845	0.162	0.255
-680.237	-103.874	-0.157	-0.037
-679.222	103.467	-0.109	0.129
-678.208	-150.376	-0.312	0.024
-677.193	-59.743	0.115	-0.049
-676.178	-13.004	0.451	-0.295
-675.164	-26.045	-0.172	0.101
-674.149	-50.580	-0.215	-0.102
-673.135	-200.000	0.031	-0.224
-672.120	-114.727	-0.272	0.052
-671.105	-19.697	-0.179	0.111
-670.091	-56.881	-0.294	-0.131
-669.076	-74.263	-0.320	0.116
-668.062	-200.000	0.026	-0.113
-667.047	359.112	-0.035	-0.070
-666.032	5.254	-0.138	0.102
-665.018	-97.930	0.225	0.058
-664.003	59.163	-0.112	-0.111
-662.989	-200.000	0.006	0.064
-661.974	232.348	-0.108	-0.178
-660.959	-129.534	0.210	-0.029
-659.945	117.699	0.212	0.262
-658.930	-116.434	0.256	-0.048
-657.916	-200.000	0.057	0.595
-656.901	-26.123	-0.081	-0.048
-655.886	-200.000	0.000	-0.166
-654.872	800.000	-0.084	-0.334
-653.857	800.000	-0.078	-0.319
-652.843	387.830	0.081	-0.169
-651.828	-15.000	-0.097	-0.063
-650.814	170.254	0.193	-0.277
-649.799	-101.781	-0.178	0.043
-648.784	-200.000	0.031	-0.173
-647.770	-142.030	0.278	0.028
-646.755	-51.724	-0.219	-0.102
-645.741	-200.000	-0.012	-0.087
-644.726	-33.244	-0.134	0.074
-643.711	-51.491	-0.078	-0.037
-642.697	-200.000	-0.035	-0.232
-641.682	7.552	0.314	-0.236
-640.668	148.389	-0.278	0.377
-639.653	-200.000	0.078	0.679
-638.638	400.383	0.107	-0.226
-637.624	-74.643	-0.373	-0.135
-636.609	-78.120	0.074	0.026
-635.595	-200.000	0.031	0.179
-634.580	481.421	-0.020	0.047
-633.565	-134.133	0.307	0.038
-632.551	-135.920	-0.189	-0.022
-631.536	-102.365	0.152	0.037
-630.522	-122.546	0.380	0.062
-629.507	-149.226	-0.232	-0.019
-628.492	800.000	0.048	0.169
-627.478	-200.000	-0.011	-0.147
-626.463	102.326	-0.344	-0.403
-625.449	-200.000	-0.027	-0.288
-624.434	-10.878	-0.224	0.148
-623.419	-51.920	-0.299	0.140
-622.405	154.958	-0.259	-0.358
-621.390	184.500	-0.148	-0.221
-620.376	-200.000	-0.027	0.138
-619.361	67.660	-0.213	0.219
-618.346	147.368	-0.070	-0.095
-617.332	564.365	-0.154	0.374
-616.317	-200.000	-0.004	-0.314
-615.303	-160.736	-0.272	-0.014
-614.288	98.116	-0.203	-0.234
-613.273	-200.000	0.009	0.168
-612.259	-90.708	-0.179	-0.052
-611.244	-0.487	0.021	0.015
-610.230	-200.000	-0.022	-0.125
-609.215	387.711	-0.145	0.301
-608.201	-9.195	0.223	0.149
-607.186	12.116	0.098	-0.076
-606.171	238.867	-0.116	0.193
-605.157	49.594	-0.099	0.093
-604.142	-88.230	0.298	-0.090
-603.128	135.343	-0.069	-0.090
-602.113	67.273	0.009	-0.010
-601.098	-181.142	0.108	0.002
-600.084	800.000	-0.034	-0.111
-599.069	87.908	-0.098	-0.109
-598.055	-200.000	0.005	-0.024
-597.040	-172.095	0.282	0.009
-596.025	-200.000	0.082	-0.403
-595.011	93.614	-0.125	-0.142
-593.996	285.525	0.046	0.083
-592.982	-200.000	-0.016	-0.181
-591.967	47.052	-0.197	-0.183
-590.952	-200.000	0.001	0.027
-589.938	-200.000	0.029	-0.267
-588.923	231.556	0.169	0.277
-587.909	-111.864	-0.052	0.010
-586.894	800.000	0.012	-0.052
-585.879	-10.810	0.031	0.020
-584.865	800.000	0.057	0.234
-583.850	99.658	0.083	0.097
-582.836	-10.467	-0.524	-0.348
-581.821	-117.841	0.204	0.037
-580.806	-38.375	-0.237	0.125
-579.792	-200.000	-0.037	-0.290
-578.777	32.876	0.245	-0.212
-577.763	569.262	0.047	0.115
-576.748	-2.765	-0.339	0.237
-575.733	110.424	-0.218	0.262
-574.719	-77.855	-0.099	0.034
-573.704	-200.000	-0.007	0.300
-572.690	-90.628	-0.327	-0.095
-571.675	0.375	0.048	-0.034
-570.661	132.555	0.128	0.165
-569.646	420.341	0.105	-0.225
-568.631	800.000	0.114	0.480
-567.617	-200.000	-0.006	0.144
-566.602	800.000	0.108	0.324
-565.588	-70.046	-0.307	-0.117
-564.573	140.721	-0.119	0.158
-563.558	-133.821	-0.236	0.029
-562.544	-143.368	-0.188	-0.018
-561.529	44.747	0.179	-0.165
-560.515	-101.544	-0.199	0.048
-559.500	-62.571	-0.291	0.121
-558.485	-200.000	0.359	0.001
-557.471	149.296	0.038	0.051
-556.456	-26.290	-0.212	0.124
-555.442	-45.656	-0.171	-0.085
-554.427	-200.000	0.028	0.155
-553.412	-163.366	-0.061	0.003
-552.398	111.703	-0.096	-0.116
-551.383	-200.000	0.004	0.171
-550.369	502.426	-0.063	0.145
-549.354	-35.028	0.177	0.096
-548.339	-75.640	0.525	0.187
-547.325	656.818	0.124	0.320
-546.310	-100.124	-0.415	-0.103
-545.296	-122.070	-0.191	-0.031
-544.281	-48.302	-0.108	-0.052
-543.266	-151.099	0.203	0.015
-542.252	55.422	0.314	-0.304
-541.237	-80.580	0.214	-0.071
-540.223	-114.610	-0.131	-0.025
-539.208	800.000	-0.110	0.307
-538.193	704.447	-0.105	0.277
-537.179	502.856	0.019	0.044
-536.164	800.000	-0.069	0.225
-535.150	-200.000	-0.009	0.129
-534.135	215.333	0.131	-0.208
-533.121	-200.000	-0.010	-0.146
-532.106	236.597	0.207	-0.343
-531.091	215.844	0.073	-0.115
-530.077	-200.000	-0.013	0.154
-529.062	800.000	0.029	-0.093
-528.048	-141.688	-0.243	-0.024
-527.033	-59.498	-0.210	0.090
-526.018	277.619	0.171	0.305
-525.004	-6.219	-0.109	0.074
-523.989	17.272	-0.118	0.093
-522.975	1.956	0.256	0.185
-521.960	407.955	-0.156	0.330
-520.945	-200.000	0.053	-0.275
-519.931	160.211	-0.120	0.168
-518.916	-79.349	-0.485	0.164
-517.902	135.964	-0.168	-0.219
-516.887	-51.851	0.283	0.132
-515.872	783.702	0.121	-0.332
-514.858	19.279	0.089	0.072
-513.843	-200.000	-0.011	-0.231
-512.829	-29.681	0.333	-0.190
-511.814	-37.129	0.226	-0.121
-510.799	-44.094	-0.199	0.100
-509.785	-21.416	0.315	0.192
-508.770	121.191	0.047	-0.059
-507.756	-200.000	0.023	0.171
-506.741	-200.000	-0.018	0.301
-505.726	-200.000	0.021	0.342
-504.712	800.000	-0.148	-0.458
-503.697	800.000	0.080	-0.241
-502.683	-108.659	-0.215	0.046
-501.668	-89.795	-0.399	0.117
-500.653	-69.948	-0.097	-0.037
-499.639	-9.864	0.072	-0.048
-498.624	-96.027	0.348	0.093
-497.610	-147.499	-0.413	0.035
-496.595	490.260	0.095	0.217
-495.581	-187.375	-0.149	-0.002
-494.566	-156.674	0.189	0.012
-493.551	319.781	-0.078	0.148
-492.537	169.272	-0.110	0.156
-491.522	-151.982	0.292	-0.021
-490.508	83.482	-0.253	0.275
-489.493	-129.868	0.112	-0.015
-488.478	-118.549	-0.245	0.043
-487.464	114.697	0.042	-0.051
-486.449	371.665	0.051	0.104
-485.435	210.685	-0.134	-0.211
-484.420	-40.108	-0.101	0.053
-483.405	-200.000	0.005	-0.252
-482.391	800.000	0.085	-0.340
-481.376	-188.207	0.298	0.004
-480.362	42.154	-0.183	-0.166
-479.347	-200.000	-0.004	-0.253
-478.332	-200.000	-0.010	0.065
-477.318	-200.000	0.008	-0.235
-476.303	-200.000	0.072	0.319
-475.289	-200.000	0.045	0.221
-474.274	-114.743	-0.210	-0.040
-473.259	800.000	0.073	-0.290
-472.245	-200.000	-0.026	0.195
-471.230	-123.928	0.625	0.098
-470.216	-113.345	0.246	-0.048
-469.201	316.683	-0.041	-0.077
-468.186	800.000	-0.017	-0.060
-467.172	-117.592	-0.161	0.029
-466.157	-136.271	-0.167	-0.019
-465.143	23.044	0.151	0.123
-464.128	170.327	-0.094	-0.134
-463.113	-200.000	-0.030	0.346
-462.099	486.334	-0.095	0.216
-461.084	-86.540	0.196	0.060
-460.070	277.374	0.026	0.046
-459.055	17.863	0.145	0.115
-458.040	115.719	-0.123	0.150
-457.026	373.741	-0.053	-0.108
-456.011	-162.396	0.451	-0.022
-454.997	137.117	0.312	0.406
-453.982	-200.000	0.019	-0.166
-452.968	-142.387	-0.031	-0.003
-451.953	-18.650	-0.168	0.104
-450.938	-1.891	-0.142	-0.099
-449.924	-95.274	0.314	0.084
-448.909	300.312	-0.170	0.313
-447.895	93.151	0.228	0.257
-446.880	-200.000	-0.002	-0.260
-445.865	-82.723	0.479	-0.154
-444.851	125.530	0.076	0.095
-443.836	-22.154	0.188	-0.114
-442.822	-36.276	-0.305	-0.164
-441.807	794.410	-0.132	-0.362
-440.792	-200.000	0.005	0.038
-439.778	-95.916	-0.197	-0.052
-438.763	-39.309	-0.043	-0.023
-437.749	695.053	-0.112	0.293
-436.734	-36.796	-0.227	-0.121
-435.719	211.465	-0.132	0.207
-434.705	312.534	-0.085	-0.158
-433.690	-71.758	0.087	-0.032
-432.676	454.794	-0.077	-0.170
-431.661	-116.335	0.107	-0.020
-430.646	-100.334	0.218	0.054
-429.632	98.527	0.230	-0.264
-428.617	-104.100	-0.150	0.035
-427.603	351.593	0.044	-0.087
-426.588	244.952	-0.146	-0.245
-425.573	-76.011	-0.124	-0.044
-424.559	527.719	0.101	-0.236
-423.544	23.829	0.158	-0.130
-422.530	164.162	-0.071	-0.099
-421.515	-200.000	0.005	-0.296
-420.500	172.080	-0.126	0.180
-419.486	217.679	-0.034	-0.055
-418.471	116.884	0.208	-0.254
-417.457	82.526	0.268	0.290
-416.442	-50.440	0.367	-0.173
-415.428	134.422	0.213	0.275
-414.413	800.000	-0.058	0.202
-413.398	30.169	0.318	-0.270
-412.384	150.504	0.215	-0.290
-411.369	-39.754	-0.196	0.102
-410.355	-200.000	0.011	-0.168
-409.340	-200.000	0.046	0.204
-408.325	800.000	-0.019	0.071
-407.311	-151.849	0.047	-0.003
-406.296	-45.795	-0.145	0.071
-405.282	-102.933	-0.263	-0.062
-404.267	30.321	0.245	0.208
-403.252	-76.608	0.145	-0.051
-402.238	-200.000	0.012	-0.153
-401.223	-116.850	-0.045	0.008
-400.209	-56.933	-0.109	-0.048
-399.194	-71.387	0.250	-0.093
-398.179	269.097	0.134	-0.234
-397.165	-200.000	0.017	-0.291
-396.150	800.000	-0.025	-0.104
-395.136	106.024	-0.099	-0.117
-394.121	800.000	-0.035	0.125
-393.106	204.313	-0.143	0.220
-392.092	-81.378	-0.079	0.026
-391.077	-200.000	-0.022	-0.158
-390.063	190.556	0.215	-0.321
-389.048	172.340	0.058	-0.084
-388.033	-22.147	0.421	0.254
-387.019	128.081	-0.152	-0.192
-386.004	480.378	-0.017	0.038
-384.990	-130.082	0.226	-0.031
-383.975	-78.990	0.208	0.070
-382.960	312.128	0.082	-0.153
-381.946	-6.421	0.187	-0.127
-380.931	-161.577	0.208	-0.011
-379.917	-200.000	-0.219	-0.000
-378.902	-0.658	0.109	0.077
-377.888	-200.000	0.058	-0.291
-376.873	650.925	0.027	-0.068
-375.858	-58.054	-0.097	-0.042
-374.844	-165.675	-0.051	0.002
-373.829	-200.000	0.012	0.252
-372.815	800.000	0.021	-0.070
-371.800	-163.350	0.221	0.010
-370.785	655.459	-0.038	-0.097
-369.771	-127.797	0.371	0.053
-368.756	-101.450	0.108	-0.026
-367.742	124.254	0.049	0.061
-366.727	177.688	0.127	0.184
-365.712	-200.000	0.042	-0.213
-364.698	-144.405	0.358	-0.033
-363.683	-164.133	-0.157	0.007
-362.669	61.583	-0.249	-0.246
-361.654	67.813	-0.047	0.048
-360.639	28.258	-0.440	0.369
-359.625	-111.118	-0.421	0.086
-358.610	93.773	0.218	-0.246
-357.596	-200.000	-0.011	0.235
-356.581	-89.366	-0.303	0.089
-355.566	70.259	0.122	0.126
-354.552	-200.000	-0.049	0.259
-353.537	-119.825	-0.345	-0.059
-352.523	35.964	-0.122	-0.106
-351.508	-200.000	0.097	-0.452
-350.493	674.568	0.058	0.149
-349.479	-76.140	-0.191	-0.067
-348.464	-6.386	0.173	-0.117
-347.450	-60.705	-0.088	0.037
-346.435	-1.189	-0.095	0.067
-345.420	-139.835	-0.131	0.014
-344.406	-24.391	-0.035	0.021
-343.391	800.000	-0.064	-0.195
-342.377	64.777	0.192	0.192
-341.362	150.649	-0.102	-0.137
-340.348	-200.000	-0.016	-0.190
-339.333	246.088	0.250	-0.418
-338.318	297.458	0.152	0.277
-337.304	-61.276	-0.313	0.131
-336.289	-98.364	-0.128	0.032
-335.275	347.472	-0.113	-0.220
-334.260	364.773	-0.025	0.049
-333.245	-200.000	-0.005	-0.291
-332.231	81.636	0.303	0.325
-331.216	-157.742	0.104	-0.006
-330.202	-92.902	-0.221	0.061
-329.187	800.000	-0.048	0.155
-328.172	65.397	-0.194	0.195
-327.158	-200.000	-0.196	-0.000
-326.143	93.365	0.207	-0.232
-325.129	27.473	0.161	0.134
-324.114	18.132	0.195	0.154
-323.099	-200.000	0.036	-0.164
-322.085	-200.000	-0.019	-0.388
-321.070	174.216	-0.187	-0.268
-320.056	-200.000	0.008	-0.269
-319.041	-200.000	0.011	-0.456
-318.026	-150.333	-0.088	-0.007
-317.012	-3.265	-0.176	-0.122
-315.997	-32.361	0.213	0.118
-314.983	-103.306	-0.404	0.095
-313.968	-43.373	-0.102	-0.051
-312.953	-142.494	-0.342	-0.033
-311.939	-84.247	0.292	0.092
-310.924	-135.948	0.222	0.026
-309.910	40.583	0.231	0.206
-308.895	800.000	-0.074	0.250
-307.880	-200.000	-0.021	0.164
-306.866	800.000	0.055	-0.160
-305.851	-200.000	0.026	0.173
-304.837	22.125	0.156	0.126
-303.822	-158.791	0.122	0.007
-302.807	448.383	-0.049	0.107
-301.793	-6.268	-0.287	0.194
-300.778	417.546	-0.102	-0.216
-299.764	-200.000	0.048	0.234
-298.749	-53.769	0.235	-0.106
-297.735	-124.037	0.300	0.047
-296.720	158.473	-0.158	-0.218
-295.705	800.000	-0.055	-0.152
-294.691	-10.912	0.211	0.138
-293.676	-109.608	0.305	0.064
-292.662	-200.000	-0.007	0.120
-291.647	555.386	-0.088	-0.209
-290.632	-119.782	0.089	-0.015
-289.618	800.000	0.096	-0.285
-288.603	327.619	-0.195	-0.371
-287.589	-155.149	-0.134	-0.009
-286.574	234.090	0.064	0.105
-285.559	55.580	-0.146	0.140
-284.545	166.435	0.126	0.176
-283.530	-176.623	-0.027	0.001
-282.516	508.170	0.111	0.256
-281.501	212.879	-0.057	0.089
-280.486	-12.214	0.076	-0.049
-279.472	-171.384	-0.302	-0.010
-278.457	-156.881	0.148	-0.009
-277.443	222.675	-0.158	-0.251
-276.428	17.712	0.181	0.142
-275.413	26.529	-0.153	-0.126
-274.399	-85.901	-0.279	0.086
-273.384	-5.236	0.051	0.035
-272.370	-70.801	0.382	-0.143
-271.355	-107.913	0.066	-0.014
-270.340	-98.020	-0.099	-0.025
-269.326	445.350	0.049	0.106
-268.311	-98.489	0.238	-0.060
-267.297	116.779	-0.154	0.187
-266.282	-200.000	0.026	-0.174
-265.267	500.226	0.098	-0.224
-264.253	120.746	-0.176	0.217
-263.238	-20.887	0.097	0.059
-262.224	-12.685	-0.246	0.159
-261.209	-145.809	0.077	0.007
-260.195	-72.360	-0.157	0.057
-259.180	-188.575	-0.210	-0.003
-258.165	655.418	0.036	0.091
-257.151	-200.000	-0.012	0.232
-256.136	86.073	-0.065	0.071
-255.122	-200.000	-0.055	-0.279
-254.107	-166.854	-0.119	-0.005
-253.092	274.373	-0.170	0.297
-252.078	-200.000	0.006	0.125
-251.063	68.533	0.047	-0.047
-250.049	19.669	0.244	0.194
-249.034	326.430	-0.194	-0.367
-248.019	-7.461	-0.213	0.143
-247.005	-162.016	0.431	0.021
-245.990	-200.000	-0.020	0.271
-244.976	39.544	0.208	-0.184
-243.961	-200.000	-0.084	-0.421
-242.946	-28.573	0.406	0.231
-241.932	-175.085	-0.116	0.003
-240.917	346.046	-0.101	0.196
-239.903	-51.666	0.143	0.066
-238.888	263.900	0.044	0.075
-237.873	475.000	0.199	-0.444
-236.859	-37.159	0.276	0.146
-235.844	174.912	0.214	0.306
-234.830	151.461	-0.278	0.374
-233.815	-128.348	-0.293	-0.041
-232.800	-74.038	0.231	-0.083
-231.786	-104.516	0.320	0.073
-230.771	-86.470	-0.517	0.157
-229.757	-145.574	0.101	0.009
-228.742	-200.000	0.001	-0.323
-227.727	-111.962	0.111	0.022
-226.713	66.016	0.052	0.052
-225.698	-171.916	-0.385	-0.012
-224.684	67.475	-0.063	0.064
-223.669	245.930	0.166	0.276
-222.655	-200.000	0.027	0.177
-221.640	-51.730	-0.242	-0.111
-220.625	-152.177	-0.296	0.021
-219.611	-48.783	-0.315	0.149
-218.596	800.000	0.041	-0.124
-217.582	800.000	-0.055	-0.199
-216.567	496.844	0.108	0.246
-215.552	107.811	0.014	-0.017
-214.538	745.272	-0.202	-0.537
-213.523	-140.470	0.063	0.006
-212.509	-84.239	0.282	-0.088
-211.494	-117.954	0.487	0.086
-210.479	153.079	-0.175	-0.237
-209.465	-200.000	-0.039	-0.277
-208.450	197.571	-0.121	0.183
-207.436	487.172	0.035	0.078
-206.421	83.660	-0.214	-0.230
-205.406	0.576	0.303	0.214
-204.392	23.150	-0.023	0.019
-203.377	-200.000	0.037	-0.167
-202.363	-41.434	-0.187	0.095
-201.348	-34.999	0.249	0.134
-200.333	360.012	-0.046	-0.092
-199.319	800.000	-0.046	0.180
-198.304	-51.089	0.121	0.056
-197.290	-87.513	0.200	-0.060
-196.275	800.000	-0.076	-0.288
-195.260	1.462	-0.238	-0.169
-194.246	544.377	-0.140	-0.329
-193.231	-128.956	0.147	0.020
-192.217	-200.000	-0.004	0.293
-191.202	68.276	0.115	-0.116
-190.187	-142.626	-0.241	0.023
-189.173	68.527	-0.037	0.037
-188.158	-72.702	0.226	0.082
-187.144	-48.295	-0.191	-0.091
-186.129	208.650	-0.140	0.216
-185.114	800.000	0.077	-0.241
-184.100	155.730	-0.155	-0.210
-183.085	-138.255	0.436	0.048
-182.071	137.621	0.152	0.196
-181.056	-138.731	0.375	-0.040
-180.042	-117.566	-0.024	0.004
-179.027	-33.133	-0.265	-0.145
-178.012	55.357	0.294	0.280
-176.998	-138.366	-0.228	0.025
-175.983	-53.024	-0.071	0.032
-174.969	-135.412	0.404	-0.048
-173.954	154.674	0.060	-0.081
-172.939	-24.490	-0.068	-0.040
-171.925	24.475	0.222	0.181
-170.910	31.813	0.184	0.156
-169.896	45.347	-0.150	0.136
-168.881	-14.562	-0.144	0.091
-167.866	-15.556	-0.327	0.206
-166.852	800.000	-0.082	0.311
-165.837	-130.518	0.401	0.053
-164.823	800.000	-0.046	-0.192
-163.808	600.984	-0.092	-0.225
-162.793	263.811	0.052	0.090
-161.779	102.600	-0.092	-0.106
-160.764	-200.000	-0.015	-0.131
-159.750	95.299	0.125	-0.140
-158.735	15.577	0.188	0.145
-157.720	-200.000	-0.035	-0.192
-156.706	-165.156	-0.172	-0.007
-155.691	235.005	-0.103	0.168
-154.677	-200.000	-0.040	0.344
-153.662	60.649	0.159	-0.155
-152.647	800.000	0.060	-0.168
-151.633	800.000	-0.051	-0.141
-150.618	-200.000	0.015	-0.482
-149.604	-174.100	-0.143	0.004
-148.589	195.502	0.119	0.178
-147.574	439.423	-0.103	-0.221
-146.560	-79.925	-0.307	0.101
-145.545	-107.927	-0.051	0.011
-144.531	-163.906	0.121	0.006
-143.516	-59.684	0.275	-0.116
-142.502	-51.193	-0.126	-0.058
-141.487	-66.738	0.085	-0.033
-140.472	38.505	0.155	-0.136
-139.458	431.485	0.084	-0.179
-138.443	-9.307	0.267	-0.176
-137.429	-133.650	0.277	0.034
-136.414	-200.000	-0.040	0.228
-135.399	173.224	-0.037	-0.053
-134.385	-200.000	0.031	0.153
-133.370	-200.000	-0.011	-0.117
-132.356	200.236	0.088	0.132
-131.341	152.053	-0.052	0.070
-130.326	328.735	0.072	0.137
-129.312	-200.000	-0.041	0.180
-128.297	-200.000	0.016	-0.080
-127.283	-92.395	0.118	-0.033
-126.268	213.349	0.180	0.280
-125.253	52.433	0.149	0.140
-124.239	581.027	0.032	0.076
-123.224	-200.000	-0.081	0.376
-122.210	13.294	0.059	-0.045
