DTS Sentinel unit serial number:	SN413079Multiplexer serial number:	ORYXHardware model number:	OX4-SRSoftware version number:	ORYX F/W v4.00 Oryx Data Collector v3.7.2.0data status	okinstallation	princeton_trtdifferential loss correction	single-endedforward channel	channel 1reverse channel	N/Adate	2019/09/19time	08:10:35forward acquisition time	60.00reverse acquisition time	0.00gamma	496.2192k internal	0.2342k external	0.2342temperature offset calibration	1.0008default loss term (dB/km)	0.3790temperature slope calibration	1.0000multiplexer offset coefficient	1.0000multiplexer slope coefficient	1.0000fibre end	0.00T internal ref (°C)	20.12T ext. ref 1 (°C)	0.56T ext. ref 2 (°C)	15.79length (m)	temperature (°C)	Stokes	anti-Stokes-747.200	33.800	-0.086	-0.075
-746.185	-40.422	-0.263	0.137
-745.171	138.028	0.150	-0.197
-744.156	-123.853	-0.333	0.053
-743.142	117.728	-0.028	0.035
-742.127	215.442	-0.114	0.181
-741.112	-41.250	0.076	0.039
-740.098	-71.558	-0.216	0.081
-739.083	-200.000	0.054	0.426
-738.069	768.100	-0.112	0.304
-737.054	-46.484	0.287	0.141
-736.039	99.892	-0.134	-0.156
-735.025	-4.406	-0.250	0.173
-734.010	-22.730	0.185	-0.112
-732.996	-154.673	-0.199	-0.013
-731.981	-21.755	0.300	-0.183
-730.966	800.000	-0.033	-0.124
-729.952	-133.581	0.098	-0.012
-728.937	194.152	-0.120	-0.182
-727.923	-121.806	-0.220	-0.036
-726.908	143.941	0.331	0.441
-725.894	-92.615	-0.264	0.074
-724.879	24.705	-0.218	-0.181
-723.864	-200.000	-0.005	0.043
-722.850	-200.000	0.012	-0.158
-721.835	686.914	-0.140	-0.366
-720.821	56.568	-0.124	-0.121
-719.806	-200.000	0.045	0.273
-718.791	205.241	-0.087	-0.135
-717.777	763.732	-0.050	-0.135
-716.762	93.004	0.277	-0.314
-715.748	-200.000	-0.013	-0.085
-714.733	-200.000	-0.004	-0.065
-713.718	-200.000	0.029	-0.146
-712.704	800.000	-0.138	-0.412
-711.689	415.420	0.149	-0.318
-710.675	267.993	0.033	0.058
-709.660	800.000	-0.062	-0.242
-708.645	-200.000	-0.069	-0.335
-707.631	83.132	-0.194	-0.211
-706.616	247.834	-0.133	-0.225
-705.602	-56.117	-0.142	0.063
-704.587	-73.169	-0.335	0.123
-703.572	-27.496	-0.224	-0.130
-702.558	-200.000	-0.035	-0.206
-701.543	202.172	-0.063	0.097
-700.529	-83.849	0.310	0.099
-699.514	170.463	-0.057	0.082
-698.499	163.875	-0.215	-0.302
-697.485	277.888	0.111	-0.197
-696.470	5.797	0.357	0.264
-695.456	285.709	-0.028	-0.050
-694.441	-200.000	-0.013	-0.363
-693.426	800.000	0.075	0.210
-692.412	-69.801	-0.060	-0.023
-691.397	99.236	-0.048	-0.055
-690.383	-200.000	-0.013	0.065
-689.368	363.606	0.199	-0.400
-688.354	-117.588	-0.161	0.029
-687.339	-200.000	0.035	0.409
-686.324	192.588	0.159	-0.240
-685.310	-171.641	0.218	-0.007
-684.295	277.330	-0.014	-0.025
-683.281	800.000	0.016	0.045
-682.266	6.008	0.194	0.144
-681.251	-147.912	-0.140	-0.012
-680.237	-200.000	-0.046	-0.449
-679.222	800.000	-0.078	-0.336
-678.208	215.571	-0.107	0.169
-677.193	-200.000	-0.022	-0.150
-676.178	-13.898	-0.196	-0.127
-675.164	-81.094	0.149	-0.049
-674.149	-49.718	-0.072	0.034
-673.135	1.256	-0.096	-0.069
-672.120	-36.712	-0.163	-0.087
-671.105	-47.686	0.140	0.068
-670.091	-33.415	-0.244	0.135
-669.076	-200.000	0.027	0.239
-668.062	-200.000	0.002	0.086
-667.047	147.456	0.062	-0.083
-666.032	148.297	0.120	0.162
-665.018	-200.000	-0.025	-0.140
-664.003	-50.413	-0.238	-0.112
-662.989	-200.000	0.021	0.156
-661.974	83.076	-0.285	0.310
-660.959	94.467	-0.232	0.263
-659.945	-200.000	0.040	0.357
-658.930	-143.460	0.264	0.025
-657.916	536.505	-0.120	-0.284
-656.901	147.610	-0.159	0.214
-655.886	-200.000	-0.011	-0.228
-654.872	800.000	0.082	-0.347
-653.857	54.210	-0.233	-0.224
-652.843	-31.404	-0.294	0.165
-651.828	123.384	0.050	0.063
-650.814	185.668	-0.133	-0.197
-649.799	3.073	-0.182	-0.132
-648.784	58.279	0.163	-0.159
-647.770	-200.000	0.015	0.072
-646.755	121.739	-0.205	0.255
-645.741	-200.000	0.046	0.242
-644.726	14.797	0.294	-0.229
-643.711	800.000	-0.065	0.267
-642.697	-200.000	-0.005	-0.130
-641.682	24.697	-0.170	0.140
-640.668	10.175	-0.171	0.130
-639.653	-34.062	0.350	0.192
-638.638	69.171	-0.138	-0.142
-637.624	-107.669	0.064	-0.014
-636.609	-144.371	-0.422	-0.039
-635.595	-200.000	-0.011	-0.098
-634.580	463.797	-0.096	-0.213
-633.565	-60.716	0.244	-0.103
-632.551	-200.000	-0.007	-0.126
-631.536	387.699	-0.125	-0.257
-630.522	-121.396	0.097	-0.016
-629.507	-200.000	0.028	-0.286
-628.492	800.000	-0.035	-0.106
-627.478	137.782	-0.153	0.200
-626.463	-58.337	0.086	-0.037
-625.449	-101.449	0.291	-0.071
-624.434	-66.722	0.193	-0.076
-623.419	-81.476	-0.031	-0.010
-622.405	-82.120	0.102	0.033
-621.390	238.244	0.090	0.150
-620.376	56.166	0.165	0.160
-619.361	-129.947	0.126	0.017
-618.346	170.541	-0.110	-0.157
-617.332	-177.300	0.195	-0.005
-616.317	-200.000	0.002	-0.014
-615.303	66.728	0.076	0.077
-614.288	-200.000	0.008	-0.035
-613.273	-88.062	0.053	0.016
-612.259	133.763	0.079	-0.102
-611.244	-200.000	-0.069	-0.361
-610.230	-89.558	-0.319	-0.093
-609.215	84.952	0.210	-0.229
-608.201	-200.000	0.018	-0.098
-607.186	-200.000	-0.005	-0.170
-606.171	-200.000	-0.030	-0.142
-605.157	-200.000	0.028	0.326
-604.142	-67.723	0.260	0.101
-603.128	543.287	0.105	-0.249
-602.113	154.714	0.100	0.137
-601.098	65.482	-0.275	0.277
-600.084	291.323	-0.080	0.144
-599.069	580.941	0.043	-0.104
-598.055	-64.735	0.187	0.075
-597.040	-200.000	-0.057	-0.352
-596.025	38.969	-0.131	0.117
-595.011	-200.000	-0.016	0.196
-593.996	66.998	-0.143	0.145
-592.982	-200.000	-0.021	-0.434
-591.967	113.722	0.185	-0.224
-590.952	310.876	0.143	0.267
-589.938	48.648	-0.161	0.150
-588.923	294.380	0.161	0.292
-587.909	800.000	-0.152	0.474
-586.894	-64.059	-0.235	-0.096
-585.879	-3.459	0.078	0.054
-584.865	-126.649	-0.479	-0.071
-583.850	800.000	0.032	0.097
-582.836	29.991	-0.219	-0.186
-581.821	688.280	-0.041	-0.107
-580.806	-16.992	-0.186	-0.117
-579.792	436.736	-0.131	0.285
-578.777	727.989	0.121	-0.321
-577.763	-46.000	0.090	-0.044
-576.748	162.363	0.034	-0.048
-575.733	-141.090	0.166	-0.017
-574.719	-13.464	0.322	0.208
-573.704	337.155	0.112	-0.216
-572.690	340.517	-0.102	-0.198
-571.675	-200.000	0.091	0.502
-570.661	2.997	-0.173	-0.125
-569.646	-91.473	-0.336	-0.096
-568.631	114.424	0.176	0.213
-567.617	307.695	0.051	-0.095
-566.602	173.262	0.184	0.264
-565.588	-101.079	0.432	0.105
-564.573	-200.000	-0.013	0.142
-563.558	-81.573	0.212	-0.069
-562.544	301.789	-0.058	0.107
-561.529	-50.200	-0.236	-0.111
-560.515	26.032	-0.205	0.170
-559.500	-163.041	0.261	-0.013
-558.485	200.781	0.236	-0.361
-557.471	-65.232	0.535	-0.214
-556.456	86.915	-0.271	0.298
-555.442	105.663	0.148	0.174
-554.427	-153.763	0.482	0.033
-553.412	-66.293	-0.053	0.021
-552.398	-55.525	0.284	-0.126
-551.383	-72.999	-0.289	0.105
-550.369	-76.203	-0.102	-0.036
-549.354	62.481	0.122	-0.121
-548.339	-200.000	0.034	-0.217
-547.325	192.279	-0.159	-0.239
-546.310	56.639	-0.222	-0.215
-545.296	82.343	-0.229	-0.247
-544.281	800.000	-0.083	-0.238
-543.266	800.000	0.085	-0.270
-542.252	-200.000	0.008	-0.196
-541.237	285.405	0.111	-0.198
-540.223	48.497	0.150	0.139
-539.208	-39.268	-0.206	-0.108
-538.193	-67.818	-0.445	-0.173
-537.179	-17.222	0.453	0.284
-536.164	-14.596	-0.299	-0.191
-535.150	132.170	-0.141	-0.181
-534.135	-102.571	-0.244	0.058
-533.121	-44.968	0.129	0.064
-532.106	582.864	-0.036	-0.088
-531.091	-161.336	-0.053	0.003
-530.077	-123.176	0.229	-0.036
-529.062	-200.000	0.020	-0.127
-528.048	128.824	0.113	0.143
-527.033	-114.747	-0.058	0.011
-526.018	-200.000	0.201	-0.001
-525.004	4.141	0.169	0.123
-523.989	-63.356	0.316	0.129
-522.975	-200.000	0.007	0.142
-521.960	105.608	-0.120	0.140
-520.945	92.104	-0.107	-0.119
-519.931	-126.847	0.274	0.040
-518.916	800.000	-0.088	0.273
-517.902	800.000	0.057	-0.203
-516.887	-200.000	0.044	0.326
-515.872	-70.676	-0.319	0.120
-514.858	-4.644	0.296	-0.203
-513.843	4.035	0.299	0.217
-512.829	-200.000	0.006	-0.078
-511.814	-62.272	0.327	0.135
-510.799	-4.842	0.093	-0.064
-509.785	-46.384	0.205	-0.100
-508.770	-11.930	-0.184	0.120
-507.756	-9.989	0.118	-0.078
-506.741	-75.858	-0.184	-0.065
-505.726	-94.376	-0.225	0.061
-504.712	-110.001	-0.267	0.055
-503.697	15.042	-0.126	-0.098
-502.683	-200.000	0.068	-0.344
-501.668	278.847	-0.103	-0.182
-500.653	354.174	-0.025	0.049
-499.639	98.889	0.211	-0.241
-498.624	166.475	0.098	0.137
-497.610	-121.123	-0.314	0.052
-496.595	359.573	-0.082	-0.162
-495.581	-18.453	-0.055	-0.034
-494.566	27.040	-0.129	0.108
-493.551	800.000	-0.064	0.192
-492.537	251.511	-0.076	-0.127
-491.522	419.372	0.087	-0.184
-490.508	-111.719	-0.410	-0.082
-489.493	-108.815	0.124	0.026
-488.478	-67.532	-0.043	0.017
-487.464	-200.000	-0.019	0.253
-486.449	43.782	-0.115	-0.104
-485.435	21.739	-0.249	-0.201
-484.420	800.000	-0.061	-0.220
-483.405	-159.484	0.203	-0.011
-482.391	-200.000	-0.018	0.277
-481.376	-126.180	-0.248	-0.037
-480.362	320.328	-0.100	-0.187
-479.347	-25.994	0.157	0.091
-478.332	595.733	-0.096	0.236
-477.318	-27.877	-0.246	-0.141
-476.303	2.066	0.059	0.043
-475.289	-74.779	0.069	0.024
-474.274	280.756	-0.095	0.168
-473.259	86.406	0.174	-0.190
-472.245	251.540	0.092	-0.156
-471.230	-200.000	0.010	0.077
-470.216	332.868	-0.073	-0.139
-469.201	-102.467	-0.214	-0.051
-468.186	29.935	0.143	0.121
-467.172	560.718	0.050	0.119
-466.157	-109.002	-0.201	-0.042
-465.143	41.585	0.198	-0.177
-464.128	-200.000	-0.006	-0.075
-463.113	43.363	0.070	-0.064
-462.099	14.803	0.323	-0.250
-461.084	-179.502	-0.078	-0.002
-460.070	-57.867	0.123	0.053
-459.055	317.262	0.082	-0.154
-458.040	-78.785	-0.439	0.148
-457.026	-200.000	-0.011	-0.073
-456.011	246.811	0.162	-0.270
-454.997	108.820	-0.079	-0.094
-453.982	-125.775	0.235	0.035
-452.968	-200.000	-0.059	0.324
-451.953	-25.162	0.105	-0.062
-450.938	-200.000	-0.028	0.161
-449.924	175.010	0.151	0.217
-448.909	800.000	-0.052	-0.209
-447.895	-127.477	-0.489	0.070
-446.880	-90.672	0.122	0.035
-445.865	49.130	0.212	-0.197
-444.851	-200.000	0.010	-0.304
-443.836	262.149	-0.121	-0.208
-442.822	-89.042	-0.159	-0.047
-441.807	250.998	-0.132	0.223
-440.792	-200.000	-0.052	-0.272
-439.778	532.408	-0.093	-0.219
-438.763	58.629	-0.259	-0.252
-437.749	33.804	0.079	-0.068
-436.734	-200.000	0.023	0.198
-435.719	-65.564	0.156	0.062
-434.705	-190.845	0.148	-0.002
-433.690	-65.566	0.175	-0.069
-432.676	650.708	-0.169	-0.428
-431.661	338.487	-0.233	-0.448
-430.646	-49.650	-0.149	-0.070
-429.632	-200.000	-0.020	0.162
-428.617	-153.636	-0.153	-0.010
-427.603	-200.000	-0.004	-0.188
-426.588	800.000	-0.057	-0.245
-425.573	74.266	0.191	-0.199
-424.559	-105.149	0.179	-0.040
-423.544	65.320	0.073	0.073
-422.530	-200.000	-0.055	-0.242
-421.515	714.784	0.083	0.217
-420.500	-150.276	-0.273	0.021
-419.486	-93.120	0.370	-0.102
-418.471	-140.264	0.332	-0.034
-417.457	150.376	0.243	-0.326
-416.442	669.206	-0.104	-0.267
-415.428	800.000	-0.054	-0.173
-414.413	12.627	-0.182	0.139
-413.398	-43.720	0.421	0.210
-412.384	-200.000	-0.003	0.174
-411.369	-73.422	-0.249	0.090
-410.355	-200.000	0.052	0.311
-409.340	-200.000	0.019	0.311
-408.325	-60.199	-0.143	0.060
-407.311	236.224	-0.205	-0.334
-406.296	-200.000	-0.015	-0.207
-405.282	-123.120	-0.270	-0.043
-404.267	-200.000	0.025	0.172
-403.252	-102.860	0.230	0.054
-402.238	67.105	0.106	0.107
-401.223	430.783	0.094	0.202
-400.209	-117.384	0.214	-0.038
-399.194	-200.000	-0.027	0.167
-398.179	50.685	-0.154	0.144
-397.165	-200.000	-0.020	-0.095
-396.150	-101.176	-0.286	-0.069
-395.136	800.000	-0.057	0.204
-394.121	242.264	-0.048	0.080
-393.106	-116.330	-0.104	-0.019
-392.092	155.722	-0.139	-0.190
-391.077	47.727	0.245	-0.226
-390.063	-119.776	-0.258	-0.044
-389.048	75.835	0.270	0.282
-388.033	49.332	0.167	-0.155
-387.019	1.652	0.113	-0.080
-386.004	-200.000	0.055	-0.372
-384.990	-106.267	-0.064	0.014
-383.975	800.000	0.026	0.084
-382.960	-33.712	0.059	-0.032
-381.946	-99.857	-0.028	0.007
-380.931	-94.951	-0.308	-0.082
-379.917	396.656	-0.093	0.193
-378.902	69.841	-0.195	0.199
-377.888	-200.000	-0.013	0.244
-376.873	131.091	-0.175	0.221
-375.858	-13.927	0.330	-0.211
-374.844	-200.000	0.026	-0.181
-373.829	-91.367	0.262	0.074
-372.815	-53.312	0.174	-0.079
-371.800	-200.000	-0.009	0.253
-370.785	157.826	0.170	0.232
-369.771	-200.000	0.011	0.059
-368.756	438.655	0.021	0.045
-367.742	236.260	-0.138	0.226
-366.727	-52.156	-0.248	-0.113
-365.712	504.350	0.155	-0.354
-364.698	-110.702	-0.061	0.012
-363.683	-17.280	0.139	-0.087
-362.669	-13.602	0.366	0.234
-361.654	-90.129	0.232	0.067
-360.639	-200.000	-0.002	-0.164
-359.625	-139.923	-0.098	0.010
-358.610	-46.361	-0.062	0.030
-357.596	538.912	0.106	-0.249
-356.581	86.995	-0.142	0.155
-355.566	197.646	-0.160	-0.241
-354.552	-170.320	0.584	0.020
-353.537	-147.741	-0.301	-0.025
-352.523	-71.786	-0.184	0.068
-351.508	-200.000	0.052	0.359
-350.493	25.811	-0.108	-0.089
-349.479	-15.378	-0.023	0.014
-348.464	75.316	-0.239	-0.248
-347.450	-200.000	-0.005	0.107
-346.435	-0.667	-0.229	-0.160
-345.420	-41.745	0.216	0.109
-344.406	-58.682	-0.186	-0.080
-343.391	-200.000	0.003	0.126
-342.377	126.302	-0.244	0.304
-341.362	-200.000	-0.025	0.120
-340.348	69.033	0.104	0.105
-339.333	-53.265	-0.243	0.110
-338.318	-137.778	0.079	0.009
-337.304	-200.000	-0.086	0.580
-336.289	-34.922	0.162	-0.087
-335.275	-149.303	-0.207	-0.016
-334.260	-52.546	0.259	-0.118
-333.245	-200.000	0.073	0.465
-332.231	800.000	-0.061	-0.184
-331.216	133.226	-0.209	0.266
-330.202	295.070	0.121	0.219
-329.187	112.732	-0.143	-0.170
-328.172	800.000	0.017	-0.065
-327.158	-200.000	-0.029	-0.289
-326.143	571.525	0.054	-0.130
-325.129	-107.316	0.178	0.039
-324.114	-170.532	0.128	-0.004
-323.099	-105.906	-0.240	-0.053
-322.085	3.276	-0.125	0.090
-321.070	20.925	0.177	0.141
-320.056	-95.002	-0.351	0.093
-319.041	800.000	-0.085	-0.285
-318.026	-30.266	0.083	-0.047
-317.012	800.000	-0.046	0.193
-315.997	159.460	0.131	0.179
-314.983	800.000	-0.084	0.260
-313.968	42.915	-0.188	0.168
-312.953	-142.162	0.443	0.043
-311.939	-38.020	-0.079	0.041
-310.924	-53.524	0.058	-0.026
-309.910	800.000	-0.040	-0.132
-308.895	188.165	0.135	0.199
-307.880	-199.893	-0.166	0.001
-306.866	-200.000	0.006	0.033
-305.851	-138.364	-0.342	-0.037
-304.837	-98.334	0.190	-0.048
-303.822	-38.712	0.189	-0.098
-302.807	800.000	0.031	-0.102
-301.793	-64.120	-0.094	0.038
-300.778	10.485	0.227	0.170
-299.764	483.004	-0.054	0.120
-298.749	-153.130	-0.061	-0.004
-297.735	79.024	-0.110	0.116
-296.720	-86.751	0.285	-0.086
-295.705	397.287	0.130	0.267
-294.691	-200.000	-0.055	-0.243
-293.676	800.000	0.035	-0.140
-292.662	-141.014	-0.245	0.025
-291.647	-200.000	0.012	0.209
-290.632	84.414	0.244	-0.262
-289.618	-120.086	0.503	-0.085
-288.603	-200.000	-0.005	-0.113
-287.589	-200.000	0.025	-0.188
-286.574	179.597	-0.116	0.167
-285.559	-2.882	0.160	0.110
-284.545	-53.569	-0.059	-0.026
-283.530	95.615	-0.122	0.137
-282.516	-200.000	0.041	0.245
-281.501	218.076	-0.214	0.335
-280.486	-200.000	-0.031	0.166
-279.472	-200.000	0.066	0.294
-278.457	-176.522	-0.137	-0.003
-277.443	-125.809	-0.119	0.018
-276.428	800.000	-0.005	-0.015
-275.413	800.000	0.122	-0.333
-274.399	-200.000	0.019	0.101
-273.384	-200.000	0.079	-0.369
-272.370	766.784	0.064	0.171
-271.355	-61.275	-0.149	-0.062
-270.340	34.090	0.369	-0.316
-269.326	23.956	-0.016	-0.013
-268.311	284.872	0.166	0.294
-267.297	-200.000	-0.015	-0.098
-266.282	-200.000	0.028	-0.223
-265.267	317.599	-0.136	0.253
-264.253	81.223	-0.062	-0.066
-263.238	-110.695	0.324	-0.066
-262.224	420.271	0.046	0.097
-261.209	126.836	-0.093	0.116
-260.195	-200.000	0.025	-0.208
-259.180	-191.513	0.158	0.002
-258.165	-124.583	0.047	0.007
-257.151	28.226	0.179	0.148
-256.136	108.724	0.194	0.228
-255.122	-200.000	0.029	0.313
-254.107	97.920	-0.104	0.117
-253.092	707.264	0.065	-0.169
-252.078	111.745	-0.143	0.169
-251.063	-200.000	-0.057	0.278
-250.049	-133.110	0.336	0.042
-249.034	-58.188	0.180	0.077
-248.019	-136.449	-0.296	-0.034
-247.005	-185.638	0.185	0.003
-245.990	-200.000	-0.007	-0.302
-244.976	444.022	-0.042	-0.091
-243.961	-200.000	-0.026	0.181
-242.946	-128.403	-0.585	-0.082
-241.932	32.570	0.248	0.211
-240.917	-25.381	-0.218	0.127
-239.903	773.305	0.084	-0.226
-238.888	-114.673	0.440	-0.083
-237.873	-83.577	0.279	-0.088
-236.859	-115.152	-0.146	-0.027
-235.844	574.574	0.069	0.165
-234.830	800.000	0.052	0.215
-233.815	420.990	-0.090	-0.189
-232.800	-137.378	0.023	0.003
-231.786	-200.000	0.006	-0.220
-230.771	-120.321	0.303	0.051
-229.757	-77.859	-0.344	-0.116
-228.742	-200.000	0.002	-0.054
-227.727	-200.000	-0.052	-0.238
-226.713	-158.042	-0.333	0.019
-225.698	-200.000	0.000	-0.111
-224.684	-113.732	0.142	-0.027
-223.669	-150.213	0.326	0.025
-222.655	-34.717	-0.332	-0.178
-221.640	-72.679	-0.146	0.053
-220.625	268.373	0.194	0.333
-219.611	-60.276	0.103	0.043
-218.596	-200.000	-0.002	0.064
-217.582	-200.000	-0.011	0.140
-216.567	-141.592	-0.283	-0.028
-215.552	-200.000	-0.021	-0.336
-214.538	70.172	0.185	-0.187
-213.523	-8.624	-0.199	0.131
-212.509	26.465	-0.108	0.088
-211.494	-76.629	-0.413	-0.142
-210.479	-73.360	0.416	0.149
-209.465	800.000	0.042	0.138
-208.450	63.900	-0.170	-0.168
-207.436	11.116	0.182	0.137
-206.421	-200.000	0.010	0.148
-205.406	127.528	-0.192	0.240
-204.392	-150.015	0.271	-0.021
-203.377	193.573	-0.216	-0.320
-202.363	34.195	0.013	0.011
-201.348	-67.824	0.413	0.158
-200.333	800.000	0.036	-0.099
-199.319	-133.761	0.072	-0.009
-198.304	-0.086	-0.296	0.207
-197.290	-41.926	0.088	0.044
-196.275	60.202	0.325	-0.315
-195.260	123.065	-0.031	0.038
-194.246	800.000	0.020	0.076
-193.231	800.000	0.062	-0.245
-192.217	-65.369	-0.278	0.109
-191.202	800.000	-0.039	-0.146
-190.187	40.730	0.182	-0.161
-189.173	254.684	0.242	0.406
-188.158	395.863	-0.119	-0.242
-187.144	615.991	-0.098	-0.241
-186.129	29.541	-0.144	-0.120
-185.114	616.057	0.104	0.255
-184.100	242.137	-0.109	-0.179
-183.085	-59.090	-0.285	-0.120
-182.071	106.337	-0.151	-0.175
-181.056	800.000	0.040	0.141
-180.042	50.373	-0.267	0.247
-179.027	16.001	-0.111	0.085
-178.012	184.728	-0.294	-0.427
-176.998	12.640	-0.153	0.116
-175.983	-200.000	-0.008	0.213
-174.969	95.637	-0.103	-0.115
-173.954	47.053	-0.154	0.140
-172.939	-8.225	-0.153	0.101
-171.925	-135.634	-0.220	0.026
-170.910	57.465	-0.277	0.265
-169.896	173.283	0.078	0.109
-168.881	-1.616	-0.158	0.109
-167.866	-63.820	-0.172	0.069
-166.852	800.000	0.021	-0.073
-165.837	-120.494	0.142	-0.024
-164.823	48.873	0.214	0.196
-163.808	-97.815	0.126	-0.032
-162.793	-200.000	0.008	0.118
-161.779	-102.699	-0.084	-0.020
-160.764	595.687	0.151	0.366
-159.750	57.298	0.326	0.312
-158.735	-91.239	-0.001	0.000
-157.720	-43.195	-0.320	0.158
-156.706	32.928	-0.328	0.278
-155.691	-7.134	0.134	0.089
-154.677	800.000	0.036	0.136
-153.662	-60.262	-0.169	0.071
-152.647	-82.617	-0.150	-0.048
-151.633	-59.459	0.377	-0.158
-150.618	37.601	-0.290	0.252
-149.604	388.310	0.136	0.276
-148.589	-137.583	-0.430	0.047
-147.574	82.075	0.214	-0.227
-146.560	12.988	0.250	0.189
-145.545	-100.693	-0.075	-0.018
-144.531	-55.458	-0.130	0.057
-143.516	369.373	0.113	0.224
-142.502	800.000	-0.007	0.024
-141.487	-200.000	-0.027	0.120
-140.472	80.207	-0.178	-0.187
-139.458	-116.529	-0.153	0.028
-138.443	32.999	0.057	-0.049
-137.429	-200.000	0.002	-0.154
-136.414	-184.114	0.241	-0.004
-135.399	-76.576	-0.128	-0.044
-134.385	800.000	0.040	-0.143
-133.370	130.411	0.094	0.118
-132.356	-68.455	0.271	-0.103
-131.341	503.176	0.037	-0.085
-130.326	-7.408	-0.195	-0.129
-129.312	-167.354	0.387	0.015
-128.297	156.086	-0.032	-0.044
-127.283	17.662	0.093	0.072
-126.268	-200.000	-0.052	0.330
-125.253	-112.252	0.119	0.023
-124.239	-17.089	-0.249	0.153
-123.224	-71.732	-0.107	-0.039
-122.210	-121.465	0.095	-0.016
