DTS Sentinel unit serial number:	SN413079Multiplexer serial number:	ORYXHardware model number:	OX4-SRSoftware version number:	ORYX F/W v4.00 Oryx Data Collector v3.7.2.0data status	okinstallation	princeton_trtdifferential loss correction	single-endedforward channel	channel 1reverse channel	N/Adate	2019/09/14time	13:54:35forward acquisition time	60.00reverse acquisition time	0.00gamma	496.2192k internal	0.2294k external	0.2294temperature offset calibration	1.0083default loss term (dB/km)	0.3790temperature slope calibration	1.0000multiplexer offset coefficient	1.0000multiplexer slope coefficient	1.0000fibre end	0.00T internal ref (°C)	37.83T ext. ref 1 (°C)	4.99T ext. ref 2 (°C)	34.60length (m)	temperature (°C)	Stokes	anti-Stokes-747.200	-64.717	-0.152	-0.063
-746.185	-200.000	-0.023	0.155
-745.171	-52.413	-0.013	-0.006
-744.156	-68.620	-0.272	-0.108
-743.142	-57.117	-0.230	0.104
-742.127	-98.307	-0.222	-0.058
-741.112	-118.110	0.236	0.043
-740.098	3.351	-0.091	0.068
-739.083	-112.581	0.289	-0.059
-738.069	56.224	-0.290	0.288
-737.054	-60.765	0.183	-0.079
-736.039	800.000	-0.096	0.313
-735.025	-7.932	0.173	0.119
-734.010	150.657	0.128	-0.178
-732.996	443.041	0.181	-0.406
-731.981	-41.451	0.087	0.046
-730.966	-158.029	-0.190	-0.011
-729.952	-40.971	0.248	0.131
-728.937	-103.324	-0.287	-0.069
-727.923	800.000	-0.048	-0.141
-726.908	-83.564	-0.186	-0.061
-725.894	121.838	0.171	-0.218
-724.879	512.736	0.083	0.198
-723.864	800.000	0.088	-0.383
-722.850	91.371	0.066	0.076
-721.835	75.287	-0.205	-0.221
-720.821	-200.000	-0.033	0.305
-719.806	-150.377	0.156	-0.012
-718.791	260.186	-0.086	-0.153
-717.777	-26.022	0.088	-0.053
-716.762	-14.120	-0.040	-0.027
-715.748	17.512	0.062	0.050
-714.733	147.378	-0.147	0.202
-713.718	77.176	-0.311	-0.337
-712.704	-26.810	0.052	0.031
-711.689	-125.658	-0.168	0.026
-710.675	125.241	-0.257	-0.331
-709.660	-55.818	-0.263	0.120
-708.645	-166.854	-0.413	0.017
-707.631	-200.000	0.037	-0.202
-706.616	800.000	0.048	-0.179
-705.602	-48.771	0.230	-0.113
-704.587	-63.326	0.351	-0.148
-703.572	294.027	-0.098	-0.183
-702.558	-5.680	0.283	-0.198
-701.543	627.221	0.040	0.103
-700.529	800.000	-0.011	0.031
-699.514	25.956	0.121	-0.103
-698.499	4.520	-0.032	-0.024
-697.485	-200.000	-0.015	0.112
-696.470	-170.057	-0.168	-0.006
-695.456	-169.821	-0.391	0.014
-694.441	-69.376	0.371	0.145
-693.426	-90.200	-0.198	-0.059
-692.412	-23.092	-0.250	-0.153
-691.397	647.386	-0.047	0.123
-690.383	19.715	0.258	-0.212
-689.368	245.855	0.119	0.204
-688.354	328.303	-0.053	-0.104
-687.339	-65.551	-0.241	0.099
-686.324	424.274	-0.103	0.226
-685.310	-200.000	0.002	-0.035
-684.295	-153.128	-0.155	0.011
-683.281	20.434	-0.225	-0.186
-682.266	-82.779	-0.158	0.052
-681.251	-37.201	0.148	-0.081
-680.237	-112.802	0.043	-0.009
-679.222	171.159	0.114	-0.167
-678.208	458.522	-0.104	-0.237
-677.193	-140.624	-0.490	0.052
-676.178	-157.010	-0.312	0.019
-675.164	119.713	0.069	-0.087
-674.149	16.496	-0.196	0.158
-673.135	-59.790	-0.075	0.033
-672.120	-200.000	-0.014	-0.075
-671.105	-85.689	-0.253	0.080
-670.091	-200.000	0.006	0.278
-669.076	56.300	0.065	0.064
-668.062	800.000	-0.081	0.263
-667.047	388.762	0.127	-0.269
-666.032	68.482	-0.050	-0.053
-665.018	191.587	-0.093	-0.144
-664.003	-161.056	-0.050	-0.003
-662.989	303.101	-0.065	0.123
-661.974	-31.333	-0.150	-0.086
-660.959	196.465	0.064	0.099
-659.945	-4.221	0.112	-0.079
-658.930	185.514	-0.102	-0.154
-657.916	101.141	-0.181	-0.215
-656.901	-4.990	0.070	0.049
-655.886	520.496	0.134	0.321
-654.872	-119.594	-0.034	0.006
-653.857	-75.969	0.252	-0.091
-652.843	-59.972	-0.255	-0.111
-651.828	225.484	-0.123	0.203
-650.814	-96.333	0.193	-0.052
-649.799	437.413	0.044	0.098
-648.784	-150.632	-0.051	0.004
-647.770	-60.353	-0.166	0.072
-646.755	-3.116	0.430	0.306
-645.741	760.667	-0.070	0.192
-644.726	-78.092	0.268	-0.094
-643.711	-200.000	0.001	-0.284
-642.697	66.757	-0.280	-0.291
-641.682	-146.887	0.376	-0.033
-640.668	689.710	0.126	-0.337
-639.653	-5.851	0.093	-0.065
-638.638	-32.389	0.099	0.056
-637.624	-133.414	0.429	-0.055
-636.609	-38.448	-0.113	0.061
-635.595	8.953	-0.107	0.082
-634.580	28.812	-0.324	-0.280
-633.565	-116.627	0.477	-0.089
-632.551	-33.674	0.027	0.015
-631.536	-8.014	-0.167	-0.115
-630.522	67.583	-0.019	-0.020
-629.507	14.774	-0.197	-0.157
-628.492	137.431	-0.257	-0.343
-627.478	-56.104	-0.133	-0.060
-626.463	115.241	-0.186	-0.231
-625.449	95.396	-0.315	-0.366
-624.434	-66.782	-0.198	-0.080
-623.419	-36.926	-0.298	0.163
-622.405	-200.000	0.058	0.286
-621.390	-14.394	-0.183	-0.120
-620.376	-168.313	-0.176	0.007
-619.361	-200.000	0.049	0.237
-618.346	-200.000	0.031	-0.138
-617.332	-116.695	-0.141	-0.026
-616.317	-47.837	-0.115	0.057
-615.303	70.858	-0.122	0.128
-614.288	800.000	-0.059	-0.217
-613.273	-200.000	-0.043	-0.254
-612.259	-124.730	-0.097	-0.015
-611.244	-37.587	0.185	0.101
-610.230	-200.000	0.051	-0.404
-609.215	361.133	-0.036	0.073
-608.201	76.066	-0.110	0.118
-607.186	475.670	-0.069	-0.159
-606.171	-200.000	-0.082	-0.502
-605.157	638.009	0.094	-0.243
-604.142	-94.203	-0.436	0.121
-603.128	-103.527	0.259	-0.062
-602.113	335.914	0.191	-0.377
-601.098	-200.000	0.019	-0.093
-600.084	-0.637	-0.205	-0.148
-599.069	335.972	-0.070	0.138
-598.055	174.624	-0.079	-0.117
-597.040	800.000	-0.097	-0.329
-596.025	66.732	-0.086	-0.089
-595.011	-35.263	0.285	-0.158
-593.996	-3.443	0.166	-0.117
-592.982	-12.419	0.037	-0.024
-591.967	624.149	0.164	0.420
-590.952	-200.000	-0.019	-0.300
-589.938	127.217	-0.032	-0.041
-588.923	24.443	-0.085	-0.072
-587.909	81.023	0.130	0.143
-586.894	125.709	0.060	-0.077
-585.879	56.809	0.131	0.130
-584.865	800.000	0.101	-0.286
-583.850	-147.502	-0.021	-0.002
-582.836	26.301	-0.238	0.202
-581.821	-200.000	-0.018	0.095
-580.806	-126.278	0.135	0.020
-579.792	-102.801	-0.312	-0.075
-578.777	-21.564	-0.237	-0.147
-577.763	-200.000	-0.028	-0.273
-576.748	411.470	-0.119	-0.257
-575.733	-109.568	0.192	0.041
-574.719	51.901	0.086	-0.083
-573.704	284.432	-0.141	-0.257
-572.690	-47.740	-0.257	0.126
-571.675	160.392	-0.134	0.189
-570.661	203.734	0.097	-0.152
-569.646	119.869	0.066	-0.084
-568.631	-169.654	-0.255	-0.009
-567.617	-102.972	-0.288	0.069
-566.602	-59.467	0.202	-0.088
-565.588	800.000	0.031	-0.096
-564.573	181.343	0.085	0.127
-563.558	-200.000	-0.037	0.166
-562.544	286.046	-0.077	0.142
-561.529	800.000	0.071	0.233
-560.515	-116.806	0.107	0.020
-559.500	-165.124	0.091	0.004
-558.485	183.065	0.284	0.425
-557.471	-90.095	-0.070	-0.021
-556.456	-105.066	-0.267	-0.062
-555.442	-200.000	0.028	-0.288
-554.427	-200.000	-0.013	0.152
-553.412	-200.000	0.003	0.333
-552.398	111.961	-0.112	0.138
-551.383	54.869	-0.049	0.048
-550.369	715.255	-0.061	0.165
-549.354	-200.000	-0.034	-0.254
-548.339	281.824	-0.058	-0.106
-547.325	-200.000	-0.026	-0.213
-546.310	404.265	0.017	-0.037
-545.296	150.691	-0.066	-0.091
-544.281	-32.587	0.109	0.062
-543.266	800.000	-0.119	0.379
-542.252	80.527	0.132	0.144
-541.237	-200.000	-0.004	-0.019
-540.223	29.464	0.249	0.214
-539.208	212.345	-0.190	-0.303
-538.193	-200.000	-0.052	-0.335
-537.179	-164.295	-0.123	0.006
-536.164	-200.000	0.008	0.342
-535.150	800.000	-0.003	-0.012
-534.135	17.810	0.231	0.186
-533.121	800.000	-0.057	0.168
-532.106	-74.767	0.551	0.201
-531.091	-136.792	0.263	0.031
-530.077	116.396	0.273	-0.339
-529.062	-200.000	-0.042	0.216
-528.048	-98.999	-0.149	-0.038
-527.033	532.867	-0.190	0.455
-526.018	420.699	0.082	-0.179
-525.004	389.136	0.049	0.104
-523.989	-144.862	-0.250	-0.023
-522.975	136.105	-0.133	0.176
-521.960	-200.000	0.012	-0.206
-520.945	-200.000	-0.015	-0.093
-519.931	82.080	0.226	-0.248
-518.916	38.542	-0.197	0.178
-517.902	92.482	0.141	-0.161
-516.887	800.000	0.071	-0.253
-515.872	-200.000	-0.030	-0.169
-514.858	-128.888	-0.148	0.021
-513.843	-200.000	-0.000	-0.033
-512.829	204.385	0.092	-0.145
-511.814	-200.000	0.003	0.170
-510.799	779.675	-0.019	-0.053
-509.785	126.777	-0.126	0.161
-508.770	-142.029	0.281	0.028
-507.756	800.000	-0.083	-0.352
-506.741	52.114	-0.146	-0.141
-505.726	-82.449	-0.417	-0.137
-504.712	110.770	-0.194	-0.237
-503.697	-106.466	-0.129	-0.029
-502.683	-172.955	0.234	-0.007
-501.668	-200.000	-0.065	0.385
-500.653	-200.000	0.021	-0.137
-499.639	-104.236	0.254	0.060
-498.624	31.146	0.151	0.131
-497.610	-12.360	-0.189	-0.125
-496.595	74.133	-0.217	0.231
-495.581	482.015	-0.130	-0.299
-494.566	800.000	0.031	0.136
-493.551	-200.000	-0.049	0.373
-492.537	16.580	0.228	-0.182
-491.522	-200.000	-0.006	-0.075
-490.508	-78.498	0.366	-0.127
-489.493	229.478	-0.085	-0.141
-488.478	-36.374	-0.045	-0.024
-487.464	359.413	0.101	0.204
-486.449	800.000	0.055	-0.158
-485.435	-200.000	0.063	-0.313
-484.420	338.191	0.054	-0.106
-483.405	-55.085	0.079	0.036
-482.391	800.000	-0.014	0.044
-481.376	800.000	0.091	0.274
-480.362	7.247	-0.037	-0.028
-479.347	-49.417	-0.169	-0.082
-478.332	800.000	0.023	0.100
-477.318	-46.649	-0.438	-0.217
-476.303	-200.000	0.003	0.515
-475.289	-12.329	0.066	-0.044
-474.274	800.000	0.073	0.217
-473.259	608.174	-0.106	-0.267
-472.245	-119.457	0.116	0.020
-471.230	-16.640	-0.034	0.022
-470.216	139.138	0.365	0.486
-469.201	-200.000	-0.012	0.226
-468.186	134.773	0.170	0.223
-467.172	-200.000	0.037	0.224
-466.157	505.574	-0.058	-0.135
-465.143	232.227	0.087	0.144
-464.128	-73.318	-0.338	-0.125
-463.113	69.574	0.281	-0.293
-462.099	10.943	-0.057	0.044
-461.084	800.000	0.045	0.161
-460.070	-48.364	-0.190	-0.093
-459.055	208.805	0.161	0.255
-458.040	-127.654	0.356	-0.052
-457.026	-132.992	0.117	-0.015
-456.011	-200.000	0.011	-0.066
-454.997	-52.543	-0.040	-0.019
-453.982	14.580	0.108	-0.085
-452.968	-200.000	-0.034	0.304
-451.953	200.983	0.103	0.161
-450.938	128.813	-0.130	0.168
-449.924	80.116	0.099	0.107
-448.909	-133.818	-0.269	-0.034
-447.895	-200.000	0.166	0.001
-446.880	-0.147	0.120	0.086
-445.865	51.604	0.217	0.208
-444.851	43.596	0.293	-0.271
-443.836	-73.853	0.259	-0.095
-442.822	138.393	-0.101	-0.134
-441.807	-200.000	-0.000	-0.128
-440.792	-26.521	0.229	0.136
-439.778	-9.534	0.187	-0.126
-438.763	-200.000	-0.018	-0.093
-437.749	21.432	-0.054	0.044
-436.734	1.131	-0.306	-0.222
-435.719	-70.133	-0.074	0.029
-434.705	-200.000	-0.104	0.480
-433.690	-200.000	-0.014	0.106
-432.676	-58.233	-0.417	-0.183
-431.661	-200.000	0.073	-0.328
-430.646	381.167	-0.041	0.085
-429.632	1.996	-0.109	0.079
-428.617	-107.271	-0.182	0.041
-427.603	393.676	-0.144	-0.303
-426.588	-42.957	-0.133	-0.068
-425.573	122.423	0.025	-0.031
-424.559	36.958	-0.129	0.116
-423.544	26.526	0.166	-0.140
-422.530	-98.501	-0.234	0.060
-421.515	149.776	0.037	0.050
-420.500	326.186	0.101	0.195
-419.486	-144.010	-0.122	0.012
-418.471	-72.084	0.304	0.114
-417.457	24.157	-0.256	0.213
-416.442	-200.000	-0.022	0.266
-415.428	-101.093	0.196	0.048
-414.413	-73.162	-0.366	0.135
-413.398	82.513	-0.177	0.194
-412.384	-80.159	-0.162	-0.055
-411.369	-117.872	-0.150	-0.027
-410.355	784.728	0.035	0.096
-409.340	69.446	-0.169	0.175
-408.325	-125.570	-0.160	0.024
-407.311	-106.597	0.249	-0.056
-406.296	-200.000	0.007	0.553
-405.282	-42.803	-0.268	-0.137
-404.267	73.953	-0.117	0.124
-403.252	86.476	-0.111	-0.123
-402.238	800.000	0.030	-0.104
-401.223	663.225	-0.154	0.400
-400.209	19.981	0.252	0.205
-399.194	-200.000	-0.024	-0.390
-398.179	-200.000	-0.030	-0.249
-397.165	-22.142	-0.327	-0.200
-396.150	-71.885	0.283	0.106
-395.136	677.259	-0.102	0.267
-394.121	3.425	-0.086	-0.063
-393.106	244.888	0.192	-0.325
-392.092	800.000	0.083	0.238
-391.077	800.000	0.046	0.183
-390.063	-5.600	-0.067	0.047
-389.048	121.456	-0.102	-0.128
-388.033	70.524	0.211	-0.220
-387.019	21.327	0.159	-0.130
-386.004	223.877	0.036	-0.059
-384.990	-115.331	-0.283	-0.054
-383.975	-99.041	-0.434	-0.111
-382.960	-96.439	-0.082	-0.022
-381.946	720.616	-0.082	0.219
-380.931	-14.071	-0.104	0.068
-379.917	-63.831	-0.035	-0.015
-378.902	617.888	0.104	-0.264
-377.888	511.707	0.026	-0.061
-376.873	-7.981	-0.119	-0.081
-375.858	103.572	-0.175	0.207
-374.844	-27.223	-0.227	0.133
-373.829	-86.957	-0.111	-0.034
-372.815	9.186	-0.168	0.128
-371.800	357.605	-0.031	0.061
-370.785	-200.000	0.031	-0.195
-369.771	-200.000	-0.001	0.037
-368.756	-109.676	0.182	0.039
-367.742	-78.916	-0.191	0.066
-366.727	193.123	0.038	-0.057
-365.712	-61.203	-0.157	-0.067
-364.698	-200.000	-0.018	-0.213
-363.683	-200.000	-0.000	0.216
-362.669	31.900	-0.267	0.232
-361.654	149.238	-0.239	0.326
-360.639	-200.000	-0.043	0.260
-359.625	539.327	-0.136	0.327
-358.610	-200.000	0.035	0.211
-357.596	214.509	-0.154	0.246
-356.581	-60.687	0.194	-0.083
-355.566	143.772	0.155	0.208
-354.552	-120.601	0.201	0.034
-353.537	-20.661	-0.259	-0.160
-352.523	676.730	0.056	-0.147
-351.508	-3.946	-0.165	0.115
-350.493	-148.624	0.422	-0.035
-349.479	-161.024	-0.115	0.006
-348.464	-200.000	-0.005	0.600
-347.450	557.262	-0.029	0.070
-346.435	-186.068	-0.237	0.004
-345.420	365.863	0.188	-0.381
-344.406	-29.649	-0.284	0.163
-343.391	-63.941	-0.428	0.176
-342.377	-171.419	0.095	-0.003
-341.362	278.975	-0.187	-0.336
-340.348	-112.764	0.166	0.033
-339.333	274.850	0.030	0.054
-338.318	-103.705	-0.296	-0.070
-337.304	78.664	0.254	-0.273
-336.289	431.244	-0.034	-0.073
-335.275	69.384	-0.017	0.017
-334.260	800.000	0.083	0.362
-333.245	-15.851	0.245	0.157
-332.231	-66.008	0.250	0.100
-331.216	566.157	0.053	-0.131
-330.202	-96.779	-0.059	0.016
-329.187	800.000	-0.041	-0.115
-328.172	-6.302	-0.382	-0.262
-327.158	-3.135	0.334	-0.234
-326.143	-92.975	-0.077	0.021
-325.129	15.672	-0.339	0.268
-324.114	-200.000	-0.029	0.157
-323.099	800.000	0.030	0.090
-322.085	103.489	-0.143	0.168
-321.070	15.831	-0.149	0.118
-320.056	-38.050	0.226	-0.120
-319.041	-200.000	0.009	-0.185
-318.026	-37.795	0.159	-0.085
-317.012	57.290	0.099	0.097
-315.997	-60.501	0.134	0.057
-314.983	338.835	0.044	-0.085
-313.968	-7.203	-0.116	-0.079
-312.953	-59.545	0.239	0.103
-311.939	-200.000	-0.043	-0.291
-310.924	254.530	-0.069	-0.118
-309.910	73.235	0.239	-0.251
-308.895	-200.000	-0.023	0.250
-307.880	-97.704	-0.208	-0.054
-306.866	800.000	-0.055	0.161
-305.851	41.782	0.238	-0.217
-304.837	-39.786	-0.042	-0.022
-303.822	-65.220	0.076	0.031
-302.807	102.784	0.128	-0.150
-301.793	159.906	0.062	0.087
-300.778	-134.722	-0.144	0.018
-299.764	-97.367	-0.134	0.035
-298.749	37.969	-0.376	-0.336
-297.735	-23.569	-0.251	-0.152
-296.720	84.045	0.144	0.158
-295.705	148.625	0.207	-0.281
-294.691	541.805	-0.069	-0.165
-293.676	263.239	0.133	0.232
-292.662	-200.000	0.007	-0.042
-291.647	-104.593	0.221	-0.051
-290.632	-200.000	0.092	0.411
-289.618	-200.000	0.002	0.418
-288.603	93.320	0.130	-0.147
-287.589	-158.239	-0.412	0.024
-286.574	112.034	-0.092	0.112
-285.559	-117.411	-0.035	0.006
-284.545	-110.032	0.120	-0.025
-283.530	-104.831	0.182	-0.042
-282.516	124.819	0.169	-0.214
-281.501	800.000	0.080	-0.288
-280.486	-200.000	-0.021	-0.146
-279.472	72.838	0.291	0.305
-278.457	-180.353	0.157	-0.003
-277.443	-200.000	0.000	0.023
-276.428	-200.000	0.005	0.183
-275.413	192.833	0.072	0.109
-274.399	-35.663	0.107	-0.058
-273.384	-200.000	-0.044	-0.198
-272.370	99.846	-0.209	0.243
-271.355	27.904	-0.239	0.202
-270.340	163.215	0.129	0.181
-269.326	90.142	0.080	0.090
-268.311	171.628	0.096	-0.139
-267.297	195.595	0.067	0.102
-266.282	4.390	-0.052	0.038
-265.267	330.863	0.035	0.068
-264.253	57.732	0.219	0.215
-263.238	-125.808	-0.117	0.018
-262.224	-139.266	-0.318	-0.034
-261.209	-101.142	-0.320	0.079
-260.195	471.110	0.193	-0.436
-259.180	-179.369	0.541	0.012
-258.165	-50.437	0.032	0.015
-257.151	-200.000	-0.014	-0.156
-256.136	-200.000	-0.006	0.046
-255.122	-200.000	-0.004	0.171
-254.107	254.038	0.152	0.260
-253.092	-200.000	0.055	0.318
-252.078	800.000	0.027	-0.116
-251.063	2.246	0.156	0.113
-250.049	-6.156	0.202	0.138
-249.034	-118.475	-0.127	0.023
-248.019	24.578	-0.135	-0.112
-247.005	-15.082	-0.156	-0.100
-245.990	22.794	0.220	-0.181
-244.976	800.000	0.048	0.138
-243.961	-200.000	0.003	0.126
-242.946	106.866	0.143	0.171
-241.932	178.898	-0.146	-0.214
-240.917	-80.834	-0.304	-0.101
-239.903	-128.438	0.056	0.008
-238.888	124.864	0.150	-0.189
-237.873	53.448	0.108	-0.104
-236.859	-159.639	0.443	-0.025
-235.844	422.591	0.091	0.196
-234.830	-113.645	0.363	0.071
-233.815	86.317	0.182	-0.201
-232.800	-200.000	0.031	0.257
-231.786	-142.177	0.180	-0.018
-230.771	-74.910	-0.085	-0.031
-229.757	35.466	0.240	0.211
-228.742	92.861	-0.090	-0.102
-227.727	185.525	0.065	-0.097
-226.713	294.829	-0.038	0.070
-225.698	-200.000	0.005	0.141
-224.684	-200.000	-0.018	0.145
-223.669	-200.000	-0.022	0.148
-222.655	-23.433	-0.116	0.070
-221.640	-140.460	0.050	0.005
-220.625	297.901	0.085	0.156
-219.611	-200.000	0.015	0.100
-218.596	-73.125	-0.111	-0.041
-217.582	-200.000	0.031	-0.228
-216.567	328.880	-0.133	-0.256
-215.552	-49.521	-0.142	-0.068
-214.538	37.718	0.167	0.148
-213.523	15.520	0.094	0.074
-212.509	-200.000	-0.040	0.209
-211.494	-200.000	0.001	-0.249
-210.479	98.556	-0.090	0.104
-209.465	308.681	0.234	-0.439
-208.450	800.000	0.090	-0.328
-207.436	226.065	-0.100	-0.162
-206.421	441.893	0.093	-0.204
-205.406	319.727	0.042	-0.079
-204.392	-2.016	-0.278	-0.196
-203.377	800.000	-0.083	-0.232
-202.363	283.833	-0.207	0.372
-201.348	-200.000	0.025	-0.126
-200.333	126.201	-0.240	0.304
-199.319	-44.335	0.056	-0.028
-198.304	-182.355	-0.163	-0.003
-197.290	-167.903	-0.087	-0.003
-196.275	800.000	0.032	-0.092
-195.260	-154.541	0.054	-0.004
-194.246	-51.141	0.309	0.145
-193.231	496.595	0.097	-0.224
-192.217	6.134	-0.134	0.100
-191.202	-120.076	0.239	0.041
-190.187	-200.000	-0.015	0.214
-189.173	110.967	-0.251	0.302
-188.158	60.933	0.108	-0.107
-187.144	21.361	0.008	0.007
-186.129	-38.313	0.141	0.074
-185.114	-200.000	-0.001	0.075
-184.100	800.000	0.054	0.220
-183.085	-200.000	0.013	-0.264
-182.071	126.908	0.077	-0.097
-181.056	-188.746	0.253	0.003
-180.042	393.779	0.097	-0.202
-179.027	-62.118	0.181	0.076
-178.012	800.000	0.055	0.219
-176.998	31.861	0.133	0.115
-175.983	-171.622	-0.115	0.004
-174.969	3.029	-0.097	0.071
-173.954	-200.000	0.019	-0.248
-172.939	39.052	0.316	0.282
-171.925	-133.229	0.119	-0.015
-170.910	800.000	0.066	-0.247
-169.896	107.787	0.201	-0.240
-168.881	51.363	-0.114	0.109
-167.866	230.076	-0.126	-0.205
-166.852	-119.761	-0.030	-0.005
-165.837	62.969	0.130	-0.131
-164.823	-22.986	0.043	0.026
-163.808	-200.000	-0.001	0.038
-162.793	67.761	-0.151	0.154
-161.779	-66.066	0.157	0.062
-160.764	-117.488	0.507	-0.092
-159.750	-119.782	0.174	-0.030
-158.735	-146.145	-0.132	-0.012
-157.720	330.259	-0.149	-0.287
-156.706	-66.136	-0.149	-0.059
-155.691	-112.917	0.178	-0.035
-154.677	-20.084	-0.347	0.214
-153.662	-171.748	0.382	-0.013
-152.647	50.297	0.295	-0.278
-151.633	800.000	-0.054	0.210
-150.618	-200.000	-0.038	-0.174
-149.604	14.439	0.223	-0.173
-148.589	-55.587	-0.191	-0.086
-147.574	-200.000	0.003	0.092
-146.560	543.022	-0.035	-0.085
-145.545	248.310	0.143	0.242
-144.531	-76.235	0.183	0.064
-143.516	-133.713	-0.209	-0.026
-142.502	-83.119	-0.118	-0.038
-141.487	388.305	0.091	-0.189
-140.472	-200.000	-0.011	0.068
-139.458	25.053	0.231	0.192
-138.443	800.000	0.077	-0.320
-137.429	800.000	-0.109	-0.310
-136.414	196.791	0.094	-0.142
-135.399	-200.000	0.052	0.402
-134.385	539.824	0.180	-0.428
-133.370	-32.889	0.050	0.028
-132.356	800.000	-0.101	-0.413
-131.341	-136.134	0.191	0.022
-130.326	109.835	-0.047	-0.056
-129.312	180.269	-0.125	-0.183
-128.297	-123.106	-0.246	0.039
-127.283	-114.546	0.281	-0.054
-126.268	-200.000	0.029	-0.157
-125.253	211.183	-0.079	-0.125
-124.239	-18.922	-0.179	0.111
-123.224	-7.634	0.218	0.147
-122.210	-200.000	-0.012	-0.114
