DTS Sentinel unit serial number:	SN413079Multiplexer serial number:	ORYXHardware model number:	OX4-SRSoftware version number:	ORYX F/W v4.00 Oryx Data Collector v3.7.2.0data status	okinstallation	princeton_trtdifferential loss correction	single-endedforward channel	channel 1reverse channel	N/Adate	2019/09/18time	17:34:35forward acquisition time	60.00reverse acquisition time	0.00gamma	496.2192k internal	0.2290k external	0.2290temperature offset calibration	1.0002default loss term (dB/km)	0.3790temperature slope calibration	1.0000multiplexer offset coefficient	1.0000multiplexer slope coefficient	1.0000fibre end	0.00T internal ref (°C)	40.19T ext. ref 1 (°C)	0.90T ext. ref 2 (°C)	35.87length (m)	temperature (°C)	Stokes	anti-Stokes-747.200	-200.000	-0.011	-0.066
-746.185	60.513	-0.051	0.052
-745.171	414.308	0.136	-0.297
-744.156	800.000	-0.071	0.262
-743.142	231.367	-0.158	0.266
-742.127	-200.000	0.027	0.186
-741.112	556.769	0.035	0.087
-740.098	-46.142	0.270	0.136
-739.083	-200.000	0.013	0.130
-738.069	-200.000	0.035	0.493
-737.054	524.658	-0.185	0.445
-736.039	-183.937	-0.304	-0.005
-735.025	-75.919	-0.200	-0.072
-734.010	532.835	0.002	-0.006
-732.996	-5.616	-0.397	0.279
-731.981	-1.793	0.367	0.265
-730.966	-36.097	-0.292	-0.161
-729.952	244.062	-0.139	-0.239
-728.937	-98.224	0.289	-0.076
-727.923	-200.000	-0.008	-0.038
-726.908	-75.889	-0.242	-0.088
-725.894	-188.660	-0.302	0.004
-724.879	-126.663	-0.304	-0.046
-723.864	-20.842	-0.220	-0.138
-722.850	-150.547	-0.199	0.016
-721.835	-200.000	-0.008	0.099
-720.821	-113.661	0.114	-0.023
-719.806	649.965	0.063	0.164
-718.791	-11.648	-0.235	-0.158
-717.777	25.891	0.049	-0.041
-716.762	256.502	0.196	0.344
-715.748	-136.593	0.275	0.033
-714.733	-61.047	0.191	0.083
-713.718	-92.700	-0.205	-0.059
-712.704	136.685	-0.083	0.111
-711.689	257.893	-0.134	-0.236
-710.675	43.749	0.108	0.101
-709.660	194.986	0.116	0.180
-708.645	800.000	0.093	0.275
-707.631	209.248	-0.142	-0.227
-706.616	374.753	0.208	0.433
-705.602	-200.000	-0.001	0.281
-704.587	-200.000	-0.012	0.126
-703.572	-96.431	-0.188	0.051
-702.558	-129.553	0.375	0.053
-701.543	81.999	-0.132	0.146
-700.529	103.178	0.432	0.518
-699.514	16.154	0.102	0.083
-698.499	-121.430	0.252	-0.043
-697.485	431.774	0.074	0.164
-696.470	-200.000	0.006	-0.729
-695.456	-44.011	-0.159	0.082
-694.441	292.315	-0.096	0.178
-693.426	525.528	0.182	0.437
-692.412	-132.012	0.022	-0.003
-691.397	800.000	0.055	-0.205
-690.383	-104.325	0.190	0.045
-689.368	-136.089	-0.094	-0.011
-688.354	-143.955	-0.191	-0.018
-687.339	-153.503	0.430	-0.030
-686.324	800.000	-0.048	-0.145
-685.310	-13.665	-0.171	0.113
-684.295	-200.000	0.016	0.182
-683.281	-75.129	-0.018	-0.006
-682.266	-200.000	-0.009	0.059
-681.251	-0.003	-0.077	-0.056
-680.237	7.918	-0.198	0.152
-679.222	-2.772	0.138	-0.098
-678.208	-200.000	-0.019	-0.090
-677.193	-103.024	0.229	0.055
-676.178	-15.180	0.028	0.018
-675.164	71.582	-0.123	-0.130
-674.149	57.600	-0.201	-0.201
-673.135	-200.000	-0.035	0.208
-672.120	1.287	0.082	0.060
-671.105	-67.272	0.115	0.046
-670.091	-57.664	0.295	-0.132
-669.076	129.503	-0.215	0.281
-668.062	180.324	0.023	0.035
-667.047	-64.879	0.109	0.045
-666.032	3.767	-0.129	-0.096
-665.018	800.000	-0.072	-0.306
-664.003	-100.368	-0.215	-0.054
-662.989	-200.000	-0.002	0.361
-661.974	-154.578	-0.091	-0.006
-660.959	800.000	0.029	0.091
-659.945	-117.890	-0.146	0.027
-658.930	-106.263	-0.138	-0.032
-657.916	-200.000	-0.019	-0.380
-656.901	765.614	0.122	0.339
-655.886	-1.580	0.135	-0.097
-654.872	293.106	-0.031	-0.058
-653.857	-156.933	-0.199	-0.012
-652.843	-186.557	-0.085	-0.001
-651.828	-179.239	-0.287	-0.007
-650.814	800.000	-0.036	-0.114
-649.799	-19.925	0.126	0.080
-648.784	800.000	-0.025	0.085
-647.770	-11.655	-0.144	-0.097
-646.755	-200.000	-0.004	-0.038
-645.741	-200.000	-0.021	0.097
-644.726	73.873	0.188	-0.201
-643.711	500.154	0.142	-0.335
-642.697	-9.776	0.236	0.160
-641.682	188.519	-0.190	0.289
-640.668	-200.000	0.017	-0.157
-639.653	-31.404	-0.050	-0.029
-638.638	800.000	0.088	-0.261
-637.624	-66.116	0.209	0.085
-636.609	554.292	-0.036	-0.088
-635.595	323.008	0.144	-0.279
-634.580	13.107	-0.129	-0.102
-633.565	415.365	-0.105	-0.229
-632.551	-126.361	-0.128	0.020
-631.536	-200.000	0.040	-0.226
-630.522	800.000	0.063	-0.204
-629.507	49.333	0.114	-0.110
-628.492	-83.395	0.189	-0.062
-627.478	-64.949	-0.144	0.059
-626.463	-126.880	-0.189	0.028
-625.449	1.805	0.158	-0.116
-624.434	800.000	0.005	-0.022
-623.419	-71.373	-0.293	0.112
-622.405	172.086	0.130	0.190
-621.390	609.982	-0.119	0.303
-620.376	9.872	0.213	-0.164
-619.361	-200.000	0.027	-0.150
-618.346	-200.000	0.025	0.145
-617.332	-11.329	-0.192	0.129
-616.317	247.453	-0.152	-0.262
-615.303	7.485	-0.159	0.122
-614.288	-200.000	0.026	0.149
-613.273	-124.712	-0.135	-0.021
-612.259	37.476	0.124	-0.112
-611.244	-27.744	-0.070	0.041
-610.230	385.665	-0.274	0.576
-609.215	-137.373	-0.229	-0.026
-608.201	-33.926	-0.184	-0.103
-607.186	24.817	-0.111	0.094
-606.171	-200.000	-0.051	0.252
-605.157	46.565	-0.142	-0.134
-604.142	800.000	-0.060	-0.228
-603.128	-13.348	-0.194	-0.128
-602.113	800.000	-0.058	-0.184
-601.098	-39.125	-0.155	0.083
-600.084	32.818	0.138	0.121
-599.069	315.210	0.122	-0.235
-598.055	84.153	-0.075	0.083
-597.040	-2.532	0.146	0.104
-596.025	-171.329	0.077	0.003
-595.011	-200.000	-0.009	-0.125
-593.996	182.747	-0.254	0.381
-592.982	-200.000	0.070	-0.326
-591.967	-59.768	0.186	-0.081
-590.952	225.252	-0.308	0.507
-589.938	-19.003	-0.197	-0.125
-588.923	-7.075	-0.172	-0.119
-587.909	449.095	-0.099	0.223
-586.894	199.107	-0.184	0.287
-585.879	-200.000	0.019	-0.138
-584.865	31.251	0.206	0.180
-583.850	-70.355	-0.161	0.062
-582.836	-28.295	0.348	-0.205
-581.821	66.520	-0.170	0.176
-580.806	-176.654	-0.109	0.003
-579.792	25.068	0.185	-0.156
-578.777	109.171	-0.089	-0.108
-577.763	162.734	0.160	-0.228
-576.748	-200.000	-0.041	-0.301
-575.733	14.994	-0.111	-0.088
-574.719	-200.000	0.003	-0.122
-573.704	-200.000	0.042	-0.252
-572.690	-76.821	-0.278	-0.099
-571.675	-33.527	-0.282	-0.158
-570.661	-200.000	-0.039	-0.231
-569.646	432.635	0.018	-0.039
-568.631	-73.986	-0.298	0.110
-567.617	19.774	0.145	-0.118
-566.602	-200.000	-0.000	0.309
-565.588	52.328	-0.228	-0.221
-564.573	800.000	-0.046	-0.200
-563.558	-1.593	-0.201	-0.144
-562.544	200.182	0.016	0.025
-561.529	-89.943	-0.121	-0.036
-560.515	110.475	0.017	0.021
-559.500	21.316	0.078	-0.064
-558.485	-81.140	0.173	0.058
-557.471	800.000	0.112	-0.396
-556.456	550.641	0.127	0.310
-555.442	-84.624	0.156	-0.050
-554.427	-178.619	0.392	-0.009
-553.412	-200.000	0.029	0.142
-552.398	96.979	-0.140	0.163
-551.383	800.000	-0.019	-0.063
-550.369	1.685	-0.229	-0.168
-549.354	800.000	0.031	-0.097
-548.339	693.331	-0.157	-0.418
-547.325	-200.000	0.048	-0.359
-546.310	68.561	-0.067	-0.069
-545.296	-88.739	0.108	0.033
-544.281	-200.000	-0.034	0.160
-543.266	-10.381	0.097	-0.065
-542.252	-200.000	-0.018	-0.223
-541.237	-9.306	0.200	-0.136
-540.223	-200.000	0.039	0.185
-539.208	800.000	0.037	0.109
-538.193	165.256	0.134	-0.192
-537.179	170.822	-0.121	-0.176
-536.164	-200.000	0.035	0.163
-535.150	242.403	-0.085	-0.144
-534.135	-68.473	0.250	-0.099
-533.121	43.261	0.117	0.108
-532.106	-62.267	0.135	-0.057
-531.091	-125.279	0.227	0.035
-530.077	266.466	-0.111	-0.197
-529.062	800.000	-0.081	-0.228
-528.048	125.660	0.147	-0.188
-527.033	800.000	-0.016	-0.067
-526.018	99.604	-0.210	-0.247
-525.004	800.000	-0.148	-0.525
-523.989	125.699	-0.161	-0.207
-522.975	100.190	-0.200	-0.235
-521.960	193.121	0.127	0.195
-520.945	779.362	0.057	-0.159
-519.931	-25.329	-0.185	-0.111
-518.916	-40.523	-0.052	-0.028
-517.902	-0.148	-0.170	0.123
-516.887	125.973	0.074	-0.095
-515.872	-200.000	0.019	0.144
-514.858	50.783	-0.231	0.223
-513.843	-66.807	0.183	0.074
-512.829	555.842	0.074	0.180
-511.814	-137.363	0.156	0.018
-510.799	800.000	0.064	0.222
-509.785	-148.934	-0.165	0.014
-508.770	-148.155	0.213	-0.018
-507.756	-136.753	0.526	-0.062
-506.741	21.630	0.185	-0.153
-505.726	25.658	-0.258	-0.218
-504.712	800.000	-0.097	-0.409
-503.697	160.467	0.094	-0.133
-502.683	-5.976	0.049	-0.034
-501.668	67.721	-0.174	0.180
-500.653	-200.000	0.069	-0.437
-499.639	105.431	0.306	-0.367
-498.624	-190.140	0.167	0.002
-497.610	114.016	-0.054	0.067
-496.595	-131.877	0.128	-0.017
-495.581	-10.245	-0.261	-0.176
-494.566	27.167	-0.099	-0.085
-493.551	-35.113	-0.195	-0.108
-492.537	-200.000	0.076	-0.394
-491.522	18.266	-0.124	0.100
-490.508	102.834	-0.115	-0.136
-489.493	423.761	0.114	-0.250
-488.478	-89.020	-0.132	0.040
-487.464	-151.302	-0.051	-0.004
-486.449	525.494	-0.124	-0.296
-485.435	-130.343	-0.161	-0.022
-484.420	-68.242	0.137	0.054
-483.405	-155.038	-0.156	0.010
-482.391	-48.709	0.200	0.097
-481.376	684.090	-0.080	0.211
-480.362	-182.987	-0.085	-0.002
-479.347	158.911	-0.102	0.143
-478.332	-200.000	-0.004	-0.060
-477.318	-200.000	-0.004	0.073
-476.303	-153.848	-0.133	-0.009
-475.289	135.942	0.139	0.184
-474.274	131.289	-0.114	0.148
-473.259	-57.921	0.251	-0.111
-472.245	-95.333	0.067	-0.018
-471.230	87.840	0.049	0.055
-470.216	141.865	-0.096	-0.129
-469.201	-200.000	0.001	-0.021
-468.186	66.323	-0.200	-0.206
-467.172	800.000	0.036	-0.106
-466.157	194.503	-0.090	0.138
-465.143	526.283	-0.042	0.099
-464.128	126.708	0.204	0.261
-463.113	734.193	0.143	0.387
-462.099	800.000	-0.105	-0.404
-461.084	-87.577	-0.278	-0.085
-460.070	-200.000	0.029	-0.208
-459.055	89.071	-0.347	0.391
-458.040	-173.206	-0.418	-0.013
-457.026	749.375	0.109	-0.298
-456.011	800.000	-0.105	-0.416
-454.997	237.982	0.103	0.172
-453.982	155.867	-0.067	0.093
-452.968	79.674	0.115	0.125
-451.953	45.708	0.077	-0.072
-450.938	800.000	-0.145	-0.511
-449.924	11.719	0.171	0.133
-448.909	-99.819	0.307	-0.078
-447.895	-32.775	0.061	0.034
-446.880	800.000	-0.086	-0.259
-445.865	283.035	0.041	-0.075
-444.851	27.758	0.161	-0.137
-443.836	-34.098	-0.327	0.182
-442.822	-200.000	0.027	-0.187
-441.807	-13.421	-0.163	-0.107
-440.792	-44.843	0.172	0.087
-439.778	413.576	0.133	-0.286
-438.763	105.608	0.118	-0.141
-437.749	-62.881	0.172	-0.072
-436.734	134.384	0.196	-0.258
-435.719	178.495	0.191	0.282
-434.705	-61.864	0.232	-0.098
-433.690	-149.001	0.216	0.018
-432.676	-82.731	0.024	0.008
-431.661	-200.000	-0.076	0.340
-430.646	166.764	0.118	0.169
-429.632	138.682	0.087	-0.115
-428.617	-53.970	-0.332	-0.153
-427.603	65.975	-0.060	-0.062
-426.588	-95.796	0.118	0.032
-425.573	184.037	-0.163	0.243
-424.559	-19.252	-0.252	-0.158
-423.544	800.000	0.094	0.316
-422.530	-17.366	-0.044	0.028
-421.515	-92.055	-0.141	-0.040
-420.500	-87.272	0.276	-0.085
-419.486	-83.558	0.159	-0.051
-418.471	-200.000	-0.003	0.270
-417.457	-7.049	0.240	0.165
-416.442	408.950	-0.026	-0.055
-415.428	-79.176	0.333	0.114
-414.413	352.490	0.079	0.159
-413.398	-55.067	-0.213	-0.097
-412.384	800.000	0.008	0.027
-411.369	72.396	-0.090	-0.095
-410.355	800.000	-0.049	0.167
-409.340	-200.000	0.107	0.485
-408.325	-92.084	-0.249	0.071
-407.311	-175.145	0.157	0.004
-406.296	-63.157	-0.507	-0.211
-405.282	101.170	-0.081	0.095
-404.267	13.945	0.087	0.068
-403.252	-137.288	0.166	-0.019
-402.238	-115.667	-0.478	0.091
-401.223	-63.662	0.113	0.047
-400.209	386.109	0.059	0.124
-399.194	-200.000	-0.050	-0.235
-398.179	10.876	0.282	0.217
-397.165	-44.008	0.210	-0.106
-396.150	93.160	-0.225	-0.257
-395.136	800.000	-0.027	-0.094
-394.121	46.649	-0.033	-0.031
-393.106	-40.417	0.527	0.277
-392.092	-200.000	0.010	0.225
-391.077	-18.046	0.066	0.042
-390.063	-200.000	-0.036	0.194
-389.048	57.382	-0.165	0.163
-388.033	-200.000	0.020	0.310
-387.019	-5.760	0.172	-0.119
-386.004	330.802	0.109	0.212
-384.990	413.928	0.109	0.234
-383.975	-150.733	0.131	-0.010
-382.960	-12.239	0.116	0.077
-381.946	-155.993	-0.151	0.010
-380.931	265.994	-0.106	-0.186
-379.917	390.756	-0.039	-0.082
-378.902	-10.632	-0.253	-0.169
-377.888	187.278	-0.072	0.109
-376.873	394.544	0.141	-0.297
-375.858	-132.824	-0.203	-0.026
-374.844	-200.000	-0.046	0.310
-373.829	-16.961	-0.128	-0.082
-372.815	-200.000	-0.039	-0.311
-371.800	85.788	-0.085	0.095
-370.785	-200.000	-0.055	-0.489
-369.771	218.970	-0.041	-0.067
-368.756	183.073	0.168	0.250
-367.742	-54.977	-0.273	0.124
-366.727	585.673	-0.106	0.263
-365.712	-165.570	-0.244	0.011
-364.698	471.011	-0.146	0.331
-363.683	279.518	-0.133	0.240
-362.669	-127.048	-0.406	0.060
-361.654	420.123	-0.085	0.184
-360.639	371.259	0.171	-0.349
-359.625	-200.000	0.015	0.116
-358.610	502.670	0.111	0.259
-357.596	-157.453	-0.110	-0.007
-356.581	604.502	0.064	0.160
-355.566	-49.166	-0.238	0.115
-354.552	310.366	0.087	0.164
-353.537	-62.333	-0.180	0.075
-352.523	-46.875	0.167	0.082
-351.508	-200.000	-0.046	-0.252
-350.493	86.418	0.177	0.196
-349.479	-85.813	-0.015	0.005
-348.464	-200.000	-0.060	0.307
-347.450	-200.000	-0.010	-0.251
-346.435	195.532	-0.085	-0.130
-345.420	-200.000	0.017	-0.109
-344.406	800.000	0.064	0.187
-343.391	745.706	-0.053	0.145
-342.377	247.115	0.079	-0.134
-341.362	-109.245	-0.105	0.023
-340.348	-200.000	-0.079	0.431
-339.333	-143.037	0.260	0.025
-338.318	-125.396	-0.154	-0.024
-337.304	19.541	-0.334	-0.271
-336.289	-200.000	0.010	-0.126
-335.275	158.079	-0.177	-0.247
-334.260	209.377	0.111	0.175
-333.245	-13.334	-0.063	-0.041
-332.231	-25.781	-0.176	-0.104
-331.216	-53.381	-0.226	-0.104
-330.202	-64.597	0.219	-0.090
-329.187	48.061	-0.272	-0.257
-328.172	788.329	-0.054	0.149
-327.158	-11.859	0.214	-0.141
-326.143	800.000	0.031	0.094
-325.129	-200.000	-0.013	-0.240
-324.114	-169.667	-0.263	0.010
-323.099	-26.660	-0.221	-0.130
-322.085	-200.000	-0.035	-0.522
-321.070	169.326	0.182	0.261
-320.056	-121.450	-0.166	-0.028
-319.041	-200.000	-0.012	-0.124
-318.026	-97.286	-0.190	0.050
-317.012	-184.350	-0.037	0.001
-315.997	-8.427	0.210	0.142
-314.983	423.589	0.157	0.339
-313.968	800.000	0.089	0.322
-312.953	-78.277	0.248	0.086
-311.939	-55.521	0.167	0.075
-310.924	85.459	0.244	0.270
-309.910	184.467	-0.126	-0.187
-308.895	10.043	-0.257	0.197
-307.880	-200.000	0.011	-0.098
-306.866	-200.000	-0.001	0.086
-305.851	-123.383	0.292	0.047
-304.837	-200.000	-0.006	-0.140
-303.822	251.917	-0.078	-0.134
-302.807	-24.507	0.134	-0.080
-301.793	-122.863	-0.290	0.047
-300.778	54.177	-0.285	-0.276
-299.764	-106.079	0.283	0.064
-298.749	233.826	-0.162	0.268
-297.735	-23.477	-0.174	0.105
-296.720	-200.000	0.015	-0.445
-295.705	577.420	-0.078	0.192
-294.691	202.783	0.167	0.259
-293.676	-86.127	-0.188	-0.059
-292.662	105.884	-0.066	0.078
-291.647	-200.000	0.021	-0.156
-290.632	-200.000	0.015	0.249
-289.618	377.566	-0.104	-0.215
-288.603	-61.069	0.550	0.234
-287.589	-123.330	-0.420	-0.067
-286.574	-119.760	0.194	-0.034
-285.559	800.000	-0.086	0.291
-284.545	7.863	0.436	0.329
-283.530	-122.495	-0.136	0.022
-282.516	-54.917	0.048	0.022
-281.501	-16.762	0.098	0.062
-280.486	-145.423	0.478	-0.043
-279.472	-64.994	0.253	0.103
-278.457	-53.725	-0.183	0.084
-277.443	124.073	-0.162	-0.205
-276.428	800.000	0.053	-0.166
-275.413	507.362	0.104	0.243
-274.399	45.291	0.338	-0.313
-273.384	380.561	-0.308	0.635
-272.370	187.745	0.069	0.104
-271.355	47.322	-0.048	-0.045
-270.340	-90.992	-0.274	-0.079
-269.326	-115.557	-0.111	-0.021
-268.311	64.298	0.034	0.034
-267.297	-98.042	-0.271	0.070
-266.282	-66.618	0.457	0.182
-265.267	-118.360	0.162	-0.029
-264.253	12.165	0.108	0.084
-263.238	-32.103	-0.113	0.063
-262.224	-87.984	0.079	-0.024
-261.209	-131.454	0.489	-0.065
-260.195	-42.274	-0.132	-0.068
-259.180	4.207	-0.139	0.102
-258.165	256.477	-0.052	-0.089
-257.151	-9.811	0.163	0.109
-256.136	-80.033	0.205	0.069
-255.122	363.835	0.177	0.358
-254.107	61.384	-0.325	-0.325
-253.092	255.616	0.138	0.238
-252.078	10.662	-0.227	0.174
-251.063	331.507	0.102	-0.197
-250.049	-45.298	-0.063	-0.031
-249.034	615.107	0.151	0.379
-248.019	-109.040	0.264	-0.057
-247.005	-200.000	-0.006	-0.196
-245.990	117.268	0.271	0.334
-244.976	-105.639	-0.180	0.041
-243.961	57.727	0.205	0.201
-242.946	252.006	-0.043	0.074
-241.932	402.124	0.102	-0.216
-240.917	68.396	0.156	-0.160
-239.903	-67.527	0.317	0.125
-238.888	-107.300	-0.139	0.031
-237.873	347.937	0.191	0.379
-236.859	-200.000	-0.021	0.141
-235.844	16.025	-0.166	0.131
-234.830	133.685	0.083	0.108
-233.815	-66.586	-0.136	0.054
-232.800	-27.900	0.338	0.197
-231.786	-47.536	-0.143	0.070
-230.771	-200.000	-0.071	0.323
-229.757	-200.000	0.008	0.080
-228.742	-200.000	0.012	-0.169
-227.727	-200.000	-0.009	-0.186
-226.713	-200.000	-0.049	-0.273
-225.698	353.574	0.175	0.348
-224.684	112.201	0.104	0.127
-223.669	-35.702	0.144	-0.078
-222.655	70.335	-0.239	0.248
-221.640	800.000	0.004	-0.013
-220.625	-200.000	0.040	-0.205
-219.611	241.807	-0.062	-0.103
-218.596	-59.515	-0.181	-0.078
-217.582	-182.580	0.136	-0.003
-216.567	-41.179	-0.117	-0.061
-215.552	45.454	0.208	-0.193
-214.538	-138.768	-0.245	0.027
-213.523	-119.839	0.219	-0.038
-212.509	-73.057	-0.245	0.090
-211.494	418.274	-0.151	-0.324
-210.479	-200.000	0.049	0.257
-209.465	-77.483	0.078	-0.027
-208.450	-200.000	-0.042	0.383
-207.436	-200.000	-0.014	-0.236
-206.421	-130.680	0.143	-0.019
-205.406	27.262	0.130	-0.110
-204.392	-77.915	0.173	-0.060
-203.377	75.898	-0.101	0.107
-202.363	-134.342	0.106	-0.013
-201.348	-200.000	-0.061	0.387
-200.333	279.944	0.213	0.382
-199.319	165.178	0.247	0.350
-198.304	-200.000	0.036	0.199
-197.290	200.774	-0.187	0.288
-196.275	59.601	0.122	-0.121
-195.260	400.033	0.067	-0.141
-194.246	14.410	-0.210	0.164
-193.231	661.888	0.074	0.191
-192.217	-4.367	0.246	-0.171
-191.202	-130.655	0.190	0.026
-190.187	800.000	-0.098	-0.337
-189.173	-200.000	-0.035	0.496
-188.158	-50.645	-0.264	-0.125
-187.144	215.465	-0.138	-0.220
-186.129	55.584	-0.291	-0.282
-185.114	800.000	-0.022	0.072
-184.100	134.781	0.152	0.198
-183.085	129.602	0.069	0.088
-182.071	-103.896	-0.075	-0.018
-181.056	-37.836	0.175	0.093
-180.042	-107.586	0.115	-0.025
-179.027	-63.314	-0.205	-0.084
-178.012	44.476	-0.030	0.027
-176.998	-55.294	0.172	-0.077
-175.983	-200.000	0.028	0.146
-174.969	-200.000	-0.018	-0.170
-173.954	-76.812	-0.247	-0.087
-172.939	-200.000	0.019	0.303
-171.925	438.834	-0.004	-0.009
-170.910	800.000	-0.112	-0.320
-169.896	800.000	-0.030	-0.119
-168.881	-162.569	0.247	0.012
-167.866	226.082	-0.280	0.454
-166.852	621.690	0.133	0.335
-165.837	73.737	0.186	0.195
-164.823	281.287	-0.096	0.172
-163.808	-111.265	-0.068	0.014
-162.793	-59.573	0.305	-0.131
-161.779	-33.411	0.185	-0.103
-160.764	89.510	0.247	-0.276
-159.750	-200.000	0.034	-0.163
-158.735	-200.000	-0.020	-0.101
-157.720	308.189	-0.234	0.437
-156.706	239.468	0.101	-0.169
-155.691	800.000	0.069	0.272
-154.677	-87.197	0.214	-0.065
-153.662	583.200	-0.061	-0.151
-152.647	-61.527	-0.061	-0.026
-151.633	-37.457	0.282	-0.151
-150.618	39.941	-0.189	-0.170
-149.604	60.305	0.139	-0.137
-148.589	800.000	0.031	0.126
-147.574	482.594	0.114	-0.259
-146.560	-200.000	0.028	0.166
-145.545	-3.767	0.203	-0.141
-144.531	-200.000	-0.054	-0.405
-143.516	448.407	0.033	0.073
-142.502	27.230	-0.271	-0.228
-141.487	-106.637	-0.240	0.054
-140.472	-48.964	-0.152	0.073
-139.458	800.000	0.025	-0.068
-138.443	800.000	0.044	-0.156
-137.429	378.414	-0.112	0.230
-136.414	-45.591	-0.101	0.050
-135.399	-130.712	-0.211	0.028
-134.385	64.641	-0.057	0.057
-133.370	-72.755	-0.126	0.046
-132.356	417.499	-0.018	0.039
-131.341	-91.056	-0.252	-0.072
-130.326	195.941	-0.017	0.026
-129.312	551.375	-0.023	-0.056
-128.297	131.459	-0.072	0.092
-127.283	402.201	0.202	-0.425
-126.268	234.853	0.105	-0.172
-125.253	542.279	-0.033	-0.078
-124.239	-53.328	0.252	-0.116
-123.224	-133.238	0.188	0.024
-122.210	-92.262	0.140	0.039
