DTS Sentinel unit serial number:	SN413079Multiplexer serial number:	ORYXHardware model number:	OX4-SRSoftware version number:	ORYX F/W v4.00 Oryx Data Collector v3.7.2.0data status	okinstallation	princeton_trtdifferential loss correction	single-endedforward channel	channel 1reverse channel	N/Adate	2019/09/13time	20:30:35forward acquisition time	60.00reverse acquisition time	0.00gamma	496.2192k internal	0.2331k external	0.2331temperature offset calibration	1.0094default loss term (dB/km)	0.3790temperature slope calibration	1.0000multiplexer offset coefficient	1.0000multiplexer slope coefficient	1.0000fibre end	0.00T internal ref (°C)	29.12T ext. ref 1 (°C)	3.36T ext. ref 2 (°C)	23.55length (m)	temperature (°C)	Stokes	anti-Stokes-747.200	-200.000	0.030	0.182
-746.185	-65.793	-0.372	0.150
-745.171	-48.430	0.106	0.052
-744.156	161.710	-0.047	-0.066
-743.142	800.000	-0.065	-0.212
-742.127	-200.000	0.049	0.303
-741.112	143.767	-0.071	-0.095
-740.098	-129.843	0.074	0.010
-739.083	-166.245	0.153	-0.007
-738.069	-200.000	-0.021	0.204
-737.054	242.312	0.117	0.196
-736.039	332.230	-0.085	-0.165
-735.025	282.819	-0.101	0.183
-734.010	794.242	0.029	-0.080
-732.996	84.764	-0.274	-0.302
-731.981	-40.706	0.153	-0.080
-730.966	-132.994	-0.123	0.016
-729.952	-135.683	-0.631	-0.075
-728.937	-155.919	-0.168	0.011
-727.923	647.295	0.109	-0.281
-726.908	-55.216	0.211	-0.095
-725.894	800.000	-0.077	-0.256
-724.879	-28.553	-0.124	0.072
-723.864	-15.795	0.113	-0.073
-722.850	-168.881	0.113	-0.004
-721.835	-200.000	-0.025	-0.170
-720.821	-57.564	0.209	0.092
-719.806	37.361	0.226	0.202
-718.791	-200.000	0.007	-0.331
-717.777	3.356	-0.171	0.125
-716.762	200.138	-0.140	-0.217
-715.748	-176.709	0.395	-0.010
-714.733	195.308	0.124	0.189
-713.718	-50.559	-0.100	-0.048
-712.704	-200.000	-0.076	-0.599
-711.689	104.120	0.098	-0.115
-710.675	-51.535	-0.136	0.064
-709.660	-192.736	0.206	0.002
-708.645	148.374	0.202	-0.274
-707.631	-200.000	-0.092	-0.430
-706.616	-39.144	0.024	0.013
-705.602	117.212	-0.111	0.137
-704.587	-200.000	0.038	0.268
-703.572	800.000	0.083	-0.326
-702.558	-83.104	-0.196	0.063
-701.543	162.759	-0.070	0.099
-700.529	195.650	-0.191	-0.292
-699.514	8.690	0.397	0.300
-698.499	145.393	0.101	-0.136
-697.485	-33.885	0.203	0.112
-696.470	-200.000	0.010	0.177
-695.456	-200.000	0.004	-0.018
-694.441	23.366	-0.205	-0.169
-693.426	-200.000	0.009	-0.087
-692.412	-159.725	-0.068	0.004
-691.397	800.000	-0.052	-0.161
-690.383	6.699	-0.281	0.210
-689.368	800.000	0.102	0.334
-688.354	64.404	-0.101	-0.102
-687.339	-156.673	-0.170	-0.011
-686.324	137.736	0.130	0.171
-685.310	-139.393	-0.182	-0.020
-684.295	-200.000	0.045	-0.267
-683.281	0.228	0.093	0.067
-682.266	-29.687	-0.279	-0.160
-681.251	228.745	0.094	-0.154
-680.237	-131.083	-0.116	0.015
-679.222	398.097	-0.146	-0.307
-678.208	-76.021	-0.105	0.037
-677.193	800.000	-0.040	0.142
-676.178	-81.590	-0.204	-0.067
-675.164	51.126	-0.023	-0.022
-674.149	-55.151	0.228	0.103
-673.135	-108.483	0.243	0.053
-672.120	-25.527	-0.259	0.154
-671.105	-42.832	0.172	0.088
-670.091	0.243	-0.199	-0.143
-669.076	-64.970	-0.199	-0.081
-668.062	-118.693	-0.188	0.033
-667.047	-69.654	0.089	-0.034
-666.032	-69.153	0.040	0.015
-665.018	-76.678	-0.139	0.049
-664.003	800.000	-0.133	-0.447
-662.989	800.000	0.087	0.291
-661.974	206.834	-0.206	0.322
-660.959	-42.687	-0.453	0.231
-659.945	-11.607	0.095	-0.062
-658.930	-134.769	-0.243	-0.030
-657.916	-200.000	-0.005	0.101
-656.901	88.011	-0.202	0.225
-655.886	160.501	-0.110	-0.154
-654.872	-53.866	-0.249	-0.114
-653.857	122.492	-0.024	-0.030
-652.843	-109.690	0.194	-0.041
-651.828	28.673	-0.211	0.179
-650.814	-115.972	0.200	0.037
-649.799	155.737	0.052	-0.071
-648.784	-200.000	-0.009	0.070
-647.770	-200.000	-0.060	-0.463
-646.755	-46.944	-0.141	0.069
-645.741	-75.003	0.173	-0.062
-644.726	-124.948	-0.178	0.027
-643.711	-18.907	-0.177	0.110
-642.697	-112.386	-0.401	-0.080
-641.682	727.435	0.077	-0.205
-640.668	58.036	-0.137	0.135
-639.653	-28.694	-0.148	-0.086
-638.638	-85.320	-0.360	-0.113
-637.624	-12.752	0.191	0.125
-636.609	-87.505	-0.223	0.068
-635.595	-3.034	-0.071	-0.049
-634.580	11.120	0.219	-0.168
-633.565	5.597	0.085	0.063
-632.551	177.373	-0.131	-0.191
-631.536	-20.382	0.185	-0.114
-630.522	139.415	0.099	-0.131
-629.507	328.952	0.059	0.113
-628.492	-29.916	-0.279	-0.159
-627.478	10.541	0.340	-0.260
-626.463	-33.673	0.165	0.091
-625.449	-34.724	-0.214	0.117
-624.434	33.103	0.162	0.141
-623.419	618.934	-0.003	0.008
-622.405	20.161	-0.166	0.134
-621.390	-112.831	0.165	0.033
-620.376	800.000	-0.076	0.252
-619.361	-60.820	-0.317	-0.134
-618.346	212.358	0.081	-0.127
-617.332	319.923	0.018	-0.033
-616.317	263.425	0.063	-0.109
-615.303	-30.587	-0.297	-0.169
-614.288	-92.616	-0.339	0.095
-613.273	83.600	0.091	-0.100
-612.259	-60.660	0.188	-0.080
-611.244	4.945	0.080	-0.059
-610.230	-4.251	-0.074	-0.051
-609.215	-107.974	0.118	0.026
-608.201	800.000	0.046	-0.138
-607.186	-200.000	0.070	0.354
-606.171	-104.199	0.154	0.036
-605.157	-200.000	-0.018	-0.408
-604.142	-39.578	-0.117	0.061
-603.128	800.000	0.100	0.289
-602.113	176.008	-0.192	-0.278
-601.098	-200.000	0.014	-0.066
-600.084	194.674	-0.088	0.134
-599.069	800.000	0.052	0.159
-598.055	800.000	0.042	0.130
-597.040	-200.000	0.034	-0.278
-596.025	-9.092	-0.126	-0.084
-595.011	755.489	-0.057	-0.155
-593.996	680.548	-0.021	0.056
-592.982	-112.108	-0.149	0.030
-591.967	382.294	0.129	0.265
-590.952	42.852	-0.073	0.067
-589.938	134.389	-0.164	0.213
-588.923	128.269	-0.208	-0.265
-587.909	422.921	0.265	-0.570
-586.894	196.262	0.080	-0.122
-585.879	141.791	-0.107	-0.142
-584.865	-99.818	0.236	-0.059
-583.850	-200.000	-0.038	-0.219
-582.836	-177.464	-0.207	0.005
-581.821	-200.000	0.038	-0.190
-580.806	-104.597	0.140	0.032
-579.792	194.258	0.180	0.273
-578.777	-133.394	-0.156	-0.020
-577.763	-106.405	-0.180	0.040
-576.748	106.171	0.070	-0.083
-575.733	121.373	-0.075	-0.094
-574.719	17.722	0.136	-0.108
-573.704	-200.000	0.050	-0.283
-572.690	5.593	0.199	0.147
-571.675	-45.204	0.204	-0.101
-570.661	-200.000	-0.015	0.327
-569.646	-38.666	0.241	0.127
-568.631	-143.017	-0.297	0.029
-567.617	673.374	-0.041	0.107
-566.602	-120.762	0.353	0.060
-565.588	196.195	-0.134	0.203
-564.573	-105.487	0.462	-0.105
-563.558	-59.135	-0.326	-0.140
-562.544	-8.320	-0.231	-0.155
-561.529	125.277	-0.301	-0.380
-560.515	111.101	0.116	0.139
-559.500	-24.062	-0.173	0.103
-558.485	395.440	0.094	0.197
-557.471	-107.374	0.111	-0.024
-556.456	-200.000	-0.018	0.190
-555.442	-181.415	0.294	0.006
-554.427	-116.660	-0.187	-0.034
-553.412	-17.869	0.009	-0.006
-552.398	-101.898	-0.085	-0.020
-551.383	-200.000	-0.052	-0.330
-550.369	-97.331	0.315	0.082
-549.354	17.308	-0.168	-0.133
-548.339	57.509	0.064	-0.063
-547.325	-105.298	-0.090	0.021
-546.310	112.320	-0.069	-0.084
-545.296	55.814	0.193	-0.187
-544.281	-181.244	0.099	0.002
-543.266	234.317	0.156	-0.256
-542.252	-159.589	-0.287	0.016
-541.237	-175.274	-0.220	0.006
-540.223	3.004	0.048	-0.035
-539.208	39.735	0.087	-0.078
-538.193	128.044	-0.143	0.181
-537.179	302.222	0.031	0.057
-536.164	66.150	-0.193	0.195
-535.150	-17.503	-0.112	-0.070
-534.135	62.835	0.137	0.137
-533.121	-136.688	-0.395	0.046
-532.106	-7.176	-0.086	0.058
-531.091	-200.000	-0.020	0.558
-530.077	-200.000	0.026	0.168
-529.062	148.699	0.113	0.153
-528.048	-128.363	0.253	0.036
-527.033	4.546	0.043	-0.031
-526.018	35.533	-0.180	-0.158
-525.004	302.881	0.137	-0.253
-523.989	-200.000	-0.007	0.255
-522.975	-39.722	0.044	-0.023
-521.960	-200.000	-0.027	0.186
-520.945	135.244	0.196	-0.254
-519.931	-200.000	-0.019	-0.141
-518.916	287.259	-0.094	-0.170
-517.902	483.497	-0.108	0.245
-516.887	-99.526	0.375	-0.094
-515.872	609.296	0.131	-0.326
-514.858	61.795	-0.065	0.064
-513.843	800.000	0.075	0.256
-512.829	54.814	-0.166	0.160
-511.814	800.000	0.064	0.240
-510.799	-150.194	-0.194	0.015
-509.785	-65.882	-0.261	0.104
-508.770	-200.000	-0.065	-0.415
-507.756	-200.000	0.003	0.085
-506.741	451.335	0.074	0.163
-505.726	166.714	-0.211	-0.299
-504.712	-85.950	-0.203	-0.063
-503.697	-47.351	0.129	-0.063
-502.683	800.000	-0.070	0.207
-501.668	800.000	0.081	-0.342
-500.653	-63.037	-0.297	-0.122
-499.639	159.151	0.165	-0.229
-498.624	-26.550	-0.170	0.100
-497.610	800.000	-0.018	0.068
-496.595	-70.201	-0.104	-0.039
-495.581	121.088	-0.145	0.180
-494.566	202.384	0.147	-0.227
-493.551	-130.383	-0.124	0.017
-492.537	85.090	-0.130	-0.142
-491.522	-59.702	-0.244	-0.104
-490.508	56.562	0.274	-0.265
-489.493	29.365	-0.041	-0.034
-488.478	27.138	0.229	0.191
-487.464	-200.000	0.052	0.415
-486.449	40.389	-0.164	0.147
-485.435	-9.879	-0.228	0.151
-484.420	24.270	-0.149	0.123
-483.405	-158.868	-0.238	0.014
-482.391	800.000	0.093	0.299
-481.376	81.154	-0.055	-0.059
-480.362	90.905	0.066	0.074
-479.347	-200.000	-0.021	0.200
-478.332	318.137	-0.186	-0.350
-477.318	-120.266	0.060	0.010
-476.303	-200.000	0.008	0.067
-475.289	-200.000	-0.010	0.349
-474.274	-23.838	-0.113	0.068
-473.259	800.000	0.079	-0.222
-472.245	63.623	0.242	-0.242
-471.230	496.940	-0.023	0.052
-470.216	76.428	0.128	-0.136
-469.201	-38.719	0.214	-0.112
-468.186	-200.000	0.025	0.189
-467.172	74.299	-0.144	0.150
-466.157	-86.442	0.203	-0.062
-465.143	133.873	-0.112	0.145
-464.128	-41.336	0.166	-0.085
-463.113	-200.000	0.000	-0.125
-462.099	-120.008	0.288	-0.049
-461.084	-92.527	-0.093	-0.026
-460.070	116.217	0.217	0.264
-459.055	-159.863	0.191	0.010
-458.040	-200.000	-0.035	-0.317
-457.026	-200.000	0.012	-0.084
-456.011	-75.268	-0.180	0.064
-454.997	-27.510	0.225	0.130
-453.982	626.190	-0.056	0.140
-452.968	215.547	0.045	0.072
-451.953	339.073	-0.132	0.255
-450.938	-1.419	-0.250	-0.175
-449.924	-110.109	0.157	0.033
-448.909	-113.894	0.277	0.053
-447.895	53.502	-0.399	0.381
-446.880	345.527	-0.044	0.085
-445.865	-34.577	0.102	0.055
-444.851	-68.915	0.110	-0.042
-443.836	30.761	0.162	-0.138
-442.822	36.172	0.237	0.207
-441.807	26.532	-0.183	0.152
-440.792	18.896	-0.134	-0.107
-439.778	159.914	-0.096	0.133
-438.763	-200.000	0.020	-0.269
-437.749	-87.634	-0.123	0.037
-436.734	-200.000	0.033	-0.282
-435.719	-200.000	-0.032	0.163
-434.705	-98.015	-0.077	0.020
-433.690	196.246	0.065	-0.099
-432.676	23.235	0.048	0.039
-431.661	192.119	-0.044	0.066
-430.646	-131.748	-0.190	0.025
-429.632	-200.000	-0.012	-0.209
-428.617	800.000	0.039	0.120
-427.603	-145.689	-0.407	-0.036
-426.588	-117.280	0.285	-0.051
-425.573	-200.000	0.011	-0.369
-424.559	-200.000	0.007	-0.065
-423.544	-105.356	0.198	0.045
-422.530	25.973	-0.217	-0.180
-421.515	800.000	0.062	0.207
-420.500	-60.828	-0.156	-0.065
-419.486	-117.491	0.247	-0.044
-418.471	268.694	0.023	-0.041
-417.457	800.000	-0.019	0.068
-416.442	30.453	0.120	0.102
-415.428	577.190	-0.017	0.042
-414.413	-182.315	0.347	0.006
-413.398	102.516	-0.135	-0.157
-412.384	-75.458	-0.260	-0.092
-411.369	500.696	-0.046	0.105
-410.355	-200.000	-0.007	-0.286
-409.340	-13.023	0.111	-0.072
-408.325	319.096	-0.091	-0.172
-407.311	-130.879	-0.019	-0.003
-406.296	-200.000	0.010	0.054
-405.282	97.084	0.088	-0.101
-404.267	-200.000	0.006	0.067
-403.252	509.099	-0.067	0.155
-402.238	-27.776	-0.179	0.103
-401.223	146.630	0.096	-0.128
-400.209	-70.960	0.110	-0.041
-399.194	-49.144	-0.154	0.073
-398.179	424.066	-0.153	0.327
-397.165	8.423	-0.161	0.120
-396.150	-200.000	0.011	0.121
-395.136	-92.921	0.346	0.096
-394.121	11.300	0.275	-0.209
-393.106	17.083	-0.112	-0.089
-392.092	-80.339	-0.104	-0.034
-391.077	-200.000	-0.013	0.287
-390.063	-118.375	-0.096	-0.017
-389.048	-200.000	-0.019	0.124
-388.033	735.482	-0.076	0.203
-387.019	-200.000	0.023	-0.221
-386.004	800.000	-0.003	0.008
-384.990	-70.394	0.201	0.076
-383.975	800.000	0.111	0.421
-382.960	67.443	-0.196	0.199
-381.946	67.441	0.057	0.057
-380.931	352.668	0.088	0.172
-379.917	73.873	-0.296	-0.308
-378.902	112.002	0.107	-0.128
-377.888	-8.866	-0.086	0.057
-376.873	281.723	0.111	-0.198
-375.858	-131.518	0.394	0.052
-374.844	-28.736	-0.371	0.212
-373.829	262.385	-0.037	-0.064
-372.815	89.575	-0.086	0.096
-371.800	-200.000	0.005	0.164
-370.785	-161.325	0.184	0.009
-369.771	418.756	0.069	0.147
-368.756	-200.000	0.079	-0.426
-367.742	-155.013	0.028	0.002
-366.727	241.253	0.211	-0.349
-365.712	-91.701	0.367	0.104
-364.698	-200.000	-0.039	0.168
-363.683	-78.668	0.110	-0.037
-362.669	-200.000	0.000	0.068
-361.654	800.000	0.046	0.163
-360.639	141.747	0.146	0.192
-359.625	-200.000	-0.032	0.396
-358.610	-61.322	-0.235	0.098
-357.596	-107.596	0.183	-0.040
-356.581	-53.163	-0.139	0.063
-355.566	-92.548	-0.194	0.054
-354.552	-115.604	-0.296	0.055
-353.537	-147.450	0.277	0.023
-352.523	765.829	0.137	0.369
-351.508	37.836	0.184	0.162
-350.493	30.816	-0.186	0.158
-349.479	-63.479	-0.039	-0.016
-348.464	668.275	-0.065	0.167
-347.450	-200.000	0.003	-0.243
-346.435	248.008	-0.097	-0.163
-345.420	-200.000	0.014	-0.117
-344.406	-200.000	0.020	-0.243
-343.391	6.457	-0.244	0.179
-342.377	-31.825	0.201	0.112
-341.362	4.158	-0.221	0.160
-340.348	53.533	-0.065	0.062
-339.333	-78.913	-0.400	-0.135
-338.318	190.213	-0.350	0.520
-337.304	-125.707	-0.187	0.028
-336.289	129.076	0.055	-0.070
-335.275	245.267	-0.102	0.169
-334.260	-200.000	-0.067	0.327
-333.245	-200.000	0.009	0.061
-332.231	800.000	0.019	-0.080
-331.216	181.451	-0.137	0.200
-330.202	800.000	-0.073	-0.243
-329.187	380.409	-0.088	-0.179
-328.172	-200.000	-0.013	0.248
-327.158	-200.000	0.028	0.403
-326.143	-200.000	0.133	0.600
-325.129	-142.858	-0.066	-0.006
-324.114	148.713	-0.128	-0.171
-323.099	-102.550	0.324	0.077
-322.085	156.540	0.097	-0.133
-321.070	-84.793	0.062	0.019
-320.056	264.089	-0.110	0.190
-319.041	-99.249	-0.385	-0.096
-318.026	-130.186	0.155	-0.021
-317.012	-95.382	-0.250	0.067
-315.997	350.188	-0.119	-0.233
-314.983	234.639	0.263	-0.429
-313.968	800.000	-0.015	-0.046
-312.953	344.275	-0.074	0.144
-311.939	-73.391	0.406	-0.147
-310.924	-6.802	-0.109	-0.073
-309.910	-54.595	-0.138	-0.062
-308.895	-145.006	-0.316	-0.028
-307.880	-200.000	0.018	-0.102
-306.866	-200.000	-0.036	0.000
-305.851	-32.982	0.270	0.148
-304.837	35.031	0.271	0.235
-303.822	10.220	0.175	-0.132
-302.807	48.675	-0.238	-0.220
-301.793	800.000	-0.116	-0.480
-300.778	-20.549	0.201	0.122
-299.764	-62.475	0.301	0.124
-298.749	115.914	0.068	0.083
-297.735	-118.478	0.344	-0.060
-296.720	304.966	-0.113	-0.207
-295.705	-104.924	0.245	-0.056
-294.691	299.837	0.091	0.165
-293.676	-200.000	0.008	-0.116
-292.662	690.586	-0.016	-0.041
-291.647	-21.400	0.106	-0.064
-290.632	-50.762	-0.095	0.044
-289.618	-27.473	0.228	-0.131
-288.603	-120.329	0.067	0.011
-287.589	-44.815	0.128	0.063
-286.574	-56.900	-0.082	-0.036
-285.559	-200.000	-0.005	-0.168
-284.545	31.727	0.246	-0.209
-283.530	-97.957	-0.270	-0.069
-282.516	22.926	-0.206	-0.167
-281.501	-22.736	0.345	-0.206
-280.486	-32.485	-0.179	-0.099
-279.472	-102.691	0.214	-0.050
-278.457	-155.282	0.361	0.023
-277.443	761.686	-0.054	0.145
-276.428	367.553	-0.063	-0.127
-275.413	-55.502	0.183	-0.081
-274.399	-200.000	0.008	0.122
-273.384	-71.742	0.165	-0.061
-272.370	114.582	0.287	-0.346
-271.355	70.900	-0.090	0.092
-270.340	180.080	-0.086	-0.125
-269.326	-97.082	-0.286	-0.074
-268.311	42.452	-0.164	-0.147
-267.297	800.000	0.098	0.403
-266.282	169.843	-0.295	0.416
-265.267	800.000	-0.039	0.126
-264.253	-200.000	-0.030	-0.305
-263.238	-40.342	-0.305	0.157
-262.224	-31.609	0.450	0.250
-261.209	-200.000	-0.070	-0.303
-260.195	-200.000	0.000	-0.004
-259.180	127.767	-0.058	0.073
-258.165	351.567	0.059	-0.116
-257.151	70.759	-0.188	0.192
-256.136	34.505	-0.185	0.160
-255.122	-127.950	0.127	-0.018
-254.107	-10.083	0.215	0.141
-253.092	318.763	0.097	0.181
-252.078	-124.734	0.344	0.053
-251.063	-150.633	0.243	-0.018
-250.049	83.406	0.066	-0.071
-249.034	-24.104	-0.072	-0.042
-248.019	61.538	0.128	-0.126
-247.005	521.006	-0.043	-0.099
-245.990	-86.279	0.148	-0.045
-244.976	800.000	0.015	-0.051
-243.961	-68.474	-0.140	0.053
-242.946	359.838	-0.114	0.225
-241.932	122.231	-0.251	-0.310
-240.917	-104.712	-0.164	-0.037
-239.903	-20.660	-0.110	0.067
-238.888	-130.686	0.134	-0.018
-237.873	-200.000	-0.010	0.114
-236.859	-108.344	0.218	-0.046
-235.844	-159.749	-0.170	0.009
-234.830	800.000	0.117	0.366
-233.815	336.566	-0.185	-0.354
-232.800	-200.000	0.021	-0.486
-231.786	173.196	-0.099	-0.141
-230.771	-105.890	-0.285	0.063
-229.757	-200.000	-0.090	-0.462
-228.742	-185.175	-0.143	0.002
-227.727	-7.976	-0.356	0.237
-226.713	800.000	0.134	-0.447
-225.698	224.125	-0.035	0.056
-224.684	-9.127	-0.093	0.061
-223.669	-39.507	-0.190	-0.098
-222.655	585.011	0.168	0.407
-221.640	579.250	0.102	-0.246
-220.625	162.426	0.068	-0.094
-219.611	262.270	0.008	-0.014
-218.596	-142.969	0.175	0.017
-217.582	-136.453	0.204	0.023
-216.567	-8.398	-0.169	-0.112
-215.552	-97.998	-0.093	-0.024
-214.538	-114.259	0.161	-0.031
-213.523	316.559	0.080	0.149
-212.509	78.190	0.155	0.163
-211.494	103.856	-0.084	-0.097
-210.479	347.849	-0.129	-0.251
-209.465	126.836	0.222	-0.277
-208.450	-32.306	-0.282	0.155
-207.436	-124.794	0.260	0.040
-206.421	-200.000	-0.004	0.359
-205.406	800.000	0.014	0.049
-204.392	-16.855	-0.107	0.067
-203.377	54.142	-0.259	0.245
-202.363	-200.000	0.044	0.220
-201.348	94.502	0.115	-0.129
-200.333	800.000	0.065	-0.254
-199.319	-24.342	0.188	-0.111
-198.304	154.065	-0.242	0.327
-197.290	-130.894	0.108	-0.014
-196.275	-129.213	0.411	0.057
-195.260	-200.000	-0.011	-0.183
-194.246	57.908	0.059	-0.057
-193.231	-200.000	-0.003	-0.154
-192.217	151.478	0.212	-0.285
-191.202	-76.340	0.016	0.006
-190.187	27.712	-0.287	-0.238
-189.173	-55.140	0.188	-0.083
-188.158	-6.646	-0.085	-0.057
-187.144	-2.182	0.273	0.189
-186.129	-173.667	0.208	-0.006
-185.114	36.492	-0.088	0.076
-184.100	696.222	0.118	-0.306
-183.085	-79.572	-0.072	-0.024
-182.071	97.697	0.194	0.220
-181.056	-127.376	0.121	0.017
-180.042	64.517	0.247	0.245
-179.027	340.941	-0.095	0.182
-178.012	-31.454	-0.195	-0.108
-176.998	-200.000	0.030	-0.204
-175.983	749.884	0.066	-0.175
-174.969	335.462	0.102	-0.194
-173.954	-115.951	0.200	0.037
-172.939	30.047	0.137	0.115
-171.925	-95.573	0.058	0.015
-170.910	-172.785	-0.083	0.003
-169.896	637.344	0.056	0.141
-168.881	-53.541	-0.210	-0.095
-167.866	60.066	-0.127	-0.123
-166.852	303.454	-0.145	-0.265
-165.837	-98.947	0.079	-0.020
-164.823	800.000	0.128	0.409
-163.808	-124.107	0.141	0.022
-162.793	-80.762	0.183	0.060
-161.779	69.478	0.095	0.096
-160.764	-88.803	-0.305	-0.089
-159.750	-55.035	-0.192	0.085
-158.735	-56.678	0.124	0.054
-157.720	530.240	0.104	-0.242
-156.706	298.918	0.079	0.142
-155.691	168.448	-0.101	0.142
-154.677	424.079	0.044	-0.093
-153.662	594.255	0.188	0.457
-152.647	172.320	-0.238	0.337
-151.633	-124.132	-0.110	-0.017
-150.618	-19.558	0.200	0.122
-149.604	-200.000	0.081	0.430
-148.589	-200.000	0.004	-0.102
-147.574	160.836	-0.080	0.110
-146.560	-82.759	-0.207	0.066
-145.545	655.616	-0.058	-0.146
-144.531	-200.000	-0.018	-0.129
-143.516	800.000	-0.144	0.417
-142.502	800.000	0.024	0.091
-141.487	47.219	0.113	0.104
-140.472	273.979	0.225	-0.391
-139.458	-152.106	0.084	-0.006
-138.443	-115.021	-0.278	-0.052
-137.429	89.522	0.140	-0.153
-136.414	26.124	-0.284	-0.233
-135.399	317.860	0.062	-0.116
-134.385	800.000	-0.031	0.098
-133.370	-79.275	-0.056	0.019
-132.356	750.268	0.029	-0.076
-131.341	-5.656	-0.207	0.139
-130.326	800.000	0.056	-0.168
-129.312	-122.907	0.169	0.027
-128.297	-200.000	-0.010	0.045
-127.283	-200.000	0.005	-0.148
-126.268	800.000	-0.006	0.020
-125.253	-129.553	0.115	-0.016
-124.239	266.232	0.038	0.065
-123.224	-45.068	-0.376	-0.184
-122.210	-179.284	-0.363	0.008
-121.195	-47.309	0.150	-0.072
