DTS Sentinel unit serial number:	SN413079Multiplexer serial number:	ORYXHardware model number:	OX4-SRSoftware version number:	ORYX F/W v4.00 Oryx Data Collector v3.7.2.0data status	okinstallation	princeton_trtdifferential loss correction	single-endedforward channel	channel 1reverse channel	N/Adate	2019/09/12time	07:44:11forward acquisition time	60.00reverse acquisition time	0.00gamma	496.2192k internal	0.2316k external	0.2316temperature offset calibration	1.0046default loss term (dB/km)	0.3790temperature slope calibration	1.0000multiplexer offset coefficient	1.0000multiplexer slope coefficient	1.0000fibre end	0.00T internal ref (°C)	32.78T ext. ref 1 (°C)	1.62T ext. ref 2 (°C)	28.83length (m)	temperature (°C)	Stokes	anti-Stokes-747.200	-117.336	0.164	0.030
-746.185	244.254	-0.179	0.304
-745.171	44.885	-0.199	0.185
-744.156	340.207	0.218	0.431
-743.142	-176.994	0.029	0.001
-742.127	-200.000	-0.067	0.307
-741.112	-80.440	0.139	0.047
-740.098	-31.570	0.232	0.132
-739.083	-63.915	-0.291	-0.121
-738.069	-200.000	0.008	0.471
-737.054	119.929	0.193	-0.243
-736.039	48.477	0.107	-0.101
-735.025	-200.000	0.008	-0.105
-734.010	153.569	-0.333	-0.462
-732.996	12.452	-0.134	-0.105
-731.981	-28.704	0.082	-0.048
-730.966	800.000	0.027	0.100
-729.952	-165.745	-0.268	0.012
-728.937	-171.131	-0.225	-0.008
-727.923	-89.206	-0.142	-0.042
-726.908	-188.148	-0.045	-0.001
-725.894	-133.035	-0.486	-0.062
-724.879	81.501	0.077	-0.084
-723.864	21.815	-0.300	-0.247
-722.850	-80.594	0.331	0.112
-721.835	113.549	0.153	-0.188
-720.821	93.016	0.080	-0.091
-719.806	-126.661	0.189	-0.028
-718.791	-68.997	0.023	0.009
-717.777	-8.948	-0.397	-0.269
-716.762	-119.038	0.381	0.068
-715.748	800.000	-0.018	0.081
-714.733	156.746	0.020	-0.028
-713.718	-200.000	0.029	-0.364
-712.704	39.585	-0.150	0.137
-711.689	-69.474	0.143	0.056
-710.675	-31.631	-0.078	0.045
-709.660	-167.459	0.187	0.008
-708.645	-23.506	0.216	0.131
-707.631	-47.696	-0.097	0.048
-706.616	228.812	-0.123	-0.203
-705.602	-153.652	-0.384	-0.027
-704.587	-200.000	-0.003	-0.259
-703.572	-200.000	0.108	0.492
-702.558	236.409	0.054	0.091
-701.543	344.669	0.128	-0.254
-700.529	36.763	-0.037	-0.033
-699.514	-200.000	0.030	-0.213
-698.499	-5.758	-0.138	-0.096
-697.485	99.187	0.112	0.131
-696.470	244.551	-0.058	-0.099
-695.456	24.563	0.148	-0.124
-694.441	800.000	-0.101	0.311
-693.426	-200.000	-0.003	0.283
-692.412	495.379	0.123	0.285
-691.397	-8.793	-0.089	-0.060
-690.383	34.495	0.190	-0.168
-689.368	-55.615	0.407	-0.184
-688.354	-105.713	-0.110	0.025
-687.339	3.130	0.113	0.083
-686.324	-92.590	-0.129	-0.037
-685.310	-141.787	-0.366	0.037
-684.295	475.003	0.193	-0.440
-683.281	554.139	-0.046	0.113
-682.266	-124.916	-0.349	0.054
-681.251	-2.765	-0.241	0.170
-680.237	114.084	-0.163	0.201
-679.222	-111.346	0.179	-0.037
-678.208	24.100	-0.422	-0.352
-677.193	-20.014	-0.280	0.175
-676.178	800.000	0.007	0.025
-675.164	-200.000	0.028	0.291
-674.149	-90.875	-0.136	-0.040
-673.135	218.852	0.147	0.237
-672.120	-23.888	0.275	-0.167
-671.105	-99.926	0.038	-0.010
-670.091	-180.029	-0.457	0.010
-669.076	-60.243	0.063	0.027
-668.062	384.138	-0.103	-0.214
-667.047	800.000	0.039	0.166
-666.032	-200.000	-0.041	0.195
-665.018	-80.731	-0.379	-0.127
-664.003	-135.303	-0.086	0.010
-662.989	-200.000	0.043	0.505
-661.974	-200.000	-0.028	-0.219
-660.959	-200.000	-0.038	-0.200
-659.945	-156.325	-0.244	-0.015
-658.930	606.991	-0.051	-0.129
-657.916	-82.141	0.479	-0.158
-656.901	-73.158	-0.370	0.137
-655.886	-200.000	-0.046	0.271
-654.872	-38.125	-0.155	-0.083
-653.857	164.338	0.047	0.067
-652.843	-21.318	-0.191	-0.118
-651.828	-11.224	-0.286	-0.190
-650.814	168.880	-0.168	-0.241
-649.799	157.279	-0.034	-0.048
-648.784	800.000	-0.048	-0.166
-647.770	61.863	-0.103	-0.104
-646.755	-29.531	-0.223	-0.128
-645.741	-48.691	-0.064	-0.031
-644.726	107.246	-0.060	-0.071
-643.711	-156.678	0.407	-0.025
-642.697	-19.732	0.145	0.091
-641.682	-7.753	-0.221	0.151
-640.668	-200.000	-0.011	-0.123
-639.653	82.122	-0.038	-0.041
-638.638	-116.921	0.328	-0.060
-637.624	160.375	-0.038	0.053
-636.609	800.000	0.143	-0.418
-635.595	-200.000	-0.008	0.215
-634.580	-200.000	-0.052	0.257
-633.565	-122.657	-0.316	0.052
-632.551	-124.744	0.017	-0.003
-631.536	94.129	-0.413	-0.473
-630.522	-67.842	-0.023	-0.009
-629.507	368.422	-0.147	0.300
-628.492	-113.674	-0.366	0.072
-627.478	800.000	-0.054	-0.151
-626.463	800.000	-0.066	-0.201
-625.449	11.405	0.149	0.115
-624.434	800.000	0.072	0.231
-623.419	-76.575	0.149	0.053
-622.405	214.094	0.168	-0.268
-621.390	4.687	0.184	-0.136
-620.376	585.372	0.079	-0.195
-619.361	-14.368	0.187	0.121
-618.346	26.279	-0.345	0.290
-617.332	43.495	-0.366	0.337
-616.317	-102.769	0.195	0.047
-615.303	-63.581	0.211	-0.087
-614.288	512.866	-0.099	0.232
-613.273	143.901	0.270	-0.363
-612.259	671.738	0.117	-0.305
-611.244	-96.839	0.195	0.052
-610.230	-200.000	-0.059	-0.429
-609.215	87.921	0.264	0.295
-608.201	-102.743	0.196	0.047
-607.186	393.341	-0.075	0.156
-606.171	-79.472	0.392	0.134
-605.157	-44.918	-0.443	0.223
-604.142	214.942	-0.231	-0.368
-603.128	-200.000	-0.018	0.380
-602.113	-89.327	-0.255	-0.076
-601.098	91.037	-0.287	-0.325
-600.084	-114.825	0.192	-0.037
-599.069	-200.000	0.048	-0.271
-598.055	-200.000	0.018	0.271
-597.040	-115.419	0.285	-0.054
-596.025	-200.000	-0.016	-0.180
-595.011	800.000	0.079	-0.317
-593.996	-200.000	0.170	-0.000
-592.982	-82.459	0.329	0.108
-591.967	-70.661	-0.186	-0.071
-590.952	-101.978	-0.288	0.070
-589.938	-200.000	-0.004	-0.086
-588.923	-192.379	-0.110	0.001
-587.909	-58.844	0.160	-0.070
-586.894	-36.433	0.355	0.193
-585.879	-169.330	0.364	0.014
-584.865	-151.546	0.203	0.015
-583.850	559.322	0.136	-0.330
-582.836	800.000	0.007	0.023
-581.821	800.000	-0.068	0.235
-580.806	-82.203	-0.105	-0.034
-579.792	21.416	-0.101	0.083
-578.777	-120.659	-0.028	0.005
-577.763	41.735	0.057	-0.052
-576.748	97.031	0.209	0.241
-575.733	-200.000	-0.035	-0.448
-574.719	800.000	-0.038	0.120
-573.704	73.288	0.050	0.053
-572.690	-156.692	-0.341	0.021
-571.675	287.720	0.065	-0.119
-570.661	-200.000	-0.060	-0.347
-569.646	800.000	-0.036	-0.107
-568.631	-12.940	0.111	0.073
-567.617	-5.625	0.161	-0.111
-566.602	38.182	0.281	0.252
-565.588	-195.887	-0.268	0.002
-564.573	22.856	-0.247	-0.204
-563.558	-22.089	-0.336	0.205
-562.544	-57.445	-0.237	0.105
-561.529	-45.380	0.154	0.077
-560.515	6.597	0.200	0.150
-559.500	-27.076	-0.110	0.065
-558.485	800.000	-0.054	-0.206
-557.471	-92.155	0.101	0.029
-556.456	-200.000	-0.034	-0.181
-555.442	-59.312	-0.296	0.128
-554.427	-65.691	-0.303	-0.122
-553.412	-22.570	0.423	0.257
-552.398	169.283	0.080	0.115
-551.383	800.000	-0.028	0.115
-550.369	305.523	-0.035	0.066
-549.354	-99.498	0.158	-0.040
-548.339	800.000	-0.038	0.119
-547.325	-80.075	0.161	-0.054
-546.310	-4.688	-0.193	-0.134
-545.296	121.506	0.237	0.297
-544.281	-200.000	-0.002	0.218
-543.266	-94.987	-0.408	0.111
-542.252	-140.008	0.091	-0.010
-541.237	93.623	-0.079	0.090
-540.223	130.506	-0.279	-0.359
-539.208	-155.887	0.274	-0.018
-538.193	-37.654	0.483	0.258
-537.179	20.953	-0.226	0.184
-536.164	-104.975	-0.047	0.011
-535.150	348.284	0.055	-0.109
-534.135	310.837	-0.132	0.248
-533.121	-83.861	-0.297	-0.095
-532.106	-200.000	0.026	-0.191
-531.091	202.819	-0.114	0.177
-530.077	-200.000	-0.002	0.187
-529.062	-100.854	-0.210	0.052
-528.048	-61.066	-0.220	0.093
-527.033	-83.743	0.138	-0.044
-526.018	-37.395	-0.218	0.117
-525.004	-74.402	-0.114	-0.041
-523.989	169.627	-0.091	-0.130
-522.975	-200.000	-0.067	-0.356
-521.960	-187.471	-0.288	0.004
-520.945	-115.073	-0.373	0.071
-519.931	635.343	-0.049	-0.126
-518.916	152.918	-0.187	0.256
-517.902	119.019	0.284	0.353
-516.887	36.835	0.092	-0.082
-515.872	505.053	0.052	-0.120
-514.858	-150.276	-0.265	-0.021
-513.843	-86.494	0.090	0.028
-512.829	-200.000	-0.034	0.229
-511.814	-200.000	0.006	-0.078
-510.799	359.791	0.160	-0.322
-509.785	354.949	0.068	0.136
-508.770	-0.939	0.231	-0.164
-507.756	-57.302	-0.126	-0.056
-506.741	800.000	-0.142	0.565
-505.726	-27.583	-0.164	-0.095
-504.712	347.797	-0.114	0.226
-503.697	-110.223	0.181	-0.038
-502.683	67.162	-0.096	0.098
-501.668	-117.073	-0.177	-0.032
-500.653	800.000	-0.020	-0.063
-499.639	348.476	0.083	0.165
-498.624	-142.904	-0.416	0.041
-497.610	33.601	0.113	-0.098
-496.595	800.000	-0.057	-0.213
-495.581	-93.638	-0.303	-0.084
-494.566	-95.738	0.152	-0.041
-493.551	716.475	0.116	0.310
-492.537	-200.000	0.031	0.278
-491.522	104.659	-0.089	-0.105
-490.508	-133.881	-0.107	-0.013
-489.493	-117.545	-0.176	0.032
-488.478	-200.000	-0.011	0.116
-487.464	-21.870	0.155	-0.095
-486.449	-76.592	0.227	0.080
-485.435	-56.002	0.128	-0.057
-484.420	-200.000	-0.006	-0.232
-483.405	-181.150	-0.335	0.007
-482.391	235.653	-0.195	0.323
-481.376	725.761	-0.120	-0.322
-480.362	-83.376	0.152	0.049
-479.347	150.320	-0.088	-0.120
-478.332	-70.771	0.380	0.144
-477.318	61.439	0.094	-0.094
-476.303	800.000	-0.066	-0.259
-475.289	-118.124	-0.503	-0.090
-474.274	66.845	0.446	0.455
-473.259	170.550	-0.136	-0.196
-472.245	190.211	-0.054	0.081
-471.230	-152.193	-0.237	0.017
-470.216	-200.000	-0.004	-0.250
-469.201	-26.894	-0.195	0.114
-468.186	-7.628	-0.096	-0.065
-467.172	261.954	-0.099	-0.172
-466.157	308.994	-0.072	-0.135
-465.143	-200.000	-0.076	-0.396
-464.128	30.618	0.147	-0.126
-463.113	-191.594	0.105	0.001
-462.099	800.000	-0.031	-0.116
-461.084	116.266	0.262	0.321
-460.070	133.253	-0.174	-0.226
-459.055	225.787	0.310	0.503
-458.040	-157.488	-0.180	0.011
-457.026	800.000	0.065	-0.181
-456.011	-200.000	0.034	-0.260
-454.997	139.686	0.141	-0.186
-453.982	-19.020	-0.223	-0.139
-452.968	96.519	-0.177	-0.203
-451.953	435.355	-0.134	0.292
-450.938	48.996	0.107	0.101
-449.924	245.163	-0.108	-0.182
-448.909	-200.000	-0.028	-0.210
-447.895	-120.985	0.210	-0.035
-446.880	-200.000	0.026	0.130
-445.865	-200.000	-0.001	-0.104
-444.851	-200.000	0.020	0.455
-443.836	-109.937	-0.032	0.007
-442.822	346.188	0.104	-0.205
-441.807	-86.981	0.360	0.110
-440.792	-97.202	-0.264	0.069
-439.778	-110.250	0.544	0.113
-438.763	43.612	0.097	-0.089
-437.749	287.202	-0.040	0.072
-436.734	-200.000	0.018	-0.138
-435.719	-0.979	0.080	-0.057
-434.705	-102.476	-0.228	-0.055
-433.690	367.641	-0.102	0.206
-432.676	-154.242	0.187	0.013
-431.661	14.263	-0.311	-0.242
-430.646	432.551	0.100	-0.218
-429.632	800.000	0.038	0.127
-428.617	-166.868	0.199	0.008
-427.603	-39.118	-0.330	-0.174
-426.588	723.133	0.151	0.402
-425.573	-200.000	-0.003	0.230
-424.559	800.000	-0.103	-0.297
-423.544	357.096	0.119	0.237
-422.530	135.865	-0.231	-0.301
-421.515	5.205	-0.191	-0.141
-420.500	-136.048	-0.078	0.009
-419.486	34.944	0.160	0.140
-418.471	-109.159	0.194	0.041
-417.457	-178.021	0.119	-0.003
-416.442	-62.524	-0.139	-0.058
-415.428	169.449	0.117	0.167
-414.413	20.152	0.261	0.211
-413.398	71.904	-0.063	-0.066
-412.384	-200.000	0.054	-0.451
-411.369	-48.449	-0.276	-0.133
-410.355	160.302	-0.224	0.312
-409.340	-200.000	-0.032	0.166
-408.325	-200.000	-0.012	-0.221
-407.311	-125.147	-0.332	0.051
-406.296	-200.000	-0.023	-0.208
-405.282	47.114	-0.151	-0.141
-404.267	395.394	0.053	-0.110
-403.252	34.779	0.205	0.179
-402.238	-89.342	-0.287	-0.085
-401.223	184.240	-0.179	-0.265
-400.209	409.539	-0.130	0.276
-399.194	-90.696	0.223	0.064
-398.179	501.588	-0.126	-0.290
-397.165	50.015	-0.230	0.217
-396.150	-200.000	0.002	-0.273
-395.136	-62.415	0.157	-0.065
-394.121	-200.000	-0.017	-0.235
-393.106	240.523	0.186	-0.310
-392.092	800.000	0.044	0.144
-391.077	222.542	0.151	-0.243
-390.063	-200.000	0.022	0.132
-389.048	211.003	-0.031	0.049
-388.033	-200.000	0.041	0.188
-387.019	154.566	-0.257	-0.353
-386.004	-200.000	-0.081	-0.355
-384.990	-3.630	0.162	0.112
-383.975	23.660	0.062	0.051
-382.960	261.114	-0.045	0.078
-381.946	800.000	0.022	-0.079
-380.931	800.000	-0.063	-0.192
-379.917	-167.854	-0.155	0.006
-378.902	-200.000	-0.014	0.218
-377.888	-141.348	0.316	-0.032
-376.873	-200.000	0.015	0.122
-375.858	-162.109	-0.329	0.016
-374.844	229.621	-0.080	-0.130
-373.829	119.412	0.135	-0.167
-372.815	-200.000	-0.038	0.310
-371.800	800.000	0.068	0.284
-370.785	-74.176	-0.075	-0.027
-369.771	-200.000	-0.009	-0.237
-368.756	-200.000	0.013	0.068
-367.742	-150.207	0.087	0.007
-366.727	75.532	-0.231	0.243
-365.712	-131.760	0.258	-0.034
-364.698	63.924	-0.047	-0.047
-363.683	401.161	0.060	-0.125
-362.669	-15.742	0.372	-0.237
-361.654	-200.000	-0.045	0.284
-360.639	150.694	0.062	0.084
-359.625	-173.432	-0.330	-0.010
-358.610	101.626	0.162	-0.188
-357.596	-135.913	0.421	0.049
-356.581	-90.672	-0.087	0.025
-355.566	-200.000	0.026	-0.132
-354.552	-200.000	-0.074	-0.417
-353.537	5.618	0.170	0.125
-352.523	61.411	0.258	-0.255
-351.508	-200.000	0.023	0.205
-350.493	800.000	-0.022	0.079
-349.479	800.000	0.031	0.131
-348.464	-200.000	0.039	0.419
-347.450	250.247	0.148	0.251
-346.435	19.462	0.125	-0.100
-345.420	59.706	-0.273	0.269
-344.406	14.665	0.176	0.138
-343.391	187.883	0.197	-0.293
-342.377	116.348	-0.138	-0.168
-341.362	-200.000	0.042	-0.246
-340.348	58.283	-0.121	0.118
-339.333	-94.724	-0.263	0.071
-338.318	7.339	-0.126	0.094
-337.304	-151.524	0.159	0.012
-336.289	273.277	0.027	0.047
-335.275	732.399	0.096	-0.257
-334.260	-90.261	0.271	0.078
-333.245	800.000	-0.027	0.076
-332.231	-54.546	-0.310	0.140
-331.216	162.958	0.172	0.241
-330.202	800.000	-0.121	0.420
-329.187	-200.000	-0.016	0.156
-328.172	41.540	-0.091	-0.082
-327.158	-5.048	-0.101	-0.069
-326.143	-200.000	0.001	-0.249
-325.129	592.457	-0.088	-0.218
-324.114	-38.371	-0.013	0.007
-323.099	136.718	-0.010	0.013
-322.085	-177.070	0.328	-0.008
-321.070	-200.000	-0.015	0.093
-320.056	264.866	0.070	0.121
-319.041	428.258	-0.078	0.168
-318.026	800.000	0.093	0.281
-317.012	-200.000	0.022	0.224
-315.997	-129.850	0.484	0.066
-314.983	-200.000	-0.395	-0.001
-313.968	-186.405	0.435	0.006
-312.953	-55.141	-0.106	-0.048
-311.939	173.612	0.179	-0.257
-310.924	-102.669	0.334	0.079
-309.910	-200.000	-0.033	0.397
-308.895	-117.713	0.186	0.033
-307.880	141.629	0.136	-0.179
-306.866	-200.000	0.036	-0.450
-305.851	755.442	-0.061	-0.164
-304.837	118.953	0.286	0.352
-303.822	-92.000	0.188	-0.053
-302.807	150.840	0.081	-0.110
-301.793	-4.876	-0.286	-0.197
-300.778	391.409	-0.037	0.076
-299.764	219.636	0.208	0.332
-298.749	-200.000	0.007	-0.085
-297.735	108.606	0.105	-0.124
-296.720	111.299	-0.154	0.184
-295.705	-47.274	0.224	-0.109
-294.691	-101.605	-0.370	0.089
-293.676	-116.831	-0.095	-0.017
-292.662	602.638	0.075	-0.187
-291.647	54.742	-0.369	-0.355
-290.632	488.792	0.091	0.206
-289.618	351.595	0.077	0.151
-288.603	-150.891	0.130	0.010
-287.589	-20.352	-0.104	-0.064
-286.574	59.835	0.220	-0.216
-285.559	136.761	-0.179	0.233
-284.545	-72.485	0.148	-0.055
-283.530	-200.000	-0.001	-0.223
-282.516	126.335	-0.152	0.191
-281.501	-49.574	0.279	-0.132
-280.486	-121.302	0.183	0.030
-279.472	175.460	-0.190	0.275
-278.457	773.789	-0.095	0.258
-277.443	259.687	-0.094	-0.161
-276.428	419.467	-0.096	-0.205
-275.413	-200.000	0.007	0.204
-274.399	-103.100	0.072	-0.017
-273.384	-153.393	0.030	0.002
-272.370	332.009	0.149	-0.286
-271.355	595.353	-0.051	-0.126
-270.340	417.971	0.020	0.044
-269.326	-90.966	0.505	0.145
-268.311	207.173	-0.067	0.104
-267.297	-19.844	0.206	0.126
-266.282	-200.000	-0.016	0.536
-265.267	216.671	-0.230	0.364
-264.253	-77.794	0.247	-0.085
-263.238	282.493	0.066	-0.117
-262.224	-131.624	0.180	0.023
-261.209	22.201	0.211	-0.171
-260.195	-18.922	0.231	-0.143
-259.180	-101.351	-0.033	-0.008
-258.165	177.541	-0.167	0.242
-257.151	800.000	-0.073	-0.235
-256.136	254.658	-0.008	-0.013
-255.122	-200.000	0.028	0.363
-254.107	-43.115	0.166	0.084
-253.092	800.000	0.066	-0.278
-252.078	800.000	0.062	0.238
-251.063	-99.711	-0.349	0.087
-250.049	-200.000	0.016	-0.139
-249.034	-145.658	-0.299	0.027
-248.019	367.819	-0.214	0.429
-247.005	111.629	-0.148	-0.177
-245.990	-200.000	-0.013	0.143
-244.976	-200.000	0.012	-0.065
-243.961	596.524	-0.153	0.376
-242.946	-55.404	-0.063	-0.028
-241.932	-87.076	0.227	-0.069
-240.917	-115.834	-0.242	-0.045
-239.903	59.555	0.180	0.176
-238.888	20.295	0.334	0.268
-237.873	35.522	-0.295	-0.257
-236.859	243.217	0.082	0.137
-235.844	-3.956	-0.248	0.171
-234.830	112.018	0.123	0.147
-233.815	179.731	0.032	0.047
-232.800	-200.000	-0.002	-0.128
-231.786	-158.169	0.255	-0.015
-230.771	-102.173	0.112	-0.027
-229.757	-57.914	0.206	-0.090
-228.742	-200.000	0.009	-0.111
-227.727	83.401	-0.138	-0.149
-226.713	132.868	-0.167	0.214
-225.698	-200.000	-0.184	0.001
-224.684	64.393	0.281	-0.281
-223.669	-117.109	0.218	-0.039
-222.655	-23.814	-0.180	0.107
-221.640	25.333	0.037	-0.031
-220.625	-190.160	0.255	0.003
-219.611	361.168	-0.045	-0.089
-218.596	55.206	-0.220	-0.211
-217.582	-11.528	0.112	-0.073
-216.567	-200.000	-0.006	0.385
-215.552	-12.249	-0.215	0.139
-214.538	-65.937	0.176	-0.070
-213.523	-184.192	0.037	0.001
-212.509	337.920	-0.172	-0.332
-211.494	135.534	-0.144	0.186
-210.479	95.464	0.132	0.150
-209.465	-21.884	-0.277	0.167
-208.450	63.337	-0.261	0.260
-207.436	-200.000	0.021	-0.307
-206.421	-11.260	0.148	0.097
-205.406	412.793	0.091	0.191
-204.392	181.158	0.074	-0.108
-203.377	-45.472	-0.292	-0.144
-202.363	-91.308	-0.106	0.030
-201.348	-193.187	0.204	0.002
-200.333	-23.771	-0.124	0.074
-199.319	-200.000	0.006	0.204
-198.304	800.000	-0.072	0.292
-197.290	-195.340	0.120	-0.001
-196.275	83.230	-0.169	0.183
-195.260	661.718	0.081	0.208
-194.246	-200.000	-0.377	0.000
-193.231	-110.043	0.303	-0.063
-192.217	91.346	0.181	-0.201
-191.202	-76.347	0.186	-0.065
-190.187	-121.119	-0.326	-0.054
-189.173	684.844	0.091	-0.236
-188.158	139.141	0.029	0.038
-187.144	-86.657	-0.116	0.035
-186.129	-200.000	0.026	-0.162
-185.114	164.188	0.020	-0.028
-184.100	-200.000	-0.001	0.017
-183.085	478.393	-0.100	-0.225
-182.071	121.300	-0.143	0.176
-181.056	69.714	0.230	-0.235
-180.042	357.855	-0.061	0.121
-179.027	-53.861	-0.222	-0.100
-178.012	-37.141	0.250	-0.133
-176.998	-137.002	0.223	0.025
-175.983	-200.000	0.008	-0.068
-174.969	-200.000	0.008	-0.135
-173.954	-58.943	-0.033	0.014
-172.939	487.157	0.037	0.084
-171.925	156.987	0.058	-0.079
-170.910	-64.897	-0.121	-0.049
-169.896	184.975	0.253	0.371
-168.881	636.048	0.003	-0.007
-167.866	-200.000	0.005	0.165
-166.852	-42.984	-0.197	-0.099
-165.837	3.750	0.084	-0.060
-164.823	-200.000	0.011	-0.150
-163.808	-16.851	-0.198	0.124
-162.793	-93.052	0.230	-0.064
-161.779	475.422	0.064	-0.142
-160.764	800.000	-0.032	-0.092
-159.750	119.698	0.131	-0.161
-158.735	-65.092	0.256	-0.102
-157.720	367.834	0.036	-0.073
-156.706	6.309	0.067	0.049
-155.691	-98.811	0.091	0.023
-154.677	106.961	-0.105	-0.124
-153.662	64.690	-0.197	-0.197
-152.647	92.086	-0.107	0.120
-151.633	86.508	-0.237	-0.259
-150.618	-51.755	0.105	-0.048
-149.604	-177.913	0.264	-0.006
-148.589	352.643	-0.152	-0.298
-147.574	-200.000	-0.009	0.098
-146.560	305.097	0.060	0.111
-145.545	-200.000	0.018	-0.130
-144.531	42.260	0.006	-0.005
-143.516	119.600	0.152	0.186
-142.502	-176.318	0.092	0.002
-141.487	-200.000	-0.053	0.271
-140.472	-65.733	-0.105	0.042
-139.458	81.384	0.122	0.130
-138.443	-46.328	-0.271	0.132
-137.429	-92.220	0.128	-0.036
-136.414	-37.484	-0.389	-0.205
-135.399	-156.121	0.102	0.006
-134.385	46.114	-0.060	0.055
-133.370	-114.796	0.259	0.049
-132.356	676.951	-0.137	-0.351
-131.341	216.974	0.161	-0.254
-130.326	-26.634	0.121	-0.070
-129.312	738.457	0.036	-0.097
-128.297	279.753	0.136	-0.240
-127.283	-105.646	-0.093	0.021
-126.268	-49.351	-0.180	-0.085
-125.253	800.000	-0.079	-0.266
-124.239	72.437	0.034	-0.035
-123.224	21.324	0.172	0.138
-122.210	495.132	-0.021	0.048
