DTS Sentinel unit serial number:	SN413079Multiplexer serial number:	ORYXHardware model number:	OX4-SRSoftware version number:	ORYX F/W v4.00 Oryx Data Collector v3.7.2.0data status	okinstallation	princeton_trtdifferential loss correction	single-endedforward channel	channel 1reverse channel	N/Adate	2019/09/14time	19:10:35forward acquisition time	60.00reverse acquisition time	0.00gamma	496.2192k internal	0.2310k external	0.2310temperature offset calibration	1.0026default loss term (dB/km)	0.3790temperature slope calibration	1.0000multiplexer offset coefficient	1.0000multiplexer slope coefficient	1.0000fibre end	0.00T internal ref (°C)	35.31T ext. ref 1 (°C)	4.86T ext. ref 2 (°C)	29.25length (m)	temperature (°C)	Stokes	anti-Stokes-747.200	-91.360	-0.279	0.081
-746.185	183.109	0.071	-0.107
-745.171	691.389	-0.097	0.259
-744.156	-200.000	-0.045	0.377
-743.142	-200.000	-0.000	-0.139
-742.127	167.043	0.109	-0.157
-741.112	-23.191	-0.211	-0.129
-740.098	40.543	-0.084	0.077
-739.083	-180.146	-0.239	0.005
-738.069	-200.000	0.000	0.075
-737.054	800.000	0.090	-0.282
-736.039	-89.948	-0.261	0.077
-735.025	121.583	-0.115	0.146
-734.010	490.248	-0.094	-0.219
-732.996	62.187	-0.045	-0.046
-731.981	42.366	0.135	-0.124
-730.966	-40.247	-0.440	0.232
-729.952	-94.555	-0.361	-0.100
-728.937	3.618	-0.189	-0.140
-727.923	307.582	-0.134	-0.254
-726.908	88.816	0.059	0.066
-725.894	-200.000	-0.036	0.358
-724.879	457.631	0.041	-0.093
-723.864	-200.000	0.077	-0.347
-722.850	60.041	-0.462	0.464
-721.835	-107.970	0.126	0.028
-720.821	-48.625	0.088	-0.043
-719.806	800.000	0.098	0.311
-718.791	-144.543	-0.284	0.027
-717.777	-98.651	0.096	0.025
-716.762	-22.780	-0.188	0.115
-715.748	-82.532	-0.269	-0.089
-714.733	-48.050	-0.166	0.081
-713.718	-55.723	-0.356	0.161
-712.704	800.000	0.075	0.306
-711.689	-200.000	-0.001	-0.098
-710.675	79.823	-0.166	-0.180
-709.660	-14.344	0.364	0.238
-708.645	-200.000	-0.027	0.239
-707.631	-200.000	0.021	0.303
-706.616	-66.669	0.072	-0.029
-705.602	800.000	-0.097	-0.297
-704.587	-122.556	-0.320	0.053
-703.572	-200.000	0.029	0.229
-702.558	70.065	0.233	0.244
-701.543	-65.671	0.052	-0.021
-700.529	-124.756	0.230	0.036
-699.514	-40.745	0.244	-0.128
-698.499	731.734	0.060	-0.162
-697.485	-200.000	0.058	-0.277
-696.470	-158.934	-0.300	-0.017
-695.456	-59.990	-0.180	-0.078
-694.441	-38.900	-0.136	-0.073
-693.426	-200.000	0.008	0.052
-692.412	24.981	-0.091	-0.076
-691.397	-14.738	0.523	0.341
-690.383	800.000	0.077	0.253
-689.368	99.005	0.064	-0.075
-688.354	-46.045	-0.236	-0.118
-687.339	628.707	0.103	0.263
-686.324	484.901	0.036	-0.083
-685.310	800.000	0.040	0.128
-684.295	-131.977	-0.126	-0.017
-683.281	-48.888	0.272	0.132
-682.266	44.230	-0.233	-0.216
-681.251	-135.471	-0.074	-0.009
-680.237	131.700	-0.113	0.147
-679.222	77.538	0.258	-0.278
-678.208	-130.830	-0.487	0.066
-677.193	501.717	-0.086	0.201
-676.178	285.513	-0.111	-0.204
-675.164	0.525	-0.159	-0.115
-674.149	-153.550	0.090	-0.006
-673.135	51.201	0.126	-0.121
-672.120	-27.374	-0.298	-0.176
-671.105	-200.000	-0.020	-0.149
-670.091	32.645	0.036	-0.031
-669.076	-200.000	-0.015	-0.156
-668.062	-24.942	0.329	-0.198
-667.047	-200.000	-0.005	0.145
-666.032	-101.621	-0.354	0.087
-665.018	800.000	0.043	0.125
-664.003	-118.118	0.263	-0.048
-662.989	85.473	0.342	-0.381
-661.974	304.237	0.066	-0.125
-660.959	31.711	0.146	0.128
-659.945	-32.968	-0.167	0.094
-658.930	-200.000	-0.067	0.474
-657.916	-77.364	0.420	-0.148
-656.901	-200.000	-0.063	-0.293
-655.886	40.046	-0.297	-0.270
-654.872	-200.000	-0.021	0.115
-653.857	-140.016	-0.310	0.033
-652.843	-200.000	-0.005	0.369
-651.828	-45.761	0.294	0.147
-650.814	511.282	-0.116	0.273
-649.799	89.383	0.148	0.167
-648.784	-200.000	-0.000	-0.185
-647.770	-200.000	-0.017	-0.130
-646.755	-200.000	-0.002	-0.114
-645.741	-200.000	0.040	-0.181
-644.726	772.338	0.111	0.306
-643.711	195.651	-0.139	-0.214
-642.697	-63.035	0.192	-0.080
-641.682	54.482	-0.124	-0.121
-640.668	126.566	0.095	-0.122
-639.653	-200.000	0.008	-0.126
-638.638	67.996	-0.264	-0.273
-637.624	-200.000	0.028	-0.227
-636.609	-123.340	0.110	0.018
-635.595	464.921	0.086	-0.194
-634.580	-73.602	-0.148	-0.054
-633.565	372.008	0.082	-0.169
-632.551	262.174	-0.155	-0.272
-631.536	-166.004	0.095	-0.004
-630.522	-200.000	0.046	-0.208
-629.507	-30.586	0.069	-0.039
-628.492	20.702	-0.151	-0.123
-627.478	-118.292	-0.457	0.082
-626.463	-111.620	-0.198	0.041
-625.449	37.710	0.061	-0.055
-624.434	-200.000	-0.019	-0.209
-623.419	800.000	0.095	0.269
-622.405	-76.602	0.129	0.046
-621.390	15.930	0.082	-0.065
-620.376	69.066	0.119	-0.123
-619.361	271.664	-0.086	0.153
-618.346	-85.804	-0.158	-0.049
-617.332	13.046	-0.288	0.225
-616.317	-200.000	0.003	-0.060
-615.303	-5.738	0.192	0.133
-614.288	524.204	-0.115	0.273
-613.273	6.915	0.416	0.313
-612.259	328.243	-0.146	-0.284
-611.244	-108.459	0.237	-0.051
-610.230	-200.000	-0.015	0.270
-609.215	447.482	0.052	0.116
-608.201	-200.000	0.022	-0.147
-607.186	39.885	-0.098	0.088
-606.171	-64.368	-0.214	-0.088
-605.157	354.497	0.069	-0.138
-604.142	315.405	0.037	-0.071
-603.128	248.708	0.130	0.222
-602.113	52.262	-0.041	0.039
-601.098	96.171	0.308	-0.356
-600.084	46.716	-0.165	-0.155
-599.069	-25.127	-0.195	0.117
-598.055	564.429	-0.097	0.237
-597.040	40.297	0.176	-0.159
-596.025	-71.137	0.115	-0.044
-595.011	-79.754	-0.088	-0.030
-593.996	-200.000	-0.018	-0.240
-592.982	50.044	-0.060	-0.057
-591.967	-200.000	-0.022	-0.179
-590.952	22.201	-0.263	-0.217
-589.938	800.000	-0.032	0.131
-588.923	-65.682	0.042	-0.017
-587.909	-92.505	0.161	-0.046
-586.894	46.996	-0.058	0.055
-585.879	-40.274	0.133	-0.070
-584.865	262.133	0.132	0.230
-583.850	-200.000	-0.040	0.230
-582.836	99.056	0.103	0.120
-581.821	-195.555	0.343	-0.003
-580.806	-200.000	-0.063	0.323
-579.792	800.000	-0.039	0.138
-578.777	-200.000	0.008	-0.044
-577.763	-66.415	-0.153	-0.061
-576.748	-200.000	-0.002	-0.095
-575.733	-103.218	0.122	-0.029
-574.719	-106.634	-0.207	-0.046
-573.704	-18.902	-0.210	0.132
-572.690	15.692	-0.322	0.255
-571.675	-200.000	-0.013	0.240
-570.661	719.043	-0.071	-0.190
-569.646	-93.627	0.301	-0.084
-568.631	-164.155	-0.413	-0.019
-567.617	-13.027	-0.260	-0.171
-566.602	-93.475	0.210	0.059
-565.588	-200.000	0.035	0.281
-564.573	30.153	-0.087	0.075
-563.558	-200.000	0.015	0.197
-562.544	27.734	0.115	-0.098
-561.529	85.370	-0.186	-0.206
-560.515	-200.000	-0.020	-0.231
-559.500	800.000	-0.045	0.125
-558.485	-21.420	0.105	0.064
-557.471	-84.330	0.208	-0.066
-556.456	594.756	0.092	-0.231
-555.442	-67.992	-0.409	-0.161
-554.427	-47.132	0.218	0.107
-553.412	19.171	-0.155	0.125
-552.398	-200.000	-0.043	-0.225
-551.383	153.162	0.230	0.317
-550.369	146.601	0.129	-0.175
-549.354	-81.121	-0.191	0.064
-548.339	-69.328	-0.233	-0.090
-547.325	435.329	-0.152	-0.332
-546.310	89.225	-0.159	-0.179
-545.296	-22.793	-0.113	-0.069
-544.281	330.587	-0.145	-0.282
-543.266	-200.000	0.016	0.286
-542.252	-200.000	0.017	-0.191
-541.237	323.983	-0.110	-0.212
-540.223	73.849	-0.137	0.144
-539.208	375.485	-0.085	-0.174
-538.193	79.730	0.207	-0.224
-537.179	-42.704	0.165	0.085
-536.164	-75.376	-0.058	0.021
-535.150	182.024	-0.125	0.185
-534.135	137.974	0.046	0.061
-533.121	-200.000	0.002	0.060
-532.106	249.164	-0.160	0.273
-531.091	178.922	-0.122	-0.179
-530.077	110.060	-0.114	-0.137
-529.062	-71.741	-0.256	0.096
-528.048	283.455	-0.071	-0.128
-527.033	-162.129	0.115	0.006
-526.018	490.720	-0.072	0.167
-525.004	-199.414	0.168	0.001
-523.989	464.863	-0.122	-0.275
-522.975	-42.709	-0.067	-0.034
-521.960	75.007	0.108	0.114
-520.945	-114.876	-0.330	0.063
-519.931	-100.995	-0.172	-0.042
-518.916	-200.000	0.037	-0.244
-517.902	513.132	0.064	0.149
-516.887	-136.225	0.163	0.019
-515.872	30.010	0.192	0.165
-514.858	800.000	0.047	-0.150
-513.843	-134.396	0.078	-0.010
-512.829	37.348	0.251	0.224
-511.814	-164.225	0.236	-0.011
-510.799	-104.632	0.462	-0.107
-509.785	-70.564	0.211	-0.080
-508.770	-81.047	-0.194	-0.064
-507.756	50.015	-0.239	0.227
-506.741	-103.071	-0.103	0.025
-505.726	-51.318	0.152	-0.071
-504.712	780.240	-0.026	0.073
-503.697	-42.404	-0.103	-0.053
-502.683	36.900	0.069	-0.061
-501.668	-200.000	0.011	-0.321
-500.653	-163.830	0.158	0.007
-499.639	167.767	-0.103	0.148
-498.624	-46.759	0.138	0.068
-497.610	-62.052	-0.067	0.028
-496.595	-200.000	0.053	0.265
-495.581	-152.597	0.197	-0.014
-494.566	-146.155	-0.065	0.006
-493.551	-98.572	0.106	0.027
-492.537	-35.359	0.181	-0.099
-491.522	-200.000	-0.016	0.075
-490.508	-103.690	0.281	0.066
-489.493	-200.000	0.013	-0.232
-488.478	30.370	0.220	-0.189
-487.464	-34.659	-0.260	-0.143
-486.449	-24.012	-0.169	0.101
-485.435	-22.532	0.089	-0.054
-484.420	-85.361	0.236	0.074
-483.405	256.371	-0.179	0.309
-482.391	-27.284	0.082	0.048
-481.376	-22.340	0.222	-0.135
-480.362	156.225	-0.112	-0.156
-479.347	-200.000	0.028	0.155
-478.332	246.301	-0.232	-0.394
-477.318	-200.000	0.066	-0.297
-476.303	800.000	0.019	-0.077
-475.289	-128.169	0.126	-0.018
-474.274	-200.000	0.005	0.162
-473.259	78.450	0.115	0.124
-472.245	14.418	-0.288	-0.226
-471.230	-200.000	0.041	0.304
-470.216	-78.448	-0.185	0.064
-469.201	-125.119	0.126	-0.019
-468.186	17.005	-0.191	-0.152
-467.172	-122.726	-0.226	0.037
-466.157	202.024	0.178	-0.275
-465.143	582.750	0.037	-0.092
-464.128	800.000	-0.039	0.141
-463.113	-98.876	-0.095	0.024
-462.099	-119.786	-0.480	0.083
-461.084	-179.911	0.204	-0.004
-460.070	-200.000	-0.017	0.201
-459.055	-24.216	0.214	-0.128
-458.040	-200.000	-0.036	0.410
-457.026	-72.096	0.029	0.011
-456.011	682.503	0.070	-0.184
-454.997	14.765	-0.259	-0.203
-453.982	-129.173	0.441	-0.062
-452.968	-200.000	-0.018	-0.203
-451.953	113.572	-0.191	-0.233
-450.938	-200.000	-0.002	0.228
-449.924	-165.753	0.123	0.005
-448.909	-14.800	0.162	0.104
-447.895	-169.093	-0.052	-0.002
-446.880	-141.704	-0.145	0.015
-445.865	16.678	0.126	-0.100
-444.851	800.000	0.094	0.383
-443.836	-7.504	-0.083	-0.056
-442.822	800.000	0.035	0.121
-441.807	-101.504	0.262	-0.064
-440.792	-60.343	0.149	-0.064
-439.778	-92.276	0.356	-0.101
-438.763	316.012	-0.096	-0.182
-437.749	-200.000	0.043	-0.193
-436.734	-200.000	0.014	-0.151
-435.719	-200.000	0.000	-0.044
-434.705	383.219	-0.049	0.102
-433.690	311.657	0.071	0.133
-432.676	-15.636	-0.159	0.102
-431.661	800.000	0.050	-0.180
-430.646	325.809	-0.105	-0.202
-429.632	564.337	-0.052	-0.127
-428.617	324.863	0.146	0.280
-427.603	71.959	0.116	-0.121
-426.588	107.871	-0.297	-0.355
-425.573	794.022	0.137	-0.377
-424.559	-200.000	0.028	0.239
-423.544	-70.918	-0.193	0.073
-422.530	-56.273	0.054	0.024
-421.515	-96.853	-0.073	-0.019
-420.500	286.128	0.054	0.098
-419.486	-88.902	-0.420	0.125
-418.471	-51.343	-0.191	-0.090
-417.457	-159.433	-0.417	-0.023
-416.442	-81.391	-0.386	-0.128
-415.428	-64.098	0.232	0.095
-414.413	51.361	0.071	0.068
-413.398	-90.730	0.142	-0.041
-412.384	772.799	-0.050	-0.136
-411.369	-200.000	-0.019	0.268
-410.355	215.440	-0.118	-0.188
-409.340	6.797	0.139	-0.104
-408.325	-139.274	0.331	0.036
-407.311	49.841	-0.230	0.217
-406.296	-152.390	0.079	-0.006
-405.282	83.765	-0.094	-0.103
-404.267	-108.334	-0.261	0.056
-403.252	-10.080	0.059	-0.039
-402.238	125.060	0.233	0.295
-401.223	-181.911	-0.210	-0.004
-400.209	261.184	-0.075	0.130
-399.194	33.800	-0.206	-0.180
-398.179	-200.000	0.061	0.289
-397.165	-119.589	0.056	-0.010
-396.150	800.000	-0.097	-0.315
-395.136	-160.785	-0.149	-0.008
-394.121	800.000	-0.125	-0.363
-393.106	800.000	0.065	0.196
-392.092	411.366	0.031	-0.066
-391.077	-200.000	-0.025	0.155
-390.063	-142.357	0.156	-0.015
-389.048	-77.066	0.308	0.108
-388.033	76.128	-0.131	0.139
-387.019	476.780	-0.056	0.127
-386.004	42.279	-0.076	-0.069
-384.990	44.513	0.186	0.171
-383.975	800.000	-0.010	-0.041
-382.960	95.295	-0.112	-0.127
-381.946	-37.799	0.200	-0.107
-380.931	-200.000	0.051	0.377
-379.917	237.698	0.093	0.155
-378.902	-47.792	0.301	-0.146
-377.888	547.384	-0.129	-0.308
-376.873	371.138	0.116	-0.235
-375.858	-144.800	0.276	0.025
-374.844	800.000	-0.025	0.111
-373.829	-0.728	0.059	-0.042
-372.815	-200.000	-0.105	0.472
-371.800	-189.701	-0.084	-0.001
-370.785	-95.235	0.409	-0.110
-369.771	-86.748	-0.559	0.171
-368.756	-48.865	0.222	0.107
-367.742	31.309	-0.243	0.209
-366.727	800.000	0.039	-0.169
-365.712	-158.899	-0.064	-0.004
-364.698	283.270	0.095	0.170
-363.683	-200.000	-0.022	0.193
-362.669	-58.710	-0.185	0.080
-361.654	-200.000	-0.009	0.327
-360.639	443.766	-0.021	0.047
-359.625	39.617	0.110	-0.098
-358.610	800.000	-0.033	-0.132
-357.596	-108.990	-0.234	-0.050
-356.581	193.799	0.239	-0.362
-355.566	115.380	0.127	0.155
-354.552	-200.000	0.052	0.290
-353.537	179.625	-0.105	0.154
-352.523	-99.850	0.204	0.051
-351.508	-119.666	-0.061	-0.011
-350.493	800.000	0.048	-0.134
-349.479	-80.254	-0.282	0.094
-348.464	-27.750	0.209	-0.121
-347.450	-53.088	0.047	0.021
-346.435	40.609	-0.057	-0.051
-345.420	190.175	0.082	-0.123
-344.406	-99.324	-0.113	0.029
-343.391	-3.481	0.345	0.240
-342.377	406.370	-0.098	0.207
-341.362	-185.913	-0.135	-0.002
-340.348	588.588	-0.141	0.346
-339.333	800.000	-0.073	0.268
-338.318	-77.546	0.202	0.070
-337.304	-123.509	0.256	-0.041
-336.289	-27.288	0.337	-0.196
-335.275	-75.300	0.283	-0.101
-334.260	-200.000	-0.004	0.303
-333.245	54.292	-0.260	-0.250
-332.231	-200.000	-0.024	0.301
-331.216	-43.966	-0.166	-0.083
-330.202	85.210	0.151	-0.165
-329.187	-200.000	-0.041	0.210
-328.172	47.744	-0.124	0.115
-327.158	32.461	0.276	0.238
-326.143	-46.425	0.437	-0.215
-325.129	-88.729	0.289	-0.086
-324.114	-32.782	-0.324	-0.180
-323.099	245.848	0.121	-0.203
-322.085	-165.918	-0.538	0.023
-321.070	-200.000	0.049	0.338
-320.056	-120.424	-0.214	0.036
-319.041	-56.121	0.204	0.091
-318.026	-85.930	0.078	0.024
-317.012	-50.621	0.168	-0.079
-315.997	-111.764	0.051	0.010
-314.983	25.112	-0.183	-0.152
-313.968	26.731	0.064	-0.054
-312.953	-130.624	-0.337	-0.045
-311.939	-192.674	-0.211	-0.002
-310.924	245.698	-0.123	-0.207
-309.910	-200.000	-0.003	-0.182
-308.895	-2.495	0.408	-0.286
-307.880	-51.293	0.143	-0.067
-306.866	347.644	0.061	0.119
-305.851	103.874	0.115	-0.135
-304.837	-139.880	-0.438	0.046
-303.822	-200.000	-0.007	0.054
-302.807	464.712	-0.039	-0.086
-301.793	-25.763	0.164	0.096
-300.778	800.000	-0.057	0.207
-299.764	-200.000	0.069	0.369
-298.749	237.422	0.128	0.213
-297.735	800.000	-0.123	0.403
-296.720	156.131	0.098	0.135
-295.705	574.215	0.078	0.189
-294.691	-88.842	0.378	0.112
-293.676	-11.652	0.072	0.047
-292.662	-200.000	0.010	0.091
-291.647	204.874	-0.048	-0.074
-290.632	392.591	0.176	0.365
-289.618	-126.482	-0.351	-0.052
-288.603	-139.116	-0.148	-0.016
-287.589	33.129	-0.182	-0.157
-286.574	-52.234	-0.211	-0.098
-285.559	112.344	-0.073	-0.088
-284.545	175.787	0.148	0.215
-283.530	-200.000	-0.064	-0.280
-282.516	800.000	-0.096	0.283
-281.501	-200.000	0.012	0.111
-280.486	206.251	-0.232	0.360
-279.472	37.870	-0.148	-0.131
-278.457	112.898	-0.157	-0.190
-277.443	-65.057	0.152	-0.061
-276.428	-21.441	-0.184	-0.112
-275.413	412.232	-0.088	0.186
-274.399	-107.529	-0.249	-0.054
-273.384	-82.717	0.297	0.096
-272.370	-200.000	0.025	-0.124
-271.355	20.383	-0.125	-0.101
-270.340	-27.430	0.327	0.190
-269.326	800.000	0.065	-0.226
-268.311	-52.578	-0.188	-0.086
-267.297	185.424	-0.192	-0.284
-266.282	-68.878	-0.250	0.096
-265.267	-143.669	0.108	0.010
-264.253	-200.000	-0.021	-0.175
-263.238	-200.000	-0.045	0.317
-262.224	-200.000	-0.035	0.422
-261.209	800.000	0.037	0.144
-260.195	-198.454	0.092	0.001
-259.180	91.909	0.145	-0.163
-258.165	800.000	0.031	-0.110
-257.151	397.063	-0.135	0.281
-256.136	-200.000	-0.036	-0.213
-255.122	-200.000	-0.016	0.657
-254.107	-62.029	-0.118	0.049
-253.092	-101.939	0.293	-0.070
-252.078	-200.000	0.018	0.150
-251.063	-50.474	0.207	0.097
-250.049	-0.460	0.227	-0.161
-249.034	-200.000	-0.008	-0.154
-248.019	-114.862	-0.194	0.037
-247.005	-54.636	-0.207	-0.093
-245.990	-197.046	-0.080	-0.001
-244.976	5.054	-0.213	-0.156
-243.961	-200.000	-0.054	-0.317
-242.946	252.942	0.187	-0.318
-241.932	-31.583	-0.049	-0.028
-240.917	582.905	0.073	-0.178
-239.903	-26.065	0.327	-0.192
-238.888	751.039	0.096	-0.258
-237.873	-108.363	0.110	-0.024
-236.859	-162.143	0.321	0.016
-235.844	-200.000	0.042	-0.307
-234.830	-200.000	-0.043	-0.194
-233.815	-63.259	0.168	0.069
-232.800	218.147	0.160	0.254
-231.786	18.042	-0.083	-0.066
-230.771	-31.419	-0.270	-0.151
-229.757	-93.274	0.415	-0.115
-228.742	59.722	-0.184	-0.181
-227.727	97.721	-0.339	0.387
-226.713	800.000	-0.086	0.328
-225.698	-73.829	0.218	-0.079
-224.684	800.000	-0.082	0.296
-223.669	178.866	-0.100	-0.145
-222.655	-68.660	0.149	0.057
-221.640	-68.838	0.096	-0.037
-220.625	-127.641	0.239	-0.034
-219.611	-73.974	0.106	-0.038
-218.596	-200.000	0.010	-0.080
-217.582	-200.000	-0.019	-0.199
-216.567	-200.000	-0.076	0.344
-215.552	-43.189	-0.377	-0.190
-214.538	-121.735	-0.400	0.066
-213.523	-153.147	-0.240	-0.017
-212.509	180.656	0.173	0.253
-211.494	217.410	-0.125	-0.198
-210.479	-200.000	-0.086	-0.392
-209.465	800.000	-0.017	0.059
-208.450	-200.000	0.024	-0.231
-207.436	-154.002	0.196	0.013
-206.421	-134.139	0.126	0.015
-205.406	-171.905	0.213	0.007
-204.392	-134.944	-0.234	0.028
-203.377	-43.515	0.054	-0.027
-202.363	105.810	-0.070	-0.082
-201.348	59.518	0.234	0.229
-200.333	-94.032	0.106	-0.029
-199.319	107.755	0.101	0.120
-198.304	-39.176	-0.070	-0.036
-197.290	341.259	-0.089	-0.174
-196.275	312.259	-0.123	0.230
-195.260	800.000	0.015	-0.045
-194.246	270.610	-0.207	-0.362
-193.231	800.000	0.032	-0.099
-192.217	-200.000	-0.033	0.329
-191.202	99.313	0.246	0.283
-190.187	800.000	-0.071	0.199
-189.173	-66.134	-0.156	-0.062
-188.158	-42.018	0.210	0.107
-187.144	79.699	-0.222	0.236
-186.129	-106.635	0.161	0.036
-185.114	-116.705	0.392	-0.072
-184.100	-57.336	0.022	0.010
-183.085	272.656	0.164	-0.288
-182.071	31.506	-0.289	0.247
-181.056	600.320	-0.042	0.102
-180.042	243.033	-0.051	0.085
-179.027	688.061	0.022	-0.057
-178.012	-200.000	0.021	-0.112
-176.998	16.053	-0.092	-0.072
-175.983	-200.000	0.005	-0.175
-174.969	148.643	0.031	-0.042
-173.954	-55.739	-0.157	0.070
-172.939	73.932	-0.042	-0.044
-171.925	-48.605	0.099	-0.047
-170.910	-42.897	-0.248	-0.125
-169.896	-179.300	0.196	-0.004
-168.881	-200.000	-0.021	-0.221
-167.866	-200.000	-0.009	-0.149
-166.852	-134.902	-0.122	-0.015
-165.837	419.867	0.071	0.150
-164.823	800.000	0.046	-0.152
-163.808	3.676	-0.160	-0.116
-162.793	800.000	-0.113	0.414
-161.779	-11.683	0.234	0.153
-160.764	-200.000	-0.039	0.514
-159.750	-200.000	-0.001	0.034
-158.735	-2.444	0.083	-0.058
-157.720	-42.645	-0.056	0.028
-156.706	-127.639	0.203	-0.029
-155.691	539.608	-0.017	0.041
-154.677	-172.605	0.121	0.004
-153.662	195.122	-0.042	-0.064
-152.647	-200.000	0.005	0.285
-151.633	72.052	0.303	0.313
-150.618	-60.650	0.335	-0.141
-149.604	-125.829	-0.252	-0.038
-148.589	252.233	-0.084	0.142
-147.574	-6.865	0.094	0.064
-146.560	479.080	0.072	-0.162
-145.545	4.511	-0.305	0.222
-144.531	-74.092	0.291	0.105
-143.516	109.115	-0.164	0.195
-142.502	-103.361	-0.073	-0.017
-141.487	108.704	-0.030	0.036
-140.472	-200.000	-0.008	0.397
-139.458	42.427	-0.193	0.174
-138.443	-81.025	-0.100	0.033
-137.429	-124.951	0.344	-0.053
-136.414	80.208	-0.126	0.135
-135.399	-142.575	-0.209	-0.020
-134.385	89.168	0.038	0.042
-133.370	-7.268	-0.055	-0.037
-132.356	-200.000	-0.166	-0.001
-131.341	-200.000	0.023	-0.372
-130.326	2.240	0.185	0.133
-129.312	-200.000	-0.010	-0.271
-128.297	-200.000	0.001	-0.078
-127.283	617.814	-0.062	0.153
-126.268	-200.000	0.000	0.056
-125.253	-91.840	-0.216	0.061
-124.239	490.017	0.158	0.357
-123.224	326.540	-0.059	-0.111
