DTS Sentinel unit serial number:	SN413079Multiplexer serial number:	ORYXHardware model number:	OX4-SRSoftware version number:	ORYX F/W v4.00 Oryx Data Collector v3.7.2.0data status	okinstallation	princeton_trtdifferential loss correction	single-endedforward channel	channel 1reverse channel	N/Adate	2019/09/15time	20:58:35forward acquisition time	60.00reverse acquisition time	0.00gamma	496.2192k internal	0.2327k external	0.2327temperature offset calibration	0.9959default loss term (dB/km)	0.3790temperature slope calibration	1.0000multiplexer offset coefficient	1.0000multiplexer slope coefficient	1.0000fibre end	0.00T internal ref (°C)	31.89T ext. ref 1 (°C)	8.05T ext. ref 2 (°C)	24.38length (m)	temperature (°C)	Stokes	anti-Stokes-747.200	200.155	0.108	0.168
-746.185	-200.000	-0.042	0.294
-745.171	-71.931	-0.117	0.044
-744.156	800.000	-0.010	0.037
-743.142	98.981	0.297	0.346
-742.127	56.995	-0.282	0.277
-741.112	45.326	-0.078	-0.072
-740.098	-200.000	0.049	-0.230
-739.083	-165.778	-0.383	0.017
-738.069	-139.745	-0.065	-0.007
-737.054	-200.000	-0.002	0.195
-736.039	-162.649	-0.521	0.026
-735.025	800.000	0.072	0.208
-734.010	-51.458	-0.149	-0.070
-732.996	397.811	-0.128	0.270
-731.981	72.215	0.150	-0.157
-730.966	800.000	-0.057	0.161
-729.952	43.838	-0.133	0.122
-728.937	-83.104	-0.268	-0.087
-727.923	-200.000	-0.006	0.206
-726.908	-143.850	0.350	-0.033
-725.894	461.251	0.063	-0.142
-724.879	424.822	-0.062	-0.133
-723.864	0.043	-0.144	0.103
-722.850	45.809	0.135	-0.126
-721.835	-200.000	0.020	-0.356
-720.821	-25.445	-0.123	-0.073
-719.806	46.802	-0.053	0.050
-718.791	-132.304	-0.295	0.038
-717.777	-105.464	-0.346	-0.079
-716.762	-138.621	-0.227	-0.025
-715.748	-166.929	0.260	-0.011
-714.733	800.000	0.048	0.199
-713.718	127.384	0.122	0.156
-712.704	-153.702	-0.217	0.015
-711.689	576.568	-0.091	-0.223
-710.675	-97.275	-0.203	-0.053
-709.660	-185.334	0.040	-0.001
-708.645	-92.642	0.293	0.083
-707.631	-200.000	-0.063	-0.493
-706.616	219.929	0.093	0.150
-705.602	-86.940	-0.170	-0.052
-704.587	-144.984	0.252	0.023
-703.572	544.285	-0.025	0.061
-702.558	9.104	0.189	-0.144
-701.543	-67.007	-0.178	-0.071
-700.529	134.701	-0.108	0.142
-699.514	-200.000	0.010	-0.159
-698.499	387.784	-0.074	-0.155
-697.485	-13.788	-0.078	-0.051
-696.470	-63.822	0.433	0.178
-695.456	-165.947	-0.083	-0.004
-694.441	800.000	-0.090	-0.342
-693.426	1.750	-0.258	-0.187
-692.412	-78.915	-0.054	-0.019
-691.397	800.000	-0.091	-0.291
-690.383	182.523	-0.268	-0.398
-689.368	768.113	0.087	-0.237
-688.354	800.000	0.083	-0.254
-687.339	152.860	0.173	0.238
-686.324	267.298	0.059	0.103
-685.310	124.782	0.184	0.232
-684.295	-84.281	-0.447	-0.143
-683.281	800.000	0.038	-0.139
-682.266	-8.135	-0.318	0.215
-681.251	-10.987	0.266	-0.177
-680.237	685.347	-0.154	-0.404
-679.222	-200.000	0.053	0.358
-678.208	109.753	0.124	0.149
-677.193	-130.775	-0.166	-0.022
-676.178	320.457	0.095	-0.182
-675.164	-56.595	-0.011	-0.005
-674.149	-121.227	0.285	0.048
-673.135	340.355	-0.116	0.228
-672.120	302.038	-0.096	-0.179
-671.105	-5.720	-0.277	0.191
-670.091	-40.498	-0.116	-0.060
-669.076	-200.000	0.045	0.384
-668.062	-200.000	-0.003	-0.240
-667.047	-200.000	-0.006	-0.191
-666.032	413.031	-0.128	-0.273
-665.018	152.965	0.097	-0.133
-664.003	15.269	-0.166	0.131
-662.989	126.239	0.178	0.227
-661.974	800.000	-0.166	0.503
-660.959	-148.622	-0.269	-0.022
-659.945	144.102	0.183	0.245
-658.930	-200.000	-0.018	0.096
-657.916	77.578	-0.169	-0.181
-656.901	591.962	0.146	0.363
-655.886	23.201	0.167	-0.138
-654.872	28.270	-0.159	-0.135
-653.857	-200.000	0.023	-0.113
-652.843	54.186	0.156	-0.151
-651.828	-34.763	-0.321	-0.176
-650.814	117.330	-0.317	-0.391
-649.799	7.805	0.136	-0.102
-648.784	-28.612	0.157	-0.091
-647.770	458.321	0.096	-0.213
-646.755	-83.381	-0.356	-0.115
-645.741	86.432	0.192	0.213
-644.726	115.281	-0.192	-0.235
-643.711	3.814	0.208	-0.153
-642.697	56.916	-0.055	0.054
-641.682	-200.000	0.103	0.000
-640.668	114.947	0.214	0.262
-639.653	10.990	-0.077	-0.059
-638.638	-129.020	0.357	-0.050
-637.624	-18.924	-0.111	-0.070
-636.609	163.891	-0.144	0.203
-635.595	3.293	-0.225	0.164
-634.580	49.170	-0.152	0.144
-633.565	800.000	0.041	0.154
-632.551	-73.610	0.140	0.051
-631.536	800.000	0.063	0.177
-630.522	-200.000	-0.005	0.384
-629.507	606.926	0.111	-0.277
-628.492	-148.045	0.323	-0.027
-627.478	-78.411	0.375	0.129
-626.463	346.762	0.057	0.114
-625.449	-200.000	-0.009	-0.184
-624.434	44.316	-0.050	-0.046
-623.419	-25.651	-0.287	-0.170
-622.405	-63.630	0.200	0.082
-621.390	93.118	0.243	-0.275
-620.376	-1.456	0.178	0.126
-619.361	135.151	-0.336	-0.438
-618.346	-200.000	-0.008	0.107
-617.332	-149.706	-0.100	0.008
-616.317	41.470	-0.201	-0.182
-615.303	-56.831	-0.208	0.092
-614.288	-5.808	0.252	-0.173
-613.273	208.138	0.071	-0.111
-612.259	40.676	-0.204	-0.184
-611.244	-200.000	0.044	-0.199
-610.230	732.659	-0.115	0.309
-609.215	-156.570	-0.126	-0.008
-608.201	800.000	0.061	0.174
-607.186	-200.000	0.055	-0.493
-606.171	-93.978	-0.236	-0.065
-605.157	-200.000	-0.017	0.202
-604.142	-24.093	-0.248	0.148
-603.128	422.420	0.109	0.235
-602.113	60.564	0.152	-0.151
-601.098	-200.000	-0.015	-0.163
-600.084	8.500	-0.174	-0.131
-599.069	353.814	-0.163	-0.325
-598.055	-88.155	-0.280	-0.084
-597.040	185.168	0.122	-0.182
-596.025	800.000	-0.042	-0.154
-595.011	-200.000	0.011	-0.207
-593.996	236.965	-0.133	-0.220
-592.982	800.000	0.090	-0.268
-591.967	-200.000	-0.023	0.290
-590.952	800.000	0.185	0.573
-589.938	12.242	0.226	-0.174
-588.923	-101.410	0.249	0.061
-587.909	137.192	0.220	0.288
-586.894	-200.000	0.013	-0.082
-585.879	800.000	-0.060	0.171
-584.865	-154.096	0.166	0.011
-583.850	513.881	-0.058	0.135
-582.836	-81.321	-0.284	-0.094
-581.821	-200.000	-0.034	0.302
-580.806	465.508	0.082	0.185
-579.792	-200.000	-0.005	-0.090
-578.777	145.841	0.070	0.095
-577.763	-53.291	-0.179	0.082
-576.748	-200.000	0.012	-0.347
-575.733	15.275	0.111	-0.087
-574.719	-1.495	-0.145	-0.103
-573.704	-157.238	-0.162	-0.010
-572.690	-125.305	0.378	0.058
-571.675	-54.807	-0.044	0.020
-570.661	89.752	0.086	0.097
-569.646	-200.000	-0.007	0.184
-568.631	-150.608	-0.194	0.015
-567.617	800.000	0.085	-0.328
-566.602	693.987	0.027	0.071
-565.588	131.713	0.281	0.362
-564.573	619.245	-0.161	-0.405
-563.558	800.000	-0.050	-0.151
-562.544	-169.381	-0.239	0.009
-561.529	380.042	-0.141	0.289
-560.515	800.000	-0.047	0.144
-559.500	107.530	-0.208	0.248
-558.485	-50.576	0.286	-0.135
-557.471	-2.043	0.147	0.104
-556.456	667.339	0.122	0.317
-555.442	800.000	0.031	-0.117
-554.427	382.027	-0.079	0.163
-553.412	-200.000	-0.007	0.085
-552.398	-49.591	-0.339	-0.161
-551.383	-159.396	0.147	-0.008
-550.369	800.000	-0.031	-0.085
-549.354	-108.765	-0.209	0.045
-548.339	205.657	0.071	-0.110
-547.325	-121.486	0.076	-0.013
-546.310	457.128	-0.158	0.352
-545.296	757.423	0.059	-0.159
-544.281	-103.551	-0.323	0.076
-543.266	-84.952	0.329	-0.103
-542.252	455.623	-0.050	-0.111
-541.237	-158.691	-0.298	-0.017
-540.223	96.169	0.161	0.184
-539.208	-9.148	-0.066	-0.044
-538.193	-42.848	-0.103	-0.052
-537.179	684.542	0.090	-0.236
-536.164	200.489	-0.187	-0.287
-535.150	131.880	-0.084	0.108
-534.135	-113.183	0.215	-0.042
-533.121	-86.346	0.157	0.048
-532.106	-200.000	-0.093	-0.490
-531.091	-8.524	-0.214	0.144
-530.077	-200.000	0.024	0.201
-529.062	128.274	0.154	0.197
-528.048	-200.000	0.031	-0.396
-527.033	-114.543	0.066	0.013
-526.018	-80.082	-0.072	0.024
-525.004	119.724	0.060	-0.075
-523.989	-110.774	0.308	0.063
-522.975	-200.000	-0.041	0.293
-521.960	2.452	-0.148	-0.107
-520.945	141.937	-0.115	-0.153
-519.931	800.000	0.065	0.208
-518.916	800.000	-0.009	0.039
-517.902	-72.541	0.496	-0.183
-516.887	173.194	0.032	-0.046
-515.872	-112.740	-0.369	0.073
-514.858	-75.434	-0.199	0.071
-513.843	158.788	0.099	-0.137
-512.829	640.987	0.101	-0.258
-511.814	175.841	0.052	0.075
-510.799	492.239	-0.093	0.212
-509.785	453.172	0.028	0.061
-508.770	12.700	0.205	-0.158
-507.756	-128.122	-0.371	-0.053
-506.741	800.000	-0.071	0.210
-505.726	-21.799	-0.136	0.083
-504.712	19.973	0.142	0.114
-503.697	-88.400	-0.188	-0.056
-502.683	38.835	-0.034	0.031
-501.668	98.419	-0.384	-0.442
-500.653	103.587	0.333	-0.391
-499.639	-151.966	0.118	-0.009
-498.624	-200.000	-0.011	-0.218
-497.610	800.000	-0.054	-0.184
-496.595	-200.000	-0.009	0.413
-495.581	-40.277	-0.161	-0.084
-494.566	163.251	0.168	0.236
-493.551	178.338	-0.049	-0.071
-492.537	317.228	0.072	0.136
-491.522	120.508	-0.133	0.165
-490.508	-86.919	0.075	-0.023
-489.493	-96.514	0.330	-0.087
-488.478	77.693	-0.203	-0.216
-487.464	467.983	0.051	-0.114
-486.449	137.324	-0.113	0.148
-485.435	301.381	-0.112	0.207
-484.420	-140.796	-0.194	-0.020
-483.405	59.081	0.095	-0.093
-482.391	62.011	-0.189	-0.188
-481.376	-200.000	0.055	0.268
-480.362	229.749	-0.204	0.333
-479.347	-54.842	-0.022	-0.010
-478.332	238.476	0.123	-0.204
-477.318	800.000	-0.049	-0.183
-476.303	800.000	0.022	0.064
-475.289	-200.000	-0.086	0.652
-474.274	800.000	0.098	-0.367
-473.259	500.051	-0.010	0.024
-472.245	-21.808	0.334	-0.203
-471.230	-200.000	0.025	0.117
-470.216	452.483	-0.057	0.125
-469.201	800.000	0.079	0.242
-468.186	205.531	-0.188	-0.291
-467.172	-172.507	0.184	0.006
-466.157	-200.000	-0.010	-0.370
-465.143	-120.668	-0.023	-0.004
-464.128	219.545	-0.178	-0.284
-463.113	45.154	-0.038	-0.035
-462.099	-94.223	-0.256	-0.070
-461.084	-105.214	0.245	-0.056
-460.070	-200.000	0.004	-0.271
-459.055	-200.000	0.027	0.119
-458.040	-147.994	-0.203	-0.017
-457.026	628.247	-0.011	-0.029
-456.011	608.849	-0.093	-0.233
-454.997	-157.661	-0.339	-0.020
-453.982	-167.654	-0.078	0.003
-452.968	-17.948	0.274	-0.171
-451.953	6.719	-0.176	-0.130
-450.938	18.653	-0.136	0.108
-449.924	800.000	0.039	-0.153
-448.909	-151.342	-0.086	-0.006
-447.895	13.795	-0.032	0.024
-446.880	-139.180	-0.160	0.017
-445.865	178.289	-0.191	0.277
-444.851	-200.000	0.008	-0.223
-443.836	646.161	0.096	-0.245
-442.822	-67.249	0.095	-0.037
-441.807	185.348	0.073	-0.108
-440.792	132.258	-0.145	-0.186
-439.778	-54.448	-0.153	0.069
-438.763	154.687	-0.073	-0.100
-437.749	82.677	-0.152	0.164
-436.734	-35.310	-0.151	-0.082
-435.719	-21.263	-0.273	0.166
-434.705	-200.000	-0.008	-0.056
-433.690	-200.000	0.014	0.237
-432.676	-200.000	-0.050	-0.253
-431.661	-200.000	-0.017	-0.195
-430.646	154.655	0.102	0.139
-429.632	71.031	-0.220	-0.227
-428.617	-53.705	-0.321	0.146
-427.603	58.531	0.060	-0.058
-426.588	800.000	0.065	0.277
-425.573	88.984	-0.106	-0.118
-424.559	724.847	0.145	-0.386
-423.544	800.000	0.094	0.379
-422.530	363.045	-0.053	0.106
-421.515	800.000	-0.045	0.182
-420.500	800.000	-0.082	0.285
-419.486	-124.679	0.325	-0.050
-418.471	82.900	-0.140	0.151
-417.457	210.372	-0.244	-0.382
-416.442	-138.170	-0.415	-0.046
-415.428	800.000	0.122	-0.428
-414.413	800.000	0.041	-0.132
-413.398	-145.451	0.178	-0.016
-412.384	800.000	-0.063	-0.180
-411.369	-114.445	-0.152	-0.029
-410.355	-200.000	-0.036	0.230
-409.340	570.139	0.086	0.208
-408.325	800.000	0.010	-0.041
-407.311	-74.048	-0.221	-0.080
-406.296	-200.000	-0.037	-0.197
-405.282	451.568	0.046	0.101
-404.267	-200.000	0.015	0.083
-403.252	-135.211	0.149	0.018
-402.238	577.959	-0.095	0.232
-401.223	-88.439	0.312	0.093
-400.209	-75.386	-0.354	0.126
-399.194	126.999	0.068	-0.086
-398.179	-200.000	-0.015	0.110
-397.165	-200.000	-0.005	-0.144
-396.150	800.000	-0.039	-0.116
-395.136	-146.101	0.076	-0.007
-394.121	-200.000	-0.076	-0.352
-393.106	33.295	-0.303	-0.261
-392.092	-61.350	0.187	0.078
-391.077	-56.479	0.373	0.164
-390.063	442.333	0.079	-0.173
-389.048	800.000	0.062	0.183
-388.033	268.709	-0.147	0.256
-387.019	-40.465	-0.062	-0.032
-386.004	24.736	-0.119	0.098
-384.990	161.494	0.180	-0.251
-383.975	-94.505	0.269	0.073
-382.960	-73.088	0.149	-0.054
-381.946	172.599	0.082	0.117
-380.931	63.812	-0.067	-0.067
-379.917	-126.288	-0.144	0.021
-378.902	-188.738	-0.331	-0.004
-377.888	190.801	0.032	-0.048
-376.873	-200.000	0.066	0.285
-375.858	-103.729	-0.231	0.054
-374.844	455.418	0.245	0.539
-373.829	32.660	-0.234	-0.201
-372.815	643.018	-0.054	0.136
-371.800	-200.000	-0.013	-0.224
-370.785	-176.664	0.211	-0.005
-369.771	100.077	-0.033	0.038
-368.756	147.141	0.209	-0.279
-367.742	-7.396	-0.183	-0.123
-366.727	-64.259	-0.162	0.066
-365.712	-200.000	0.006	0.078
-364.698	179.332	-0.247	-0.358
-363.683	405.528	-0.146	-0.307
-362.669	-30.033	-0.127	-0.072
-361.654	48.579	0.130	-0.121
-360.639	-57.123	0.260	0.114
-359.625	402.535	0.093	-0.194
-358.610	726.627	0.128	-0.338
-357.596	775.898	0.034	-0.091
-356.581	800.000	0.037	0.122
-355.566	-59.911	0.095	-0.040
-354.552	772.178	0.034	-0.093
-353.537	-107.468	-0.329	0.072
-352.523	-74.723	-0.551	-0.197
-351.508	-145.156	-0.333	-0.030
-350.493	24.198	-0.244	-0.200
-349.479	800.000	-0.063	-0.225
-348.464	-103.205	0.082	0.019
-347.450	-200.000	-0.006	0.404
-346.435	-5.586	0.299	-0.203
-345.420	128.942	0.103	-0.130
-344.406	-46.717	0.127	-0.062
-343.391	-200.000	-0.069	0.305
-342.377	-31.789	0.109	-0.061
-341.362	51.757	-0.050	-0.047
-340.348	-93.757	0.184	0.050
-339.333	293.958	0.192	0.349
-338.318	-48.219	-0.145	-0.070
-337.304	800.000	0.066	-0.206
-336.289	321.566	-0.162	0.306
-335.275	661.705	0.126	-0.322
-334.260	187.946	-0.078	-0.115
-333.245	-200.000	0.002	-0.148
-332.231	68.219	0.194	-0.197
-331.216	-120.645	-0.079	0.013
-330.202	-107.886	0.305	-0.066
-329.187	446.213	-0.125	-0.272
-328.172	13.289	-0.238	0.183
-327.158	-200.000	-0.017	-0.108
-326.143	-200.000	-0.063	-0.345
-325.129	22.750	-0.096	0.078
-324.114	-99.841	-0.145	0.036
-323.099	-200.000	0.021	-0.546
-322.085	-24.010	0.016	-0.010
-321.070	-86.116	0.164	-0.050
-320.056	-93.516	0.396	-0.109
-319.041	-67.859	0.443	-0.172
-318.026	800.000	0.020	0.056
-317.012	48.036	0.226	-0.209
-315.997	-89.417	-0.370	0.108
-314.983	-120.770	-0.323	0.054
-313.968	-125.213	-0.011	-0.002
-312.953	143.152	0.099	-0.130
-311.939	241.763	0.204	0.338
-310.924	-26.594	-0.193	0.112
-309.910	800.000	-0.054	0.196
-308.895	-200.000	0.001	-0.077
-307.880	95.482	0.235	-0.265
-306.866	-102.096	-0.373	0.089
-305.851	-108.236	0.072	-0.015
-304.837	-120.885	0.249	0.042
-303.822	-31.670	-0.084	0.047
-302.807	-76.535	-0.233	-0.081
-301.793	-58.331	-0.123	-0.053
-300.778	-200.000	-0.005	0.385
-299.764	236.338	-0.261	0.428
-298.749	-5.267	0.447	0.304
-297.735	52.508	0.225	-0.213
-296.720	-200.000	0.026	0.362
-295.705	-200.000	-0.019	0.196
-294.691	-200.000	-0.010	-0.307
-293.676	139.118	0.114	0.148
-292.662	-72.464	0.269	-0.098
-291.647	74.355	-0.089	-0.093
-290.632	-100.862	-0.227	0.055
-289.618	-104.465	0.088	-0.020
-288.603	-200.000	-0.010	-0.104
-287.589	800.000	-0.056	-0.203
-286.574	-17.561	0.149	-0.092
-285.559	88.757	-0.140	-0.154
-284.545	-200.000	0.078	0.388
-283.530	-90.914	0.195	0.056
-282.516	434.980	0.064	0.139
-281.501	31.043	-0.034	-0.029
-280.486	800.000	0.187	0.533
-279.472	-12.569	-0.149	-0.096
-278.457	-200.000	-0.008	0.045
-277.443	-93.385	-0.361	0.099
-276.428	654.779	0.065	0.166
-275.413	91.465	0.134	0.149
-274.399	800.000	0.061	-0.208
-273.384	62.905	-0.199	-0.197
-272.370	674.036	0.104	-0.267
-271.355	47.392	-0.074	-0.068
-270.340	-57.257	-0.071	0.031
-269.326	463.219	0.052	-0.115
-268.311	8.642	-0.074	0.055
-267.297	-200.000	-0.037	0.330
-266.282	-200.000	0.016	0.281
-265.267	-103.984	-0.302	0.070
-264.253	184.916	0.204	-0.299
-263.238	325.758	-0.120	-0.227
-262.224	800.000	0.111	0.346
-261.209	-200.000	0.006	-0.320
-260.195	600.294	-0.120	-0.295
-259.180	-142.800	0.162	0.016
-258.165	-85.200	-0.239	0.074
-257.151	-117.699	-0.276	0.049
-256.136	88.409	-0.210	-0.230
-255.122	-115.207	0.255	-0.048
-254.107	-200.000	-0.014	0.288
-253.092	266.472	0.113	0.195
-252.078	-14.984	0.373	-0.236
-251.063	-22.208	0.124	0.074
-250.049	154.355	0.312	0.424
-249.034	-53.205	-0.223	-0.101
-248.019	15.302	0.074	-0.058
-247.005	-165.000	-0.131	0.006
-245.990	800.000	-0.165	0.460
-244.976	-18.471	-0.144	0.089
-243.961	-200.000	-0.008	0.065
-242.946	-200.000	-0.024	0.201
-241.932	-131.427	-0.175	0.023
-240.917	102.148	0.075	-0.086
-239.903	800.000	-0.032	0.114
-238.888	80.748	0.227	0.242
-237.873	-31.364	-0.091	0.050
-236.859	127.916	0.110	0.138
-235.844	102.963	0.289	0.334
-234.830	-200.000	0.008	0.130
-233.815	800.000	0.070	0.277
-232.800	-9.581	0.179	-0.118
-231.786	80.683	0.136	0.145
-230.771	284.830	0.124	0.220
-229.757	-27.377	0.266	-0.153
-228.742	166.601	0.159	-0.223
-227.727	21.296	0.224	0.180
-226.713	-29.360	0.370	-0.209
-225.698	159.448	-0.045	0.062
-224.684	-200.000	0.010	0.086
-223.669	0.679	0.270	0.191
-222.655	141.967	0.213	0.279
-221.640	348.252	-0.156	0.304
-220.625	800.000	-0.029	0.108
-219.611	800.000	-0.032	-0.094
-218.596	296.778	-0.023	-0.042
-217.582	48.183	0.158	0.146
-216.567	52.398	-0.160	0.151
-215.552	24.039	0.148	0.120
-214.538	-181.964	0.025	-0.000
-213.523	-93.130	0.256	-0.070
-212.509	-200.000	0.034	0.154
-211.494	35.415	0.163	0.141
-210.479	800.000	-0.066	-0.207
-209.465	-169.426	-0.102	-0.004
-208.450	75.869	-0.183	0.191
-207.436	-118.114	0.161	-0.028
-206.421	-51.961	0.233	0.107
-205.406	158.322	0.098	0.134
-204.392	717.911	-0.050	-0.131
-203.377	-110.767	-0.294	-0.060
-202.363	-195.394	0.199	0.001
-201.348	-200.000	0.010	0.078
-200.333	-154.793	-0.459	-0.030
-199.319	-200.000	0.009	0.426
-198.304	-94.945	0.028	0.008
-197.290	-9.414	-0.407	-0.268
-196.275	-145.174	0.169	0.015
-195.260	-17.637	-0.148	0.091
-194.246	-41.126	0.256	0.130
-193.231	-71.215	-0.166	-0.061
-192.217	800.000	0.069	0.208
-191.202	20.460	-0.123	-0.098
-190.187	-89.824	-0.021	-0.006
-189.173	-127.883	0.238	0.034
-188.158	233.067	0.065	0.106
-187.144	49.015	0.210	0.195
-186.129	72.337	-0.176	0.181
-185.114	-200.000	0.022	-0.312
-184.100	-96.382	0.302	0.079
-183.085	774.098	0.135	0.364
-182.071	8.433	-0.143	-0.106
-181.056	-61.572	0.128	0.053
-180.042	-27.502	-0.020	0.012
-179.027	-56.291	0.115	-0.050
-178.012	-52.454	-0.148	-0.067
-176.998	4.052	0.216	0.156
-175.983	-76.537	0.349	-0.121
-174.969	-181.343	0.030	-0.001
-173.954	-200.000	0.007	-0.110
-172.939	800.000	-0.113	0.475
-171.925	-200.000	-0.015	0.355
-170.910	-89.542	-0.102	0.030
-169.896	-115.693	0.312	-0.058
-168.881	-200.000	0.001	-0.041
-167.866	-17.921	-0.207	0.128
-166.852	-120.818	-0.225	-0.037
-165.837	-200.000	-0.012	-0.316
-164.823	-100.386	-0.215	-0.053
-163.808	-148.834	0.218	-0.017
-162.793	-3.274	0.026	0.018
-161.779	33.967	-0.197	-0.169
-160.764	-150.259	0.273	-0.021
-159.750	-135.622	-0.233	0.027
-158.735	196.155	0.184	-0.276
-157.720	-74.969	0.330	0.116
-156.706	511.334	0.095	0.218
-155.691	-200.000	0.056	-0.270
-154.677	-0.227	-0.203	-0.142
-153.662	150.013	0.007	0.009
-152.647	-83.468	0.292	0.092
-151.633	-89.252	-0.202	0.059
-150.618	73.930	-0.060	0.062
-149.604	553.663	-0.146	-0.346
-148.589	800.000	-0.045	0.158
-147.574	110.046	-0.019	-0.023
-146.560	-67.775	-0.118	0.045
-145.545	7.079	0.086	-0.063
-144.531	-200.000	-0.063	-0.305
-143.516	198.163	0.193	0.291
-142.502	36.871	0.065	0.056
-141.487	-200.000	-0.024	-0.154
-140.472	79.285	-0.199	0.210
-139.458	-78.098	-0.345	0.117
-138.443	63.605	0.045	-0.045
-137.429	-96.011	-0.190	0.050
-136.414	74.815	-0.164	-0.170
-135.399	-187.447	-0.043	0.001
-134.385	-125.729	0.195	-0.029
-133.370	734.724	-0.090	0.238
-132.356	800.000	-0.050	-0.152
-131.341	-200.000	-0.003	-0.058
-130.326	474.726	0.142	-0.316
-129.312	6.108	0.241	-0.176
-128.297	-200.000	-0.046	-0.285
-127.283	-200.000	0.023	-0.123
-126.268	241.239	0.126	-0.207
-125.253	328.059	-0.022	-0.041
-124.239	-61.514	-0.333	0.138
-123.224	-99.652	0.216	0.053
-122.210	-85.635	-0.018	0.006
