DTS Sentinel unit serial number:	SN413079Multiplexer serial number:	ORYXHardware model number:	OX4-SRSoftware version number:	ORYX F/W v4.00 Oryx Data Collector v3.7.2.0data status	okinstallation	princeton_trtdifferential loss correction	single-endedforward channel	channel 1reverse channel	N/Adate	2019/09/13time	10:42:36forward acquisition time	60.00reverse acquisition time	0.00gamma	496.2192k internal	0.2321k external	0.2321temperature offset calibration	1.0154default loss term (dB/km)	0.3790temperature slope calibration	1.0000multiplexer offset coefficient	1.0000multiplexer slope coefficient	1.0000fibre end	0.00T internal ref (°C)	31.50T ext. ref 1 (°C)	4.58T ext. ref 2 (°C)	28.35length (m)	temperature (°C)	Stokes	anti-Stokes-747.200	643.556	0.081	-0.210
-746.185	44.320	-0.070	-0.065
-745.171	-36.014	0.039	0.021
-744.156	-200.000	-0.082	0.399
-743.142	521.845	-0.064	0.152
-742.127	800.000	-0.024	0.079
-741.112	800.000	0.107	-0.367
-740.098	-115.361	-0.447	-0.085
-739.083	183.457	0.049	-0.073
-738.069	-200.000	-0.013	-0.231
-737.054	800.000	-0.078	0.324
-736.039	-200.000	0.033	0.291
-735.025	-9.822	0.289	0.194
-734.010	-45.162	-0.137	-0.069
-732.996	-163.013	-0.239	-0.012
-731.981	30.334	-0.164	0.142
-730.966	-200.000	0.045	-0.304
-729.952	800.000	0.055	-0.242
-728.937	-200.000	-0.018	-0.446
-727.923	-50.217	-0.218	0.104
-726.908	122.495	0.157	-0.198
-725.894	-47.663	-0.127	-0.062
-724.879	-200.000	-0.001	-0.080
-723.864	125.980	0.203	-0.259
-722.850	-41.532	0.436	-0.226
-721.835	-200.000	-0.001	0.155
-720.821	-200.000	-0.001	-0.221
-719.806	126.200	-0.141	-0.181
-718.791	800.000	-0.111	-0.316
-717.777	-83.020	-0.297	0.097
-716.762	-49.360	-0.107	0.052
-715.748	-84.419	0.227	0.072
-714.733	800.000	0.093	0.302
-713.718	-200.000	0.001	-0.031
-712.704	-7.477	0.197	-0.135
-711.689	189.528	-0.047	-0.071
-710.675	-200.000	0.027	-0.331
-709.660	53.102	0.094	0.091
-708.645	91.261	-0.148	-0.167
-707.631	219.722	0.154	0.248
-706.616	-148.233	-0.292	0.024
-705.602	-83.957	0.190	0.061
-704.587	13.729	-0.143	0.112
-703.572	545.104	0.078	-0.188
-702.558	-200.000	0.024	0.408
-701.543	365.464	0.119	-0.242
-700.529	-200.000	-0.006	-0.061
-699.514	-87.405	0.261	-0.080
-698.499	166.302	-0.097	-0.139
-697.485	495.256	0.092	-0.213
-696.470	-126.742	0.115	0.017
-695.456	92.210	0.025	-0.028
-694.441	-77.000	0.140	0.049
-693.426	97.209	-0.163	0.189
-692.412	-9.901	-0.150	0.100
-691.397	-200.000	-0.005	-0.282
-690.383	-195.212	-0.451	0.003
-689.368	49.817	0.242	0.231
-688.354	267.538	0.072	0.128
-687.339	305.147	-0.141	0.263
-686.324	5.445	0.117	0.087
-685.310	-119.281	0.388	-0.068
-684.295	800.000	-0.111	0.354
-683.281	50.836	0.057	-0.055
-682.266	253.918	-0.063	0.109
-681.251	283.420	-0.201	-0.365
-680.237	42.131	-0.271	0.248
-679.222	-155.740	-0.380	0.024
-678.208	-97.616	0.190	-0.050
-677.193	-61.638	-0.140	0.059
-676.178	-8.196	0.317	-0.215
-675.164	-200.000	0.017	-0.084
-674.149	549.893	-0.146	-0.353
-673.135	265.223	-0.068	-0.120
-672.120	253.591	0.056	0.096
-671.105	44.574	-0.153	-0.142
-670.091	-74.036	-0.082	-0.030
-669.076	-200.000	0.008	-0.115
-668.062	800.000	0.112	-0.358
-667.047	-200.000	0.012	0.576
-666.032	800.000	-0.116	0.393
-665.018	-107.393	0.303	0.067
-664.003	0.619	0.233	0.168
-662.989	-200.000	0.009	0.123
-661.974	28.217	0.241	-0.205
-660.959	-34.920	0.067	0.037
-659.945	-159.517	-0.072	0.004
-658.930	-200.000	-0.047	-0.210
-657.916	589.550	0.137	-0.340
-656.901	-129.967	0.242	0.033
-655.886	102.572	-0.055	-0.065
-654.872	-200.000	-0.012	-0.069
-653.857	-117.127	-0.061	-0.011
-652.843	-95.888	0.363	-0.098
-651.828	85.115	0.224	-0.248
-650.814	-75.183	0.353	-0.127
-649.799	-133.169	-0.354	-0.045
-648.784	342.301	0.037	0.073
-647.770	-85.478	0.170	-0.053
-646.755	47.815	0.080	-0.075
-645.741	40.398	0.163	0.148
-644.726	-200.000	-0.099	0.459
-643.711	160.897	-0.235	-0.331
-642.697	-158.693	-0.200	0.012
-641.682	32.285	0.226	0.197
-640.668	639.326	-0.069	-0.178
-639.653	5.599	0.097	-0.072
-638.638	-200.000	-0.025	0.225
-637.624	800.000	0.119	0.382
-636.609	212.842	0.151	-0.241
-635.595	-24.418	-0.125	-0.075
-634.580	-123.433	-0.190	0.030
-633.565	719.432	-0.108	0.290
-632.551	-60.612	0.186	0.080
-631.536	-109.069	0.191	0.041
-630.522	48.951	0.076	-0.072
-629.507	255.390	-0.147	0.253
-628.492	-39.326	-0.101	0.053
-627.478	-110.154	-0.262	-0.055
-626.463	-3.338	0.123	0.086
-625.449	405.503	0.029	0.061
-624.434	-98.641	0.393	-0.101
-623.419	-94.109	0.424	0.117
-622.405	223.676	0.132	-0.214
-621.390	117.010	-0.223	-0.275
-620.376	-63.905	0.407	0.167
-619.361	-98.321	-0.295	-0.076
-618.346	-200.000	0.010	-0.247
-617.332	-117.735	0.142	-0.026
-616.317	-102.166	0.125	0.030
-615.303	-200.000	-0.012	0.369
-614.288	-33.967	0.101	-0.056
-613.273	-200.000	0.076	0.336
-612.259	-58.769	-0.225	0.098
-611.244	-200.000	-0.024	-0.120
-610.230	-36.982	-0.092	-0.049
-609.215	-160.466	-0.248	-0.013
-608.201	-200.000	0.004	-0.243
-607.186	-178.885	-0.253	-0.006
-606.171	-170.930	-0.177	-0.006
-605.157	800.000	-0.055	-0.216
-604.142	-156.802	0.413	0.026
-603.128	-88.223	0.326	-0.098
-602.113	-121.373	0.190	-0.032
-601.098	-12.482	-0.373	0.245
-600.084	-114.893	0.328	0.063
-599.069	-200.000	0.054	-0.258
-598.055	-62.780	0.288	-0.120
-597.040	-102.006	0.208	0.050
-596.025	-43.025	-0.390	-0.199
-595.011	14.206	-0.264	-0.207
-593.996	-39.277	-0.294	0.155
-592.982	-161.075	0.223	-0.012
-591.967	22.324	-0.220	0.180
-590.952	-200.000	0.066	0.300
-589.938	-200.000	0.000	-0.109
-588.923	-200.000	-0.029	0.199
-587.909	-200.000	-0.040	0.241
-586.894	44.921	0.110	0.102
-585.879	800.000	-0.063	0.220
-584.865	163.178	0.160	0.226
-583.850	-149.043	-0.184	-0.015
-582.836	424.008	0.038	0.082
-581.821	39.373	-0.201	-0.180
-580.806	14.204	0.364	-0.285
-579.792	353.864	0.041	-0.081
-578.777	78.013	-0.181	-0.194
-577.763	-17.572	0.109	-0.069
-576.748	-95.711	0.202	0.054
-575.733	-144.371	0.146	0.014
-574.719	-18.501	-0.255	-0.160
-573.704	364.732	-0.081	0.163
-572.690	-200.000	-0.043	0.242
-571.675	143.741	0.178	-0.238
-570.661	-15.312	-0.056	-0.036
-569.646	-45.986	-0.362	-0.179
-568.631	348.793	0.197	-0.390
-567.617	473.473	-0.019	-0.044
-566.602	-191.830	0.197	0.002
-565.588	49.644	0.268	-0.253
-564.573	-81.534	-0.146	-0.048
-563.558	-101.671	-0.438	0.107
-562.544	-115.801	-0.220	-0.041
-561.529	-12.441	0.301	-0.198
-560.515	650.627	-0.055	-0.142
-559.500	153.322	0.167	0.230
-558.485	22.283	0.034	-0.028
-557.471	-136.659	0.042	-0.005
-556.456	-200.000	0.012	-0.169
-555.442	86.622	-0.218	-0.241
-554.427	-90.058	-0.059	-0.017
-553.412	72.168	-0.253	-0.264
-552.398	-96.820	0.208	-0.055
-551.383	101.164	-0.044	0.052
-550.369	-126.613	0.097	-0.014
-549.354	800.000	-0.059	-0.189
-548.339	20.435	-0.134	0.108
-547.325	27.630	0.186	-0.157
-546.310	-43.373	0.100	0.050
-545.296	368.436	0.194	0.394
-544.281	-200.000	-0.010	-0.318
-543.266	189.008	0.213	-0.319
-542.252	149.230	-0.122	-0.166
-541.237	50.111	-0.220	-0.208
-540.223	734.905	-0.041	-0.111
-539.208	-102.309	-0.171	-0.041
-538.193	31.455	-0.263	-0.227
-537.179	-194.547	0.092	-0.001
-536.164	26.344	-0.063	0.052
-535.150	-29.265	-0.163	0.094
-534.135	-73.035	0.115	0.042
-533.121	-51.179	0.297	0.140
-532.106	-84.674	0.208	-0.066
-531.091	-200.000	0.049	0.427
-530.077	-97.177	0.232	-0.061
-529.062	-156.790	0.406	-0.025
-528.048	82.384	-0.179	0.195
-527.033	745.789	-0.028	0.075
-526.018	-200.000	-0.019	-0.137
-525.004	263.015	0.052	0.091
-523.989	1.145	-0.046	0.033
-522.975	-110.546	0.094	0.019
-521.960	800.000	-0.082	0.248
-520.945	-136.770	0.050	0.006
-519.931	-162.816	-0.437	0.021
-518.916	178.832	-0.055	-0.081
-517.902	53.208	-0.171	0.164
-516.887	-128.701	-0.231	0.033
-515.872	800.000	-0.066	-0.254
-514.858	-134.974	0.179	-0.022
-513.843	-200.000	-0.006	0.035
-512.829	-200.000	-0.002	0.082
-511.814	-19.511	0.156	-0.097
-510.799	-162.027	-0.144	0.007
-509.785	-98.499	0.441	0.113
-508.770	-130.122	0.102	0.014
-507.756	800.000	0.031	0.110
-506.741	-142.369	0.185	0.018
-505.726	-200.000	-0.027	-0.127
-504.712	-67.272	-0.408	0.161
-503.697	-31.665	0.089	0.050
-502.683	62.212	-0.127	0.127
-501.668	349.237	-0.010	0.020
-500.653	-138.740	-0.199	-0.022
-499.639	-93.252	0.215	-0.060
-498.624	-51.526	0.261	-0.122
-497.610	30.608	0.247	-0.211
-496.595	49.078	-0.186	0.175
-495.581	-36.837	-0.246	-0.132
-494.566	168.397	0.080	0.115
-493.551	-200.000	0.012	0.234
-492.537	352.297	-0.060	0.118
-491.522	-68.198	-0.228	0.089
-490.508	-97.894	0.429	-0.111
-489.493	119.922	-0.090	-0.112
-488.478	-179.475	-0.203	0.004
-487.464	-19.920	-0.059	-0.036
-486.449	-200.000	0.010	0.072
-485.435	-145.057	-0.124	-0.011
-484.420	-41.386	0.183	-0.094
-483.405	23.488	-0.212	-0.174
-482.391	234.271	-0.127	0.209
-481.376	-46.613	0.161	-0.079
-480.362	800.000	-0.106	0.349
-479.347	-51.890	0.221	-0.103
-478.332	-151.901	-0.318	0.023
-477.318	-128.791	0.166	-0.023
-476.303	-124.751	0.154	-0.024
-475.289	-0.401	-0.105	0.075
-474.274	-63.560	-0.326	0.134
-473.259	65.500	-0.331	0.335
-472.245	-45.930	-0.156	0.077
-471.230	779.690	-0.095	0.259
-470.216	-145.230	0.149	-0.014
-469.201	-115.208	0.253	-0.048
-468.186	422.437	0.046	0.099
-467.172	-116.995	0.127	0.023
-466.157	473.746	0.105	0.237
-465.143	-28.316	0.195	-0.113
-464.128	-200.000	0.317	0.001
-463.113	251.069	-0.089	-0.151
-462.099	-67.543	0.121	0.048
-461.084	9.340	0.151	0.114
-460.070	-87.144	-0.233	-0.071
-459.055	341.190	0.017	-0.033
-458.040	-79.656	0.101	-0.034
-457.026	800.000	0.054	-0.210
-456.011	13.718	0.297	-0.231
-454.997	120.550	-0.308	0.383
-453.982	-81.930	0.131	0.043
-452.968	-5.532	-0.107	-0.073
-451.953	-130.313	-0.169	-0.023
-450.938	94.588	0.114	0.130
-449.924	156.924	-0.181	-0.250
-448.909	50.005	0.147	-0.139
-447.895	-56.979	-0.318	-0.140
-446.880	-101.889	-0.274	-0.066
-445.865	115.502	-0.251	0.306
-444.851	-120.805	-0.042	-0.007
-443.836	158.658	0.054	0.075
-442.822	720.874	0.026	0.069
-441.807	-185.063	0.142	-0.002
-440.792	-135.768	-0.111	0.013
-439.778	800.000	-0.024	-0.092
-438.763	-118.369	-0.325	-0.058
-437.749	162.762	0.136	-0.191
-436.734	-82.500	0.156	-0.050
-435.719	91.374	-0.139	-0.156
-434.705	800.000	-0.074	-0.252
-433.690	133.582	0.070	0.091
-432.676	64.244	-0.099	-0.100
-431.661	-43.986	-0.277	-0.139
-430.646	686.048	-0.011	0.028
-429.632	-169.708	-0.140	0.005
-428.617	227.839	-0.143	-0.233
-427.603	-200.000	-0.018	-0.198
-426.588	-104.514	0.112	0.026
-425.573	-45.012	-0.118	-0.058
-424.559	-90.692	0.560	0.162
-423.544	-78.598	-0.167	-0.057
-422.530	3.080	-0.080	0.058
-421.515	-66.962	0.159	0.062
-420.500	-17.029	0.012	0.008
-419.486	-113.221	-0.160	-0.031
-418.471	-41.135	-0.369	-0.190
-417.457	122.756	0.082	0.103
-416.442	20.539	0.206	-0.166
-415.428	-95.063	0.154	0.041
-414.413	765.852	0.059	0.159
-413.398	365.931	0.124	-0.248
-412.384	61.555	0.178	-0.177
-411.369	-87.083	-0.117	-0.035
-410.355	170.325	0.069	0.098
-409.340	-81.908	0.239	-0.078
-408.325	-91.140	0.103	-0.029
-407.311	-90.300	0.089	0.026
-406.296	24.593	-0.036	-0.030
-405.282	-17.216	-0.115	-0.072
-404.267	-18.753	-0.191	0.119
-403.252	71.700	-0.130	-0.135
-402.238	12.128	-0.037	0.028
-401.223	346.767	0.081	0.160
-400.209	341.067	0.138	0.269
-399.194	-49.770	0.265	0.126
-398.179	502.587	-0.091	0.209
-397.165	-46.572	-0.355	0.174
-396.150	172.139	-0.108	-0.154
-395.136	-33.319	-0.288	0.159
-394.121	129.297	0.277	-0.353
-393.106	800.000	-0.078	-0.236
-392.092	-29.632	0.238	-0.135
-391.077	361.347	-0.048	0.096
-390.063	-38.165	0.078	-0.041
-389.048	156.532	-0.049	0.068
-388.033	800.000	-0.025	-0.107
-387.019	-78.122	0.133	0.046
-386.004	15.956	0.032	-0.025
-384.990	-101.536	0.185	0.045
-383.975	-200.000	-0.102	-0.629
-382.960	326.318	-0.045	-0.085
-381.946	34.713	-0.140	0.122
-380.931	-65.236	0.168	-0.068
-379.917	-128.793	0.138	-0.019
-378.902	-200.000	0.009	0.216
-377.888	-29.590	-0.193	-0.110
-376.873	267.382	0.194	0.338
-375.858	-200.000	-0.032	-0.145
-374.844	291.817	0.138	-0.251
-373.829	257.902	-0.117	-0.201
-372.815	-126.080	0.322	0.048
-371.800	-200.000	0.011	-0.112
-370.785	-15.175	-0.293	-0.187
-369.771	91.799	0.211	-0.236
-368.756	47.674	-0.099	-0.092
-367.742	-48.417	-0.181	-0.087
-366.727	116.347	0.260	0.317
-365.712	105.634	-0.233	-0.274
-364.698	-63.218	-0.244	0.100
-363.683	62.584	-0.136	0.136
-362.669	-200.000	-0.004	0.099
-361.654	88.586	0.078	-0.087
-360.639	76.380	-0.230	0.243
-359.625	800.000	0.059	-0.220
-358.610	-115.781	-0.294	-0.055
-357.596	-13.732	0.239	-0.154
-356.581	-63.251	0.088	-0.036
-355.566	95.851	-0.096	0.109
-354.552	-200.000	-0.020	0.122
-353.537	7.283	-0.100	0.074
-352.523	-33.948	-0.253	0.138
-351.508	800.000	-0.036	0.127
-350.493	-200.000	0.003	0.052
-349.479	-118.459	-0.176	-0.031
-348.464	-79.114	0.112	-0.038
-347.450	800.000	-0.090	0.359
-346.435	33.329	0.157	-0.136
-345.420	-200.000	-0.059	-0.285
-344.406	406.131	0.079	0.167
-343.391	478.272	0.084	0.190
-342.377	148.672	0.131	-0.176
-341.362	800.000	0.052	0.177
-340.348	29.805	-0.059	-0.050
-339.333	-30.595	0.242	-0.136
-338.318	-200.000	-0.005	0.282
-337.304	1.997	0.046	0.033
-336.289	32.804	0.121	-0.104
-335.275	-200.000	0.095	0.000
-334.260	335.538	-0.152	-0.293
-333.245	19.308	0.080	-0.064
-332.231	-28.875	-0.131	0.075
-331.216	65.643	-0.031	-0.032
-330.202	171.594	0.062	-0.088
-329.187	-200.000	0.046	0.220
-328.172	-81.707	-0.166	0.054
-327.158	-200.000	0.023	0.588
-326.143	-35.277	0.083	0.045
-325.129	423.609	0.150	-0.320
-324.114	175.959	-0.273	-0.393
-323.099	127.723	-0.085	-0.107
-322.085	-170.955	0.131	-0.004
-321.070	88.189	-0.058	-0.064
-320.056	800.000	-0.025	-0.088
-319.041	227.653	0.168	0.272
-318.026	-200.000	-0.040	-0.203
-317.012	-108.947	0.274	-0.058
-315.997	217.070	0.187	-0.297
-314.983	330.968	0.134	0.257
-313.968	147.260	-0.066	0.088
-312.953	120.411	-0.204	-0.251
-311.939	168.317	-0.076	0.107
-310.924	-91.975	-0.258	-0.073
-309.910	-62.281	0.163	0.068
-308.895	215.010	-0.053	-0.083
-307.880	799.402	0.067	0.184
-306.866	-10.892	-0.033	-0.022
-305.851	2.386	0.038	-0.027
-304.837	-200.000	-0.008	0.182
-303.822	-51.617	-0.115	0.053
-302.807	160.036	0.252	-0.348
-301.793	-200.000	-0.022	0.114
-300.778	163.976	-0.167	0.233
-299.764	21.064	0.169	-0.136
-298.749	800.000	-0.018	-0.063
-297.735	-200.000	0.068	-0.379
-296.720	341.131	0.086	-0.166
-295.705	-83.948	-0.382	-0.121
-294.691	81.203	0.101	0.108
-293.676	-63.471	-0.178	-0.073
-292.662	-94.842	0.183	0.049
-291.647	-200.000	0.037	-0.360
-290.632	-200.000	0.045	-0.227
-289.618	-94.184	0.539	-0.147
-288.603	234.493	-0.180	0.294
-287.589	800.000	0.107	0.422
-286.574	800.000	-0.095	0.298
-285.559	-74.890	0.176	0.063
-284.545	800.000	-0.112	0.316
-283.530	-200.000	-0.024	0.171
-282.516	-200.000	-0.024	-0.225
-281.501	-102.017	0.395	-0.095
-280.486	-89.925	0.338	-0.098
-279.472	247.796	-0.088	-0.148
-278.457	-3.420	-0.221	0.153
-277.443	-19.237	-0.346	0.213
-276.428	62.920	-0.029	0.028
-275.413	128.395	0.213	0.269
-274.399	-45.082	0.205	0.101
-273.384	-114.383	0.074	-0.014
-272.370	-46.393	-0.309	0.151
-271.355	28.486	-0.173	-0.145
-270.340	-200.000	-0.045	-0.309
-269.326	-94.171	-0.151	0.041
-268.311	581.088	-0.083	-0.202
-267.297	-63.452	0.397	-0.162
-266.282	61.672	-0.027	0.027
-265.267	-106.607	-0.340	0.075
-264.253	-84.916	-0.267	-0.083
-263.238	411.394	0.157	0.331
-262.224	800.000	0.047	0.190
-261.209	612.584	0.125	0.309
-260.195	331.399	0.062	-0.118
-259.180	149.152	-0.106	-0.142
-258.165	800.000	0.063	0.216
-257.151	800.000	0.070	0.208
-256.136	-45.192	0.324	0.160
-255.122	-200.000	-0.025	-0.219
-254.107	800.000	0.007	0.029
-253.092	133.072	-0.167	0.213
-252.078	-200.000	-0.015	0.211
-251.063	8.681	0.315	-0.235
-250.049	57.832	0.246	0.239
-249.034	-200.000	-0.016	0.323
-248.019	-200.000	-0.010	-0.150
-247.005	-200.000	0.019	-0.214
-245.990	559.357	-0.168	-0.401
-244.976	-136.721	-0.161	0.018
-243.961	800.000	-0.029	-0.108
-242.946	-135.420	-0.248	-0.029
-241.932	146.754	0.061	0.081
-240.917	137.628	0.160	0.208
-239.903	136.994	-0.180	0.234
-238.888	294.633	0.255	0.462
-237.873	800.000	0.057	0.229
-236.859	280.809	-0.101	-0.179
-235.844	283.911	-0.173	0.308
-234.830	152.153	-0.042	-0.057
-233.815	-200.000	0.067	-0.473
-232.800	155.696	0.124	-0.169
-231.786	-39.924	-0.043	0.022
-230.771	-200.000	-0.023	-0.110
-229.757	27.674	0.503	-0.420
-228.742	-103.510	0.131	-0.031
-227.727	-155.402	-0.238	0.015
-226.713	800.000	0.066	-0.228
-225.698	377.662	0.112	0.227
-224.684	800.000	0.023	-0.076
-223.669	-200.000	0.017	-0.187
-222.655	213.579	-0.279	0.436
-221.640	-79.322	0.131	0.044
-220.625	-65.307	0.352	0.140
-219.611	-115.845	0.080	0.015
-218.596	800.000	0.143	-0.532
-217.582	49.549	0.194	0.181
-216.567	-112.522	-0.269	-0.053
-215.552	69.087	-0.230	-0.234
-214.538	129.906	-0.045	0.057
-213.523	-200.000	-0.010	-0.107
-212.509	39.121	0.272	0.241
-211.494	614.645	-0.041	-0.103
-210.479	359.865	-0.074	-0.146
-209.465	278.118	0.008	0.014
-208.450	-132.713	-0.394	0.050
-207.436	-81.973	-0.054	-0.017
-206.421	131.616	-0.070	-0.089
-205.406	161.399	-0.190	0.263
-204.392	800.000	-0.033	0.120
-203.377	-200.000	0.053	0.263
-202.363	49.309	0.133	0.124
-201.348	-137.164	0.200	-0.023
-200.333	556.579	-0.137	-0.327
-199.319	-200.000	-0.091	0.443
-198.304	-15.869	0.316	-0.199
-197.290	-93.929	-0.172	0.047
-196.275	-200.000	0.009	0.231
-195.260	-179.182	0.081	0.002
-194.246	378.892	-0.061	-0.124
-193.231	75.915	-0.134	0.140
-192.217	-136.683	0.187	-0.021
-191.202	800.000	0.059	-0.205
-190.187	134.587	0.125	-0.160
-189.173	800.000	-0.046	0.162
-188.158	800.000	0.025	-0.104
-187.144	-200.000	0.061	-0.313
-186.129	3.219	-0.210	0.151
-185.114	-200.000	0.015	0.125
-184.100	-200.000	0.001	-0.366
-183.085	7.309	0.132	0.098
-182.071	800.000	-0.055	-0.194
-181.056	-200.000	0.047	0.429
-180.042	-44.143	-0.334	-0.166
-179.027	800.000	-0.041	0.130
-178.012	102.890	0.175	-0.202
-176.998	-63.049	0.090	-0.037
-175.983	6.012	-0.137	0.100
-174.969	49.889	0.168	0.156
-173.954	188.051	-0.143	-0.212
-172.939	544.435	0.175	0.413
-171.925	800.000	0.086	0.281
-170.910	35.674	-0.191	-0.166
-169.896	138.892	-0.252	0.328
-168.881	800.000	0.039	-0.115
-167.866	61.689	-0.099	0.097
-166.852	8.736	0.285	-0.212
-165.837	445.895	0.026	0.057
-164.823	123.760	-0.119	-0.148
-163.808	309.918	-0.256	0.472
-162.793	12.737	-0.257	0.196
-161.779	-109.861	-0.221	0.046
-160.764	-91.772	-0.204	0.057
-159.750	-82.730	-0.169	0.054
-158.735	55.142	0.150	0.143
-157.720	-22.097	0.217	-0.130
-156.706	280.047	-0.149	0.263
-155.691	342.971	-0.078	-0.152
-154.677	36.015	-0.138	-0.120
-153.662	-200.000	0.022	0.358
-152.647	-58.173	-0.076	-0.033
-151.633	244.404	0.231	-0.382
-150.618	508.957	-0.036	0.083
-149.604	-200.000	0.058	0.354
-148.589	-200.000	0.020	-0.194
-147.574	334.913	-0.097	0.185
-146.560	-98.523	-0.438	-0.111
-145.545	-62.224	-0.103	-0.042
-144.531	-200.000	0.014	0.157
-143.516	712.776	-0.035	0.091
-142.502	-141.172	0.382	0.038
-141.487	-72.317	0.167	0.061
-140.472	-92.740	0.089	-0.024
-139.458	42.450	-0.206	0.185
-138.443	-200.000	-0.021	-0.121
-137.429	-65.836	0.153	0.061
-136.414	800.000	0.051	-0.203
-135.399	3.724	-0.271	0.195
-134.385	-47.992	-0.326	-0.156
-133.370	-200.000	-0.026	-0.257
-132.356	664.081	0.114	0.290
-131.341	-200.000	-0.017	0.245
-130.326	800.000	-0.077	-0.252
-129.312	284.513	0.011	0.019
-128.297	123.224	0.186	0.230
-127.283	-200.000	-0.081	0.426
-126.268	-108.521	0.422	-0.090
-125.253	131.914	0.242	0.307
-124.239	800.000	-0.054	-0.213
-123.224	-115.455	0.217	-0.040
-122.210	-115.214	-0.510	-0.095
-121.195	-200.000	-0.002	-0.107
