DTS Sentinel unit serial number:	SN413079Multiplexer serial number:	ORYXHardware model number:	OX4-SRSoftware version number:	ORYX F/W v4.00 Oryx Data Collector v3.7.2.0data status	okinstallation	princeton_trtdifferential loss correction	single-endedforward channel	channel 1reverse channel	N/Adate	2019/09/15time	03:58:35forward acquisition time	60.00reverse acquisition time	0.00gamma	496.2192k internal	0.2324k external	0.2324temperature offset calibration	0.9988default loss term (dB/km)	0.3790temperature slope calibration	1.0000multiplexer offset coefficient	1.0000multiplexer slope coefficient	1.0000fibre end	0.00T internal ref (°C)	30.94T ext. ref 1 (°C)	4.61T ext. ref 2 (°C)	25.90length (m)	temperature (°C)	Stokes	anti-Stokes-747.200	195.079	0.190	0.291
-746.185	81.400	0.251	0.274
-745.171	-73.879	-0.333	0.122
-744.156	280.554	-0.070	0.126
-743.142	-124.859	0.367	0.057
-742.127	408.430	-0.089	-0.191
-741.112	-103.200	0.192	0.046
-740.098	-200.000	-0.049	-0.301
-739.083	-55.154	0.243	-0.111
-738.069	-9.502	0.286	-0.193
-737.054	-96.246	-0.215	0.057
-736.039	312.414	-0.075	0.141
-735.025	800.000	0.061	0.220
-734.010	-173.903	0.230	0.007
-732.996	16.714	-0.094	-0.075
-731.981	-200.000	-0.100	-0.504
-730.966	-200.000	-0.029	0.196
-729.952	-200.000	-0.001	0.006
-728.937	19.950	0.210	0.171
-727.923	-188.808	-0.267	0.003
-726.908	-76.265	0.286	-0.102
-725.894	53.830	-0.247	0.239
-724.879	-138.894	0.228	-0.025
-723.864	-144.431	-0.348	-0.033
-722.850	-200.000	0.032	-0.352
-721.835	216.053	0.119	0.190
-720.821	800.000	0.123	-0.459
-719.806	34.779	-0.182	-0.161
-718.791	55.790	0.154	-0.150
-717.777	-200.000	0.084	-0.460
-716.762	800.000	-0.107	-0.309
-715.748	-200.000	0.050	0.232
-714.733	-200.000	0.000	-0.069
-713.718	42.534	-0.176	-0.161
-712.704	-66.098	0.134	-0.054
-711.689	800.000	-0.004	-0.018
-710.675	242.091	0.092	0.155
-709.660	800.000	-0.081	0.291
-708.645	51.719	0.359	-0.344
-707.631	151.316	0.117	0.161
-706.616	53.036	0.240	0.232
-705.602	800.000	-0.101	0.284
-704.587	-83.966	-0.060	-0.019
-703.572	-200.000	-0.005	0.132
-702.558	-89.298	-0.197	0.059
-701.543	-200.000	-0.013	0.148
-700.529	505.990	-0.053	0.124
-699.514	-161.281	-0.037	0.002
-698.499	42.623	0.210	-0.193
-697.485	358.059	-0.054	0.108
-696.470	-200.000	0.002	0.067
-695.456	473.000	-0.255	-0.578
-694.441	-126.817	-0.149	-0.022
-693.426	-15.040	0.022	0.014
-692.412	46.569	-0.117	0.109
-691.397	800.000	-0.102	0.364
-690.383	519.106	-0.003	0.008
-689.368	229.701	-0.046	-0.076
-688.354	-200.000	-0.008	-0.261
-687.339	99.395	-0.167	-0.195
-686.324	124.910	0.142	-0.180
-685.310	-141.461	0.056	-0.006
-684.295	155.449	-0.187	0.259
-683.281	-200.000	-0.007	-0.231
-682.266	-184.566	-0.088	0.001
-681.251	-200.000	-0.009	0.291
-680.237	-162.497	0.058	0.003
-679.222	120.215	0.218	0.273
-678.208	-200.000	-0.002	0.234
-677.193	-200.000	-0.001	0.042
-676.178	800.000	-0.026	0.113
-675.164	-200.000	0.021	0.425
-674.149	-61.179	0.168	0.071
-673.135	-113.878	-0.318	0.062
-672.120	-68.727	0.229	-0.089
-671.105	489.366	0.107	-0.246
-670.091	-200.000	-0.034	0.198
-669.076	380.732	-0.058	0.119
-668.062	-143.382	0.138	0.013
-667.047	-92.374	0.388	-0.110
-666.032	-163.006	-0.093	0.005
-665.018	160.474	0.055	-0.077
-664.003	81.841	0.208	0.227
-662.989	597.804	0.084	-0.210
-661.974	-75.885	-0.228	-0.081
-660.959	-44.846	0.167	0.084
-659.945	800.000	0.046	0.145
-658.930	-1.657	0.249	-0.176
-657.916	52.872	-0.099	-0.096
-656.901	162.559	0.166	-0.235
-655.886	-147.558	-0.251	-0.021
-654.872	-118.639	0.096	0.017
-653.857	-53.582	-0.374	-0.172
-652.843	-63.054	0.144	0.060
-651.828	-88.596	-0.266	0.080
-650.814	-200.000	0.052	0.237
-649.799	-168.485	-0.298	-0.011
-648.784	-185.604	-0.129	0.002
-647.770	-48.397	-0.129	-0.062
-646.755	-21.395	0.113	-0.070
-645.741	287.232	-0.072	-0.131
-644.726	-39.968	-0.378	-0.199
-643.711	-142.185	-0.317	-0.032
-642.697	-200.000	0.016	-0.075
-641.682	233.997	0.043	-0.071
-640.668	-32.324	-0.229	0.128
-639.653	-5.818	-0.256	-0.176
-638.638	-93.687	-0.298	-0.083
-637.624	-28.647	0.383	-0.222
-636.609	63.777	-0.211	-0.213
-635.595	389.210	0.154	-0.320
-634.580	-35.725	0.101	-0.055
-633.565	-200.000	0.034	0.208
-632.551	322.736	0.089	0.171
-631.536	-121.029	-0.051	0.009
-630.522	-27.859	-0.252	-0.147
-629.507	-142.164	-0.370	-0.037
-628.492	-168.485	-0.020	0.001
-627.478	424.310	-0.080	-0.173
-626.463	97.917	0.121	-0.140
-625.449	163.959	-0.069	0.098
-624.434	-3.873	-0.130	0.091
-623.419	66.962	0.215	0.220
-622.405	124.850	0.098	0.124
-621.390	-120.069	-0.232	-0.040
-620.376	-134.941	-0.329	0.040
-619.361	-69.003	-0.159	0.061
-618.346	-140.351	-0.137	0.014
-617.332	-200.000	-0.007	-0.190
-616.317	800.000	0.015	-0.052
-615.303	-200.000	0.012	-0.319
-614.288	-93.936	0.289	0.080
-613.273	800.000	0.007	0.020
-612.259	-154.694	-0.077	-0.005
-611.244	26.246	0.294	-0.247
-610.230	800.000	-0.076	-0.235
-609.215	-200.000	-0.001	0.137
-608.201	-94.458	0.074	-0.020
-607.186	231.281	-0.088	0.145
-606.171	-59.321	0.130	-0.056
-605.157	-42.370	-0.353	-0.181
-604.142	-200.000	0.026	-0.176
-603.128	-200.000	0.044	-0.249
-602.113	177.077	0.280	-0.409
-601.098	-191.527	-0.403	-0.004
-600.084	-163.230	-0.270	-0.013
-599.069	-68.013	0.113	-0.044
-598.055	93.235	0.243	0.276
-597.040	800.000	0.055	0.172
-596.025	800.000	-0.061	0.234
-595.011	-200.000	0.015	0.126
-593.996	-61.978	-0.119	-0.050
-592.982	65.017	-0.376	0.381
-591.967	220.092	0.127	-0.204
-590.952	90.029	0.123	-0.138
-589.938	-40.903	0.132	-0.068
-588.923	-200.000	0.040	-0.273
-587.909	-134.214	-0.361	-0.045
-586.894	-30.057	-0.183	0.104
-585.879	6.032	0.317	0.236
-584.865	-64.740	-0.279	0.113
-583.850	-157.664	0.137	0.008
-582.836	447.342	-0.197	0.436
-581.821	21.000	-0.192	-0.156
-580.806	-21.941	0.330	-0.201
-579.792	800.000	-0.076	0.243
-578.777	77.556	-0.070	0.075
-577.763	-200.000	0.005	-0.027
-576.748	-30.256	0.067	-0.038
-575.733	286.650	0.195	-0.353
-574.719	27.871	-0.089	-0.076
-573.704	800.000	0.031	0.116
-572.690	318.007	0.028	-0.054
-571.675	-124.814	0.104	0.016
-570.661	-91.397	0.332	0.095
-569.646	800.000	-0.019	0.082
-568.631	404.558	-0.056	-0.117
-567.617	-18.098	-0.137	-0.086
-566.602	13.828	-0.234	-0.183
-565.588	800.000	0.026	-0.105
-564.573	59.774	-0.216	-0.214
-563.558	150.292	0.065	-0.089
-562.544	-200.000	0.015	0.268
-561.529	-158.913	-0.270	-0.015
-560.515	194.721	0.071	0.108
-559.500	-85.140	-0.318	0.100
-558.485	645.435	-0.052	0.133
-557.471	-74.029	0.252	0.092
-556.456	176.130	0.112	-0.163
-555.442	-200.000	0.003	0.058
-554.427	-44.382	0.295	-0.148
-553.412	-200.000	-0.016	-0.360
-552.398	358.698	-0.107	0.213
-551.383	-120.363	-0.255	0.043
-550.369	-4.801	0.220	0.152
-549.354	-200.000	-0.030	-0.267
-548.339	55.513	-0.120	-0.116
-547.325	55.647	-0.198	0.192
-546.310	-58.403	0.041	-0.018
-545.296	-114.534	-0.333	0.064
-544.281	5.447	0.310	0.229
-543.266	149.470	-0.179	-0.243
-542.252	-200.000	-0.072	-0.441
-541.237	-59.725	0.248	0.107
-540.223	-3.339	-0.158	-0.110
-539.208	14.481	0.277	-0.217
-538.193	-200.000	-0.041	0.228
-537.179	768.758	-0.068	-0.185
-536.164	-200.000	-0.016	-0.134
-535.150	67.562	0.135	0.138
-534.135	800.000	0.018	0.049
-533.121	800.000	-0.024	-0.095
-532.106	40.509	-0.082	0.074
-531.091	237.909	-0.066	-0.109
-530.077	-138.984	0.107	-0.012
-529.062	11.913	-0.051	-0.039
-528.048	-120.754	0.256	-0.043
-527.033	139.110	-0.132	0.173
-526.018	12.753	-0.239	0.185
-525.004	34.188	0.283	-0.247
-523.989	251.008	0.066	0.112
-522.975	-19.045	0.298	-0.185
-521.960	-200.000	0.021	0.133
-520.945	-200.000	-0.002	-0.095
-519.931	507.906	-0.078	-0.180
-518.916	800.000	-0.015	-0.067
-517.902	-200.000	0.001	-0.263
-516.887	-111.675	-0.259	-0.052
-515.872	-200.000	-0.013	-0.073
-514.858	120.344	-0.170	-0.211
-513.843	73.904	-0.047	-0.050
-512.829	-32.154	0.347	0.194
-511.814	-109.523	0.109	-0.023
-510.799	-90.852	-0.201	0.058
-509.785	-200.000	-0.028	-0.156
-508.770	800.000	-0.043	0.162
-507.756	37.465	-0.107	-0.095
-506.741	179.210	0.089	-0.131
-505.726	11.268	-0.262	0.201
-504.712	133.676	-0.048	0.062
-503.697	-144.579	-0.518	0.048
-502.683	4.051	0.290	0.212
-501.668	222.115	0.128	0.206
-500.653	-15.615	-0.317	0.202
-499.639	387.202	0.148	-0.305
-498.624	-108.087	0.064	0.014
-497.610	800.000	-0.049	-0.208
-496.595	653.123	-0.019	-0.048
-495.581	-200.000	0.013	-0.148
-494.566	121.685	-0.105	0.131
-493.551	39.806	0.107	0.096
-492.537	340.372	-0.102	0.199
-491.522	800.000	0.023	-0.091
-490.508	-27.519	-0.284	-0.165
-489.493	-156.081	0.307	0.019
-488.478	92.638	-0.088	-0.100
-487.464	223.725	-0.044	0.070
-486.449	800.000	-0.070	0.233
-485.435	800.000	-0.043	-0.169
-484.420	13.509	-0.217	0.168
-483.405	36.172	0.087	0.076
-482.391	-200.000	0.379	0.000
-481.376	-59.213	-0.364	-0.157
-480.362	-63.409	0.073	0.030
-479.347	-59.379	-0.105	0.045
-478.332	64.616	-0.133	0.134
-477.318	136.998	-0.058	-0.075
-476.303	31.489	-0.324	-0.278
-475.289	597.625	-0.024	0.058
-474.274	173.946	0.112	-0.161
-473.259	800.000	-0.030	0.102
-472.245	800.000	0.068	-0.200
-471.230	388.663	0.065	0.134
-470.216	800.000	-0.151	0.425
-469.201	199.998	0.087	0.133
-468.186	-35.772	0.139	0.075
-467.172	-61.750	0.178	-0.075
-466.157	-200.000	-0.042	-0.258
-465.143	-115.844	-0.163	0.030
-464.128	-10.968	-0.035	0.023
-463.113	-22.949	0.049	-0.029
-462.099	185.069	-0.111	-0.165
-461.084	-88.456	0.363	-0.108
-460.070	71.940	0.083	0.086
-459.055	-182.913	0.127	-0.002
-458.040	230.504	-0.266	0.434
-457.026	-21.901	0.089	0.054
-456.011	10.623	0.271	-0.206
-454.997	67.940	0.070	-0.071
-453.982	-121.901	0.154	-0.025
-452.968	-200.000	0.005	0.310
-451.953	-74.036	0.097	0.035
-450.938	19.875	0.127	-0.102
-449.924	-34.376	0.082	-0.045
-448.909	-200.000	-0.032	0.209
-447.895	-200.000	0.051	0.242
-446.880	800.000	0.030	-0.123
-445.865	-69.666	0.050	0.019
-444.851	-79.287	-0.077	-0.026
-443.836	-200.000	0.006	-0.037
-442.822	800.000	0.092	-0.348
-441.807	713.373	-0.126	-0.332
-440.792	-102.154	-0.262	0.063
-439.778	86.902	0.217	0.239
-438.763	141.486	0.210	0.277
-437.749	-200.000	0.009	-0.280
-436.734	-200.000	-0.030	0.283
-435.719	237.570	-0.114	0.189
-434.705	-147.182	-0.100	0.009
-433.690	151.341	-0.036	0.049
-432.676	-200.000	0.040	0.259
-431.661	-63.380	0.089	0.036
-430.646	-25.674	-0.304	-0.179
-429.632	-195.861	0.400	0.003
-428.617	107.035	-0.134	0.159
-427.603	487.767	-0.084	-0.191
-426.588	-200.000	0.008	-0.155
-425.573	102.499	0.253	0.294
-424.559	-51.604	-0.233	0.108
-423.544	147.211	-0.226	0.304
-422.530	-98.749	0.173	0.044
-421.515	-52.559	0.125	0.057
-420.500	-119.137	0.136	0.024
-419.486	155.376	0.211	-0.289
-418.471	-87.460	-0.206	-0.062
-417.457	-44.688	0.069	0.034
-416.442	325.975	-0.086	0.164
-415.428	800.000	0.060	-0.195
-414.413	86.793	-0.017	-0.019
-413.398	-150.127	0.058	0.004
-412.384	-85.958	-0.411	-0.127
-411.369	106.368	0.164	0.194
-410.355	52.046	-0.165	-0.156
-409.340	-118.827	-0.149	0.026
-408.325	-78.013	-0.200	-0.069
-407.311	283.973	0.050	-0.090
-406.296	-105.748	0.291	0.066
-405.282	-175.078	0.304	-0.008
-404.267	313.935	-0.161	-0.302
-403.252	69.339	-0.037	-0.038
-402.238	800.000	-0.111	0.411
-401.223	-58.579	0.153	0.066
-400.209	4.575	0.104	0.076
-399.194	-70.055	-0.295	0.112
-398.179	23.279	-0.270	-0.221
-397.165	-88.493	-0.143	0.042
-396.150	167.811	0.241	-0.341
-395.136	201.100	-0.071	-0.109
-394.121	10.730	0.246	0.187
-393.106	441.971	-0.052	0.114
-392.092	-15.039	0.240	-0.153
-391.077	-69.541	0.289	-0.110
-390.063	343.640	0.161	-0.314
-389.048	640.033	0.037	-0.093
-388.033	-137.430	0.139	0.016
-387.019	-200.000	-0.014	0.436
-386.004	-111.220	-0.165	-0.034
-384.990	-55.287	0.142	-0.063
-383.975	-142.433	-0.234	0.023
-382.960	-42.509	-0.315	-0.160
-381.946	-111.935	0.186	-0.037
-380.931	311.774	0.127	-0.236
-379.917	-85.728	0.286	0.088
-378.902	65.760	-0.040	-0.041
-377.888	-99.411	0.213	0.053
-376.873	624.470	-0.053	-0.133
-375.858	-49.967	0.101	0.048
-374.844	191.308	0.080	-0.121
-373.829	-121.167	0.352	0.059
-372.815	-200.000	-0.035	-0.232
-371.800	-200.000	0.014	-0.206
-370.785	-200.000	0.020	0.118
-369.771	-78.879	0.094	-0.032
-368.756	-110.193	0.228	0.047
-367.742	-134.857	0.221	0.027
-366.727	-113.670	0.255	0.050
-365.712	-125.225	-0.181	-0.027
-364.698	-12.959	0.239	0.154
-363.683	165.122	0.136	0.192
-362.669	190.780	0.071	0.106
-361.654	16.091	-0.105	0.082
-360.639	-200.000	-0.005	0.373
-359.625	16.922	0.220	0.173
-358.610	320.607	-0.178	-0.337
-357.596	390.577	0.011	-0.022
-356.581	-166.815	0.220	-0.009
-355.566	374.919	0.082	-0.167
-354.552	-84.126	-0.097	0.031
-353.537	258.805	0.096	0.164
-352.523	19.146	-0.195	0.155
-351.508	800.000	-0.034	0.100
-350.493	73.310	-0.164	-0.170
-349.479	326.497	-0.094	-0.179
-348.464	800.000	0.017	0.057
-347.450	783.151	-0.099	0.268
-346.435	-68.762	0.315	0.121
-345.420	800.000	-0.130	-0.445
-344.406	358.385	0.053	-0.105
-343.391	-88.338	-0.149	-0.044
-342.377	800.000	0.123	-0.385
-341.362	-200.000	-0.010	0.162
-340.348	800.000	-0.062	-0.234
-339.333	-100.749	-0.347	-0.085
-338.318	71.407	-0.084	0.086
-337.304	1.042	0.213	-0.152
-336.289	0.544	0.191	0.135
-335.275	290.033	-0.161	0.291
-334.260	-200.000	0.003	-0.249
-333.245	-120.597	0.249	-0.042
-332.231	800.000	0.054	-0.182
-331.216	-27.051	-0.448	-0.260
-330.202	49.653	0.160	0.150
-329.187	-38.171	-0.153	-0.080
-328.172	-156.234	-0.183	0.011
-327.158	-47.524	0.133	0.064
-326.143	367.833	0.046	0.093
-325.129	-82.964	0.389	0.125
-324.114	-49.897	-0.241	0.114
-323.099	160.940	-0.186	-0.259
-322.085	-135.755	-0.166	0.019
-321.070	496.660	-0.089	0.203
-320.056	-51.135	-0.144	0.067
-319.041	-60.075	0.346	-0.147
-318.026	271.892	0.065	0.114
-317.012	-200.000	0.005	0.360
-315.997	273.056	-0.250	0.439
-314.983	-57.314	-0.042	-0.018
-313.968	-26.391	0.269	0.157
-312.953	-100.453	0.220	0.054
-311.939	96.028	0.323	0.367
-310.924	-54.108	0.109	0.049
-309.910	168.609	-0.074	0.104
-308.895	-15.641	0.122	0.078
-307.880	-200.000	0.001	0.033
-306.866	-131.974	-0.395	-0.051
-305.851	800.000	0.032	0.093
-304.837	-135.382	-0.245	0.029
-303.822	800.000	0.075	-0.256
-302.807	130.932	0.019	-0.025
-301.793	800.000	-0.014	0.045
-300.778	-138.611	0.324	-0.035
-299.764	-86.587	-0.088	0.027
-298.749	-42.518	0.281	-0.142
-297.735	-64.819	0.092	0.037
-296.720	205.783	-0.110	-0.169
-295.705	-50.994	0.039	0.018
-294.691	32.514	-0.144	0.124
-293.676	54.121	0.157	0.150
-292.662	-200.000	0.091	0.452
-291.647	-200.000	-0.002	-0.120
-290.632	-106.428	0.340	-0.075
-289.618	234.081	0.109	-0.178
-288.603	800.000	-0.025	0.101
-287.589	-66.000	-0.275	0.109
-286.574	800.000	0.059	-0.184
-285.559	-153.960	0.269	-0.018
-284.545	12.233	-0.149	-0.114
-283.530	69.906	0.164	-0.168
-282.516	-200.000	0.020	-0.097
-281.501	-42.477	0.393	-0.199
-280.486	-42.451	0.310	-0.157
-279.472	-200.000	0.017	0.114
-278.457	-76.804	0.259	0.090
-277.443	157.993	-0.098	-0.134
-276.428	800.000	0.086	-0.252
-275.413	-200.000	0.030	-0.304
-274.399	107.234	0.119	-0.140
-273.384	-159.621	0.211	0.012
-272.370	-200.000	0.007	-0.183
-271.355	260.201	-0.042	0.072
-270.340	-200.000	0.047	-0.306
-269.326	735.168	-0.075	-0.199
-268.311	800.000	0.043	-0.168
-267.297	108.904	-0.231	0.274
-266.282	797.039	0.173	0.474
-265.267	-200.000	0.039	0.198
-264.253	-29.297	0.112	0.064
-263.238	-10.068	0.080	0.053
-262.224	-200.000	0.002	0.095
-261.209	-200.000	0.037	-0.232
-260.195	33.222	0.124	-0.107
-259.180	64.168	-0.229	-0.228
-258.165	54.528	0.206	0.196
-257.151	-200.000	-0.027	0.252
-256.136	-200.000	-0.014	0.248
-255.122	108.526	0.173	0.205
-254.107	738.463	0.108	0.288
-253.092	369.971	0.051	0.101
-252.078	800.000	-0.090	0.326
-251.063	168.543	0.119	-0.168
-250.049	-101.431	0.211	0.051
-249.034	267.825	0.131	0.228
-248.019	531.397	-0.113	0.264
-247.005	233.293	0.203	-0.331
-245.990	-4.995	0.196	-0.134
-244.976	209.624	-0.059	-0.091
-243.961	-31.450	-0.140	-0.078
-242.946	800.000	-0.107	0.441
-241.932	800.000	-0.069	-0.239
-240.917	464.536	0.076	0.168
-239.903	-136.988	-0.387	0.044
-238.888	-200.000	0.023	0.137
-237.873	-90.415	0.243	0.070
-236.859	-200.000	-0.012	-0.113
-235.844	-15.324	-0.189	0.120
-234.830	800.000	-0.117	0.452
-233.815	-200.000	-0.002	-0.099
-232.800	-144.238	-0.342	-0.032
-231.786	43.022	-0.203	-0.183
-230.771	800.000	-0.041	-0.120
-229.757	185.294	0.063	-0.093
-228.742	-143.586	-0.125	0.012
-227.727	30.137	-0.161	0.136
-226.713	66.229	0.372	0.373
-225.698	141.599	-0.164	0.215
-224.684	-74.662	0.224	-0.080
-223.669	633.711	0.071	-0.178
-222.655	508.475	0.021	-0.049
-221.640	-111.418	-0.256	0.052
-220.625	33.109	-0.108	-0.093
-219.611	128.808	-0.079	0.100
-218.596	201.240	-0.112	-0.171
-217.582	-200.000	0.027	0.407
-216.567	-68.394	-0.198	0.076
-215.552	-141.689	0.281	-0.028
-214.538	-21.398	0.060	0.036
-213.523	526.348	-0.076	0.178
-212.509	90.404	0.100	-0.111
-211.494	-138.601	-0.231	0.025
-210.479	800.000	-0.080	0.231
-209.465	230.849	-0.249	0.402
-208.450	-186.824	0.099	0.001
-207.436	800.000	-0.096	-0.300
-206.421	-114.405	-0.098	0.019
-205.406	95.303	-0.115	-0.129
-204.392	-200.000	0.020	0.295
-203.377	800.000	0.056	0.169
-202.363	-200.000	-0.019	0.188
-201.348	-34.818	0.296	-0.160
-200.333	-200.000	0.057	-0.298
-199.319	-162.058	0.047	0.002
-198.304	52.803	-0.241	-0.228
-197.290	256.102	0.154	-0.261
-196.275	183.430	0.117	0.171
-195.260	-193.181	0.227	-0.002
-194.246	-200.000	0.017	-0.364
-193.231	37.202	-0.170	-0.149
-192.217	-17.248	0.190	-0.118
-191.202	110.455	0.204	0.243
-190.187	406.740	-0.025	0.051
-189.173	-94.119	0.162	0.044
-188.158	-200.000	0.023	-0.289
-187.144	-85.408	0.310	0.096
-186.129	48.624	-0.249	0.230
-185.114	800.000	-0.061	-0.264
-184.100	140.000	-0.048	-0.063
-183.085	109.050	-0.055	0.065
-182.071	93.444	-0.111	-0.124
-181.056	91.149	-0.063	-0.069
-180.042	-200.000	-0.005	-0.099
-179.027	800.000	-0.104	-0.370
-178.012	-9.788	-0.170	-0.112
-176.998	125.309	-0.254	0.317
-175.983	-44.277	-0.250	0.124
-174.969	694.476	-0.094	0.242
-173.954	339.794	0.121	0.233
-172.939	170.003	0.219	-0.310
-171.925	-117.326	0.326	0.058
-170.910	-99.144	0.342	-0.085
-169.896	18.988	0.086	0.068
-168.881	248.166	0.208	0.347
-167.866	263.231	0.067	-0.115
-166.852	11.516	-0.169	0.128
-165.837	8.795	-0.198	0.147
-164.823	329.726	-0.048	0.091
-163.808	-37.037	-0.044	0.023
-162.793	42.722	-0.148	0.133
-161.779	-188.721	-0.149	0.002
-160.764	-3.864	-0.217	-0.149
-159.750	16.392	0.080	-0.062
-158.735	-76.519	0.225	0.078
-157.720	-200.000	-0.264	0.001
-156.706	800.000	-0.078	0.254
-155.691	631.299	-0.184	0.460
-154.677	182.894	-0.062	0.090
-153.662	800.000	-0.115	-0.390
-152.647	333.020	-0.027	-0.051
-151.633	691.259	0.050	0.129
-150.618	-131.072	-0.520	-0.068
-149.604	-126.922	0.235	0.034
-148.589	-75.722	-0.034	-0.012
-147.574	-47.807	-0.184	-0.088
-146.560	-200.000	0.022	-0.183
-145.545	-21.135	0.303	-0.183
-144.531	134.603	0.222	-0.284
-143.516	191.261	0.010	-0.015
-142.502	-18.898	0.242	0.148
-141.487	800.000	0.078	-0.267
-140.472	-125.543	-0.198	0.030
-139.458	800.000	0.061	0.230
-138.443	16.513	0.313	0.243
-137.429	21.038	0.137	0.110
-136.414	-139.086	-0.392	0.042
-135.399	145.732	-0.050	0.066
-134.385	151.491	0.103	0.138
-133.370	800.000	-0.029	0.121
-132.356	36.409	0.270	-0.235
-131.341	-89.988	0.395	0.113
-130.326	121.882	-0.047	0.057
-129.312	-82.582	0.164	0.053
-128.297	330.068	0.104	0.197
-127.283	-200.000	0.018	-0.252
-126.268	544.631	0.132	0.312
-125.253	458.475	-0.059	-0.129
-124.239	800.000	-0.035	-0.095
-123.224	-63.939	0.195	-0.078
-122.210	186.257	-0.110	0.161
-121.195	-124.968	-0.195	0.030
