DTS Sentinel unit serial number:	SN413079Multiplexer serial number:	ORYXHardware model number:	OX4-SRSoftware version number:	ORYX F/W v4.00 Oryx Data Collector v3.7.2.0data status	okinstallation	princeton_trtdifferential loss correction	single-endedforward channel	channel 1reverse channel	N/Adate	2019/09/19time	05:46:35forward acquisition time	60.00reverse acquisition time	0.00gamma	496.2192k internal	0.2343k external	0.2343temperature offset calibration	1.0022default loss term (dB/km)	0.3790temperature slope calibration	1.0000multiplexer offset coefficient	1.0000multiplexer slope coefficient	1.0000fibre end	0.00T internal ref (°C)	19.25T ext. ref 1 (°C)	0.59T ext. ref 2 (°C)	12.96length (m)	temperature (°C)	Stokes	anti-Stokes-747.200	583.071	-0.081	0.200
-746.185	-200.000	-0.019	0.183
-745.171	-173.951	0.036	0.001
-744.156	-148.976	-0.275	0.022
-743.142	-200.000	-0.018	0.247
-742.127	-200.000	0.017	0.192
-741.112	-200.000	-0.052	0.374
-740.098	164.814	0.244	-0.345
-739.083	800.000	0.059	0.184
-738.069	-200.000	0.032	0.621
-737.054	253.072	0.223	0.382
-736.039	-200.000	0.043	0.221
-735.025	-200.000	-0.010	-0.151
-734.010	41.857	-0.226	-0.206
-732.996	-52.894	-0.247	-0.114
-731.981	158.008	-0.184	0.256
-730.966	-101.739	-0.047	-0.011
-729.952	497.550	-0.012	-0.028
-728.937	-86.523	-0.040	-0.012
-727.923	-154.675	-0.108	0.007
-726.908	800.000	-0.045	0.165
-725.894	800.000	-0.077	0.226
-724.879	94.459	-0.065	0.074
-723.864	-32.161	0.413	0.231
-722.850	4.708	-0.251	0.185
-721.835	274.053	-0.079	0.139
-720.821	-200.000	-0.023	0.247
-719.806	-66.674	-0.343	-0.136
-718.791	-200.000	0.000	0.027
-717.777	-11.355	-0.023	0.015
-716.762	800.000	0.036	-0.128
-715.748	669.407	-0.077	0.199
-714.733	800.000	-0.016	-0.059
-713.718	109.060	0.175	0.209
-712.704	316.438	-0.093	0.176
-711.689	25.960	0.176	0.146
-710.675	-42.176	-0.126	0.065
-709.660	-200.000	0.003	-0.296
-708.645	-101.581	0.240	0.058
-707.631	800.000	0.072	-0.257
-706.616	528.231	0.009	0.022
-705.602	-128.686	0.124	0.017
-704.587	-200.000	0.017	-0.197
-703.572	660.557	0.131	-0.336
-702.558	129.032	-0.066	-0.085
-701.543	496.231	0.089	-0.204
-700.529	-34.387	0.251	-0.138
-699.514	103.967	0.209	0.245
-698.499	-200.000	-0.019	-0.084
-697.485	-90.010	-0.111	-0.032
-696.470	-163.074	0.126	-0.006
-695.456	63.301	0.203	-0.203
-694.441	-34.784	-0.101	-0.055
-693.426	191.636	-0.223	0.335
-692.412	-30.543	-0.254	0.144
-691.397	415.099	-0.066	-0.140
-690.383	-58.544	-0.170	0.074
-689.368	-12.183	0.219	0.143
-688.354	-200.000	-0.000	0.128
-687.339	-87.367	-0.181	0.055
-686.324	-74.379	-0.229	0.083
-685.310	95.827	0.133	0.152
-684.295	58.671	0.125	0.122
-683.281	-137.030	0.068	-0.008
-682.266	-200.000	-0.005	0.155
-681.251	124.375	-0.233	0.292
-680.237	-75.831	-0.327	0.116
-679.222	-95.751	-0.381	0.102
-678.208	11.308	0.164	-0.126
-677.193	261.342	-0.185	0.321
-676.178	407.670	0.094	0.198
-675.164	245.630	0.037	0.063
-674.149	73.629	0.313	-0.327
-673.135	800.000	0.091	-0.309
-672.120	53.369	-0.111	0.106
-671.105	-112.222	0.113	-0.023
-670.091	256.084	-0.068	-0.116
-669.076	-52.100	0.262	-0.121
-668.062	-141.802	-0.250	0.025
-667.047	337.619	-0.096	-0.186
-666.032	143.517	0.221	0.294
-665.018	800.000	-0.044	-0.178
-664.003	-200.000	-0.014	-0.109
-662.989	415.073	-0.017	0.035
-661.974	-99.258	0.386	0.097
-660.959	-200.000	-0.063	-0.339
-659.945	-200.000	0.044	0.363
-658.930	272.770	0.239	0.421
-657.916	-200.000	-0.010	0.088
-656.901	136.696	-0.172	-0.224
-655.886	-130.528	0.054	-0.007
-654.872	50.335	0.100	-0.094
-653.857	-200.000	0.005	-0.044
-652.843	-130.049	-0.438	-0.060
-651.828	800.000	-0.089	0.351
-650.814	-200.000	0.009	0.072
-649.799	413.378	0.043	-0.091
-648.784	800.000	0.114	-0.352
-647.770	-170.030	0.268	0.010
-646.755	-149.606	-0.241	0.019
-645.741	-48.581	0.310	-0.149
-644.726	-54.393	0.115	0.052
-643.711	800.000	-0.105	-0.348
-642.697	158.017	-0.069	0.096
-641.682	-200.000	0.005	0.042
-640.668	-167.963	0.139	-0.005
-639.653	87.910	-0.039	-0.043
-638.638	616.856	-0.025	-0.062
-637.624	-101.926	-0.156	-0.038
-636.609	-189.378	-0.285	-0.003
-635.595	10.063	0.225	-0.170
-634.580	-200.000	-0.007	-0.062
-633.565	-57.396	-0.089	0.039
-632.551	40.756	0.317	-0.285
-631.536	-200.000	-0.012	-0.241
-630.522	-86.580	0.213	0.065
-629.507	194.030	0.174	0.263
-628.492	12.510	0.111	-0.086
-627.478	-200.000	-0.029	-0.183
-626.463	202.241	-0.083	-0.128
-625.449	-93.485	-0.176	-0.049
-624.434	48.096	0.188	0.175
-623.419	102.125	-0.279	0.325
-622.405	-109.241	-0.505	0.107
-621.390	-143.144	0.269	-0.026
-620.376	40.088	-0.395	0.354
-619.361	-87.391	0.235	0.071
-618.346	-86.077	-0.569	-0.175
-617.332	-135.608	0.116	0.014
-616.317	800.000	0.019	-0.054
-615.303	-200.000	0.011	-0.050
-614.288	-23.855	-0.137	-0.082
-613.273	-74.665	-0.137	0.049
-612.259	-19.072	-0.084	0.052
-611.244	-23.183	-0.036	-0.022
-610.230	208.862	-0.095	-0.148
-609.215	-120.480	-0.429	-0.073
-608.201	-129.727	0.149	-0.020
-607.186	-200.000	0.008	-0.076
-606.171	-36.745	0.214	0.114
-605.157	-200.000	-0.047	-0.251
-604.142	261.321	-0.151	0.260
-603.128	160.534	0.097	-0.135
-602.113	18.965	-0.141	0.113
-601.098	126.823	-0.276	-0.349
-600.084	-200.000	-0.026	-0.157
-599.069	-82.932	0.031	0.010
-598.055	-3.691	0.331	-0.229
-597.040	800.000	-0.127	0.359
-596.025	800.000	-0.100	-0.329
-595.011	-21.734	0.058	-0.035
-593.996	3.223	-0.208	0.151
-592.982	-130.785	0.318	0.042
-591.967	-2.952	-0.232	0.161
-590.952	194.895	0.105	-0.159
-589.938	-149.572	0.197	-0.016
-588.923	-125.293	-0.155	-0.024
-587.909	-13.923	0.171	0.110
-586.894	159.818	0.149	-0.207
-585.879	800.000	0.015	-0.056
-584.865	-31.250	0.195	0.109
-583.850	0.961	0.322	0.230
-582.836	-6.550	-0.172	-0.116
-581.821	800.000	-0.078	-0.292
-580.806	9.480	-0.282	-0.212
-579.792	73.684	-0.232	0.242
-578.777	-138.261	-0.577	-0.064
-577.763	-121.540	0.450	-0.074
-576.748	85.606	0.128	0.140
-575.733	37.091	-0.361	0.318
-574.719	69.588	-0.085	0.087
-573.704	201.845	-0.088	0.135
-572.690	614.729	-0.077	0.192
-571.675	-200.000	-0.035	0.192
-570.661	-165.304	0.078	-0.003
-569.646	-110.496	0.337	-0.069
-568.631	234.986	-0.174	0.285
-567.617	-11.459	0.320	0.209
-566.602	43.068	0.142	0.129
-565.588	439.764	-0.188	0.409
-564.573	95.390	0.225	0.255
-563.558	-200.000	-0.023	0.143
-562.544	179.200	-0.193	0.280
-561.529	-200.000	-0.047	-0.270
-560.515	-161.086	-0.491	-0.026
-559.500	16.387	-0.076	0.060
-558.485	-200.000	-0.066	-0.302
-557.471	464.667	-0.103	-0.228
-556.456	26.768	0.081	0.067
-555.442	-124.522	0.115	0.018
-554.427	100.599	0.190	-0.220
-553.412	151.450	0.306	0.414
-552.398	394.842	-0.041	-0.085
-551.383	800.000	0.109	0.339
-550.369	-148.751	0.326	0.026
-549.354	-200.000	-0.014	0.157
-548.339	-200.000	-0.014	0.187
-547.325	139.246	-0.290	0.380
-546.310	-60.454	0.218	-0.092
-545.296	59.293	-0.185	0.181
-544.281	-133.525	-0.235	-0.029
-543.266	663.479	-0.035	-0.090
-542.252	-176.968	0.285	-0.007
-541.237	-200.000	0.063	-0.443
-540.223	-200.000	-0.003	0.130
-539.208	-115.979	0.100	0.019
-538.193	253.102	0.014	-0.024
-537.179	36.150	0.087	0.076
-536.164	-200.000	0.009	-0.429
-535.150	-200.000	-0.004	0.105
-534.135	264.592	0.133	0.230
-533.121	155.196	-0.227	0.311
-532.106	-52.762	-0.117	-0.053
-531.091	800.000	-0.052	-0.164
-530.077	-176.565	-0.082	0.002
-529.062	-83.758	0.496	-0.157
-528.048	-200.000	-0.131	-0.586
-527.033	-100.612	-0.120	-0.029
-526.018	800.000	-0.109	0.418
-525.004	174.958	0.166	0.239
-523.989	21.263	0.146	-0.118
-522.975	-18.329	0.129	-0.080
-521.960	800.000	-0.059	-0.204
-520.945	-200.000	-0.005	0.031
-519.931	214.022	-0.071	0.111
-518.916	-22.242	-0.116	0.070
-517.902	-118.499	-0.149	-0.026
-516.887	46.226	-0.221	0.203
-515.872	88.695	0.348	0.384
-514.858	-200.000	-0.011	0.131
-513.843	-200.000	-0.062	-0.277
-512.829	67.312	-0.196	-0.199
-511.814	-49.248	-0.239	0.114
-510.799	-110.467	0.088	-0.018
-509.785	800.000	-0.097	0.268
-508.770	-122.175	-0.282	0.046
-507.756	-45.593	0.092	-0.045
-506.741	398.741	0.070	0.145
-505.726	800.000	0.090	-0.248
-504.712	-132.137	-0.159	0.020
-503.697	-83.107	-0.043	-0.014
-502.683	-200.000	0.032	0.150
-501.668	-200.000	0.011	-0.282
-500.653	-47.175	-0.050	0.024
-499.639	800.000	0.076	0.289
-498.624	124.840	0.299	0.373
-497.610	-127.627	-0.303	-0.044
-496.595	34.644	-0.207	-0.179
-495.581	145.522	-0.186	-0.246
-494.566	65.395	-0.246	0.247
-493.551	-128.157	0.205	0.029
-492.537	-200.000	-0.034	-0.533
-491.522	65.571	0.159	0.160
-490.508	800.000	0.055	-0.188
-489.493	800.000	-0.061	-0.188
-488.478	194.345	0.043	-0.065
-487.464	-40.680	0.263	-0.135
-486.449	-200.000	0.015	-0.287
-485.435	-56.092	-0.196	0.086
-484.420	800.000	0.027	-0.107
-483.405	-170.484	0.288	-0.010
-482.391	-41.689	-0.138	-0.070
-481.376	192.750	0.039	0.058
-480.362	37.105	-0.291	0.255
-479.347	28.296	0.090	-0.076
-478.332	-200.000	-0.031	-0.144
-477.318	-109.663	-0.279	-0.058
-476.303	800.000	0.067	0.185
-475.289	-33.193	-0.156	0.086
-474.274	-137.738	-0.157	0.017
-473.259	-123.750	0.215	-0.034
-472.245	-200.000	-0.643	-0.001
-471.230	-200.000	0.052	0.266
-470.216	-22.763	-0.364	0.218
-469.201	-67.167	-0.132	-0.052
-468.186	-200.000	-0.012	-0.149
-467.172	71.685	0.122	0.126
-466.157	85.343	0.155	0.168
-465.143	57.986	0.201	0.194
-464.128	800.000	-0.039	0.130
-463.113	191.960	0.061	0.090
-462.099	-38.110	0.181	-0.095
-461.084	164.440	0.294	-0.411
-460.070	-149.840	-0.058	-0.005
-459.055	800.000	0.060	0.223
-458.040	-200.000	0.216	-0.001
-457.026	-106.788	-0.219	-0.048
-456.011	231.593	0.072	-0.117
-454.997	301.927	-0.078	0.143
-453.982	140.514	0.119	0.156
-452.968	-40.270	-0.132	-0.068
-451.953	171.356	0.249	-0.353
-450.938	-79.936	0.198	-0.066
-449.924	-200.000	0.012	0.063
-448.909	800.000	0.027	-0.105
-447.895	543.641	-0.125	0.296
-446.880	-133.618	0.070	-0.009
-445.865	-152.255	0.304	-0.022
-444.851	-36.838	-0.100	-0.053
-443.836	-200.000	0.025	-0.291
-442.822	-200.000	0.033	-0.185
-441.807	52.125	-0.091	-0.086
-440.792	-137.771	0.290	-0.032
-439.778	-200.000	0.003	-0.165
-438.763	100.502	-0.330	0.380
-437.749	-200.000	-0.019	-0.412
-436.734	800.000	-0.012	-0.042
-435.719	-84.690	0.284	0.088
-434.705	54.592	0.137	0.131
-433.690	-150.894	-0.192	0.014
-432.676	-200.000	-0.017	-0.140
-431.661	3.358	0.206	-0.148
-430.646	-17.555	0.048	0.030
-429.632	-1.994	-0.229	-0.159
-428.617	-124.656	0.231	0.035
-427.603	-120.788	0.215	-0.036
-426.588	-128.591	0.216	-0.030
-425.573	336.194	0.095	0.183
-424.559	-66.823	0.038	-0.015
-423.544	249.321	-0.071	0.120
-422.530	15.436	-0.127	-0.098
-421.515	-200.000	0.262	-0.001
-420.500	415.590	-0.091	-0.191
-419.486	425.461	-0.171	-0.365
-418.471	392.597	0.153	0.314
-417.457	-200.000	0.063	-0.434
-416.442	-55.332	0.200	0.089
-415.428	-77.925	0.226	0.077
-414.413	800.000	0.075	-0.256
-413.398	-200.000	0.008	-0.061
-412.384	489.747	-0.102	-0.231
-411.369	800.000	-0.102	0.308
-410.355	-147.601	-0.080	-0.007
-409.340	222.843	-0.172	-0.274
-408.325	580.260	0.064	0.156
-407.311	719.810	-0.052	-0.136
-406.296	-120.721	0.209	-0.035
-405.282	46.873	-0.009	0.008
-404.267	-34.561	-0.203	-0.110
-403.252	-31.774	0.018	0.010
-402.238	-200.000	-0.013	0.309
-401.223	-72.285	-0.458	0.168
-400.209	-200.000	0.049	0.269
-399.194	-90.401	0.152	-0.043
-398.179	-153.695	-0.407	0.028
-397.165	-200.000	0.009	-0.076
-396.150	-93.353	-0.295	-0.081
-395.136	-45.173	0.358	-0.176
-394.121	-161.333	-0.322	-0.016
-393.106	800.000	-0.101	-0.303
-392.092	-200.000	0.003	-0.050
-391.077	33.804	0.265	-0.228
-390.063	800.000	-0.075	0.268
-389.048	18.956	-0.094	0.074
-388.033	-200.000	-0.018	-0.082
-387.019	97.119	-0.115	0.130
-386.004	-200.000	0.015	0.123
-384.990	-5.224	-0.339	0.230
-383.975	-200.000	0.043	0.211
-382.960	-117.795	-0.112	-0.020
-381.946	386.496	-0.126	-0.257
-380.931	-86.638	-0.167	0.051
-379.917	-200.000	0.020	0.163
-378.902	-58.192	-0.080	0.034
-377.888	-52.761	0.212	0.096
-376.873	148.839	-0.183	0.244
-375.858	-200.000	-0.069	-0.312
-374.844	-109.581	0.092	-0.019
-373.829	87.865	-0.169	0.185
-372.815	-154.055	0.409	-0.027
-371.800	-14.765	-0.203	-0.128
-370.785	-122.131	0.379	-0.061
-369.771	-200.000	0.006	-0.050
-368.756	800.000	-0.045	-0.163
-367.742	-173.541	0.315	-0.009
-366.727	-200.000	-0.001	-0.207
-365.712	250.428	-0.099	0.167
-364.698	-85.934	0.315	-0.096
-363.683	-23.084	0.320	0.190
-362.669	800.000	-0.071	0.307
-361.654	-49.130	0.153	-0.072
-360.639	-200.000	-0.053	0.380
-359.625	730.098	-0.061	0.160
-358.610	226.635	-0.071	0.113
-357.596	-200.000	0.006	0.070
-356.581	266.319	-0.136	-0.234
-355.566	-200.000	0.009	0.135
-354.552	203.753	0.176	0.269
-353.537	-26.632	0.156	0.090
-352.523	-200.000	-0.011	0.141
-351.508	-61.053	0.141	-0.059
-350.493	48.849	-0.164	-0.152
-349.479	194.260	-0.225	-0.336
-348.464	-200.000	-0.005	0.200
-347.450	-94.551	-0.377	0.101
-346.435	780.467	-0.038	-0.102
-345.420	-148.638	0.296	0.024
-344.406	-200.000	0.044	0.284
-343.391	-42.392	-0.181	0.091
-342.377	393.982	0.082	0.168
-341.362	-200.000	0.049	-0.212
-340.348	-200.000	-0.012	-0.134
-339.333	-58.400	0.229	-0.098
-338.318	45.681	-0.191	0.174
-337.304	-160.699	0.202	0.011
-336.289	-200.000	-0.015	0.148
-335.275	-156.555	0.231	0.014
-334.260	-30.566	0.081	0.045
-333.245	-200.000	-0.034	0.174
-332.231	16.159	0.269	0.209
-331.216	224.883	-0.133	0.212
-330.202	16.520	0.339	-0.264
-329.187	189.466	-0.109	0.161
-328.172	85.491	-0.256	-0.277
-327.158	800.000	0.027	0.090
-326.143	726.193	-0.022	-0.058
-325.129	51.582	0.212	-0.199
-324.114	800.000	0.022	-0.073
-323.099	800.000	0.030	-0.085
-322.085	-11.948	0.170	-0.110
-321.070	-97.396	-0.355	-0.091
-320.056	601.434	0.132	-0.324
-319.041	153.612	-0.144	-0.195
-318.026	508.072	-0.107	0.245
-317.012	-74.752	-0.095	0.034
-315.997	800.000	-0.079	-0.324
-314.983	-34.642	-0.311	0.168
-313.968	-60.251	0.186	-0.078
-312.953	-200.000	0.006	0.184
-311.939	-156.543	0.232	0.014
-310.924	-200.000	-0.017	-0.253
-309.910	-146.557	0.237	-0.020
-308.895	23.688	-0.216	0.175
-307.880	-6.087	-0.439	-0.296
-306.866	36.047	0.145	0.125
-305.851	631.704	0.054	0.134
-304.837	-125.113	-0.069	-0.010
-303.822	4.211	0.144	-0.104
-302.807	-133.800	-0.312	-0.038
-301.793	-88.395	-0.045	-0.013
-300.778	175.768	0.150	0.215
-299.764	634.026	0.075	-0.187
-298.749	156.748	-0.152	0.207
-297.735	116.035	0.135	0.162
-296.720	502.727	-0.244	-0.554
-295.705	-200.000	-0.059	-0.307
-294.691	3.408	-0.206	-0.147
-293.676	800.000	-0.077	-0.229
-292.662	-18.477	0.181	-0.111
-291.647	-87.616	-0.211	-0.063
-290.632	-156.754	-0.215	-0.013
-289.618	-58.772	0.179	0.076
-288.603	-46.776	-0.079	0.038
-287.589	-77.073	0.288	-0.099
-286.574	-118.696	-0.279	0.048
-285.559	188.163	0.178	-0.262
-284.545	-200.000	-0.069	0.332
-283.530	-136.630	0.178	-0.020
-282.516	416.855	-0.181	-0.380
-281.501	676.503	-0.016	0.041
-280.486	103.236	-0.098	0.113
-279.472	800.000	0.073	0.313
-278.457	86.911	0.218	-0.237
-277.443	-68.348	-0.192	-0.073
-276.428	-102.129	0.254	-0.060
-275.413	0.007	-0.123	-0.086
-274.399	-168.463	0.146	-0.005
-273.384	-83.563	0.127	-0.040
-272.370	171.070	-0.144	0.204
-271.355	21.064	0.163	0.130
-270.340	355.983	0.093	0.181
-269.326	-200.000	0.056	-0.316
-268.311	-200.000	-0.018	-0.142
-267.297	32.859	-0.170	0.145
-266.282	315.989	0.165	-0.305
-265.267	243.132	0.085	0.140
-264.253	-126.524	0.276	-0.040
-263.238	257.663	0.186	0.315
-262.224	-7.661	0.152	0.101
-261.209	-14.226	-0.107	0.068
-260.195	-118.212	0.126	-0.022
-259.180	8.660	-0.359	0.265
-258.165	-200.000	-0.021	-0.263
-257.151	150.023	-0.158	-0.210
-256.136	186.120	0.191	-0.279
-255.122	-200.000	0.096	-0.461
-254.107	-200.000	0.012	0.281
-253.092	4.906	0.136	-0.098
-252.078	-95.278	0.225	0.060
-251.063	151.294	-0.053	0.070
-250.049	-134.820	0.156	-0.019
-249.034	52.039	0.229	-0.214
-248.019	119.324	-0.084	-0.102
-247.005	-84.378	-0.078	-0.024
-245.990	-85.238	-0.466	-0.143
-244.976	53.401	-0.093	-0.088
-243.961	-200.000	-0.047	0.364
-242.946	104.105	-0.161	0.186
-241.932	15.376	-0.087	0.067
-240.917	153.253	-0.164	0.220
-239.903	20.113	-0.067	0.053
-238.888	358.246	-0.108	0.211
-237.873	71.367	0.009	0.009
-236.859	32.691	0.228	-0.193
-235.844	45.564	-0.215	-0.195
-234.830	-200.000	0.037	-0.312
-233.815	305.493	0.153	0.279
-232.800	49.635	0.183	0.169
-231.786	-140.818	-0.383	0.039
-230.771	800.000	-0.030	0.121
-229.757	18.860	0.431	-0.338
-228.742	-200.000	-0.005	-0.092
-227.727	-101.028	-0.217	0.052
-226.713	-161.148	0.289	0.015
-225.698	-200.000	0.019	-0.111
-224.684	-60.420	0.291	0.121
-223.669	-73.693	-0.179	0.064
-222.655	-23.410	-0.106	0.063
-221.640	157.540	-0.187	-0.253
-220.625	111.225	0.197	0.232
-219.611	-200.000	0.014	0.120
-218.596	-89.588	0.121	0.035
-217.582	-200.000	0.026	-0.224
-216.567	-59.272	-0.063	-0.027
-215.552	22.395	0.334	0.268
-214.538	692.287	-0.098	0.252
-213.523	-71.121	0.205	-0.076
-212.509	86.064	-0.150	0.162
-211.494	522.172	0.082	0.189
-210.479	51.229	0.230	-0.214
-209.465	109.264	0.269	-0.316
-208.450	1.678	0.253	-0.178
-207.436	282.510	0.038	-0.067
-206.421	-95.117	0.213	0.056
-205.406	737.747	0.117	0.309
-204.392	75.919	-0.187	-0.194
-203.377	-123.935	-0.133	-0.020
-202.363	2.368	-0.200	-0.142
-201.348	-156.974	0.339	-0.020
-200.333	112.776	-0.031	-0.037
-199.319	-200.000	-0.006	0.234
-198.304	17.619	0.248	-0.193
-197.290	-43.862	0.230	-0.113
-196.275	-44.244	-0.277	0.136
-195.260	223.126	-0.138	0.217
-194.246	-45.484	0.127	0.062
-193.231	-71.151	-0.072	-0.027
-192.217	-68.647	-0.162	-0.061
-191.202	271.749	-0.068	-0.117
-190.187	-35.091	-0.237	-0.127
-189.173	199.021	-0.079	0.118
-188.158	28.678	0.133	0.111
-187.144	-144.663	-0.273	0.025
-186.129	800.000	-0.047	-0.140
-185.114	75.814	-0.092	-0.095
-184.100	-103.601	-0.339	0.078
-183.085	77.238	0.190	-0.198
-182.071	-80.084	-0.342	-0.112
-181.056	-59.662	0.077	0.032
-180.042	289.891	0.060	-0.106
-179.027	800.000	0.073	0.251
-178.012	-59.961	-0.080	-0.033
-176.998	28.896	0.305	-0.253
-175.983	-156.478	0.235	0.014
-174.969	-63.984	0.151	-0.060
-173.954	800.000	-0.029	-0.120
-172.939	35.976	0.229	0.197
-171.925	140.983	0.097	0.126
-170.910	800.000	-0.073	0.205
-169.896	-56.748	-0.250	0.108
-168.881	32.170	-0.400	0.338
-167.866	-76.007	-0.132	-0.046
-166.852	-49.946	0.262	0.122
-165.837	-74.025	0.222	-0.079
-164.823	-15.829	-0.161	0.100
-163.808	800.000	0.137	0.455
-162.793	-156.143	0.323	0.020
-161.779	-20.500	-0.149	0.090
-160.764	99.721	0.187	0.212
-159.750	-173.604	0.240	-0.007
-158.735	-71.919	-0.470	-0.171
-157.720	-109.044	0.166	-0.035
-156.706	333.964	0.031	-0.058
-155.691	374.563	-0.103	0.204
-154.677	48.768	-0.058	0.053
-153.662	-8.862	-0.140	0.092
-152.647	-200.000	-0.004	0.053
-151.633	583.807	-0.039	-0.094
-150.618	-119.304	0.240	-0.041
-149.604	-102.958	0.227	-0.053
-148.589	-200.000	0.060	0.290
-147.574	-27.326	0.186	0.106
-146.560	800.000	0.086	0.243
-145.545	-51.220	0.314	-0.144
-144.531	800.000	-0.131	-0.371
-143.516	-105.708	-0.187	-0.041
-142.502	-76.531	0.377	0.129
-141.487	-200.000	-0.032	0.156
-140.472	-49.526	-0.052	0.024
-139.458	616.184	-0.099	0.242
-138.443	415.512	-0.016	0.033
-137.429	40.651	-0.087	-0.077
-136.414	-200.000	0.021	-0.162
-135.399	-200.000	-0.002	0.074
-134.385	153.877	-0.213	-0.285
-133.370	-200.000	-0.013	0.180
-132.356	-101.548	0.070	-0.017
-131.341	-200.000	-0.024	-0.239
-130.326	239.812	0.064	-0.104
-129.312	394.308	0.171	0.349
-128.297	-54.928	-0.332	0.146
-127.283	-200.000	-0.000	0.171
-126.268	178.228	-0.011	0.016
-125.253	328.180	0.191	0.358
-124.239	-80.994	-0.421	0.136
-123.224	800.000	-0.066	0.258
-122.210	-162.467	-0.194	0.009
