DTS Sentinel unit serial number:	SN413079Multiplexer serial number:	ORYXHardware model number:	OX4-SRSoftware version number:	ORYX F/W v4.00 Oryx Data Collector v3.7.2.0data status	okinstallation	princeton_trtdifferential loss correction	single-endedforward channel	channel 1reverse channel	N/Adate	2019/09/16time	01:50:36forward acquisition time	60.00reverse acquisition time	0.00gamma	496.2192k internal	0.2333k external	0.2333temperature offset calibration	0.9975default loss term (dB/km)	0.3790temperature slope calibration	1.0000multiplexer offset coefficient	1.0000multiplexer slope coefficient	1.0000fibre end	0.00T internal ref (°C)	27.37T ext. ref 1 (°C)	10.03T ext. ref 2 (°C)	22.26length (m)	temperature (°C)	Stokes	anti-Stokes-747.200	-43.675	0.286	0.145
-746.185	91.357	0.181	0.205
-745.171	108.455	0.246	-0.295
-744.156	-103.199	-0.219	0.052
-743.142	-131.611	-0.132	0.017
-742.127	-36.698	-0.382	0.206
-741.112	25.150	0.228	0.190
-740.098	85.370	-0.252	-0.278
-739.083	234.405	0.179	-0.296
-738.069	21.558	-0.214	0.175
-737.054	-23.164	-0.256	-0.155
-736.039	-200.000	-0.010	0.084
-735.025	-32.529	0.165	0.093
-734.010	-134.537	-0.445	0.055
-732.996	-200.000	0.035	-0.168
-731.981	800.000	0.016	-0.047
-730.966	-200.000	0.013	-0.094
-729.952	16.111	0.206	-0.163
-728.937	120.024	-0.112	-0.140
-727.923	-106.257	0.242	0.054
-726.908	312.243	-0.188	-0.354
-725.894	-200.000	-0.022	0.194
-724.879	-90.284	-0.074	0.022
-723.864	-12.111	0.236	-0.155
-722.850	-0.743	-0.216	-0.154
-721.835	-115.100	-0.132	-0.025
-720.821	111.597	-0.210	-0.254
-719.806	319.577	0.169	-0.323
-718.791	-145.884	0.301	-0.027
-717.777	-183.348	-0.059	0.001
-716.762	800.000	-0.052	-0.222
-715.748	730.565	-0.080	-0.214
-714.733	-43.719	0.230	0.116
-713.718	-69.044	0.407	0.157
-712.704	146.079	0.160	0.215
-711.689	-200.000	-0.025	-0.166
-710.675	-91.020	-0.162	-0.047
-709.660	800.000	-0.068	-0.255
-708.645	-141.838	0.231	0.023
-707.631	-124.601	-0.299	0.047
-706.616	800.000	-0.058	0.248
-705.602	22.542	0.152	0.125
-704.587	-119.301	0.428	-0.075
-703.572	-63.944	0.256	-0.105
-702.558	-7.273	-0.093	0.064
-701.543	-49.472	-0.407	-0.195
-700.529	329.963	0.177	0.342
-699.514	-170.556	-0.043	-0.001
-698.499	43.500	0.190	0.174
-697.485	-11.963	-0.200	-0.132
-696.470	-28.571	0.201	-0.116
-695.456	208.199	-0.056	0.087
-694.441	-200.000	0.016	0.240
-693.426	30.878	-0.273	0.235
-692.412	-36.915	-0.162	-0.087
-691.397	-62.100	-0.115	0.048
-690.383	152.549	0.064	-0.088
-689.368	-200.000	-0.015	-0.081
-688.354	26.989	0.023	0.019
-687.339	-144.203	0.245	0.023
-686.324	47.836	-0.229	-0.214
-685.310	-105.280	0.032	0.007
-684.295	-18.884	-0.166	0.104
-683.281	2.037	0.084	-0.061
-682.266	419.767	-0.053	-0.113
-681.251	-71.069	0.149	-0.056
-680.237	19.005	-0.029	-0.023
-679.222	-77.998	0.253	-0.087
-678.208	86.715	0.098	-0.109
-677.193	221.297	0.067	-0.108
-676.178	-107.146	-0.302	-0.067
-675.164	800.000	-0.014	-0.061
-674.149	-117.931	-0.296	-0.053
-673.135	4.087	-0.221	0.162
-672.120	25.358	0.055	0.046
-671.105	-200.000	-0.015	0.180
-670.091	15.865	-0.166	0.131
-669.076	-33.049	-0.110	0.061
-668.062	-54.819	-0.180	0.081
-667.047	-140.791	-0.310	0.032
-666.032	-200.000	0.019	-0.179
-665.018	-85.445	0.157	0.049
-664.003	800.000	-0.049	-0.208
-662.989	142.977	-0.193	-0.258
-661.974	-110.129	0.139	0.029
-660.959	22.748	-0.146	-0.120
-659.945	6.754	-0.244	0.182
-658.930	94.695	-0.093	0.106
-657.916	62.278	0.335	-0.335
-656.901	5.177	0.077	-0.057
-655.886	-126.180	-0.137	-0.021
-654.872	-200.000	0.027	0.137
-653.857	-109.897	-0.382	0.080
-652.843	-84.006	0.304	0.097
-651.828	-52.981	0.182	-0.084
-650.814	-200.000	0.008	-0.078
-649.799	-200.000	-0.005	-0.146
-648.784	-200.000	-0.028	-0.194
-647.770	-200.000	-0.056	0.370
-646.755	552.053	-0.143	0.345
-645.741	-135.893	-0.214	0.025
-644.726	150.386	-0.219	-0.298
-643.711	136.896	-0.058	0.075
-642.697	242.198	0.070	0.118
-641.682	-104.550	-0.238	-0.055
-640.668	-200.000	0.036	0.157
-639.653	325.580	0.111	-0.212
-638.638	-102.100	-0.328	0.079
-637.624	-101.205	0.167	0.041
-636.609	800.000	0.069	-0.245
-635.595	-137.212	0.373	-0.043
-634.580	-26.150	-0.208	-0.123
-633.565	800.000	-0.082	-0.298
-632.551	-5.777	0.134	-0.092
-631.536	-42.667	-0.137	-0.070
-630.522	-200.000	0.037	-0.242
-629.507	-158.142	-0.302	0.018
-628.492	-200.000	0.047	-0.240
-627.478	-79.722	0.108	0.036
-626.463	135.550	-0.058	-0.075
-625.449	-66.890	-0.231	0.091
-624.434	717.754	-0.014	-0.037
-623.419	42.018	0.111	0.100
-622.405	-17.853	-0.212	0.133
-621.390	-200.000	0.038	0.550
-620.376	50.775	0.053	-0.050
-619.361	-138.950	-0.216	0.024
-618.346	800.000	0.030	0.094
-617.332	-200.000	-0.035	0.314
-616.317	-112.798	0.120	0.024
-615.303	364.047	0.075	0.150
-614.288	418.535	-0.105	0.225
-613.273	-76.146	0.098	-0.035
-612.259	-82.744	0.187	-0.061
-611.244	-78.114	-0.371	-0.128
-610.230	150.427	0.072	0.098
-609.215	-200.000	-0.020	0.310
-608.201	-200.000	-0.013	0.183
-607.186	182.224	0.089	0.131
-606.171	61.235	-0.058	0.058
-605.157	-62.260	0.044	-0.018
-604.142	10.243	0.280	-0.213
-603.128	-200.000	-0.014	0.126
-602.113	-53.110	-0.245	0.113
-601.098	41.318	-0.144	-0.131
-600.084	16.852	-0.200	0.158
-599.069	-71.976	0.044	0.017
-598.055	6.597	0.136	0.101
-597.040	217.187	0.059	-0.094
-596.025	-14.099	-0.224	0.144
-595.011	-200.000	-0.026	-0.115
-593.996	-149.988	-0.206	-0.016
-592.982	-26.485	-0.421	0.246
-591.967	-65.216	-0.335	0.135
-590.952	-48.107	0.372	-0.180
-589.938	494.747	0.244	-0.559
-588.923	291.873	-0.178	-0.325
-587.909	-13.518	-0.215	0.139
-586.894	-83.255	-0.025	0.008
-585.879	-200.000	-0.013	-0.073
-584.865	-200.000	-0.032	0.183
-583.850	559.620	0.139	-0.335
-582.836	-200.000	-0.002	0.287
-581.821	-39.755	-0.389	0.203
-580.806	-200.000	-0.070	0.320
-579.792	14.198	-0.091	0.071
-578.777	-200.000	-0.033	0.228
-577.763	-35.617	0.189	-0.103
-576.748	-56.980	-0.101	-0.044
-575.733	11.424	-0.166	0.127
-574.719	68.505	-0.085	0.087
-573.704	659.252	0.167	-0.430
-572.690	-23.470	-0.177	-0.106
-571.675	8.281	-0.254	0.191
-570.661	-24.236	0.250	-0.149
-569.646	231.666	0.173	-0.284
-568.631	-47.223	0.166	0.081
-567.617	103.358	-0.223	0.261
-566.602	800.000	-0.045	-0.146
-565.588	800.000	-0.058	-0.193
-564.573	-200.000	-0.009	0.061
-563.558	-200.000	-0.005	0.159
-562.544	296.162	-0.142	-0.260
-561.529	800.000	-0.059	-0.166
-560.515	-153.692	0.254	-0.017
-559.500	59.338	0.087	0.086
-558.485	-152.387	-0.319	-0.023
-557.471	54.240	-0.097	0.093
-556.456	-200.000	0.083	-0.446
-555.442	-82.016	-0.044	0.014
-554.427	-44.808	0.343	0.171
-553.412	800.000	-0.071	-0.229
-552.398	-200.000	0.033	-0.186
-551.383	-65.554	0.311	0.125
-550.369	-144.711	-0.177	0.016
-549.354	278.496	-0.100	0.178
-548.339	-16.166	0.432	-0.274
-547.325	-140.281	0.048	0.005
-546.310	563.370	0.122	0.296
-545.296	-71.024	0.207	-0.078
-544.281	58.127	-0.327	0.320
-543.266	46.637	-0.263	0.244
-542.252	221.443	0.135	0.217
-541.237	-78.116	-0.225	0.077
-540.223	-67.133	-0.323	0.127
-539.208	-174.780	0.126	-0.004
-538.193	-200.000	0.079	-0.354
-537.179	-18.146	-0.257	-0.160
-536.164	59.897	0.293	0.289
-535.150	-89.266	-0.236	0.069
-534.135	158.118	-0.030	0.042
-533.121	17.270	0.132	-0.105
-532.106	575.991	-0.060	0.146
-531.091	148.167	-0.159	0.213
-530.077	-125.272	-0.251	-0.038
-529.062	-7.140	0.123	-0.083
-528.048	-4.584	0.239	-0.165
-527.033	-170.380	-0.059	-0.002
-526.018	160.540	-0.139	-0.194
-525.004	-200.000	-0.069	0.445
-523.989	115.052	0.080	-0.097
-522.975	-200.000	-0.049	-0.305
-521.960	-101.880	-0.361	-0.087
-520.945	-55.184	0.234	0.105
-519.931	-61.489	-0.248	-0.104
-518.916	285.945	-0.118	-0.213
-517.902	-200.000	-0.014	-0.233
-516.887	703.798	0.069	0.182
-515.872	544.433	0.105	-0.249
-514.858	800.000	-0.103	-0.296
-513.843	-136.816	-0.253	-0.029
-512.829	-43.307	-0.046	0.023
-511.814	-200.000	-0.009	-0.304
-510.799	-78.914	-0.316	0.107
-509.785	529.167	0.210	-0.494
-508.770	47.841	-0.086	0.080
-507.756	-44.091	0.125	-0.062
-506.741	-50.240	-0.358	-0.169
-505.726	-200.000	0.035	0.218
-504.712	-122.997	-0.411	0.066
-503.697	393.449	-0.046	-0.095
-502.683	-200.000	0.022	0.157
-501.668	2.413	0.176	0.127
-500.653	49.546	0.212	0.199
-499.639	-200.000	0.005	-0.189
-498.624	-200.000	-0.013	0.120
-497.610	2.741	0.161	0.116
-496.595	800.000	0.072	-0.268
-495.581	14.745	0.159	0.124
-494.566	-92.137	-0.059	-0.016
-493.551	120.486	-0.075	-0.092
-492.537	-146.935	-0.206	0.018
-491.522	-200.000	-0.005	0.064
-490.508	96.004	0.045	-0.051
-489.493	-29.936	-0.306	0.174
-488.478	-105.783	0.195	0.044
-487.464	-47.447	-0.218	0.106
-486.449	800.000	-0.072	-0.214
-485.435	-32.529	-0.170	-0.094
-484.420	-180.366	0.322	0.007
-483.405	-50.066	-0.033	0.016
-482.391	-94.923	0.582	-0.157
-481.376	800.000	-0.029	-0.091
-480.362	-200.000	-0.006	0.124
-479.347	800.000	0.049	-0.149
-478.332	170.426	0.104	0.148
-477.318	-102.328	-0.264	0.063
-476.303	-62.065	0.112	0.047
-475.289	-200.000	0.048	-0.369
-474.274	213.908	0.180	0.283
-473.259	-200.000	-0.024	0.154
-472.245	-194.209	0.256	-0.002
-471.230	-200.000	-0.010	0.088
-470.216	-200.000	-0.095	-0.000
-469.201	-61.069	0.157	0.066
-468.186	433.880	-0.119	0.257
-467.172	-148.855	0.383	0.031
-466.157	-81.658	0.254	0.083
-465.143	800.000	-0.083	-0.230
-464.128	800.000	-0.055	0.189
-463.113	59.446	-0.076	0.075
-462.099	205.205	-0.104	0.161
-461.084	317.169	0.129	0.242
-460.070	301.345	0.065	0.119
-459.055	-3.087	0.325	0.226
-458.040	192.530	0.116	0.175
-457.026	155.724	0.143	-0.196
-456.011	289.142	0.138	0.249
-454.997	-200.000	0.013	-0.298
-453.982	-200.000	0.042	0.219
-452.968	-6.968	0.368	0.248
-451.953	-129.327	0.142	0.020
-450.938	77.858	0.097	-0.103
-449.924	-47.477	0.056	-0.027
-448.909	263.808	0.129	0.223
-447.895	395.922	-0.048	0.099
-446.880	800.000	0.008	0.026
-445.865	243.913	-0.174	-0.290
-444.851	65.417	0.098	0.098
-443.836	525.714	0.112	-0.263
-442.822	597.683	-0.112	-0.276
-441.807	62.021	-0.154	-0.152
-440.792	46.463	-0.121	-0.112
-439.778	-127.740	0.268	-0.038
-438.763	800.000	0.105	-0.405
-437.749	-52.935	0.052	-0.024
-436.734	-184.461	-0.106	-0.002
-435.719	111.777	-0.271	-0.325
-434.705	265.605	0.167	0.290
-433.690	-110.714	0.214	0.044
-432.676	-29.886	0.394	0.223
-431.661	-120.290	0.227	0.038
-430.646	-200.000	0.015	0.114
-429.632	83.437	0.181	0.195
-428.617	-22.807	-0.142	-0.085
-427.603	-200.000	-0.014	-0.104
-426.588	-31.165	-0.054	0.030
-425.573	743.305	0.025	0.067
-424.559	59.220	-0.174	-0.170
-423.544	59.048	-0.263	-0.257
-422.530	29.824	0.111	-0.094
-421.515	703.337	0.075	-0.196
-420.500	-200.000	-0.016	-0.251
-419.486	-200.000	0.029	-0.191
-418.471	-89.849	0.118	0.034
-417.457	225.598	0.163	0.263
-416.442	143.488	-0.067	-0.089
-415.428	-49.516	-0.205	0.097
-414.413	-200.000	-0.017	-0.212
-413.398	-28.518	-0.113	0.064
-412.384	-200.000	0.000	0.211
-411.369	98.217	-0.071	0.081
-410.355	-200.000	-0.042	0.220
-409.340	800.000	0.004	0.016
-408.325	-51.335	0.112	0.052
-407.311	-72.097	-0.145	-0.054
-406.296	455.161	-0.142	-0.312
-405.282	257.667	0.153	-0.262
-404.267	-2.103	-0.285	0.199
-403.252	-38.161	0.024	-0.012
-402.238	-200.000	0.088	0.000
-401.223	114.214	0.235	-0.284
-400.209	84.703	-0.195	0.212
-399.194	-200.000	-0.036	-0.193
-398.179	255.451	0.048	-0.082
-397.165	-147.465	0.170	-0.014
-396.150	169.036	-0.166	-0.235
-395.136	800.000	-0.092	-0.274
-394.121	-139.080	0.259	-0.028
-393.106	-200.000	-0.062	0.418
-392.092	126.472	-0.223	0.281
-391.077	-61.401	-0.062	0.026
-390.063	153.055	0.077	-0.105
-389.048	-200.000	-0.053	-0.279
-388.033	-77.881	-0.109	0.037
-387.019	-200.000	-0.026	0.226
-386.004	420.205	0.133	0.282
-384.990	-8.727	-0.253	0.168
-383.975	-75.737	0.117	0.041
-382.960	96.273	0.106	0.120
-381.946	-200.000	-0.021	0.281
-380.931	513.584	0.087	-0.202
-379.917	-148.018	-0.259	-0.021
-378.902	292.052	-0.059	0.106
-377.888	-61.235	0.166	-0.070
-376.873	477.956	-0.112	0.252
-375.858	147.492	0.119	-0.158
-374.844	-94.908	-0.301	-0.081
-373.829	-38.963	0.161	-0.084
-372.815	-200.000	-0.046	-0.280
-371.800	429.041	0.126	0.271
-370.785	-163.309	0.116	0.005
-369.771	609.232	-0.090	0.222
-368.756	-136.200	-0.105	0.012
-367.742	379.714	-0.085	-0.173
-366.727	-200.000	0.031	-0.176
-365.712	-74.602	-0.038	0.013
-364.698	58.495	-0.159	0.154
-363.683	-101.480	0.190	-0.046
-362.669	262.740	-0.112	-0.193
-361.654	-116.010	0.109	-0.020
-360.639	-200.000	0.005	-0.039
-359.625	29.763	-0.058	0.049
-358.610	-125.452	0.368	0.056
-357.596	-200.000	0.001	-0.300
-356.581	-108.663	-0.414	0.088
-355.566	-60.624	0.170	-0.071
-354.552	335.853	-0.087	-0.167
-353.537	-50.891	0.122	0.057
-352.523	-200.000	-0.020	-0.117
-351.508	557.059	0.120	0.286
-350.493	-163.535	0.108	0.005
-349.479	800.000	0.042	-0.117
-348.464	-43.566	0.165	0.082
-347.450	-200.000	0.025	-0.317
-346.435	31.228	-0.151	-0.128
-345.420	441.087	0.023	0.049
-344.406	800.000	0.121	0.335
-343.391	-200.000	-0.035	-0.279
-342.377	-112.165	-0.175	-0.035
-341.362	92.871	0.058	-0.065
-340.348	-200.000	0.079	0.350
-339.333	800.000	-0.086	0.238
-338.318	105.968	0.019	0.023
-337.304	468.941	0.111	-0.247
-336.289	-39.465	0.388	-0.201
-335.275	8.538	-0.235	0.175
-334.260	132.959	-0.111	0.142
-333.245	-200.000	-0.003	0.044
-332.231	-154.427	-0.378	-0.025
-331.216	-200.000	0.002	0.211
-330.202	-200.000	0.009	0.079
-329.187	-92.955	0.007	0.002
-328.172	162.628	0.245	-0.341
-327.158	-200.000	0.016	-0.192
-326.143	-200.000	-0.047	-0.215
-325.129	-90.294	0.393	-0.113
-324.114	-26.215	-0.304	0.177
-323.099	-200.000	-0.008	-0.307
-322.085	-101.144	-0.068	0.016
-321.070	455.004	0.090	0.198
-320.056	394.861	-0.139	0.286
-319.041	326.004	-0.066	0.125
-318.026	-143.553	-0.269	-0.025
-317.012	-91.170	-0.156	-0.044
-315.997	-200.000	0.026	-0.174
-314.983	-200.000	-0.007	0.120
-313.968	-9.441	-0.157	0.104
-312.953	232.347	-0.091	0.148
-311.939	-200.000	0.043	0.215
-310.924	800.000	-0.066	-0.267
-309.910	-15.150	-0.417	0.264
-308.895	136.862	-0.147	-0.190
-307.880	-97.879	-0.128	0.033
-306.866	800.000	0.054	0.158
-305.851	55.393	-0.049	0.047
-304.837	-200.000	-0.034	0.171
-303.822	-200.000	0.011	-0.050
-302.807	-200.000	-0.043	0.339
-301.793	661.923	0.138	-0.353
-300.778	-195.428	0.317	-0.002
-299.764	-151.972	0.216	0.016
-298.749	800.000	-0.094	-0.317
-297.735	-200.000	-0.177	-0.001
-296.720	800.000	0.078	0.258
-295.705	420.235	0.137	-0.290
-294.691	-181.523	-0.211	0.004
-293.676	-94.517	-0.185	-0.050
-292.662	-50.953	-0.257	-0.119
-291.647	-174.774	0.319	0.009
-290.632	129.650	-0.177	-0.223
-289.618	800.000	-0.043	0.137
-288.603	-200.000	-0.024	-0.137
-287.589	10.636	0.259	0.195
-286.574	540.048	0.152	-0.357
-285.559	250.282	0.051	0.086
-284.545	-92.104	0.167	-0.047
-283.530	429.060	0.057	-0.122
-282.516	191.568	-0.120	0.178
-281.501	88.622	0.061	0.067
-280.486	570.064	-0.063	-0.150
-279.472	-47.357	-0.143	0.069
-278.457	41.916	-0.082	-0.074
-277.443	-55.694	-0.305	-0.135
-276.428	663.285	-0.077	-0.196
-275.413	402.680	-0.269	-0.558
-274.399	61.104	0.320	0.314
-273.384	-21.771	0.406	-0.244
-272.370	27.945	0.248	0.207
-271.355	-25.630	0.319	-0.186
-270.340	-200.000	0.015	0.180
-269.326	25.990	0.058	-0.047
-268.311	13.219	-0.060	-0.046
-267.297	595.164	0.168	0.410
-266.282	448.748	0.050	0.109
-265.267	-200.000	0.047	0.298
-264.253	80.182	0.112	0.119
-263.238	35.036	0.192	0.166
-262.224	31.578	0.274	-0.232
-261.209	-95.899	-0.132	0.035
-260.195	180.818	0.109	-0.158
-259.180	259.693	0.177	-0.301
-258.165	-125.649	0.359	-0.054
-257.151	-1.004	-0.199	0.139
-256.136	55.754	-0.068	0.065
-255.122	-183.570	0.586	0.010
-254.107	-200.000	0.013	0.102
-253.092	-40.563	0.238	0.122
-252.078	-84.235	0.350	0.109
-251.063	800.000	0.116	-0.370
-250.049	-200.000	0.018	-0.209
-249.034	-200.000	-0.006	-0.464
-248.019	252.228	-0.180	-0.303
-247.005	-28.812	0.388	-0.220
-245.990	-70.008	0.412	-0.155
-244.976	130.835	-0.157	0.199
-243.961	-92.455	0.228	0.063
-242.946	-70.986	-0.188	0.070
-241.932	-158.859	0.292	-0.016
-240.917	102.528	-0.113	-0.130
-239.903	188.924	0.025	0.036
-238.888	-200.000	-0.010	0.183
-237.873	148.077	-0.112	-0.149
-236.859	310.420	-0.231	0.427
-235.844	76.289	0.128	-0.133
-234.830	95.280	0.088	-0.099
-233.815	-28.474	0.043	-0.024
-232.800	3.505	0.325	-0.233
-231.786	25.776	0.210	-0.173
-230.771	800.000	-0.025	0.093
-229.757	-200.000	-0.005	-0.234
-228.742	-200.000	-0.032	-0.162
-227.727	-38.555	-0.141	-0.074
-226.713	-85.220	0.119	0.037
-225.698	-44.418	-0.074	0.037
-224.684	-116.495	-0.355	-0.065
-223.669	-57.050	0.295	0.128
-222.655	88.864	-0.190	-0.209
-221.640	207.483	-0.060	0.092
-220.625	169.576	-0.121	-0.171
-219.611	-200.000	-0.005	0.100
-218.596	-128.784	0.213	0.030
-217.582	-128.706	-0.209	-0.029
-216.567	-42.308	0.107	0.054
-215.552	-120.764	-0.064	-0.011
-214.538	-200.000	-0.066	-0.379
-213.523	30.676	-0.231	-0.195
-212.509	-11.528	-0.086	-0.056
-211.494	-200.000	-0.004	0.103
-210.479	-106.132	0.513	-0.114
-209.465	-39.366	0.206	0.106
-208.450	-167.536	0.151	0.006
-207.436	65.180	-0.234	0.233
-206.421	-68.885	0.141	0.054
-205.406	-38.755	-0.140	-0.073
-204.392	117.886	0.163	-0.198
-203.377	-200.000	-0.035	-0.198
-202.363	65.315	-0.160	0.160
-201.348	234.417	-0.254	0.413
-200.333	526.601	-0.152	-0.353
-199.319	182.037	0.098	0.142
-198.304	-0.019	0.073	0.051
-197.290	-125.236	-0.210	-0.032
-196.275	-43.396	0.140	0.069
-195.260	151.233	-0.058	0.077
-194.246	5.070	0.020	-0.015
-193.231	757.949	0.067	-0.179
-192.217	-87.401	-0.407	0.121
-191.202	5.854	0.191	-0.139
-190.187	-172.014	0.214	-0.007
-189.173	-102.697	-0.345	0.081
-188.158	-44.443	0.155	-0.076
-187.144	-77.058	-0.103	0.035
-186.129	-200.000	-0.034	0.299
-185.114	-200.000	-0.016	0.184
-184.100	327.376	-0.266	0.503
-183.085	175.484	0.043	-0.061
-182.071	205.173	0.220	-0.336
-181.056	-28.393	-0.112	0.064
-180.042	350.504	0.014	0.027
-179.027	-55.132	-0.269	0.119
-178.012	800.000	-0.056	0.228
-176.998	-6.844	-0.163	-0.109
-175.983	494.697	0.095	0.214
-174.969	-200.000	0.009	0.213
-173.954	-107.188	0.364	-0.079
-172.939	227.891	-0.137	0.220
-171.925	-42.206	-0.045	0.022
-170.910	34.737	0.073	0.063
-169.896	-129.036	0.424	0.058
-168.881	-77.392	0.220	0.075
-167.866	-200.000	0.004	-0.059
-166.852	177.986	0.050	0.071
-165.837	13.633	0.440	0.336
-164.823	-148.937	-0.291	0.023
-163.808	15.761	-0.092	0.071
-162.793	-104.488	-0.245	0.056
-161.779	-200.000	0.049	0.218
-160.764	-49.234	-0.178	0.083
-159.750	-47.636	-0.173	-0.083
-158.735	-200.000	0.053	0.255
-157.720	365.869	0.136	-0.269
-156.706	-46.641	0.058	-0.028
-155.691	-164.295	-0.332	0.015
-154.677	63.991	-0.100	-0.099
-153.662	-138.946	0.164	0.018
-152.647	-173.604	-0.224	0.007
-151.633	800.000	-0.093	0.374
-150.618	205.572	0.126	0.193
-149.604	8.747	-0.064	0.047
-148.589	-200.000	0.024	-0.502
-147.574	800.000	-0.007	-0.023
-146.560	-145.871	-0.518	0.045
-145.545	-47.021	0.221	0.106
-144.531	300.947	0.156	0.283
-143.516	-62.928	0.260	0.106
-142.502	164.702	-0.171	0.237
-141.487	469.304	-0.195	0.429
-140.472	227.471	-0.064	-0.102
-139.458	337.797	0.038	0.073
-138.443	-91.744	-0.331	0.092
-137.429	-200.000	-0.017	0.151
-136.414	-200.000	0.006	0.200
-135.399	44.366	-0.217	-0.195
-134.385	252.644	-0.109	-0.183
-133.370	-200.000	-0.012	-0.173
-132.356	3.563	-0.059	-0.042
-131.341	-157.746	-0.150	-0.009
-130.326	144.601	-0.107	0.140
-129.312	54.212	-0.128	0.121
-128.297	124.202	-0.195	-0.240
-127.283	-175.127	0.300	0.008
-126.268	-148.738	-0.100	-0.008
-125.253	800.000	0.023	0.062
-124.239	52.120	0.208	0.194
-123.224	-200.000	0.057	-0.539
-122.210	-200.000	0.021	-0.104
-121.195	161.704	0.079	0.108
