DTS Sentinel unit serial number:	SN413079Multiplexer serial number:	ORYXHardware model number:	OX4-SRSoftware version number:	ORYX F/W v4.00 Oryx Data Collector v3.7.2.0data status	okinstallation	princeton_trtdifferential loss correction	single-endedforward channel	channel 1reverse channel	N/Adate	2019/09/19time	12:30:35forward acquisition time	60.00reverse acquisition time	0.00gamma	496.2192k internal	0.2332k external	0.2332temperature offset calibration	1.0016default loss term (dB/km)	0.3790temperature slope calibration	1.0000multiplexer offset coefficient	1.0000multiplexer slope coefficient	1.0000fibre end	0.00T internal ref (°C)	27.06T ext. ref 1 (°C)	0.88T ext. ref 2 (°C)	24.57length (m)	temperature (°C)	Stokes	anti-Stokes-747.200	340.352	-0.098	0.192
-746.185	256.634	0.149	0.258
-745.171	291.023	0.054	-0.099
-744.156	7.700	-0.388	0.292
-743.142	-58.535	-0.505	0.220
-742.127	64.708	0.109	0.110
-741.112	-29.690	0.299	0.172
-740.098	-200.000	-0.062	0.278
-739.083	-200.000	0.003	0.038
-738.069	800.000	-0.113	0.352
-737.054	311.837	0.005	-0.010
-736.039	56.227	-0.377	-0.369
-735.025	68.683	0.117	0.120
-734.010	-104.957	0.154	0.035
-732.996	-17.779	-0.298	-0.188
-731.981	276.232	-0.269	-0.481
-730.966	-118.137	-0.109	0.020
-729.952	554.844	0.057	-0.139
-728.937	-200.000	-0.048	-0.290
-727.923	-73.176	-0.150	-0.055
-726.908	-68.705	-0.096	0.037
-725.894	361.002	-0.240	-0.483
-724.879	82.795	0.404	-0.441
-723.864	-2.757	0.078	0.055
-722.850	800.000	-0.082	-0.280
-721.835	7.488	0.213	0.160
-720.821	47.296	-0.381	0.357
-719.806	-200.000	-0.076	0.444
-718.791	-57.073	0.233	0.103
-717.777	165.111	-0.165	-0.235
-716.762	298.744	0.134	-0.247
-715.748	-81.565	0.262	0.087
-714.733	244.679	-0.080	-0.135
-713.718	-200.000	-0.242	0.000
-712.704	45.972	0.133	0.124
-711.689	-200.000	0.040	-0.232
-710.675	-101.244	0.081	0.020
-709.660	-92.332	-0.422	0.119
-708.645	-34.377	0.105	0.058
-707.631	-200.000	0.008	0.043
-706.616	436.226	0.031	-0.068
-705.602	55.135	-0.040	-0.039
-704.587	372.268	-0.025	-0.052
-703.572	-109.665	-0.134	-0.028
-702.558	-23.787	0.091	-0.054
-701.543	800.000	0.067	0.273
-700.529	-200.000	-0.031	-0.145
-699.514	272.720	-0.075	-0.132
-698.499	-15.930	-0.189	0.121
-697.485	-95.889	-0.189	-0.051
-696.470	273.382	-0.070	-0.124
-695.456	132.033	0.098	-0.126
-694.441	-200.000	-0.037	-0.288
-693.426	580.513	-0.134	-0.330
-692.412	-143.110	-0.257	-0.025
-691.397	800.000	0.146	-0.589
-690.383	-162.978	0.338	-0.016
-689.368	322.738	0.131	0.251
-688.354	-200.000	0.027	-0.178
-687.339	-33.453	-0.373	0.207
-686.324	14.471	-0.056	0.044
-685.310	-103.752	0.386	-0.091
-684.295	437.585	-0.054	0.119
-683.281	710.452	0.035	-0.093
-682.266	-133.940	-0.137	0.017
-681.251	38.983	0.170	0.153
-680.237	696.049	-0.125	0.328
-679.222	-62.391	-0.135	0.056
-678.208	-58.236	-0.106	-0.046
-677.193	800.000	0.057	-0.162
-676.178	39.767	-0.195	-0.176
-675.164	-200.000	0.021	-0.101
-674.149	-135.061	0.277	-0.034
-673.135	185.107	0.036	-0.053
-672.120	491.773	-0.127	0.291
-671.105	-70.115	0.107	-0.041
-670.091	-31.891	-0.184	0.104
-669.076	147.407	0.038	-0.051
-668.062	72.034	0.071	-0.074
-667.047	114.235	-0.314	-0.384
-666.032	-164.314	-0.306	-0.014
-665.018	-107.989	0.149	-0.032
-664.003	0.323	0.208	-0.149
-662.989	-200.000	-0.051	0.237
-661.974	269.895	-0.142	0.250
-660.959	-67.331	-0.060	0.024
-659.945	-58.889	-0.193	0.084
-658.930	-54.126	-0.255	-0.116
-657.916	162.313	-0.070	-0.099
-656.901	18.612	0.058	0.046
-655.886	800.000	0.071	-0.243
-654.872	-66.402	-0.165	0.066
-653.857	-116.794	-0.351	0.064
-652.843	-57.066	0.179	0.079
-651.828	-157.436	-0.027	0.002
-650.814	700.999	-0.061	0.161
-649.799	-200.000	0.032	-0.265
-648.784	-128.961	0.215	0.030
-647.770	749.460	-0.073	-0.196
-646.755	-4.601	0.219	0.152
-645.741	-119.929	0.072	0.012
-644.726	800.000	-0.086	0.258
-643.711	-200.000	-0.000	0.111
-642.697	57.577	0.023	0.023
-641.682	437.187	0.038	0.083
-640.668	12.220	-0.145	0.112
-639.653	463.899	0.112	-0.252
-638.638	790.177	-0.119	-0.328
-637.624	-1.209	0.203	-0.144
-636.609	-200.000	0.002	0.084
-635.595	-100.364	0.089	0.022
-634.580	-159.792	-0.260	0.014
-633.565	212.812	-0.099	-0.156
-632.551	-151.363	-0.152	-0.011
-631.536	126.784	0.058	-0.074
-630.522	-200.000	-0.018	0.111
-629.507	15.410	0.083	0.065
-628.492	179.161	-0.044	-0.065
-627.478	23.168	0.093	0.076
-626.463	462.129	-0.073	0.163
-625.449	189.295	-0.156	0.234
-624.434	-117.023	0.153	0.028
-623.419	-72.199	-0.111	0.041
-622.405	-52.748	-0.120	0.056
-621.390	172.529	0.045	-0.065
-620.376	-123.534	0.231	0.037
-619.361	-200.000	-0.008	0.212
-618.346	-124.410	0.119	-0.019
-617.332	800.000	0.111	0.355
-616.317	-39.297	-0.011	-0.006
-615.303	548.902	0.207	-0.497
-614.288	-200.000	0.031	0.378
-613.273	-6.886	-0.357	-0.243
-612.259	-43.736	0.141	-0.071
-611.244	-83.400	-0.099	-0.032
-610.230	-97.361	0.040	0.010
-609.215	601.452	-0.055	0.137
-608.201	-139.295	-0.367	-0.040
-607.186	-56.401	-0.193	0.086
-606.171	-20.780	-0.085	0.052
-605.157	800.000	0.035	0.147
-604.142	641.907	-0.048	-0.123
-603.128	25.382	-0.326	-0.272
-602.113	-85.929	0.536	-0.166
-601.098	-117.920	-0.321	-0.058
-600.084	47.989	-0.161	0.150
-599.069	-200.000	-0.005	0.340
-598.055	800.000	-0.028	0.097
-597.040	17.380	0.102	0.081
-596.025	800.000	0.047	-0.185
-595.011	-59.097	0.404	-0.174
-593.996	19.333	-0.152	0.122
-592.982	136.144	0.222	-0.289
-591.967	-73.908	0.020	0.007
-590.952	462.855	-0.059	0.131
-589.938	-97.193	0.325	0.085
-588.923	579.626	0.079	-0.194
-587.909	-115.482	0.291	0.055
-586.894	-26.379	0.046	0.027
-585.879	-30.495	0.221	0.126
-584.865	-90.325	0.295	0.086
-583.850	375.433	-0.098	0.199
-582.836	28.844	-0.091	-0.077
-581.821	229.243	-0.196	-0.319
-580.806	-20.869	0.103	-0.063
-579.792	-22.742	0.219	0.132
-578.777	152.606	-0.059	0.080
-577.763	-48.044	0.130	0.063
-576.748	-200.000	0.023	-0.115
-575.733	-200.000	-0.279	0.001
-574.719	273.701	-0.116	-0.204
-573.704	800.000	0.099	-0.299
-572.690	186.828	0.098	0.146
-571.675	261.376	0.115	-0.199
-570.661	-115.462	-0.212	-0.040
-569.646	23.628	0.168	-0.138
-568.631	-50.161	-0.368	0.174
-567.617	-35.620	0.426	-0.231
-566.602	121.268	-0.071	-0.088
-565.588	-92.077	-0.209	0.059
-564.573	-200.000	0.017	-0.138
-563.558	38.013	-0.151	0.134
-562.544	-8.873	0.195	-0.131
-561.529	53.897	-0.076	0.073
-560.515	373.609	-0.125	-0.253
-559.500	-68.979	-0.099	0.038
-558.485	-76.072	0.139	-0.049
-557.471	-110.472	0.091	0.019
-556.456	-200.000	0.006	-0.072
-555.442	-200.000	0.012	-0.132
-554.427	680.267	0.085	-0.220
-553.412	22.579	-0.186	0.152
-552.398	742.799	-0.051	-0.138
-551.383	68.217	-0.128	0.130
-550.369	-200.000	-0.052	-0.283
-549.354	-131.571	0.318	-0.042
-548.339	-167.767	-0.139	0.005
-547.325	-56.751	0.159	-0.070
-546.310	2.691	-0.280	-0.202
-545.296	111.891	-0.219	-0.264
-544.281	-200.000	-0.016	-0.075
-543.266	-200.000	0.007	0.125
-542.252	-40.615	-0.336	-0.174
-541.237	-24.421	-0.216	0.129
-540.223	275.006	0.030	-0.053
-539.208	593.917	0.068	-0.168
-538.193	-12.910	-0.241	0.156
-537.179	-97.810	0.164	0.042
-536.164	216.725	-0.077	-0.122
-535.150	127.922	0.093	-0.118
-534.135	258.734	-0.067	0.115
-533.121	130.334	-0.128	-0.163
-532.106	604.107	-0.018	0.045
-531.091	420.252	-0.042	-0.090
-530.077	-144.948	-0.717	0.065
-529.062	-156.398	0.263	0.016
-528.048	13.238	0.161	0.125
-527.033	-200.000	0.052	-0.523
-526.018	401.557	0.116	0.243
-525.004	0.680	0.255	0.182
-523.989	-162.047	0.027	0.001
-522.975	-200.000	-0.034	0.405
-521.960	800.000	0.106	0.344
-520.945	-200.000	-0.066	0.375
-519.931	-91.658	0.164	0.046
-518.916	288.047	-0.101	-0.183
-517.902	-33.460	0.326	-0.180
-516.887	495.819	0.092	0.211
-515.872	800.000	-0.086	0.238
-514.858	-149.871	-0.148	0.012
-513.843	-7.326	0.135	0.091
-512.829	-200.000	0.007	0.055
-511.814	-165.311	-0.173	0.008
-510.799	-27.278	0.149	-0.087
-509.785	-123.602	-0.315	0.050
-508.770	-200.000	0.053	0.274
-507.756	-200.000	0.010	-0.209
-506.741	-200.000	-0.008	0.054
-505.726	563.950	-0.018	-0.042
-504.712	130.000	-0.084	0.107
-503.697	-200.000	-0.002	-0.022
-502.683	195.138	-0.117	-0.178
-501.668	800.000	-0.083	0.260
-500.653	-107.388	0.244	-0.053
-499.639	-73.236	-0.473	0.173
-498.624	60.582	-0.110	0.109
-497.610	79.597	0.144	0.154
-496.595	-78.673	-0.255	-0.087
-495.581	188.248	-0.131	0.195
-494.566	79.744	0.201	0.216
-493.551	31.584	0.107	0.091
-492.537	-93.038	0.140	0.039
-491.522	485.474	0.061	0.138
-490.508	51.741	0.100	-0.095
-489.493	-18.464	0.015	0.010
-488.478	-82.355	-0.076	0.025
-487.464	-58.574	-0.037	0.016
-486.449	800.000	-0.076	0.220
-485.435	800.000	0.080	-0.232
-484.420	306.050	-0.036	-0.067
-483.405	25.843	-0.263	0.218
-482.391	-9.327	-0.292	0.194
-481.376	142.644	-0.076	-0.101
-480.362	-200.000	-0.016	0.156
-479.347	764.940	0.177	0.477
-478.332	364.472	-0.089	-0.177
-477.318	49.327	-0.187	-0.175
-476.303	-164.660	0.289	0.013
-475.289	-82.495	-0.208	0.067
-474.274	47.298	0.437	-0.405
-473.259	487.509	0.102	-0.231
-472.245	120.279	0.181	-0.223
-471.230	422.742	0.276	0.591
-470.216	-177.182	-0.051	0.001
-469.201	-123.450	0.203	-0.032
-468.186	707.122	-0.094	0.246
-467.172	-25.661	0.108	0.064
-466.157	-39.008	-0.061	-0.032
-465.143	-69.044	0.154	-0.059
-464.128	-63.235	-0.167	-0.069
-463.113	263.910	-0.079	-0.137
-462.099	-45.419	-0.301	0.149
-461.084	-33.962	0.314	0.172
-460.070	37.921	-0.146	-0.129
-459.055	77.735	0.065	0.069
-458.040	-200.000	-0.011	0.055
-457.026	-200.000	0.028	-0.176
-456.011	-17.505	-0.166	-0.104
-454.997	-32.592	-0.192	-0.107
-453.982	800.000	-0.055	-0.187
-452.968	-17.575	-0.130	0.082
-451.953	248.593	-0.052	0.087
-450.938	-21.065	-0.154	0.094
-449.924	93.703	0.015	-0.017
-448.909	800.000	0.083	-0.254
-447.895	-200.000	-0.012	0.095
-446.880	-200.000	-0.003	0.106
-445.865	-120.755	-0.046	-0.008
-444.851	32.719	0.181	-0.155
-443.836	98.982	0.176	0.202
-442.822	173.275	0.083	-0.118
-441.807	-200.000	0.011	0.425
-440.792	-101.791	-0.227	0.055
-439.778	800.000	-0.063	-0.180
-438.763	-200.000	-0.068	-0.360
-437.749	100.890	0.132	-0.153
-436.734	-92.430	-0.291	0.081
-435.719	-79.737	-0.220	0.074
-434.705	-116.550	-0.033	0.006
-433.690	-113.817	0.106	-0.021
-432.676	-200.000	-0.022	0.393
-431.661	1.689	-0.188	0.135
-430.646	-25.791	-0.233	0.136
-429.632	127.962	0.183	0.231
-428.617	-197.414	0.264	0.002
-427.603	57.638	0.111	-0.108
-426.588	800.000	0.027	-0.101
-425.573	480.745	0.101	0.228
-424.559	-74.462	-0.167	-0.060
-423.544	-67.312	-0.378	0.148
-422.530	800.000	-0.054	0.152
-421.515	45.870	-0.230	-0.211
-420.500	11.049	0.167	0.127
-419.486	-133.268	-0.276	-0.035
-418.471	-24.218	-0.155	0.092
-417.457	-122.371	0.243	-0.039
-416.442	517.908	-0.125	-0.292
-415.428	519.695	-0.064	0.149
-414.413	-93.744	0.173	-0.047
-413.398	59.309	-0.162	-0.158
-412.384	127.514	0.122	0.154
-411.369	-200.000	-0.032	0.252
-410.355	8.661	0.198	-0.148
-409.340	345.920	0.219	0.427
-408.325	-105.600	0.332	0.075
-407.311	2.467	-0.084	0.060
-406.296	-163.936	0.132	0.006
-405.282	800.000	-0.080	0.294
-404.267	444.056	-0.178	-0.387
-403.252	-35.232	-0.250	-0.135
-402.238	-200.000	-0.019	-0.082
-401.223	234.695	0.081	0.132
-400.209	-200.000	-0.010	0.068
-399.194	26.987	0.155	0.129
-398.179	63.981	0.225	-0.224
-397.165	5.854	-0.230	0.169
-396.150	-45.547	0.279	-0.137
-395.136	73.500	-0.058	-0.060
-394.121	-91.361	0.070	0.020
-393.106	8.832	-0.272	-0.203
-392.092	-200.000	0.074	0.326
-391.077	282.249	0.106	-0.188
-390.063	-200.000	0.011	-0.319
-389.048	-200.000	-0.015	0.113
-388.033	-17.340	-0.155	-0.097
-387.019	-200.000	0.025	-0.345
-386.004	-70.146	-0.316	-0.119
-384.990	-200.000	-0.039	-0.450
-383.975	-154.660	0.277	0.018
-382.960	-167.261	-0.102	-0.004
-381.946	-75.329	0.405	-0.143
-380.931	-157.650	-0.071	-0.004
-379.917	-140.842	-0.182	0.019
-378.902	89.359	-0.045	-0.050
-377.888	-56.070	-0.258	-0.114
-376.873	152.222	0.251	-0.340
-375.858	-58.052	-0.127	0.055
-374.844	-106.840	0.104	-0.023
-373.829	-200.000	0.001	-0.335
-372.815	-200.000	-0.058	0.306
-371.800	-159.975	0.121	0.007
-370.785	-72.310	-0.079	-0.029
-369.771	426.407	-0.035	0.074
-368.756	-137.606	-0.253	-0.028
-367.742	-131.821	-0.054	-0.007
-366.727	65.456	-0.295	0.296
-365.712	150.932	0.130	0.175
-364.698	-117.630	-0.048	0.009
-363.683	56.110	-0.220	0.212
-362.669	7.721	-0.023	-0.017
-361.654	-200.000	-0.018	-0.089
-360.639	4.259	-0.031	-0.022
-359.625	-200.000	-0.050	0.237
-358.610	-200.000	-0.012	-0.087
-357.596	342.485	0.166	0.322
-356.581	40.165	0.081	0.072
-355.566	-177.024	0.281	0.007
-354.552	-200.000	0.007	-0.310
-353.537	369.837	0.114	-0.229
-352.523	800.000	-0.101	-0.360
-351.508	-200.000	0.009	0.247
-350.493	-200.000	0.026	-0.202
-349.479	-64.440	0.091	0.037
-348.464	800.000	-0.061	0.251
-347.450	-8.811	0.230	0.153
-346.435	-20.384	0.131	0.080
-345.420	-77.503	-0.267	0.092
-344.406	-200.000	0.001	0.037
-343.391	135.005	-0.033	-0.043
-342.377	81.900	0.195	-0.210
-341.362	-181.974	0.229	-0.004
-340.348	392.580	-0.113	-0.233
-339.333	19.213	0.217	-0.173
-338.318	-16.637	0.199	0.125
-337.304	41.515	-0.160	-0.144
-336.289	31.868	-0.102	-0.087
-335.275	-132.163	0.149	-0.019
-334.260	141.967	0.100	-0.131
-333.245	-122.754	-0.065	-0.010
-332.231	-104.117	-0.180	-0.041
-331.216	40.438	0.090	-0.080
-330.202	800.000	-0.051	-0.213
-329.187	800.000	0.042	-0.143
-328.172	-105.181	0.516	-0.117
-327.158	-83.285	-0.356	0.113
-326.143	6.831	0.083	0.061
-325.129	-13.902	-0.070	-0.045
-324.114	274.329	-0.016	0.028
-323.099	-16.019	-0.242	-0.153
-322.085	-182.392	0.141	-0.003
-321.070	-30.517	-0.382	0.214
-320.056	-93.202	-0.338	0.093
-319.041	16.469	0.465	-0.364
-318.026	-200.000	-0.047	-0.389
-317.012	-200.000	-0.070	-0.369
-315.997	88.617	0.262	-0.288
-314.983	-200.000	-0.047	0.240
-313.968	-125.095	0.057	-0.009
-312.953	-200.000	0.031	-0.156
-311.939	-70.874	-0.207	-0.077
-310.924	-200.000	0.122	0.000
-309.910	-29.767	0.170	-0.096
-308.895	-47.141	0.302	0.146
-307.880	800.000	-0.193	0.617
-306.866	78.668	-0.111	0.117
-305.851	485.048	0.087	-0.195
-304.837	800.000	-0.023	0.087
-303.822	800.000	-0.060	0.252
-302.807	-41.834	0.461	0.234
-301.793	16.962	0.144	0.113
-300.778	-128.026	-0.180	0.026
-299.764	43.439	-0.083	-0.075
-298.749	23.867	0.146	0.119
-297.735	-72.868	-0.330	-0.120
-296.720	-82.001	0.101	-0.033
-295.705	-79.391	0.125	0.042
-294.691	150.516	-0.132	-0.177
-293.676	191.257	-0.058	0.086
-292.662	255.812	0.032	-0.054
-291.647	121.903	0.207	0.256
-290.632	379.270	-0.068	0.137
-289.618	407.223	0.170	0.355
-288.603	-200.000	0.012	-0.161
-287.589	-61.912	-0.189	-0.078
-286.574	133.132	0.179	0.229
-285.559	364.106	-0.163	0.324
-284.545	73.590	-0.029	-0.030
-283.530	78.370	-0.151	-0.159
-282.516	18.475	-0.181	-0.143
-281.501	-26.970	0.059	-0.034
-280.486	432.045	-0.144	0.309
-279.472	-79.484	-0.095	-0.032
-278.457	202.209	0.115	0.175
-277.443	-60.289	-0.162	0.068
-276.428	-41.891	0.329	-0.166
-275.413	725.596	-0.084	-0.221
-274.399	20.072	0.164	-0.130
-273.384	-200.000	0.049	-0.227
-272.370	-122.003	-0.268	0.044
-271.355	133.469	0.116	0.148
-270.340	-200.000	-0.035	0.231
-269.326	-200.000	0.008	0.103
-268.311	158.361	-0.178	0.243
-267.297	-111.939	-0.506	-0.101
-266.282	6.857	0.128	0.094
-265.267	100.985	0.247	0.284
-264.253	-134.132	0.239	-0.029
-263.238	20.225	0.122	-0.098
-262.224	800.000	-0.057	-0.184
-261.209	116.582	0.253	-0.307
-260.195	-54.846	-0.065	0.029
-259.180	39.030	-0.192	-0.169
-258.165	-200.000	0.036	-0.254
-257.151	-51.506	0.184	0.085
-256.136	-200.000	-0.019	0.228
-255.122	-135.100	0.169	-0.020
-254.107	-56.139	0.234	0.103
-253.092	550.199	-0.130	0.309
-252.078	-200.000	0.046	-0.237
-251.063	40.394	0.201	-0.179
-250.049	-34.073	-0.093	0.050
-249.034	32.853	0.195	-0.166
-248.019	5.637	0.201	0.146
-247.005	335.777	0.034	0.066
-245.990	-4.416	0.086	-0.059
-244.976	-114.875	0.436	0.082
-243.961	-200.000	0.012	-0.258
-242.946	702.070	-0.089	0.231
-241.932	553.491	-0.048	-0.113
-240.917	90.184	0.148	-0.163
-239.903	-200.000	0.015	0.063
-238.888	450.403	0.050	0.108
-237.873	800.000	-0.132	0.460
-236.859	514.581	0.097	-0.224
-235.844	151.134	-0.069	-0.092
-234.830	-200.000	-0.005	0.187
-233.815	-14.778	0.221	-0.140
-232.800	-200.000	-0.015	0.102
-231.786	128.162	-0.037	-0.046
-230.771	218.089	0.191	-0.300
-229.757	271.371	-0.091	-0.158
-228.742	299.798	-0.127	0.231
-227.727	72.083	0.131	0.134
-226.713	-167.951	0.109	-0.004
-225.698	-34.114	-0.179	0.097
-224.684	-49.436	-0.253	-0.119
-223.669	-200.000	0.018	-0.106
-222.655	7.358	0.036	0.026
-221.640	50.622	0.048	0.045
-220.625	-200.000	-0.001	-0.337
-219.611	800.000	-0.020	0.072
-218.596	179.604	0.228	0.329
-217.582	-200.000	0.043	-0.389
-216.567	-157.254	-0.108	0.006
-215.552	-200.000	-0.045	0.223
-214.538	-129.077	0.352	-0.048
-213.523	-115.490	-0.262	-0.049
-212.509	18.242	0.147	0.115
-211.494	-102.186	-0.112	-0.026
-210.479	86.889	0.175	0.191
-209.465	211.636	-0.151	0.234
-208.450	25.885	0.187	-0.154
-207.436	-37.799	0.046	0.024
-206.421	28.062	-0.151	0.125
-205.406	-15.667	-0.149	0.094
-204.392	-103.188	0.180	-0.042
-203.377	-85.763	0.059	-0.018
-202.363	-55.069	0.300	0.133
-201.348	-23.184	-0.166	-0.098
-200.333	90.561	-0.052	-0.058
-199.319	568.242	-0.031	-0.073
-198.304	80.865	-0.148	-0.158
-197.290	147.491	-0.212	-0.281
-196.275	165.486	0.142	-0.198
-195.260	29.629	0.309	0.259
-194.246	714.073	0.103	-0.268
-193.231	-166.382	0.427	0.018
-192.217	162.407	-0.105	0.146
-191.202	340.788	-0.056	0.107
-190.187	-53.677	-0.327	-0.147
-189.173	220.748	0.139	-0.220
-188.158	29.977	-0.184	-0.154
-187.144	-200.000	0.035	-0.178
-186.129	176.548	0.032	-0.045
-185.114	-113.567	0.286	0.055
-184.100	-110.757	0.109	-0.022
-183.085	-200.000	-0.063	-0.401
-182.071	139.500	0.160	-0.207
-181.056	-82.083	-0.196	-0.063
-180.042	-49.048	-0.242	-0.114
-179.027	-158.457	0.091	0.005
-178.012	-95.084	-0.296	0.079
-176.998	-43.017	-0.334	-0.167
-175.983	3.654	0.213	-0.153
-174.969	683.447	-0.069	-0.178
-173.954	102.451	-0.095	-0.109
-172.939	800.000	0.073	0.265
-171.925	-200.000	0.045	-0.267
-170.910	-200.000	0.022	-0.148
-169.896	-79.941	-0.153	-0.051
-168.881	-45.853	0.253	0.123
-167.866	-136.589	-0.400	-0.045
-166.852	156.974	-0.168	0.228
-165.837	312.079	0.131	0.242
-164.823	800.000	-0.080	0.263
-163.808	-200.000	0.004	0.082
-162.793	1.937	0.269	0.191
-161.779	180.222	-0.128	0.184
-160.764	275.915	0.051	0.088
-159.750	52.855	-0.218	0.205
-158.735	-9.905	-0.264	0.173
-157.720	2.985	-0.079	-0.056
-156.706	129.034	-0.211	0.265
-155.691	352.818	0.027	-0.053
-154.677	15.324	0.177	0.137
-153.662	38.758	-0.080	0.070
-152.647	-40.076	-0.102	0.052
-151.633	532.909	-0.018	-0.042
-150.618	44.101	0.122	0.110
-149.604	-125.305	0.114	0.017
-148.589	-49.590	0.206	-0.096
-147.574	-64.477	0.172	0.069
-146.560	101.779	-0.067	0.077
-145.545	362.940	-0.146	0.288
-144.531	-97.538	-0.051	0.013
-143.516	238.591	0.085	0.139
-142.502	-132.863	-0.495	0.062
-141.487	800.000	-0.068	0.242
-140.472	484.539	0.043	-0.097
-139.458	800.000	0.109	0.398
-138.443	65.916	0.159	-0.158
-137.429	-59.941	-0.296	0.124
-136.414	614.943	0.103	0.253
-135.399	681.107	-0.169	0.432
-134.385	-15.698	0.136	-0.085
-133.370	-18.285	0.466	-0.286
-132.356	472.073	-0.084	-0.186
-131.341	-63.956	-0.049	0.020
-130.326	20.584	0.192	-0.153
-129.312	800.000	-0.048	-0.183
-128.297	800.000	0.059	-0.253
-127.283	68.633	0.191	-0.193
-126.268	-34.423	0.225	0.121
-125.253	231.827	0.089	0.144
-124.239	-23.341	0.109	0.064
-123.224	207.437	-0.130	-0.199
-122.210	110.712	0.281	0.332
-121.195	168.109	0.168	0.235
-120.180	-200.000	0.044	-0.360
