DTS Sentinel unit serial number:	SN413079Multiplexer serial number:	ORYXHardware model number:	OX4-SRSoftware version number:	ORYX F/W v4.00 Oryx Data Collector v3.7.2.0data status	okinstallation	princeton_trtdifferential loss correction	single-endedforward channel	channel 1reverse channel	N/Adate	2019/09/12time	19:50:34forward acquisition time	15.00reverse acquisition time	0.00gamma	496.2192k internal	0.2323k external	0.2323temperature offset calibration	1.0145default loss term (dB/km)	0.3790temperature slope calibration	1.0000multiplexer offset coefficient	1.0000multiplexer slope coefficient	1.0000fibre end	0.00T internal ref (°C)	31.94T ext. ref 1 (°C)	3.46T ext. ref 2 (°C)	26.60length (m)	temperature (°C)	Stokes	anti-Stokes-747.200	0.303	0.581	-0.419
-746.185	-171.837	-0.469	-0.015
-745.171	677.853	0.221	0.579
-744.156	641.725	-0.205	0.528
-743.142	-114.336	0.467	-0.091
-742.127	800.000	0.136	-0.407
-741.112	104.119	-0.258	0.307
-740.098	-9.335	0.416	0.280
-739.083	-101.978	-0.296	0.072
-738.069	-52.639	-0.362	-0.169
-737.054	388.526	0.374	0.781
-736.039	-200.000	-0.078	-0.672
-735.025	-95.547	1.225	-0.332
-734.010	-200.000	0.049	-0.497
-732.996	40.339	0.304	0.276
-731.981	155.537	0.276	-0.384
-730.966	-180.314	0.717	-0.015
-729.952	-200.000	-0.042	-0.247
-728.937	-171.899	0.511	-0.017
-727.923	-64.108	0.721	-0.297
-726.908	25.790	0.127	-0.106
-725.894	-52.334	-0.544	-0.254
-724.879	-200.000	-0.102	-0.599
-723.864	10.596	-0.155	-0.119
-722.850	143.033	0.213	-0.286
-721.835	-153.169	-1.077	0.076
-720.821	-200.000	0.010	-0.727
-719.806	266.462	0.350	0.618
-718.791	-142.906	0.442	0.043
-717.777	70.438	0.277	0.288
-716.762	-14.195	-0.557	0.362
-715.748	532.229	0.205	0.490
-714.733	-111.561	0.763	0.156
-713.718	317.566	0.272	-0.518
-712.704	67.739	-0.329	-0.339
-711.689	-200.000	-0.049	0.320
-710.675	-200.000	-0.026	-0.130
-709.660	800.000	-0.035	0.136
-708.645	52.368	-0.498	-0.479
-707.631	246.528	0.365	0.620
-706.616	-17.202	-0.609	-0.387
-705.602	258.588	0.314	-0.546
-704.587	800.000	-0.067	-0.261
-703.572	138.111	-0.071	0.094
-702.558	30.045	-0.222	-0.191
-701.543	-73.331	-0.667	0.246
-700.529	-200.000	0.037	0.170
-699.514	800.000	-0.034	0.114
-698.499	800.000	0.144	-0.488
-697.485	87.266	-0.221	-0.247
-696.470	25.612	0.482	-0.404
-695.456	-53.032	0.497	-0.230
-694.441	-182.002	0.546	-0.010
-693.426	800.000	0.099	0.341
-692.412	-200.000	0.034	-0.162
-691.397	-30.433	-0.360	-0.206
-690.383	-26.987	0.434	-0.255
-689.368	800.000	0.055	0.212
-688.354	271.604	0.481	-0.853
-687.339	-59.293	0.333	0.144
-686.324	638.112	0.367	0.940
-685.310	-140.752	-0.932	0.097
-684.295	-8.838	0.412	-0.278
-683.281	-125.071	-0.979	0.152
-682.266	724.163	0.326	0.875
-681.251	255.995	-0.228	0.394
-680.237	-200.000	-0.037	-0.493
-679.222	294.635	-0.190	-0.350
-678.208	800.000	0.079	-0.253
-677.193	-171.408	0.247	-0.008
-676.178	-13.394	-0.482	0.315
-675.164	541.117	-0.230	-0.552
-674.149	-98.340	0.359	0.093
-673.135	293.528	0.429	0.789
-672.120	165.042	0.303	0.431
-671.105	-26.076	0.262	-0.155
-670.091	-81.247	-0.325	-0.108
-669.076	-51.617	0.412	-0.194
-668.062	-200.000	-0.044	-0.339
-667.047	68.568	0.339	-0.350
-666.032	-28.908	0.214	0.124
-665.018	-129.556	-0.425	0.059
-664.003	239.257	0.308	0.515
-662.989	-200.000	-0.053	-0.377
-661.974	-90.582	-0.276	0.080
-660.959	-200.000	0.087	-0.486
-659.945	-44.532	-0.204	-0.103
-658.930	18.968	0.696	-0.562
-657.916	42.446	-0.322	-0.295
-656.901	-200.000	-0.014	-0.220
-655.886	24.216	0.400	0.332
-654.872	394.723	-0.023	0.048
-653.857	-200.000	0.037	0.439
-652.843	-58.816	-0.621	-0.270
-651.828	800.000	0.155	-0.533
-650.814	30.335	0.575	-0.494
-649.799	193.040	-0.320	0.487
-648.784	-167.541	0.495	-0.020
-647.770	-5.663	-0.498	-0.344
-646.755	-128.036	-0.160	0.023
-645.741	-14.627	-0.351	0.227
-644.726	-14.425	1.072	0.694
-643.711	-12.517	0.804	-0.528
-642.697	-55.358	0.489	0.221
-641.682	-200.000	0.062	1.086
-640.668	-37.970	0.720	-0.385
-639.653	525.402	0.062	-0.148
-638.638	-29.694	0.423	0.243
-637.624	-135.434	0.715	-0.086
-636.609	32.853	-0.051	0.044
-635.595	-153.358	-0.149	-0.010
-634.580	-50.245	0.137	-0.065
-633.565	25.196	-0.253	0.211
-632.551	742.588	0.021	-0.056
-631.536	-95.081	-0.930	0.253
-630.522	333.323	-0.470	-0.914
-629.507	26.323	0.099	-0.083
-628.492	-170.994	0.151	0.005
-627.478	450.570	0.172	0.382
-626.463	34.978	-0.171	0.150
-625.449	-200.000	-0.901	-0.003
-624.434	-200.000	0.061	0.302
-623.419	-200.000	0.077	-0.835
-622.405	-200.000	0.052	-0.995
-621.390	-200.000	-0.022	-0.537
-620.376	-133.588	0.325	0.041
-619.361	121.076	-0.289	-0.362
-618.346	-143.828	-0.714	0.068
-617.332	800.000	-0.217	-0.846
-616.317	247.683	-0.079	-0.134
-615.303	230.034	-0.381	0.625
-614.288	-200.000	0.183	-0.981
-613.273	479.579	-0.113	0.256
-612.259	-34.485	-0.518	0.285
-611.244	593.529	0.190	-0.471
-610.230	34.283	-0.290	0.254
-609.215	33.300	0.638	0.556
-608.201	162.701	-0.427	-0.602
-607.186	-200.000	0.040	-0.195
-606.171	-32.721	0.276	0.154
-605.157	28.746	0.453	-0.385
-604.142	532.089	0.218	0.518
-603.128	104.659	-0.179	0.212
-602.113	-99.800	-0.822	0.207
-601.098	-145.375	0.358	-0.032
-600.084	-21.743	0.223	0.136
-599.069	-200.000	-0.173	-1.136
-598.055	37.437	-0.162	0.144
-597.040	800.000	-0.085	0.283
-596.025	-200.000	-0.104	0.505
-595.011	-20.338	0.317	0.196
-593.996	105.581	0.439	0.521
-592.982	-152.612	-0.384	0.028
-591.967	61.728	-0.731	0.731
-590.952	183.756	-0.246	0.366
-589.938	93.675	-0.168	0.190
-588.923	800.000	-0.090	0.329
-587.909	800.000	0.263	-0.884
-586.894	149.404	0.373	-0.507
-585.879	166.984	-0.259	-0.369
-584.865	673.342	0.121	0.315
-583.850	139.764	0.494	0.653
-582.836	-82.017	0.211	-0.069
-581.821	-134.575	-0.341	0.042
-580.806	-49.121	-0.436	0.209
-579.792	217.384	-0.344	0.550
-578.777	-20.370	-0.652	-0.402
-577.763	800.000	0.062	0.220
-576.748	-166.476	0.853	-0.036
-575.733	-90.338	0.584	0.170
-574.719	-119.456	-0.229	-0.040
-573.704	478.349	0.376	-0.855
-572.690	2.483	0.294	0.214
-571.675	50.937	-0.749	-0.712
-570.661	-200.000	0.090	-0.407
-569.646	70.856	-0.280	0.291
-568.631	169.073	0.210	-0.300
-567.617	293.988	-0.240	-0.439
-566.602	-145.253	0.333	0.030
-565.588	17.441	-0.296	0.236
-564.573	-200.000	0.059	-0.321
-563.558	-31.442	0.514	0.290
-562.544	-7.585	0.417	-0.282
-561.529	-123.782	0.565	0.090
-560.515	-23.041	-0.480	-0.290
-559.500	-135.113	-1.040	-0.125
-558.485	-200.000	-0.049	-0.315
-557.471	-73.310	0.727	-0.266
-556.456	45.177	-0.303	-0.280
-555.442	-200.000	0.054	-0.429
-554.427	220.419	0.221	0.356
-553.412	800.000	0.035	-0.151
-552.398	-102.772	-0.274	0.065
-551.383	-200.000	0.037	-0.340
-550.369	38.205	0.197	-0.176
-549.354	-40.967	0.714	-0.370
-548.339	40.717	0.246	0.222
-547.325	254.747	-0.214	-0.368
-546.310	-200.000	-0.017	0.140
-545.296	104.811	-0.272	-0.321
-544.281	169.067	-0.510	-0.729
-543.266	-151.243	-0.628	0.047
-542.252	67.309	-0.276	-0.282
-541.237	-200.000	-0.028	-0.637
-540.223	78.326	-0.139	-0.148
-539.208	787.064	-0.219	0.602
-538.193	800.000	-0.159	0.458
-537.179	800.000	0.116	0.469
-536.164	800.000	0.187	-0.786
-535.150	141.177	0.506	-0.671
-534.135	51.176	-0.126	-0.120
-533.121	-200.000	0.015	-0.244
-532.106	156.826	-0.408	0.565
-531.091	10.260	0.330	-0.251
-530.077	-200.000	-0.070	0.506
-529.062	-200.000	-0.234	1.071
-528.048	800.000	-0.139	-0.471
-527.033	-16.033	0.660	-0.421
-526.018	-200.000	0.126	-0.669
-525.004	-200.000	0.083	0.820
-523.989	182.784	0.408	0.603
-522.975	1.733	-0.372	0.269
-521.960	-84.805	-0.485	-0.152
-520.945	-129.316	-0.396	0.055
-519.931	-6.550	0.191	0.130
-518.916	-127.588	0.123	-0.018
-517.902	4.844	-0.215	-0.158
-516.887	-200.000	0.019	-0.138
-515.872	101.270	0.434	0.505
-514.858	800.000	0.025	-0.078
-513.843	164.329	0.326	0.460
-512.829	-34.971	0.230	-0.126
-511.814	-52.801	-0.049	0.023
-510.799	-129.891	1.030	-0.141
-509.785	-6.939	-0.191	-0.130
-508.770	-200.000	0.052	0.725
-507.756	-79.774	-0.862	0.290
-506.741	800.000	-0.120	0.505
-505.726	446.387	-0.379	-0.835
-504.712	-21.925	0.993	-0.604
-503.697	751.724	-0.284	0.767
-502.683	4.749	-0.326	-0.240
-501.668	523.633	0.297	-0.699
-500.653	-137.955	-0.662	-0.074
-499.639	60.807	0.310	-0.307
-498.624	266.389	-0.200	0.349
-497.610	-127.369	-0.538	0.078
-496.595	447.856	0.184	0.405
-495.581	447.506	-0.208	0.457
-494.566	-116.062	0.036	0.007
-493.551	394.290	-0.425	0.884
-492.537	16.358	0.114	-0.090
-491.522	38.655	0.209	-0.186
-490.508	-162.607	0.632	0.031
-489.493	-131.406	0.460	0.061
-488.478	18.556	0.209	0.167
-487.464	-85.310	1.045	-0.326
-486.449	-200.000	0.137	0.937
-485.435	-13.931	0.583	0.376
-484.420	-53.178	-0.349	0.160
-483.405	800.000	0.078	0.279
-482.391	-200.000	-0.099	0.779
-481.376	201.624	0.161	-0.247
-480.362	-18.865	-0.761	-0.474
-479.347	253.437	0.210	0.359
-478.332	-200.000	0.056	0.700
-477.318	124.664	0.767	0.965
-476.303	-129.028	-0.833	0.117
-475.289	-21.720	0.226	-0.137
-474.274	800.000	0.080	-0.277
-473.259	457.764	-0.198	0.440
-472.245	800.000	-0.062	0.261
-471.230	-200.000	-0.096	1.056
-470.216	-75.521	-0.847	0.301
-469.201	-63.423	0.636	-0.261
-468.186	252.342	0.189	0.321
-467.172	-97.497	-1.115	0.289
-466.157	-200.000	0.032	0.265
-465.143	-200.000	-0.004	0.039
-464.128	800.000	-0.068	0.255
-463.113	800.000	-0.401	-1.173
-462.099	800.000	-0.328	-1.147
-461.084	-200.000	-0.541	-0.001
-460.070	724.622	-0.041	0.108
-459.055	-76.699	-0.827	0.289
-458.040	-24.338	-0.266	0.158
-457.026	297.492	-0.158	-0.290
-456.011	-200.000	-0.081	0.456
-454.997	400.057	0.066	-0.138
-453.982	800.000	0.223	-0.630
-452.968	247.505	0.163	-0.276
-451.953	-122.308	-0.452	0.074
-450.938	-200.000	0.016	0.405
-449.924	-200.000	-0.066	0.493
-448.909	60.776	0.318	0.315
-447.895	152.594	0.475	-0.648
-446.880	-40.914	-0.748	-0.386
-445.865	800.000	0.028	-0.112
-444.851	-200.000	-0.042	0.322
-443.836	83.082	-0.158	-0.172
-442.822	800.000	-0.051	0.221
-441.807	28.737	-0.331	0.280
-440.792	-200.000	-0.107	0.805
-439.778	448.260	0.316	0.693
-438.763	30.535	-0.267	-0.228
-437.749	-105.253	-1.162	-0.265
-436.734	232.011	0.412	0.675
-435.719	800.000	0.264	0.787
-434.705	100.185	-0.696	-0.806
-433.690	-200.000	0.054	-0.494
-432.676	2.100	0.222	-0.160
-431.661	-34.553	-0.633	-0.346
-430.646	-200.000	0.117	0.884
-429.632	8.355	0.194	-0.146
-428.617	-200.000	0.040	-0.528
-427.603	-200.000	0.001	-0.090
-426.588	800.000	-0.153	-0.498
-425.573	-29.985	-0.392	-0.222
-424.559	800.000	-0.223	0.708
-423.544	220.646	0.423	-0.677
-422.530	219.462	0.315	-0.502
-421.515	223.967	-0.506	-0.815
-420.500	-50.585	0.829	0.390
-419.486	-49.193	0.384	0.183
-418.471	-12.785	-0.163	0.106
-417.457	-58.004	0.483	-0.210
-416.442	-135.274	-0.345	0.041
-415.428	800.000	0.175	0.636
-414.413	-200.000	0.206	1.080
-413.398	230.030	0.350	0.570
-412.384	295.523	0.528	-0.963
-411.369	236.171	-0.475	0.782
-410.355	-61.478	0.304	0.128
-409.340	-83.977	0.403	0.128
-408.325	618.025	0.244	-0.610
-407.311	800.000	0.105	-0.362
-406.296	-200.000	0.094	-0.413
-405.282	800.000	-0.045	-0.125
-404.267	-57.718	0.285	-0.124
-403.252	356.471	0.061	-0.122
-402.238	372.202	-0.317	0.642
-401.223	17.886	-0.526	-0.417
-400.209	241.366	0.204	-0.339
-399.194	-156.028	-0.397	0.025
-398.179	800.000	0.090	-0.334
-397.165	279.536	-0.583	-1.038
-396.150	269.282	-0.299	0.523
-395.136	264.800	0.168	-0.292
-394.121	314.105	0.242	0.453
-393.106	34.751	-0.594	-0.517
-392.092	289.935	0.162	-0.293
-391.077	58.572	-0.538	-0.526
-390.063	-33.243	-0.343	0.189
-389.048	-200.000	-0.039	-0.311
-388.033	-200.000	-0.113	-0.628
-387.019	99.621	0.192	-0.222
-386.004	101.548	0.224	0.260
-384.990	800.000	0.231	0.949
-383.975	91.873	-0.232	0.260
-382.960	-95.776	0.945	0.251
-381.946	31.964	0.352	-0.302
-380.931	-80.271	0.231	0.077
-379.917	-64.156	0.485	-0.197
-378.902	800.000	0.332	-1.048
-377.888	685.164	-0.117	-0.305
-376.873	-114.911	0.966	0.183
-375.858	142.673	-0.880	1.164
-374.844	-200.000	-0.025	-0.185
-373.829	167.172	-0.433	-0.612
-372.815	107.359	0.335	0.397
-371.800	-200.000	-0.007	-0.554
-370.785	800.000	0.131	0.405
-369.771	-37.203	0.705	-0.375
-368.756	53.969	0.193	-0.184
-367.742	232.554	-0.456	0.746
-366.727	-200.000	0.034	0.457
-365.712	7.977	0.264	0.197
-364.698	-64.040	0.571	-0.232
-363.683	48.442	0.083	0.077
-362.669	-200.000	0.003	0.208
-361.654	800.000	-0.109	-0.311
-360.639	128.101	0.339	-0.429
-359.625	90.843	-0.658	-0.733
-358.610	-200.000	0.183	0.969
-357.596	113.880	-0.454	-0.549
-356.581	-67.250	-0.284	-0.111
-355.566	65.983	0.391	0.394
-354.552	-86.673	-0.372	0.113
-353.537	-200.000	-0.005	-0.611
-352.523	-61.806	-0.303	-0.126
-351.508	-200.000	0.028	-0.231
-350.493	-125.865	-0.502	-0.075
-349.479	-40.231	-0.784	-0.406
-348.464	-138.658	-0.425	-0.046
-347.450	191.393	-0.081	-0.121
-346.435	-37.702	0.599	-0.317
-345.420	51.060	0.539	-0.508
-344.406	-82.545	-0.326	-0.105
-343.391	45.143	0.331	0.303
-342.377	309.403	-0.522	-0.971
-341.362	61.795	-0.369	-0.365
-340.348	277.390	0.159	-0.281
-339.333	155.067	-0.249	-0.341
-338.318	391.315	0.255	0.527
-337.304	-4.568	-0.229	-0.157
-336.289	5.345	0.041	-0.030
-335.275	-200.000	0.019	0.117
-334.260	755.131	-0.072	0.193
-333.245	-115.296	1.566	0.294
-332.231	-200.000	-0.040	-0.271
-331.216	-139.758	1.767	-0.186
-330.202	-67.621	0.329	-0.128
-329.187	-37.655	-0.717	0.380
-328.172	424.146	0.305	0.652
-327.158	800.000	-0.056	-0.233
-326.143	197.472	-0.129	-0.196
-325.129	-61.319	-0.115	-0.048
-324.114	28.156	-0.472	-0.395
-323.099	-190.886	-0.159	-0.002
-322.085	85.578	0.776	-0.847
-321.070	-159.928	0.688	0.037
-320.056	127.415	0.397	-0.501
-319.041	68.648	-0.388	0.396
-318.026	-138.870	-0.479	-0.052
-317.012	-32.152	1.082	0.600
-315.997	-164.704	-0.258	-0.012
-314.983	-22.958	0.629	-0.376
-313.968	-200.000	-0.093	-0.563
-312.953	138.886	-0.252	-0.328
-311.939	260.173	-0.430	0.738
-310.924	800.000	-0.127	-0.433
-309.910	56.566	-0.231	0.223
-308.895	-24.359	0.525	-0.311
-307.880	-94.606	-0.607	0.164
-306.866	60.864	0.230	-0.227
-305.851	800.000	0.190	-0.523
-304.837	345.416	0.233	-0.455
-303.822	-175.355	0.433	-0.012
-302.807	359.476	0.413	0.820
-301.793	-82.680	-0.676	0.217
-300.778	117.636	0.330	0.403
-299.764	800.000	-0.026	0.110
-298.749	16.428	0.936	0.734
-297.735	272.388	-0.200	0.350
-296.720	-105.500	-0.407	0.092
-295.705	-89.501	-0.224	0.065
-294.691	30.279	-0.713	-0.604
-293.676	322.978	0.299	-0.566
-292.662	26.676	0.233	0.193
-291.647	-18.178	0.425	0.264
-290.632	-200.000	0.051	1.066
-289.618	-200.000	0.016	0.933
-288.603	145.967	-0.536	-0.713
-287.589	36.410	-0.525	-0.460
-286.574	239.317	-0.112	-0.185
-285.559	3.128	0.898	-0.647
-284.545	202.928	0.009	0.014
-283.530	81.854	0.610	0.656
-282.516	-60.515	0.431	0.182
-281.501	-87.327	-0.685	-0.206
-280.486	-100.632	0.776	0.190
-279.472	-116.887	-0.604	-0.110
-278.457	118.425	0.232	-0.284
-277.443	67.452	0.605	-0.613
-276.428	-128.602	-0.583	-0.082
-275.413	279.291	-0.191	-0.338
-274.399	-194.182	-0.966	-0.008
-273.384	-108.118	0.456	0.098
-272.370	-29.756	0.530	-0.300
-271.355	573.676	-0.098	0.236
-270.340	260.215	-0.272	-0.465
-269.326	-41.939	0.476	0.242
-268.311	116.808	0.522	-0.636
-267.297	741.584	-0.054	0.143
-266.282	22.504	-0.591	0.479
-265.267	-155.545	0.610	-0.039
-264.253	192.750	-0.309	0.462
-263.238	-6.915	-0.480	0.323
-262.224	36.123	0.221	-0.193
-261.209	97.547	0.336	-0.382
-260.195	180.509	-0.484	-0.704
-259.180	-79.841	0.631	-0.210
-258.165	592.681	-0.201	0.491
-257.151	-55.629	0.158	0.070
-256.136	80.784	0.569	-0.608
-255.122	60.267	-0.973	0.954
-254.107	800.000	0.137	0.448
-253.092	446.421	-0.251	-0.546
-252.078	-200.000	0.113	0.510
-251.063	-31.988	0.166	-0.092
-250.049	-14.045	0.620	-0.397
-249.034	176.109	-0.304	0.437
-248.019	-200.000	0.039	0.358
-247.005	284.864	0.062	-0.110
-245.990	-12.788	-0.050	0.032
-244.976	140.283	-0.456	0.596
-243.961	-122.801	0.250	-0.040
-242.946	116.215	0.227	0.276
-241.932	-11.099	-0.474	-0.309
-240.917	-200.000	-0.128	0.716
-239.903	56.090	-0.152	-0.146
-238.888	-200.000	0.020	-0.310
-237.873	-146.286	0.396	0.034
-236.859	-200.000	0.066	0.522
-235.844	-74.454	-0.368	-0.131
-234.830	800.000	0.280	-0.863
-233.815	245.219	-0.272	0.453
-232.800	245.937	0.305	0.508
-231.786	241.935	0.117	-0.194
-230.771	470.050	0.076	-0.169
-229.757	-200.000	-0.042	0.395
-228.742	-169.296	0.739	0.027
-227.727	-200.000	-0.081	0.472
-226.713	-162.941	-0.558	-0.027
-225.698	341.249	-0.367	0.710
-224.684	53.903	-0.565	0.538
-223.669	-131.428	-0.647	0.085
-222.655	-200.000	-0.193	-0.841
-221.640	-108.572	0.591	0.126
-220.625	800.000	0.208	0.891
-219.611	-69.779	-0.256	0.097
-218.596	-200.000	-0.005	0.661
-217.582	-162.336	-0.938	0.046
-216.567	-158.586	-0.516	0.029
-215.552	73.206	0.353	-0.366
-214.538	-79.621	0.617	0.206
-213.523	-200.000	-0.048	0.221
-212.509	-88.166	-0.630	0.187
-211.494	-94.445	-0.567	-0.153
-210.479	109.310	-0.349	-0.413
-209.465	-105.851	-0.909	-0.203
-208.450	157.204	0.370	-0.506
-207.436	-200.000	0.061	0.265
-206.421	800.000	0.028	-0.081
-205.406	-18.169	0.604	-0.374
-204.392	475.201	0.187	-0.418
-203.377	-66.353	0.293	-0.115
-202.363	-200.000	0.102	0.465
-201.348	-171.224	-0.891	0.030
-200.333	30.354	0.482	-0.407
-199.319	800.000	0.269	0.935
-198.304	-200.000	0.064	1.222
-197.290	13.988	0.440	0.338
-196.275	342.956	0.355	0.687
-195.260	-82.046	-0.753	0.243
-194.246	-18.282	-0.244	0.151
-193.231	-17.690	0.069	-0.043
-192.217	-63.568	-0.549	0.223
-191.202	63.207	0.386	0.382
-190.187	-10.630	-0.567	-0.371
-189.173	-200.000	-0.003	-0.605
-188.158	800.000	0.213	-0.666
-187.144	-9.842	-0.552	0.363
-186.129	168.027	0.105	-0.148
-185.114	365.896	-0.240	-0.479
-184.100	-99.166	-0.647	-0.162
-183.085	251.015	0.235	-0.394
-182.071	94.515	0.208	-0.234
-181.056	800.000	0.038	-0.114
-180.042	-50.874	0.469	-0.218
-179.027	46.761	0.669	0.614
-178.012	195.177	-0.254	-0.381
-176.998	800.000	0.065	0.252
-175.983	107.012	0.096	-0.112
-174.969	83.281	-0.191	-0.205
-173.954	71.993	-0.421	-0.433
-172.939	238.099	0.239	-0.391
-171.925	136.839	-0.394	0.509
-170.910	800.000	-0.063	0.264
-169.896	42.145	0.118	-0.106
-168.881	68.679	-0.210	0.213
-167.866	-78.576	0.599	0.202
-166.852	-111.694	-0.253	0.051
-165.837	800.000	-0.149	0.445
-164.823	111.970	0.442	0.527
-163.808	-70.382	0.775	-0.290
-162.793	-74.815	-0.345	-0.122
-161.779	272.600	0.300	-0.522
-160.764	-190.724	0.387	0.004
-159.750	-119.023	0.398	0.069
-158.735	152.101	0.458	-0.617
-157.720	38.316	-0.578	0.508
-156.706	-86.214	-0.645	-0.196
-155.691	-57.209	-0.713	0.310
-154.677	93.252	0.359	0.401
-153.662	-191.364	-0.169	0.002
-152.647	800.000	-0.088	0.377
-151.633	83.557	0.671	-0.722
-150.618	-28.786	0.340	0.193
-149.604	133.736	0.231	0.295
-148.589	-51.447	0.782	0.360
-147.574	-200.000	0.061	0.442
-146.560	79.165	0.967	-1.022
-145.545	325.040	0.179	-0.337
-144.531	-108.907	0.009	-0.002
-143.516	100.525	-0.272	0.312
-142.502	12.619	0.438	-0.333
-141.487	-200.000	-0.006	0.433
-140.472	-70.236	-0.649	0.243
-139.458	104.526	-0.119	-0.138
-138.443	-7.282	-0.528	-0.353
-137.429	90.583	0.223	-0.246
-136.414	-200.000	0.120	-0.772
-135.399	579.509	-0.041	0.099
-134.385	296.640	0.203	0.367
-133.370	-200.000	0.027	0.792
-132.356	650.070	0.142	-0.360
-131.341	44.100	0.247	-0.224
-130.326	-188.002	-0.611	0.008
-129.312	-200.000	-0.036	-1.245
-128.297	371.030	0.167	-0.334
-127.283	-200.000	-0.028	-0.769
-126.268	169.716	0.192	-0.270
-125.253	-62.392	-0.896	0.367
-124.239	-79.945	0.117	-0.039
-123.224	108.387	-0.304	-0.358
-122.210	334.666	-0.432	-0.826
-121.195	-200.000	-0.052	-0.829
-120.180	-43.884	0.559	-0.277
