DTS Sentinel unit serial number:	SN413079Multiplexer serial number:	ORYXHardware model number:	OX4-SRSoftware version number:	ORYX F/W v4.00 Oryx Data Collector v3.7.2.0data status	okinstallation	princeton_trtdifferential loss correction	single-endedforward channel	channel 1reverse channel	N/Adate	2019/09/12time	11:28:11forward acquisition time	60.00reverse acquisition time	0.00gamma	496.2192k internal	0.2295k external	0.2295temperature offset calibration	1.0039default loss term (dB/km)	0.3790temperature slope calibration	1.0000multiplexer offset coefficient	1.0000multiplexer slope coefficient	1.0000fibre end	0.00T internal ref (°C)	39.31T ext. ref 1 (°C)	1.95T ext. ref 2 (°C)	36.46length (m)	temperature (°C)	Stokes	anti-Stokes-747.200	-37.761	-0.040	0.022
-746.185	22.398	-0.293	0.245
-745.171	-200.000	0.000	0.081
-744.156	736.975	-0.126	0.346
-743.142	20.641	-0.211	-0.174
-742.127	125.837	0.093	-0.121
-741.112	416.372	0.004	-0.009
-740.098	54.756	-0.381	0.376
-739.083	129.387	-0.158	0.206
-738.069	135.231	0.228	0.303
-737.054	-170.012	-0.227	-0.008
-736.039	-172.987	-0.308	-0.010
-735.025	12.420	0.123	0.097
-734.010	-11.087	0.115	-0.077
-732.996	302.167	0.262	-0.495
-731.981	-64.699	-0.336	-0.139
-730.966	800.000	0.126	0.423
-729.952	173.645	0.063	0.092
-728.937	-107.472	-0.364	0.082
-727.923	-28.134	-0.184	0.109
-726.908	-100.435	0.173	0.044
-725.894	41.478	-0.273	-0.252
-724.879	220.705	0.110	-0.181
-723.864	-17.426	0.208	-0.134
-722.850	-200.000	0.006	-0.120
-721.835	-41.877	0.376	-0.197
-720.821	-200.000	0.050	-0.387
-719.806	-200.000	-0.048	0.262
-718.791	199.017	0.042	-0.065
-717.777	-75.054	-0.270	0.099
-716.762	709.650	0.035	-0.094
-715.748	21.283	0.201	0.167
-714.733	-200.000	-0.012	-0.138
-713.718	106.810	0.090	-0.109
-712.704	445.957	0.065	0.146
-711.689	-95.023	-0.146	-0.040
-710.675	-200.000	-0.038	-0.314
-709.660	-136.793	0.224	-0.026
-708.645	-45.936	0.149	0.075
-707.631	32.625	0.306	-0.270
-706.616	88.007	-0.028	-0.032
-705.602	-200.000	-0.030	0.220
-704.587	365.563	0.097	-0.199
-703.572	-100.268	-0.129	-0.033
-702.558	195.966	0.160	-0.249
-701.543	38.819	-0.063	-0.057
-700.529	52.085	-0.315	0.306
-699.514	-200.000	-0.019	0.157
-698.499	245.656	0.063	0.108
-697.485	-174.058	-0.166	0.005
-696.470	46.751	-0.251	-0.238
-695.456	-100.561	-0.305	-0.077
-694.441	800.000	-0.085	-0.317
-693.426	-200.000	-0.002	0.196
-692.412	-21.108	-0.131	-0.082
-691.397	2.736	0.142	-0.105
-690.383	-27.521	-0.126	0.074
-689.368	-200.000	-0.034	0.286
-688.354	181.256	-0.114	0.171
-687.339	-69.772	-0.058	-0.023
-686.324	-112.607	0.109	-0.022
-685.310	133.931	-0.314	-0.414
-684.295	800.000	-0.125	-0.395
-683.281	-144.530	-0.157	-0.015
-682.266	800.000	0.053	0.166
-681.251	209.631	-0.089	0.142
-680.237	59.756	0.024	0.024
-679.222	199.583	-0.099	-0.155
-678.208	-91.847	-0.403	-0.117
-677.193	457.918	0.029	-0.066
-676.178	-47.084	-0.224	-0.111
-675.164	-67.022	0.066	0.026
-674.149	222.428	-0.150	-0.246
-673.135	-108.145	0.300	0.066
-672.120	-127.354	0.041	-0.006
-671.105	-137.379	-0.282	-0.033
-670.091	43.185	-0.122	0.114
-669.076	102.350	0.157	0.187
-668.062	-178.551	0.103	0.002
-667.047	-80.846	0.154	-0.052
-666.032	-24.874	0.517	-0.313
-665.018	-19.301	-0.247	-0.156
-664.003	-33.387	0.139	0.078
-662.989	27.505	-0.124	-0.106
-661.974	-200.000	-0.054	-0.355
-660.959	-12.020	-0.283	0.189
-659.945	21.294	-0.012	-0.010
-658.930	47.119	0.292	-0.276
-657.916	160.647	0.145	0.206
-656.901	-87.697	-0.089	0.027
-655.886	-42.296	-0.275	0.143
-654.872	-200.000	-0.017	-0.139
-653.857	419.073	0.207	0.452
-652.843	321.903	-0.107	-0.208
-651.828	59.212	0.255	0.256
-650.814	-71.854	-0.307	-0.117
-649.799	327.599	0.071	-0.139
-648.784	191.080	-0.302	-0.463
-647.770	-74.004	-0.072	0.027
-646.755	693.682	0.071	-0.190
-645.741	445.201	-0.057	0.126
-644.726	428.484	0.053	0.116
-643.711	800.000	0.120	-0.454
-642.697	-164.582	-0.375	0.017
-641.682	80.036	0.259	-0.283
-640.668	271.901	0.042	0.075
-639.653	-83.428	-0.193	0.063
-638.638	132.923	0.168	0.221
-637.624	34.896	0.151	0.135
-636.609	-123.151	-0.205	-0.033
-635.595	-9.412	0.286	-0.195
-634.580	-46.630	-0.260	-0.130
-633.565	800.000	-0.082	-0.311
-632.551	231.189	-0.133	0.221
-631.536	-118.342	-0.136	0.025
-630.522	-200.000	-0.019	0.109
-629.507	-11.357	0.104	-0.070
-628.492	-67.959	0.178	-0.071
-627.478	274.134	0.097	-0.175
-626.463	36.010	-0.310	-0.277
-625.449	800.000	0.017	0.067
-624.434	-41.569	0.157	0.082
-623.419	91.059	0.111	0.127
-622.405	41.161	-0.146	0.135
-621.390	-66.200	0.168	0.068
-620.376	47.795	0.094	-0.089
-619.361	-139.358	0.078	-0.009
-618.346	80.080	-0.211	-0.231
-617.332	94.664	0.066	-0.076
-616.317	425.746	0.107	-0.235
-615.303	69.100	0.121	-0.127
-614.288	257.298	-0.035	-0.061
-613.273	-137.441	-0.198	-0.023
-612.259	-200.000	0.015	-0.214
-611.244	-19.294	0.142	-0.089
-610.230	-6.097	-0.225	0.156
-609.215	163.996	0.087	0.124
-608.201	5.790	0.094	-0.071
-607.186	21.488	-0.151	-0.125
-606.171	280.591	0.071	-0.129
-605.157	-179.615	0.205	-0.005
-604.142	184.495	0.063	0.096
-603.128	-90.107	-0.262	-0.078
-602.113	192.459	-0.155	-0.239
-601.098	-144.439	-0.199	-0.019
-600.084	142.736	-0.276	0.373
-599.069	-2.104	-0.234	-0.167
-598.055	-118.811	-0.181	-0.032
-597.040	-123.891	-0.354	-0.057
-596.025	-156.230	0.096	0.006
-595.011	188.479	0.071	-0.108
-593.996	180.603	-0.052	-0.077
-592.982	201.461	0.173	-0.271
-591.967	-64.592	-0.080	0.033
-590.952	-58.878	0.375	0.165
-589.938	800.000	-0.016	0.054
-588.923	572.396	0.106	-0.263
-587.909	-36.239	0.175	-0.096
-586.894	70.418	0.255	-0.267
-585.879	-9.489	-0.087	-0.059
-584.865	-200.000	-0.060	-0.275
-583.850	-108.762	0.134	0.029
-582.836	144.842	-0.225	0.305
-581.821	120.451	-0.236	0.298
-580.806	-200.000	-0.002	-0.107
-579.792	144.840	-0.036	-0.049
-578.777	63.250	0.027	-0.027
-577.763	-65.102	0.255	-0.105
-576.748	2.913	-0.234	-0.172
-575.733	28.077	0.273	-0.234
-574.719	-80.221	0.210	0.071
-573.704	-200.000	0.007	-0.202
-572.690	-42.454	0.233	-0.121
-571.675	-13.209	0.089	-0.059
-570.661	194.517	0.207	-0.319
-569.646	-99.197	-0.283	0.073
-568.631	800.000	-0.097	0.318
-567.617	-4.953	-0.218	-0.152
-566.602	-57.851	-0.243	0.108
-565.588	101.093	-0.197	0.233
-564.573	-114.181	0.079	-0.016
-563.558	-150.300	-0.249	-0.020
-562.544	-26.059	0.350	-0.209
-561.529	117.207	-0.177	0.220
-560.515	372.678	0.134	0.277
-559.500	-119.018	0.248	0.044
-558.485	669.004	0.069	0.182
-557.471	14.798	-0.194	0.154
-556.456	-200.000	-0.005	-0.231
-555.442	-49.726	0.132	-0.064
-554.427	-200.000	-0.031	0.284
-553.412	156.104	-0.084	-0.117
-552.398	-200.000	0.018	0.227
-551.383	-127.643	0.404	0.059
-550.369	-200.000	0.009	0.204
-549.354	157.929	0.090	-0.127
-548.339	-151.523	-0.102	0.008
-547.325	101.863	0.139	0.165
-546.310	-114.137	-0.145	0.028
-545.296	-125.200	-0.161	-0.025
-544.281	392.148	-0.107	0.226
-543.266	-67.813	0.612	-0.243
-542.252	-37.957	-0.127	-0.068
-541.237	800.000	-0.016	0.065
-540.223	89.002	0.191	-0.216
-539.208	-10.116	0.262	-0.177
-538.193	-200.000	-0.010	0.208
-537.179	-113.351	-0.146	-0.029
-536.164	800.000	-0.058	0.230
-535.150	11.353	0.183	0.142
-534.135	-200.000	0.000	0.054
-533.121	-17.749	0.075	0.048
-532.106	800.000	-0.070	-0.299
-531.091	180.846	-0.093	-0.139
-530.077	452.525	-0.008	-0.017
-529.062	-176.320	0.228	0.006
-528.048	-200.000	-0.005	0.099
-527.033	-200.000	0.001	0.070
-526.018	-7.207	-0.088	0.060
-525.004	-103.146	0.288	-0.069
-523.989	29.643	0.299	-0.258
-522.975	-35.858	-0.211	0.116
-521.960	67.166	0.058	0.060
-520.945	-200.000	-0.027	-0.211
-519.931	-69.418	0.118	0.046
-518.916	-159.192	-0.092	0.005
-517.902	234.989	-0.158	0.264
-516.887	-129.373	0.221	0.031
-515.872	640.730	0.060	-0.155
-514.858	135.473	0.206	0.271
-513.843	167.522	-0.029	-0.042
-512.829	-69.550	-0.196	-0.076
-511.814	-200.000	0.026	0.453
-510.799	-37.763	0.252	0.136
-509.785	-200.000	0.033	0.161
-508.770	-104.258	0.035	-0.008
-507.756	-146.263	0.105	-0.009
-506.741	302.848	-0.181	-0.340
-505.726	2.514	0.245	-0.180
-504.712	-200.000	-0.056	-0.257
-503.697	-34.560	0.099	-0.055
-502.683	800.000	0.042	0.123
-501.668	73.522	-0.223	0.236
-500.653	-124.675	-0.365	-0.057
-499.639	27.293	-0.066	-0.056
-498.624	22.272	-0.495	-0.410
-497.610	7.688	-0.154	-0.117
-496.595	-55.052	0.044	0.020
-495.581	-63.125	-0.066	-0.028
-494.566	800.000	0.037	-0.147
-493.551	-53.372	-0.110	-0.051
-492.537	-107.888	-0.316	0.070
-491.522	332.519	0.182	-0.355
-490.508	71.201	-0.181	0.190
-489.493	64.849	0.152	-0.156
-488.478	505.844	-0.126	0.296
-487.464	547.055	0.113	0.273
-486.449	583.842	-0.037	-0.093
-485.435	-191.931	-0.172	0.002
-484.420	-142.873	0.017	-0.002
-483.405	392.057	-0.087	-0.183
-482.391	-200.000	0.049	-0.269
-481.376	129.065	-0.134	0.174
-480.362	60.686	0.177	-0.178
-479.347	-96.133	-0.356	-0.096
-478.332	800.000	-0.038	-0.117
-477.318	283.335	0.142	-0.257
-476.303	369.877	0.079	0.163
-475.289	336.807	0.197	0.386
-474.274	50.058	0.078	-0.074
-473.259	150.138	0.119	-0.164
-472.245	-200.000	-0.002	-0.021
-471.230	-157.254	-0.331	0.020
-470.216	-94.928	-0.258	-0.071
-469.201	19.760	0.170	0.139
-468.186	166.197	-0.090	-0.128
-467.172	-200.000	0.000	-0.052
-466.157	213.408	-0.056	0.089
-465.143	800.000	0.029	-0.084
-464.128	-159.390	0.175	-0.010
-463.113	153.208	-0.116	0.160
-462.099	73.747	-0.118	-0.125
-461.084	9.099	-0.273	0.208
-460.070	541.382	0.143	0.346
-459.055	319.908	0.062	-0.119
-458.040	-200.000	-0.001	0.094
-457.026	106.230	-0.264	-0.317
-456.011	112.715	-0.117	-0.143
-454.997	118.523	-0.144	0.179
-453.982	-50.086	-0.137	0.065
-452.968	514.835	-0.106	-0.251
-451.953	36.748	0.005	0.005
-450.938	800.000	0.051	-0.189
-449.924	800.000	-0.063	-0.184
-448.909	-148.233	-0.295	0.025
-447.895	-200.000	0.027	-0.160
-446.880	-138.313	-0.171	-0.019
-445.865	-29.183	0.123	-0.071
-444.851	-7.407	-0.162	-0.111
-443.836	512.495	0.113	-0.266
-442.822	800.000	-0.082	-0.331
-441.807	51.384	0.204	-0.196
-440.792	-25.025	0.256	0.153
-439.778	-103.830	-0.220	-0.052
-438.763	-26.443	-0.258	0.153
-437.749	-200.000	-0.005	-0.194
-436.734	-69.036	0.272	-0.106
-435.719	-7.336	0.183	-0.125
-434.705	-119.988	-0.287	0.050
-433.690	-200.000	-0.037	0.363
-432.676	44.223	0.139	-0.129
-431.661	216.068	0.174	0.279
-430.646	3.778	-0.147	-0.108
-429.632	17.261	-0.150	0.120
-428.617	68.378	0.192	0.199
-427.603	-200.000	-0.045	0.233
-426.588	-200.000	-0.020	0.296
-425.573	-53.220	0.386	-0.179
-424.559	-78.877	-0.242	-0.083
-423.544	800.000	0.052	-0.200
-422.530	-107.321	0.063	0.014
-421.515	-172.266	0.057	0.002
-420.500	46.462	-0.187	-0.175
-419.486	-47.658	-0.276	0.135
-418.471	24.249	-0.244	0.204
-417.457	-53.015	-0.172	-0.080
-416.442	-200.000	-0.039	0.437
-415.428	-96.665	-0.118	0.031
-414.413	-32.497	0.428	0.241
-413.398	-36.658	0.169	0.092
-412.384	-37.490	0.274	-0.148
-411.369	-2.447	0.179	0.126
-410.355	-18.602	0.218	-0.137
-409.340	-200.000	0.039	-0.226
-408.325	-145.045	-0.247	-0.023
-407.311	86.244	0.096	0.107
-406.296	661.153	-0.071	0.186
-405.282	-60.311	0.136	0.058
-404.267	-87.190	0.238	-0.073
-403.252	-122.793	-0.140	-0.023
-402.238	47.836	0.171	0.161
-401.223	-5.912	-0.100	-0.069
-400.209	568.256	-0.071	-0.174
-399.194	293.822	0.070	-0.129
-398.179	800.000	0.024	-0.075
-397.165	86.897	0.186	-0.207
-396.150	405.605	0.084	0.178
-395.136	800.000	-0.082	0.301
-394.121	-200.000	-0.033	-0.145
-393.106	-200.000	-0.026	0.125
-392.092	30.612	0.030	0.026
-391.077	-176.016	0.325	-0.009
-390.063	-38.936	0.427	0.227
-389.048	79.325	0.384	-0.415
-388.033	158.050	-0.048	-0.067
-387.019	377.769	-0.148	0.304
-386.004	-200.000	0.029	0.191
-384.990	144.700	-0.205	-0.276
-383.975	-14.191	-0.039	0.025
-382.960	800.000	0.027	0.114
-381.946	-200.000	-0.099	-0.000
-380.931	32.061	-0.148	0.128
-379.917	1.375	0.182	-0.132
-378.902	-69.971	0.199	-0.076
-377.888	311.876	0.083	0.158
-376.873	800.000	-0.054	0.217
-375.858	89.862	0.114	-0.128
-374.844	-101.153	0.046	0.011
-373.829	328.188	-0.086	-0.166
-372.815	-200.000	-0.000	0.006
-371.800	-175.758	-0.167	0.005
-370.785	-110.048	0.034	0.007
-369.771	314.780	-0.155	0.293
-368.756	-80.139	-0.267	-0.090
-367.742	158.994	0.175	-0.244
-366.727	225.677	-0.040	-0.065
-365.712	-47.139	-0.089	-0.044
-364.698	251.905	-0.039	0.066
-363.683	-89.879	0.090	-0.026
-362.669	-90.277	0.513	-0.150
-361.654	-134.123	-0.138	-0.017
-360.639	-200.000	0.016	-0.203
-359.625	307.002	0.032	-0.061
-358.610	208.481	-0.042	0.066
-357.596	500.640	-0.126	0.292
-356.581	-46.900	-0.238	0.117
-355.566	-19.224	0.034	-0.021
-354.552	-63.036	0.187	0.078
-353.537	-200.000	-0.007	-0.106
-352.523	-93.668	0.110	-0.031
-351.508	-37.791	-0.343	0.184
-350.493	-140.901	0.325	-0.034
-349.479	-200.000	0.019	-0.186
-348.464	80.634	0.160	0.173
-347.450	-32.158	-0.280	-0.158
-346.435	602.729	0.058	0.146
-345.420	185.403	0.275	0.411
-344.406	49.661	0.096	-0.091
-343.391	89.948	0.066	-0.074
-342.377	800.000	0.130	0.361
-341.362	33.394	0.212	0.185
-340.348	-29.245	0.095	0.055
-339.333	800.000	0.073	0.227
-338.318	800.000	0.121	-0.390
-337.304	800.000	0.042	-0.121
-336.289	127.944	0.267	0.342
-335.275	-26.097	-0.166	0.098
-334.260	502.347	-0.050	0.117
-333.245	-200.000	-0.021	0.133
-332.231	-11.888	0.293	0.193
-331.216	27.368	0.264	-0.223
-330.202	107.742	-0.052	-0.062
-329.187	-90.921	-0.178	0.051
-328.172	800.000	-0.009	0.029
-327.158	-128.262	-0.312	0.045
-326.143	-181.641	-0.050	-0.001
-325.129	188.646	0.035	-0.052
-324.114	-3.148	-0.299	0.210
-323.099	-2.215	0.027	0.019
-322.085	-67.116	0.163	0.065
-321.070	-200.000	-0.028	0.286
-320.056	-112.419	0.354	0.071
-319.041	6.957	-0.238	0.178
-318.026	-109.102	0.137	-0.029
-317.012	800.000	-0.064	-0.179
-315.997	7.296	-0.201	-0.151
-314.983	55.974	-0.074	0.072
-313.968	-200.000	0.014	0.206
-312.953	133.009	-0.039	0.050
-311.939	432.932	-0.139	0.303
-310.924	-107.939	-0.212	0.046
-309.910	-200.000	0.028	-0.266
-308.895	355.996	0.106	-0.211
-307.880	2.772	-0.215	0.156
-306.866	800.000	-0.046	0.139
-305.851	281.832	-0.020	0.037
-304.837	40.261	0.207	0.187
-303.822	-7.712	0.153	0.104
-302.807	313.556	-0.117	0.222
-301.793	-129.676	-0.155	-0.021
-300.778	-200.000	-0.014	0.136
-299.764	-151.522	0.214	-0.016
-298.749	191.754	-0.179	0.271
-297.735	2.991	-0.326	-0.238
-296.720	232.412	0.220	-0.363
-295.705	38.841	0.106	-0.095
-294.691	-200.000	0.017	0.158
-293.676	-200.000	-0.000	-0.347
-292.662	287.238	0.160	-0.291
-291.647	-167.077	-0.060	0.002
-290.632	-114.365	0.158	0.031
-289.618	-108.822	-0.130	-0.028
-288.603	800.000	0.034	0.138
-287.589	10.252	-0.076	-0.058
-286.574	57.431	0.091	-0.089
-285.559	-102.645	0.219	0.052
-284.545	-200.000	0.037	-0.341
-283.530	-141.349	-0.209	-0.021
-282.516	-200.000	0.067	0.369
-281.501	-55.708	0.404	0.181
-280.486	13.390	-0.215	0.168
-279.472	-70.096	0.201	0.077
-278.457	-12.361	0.154	-0.101
-277.443	-176.376	-0.401	0.010
-276.428	-200.000	0.076	-0.336
-275.413	-66.299	0.142	-0.057
-274.399	-176.247	-0.422	-0.011
-273.384	211.094	-0.097	0.153
-272.370	-69.636	0.467	-0.179
-271.355	-104.988	-0.278	0.064
-270.340	-200.000	-0.128	-0.000
-269.326	-148.635	0.204	0.017
-268.311	-159.412	-0.181	0.010
-267.297	-200.000	0.036	-0.319
-266.282	103.996	0.119	0.141
-265.267	-85.559	0.130	-0.040
-264.253	-200.000	0.029	-0.463
-263.238	186.343	-0.039	0.058
-262.224	800.000	0.042	-0.170
-261.209	56.325	-0.257	0.250
-260.195	-11.313	-0.273	0.180
-259.180	28.724	-0.207	-0.176
-258.165	80.194	-0.272	-0.293
-257.151	27.206	-0.145	-0.122
-256.136	-123.001	0.102	0.016
-255.122	43.340	-0.173	0.158
-254.107	-5.268	-0.120	0.082
-253.092	800.000	0.131	0.464
-252.078	13.266	0.068	-0.053
-251.063	800.000	-0.102	0.284
-250.049	375.472	0.073	-0.149
-249.034	143.350	0.202	-0.270
-248.019	-133.861	0.278	-0.035
-247.005	21.579	-0.214	-0.175
-245.990	-114.821	0.229	0.044
-244.976	14.107	-0.056	0.044
-243.961	-34.403	0.233	-0.128
-242.946	-6.381	-0.196	-0.134
-241.932	-41.835	-0.311	0.160
-240.917	-63.755	0.304	-0.125
-239.903	10.692	0.141	0.108
-238.888	107.860	0.067	-0.080
-237.873	-49.689	0.317	0.151
-236.859	-72.689	0.155	-0.057
-235.844	204.727	-0.309	0.481
-234.830	-200.000	0.002	-0.196
-233.815	716.756	0.043	-0.114
-232.800	12.952	-0.220	0.171
-231.786	-200.000	-0.039	0.263
-230.771	-6.262	0.275	0.188
-229.757	47.866	0.321	0.301
-228.742	-41.052	0.253	0.131
-227.727	-95.717	0.322	-0.086
-226.713	108.118	0.118	0.141
-225.698	144.555	-0.257	-0.344
-224.684	24.697	-0.270	0.224
-223.669	-71.192	-0.119	0.045
-222.655	-200.000	-0.016	-0.171
-221.640	-187.435	0.203	0.003
-220.625	426.977	0.167	0.360
-219.611	159.342	0.304	0.423
-218.596	800.000	0.118	0.392
-217.582	-55.351	0.116	0.052
-216.567	3.941	0.195	0.143
-215.552	183.990	-0.083	0.124
-214.538	-100.364	0.204	0.051
-213.523	169.491	-0.021	-0.030
-212.509	117.833	-0.116	0.143
-211.494	-200.000	0.002	-0.084
-210.479	800.000	0.030	0.087
-209.465	-200.000	0.003	0.227
-208.450	116.855	0.037	-0.045
-207.436	-32.194	-0.183	-0.102
-206.421	-160.020	-0.143	-0.008
-205.406	-43.047	0.346	0.175
-204.392	449.770	-0.139	0.307
-203.377	216.047	0.096	0.152
-202.363	-92.305	0.168	-0.047
-201.348	800.000	0.103	-0.449
-200.333	294.059	-0.032	-0.059
-199.319	-200.000	-0.005	0.054
-198.304	43.416	-0.169	0.155
-197.290	257.864	0.060	0.103
-196.275	-127.645	-0.242	0.035
-195.260	-200.000	-0.023	-0.302
-194.246	71.180	0.041	0.042
-193.231	160.639	-0.131	0.183
-192.217	-80.367	-0.147	0.049
-191.202	136.350	-0.076	0.099
-190.187	90.191	0.151	-0.168
-189.173	220.822	-0.020	0.033
-188.158	-200.000	-0.003	-0.024
-187.144	116.369	0.208	0.255
-186.129	-31.607	-0.207	0.116
-185.114	72.859	0.111	-0.116
-184.100	-75.020	0.254	-0.091
-183.085	800.000	-0.023	-0.093
-182.071	-60.696	-0.567	-0.241
-181.056	449.474	-0.162	0.358
-180.042	17.909	0.131	-0.104
-179.027	-39.338	-0.075	0.040
-178.012	800.000	-0.098	-0.304
-176.998	426.584	-0.233	-0.502
-175.983	-64.652	0.168	0.068
-174.969	598.196	-0.030	0.075
-173.954	-102.924	-0.198	0.047
-172.939	-80.585	0.020	0.007
-171.925	51.363	0.181	-0.172
-170.910	-170.344	-0.298	0.010
-169.896	-13.364	0.256	0.166
-168.881	-117.481	0.156	0.028
-167.866	-8.751	0.054	0.036
-166.852	-34.718	-0.213	-0.117
-165.837	-67.964	-0.159	0.062
-164.823	-118.950	-0.340	-0.060
-163.808	80.569	0.053	0.057
-162.793	-33.944	-0.112	-0.062
-161.779	-5.938	0.059	-0.040
-160.764	-134.622	-0.254	-0.031
-159.750	-86.661	-0.269	-0.082
-158.735	-129.042	-0.273	0.038
-157.720	789.851	-0.125	0.342
-156.706	33.516	0.195	0.169
-155.691	-200.000	0.016	-0.182
-154.677	576.934	0.153	-0.373
-153.662	-87.681	-0.046	-0.014
-152.647	-180.142	-0.244	-0.005
-151.633	-16.186	-0.050	-0.032
-150.618	681.233	-0.106	0.277
-149.604	84.048	0.250	0.273
-148.589	33.265	0.178	-0.154
-147.574	92.990	-0.075	-0.084
-146.560	-200.000	0.024	0.240
-145.545	40.808	-0.086	0.077
-144.531	-200.000	0.036	-0.288
-143.516	-97.137	0.175	-0.046
-142.502	-200.000	0.001	-0.175
-141.487	-45.048	-0.187	0.093
-140.472	-200.000	-0.030	0.141
-139.458	-105.760	0.176	0.040
-138.443	-31.210	0.130	-0.073
-137.429	300.625	0.171	-0.315
-136.414	67.155	0.253	-0.257
-135.399	12.716	-0.224	-0.173
-134.385	68.274	-0.103	0.106
-133.370	800.000	-0.048	0.171
-132.356	-68.011	-0.082	0.032
-131.341	-51.633	-0.159	0.074
-130.326	-200.000	0.075	-0.411
-129.312	800.000	-0.088	0.334
-128.297	100.101	0.303	0.351
-127.283	395.907	-0.095	-0.197
-126.268	303.366	-0.091	0.169
-125.253	757.660	-0.058	0.158
-124.239	-30.295	0.145	0.082
-123.224	-200.000	0.011	0.260
-122.210	-198.756	0.177	-0.001
-121.195	800.000	-0.095	0.286
-120.180	-35.033	0.162	-0.088
