DTS Sentinel unit serial number:	SN413079Multiplexer serial number:	ORYXHardware model number:	OX4-SRSoftware version number:	ORYX F/W v4.00 Oryx Data Collector v3.7.2.0data status	okinstallation	princeton_trtdifferential loss correction	single-endedforward channel	channel 1reverse channel	N/Adate	2019/09/16time	03:30:35forward acquisition time	60.00reverse acquisition time	0.00gamma	496.2192k internal	0.2331k external	0.2331temperature offset calibration	0.9981default loss term (dB/km)	0.3790temperature slope calibration	1.0000multiplexer offset coefficient	1.0000multiplexer slope coefficient	1.0000fibre end	0.00T internal ref (°C)	27.67T ext. ref 1 (°C)	10.56T ext. ref 2 (°C)	21.62length (m)	temperature (°C)	Stokes	anti-Stokes-747.200	-96.753	0.082	-0.022
-746.185	190.171	-0.180	0.272
-745.171	-200.000	0.036	0.204
-744.156	-200.000	-0.051	0.345
-743.142	-20.717	0.268	0.165
-742.127	59.334	-0.294	0.292
-741.112	18.928	0.121	0.098
-740.098	116.261	0.114	0.141
-739.083	-73.601	-0.230	-0.084
-738.069	359.309	0.040	0.081
-737.054	257.711	-0.109	0.189
-736.039	15.400	-0.298	-0.235
-735.025	-200.000	0.003	0.169
-734.010	800.000	-0.025	0.098
-732.996	-23.124	-0.351	0.212
-731.981	800.000	0.067	-0.197
-730.966	-95.187	0.260	-0.071
-729.952	-143.676	0.141	-0.013
-728.937	800.000	-0.044	0.142
-727.923	16.658	-0.157	-0.125
-726.908	-52.894	0.040	-0.019
-725.894	308.131	0.048	-0.089
-724.879	199.117	-0.092	-0.142
-723.864	188.887	-0.168	0.252
-722.850	18.097	0.110	0.088
-721.835	800.000	-0.021	0.080
-720.821	-200.000	-0.021	-0.104
-719.806	74.166	0.175	0.185
-718.791	-94.998	-0.335	0.091
-717.777	-32.863	0.210	0.117
-716.762	-89.974	0.270	0.079
-715.748	178.420	-0.051	-0.075
-714.733	-200.000	0.015	-0.163
-713.718	146.759	-0.043	0.058
-712.704	-200.000	-0.027	0.168
-711.689	-200.000	0.025	0.321
-710.675	-129.459	0.073	0.010
-709.660	-171.491	-0.330	0.011
-708.645	-153.712	0.005	-0.000
-707.631	800.000	0.036	-0.142
-706.616	-17.879	0.483	-0.304
-705.602	37.196	0.128	0.114
-704.587	54.091	0.055	-0.053
-703.572	410.965	0.136	0.291
-702.558	88.005	0.077	-0.086
-701.543	-200.000	-0.020	-0.146
-700.529	-200.000	-0.098	0.453
-699.514	90.034	0.018	-0.020
-698.499	8.824	0.140	0.106
-697.485	-200.000	0.028	-0.149
-696.470	-182.771	0.354	-0.006
-695.456	-16.848	0.093	-0.059
-694.441	16.206	-0.250	0.198
-693.426	21.022	-0.140	-0.114
-692.412	200.728	0.066	-0.101
-691.397	28.420	0.283	0.240
-690.383	451.049	0.118	0.263
-689.368	-79.995	0.228	0.077
-688.354	-200.000	-0.025	0.180
-687.339	169.281	-0.148	0.212
-686.324	-200.000	-0.056	0.333
-685.310	-200.000	-0.005	0.277
-684.295	166.230	-0.016	0.022
-683.281	37.229	0.102	-0.091
-682.266	-195.444	0.193	0.001
-681.251	43.359	-0.095	0.087
-680.237	129.578	0.206	-0.264
-679.222	-200.000	0.022	-0.266
-678.208	52.362	-0.234	0.224
-677.193	-59.313	-0.161	0.070
-676.178	-152.071	0.253	-0.018
-675.164	-46.999	-0.164	0.080
-674.149	-145.548	-0.284	-0.026
-673.135	-150.119	-0.258	0.020
-672.120	-88.416	-0.158	-0.047
-671.105	-112.418	0.150	0.030
-670.091	-124.297	0.173	0.027
-669.076	-200.000	0.002	0.040
-668.062	800.000	0.040	0.149
-667.047	-122.845	-0.077	-0.012
-666.032	32.298	-0.340	0.294
-665.018	154.255	0.166	0.228
-664.003	61.171	-0.152	0.152
-662.989	-139.031	0.344	0.037
-661.974	-142.104	-0.160	0.016
-660.959	-60.739	-0.042	-0.018
-659.945	800.000	-0.096	-0.359
-658.930	10.531	-0.191	0.146
-657.916	-76.645	0.683	0.240
-656.901	132.255	-0.034	-0.043
-655.886	800.000	0.019	-0.080
-654.872	161.276	0.188	-0.264
-653.857	-40.814	0.226	0.117
-652.843	6.414	-0.070	-0.052
-651.828	-11.121	0.070	0.046
-650.814	-94.246	0.413	-0.113
-649.799	-120.935	-0.169	-0.029
-648.784	-122.809	-0.342	0.055
-647.770	-18.745	-0.284	-0.177
-646.755	-107.259	0.195	-0.043
-645.741	1.893	0.223	0.162
-644.726	-67.805	0.105	0.041
-643.711	397.861	-0.011	0.023
-642.697	-200.000	0.020	0.246
-641.682	-128.326	0.116	-0.017
-640.668	-74.016	0.120	-0.044
-639.653	800.000	0.068	0.190
-638.638	69.017	0.099	-0.102
-637.624	-131.972	0.113	0.015
-636.609	-99.136	0.183	0.046
-635.595	-22.882	0.206	-0.125
-634.580	38.667	0.227	-0.203
-633.565	-122.345	0.429	0.070
-632.551	145.193	-0.126	0.169
-631.536	141.584	0.072	-0.096
-630.522	800.000	-0.081	0.231
-629.507	53.352	0.182	-0.174
-628.492	-80.590	0.077	0.026
-627.478	-73.924	-0.240	0.087
-626.463	-200.000	-0.033	0.195
-625.449	-118.163	-0.097	-0.017
-624.434	142.791	-0.173	-0.231
-623.419	-168.628	-0.217	0.008
-622.405	-200.000	0.030	-0.178
-621.390	99.396	-0.296	0.343
-620.376	-200.000	-0.175	-0.001
-619.361	256.893	0.072	0.124
-618.346	79.768	0.053	-0.057
-617.332	-200.000	0.016	-0.244
-616.317	208.828	0.132	0.207
-615.303	145.814	-0.033	-0.044
-614.288	-200.000	-0.016	-0.257
-613.273	-30.429	-0.184	-0.104
-612.259	-86.730	0.587	-0.180
-611.244	-16.230	-0.147	-0.093
-610.230	-72.483	0.044	-0.016
-609.215	-37.625	-0.154	-0.082
-608.201	20.457	-0.245	-0.198
-607.186	137.454	-0.150	0.197
-606.171	14.297	0.238	-0.186
-605.157	270.408	0.146	-0.256
-604.142	-200.000	-0.006	-0.093
-603.128	296.914	0.170	0.312
-602.113	-93.486	-0.174	0.048
-601.098	-118.305	-0.063	0.011
-600.084	-200.000	-0.031	0.269
-599.069	-200.000	-0.006	-0.240
-598.055	-34.941	-0.254	-0.139
-597.040	-12.927	-0.298	0.194
-596.025	177.492	-0.130	-0.190
-595.011	-7.208	-0.256	0.174
-593.996	-200.000	0.070	-0.596
-592.982	-169.377	0.126	-0.005
-591.967	-46.137	0.054	-0.026
-590.952	305.613	0.056	-0.105
-589.938	-90.542	0.231	0.067
-588.923	800.000	-0.067	-0.235
-587.909	800.000	0.053	0.231
-586.894	-5.836	0.140	-0.096
-585.879	-47.317	-0.152	0.074
-584.865	-133.121	0.153	-0.019
-583.850	125.505	0.111	0.140
-582.836	-35.398	0.291	-0.158
-581.821	108.676	-0.220	0.263
-580.806	625.893	0.022	-0.055
-579.792	-83.852	0.206	0.066
-578.777	-83.720	-0.325	-0.104
-577.763	-200.000	0.014	0.199
-576.748	-50.380	-0.151	-0.072
-575.733	-105.020	0.177	-0.040
-574.719	-149.701	-0.234	-0.018
-573.704	-38.132	-0.438	0.232
-572.690	-50.332	-0.212	0.100
-571.675	-200.000	-0.045	-0.356
-570.661	62.802	-0.221	-0.221
-569.646	-200.000	0.006	-0.106
-568.631	15.381	-0.201	-0.158
-567.617	27.210	-0.221	0.185
-566.602	-139.766	-0.195	0.021
-565.588	-200.000	-0.008	-0.051
-564.573	192.910	0.062	-0.093
-563.558	-200.000	-0.016	0.220
-562.544	-87.329	0.162	-0.049
-561.529	526.306	-0.159	0.374
-560.515	-89.720	0.114	-0.033
-559.500	677.533	-0.064	-0.165
-558.485	324.455	0.115	-0.220
-557.471	-160.541	-0.362	0.019
-556.456	-95.686	-0.087	0.023
-555.442	-76.096	0.201	-0.071
-554.427	-72.479	-0.201	0.074
-553.412	692.000	0.079	0.208
-552.398	-4.404	-0.521	0.360
-551.383	16.319	0.244	-0.192
-550.369	155.323	0.231	0.317
-549.354	129.554	-0.062	0.079
-548.339	-200.000	-0.027	0.228
-547.325	35.007	0.155	-0.135
-546.310	-77.399	-0.280	-0.097
-545.296	-200.000	0.006	0.110
-544.281	-200.000	0.006	0.147
-543.266	-200.000	0.016	0.161
-542.252	-200.000	-0.035	0.357
-541.237	162.114	0.150	-0.211
-540.223	152.192	0.078	-0.106
-539.208	-112.183	0.188	0.038
-538.193	-106.362	0.286	0.064
-537.179	-30.514	0.083	0.047
-536.164	-164.443	-0.079	-0.004
-535.150	-200.000	0.060	-0.273
-534.135	619.703	0.086	0.215
-533.121	248.609	-0.132	-0.223
-532.106	87.328	-0.036	0.040
-531.091	800.000	-0.055	-0.190
-530.077	-3.286	0.161	0.112
-529.062	298.663	0.086	0.158
-528.048	272.659	0.196	-0.345
-527.033	-200.000	0.000	-0.307
-526.018	-200.000	0.001	-0.033
-525.004	20.160	-0.244	0.196
-523.989	800.000	-0.072	-0.260
-522.975	-61.238	0.034	0.014
-521.960	-57.656	-0.262	0.114
-520.945	800.000	-0.094	0.282
-519.931	-27.505	0.245	0.142
-518.916	-200.000	-0.018	0.306
-517.902	-133.392	-0.079	0.010
-516.887	-182.983	-0.255	-0.005
-515.872	-34.447	0.029	0.016
-514.858	800.000	0.068	0.205
-513.843	-200.000	-0.069	0.494
-512.829	-60.065	0.581	0.247
-511.814	-200.000	0.012	0.085
-510.799	-200.000	0.039	-0.173
-509.785	739.109	0.044	-0.119
-508.770	13.761	0.099	-0.077
-507.756	-200.000	0.052	-0.313
-506.741	86.787	0.258	-0.284
-505.726	-200.000	0.028	0.178
-504.712	13.981	0.151	0.117
-503.697	19.224	-0.062	-0.049
-502.683	-16.237	0.148	0.094
-501.668	599.359	0.052	0.129
-500.653	-102.124	0.264	0.063
-499.639	203.681	0.190	0.293
-498.624	241.850	-0.127	-0.212
-497.610	-47.113	-0.251	-0.122
-496.595	-136.155	0.187	0.022
-495.581	-27.358	0.110	0.064
-494.566	-12.714	-0.277	0.180
-493.551	-58.287	0.181	-0.079
-492.537	800.000	0.106	-0.293
-491.522	800.000	-0.031	-0.125
-490.508	656.153	0.024	-0.061
-489.493	-200.000	-0.011	0.280
-488.478	-93.472	-0.149	0.041
-487.464	57.585	-0.190	0.186
-486.449	90.520	-0.068	-0.076
-485.435	-107.032	-0.196	-0.043
-484.420	201.865	-0.072	-0.111
-483.405	500.061	0.188	-0.432
-482.391	463.244	-0.091	-0.203
-481.376	439.923	0.048	-0.104
-480.362	800.000	-0.028	0.108
-479.347	-117.917	-0.285	-0.051
-478.332	273.734	0.089	0.156
-477.318	-16.920	-0.234	0.147
-476.303	103.328	0.125	0.146
-475.289	612.913	-0.080	0.198
-474.274	-200.000	0.013	0.087
-473.259	77.871	-0.133	-0.141
-472.245	120.049	0.051	-0.063
-471.230	-108.263	0.238	-0.051
-470.216	65.668	-0.187	0.189
-469.201	-200.000	0.010	0.306
-468.186	222.737	0.080	-0.129
-467.172	154.297	0.043	0.059
-466.157	215.664	-0.098	0.155
-465.143	-120.739	0.218	0.037
-464.128	-200.000	0.029	-0.434
-463.113	-45.225	0.276	0.136
-462.099	127.437	0.109	0.138
-461.084	174.596	-0.160	0.230
-460.070	37.911	0.108	0.096
-459.055	-49.776	0.137	-0.065
-458.040	437.751	0.078	-0.169
-457.026	-59.331	0.360	0.154
-456.011	-44.073	-0.262	0.131
-454.997	322.163	-0.157	-0.297
-453.982	-200.000	-0.061	-0.413
-452.968	-75.696	0.030	-0.011
-451.953	800.000	0.077	-0.284
-450.938	12.476	0.150	-0.115
-449.924	311.525	0.040	0.074
-448.909	800.000	0.089	0.258
-447.895	39.056	0.125	0.111
-446.880	-152.713	-0.133	0.009
-445.865	-200.000	-0.013	0.124
-444.851	-96.780	-0.442	-0.116
-443.836	-100.372	0.309	-0.076
-442.822	-200.000	-0.022	-0.148
-441.807	-102.421	-0.177	-0.042
-440.792	100.656	0.090	0.103
-439.778	461.477	0.138	-0.306
-438.763	213.080	0.041	0.064
-437.749	-200.000	-0.031	0.151
-436.734	-98.220	-0.208	0.053
-435.719	358.174	-0.097	0.192
-434.705	-97.229	0.218	0.056
-433.690	6.034	-0.169	0.125
-432.676	-63.576	0.272	-0.111
-431.661	252.741	-0.095	0.162
-430.646	135.035	-0.100	-0.129
-429.632	499.653	0.054	0.124
-428.617	302.481	-0.045	-0.084
-427.603	44.583	0.214	0.195
-426.588	-186.539	0.119	-0.002
-425.573	800.000	-0.066	0.230
-424.559	81.939	-0.066	-0.071
-423.544	272.916	-0.032	-0.056
-422.530	800.000	-0.095	0.375
-421.515	-63.499	0.188	-0.077
-420.500	-30.347	0.292	-0.165
-419.486	60.256	0.107	0.105
-418.471	800.000	0.078	0.315
-417.457	-126.651	0.333	0.049
-416.442	-110.879	0.082	0.017
-415.428	228.380	-0.143	0.232
-414.413	246.014	0.150	0.251
-413.398	-200.000	0.000	0.175
-412.384	78.280	-0.038	0.040
-411.369	454.163	-0.094	0.208
-410.355	-132.042	0.138	-0.018
-409.340	-8.311	-0.178	0.119
-408.325	-35.602	0.032	0.017
-407.311	-96.757	0.096	0.025
-406.296	6.969	0.125	-0.093
-405.282	134.517	0.189	-0.243
-404.267	126.938	-0.046	-0.058
-403.252	-99.654	0.094	-0.023
-402.238	51.106	-0.142	0.134
-401.223	-67.858	-0.129	0.050
-400.209	-200.000	-0.014	-0.114
-399.194	800.000	0.036	0.120
-398.179	-129.478	-0.175	0.024
-397.165	-150.577	0.267	-0.020
-396.150	-200.000	0.006	0.148
-395.136	275.437	0.175	-0.308
-394.121	800.000	-0.153	-0.419
-393.106	-113.808	-0.503	-0.097
-392.092	8.500	0.086	-0.064
-391.077	417.465	0.122	0.259
-390.063	-6.978	-0.082	0.055
-389.048	277.634	-0.130	-0.230
-388.033	-67.415	-0.096	-0.037
-387.019	53.329	0.289	-0.275
-386.004	77.145	0.037	-0.039
-384.990	-56.843	-0.145	0.063
-383.975	800.000	-0.087	0.248
-382.960	344.144	0.051	-0.099
-381.946	230.281	-0.153	-0.248
-380.931	-200.000	0.066	0.463
-379.917	190.217	-0.037	-0.056
-378.902	167.920	-0.117	0.165
-377.888	-200.000	0.021	0.190
-376.873	63.570	-0.100	-0.100
-375.858	674.170	0.038	-0.097
-374.844	-200.000	0.013	-0.227
-373.829	-28.242	0.085	0.049
-372.815	-72.675	0.326	0.119
-371.800	131.422	0.077	-0.098
-370.785	-55.380	-0.419	-0.187
-369.771	-37.253	-0.150	-0.080
-368.756	-104.115	-0.112	-0.026
-367.742	40.994	-0.176	-0.157
-366.727	-200.000	0.001	-0.121
-365.712	-112.791	-0.222	-0.044
-364.698	-120.034	0.379	0.064
-363.683	3.153	-0.147	0.106
-362.669	31.998	-0.220	0.188
-361.654	-154.467	-0.082	0.005
-360.639	-200.000	0.004	-0.111
-359.625	-200.000	0.025	-0.483
-358.610	-102.904	-0.182	-0.043
-357.596	-87.525	0.097	-0.029
-356.581	169.781	0.125	-0.177
-355.566	-45.812	0.060	0.030
-354.552	-200.000	-0.040	-0.317
-353.537	3.826	0.147	-0.106
-352.523	5.199	0.118	0.086
-351.508	-26.218	0.163	0.095
-350.493	-11.855	0.051	0.033
-349.479	88.102	-0.145	0.160
-348.464	-66.349	0.126	-0.050
-347.450	89.611	0.145	-0.161
-346.435	-144.761	-0.174	-0.016
-345.420	-200.000	0.069	-0.329
-344.406	262.680	-0.167	-0.288
-343.391	-147.823	0.232	-0.019
-342.377	-84.048	0.273	0.086
-341.362	22.563	0.259	0.210
-340.348	-185.410	0.258	0.004
-339.333	44.218	0.172	-0.156
-338.318	-61.510	-0.174	0.072
-337.304	135.525	0.099	0.128
-336.289	800.000	0.112	0.325
-335.275	19.504	-0.125	-0.100
-334.260	-61.345	0.145	0.061
-333.245	-33.316	-0.205	-0.113
-332.231	-50.129	0.113	-0.053
-331.216	399.166	-0.064	-0.132
-330.202	-200.000	0.046	-0.213
-329.187	185.612	0.269	0.396
-328.172	-22.698	-0.217	0.130
-327.158	-46.139	-0.089	0.043
-326.143	125.835	0.152	0.191
-325.129	188.004	0.330	-0.487
-324.114	-200.000	0.052	-0.241
-323.099	-76.074	0.055	-0.019
-322.085	-200.000	-0.018	0.489
-321.070	34.878	0.135	-0.117
-320.056	-200.000	-0.093	-0.549
-319.041	-133.716	0.149	-0.018
-318.026	-200.000	-0.032	0.267
-317.012	45.631	-0.149	-0.136
-315.997	-200.000	-0.012	0.214
-314.983	-200.000	-0.003	-0.136
-313.968	-130.123	-0.203	-0.027
-312.953	99.336	-0.133	-0.152
-311.939	-91.184	-0.220	-0.063
-310.924	-44.669	0.065	-0.032
-309.910	786.702	-0.054	-0.146
-308.895	800.000	0.117	0.324
-307.880	-94.141	0.198	0.054
-306.866	-200.000	-0.018	0.373
-305.851	-20.450	0.277	-0.168
-304.837	-200.000	0.013	-0.179
-303.822	-22.149	-0.080	-0.048
-302.807	232.589	0.140	0.227
-301.793	-22.082	0.222	-0.134
-300.778	-134.075	0.412	0.050
-299.764	-31.127	-0.149	0.083
-298.749	-6.547	0.190	-0.128
-297.735	-67.534	-0.189	-0.073
-296.720	28.367	0.330	0.276
-295.705	-95.127	-0.504	0.134
-294.691	-103.287	0.242	-0.057
-293.676	151.295	-0.032	-0.043
-292.662	23.613	0.024	0.020
-291.647	-200.000	0.006	-0.095
-290.632	-63.281	0.187	0.076
-289.618	-152.107	0.461	0.033
-288.603	800.000	0.094	0.274
-287.589	23.870	0.092	0.075
-286.574	432.902	0.209	0.448
-285.559	1.247	-0.517	0.367
-284.545	53.525	0.205	-0.194
-283.530	-61.389	-0.176	-0.073
-282.516	42.548	-0.102	-0.091
-281.501	-60.590	-0.062	0.026
-280.486	-125.084	0.082	-0.013
-279.472	-135.172	-0.515	-0.061
-278.457	-133.162	0.327	-0.041
-277.443	-147.852	0.292	0.024
-276.428	346.139	-0.067	0.131
-275.413	163.943	-0.076	0.106
-274.399	177.059	-0.213	-0.307
-273.384	28.705	-0.035	-0.029
-272.370	88.672	0.080	0.087
-271.355	-165.257	0.080	0.003
-270.340	-200.000	-0.046	-0.284
-269.326	-114.638	0.191	0.036
-268.311	800.000	0.026	0.107
-267.297	800.000	0.059	0.206
-266.282	-50.168	0.104	0.049
-265.267	-118.294	-0.306	-0.054
-264.253	29.597	-0.288	-0.242
-263.238	-200.000	0.041	0.258
-262.224	184.841	0.137	-0.201
-261.209	-17.415	-0.150	-0.094
-260.195	343.613	-0.066	0.128
-259.180	-200.000	-0.008	-0.097
-258.165	-200.000	-0.257	0.001
-257.151	-165.243	-0.260	0.011
-256.136	-8.356	-0.150	-0.099
-255.122	152.841	0.087	0.117
-254.107	-200.000	0.046	-0.269
-253.092	125.965	0.141	-0.176
-252.078	4.209	0.279	0.202
-251.063	-200.000	-0.009	-0.057
-250.049	26.773	-0.205	0.169
-249.034	-123.850	-0.159	-0.025
-248.019	-200.000	0.007	-0.127
-247.005	-200.000	0.011	-0.120
-245.990	89.865	0.081	-0.089
-244.976	82.308	-0.057	-0.061
-243.961	-200.000	-0.004	-0.184
-242.946	-200.000	-0.048	-0.526
-241.932	8.575	0.298	0.222
-240.917	-92.600	-0.395	-0.109
-239.903	800.000	-0.039	0.144
-238.888	111.898	-0.107	0.127
-237.873	520.729	-0.100	-0.230
-236.859	37.790	0.036	0.032
-235.844	800.000	0.045	-0.161
-234.830	57.856	0.068	-0.066
-233.815	-36.095	-0.099	0.053
-232.800	-64.698	-0.243	0.097
-231.786	-151.169	0.334	-0.025
-230.771	-200.000	-0.008	-0.259
-229.757	800.000	0.027	-0.082
-228.742	14.411	0.215	0.166
-227.727	-166.801	-0.169	-0.007
-226.713	1.429	0.137	-0.097
-225.698	-152.353	0.003	-0.000
-224.684	-13.362	0.220	-0.141
-223.669	-200.000	-0.009	-0.096
-222.655	-131.102	0.208	0.027
-221.640	396.490	0.069	-0.143
-220.625	800.000	-0.042	0.160
-219.611	529.759	0.047	0.110
-218.596	-121.877	0.267	-0.043
-217.582	-103.803	-0.363	0.084
-216.567	-79.565	0.461	0.154
-215.552	-133.759	0.305	-0.037
-214.538	-25.435	0.180	0.105
-213.523	800.000	0.053	0.165
-212.509	-124.788	-0.181	-0.028
-211.494	-93.028	-0.514	0.141
-210.479	-93.678	0.128	0.035
-209.465	-10.150	-0.124	-0.081
-208.450	-200.000	0.051	-0.264
-207.436	-200.000	-0.026	0.140
-206.421	336.881	0.171	-0.327
-205.406	-45.596	-0.228	-0.111
-204.392	-64.989	-0.485	0.193
-203.377	-70.553	-0.255	0.095
-202.363	-5.027	-0.275	0.187
-201.348	-54.831	0.051	-0.023
-200.333	-96.584	-0.332	0.086
-199.319	-104.139	0.046	0.011
-198.304	-61.545	-0.262	-0.108
-197.290	11.882	-0.037	0.028
-196.275	663.076	-0.097	-0.246
-195.260	800.000	-0.086	0.270
-194.246	-69.836	0.236	0.089
-193.231	-200.000	-0.006	-0.265
-192.217	525.379	-0.057	-0.132
-191.202	166.731	-0.105	0.147
-190.187	-162.957	-0.222	0.011
-189.173	-140.208	0.248	-0.026
-188.158	-200.000	0.049	0.320
-187.144	172.719	-0.040	-0.056
-186.129	-200.000	0.031	0.286
-185.114	230.133	-0.112	-0.181
-184.100	385.955	-0.119	-0.241
-183.085	800.000	-0.072	0.223
-182.071	308.385	-0.180	-0.330
-181.056	62.863	0.165	-0.162
-180.042	-94.529	0.235	-0.063
-179.027	-200.000	-0.003	0.073
-178.012	-48.821	-0.091	-0.043
-176.998	117.511	-0.032	0.039
-175.983	13.880	-0.351	0.268
-174.969	-109.140	0.209	0.044
-173.954	-105.822	0.331	-0.074
-172.939	800.000	0.050	0.159
-171.925	245.071	-0.156	0.259
-170.910	95.782	-0.267	-0.300
-169.896	-200.000	-0.008	-0.182
-168.881	-200.000	0.013	-0.065
-167.866	45.970	-0.197	-0.180
-166.852	-81.907	-0.127	-0.041
-165.837	67.515	0.034	-0.034
-164.823	-200.000	0.053	0.326
-163.808	-112.227	0.143	-0.028
-162.793	800.000	-0.057	-0.243
-161.779	-113.363	-0.149	0.029
-160.764	800.000	0.043	-0.125
-159.750	-156.588	0.271	-0.017
-158.735	-170.955	-0.152	-0.005
-157.720	429.036	-0.046	0.099
-156.706	178.608	0.083	-0.119
-155.691	-171.116	-0.185	-0.006
-154.677	102.843	-0.166	0.191
-153.662	800.000	0.080	0.228
-152.647	-97.280	-0.576	0.148
-151.633	58.304	-0.087	0.084
-150.618	16.053	-0.287	0.222
-149.604	-81.559	0.041	0.013
-148.589	172.117	0.270	0.381
-147.574	-200.000	-0.048	-0.221
-146.560	210.456	0.086	0.133
-145.545	56.173	0.226	-0.216
-144.531	-12.389	-0.066	0.043
-143.516	45.551	0.282	0.256
-142.502	800.000	-0.134	-0.433
-141.487	-38.805	0.114	0.059
-140.472	323.009	-0.041	-0.077
-139.458	491.734	0.098	0.220
-138.443	-98.402	0.034	-0.009
-137.429	-200.000	0.009	-0.124
-136.414	800.000	0.090	0.324
-135.399	79.035	0.299	0.315
-134.385	169.818	-0.246	-0.346
-133.370	11.800	0.235	-0.177
-132.356	-105.287	-0.079	0.018
-131.341	-6.434	0.207	-0.139
-130.326	800.000	0.074	0.207
-129.312	800.000	0.111	0.336
-128.297	-72.609	-0.057	0.021
-127.283	-200.000	0.057	0.251
-126.268	800.000	-0.064	-0.226
-125.253	-200.000	0.006	0.049
-124.239	-200.000	0.048	0.574
-123.224	4.499	0.272	-0.196
-122.210	-200.000	-0.019	0.183
-121.195	-57.324	-0.150	0.065
-120.180	-60.206	0.191	0.080
