DTS Sentinel unit serial number:	SN413079Multiplexer serial number:	ORYXHardware model number:	OX4-SRSoftware version number:	ORYX F/W v4.00 Oryx Data Collector v3.7.2.0data status	okinstallation	princeton_trtdifferential loss correction	single-endedforward channel	channel 1reverse channel	N/Adate	2019/09/16time	05:22:35forward acquisition time	60.00reverse acquisition time	0.00gamma	496.2192k internal	0.2332k external	0.2332temperature offset calibration	0.9982default loss term (dB/km)	0.3790temperature slope calibration	1.0000multiplexer offset coefficient	1.0000multiplexer slope coefficient	1.0000fibre end	0.00T internal ref (°C)	27.25T ext. ref 1 (°C)	11.10T ext. ref 2 (°C)	22.08length (m)	temperature (°C)	Stokes	anti-Stokes-747.200	32.231	0.036	0.032
-746.185	-57.810	-0.330	0.145
-745.171	251.866	0.073	-0.125
-744.156	93.242	-0.084	-0.096
-743.142	369.928	-0.034	0.070
-742.127	-200.000	-0.099	0.505
-741.112	173.317	-0.388	-0.563
-740.098	270.407	-0.133	0.235
-739.083	34.808	0.169	0.149
-738.069	800.000	0.065	-0.224
-737.054	105.583	0.213	-0.253
-736.039	216.503	-0.126	0.202
-735.025	-200.000	0.039	0.299
-734.010	800.000	-0.044	-0.162
-732.996	-200.000	0.006	0.026
-731.981	-10.004	-0.202	-0.135
-730.966	-104.034	-0.143	-0.034
-729.952	800.000	-0.074	-0.287
-728.937	800.000	0.076	-0.337
-727.923	-43.303	0.107	0.054
-726.908	496.201	-0.116	-0.268
-725.894	338.683	0.045	-0.087
-724.879	644.533	0.107	-0.275
-723.864	-128.144	-0.398	0.057
-722.850	274.866	0.069	-0.124
-721.835	-78.746	0.281	0.097
-720.821	139.576	0.090	0.120
-719.806	52.525	-0.318	-0.306
-718.791	258.617	-0.088	-0.152
-717.777	800.000	0.049	-0.183
-716.762	-119.209	0.268	-0.047
-715.748	-200.000	-0.032	0.158
-714.733	168.681	0.077	0.110
-713.718	-111.800	-0.220	0.045
-712.704	-200.000	0.012	-0.120
-711.689	800.000	0.083	-0.247
-710.675	201.016	0.073	0.113
-709.660	-200.000	-0.013	-0.226
-708.645	102.965	0.130	-0.153
-707.631	125.043	-0.143	-0.181
-706.616	197.641	0.087	0.134
-705.602	436.761	0.024	-0.052
-704.587	-103.967	-0.380	0.089
-703.572	-171.865	0.138	-0.005
-702.558	-83.281	0.057	0.018
-701.543	800.000	-0.123	-0.357
-700.529	-183.617	0.204	-0.004
-699.514	-47.780	0.426	0.207
-698.499	557.295	0.081	-0.196
-697.485	-200.000	-0.008	-0.160
-696.470	-37.286	0.212	-0.114
-695.456	-200.000	0.001	-0.415
-694.441	800.000	-0.013	-0.042
-693.426	229.396	0.028	0.046
-692.412	-39.470	-0.125	-0.066
-691.397	23.683	0.082	0.068
-690.383	-55.428	-0.104	0.047
-689.368	-3.668	0.167	0.117
-688.354	-65.723	0.087	-0.035
-687.339	62.893	-0.039	0.040
-686.324	235.886	0.200	0.332
-685.310	218.194	0.121	0.194
-684.295	-126.591	-0.160	-0.024
-683.281	-200.000	-0.013	-0.333
-682.266	53.017	-0.146	0.140
-681.251	-200.000	-0.071	-0.512
-680.237	-4.949	-0.207	0.143
-679.222	43.254	0.213	0.195
-678.208	-200.000	-0.088	-0.521
-677.193	240.455	0.122	-0.204
-676.178	448.732	-0.162	-0.357
-675.164	800.000	0.058	0.244
-674.149	689.444	0.130	-0.342
-673.135	41.532	0.154	-0.140
-672.120	-163.115	0.351	0.017
-671.105	60.083	-0.203	0.202
-670.091	-200.000	0.010	0.265
-669.076	-81.225	-0.291	-0.096
-668.062	-200.000	0.017	-0.253
-667.047	319.782	-0.156	-0.297
-666.032	-43.824	-0.185	-0.093
-665.018	-72.679	-0.172	0.064
-664.003	-3.996	0.050	0.035
-662.989	-200.000	0.016	-0.112
-661.974	-123.468	-0.681	-0.109
-660.959	-97.040	-0.154	-0.040
-659.945	5.033	0.079	0.058
-658.930	14.310	-0.040	-0.031
-657.916	-178.964	0.326	-0.007
-656.901	-13.848	0.183	0.119
-655.886	45.320	0.200	0.185
-654.872	800.000	-0.057	-0.179
-653.857	-200.000	-0.023	-0.129
-652.843	-78.963	-0.379	-0.129
-651.828	800.000	-0.102	0.291
-650.814	285.469	-0.110	0.198
-649.799	216.627	0.113	-0.180
-648.784	16.720	0.184	-0.146
-647.770	72.369	0.181	-0.189
-646.755	0.463	-0.199	0.142
-645.741	-29.325	-0.220	-0.126
-644.726	-156.651	-0.320	-0.020
-643.711	131.509	-0.028	0.036
-642.697	29.637	-0.047	-0.040
-641.682	-96.728	-0.216	0.057
-640.668	237.688	0.180	0.299
-639.653	-200.000	0.036	-0.167
-638.638	-86.447	-0.328	0.101
-637.624	-200.000	0.036	-0.257
-636.609	471.999	-0.167	-0.376
-635.595	103.005	0.032	0.038
-634.580	21.654	-0.179	0.146
-633.565	-70.104	-0.017	0.007
-632.551	-200.000	0.022	0.260
-631.536	302.291	0.172	-0.318
-630.522	49.753	0.141	0.133
-629.507	-52.792	0.172	0.079
-628.492	7.931	-0.191	0.143
-627.478	77.226	0.009	-0.010
-626.463	37.023	0.282	-0.249
-625.449	800.000	0.105	0.295
-624.434	800.000	0.061	0.203
-623.419	74.040	0.079	0.083
-622.405	25.816	-0.242	-0.202
-621.390	-52.608	0.189	0.087
-620.376	-152.952	0.192	0.014
-619.361	-106.915	0.150	0.033
-618.346	-194.196	-0.281	0.002
-617.332	40.291	-0.061	0.055
-616.317	-81.599	-0.370	-0.122
-615.303	139.476	-0.123	0.162
-614.288	-46.322	-0.076	-0.037
-613.273	-108.907	0.095	0.020
-612.259	47.568	-0.258	-0.241
-611.244	-43.448	-0.067	-0.034
-610.230	-98.733	-0.424	0.108
-609.215	231.913	-0.143	-0.234
-608.201	800.000	-0.063	-0.191
-607.186	-55.653	-0.360	-0.161
-606.171	-200.000	0.005	0.025
-605.157	193.902	0.151	-0.229
-604.142	-200.000	-0.076	-0.384
-603.128	91.970	0.056	0.063
-602.113	269.483	0.071	-0.125
-601.098	800.000	0.071	-0.263
-600.084	41.500	0.044	-0.040
-599.069	-107.626	-0.271	0.059
-598.055	692.595	-0.081	-0.212
-597.040	-10.628	0.137	-0.091
-596.025	725.955	0.157	0.418
-595.011	-200.000	0.013	-0.211
-593.996	-117.126	0.337	0.061
-592.982	472.505	-0.091	-0.204
-591.967	-30.053	0.272	0.155
-590.952	800.000	0.051	-0.176
-589.938	-147.710	-0.373	-0.031
-588.923	-160.419	-0.209	0.011
-587.909	9.168	-0.138	-0.105
-586.894	-174.852	0.102	0.003
-585.879	800.000	0.013	0.052
-584.865	800.000	0.076	0.241
-583.850	33.825	0.185	-0.161
-582.836	-200.000	-0.004	0.216
-581.821	41.668	-0.168	0.152
-580.806	403.569	0.011	-0.022
-579.792	-106.707	0.200	0.044
-578.777	-18.973	0.166	0.103
-577.763	-13.428	0.217	-0.141
-576.748	-58.873	-0.266	-0.115
-575.733	34.662	-0.311	0.271
-574.719	800.000	0.036	0.143
-573.704	-75.341	0.116	-0.041
-572.690	-200.000	-0.041	-0.249
-571.675	-49.609	0.285	0.135
-570.661	190.019	0.082	-0.123
-569.646	255.118	0.209	-0.357
-568.631	800.000	0.045	-0.145
-567.617	359.948	-0.148	0.296
-566.602	-131.409	0.297	-0.039
-565.588	-200.000	0.005	-0.163
-564.573	-200.000	-0.003	0.089
-563.558	800.000	-0.114	0.440
-562.544	-54.886	-0.267	0.120
-561.529	8.988	0.362	0.273
-560.515	32.099	0.148	0.127
-559.500	-167.942	0.241	0.009
-558.485	-200.000	0.021	0.127
-557.471	2.930	0.415	-0.301
-556.456	167.185	-0.266	0.377
-555.442	-200.000	0.022	0.342
-554.427	800.000	-0.086	-0.242
-553.412	185.587	-0.096	0.143
-552.398	31.318	-0.023	0.020
-551.383	8.431	0.207	0.156
-550.369	417.965	0.091	0.195
-549.354	-200.000	0.016	-0.073
-548.339	-172.881	-0.404	0.013
-547.325	-52.961	-0.273	-0.125
-546.310	9.134	0.321	-0.242
-545.296	-200.000	0.017	-0.087
-544.281	441.425	0.045	-0.098
-543.266	305.970	0.057	-0.105
-542.252	-36.296	-0.206	-0.111
-541.237	200.695	-0.121	-0.186
-540.223	-200.000	0.069	0.309
-539.208	-72.765	-0.260	0.095
-538.193	203.900	-0.176	0.272
-537.179	572.997	-0.105	0.254
-536.164	80.884	-0.322	-0.346
-535.150	-94.506	-0.617	-0.168
-534.135	-200.000	-0.003	0.097
-533.121	-31.743	-0.220	-0.123
-532.106	256.250	0.183	-0.314
-531.091	-92.051	-0.080	0.023
-530.077	-200.000	-0.003	-0.392
-529.062	28.122	0.174	0.146
-528.048	79.376	0.181	0.194
-527.033	-200.000	-0.034	-0.241
-526.018	720.758	0.118	0.314
-525.004	-101.605	-0.049	-0.012
-523.989	52.984	-0.239	-0.228
-522.975	-200.000	-0.043	-0.335
-521.960	163.754	-0.141	-0.198
-520.945	-63.762	-0.214	-0.087
-519.931	-47.547	-0.247	-0.119
-518.916	-171.650	0.364	-0.012
-517.902	-200.000	-0.009	-0.291
-516.887	-36.099	0.244	0.131
-515.872	-66.555	-0.126	0.050
-514.858	32.266	-0.349	0.300
-513.843	521.545	-0.136	0.318
-512.829	332.142	-0.096	-0.185
-511.814	-200.000	-0.017	0.202
-510.799	419.873	0.064	0.137
-509.785	-130.880	-0.285	0.038
-508.770	800.000	0.077	0.250
-507.756	-62.602	0.311	0.128
-506.741	-156.531	0.265	0.016
-505.726	63.926	-0.242	0.242
-504.712	40.060	-0.091	-0.081
-503.697	128.696	-0.136	0.173
-502.683	-200.000	0.071	0.355
-501.668	-16.390	0.142	0.090
-500.653	-118.513	0.190	-0.034
-499.639	-70.383	0.364	0.138
-498.624	445.695	0.098	-0.216
-497.610	511.021	0.156	0.362
-496.595	-93.097	0.208	-0.058
-495.581	-50.192	0.096	0.045
-494.566	-116.186	-0.258	-0.048
-493.551	-112.013	0.091	0.018
-492.537	-105.649	-0.153	-0.034
-491.522	-200.000	0.026	0.153
-490.508	-83.889	0.266	-0.084
-489.493	-200.000	0.005	0.401
-488.478	519.006	-0.125	-0.292
-487.464	-80.833	0.350	-0.116
-486.449	505.666	-0.062	-0.143
-485.435	-200.000	-0.018	-0.307
-484.420	692.249	0.072	-0.187
-483.405	-43.035	0.251	-0.127
-482.391	249.625	0.148	-0.250
-481.376	696.538	-0.009	-0.023
-480.362	105.303	0.297	0.349
-479.347	800.000	-0.093	0.305
-478.332	-7.423	-0.128	-0.086
-477.318	-200.000	0.045	0.352
-476.303	67.338	-0.126	-0.128
-475.289	266.589	-0.055	-0.095
-474.274	-109.991	0.085	-0.018
-473.259	-48.724	-0.172	-0.082
-472.245	-156.543	-0.446	0.028
-471.230	-56.614	-0.196	0.086
-470.216	-26.283	-0.236	0.138
-469.201	269.254	-0.232	0.405
-468.186	129.836	0.102	0.130
-467.172	-18.307	0.186	0.116
-466.157	69.195	-0.117	-0.119
-465.143	-42.805	0.276	0.140
-464.128	800.000	0.020	0.083
-463.113	98.448	-0.347	0.398
-462.099	800.000	0.047	0.130
-461.084	717.338	0.008	0.020
-460.070	745.404	0.152	-0.407
-459.055	-129.734	0.323	0.044
-458.040	45.348	0.237	0.217
-457.026	-113.254	-0.186	-0.036
-456.011	-157.988	-0.290	0.017
-454.997	-102.624	0.024	-0.006
-453.982	-56.916	-0.143	0.063
-452.968	-142.627	0.177	-0.017
-451.953	21.828	-0.232	-0.188
-450.938	-200.000	0.034	-0.168
-449.924	50.929	-0.116	0.109
-448.909	-157.969	0.296	-0.017
-447.895	-173.302	0.145	-0.004
-446.880	202.830	0.264	0.406
-445.865	-44.041	-0.180	0.090
-444.851	-175.567	0.015	-0.000
-443.836	-24.530	0.248	-0.147
-442.822	457.647	-0.133	0.293
-441.807	800.000	0.066	0.269
-440.792	-200.000	0.002	-0.186
-439.778	22.575	0.362	0.295
-438.763	245.865	-0.027	-0.046
-437.749	1.297	0.203	0.145
-436.734	-159.931	0.133	-0.007
-435.719	-47.517	0.164	0.079
-434.705	123.379	0.068	0.085
-433.690	-100.543	-0.115	0.028
-432.676	204.407	-0.067	-0.103
-431.661	298.565	-0.176	0.322
-430.646	800.000	-0.045	-0.154
-429.632	210.209	0.306	-0.477
-428.617	-1.707	-0.137	-0.096
-427.603	28.499	0.208	-0.175
-426.588	800.000	-0.033	0.098
-425.573	-81.206	0.211	0.069
-424.559	106.441	0.087	-0.102
-423.544	-76.121	0.099	-0.035
-422.530	-100.509	-0.243	0.060
-421.515	-121.094	-0.179	-0.030
-420.500	-86.177	0.118	-0.036
-419.486	182.773	-0.198	0.290
-418.471	189.412	-0.203	0.302
-417.457	-56.482	0.123	-0.054
-416.442	-139.386	-0.121	-0.013
-415.428	136.142	0.032	0.042
-414.413	-122.643	0.155	-0.025
-413.398	-137.650	-0.202	-0.023
-412.384	777.102	0.060	0.162
-411.369	85.539	0.340	0.371
-410.355	-200.000	-0.032	0.327
-409.340	208.288	0.087	0.135
-408.325	-123.671	0.139	0.022
-407.311	160.973	0.057	-0.079
-406.296	53.147	-0.168	0.160
-405.282	-200.000	0.054	-0.268
-404.267	100.053	0.108	-0.124
-403.252	-83.036	0.088	-0.028
-402.238	-200.000	-0.006	0.137
-401.223	-200.000	0.032	0.585
-400.209	-45.647	-0.215	-0.105
-399.194	205.705	-0.124	-0.191
-398.179	19.278	-0.128	0.102
-397.165	257.918	0.179	0.305
-396.150	-35.305	-0.062	-0.033
-395.136	-157.731	-0.497	0.029
-394.121	294.746	0.228	0.414
-393.106	174.039	0.137	-0.196
-392.092	746.276	0.088	0.235
-391.077	65.442	0.069	-0.069
-390.063	-72.224	-0.126	-0.046
-389.048	800.000	-0.067	-0.283
-388.033	-200.000	0.062	-0.597
-387.019	-200.000	0.006	-0.097
-386.004	7.484	0.237	0.175
-384.990	24.839	-0.077	-0.064
-383.975	150.792	0.133	0.179
-382.960	-200.000	-0.012	-0.135
-381.946	-2.572	-0.058	-0.040
-380.931	182.038	-0.057	-0.083
-379.917	501.125	-0.131	-0.299
-378.902	250.428	0.094	-0.158
-377.888	492.616	-0.100	0.227
-376.873	11.746	-0.332	0.252
-375.858	-70.905	-0.448	-0.167
-374.844	19.333	0.342	0.273
-373.829	-10.151	0.234	0.154
-372.815	261.632	-0.059	-0.102
-371.800	24.229	-0.402	-0.329
-370.785	-65.726	0.244	0.097
-369.771	-200.000	0.013	-0.061
-368.756	-111.038	0.291	0.059
-367.742	136.260	0.107	0.138
-366.727	-124.541	-0.099	0.015
-365.712	-94.913	0.154	0.041
-364.698	108.747	-0.140	-0.165
-363.683	21.248	-0.125	0.101
-362.669	16.392	0.034	0.027
-361.654	-26.621	0.164	-0.095
-360.639	126.688	0.223	-0.280
-359.625	-124.621	0.156	0.024
-358.610	-200.000	-0.006	-0.027
-357.596	800.000	0.058	-0.167
-356.581	-58.144	0.233	0.101
-355.566	-102.760	0.158	-0.037
-354.552	33.586	0.125	-0.108
-353.537	-90.164	-0.096	0.028
-352.523	-101.872	0.215	0.051
-351.508	144.661	0.198	0.262
-350.493	17.251	0.189	0.149
-349.479	378.517	0.092	-0.186
-348.464	-200.000	-0.002	0.043
-347.450	94.765	0.162	0.182
-346.435	183.648	-0.073	-0.106
-345.420	26.800	0.055	0.046
-344.406	-200.000	-0.025	0.120
-343.391	286.412	-0.102	-0.183
-342.377	-200.000	0.046	-0.222
-341.362	-200.000	-0.070	0.499
-340.348	800.000	-0.039	0.116
-339.333	370.977	0.197	-0.396
-338.318	-200.000	-0.014	-0.221
-337.304	-123.880	-0.267	0.042
-336.289	-200.000	-0.013	-0.116
-335.275	-200.000	0.001	0.147
-334.260	-142.180	-0.325	-0.032
-333.245	281.573	-0.155	-0.275
-332.231	800.000	0.147	-0.626
-331.216	262.087	-0.193	0.331
-330.202	-100.599	-0.257	0.063
-329.187	-200.000	0.021	0.161
-328.172	99.817	-0.013	-0.015
-327.158	-157.537	0.131	0.008
-326.143	-89.953	-0.181	-0.052
-325.129	-200.000	0.034	-0.218
-324.114	696.449	-0.061	-0.159
-323.099	47.587	-0.132	-0.122
-322.085	171.708	-0.071	0.101
-321.070	-93.513	0.485	0.133
-320.056	85.386	-0.147	0.160
-319.041	-34.045	0.292	0.159
-318.026	54.713	0.228	-0.217
-317.012	-110.399	-0.186	0.038
-315.997	-159.421	-0.182	0.010
-314.983	-135.561	-0.252	0.030
-313.968	-150.835	-0.310	-0.023
-312.953	-21.963	-0.119	-0.072
-311.939	235.947	0.199	-0.325
-310.924	-5.667	0.247	0.167
-309.910	-200.000	-0.036	-0.179
-308.895	-139.848	-0.079	0.008
-307.880	-136.164	0.188	-0.022
-306.866	-140.014	0.175	-0.018
-305.851	-46.828	0.026	-0.012
-304.837	800.000	-0.096	-0.400
-303.822	-39.357	0.160	0.083
-302.807	800.000	0.034	-0.140
-301.793	-39.654	0.148	0.076
-300.778	-116.165	0.156	0.029
-299.764	-109.112	-0.190	0.040
-298.749	-200.000	-0.064	-0.000
-297.735	800.000	0.053	-0.203
-296.720	-127.106	-0.309	-0.045
-295.705	46.921	-0.205	0.188
-294.691	154.126	-0.134	-0.181
-293.676	-180.645	-0.172	0.003
-292.662	-128.608	0.197	0.028
-291.647	58.768	0.226	-0.220
-290.632	97.965	0.060	-0.068
-289.618	344.877	0.056	-0.109
-288.603	169.349	0.188	0.265
-287.589	-85.599	-0.119	-0.036
-286.574	662.429	-0.147	-0.375
-285.559	-108.044	0.256	0.055
-284.545	-6.885	-0.200	-0.134
-283.530	105.549	0.228	-0.266
-282.516	800.000	-0.039	-0.153
-281.501	259.097	-0.164	-0.280
-280.486	-200.000	-0.030	-0.299
-279.472	10.328	0.237	-0.178
-278.457	94.110	-0.163	-0.183
-277.443	-54.698	-0.088	-0.039
-276.428	-94.440	-0.108	-0.029
-275.413	364.583	0.011	0.021
-274.399	-200.000	0.018	-0.134
-273.384	688.370	0.120	0.310
-272.370	94.317	0.115	-0.129
-271.355	-30.344	0.167	-0.094
-270.340	800.000	-0.025	0.081
-269.326	-27.447	0.123	0.070
-268.311	800.000	-0.031	0.132
-267.297	-68.943	-0.155	0.059
-266.282	10.820	0.151	-0.114
-265.267	223.015	-0.163	-0.260
-264.253	6.398	0.125	-0.092
-263.238	-200.000	0.006	0.229
-262.224	-50.803	-0.628	-0.291
-261.209	-200.000	-0.027	0.187
-260.195	-96.462	0.172	-0.045
-259.180	-157.484	0.149	0.009
-258.165	85.417	-0.180	-0.195
-257.151	-64.384	-0.144	-0.058
-256.136	-187.473	0.297	0.004
-255.122	-200.000	-0.034	-0.168
-254.107	-45.111	0.063	0.031
-253.092	-61.800	-0.155	-0.064
-252.078	800.000	-0.065	0.245
-251.063	-91.000	0.020	0.006
-250.049	-71.267	-0.088	0.033
-249.034	-200.000	-0.006	-0.074
-248.019	271.538	0.035	0.060
-247.005	67.710	0.255	-0.257
-245.990	-87.574	-0.189	-0.056
-244.976	-4.863	-0.258	0.175
-243.961	134.951	0.271	-0.347
-242.946	-3.303	0.225	0.155
-241.932	-61.956	-0.279	-0.115
-240.917	-200.000	-0.046	0.308
-239.903	-53.129	0.164	0.074
-238.888	68.766	0.239	0.242
-237.873	800.000	0.093	0.270
-236.859	673.478	0.066	-0.169
-235.844	-190.293	-0.279	0.003
-234.830	800.000	-0.073	0.264
-233.815	-200.000	-0.007	-0.125
-232.800	-38.299	-0.464	-0.242
-231.786	64.780	-0.173	0.173
-230.771	-200.000	-0.021	0.216
-229.757	-108.720	-0.256	-0.054
-228.742	-200.000	-0.018	0.092
-227.727	-200.000	0.009	0.206
-226.713	-200.000	-0.019	0.434
-225.698	-200.000	0.037	-0.206
-224.684	21.646	-0.044	-0.035
-223.669	-42.814	0.146	-0.073
-222.655	-93.474	-0.219	-0.060
-221.640	-116.177	-0.289	0.053
-220.625	20.564	0.276	-0.220
-219.611	258.091	0.094	-0.159
-218.596	55.850	-0.433	0.414
-217.582	-145.787	0.055	0.005
-216.567	-88.885	0.219	0.064
-215.552	25.628	0.215	-0.176
-214.538	-150.655	-0.234	-0.018
-213.523	-113.679	-0.290	-0.056
-212.509	-164.721	0.309	-0.014
-211.494	-148.443	0.255	0.021
-210.479	-95.589	-0.133	-0.035
-209.465	-19.355	-0.037	0.023
-208.450	116.538	0.176	0.213
-207.436	-70.588	0.054	0.020
-206.421	237.840	0.134	-0.219
-205.406	677.941	-0.028	0.071
-204.392	49.576	0.045	0.042
-203.377	45.926	-0.119	0.108
-202.363	800.000	0.083	-0.238
-201.348	-200.000	0.006	0.462
-200.333	-200.000	0.000	0.017
-199.319	154.410	0.152	0.206
-198.304	-140.407	-0.117	-0.012
-197.290	-31.817	0.330	0.182
-196.275	-143.822	-0.129	0.012
-195.260	-200.000	-0.023	-0.126
-194.246	-103.023	-0.093	0.022
-193.231	-130.359	0.244	0.033
-192.217	-142.090	-0.154	0.015
-191.202	123.783	0.189	-0.233
-190.187	181.551	0.126	0.183
-189.173	160.438	0.091	0.126
-188.158	-68.093	-0.137	0.053
-187.144	800.000	-0.121	-0.335
-186.129	194.851	-0.034	0.051
-185.114	-200.000	-0.026	-0.193
-184.100	-46.781	-0.066	0.032
-183.085	-42.470	-0.191	0.096
-182.071	38.453	0.194	-0.170
-181.056	203.341	0.149	-0.226
-180.042	-144.189	0.361	0.033
-179.027	594.176	0.086	-0.209
-178.012	-65.109	0.268	0.106
-176.998	-200.000	0.024	0.221
-175.983	-106.797	-0.181	-0.039
-174.969	-200.000	-0.017	-0.282
-173.954	800.000	0.075	-0.209
-172.939	266.945	-0.140	0.241
-171.925	-122.309	-0.332	-0.053
-170.910	-175.113	0.073	0.002
-169.896	800.000	-0.082	0.245
-168.881	-77.682	0.364	-0.124
-167.866	-74.840	0.108	-0.038
-166.852	19.239	0.172	-0.136
-165.837	396.322	0.076	0.155
-164.823	76.402	0.160	-0.167
-163.808	595.709	0.057	-0.138
-162.793	304.616	-0.097	0.177
-161.779	-162.106	-0.143	-0.007
-160.764	-67.727	-0.303	-0.117
-159.750	21.719	0.245	0.196
-158.735	-21.449	-0.077	0.046
-157.720	-136.073	-0.343	-0.040
-156.706	-19.698	-0.286	-0.174
-155.691	800.000	-0.041	0.129
-154.677	-61.307	-0.203	0.084
-153.662	800.000	0.085	0.241
-152.647	-154.339	0.085	-0.006
-151.633	190.512	0.020	0.029
-150.618	4.192	0.175	0.126
-149.604	561.314	-0.066	0.156
-148.589	-200.000	-0.001	0.379
-147.574	19.245	-0.227	0.179
-146.560	63.164	0.243	0.239
-145.545	308.754	0.186	0.342
-144.531	-138.060	0.237	-0.026
-143.516	-68.866	0.060	-0.023
-142.502	88.370	0.176	-0.192
-141.487	391.205	0.053	0.108
-140.472	-162.425	0.166	0.008
-139.458	360.484	0.125	-0.246
-138.443	-200.000	-0.032	0.181
-137.429	92.656	-0.352	-0.390
-136.414	421.950	0.107	-0.225
-135.399	37.955	0.184	-0.161
-134.385	114.489	0.176	-0.211
-133.370	395.811	-0.108	-0.221
-132.356	-200.000	-0.051	0.266
-131.341	-83.304	0.058	-0.018
-130.326	800.000	0.087	-0.275
-129.312	-200.000	0.042	0.322
-128.297	-67.372	-0.262	-0.101
-127.283	-175.452	0.213	0.006
-126.268	89.366	-0.171	0.188
-125.253	117.604	-0.144	-0.173
-124.239	46.142	0.040	0.036
-123.224	-54.367	-0.205	0.091
-122.210	-117.940	0.079	-0.014
-121.195	-200.000	-0.021	-0.107
