DTS Sentinel unit serial number:	SN413079Multiplexer serial number:	ORYXHardware model number:	OX4-SRSoftware version number:	ORYX F/W v4.00 Oryx Data Collector v3.7.2.0data status	okinstallation	princeton_trtdifferential loss correction	single-endedforward channel	channel 1reverse channel	N/Adate	2019/09/10time	20:40:11forward acquisition time	60.00reverse acquisition time	0.00gamma	496.2192k internal	0.2327k external	0.2327temperature offset calibration	0.9937default loss term (dB/km)	0.3790temperature slope calibration	1.0000multiplexer offset coefficient	1.0000multiplexer slope coefficient	1.0000fibre end	0.00T internal ref (°C)	31.89T ext. ref 1 (°C)	-0.30T ext. ref 2 (°C)	25.24length (m)	temperature (°C)	Stokes	anti-Stokes-747.200	49.212	-0.159	-0.151
-746.185	481.385	0.135	0.310
-745.171	157.336	-0.214	-0.299
-744.156	-58.360	-0.477	0.209
-743.142	16.273	-0.347	0.276
-742.127	528.553	0.049	0.116
-741.112	357.662	-0.153	-0.308
-740.098	-200.000	-0.004	0.173
-739.083	800.000	-0.043	0.169
-738.069	36.384	-0.252	-0.224
-737.054	-114.520	0.297	-0.057
-736.039	-74.089	-0.257	-0.094
-735.025	114.154	0.179	-0.220
-734.010	79.031	0.128	-0.138
-732.996	-62.871	-0.339	0.142
-731.981	-59.417	-0.198	-0.086
-730.966	-200.000	0.006	-0.128
-729.952	-176.253	-0.382	0.010
-728.937	210.733	-0.131	0.207
-727.923	69.220	0.226	-0.234
-726.908	-148.942	-0.175	0.014
-725.894	-200.000	0.031	-0.241
-724.879	-200.000	-0.072	-0.325
-723.864	-105.241	-0.400	0.092
-722.850	286.867	0.069	0.126
-721.835	68.844	-0.042	-0.044
-720.821	26.010	-0.263	-0.221
-719.806	-68.396	-0.157	-0.062
-718.791	800.000	0.040	-0.142
-717.777	-200.000	-0.054	0.247
-716.762	-156.100	-0.104	-0.007
-715.748	-200.000	-0.001	0.260
-714.733	-200.000	0.013	0.260
-713.718	-200.000	0.002	-0.085
-712.704	-200.000	-0.053	-0.275
-711.689	171.067	-0.118	0.170
-710.675	-57.037	-0.406	0.180
-709.660	-103.261	-0.273	-0.065
-708.645	105.123	0.085	-0.101
-707.631	800.000	-0.060	-0.206
-706.616	800.000	-0.059	0.192
-705.602	37.064	-0.266	-0.237
-704.587	800.000	-0.061	0.205
-703.572	-200.000	0.083	0.431
-702.558	800.000	-0.036	0.114
-701.543	122.358	-0.155	-0.195
-700.529	-65.654	0.282	-0.114
-699.514	213.051	0.209	-0.332
-698.499	800.000	-0.086	-0.258
-697.485	-31.175	0.273	0.155
-696.470	-200.000	0.004	-0.086
-695.456	-200.000	-0.008	-0.284
-694.441	-105.000	-0.250	-0.058
-693.426	-200.000	0.072	0.498
-692.412	-188.341	-0.346	0.004
-691.397	-200.000	0.006	-0.129
-690.383	800.000	-0.068	-0.193
-689.368	34.507	-0.175	-0.154
-688.354	-200.000	-0.012	0.412
-687.339	-182.020	-0.534	-0.010
-686.324	7.369	0.377	-0.283
-685.310	-200.000	-0.004	-0.163
-684.295	21.770	0.088	0.072
-683.281	116.488	0.280	-0.346
-682.266	-200.000	0.028	-0.156
-681.251	125.122	-0.139	-0.176
-680.237	327.902	-0.122	0.235
-679.222	332.789	0.066	-0.128
-678.208	-76.751	0.403	0.142
-677.193	395.412	-0.145	0.303
-676.178	82.544	0.217	0.237
-675.164	-200.000	-0.065	-0.347
-674.149	-107.944	0.308	-0.067
-673.135	-31.043	0.279	0.158
-672.120	255.304	0.102	0.175
-671.105	-149.479	-0.471	0.038
-670.091	800.000	0.051	-0.144
-669.076	800.000	0.007	-0.028
-668.062	159.788	-0.142	0.199
-667.047	246.459	0.126	0.214
-666.032	-68.352	-0.187	-0.073
-665.018	161.740	0.116	0.164
-664.003	800.000	0.082	0.327
-662.989	68.807	0.189	0.195
-661.974	46.976	0.095	0.089
-660.959	-200.000	0.001	0.114
-659.945	-149.281	-0.092	-0.007
-658.930	-25.342	0.213	0.127
-657.916	166.142	0.135	0.192
-656.901	613.379	0.131	-0.331
-655.886	800.000	-0.093	0.323
-654.872	-200.000	0.032	-0.354
-653.857	44.008	0.286	-0.264
-652.843	-110.509	-0.191	0.040
-651.828	468.678	-0.110	0.248
-650.814	16.270	-0.248	-0.196
-649.799	-59.260	0.126	0.054
-648.784	91.424	-0.101	-0.113
-647.770	209.481	-0.210	0.330
-646.755	-200.000	0.018	0.140
-645.741	-200.000	-0.031	0.344
-644.726	436.738	-0.176	-0.384
-643.711	70.059	0.086	0.089
-642.697	-76.391	-0.254	-0.090
-641.682	800.000	-0.060	-0.183
-640.668	279.201	-0.069	0.123
-639.653	-3.154	-0.181	-0.127
-638.638	91.075	-0.077	0.086
-637.624	329.375	-0.027	0.052
-636.609	-200.000	0.054	0.296
-635.595	-200.000	-0.071	0.378
-634.580	257.219	-0.098	-0.170
-633.565	692.971	-0.190	-0.501
-632.551	49.464	0.233	-0.220
-631.536	75.439	0.121	-0.128
-630.522	800.000	-0.042	-0.139
-629.507	30.788	0.299	-0.257
-628.492	-44.431	-0.224	0.113
-627.478	800.000	0.066	0.226
-626.463	106.995	0.233	0.277
-625.449	-48.816	-0.404	0.195
-624.434	262.635	-0.112	0.194
-623.419	-104.447	0.158	0.037
-622.405	49.602	0.204	0.193
-621.390	-151.260	0.070	0.005
-620.376	593.032	-0.046	-0.115
-619.361	75.624	-0.180	0.190
-618.346	182.785	-0.038	-0.056
-617.332	117.817	0.290	-0.358
-616.317	-166.676	-0.156	0.006
-615.303	251.904	0.181	0.310
-614.288	-62.642	0.286	0.119
-613.273	-200.000	0.017	0.094
-612.259	-126.407	0.089	0.013
-611.244	-165.020	-0.131	-0.006
-610.230	84.772	-0.059	0.065
-609.215	24.739	-0.203	0.169
-608.201	-138.479	-0.171	0.019
-607.186	-200.000	0.047	0.388
-606.171	41.981	0.116	0.106
-605.157	-85.094	0.456	-0.143
-604.142	-145.259	0.058	0.005
-603.128	272.368	-0.046	0.081
-602.113	-95.992	-0.198	-0.053
-601.098	54.614	-0.204	-0.197
-600.084	85.241	-0.193	-0.212
-599.069	-3.545	0.198	-0.138
-598.055	-143.199	0.174	0.017
-597.040	800.000	0.113	0.315
-596.025	-200.000	0.048	0.342
-595.011	53.915	-0.101	0.097
-593.996	262.603	-0.034	-0.058
-592.982	-92.127	0.296	0.084
-591.967	-48.719	0.335	-0.161
-590.952	3.367	-0.245	0.179
-589.938	-61.665	0.288	-0.121
-588.923	497.956	-0.032	0.074
-587.909	-140.305	-0.510	-0.053
-586.894	103.371	-0.241	0.283
-585.879	116.615	0.180	0.221
-584.865	-200.000	0.004	0.191
-583.850	-200.000	0.051	0.280
-582.836	-96.910	0.298	0.078
-581.821	498.934	-0.049	0.113
-580.806	-93.767	-0.089	-0.025
-579.792	-114.129	-0.302	-0.058
-578.777	-37.633	0.379	0.202
-577.763	800.000	-0.068	-0.268
-576.748	-102.114	-0.116	-0.028
-575.733	-38.232	0.129	-0.068
-574.719	-119.152	0.179	0.031
-573.704	-84.072	0.325	-0.103
-572.690	554.690	0.039	0.093
-571.675	224.980	-0.138	0.224
-570.661	16.031	0.070	-0.055
-569.646	-200.000	-0.072	0.401
-568.631	9.590	-0.076	-0.058
-567.617	-41.704	0.224	-0.115
-566.602	-200.000	-0.028	-0.155
-565.588	-57.794	0.160	0.070
-564.573	-125.677	0.150	0.023
-563.558	-61.189	-0.158	0.067
-562.544	-200.000	0.008	0.180
-561.529	33.644	0.092	0.080
-560.515	699.838	0.070	0.184
-559.500	-8.747	-0.149	0.100
-558.485	-200.000	-0.052	-0.534
-557.471	-69.672	-0.135	-0.052
-556.456	616.376	-0.077	-0.194
-555.442	15.570	0.107	0.085
-554.427	28.441	-0.217	-0.184
-553.412	326.773	0.022	0.042
-552.398	315.175	-0.074	-0.139
-551.383	-100.566	0.117	0.029
-550.369	218.579	0.204	0.326
-549.354	800.000	-0.133	-0.417
-548.339	-21.760	-0.137	-0.083
-547.325	443.505	0.034	-0.075
-546.310	-142.122	-0.056	-0.006
-545.296	56.642	-0.167	0.162
-544.281	-125.163	0.169	-0.026
-543.266	277.844	0.065	-0.115
-542.252	86.420	0.247	-0.272
-541.237	45.804	-0.041	0.038
-540.223	-140.545	0.098	-0.010
-539.208	-200.000	0.033	-0.221
-538.193	-200.000	-0.010	0.061
-537.179	94.901	0.174	0.198
-536.164	24.546	-0.270	-0.224
-535.150	800.000	0.098	0.295
-534.135	-146.560	0.109	-0.009
-533.121	164.676	0.169	-0.239
-532.106	-154.660	0.169	-0.011
-531.091	-75.926	-0.149	0.053
-530.077	162.009	-0.141	0.198
-529.062	300.969	-0.124	0.230
-528.048	89.712	0.116	0.129
-527.033	184.439	0.160	-0.237
-526.018	-114.286	-0.228	0.044
-525.004	-122.403	0.034	0.006
-523.989	-200.000	0.052	0.291
-522.975	-82.534	0.202	0.065
-521.960	-200.000	0.034	0.209
-520.945	248.328	-0.182	-0.307
-519.931	-200.000	-0.007	0.102
-518.916	-92.892	-0.248	0.069
-517.902	-102.426	0.297	-0.071
-516.887	69.052	0.094	-0.096
-515.872	-38.493	0.277	0.147
-514.858	-51.066	0.471	-0.221
-513.843	150.565	0.156	0.212
-512.829	-18.271	-0.145	-0.091
-511.814	104.571	-0.213	0.250
-510.799	132.117	-0.116	-0.149
-509.785	152.809	-0.157	-0.215
-508.770	491.332	0.138	-0.316
-507.756	-200.000	-0.301	0.000
-506.741	-109.119	0.289	-0.061
-505.726	-38.308	0.122	-0.065
-504.712	270.396	-0.146	-0.256
-503.697	-200.000	0.029	-0.424
-502.683	12.311	-0.080	-0.062
-501.668	-68.948	0.111	0.043
-500.653	-200.000	0.025	0.197
-499.639	247.458	0.187	-0.315
-498.624	-147.365	-0.236	-0.020
-497.610	-200.000	0.084	0.376
-496.595	33.398	-0.171	0.148
-495.581	106.313	-0.268	-0.317
-494.566	-200.000	-0.016	0.104
-493.551	-122.169	-0.238	0.039
-492.537	-5.037	-0.278	-0.191
-491.522	800.000	-0.039	-0.136
-490.508	-100.656	0.117	0.029
-489.493	-17.500	0.171	0.108
-488.478	184.126	0.156	-0.231
-487.464	-200.000	-0.027	-0.236
-486.449	58.301	-0.158	0.155
-485.435	-65.403	-0.134	0.054
-484.420	99.760	0.111	0.128
-483.405	98.131	0.257	0.295
-482.391	-85.751	0.078	-0.024
-481.376	-117.429	0.305	0.055
-480.362	57.285	-0.279	-0.272
-479.347	-3.463	-0.274	-0.190
-478.332	204.167	-0.117	-0.181
-477.318	-200.000	-0.014	-0.063
-476.303	-37.856	-0.280	-0.149
-475.289	-200.000	-0.033	0.182
-474.274	-61.051	0.480	-0.202
-473.259	218.831	-0.102	-0.163
-472.245	0.720	-0.180	-0.129
-471.230	-174.381	-0.240	-0.007
-470.216	-171.038	0.209	0.007
-469.201	-118.820	-0.460	0.081
-468.186	800.000	0.032	-0.113
-467.172	-66.754	-0.261	-0.103
-466.157	-200.000	-0.039	0.449
-465.143	95.196	0.118	-0.134
-464.128	800.000	0.103	-0.284
-463.113	-110.006	-0.234	0.049
-462.099	-0.898	0.094	-0.066
-461.084	800.000	-0.080	0.248
-460.070	294.663	0.102	0.187
-459.055	-35.601	0.305	-0.165
-458.040	-102.355	0.107	0.026
-457.026	-77.781	0.151	-0.052
-456.011	-123.112	0.294	0.047
-454.997	-200.000	0.058	0.304
-453.982	13.700	-0.138	-0.107
-452.968	-200.000	-0.119	0.618
-451.953	-75.096	-0.153	-0.054
-450.938	-10.727	-0.186	0.122
-449.924	577.682	0.069	0.168
-448.909	156.085	0.172	-0.236
-447.895	-200.000	-0.017	0.138
-446.880	-48.230	0.222	-0.107
-445.865	-3.717	-0.233	0.161
-444.851	132.710	-0.093	0.119
-443.836	-200.000	-0.002	0.149
-442.822	193.262	0.100	0.151
-441.807	-102.330	-0.114	0.027
-440.792	800.000	0.112	0.443
-439.778	-167.404	0.196	0.008
-438.763	191.880	-0.177	-0.266
-437.749	800.000	-0.095	0.357
-436.734	-127.426	0.210	0.030
-435.719	-136.610	-0.175	0.020
-434.705	700.773	-0.102	0.268
-433.690	332.961	0.034	-0.066
-432.676	401.183	0.029	0.060
-431.661	107.067	0.286	0.338
-430.646	-80.341	-0.084	-0.028
-429.632	-200.000	-0.005	-0.205
-428.617	-129.935	-0.338	0.046
-427.603	-146.336	-0.173	0.015
-426.588	42.117	0.153	-0.138
-425.573	-106.768	0.153	-0.034
-424.559	-200.000	0.065	-0.375
-423.544	800.000	0.076	-0.213
-422.530	-191.338	0.037	-0.000
-421.515	-200.000	-0.012	0.063
-420.500	-77.606	0.182	0.063
-419.486	-200.000	-0.015	-0.090
-418.471	-123.173	0.060	-0.010
-417.457	-23.597	0.288	0.172
-416.442	110.324	-0.204	0.244
-415.428	-200.000	-0.009	0.054
-414.413	-200.000	0.024	-0.223
-413.398	210.611	0.131	0.204
-412.384	-24.431	-0.422	-0.250
-411.369	-104.426	-0.277	-0.064
-410.355	-200.000	0.002	-0.141
-409.340	-33.189	-0.077	-0.042
-408.325	-66.133	-0.156	0.062
-407.311	-137.383	0.221	0.025
-406.296	-200.000	0.017	-0.497
-405.282	146.517	-0.066	0.089
-404.267	-105.935	0.287	-0.064
-403.252	-113.984	-0.201	-0.039
-402.238	48.114	-0.108	-0.101
-401.223	337.742	-0.078	0.151
-400.209	-200.000	0.003	0.178
-399.194	-173.623	0.286	-0.009
-398.179	-150.360	0.137	-0.010
-397.165	720.510	0.076	0.202
-396.150	800.000	-0.064	0.179
-395.136	-5.428	0.115	-0.078
-394.121	-85.556	-0.309	0.096
-393.106	-200.000	-0.038	0.204
-392.092	-200.000	0.010	0.144
-391.077	-27.373	-0.300	0.174
-390.063	512.857	0.190	-0.439
-389.048	-128.950	-0.113	0.016
-388.033	373.399	0.079	-0.159
-387.019	800.000	0.135	-0.371
-386.004	800.000	-0.056	-0.163
-384.990	-125.918	-0.486	0.073
-383.975	-79.345	0.218	0.073
-382.960	431.577	0.138	-0.297
-381.946	135.741	0.068	0.088
-380.931	442.194	0.152	0.330
-379.917	-161.116	-0.408	0.021
-378.902	286.081	0.255	0.457
-377.888	-175.744	-0.120	0.003
-376.873	700.507	0.045	0.117
-375.858	-4.314	0.292	-0.201
-374.844	-190.525	-0.120	0.001
-373.829	-5.269	0.161	-0.110
-372.815	-4.127	0.260	0.179
-371.800	199.761	-0.056	0.086
-370.785	-38.840	0.082	0.043
-369.771	800.000	-0.119	-0.452
-368.756	-172.398	-0.227	-0.007
-367.742	-200.000	-0.020	-0.143
-366.727	33.987	0.073	0.064
-365.712	-154.106	0.275	0.019
-364.698	291.201	0.056	-0.100
-363.683	475.726	-0.093	0.208
-362.669	202.240	-0.168	-0.258
-361.654	-15.400	-0.196	-0.124
-360.639	-200.000	0.001	0.163
-359.625	-200.000	-0.025	-0.132
-358.610	252.824	0.141	-0.239
-357.596	-200.000	-0.085	0.504
-356.581	-114.260	-0.319	0.061
-355.566	19.537	0.153	0.122
-354.552	109.963	-0.226	0.269
-353.537	113.558	-0.028	0.034
-352.523	800.000	0.084	-0.310
-351.508	139.146	-0.113	0.147
-350.493	-41.294	0.115	0.059
-349.479	800.000	-0.056	0.172
-348.464	-79.196	0.110	-0.037
-347.450	-151.234	0.205	0.015
-346.435	-200.000	-0.002	-0.036
-345.420	-98.368	0.256	0.065
-344.406	-200.000	-0.066	0.293
-343.391	329.984	0.035	0.067
-342.377	-40.423	0.138	0.071
-341.362	800.000	-0.048	0.161
-340.348	110.839	0.149	-0.178
-339.333	-91.291	0.339	0.096
-338.318	-79.282	0.250	-0.084
-337.304	-103.733	0.353	-0.082
-336.289	-179.422	-0.039	0.001
-335.275	580.432	0.097	-0.235
-334.260	406.243	-0.078	0.164
-333.245	-115.001	0.119	0.023
-332.231	183.790	-0.091	-0.133
-331.216	-32.990	0.224	0.124
-330.202	-69.232	-0.162	0.062
-329.187	11.015	-0.131	-0.100
-328.172	-200.000	0.264	0.001
-327.158	148.761	0.214	0.287
-326.143	-59.372	0.299	-0.128
-325.129	800.000	0.053	0.153
-324.114	-49.413	-0.411	-0.194
-323.099	204.753	-0.110	-0.169
-322.085	-58.183	0.387	0.167
-321.070	-33.904	-0.145	0.079
-320.056	93.613	0.139	-0.156
-319.041	90.680	-0.064	-0.072
-318.026	-200.000	0.008	0.200
-317.012	-54.845	-0.210	-0.094
-315.997	62.274	0.239	-0.236
-314.983	17.952	-0.162	0.128
-313.968	649.400	0.115	0.292
-312.953	226.746	0.072	0.115
-311.939	800.000	0.031	0.132
-310.924	-200.000	0.052	-0.233
-309.910	178.836	-0.133	-0.193
-308.895	66.849	-0.099	0.100
-307.880	-159.741	-0.494	0.027
-306.866	409.042	-0.045	-0.094
-305.851	-34.575	0.167	-0.090
-304.837	-12.355	0.362	-0.235
-303.822	31.373	0.074	-0.063
-302.807	-34.507	-0.190	0.103
-301.793	-200.000	-0.031	-0.402
-300.778	79.479	-0.026	-0.028
-299.764	570.399	0.070	0.169
-298.749	-50.763	0.047	0.022
-297.735	120.646	-0.068	-0.084
-296.720	-200.000	0.051	-0.246
-295.705	800.000	-0.119	-0.379
-294.691	135.430	0.101	-0.129
-293.676	-37.869	-0.103	0.054
-292.662	-200.000	-0.036	-0.234
-291.647	248.449	0.166	0.278
-290.632	-141.731	-0.255	-0.025
-289.618	-200.000	-0.036	-0.249
-288.603	-200.000	0.069	-0.383
-287.589	-200.000	-0.015	0.171
-286.574	800.000	-0.030	-0.090
-285.559	800.000	0.148	-0.458
-284.545	69.617	0.246	0.251
-283.530	81.668	0.069	-0.073
-282.516	319.442	-0.078	0.147
-281.501	-118.048	0.368	0.065
-280.486	118.936	0.019	-0.023
-279.472	-59.582	-0.209	-0.089
-278.457	-67.073	-0.097	-0.038
-277.443	-19.979	0.077	0.047
-276.428	-59.751	-0.229	0.097
-275.413	751.078	-0.129	0.346
-274.399	-108.454	0.131	-0.028
-273.384	306.631	-0.141	-0.261
-272.370	-119.683	-0.373	-0.064
-271.355	-200.000	-0.016	0.237
-270.340	177.610	-0.172	0.249
-269.326	-2.126	-0.332	-0.231
-268.311	-129.529	0.279	-0.038
-267.297	-200.000	0.010	-0.177
-266.282	88.985	-0.059	-0.065
-265.267	-106.128	-0.474	-0.105
-264.253	-200.000	0.034	-0.210
-263.238	8.858	-0.098	-0.073
-262.224	113.409	0.167	0.200
-261.209	102.588	-0.065	-0.075
-260.195	54.959	-0.172	0.165
-259.180	-200.000	0.024	0.132
-258.165	203.409	-0.178	-0.272
-257.151	53.495	0.246	-0.233
-256.136	-102.899	0.115	0.027
-255.122	-200.000	0.041	-0.276
-254.107	-200.000	-0.016	-0.097
-253.092	142.733	-0.203	0.266
-252.078	-200.000	-0.049	-0.266
-251.063	-144.996	-0.280	0.025
-250.049	-19.319	0.118	0.073
-249.034	-123.265	-0.134	0.021
-248.019	-200.000	-0.026	0.209
-247.005	-85.172	-0.670	0.207
-245.990	-56.209	0.301	-0.132
-244.976	-200.000	-0.029	0.309
-243.961	-200.000	0.059	0.511
-242.946	78.594	-0.103	0.108
-241.932	224.913	0.077	-0.123
-240.917	23.324	0.165	-0.134
-239.903	39.727	-0.198	0.176
-238.888	7.293	0.231	0.171
-237.873	452.437	0.029	-0.064
-236.859	-200.000	-0.016	0.237
-235.844	45.342	-0.185	0.169
-234.830	21.723	0.197	-0.159
-233.815	-152.757	-0.179	0.013
-232.800	450.294	0.107	-0.234
-231.786	146.253	-0.120	0.160
-230.771	12.642	-0.076	0.058
-229.757	268.311	0.107	-0.186
-228.742	288.225	-0.066	-0.118
-227.727	-92.321	-0.212	0.059
-226.713	800.000	0.022	-0.072
-225.698	97.945	-0.066	-0.075
-224.684	48.678	-0.257	0.238
-223.669	8.092	-0.302	-0.224
-222.655	-106.975	-0.268	0.059
-221.640	-200.000	-0.003	-0.068
-220.625	-200.000	0.033	-0.168
-219.611	-98.945	-0.079	-0.020
-218.596	-39.423	0.210	-0.109
-217.582	-200.000	-0.018	-0.135
-216.567	38.942	0.245	-0.216
-215.552	58.221	-0.383	-0.371
-214.538	76.736	-0.203	0.213
-213.523	-3.053	-0.019	-0.013
-212.509	119.058	0.214	-0.261
-211.494	78.963	-0.185	-0.196
-210.479	-200.000	0.004	0.098
-209.465	-78.194	0.281	0.095
-208.450	-39.415	-0.228	-0.118
-207.436	57.894	0.026	0.025
-206.421	-35.884	0.339	0.181
-205.406	-200.000	0.009	-0.081
-204.392	-79.025	0.078	-0.026
-203.377	35.867	0.187	0.162
-202.363	1.331	0.347	0.246
-201.348	121.334	0.047	0.057
-200.333	36.496	0.076	-0.066
-199.319	-72.939	0.058	0.021
-198.304	-3.661	-0.223	-0.153
-197.290	800.000	-0.018	-0.061
-196.275	367.770	0.025	0.050
-195.260	-32.577	-0.170	-0.094
-194.246	347.705	0.062	-0.121
-193.231	80.768	-0.119	0.126
-192.217	231.029	0.079	-0.128
-191.202	-111.269	-0.130	-0.026
-190.187	35.725	-0.075	-0.065
-189.173	480.702	0.176	-0.394
-188.158	-83.410	0.399	-0.126
-187.144	-90.976	0.044	0.012
-186.129	-200.000	0.033	0.168
-185.114	48.859	-0.235	0.218
-184.100	52.664	0.139	-0.131
-183.085	-138.367	0.222	0.024
-182.071	-51.337	0.231	0.106
-181.056	-200.000	0.041	-0.320
-180.042	403.988	-0.090	-0.187
-179.027	-48.471	0.215	0.102
-178.012	140.969	0.192	0.250
-176.998	239.036	0.129	-0.212
-175.983	-89.818	-0.387	0.112
-174.969	-67.557	-0.216	0.083
-173.954	136.985	-0.155	-0.200
-172.939	-49.959	-0.107	-0.050
-171.925	-200.000	-0.009	0.225
-170.910	800.000	-0.092	0.258
-169.896	-84.094	-0.108	0.034
-168.881	-126.894	0.139	0.020
-167.866	-200.000	-0.006	-0.183
-166.852	-200.000	-0.063	0.341
-165.837	481.867	0.095	0.214
-164.823	131.775	-0.209	-0.265
-163.808	-112.279	-0.060	-0.012
-162.793	-87.311	0.091	-0.027
-161.779	37.746	-0.110	-0.096
-160.764	-30.053	0.117	-0.066
-159.750	800.000	0.017	0.066
-158.735	-55.850	0.289	-0.127
-157.720	800.000	0.075	0.235
-156.706	800.000	0.110	-0.306
-155.691	-163.830	-0.272	-0.013
-154.677	336.985	-0.116	-0.223
-153.662	174.421	0.170	-0.242
-152.647	800.000	0.059	-0.168
-151.633	87.806	-0.164	0.179
-150.618	-33.020	-0.308	0.168
-149.604	23.997	0.101	-0.082
-148.589	-11.243	0.341	0.221
-147.574	-3.050	-0.187	-0.129
-146.560	-200.000	0.005	-0.405
-145.545	-150.922	0.236	-0.018
-144.531	-79.541	-0.247	0.082
-143.516	24.461	-0.177	0.144
-142.502	32.470	0.154	0.131
-141.487	-50.983	0.124	0.057
-140.472	-105.859	0.322	-0.072
-139.458	205.483	-0.042	-0.065
-138.443	-62.660	-0.173	-0.071
-137.429	452.361	-0.119	-0.259
-136.414	131.055	0.152	-0.192
-135.399	-110.855	0.240	0.049
-134.385	-200.000	-0.049	0.277
-133.370	-200.000	0.066	0.424
-132.356	387.700	-0.124	0.253
-131.341	-200.000	-0.033	0.296
-130.326	-200.000	0.057	0.370
-129.312	-132.546	0.090	0.011
-128.297	-104.149	0.378	0.086
-127.283	120.746	0.069	-0.085
-126.268	-17.795	-0.218	0.135
-125.253	-200.000	0.032	0.252
-124.239	-41.048	0.230	0.117
-123.224	119.515	-0.117	0.143
-122.210	-200.000	-0.021	-0.345
-121.195	800.000	0.086	0.241
