DTS Sentinel unit serial number:	SN413079Multiplexer serial number:	ORYXHardware model number:	OX4-SRSoftware version number:	ORYX F/W v4.00 Oryx Data Collector v3.7.2.0data status	okinstallation	princeton_trtdifferential loss correction	single-endedforward channel	channel 1reverse channel	N/Adate	2019/09/15time	03:50:35forward acquisition time	60.00reverse acquisition time	0.00gamma	496.2192k internal	0.2323k external	0.2323temperature offset calibration	0.9990default loss term (dB/km)	0.3790temperature slope calibration	1.0000multiplexer offset coefficient	1.0000multiplexer slope coefficient	1.0000fibre end	0.00T internal ref (°C)	30.94T ext. ref 1 (°C)	4.61T ext. ref 2 (°C)	25.89length (m)	temperature (°C)	Stokes	anti-Stokes-747.200	-149.686	-0.138	0.011
-746.185	312.515	0.043	-0.081
-745.171	800.000	0.130	0.510
-744.156	369.457	-0.200	0.410
-743.142	-18.231	0.226	-0.142
-742.127	306.875	-0.027	-0.051
-741.112	800.000	0.039	-0.139
-740.098	-129.915	-0.052	0.007
-739.083	91.563	0.109	-0.124
-738.069	-65.216	0.181	0.073
-737.054	-151.336	0.128	-0.010
-736.039	17.533	-0.155	-0.125
-735.025	125.749	0.073	0.093
-734.010	800.000	-0.027	0.088
-732.996	-150.786	-0.238	0.018
-731.981	21.740	-0.061	-0.051
-730.966	-10.599	-0.133	-0.089
-729.952	-200.000	-0.002	-0.131
-728.937	-56.408	0.208	-0.093
-727.923	112.306	-0.133	0.162
-726.908	117.981	-0.061	0.076
-725.894	800.000	0.023	0.071
-724.879	-85.753	-0.293	0.092
-723.864	-200.000	0.052	-0.395
-722.850	-0.693	-0.046	-0.033
-721.835	0.910	0.435	-0.314
-720.821	24.167	-0.235	-0.196
-719.806	-167.629	-0.121	0.005
-718.791	72.567	-0.226	-0.238
-717.777	-31.889	-0.235	-0.133
-716.762	-121.684	-0.255	-0.043
-715.748	800.000	0.101	0.317
-714.733	-200.000	-0.017	-0.141
-713.718	-49.153	-0.240	-0.116
-712.704	-130.116	-0.348	-0.048
-711.689	-112.931	0.041	0.008
-710.675	-23.111	0.112	-0.068
-709.660	-200.000	-0.008	-0.129
-708.645	-200.000	-0.012	0.078
-707.631	179.801	0.032	0.048
-706.616	136.037	0.158	-0.208
-705.602	118.662	0.097	0.120
-704.587	-200.000	-0.013	0.217
-703.572	98.107	-0.264	-0.307
-702.558	680.075	-0.081	-0.213
-701.543	78.664	0.259	-0.279
-700.529	-1.408	0.041	0.029
-699.514	800.000	0.063	0.240
-698.499	-200.000	0.029	0.229
-697.485	-70.545	-0.149	0.057
-696.470	800.000	0.132	-0.378
-695.456	-11.621	-0.156	0.103
-694.441	-26.184	-0.228	0.135
-693.426	216.660	-0.067	-0.108
-692.412	159.425	-0.113	-0.159
-691.397	-80.610	0.159	0.053
-690.383	77.295	-0.180	0.192
-689.368	-80.699	0.169	0.057
-688.354	-129.588	-0.059	0.008
-687.339	539.257	0.044	0.105
-686.324	122.503	-0.118	-0.149
-685.310	52.178	-0.121	0.116
-684.295	52.386	-0.029	-0.028
-683.281	-70.994	-0.288	0.109
-682.266	124.024	-0.126	-0.160
-681.251	487.843	-0.040	0.092
-680.237	-110.615	0.264	0.055
-679.222	800.000	-0.070	-0.308
-678.208	-111.695	0.284	-0.058
-677.193	-108.297	-0.370	0.081
-676.178	719.005	-0.030	0.081
-675.164	19.529	0.144	-0.117
-674.149	-0.092	0.265	0.190
-673.135	-11.407	0.131	-0.087
-672.120	800.000	-0.102	-0.371
-671.105	-128.301	-0.167	0.024
-670.091	253.631	-0.191	-0.329
-669.076	249.791	-0.115	0.196
-668.062	-131.192	-0.105	-0.014
-667.047	-125.160	0.307	-0.047
-666.032	-71.087	-0.330	-0.125
-665.018	93.642	-0.029	-0.033
-664.003	173.336	-0.120	-0.175
-662.989	-119.853	0.212	-0.037
-661.974	800.000	0.030	0.107
-660.959	121.213	-0.177	-0.221
-659.945	-96.643	-0.223	-0.059
-658.930	150.571	0.135	0.185
-657.916	15.983	0.366	0.290
-656.901	-32.698	0.227	-0.127
-655.886	-79.157	0.135	0.046
-654.872	214.164	0.096	-0.153
-653.857	184.569	-0.113	-0.169
-652.843	800.000	-0.042	-0.135
-651.828	800.000	0.087	-0.290
-650.814	-22.814	0.181	-0.110
-649.799	204.732	0.022	-0.034
-648.784	-80.049	-0.193	0.065
-647.770	-69.210	-0.299	-0.116
-646.755	-200.000	-0.083	-0.432
-645.741	-162.634	-0.147	-0.007
-644.726	800.000	-0.038	0.120
-643.711	-98.115	-0.227	0.059
-642.697	-131.154	-0.129	-0.017
-641.682	800.000	0.081	-0.243
-640.668	-106.905	-0.142	0.032
-639.653	-71.214	-0.142	0.054
-638.638	-8.312	-0.207	-0.140
-637.624	-200.000	-0.016	-0.090
-636.609	-200.000	0.002	-0.142
-635.595	70.289	0.032	0.034
-634.580	27.526	-0.341	-0.288
-633.565	-200.000	-0.002	-0.020
-632.551	303.785	-0.178	0.332
-631.536	284.824	-0.043	-0.078
-630.522	498.488	0.125	0.290
-629.507	221.717	-0.025	-0.040
-628.492	-122.469	-0.133	0.022
-627.478	549.433	-0.091	0.219
-626.463	800.000	-0.059	0.184
-625.449	-200.000	-0.009	0.089
-624.434	145.298	-0.218	0.294
-623.419	-84.365	0.176	-0.056
-622.405	-30.706	0.148	-0.084
-621.390	-200.000	0.004	-0.273
-620.376	-108.187	-0.189	-0.041
-619.361	112.401	-0.140	-0.170
-618.346	207.813	-0.082	-0.129
-617.332	-63.127	-0.123	0.051
-616.317	-200.000	-0.019	-0.310
-615.303	-66.689	0.104	0.041
-614.288	-134.492	-0.133	0.016
-613.273	-120.280	0.120	0.020
-612.259	-130.222	0.121	0.017
-611.244	800.000	-0.048	0.147
-610.230	581.179	0.087	0.215
-609.215	86.763	0.111	-0.123
-608.201	-126.617	0.364	-0.054
-607.186	61.772	0.154	-0.154
-606.171	12.917	-0.133	-0.103
-605.157	310.827	-0.136	-0.257
-604.142	-2.021	-0.184	-0.130
-603.128	-87.424	0.319	-0.097
-602.113	368.116	0.080	-0.163
-601.098	-75.300	-0.193	-0.069
-600.084	-106.832	-0.296	-0.066
-599.069	-0.288	-0.211	0.151
-598.055	99.587	-0.372	-0.432
-597.040	77.634	-0.243	-0.260
-596.025	143.658	-0.092	-0.123
-595.011	800.000	-0.094	0.274
-593.996	116.139	-0.165	0.203
-592.982	-17.715	0.283	0.178
-591.967	275.593	-0.070	0.126
-590.952	53.389	0.223	0.215
-589.938	360.424	-0.052	-0.104
-588.923	111.074	0.087	-0.105
-587.909	-28.953	-0.179	0.103
-586.894	-66.189	0.167	-0.067
-585.879	800.000	-0.142	0.431
-584.865	-92.152	-0.435	0.123
-583.850	-25.274	-0.343	-0.204
-582.836	-86.970	-0.411	-0.126
-581.821	389.375	0.055	-0.114
-580.806	800.000	0.025	0.106
-579.792	-200.000	0.001	-0.137
-578.777	549.327	-0.116	-0.278
-577.763	81.819	0.095	-0.103
-576.748	-12.493	-0.307	-0.201
-575.733	418.039	-0.049	-0.105
-574.719	352.563	0.071	-0.140
-573.704	-200.000	-0.003	0.350
-572.690	376.546	0.027	-0.056
-571.675	-200.000	-0.020	-0.189
-570.661	188.218	-0.103	0.155
-569.646	117.925	0.143	0.177
-568.631	800.000	-0.139	-0.510
-567.617	-64.410	-0.079	0.032
-566.602	17.304	-0.142	-0.113
-565.588	26.732	0.157	0.132
-564.573	-79.370	0.253	-0.086
-563.558	-56.011	-0.326	-0.146
-562.544	161.081	0.183	0.256
-561.529	116.269	-0.133	-0.163
-560.515	197.980	-0.174	0.266
-559.500	-51.836	0.157	0.073
-558.485	66.460	0.066	0.067
-557.471	-85.517	-0.060	0.019
-556.456	64.080	0.163	-0.164
-555.442	800.000	0.050	-0.145
-554.427	159.271	-0.042	-0.058
-553.412	-107.487	0.278	-0.061
-552.398	-158.677	-0.243	0.014
-551.383	49.446	-0.144	0.136
-550.369	-24.094	-0.146	-0.087
-549.354	-200.000	0.030	-0.262
-548.339	-200.000	0.014	-0.112
-547.325	-4.007	0.218	0.152
-546.310	-200.000	0.029	-0.222
-545.296	145.675	-0.139	0.187
-544.281	93.666	0.131	-0.149
-543.266	338.311	0.096	0.188
-542.252	282.759	0.059	-0.106
-541.237	-25.656	-0.402	-0.238
-540.223	-168.029	0.384	0.015
-539.208	800.000	0.054	-0.225
-538.193	-200.000	-0.007	-0.495
-537.179	-176.114	0.120	-0.003
-536.164	-98.522	-0.310	-0.079
-535.150	800.000	0.021	-0.061
-534.135	-200.000	0.015	-0.208
-533.121	800.000	-0.046	-0.182
-532.106	-25.828	0.206	0.122
-531.091	-125.279	-0.359	-0.055
-530.077	-54.833	-0.418	0.189
-529.062	-200.000	-0.010	0.058
-528.048	800.000	-0.108	0.339
-527.033	231.201	0.138	0.226
-526.018	-200.000	-0.016	-0.117
-525.004	-200.000	-0.011	0.158
-523.989	-45.799	-0.311	-0.154
-522.975	-50.547	-0.321	0.151
-521.960	-165.069	0.307	0.014
-520.945	12.540	-0.416	0.321
-519.931	-187.827	-0.444	0.006
-518.916	-200.000	0.016	0.099
-517.902	-78.879	0.126	0.043
-516.887	-200.000	0.028	-0.334
-515.872	800.000	0.073	-0.293
-514.858	-200.000	0.022	-0.233
-513.843	800.000	0.059	0.248
-512.829	-29.435	0.183	0.105
-511.814	-93.095	-0.305	-0.085
-510.799	-200.000	0.015	0.084
-509.785	-53.887	-0.304	-0.138
-508.770	-46.890	-0.174	-0.085
-507.756	129.652	-0.108	-0.138
-506.741	-96.710	-0.081	-0.021
-505.726	-90.293	-0.250	-0.073
-504.712	-8.721	-0.130	-0.087
-503.697	-117.099	0.309	0.056
-502.683	105.498	0.043	-0.051
-501.668	-195.570	-0.143	0.001
-500.653	-87.868	-0.188	0.057
-499.639	202.708	-0.122	-0.188
-498.624	-102.350	0.228	0.055
-497.610	-200.000	-0.018	0.238
-496.595	-60.087	0.087	0.037
-495.581	276.632	-0.164	0.291
-494.566	-200.000	0.239	0.001
-493.551	379.483	0.058	0.118
-492.537	-30.757	0.122	0.069
-491.522	-86.770	-0.221	0.068
-490.508	-200.000	-0.065	-0.334
-489.493	-71.718	-0.063	-0.023
-488.478	800.000	-0.079	-0.221
-487.464	290.613	0.071	-0.130
-486.449	261.404	-0.061	0.105
-485.435	-179.660	-0.342	-0.007
-484.420	-125.219	0.391	0.060
-483.405	267.101	0.060	0.104
-482.391	256.090	0.058	-0.099
-481.376	800.000	0.082	-0.347
-480.362	150.002	0.096	-0.131
-479.347	-200.000	0.048	0.390
-478.332	-160.541	0.281	-0.015
-477.318	-200.000	-0.024	0.106
-476.303	800.000	0.067	-0.247
-475.289	-24.661	0.188	0.112
-474.274	82.344	0.149	0.162
-473.259	473.864	-0.029	0.066
-472.245	208.407	-0.091	0.143
-471.230	8.686	-0.192	0.145
-470.216	-160.951	-0.191	0.010
-469.201	-47.469	0.153	0.074
-468.186	218.658	0.156	0.249
-467.172	581.662	0.160	0.393
-466.157	-200.000	-0.010	0.384
-465.143	-200.000	0.003	-0.152
-464.128	8.516	0.019	-0.014
-463.113	-200.000	0.006	0.068
-462.099	766.911	-0.070	-0.189
-461.084	-120.019	0.116	0.020
-460.070	-159.420	-0.311	0.017
-459.055	18.881	-0.038	-0.031
-458.040	253.768	0.128	-0.218
-457.026	-27.056	-0.231	-0.134
-456.011	-200.000	-0.002	0.213
-454.997	-1.037	-0.162	-0.114
-453.982	564.347	0.082	0.198
-452.968	514.604	0.191	0.445
-451.953	-123.980	-0.225	0.035
-450.938	-20.208	0.102	-0.063
-449.924	-125.696	-0.095	0.014
-448.909	800.000	0.118	0.343
-447.895	-133.280	0.134	0.017
-446.880	66.474	0.145	-0.147
-445.865	-200.000	-0.008	0.319
-444.851	-34.377	0.234	0.128
-443.836	-141.603	-0.283	0.028
-442.822	-22.888	-0.316	-0.190
-441.807	-55.641	0.061	0.027
-440.792	-45.369	-0.098	-0.049
-439.778	523.992	-0.024	-0.057
-438.763	145.693	-0.122	0.163
-437.749	25.410	-0.203	0.169
-436.734	-144.846	0.097	-0.009
-435.719	-90.632	-0.178	0.051
-434.705	474.329	0.059	-0.133
-433.690	-200.000	-0.008	-0.285
-432.676	800.000	0.122	0.398
-431.661	-172.821	0.113	0.004
-430.646	177.133	-0.113	0.164
-429.632	800.000	-0.073	0.257
-428.617	38.800	-0.085	-0.076
-427.603	-89.885	0.267	-0.078
-426.588	751.830	0.143	0.384
-425.573	-200.000	0.033	0.267
-424.559	800.000	0.100	-0.288
-423.544	800.000	-0.020	-0.076
-422.530	-200.000	0.060	0.262
-421.515	434.093	0.094	-0.203
-420.500	609.936	-0.051	-0.127
-419.486	-200.000	0.010	-0.127
-418.471	10.621	-0.249	-0.189
-417.457	-194.821	0.082	-0.001
-416.442	146.222	-0.048	0.064
-415.428	355.069	0.068	-0.135
-414.413	32.069	-0.227	-0.195
-413.398	14.257	-0.285	-0.222
-412.384	-32.242	0.122	-0.068
-411.369	-105.562	0.247	-0.056
-410.355	-165.189	-0.111	-0.005
-409.340	-60.682	-0.269	0.114
-408.325	-69.241	0.093	0.036
-407.311	-111.193	-0.513	-0.105
-406.296	387.517	0.098	0.201
-405.282	-53.843	-0.087	-0.040
-404.267	15.578	-0.129	0.101
-403.252	-49.762	0.086	0.041
-402.238	247.001	0.170	0.286
-401.223	-94.176	-0.198	-0.054
-400.209	13.843	-0.192	0.149
-399.194	-200.000	0.010	0.226
-398.179	-56.651	-0.269	-0.119
-397.165	-32.652	-0.084	-0.047
-396.150	-174.526	0.239	-0.007
-395.136	800.000	-0.088	-0.344
-394.121	-200.000	0.013	-0.112
-393.106	-149.366	0.174	0.014
-392.092	204.572	-0.058	-0.089
-391.077	800.000	0.106	0.350
-390.063	433.663	0.040	0.087
-389.048	-33.799	0.181	0.099
-388.033	-200.000	-0.007	0.243
-387.019	-38.459	0.129	0.068
-386.004	77.108	0.088	0.093
-384.990	211.445	0.108	-0.169
-383.975	124.091	-0.194	-0.243
-382.960	-141.282	-0.172	-0.017
-381.946	-152.951	0.283	-0.020
-380.931	143.367	-0.086	-0.114
-379.917	800.000	0.097	-0.312
-378.902	-93.366	0.084	-0.023
-377.888	-34.479	-0.184	-0.100
-376.873	-200.000	0.253	0.001
-375.858	-93.194	-0.401	-0.111
-374.844	-26.631	0.122	-0.071
-373.829	187.570	-0.145	-0.215
-372.815	189.399	0.043	0.064
-371.800	-200.000	0.039	-0.172
-370.785	800.000	-0.135	-0.393
-369.771	-131.589	0.375	-0.049
-368.756	-103.336	-0.198	-0.047
-367.742	-200.000	-0.038	0.169
-366.727	-45.117	0.109	0.054
-365.712	27.067	-0.117	-0.098
-364.698	-200.000	0.038	0.219
-363.683	800.000	0.019	0.071
-362.669	306.932	-0.119	-0.220
-361.654	-47.858	0.313	-0.151
-360.639	299.058	0.116	-0.213
-359.625	25.146	0.099	0.081
-358.610	800.000	0.044	-0.188
-357.596	-54.142	-0.131	-0.059
-356.581	800.000	0.072	-0.218
-355.566	-200.000	-0.003	0.080
-354.552	-200.000	-0.003	0.297
-353.537	-131.586	0.119	0.016
-352.523	-67.403	0.506	0.198
-351.508	800.000	-0.149	0.466
-350.493	-200.000	0.038	-0.408
-349.479	800.000	-0.043	-0.186
-348.464	-200.000	0.008	-0.087
-347.450	-126.522	0.174	0.026
-346.435	71.645	0.070	0.073
-345.420	-2.692	0.118	0.082
-344.406	-200.000	0.006	-0.036
-343.391	324.736	0.206	0.391
-342.377	274.938	0.079	-0.139
-341.362	624.855	0.058	0.145
-340.348	35.601	0.179	-0.156
-339.333	-167.627	0.147	0.006
-338.318	-55.667	-0.208	0.092
-337.304	37.327	0.183	0.161
-336.289	-155.238	-0.229	0.015
-335.275	70.834	-0.151	0.156
-334.260	-200.000	-0.037	0.244
-333.245	164.937	0.106	0.149
-332.231	-119.621	0.400	0.069
-331.216	-76.097	0.382	-0.134
-330.202	-173.340	-0.213	-0.006
-329.187	101.398	-0.156	0.181
-328.172	-18.806	-0.331	0.205
-327.158	-156.776	0.114	0.007
-326.143	245.257	0.213	0.356
-325.129	65.482	-0.233	0.234
-324.114	-200.000	-0.046	-0.402
-323.099	132.480	0.172	0.220
-322.085	-200.000	0.006	-0.109
-321.070	800.000	0.113	0.352
-320.056	-111.468	-0.436	-0.088
-319.041	-75.780	0.344	-0.121
-318.026	633.523	0.165	-0.416
-317.012	-200.000	0.039	-0.178
-315.997	-128.705	0.254	-0.036
-314.983	112.618	0.149	-0.179
-313.968	628.796	0.068	-0.171
-312.953	-42.243	0.259	0.131
-311.939	800.000	0.050	-0.172
-310.924	61.799	-0.194	-0.191
-309.910	-13.134	0.055	0.036
-308.895	-134.449	0.006	-0.001
-307.880	544.144	0.150	-0.355
-306.866	626.114	0.041	-0.104
-305.851	-4.018	0.152	0.104
-304.837	-97.721	0.027	-0.007
-303.822	-25.973	0.285	0.167
-302.807	-44.764	0.136	-0.067
-301.793	-106.985	0.509	0.112
-300.778	800.000	0.006	-0.022
-299.764	473.303	-0.175	0.391
-298.749	800.000	0.080	0.241
-297.735	-105.087	-0.371	-0.084
-296.720	58.675	0.145	-0.141
-295.705	800.000	0.042	-0.122
-294.691	-113.691	0.317	-0.061
-293.676	-0.387	-0.120	-0.085
-292.662	71.223	0.175	-0.180
-291.647	317.049	-0.100	0.188
-290.632	-12.338	-0.063	-0.041
-289.618	-200.000	-0.043	-0.201
-288.603	-123.824	-0.166	0.026
-287.589	-200.000	0.023	0.220
-286.574	81.346	-0.284	0.304
-285.559	-120.039	-0.156	0.027
-284.545	96.301	0.094	0.107
-283.530	-92.169	0.424	0.119
-282.516	-11.306	0.162	0.106
-281.501	-70.282	0.367	0.138
-280.486	800.000	-0.084	0.294
-279.472	-54.200	0.384	-0.173
-278.457	228.249	0.199	-0.321
-277.443	-200.000	-0.031	-0.195
-276.428	327.319	-0.085	0.162
-275.413	-151.733	-0.134	0.010
-274.399	-17.954	0.136	-0.085
-273.384	-97.162	-0.050	-0.013
-272.370	-200.000	-0.001	0.096
-271.355	-200.000	-0.007	0.269
-270.340	-29.473	-0.135	-0.076
-269.326	-120.280	-0.178	0.030
-268.311	-41.687	-0.192	-0.098
-267.297	800.000	-0.044	0.177
-266.282	-83.596	0.261	-0.083
-265.267	-200.000	-0.075	0.482
-264.253	-127.999	0.248	-0.035
-263.238	-86.046	-0.060	-0.018
-262.224	-135.090	0.102	-0.012
-261.209	-35.528	0.073	-0.039
-260.195	105.109	-0.277	0.324
-259.180	495.206	-0.134	0.306
-258.165	240.180	-0.100	0.164
-257.151	-1.226	-0.148	-0.104
-256.136	123.414	0.203	0.252
-255.122	124.144	-0.093	-0.116
-254.107	341.939	-0.047	0.091
-253.092	-131.740	-0.253	0.033
-252.078	-137.383	-0.347	0.039
-251.063	-162.887	0.275	-0.013
-250.049	-200.000	-0.033	-0.203
-249.034	-91.900	-0.038	0.011
-248.019	800.000	0.054	0.190
-247.005	-183.673	-0.213	-0.004
-245.990	51.240	-0.219	-0.206
-244.976	-9.550	0.153	0.101
-243.961	178.231	-0.146	-0.211
-242.946	-108.206	0.177	0.038
-241.932	-123.778	0.359	-0.056
-240.917	-47.211	0.126	0.061
-239.903	800.000	-0.045	0.167
-238.888	-40.504	0.182	0.093
-237.873	-70.940	-0.181	-0.067
-236.859	-40.344	0.283	0.146
-235.844	-48.993	0.455	-0.216
-234.830	314.395	-0.018	-0.034
-233.815	321.692	0.175	-0.329
-232.800	-124.829	-0.083	-0.013
-231.786	126.939	0.088	0.110
-230.771	-146.952	0.225	0.019
-229.757	412.084	0.088	0.186
-228.742	14.061	0.259	0.200
-227.727	-200.000	-0.054	-0.290
-226.713	387.297	0.119	0.244
-225.698	-12.717	-0.125	0.081
-224.684	-184.163	0.296	0.005
-223.669	271.496	0.106	0.185
-222.655	315.827	0.096	0.180
-221.640	73.673	-0.027	0.028
-220.625	-39.215	0.171	-0.089
-219.611	85.867	-0.130	-0.142
-218.596	301.329	-0.179	-0.328
-217.582	264.032	0.102	-0.175
-216.567	-120.540	0.201	0.034
-215.552	272.482	-0.078	-0.136
-214.538	-200.000	0.031	-0.435
-213.523	54.285	-0.144	-0.137
-212.509	-200.000	-0.006	-0.112
-211.494	-84.488	0.049	-0.015
-210.479	34.171	-0.153	0.132
-209.465	-65.913	-0.155	0.061
-208.450	-2.430	-0.066	-0.045
-207.436	-200.000	0.013	0.074
-206.421	-159.937	0.319	-0.017
-205.406	104.857	-0.106	0.124
-204.392	-182.381	0.270	-0.005
-203.377	187.368	-0.158	-0.233
-202.363	-122.073	0.357	-0.058
-201.348	-176.252	0.241	0.006
-200.333	-104.009	0.304	0.070
-199.319	-103.835	0.355	0.082
-198.304	557.430	-0.113	0.268
-197.290	-200.000	-0.029	-0.301
-196.275	-91.035	-0.070	0.020
-195.260	133.443	-0.212	0.271
-194.246	800.000	-0.032	0.138
-193.231	-200.000	0.053	-0.375
-192.217	110.837	0.106	-0.126
-191.202	-57.291	0.246	-0.107
-190.187	-123.364	0.103	-0.016
-189.173	800.000	0.013	0.045
-188.158	800.000	-0.048	0.139
-187.144	-200.000	-0.038	0.364
-186.129	-29.066	0.048	0.027
-185.114	369.538	-0.064	-0.128
-184.100	90.953	-0.097	0.108
-183.085	-102.057	0.339	0.081
-182.071	221.579	-0.065	-0.103
-181.056	242.862	0.168	0.278
-180.042	335.564	0.101	0.193
-179.027	-61.989	-0.204	-0.084
-178.012	-107.988	0.216	0.046
-176.998	-200.000	0.016	-0.103
-175.983	-156.830	0.338	-0.021
-174.969	457.334	0.053	-0.117
-173.954	-62.791	-0.261	-0.107
-172.939	28.115	0.098	0.081
-171.925	58.340	0.056	-0.054
-170.910	-143.718	0.476	0.045
-169.896	-104.796	0.231	-0.052
-168.881	32.918	-0.315	0.269
-167.866	-68.220	-0.209	0.080
-166.852	-200.000	-0.010	-0.113
-165.837	-43.461	0.036	0.018
-164.823	-200.000	0.067	-0.309
-163.808	8.631	-0.140	-0.104
-162.793	104.400	-0.033	-0.039
-161.779	766.322	-0.170	0.457
-160.764	390.439	0.081	0.165
-159.750	-103.839	-0.108	-0.025
-158.735	-64.478	-0.219	-0.088
-157.720	138.106	-0.135	0.175
-156.706	-200.000	0.018	0.099
-155.691	77.450	-0.137	-0.144
-154.677	-82.542	-0.268	-0.086
-153.662	314.865	0.139	0.258
-152.647	-108.959	0.240	-0.050
-151.633	-200.000	0.057	-0.340
-150.618	-200.000	-0.066	-0.415
-149.604	56.752	0.135	-0.130
-148.589	188.185	0.014	0.020
-147.574	193.728	0.076	-0.113
-146.560	-133.577	0.289	0.036
-145.545	42.832	0.075	0.068
-144.531	-67.865	-0.186	-0.072
-143.516	-200.000	-0.058	0.356
-142.502	162.007	0.049	0.067
-141.487	800.000	-0.166	0.472
-140.472	279.483	-0.185	0.325
-139.458	-46.327	-0.105	0.051
-138.443	-70.608	0.244	-0.091
-137.429	32.883	0.226	0.193
-136.414	-200.000	-0.046	0.345
-135.399	-116.653	-0.454	0.082
-134.385	56.191	0.072	0.069
-133.370	114.816	0.259	0.311
-132.356	-87.228	0.073	-0.022
-131.341	-93.187	-0.058	0.016
-130.326	800.000	0.044	0.129
-129.312	141.842	-0.191	-0.249
-128.297	548.671	0.026	0.062
-127.283	60.652	0.182	0.177
-126.268	-119.213	-0.210	0.036
-125.253	-200.000	0.023	0.353
-124.239	-200.000	0.009	0.068
-123.224	-142.728	0.115	0.011
-122.210	-52.688	0.223	-0.101
