DTS Sentinel unit serial number:	SN413079Multiplexer serial number:	ORYXHardware model number:	OX4-SRSoftware version number:	ORYX F/W v4.00 Oryx Data Collector v3.7.2.0data status	okinstallation	princeton_trtdifferential loss correction	single-endedforward channel	channel 1reverse channel	N/Adate	2019/09/15time	09:22:35forward acquisition time	60.00reverse acquisition time	0.00gamma	496.2192k internal	0.2312k external	0.2312temperature offset calibration	0.9984default loss term (dB/km)	0.3790temperature slope calibration	1.0000multiplexer offset coefficient	1.0000multiplexer slope coefficient	1.0000fibre end	0.00T internal ref (°C)	33.52T ext. ref 1 (°C)	4.97T ext. ref 2 (°C)	30.41length (m)	temperature (°C)	Stokes	anti-Stokes-747.200	214.642	0.074	0.119
-746.185	800.000	0.104	-0.304
-745.171	-200.000	-0.040	0.290
-744.156	-67.606	-0.204	-0.081
-743.142	-73.889	-0.107	0.040
-742.127	-200.000	-0.009	0.378
-741.112	168.355	0.239	0.345
-740.098	-200.000	0.026	0.248
-739.083	292.969	0.011	0.021
-738.069	-132.964	0.503	0.065
-737.054	-3.675	-0.227	-0.160
-736.039	578.746	-0.022	-0.054
-735.025	104.302	0.122	0.146
-734.010	790.672	0.176	-0.492
-732.996	120.958	-0.242	-0.306
-731.981	348.399	0.116	0.233
-730.966	-26.589	-0.154	0.091
-729.952	-200.000	-0.053	-0.246
-728.937	-91.205	0.085	-0.025
-727.923	-200.000	0.004	0.139
-726.908	-109.547	0.110	-0.023
-725.894	-121.841	-0.286	-0.048
-724.879	-200.000	0.002	-0.058
-723.864	-146.312	-0.238	-0.021
-722.850	135.578	-0.175	-0.230
-721.835	-200.000	-0.024	-0.138
-720.821	-60.412	0.176	-0.076
-719.806	-118.910	-0.052	0.009
-718.791	800.000	-0.041	-0.126
-717.777	320.772	-0.085	-0.164
-716.762	646.883	-0.083	0.214
-715.748	-71.567	-0.212	-0.080
-714.733	217.510	0.054	-0.086
-713.718	800.000	-0.031	0.104
-712.704	-200.000	-0.000	-0.107
-711.689	31.597	0.121	0.105
-710.675	-90.561	0.251	-0.074
-709.660	-102.662	-0.145	-0.035
-708.645	-128.086	-0.195	0.028
-707.631	-94.328	-0.166	0.046
-706.616	-91.247	-0.127	-0.037
-705.602	25.987	0.037	0.031
-704.587	28.367	-0.036	0.031
-703.572	-116.475	0.404	0.076
-702.558	226.010	0.059	0.097
-701.543	-200.000	0.009	0.077
-700.529	800.000	0.051	-0.181
-699.514	304.600	0.107	0.200
-698.499	186.219	-0.040	0.061
-697.485	-116.755	0.198	-0.037
-696.470	-73.415	0.089	-0.033
-695.456	-114.023	-0.297	-0.058
-694.441	357.805	0.087	0.176
-693.426	800.000	-0.019	0.081
-692.412	-200.000	-0.011	0.174
-691.397	155.782	-0.060	0.083
-690.383	219.283	-0.113	-0.183
-689.368	-63.431	0.317	0.132
-688.354	12.924	0.082	0.064
-687.339	-200.000	0.035	-0.204
-686.324	800.000	-0.032	-0.116
-685.310	-33.360	-0.294	0.165
-684.295	140.406	0.048	0.064
-683.281	-156.329	-0.105	0.007
-682.266	-200.000	0.032	0.180
-681.251	-150.476	-0.044	-0.003
-680.237	90.483	0.186	-0.211
-679.222	115.457	0.308	0.381
-678.208	111.902	-0.324	0.396
-677.193	481.356	-0.057	0.130
-676.178	-200.000	0.032	-0.165
-675.164	-132.172	-0.143	-0.019
-674.149	-94.854	-0.321	-0.088
-673.135	-54.376	0.288	-0.132
-672.120	105.854	-0.165	-0.198
-671.105	-157.261	0.264	0.016
-670.091	-200.000	0.021	-0.215
-669.076	123.568	0.224	0.285
-668.062	131.356	0.070	0.091
-667.047	-8.995	0.242	-0.164
-666.032	-4.251	0.113	0.079
-665.018	800.000	0.081	-0.292
-664.003	100.616	0.162	-0.190
-662.989	312.927	-0.174	0.331
-661.974	201.482	-0.033	-0.052
-660.959	208.959	0.031	0.049
-659.945	-62.413	-0.183	-0.077
-658.930	-185.543	0.308	0.005
-657.916	171.072	0.097	-0.140
-656.901	7.163	0.068	-0.051
-655.886	-94.370	0.185	-0.051
-654.872	-200.000	-0.047	-0.226
-653.857	-57.702	-0.109	-0.048
-652.843	800.000	-0.072	-0.310
-651.828	-200.000	0.010	-0.189
-650.814	100.900	-0.104	-0.123
-649.799	-80.290	0.374	-0.127
-648.784	-132.766	-0.046	0.006
-647.770	688.773	0.043	0.114
-646.755	800.000	0.098	-0.396
-645.741	87.719	-0.207	-0.232
-644.726	-94.375	0.259	-0.071
-643.711	75.567	-0.184	0.196
-642.697	168.817	-0.082	-0.118
-641.682	800.000	0.063	-0.187
-640.668	800.000	0.022	0.066
-639.653	60.455	-0.065	0.065
-638.638	509.619	0.128	-0.301
-637.624	-149.040	0.386	-0.031
-636.609	800.000	-0.049	0.189
-635.595	46.667	-0.146	-0.137
-634.580	196.729	-0.114	-0.175
-633.565	204.088	0.106	0.166
-632.551	-72.100	0.344	0.129
-631.536	-200.000	-0.004	-0.109
-630.522	-104.872	0.043	-0.010
-629.507	88.503	0.100	0.113
-628.492	151.150	-0.127	-0.175
-627.478	-4.703	0.245	0.171
-626.463	-132.864	0.180	-0.023
-625.449	-200.000	-0.021	-0.378
-624.434	-76.476	-0.237	-0.084
-623.419	-200.000	-0.053	0.359
-622.405	329.560	-0.175	0.339
-621.390	245.149	-0.064	-0.108
-620.376	800.000	0.020	-0.088
-619.361	109.888	0.344	-0.416
-618.346	-64.684	-0.108	0.044
-617.332	-141.445	-0.420	0.043
-616.317	450.265	-0.030	-0.066
-615.303	104.767	0.398	0.474
-614.288	-117.600	-0.235	0.043
-613.273	112.697	-0.105	-0.128
-612.259	88.296	0.152	0.170
-611.244	-105.925	0.085	0.019
-610.230	-119.053	-0.190	-0.034
-609.215	-145.833	-0.358	-0.032
-608.201	207.579	-0.247	-0.389
-607.186	800.000	-0.074	0.274
-606.171	104.531	-0.033	-0.039
-605.157	-200.000	-0.000	0.095
-604.142	-200.000	-0.012	-0.125
-603.128	267.302	-0.134	-0.237
-602.113	-200.000	0.013	-0.154
-601.098	447.751	0.193	-0.430
-600.084	-200.000	0.014	0.155
-599.069	58.076	0.119	0.117
-598.055	93.557	-0.153	-0.174
-597.040	800.000	-0.016	0.068
-596.025	-92.336	0.148	0.042
-595.011	-30.272	0.129	0.074
-593.996	175.909	0.109	-0.160
-592.982	218.861	0.186	-0.300
-591.967	481.538	0.108	0.246
-590.952	-34.405	-0.148	-0.082
-589.938	548.114	-0.167	-0.403
-588.923	20.164	0.156	0.127
-587.909	-200.000	0.053	0.377
-586.894	-78.942	-0.185	0.063
-585.879	95.021	-0.181	0.208
-584.865	-73.935	-0.285	0.104
-583.850	-138.694	-0.353	0.039
-582.836	-157.273	0.085	0.005
-581.821	-121.018	0.318	0.054
-580.806	296.552	-0.107	-0.197
-579.792	3.729	-0.153	-0.112
-578.777	80.151	-0.194	0.210
-577.763	27.486	0.172	0.146
-576.748	-7.838	0.190	-0.129
-575.733	411.706	-0.041	0.087
-574.719	489.141	0.095	-0.219
-573.704	45.604	-0.226	0.211
-572.690	21.187	-0.110	0.090
-571.675	800.000	-0.059	-0.191
-570.661	-79.576	-0.138	0.047
-569.646	71.813	-0.019	0.020
-568.631	-58.958	-0.195	-0.085
-567.617	45.360	0.185	-0.172
-566.602	-55.595	0.031	0.014
-565.588	53.707	0.121	0.117
-564.573	-32.538	-0.304	-0.171
-563.558	800.000	-0.085	-0.276
-562.544	800.000	0.012	0.037
-561.529	-200.000	-0.030	-0.167
-560.515	4.108	0.163	0.120
-559.500	800.000	0.079	0.292
-558.485	166.919	0.157	0.224
-557.471	171.602	0.206	0.297
-556.456	-133.334	-0.355	-0.045
-555.442	359.613	-0.036	0.072
-554.427	-200.000	-0.057	-0.369
-553.412	369.194	0.090	0.183
-552.398	-25.675	0.113	0.067
-551.383	105.435	-0.122	-0.145
-550.369	-137.533	0.378	0.043
-549.354	-156.885	0.250	0.015
-548.339	-200.000	0.064	0.374
-547.325	-192.128	-0.106	0.001
-546.310	-200.000	0.025	-0.144
-545.296	564.529	0.026	-0.065
-544.281	204.524	-0.131	-0.204
-543.266	402.794	-0.102	-0.217
-542.252	-162.994	-0.225	0.011
-541.237	317.296	0.012	-0.022
-540.223	-125.341	0.387	-0.059
-539.208	325.071	0.133	-0.255
-538.193	-200.000	0.007	-0.214
-537.179	-75.140	0.182	0.065
-536.164	2.190	0.052	0.038
-535.150	-68.649	0.084	0.033
-534.135	295.880	-0.073	0.134
-533.121	-167.737	-0.276	0.011
-532.106	-74.391	-0.130	0.047
-531.091	-181.863	0.040	-0.001
-530.077	-82.433	-0.320	-0.105
-529.062	100.340	0.245	0.286
-528.048	-200.000	-0.035	0.225
-527.033	-200.000	-0.022	-0.130
-526.018	594.011	-0.106	0.265
-525.004	537.354	0.026	0.061
-523.989	396.384	-0.148	-0.311
-522.975	-200.000	-0.029	-0.166
-521.960	-113.683	0.304	-0.060
-520.945	595.555	0.086	0.214
-519.931	149.668	0.055	0.075
-518.916	-200.000	0.023	-0.126
-517.902	-51.635	0.124	0.058
-516.887	12.175	-0.096	0.074
-515.872	23.718	0.210	-0.174
-514.858	-200.000	0.003	-0.102
-513.843	395.406	-0.068	-0.142
-512.829	-33.175	-0.172	-0.096
-511.814	181.587	-0.110	-0.163
-510.799	35.342	0.182	-0.160
-509.785	-2.721	-0.217	-0.153
-508.770	172.673	-0.087	0.126
-507.756	-95.785	-0.187	0.050
-506.741	14.732	0.211	0.166
-505.726	-53.537	-0.029	-0.013
-504.712	465.856	-0.164	-0.369
-503.697	22.931	0.198	0.163
-502.683	-143.179	0.269	-0.026
-501.668	730.385	-0.069	-0.185
-500.653	-172.658	-0.178	0.006
-499.639	-74.009	0.185	0.068
-498.624	800.000	0.040	-0.161
-497.610	189.552	-0.106	0.160
-496.595	-65.701	0.131	-0.053
-495.581	102.704	0.074	0.087
-494.566	-75.639	-0.127	-0.045
-493.551	-153.064	-0.330	0.023
-492.537	-200.000	-0.003	-0.083
-491.522	183.504	-0.107	0.159
-490.508	800.000	0.048	0.184
-489.493	-105.162	0.162	-0.037
-488.478	-192.942	-0.097	0.001
-487.464	-81.041	0.341	0.114
-486.449	800.000	0.111	0.356
-485.435	-32.958	0.127	0.071
-484.420	-80.056	0.252	0.085
-483.405	-103.447	-0.309	0.073
-482.391	55.448	-0.292	0.284
-481.376	-54.631	0.176	-0.080
-480.362	-200.000	0.000	0.308
-479.347	166.465	-0.107	0.152
-478.332	-200.000	-0.009	-0.146
-477.318	-200.000	0.003	-0.096
-476.303	-200.000	-0.024	-0.185
-475.289	365.125	-0.192	-0.388
-474.274	-40.623	-0.120	-0.063
-473.259	-200.000	-0.348	-0.001
-472.245	-200.000	-0.019	-0.202
-471.230	800.000	0.029	-0.086
-470.216	-200.000	-0.048	-0.239
-469.201	30.628	-0.181	-0.155
-468.186	-151.806	-0.156	-0.011
-467.172	-200.000	-0.049	0.269
-466.157	84.403	0.089	-0.098
-465.143	-88.839	0.179	-0.053
-464.128	12.778	0.094	-0.073
-463.113	22.876	0.183	0.151
-462.099	-85.695	0.059	-0.018
-461.084	-6.851	-0.332	-0.227
-460.070	-200.000	-0.007	0.151
-459.055	-121.874	0.146	0.024
-458.040	-84.152	-0.199	-0.063
-457.026	142.876	0.166	-0.221
-456.011	-102.981	0.317	-0.075
-454.997	800.000	-0.077	0.248
-453.982	-200.000	-0.008	0.138
-452.968	-132.843	-0.120	0.015
-451.953	-200.000	-0.026	0.119
-450.938	800.000	-0.062	0.188
-449.924	361.286	-0.077	0.156
-448.909	-200.000	-0.004	-0.066
-447.895	-3.548	0.406	-0.283
-446.880	-84.055	0.243	-0.078
-445.865	-2.968	-0.172	0.121
-444.851	-200.000	0.071	-0.379
-443.836	168.278	0.086	-0.123
-442.822	85.245	-0.173	0.191
-441.807	-200.000	0.003	0.041
-440.792	-81.014	0.170	0.056
-439.778	-108.001	-0.119	-0.026
-438.763	671.783	0.015	0.038
-437.749	121.230	0.051	0.064
-436.734	43.203	-0.128	-0.117
-435.719	20.625	0.132	-0.107
-434.705	758.495	0.109	0.296
-433.690	120.470	0.149	0.185
-432.676	362.309	-0.032	0.064
-431.661	-200.000	-0.003	-0.194
-430.646	74.259	-0.040	0.042
-429.632	-30.963	0.276	0.156
-428.617	-110.242	0.191	0.040
-427.603	-191.551	-0.102	0.001
-426.588	-92.901	-0.389	-0.109
-425.573	800.000	0.058	-0.243
-424.559	-200.000	0.003	-0.096
-423.544	150.547	0.027	-0.036
-422.530	35.570	0.130	-0.115
-421.515	-41.565	-0.394	-0.203
-420.500	-98.769	-0.178	-0.045
-419.486	-147.484	0.218	-0.018
-418.471	-200.000	0.000	-0.212
-417.457	13.255	-0.117	-0.091
-416.442	-54.789	-0.075	0.034
-415.428	-18.243	-0.156	-0.098
-414.413	-81.031	-0.108	-0.036
-413.398	93.932	0.195	0.222
-412.384	-200.000	0.060	0.381
-411.369	-140.918	0.241	-0.025
-410.355	80.427	0.177	-0.191
-409.340	5.169	0.269	-0.199
-408.325	42.094	-0.353	-0.321
-407.311	153.584	-0.048	0.065
-406.296	137.283	-0.116	0.152
-405.282	118.884	-0.095	-0.117
-404.267	-150.139	0.285	-0.022
-403.252	153.184	-0.140	0.192
-402.238	-200.000	0.017	0.427
-401.223	-42.553	-0.071	-0.036
-400.209	-49.782	-0.057	0.027
-399.194	-125.178	0.078	0.012
-398.179	23.672	-0.188	-0.155
-397.165	-200.000	0.016	0.210
-396.150	74.344	-0.055	0.058
-395.136	174.551	-0.054	0.079
-394.121	1.667	0.190	0.137
-393.106	91.488	0.060	0.068
-392.092	-77.961	0.108	0.037
-391.077	-21.148	-0.112	-0.068
-390.063	-66.538	-0.223	-0.089
-389.048	-104.062	0.087	-0.020
-388.033	-200.000	-0.049	-0.250
-387.019	-149.267	-0.283	-0.023
-386.004	-166.695	-0.212	-0.009
-384.990	-200.000	-0.002	-0.107
-383.975	175.349	-0.051	0.074
-382.960	-200.000	0.013	-0.285
-381.946	-149.642	0.262	-0.021
-380.931	800.000	0.051	0.193
-379.917	800.000	-0.059	0.208
-378.902	-157.508	0.181	-0.011
-377.888	121.923	0.179	-0.223
-376.873	-67.771	0.266	0.104
-375.858	55.474	-0.125	0.121
-374.844	-41.020	0.121	0.063
-373.829	30.030	0.099	0.085
-372.815	-141.454	0.332	0.034
-371.800	153.306	0.241	0.330
-370.785	-29.030	-0.130	0.074
-369.771	-44.421	0.099	-0.049
-368.756	-95.933	0.428	0.114
-367.742	-200.000	0.073	-0.435
-366.727	-131.525	-0.465	-0.061
-365.712	-172.938	0.134	0.004
-364.698	-86.898	-0.216	0.066
-363.683	371.182	0.061	-0.123
-362.669	-200.000	0.012	-0.357
-361.654	-117.593	0.155	0.028
-360.639	-200.000	0.067	-0.299
-359.625	-159.410	0.077	0.004
-358.610	-75.110	-0.178	0.064
-357.596	800.000	-0.083	0.245
-356.581	343.886	0.099	0.193
-355.566	484.009	-0.106	-0.241
-354.552	-20.301	-0.254	-0.156
-353.537	-200.000	0.030	0.232
-352.523	45.187	-0.231	-0.213
-351.508	-200.000	-0.020	0.241
-350.493	-200.000	0.031	-0.292
-349.479	-0.394	0.050	-0.035
-348.464	141.507	-0.063	0.083
-347.450	-169.024	-0.124	-0.005
-346.435	-121.183	-0.496	-0.083
-345.420	89.899	-0.075	-0.083
-344.406	297.384	0.138	-0.253
-343.391	84.845	-0.024	-0.026
-342.377	152.983	-0.046	-0.063
-341.362	800.000	0.056	-0.175
-340.348	-103.028	-0.147	0.035
-339.333	-10.188	-0.034	-0.022
-338.318	55.814	-0.064	-0.062
-337.304	-81.863	-0.114	-0.037
-336.289	-12.306	-0.181	-0.118
-335.275	800.000	-0.028	-0.100
-334.260	287.171	0.114	-0.206
-333.245	800.000	-0.080	0.261
-332.231	-35.297	0.183	0.099
-331.216	-200.000	-0.000	-0.229
-330.202	259.663	0.097	-0.167
-329.187	-48.268	0.114	-0.055
-328.172	117.762	-0.118	-0.145
-327.158	-77.906	-0.157	-0.054
-326.143	-0.410	-0.251	0.178
-325.129	-97.953	-0.234	-0.060
-324.114	-115.292	0.262	-0.049
-323.099	357.843	-0.065	-0.130
-322.085	800.000	0.086	-0.317
-321.070	-22.979	-0.274	-0.165
-320.056	800.000	-0.046	-0.140
-319.041	107.842	0.096	0.114
-318.026	144.630	0.153	-0.204
-317.012	203.830	-0.076	-0.117
-315.997	36.779	-0.036	0.032
-314.983	0.061	-0.172	0.122
-313.968	-200.000	0.013	0.155
-312.953	47.636	0.265	0.247
-311.939	710.592	0.037	0.098
-310.924	-200.000	0.030	-0.172
-309.910	-111.038	0.207	-0.042
-308.895	135.554	-0.127	0.164
-307.880	276.423	-0.131	0.233
-306.866	800.000	0.093	0.318
-305.851	-34.274	0.174	0.095
-304.837	36.757	0.251	-0.221
-303.822	-25.216	-0.240	0.142
-302.807	0.693	-0.343	-0.245
-301.793	-100.292	-0.253	-0.063
-300.778	-200.000	0.006	-0.181
-299.764	-109.140	-0.339	0.072
-298.749	339.864	0.039	0.076
-297.735	-6.152	0.152	-0.104
-296.720	4.018	0.345	-0.252
-295.705	800.000	0.093	0.320
-294.691	-200.000	-0.002	-0.105
-293.676	156.212	-0.153	-0.210
-292.662	33.895	0.089	0.077
-291.647	800.000	-0.027	0.087
-290.632	-77.194	0.085	0.029
-289.618	-33.553	-0.208	-0.114
-288.603	-179.766	0.207	0.004
-287.589	-175.728	-0.167	-0.004
-286.574	-26.099	0.283	0.166
-285.559	-91.974	-0.057	0.016
-284.545	233.020	0.071	-0.116
-283.530	-11.935	0.136	-0.089
-282.516	800.000	0.072	-0.242
-281.501	-39.337	-0.195	0.102
-280.486	-60.017	0.098	-0.042
-279.472	116.294	0.144	0.176
-278.457	-17.983	-0.142	0.088
-277.443	800.000	0.009	0.031
-276.428	82.895	0.204	0.221
-275.413	89.076	-0.076	0.085
-274.399	-200.000	-0.004	0.323
-273.384	239.616	-0.065	0.109
-272.370	122.862	0.180	-0.224
-271.355	-200.000	0.034	0.384
-270.340	800.000	-0.066	0.219
-269.326	800.000	-0.091	0.350
-268.311	-200.000	0.033	-0.342
-267.297	-20.628	0.239	-0.146
-266.282	-113.980	0.067	0.013
-265.267	-96.424	0.062	0.016
-264.253	51.683	-0.056	0.053
-263.238	-121.112	0.275	-0.046
-262.224	800.000	0.115	-0.378
-261.209	-49.738	-0.291	-0.138
-260.195	-200.000	0.006	-0.028
-259.180	-200.000	-0.047	0.328
-258.165	-39.518	0.226	0.118
-257.151	-90.203	0.206	0.060
-256.136	28.464	0.180	0.151
-255.122	-12.644	-0.100	-0.065
-254.107	800.000	-0.010	0.032
-253.092	72.722	0.213	-0.221
-252.078	398.426	-0.012	-0.024
-251.063	67.623	0.385	0.392
-250.049	156.469	-0.119	0.164
-249.034	-24.806	-0.331	-0.196
-248.019	-6.977	0.061	-0.041
-247.005	57.079	0.193	0.188
-245.990	-7.545	0.108	0.073
-244.976	-34.879	0.197	-0.107
-243.961	310.774	0.107	-0.199
-242.946	97.692	0.074	0.085
-241.932	101.982	-0.067	-0.077
-240.917	800.000	-0.107	0.343
-239.903	-75.283	0.350	0.124
-238.888	224.306	0.092	-0.148
-237.873	-144.381	0.026	-0.002
-236.859	-200.000	-0.042	0.269
-235.844	-143.952	-0.095	0.009
-234.830	-200.000	0.051	0.270
-233.815	-21.749	-0.300	0.182
-232.800	-44.702	-0.431	0.214
-231.786	-39.055	0.319	-0.167
-230.771	17.662	-0.131	0.104
-229.757	16.142	-0.166	0.130
-228.742	-200.000	-0.001	-0.105
-227.727	-136.903	-0.217	0.025
-226.713	199.368	0.064	-0.098
-225.698	800.000	-0.088	0.302
-224.684	738.261	-0.072	0.193
-223.669	-112.005	-0.176	0.035
-222.655	664.908	-0.070	0.181
-221.640	-142.397	-0.042	0.004
-220.625	224.348	0.017	0.027
-219.611	596.347	0.022	-0.054
-218.596	84.237	0.312	-0.339
-217.582	-57.822	-0.157	0.068
-216.567	136.215	0.159	0.206
-215.552	-200.000	-0.077	0.337
-214.538	800.000	-0.137	-0.484
-213.523	20.030	0.073	0.058
-212.509	-15.913	-0.156	0.098
-211.494	583.034	0.197	-0.481
-210.479	91.743	0.128	0.143
-209.465	-76.433	-0.077	0.027
-208.450	-45.618	0.222	0.109
-207.436	-200.000	0.041	0.294
-206.421	-39.937	-0.394	-0.204
-205.406	-200.000	0.010	0.140
-204.392	-168.166	0.158	0.006
-203.377	69.948	-0.269	-0.276
-202.363	149.622	0.101	-0.136
-201.348	-26.308	0.111	0.064
-200.333	97.580	-0.149	-0.170
-199.319	334.387	-0.100	0.192
-198.304	-200.000	-0.001	0.260
-197.290	673.801	0.029	0.076
-196.275	-17.034	0.095	-0.060
-195.260	385.671	-0.038	0.078
-194.246	40.164	-0.244	0.218
-193.231	-165.031	0.269	-0.012
-192.217	454.766	0.103	0.227
-191.202	56.126	0.067	-0.065
-190.187	62.914	-0.111	-0.110
-189.173	12.737	0.156	0.119
-188.158	-37.110	-0.375	-0.200
-187.144	-200.000	0.013	0.087
-186.129	-78.151	0.378	0.129
-185.114	28.023	0.178	-0.149
-184.100	273.379	-0.079	-0.138
-183.085	800.000	-0.062	0.210
-182.071	-62.863	0.381	0.157
-181.056	534.668	0.062	-0.147
-180.042	-55.504	-0.303	-0.135
-179.027	-136.861	-0.242	-0.028
-178.012	-22.573	0.165	-0.099
-176.998	-200.000	0.100	0.000
-175.983	-200.000	-0.029	0.132
-174.969	-21.365	-0.039	-0.024
-173.954	98.418	0.058	0.067
-172.939	137.735	-0.104	0.136
-171.925	36.523	-0.106	-0.093
-170.910	-30.782	-0.346	0.194
-169.896	22.724	-0.169	-0.138
-168.881	11.662	-0.117	-0.089
-167.866	800.000	-0.083	-0.255
-166.852	11.404	-0.114	-0.086
-165.837	-46.591	0.090	0.044
-164.823	-200.000	-0.017	0.334
-163.808	-28.186	-0.383	0.220
-162.793	116.621	-0.267	0.325
-161.779	-45.389	0.218	0.107
-160.764	-117.093	0.271	0.049
-159.750	-200.000	-0.021	0.125
-158.735	365.774	-0.055	-0.110
-157.720	51.882	0.142	0.134
-156.706	185.123	0.130	-0.191
-155.691	-200.000	0.037	0.311
-154.677	29.886	0.095	-0.080
-153.662	88.000	0.217	0.239
-152.647	-113.213	-0.092	0.018
-151.633	2.435	0.114	0.082
-150.618	-76.768	0.117	-0.041
-149.604	800.000	0.104	0.317
-148.589	-200.000	-0.027	0.235
-147.574	-30.208	-0.136	0.077
-146.560	79.943	0.097	-0.103
-145.545	-200.000	0.034	0.284
-144.531	800.000	-0.071	0.265
-143.516	800.000	0.015	0.064
-142.502	-200.000	0.044	-0.381
-141.487	-33.670	0.178	0.097
-140.472	-200.000	0.049	-0.297
-139.458	97.803	-0.050	-0.058
-138.443	-79.902	-0.152	0.051
-137.429	503.224	-0.162	0.372
-136.414	79.643	0.249	0.265
-135.399	-67.869	0.303	-0.117
-134.385	511.067	-0.043	-0.100
-133.370	-200.000	0.039	-0.214
-132.356	-8.751	0.322	0.214
-131.341	559.927	0.052	-0.123
-130.326	51.188	0.293	0.275
-129.312	-129.201	0.298	-0.041
-128.297	300.771	-0.090	0.164
-127.283	-200.000	0.025	0.111
-126.268	800.000	0.017	-0.056
-125.253	-39.038	0.105	-0.055
-124.239	-148.425	-0.342	-0.028
-123.224	270.316	0.030	0.052
-122.210	-150.896	0.198	0.015
-121.195	-38.683	-0.100	-0.052
