DTS Sentinel unit serial number:	SN413079Multiplexer serial number:	ORYXHardware model number:	OX4-SRSoftware version number:	ORYX F/W v4.00 Oryx Data Collector v3.7.2.0data status	okinstallation	princeton_trtdifferential loss correction	single-endedforward channel	channel 1reverse channel	N/Adate	2019/09/16time	05:06:35forward acquisition time	60.00reverse acquisition time	0.00gamma	496.2192k internal	0.2332k external	0.2332temperature offset calibration	0.9983default loss term (dB/km)	0.3790temperature slope calibration	1.0000multiplexer offset coefficient	1.0000multiplexer slope coefficient	1.0000fibre end	0.00T internal ref (°C)	27.19T ext. ref 1 (°C)	11.02T ext. ref 2 (°C)	22.11length (m)	temperature (°C)	Stokes	anti-Stokes-747.200	-6.431	-0.121	0.083
-746.185	800.000	0.018	0.060
-745.171	800.000	-0.126	-0.446
-744.156	164.199	0.053	0.075
-743.142	-72.931	-0.395	0.146
-742.127	-37.706	-0.262	0.141
-741.112	-78.285	-0.130	-0.045
-740.098	359.450	-0.123	-0.248
-739.083	-66.583	0.307	-0.122
-738.069	-200.000	0.009	-0.148
-737.054	103.184	-0.112	0.133
-736.039	346.498	-0.093	-0.184
-735.025	-200.000	0.022	-0.187
-734.010	-86.650	0.323	-0.099
-732.996	-118.655	-0.131	-0.023
-731.981	210.639	-0.113	-0.179
-730.966	800.000	0.063	-0.234
-729.952	-181.958	0.122	-0.002
-728.937	-200.000	0.007	0.197
-727.923	151.640	-0.180	-0.247
-726.908	-200.000	-0.004	0.193
-725.894	180.712	-0.110	-0.162
-724.879	24.234	0.140	0.116
-723.864	-87.637	-0.411	-0.125
-722.850	91.960	-0.179	-0.203
-721.835	258.138	0.052	-0.090
-720.821	198.732	-0.125	-0.192
-719.806	-43.232	0.290	0.148
-718.791	630.775	0.112	-0.285
-717.777	-200.000	0.070	0.321
-716.762	83.809	-0.118	-0.129
-715.748	162.691	0.066	-0.093
-714.733	-200.000	-0.000	-0.215
-713.718	-101.818	-0.330	-0.080
-712.704	248.141	0.146	-0.249
-711.689	-200.000	0.007	-0.055
-710.675	-36.254	-0.248	0.134
-709.660	-113.989	0.131	0.026
-708.645	160.344	-0.136	-0.191
-707.631	509.090	-0.186	-0.433
-706.616	-160.196	0.427	-0.023
-705.602	-87.873	0.232	0.070
-704.587	263.606	0.158	-0.275
-703.572	-178.736	-0.276	-0.006
-702.558	19.439	0.154	0.125
-701.543	800.000	0.041	-0.126
-700.529	291.087	0.144	-0.263
-699.514	-139.620	-0.349	0.037
-698.499	-140.735	-0.213	0.022
-697.485	772.561	0.126	-0.346
-696.470	-137.916	-0.174	0.020
-695.456	-33.100	0.288	0.160
-694.441	136.898	-0.210	0.275
-693.426	800.000	0.038	-0.149
-692.412	-126.894	0.025	-0.004
-691.397	-97.389	0.037	-0.010
-690.383	281.381	0.211	-0.379
-689.368	800.000	-0.101	-0.323
-688.354	800.000	-0.149	0.521
-687.339	-76.403	-0.154	-0.054
-686.324	-200.000	0.015	-0.179
-685.310	-97.995	0.241	0.062
-684.295	-35.035	0.123	-0.067
-683.281	48.358	-0.258	-0.242
-682.266	548.868	-0.192	0.462
-681.251	139.478	0.115	0.152
-680.237	-96.682	0.164	0.043
-679.222	543.221	0.047	-0.112
-678.208	-12.706	-0.169	0.110
-677.193	-200.000	-0.005	0.076
-676.178	187.158	0.160	-0.239
-675.164	-77.868	0.235	-0.081
-674.149	-168.860	-0.210	0.008
-673.135	-195.971	-0.119	-0.001
-672.120	-70.156	0.248	-0.095
-671.105	146.299	-0.231	-0.312
-670.091	430.409	0.024	0.052
-669.076	94.062	-0.335	0.381
-668.062	204.493	-0.050	0.077
-667.047	105.710	-0.081	0.096
-666.032	526.386	-0.130	-0.306
-665.018	87.888	0.124	-0.138
-664.003	-200.000	0.031	0.395
-662.989	344.632	-0.148	0.291
-661.974	-25.546	0.029	0.017
-660.959	144.660	-0.167	-0.224
-659.945	30.789	0.121	-0.104
-658.930	124.964	-0.123	-0.155
-657.916	-200.000	0.021	-0.148
-656.901	175.121	-0.064	0.093
-655.886	496.728	-0.030	0.070
-654.872	118.407	-0.055	-0.068
-653.857	660.364	0.015	0.038
-652.843	800.000	-0.099	0.410
-651.828	-200.000	-0.055	0.367
-650.814	45.817	0.061	0.057
-649.799	264.622	-0.060	0.104
-648.784	800.000	0.048	0.169
-647.770	-199.973	-0.103	0.001
-646.755	-122.328	-0.166	0.027
-645.741	-37.199	-0.039	-0.021
-644.726	-22.734	0.142	-0.086
-643.711	-38.746	-0.226	-0.119
-642.697	191.636	-0.185	0.279
-641.682	-122.100	0.329	-0.054
-640.668	-113.229	0.137	0.027
-639.653	121.273	-0.140	-0.175
-638.638	-173.890	-0.197	0.006
-637.624	194.622	0.111	-0.168
-636.609	156.656	0.123	0.171
-635.595	-72.046	0.260	0.097
-634.580	-52.602	0.121	0.056
-633.565	-14.663	-0.263	-0.169
-632.551	-120.805	-0.245	-0.041
-631.536	-200.000	0.033	-0.148
-630.522	63.966	0.133	-0.134
-629.507	-59.249	-0.280	0.121
-628.492	-200.000	0.013	0.103
-627.478	-60.635	-0.401	-0.170
-626.463	45.535	0.142	0.131
-625.449	-47.662	-0.293	-0.143
-624.434	158.622	-0.145	-0.202
-623.419	41.233	-0.062	0.056
-622.405	-72.784	-0.086	0.032
-621.390	-189.213	0.282	-0.003
-620.376	256.471	0.076	-0.131
-619.361	154.221	-0.075	0.103
-618.346	-35.553	-0.051	-0.028
-617.332	800.000	-0.072	0.270
-616.317	-30.426	-0.249	-0.142
-615.303	-143.606	-0.070	-0.007
-614.288	-126.842	-0.172	0.025
-613.273	1.510	0.289	-0.208
-612.259	-120.412	0.110	-0.019
-611.244	-200.000	-0.005	0.241
-610.230	115.955	0.061	-0.075
-609.215	-82.360	-0.353	0.115
-608.201	-164.723	0.101	-0.005
-607.186	365.951	0.058	-0.117
-606.171	140.017	0.341	0.450
-605.157	-95.106	-0.046	-0.013
-604.142	179.232	0.110	-0.161
-603.128	800.000	0.087	0.295
-602.113	-88.334	-0.347	-0.104
-601.098	-96.185	-0.110	0.029
-600.084	19.575	0.180	0.145
-599.069	-46.593	-0.209	-0.102
-598.055	-72.690	-0.157	-0.058
-597.040	800.000	-0.057	-0.220
-596.025	-22.356	0.212	0.128
-595.011	-87.549	-0.268	-0.081
-593.996	139.485	0.095	-0.126
-592.982	-83.952	0.106	0.034
-591.967	25.337	-0.325	0.270
-590.952	124.310	0.240	0.302
-589.938	-200.000	-0.009	0.387
-588.923	93.557	-0.299	-0.339
-587.909	-24.570	-0.272	-0.162
-586.894	-75.091	-0.251	-0.090
-585.879	62.361	0.141	-0.141
-584.865	514.000	0.136	0.318
-583.850	800.000	-0.059	0.190
-582.836	-80.963	0.085	0.028
-581.821	-99.660	0.086	0.022
-580.806	-53.692	0.253	-0.115
-579.792	96.977	-0.335	-0.384
-578.777	-68.303	-0.097	-0.038
-577.763	455.292	-0.046	0.102
-576.748	387.618	-0.021	0.043
-575.733	-27.312	0.192	0.112
-574.719	-120.850	-0.188	-0.032
-573.704	651.903	-0.140	-0.358
-572.690	-0.336	0.177	-0.126
-571.675	-200.000	-0.015	-0.126
-570.661	-25.756	-0.233	-0.137
-569.646	-91.023	0.111	-0.032
-568.631	800.000	-0.044	-0.161
-567.617	-65.302	-0.266	0.107
-566.602	43.354	-0.059	0.054
-565.588	-139.921	0.116	0.012
-564.573	34.149	-0.183	-0.160
-563.558	28.588	0.181	0.153
-562.544	-90.445	-0.077	-0.022
-561.529	11.422	-0.163	0.125
-560.515	800.000	-0.097	-0.327
-559.500	114.409	0.029	0.036
-558.485	800.000	0.035	-0.106
-557.471	-200.000	0.004	-0.059
-556.456	800.000	0.045	-0.124
-555.442	-65.428	0.251	-0.101
-554.427	-105.818	-0.368	-0.083
-553.412	5.783	0.404	-0.298
-552.398	-200.000	0.001	0.340
-551.383	800.000	0.073	-0.236
-550.369	95.105	-0.177	-0.202
-549.354	-200.000	-0.012	0.162
-548.339	282.365	0.039	0.069
-547.325	-62.842	-0.196	-0.081
-546.310	-59.709	-0.349	-0.149
-545.296	800.000	0.066	0.248
-544.281	195.475	0.193	0.293
-543.266	-62.875	-0.302	-0.125
-542.252	800.000	0.052	-0.143
-541.237	780.629	-0.074	0.203
-540.223	-200.000	0.026	-0.204
-539.208	-114.988	0.394	0.075
-538.193	182.069	-0.095	0.139
-537.179	-136.523	0.226	-0.026
-536.164	-200.000	-0.039	-0.243
-535.150	-200.000	-0.003	0.074
-534.135	244.320	0.205	0.343
-533.121	-77.643	-0.116	0.040
-532.106	86.411	-0.190	0.209
-531.091	700.426	-0.089	-0.235
-530.077	-170.649	-0.402	0.014
-529.062	21.582	-0.127	0.103
-528.048	10.811	0.335	-0.255
-527.033	41.803	0.301	-0.272
-526.018	-39.595	0.512	0.268
-525.004	279.863	-0.133	0.236
-523.989	8.682	-0.243	0.182
-522.975	-200.000	0.011	-0.338
-521.960	-55.059	-0.156	-0.070
-520.945	567.704	-0.090	-0.218
-519.931	284.575	0.126	-0.227
-518.916	-101.135	0.243	-0.059
-517.902	-45.975	-0.261	-0.128
-516.887	-37.133	-0.335	-0.179
-515.872	12.066	-0.394	0.302
-514.858	-119.056	-0.323	0.056
-513.843	-190.628	0.160	-0.002
-512.829	155.237	-0.184	0.253
-511.814	250.798	0.128	0.218
-510.799	-34.221	0.287	-0.157
-509.785	123.795	0.090	0.113
-508.770	322.772	0.143	-0.272
-507.756	-123.783	-0.179	-0.028
-506.741	78.584	-0.102	-0.109
-505.726	75.532	-0.180	-0.190
-504.712	-97.268	-0.109	-0.028
-503.697	-49.385	0.226	-0.107
-502.683	426.674	0.047	-0.101
-501.668	-106.533	0.377	-0.084
-500.653	-133.105	0.089	0.011
-499.639	-11.457	-0.077	-0.051
-498.624	258.808	-0.097	-0.167
-497.610	4.731	-0.168	0.123
-496.595	-158.910	0.426	-0.024
-495.581	-146.962	-0.176	0.015
-494.566	45.628	-0.224	0.206
-493.551	755.327	-0.063	0.170
-492.537	-200.000	-0.057	-0.453
-491.522	-168.974	-0.058	0.002
-490.508	331.391	-0.049	0.093
-489.493	32.161	0.059	0.050
-488.478	-191.790	0.238	-0.002
-487.464	338.409	-0.096	0.186
-486.449	-200.000	0.035	0.257
-485.435	518.976	0.052	-0.122
-484.420	235.603	0.109	0.179
-483.405	-200.000	-0.015	-0.161
-482.391	-200.000	0.050	-0.229
-481.376	525.733	-0.086	0.203
-480.362	-101.113	-0.402	-0.098
-479.347	-103.456	0.246	0.058
-478.332	-35.102	-0.227	0.123
-477.318	478.900	0.098	0.221
-476.303	-54.848	0.415	0.187
-475.289	265.764	0.108	0.187
-474.274	-120.023	-0.223	-0.038
-473.259	6.795	-0.190	-0.140
-472.245	185.405	0.116	0.172
-471.230	136.961	0.146	0.189
-470.216	28.074	0.109	-0.092
-469.201	378.221	-0.064	0.130
-468.186	800.000	0.098	-0.363
-467.172	57.385	0.091	-0.089
-466.157	-102.599	-0.326	0.077
-465.143	34.067	0.047	-0.041
-464.128	571.027	-0.129	-0.313
-463.113	-40.148	0.240	0.124
-462.099	-200.000	-0.057	-0.306
-461.084	-200.000	0.015	-0.124
-460.070	12.435	0.132	-0.102
-459.055	49.542	-0.250	0.234
-458.040	23.127	0.362	0.296
-457.026	-200.000	0.001	0.166
-456.011	-95.192	0.202	0.054
-454.997	290.813	-0.164	0.296
-453.982	-10.795	-0.136	0.090
-452.968	-104.444	0.248	-0.057
-451.953	74.803	-0.145	0.151
-450.938	12.290	-0.210	0.161
-449.924	145.842	-0.116	-0.155
-448.909	-149.131	0.155	0.012
-447.895	800.000	0.087	-0.241
-446.880	-200.000	-0.062	-0.482
-445.865	-153.796	0.093	-0.006
-444.851	-30.951	-0.110	-0.062
-443.836	-66.163	0.082	-0.032
-442.822	629.217	-0.113	0.285
-441.807	151.546	-0.109	-0.147
-440.792	-65.420	-0.374	0.150
-439.778	490.387	0.053	0.121
-438.763	-50.778	0.255	-0.119
-437.749	16.678	0.162	-0.128
-436.734	-200.000	0.028	-0.342
-435.719	-116.354	-0.170	0.031
-434.705	-122.874	0.135	-0.022
-433.690	703.092	0.022	-0.058
-432.676	-200.000	-0.019	0.117
-431.661	-99.308	-0.322	0.081
-430.646	800.000	-0.054	-0.217
-429.632	-200.000	-0.079	0.520
-428.617	-48.562	-0.249	0.119
-427.603	217.788	0.292	0.463
-426.588	-98.689	0.408	0.103
-425.573	-102.466	-0.130	-0.031
-424.559	237.211	0.099	0.163
-423.544	-79.847	-0.152	-0.051
-422.530	111.348	-0.059	0.071
-421.515	-183.587	0.176	0.003
-420.500	800.000	0.037	-0.135
-419.486	800.000	0.006	0.025
-418.471	-99.937	0.091	-0.023
-417.457	-122.533	-0.232	-0.037
-416.442	-200.000	-0.002	-0.105
-415.428	-200.000	-0.004	-0.234
-414.413	23.378	0.363	0.296
-413.398	-64.371	-0.187	0.076
-412.384	74.330	0.184	-0.192
-411.369	6.819	0.181	0.134
-410.355	309.097	-0.076	0.140
-409.340	302.662	0.121	0.223
-408.325	-85.190	-0.124	-0.039
-407.311	22.685	-0.154	0.125
-406.296	800.000	-0.021	-0.070
-405.282	-158.256	-0.332	0.019
-404.267	-200.000	0.008	0.050
-403.252	-200.000	-0.019	-0.139
-402.238	381.583	0.126	-0.258
-401.223	-50.423	-0.147	-0.069
-400.209	11.070	0.138	0.105
-399.194	-200.000	-0.013	0.327
-398.179	391.468	0.121	-0.249
-397.165	-39.989	0.362	0.187
-396.150	-124.828	0.074	0.011
-395.136	-163.056	0.132	-0.006
-394.121	-200.000	-0.013	0.082
-393.106	-119.429	-0.265	-0.046
-392.092	160.378	0.213	0.295
-391.077	-81.313	-0.160	0.052
-390.063	5.000	-0.105	-0.077
-389.048	120.747	-0.085	-0.105
-388.033	61.054	-0.162	0.160
-387.019	-34.000	0.170	-0.093
-386.004	-200.000	0.021	-0.149
-384.990	193.140	-0.070	-0.106
-383.975	-200.000	0.012	0.492
-382.960	-157.831	0.362	0.021
-381.946	-62.025	0.070	-0.029
-380.931	-59.832	-0.225	-0.096
-379.917	800.000	-0.006	0.025
-378.902	-200.000	0.099	0.468
-377.888	-71.037	0.314	0.117
-376.873	-6.945	0.236	-0.159
-375.858	-120.330	0.376	0.063
-374.844	62.627	0.163	-0.162
-373.829	5.058	-0.271	-0.198
-372.815	-68.653	-0.043	0.017
-371.800	0.197	0.039	-0.027
-370.785	-61.694	0.229	-0.095
-369.771	429.586	-0.054	0.116
-368.756	-62.388	0.097	0.040
-367.742	-200.000	-0.032	-0.316
-366.727	-166.169	0.363	-0.015
-365.712	-200.000	0.002	0.088
-364.698	24.269	0.126	-0.103
-363.683	-143.740	0.059	-0.006
-362.669	-200.000	-0.089	-0.425
-361.654	-16.877	0.145	-0.091
-360.639	800.000	-0.082	-0.335
-359.625	-200.000	0.023	0.308
-358.610	23.680	-0.119	-0.097
-357.596	199.643	0.189	0.288
-356.581	182.365	0.145	-0.212
-355.566	-47.573	0.248	0.119
-354.552	-91.991	0.275	-0.077
-353.537	-136.328	0.124	-0.014
-352.523	68.449	0.060	-0.061
-351.508	-56.153	0.214	0.094
-350.493	333.954	0.163	-0.312
-349.479	656.218	0.113	-0.288
-348.464	-200.000	0.017	0.147
-347.450	-200.000	-0.053	-0.455
-346.435	-128.002	0.255	-0.036
-345.420	-200.000	0.026	-0.282
-344.406	-200.000	0.023	-0.240
-343.391	235.325	0.092	0.151
-342.377	-71.325	-0.144	0.054
-341.362	646.333	-0.149	0.376
-340.348	62.924	-0.106	0.105
-339.333	77.319	0.150	-0.158
-338.318	-19.115	-0.173	0.107
-337.304	800.000	0.069	0.245
-336.289	-150.496	-0.107	-0.008
-335.275	-200.000	-0.057	-0.347
-334.260	173.221	-0.244	-0.348
-333.245	440.709	0.061	-0.132
-332.231	-75.431	-0.343	0.121
-331.216	-75.008	-0.254	0.090
-330.202	-98.893	-0.308	-0.077
-329.187	-200.000	0.014	-0.166
-328.172	-200.000	0.039	0.365
-327.158	136.438	-0.110	-0.142
-326.143	-43.254	0.188	0.094
-325.129	49.301	0.119	-0.110
-324.114	261.321	-0.113	0.194
-323.099	382.740	-0.070	-0.143
-322.085	800.000	0.025	0.074
-321.070	-200.000	0.076	-0.397
-320.056	84.631	0.045	-0.049
-319.041	16.897	-0.131	0.102
-318.026	321.899	0.121	0.228
-317.012	74.350	0.269	0.280
-315.997	248.448	0.180	-0.301
-314.983	-20.446	-0.109	-0.066
-313.968	333.573	-0.060	0.114
-312.953	-37.231	0.069	-0.037
-311.939	-139.846	0.326	-0.034
-310.924	234.216	0.102	0.167
-309.910	-111.159	-0.186	-0.038
-308.895	135.121	0.132	-0.170
-307.880	-200.000	-0.001	-0.231
-306.866	800.000	-0.101	0.400
-305.851	704.896	0.096	-0.250
-304.837	6.174	0.256	-0.188
-303.822	-68.755	0.133	0.051
-302.807	130.209	-0.129	0.163
-301.793	-200.000	0.064	-0.349
-300.778	-200.000	0.036	0.166
-299.764	-200.000	0.008	0.241
-298.749	60.138	-0.089	0.087
-297.735	234.524	-0.124	0.202
-296.720	-92.933	-0.025	-0.007
-295.705	441.774	-0.167	-0.360
-294.691	128.718	0.083	0.104
-293.676	-26.532	-0.035	-0.020
-292.662	462.038	0.210	-0.462
-291.647	603.875	-0.096	-0.237
-290.632	-159.839	0.179	0.010
-289.618	800.000	0.065	0.191
-288.603	68.953	-0.102	0.103
-287.589	375.833	0.033	0.067
-286.574	-91.826	0.207	0.058
-285.559	95.656	-0.194	0.219
-284.545	800.000	0.008	-0.035
-283.530	-31.613	0.171	0.095
-282.516	684.744	-0.183	-0.471
-281.501	22.468	-0.098	0.079
-280.486	442.446	0.174	0.376
-279.472	280.650	0.067	0.119
-278.457	-200.000	0.013	0.080
-277.443	134.019	0.239	-0.306
-276.428	23.372	-0.222	0.181
-275.413	-31.568	-0.119	-0.066
-274.399	40.229	-0.099	-0.088
-273.384	-157.275	0.202	0.012
-272.370	-38.732	0.194	-0.101
-271.355	252.016	0.110	-0.185
-270.340	-200.000	-0.059	0.530
-269.326	-132.784	-0.078	0.010
-268.311	782.545	0.087	0.235
-267.297	21.605	0.084	0.067
-266.282	-108.640	0.113	0.024
-265.267	-200.000	-0.004	-0.095
-264.253	83.979	0.127	0.136
-263.238	167.433	-0.107	0.150
-262.224	800.000	-0.137	0.426
-261.209	-200.000	0.019	0.154
-260.195	-107.406	-0.404	-0.088
-259.180	271.536	0.057	0.099
-258.165	108.445	0.040	-0.047
-257.151	-200.000	0.028	0.205
-256.136	99.316	-0.132	-0.151
-255.122	330.464	-0.199	0.378
-254.107	-200.000	0.005	-0.114
-253.092	265.823	-0.114	0.197
-252.078	-200.000	-0.015	-0.143
-251.063	-200.000	-0.024	-0.228
-250.049	18.650	0.129	-0.102
-249.034	-64.011	0.181	0.073
-248.019	-87.497	-0.128	0.038
-247.005	318.771	-0.102	0.191
-245.990	-127.582	0.126	-0.018
-244.976	-3.859	0.328	-0.225
-243.961	128.316	-0.127	-0.159
-242.946	-200.000	-0.022	-0.198
-241.932	-48.159	0.059	-0.028
-240.917	-79.032	0.066	-0.022
-239.903	30.688	-0.074	-0.062
-238.888	-99.910	0.545	-0.134
-237.873	131.497	-0.125	-0.159
-236.859	-86.789	0.294	-0.089
-235.844	-200.000	0.042	-0.185
-234.830	424.665	-0.180	0.382
-233.815	-196.277	0.185	0.001
-232.800	-27.971	0.060	0.034
-231.786	-106.735	-0.079	-0.017
-230.771	-15.284	0.045	-0.028
-229.757	-200.000	-0.017	-0.113
-228.742	356.296	-0.113	-0.222
-227.727	-200.000	-0.022	-0.263
-226.713	1.453	-0.298	-0.211
-225.698	-109.318	-0.091	0.019
-224.684	-147.668	-0.252	0.021
-223.669	-2.014	0.064	-0.044
-222.655	-200.000	-0.012	-0.127
-221.640	138.982	0.176	0.228
-220.625	-161.042	-0.399	-0.021
-219.611	800.000	0.088	0.280
-218.596	-38.913	0.234	0.121
-217.582	-200.000	0.041	0.198
-216.567	-5.955	-0.125	0.084
-215.552	494.123	-0.093	0.210
-214.538	96.254	0.174	0.197
-213.523	-119.366	0.179	0.031
-212.509	242.231	0.054	-0.088
-211.494	652.222	0.095	0.239
-210.479	145.600	-0.181	-0.239
-209.465	-160.294	0.256	-0.014
-208.450	-45.091	-0.052	0.025
-207.436	-13.787	-0.195	-0.124
-206.421	87.395	0.129	-0.141
-205.406	28.431	0.102	-0.085
-204.392	-200.000	0.020	0.113
-203.377	800.000	-0.046	-0.143
-202.363	-26.794	-0.129	-0.074
-201.348	-78.910	-0.154	0.052
-200.333	227.693	0.143	0.229
-199.319	-44.824	-0.142	0.070
-198.304	18.524	-0.221	0.174
-197.290	-175.320	0.459	-0.012
-196.275	-41.294	-0.267	0.135
-195.260	-84.954	-0.161	0.050
-194.246	53.194	-0.034	-0.032
-193.231	-142.227	-0.371	0.036
-192.217	-119.935	-0.429	0.073
-191.202	-200.000	0.015	0.383
-190.187	-34.146	0.242	0.131
-189.173	-17.523	0.134	-0.083
-188.158	-200.000	-0.092	0.399
-187.144	-200.000	0.011	0.231
-186.129	281.599	0.037	-0.065
-185.114	-99.274	-0.267	-0.066
-184.100	-200.000	0.049	0.413
-183.085	-200.000	0.014	0.141
-182.071	-95.744	0.207	-0.054
-181.056	800.000	-0.068	-0.257
-180.042	-58.141	-0.087	0.037
-179.027	72.773	-0.238	-0.244
-178.012	800.000	0.022	-0.084
-176.998	-2.893	0.131	-0.090
-175.983	-15.835	-0.104	-0.065
-174.969	115.898	-0.193	0.233
-173.954	540.309	0.052	-0.123
-172.939	439.582	0.090	-0.192
-171.925	177.766	0.188	-0.270
-170.910	110.152	-0.026	-0.031
-169.896	-79.508	-0.074	-0.025
-168.881	-200.000	0.057	-0.363
-167.866	800.000	-0.045	-0.133
-166.852	-132.850	-0.158	0.020
-165.837	457.066	0.151	0.330
-164.823	-29.044	0.240	-0.136
-163.808	-92.482	-0.178	0.049
-162.793	-120.560	0.096	-0.016
-161.779	-78.642	0.248	0.083
-160.764	-200.000	-0.005	-0.107
-159.750	27.166	-0.007	0.006
-158.735	-14.978	0.140	0.088
-157.720	57.218	-0.300	0.288
-156.706	-200.000	-0.032	-0.233
-155.691	-49.945	-0.256	0.119
-154.677	-110.786	0.323	-0.066
-153.662	331.305	0.055	0.103
-152.647	-43.152	-0.217	-0.108
-151.633	-17.444	0.097	0.060
-150.618	800.000	0.014	0.042
-149.604	-200.000	-0.031	-0.163
-148.589	-15.654	-0.173	0.108
-147.574	-164.307	0.338	-0.015
-146.560	106.024	0.200	-0.232
-145.545	105.337	0.105	0.122
-144.531	293.155	-0.097	0.174
-143.516	105.452	0.052	0.060
-142.502	73.571	-0.201	0.207
-141.487	618.009	0.098	-0.242
-140.472	-200.000	0.000	0.187
-139.458	38.813	-0.282	0.248
-138.443	364.706	0.245	0.485
-137.429	-200.000	0.008	0.151
-136.414	-37.555	-0.315	0.165
-135.399	244.995	0.137	0.227
-134.385	58.465	0.216	0.208
-133.370	-85.266	-0.221	0.068
-132.356	-66.377	0.230	0.090
-131.341	800.000	0.102	-0.295
-130.326	-84.885	0.294	-0.091
-129.312	800.000	-0.073	0.298
-128.297	-200.000	-0.026	-0.116
-127.283	4.614	0.029	-0.021
-126.268	-34.849	-0.284	0.152
-125.253	-9.545	-0.224	-0.147
-124.239	-200.000	-0.004	0.176
-123.224	-90.854	0.138	-0.039
-122.210	-70.196	0.161	-0.060
-121.195	800.000	0.095	-0.363
