DTS Sentinel unit serial number:	SN413079Multiplexer serial number:	ORYXHardware model number:	OX4-SRSoftware version number:	ORYX F/W v4.00 Oryx Data Collector v3.7.2.0data status	okinstallation	princeton_trtdifferential loss correction	single-endedforward channel	channel 1reverse channel	N/Adate	2019/09/18time	01:22:35forward acquisition time	60.00reverse acquisition time	0.00gamma	496.2192k internal	0.2341k external	0.2341temperature offset calibration	0.9978default loss term (dB/km)	0.3790temperature slope calibration	1.0000multiplexer offset coefficient	1.0000multiplexer slope coefficient	1.0000fibre end	0.00T internal ref (°C)	23.12T ext. ref 1 (°C)	0.17T ext. ref 2 (°C)	16.88length (m)	temperature (°C)	Stokes	anti-Stokes-747.200	134.443	0.086	0.112
-746.185	-79.804	-0.404	-0.136
-745.171	671.810	-0.090	0.235
-744.156	42.170	-0.184	0.167
-743.142	-94.476	-0.089	-0.024
-742.127	-162.245	-0.345	0.017
-741.112	800.000	-0.096	0.366
-740.098	-8.342	0.071	-0.048
-739.083	-168.641	-0.358	-0.014
-738.069	114.443	-0.055	-0.068
-737.054	-9.457	-0.123	0.082
-736.039	43.447	-0.239	-0.219
-735.025	-200.000	0.002	0.075
-734.010	-63.118	-0.236	-0.098
-732.996	800.000	0.090	-0.276
-731.981	-200.000	0.029	-0.178
-730.966	-81.229	-0.357	0.118
-729.952	-101.276	0.318	-0.078
-728.937	-200.000	0.000	-0.247
-727.923	-136.601	0.176	-0.020
-726.908	88.132	-0.294	-0.327
-725.894	-60.448	-0.220	-0.094
-724.879	31.649	0.171	-0.148
-723.864	-200.000	-0.005	-0.319
-722.850	800.000	-0.032	-0.132
-721.835	-59.924	-0.205	-0.088
-720.821	174.319	-0.103	0.148
-719.806	-200.000	0.059	-0.358
-718.791	-59.225	-0.063	-0.027
-717.777	-124.860	0.164	-0.025
-716.762	-119.086	-0.121	0.021
-715.748	-90.445	0.058	0.017
-714.733	-200.000	-0.016	-0.202
-713.718	568.690	-0.051	0.124
-712.704	-70.182	-0.224	-0.085
-711.689	-154.752	0.594	0.039
-710.675	-28.429	-0.131	0.075
-709.660	287.369	0.050	0.090
-708.645	287.552	-0.138	0.250
-707.631	800.000	-0.115	-0.365
-706.616	-59.313	-0.180	-0.077
-705.602	-103.134	-0.298	-0.070
-704.587	800.000	-0.083	0.250
-703.572	195.879	0.190	0.289
-702.558	800.000	-0.109	0.322
-701.543	490.295	-0.060	-0.136
-700.529	-30.402	-0.405	0.230
-699.514	488.290	-0.142	0.325
-698.499	310.898	-0.038	-0.071
-697.485	-24.651	0.235	-0.140
-696.470	800.000	0.035	-0.111
-695.456	519.723	0.076	0.177
-694.441	-69.596	0.078	0.030
-693.426	-57.732	-0.147	-0.064
-692.412	800.000	-0.087	-0.250
-691.397	49.736	0.201	-0.190
-690.383	2.264	-0.176	-0.127
-689.368	-60.365	-0.026	0.011
-688.354	573.016	0.057	0.139
-687.339	38.033	0.264	0.235
-686.324	-132.318	-0.401	0.052
-685.310	-145.842	0.193	0.017
-684.295	-106.783	0.116	0.026
-683.281	800.000	0.119	0.415
-682.266	-121.013	-0.226	0.038
-681.251	-125.150	0.173	0.026
-680.237	628.897	-0.120	0.303
-679.222	-132.061	-0.053	0.007
-678.208	-2.903	-0.274	0.191
-677.193	533.456	0.098	-0.231
-676.178	-78.960	0.240	0.082
-675.164	-69.250	0.333	0.128
-674.149	-114.760	0.080	0.015
-673.135	150.481	-0.314	-0.426
-672.120	800.000	-0.028	0.093
-671.105	-151.469	-0.275	0.020
-670.091	231.726	-0.118	-0.193
-669.076	800.000	-0.058	0.196
-668.062	-200.000	-0.055	0.248
-667.047	-75.982	-0.125	-0.044
-666.032	800.000	-0.127	0.421
-665.018	151.973	0.079	-0.107
-664.003	-30.114	-0.295	-0.168
-662.989	800.000	0.071	0.203
-661.974	-124.118	-0.130	-0.020
-660.959	796.779	-0.082	0.226
-659.945	63.338	-0.122	-0.122
-658.930	-118.679	-0.323	0.057
-657.916	451.669	0.245	0.541
-656.901	147.474	-0.052	-0.070
-655.886	378.894	0.045	-0.091
-654.872	-110.146	0.049	0.010
-653.857	-5.170	-0.458	-0.315
-652.843	25.072	0.299	0.248
-651.828	351.372	0.017	-0.033
-650.814	-161.740	-0.247	-0.013
-649.799	46.030	-0.194	-0.179
-648.784	-200.000	0.009	0.240
-647.770	-200.000	-0.014	-0.162
-646.755	-15.117	-0.388	-0.248
-645.741	-200.000	-0.048	-0.218
-644.726	-200.000	-0.002	0.242
-643.711	635.267	0.012	0.030
-642.697	-144.549	-0.421	-0.039
-641.682	800.000	0.031	0.128
-640.668	1.294	-0.308	-0.221
-639.653	-125.721	0.081	0.012
-638.638	-124.346	0.200	-0.031
-637.624	-15.610	0.184	-0.117
-636.609	-137.778	0.277	-0.031
-635.595	-105.619	0.232	-0.052
-634.580	13.038	0.031	-0.024
-633.565	9.120	-0.329	-0.248
-632.551	-127.522	-0.430	-0.062
-631.536	72.237	-0.207	0.215
-630.522	-145.882	-0.329	0.029
-629.507	-101.131	0.198	0.048
-628.492	162.278	0.189	-0.264
-627.478	-94.331	-0.169	-0.046
-626.463	185.776	0.101	-0.150
-625.449	28.233	-0.100	-0.084
-624.434	-9.261	-0.285	-0.190
-623.419	51.263	0.102	0.096
-622.405	-139.745	0.284	-0.030
-621.390	-61.712	-0.231	-0.097
-620.376	288.375	-0.218	0.393
-619.361	42.353	0.026	0.024
-618.346	52.480	-0.244	-0.232
-617.332	283.668	0.092	0.165
-616.317	-200.000	-0.027	0.561
-615.303	-42.488	0.204	0.104
-614.288	-200.000	-0.045	-0.361
-613.273	692.196	-0.086	0.224
-612.259	-200.000	0.019	-0.137
-611.244	648.250	0.113	-0.287
-610.230	-47.980	0.307	-0.148
-609.215	-130.534	0.170	-0.023
-608.201	48.261	-0.128	-0.119
-607.186	415.006	-0.011	0.024
-606.171	-39.995	0.138	0.072
-605.157	-105.598	0.216	0.049
-604.142	-169.207	-0.271	0.010
-603.128	201.122	-0.101	0.156
-602.113	-23.942	0.369	0.220
-601.098	-71.307	-0.069	0.026
-600.084	-123.199	0.146	-0.023
-599.069	-31.340	0.235	0.132
-598.055	-30.928	0.224	-0.126
-597.040	209.473	-0.072	0.112
-596.025	166.776	-0.082	-0.116
-595.011	-31.752	-0.206	-0.115
-593.996	26.480	-0.143	-0.119
-592.982	-61.447	0.156	0.065
-591.967	-159.868	-0.244	-0.013
-590.952	-200.000	-0.000	0.011
-589.938	138.238	0.101	0.132
-588.923	177.925	-0.061	0.088
-587.909	365.606	-0.137	0.275
-586.894	234.865	0.104	-0.171
-585.879	-175.189	-0.072	0.002
-584.865	55.899	-0.188	0.182
-583.850	800.000	-0.042	0.132
-582.836	114.909	-0.242	0.294
-581.821	77.279	-0.128	0.136
-580.806	-200.000	-0.003	0.410
-579.792	-98.329	0.262	0.067
-578.777	-108.436	0.267	0.057
-577.763	800.000	-0.063	-0.251
-576.748	-38.480	-0.118	0.062
-575.733	320.286	0.085	-0.161
-574.719	-200.000	-0.038	-0.303
-573.704	302.601	-0.255	-0.469
-572.690	800.000	0.039	-0.157
-571.675	-123.790	-0.303	0.048
-570.661	50.481	-0.118	-0.111
-569.646	242.620	0.112	-0.187
-568.631	229.346	-0.091	-0.148
-567.617	-189.333	0.080	0.001
-566.602	-94.563	-0.682	0.185
-565.588	388.633	-0.071	-0.147
-564.573	536.038	0.067	-0.158
-563.558	-194.259	-0.214	-0.002
-562.544	606.902	-0.139	0.344
-561.529	-146.793	0.141	-0.012
-560.515	583.001	0.142	0.348
-559.500	19.527	-0.299	0.239
-558.485	-32.678	-0.172	-0.095
-557.471	-128.116	0.336	-0.048
-556.456	-36.622	0.219	0.117
-555.442	186.221	0.069	-0.103
-554.427	800.000	0.051	-0.142
-553.412	-75.190	-0.306	-0.109
-552.398	-40.265	-0.153	0.079
-551.383	28.478	-0.051	0.043
-550.369	135.350	0.222	0.288
-549.354	-156.247	0.218	-0.014
-548.339	-117.805	0.078	-0.014
-547.325	-33.546	0.256	0.141
-546.310	47.447	-0.119	-0.110
-545.296	-200.000	0.030	-0.259
-544.281	282.126	-0.072	-0.128
-543.266	-200.000	0.008	0.220
-542.252	112.896	-0.125	-0.151
-541.237	583.158	-0.104	-0.255
-540.223	-73.043	-0.236	0.086
-539.208	46.867	0.186	0.172
-538.193	-62.306	-0.144	-0.060
-537.179	800.000	-0.063	0.209
-536.164	34.438	-0.308	0.267
-535.150	-200.000	0.004	-0.035
-534.135	-200.000	-0.011	-0.296
-533.121	337.586	-0.173	0.334
-532.106	-200.000	-0.003	-0.119
-531.091	334.165	0.091	0.176
-530.077	19.845	0.205	0.164
-529.062	206.558	-0.103	-0.159
-528.048	-84.551	-0.426	0.134
-527.033	153.836	-0.051	0.069
-526.018	157.423	0.149	-0.205
-525.004	800.000	-0.031	-0.088
-523.989	212.022	0.210	-0.328
-522.975	-57.372	0.194	-0.085
-521.960	7.014	-0.175	0.130
-520.945	62.249	-0.158	0.156
-519.931	-191.025	0.219	0.002
-518.916	-200.000	0.002	-0.547
-517.902	-27.730	0.180	-0.104
-516.887	26.867	-0.308	-0.257
-515.872	-96.644	-0.297	-0.078
-514.858	-200.000	0.001	0.084
-513.843	3.934	-0.127	0.092
-512.829	-200.000	0.015	-0.160
-511.814	58.836	0.155	-0.152
-510.799	-92.661	0.081	0.022
-509.785	800.000	-0.049	-0.186
-508.770	-83.988	-0.178	0.056
-507.756	-28.494	-0.091	0.052
-506.741	-116.573	0.148	-0.027
-505.726	800.000	-0.155	-0.497
-504.712	69.913	-0.233	0.239
-503.697	239.720	0.089	-0.147
-502.683	-200.000	0.017	0.426
-501.668	-127.419	0.083	0.012
-500.653	490.791	-0.077	-0.175
-499.639	-200.000	0.049	0.251
-498.624	369.963	0.167	0.336
-497.610	-200.000	0.015	0.222
-496.595	800.000	0.041	0.113
-495.581	223.581	0.064	-0.102
-494.566	49.811	-0.247	0.231
-493.551	-79.909	0.131	-0.044
-492.537	-30.597	0.114	-0.064
-491.522	-34.098	-0.282	0.154
-490.508	-200.000	-0.006	0.048
-489.493	-99.826	0.120	0.030
-488.478	800.000	-0.071	-0.212
-487.464	-50.171	-0.291	-0.137
-486.449	-200.000	0.026	0.114
-485.435	-175.931	-0.179	-0.005
-484.420	33.023	-0.119	0.102
-483.405	70.228	0.247	-0.253
-482.391	173.666	0.262	0.376
-481.376	-128.698	0.011	-0.002
-480.362	14.572	-0.159	-0.123
-479.347	159.961	-0.113	0.156
-478.332	-178.278	0.066	0.002
-477.318	-200.000	-0.037	0.199
-476.303	189.744	0.194	0.289
-475.289	-200.000	0.009	0.273
-474.274	140.732	-0.142	-0.186
-473.259	25.923	0.061	-0.050
-472.245	118.289	0.078	0.096
-471.230	-117.106	0.100	0.018
-470.216	125.960	0.100	-0.125
-469.201	218.150	0.081	0.128
-468.186	349.902	-0.120	-0.235
-467.172	463.034	-0.051	-0.112
-466.157	-163.158	0.170	-0.008
-465.143	555.564	0.126	0.300
-464.128	-134.958	-0.180	0.022
-463.113	800.000	-0.039	0.133
-462.099	-200.000	-0.010	0.048
-461.084	-56.937	-0.212	-0.093
-460.070	-200.000	0.071	0.338
-459.055	283.480	-0.061	-0.109
-458.040	-98.034	0.242	0.062
-457.026	-104.145	0.127	-0.029
-456.011	52.022	-0.215	0.203
-454.997	-90.538	0.186	0.053
-453.982	-91.348	-0.217	0.062
-452.968	-144.740	-0.126	0.011
-451.953	-200.000	0.172	-0.001
-450.938	800.000	-0.066	0.182
-449.924	-42.697	-0.097	0.049
-448.909	158.131	-0.089	-0.122
-447.895	-105.192	0.244	0.055
-446.880	-109.717	0.203	0.042
-445.865	49.221	0.164	-0.153
-444.851	800.000	0.138	-0.386
-443.836	-34.129	0.013	0.007
-442.822	112.769	0.067	0.080
-441.807	-106.630	-0.192	0.042
-440.792	-200.000	0.023	-0.139
-439.778	-86.937	-0.379	-0.115
-438.763	-200.000	0.006	-0.085
-437.749	-200.000	0.035	-0.346
-436.734	-200.000	-0.029	0.277
-435.719	-87.639	0.083	0.025
-434.705	68.385	-0.100	0.101
-433.690	-149.355	0.474	-0.037
-432.676	-25.744	0.093	0.054
-431.661	96.507	0.194	0.219
-430.646	102.308	-0.045	0.052
-429.632	-9.703	-0.256	-0.169
-428.617	101.858	0.211	-0.243
-427.603	800.000	0.073	-0.235
-426.588	350.825	-0.124	-0.243
-425.573	-121.272	0.248	-0.041
-424.559	-200.000	-0.011	-0.074
-423.544	800.000	-0.066	-0.249
-422.530	64.301	0.128	-0.128
-421.515	199.116	0.024	-0.037
-420.500	248.516	0.122	0.204
-419.486	315.220	0.065	0.122
-418.471	800.000	-0.049	-0.168
-417.457	800.000	-0.060	-0.235
-416.442	25.615	0.111	0.092
-415.428	-112.068	-0.058	0.011
-414.413	204.254	0.010	-0.015
-413.398	-156.750	-0.247	0.015
-412.384	18.288	0.207	-0.163
-411.369	199.440	-0.102	-0.155
-410.355	-172.665	0.104	-0.003
-409.340	800.000	-0.060	0.206
-408.325	599.738	-0.125	-0.308
-407.311	142.942	0.184	0.241
-406.296	-200.000	-0.024	0.354
-405.282	-69.843	-0.228	-0.086
-404.267	517.933	-0.092	-0.212
-403.252	800.000	0.082	-0.243
-402.238	516.182	-0.082	-0.190
-401.223	-12.418	0.185	-0.120
-400.209	-200.000	-0.221	0.000
-399.194	-58.123	0.151	-0.065
-398.179	323.737	-0.024	-0.044
-397.165	-63.075	0.116	-0.047
-396.150	-6.895	0.288	0.193
-395.136	69.102	-0.118	0.120
-394.121	-37.903	-0.201	0.106
-393.106	800.000	-0.111	0.328
-392.092	166.918	0.100	0.141
-391.077	81.071	-0.128	0.137
-390.063	-200.000	-0.020	0.199
-389.048	78.283	-0.210	-0.222
-388.033	-64.447	-0.128	0.052
-387.019	306.648	-0.127	0.233
-386.004	-38.185	0.207	0.108
-384.990	-4.257	0.188	0.128
-383.975	-126.259	0.242	0.036
-382.960	103.139	-0.133	-0.154
-381.946	6.108	-0.311	-0.227
-380.931	-35.784	-0.230	0.123
-379.917	11.928	0.264	-0.201
-378.902	381.263	0.044	-0.090
-377.888	-107.295	0.400	-0.087
-376.873	27.185	0.046	0.039
-375.858	-55.241	0.153	-0.068
-374.844	-47.255	-0.153	0.074
-373.829	351.643	0.066	-0.130
-372.815	-125.126	-0.270	0.041
-371.800	224.366	-0.020	0.031
-370.785	91.550	0.103	0.115
-369.771	90.454	0.160	0.177
-368.756	-200.000	0.061	0.285
-367.742	763.009	0.021	-0.056
-366.727	800.000	0.055	0.159
-365.712	-150.506	-0.359	-0.027
-364.698	15.168	-0.227	-0.176
-363.683	800.000	-0.025	-0.082
-362.669	-200.000	-0.027	0.402
-361.654	800.000	-0.077	0.247
-360.639	47.361	0.178	0.164
-359.625	52.943	-0.091	0.086
-358.610	171.452	-0.130	0.184
-357.596	330.216	-0.158	-0.301
-356.581	181.749	-0.047	0.068
-355.566	15.475	-0.109	-0.085
-354.552	-125.990	0.177	0.026
-353.537	-10.546	0.200	0.130
-352.523	800.000	0.052	-0.219
-351.508	-200.000	-0.035	-0.405
-350.493	88.824	0.218	0.239
-349.479	-51.255	-0.094	0.043
-348.464	-2.326	-0.041	0.029
-347.450	800.000	-0.095	-0.269
-346.435	24.841	0.273	0.224
-345.420	800.000	0.050	-0.204
-344.406	-200.000	0.020	-0.388
-343.391	12.696	-0.325	-0.247
-342.377	30.496	0.410	0.346
-341.362	1.291	-0.127	0.090
-340.348	-46.407	0.203	-0.098
-339.333	-0.091	0.251	-0.177
-338.318	-114.067	0.203	-0.039
-337.304	-92.501	0.289	-0.080
-336.289	32.848	-0.018	0.016
-335.275	-106.191	-0.259	-0.057
-334.260	800.000	0.161	-0.560
-333.245	-48.959	-0.369	-0.174
-332.231	-4.949	0.252	-0.171
-331.216	-85.552	0.445	-0.136
-330.202	800.000	-0.099	-0.288
-329.187	-55.517	0.270	0.119
-328.172	800.000	0.092	-0.265
-327.158	250.265	0.076	0.127
-326.143	77.375	0.097	-0.102
-325.129	354.568	0.066	0.130
-324.114	800.000	-0.064	-0.224
-323.099	168.844	0.084	-0.118
-322.085	145.511	0.086	0.114
-321.070	36.573	0.068	0.059
-320.056	532.565	-0.135	0.315
-319.041	800.000	0.103	-0.345
-318.026	-75.594	0.216	-0.076
-317.012	-200.000	-0.044	0.196
-315.997	-200.000	0.050	0.285
-314.983	-61.917	-0.063	-0.026
-313.968	-77.004	0.173	0.059
-312.953	-200.000	0.028	0.122
-311.939	132.614	0.135	-0.171
-310.924	-200.000	0.046	-0.273
-309.910	26.575	-0.098	0.081
-308.895	-23.578	0.260	-0.154
-307.880	-200.000	0.012	-0.080
-306.866	82.243	0.143	-0.153
-305.851	-169.450	0.261	0.009
-304.837	-149.648	-0.234	0.018
-303.822	123.401	-0.140	0.173
-302.807	8.078	-0.284	0.210
-301.793	-83.306	-0.027	-0.009
-300.778	-200.000	0.004	-0.172
-299.764	-100.472	0.168	-0.041
-298.749	-152.065	-0.275	-0.020
-297.735	361.778	0.119	0.236
-296.720	454.267	-0.047	-0.102
-295.705	191.893	-0.085	-0.127
-294.691	87.236	0.175	-0.191
-293.676	-21.750	0.191	-0.114
-292.662	472.120	0.121	-0.268
-291.647	32.322	0.130	0.111
-290.632	-68.686	-0.158	0.060
-289.618	288.817	-0.063	-0.113
-288.603	12.883	0.063	-0.048
-287.589	-99.836	-0.100	0.025
-286.574	-200.000	-0.304	0.001
-285.559	433.063	0.137	-0.292
-284.545	565.982	0.139	-0.331
-283.530	-200.000	-0.014	0.215
-282.516	18.236	0.194	0.153
-281.501	-200.000	-0.009	0.131
-280.486	347.569	-0.095	-0.183
-279.472	14.405	0.383	0.294
-278.457	-200.000	-0.041	0.300
-277.443	-200.000	0.016	0.072
-276.428	28.265	0.125	-0.104
-275.413	-41.259	-0.074	0.037
-274.399	6.310	0.169	0.124
-273.384	800.000	0.073	-0.207
-272.370	338.676	-0.127	-0.243
-271.355	75.623	0.246	-0.256
-270.340	-24.961	0.114	-0.067
-269.326	-49.210	-0.127	-0.060
-268.311	0.371	-0.107	-0.075
-267.297	-200.000	-0.016	0.183
-266.282	664.291	-0.149	0.379
-265.267	-167.629	-0.382	-0.015
-264.253	-47.549	0.161	-0.077
-263.238	15.532	0.216	0.167
-262.224	-50.911	-0.176	-0.081
-261.209	-99.621	-0.200	-0.049
-260.195	-132.083	0.217	0.028
-259.180	-54.763	-0.362	-0.161
-258.165	145.742	0.082	-0.108
-257.151	-24.987	-0.134	-0.078
-256.136	60.151	0.152	0.147
-255.122	-200.000	-0.003	-0.067
-254.107	-64.787	-0.111	-0.044
-253.092	487.614	0.116	-0.260
-252.078	340.974	-0.130	-0.250
-251.063	64.655	0.284	0.281
-250.049	30.227	-0.042	0.035
-249.034	-120.362	-0.227	-0.038
-248.019	-200.000	0.011	0.075
-247.005	-88.160	-0.427	0.126
-245.990	-200.000	0.002	-0.044
-244.976	800.000	0.057	-0.161
-243.961	-139.854	0.035	-0.004
-242.946	-146.729	-0.263	-0.022
-241.932	-90.283	0.145	0.041
-240.917	-113.887	0.270	-0.052
-239.903	-27.020	0.119	0.068
-238.888	-200.000	-0.045	0.212
-237.873	-20.846	-0.108	-0.065
-236.859	-107.653	-0.414	-0.089
-235.844	-200.000	-0.027	0.170
-234.830	-200.000	0.045	0.215
-233.815	-72.059	0.317	-0.116
-232.800	800.000	0.080	-0.226
-231.786	394.566	-0.140	0.287
-230.771	-16.755	0.075	0.046
-229.757	-200.000	0.016	0.371
-228.742	-78.339	0.140	-0.047
-227.727	-200.000	0.024	-0.125
-226.713	592.922	0.163	-0.395
-225.698	535.762	0.022	-0.052
-224.684	516.390	-0.059	-0.136
-223.669	129.119	-0.253	0.317
-222.655	-200.000	0.000	0.047
-221.640	-200.000	-0.019	0.131
-220.625	-113.501	0.118	0.023
-219.611	-68.226	0.323	-0.123
-218.596	800.000	-0.104	-0.293
-217.582	157.865	0.083	-0.113
-216.567	-53.614	-0.266	0.119
-215.552	700.504	-0.132	0.342
-214.538	-73.363	0.123	-0.044
-213.523	800.000	-0.090	0.321
-212.509	49.165	0.102	-0.094
-211.494	-66.607	0.083	0.032
-210.479	36.700	0.186	0.161
-209.465	-90.291	0.258	0.074
-208.450	-30.423	0.246	0.137
-207.436	563.283	0.138	0.328
-206.421	446.868	0.068	0.148
-205.406	38.750	0.368	0.323
-204.392	-170.088	-0.074	0.003
-203.377	-57.780	-0.161	0.069
-202.363	76.325	0.227	-0.235
-201.348	-34.467	0.228	0.123
-200.333	333.719	-0.121	-0.229
-199.319	-98.848	0.114	-0.028
-198.304	-200.000	-0.040	0.219
-197.290	250.043	-0.179	0.298
-196.275	-200.000	0.004	0.036
-195.260	-200.000	0.049	0.247
-194.246	800.000	0.035	0.100
-193.231	-43.701	-0.392	-0.194
-192.217	-96.824	0.242	-0.062
-191.202	-112.651	0.118	-0.023
-190.187	800.000	0.043	0.183
-189.173	-124.788	-0.077	0.012
-188.158	328.702	-0.041	0.078
-187.144	-94.870	0.136	-0.036
-186.129	-200.000	0.006	0.077
-185.114	-70.131	0.063	-0.024
-184.100	-200.000	-0.015	-0.236
-183.085	-155.757	0.094	-0.006
-182.071	800.000	-0.034	-0.122
-181.056	128.283	-0.217	-0.271
-180.042	182.154	-0.113	-0.164
-179.027	688.631	-0.068	0.175
-178.012	14.942	-0.112	0.086
-176.998	-136.829	0.128	0.014
-175.983	325.339	-0.061	0.114
-174.969	321.218	-0.048	-0.089
-173.954	-112.939	-0.261	0.051
-172.939	-49.344	-0.163	-0.076
-171.925	31.064	0.318	0.267
-170.910	88.417	0.023	0.025
-169.896	304.448	0.123	-0.224
-168.881	-81.594	-0.044	-0.014
-167.866	24.389	-0.259	-0.209
-166.852	-17.655	0.232	0.143
-165.837	-54.445	0.392	-0.174
-164.823	208.921	-0.177	0.272
-163.808	-108.302	-0.306	0.065
-162.793	-26.822	0.199	0.114
-161.779	-100.187	-0.321	0.078
-160.764	-2.396	-0.144	0.099
-159.750	105.545	-0.024	-0.028
-158.735	800.000	-0.051	0.195
-157.720	506.240	0.098	0.223
-156.706	-109.245	-0.169	0.035
-155.691	214.687	0.035	0.055
-154.677	-87.341	-0.301	0.089
-153.662	359.272	0.102	0.201
-152.647	103.518	0.194	-0.223
-151.633	-200.000	-0.010	0.056
-150.618	5.059	0.091	0.065
-149.604	-83.446	0.360	-0.113
-148.589	336.599	0.031	-0.059
-147.574	-200.000	-0.022	0.185
-146.560	734.575	-0.002	-0.004
-145.545	-94.089	0.133	-0.036
-144.531	-118.913	0.109	0.019
-143.516	1.372	0.156	0.110
-142.502	178.830	0.080	-0.114
-141.487	-200.000	0.025	-0.117
-140.472	-57.506	-0.259	0.111
-139.458	-152.209	-0.162	0.011
-138.443	-71.258	-0.142	0.052
-137.429	-41.158	0.389	-0.196
-136.414	42.380	0.056	0.050
-135.399	-114.749	0.478	0.089
-134.385	-5.491	0.196	0.131
-133.370	-200.000	0.011	-0.278
-132.356	78.067	0.043	0.045
-131.341	-200.000	-0.065	-0.303
-130.326	-200.000	-0.006	0.207
-129.312	-200.000	0.034	-0.379
-128.297	154.546	-0.194	0.261
-127.283	-141.817	0.119	-0.012
-126.268	-94.605	0.219	0.058
-125.253	285.222	0.079	0.140
-124.239	800.000	0.018	0.053
-123.224	278.049	0.266	0.463
-122.210	-200.000	0.044	0.217
-121.195	209.547	0.154	0.236
-120.180	417.352	-0.099	-0.206
