DTS Sentinel unit serial number:	SN413079Multiplexer serial number:	ORYXHardware model number:	OX4-SRSoftware version number:	ORYX F/W v4.00 Oryx Data Collector v3.7.2.0data status	okinstallation	princeton_trtdifferential loss correction	single-endedforward channel	channel 1reverse channel	N/Adate	2019/09/18time	14:42:35forward acquisition time	60.00reverse acquisition time	0.00gamma	496.2192k internal	0.2308k external	0.2308temperature offset calibration	0.9988default loss term (dB/km)	0.3790temperature slope calibration	1.0000multiplexer offset coefficient	1.0000multiplexer slope coefficient	1.0000fibre end	0.00T internal ref (°C)	34.80T ext. ref 1 (°C)	0.71T ext. ref 2 (°C)	32.85length (m)	temperature (°C)	Stokes	anti-Stokes-747.200	27.403	0.154	-0.131
-746.185	-200.000	0.025	0.167
-745.171	-73.660	0.197	-0.073
-744.156	-200.000	0.024	0.275
-743.142	-68.483	0.232	0.091
-742.127	-59.204	-0.267	-0.117
-741.112	-120.405	-0.300	0.052
-740.098	40.839	-0.333	0.306
-739.083	-200.000	-0.031	-0.176
-738.069	-83.111	0.137	0.045
-737.054	-127.420	-0.166	-0.025
-736.039	-200.000	0.009	0.262
-735.025	-71.842	0.251	0.095
-734.010	486.954	0.056	-0.129
-732.996	-167.077	-0.314	0.013
-731.981	34.033	0.112	-0.099
-730.966	-111.378	-0.117	0.024
-729.952	-122.021	-0.303	0.051
-728.937	800.000	-0.059	-0.167
-727.923	-200.000	-0.011	0.092
-726.908	800.000	0.069	-0.258
-725.894	74.857	-0.157	0.168
-724.879	-200.000	0.021	0.143
-723.864	-166.211	-0.479	-0.021
-722.850	42.575	0.017	-0.015
-721.835	-60.245	-0.046	0.020
-720.821	154.997	0.026	0.037
-719.806	96.976	-0.133	0.155
-718.791	169.603	-0.136	0.198
-717.777	82.722	0.261	0.288
-716.762	-1.896	-0.100	-0.071
-715.748	344.640	0.074	-0.148
-714.733	-200.000	-0.011	-0.128
-713.718	-101.693	0.159	0.039
-712.704	26.724	-0.237	-0.201
-711.689	-194.760	-0.171	0.001
-710.675	97.870	-0.288	-0.336
-709.660	-200.000	-0.005	-0.180
-708.645	308.299	-0.125	0.237
-707.631	87.451	-0.077	-0.087
-706.616	145.641	0.198	-0.270
-705.602	-200.000	-0.000	0.117
-704.587	103.350	0.088	0.105
-703.572	20.913	0.252	0.207
-702.558	100.850	0.149	0.176
-701.543	38.662	-0.098	-0.089
-700.529	163.740	0.056	0.079
-699.514	328.184	-0.210	-0.408
-698.499	-200.000	0.003	0.266
-697.485	-116.596	0.119	0.022
-696.470	166.327	-0.133	0.192
-695.456	-144.196	0.092	-0.009
-694.441	339.732	0.169	-0.334
-693.426	170.023	0.166	0.241
-692.412	528.309	-0.094	-0.226
-691.397	-35.713	-0.070	-0.039
-690.383	-129.515	-0.368	-0.052
-689.368	800.000	0.042	-0.120
-688.354	-35.627	-0.140	-0.077
-687.339	260.557	0.035	0.062
-686.324	-106.550	-0.124	-0.028
-685.310	-151.814	-0.235	-0.017
-684.295	800.000	-0.097	0.363
-683.281	-200.000	-0.029	0.340
-682.266	-200.000	0.008	0.130
-681.251	-69.186	-0.307	-0.120
-680.237	77.833	0.060	-0.065
-679.222	-200.000	-0.017	0.267
-678.208	-200.000	-0.006	0.095
-677.193	-200.000	0.038	-0.241
-676.178	210.702	-0.066	-0.105
-675.164	-105.723	-0.120	0.027
-674.149	-200.000	-0.058	0.374
-673.135	-100.014	-0.155	-0.039
-672.120	800.000	0.030	-0.124
-671.105	-113.504	-0.350	-0.070
-670.091	-11.461	0.154	0.103
-669.076	-74.601	-0.184	-0.067
-668.062	-12.404	-0.199	-0.132
-667.047	-186.638	0.133	-0.002
-666.032	-200.000	0.018	0.294
-665.018	-106.967	-0.113	0.025
-664.003	37.308	0.110	0.099
-662.989	131.765	-0.082	-0.107
-661.974	-200.000	-0.015	-0.444
-660.959	447.469	-0.078	0.173
-659.945	2.731	-0.047	-0.035
-658.930	800.000	0.057	-0.219
-657.916	-51.872	-0.252	0.119
-656.901	396.792	-0.030	0.063
-655.886	113.266	0.390	-0.479
-654.872	20.723	-0.280	-0.230
-653.857	-86.955	0.252	-0.078
-652.843	-200.000	0.004	-0.211
-651.828	139.107	0.200	-0.266
-650.814	800.000	0.094	0.378
-649.799	800.000	-0.038	0.148
-648.784	45.857	-0.182	-0.170
-647.770	800.000	0.026	-0.075
-646.755	-200.000	0.026	0.126
-645.741	103.212	0.126	-0.150
-644.726	-200.000	-0.001	0.074
-643.711	-50.863	-0.146	-0.069
-642.697	44.573	-0.057	-0.053
-641.682	-31.560	-0.185	-0.105
-640.668	73.917	-0.138	-0.146
-639.653	82.108	-0.217	0.238
-638.638	206.008	0.075	-0.118
-637.624	-66.060	0.197	-0.080
-636.609	800.000	0.040	-0.148
-635.595	35.059	-0.281	0.249
-634.580	122.083	0.231	0.292
-633.565	370.398	0.131	0.270
-632.551	26.890	0.156	-0.132
-631.536	-67.801	0.207	-0.082
-630.522	-101.927	0.366	-0.089
-629.507	606.873	0.029	-0.074
-628.492	800.000	0.050	0.211
-627.478	-200.000	-0.025	0.170
-626.463	189.766	0.178	0.270
-625.449	-39.659	0.443	-0.235
-624.434	69.276	-0.380	0.395
-623.419	-26.336	0.112	-0.066
-622.405	-200.000	0.003	0.223
-621.390	-200.000	0.021	0.157
-620.376	-77.303	-0.204	-0.072
-619.361	174.410	0.217	-0.318
-618.346	-200.000	0.005	0.297
-617.332	-133.678	-0.109	-0.014
-616.317	-10.415	-0.216	0.145
-615.303	800.000	0.095	0.337
-614.288	-200.000	-0.058	-0.280
-613.273	-123.830	0.370	-0.059
-612.259	127.094	-0.078	0.100
-611.244	42.803	0.207	-0.191
-610.230	-200.000	-0.033	-0.265
-609.215	-200.000	0.002	0.323
-608.201	316.031	-0.116	0.222
-607.186	166.208	0.153	-0.219
-606.171	69.020	0.096	-0.099
-605.157	-200.000	-0.029	0.222
-604.142	800.000	0.017	0.048
-603.128	201.561	-0.085	-0.132
-602.113	32.638	-0.199	-0.174
-601.098	-102.864	-0.246	0.059
-600.084	-200.000	0.015	0.226
-599.069	-141.117	-0.045	0.005
-598.055	18.354	0.099	-0.080
-597.040	-140.148	-0.238	0.025
-596.025	766.965	-0.087	-0.239
-595.011	-200.000	-0.046	-0.299
-593.996	-13.898	-0.194	-0.127
-592.982	-36.135	-0.057	0.031
-591.967	67.936	-0.130	-0.134
-590.952	-200.000	0.043	-0.238
-589.938	-10.718	0.208	-0.139
-588.923	-200.000	0.004	-0.069
-587.909	-101.171	-0.303	0.075
-586.894	-200.000	-0.003	0.101
-585.879	248.562	-0.194	0.331
-584.865	-89.216	-0.385	-0.115
-583.850	-87.242	-0.321	0.098
-582.836	173.459	-0.028	0.041
-581.821	101.548	0.160	-0.188
-580.806	-172.429	-0.437	0.014
-579.792	441.548	-0.154	-0.340
-578.777	41.446	-0.067	-0.061
-577.763	-200.000	-0.023	-0.157
-576.748	21.555	0.091	-0.075
-575.733	376.233	-0.102	-0.211
-574.719	-131.827	0.047	-0.006
-573.704	-56.431	-0.178	0.080
-572.690	800.000	-0.040	0.156
-571.675	-37.485	0.172	-0.093
-570.661	122.808	-0.013	-0.016
-569.646	-51.727	0.232	0.109
-568.631	-200.000	-0.009	-0.151
-567.617	180.931	0.139	-0.206
-566.602	71.010	-0.069	0.072
-565.588	-73.146	0.044	0.016
-564.573	800.000	0.032	0.137
-563.558	-73.691	0.237	-0.087
-562.544	100.471	-0.118	-0.138
-561.529	-23.006	0.130	0.079
-560.515	-91.703	0.179	-0.051
-559.500	-200.000	0.013	0.368
-558.485	-131.124	0.380	0.051
-557.471	-128.305	-0.171	0.025
-556.456	-200.000	0.027	-0.224
-555.442	283.261	0.094	0.170
-554.427	399.649	0.095	0.201
-553.412	-200.000	0.033	0.146
-552.398	-93.560	-0.481	-0.134
-551.383	-44.098	0.224	-0.113
-550.369	-198.601	0.222	0.001
-549.354	-134.824	0.160	-0.020
-548.339	-200.000	0.020	-0.237
-547.325	16.630	-0.275	-0.220
-546.310	368.709	-0.060	0.123
-545.296	-200.000	-0.020	0.323
-544.281	14.290	-0.237	-0.186
-543.266	800.000	-0.061	0.255
-542.252	-92.784	0.044	0.012
-541.237	488.464	-0.121	-0.279
-540.223	45.737	0.104	-0.097
-539.208	29.338	-0.060	0.052
-538.193	98.892	-0.225	0.262
-537.179	-119.029	0.205	-0.036
-536.164	629.151	0.017	-0.043
-535.150	56.124	-0.194	-0.190
-534.135	716.031	-0.034	-0.090
-533.121	246.731	-0.116	0.198
-532.106	114.635	0.188	0.232
-531.091	-133.925	-0.316	0.039
-530.077	-200.000	0.022	-0.240
-529.062	-55.432	0.199	0.090
-528.048	-108.798	-0.110	0.024
-527.033	134.540	0.211	-0.276
-526.018	-101.802	0.112	-0.027
-525.004	-56.636	-0.274	0.122
-523.989	-87.196	0.100	0.030
-522.975	800.000	-0.082	-0.311
-521.960	-108.745	0.105	-0.023
-520.945	800.000	-0.027	0.096
-519.931	800.000	0.067	-0.191
-518.916	800.000	-0.060	-0.252
-517.902	-200.000	-0.009	-0.055
-516.887	-43.164	0.311	0.159
-515.872	-39.245	0.293	0.155
-514.858	-46.504	0.217	0.107
-513.843	43.734	-0.299	-0.275
-512.829	-200.000	0.045	-0.206
-511.814	-55.274	0.362	0.164
-510.799	44.327	0.138	-0.127
-509.785	800.000	0.034	-0.109
-508.770	-64.132	0.260	-0.107
-507.756	-200.000	0.022	-0.140
-506.741	-116.891	-0.249	-0.046
-505.726	31.771	0.200	0.174
-504.712	56.269	0.155	0.152
-503.697	446.312	-0.132	-0.292
-502.683	12.586	0.402	-0.312
-501.668	-200.000	0.022	0.125
-500.653	-39.962	-0.064	0.034
-499.639	-88.022	-0.233	-0.070
-498.624	93.991	0.037	-0.042
-497.610	-63.453	0.272	-0.112
-496.595	429.094	-0.088	-0.193
-495.581	-23.889	0.179	-0.108
-494.566	-69.304	0.172	-0.067
-493.551	800.000	0.078	-0.316
-492.537	-85.626	-0.077	0.024
-491.522	-33.258	0.282	0.157
-490.508	-123.796	0.139	0.022
-489.493	235.516	0.130	-0.215
-488.478	115.594	-0.212	0.261
-487.464	-145.625	-0.182	0.016
-486.449	78.452	-0.074	-0.080
-485.435	-105.995	0.182	0.041
-484.420	101.249	-0.156	0.183
-483.405	97.207	-0.022	0.025
-482.391	-181.053	-0.126	0.003
-481.376	103.156	-0.059	-0.070
-480.362	-196.854	-0.520	0.003
-479.347	39.902	0.105	0.095
-478.332	165.582	-0.015	0.021
-477.318	138.836	-0.081	-0.107
-476.303	-123.824	-0.087	0.014
-475.289	122.268	0.315	-0.395
-474.274	-200.000	-0.038	-0.267
-473.259	9.759	0.233	-0.178
-472.245	179.203	-0.166	0.245
-471.230	-176.685	-0.199	-0.005
-470.216	-5.787	0.261	0.180
-469.201	-200.000	-0.001	0.134
-468.186	102.758	-0.187	0.221
-467.172	496.352	0.035	0.082
-466.157	-60.338	-0.115	-0.049
-465.143	-153.504	-0.255	0.018
-464.128	-105.219	0.295	0.068
-463.113	-152.559	-0.242	-0.017
-462.099	190.223	0.147	-0.222
-461.084	-65.879	0.111	0.045
-460.070	37.542	0.207	0.184
-459.055	-8.119	-0.066	-0.045
-458.040	-33.894	-0.216	-0.120
-457.026	-200.000	-0.019	-0.174
-456.011	-68.402	0.213	0.083
-454.997	-10.274	-0.227	0.152
-453.982	272.915	0.059	0.104
-452.968	-30.443	-0.333	-0.190
-451.953	44.974	0.125	-0.116
-450.938	285.969	0.009	-0.016
-449.924	-72.841	-0.129	-0.048
-448.909	800.000	-0.015	0.044
-447.895	155.430	0.086	0.119
-446.880	-200.000	-0.007	-0.178
-445.865	-200.000	-0.056	0.255
-444.851	800.000	-0.118	0.475
-443.836	4.832	-0.136	0.100
-442.822	231.734	0.029	-0.048
-441.807	-76.524	0.232	-0.082
-440.792	-200.000	0.067	0.314
-439.778	1.905	0.142	-0.103
-438.763	230.272	-0.156	-0.257
-437.749	-28.761	-0.089	0.051
-436.734	23.720	-0.047	-0.039
-435.719	-151.780	0.173	0.013
-434.705	-58.220	-0.176	-0.077
-433.690	14.506	-0.275	-0.215
-432.676	38.696	-0.104	-0.093
-431.661	-200.000	-0.041	-0.232
-430.646	548.157	-0.011	0.027
-429.632	-5.630	0.166	-0.114
-428.617	-135.299	-0.442	0.053
-427.603	177.282	-0.118	-0.173
-426.588	162.929	-0.121	0.171
-425.573	-174.524	0.128	-0.004
-424.559	-200.000	0.088	0.000
-423.544	-6.466	-0.092	0.063
-422.530	748.959	-0.044	-0.119
-421.515	-200.000	0.046	-0.329
-420.500	114.015	0.217	0.264
-419.486	800.000	0.046	-0.136
-418.471	-142.496	0.040	0.004
-417.457	281.306	0.051	-0.091
-416.442	134.505	-0.120	-0.156
-415.428	-59.001	0.590	-0.256
-414.413	-121.160	-0.181	-0.030
-413.398	-53.720	-0.179	0.082
-412.384	-74.483	-0.230	-0.083
-411.369	-22.847	0.041	0.025
-410.355	-200.000	-0.003	0.141
-409.340	100.831	-0.054	0.063
-408.325	-200.000	0.046	-0.245
-407.311	-200.000	0.002	0.216
-406.296	-40.492	0.018	-0.009
-405.282	-115.210	0.373	-0.071
-404.267	685.714	-0.175	-0.458
-403.252	-46.915	-0.176	0.086
-402.238	302.656	0.029	0.055
-401.223	31.837	-0.183	0.158
-400.209	800.000	-0.084	-0.254
-399.194	-108.669	-0.297	0.064
-398.179	-200.000	0.022	-0.164
-397.165	220.755	-0.073	-0.118
-396.150	779.054	-0.036	0.099
-395.136	78.964	0.217	0.233
-394.121	53.034	-0.146	0.140
-393.106	-71.542	-0.053	-0.020
-392.092	75.994	0.043	-0.045
-391.077	-200.000	-0.071	0.508
-390.063	-200.000	0.016	0.083
-389.048	49.664	-0.166	0.157
-388.033	-137.604	-0.093	-0.010
-387.019	0.697	0.279	0.200
-386.004	110.149	-0.099	0.120
-384.990	704.098	0.034	0.090
-383.975	-99.425	0.242	0.061
-382.960	-55.914	-0.187	0.084
-381.946	-71.435	0.262	0.098
-380.931	-45.000	-0.334	-0.167
-379.917	-22.773	0.100	-0.061
-378.902	183.667	0.433	0.641
-377.888	-25.594	0.164	0.097
-376.873	-200.000	0.052	-0.281
-375.858	-200.000	0.030	0.207
-374.844	14.350	0.286	0.224
-373.829	-48.768	-0.300	-0.144
-372.815	124.242	0.087	0.109
-371.800	234.157	0.144	0.237
-370.785	-21.262	0.407	0.249
-369.771	271.735	0.050	0.089
-368.756	-34.616	-0.203	-0.112
-367.742	-200.000	-0.071	0.353
-366.727	-200.000	-0.012	0.102
-365.712	-119.811	-0.472	-0.082
-364.698	87.118	-0.135	-0.150
-363.683	-111.102	-0.247	0.051
-362.669	7.897	-0.295	0.221
-361.654	328.906	0.097	0.187
-360.639	-124.573	-0.501	0.078
-359.625	800.000	-0.105	0.369
-358.610	-87.837	0.324	0.098
-357.596	-82.752	0.201	0.065
-356.581	-159.789	-0.113	-0.006
-355.566	-98.718	-0.325	-0.083
-354.552	119.050	0.312	-0.387
-353.537	545.401	-0.067	0.159
-352.523	-200.000	-0.030	0.138
-351.508	180.620	0.066	0.096
-350.493	4.345	-0.238	-0.175
-349.479	800.000	0.064	-0.208
-348.464	3.453	0.293	-0.214
-347.450	-17.081	0.212	0.134
-346.435	408.931	-0.073	-0.154
-345.420	488.675	0.100	0.229
-344.406	-20.533	0.209	-0.128
-343.391	584.117	-0.015	0.036
-342.377	-92.781	-0.184	0.052
-341.362	-158.349	0.213	-0.012
-340.348	27.872	0.232	0.195
-339.333	-200.000	-0.004	0.053
-338.318	-37.555	0.244	0.130
-337.304	249.630	-0.142	0.241
-336.289	-107.693	-0.604	-0.132
-335.275	-56.700	-0.302	0.134
-334.260	-151.370	0.231	-0.017
-333.245	-139.331	0.217	-0.023
-332.231	-4.242	0.441	0.305
-331.216	-200.000	-0.019	0.347
-330.202	7.165	0.108	0.081
-329.187	800.000	0.023	0.065
-328.172	-69.993	-0.162	-0.062
-327.158	-200.000	-0.027	0.157
-326.143	800.000	0.075	-0.218
-325.129	6.136	0.302	0.224
-324.114	-200.000	0.015	-0.081
-323.099	800.000	-0.039	-0.115
-322.085	-75.690	0.166	0.059
-321.070	537.723	-0.085	0.201
-320.056	-200.000	0.011	-0.225
-319.041	-129.290	0.111	0.016
-318.026	188.520	0.121	-0.181
-317.012	-107.539	-0.109	-0.024
-315.997	28.653	0.090	-0.076
-314.983	800.000	-0.062	0.187
-313.968	800.000	-0.051	0.156
-312.953	29.858	-0.105	-0.089
-311.939	-60.409	-0.188	0.080
-310.924	88.675	0.065	-0.072
-309.910	-126.131	-0.321	-0.048
-308.895	-25.834	0.276	0.163
-307.880	90.399	-0.153	0.171
-306.866	64.708	0.065	0.066
-305.851	-78.355	0.135	0.046
-304.837	-194.025	-0.171	0.001
-303.822	-200.000	-0.034	-0.492
-302.807	-125.644	0.075	-0.011
-301.793	-113.085	-0.129	-0.025
-300.778	1.440	0.197	-0.141
-299.764	132.973	-0.193	0.249
-298.749	-123.552	-0.172	0.027
-297.735	-27.062	0.194	-0.113
-296.720	-53.975	0.222	-0.101
-295.705	223.029	0.143	-0.230
-294.691	-135.810	-0.189	0.022
-293.676	-200.000	0.107	-0.000
-292.662	303.222	0.043	-0.080
-291.647	12.295	0.152	-0.117
-290.632	800.000	-0.041	0.138
-289.618	-200.000	0.055	0.302
-288.603	96.568	-0.128	0.146
-287.589	37.144	-0.180	0.159
-286.574	76.101	-0.040	0.043
-285.559	74.477	0.275	-0.288
-284.545	-200.000	-0.001	0.264
-283.530	-37.576	0.186	-0.099
-282.516	213.220	0.103	-0.162
-281.501	93.585	-0.214	0.242
-280.486	-200.000	-0.020	0.197
-279.472	-167.849	-0.121	0.005
-278.457	800.000	-0.076	0.279
-277.443	-42.006	0.058	0.029
-276.428	70.972	0.115	-0.119
-275.413	138.309	0.094	0.123
-274.399	-200.000	-0.015	-0.068
-273.384	-200.000	-0.049	-0.270
-272.370	-200.000	0.031	0.386
-271.355	-200.000	0.020	-0.273
-270.340	383.472	-0.089	-0.183
-269.326	127.991	0.133	-0.169
-268.311	158.817	0.031	-0.042
-267.297	166.797	0.070	-0.100
-266.282	-74.965	-0.165	0.059
-265.267	-26.420	0.149	-0.087
-264.253	360.062	0.110	-0.220
-263.238	-200.000	-0.036	-0.169
-262.224	417.475	-0.067	-0.143
-261.209	800.000	-0.080	0.224
-260.195	-158.986	-0.145	-0.008
-259.180	800.000	-0.017	0.068
-258.165	465.898	-0.035	0.077
-257.151	175.883	-0.098	0.142
-256.136	-80.057	-0.097	-0.033
-255.122	203.404	-0.204	0.314
-254.107	-94.314	0.087	0.024
-253.092	188.769	-0.057	0.084
-252.078	231.487	0.390	0.638
-251.063	1.763	-0.253	0.182
-250.049	164.135	0.206	0.290
-249.034	33.469	-0.201	-0.174
-248.019	-30.460	0.175	0.099
-247.005	-153.316	-0.102	-0.007
-245.990	800.000	0.087	-0.268
-244.976	118.575	-0.174	0.214
-243.961	338.763	0.059	-0.115
-242.946	-166.583	-0.264	-0.011
-241.932	-133.327	-0.094	0.012
-240.917	-57.929	-0.163	-0.071
-239.903	-200.000	0.038	0.299
-238.888	-56.650	-0.172	-0.076
-237.873	800.000	0.040	-0.168
-236.859	-127.076	0.257	-0.038
-235.844	606.710	0.100	-0.248
-234.830	75.743	0.040	0.043
-233.815	247.375	0.086	0.145
-232.800	-36.170	-0.324	0.175
-231.786	172.815	0.121	0.174
-230.771	460.099	-0.060	-0.132
-229.757	17.687	-0.234	-0.186
-228.742	-28.072	0.201	-0.116
-227.727	220.661	0.049	0.078
-226.713	-38.612	-0.213	-0.112
-225.698	747.519	-0.097	-0.260
-224.684	-109.659	0.118	0.025
-223.669	800.000	-0.064	0.214
-222.655	800.000	-0.024	-0.094
-221.640	260.118	0.189	-0.325
-220.625	348.972	-0.123	0.242
-219.611	-200.000	0.056	-0.309
-218.596	-200.000	-0.021	-0.200
-217.582	59.537	-0.153	0.150
-216.567	-200.000	-0.016	-0.192
-215.552	-200.000	-0.049	0.321
-214.538	-143.758	0.194	0.018
-213.523	-26.635	-0.133	-0.078
-212.509	41.508	0.126	0.113
-211.494	-200.000	0.008	0.076
-210.479	75.072	-0.195	0.205
-209.465	800.000	-0.034	-0.122
-208.450	-86.466	0.359	-0.110
-207.436	-174.531	0.133	-0.004
-206.421	352.409	-0.169	0.334
-205.406	-45.264	0.207	0.102
-204.392	377.539	-0.057	-0.115
-203.377	165.287	0.120	-0.169
-202.363	-200.000	0.000	-0.045
-201.348	-117.488	0.536	0.097
-200.333	800.000	0.010	0.033
-199.319	-200.000	0.034	0.175
-198.304	800.000	0.079	-0.309
-197.290	51.550	0.327	-0.310
-196.275	-200.000	-0.004	-0.184
-195.260	800.000	0.068	-0.254
-194.246	-200.000	-0.006	0.298
-193.231	486.805	-0.217	0.492
-192.217	-108.070	0.234	-0.051
-191.202	-114.025	-0.374	-0.072
-190.187	-89.533	-0.085	-0.025
-189.173	634.821	0.051	-0.128
-188.158	-200.000	0.023	-0.202
-187.144	-159.452	-0.226	0.013
-186.129	-61.372	0.122	0.051
-185.114	-101.927	-0.297	0.071
-184.100	-191.482	0.442	-0.004
-183.085	54.982	0.261	-0.251
-182.071	208.289	-0.265	-0.413
-181.056	197.022	0.143	-0.217
-180.042	624.023	0.094	0.236
-179.027	-200.000	0.059	-0.260
-178.012	-67.457	-0.129	0.050
-176.998	-158.429	0.078	-0.005
-175.983	-200.000	-0.004	-0.295
-174.969	81.083	-0.102	0.109
-173.954	189.066	-0.079	0.117
-172.939	248.620	-0.070	-0.118
-171.925	293.387	-0.088	-0.159
-170.910	86.042	0.103	0.113
-169.896	-40.357	0.216	-0.112
-168.881	-4.947	0.116	-0.080
-167.866	-46.424	-0.129	-0.063
-166.852	7.359	-0.226	-0.168
-165.837	-200.000	-0.029	0.150
-164.823	253.475	0.048	0.082
-163.808	388.093	-0.043	-0.088
-162.793	800.000	0.114	-0.405
-161.779	103.742	-0.038	-0.044
-160.764	-200.000	0.030	0.179
-159.750	-200.000	0.053	0.328
-158.735	775.766	0.049	-0.134
-157.720	800.000	0.035	-0.131
-156.706	169.412	-0.237	-0.336
-155.691	-8.660	-0.227	0.151
-154.677	22.651	-0.224	0.182
-153.662	54.915	0.387	0.371
-152.647	62.055	-0.212	-0.210
-151.633	612.241	0.058	-0.145
-150.618	-200.000	-0.010	-0.178
-149.604	-80.628	0.258	-0.085
-148.589	-76.240	-0.090	0.031
-147.574	411.343	-0.059	-0.125
-146.560	-169.021	0.306	0.011
-145.545	464.682	-0.017	0.038
-144.531	671.151	0.082	-0.210
-143.516	349.359	0.180	-0.352
-142.502	50.416	0.059	0.056
-141.487	-49.428	0.199	-0.094
-140.472	-136.481	-0.240	0.028
-139.458	-200.000	-0.044	-0.290
-138.443	-200.000	-0.008	0.066
-137.429	-107.272	-0.258	0.056
-136.414	112.610	0.061	-0.074
-135.399	-139.509	-0.083	0.009
-134.385	-98.704	-0.025	0.006
-133.370	-79.639	-0.277	-0.093
-132.356	-166.736	0.414	0.017
-131.341	2.534	-0.348	0.250
-130.326	800.000	0.107	0.386
-129.312	-200.000	-0.038	-0.170
-128.297	-68.365	0.363	-0.140
-127.283	800.000	-0.076	0.221
-126.268	346.870	0.023	-0.046
-125.253	800.000	0.125	0.483
-124.239	-200.000	0.011	0.308
-123.224	-103.270	0.467	-0.109
-122.210	-62.704	-0.257	-0.106
