DTS Sentinel unit serial number:	SN413079Multiplexer serial number:	ORYXHardware model number:	OX4-SRSoftware version number:	ORYX F/W v4.00 Oryx Data Collector v3.7.2.0data status	okinstallation	princeton_trtdifferential loss correction	single-endedforward channel	channel 1reverse channel	N/Adate	2019/09/14time	11:02:35forward acquisition time	60.00reverse acquisition time	0.00gamma	496.2192k internal	0.2299k external	0.2299temperature offset calibration	1.0079default loss term (dB/km)	0.3790temperature slope calibration	1.0000multiplexer offset coefficient	1.0000multiplexer slope coefficient	1.0000fibre end	0.00T internal ref (°C)	36.06T ext. ref 1 (°C)	4.38T ext. ref 2 (°C)	33.98length (m)	temperature (°C)	Stokes	anti-Stokes-747.200	-111.853	0.377	-0.078
-746.185	-13.428	-0.133	0.088
-745.171	-129.097	0.113	0.016
-744.156	800.000	-0.048	0.180
-743.142	42.208	0.158	0.146
-742.127	189.029	0.049	0.075
-741.112	18.767	-0.150	0.123
-740.098	-200.000	-0.003	0.376
-739.083	800.000	0.028	-0.125
-738.069	800.000	0.048	0.184
-737.054	-200.000	-0.004	0.021
-736.039	800.000	-0.062	-0.188
-735.025	304.494	0.061	0.115
-734.010	325.720	-0.010	0.019
-732.996	93.880	-0.174	-0.201
-731.981	225.646	-0.166	-0.275
-730.966	17.509	-0.203	-0.164
-729.952	-200.000	0.021	-0.383
-728.937	-200.000	0.017	0.079
-727.923	-87.279	-0.631	-0.195
-726.908	139.302	0.149	-0.199
-725.894	45.878	0.271	-0.256
-724.879	-157.622	-0.319	0.019
-723.864	-60.008	-0.262	0.114
-722.850	-141.064	-0.462	0.048
-721.835	145.298	-0.167	0.227
-720.821	76.687	-0.056	0.061
-719.806	-178.391	0.186	0.004
-718.791	-33.704	-0.329	-0.185
-717.777	-143.423	0.325	-0.032
-716.762	144.410	-0.135	0.184
-715.748	-75.010	-0.166	-0.061
-714.733	-56.597	0.127	-0.058
-713.718	143.981	-0.175	0.238
-712.704	-139.342	0.093	0.010
-711.689	-37.296	0.101	0.055
-710.675	-27.145	-0.170	-0.101
-709.660	-26.631	-0.328	0.196
-708.645	-88.772	-0.187	0.057
-707.631	51.344	-0.083	-0.081
-706.616	51.401	0.308	0.298
-705.602	-147.219	-0.299	0.026
-704.587	20.839	-0.278	0.229
-703.572	157.697	0.284	-0.401
-702.558	99.484	0.137	-0.162
-701.543	800.000	0.107	-0.413
-700.529	73.667	0.341	-0.364
-699.514	-76.522	-0.217	-0.078
-698.499	55.633	-0.011	0.011
-697.485	-0.518	-0.145	-0.105
-696.470	0.978	0.277	0.203
-695.456	308.100	0.096	0.183
-694.441	800.000	0.015	0.047
-693.426	-13.309	-0.176	0.116
-692.412	199.141	0.050	-0.078
-691.397	40.210	0.131	0.120
-690.383	-140.807	0.442	-0.046
-689.368	34.784	0.258	0.230
-688.354	200.316	-0.183	-0.286
-687.339	-13.812	0.020	-0.013
-686.324	453.978	0.134	0.303
-685.310	-134.641	0.218	0.027
-684.295	149.572	0.223	0.308
-683.281	-115.899	-0.300	-0.057
-682.266	26.919	-0.292	-0.249
-681.251	-162.212	-0.071	-0.004
-680.237	-67.227	-0.407	-0.163
-679.222	158.771	-0.168	0.238
-678.208	22.324	-0.225	-0.187
-677.193	334.608	-0.159	-0.313
-676.178	-101.582	-0.480	0.119
-675.164	-171.121	0.364	-0.013
-674.149	800.000	0.063	0.199
-673.135	665.184	-0.053	-0.140
-672.120	62.415	-0.212	-0.216
-671.105	-102.602	0.284	-0.069
-670.091	-71.346	0.211	0.081
-669.076	-200.000	0.024	0.287
-668.062	-165.423	0.043	0.002
-667.047	310.848	-0.174	-0.331
-666.032	-155.670	-0.163	0.011
-665.018	-63.478	0.218	0.091
-664.003	108.738	-0.243	-0.295
-662.989	126.808	-0.197	0.254
-661.974	105.033	-0.169	-0.203
-660.959	800.000	0.025	0.111
-659.945	485.074	-0.121	-0.280
-658.930	129.691	0.142	-0.185
-657.916	115.229	0.221	0.275
-656.901	-200.000	-0.034	0.389
-655.886	800.000	-0.012	-0.050
-654.872	-65.352	-0.128	0.053
-653.857	-139.325	-0.179	0.020
-652.843	456.675	0.067	-0.151
-651.828	249.337	-0.137	-0.236
-650.814	102.169	0.131	-0.156
-649.799	60.354	0.273	0.275
-648.784	800.000	-0.008	-0.029
-647.770	-133.032	-0.395	0.051
-646.755	29.258	0.235	-0.203
-645.741	-111.340	-0.477	0.099
-644.726	54.834	-0.156	0.153
-643.711	-159.277	0.547	-0.031
-642.697	-23.937	-0.400	0.243
-641.682	-93.486	0.278	0.078
-640.668	-200.000	-0.010	0.092
-639.653	-200.000	0.013	-0.075
-638.638	-135.244	0.126	0.015
-637.624	51.107	0.330	-0.319
-636.609	800.000	-0.050	0.205
-635.595	-151.823	0.118	-0.009
-634.580	-143.814	-0.095	0.009
-633.565	-49.724	-0.147	-0.071
-632.551	236.695	-0.022	0.037
-631.536	79.216	-0.328	-0.357
-630.522	-29.412	0.101	-0.058
-629.507	-169.004	-0.208	-0.008
-628.492	-99.298	-0.314	0.081
-627.478	-109.743	0.243	0.052
-626.463	243.977	0.028	0.049
-625.449	-9.967	0.011	0.007
-624.434	-93.649	0.020	-0.006
-623.419	800.000	-0.060	0.244
-622.405	-64.760	-0.043	-0.018
-621.390	-200.000	0.050	0.266
-620.376	800.000	0.105	-0.326
-619.361	605.167	-0.045	0.113
-618.346	800.000	-0.071	-0.216
-617.332	-18.824	0.257	-0.163
-616.317	308.747	0.090	0.170
-615.303	-200.000	-0.010	-0.099
-614.288	157.090	0.211	0.296
-613.273	-12.759	-0.221	0.146
-612.259	15.853	-0.131	-0.105
-611.244	397.574	-0.032	-0.068
-610.230	-65.853	-0.105	0.043
-609.215	89.821	-0.140	-0.159
-608.201	800.000	-0.088	-0.380
-607.186	-83.064	-0.034	0.011
-606.171	-18.391	-0.065	0.041
-605.157	79.258	-0.137	0.149
-604.142	3.883	-0.179	-0.133
-603.128	-14.710	0.152	0.099
-602.113	-41.094	0.240	-0.126
-601.098	-48.829	0.037	0.018
-600.084	800.000	-0.058	-0.232
-599.069	-131.012	-0.098	0.013
-598.055	101.452	-0.220	0.260
-597.040	-200.000	-0.045	-0.306
-596.025	-170.250	-0.227	0.008
-595.011	-200.000	0.052	0.296
-593.996	-10.903	0.252	0.169
-592.982	52.362	0.191	-0.185
-591.967	-136.612	0.205	0.024
-590.952	-78.196	-0.289	-0.101
-589.938	-45.572	0.165	-0.083
-588.923	-200.000	-0.020	-0.102
-587.909	36.649	0.243	-0.218
-586.894	149.579	-0.199	-0.274
-585.879	-66.545	-0.235	0.095
-584.865	800.000	-0.097	0.302
-583.850	248.524	0.154	-0.264
-582.836	333.902	0.096	-0.188
-581.821	-200.000	-0.013	0.288
-580.806	800.000	-0.045	-0.128
-579.792	13.418	-0.119	-0.094
-578.777	120.752	0.055	-0.069
-577.763	352.168	0.050	-0.100
-576.748	800.000	0.018	-0.060
-575.733	-45.610	0.248	-0.124
-574.719	-106.780	-0.089	-0.020
-573.704	800.000	-0.028	-0.118
-572.690	39.041	0.232	-0.210
-571.675	26.751	-0.153	0.130
-570.661	-10.264	0.148	0.100
-569.646	65.840	0.117	-0.120
-568.631	-200.000	0.024	0.323
-567.617	-21.103	-0.117	-0.073
-566.602	-156.112	-0.121	-0.008
-565.588	357.783	0.146	-0.294
-564.573	204.942	-0.145	-0.228
-563.558	-71.788	0.208	0.079
-562.544	40.705	0.288	0.263
-561.529	800.000	0.081	0.301
-560.515	16.636	0.055	-0.044
-559.500	198.761	0.072	-0.112
-558.485	83.534	-0.094	-0.104
-557.471	99.021	0.115	-0.134
-556.456	-200.000	0.008	-0.099
-555.442	-112.007	0.357	0.073
-554.427	-130.110	-0.204	0.028
-553.412	-200.000	-0.029	0.312
-552.398	65.006	-0.272	-0.278
-551.383	-200.000	-0.015	0.074
-550.369	66.957	0.065	-0.067
-549.354	798.857	0.101	-0.282
-548.339	-72.510	0.238	0.089
-547.325	-41.533	-0.043	-0.023
-546.310	-27.643	-0.329	0.194
-545.296	800.000	-0.082	0.252
-544.281	-7.104	-0.118	0.081
-543.266	47.644	-0.043	-0.041
-542.252	-200.000	0.004	-0.195
-541.237	104.628	-0.163	-0.195
-540.223	-103.681	-0.345	0.082
-539.208	46.176	-0.184	-0.173
-538.193	-200.000	0.004	0.168
-537.179	235.444	0.118	-0.198
-536.164	219.746	0.060	-0.097
-535.150	-200.000	-0.039	-0.248
-534.135	-74.791	-0.328	0.119
-533.121	71.412	-0.182	0.192
-532.106	-120.968	0.349	-0.059
-531.091	-200.000	-0.017	-0.144
-530.077	100.269	0.110	-0.129
-529.062	-46.254	-0.136	0.068
-528.048	284.722	0.042	-0.076
-527.033	-100.904	-0.319	-0.079
-526.018	-88.509	0.156	-0.047
-525.004	-200.000	0.012	0.420
-523.989	-19.590	0.126	-0.079
-522.975	283.716	-0.113	-0.205
-521.960	-200.000	0.029	-0.306
-520.945	-137.273	0.041	0.005
-519.931	-91.265	0.362	-0.105
-518.916	90.414	0.075	0.085
-517.902	456.343	0.048	-0.107
-516.887	-83.413	-0.095	-0.031
-515.872	-28.613	-0.324	-0.189
-514.858	-127.223	0.092	-0.014
-513.843	-200.000	0.018	-0.253
-512.829	-129.616	0.119	0.017
-511.814	-74.311	0.068	0.025
-510.799	-25.928	-0.063	-0.038
-509.785	-200.000	0.017	0.287
-508.770	-50.003	0.196	0.094
-507.756	-200.000	-0.034	0.258
-506.741	192.973	0.158	0.241
-505.726	125.835	0.236	0.301
-504.712	643.488	0.085	-0.219
-503.697	-103.287	-0.192	-0.046
-502.683	800.000	-0.131	0.399
-501.668	-200.000	0.003	-0.112
-500.653	-16.381	0.004	0.003
-499.639	155.319	-0.180	-0.251
-498.624	-67.190	0.074	0.029
-497.610	-62.997	0.465	-0.194
-496.595	176.458	-0.235	-0.346
-495.581	303.699	0.085	0.160
-494.566	214.735	-0.206	0.330
-493.551	-134.683	-0.300	0.037
-492.537	309.435	-0.123	-0.232
-491.522	173.833	-0.089	-0.130
-490.508	-54.765	0.268	0.122
-489.493	800.000	-0.071	-0.219
-488.478	489.846	-0.165	-0.382
-487.464	800.000	0.066	0.233
-486.449	127.420	-0.148	0.190
-485.435	229.497	0.094	-0.155
-484.420	-200.000	0.051	0.259
-483.405	-140.275	-0.373	0.039
-482.391	-117.875	0.583	0.106
-481.376	-105.411	0.204	-0.047
-480.362	-43.762	-0.137	-0.070
-479.347	-125.899	0.386	-0.059
-478.332	-200.000	0.008	0.151
-477.318	314.196	-0.102	0.194
-476.303	-31.594	0.027	-0.015
-475.289	-14.085	-0.089	-0.058
-474.274	-154.816	-0.297	0.020
-473.259	128.578	0.057	0.073
-472.245	-200.000	0.011	0.064
-471.230	59.470	-0.159	0.158
-470.216	-125.449	0.237	-0.036
-469.201	-85.911	0.311	0.097
-468.186	-200.000	-0.044	0.228
-467.172	-17.100	0.180	-0.115
-466.157	-200.000	0.032	0.216
-465.143	307.534	0.065	0.123
-464.128	-137.252	0.323	-0.037
-463.113	53.543	0.242	0.235
-462.099	-200.000	-0.006	0.136
-461.084	-72.776	-0.286	0.106
-460.070	-105.562	0.188	-0.043
-459.055	73.143	-0.183	0.193
-458.040	-101.073	-0.092	0.023
-457.026	800.000	-0.035	-0.130
-456.011	729.551	-0.145	-0.392
-454.997	800.000	-0.059	-0.218
-453.982	-200.000	-0.054	-0.439
-452.968	196.936	0.101	-0.156
-451.953	-9.561	0.102	0.069
-450.938	419.298	-0.111	0.240
-449.924	-200.000	-0.010	0.336
-448.909	-200.000	-0.009	0.178
-447.895	42.240	0.129	-0.118
-446.880	-117.275	0.352	-0.065
-445.865	-61.704	-0.218	-0.092
-444.851	-200.000	0.034	-0.223
-443.836	-200.000	0.004	-0.281
-442.822	-200.000	0.043	-0.245
-441.807	68.618	0.060	0.062
-440.792	-91.651	0.064	0.018
-439.778	-85.643	-0.098	-0.031
-438.763	-2.335	-0.178	0.126
-437.749	142.420	0.106	0.142
-436.734	800.000	-0.019	0.070
-435.719	22.775	-0.253	0.209
-434.705	125.270	-0.270	-0.343
-433.690	800.000	-0.042	-0.177
-432.676	-41.201	-0.320	0.167
-431.661	-51.190	-0.223	0.105
-430.646	-55.318	-0.250	0.113
-429.632	300.534	-0.033	0.061
-428.617	173.424	0.076	0.111
-427.603	82.147	-0.118	-0.129
-426.588	800.000	0.058	-0.237
-425.573	-200.000	0.007	0.191
-424.559	13.398	-0.097	0.076
-423.544	-69.568	0.255	0.098
-422.530	800.000	0.123	-0.455
-421.515	-151.826	0.204	-0.015
-420.500	-30.593	0.169	-0.096
-419.486	82.114	-0.103	-0.112
-418.471	-24.078	0.031	0.019
-417.457	800.000	0.064	0.193
-416.442	279.383	-0.097	-0.174
-415.428	79.202	0.061	-0.066
-414.413	-200.000	0.054	0.431
-413.398	-15.073	-0.205	-0.132
-412.384	112.237	-0.130	-0.159
-411.369	-120.685	-0.318	-0.054
-410.355	-200.000	-0.056	-0.314
-409.340	253.946	0.060	-0.104
-408.325	72.116	-0.382	0.400
-407.311	800.000	0.098	-0.389
-406.296	10.854	-0.091	0.070
-405.282	-169.184	0.198	0.007
-404.267	182.364	-0.042	0.063
-403.252	-50.555	-0.419	-0.199
-402.238	-7.629	0.314	-0.214
-401.223	-28.189	-0.155	0.090
-400.209	-200.000	-0.010	-0.188
-399.194	97.125	0.081	0.094
-398.179	-200.000	0.005	0.464
-397.165	-200.000	-0.020	-0.153
-396.150	-180.285	-0.396	-0.008
-395.136	779.770	-0.094	0.260
-394.121	-30.428	0.201	0.115
-393.106	-80.532	-0.422	0.142
-392.092	105.570	-0.131	0.156
-391.077	92.026	-0.115	0.130
-390.063	-78.852	0.281	0.097
-389.048	96.125	0.125	0.144
-388.033	-100.691	0.113	-0.028
-387.019	374.572	0.070	0.144
-386.004	-200.000	-0.014	0.176
-384.990	-200.000	-0.010	-0.461
-383.975	-80.252	-0.042	-0.014
-382.960	-200.000	-0.024	-0.151
-381.946	744.459	-0.042	-0.113
-380.931	-200.000	0.035	0.153
-379.917	142.534	-0.261	0.348
-378.902	34.294	-0.218	-0.191
-377.888	-9.501	0.226	0.151
-376.873	1.667	0.146	0.106
-375.858	-29.175	-0.151	-0.087
-374.844	138.426	0.155	0.205
-373.829	-200.000	-0.082	0.436
-372.815	-55.221	-0.256	-0.116
-371.800	-4.891	0.049	-0.034
-370.785	165.205	-0.248	0.352
-369.771	-200.000	0.031	0.145
-368.756	82.319	0.151	-0.165
-367.742	61.705	-0.364	0.365
-366.727	64.705	0.203	-0.206
-365.712	83.971	0.111	-0.121
-364.698	71.586	0.114	0.119
-363.683	34.273	-0.262	-0.230
-362.669	-72.639	0.019	0.007
-361.654	7.092	0.222	0.167
-360.639	-80.514	0.170	-0.057
-359.625	-51.906	-0.352	-0.165
-358.610	-200.000	-0.012	0.158
-357.596	263.060	0.035	-0.060
-356.581	-133.650	-0.269	-0.034
-355.566	276.286	-0.136	0.243
-354.552	-200.000	0.025	-0.203
-353.537	-135.189	0.102	-0.012
-352.523	-39.149	-0.207	0.109
-351.508	528.581	0.114	0.270
-350.493	800.000	0.076	-0.298
-349.479	694.048	0.041	-0.108
-348.464	55.970	-0.102	-0.099
-347.450	800.000	-0.060	-0.195
-346.435	646.907	0.062	-0.160
-345.420	800.000	0.114	0.369
-344.406	764.185	-0.056	0.152
-343.391	800.000	-0.019	-0.062
-342.377	-107.293	0.449	0.099
-341.362	545.694	0.046	-0.110
-340.348	-200.000	-0.047	-0.318
-339.333	-27.652	-0.463	-0.270
-338.318	32.801	-0.105	-0.091
-337.304	-49.515	0.411	0.197
-336.289	-65.071	0.260	0.105
-335.275	-200.000	0.025	0.177
-334.260	-72.118	-0.241	-0.090
-333.245	-19.407	-0.160	0.099
-332.231	28.786	-0.122	-0.104
-331.216	-200.000	-0.022	-0.371
-330.202	-200.000	0.039	0.236
-329.187	353.679	0.086	0.172
-328.172	296.688	0.191	0.352
-327.158	-144.485	0.274	0.026
-326.143	571.564	0.095	0.233
-325.129	244.193	-0.095	-0.160
-324.114	-151.425	-0.057	0.004
-323.099	-200.000	-0.000	0.096
-322.085	126.285	0.114	-0.144
-321.070	106.542	0.089	-0.106
-320.056	243.111	0.121	-0.204
-319.041	-69.904	-0.208	-0.080
-318.026	-200.000	-0.063	-0.331
-317.012	-6.157	-0.120	-0.082
-315.997	-149.226	-0.325	0.026
-314.983	-62.664	0.235	-0.098
-313.968	-42.153	0.198	-0.101
-312.953	422.171	0.025	-0.054
-311.939	94.504	0.224	-0.256
-310.924	800.000	-0.104	0.395
-309.910	274.716	-0.214	0.381
-308.895	-118.689	-0.335	-0.059
-307.880	-160.809	-0.086	0.005
-306.866	-41.708	-0.176	0.090
-305.851	-30.826	-0.208	-0.118
-304.837	-48.000	-0.041	0.020
-303.822	800.000	0.085	0.306
-302.807	202.663	0.093	-0.145
-301.793	31.370	-0.113	-0.097
-300.778	-53.238	-0.477	-0.220
-299.764	466.406	-0.057	0.128
-298.749	133.725	0.171	-0.223
-297.735	152.409	0.089	-0.122
-296.720	-200.000	0.096	0.556
-295.705	206.515	0.091	0.142
-294.691	-149.522	0.159	0.013
-293.676	22.744	0.244	0.200
-292.662	136.917	-0.184	-0.241
-291.647	416.454	-0.047	0.100
-290.632	-167.836	-0.053	-0.002
-289.618	-73.193	-0.091	-0.033
-288.603	-200.000	-0.008	0.209
-287.589	800.000	0.129	0.556
-286.574	772.862	-0.049	-0.133
-285.559	216.695	-0.100	-0.160
-284.545	50.789	0.227	0.216
-283.530	800.000	-0.047	-0.131
-282.516	-200.000	-0.005	-0.130
-281.501	26.096	0.187	0.157
-280.486	-27.018	0.184	0.108
-279.472	726.502	0.062	-0.167
-278.457	424.335	0.039	0.085
-277.443	800.000	0.106	0.365
-276.428	-200.000	0.330	-0.001
-275.413	-97.031	-0.157	0.041
-274.399	310.969	-0.123	0.232
-273.384	-9.971	0.266	0.177
-272.370	-12.977	0.130	-0.085
-271.355	478.568	0.093	-0.211
-270.340	-58.888	-0.426	0.184
-269.326	-200.000	-0.023	-0.215
-268.311	-54.581	-0.183	0.083
-267.297	540.905	0.129	0.307
-266.282	-60.843	-0.142	-0.060
-265.267	-14.976	0.136	-0.087
-264.253	-32.240	-0.225	-0.126
-263.238	36.413	0.318	-0.281
-262.224	-9.484	-0.123	-0.082
-261.209	83.790	-0.181	-0.197
-260.195	-109.737	-0.311	-0.066
-259.180	800.000	-0.108	0.300
-258.165	-60.835	0.212	0.090
-257.151	-2.695	-0.095	-0.067
-256.136	0.291	-0.093	-0.066
-255.122	-140.233	-0.180	-0.019
-254.107	-191.835	0.109	-0.001
-253.092	370.197	-0.124	0.252
-252.078	-91.550	0.397	-0.113
-251.063	511.742	-0.130	0.302
-250.049	-30.584	-0.372	0.211
-249.034	-38.420	-0.178	0.094
-248.019	-200.000	0.068	0.309
-247.005	800.000	-0.083	0.361
-245.990	800.000	-0.091	0.351
-244.976	622.753	-0.066	0.168
-243.961	92.977	0.094	-0.107
-242.946	219.406	0.088	0.140
-241.932	-36.412	0.329	-0.177
-240.917	-102.235	-0.186	0.045
-239.903	33.479	-0.215	0.187
-238.888	-131.158	0.121	0.016
-237.873	800.000	-0.066	-0.268
-236.859	129.426	0.096	0.123
-235.844	800.000	0.115	-0.383
-234.830	28.004	-0.160	-0.135
-233.815	800.000	-0.100	0.371
-232.800	277.167	0.034	0.060
-231.786	-177.755	0.313	0.008
-230.771	457.298	-0.047	-0.105
-229.757	-200.000	-0.026	0.142
-228.742	-200.000	-0.005	0.156
-227.727	-6.251	-0.255	-0.174
-226.713	-121.198	-0.137	-0.023
-225.698	800.000	0.048	-0.179
-224.684	-200.000	0.046	-0.249
-223.669	-96.810	0.182	-0.048
-222.655	-200.000	0.022	-0.220
-221.640	194.942	0.136	-0.206
-220.625	-60.968	-0.207	-0.088
-219.611	697.048	0.080	-0.211
-218.596	-13.342	-0.168	0.109
-217.582	456.934	-0.076	-0.169
-216.567	-32.079	0.260	-0.145
-215.552	-13.660	0.135	0.087
-214.538	86.970	-0.188	0.208
-213.523	291.608	0.063	0.115
-212.509	100.707	0.309	0.359
-211.494	61.930	0.093	0.093
-210.479	-112.247	0.235	0.047
-209.465	-76.991	0.213	-0.074
-208.450	-47.902	0.426	-0.206
-207.436	-113.682	0.309	-0.060
-206.421	800.000	-0.092	-0.381
-205.406	147.441	0.034	0.045
-204.392	40.048	-0.143	-0.128
-203.377	604.311	-0.066	0.163
-202.363	-200.000	0.013	-0.339
-201.348	137.935	-0.032	-0.042
-200.333	154.660	-0.167	-0.229
-199.319	800.000	0.042	0.171
-198.304	129.277	0.114	0.146
-197.290	124.690	-0.044	-0.055
-196.275	244.502	0.178	0.300
-195.260	24.019	0.229	0.189
-194.246	-99.104	0.060	-0.015
-193.231	146.332	-0.067	0.090
-192.217	474.843	0.094	-0.212
-191.202	-10.241	-0.051	-0.034
-190.187	-47.281	-0.353	-0.172
-189.173	85.358	0.195	0.214
-188.158	285.895	0.101	0.181
-187.144	56.047	0.079	0.077
-186.129	800.000	0.049	0.140
-185.114	800.000	0.051	-0.177
-184.100	688.971	-0.047	0.122
-183.085	188.389	-0.166	0.247
-182.071	-10.267	0.120	0.079
-181.056	-57.043	0.288	0.127
-180.042	-51.322	-0.325	-0.152
-179.027	-200.000	0.133	-0.671
-178.012	-31.791	0.286	-0.160
-176.998	-13.098	0.234	0.152
-175.983	144.688	-0.135	-0.180
-174.969	-23.753	0.253	0.151
-173.954	-111.970	0.208	0.042
-172.939	800.000	0.039	-0.125
-171.925	57.990	0.126	-0.123
-170.910	-147.317	-0.242	-0.021
-169.896	551.779	-0.103	0.248
-168.881	-200.000	0.018	-0.162
-167.866	-28.790	0.358	-0.205
-166.852	-151.515	-0.098	0.007
-165.837	-200.000	-0.041	-0.220
-164.823	490.275	0.201	-0.458
-163.808	-51.565	-0.173	-0.080
-162.793	6.156	0.090	-0.066
-161.779	27.063	0.206	0.172
-160.764	-200.000	-0.004	0.228
-159.750	-80.774	0.400	-0.133
-158.735	-141.096	-0.164	0.017
-157.720	-43.608	0.066	0.033
-156.706	-147.234	-0.177	-0.015
-155.691	-200.000	0.053	0.333
-154.677	-200.000	-0.011	-0.139
-153.662	-167.309	-0.080	0.003
-152.647	-55.289	0.340	-0.152
-151.633	-87.735	-0.371	-0.112
-150.618	-188.853	-0.365	0.004
-149.604	800.000	0.108	0.320
-148.589	65.047	0.142	-0.143
-147.574	-91.960	-0.255	0.072
-146.560	-200.000	-0.053	-0.242
-145.545	-200.000	0.026	-0.182
-144.531	-34.480	-0.123	0.067
-143.516	58.434	0.266	-0.260
-142.502	-200.000	-0.023	-0.312
-141.487	-101.189	-0.055	-0.013
-140.472	-200.000	-0.034	0.184
-139.458	-115.425	0.103	0.019
-138.443	-44.912	-0.160	-0.080
-137.429	-175.013	0.399	0.011
-136.414	-200.000	0.029	0.219
-135.399	29.021	0.227	0.192
-134.385	-139.028	-0.024	0.003
-133.370	-17.431	-0.475	0.298
-132.356	-200.000	-0.009	-0.157
-131.341	-37.321	0.137	0.073
-130.326	20.244	-0.065	-0.052
-129.312	-144.950	0.118	-0.011
-128.297	-200.000	0.040	0.354
-127.283	-33.395	0.257	0.142
-126.268	-57.104	0.413	-0.181
-125.253	-141.101	0.179	0.018
-124.239	-34.933	-0.141	0.077
-123.224	-3.612	-0.309	0.214
-122.210	606.501	0.037	0.092
-121.195	-148.870	-0.154	0.012
