DTS Sentinel unit serial number:	SN413079Multiplexer serial number:	ORYXHardware model number:	OX4-SRSoftware version number:	ORYX F/W v4.00 Oryx Data Collector v3.7.2.0data status	okinstallation	princeton_trtdifferential loss correction	single-endedforward channel	channel 1reverse channel	N/Adate	2019/09/13time	01:46:35forward acquisition time	60.00reverse acquisition time	0.00gamma	496.2192k internal	0.2331k external	0.2331temperature offset calibration	1.0146default loss term (dB/km)	0.3790temperature slope calibration	1.0000multiplexer offset coefficient	1.0000multiplexer slope coefficient	1.0000fibre end	0.00T internal ref (°C)	27.69T ext. ref 1 (°C)	3.80T ext. ref 2 (°C)	22.33length (m)	temperature (°C)	Stokes	anti-Stokes-747.200	-17.149	-0.108	-0.069
-746.185	-91.065	-0.254	-0.073
-745.171	-54.705	0.200	-0.091
-744.156	552.133	-0.071	0.172
-743.142	-70.390	0.121	-0.046
-742.127	363.807	-0.076	-0.154
-741.112	-96.185	-0.352	-0.094
-740.098	-59.431	-0.344	0.149
-739.083	91.661	0.178	0.201
-738.069	-75.909	0.461	-0.164
-737.054	238.058	0.104	-0.174
-736.039	-160.137	-0.332	-0.018
-735.025	37.682	-0.041	-0.037
-734.010	-200.000	-0.007	-0.488
-732.996	-55.050	-0.095	-0.043
-731.981	-31.808	-0.115	0.065
-730.966	57.640	0.075	0.074
-729.952	-200.000	0.003	0.075
-728.937	-56.418	-0.098	-0.044
-727.923	-18.837	-0.205	-0.129
-726.908	-163.972	0.156	0.007
-725.894	127.406	0.081	0.104
-724.879	101.278	-0.165	-0.193
-723.864	119.360	-0.312	-0.388
-722.850	800.000	0.071	-0.307
-721.835	605.446	-0.074	-0.185
-720.821	-186.523	-0.239	0.003
-719.806	-92.552	-0.012	-0.003
-718.791	66.269	-0.246	-0.251
-717.777	391.231	-0.104	0.217
-716.762	800.000	0.024	-0.077
-715.748	800.000	0.093	-0.284
-714.733	70.437	-0.179	0.186
-713.718	-46.504	-0.410	0.202
-712.704	800.000	0.071	-0.223
-711.689	-46.857	-0.095	0.047
-710.675	-200.000	-0.041	0.191
-709.660	-112.073	-0.517	0.105
-708.645	382.594	0.085	0.176
-707.631	269.112	0.144	-0.254
-706.616	159.908	-0.187	-0.262
-705.602	-200.000	-0.007	0.234
-704.587	221.273	0.095	-0.154
-703.572	70.445	-0.158	0.164
-702.558	-145.084	0.154	-0.014
-701.543	-68.163	0.155	0.061
-700.529	-92.564	0.142	0.040
-699.514	81.262	0.231	-0.251
-698.499	-102.508	0.122	-0.029
-697.485	-22.289	-0.236	0.144
-696.470	-88.312	0.392	-0.118
-695.456	-152.241	0.124	0.009
-694.441	-137.012	-0.293	0.034
-693.426	96.966	0.141	0.162
-692.412	-119.130	0.348	-0.061
-691.397	152.001	0.129	0.176
-690.383	-53.929	-0.159	0.073
-689.368	800.000	-0.033	-0.114
-688.354	131.794	0.151	0.195
-687.339	800.000	-0.045	-0.134
-686.324	57.794	0.062	0.061
-685.310	371.177	-0.124	-0.253
-684.295	223.730	0.085	-0.137
-683.281	-200.000	0.007	-0.163
-682.266	-200.000	0.026	-0.344
-681.251	-109.850	-0.084	0.018
-680.237	-146.806	0.171	-0.015
-679.222	800.000	0.120	-0.336
-678.208	-118.414	-0.305	-0.054
-677.193	-200.000	0.039	-0.452
-676.178	48.504	-0.156	0.147
-675.164	-25.960	0.266	0.157
-674.149	56.161	-0.203	0.198
-673.135	-53.535	-0.203	-0.093
-672.120	392.148	-0.091	-0.189
-671.105	241.782	0.294	-0.493
-670.091	-16.682	-0.221	0.140
-669.076	103.581	-0.065	0.077
-668.062	137.616	0.066	-0.086
-667.047	18.557	-0.124	-0.099
-666.032	-104.907	0.095	-0.022
-665.018	800.000	-0.018	0.072
-664.003	44.985	-0.121	-0.112
-662.989	800.000	-0.048	0.146
-661.974	-47.606	-0.200	-0.098
-660.959	-2.019	-0.235	0.166
-659.945	-200.000	0.006	-0.194
-658.930	350.893	-0.044	0.088
-657.916	800.000	-0.036	0.143
-656.901	217.408	0.113	-0.181
-655.886	137.777	-0.031	0.041
-654.872	4.641	0.199	0.147
-653.857	31.928	-0.181	-0.156
-652.843	-59.078	0.202	0.087
-651.828	-92.977	0.284	0.079
-650.814	126.738	0.057	-0.073
-649.799	53.048	-0.129	-0.123
-648.784	-134.198	0.187	-0.023
-647.770	182.389	-0.137	0.202
-646.755	267.241	-0.141	-0.248
-645.741	-200.000	0.078	-0.346
-644.726	-180.514	0.363	0.008
-643.711	-200.000	0.025	-0.258
-642.697	761.370	0.042	-0.114
-641.682	6.267	-0.304	-0.226
-640.668	19.256	0.053	0.042
-639.653	419.155	0.123	-0.264
-638.638	-200.000	0.007	-0.110
-637.624	123.885	-0.173	-0.218
-636.609	-200.000	-0.023	-0.327
-635.595	-200.000	0.008	-0.205
-634.580	800.000	0.064	0.184
-633.565	-200.000	0.020	0.222
-632.551	-116.147	-0.444	-0.083
-631.536	-136.424	-0.311	0.036
-630.522	123.119	0.113	0.142
-629.507	95.136	0.157	-0.179
-628.492	-200.000	0.032	-0.272
-627.478	84.062	0.109	0.120
-626.463	-175.510	0.062	-0.002
-625.449	-200.000	0.057	-0.461
-624.434	359.688	0.172	0.345
-623.419	-105.535	-0.147	-0.034
-622.405	800.000	-0.050	0.180
-621.390	-89.454	0.311	-0.092
-620.376	35.962	-0.210	0.185
-619.361	-49.083	0.077	-0.037
-618.346	72.121	-0.143	-0.149
-617.332	114.068	0.106	0.130
-616.317	180.343	0.078	-0.114
-615.303	-37.045	-0.334	0.179
-614.288	-133.290	-0.362	-0.046
-613.273	690.106	-0.052	0.138
-612.259	-125.516	0.151	0.023
-611.244	-200.000	-0.026	0.333
-610.230	-200.000	0.009	0.263
-609.215	-200.000	-0.022	-0.276
-608.201	-200.000	-0.044	-0.237
-607.186	18.838	-0.142	-0.114
-606.171	61.357	-0.055	-0.054
-605.157	-200.000	-0.034	0.205
-604.142	-92.097	0.170	-0.048
-603.128	-200.000	-0.050	-0.239
-602.113	-37.979	0.228	-0.121
-601.098	363.603	-0.084	0.169
-600.084	110.151	-0.179	0.215
-599.069	12.765	0.155	0.120
-598.055	77.621	-0.155	0.165
-597.040	214.183	-0.013	0.020
-596.025	173.554	-0.042	0.061
-595.011	258.331	0.102	0.177
-593.996	246.476	-0.161	-0.272
-592.982	-175.016	-0.202	0.006
-591.967	-200.000	0.013	-0.374
-590.952	118.821	-0.077	-0.095
-589.938	-91.579	0.395	-0.113
-588.923	-200.000	0.047	0.255
-587.909	235.299	0.164	-0.270
-586.894	-95.712	-0.237	0.063
-585.879	271.623	-0.032	0.056
-584.865	-4.788	0.342	0.236
-583.850	652.057	-0.028	-0.072
-582.836	450.393	0.162	-0.359
-581.821	67.929	-0.164	0.168
-580.806	611.792	0.015	0.038
-579.792	504.475	0.066	0.154
-578.777	518.452	-0.070	-0.165
-577.763	-159.680	0.168	0.009
-576.748	-170.755	-0.418	-0.014
-575.733	-33.535	0.103	0.057
-574.719	-41.172	0.055	0.028
-573.704	68.179	-0.128	0.131
-572.690	-1.606	-0.076	-0.054
-571.675	-30.304	-0.197	-0.112
-570.661	-140.960	-0.231	0.024
-569.646	800.000	-0.054	-0.166
-568.631	-81.443	-0.046	-0.015
-567.617	290.261	0.146	-0.265
-566.602	800.000	-0.041	-0.150
-565.588	800.000	-0.089	0.329
-564.573	-200.000	0.013	0.174
-563.558	800.000	0.045	-0.193
-562.544	-200.000	0.016	-0.095
-561.529	800.000	0.112	0.427
-560.515	233.156	-0.084	-0.138
-559.500	-200.000	-0.004	-0.121
-558.485	44.165	0.095	0.087
-557.471	-106.195	0.190	0.043
-556.456	549.931	0.133	-0.318
-555.442	800.000	-0.056	-0.170
-554.427	-113.145	-0.445	0.088
-553.412	-95.562	-0.204	0.055
-552.398	-56.853	0.201	-0.089
-551.383	-151.775	0.439	-0.032
-550.369	-148.985	0.173	-0.014
-549.354	-99.142	-0.343	0.087
-548.339	-200.000	-0.021	-0.285
-547.325	94.379	-0.166	-0.188
-546.310	-127.022	0.062	0.009
-545.296	617.687	-0.110	0.275
-544.281	99.236	-0.145	0.167
-543.266	-87.379	-0.128	0.039
-542.252	800.000	-0.022	-0.076
-541.237	-200.000	-0.002	0.164
-540.223	-200.000	0.005	0.064
-539.208	60.507	0.048	-0.047
-538.193	-90.304	0.311	0.090
-537.179	800.000	0.116	-0.403
-536.164	-21.101	-0.135	0.082
-535.150	82.145	0.025	0.027
-534.135	433.377	-0.051	-0.111
-533.121	198.882	-0.029	-0.045
-532.106	236.965	0.046	-0.076
-531.091	800.000	0.061	-0.189
-530.077	-7.687	0.177	0.119
-529.062	-200.000	0.069	-0.336
-528.048	-90.825	-0.146	0.042
-527.033	-6.249	0.044	0.030
-526.018	800.000	-0.123	-0.440
-525.004	-195.336	-0.233	0.002
-523.989	158.218	0.137	0.190
-522.975	387.703	-0.020	0.041
-521.960	800.000	0.093	-0.314
-520.945	-200.000	-0.036	-0.165
-519.931	-54.196	0.064	-0.029
-518.916	8.414	-0.127	0.095
-517.902	-46.351	-0.141	0.069
-516.887	4.226	-0.140	-0.102
-515.872	-26.696	0.138	0.081
-514.858	56.426	-0.112	-0.109
-513.843	800.000	-0.054	-0.210
-512.829	10.623	-0.191	0.145
-511.814	-200.000	0.287	0.001
-510.799	800.000	-0.008	-0.035
-509.785	34.579	-0.062	-0.054
-508.770	129.577	0.195	-0.249
-507.756	337.884	-0.124	0.241
-506.741	-38.142	-0.219	-0.116
-505.726	-45.458	0.371	-0.183
-504.712	32.130	-0.324	0.279
-503.697	-49.547	-0.292	-0.139
-502.683	-151.745	0.036	0.003
-501.668	47.105	-0.234	0.217
-500.653	347.168	-0.026	0.052
-499.639	-103.689	0.058	-0.014
-498.624	157.978	0.134	-0.185
-497.610	668.746	0.079	-0.205
-496.595	84.386	0.194	0.211
-495.581	138.086	0.132	-0.173
-494.566	280.743	0.063	-0.112
-493.551	-200.000	-0.182	-0.000
-492.537	-139.276	0.240	-0.026
-491.522	-200.000	-0.047	-0.208
-490.508	-104.964	-0.158	0.036
-489.493	-114.892	0.161	0.031
-488.478	-63.796	-0.312	0.127
-487.464	800.000	0.053	0.155
-486.449	-61.142	-0.219	0.092
-485.435	-200.000	0.057	0.322
-484.420	-200.000	0.001	0.336
-483.405	553.910	0.067	-0.161
-482.391	23.764	0.114	0.093
-481.376	800.000	-0.081	0.282
-480.362	-21.289	-0.118	-0.072
-479.347	24.807	-0.281	0.232
-478.332	-200.000	0.013	0.198
-477.318	12.258	0.143	0.110
-476.303	-184.923	-0.041	-0.001
-475.289	12.052	-0.124	-0.095
-474.274	-150.111	0.122	-0.009
-473.259	224.987	-0.103	-0.166
-472.245	-74.712	-0.337	-0.121
-471.230	-169.213	0.129	-0.005
-470.216	-70.928	0.147	-0.055
-469.201	-200.000	0.007	0.057
-468.186	-52.197	-0.085	0.039
-467.172	109.441	0.117	0.139
-466.157	-200.000	-0.010	-0.325
-465.143	-8.920	-0.186	-0.124
-464.128	-126.172	-0.272	-0.041
-463.113	-200.000	-0.002	0.191
-462.099	-66.730	0.059	0.023
-461.084	70.119	-0.060	-0.062
-460.070	800.000	0.148	-0.487
-459.055	-200.000	-0.005	-0.071
-458.040	64.601	-0.267	0.268
-457.026	275.289	-0.111	-0.196
-456.011	-59.004	0.224	0.096
-454.997	2.479	0.132	-0.095
-453.982	152.846	-0.154	0.210
-452.968	-200.000	0.003	0.064
-451.953	255.249	0.094	-0.160
-450.938	641.659	0.098	-0.248
-449.924	25.462	-0.037	0.030
-448.909	-58.794	-0.169	-0.073
-447.895	-14.445	-0.213	-0.137
-446.880	-71.575	-0.325	-0.121
-445.865	-200.000	0.027	0.144
-444.851	-90.493	0.288	0.083
-443.836	-93.943	0.151	-0.041
-442.822	-63.645	0.219	0.089
-441.807	800.000	0.047	0.135
-440.792	412.514	-0.135	0.286
-439.778	-140.504	0.163	0.017
-438.763	800.000	-0.054	-0.187
-437.749	-200.000	0.056	0.373
-436.734	-101.784	-0.182	-0.044
-435.719	3.994	-0.028	-0.020
-434.705	-157.919	-0.306	0.018
-433.690	178.386	0.189	-0.274
-432.676	-35.711	-0.160	-0.086
-431.661	-132.236	-0.116	-0.015
-430.646	800.000	-0.046	-0.131
-429.632	46.195	-0.168	0.155
-428.617	302.953	-0.037	0.067
-427.603	127.904	0.140	0.177
-426.588	-104.015	0.264	0.061
-425.573	272.587	-0.021	-0.037
-424.559	35.367	0.103	-0.089
-423.544	-13.734	0.185	-0.119
-422.530	178.111	-0.239	-0.347
-421.515	-114.598	-0.310	-0.059
-420.500	86.518	0.272	0.298
-419.486	800.000	0.086	0.263
-418.471	96.269	-0.294	0.334
-417.457	-5.663	-0.305	0.208
-416.442	144.066	0.302	0.400
-415.428	-200.000	0.004	-0.047
-414.413	75.475	0.078	-0.081
-413.398	-171.059	0.227	0.008
-412.384	211.955	-0.121	-0.190
-411.369	-48.348	0.251	0.120
-410.355	104.933	-0.107	0.125
-409.340	-162.827	-0.158	0.008
-408.325	-200.000	0.073	0.381
-407.311	800.000	0.017	-0.055
-406.296	486.230	0.062	-0.141
-405.282	-38.488	0.227	0.119
-404.267	195.494	0.067	-0.101
-403.252	127.238	0.075	-0.094
-402.238	7.560	-0.218	-0.162
-401.223	1.767	0.250	-0.179
-400.209	-38.041	0.080	-0.042
-399.194	-27.814	0.288	-0.166
-398.179	201.464	-0.078	-0.119
-397.165	275.676	-0.069	0.122
-396.150	-119.246	0.139	-0.024
-395.136	-200.000	-0.144	-0.000
-394.121	210.778	-0.210	0.328
-393.106	-143.850	-0.299	0.028
-392.092	-118.158	0.191	-0.034
-391.077	800.000	0.062	0.199
-390.063	-190.180	-0.310	-0.003
-389.048	132.815	0.177	0.227
-388.033	-77.458	0.356	-0.123
-387.019	101.829	-0.117	-0.135
-386.004	-200.000	0.051	0.224
-384.990	-7.389	-0.132	-0.089
-383.975	-30.997	-0.261	0.147
-382.960	-200.000	-0.053	-0.300
-381.946	-200.000	0.028	-0.470
-380.931	-200.000	-0.009	0.168
-379.917	800.000	-0.049	-0.168
-378.902	-200.000	0.006	0.110
-377.888	-33.406	0.064	0.035
-376.873	8.842	-0.372	0.279
-375.858	-77.866	-0.170	0.058
-374.844	-178.099	0.257	0.006
-373.829	-28.700	0.187	0.107
-372.815	321.191	0.053	-0.100
-371.800	-168.559	-0.094	-0.004
-370.785	-200.000	-0.037	-0.489
-369.771	181.712	-0.319	-0.466
-368.756	-55.349	0.234	0.104
-367.742	59.253	0.143	-0.140
-366.727	-63.502	0.141	-0.058
-365.712	-200.000	-0.024	0.247
-364.698	-117.311	0.402	-0.072
-363.683	-47.001	-0.230	-0.112
-362.669	17.386	0.170	0.134
-361.654	-200.000	0.024	0.141
-360.639	260.861	-0.080	-0.138
-359.625	319.434	0.053	0.100
-358.610	232.510	-0.092	0.151
-357.596	800.000	0.077	-0.232
-356.581	-200.000	-0.030	-0.265
-355.566	800.000	0.074	-0.281
-354.552	-127.612	0.079	0.011
-353.537	-0.809	0.218	-0.153
-352.523	-39.835	0.181	0.094
-351.508	431.304	-0.158	0.339
-350.493	223.543	-0.063	0.100
-349.479	-102.942	-0.469	0.110
-348.464	84.415	-0.059	-0.064
-347.450	508.247	-0.077	-0.176
-346.435	188.004	0.203	-0.300
-345.420	-34.042	0.082	0.045
-344.406	-200.000	0.043	-0.241
-343.391	-50.949	-0.122	-0.057
-342.377	-144.245	-0.099	0.009
-341.362	-173.155	-0.303	0.009
-340.348	-105.300	0.042	-0.010
-339.333	-74.775	-0.158	-0.056
-338.318	68.503	0.091	0.093
-337.304	800.000	-0.059	-0.197
-336.289	-84.874	-0.196	0.061
-335.275	712.378	-0.061	0.159
-334.260	-200.000	-0.035	0.000
-333.245	166.249	0.147	-0.206
-332.231	-133.201	0.489	0.061
-331.216	-54.796	-0.017	-0.007
-330.202	-157.289	0.133	0.008
-329.187	166.784	-0.075	0.105
-328.172	-55.718	-0.025	-0.011
-327.158	-8.526	0.204	0.136
-326.143	42.667	0.238	-0.214
-325.129	-54.783	0.155	-0.069
-324.114	75.508	0.207	-0.217
-323.099	47.882	0.121	-0.112
-322.085	-67.703	0.168	-0.065
-321.070	-200.000	0.045	0.343
-320.056	800.000	-0.037	-0.158
-319.041	-62.571	-0.282	0.116
-318.026	20.108	-0.437	-0.349
-317.012	-150.442	0.158	-0.012
-315.997	-93.205	-0.198	0.055
-314.983	440.996	0.091	0.197
-313.968	53.080	-0.110	-0.104
-312.953	-200.000	0.002	0.165
-311.939	2.943	-0.099	0.071
-310.924	504.103	0.153	0.351
-309.910	-0.229	-0.157	0.110
-308.895	427.841	0.085	0.182
-307.880	-151.558	0.051	-0.004
-306.866	168.404	0.088	0.125
-305.851	-54.342	-0.069	-0.031
-304.837	15.789	0.166	0.129
-303.822	83.336	-0.240	0.259
-302.807	270.537	0.108	0.189
-301.793	-171.022	-0.063	-0.002
-300.778	-200.000	-0.079	0.510
-299.764	63.833	0.116	-0.115
-298.749	366.533	0.022	0.043
-297.735	-200.000	-0.041	-0.392
-296.720	-101.321	0.298	0.072
-295.705	-76.907	-0.016	-0.005
-294.691	-200.000	0.017	-0.182
-293.676	800.000	-0.095	-0.312
-292.662	120.665	0.283	-0.348
-291.647	-91.119	0.263	-0.075
-290.632	138.076	-0.081	0.105
-289.618	-80.387	-0.017	0.006
-288.603	634.982	0.062	0.155
-287.589	-74.164	-0.157	0.056
-286.574	-76.675	-0.335	-0.116
-285.559	-113.242	0.143	-0.028
-284.545	-200.000	-0.019	0.111
-283.530	-200.000	-0.020	-0.090
-282.516	800.000	-0.078	-0.220
-281.501	37.702	-0.234	0.205
-280.486	800.000	-0.025	0.102
-279.472	52.384	0.262	0.247
-278.457	245.655	-0.019	0.032
-277.443	379.079	-0.109	0.221
-276.428	800.000	0.121	-0.376
-275.413	-53.173	-0.239	0.108
-274.399	212.014	0.129	0.200
-273.384	-65.781	0.373	-0.148
-272.370	136.478	-0.050	-0.065
-271.355	159.274	0.069	-0.095
-270.340	42.078	-0.197	-0.177
-269.326	-200.000	-0.007	-0.047
-268.311	800.000	-0.031	0.092
-267.297	-32.747	0.100	0.055
-266.282	55.882	0.033	-0.032
-265.267	125.318	0.111	0.139
-264.253	-162.504	0.183	0.009
-263.238	-200.000	-0.035	0.222
-262.224	-200.000	-0.006	0.249
-261.209	-50.311	0.386	-0.180
-260.195	64.477	0.299	0.297
-259.180	-145.439	-0.205	0.018
-258.165	800.000	0.093	-0.304
-257.151	-66.711	-0.374	0.146
-256.136	-200.000	0.034	0.326
-255.122	-200.000	-0.049	0.347
-254.107	-200.000	-0.003	0.117
-253.092	800.000	0.051	-0.161
-252.078	-118.107	-0.157	0.028
-251.063	440.922	-0.188	0.405
-250.049	-51.126	0.218	0.101
-249.034	-34.267	-0.173	-0.094
-248.019	281.019	0.112	0.198
-247.005	487.032	0.003	-0.007
-245.990	-200.000	-0.016	-0.273
-244.976	-200.000	-0.031	0.450
-243.961	141.712	-0.113	0.148
-242.946	-200.000	0.019	0.281
-241.932	126.511	0.127	0.158
-240.917	-132.644	0.058	-0.007
-239.903	-174.846	-0.139	0.004
-238.888	800.000	0.070	-0.198
-237.873	800.000	-0.072	-0.259
-236.859	-26.999	0.111	-0.064
-235.844	-163.722	-0.192	-0.009
-234.830	121.486	-0.116	0.143
-233.815	110.484	-0.111	0.132
-232.800	800.000	-0.075	-0.300
-231.786	404.926	0.043	-0.090
-230.771	201.743	-0.081	-0.123
-229.757	-16.362	0.193	0.121
-228.742	-200.000	-0.013	0.596
-227.727	-47.231	0.374	-0.180
-226.713	-93.149	0.356	0.098
-225.698	110.524	-0.233	0.276
-224.684	58.622	0.149	-0.144
-223.669	-103.724	0.161	0.037
-222.655	189.202	-0.058	-0.086
-221.640	20.865	0.105	-0.084
-220.625	800.000	0.063	0.268
-219.611	35.478	-0.182	-0.157
-218.596	-83.614	0.117	-0.037
-217.582	-6.401	0.192	0.129
-216.567	97.065	-0.052	0.058
-215.552	80.866	0.235	0.250
-214.538	-200.000	-0.006	0.237
-213.523	-70.456	-0.312	0.117
-212.509	-91.307	0.449	0.127
-211.494	-200.000	-0.010	0.178
-210.479	-46.984	-0.255	0.123
-209.465	-200.000	0.005	-0.093
-208.450	210.615	-0.105	-0.162
-207.436	-200.000	0.008	-0.225
-206.421	800.000	-0.083	-0.329
-205.406	-127.285	-0.125	0.018
-204.392	87.241	-0.110	0.120
-203.377	26.145	-0.240	-0.198
-202.363	136.391	-0.022	0.028
-201.348	-126.282	-0.379	0.056
-200.333	-134.102	-0.411	-0.050
-199.319	124.819	0.151	-0.188
-198.304	-61.665	-0.209	0.086
-197.290	-56.263	-0.041	0.018
-196.275	370.987	0.174	0.348
-195.260	-200.000	0.008	0.288
-194.246	-120.826	-0.224	-0.037
-193.231	755.575	-0.059	-0.158
-192.217	-50.542	0.091	-0.042
-191.202	-143.991	0.180	0.017
-190.187	2.778	-0.185	-0.132
-189.173	-200.000	0.000	-0.346
-188.158	63.010	-0.073	-0.072
-187.144	-118.585	0.154	0.027
-186.129	-200.000	-0.022	-0.098
-185.114	359.152	-0.030	-0.059
-184.100	703.777	-0.065	-0.168
-183.085	32.983	0.188	-0.161
-182.071	-97.962	0.143	-0.036
-181.056	-47.298	0.236	0.113
-180.042	-200.000	0.065	0.312
-179.027	-34.270	0.181	-0.098
-178.012	-94.554	0.217	-0.058
-176.998	-67.562	0.211	-0.081
-175.983	200.082	0.203	-0.307
-174.969	-75.480	0.204	-0.071
-173.954	-66.693	-0.184	-0.072
-172.939	13.339	0.148	0.113
-171.925	29.538	-0.294	0.246
-170.910	-8.101	-0.204	0.136
-169.896	-200.000	0.052	0.228
-168.881	-196.668	0.296	0.002
-167.866	115.125	-0.038	0.046
-166.852	-200.000	0.026	-0.187
-165.837	271.980	0.156	-0.270
-164.823	800.000	0.074	-0.207
-163.808	17.793	0.056	0.044
-162.793	800.000	-0.044	0.127
-161.779	79.850	-0.103	0.109
-160.764	-127.621	-0.290	-0.041
-159.750	-200.000	0.025	-0.156
-158.735	215.795	0.301	0.470
-157.720	-200.000	0.087	0.409
-156.706	203.724	0.209	0.319
-155.691	210.311	0.134	-0.207
-154.677	-46.237	0.150	-0.073
-153.662	64.767	0.321	0.318
-152.647	44.323	-0.184	0.166
-151.633	-71.096	0.084	-0.031
-150.618	-52.343	-0.106	-0.048
-149.604	54.006	0.140	0.132
-148.589	143.924	-0.052	0.068
-147.574	-154.715	-0.236	0.015
-146.560	136.032	-0.118	0.152
-145.545	-200.000	-0.018	-0.209
-144.531	-69.790	0.126	-0.047
-143.516	-200.000	0.076	0.456
-142.502	-105.603	0.093	-0.021
-141.487	47.613	-0.202	-0.185
-140.472	-200.000	0.024	-0.261
-139.458	-200.000	0.001	-0.353
-138.443	399.757	0.217	0.447
-137.429	204.409	-0.013	0.019
-136.414	-179.231	-0.130	0.003
-135.399	112.350	-0.248	-0.295
-134.385	-42.066	0.119	0.060
-133.370	-197.364	0.176	-0.001
-132.356	119.499	-0.110	0.134
-131.341	-23.277	-0.239	0.141
-130.326	-200.000	0.011	0.286
-129.312	-81.296	0.070	-0.023
-128.297	178.998	0.222	0.319
-127.283	800.000	0.025	0.097
-126.268	-96.493	0.137	0.035
-125.253	-200.000	-0.001	0.186
-124.239	8.238	0.083	0.062
-123.224	170.156	-0.087	-0.122
-122.210	-25.724	0.083	0.048
-121.195	-164.325	-0.242	-0.011
