DTS Sentinel unit serial number:	SN413079Multiplexer serial number:	ORYXHardware model number:	OX4-SRSoftware version number:	ORYX F/W v4.00 Oryx Data Collector v3.7.2.0data status	okinstallation	princeton_trtdifferential loss correction	single-endedforward channel	channel 1reverse channel	N/Adate	2019/09/15time	16:18:35forward acquisition time	60.00reverse acquisition time	0.00gamma	496.2192k internal	0.2291k external	0.2291temperature offset calibration	0.9936default loss term (dB/km)	0.3790temperature slope calibration	1.0000multiplexer offset coefficient	1.0000multiplexer slope coefficient	1.0000fibre end	0.00T internal ref (°C)	43.55T ext. ref 1 (°C)	5.47T ext. ref 2 (°C)	40.00length (m)	temperature (°C)	Stokes	anti-Stokes-747.200	-200.000	0.010	0.166
-746.185	136.781	0.203	0.271
-745.171	-11.531	0.280	-0.188
-744.156	11.084	-0.229	0.179
-743.142	-15.503	-0.117	0.076
-742.127	-14.628	0.069	0.046
-741.112	-200.000	0.028	0.244
-740.098	526.964	0.164	0.397
-739.083	-200.000	0.020	-0.128
-738.069	-200.000	-0.028	0.289
-737.054	-74.446	-0.238	0.088
-736.039	123.090	-0.221	0.283
-735.025	13.881	0.101	0.080
-734.010	44.313	-0.199	0.187
-732.996	737.950	-0.116	-0.318
-731.981	-81.797	-0.104	-0.035
-730.966	-72.419	0.057	-0.022
-729.952	-200.000	-0.025	-0.142
-728.937	800.000	0.055	-0.238
-727.923	-83.302	0.378	0.124
-726.908	-200.000	-0.083	0.383
-725.894	491.377	-0.085	-0.198
-724.879	171.360	-0.066	-0.097
-723.864	-200.000	0.014	-0.278
-722.850	800.000	0.035	-0.108
-721.835	240.727	-0.189	-0.323
-720.821	-73.269	-0.015	-0.006
-719.806	41.381	0.332	-0.307
-718.791	312.064	0.087	0.167
-717.777	-200.000	0.044	-0.316
-716.762	-200.000	-0.000	-0.021
-715.748	-47.398	-0.047	-0.024
-714.733	-158.562	-0.208	-0.012
-713.718	194.604	-0.093	-0.144
-712.704	90.605	-0.092	-0.106
-711.689	302.113	0.061	-0.116
-710.675	375.028	0.055	-0.115
-709.660	-67.496	-0.249	0.100
-708.645	-43.598	-0.087	0.045
-707.631	-52.200	0.329	0.156
-706.616	270.732	0.130	0.234
-705.602	185.089	0.114	0.173
-704.587	-200.000	0.078	-0.387
-703.572	-200.000	0.025	0.174
-702.558	-157.177	-0.323	0.020
-701.543	-136.971	-0.357	0.042
-700.529	-137.727	-0.165	-0.019
-699.514	-200.000	0.098	0.439
-698.499	-108.578	-0.399	0.088
-697.485	333.084	0.213	0.420
-696.470	-200.000	-0.001	-0.150
-695.456	-200.000	-0.002	-0.026
-694.441	-155.160	-0.101	0.007
-693.426	-200.000	0.002	0.023
-692.412	-136.090	0.242	0.029
-691.397	-149.963	-0.209	0.017
-690.383	-200.000	0.000	0.186
-689.368	-200.000	0.011	0.123
-688.354	-138.417	-0.145	0.016
-687.339	-200.000	0.043	-0.290
-686.324	-114.724	-0.483	-0.094
-685.310	-76.992	0.122	0.044
-684.295	800.000	0.023	-0.100
-683.281	-200.000	-0.001	0.183
-682.266	-140.604	-0.201	-0.021
-681.251	-121.973	0.283	0.048
-680.237	33.526	-0.116	0.103
-679.222	-200.000	-0.052	0.234
-678.208	800.000	-0.144	0.429
-677.193	-129.391	-0.118	0.017
-676.178	-76.957	-0.152	0.054
-675.164	574.941	0.026	0.065
-674.149	-200.000	0.046	-0.280
-673.135	324.715	0.084	-0.164
-672.120	-69.277	0.121	-0.047
-671.105	371.222	-0.052	0.107
-670.091	-90.713	0.089	-0.026
-669.076	-167.847	0.093	0.004
-668.062	800.000	0.082	-0.238
-667.047	-200.000	-0.014	-0.199
-666.032	-200.000	0.058	-0.281
-665.018	282.413	-0.064	-0.117
-664.003	229.423	-0.129	0.215
-662.989	-179.888	-0.026	-0.001
-661.974	0.070	-0.051	-0.037
-660.959	-200.000	0.021	-0.096
-659.945	-200.000	-0.071	-0.362
-658.930	-200.000	-0.002	0.031
-657.916	127.829	0.177	-0.229
-656.901	-109.400	-0.178	0.038
-655.886	413.055	0.035	0.076
-654.872	-200.000	-0.037	0.499
-653.857	115.521	-0.022	0.027
-652.843	-200.000	0.065	0.334
-651.828	53.010	-0.198	-0.193
-650.814	-138.950	0.004	0.000
-649.799	-25.680	-0.131	0.079
-648.784	-94.883	-0.216	-0.060
-647.770	70.028	-0.103	-0.108
-646.755	70.209	-0.193	-0.204
-645.741	-69.645	-0.122	-0.047
-644.726	-200.000	-0.011	-0.150
-643.711	-66.210	-0.106	0.043
-642.697	800.000	-0.070	-0.231
-641.682	-180.361	-0.458	-0.010
-640.668	87.280	0.258	0.291
-639.653	500.357	0.081	-0.191
-638.638	75.182	-0.094	-0.101
-637.624	-144.667	0.103	0.010
-636.609	-121.643	0.176	-0.030
-635.595	-200.000	0.008	0.388
-634.580	39.048	0.061	0.056
-633.565	98.143	-0.221	-0.260
-632.551	20.103	-0.085	-0.070
-631.536	-200.000	0.006	0.063
-630.522	-41.670	-0.227	0.119
-629.507	85.722	-0.094	0.105
-628.492	356.460	0.141	-0.286
-627.478	-105.953	0.264	0.061
-626.463	-200.000	-0.015	-0.206
-625.449	800.000	-0.093	-0.371
-624.434	-200.000	0.019	-0.111
-623.419	169.470	0.202	0.294
-622.405	-11.001	-0.168	0.113
-621.390	-200.000	-0.019	-0.194
-620.376	-57.078	0.408	0.183
-619.361	455.253	-0.202	0.457
-618.346	697.794	-0.043	0.116
-617.332	800.000	0.058	0.238
-616.317	-10.985	0.075	0.051
-615.303	-39.643	0.111	-0.059
-614.288	232.383	-0.021	0.036
-613.273	-200.000	0.025	0.405
-612.259	-135.034	-0.496	-0.061
-611.244	255.577	-0.122	-0.213
-610.230	-20.042	-0.224	-0.141
-609.215	-17.826	-0.243	0.155
-608.201	-70.048	0.236	-0.092
-607.186	-200.000	-0.009	-0.227
-606.171	383.550	0.023	0.047
-605.157	-94.233	-0.222	0.062
-604.142	528.267	-0.138	-0.333
-603.128	-200.000	-0.036	0.302
-602.113	363.597	-0.033	-0.068
-601.098	-0.087	0.175	-0.127
-600.084	101.465	-0.182	-0.216
-599.069	90.285	0.366	-0.417
-598.055	147.181	-0.155	0.212
-597.040	-98.016	0.348	-0.091
-596.025	280.595	0.095	0.172
-595.011	58.151	0.066	-0.066
-593.996	28.177	0.197	0.169
-592.982	-22.677	-0.095	-0.059
-591.967	-200.000	0.004	0.023
-590.952	190.835	0.177	-0.271
-589.938	120.234	0.017	-0.022
-588.923	59.987	-0.139	0.140
-587.909	800.000	0.028	0.081
-586.894	131.998	-0.055	0.072
-585.879	211.724	-0.268	-0.430
-584.865	-93.753	-0.199	-0.056
-583.850	379.570	-0.210	0.438
-582.836	-200.000	0.000	-0.060
-581.821	342.271	0.154	-0.307
-580.806	95.957	-0.059	-0.068
-579.792	-106.479	-0.418	0.095
-578.777	-140.608	-0.030	-0.003
-577.763	156.942	-0.081	0.114
-576.748	-131.740	-0.185	0.025
-575.733	-200.000	0.045	-0.219
-574.719	351.275	-0.066	0.133
-573.704	-200.000	0.007	-0.323
-572.690	-166.060	0.232	-0.010
-571.675	-10.364	-0.071	-0.048
-570.661	19.011	0.066	-0.054
-569.646	-11.458	0.122	-0.082
-568.631	69.895	-0.101	0.106
-567.617	-91.700	-0.121	0.035
-566.602	-9.147	-0.179	0.121
-565.588	-200.000	-0.004	-0.105
-564.573	277.605	-0.103	-0.187
-563.558	10.771	0.052	0.040
-562.544	-80.830	0.360	0.121
-561.529	-59.673	-0.239	0.104
-560.515	5.353	0.229	-0.172
-559.500	78.677	0.135	-0.146
-558.485	33.412	0.164	-0.145
-557.471	66.477	0.370	-0.383
-556.456	800.000	0.028	0.114
-555.442	63.024	-0.247	-0.252
-554.427	-157.644	0.162	0.010
-553.412	800.000	0.025	-0.097
-552.398	43.320	-0.260	-0.241
-551.383	-200.000	-0.054	-0.266
-550.369	-13.539	-0.183	-0.121
-549.354	-200.000	-0.013	0.327
-548.339	27.059	-0.147	-0.126
-547.325	-108.254	-0.307	0.067
-546.310	-26.621	0.345	-0.205
-545.296	32.426	-0.310	-0.272
-544.281	-2.139	-0.180	0.128
-543.266	-200.000	0.004	0.399
-542.252	-22.053	-0.051	0.032
-541.237	-200.000	-0.006	0.031
-540.223	-67.874	0.298	0.118
-539.208	74.360	0.223	-0.238
-538.193	0.149	0.076	-0.055
-537.179	-107.503	0.163	0.036
-536.164	-112.201	0.122	0.025
-535.150	52.396	-0.038	0.037
-534.135	-137.839	0.221	0.025
-533.121	469.324	-0.097	0.220
-532.106	-19.492	0.090	0.057
-531.091	800.000	-0.054	0.183
-530.077	-34.433	-0.100	0.056
-529.062	359.380	0.124	-0.251
-528.048	800.000	0.059	0.260
-527.033	-125.079	-0.292	-0.046
-526.018	-200.000	-0.003	-0.064
-525.004	-47.676	0.271	0.133
-523.989	-68.614	0.293	0.115
-522.975	64.767	0.067	-0.069
-521.960	-89.284	-0.205	0.061
-520.945	-98.858	-0.183	0.047
-519.931	-34.786	0.126	-0.070
-518.916	85.962	-0.134	-0.150
-517.902	-46.461	-0.186	0.092
-516.887	-60.227	0.100	-0.043
-515.872	349.583	0.062	0.123
-514.858	273.863	0.154	0.276
-513.843	-200.000	0.014	0.143
-512.829	-50.468	0.124	0.060
-511.814	-170.214	-0.237	0.009
-510.799	-8.775	-0.025	-0.017
-509.785	26.856	-0.317	0.270
-508.770	-6.100	0.037	0.026
-507.756	-200.000	-0.028	0.352
-506.741	-38.153	-0.215	-0.116
-505.726	-56.113	-0.311	-0.140
-504.712	-98.781	-0.345	-0.089
-503.697	62.617	-0.111	-0.113
-502.683	113.944	0.234	0.289
-501.668	280.357	0.009	-0.017
-500.653	264.535	-0.096	0.170
-499.639	226.455	-0.122	0.200
-498.624	27.499	0.148	-0.127
-497.610	-200.000	0.032	-0.220
-496.595	800.000	0.090	0.286
-495.581	247.889	-0.230	0.393
-494.566	-135.154	0.283	0.034
-493.551	-98.592	-0.211	-0.055
-492.537	314.859	0.122	0.232
-491.522	-86.768	-0.196	-0.061
-490.508	-143.260	0.305	0.030
-489.493	800.000	-0.110	-0.352
-488.478	-200.000	0.017	-0.127
-487.464	-200.000	0.016	0.252
-486.449	-200.000	0.023	-0.133
-485.435	-29.463	-0.100	-0.058
-484.420	-115.832	0.169	0.032
-483.405	-91.389	-0.239	0.069
-482.391	67.470	0.094	-0.098
-481.376	-168.793	-0.107	-0.004
-480.362	-147.654	0.400	-0.034
-479.347	168.466	-0.012	0.017
-478.332	669.922	0.090	0.237
-477.318	800.000	0.109	0.331
-476.303	-176.308	0.139	-0.004
-475.289	-154.938	-0.179	0.012
-474.274	495.046	0.048	-0.112
-473.259	177.049	-0.045	-0.066
-472.245	413.854	0.101	-0.218
-471.230	800.000	0.131	-0.441
-470.216	458.535	-0.080	0.180
-469.201	-118.629	0.219	0.039
-468.186	159.722	0.086	-0.121
-467.172	-103.846	0.124	0.029
-466.157	184.370	0.066	-0.100
-465.143	207.893	-0.246	0.388
-464.128	800.000	-0.093	0.322
-463.113	-200.000	-0.029	-0.136
-462.099	-70.200	0.314	0.121
-461.084	340.711	0.149	-0.294
-460.070	430.735	-0.067	-0.146
-459.055	391.996	-0.115	0.243
-458.040	360.759	0.056	0.113
-457.026	-104.077	0.302	-0.071
-456.011	-110.907	-0.224	-0.047
-454.997	81.317	0.119	0.130
-453.982	-151.021	0.041	0.003
-452.968	138.332	0.199	0.265
-451.953	67.760	-0.075	-0.078
-450.938	168.308	-0.037	-0.054
-449.924	-8.170	-0.279	-0.190
-448.909	-90.714	-0.148	-0.043
-447.895	-200.000	-0.020	0.197
-446.880	227.997	0.113	0.187
-445.865	211.442	0.111	0.177
-444.851	-59.511	0.103	-0.045
-443.836	-97.730	-0.110	0.029
-442.822	-9.643	0.238	0.161
-441.807	800.000	-0.034	-0.105
-440.792	-144.665	0.562	0.052
-439.778	-70.541	0.223	0.085
-438.763	-128.810	0.439	0.063
-437.749	-168.527	0.389	0.015
-436.734	800.000	0.017	-0.060
-435.719	142.211	0.257	-0.344
-434.705	5.825	-0.265	-0.198
-433.690	-33.813	-0.055	-0.031
-432.676	96.171	0.090	0.104
-431.661	-39.218	-0.374	0.199
-430.646	78.803	-0.036	0.039
-429.632	800.000	-0.087	0.323
-428.617	-11.615	-0.201	-0.134
-427.603	123.725	-0.053	-0.067
-426.588	-53.141	-0.451	-0.210
-425.573	-200.000	0.004	-0.132
-424.559	-200.000	-0.063	0.341
-423.544	54.472	-0.071	-0.070
-422.530	-200.000	0.034	0.196
-421.515	-200.000	0.042	0.363
-420.500	-25.093	0.213	-0.127
-419.486	-96.092	-0.193	-0.052
-418.471	51.627	0.281	0.270
-417.457	42.415	0.147	-0.135
-416.442	-23.373	-0.196	-0.119
-415.428	70.662	-0.145	0.152
-414.413	-109.659	0.139	-0.030
-413.398	245.675	0.100	-0.171
-412.384	37.639	0.039	-0.035
-411.369	-56.978	-0.122	-0.054
-410.355	-27.542	0.470	0.276
-409.340	-6.599	-0.115	0.079
-408.325	264.778	0.145	-0.255
-407.311	-200.000	-0.005	-0.053
-406.296	-150.485	-0.165	0.013
-405.282	-83.272	-0.177	0.057
-404.267	137.966	0.027	0.036
-403.252	321.393	-0.105	-0.202
-402.238	800.000	-0.032	0.118
-401.223	248.152	0.220	0.376
-400.209	38.702	0.088	0.079
-399.194	-200.000	0.022	-0.402
-398.179	67.993	-0.099	-0.103
-397.165	17.484	0.121	0.097
-396.150	-124.596	-0.140	0.022
-395.136	-198.664	-0.241	0.001
-394.121	-137.610	-0.448	0.051
-393.106	73.710	-0.230	-0.244
-392.092	-60.966	-0.112	-0.048
-391.077	118.452	-0.105	-0.131
-390.063	-109.950	0.078	-0.017
-389.048	-99.092	-0.182	-0.047
-388.033	47.619	0.029	0.027
-387.019	-200.000	0.044	0.520
-386.004	-170.489	-0.315	-0.011
-384.990	-13.394	-0.368	0.241
-383.975	-70.398	-0.190	0.073
-382.960	800.000	0.101	-0.425
-381.946	-200.000	0.030	-0.242
-380.931	-63.352	0.137	-0.057
-379.917	-200.000	0.033	0.357
-378.902	-18.513	-0.127	0.080
-377.888	624.695	-0.027	0.070
-376.873	-125.497	0.240	0.037
-375.858	-200.000	-0.013	-0.242
-374.844	-200.000	0.316	0.000
-373.829	-32.920	-0.211	-0.118
-372.815	-200.000	-0.051	0.282
-371.800	-111.742	-0.302	0.062
-370.785	-8.938	0.149	0.101
-369.771	83.696	-0.077	0.085
-368.756	-75.966	-0.206	-0.073
-367.742	-200.000	-0.014	0.222
-366.727	-200.000	-0.045	-0.267
-365.712	-15.955	-0.091	-0.059
-364.698	-24.379	0.115	0.069
-363.683	44.192	-0.385	-0.356
-362.669	800.000	0.050	0.219
-361.654	282.900	-0.188	0.341
-360.639	60.185	0.057	-0.057
-359.625	58.875	0.073	-0.072
-358.610	-200.000	-0.015	0.236
-357.596	116.529	0.226	-0.280
-356.581	800.000	-0.085	0.304
-355.566	38.439	0.170	-0.153
-354.552	-32.126	-0.118	-0.066
-353.537	55.575	-0.212	-0.207
-352.523	274.393	-0.039	0.070
-351.508	315.801	-0.091	0.174
-350.493	173.204	-0.104	-0.151
-349.479	25.442	-0.179	-0.150
-348.464	-53.621	0.144	-0.066
-347.450	298.937	-0.031	-0.057
-346.435	-109.316	0.194	-0.041
-345.420	-200.000	0.006	-0.082
-344.406	-200.000	-0.069	-0.317
-343.391	-41.547	-0.251	-0.130
-342.377	-69.579	-0.266	-0.102
-341.362	505.202	-0.060	-0.141
-340.348	-54.592	0.090	0.041
-339.333	-118.225	0.205	0.037
-338.318	-83.043	-0.118	-0.038
-337.304	211.234	0.206	0.326
-336.289	487.619	-0.071	0.162
-335.275	8.680	0.151	0.115
-334.260	120.139	-0.211	-0.264
-333.245	-105.915	-0.145	-0.033
-332.231	-54.443	0.137	0.063
-331.216	-14.653	0.143	-0.093
-330.202	-200.000	-0.024	0.209
-329.187	-126.929	-0.319	-0.047
-328.172	-200.000	-0.026	0.394
-327.158	148.793	0.068	0.092
-326.143	-72.339	0.152	-0.057
-325.129	204.506	-0.052	-0.082
-324.114	-73.385	0.056	-0.021
-323.099	800.000	-0.069	0.212
-322.085	-200.000	0.014	-0.378
-321.070	-119.726	0.277	-0.048
-320.056	-200.000	0.045	0.267
-319.041	-67.518	0.221	0.087
-318.026	-189.062	0.150	0.002
-317.012	-105.057	-0.148	0.034
-315.997	-38.985	0.041	0.022
-314.983	-100.413	0.447	0.111
-313.968	-200.000	0.004	0.266
-312.953	-108.805	-0.190	0.041
-311.939	-70.939	0.250	-0.095
-310.924	-76.107	-0.118	0.042
-309.910	511.280	-0.066	0.156
-308.895	800.000	0.011	0.037
-307.880	-125.231	-0.264	0.041
-306.866	-124.111	0.297	-0.047
-305.851	-150.805	0.303	0.023
-304.837	-200.000	0.052	-0.264
-303.822	-34.876	-0.138	-0.076
-302.807	800.000	0.014	-0.038
-301.793	800.000	0.104	-0.337
-300.778	7.434	0.070	0.052
-299.764	-200.000	0.009	0.183
-298.749	-200.000	-0.003	0.015
-297.735	-137.826	-0.054	-0.006
-296.720	-77.290	0.334	0.117
-295.705	31.808	-0.141	0.122
-294.691	-45.968	0.108	-0.053
-293.676	-104.120	0.077	0.018
-292.662	-157.492	-0.390	-0.024
-291.647	149.108	-0.193	0.262
-290.632	259.328	-0.143	0.249
-289.618	-94.260	-0.109	-0.030
-288.603	-200.000	0.036	-0.332
-287.589	558.282	-0.038	0.092
-286.574	-72.362	0.251	-0.093
-285.559	-21.969	0.127	0.077
-284.545	33.807	-0.135	0.118
-283.530	-0.961	0.171	-0.122
-282.516	147.113	-0.086	-0.116
-281.501	-200.000	-0.007	-0.162
-280.486	-200.000	0.048	0.333
-279.472	49.923	-0.168	-0.159
-278.457	-25.273	0.119	0.071
-277.443	-200.000	0.016	-0.074
-276.428	152.917	-0.214	-0.294
-275.413	209.488	-0.037	0.058
-274.399	56.231	0.228	-0.222
-273.384	-75.462	0.251	-0.090
-272.370	335.053	-0.071	0.139
-271.355	-22.994	-0.067	0.041
-270.340	-105.412	0.305	-0.070
-269.326	202.485	0.104	0.161
-268.311	318.723	0.126	0.240
-267.297	498.602	0.073	0.170
-266.282	207.643	0.136	0.214
-265.267	800.000	-0.043	0.142
-264.253	-185.710	0.301	-0.005
-263.238	210.945	-0.052	0.082
-262.224	-105.024	-0.238	0.055
-261.209	19.709	0.141	-0.114
-260.195	800.000	0.040	-0.125
-259.180	279.897	-0.083	0.149
-258.165	800.000	0.114	0.345
-257.151	307.226	-0.215	-0.403
-256.136	-51.410	-0.354	-0.166
-255.122	800.000	0.062	0.232
-254.107	746.167	0.046	-0.125
-253.092	-46.474	0.182	-0.090
-252.078	-48.793	-0.078	-0.037
-251.063	443.688	-0.085	-0.188
-250.049	94.612	0.184	0.210
-249.034	-83.979	0.203	0.065
-248.019	-26.725	0.353	0.207
-247.005	-162.890	-0.204	0.010
-245.990	48.327	0.161	-0.151
-244.976	77.743	-0.094	0.100
-243.961	36.566	-0.193	-0.171
-242.946	169.327	0.201	0.289
-241.932	-93.605	0.364	-0.101
-240.917	-150.228	0.214	-0.017
-239.903	386.708	-0.129	0.267
-238.888	-91.638	-0.078	-0.022
-237.873	-58.952	0.186	-0.081
-236.859	225.352	0.195	0.317
-235.844	743.230	0.086	0.233
-234.830	-151.887	0.338	0.025
-233.815	-100.066	-0.377	0.094
-232.800	81.125	0.057	0.062
-231.786	-200.000	0.081	-0.477
-230.771	21.870	-0.133	0.109
-229.757	140.130	-0.069	0.092
-228.742	30.119	0.151	-0.129
-227.727	70.954	-0.077	-0.080
-226.713	221.438	-0.092	-0.148
-225.698	-24.255	-0.321	-0.192
-224.684	54.152	0.084	0.081
-223.669	-77.831	0.245	0.085
-222.655	-200.000	0.015	-0.296
-221.640	47.214	0.203	0.190
-220.625	-149.648	-0.182	-0.014
-219.611	-62.324	-0.326	-0.136
-218.596	-200.000	0.004	0.084
-217.582	-72.044	-0.329	0.123
-216.567	800.000	0.055	0.199
-215.552	-200.000	-0.027	-0.134
-214.538	-133.594	0.097	-0.012
-213.523	-116.739	0.309	-0.057
-212.509	-69.683	0.299	-0.115
-211.494	76.867	0.119	-0.127
-210.479	476.319	0.066	-0.151
-209.465	-200.000	0.074	0.477
-208.450	800.000	-0.063	-0.235
-207.436	-200.000	-0.007	-0.059
-206.421	118.309	0.340	0.420
-205.406	1.171	0.147	0.106
-204.392	-24.602	-0.058	0.034
-203.377	80.066	-0.048	-0.052
-202.363	-169.644	0.244	-0.009
-201.348	-200.000	0.011	-0.143
-200.333	-18.377	0.134	0.084
-199.319	601.130	-0.129	-0.321
-198.304	5.582	-0.148	-0.110
-197.290	147.653	-0.156	-0.211
-196.275	-200.000	0.009	0.095
-195.260	800.000	0.060	-0.232
-194.246	-137.449	-0.264	-0.030
-193.231	-42.082	0.227	0.116
-192.217	-36.166	-0.097	-0.052
-191.202	422.250	0.204	-0.438
-190.187	-1.196	0.158	-0.112
-189.173	-49.832	-0.417	-0.199
-188.158	-46.293	-0.309	0.152
-187.144	-46.131	-0.033	-0.016
-186.129	-200.000	0.005	-0.057
-185.114	800.000	0.041	0.129
-184.100	82.045	0.045	-0.049
-183.085	-8.825	-0.259	-0.174
-182.071	664.284	-0.084	-0.218
-181.056	-200.000	0.043	0.244
-180.042	-157.143	-0.256	0.016
-179.027	-200.000	0.035	-0.179
-178.012	59.962	-0.181	0.179
-176.998	186.844	0.084	-0.125
-175.983	-200.000	0.039	-0.201
-174.969	-131.890	0.322	0.042
-173.954	-110.035	0.127	-0.027
-172.939	-200.000	-0.047	-0.314
-171.925	-50.201	0.210	0.100
-170.910	127.695	-0.046	-0.059
-169.896	249.989	-0.034	-0.058
-168.881	800.000	-0.026	0.075
-167.866	-10.650	0.094	0.062
-166.852	-116.816	0.367	0.067
-165.837	-105.577	-0.122	0.028
-164.823	619.037	0.034	0.085
-163.808	229.189	-0.092	-0.151
-162.793	24.355	0.142	0.118
-161.779	-121.076	-0.182	-0.031
-160.764	17.933	0.321	-0.256
-159.750	-200.000	0.036	0.260
-158.735	-37.212	0.113	0.061
-157.720	789.210	-0.057	0.156
-156.706	-89.516	-0.258	0.076
-155.691	-115.379	-0.083	0.016
-154.677	-200.000	0.002	-0.255
-153.662	-127.265	-0.180	-0.026
-152.647	30.927	-0.156	-0.133
-151.633	241.296	0.231	-0.385
-150.618	-78.243	0.326	-0.112
-149.604	-200.000	-0.070	0.321
-148.589	-10.500	0.168	-0.111
-147.574	800.000	0.095	0.312
-146.560	800.000	-0.077	0.218
-145.545	78.752	-0.227	0.243
-144.531	-72.309	-0.226	0.084
-143.516	800.000	-0.080	-0.290
-142.502	-23.623	0.372	-0.223
-141.487	-109.806	-0.218	0.046
-140.472	-200.000	-0.026	-0.238
-139.458	-104.478	-0.160	-0.037
-138.443	-14.495	0.177	-0.114
-137.429	800.000	0.071	0.240
-136.414	568.322	0.069	-0.167
-135.399	-68.190	0.122	0.048
-134.385	19.651	-0.147	-0.118
-133.370	463.463	-0.051	0.115
-132.356	-200.000	0.027	-0.286
-131.341	352.164	0.029	-0.058
-130.326	800.000	-0.016	0.049
-129.312	532.428	0.102	-0.242
-128.297	116.973	0.174	-0.214
-127.283	-52.356	0.134	0.062
-126.268	66.733	-0.036	0.037
-125.253	192.635	-0.064	0.096
-124.239	-15.735	0.240	0.153
-123.224	346.494	0.095	-0.187
-122.210	132.432	0.224	0.288
