DTS Sentinel unit serial number:	SN413079Multiplexer serial number:	ORYXHardware model number:	OX4-SRSoftware version number:	ORYX F/W v4.00 Oryx Data Collector v3.7.2.0data status	okinstallation	princeton_trtdifferential loss correction	single-endedforward channel	channel 1reverse channel	N/Adate	2019/09/11time	21:52:11forward acquisition time	60.00reverse acquisition time	0.00gamma	496.2192k internal	0.2312k external	0.2312temperature offset calibration	1.0053default loss term (dB/km)	0.3790temperature slope calibration	1.0000multiplexer offset coefficient	1.0000multiplexer slope coefficient	1.0000fibre end	0.00T internal ref (°C)	35.64T ext. ref 1 (°C)	1.70T ext. ref 2 (°C)	29.61length (m)	temperature (°C)	Stokes	anti-Stokes-747.200	-200.000	0.001	-0.056
-746.185	-200.000	0.036	0.276
-745.171	465.441	-0.101	-0.230
-744.156	127.469	0.087	-0.113
-743.142	42.678	0.156	0.144
-742.127	-111.459	0.388	0.080
-741.112	11.986	0.073	-0.057
-740.098	-58.515	-0.076	-0.033
-739.083	-71.850	-0.070	0.026
-738.069	-164.988	0.120	0.005
-737.054	63.174	-0.177	-0.180
-736.039	-79.014	-0.082	-0.028
-735.025	-107.851	0.169	0.037
-734.010	0.556	0.355	-0.258
-732.996	-7.318	-0.065	0.045
-731.981	-17.956	-0.090	-0.057
-730.966	-200.000	0.009	0.090
-729.952	-160.854	0.084	-0.005
-728.937	737.423	-0.067	0.183
-727.923	-125.354	-0.228	-0.035
-726.908	-22.303	0.196	0.120
-725.894	-200.000	-0.046	0.212
-724.879	-148.570	0.374	-0.031
-723.864	-200.000	0.002	0.226
-722.850	-76.453	0.091	-0.033
-721.835	-51.603	-0.495	0.234
-720.821	-24.601	0.225	0.136
-719.806	800.000	0.089	-0.374
-718.791	800.000	-0.098	0.297
-717.777	-200.000	-0.027	-0.147
-716.762	-119.582	-0.381	0.067
-715.748	800.000	0.072	-0.237
-714.733	-102.583	0.213	0.052
-713.718	-131.611	0.094	-0.013
-712.704	722.767	0.095	-0.256
-711.689	-200.000	0.043	0.234
-710.675	-183.217	0.310	0.006
-709.660	-125.860	0.078	-0.012
-708.645	-66.880	-0.252	0.101
-707.631	-200.000	-0.024	-0.504
-706.616	-144.049	-0.153	0.015
-705.602	37.181	0.237	-0.213
-704.587	-119.202	-0.281	-0.050
-703.572	145.490	-0.100	-0.135
-702.558	20.709	-0.133	-0.109
-701.543	-119.589	0.388	-0.068
-700.529	-121.566	0.383	0.064
-699.514	-136.841	-0.256	0.030
-698.499	-31.403	0.260	-0.148
-697.485	732.941	0.103	-0.278
-696.470	-79.262	-0.218	-0.075
-695.456	60.892	0.067	0.068
-694.441	-69.152	-0.212	-0.083
-693.426	133.445	0.188	0.247
-692.412	-62.386	-0.084	-0.036
-691.397	630.042	0.073	0.187
-690.383	-137.477	0.201	-0.023
-689.368	236.556	0.169	0.283
-688.354	-200.000	-0.011	0.359
-687.339	-136.103	-0.148	-0.018
-686.324	-23.488	-0.361	0.219
-685.310	75.869	-0.143	0.153
-684.295	23.186	0.063	-0.052
-683.281	0.490	-0.437	-0.316
-682.266	247.360	-0.127	-0.217
-681.251	-8.556	0.478	-0.325
-680.237	-28.122	-0.187	-0.110
-679.222	207.861	-0.195	-0.308
-678.208	-86.998	-0.221	-0.068
-677.193	-200.000	-0.047	-0.229
-676.178	73.992	0.025	-0.027
-675.164	86.534	0.208	-0.232
-674.149	71.278	-0.145	-0.152
-673.135	160.002	-0.045	-0.064
-672.120	800.000	0.120	0.366
-671.105	-0.685	-0.275	0.197
-670.091	113.307	-0.171	0.210
-669.076	228.414	0.124	-0.205
-668.062	-200.000	0.022	0.104
-667.047	-200.000	0.013	0.303
-666.032	249.657	-0.181	-0.311
-665.018	26.041	0.166	-0.140
-664.003	-37.605	-0.355	-0.191
-662.989	31.062	-0.137	-0.119
-661.974	49.588	0.168	-0.160
-660.959	800.000	0.024	0.104
-659.945	198.557	0.094	0.146
-658.930	-141.555	-0.162	-0.017
-657.916	-130.731	-0.698	-0.095
-656.901	-2.167	-0.056	0.040
-655.886	-76.393	0.114	0.040
-654.872	800.000	-0.102	0.315
-653.857	-85.839	-0.143	0.045
-652.843	82.546	-0.178	-0.196
-651.828	302.726	0.045	-0.084
-650.814	-200.000	0.019	-0.106
-649.799	-102.527	-0.325	-0.079
-648.784	-91.098	0.136	0.039
-647.770	-84.093	0.463	-0.148
-646.755	-10.384	-0.257	-0.172
-645.741	-22.409	0.082	0.050
-644.726	-200.000	0.004	0.092
-643.711	-51.269	0.110	0.052
-642.697	-200.000	0.070	0.438
-641.682	-167.834	0.176	0.007
-640.668	800.000	-0.112	0.352
-639.653	14.441	0.223	0.176
-638.638	800.000	0.058	0.251
-637.624	294.098	-0.064	0.118
-636.609	245.318	0.096	-0.163
-635.595	-83.051	-0.245	-0.080
-634.580	42.011	-0.118	-0.109
-633.565	244.030	0.185	0.314
-632.551	-200.000	-0.001	-0.063
-631.536	240.550	0.093	0.157
-630.522	-94.863	0.301	-0.082
-629.507	-5.104	-0.073	0.051
-628.492	402.100	-0.070	-0.149
-627.478	45.219	0.158	0.147
-626.463	212.540	0.071	0.112
-625.449	-62.668	0.141	-0.059
-624.434	800.000	0.083	0.340
-623.419	471.206	-0.072	-0.163
-622.405	-200.000	-0.019	0.215
-621.390	10.567	0.203	0.156
-620.376	-200.000	-0.040	-0.275
-619.361	-59.955	0.205	0.088
-618.346	-167.259	0.133	0.005
-617.332	-60.128	-0.090	-0.039
-616.317	80.828	-0.021	-0.023
-615.303	80.020	0.117	-0.127
-614.288	487.210	-0.020	-0.045
-613.273	800.000	-0.031	0.090
-612.259	-23.014	-0.117	0.071
-611.244	-200.000	0.014	0.251
-610.230	27.474	0.151	-0.128
-609.215	318.161	-0.066	0.126
-608.201	40.575	-0.111	0.101
-607.186	-74.087	0.062	0.023
-606.171	-44.085	-0.191	0.097
-605.157	-200.000	-0.034	-0.227
-604.142	800.000	0.099	-0.341
-603.128	-63.591	0.256	0.106
-602.113	41.998	0.267	-0.244
-601.098	-145.968	0.119	-0.011
-600.084	800.000	0.084	-0.326
-599.069	83.491	-0.211	-0.232
-598.055	-136.099	-0.204	0.024
-597.040	72.777	-0.132	0.139
-596.025	-112.572	-0.134	-0.027
-595.011	-70.152	0.071	-0.027
-593.996	-167.199	0.255	-0.010
-592.982	800.000	-0.078	-0.245
-591.967	72.762	-0.190	0.200
-590.952	-10.248	-0.113	-0.076
-589.938	-52.145	-0.230	-0.108
-588.923	-34.237	-0.105	-0.058
-587.909	-91.489	0.310	0.089
-586.894	-122.380	0.350	0.057
-585.879	-94.385	-0.319	0.088
-584.865	-97.208	-0.373	-0.098
-583.850	-200.000	-0.021	-0.128
-582.836	-150.105	-0.189	-0.015
-581.821	-28.196	-0.211	-0.123
-580.806	-200.000	-0.010	-0.108
-579.792	-4.447	0.284	0.198
-578.777	138.582	0.104	0.138
-577.763	-53.120	-0.095	-0.044
-576.748	-73.919	0.048	0.018
-575.733	-30.502	0.222	-0.127
-574.719	-196.546	0.234	-0.002
-573.704	54.792	0.339	-0.330
-572.690	524.530	-0.013	0.032
-571.675	138.478	0.033	0.044
-570.661	-92.560	-0.185	-0.052
-569.646	28.306	0.214	0.182
-568.631	-69.224	0.176	-0.068
-567.617	-197.630	0.232	0.001
-566.602	800.000	0.031	0.125
-565.588	-100.900	-0.116	-0.029
-564.573	350.853	-0.210	-0.418
-563.558	-195.043	0.302	0.002
-562.544	-200.000	-0.006	-0.168
-561.529	-200.000	0.014	0.268
-560.515	-200.000	-0.035	0.421
-559.500	800.000	-0.061	0.224
-558.485	800.000	-0.086	0.288
-557.471	218.163	-0.172	0.277
-556.456	61.646	-0.190	0.190
-555.442	172.370	0.062	0.089
-554.427	-84.179	-0.192	-0.061
-553.412	-120.742	-0.131	-0.022
-552.398	12.988	0.123	-0.096
-551.383	119.692	0.198	0.247
-550.369	187.392	-0.064	0.096
-549.354	-134.706	-0.303	-0.037
-548.339	-132.403	-0.302	0.039
-547.325	563.040	-0.097	-0.236
-546.310	800.000	0.055	-0.241
-545.296	277.040	-0.163	0.291
-544.281	-74.486	0.135	0.049
-543.266	200.122	-0.080	0.123
-542.252	-200.000	-0.141	0.000
-541.237	-31.002	0.267	0.152
-540.223	19.678	-0.211	-0.171
-539.208	-128.012	0.544	0.079
-538.193	150.675	-0.134	0.183
-537.179	272.655	-0.113	-0.201
-536.164	-200.000	0.011	-0.172
-535.150	-73.142	-0.155	-0.057
-534.135	-200.000	0.027	0.122
-533.121	-18.805	0.256	0.161
-532.106	16.518	0.220	0.175
-531.091	-200.000	0.086	0.513
-530.077	-200.000	-0.001	0.119
-529.062	175.309	-0.179	0.261
-528.048	-121.241	0.224	0.038
-527.033	110.052	-0.066	-0.080
-526.018	-200.000	0.013	0.159
-525.004	800.000	-0.075	0.272
-523.989	-71.108	0.163	-0.062
-522.975	-200.000	-0.002	-0.021
-521.960	65.775	0.291	-0.297
-520.945	-20.959	-0.068	-0.042
-519.931	-200.000	0.026	0.336
-518.916	-106.639	-0.289	-0.065
-517.902	238.613	-0.051	-0.086
-516.887	-200.000	-0.046	-0.330
-515.872	800.000	0.022	-0.080
-514.858	-69.715	0.344	-0.132
-513.843	332.412	0.041	0.080
-512.829	-151.163	-0.146	-0.011
-511.814	-135.852	-0.267	0.032
-510.799	-4.252	-0.217	0.151
-509.785	390.086	-0.190	-0.396
-508.770	800.000	-0.066	0.280
-507.756	70.184	-0.278	-0.288
-506.741	170.509	-0.222	-0.319
-505.726	258.993	0.203	-0.352
-504.712	-75.889	-0.275	0.098
-503.697	489.024	-0.087	-0.201
-502.683	32.379	0.078	-0.068
-501.668	-115.172	0.130	0.025
-500.653	-85.260	-0.250	0.078
-499.639	11.617	-0.292	-0.225
-498.624	-200.000	-0.004	-0.078
-497.610	62.691	-0.261	-0.262
-496.595	-200.000	-0.026	-0.174
-495.581	161.006	0.089	-0.125
-494.566	800.000	0.078	-0.224
-493.551	-8.941	-0.200	-0.135
-492.537	303.347	-0.194	-0.362
-491.522	292.326	0.179	0.328
-490.508	-120.182	0.323	0.055
-489.493	-122.570	0.218	-0.036
-488.478	-76.032	-0.049	-0.017
-487.464	-85.005	-0.213	0.067
-486.449	800.000	-0.066	0.210
-485.435	-200.000	-0.065	-0.322
-484.420	98.968	0.108	0.125
-483.405	57.493	0.028	-0.028
-482.391	-200.000	0.020	0.271
-481.376	-112.360	-0.159	-0.032
-480.362	98.724	-0.179	0.208
-479.347	562.733	0.092	0.223
-478.332	118.308	-0.107	0.132
-477.318	350.643	-0.090	0.179
-476.303	7.240	-0.152	0.114
-475.289	-92.835	-0.067	-0.019
-474.274	-142.114	-0.220	0.022
-473.259	-60.405	0.081	-0.035
-472.245	591.970	0.137	0.339
-471.230	-200.000	-0.008	-0.150
-470.216	-200.000	-0.026	-0.294
-469.201	3.185	-0.149	0.109
-468.186	-4.674	0.320	-0.222
-467.172	209.503	-0.190	0.299
-466.157	-200.000	-0.033	-0.217
-465.143	-150.203	0.199	0.015
-464.128	-94.354	-0.186	0.051
-463.113	800.000	-0.048	-0.147
-462.099	-69.404	0.105	0.040
-461.084	-59.893	-0.117	0.050
-460.070	-118.508	0.181	-0.032
-459.055	-156.036	0.202	0.013
-458.040	800.000	-0.028	0.077
-457.026	-1.487	-0.161	-0.114
-456.011	-148.132	0.246	0.020
-454.997	-7.178	0.158	0.107
-453.982	-98.797	-0.175	0.045
-452.968	800.000	0.045	-0.190
-451.953	729.080	-0.147	-0.395
-450.938	36.086	0.123	-0.109
-449.924	-200.000	-0.093	-0.582
-448.909	-36.002	-0.085	0.046
-447.895	-128.460	-0.310	-0.044
-446.880	-95.752	-0.276	0.074
-445.865	-182.876	-0.417	0.008
-444.851	320.185	-0.033	0.063
-443.836	68.657	0.015	-0.015
-442.822	253.963	0.085	-0.146
-441.807	-200.000	0.027	0.161
-440.792	-7.287	0.150	-0.102
-439.778	116.112	0.237	-0.291
-438.763	-21.488	0.372	0.228
-437.749	-59.645	-0.088	0.038
-436.734	189.237	0.095	0.142
-435.719	-200.000	-0.007	0.048
-434.705	-200.000	-0.004	0.172
-433.690	800.000	0.085	-0.252
-432.676	800.000	0.042	0.132
-431.661	-200.000	0.009	-0.213
-430.646	-200.000	-0.003	-0.085
-429.632	130.508	-0.028	0.036
-428.617	-200.000	-0.085	-0.444
-427.603	237.476	-0.072	-0.120
-426.588	61.004	-0.129	0.128
-425.573	10.323	-0.303	-0.231
-424.559	-200.000	0.009	-0.068
-423.544	-63.861	-0.257	-0.105
-422.530	157.701	-0.212	-0.295
-421.515	4.806	-0.432	-0.318
-420.500	-119.891	-0.261	0.045
-419.486	-35.827	-0.059	-0.032
-418.471	30.097	0.278	-0.237
-417.457	-200.000	-0.046	-0.249
-416.442	-182.885	-0.110	0.002
-415.428	-130.069	-0.187	0.026
-414.413	121.032	-0.109	0.135
-413.398	-19.381	0.161	0.100
-412.384	-30.634	-0.120	-0.068
-411.369	800.000	0.129	-0.386
-410.355	25.801	0.057	-0.048
-409.340	800.000	0.136	0.444
-408.325	-106.171	-0.224	-0.050
-407.311	-71.576	0.352	0.132
-406.296	-53.777	0.234	0.107
-405.282	-88.014	-0.069	-0.021
-404.267	-121.413	0.221	0.037
-403.252	-42.269	0.231	0.118
-402.238	-108.979	-0.380	0.081
-401.223	-200.000	0.003	-0.140
-400.209	117.084	0.087	-0.107
-399.194	-92.273	-0.191	0.054
-398.179	40.418	-0.147	0.132
-397.165	149.708	0.236	0.320
-396.150	11.155	-0.101	-0.078
-395.136	499.829	-0.069	-0.160
-394.121	127.986	0.117	-0.148
-393.106	-144.972	-0.091	-0.008
-392.092	41.291	-0.060	-0.054
-391.077	9.701	0.252	0.191
-390.063	-158.968	0.304	0.017
-389.048	-77.286	0.266	-0.093
-388.033	-180.309	0.052	0.001
-387.019	-56.074	0.262	0.117
-386.004	-200.000	-0.024	0.313
-384.990	800.000	0.048	0.204
-383.975	-200.000	-0.039	0.222
-382.960	-81.075	-0.122	0.040
-381.946	-71.571	0.253	0.095
-380.931	226.956	0.026	-0.042
-379.917	-58.887	-0.360	-0.156
-378.902	59.382	-0.040	0.040
-377.888	800.000	-0.113	0.362
-376.873	-64.771	-0.203	0.082
-375.858	787.474	0.062	-0.170
-374.844	63.825	0.148	0.148
-373.829	368.044	0.123	0.250
-372.815	-200.000	-0.059	0.307
-371.800	564.028	-0.028	-0.069
-370.785	800.000	-0.068	-0.211
-369.771	-200.000	0.005	0.362
-368.756	800.000	-0.060	-0.177
-367.742	-10.206	0.360	-0.239
-366.727	205.645	-0.175	-0.272
-365.712	372.904	0.228	-0.464
-364.698	-34.171	-0.097	0.054
-363.683	-172.708	-0.235	-0.007
-362.669	320.333	0.124	-0.235
-361.654	648.042	-0.018	-0.045
-360.639	708.793	0.091	-0.241
-359.625	-100.248	-0.093	-0.023
-358.610	-111.888	-0.049	-0.010
-357.596	800.000	-0.077	-0.267
-356.581	-25.023	0.236	-0.140
-355.566	-11.803	-0.072	-0.047
-354.552	-200.000	-0.054	0.286
-353.537	-200.000	0.017	-0.141
-352.523	16.489	0.057	-0.045
-351.508	-182.867	0.126	0.002
-350.493	-124.378	-0.091	-0.014
-349.479	59.786	-0.209	-0.206
-348.464	-200.000	0.050	-0.243
-347.450	-31.107	0.162	-0.092
-346.435	-59.492	-0.135	0.058
-345.420	-27.805	0.098	0.057
-344.406	-67.781	0.227	0.089
-343.391	99.863	-0.104	-0.120
-342.377	800.000	-0.107	0.320
-341.362	102.922	0.249	0.291
-340.348	-173.560	0.038	0.001
-339.333	-126.324	0.023	-0.003
-338.318	-200.000	-0.042	-0.189
-337.304	345.042	0.115	0.226
-336.289	247.724	0.165	-0.279
-335.275	-141.052	-0.243	-0.025
-334.260	101.983	0.151	0.176
-333.245	53.621	-0.245	0.235
-332.231	-200.000	0.013	-0.147
-331.216	-105.344	-0.476	-0.108
-330.202	113.887	-0.072	0.088
-329.187	800.000	-0.109	0.407
-328.172	-139.481	0.307	-0.033
-327.158	-200.000	0.007	0.037
-326.143	150.675	0.210	0.285
-325.129	267.742	0.048	-0.083
-324.114	330.833	-0.045	0.088
-323.099	-15.970	0.171	-0.108
-322.085	-132.183	-0.092	-0.012
-321.070	428.041	0.080	-0.173
-320.056	-77.084	-0.115	0.040
-319.041	-200.000	0.032	0.248
-318.026	462.400	0.069	-0.155
-317.012	-200.000	0.064	-0.345
-315.997	800.000	0.082	0.259
-314.983	37.592	-0.282	0.250
-313.968	727.810	-0.052	-0.139
-312.953	800.000	0.041	0.154
-311.939	-161.078	0.391	0.020
-310.924	-36.249	-0.319	0.172
-309.910	800.000	0.115	0.359
-308.895	-25.743	-0.173	-0.102
-307.880	631.590	-0.098	0.248
-306.866	121.167	-0.116	-0.145
-305.851	-55.916	0.151	-0.067
-304.837	-101.077	0.311	-0.076
-303.822	-200.000	0.017	-0.291
-302.807	-4.415	0.220	0.152
-301.793	-116.214	-0.233	0.043
-300.778	130.118	-0.228	-0.291
-299.764	759.098	-0.099	-0.268
-298.749	-55.071	-0.102	0.046
-297.735	-200.000	-0.007	0.078
-296.720	-99.155	-0.292	-0.074
-295.705	-71.967	-0.421	-0.156
-294.691	11.960	0.061	-0.047
-293.676	800.000	0.060	-0.198
-292.662	128.754	0.161	-0.205
-291.647	-107.645	0.088	0.019
-290.632	-200.000	-0.017	0.477
-289.618	-24.254	-0.195	-0.116
-288.603	-92.304	-0.156	-0.044
-287.589	-92.044	0.248	-0.070
-286.574	568.553	-0.030	-0.073
-285.559	800.000	-0.036	-0.113
-284.545	-178.987	-0.108	0.002
-283.530	41.179	-0.136	-0.123
-282.516	-200.000	0.013	0.151
-281.501	800.000	0.027	-0.107
-280.486	60.403	0.109	0.107
-279.472	81.353	-0.183	0.197
-278.457	-99.420	-0.402	-0.101
-277.443	-200.000	-0.040	0.188
-276.428	119.037	0.133	-0.163
-275.413	-21.422	0.205	-0.125
-274.399	-20.387	-0.123	0.076
-273.384	676.106	-0.039	-0.102
-272.370	-200.000	0.021	-0.140
-271.355	-162.327	0.070	-0.003
-270.340	110.550	0.234	-0.281
-269.326	-15.444	-0.296	0.189
-268.311	-200.000	-0.006	-0.306
-267.297	203.656	0.119	0.184
-266.282	-200.000	0.006	-0.069
-265.267	-200.000	0.012	0.070
-264.253	800.000	0.102	0.368
-263.238	-84.213	0.363	0.115
-262.224	44.007	0.277	-0.253
-261.209	800.000	0.004	0.012
-260.195	566.417	-0.167	0.404
-259.180	-38.401	-0.189	0.100
-258.165	800.000	-0.099	0.321
-257.151	-200.000	0.044	0.380
-256.136	464.363	-0.131	0.292
-255.122	438.383	-0.159	-0.345
-254.107	20.508	-0.094	-0.075
-253.092	102.928	-0.135	0.158
-252.078	29.067	-0.084	0.071
-251.063	-200.000	0.002	-0.090
-250.049	364.364	-0.092	0.184
-249.034	-80.437	-0.110	-0.036
-248.019	800.000	-0.076	0.295
-247.005	-200.000	0.030	-0.210
-245.990	800.000	0.078	-0.242
-244.976	-137.714	-0.158	0.018
-243.961	481.451	0.149	0.336
-242.946	-144.682	-0.171	-0.016
-241.932	-200.000	-0.009	-0.050
-240.917	30.185	0.345	-0.293
-239.903	-42.011	0.238	0.121
-238.888	-157.705	-0.397	0.024
-237.873	476.679	0.034	0.078
-236.859	-20.087	0.134	-0.082
-235.844	267.252	-0.017	0.029
-234.830	-51.080	-0.231	-0.108
-233.815	524.294	0.121	0.284
-232.800	20.952	0.184	0.148
-231.786	214.380	-0.070	0.111
-230.771	-107.961	0.298	-0.064
-229.757	-159.566	0.279	-0.015
-228.742	-86.313	0.112	-0.034
-227.727	-147.888	0.181	0.015
-226.713	-94.622	0.073	0.020
-225.698	16.602	0.260	-0.204
-224.684	610.699	-0.062	-0.153
-223.669	-200.000	0.018	-0.151
-222.655	783.460	0.078	0.214
-221.640	-118.107	0.388	-0.069
-220.625	-200.000	-0.022	-0.168
-219.611	-59.561	0.114	-0.049
-218.596	-56.083	0.009	0.004
-217.582	-79.056	-0.219	-0.074
-216.567	-172.268	0.272	-0.009
-215.552	280.554	-0.081	0.144
-214.538	-6.137	0.206	0.140
-213.523	-160.650	-0.119	0.006
-212.509	101.197	-0.195	0.225
-211.494	800.000	0.063	-0.198
-210.479	800.000	0.079	-0.328
-209.465	78.731	-0.253	0.269
-208.450	12.611	0.057	0.044
-207.436	-65.662	0.090	0.036
-206.421	36.234	0.087	-0.076
-205.406	128.479	0.181	-0.229
-204.392	-152.570	-0.316	-0.022
-203.377	188.588	0.078	-0.116
-202.363	-85.318	-0.542	0.168
-201.348	103.319	-0.109	-0.128
-200.333	-78.864	0.062	0.021
-199.319	-200.000	0.028	-0.392
-198.304	800.000	0.080	-0.263
-197.290	-37.463	0.256	-0.136
-196.275	-80.402	0.043	0.014
-195.260	-26.638	0.309	0.180
-194.246	-200.000	-0.025	0.152
-193.231	-200.000	0.003	0.027
-192.217	-200.000	-0.009	0.199
-191.202	-106.766	0.432	0.095
-190.187	800.000	-0.026	0.105
-189.173	107.105	0.162	0.191
-188.158	51.356	0.091	-0.086
-187.144	85.283	-0.175	-0.191
-186.129	-200.000	-0.021	0.117
-185.114	127.910	-0.155	0.196
-184.100	84.773	0.152	-0.166
-183.085	-200.000	0.012	-0.082
-182.071	-141.374	0.086	0.009
-181.056	-133.030	0.149	-0.019
-180.042	-90.917	0.257	0.073
-179.027	-200.000	-0.019	-0.188
-178.012	-85.030	0.174	0.054
-176.998	108.614	-0.266	-0.316
-175.983	552.264	0.105	0.250
-174.969	-65.591	-0.134	0.053
-173.954	102.102	-0.077	0.089
-172.939	-146.354	0.257	-0.022
-171.925	-200.000	-0.004	-0.272
-170.910	427.117	-0.081	0.173
-169.896	-51.370	0.101	-0.047
-168.881	800.000	0.072	0.238
-167.866	114.234	0.215	-0.260
-166.852	543.746	0.035	0.082
-165.837	-168.891	-0.086	0.003
-164.823	-69.155	0.172	-0.066
-163.808	389.668	-0.112	0.231
-162.793	-56.901	-0.120	-0.053
-161.779	-82.528	-0.334	-0.107
-160.764	21.026	-0.157	-0.126
-159.750	-200.000	0.030	0.339
-158.735	230.351	-0.218	-0.354
-157.720	286.805	0.084	0.151
-156.706	-98.267	-0.113	-0.029
-155.691	-200.000	-0.029	-0.207
-154.677	297.858	0.175	0.318
-153.662	37.522	-0.194	0.170
-152.647	-200.000	0.004	0.378
-151.633	30.022	0.241	-0.204
-150.618	-105.402	-0.146	-0.033
-149.604	-126.886	0.296	-0.043
-148.589	40.900	-0.256	-0.229
-147.574	-55.489	0.163	-0.072
-146.560	334.633	-0.152	-0.292
-145.545	-200.000	-0.053	-0.237
-144.531	22.738	-0.239	0.194
-143.516	-200.000	-0.002	0.275
-142.502	-164.475	-0.211	0.010
-141.487	98.527	-0.184	0.210
-140.472	-123.334	0.160	0.025
-139.458	38.325	-0.086	0.076
-138.443	-19.254	-0.265	-0.163
-137.429	-41.314	0.050	-0.025
-136.414	-200.000	0.012	0.064
-135.399	469.295	0.215	-0.478
-134.385	265.670	-0.099	0.171
-133.370	38.835	0.189	-0.167
-132.356	-14.031	0.125	-0.080
-131.341	-200.000	0.032	-0.518
-130.326	800.000	-0.107	-0.421
-129.312	86.809	-0.228	-0.249
-128.297	-59.725	0.178	0.076
-127.283	11.186	-0.270	0.204
-126.268	411.929	0.106	0.222
-125.253	-109.542	-0.238	0.050
-124.239	-145.616	-0.205	-0.018
-123.224	-146.340	0.218	-0.019
-122.210	20.802	-0.093	0.074
