DTS Sentinel unit serial number:	SN413079Multiplexer serial number:	ORYXHardware model number:	OX4-SRSoftware version number:	ORYX F/W v4.00 Oryx Data Collector v3.7.2.0data status	okinstallation	princeton_trtdifferential loss correction	single-endedforward channel	channel 1reverse channel	N/Adate	2019/09/13time	02:26:35forward acquisition time	60.00reverse acquisition time	0.00gamma	496.2192k internal	0.2331k external	0.2331temperature offset calibration	1.0159default loss term (dB/km)	0.3790temperature slope calibration	1.0000multiplexer offset coefficient	1.0000multiplexer slope coefficient	1.0000fibre end	0.00T internal ref (°C)	27.50T ext. ref 1 (°C)	3.96T ext. ref 2 (°C)	22.22length (m)	temperature (°C)	Stokes	anti-Stokes-747.200	-200.000	-0.034	0.161
-746.185	-200.000	-0.002	-0.078
-745.171	-69.094	0.221	-0.086
-744.156	735.782	0.084	0.227
-743.142	137.865	-0.193	0.255
-742.127	-94.769	-0.319	0.087
-741.112	-35.904	0.066	-0.036
-740.098	48.898	0.158	0.150
-739.083	535.938	0.054	-0.128
-738.069	-72.507	0.256	0.095
-737.054	-200.000	0.020	-0.104
-736.039	531.885	0.058	-0.137
-735.025	-200.000	-0.030	0.363
-734.010	-24.030	-0.157	0.094
-732.996	-200.000	-0.008	0.138
-731.981	-50.917	0.129	0.061
-730.966	800.000	0.061	-0.215
-729.952	56.411	0.083	-0.081
-728.937	-200.000	-0.009	-0.302
-727.923	313.244	-0.047	-0.089
-726.908	40.373	0.135	-0.122
-725.894	19.167	-0.253	0.204
-724.879	93.063	-0.132	0.150
-723.864	-53.891	-0.105	-0.048
-722.850	41.054	-0.125	-0.114
-721.835	800.000	-0.039	0.142
-720.821	116.042	-0.067	-0.083
-719.806	-130.485	-0.093	0.013
-718.791	800.000	-0.058	-0.249
-717.777	557.944	0.243	-0.588
-716.762	152.050	-0.144	-0.198
-715.748	-107.394	0.235	0.052
-714.733	800.000	-0.051	0.155
-713.718	-200.000	-0.005	-0.140
-712.704	-200.000	-0.051	-0.251
-711.689	-127.862	-0.456	-0.066
-710.675	51.713	-0.076	-0.073
-709.660	-10.382	-0.116	-0.077
-708.645	-141.905	-0.206	-0.021
-707.631	-200.000	-0.046	-0.241
-706.616	-200.000	-0.022	0.244
-705.602	-65.338	0.041	0.017
-704.587	42.308	-0.234	-0.213
-703.572	288.359	-0.089	0.161
-702.558	97.141	0.165	-0.190
-701.543	215.785	-0.137	-0.219
-700.529	-85.270	0.256	-0.080
-699.514	132.780	0.111	0.144
-698.499	-181.207	0.301	0.006
-697.485	-37.308	0.153	-0.082
-696.470	-200.000	0.054	0.244
-695.456	245.747	-0.100	0.169
-694.441	749.521	0.116	0.314
-693.426	-200.000	0.000	-0.196
-692.412	16.745	0.177	-0.141
-691.397	-200.000	0.006	-0.151
-690.383	-172.811	0.216	-0.007
-689.368	-51.384	0.041	0.019
-688.354	130.123	-0.081	-0.105
-687.339	368.277	-0.151	0.307
-686.324	47.100	0.073	0.069
-685.310	301.962	-0.041	-0.076
-684.295	636.170	-0.041	0.105
-683.281	80.001	-0.188	-0.203
-682.266	-83.705	0.133	0.043
-681.251	-140.699	0.151	-0.016
-680.237	-21.096	-0.131	0.081
-679.222	-200.000	-0.002	0.015
-678.208	-200.000	-0.013	-0.117
-677.193	79.631	-0.125	-0.135
-676.178	-200.000	-0.066	0.291
-675.164	-200.000	0.023	-0.120
-674.149	433.972	0.129	-0.282
-673.135	-193.930	0.080	0.001
-672.120	333.748	0.092	0.178
-671.105	389.397	-0.070	0.145
-670.091	123.702	0.157	-0.198
-669.076	554.649	-0.123	0.298
-668.062	-19.589	-0.124	-0.077
-667.047	-200.000	0.015	-0.113
-666.032	-35.296	-0.311	-0.170
-665.018	-0.965	-0.194	0.138
-664.003	281.681	-0.088	0.158
-662.989	-200.000	0.068	-0.416
-661.974	-109.501	-0.459	0.097
-660.959	-168.060	-0.192	0.008
-659.945	87.342	-0.080	0.089
-658.930	24.450	0.046	0.038
-657.916	-200.000	-0.002	-0.057
-656.901	54.314	0.114	-0.110
-655.886	800.000	-0.098	0.284
-654.872	-200.000	-0.016	0.118
-653.857	800.000	-0.072	0.225
-652.843	246.460	-0.143	0.243
-651.828	-168.615	0.372	-0.014
-650.814	-45.411	0.183	-0.091
-649.799	800.000	-0.030	-0.088
-648.784	-122.935	0.473	-0.076
-647.770	-52.568	-0.108	0.050
-646.755	703.036	-0.125	-0.330
-645.741	-158.168	0.049	0.003
-644.726	-81.254	0.030	-0.010
-643.711	-1.980	-0.052	0.037
-642.697	-70.482	-0.109	0.041
-641.682	726.039	0.079	-0.211
-640.668	-155.935	-0.150	-0.010
-639.653	235.952	0.064	-0.106
-638.638	32.377	-0.249	-0.216
-637.624	522.897	0.046	-0.109
-636.609	-88.114	0.298	0.089
-635.595	-84.063	-0.368	0.117
-634.580	-178.638	0.138	-0.003
-633.565	37.732	0.041	-0.036
-632.551	174.756	0.281	-0.408
-631.536	-23.059	-0.194	0.117
-630.522	191.401	-0.100	-0.151
-629.507	-23.074	0.156	0.094
-628.492	-44.733	-0.202	0.101
-627.478	800.000	0.030	0.121
-626.463	21.092	-0.091	0.074
-625.449	-200.000	0.010	-0.264
-624.434	-58.628	-0.206	0.089
-623.419	103.469	-0.189	-0.223
-622.405	-200.000	-0.039	-0.359
-621.390	485.785	0.088	-0.202
-620.376	618.707	-0.096	-0.242
-619.361	-9.010	0.052	-0.035
-618.346	-200.000	0.021	0.223
-617.332	-113.289	-0.048	0.009
-616.317	800.000	0.007	0.025
-615.303	17.226	-0.268	-0.213
-614.288	800.000	-0.035	0.150
-613.273	-200.000	0.046	0.331
-612.259	194.130	-0.064	-0.097
-611.244	800.000	-0.051	0.152
-610.230	-200.000	-0.033	-0.185
-609.215	800.000	-0.049	-0.193
-608.201	114.612	-0.436	-0.532
-607.186	-200.000	0.035	-0.405
-606.171	-200.000	-0.029	-0.218
-605.157	76.324	0.172	-0.182
-604.142	296.133	-0.242	0.445
-603.128	-15.125	-0.169	0.108
-602.113	-69.608	-0.068	-0.026
-601.098	479.597	-0.023	-0.052
-600.084	-67.966	0.201	0.078
-599.069	800.000	-0.017	-0.072
-598.055	15.263	0.083	0.065
-597.040	50.331	0.058	-0.055
-596.025	-74.157	-0.224	0.081
-595.011	800.000	0.065	-0.218
-593.996	147.543	-0.059	0.080
-592.982	-200.000	-0.008	0.546
-591.967	26.455	-0.134	0.112
-590.952	392.999	0.042	0.086
-589.938	6.331	-0.165	-0.123
-588.923	-133.233	-0.462	0.058
-587.909	129.069	0.091	-0.116
-586.894	-65.358	0.144	0.058
-585.879	-83.507	-0.164	-0.052
-584.865	-22.829	-0.324	-0.195
-583.850	39.610	0.266	-0.239
-582.836	46.533	-0.032	0.030
-581.821	11.394	-0.228	-0.174
-580.806	109.828	0.166	-0.199
-579.792	307.723	-0.071	0.132
-578.777	20.801	0.079	-0.064
-577.763	-200.000	-0.019	0.153
-576.748	701.351	-0.075	-0.197
-575.733	159.282	-0.108	-0.150
-574.719	-5.826	-0.165	-0.113
-573.704	26.090	-0.184	-0.154
-572.690	-200.000	-0.046	0.202
-571.675	-86.826	0.220	0.067
-570.661	-28.754	-0.111	-0.064
-569.646	206.767	0.034	0.053
-568.631	246.856	-0.106	0.180
-567.617	62.425	-0.287	0.286
-566.602	546.603	0.132	0.315
-565.588	77.850	0.118	-0.125
-564.573	184.973	-0.132	0.196
-563.558	-120.030	0.303	0.052
-562.544	-200.000	-0.037	0.176
-561.529	335.114	0.087	-0.168
-560.515	-72.804	0.299	-0.110
-559.500	397.494	-0.164	-0.343
-558.485	150.534	0.030	-0.040
-557.471	31.717	-0.125	0.108
-556.456	-47.009	-0.287	0.140
-555.442	800.000	-0.073	0.234
-554.427	-31.634	-0.270	0.152
-553.412	-187.608	0.264	0.003
-552.398	-77.583	0.312	0.108
-551.383	322.332	0.016	-0.030
-550.369	-94.004	-0.152	-0.042
-549.354	-200.000	0.010	0.074
-548.339	-99.196	0.113	-0.028
-547.325	289.328	0.070	0.127
-546.310	10.878	-0.113	0.086
-545.296	-50.915	0.156	-0.073
-544.281	-50.054	0.375	-0.178
-543.266	-200.000	0.055	-0.546
-542.252	39.856	-0.194	-0.174
-541.237	-9.895	-0.323	-0.215
-540.223	-98.801	-0.485	0.123
-539.208	-113.772	-0.109	0.021
-538.193	500.634	-0.047	-0.107
-537.179	-200.000	-0.034	0.219
-536.164	193.579	0.094	0.141
-535.150	800.000	-0.043	0.184
-534.135	-200.000	0.002	-0.040
-533.121	-82.361	-0.222	0.072
-532.106	-200.000	0.054	0.300
-531.091	800.000	-0.136	0.436
-530.077	-31.454	-0.132	0.074
-529.062	20.619	-0.296	-0.239
-528.048	-163.263	-0.151	-0.007
-527.033	-42.818	-0.104	0.053
-526.018	-85.219	0.332	-0.104
-525.004	-200.000	0.054	0.289
-523.989	179.007	-0.057	0.083
-522.975	-20.368	0.360	-0.221
-521.960	419.302	-0.064	-0.137
-520.945	319.515	-0.126	0.239
-519.931	-200.000	0.006	0.121
-518.916	-99.971	0.135	0.033
-517.902	205.310	0.115	-0.179
-516.887	-140.341	0.307	-0.032
-515.872	175.950	0.141	-0.204
-514.858	-200.000	0.007	0.039
-513.843	480.757	0.086	-0.195
-512.829	451.337	0.093	0.204
-511.814	-194.936	0.321	-0.002
-510.799	-200.000	-0.014	0.272
-509.785	24.216	0.280	-0.231
-508.770	432.583	0.149	0.323
-507.756	124.839	0.093	0.117
-506.741	-97.982	0.257	-0.066
-505.726	800.000	-0.025	-0.101
-504.712	-20.860	0.209	0.127
-503.697	-55.461	-0.372	0.166
-502.683	21.204	0.053	-0.043
-501.668	-139.911	0.137	-0.014
-500.653	-200.000	-0.031	-0.144
-499.639	-35.904	0.158	0.085
-498.624	-155.210	-0.079	-0.005
-497.610	260.996	0.241	0.415
-496.595	72.711	-0.201	0.209
-495.581	89.720	0.275	0.306
-494.566	-147.011	0.069	-0.006
-493.551	-173.598	-0.296	-0.009
-492.537	117.016	0.043	-0.053
-491.522	800.000	-0.134	-0.383
-490.508	64.812	-0.381	-0.384
-489.493	63.869	0.075	-0.075
-488.478	800.000	-0.061	0.194
-487.464	-27.922	0.314	-0.181
-486.449	193.961	-0.088	-0.133
-485.435	-157.538	0.451	0.027
-484.420	-36.966	0.123	0.066
-483.405	474.261	0.155	0.349
-482.391	57.952	-0.063	0.062
-481.376	74.116	0.292	0.305
-480.362	-200.000	-0.014	-0.150
-479.347	47.685	0.146	-0.135
-478.332	292.976	-0.050	0.091
-477.318	749.020	0.134	-0.359
-476.303	-118.706	-0.132	-0.023
-475.289	-200.000	-0.031	-0.199
-474.274	-200.000	0.033	-0.384
-473.259	-137.767	-0.267	-0.030
-472.245	-179.984	-0.171	-0.004
-471.230	-121.479	0.379	0.063
-470.216	-200.000	0.018	0.091
-469.201	771.313	-0.155	-0.420
-468.186	-9.997	-0.040	-0.026
-467.172	33.655	-0.122	0.106
-466.157	-136.070	-0.204	0.024
-465.143	-167.360	0.198	0.008
-464.128	-200.000	-0.003	-0.090
-463.113	-109.548	0.231	0.048
-462.099	614.659	-0.056	-0.140
-461.084	-175.477	0.129	-0.004
-460.070	-200.000	0.021	0.253
-459.055	800.000	0.030	0.129
-458.040	-49.614	0.129	0.061
-457.026	740.006	0.109	0.292
-456.011	-200.000	0.050	0.410
-454.997	421.485	0.186	-0.396
-453.982	-200.000	0.037	0.289
-452.968	-77.170	0.237	0.082
-451.953	16.963	0.212	0.167
-450.938	-147.145	-0.153	-0.013
-449.924	-200.000	-0.050	0.287
-448.909	270.013	0.167	-0.292
-447.895	-200.000	-0.002	-0.197
-446.880	636.927	-0.024	-0.060
-445.865	-200.000	0.039	0.000
-444.851	192.513	-0.023	0.034
-443.836	-124.040	0.260	0.041
-442.822	-176.675	-0.155	-0.004
-441.807	125.509	0.157	-0.197
-440.792	-200.000	0.026	-0.129
-439.778	-16.572	0.359	-0.226
-438.763	215.287	-0.072	-0.113
-437.749	-200.000	-0.051	-0.240
-436.734	-128.050	-0.150	0.021
-435.719	800.000	-0.077	-0.312
-434.705	-200.000	-0.031	-0.307
-433.690	98.920	0.167	0.192
-432.676	20.903	-0.003	0.002
-431.661	-148.212	0.269	0.022
-430.646	-133.201	0.165	-0.021
-429.632	-39.812	0.388	0.202
-428.617	32.076	-0.118	0.101
-427.603	-19.776	0.095	0.058
-426.588	-200.000	0.009	-0.051
-425.573	92.237	-0.158	-0.177
-424.559	-46.288	0.053	0.026
-423.544	-200.000	-0.048	0.258
-422.530	800.000	0.038	-0.159
-421.515	-145.534	-0.234	0.021
-420.500	-79.858	-0.096	-0.032
-419.486	-10.145	0.185	-0.122
-418.471	258.218	0.144	-0.246
-417.457	-62.511	0.102	0.042
-416.442	-102.406	0.160	-0.038
-415.428	52.746	0.128	-0.121
-414.413	97.952	-0.114	-0.130
-413.398	-200.000	-0.000	-0.262
-412.384	-42.138	-0.090	0.046
-411.369	-200.000	0.010	-0.148
-410.355	-200.000	-0.003	-0.075
-409.340	262.131	0.222	0.382
-408.325	-73.447	-0.288	0.105
-407.311	800.000	0.058	-0.182
-406.296	-75.271	0.056	-0.020
-405.282	169.704	0.226	-0.321
-404.267	-108.918	0.230	0.049
-403.252	575.786	0.072	-0.174
-402.238	-200.000	-0.020	0.268
-401.223	-42.009	-0.361	-0.183
-400.209	-50.682	-0.214	0.100
-399.194	-58.710	0.365	0.157
-398.179	250.245	-0.115	-0.194
-397.165	800.000	0.074	-0.305
-396.150	-97.147	-0.226	0.059
-395.136	62.012	-0.094	0.093
-394.121	100.627	-0.153	0.176
-393.106	800.000	0.026	0.100
-392.092	-200.000	-0.012	-0.277
-391.077	-41.848	0.058	-0.030
-390.063	52.929	0.092	-0.087
-389.048	-13.432	0.330	0.212
-388.033	66.554	-0.040	-0.040
-387.019	-200.000	0.018	-0.254
-386.004	220.182	-0.119	-0.189
-384.990	-200.000	0.007	-0.195
-383.975	37.461	0.200	0.176
-382.960	-76.714	-0.232	-0.081
-381.946	49.436	0.086	-0.080
-380.931	-66.098	-0.194	-0.077
-379.917	132.713	-0.127	-0.163
-378.902	-97.360	0.041	0.011
-377.888	-115.372	0.271	0.051
-376.873	-146.122	0.147	0.013
-375.858	-200.000	-0.006	0.200
-374.844	403.916	0.104	0.217
-373.829	21.149	0.185	-0.149
-372.815	122.195	0.099	0.123
-371.800	717.884	-0.052	-0.137
-370.785	381.737	0.096	0.195
-369.771	85.051	0.039	-0.042
-368.756	15.500	-0.131	0.102
-367.742	-200.000	-0.008	0.048
-366.727	-88.355	-0.064	-0.019
-365.712	-21.484	-0.249	-0.150
-364.698	-80.883	-0.230	0.076
-363.683	-60.238	0.206	0.087
-362.669	-200.000	-0.024	-0.113
-361.654	800.000	-0.052	-0.194
-360.639	687.323	-0.010	0.026
-359.625	-9.203	0.179	-0.119
-358.610	-200.000	-0.012	-0.149
-357.596	-51.586	-0.099	-0.046
-356.581	261.313	-0.056	0.096
-355.566	-54.411	0.212	-0.095
-354.552	109.698	0.130	-0.154
-353.537	-200.000	-0.009	0.381
-352.523	688.690	-0.090	-0.232
-351.508	23.755	-0.270	0.220
-350.493	-200.000	0.015	0.194
-349.479	-200.000	-0.011	-0.350
-348.464	-85.995	-0.422	0.129
-347.450	2.121	0.098	-0.070
-346.435	800.000	-0.107	-0.375
-345.420	-124.332	0.092	-0.014
-344.406	-15.203	-0.059	0.037
-343.391	45.541	-0.223	0.204
-342.377	-19.373	-0.021	0.013
-341.362	177.099	0.175	-0.253
-340.348	-106.501	0.345	0.076
-339.333	27.314	-0.331	0.275
-338.318	-74.254	-0.055	-0.020
-337.304	106.069	-0.064	-0.075
-336.289	-141.595	0.213	-0.021
-335.275	125.673	-0.198	-0.248
-334.260	800.000	-0.026	-0.111
-333.245	-60.536	-0.321	0.135
-332.231	15.331	-0.325	-0.253
-331.216	-1.666	-0.372	0.259
-330.202	111.251	-0.233	0.278
-329.187	-33.130	-0.331	0.182
-328.172	239.095	0.035	-0.057
-327.158	98.559	-0.034	-0.039
-326.143	-131.184	0.039	-0.005
-325.129	-37.649	0.261	-0.137
-324.114	193.174	-0.142	-0.213
-323.099	-29.658	0.201	-0.114
-322.085	58.683	-0.153	0.149
-321.070	236.884	-0.115	0.188
-320.056	-200.000	-0.043	-0.360
-319.041	54.805	0.197	0.188
-318.026	-108.408	-0.151	0.032
-317.012	313.209	0.222	0.412
-315.997	800.000	0.045	0.144
-314.983	80.378	-0.069	0.073
-313.968	-12.874	-0.135	-0.087
-312.953	234.799	-0.046	-0.075
-311.939	-106.763	-0.073	-0.016
-310.924	800.000	-0.074	-0.253
-309.910	45.341	-0.311	-0.284
-308.895	223.071	-0.046	-0.073
-307.880	330.679	-0.052	-0.099
-306.866	-200.000	0.001	-0.036
-305.851	8.746	0.136	0.101
-304.837	-157.727	0.254	-0.015
-303.822	800.000	-0.063	0.182
-302.807	-200.000	0.020	0.158
-301.793	-200.000	-0.039	-0.201
-300.778	532.855	-0.103	-0.242
-299.764	-122.076	-0.136	0.022
-298.749	-200.000	0.051	0.326
-297.735	-87.149	0.219	0.066
-296.720	-200.000	0.077	-0.501
-295.705	14.537	0.113	-0.087
-294.691	-1.787	0.114	0.079
-293.676	-42.171	0.178	0.090
-292.662	-200.000	0.002	0.266
-291.647	53.051	-0.303	0.287
-290.632	109.680	0.100	0.118
-289.618	-4.830	-0.120	-0.082
-288.603	-91.027	-0.165	-0.047
-287.589	2.177	-0.044	0.031
-286.574	-104.780	-0.053	0.012
-285.559	126.595	0.145	-0.182
-284.545	673.511	0.077	0.198
-283.530	227.994	-0.135	0.218
-282.516	612.677	0.078	-0.193
-281.501	-200.000	-0.025	-0.145
-280.486	74.535	-0.217	0.226
-279.472	-27.909	0.171	0.098
-278.457	-104.154	0.070	0.016
-277.443	364.273	0.113	-0.224
-276.428	-131.467	-0.287	0.037
-275.413	549.295	0.105	0.248
-274.399	800.000	-0.039	0.130
-273.384	800.000	0.060	0.172
-272.370	409.762	-0.136	0.284
-271.355	-14.627	0.347	-0.220
-270.340	-60.522	-0.185	0.078
-269.326	517.656	0.161	0.372
-268.311	-16.757	-0.118	-0.074
-267.297	-124.923	0.219	-0.033
-266.282	-20.199	0.220	-0.134
-265.267	171.009	0.108	-0.153
-264.253	49.616	-0.129	0.120
-263.238	-113.934	0.141	0.027
-262.224	-113.112	-0.081	-0.016
-261.209	-0.533	-0.044	-0.031
-260.195	65.700	-0.107	0.107
-259.180	-171.295	0.329	-0.011
-258.165	-50.844	-0.160	0.074
-257.151	-200.000	-0.018	-0.145
-256.136	-200.000	0.003	-0.369
-255.122	-98.421	-0.121	0.031
-254.107	-200.000	0.028	-0.126
-253.092	-158.391	-0.149	0.009
-252.078	-67.097	0.041	-0.016
-251.063	-42.243	-0.168	-0.085
-250.049	-7.263	0.226	-0.151
-249.034	-93.460	-0.174	0.047
-248.019	97.107	0.226	0.256
-247.005	793.318	-0.005	0.013
-245.990	-128.364	0.324	0.045
-244.976	-200.000	0.029	-0.194
-243.961	-67.360	0.117	-0.045
-242.946	-139.833	0.178	-0.019
-241.932	-187.232	-0.315	0.004
-240.917	335.700	0.171	0.327
-239.903	800.000	0.096	0.341
-238.888	-172.593	-0.237	0.007
-237.873	-200.000	-0.023	-0.175
-236.859	-92.902	0.325	0.089
-235.844	-114.913	-0.135	0.025
-234.830	-94.761	0.128	0.034
-233.815	-125.055	-0.107	-0.016
-232.800	-200.000	0.007	-0.216
-231.786	800.000	-0.046	-0.191
-230.771	-75.104	0.182	-0.064
-229.757	142.851	-0.125	0.164
-228.742	-2.509	-0.107	0.074
-227.727	-110.502	0.140	-0.029
-226.713	84.330	-0.116	-0.125
-225.698	-13.208	-0.239	-0.153
-224.684	-106.376	-0.105	-0.023
-223.669	217.098	0.234	-0.368
-222.655	800.000	-0.125	-0.399
-221.640	134.653	0.246	-0.315
-220.625	769.776	-0.152	0.408
-219.611	46.445	-0.081	-0.074
-218.596	76.840	0.127	-0.133
-217.582	358.834	-0.127	0.251
-216.567	-200.000	-0.031	-0.386
-215.552	800.000	0.054	-0.164
-214.538	-200.000	-0.021	0.240
-213.523	78.952	0.308	0.325
-212.509	-60.955	-0.408	0.170
-211.494	-100.744	-0.389	-0.094
-210.479	600.467	-0.051	0.125
-209.465	-198.341	0.089	0.001
-208.450	69.469	-0.136	0.138
-207.436	-150.622	0.090	-0.007
-206.421	-25.395	-0.264	-0.154
-205.406	-26.009	0.211	-0.122
-204.392	110.784	-0.056	-0.067
-203.377	600.789	0.142	0.347
-202.363	-62.513	0.155	-0.063
-201.348	-19.206	-0.058	0.035
-200.333	110.546	-0.018	-0.021
-199.319	-75.735	0.247	-0.086
-198.304	313.235	0.117	0.217
-197.290	507.999	-0.039	0.089
-196.275	800.000	0.018	-0.058
-195.260	-145.536	-0.110	-0.010
-194.246	-0.149	0.256	0.179
-193.231	-45.349	0.220	-0.108
-192.217	169.050	-0.153	-0.214
-191.202	-16.273	-0.363	0.227
-190.187	800.000	0.101	0.285
-189.173	-104.494	0.133	-0.030
-188.158	179.008	-0.139	-0.200
-187.144	-15.423	-0.178	0.112
-186.129	222.803	-0.051	0.080
-185.114	-28.172	0.168	-0.096
-184.100	800.000	0.048	0.198
-183.085	163.532	-0.224	0.311
-182.071	800.000	0.019	0.051
-181.056	133.528	0.035	-0.045
-180.042	-35.538	-0.200	-0.107
-179.027	33.118	-0.116	-0.099
-178.012	-65.433	0.172	-0.068
-176.998	9.665	0.291	-0.217
-175.983	-116.891	-0.274	0.049
-174.969	800.000	0.066	0.199
-173.954	800.000	0.040	0.147
-172.939	270.648	0.096	0.167
-171.925	800.000	0.089	0.373
-170.910	57.527	-0.203	0.195
-169.896	87.063	0.280	0.304
-168.881	800.000	0.132	0.362
-167.866	397.415	0.193	0.396
-166.852	-120.515	-0.030	-0.005
-165.837	278.342	0.144	-0.252
-164.823	248.141	-0.116	0.192
-163.808	613.676	-0.155	0.382
-162.793	-150.028	-0.565	-0.043
-161.779	-110.858	0.308	0.062
-160.764	-200.000	-0.006	0.303
-159.750	-200.000	-0.031	-0.250
-158.735	3.293	0.190	-0.136
-157.720	-200.000	0.038	0.181
-156.706	401.928	-0.166	0.344
-155.691	-200.000	-0.006	0.662
-154.677	-184.214	0.086	0.001
-153.662	-200.000	-0.027	-0.144
-152.647	-33.235	0.136	0.074
-151.633	128.169	-0.078	0.097
-150.618	85.988	-0.281	0.304
-149.604	-157.730	-0.194	-0.011
-148.589	19.272	-0.091	-0.072
-147.574	-200.000	-0.003	0.071
-146.560	201.781	0.211	0.320
-145.545	-96.314	-0.074	-0.019
-144.531	-10.265	-0.251	0.164
-143.516	800.000	-0.165	0.476
-142.502	37.591	-0.062	-0.054
-141.487	-120.586	-0.088	-0.015
-140.472	139.564	-0.179	0.232
-139.458	240.536	-0.054	0.088
-138.443	-132.541	0.168	-0.021
-137.429	155.565	-0.144	0.195
-136.414	346.130	-0.079	0.152
-135.399	-70.408	0.332	0.124
-134.385	-15.865	-0.259	0.162
-133.370	-67.812	-0.160	0.062
-132.356	-57.635	0.505	0.217
-131.341	-28.025	-0.212	-0.120
-130.326	800.000	0.035	-0.102
-129.312	-78.788	0.269	-0.090
-128.297	-21.068	-0.191	0.115
-127.283	800.000	0.038	-0.128
-126.268	-12.845	-0.248	0.159
-125.253	61.392	-0.156	0.152
-124.239	-10.752	-0.216	0.140
-123.224	800.000	-0.032	-0.105
-122.210	97.785	0.038	-0.042
