DTS Sentinel unit serial number:	SN413079Multiplexer serial number:	ORYXHardware model number:	OX4-SRSoftware version number:	ORYX F/W v4.00 Oryx Data Collector v3.7.2.0data status	okinstallation	princeton_trtdifferential loss correction	single-endedforward channel	channel 1reverse channel	N/Adate	2019/09/18time	06:30:35forward acquisition time	60.00reverse acquisition time	0.00gamma	496.2192k internal	0.2339k external	0.2339temperature offset calibration	0.9976default loss term (dB/km)	0.3790temperature slope calibration	1.0000multiplexer offset coefficient	1.0000multiplexer slope coefficient	1.0000fibre end	0.00T internal ref (°C)	23.28T ext. ref 1 (°C)	0.19T ext. ref 2 (°C)	17.46length (m)	temperature (°C)	Stokes	anti-Stokes-747.200	85.581	0.268	-0.295
-746.185	-200.000	0.054	0.436
-745.171	-153.284	0.229	0.016
-744.156	-134.886	0.116	-0.014
-743.142	-200.000	0.016	-0.105
-742.127	207.516	-0.252	-0.395
-741.112	187.777	-0.191	-0.286
-740.098	-125.914	-0.146	-0.022
-739.083	107.988	0.208	0.249
-738.069	24.641	-0.203	-0.168
-737.054	-49.777	-0.261	-0.124
-736.039	-174.724	0.326	-0.009
-735.025	800.000	-0.034	0.136
-734.010	800.000	-0.010	0.036
-732.996	60.051	0.141	-0.140
-731.981	117.080	-0.085	-0.104
-730.966	-58.067	0.220	0.096
-729.952	413.844	0.159	-0.338
-728.937	111.110	-0.135	-0.163
-727.923	481.829	-0.074	-0.169
-726.908	-52.001	0.240	-0.112
-725.894	-200.000	-0.030	-0.246
-724.879	-200.000	0.005	-0.086
-723.864	187.280	0.045	-0.067
-722.850	800.000	0.027	0.094
-721.835	-12.138	-0.197	0.129
-720.821	-142.772	-0.091	-0.009
-719.806	-194.942	-0.101	-0.001
-718.791	121.029	0.094	0.117
-717.777	16.581	0.105	0.083
-716.762	123.713	-0.094	-0.118
-715.748	-1.955	0.196	-0.138
-714.733	-200.000	0.034	0.179
-713.718	-54.240	-0.245	0.112
-712.704	800.000	0.020	0.083
-711.689	-122.484	0.192	-0.031
-710.675	-200.000	-0.025	-0.132
-709.660	-77.197	-0.134	0.047
-708.645	-142.169	-0.140	0.014
-707.631	-0.580	-0.104	0.074
-706.616	-96.000	0.127	-0.034
-705.602	-128.025	-0.360	-0.052
-704.587	-136.104	-0.525	0.062
-703.572	77.444	-0.209	0.223
-702.558	712.640	0.086	-0.227
-701.543	800.000	-0.060	-0.179
-700.529	109.227	-0.171	-0.205
-699.514	88.560	-0.270	-0.300
-698.499	301.728	0.055	0.101
-697.485	21.298	-0.105	0.086
-696.470	50.782	0.137	-0.129
-695.456	-151.799	-0.017	-0.001
-694.441	-5.753	-0.092	0.063
-693.426	103.466	-0.129	-0.152
-692.412	-17.354	-0.223	0.140
-691.397	50.943	0.151	-0.143
-690.383	-200.000	-0.019	-0.229
-689.368	-104.462	-0.345	0.080
-688.354	800.000	0.087	0.260
-687.339	-9.554	-0.199	-0.133
-686.324	-200.000	0.017	0.166
-685.310	-65.149	-0.106	-0.043
-684.295	48.649	-0.178	0.167
-683.281	-42.861	0.035	0.018
-682.266	-200.000	-0.066	-0.361
-681.251	-132.580	0.078	-0.010
-680.237	109.561	0.128	0.154
-679.222	-33.625	-0.131	-0.072
-678.208	-135.353	0.139	0.017
-677.193	-82.754	-0.122	0.039
-676.178	269.402	-0.208	-0.364
-675.164	-200.000	-0.002	0.093
-674.149	-200.000	-0.017	0.217
-673.135	-76.703	-0.255	-0.089
-672.120	-11.415	-0.259	-0.171
-671.105	-89.602	0.251	-0.074
-670.091	-118.430	-0.125	0.022
-669.076	-30.615	0.155	0.088
-668.062	45.716	-0.204	-0.188
-667.047	-14.460	0.105	-0.068
-666.032	-146.916	-0.415	-0.036
-665.018	360.837	0.029	0.058
-664.003	800.000	-0.015	0.046
-662.989	318.890	-0.070	-0.132
-661.974	-94.141	-0.272	0.075
-660.959	-95.064	-0.149	0.040
-659.945	49.666	-0.202	0.190
-658.930	-172.533	-0.227	-0.007
-657.916	222.535	0.101	-0.162
-656.901	-24.732	0.161	-0.095
-655.886	-41.994	-0.236	0.121
-654.872	-50.485	0.139	-0.065
-653.857	346.466	-0.139	-0.274
-652.843	263.339	0.075	0.130
-651.828	146.959	-0.142	0.191
-650.814	21.729	-0.058	-0.047
-649.799	263.209	-0.142	0.246
-648.784	-97.664	0.155	0.040
-647.770	670.411	-0.082	0.212
-646.755	-200.000	0.010	0.059
-645.741	49.115	-0.092	0.087
-644.726	-74.102	-0.105	-0.038
-643.711	-75.427	0.377	0.134
-642.697	-200.000	0.036	0.176
-641.682	56.764	-0.305	0.297
-640.668	-97.559	0.157	-0.041
-639.653	487.443	0.090	0.205
-638.638	-168.565	-0.414	-0.016
-637.624	800.000	-0.076	-0.223
-636.609	-200.000	-0.030	0.137
-635.595	68.575	-0.054	0.055
-634.580	390.602	0.283	-0.586
-633.565	-55.033	-0.298	0.134
-632.551	12.154	-0.156	0.120
-631.536	-8.972	-0.177	-0.118
-630.522	12.468	-0.229	-0.176
-629.507	387.642	-0.069	-0.143
-628.492	-200.000	0.025	0.174
-627.478	-104.506	-0.201	0.046
-626.463	55.355	0.082	0.079
-625.449	145.975	0.152	0.203
-624.434	-42.097	-0.236	0.121
-623.419	-87.059	0.161	0.049
-622.405	-200.000	0.020	0.284
-621.390	-200.000	0.053	-0.256
-620.376	-200.000	-0.019	-0.169
-619.361	800.000	0.073	0.244
-618.346	-200.000	0.012	0.254
-617.332	-34.450	0.153	0.084
-616.317	-59.894	-0.087	-0.037
-615.303	102.413	-0.111	-0.129
-614.288	-61.627	0.487	-0.204
-613.273	331.613	0.085	0.163
-612.259	108.252	-0.086	-0.102
-611.244	482.982	-0.091	-0.206
-610.230	-167.734	-0.202	0.008
-609.215	541.229	-0.049	0.117
-608.201	195.423	0.054	0.083
-607.186	-200.000	0.026	-0.267
-606.171	-200.000	-0.015	0.120
-605.157	16.531	-0.045	0.035
-604.142	-128.373	-0.429	0.061
-603.128	137.725	0.039	0.051
-602.113	-73.696	0.088	-0.032
-601.098	5.016	-0.482	-0.354
-600.084	-200.000	-0.013	-0.289
-599.069	-28.550	-0.190	-0.109
-598.055	117.917	0.024	0.030
-597.040	159.955	0.167	0.231
-596.025	-69.601	0.252	-0.096
-595.011	487.986	-0.127	-0.289
-593.996	25.595	-0.202	-0.167
-592.982	209.114	0.118	-0.184
-591.967	-200.000	0.028	-0.268
-590.952	375.139	-0.135	-0.275
-589.938	-104.693	-0.246	-0.057
-588.923	107.882	-0.187	-0.222
-587.909	-125.706	-0.075	-0.011
-586.894	339.867	0.050	0.098
-585.879	800.000	-0.099	-0.378
-584.865	-74.619	0.181	0.065
-583.850	-107.476	0.065	-0.014
-582.836	-79.918	0.174	-0.058
-581.821	128.111	-0.097	-0.124
-580.806	-35.649	-0.193	-0.104
-579.792	-0.141	0.086	0.061
-578.777	-61.232	0.353	-0.148
-577.763	-33.264	-0.346	0.191
-576.748	-100.280	-0.107	-0.027
-575.733	127.462	0.187	-0.237
-574.719	-58.603	-0.259	-0.112
-573.704	-200.000	0.083	-0.000
-572.690	108.047	-0.157	-0.186
-571.675	-97.052	0.078	-0.020
-570.661	81.729	0.228	-0.246
-569.646	-200.000	-0.020	-0.169
-568.631	242.612	-0.115	-0.191
-567.617	6.466	-0.152	-0.112
-566.602	34.969	-0.015	0.013
-565.588	-37.883	-0.332	0.176
-564.573	124.541	-0.087	0.109
-563.558	143.000	-0.114	-0.151
-562.544	20.910	0.085	0.068
-561.529	-87.120	0.250	0.076
-560.515	-154.900	0.427	0.028
-559.500	-63.448	0.125	0.051
-558.485	-83.471	0.330	0.105
-557.471	-53.620	0.101	-0.046
-556.456	-200.000	-0.049	-0.240
-555.442	-57.091	-0.164	0.072
-554.427	800.000	-0.015	-0.045
-553.412	-55.257	-0.324	-0.145
-552.398	366.425	-0.097	-0.194
-551.383	32.876	-0.183	0.158
-550.369	-118.079	0.289	-0.051
-549.354	578.110	0.089	-0.217
-548.339	800.000	-0.081	-0.343
-547.325	-200.000	-0.003	0.163
-546.310	-200.000	0.008	-0.124
-545.296	-81.998	-0.101	-0.033
-544.281	-99.435	0.549	-0.138
-543.266	213.572	0.071	-0.112
-542.252	800.000	0.088	-0.348
-541.237	489.208	0.153	-0.348
-540.223	113.713	-0.163	0.197
-539.208	-82.366	-0.031	0.010
-538.193	80.878	0.087	0.093
-537.179	800.000	0.055	-0.175
-536.164	453.602	0.067	0.147
-535.150	447.168	0.105	-0.231
-534.135	-140.730	-0.072	0.007
-533.121	456.458	-0.043	0.095
-532.106	800.000	-0.103	0.290
-531.091	-89.121	-0.175	-0.052
-530.077	273.528	-0.078	-0.137
-529.062	307.941	0.043	-0.080
-528.048	0.618	0.084	0.060
-527.033	-98.796	-0.154	-0.039
-526.018	232.794	-0.113	0.185
-525.004	133.827	0.269	-0.346
-523.989	-54.792	0.239	0.107
-522.975	458.616	-0.163	0.360
-521.960	-102.385	0.077	-0.018
-520.945	55.824	-0.153	-0.147
-519.931	-88.291	0.138	0.041
-518.916	91.893	0.161	0.181
-517.902	-32.594	0.094	0.052
-516.887	-3.263	0.030	-0.021
-515.872	-92.680	-0.172	0.048
-514.858	85.663	0.190	0.207
-513.843	800.000	0.113	-0.341
-512.829	361.252	0.073	-0.145
-511.814	504.615	-0.114	0.262
-510.799	-79.311	-0.102	0.034
-509.785	518.034	-0.077	-0.179
-508.770	3.072	0.179	-0.129
-507.756	-48.179	-0.166	0.080
-506.741	748.583	-0.097	0.259
-505.726	800.000	-0.015	0.057
-504.712	-200.000	0.073	0.331
-503.697	-200.000	0.056	0.292
-502.683	45.697	0.030	-0.027
-501.668	192.824	0.142	-0.214
-500.653	-66.175	-0.123	0.049
-499.639	82.460	0.155	0.167
-498.624	-90.417	0.108	-0.031
-497.610	148.873	0.167	-0.224
-496.595	296.160	-0.065	-0.118
-495.581	-200.000	-0.030	-0.261
-494.566	60.757	-0.084	0.082
-493.551	-105.281	0.264	0.060
-492.537	-28.540	-0.273	-0.156
-491.522	800.000	-0.111	-0.372
-490.508	800.000	0.081	0.229
-489.493	59.370	-0.178	-0.174
-488.478	-90.756	0.116	0.033
-487.464	-154.140	-0.170	-0.011
-486.449	-7.389	-0.339	0.228
-485.435	-108.551	-0.198	-0.042
-484.420	-63.716	0.108	-0.044
-483.405	241.712	-0.152	-0.253
-482.391	-151.494	-0.242	-0.018
-481.376	-26.146	-0.063	-0.037
-480.362	-65.856	0.304	0.121
-479.347	-98.003	0.163	-0.042
-478.332	-59.582	0.215	-0.092
-477.318	155.141	0.069	0.095
-476.303	-200.000	-0.035	0.168
-475.289	-200.000	0.028	-0.290
-474.274	467.372	0.116	0.258
-473.259	-27.478	0.133	-0.076
-472.245	-200.000	-0.034	-0.181
-471.230	12.909	0.206	0.158
-470.216	-200.000	0.006	0.103
-469.201	-200.000	0.049	0.406
-468.186	800.000	-0.046	0.154
-467.172	-200.000	0.034	0.202
-466.157	27.280	0.160	-0.133
-465.143	-200.000	-0.028	0.264
-464.128	114.052	-0.081	0.098
-463.113	-64.727	-0.071	-0.029
-462.099	-96.699	-0.250	-0.065
-461.084	800.000	0.050	-0.178
-460.070	292.603	0.073	0.132
-459.055	-200.000	-0.007	0.152
-458.040	58.082	0.153	-0.148
-457.026	239.939	0.123	-0.203
-456.011	-81.221	0.193	-0.063
-454.997	534.064	-0.018	-0.043
-453.982	-43.990	-0.227	0.113
-452.968	-42.908	0.080	0.041
-451.953	551.598	0.092	0.218
-450.938	-200.000	-0.114	-0.569
-449.924	56.346	-0.052	0.050
-448.909	117.321	0.079	0.097
-447.895	-200.000	-0.005	0.056
-446.880	-7.046	-0.144	0.097
-445.865	396.687	-0.119	-0.245
-444.851	441.429	0.149	-0.323
-443.836	-119.378	0.087	0.015
-442.822	7.923	-0.053	0.039
-441.807	39.652	0.149	-0.132
-440.792	-4.119	0.138	-0.095
-439.778	308.155	-0.136	0.252
-438.763	-200.000	-0.067	-0.315
-437.749	-2.752	0.105	-0.072
-436.734	-200.000	0.055	0.272
-435.719	164.248	0.108	0.150
-434.705	144.051	0.081	0.107
-433.690	800.000	-0.029	0.082
-432.676	-122.161	0.532	0.086
-431.661	581.231	-0.060	0.145
-430.646	-72.989	-0.275	-0.100
-429.632	-96.832	0.307	-0.080
-428.617	-195.847	-0.276	-0.002
-427.603	800.000	0.028	-0.098
-426.588	593.646	0.040	0.099
-425.573	32.010	0.139	-0.119
-424.559	800.000	-0.016	0.051
-423.544	31.793	0.166	0.142
-422.530	-200.000	-0.014	0.397
-421.515	192.764	0.131	0.195
-420.500	-20.804	-0.065	0.040
-419.486	-2.204	0.338	0.235
-418.471	535.765	-0.062	-0.145
-417.457	-120.463	0.219	-0.037
-416.442	-88.960	0.067	0.020
-415.428	400.658	0.114	0.238
-414.413	-27.404	-0.400	0.230
-413.398	-78.923	0.298	0.101
-412.384	-47.566	0.296	-0.142
-411.369	-200.000	-0.052	0.455
-410.355	191.280	0.019	-0.029
-409.340	-11.853	-0.237	-0.154
-408.325	212.584	0.110	0.171
-407.311	186.121	-0.135	0.199
-406.296	50.670	0.301	0.282
-405.282	-200.000	-0.007	-0.089
-404.267	-34.550	0.054	0.030
-403.252	114.710	-0.101	-0.122
-402.238	116.130	0.066	0.080
-401.223	-171.255	0.407	-0.014
-400.209	-116.090	-0.371	-0.068
-399.194	-2.921	0.009	-0.006
-398.179	-46.359	0.098	0.048
-397.165	-200.000	-0.020	0.127
-396.150	-97.090	0.196	0.051
-395.136	188.527	0.089	-0.132
-394.121	1.647	-0.184	0.131
-393.106	-101.550	-0.208	-0.050
-392.092	-108.236	-0.209	-0.045
-391.077	-200.000	0.011	0.103
-390.063	-62.949	0.149	-0.061
-389.048	-62.199	0.092	0.038
-388.033	3.820	0.244	-0.176
-387.019	436.878	0.081	0.175
-386.004	800.000	-0.131	0.402
-384.990	-155.598	0.197	-0.013
-383.975	163.722	0.179	-0.249
-382.960	-47.775	0.101	0.048
-381.946	16.179	0.015	-0.011
-380.931	388.414	-0.017	-0.036
-379.917	-2.228	0.078	0.054
-378.902	364.337	-0.042	0.083
-377.888	147.719	0.229	0.305
-376.873	-93.479	0.302	-0.083
-375.858	-32.671	-0.226	0.124
-374.844	25.722	-0.365	-0.300
-373.829	-200.000	0.007	-0.259
-372.815	583.057	-0.120	-0.291
-371.800	45.684	-0.165	0.151
-370.785	223.677	0.040	-0.063
-369.771	757.402	-0.077	-0.206
-368.756	-96.758	-0.089	-0.023
-367.742	2.633	-0.029	-0.021
-366.727	-200.000	-0.053	-0.313
-365.712	154.776	0.202	-0.275
-364.698	121.991	0.076	-0.093
-363.683	77.832	0.064	0.068
-362.669	2.964	0.145	0.104
-361.654	-1.567	-0.142	0.099
-360.639	-32.511	-0.436	-0.240
-359.625	8.535	0.222	0.165
-358.610	436.116	-0.070	-0.150
-357.596	-200.000	0.002	-0.063
-356.581	-4.559	0.133	0.091
-355.566	6.124	-0.093	-0.068
-354.552	212.377	-0.075	0.117
-353.537	60.524	-0.027	-0.026
-352.523	-6.325	-0.119	0.080
-351.508	800.000	-0.030	-0.094
-350.493	749.447	0.148	-0.394
-349.479	-68.533	-0.376	0.144
-348.464	-57.834	-0.219	-0.094
-347.450	-200.000	0.002	-0.201
-346.435	-200.000	0.011	-0.100
-345.420	238.726	0.058	0.096
-344.406	-200.000	-0.016	0.087
-343.391	-35.677	0.348	-0.186
-342.377	207.632	0.057	-0.088
-341.362	191.726	-0.143	-0.213
-340.348	35.074	0.089	0.077
-339.333	157.356	-0.267	0.365
-338.318	-98.597	-0.103	0.026
-337.304	159.062	-0.035	-0.048
-336.289	270.356	-0.064	-0.112
-335.275	-200.000	0.014	0.092
-334.260	-124.239	-0.244	-0.038
-333.245	-200.000	-0.017	0.115
-332.231	-73.787	-0.413	-0.148
-331.216	25.837	-0.351	0.288
-330.202	-3.938	-0.315	0.215
-329.187	512.511	0.072	0.167
-328.172	411.156	-0.090	0.189
-327.158	165.478	-0.115	0.160
-326.143	-200.000	-0.019	0.237
-325.129	32.797	0.044	0.037
-324.114	193.271	0.186	0.277
-323.099	-36.611	0.072	0.038
-322.085	104.793	-0.212	0.246
-321.070	800.000	-0.027	-0.095
-320.056	800.000	-0.043	-0.178
-319.041	800.000	0.056	-0.188
-318.026	155.206	-0.089	0.121
-317.012	-86.969	-0.404	0.122
-315.997	-200.000	-0.019	-0.174
-314.983	-81.905	-0.351	0.113
-313.968	-66.109	-0.231	0.091
-312.953	-200.000	0.034	-0.263
-311.939	103.070	-0.230	-0.266
-310.924	800.000	0.056	-0.172
-309.910	-29.492	0.169	0.095
-308.895	-106.307	-0.324	0.072
-307.880	-200.000	0.028	0.133
-306.866	445.236	0.037	0.080
-305.851	-102.518	-0.184	0.043
-304.837	97.882	-0.085	0.096
-303.822	-89.105	-0.281	0.082
-302.807	-94.141	0.197	-0.053
-301.793	-144.001	0.381	0.035
-300.778	-45.829	0.181	0.088
-299.764	182.238	0.204	0.296
-298.749	290.345	-0.108	-0.194
-297.735	-200.000	-0.007	-0.363
-296.720	511.503	-0.054	-0.125
-295.705	-200.000	0.012	0.083
-294.691	-200.000	-0.027	0.413
-293.676	29.830	0.401	0.337
-292.662	55.712	0.164	-0.156
-291.647	-52.768	0.218	0.099
-290.632	66.803	-0.191	0.192
-289.618	-88.945	0.002	-0.001
-288.603	-17.297	-0.273	0.169
-287.589	-80.624	-0.153	-0.050
-286.574	-143.468	0.432	0.041
-285.559	-39.392	0.329	-0.170
-284.545	-76.638	0.234	-0.081
-283.530	-183.605	0.283	-0.005
-282.516	-99.803	0.198	0.049
-281.501	-31.214	0.100	0.055
-280.486	-125.414	-0.167	-0.025
-279.472	495.903	0.177	-0.400
-278.457	198.518	-0.183	-0.276
-277.443	89.356	0.255	0.280
-276.428	-63.500	-0.394	0.159
-275.413	127.650	-0.148	-0.185
-274.399	-94.787	0.409	-0.109
-273.384	311.968	0.108	0.199
-272.370	154.657	0.249	-0.337
-271.355	704.748	-0.116	-0.301
-270.340	-62.184	0.128	0.053
-269.326	74.361	-0.088	0.091
-268.311	-8.169	-0.485	0.322
-267.297	800.000	0.029	0.099
-266.282	-200.000	0.020	-0.124
-265.267	-200.000	-0.017	-0.100
-264.253	-22.407	-0.225	0.134
-263.238	-133.115	-0.368	-0.046
-262.224	39.876	0.126	-0.111
-261.209	-200.000	-0.007	0.116
-260.195	33.426	0.286	0.244
-259.180	202.109	-0.197	-0.299
-258.165	135.582	-0.084	-0.108
-257.151	666.224	0.071	-0.181
-256.136	-131.052	-0.175	0.023
-255.122	211.789	0.059	0.092
-254.107	-200.000	-0.036	-0.224
-253.092	-120.507	-0.298	-0.050
-252.078	800.000	-0.113	0.395
-251.063	6.068	-0.094	0.069
-250.049	37.363	0.197	-0.172
-249.034	-200.000	-0.006	0.049
-248.019	227.831	0.152	0.244
-247.005	134.656	-0.210	0.268
-245.990	89.460	-0.103	-0.113
-244.976	-65.902	0.095	-0.037
-243.961	147.618	-0.101	-0.133
-242.946	96.532	-0.128	0.144
-241.932	546.872	0.061	-0.143
-240.917	800.000	0.080	0.246
-239.903	-200.000	0.019	0.255
-238.888	0.584	0.298	0.210
-237.873	-200.000	0.042	0.291
-236.859	-75.025	-0.464	-0.163
-235.844	-55.285	-0.220	-0.097
-234.830	-87.719	0.122	0.036
-233.815	108.328	0.165	0.193
-232.800	-30.500	0.173	-0.097
-231.786	-200.000	-0.006	-0.327
-230.771	193.606	-0.034	-0.051
-229.757	242.903	-0.098	0.161
-228.742	-43.435	0.177	0.088
-227.727	800.000	0.057	0.192
-226.713	119.640	0.151	-0.183
-225.698	-107.878	-0.340	-0.073
-224.684	-159.342	-0.241	-0.013
-223.669	737.220	-0.086	-0.226
-222.655	2.803	0.186	-0.133
-221.640	-123.211	-0.111	-0.018
-220.625	160.076	0.138	0.189
-219.611	-91.799	-0.159	-0.044
-218.596	800.000	-0.054	-0.171
-217.582	554.354	0.168	-0.396
-216.567	-109.808	0.113	0.023
-215.552	800.000	0.079	0.258
-214.538	59.483	0.149	0.145
-213.523	509.556	-0.121	0.277
-212.509	800.000	-0.068	-0.231
-211.494	-143.371	0.153	0.014
-210.479	-15.722	-0.251	0.157
-209.465	-38.525	0.123	0.064
-208.450	-200.000	-0.026	-0.231
-207.436	23.331	0.182	0.147
-206.421	-200.000	0.037	0.323
-205.406	494.729	-0.069	0.156
-204.392	75.503	-0.105	-0.109
-203.377	-60.305	0.094	0.039
-202.363	-98.531	-0.145	-0.036
-201.348	5.380	-0.317	0.229
-200.333	28.836	0.025	0.021
-199.319	471.536	-0.152	0.335
-198.304	-88.671	-0.323	0.094
-197.290	-92.865	0.294	-0.081
-196.275	15.468	0.294	-0.226
-195.260	222.487	-0.076	0.120
-194.246	74.567	0.311	-0.321
-193.231	110.126	-0.122	0.144
-192.217	-200.000	-0.009	0.144
-191.202	14.306	0.065	0.049
-190.187	-116.692	0.232	-0.042
-189.173	800.000	0.041	0.155
-188.158	-60.210	-0.372	-0.156
-187.144	24.640	0.143	0.116
-186.129	-200.000	0.034	0.163
-185.114	3.293	-0.122	-0.087
-184.100	-106.239	0.535	-0.118
-183.085	102.426	-0.018	-0.021
-182.071	-200.000	-0.067	0.289
-181.056	-108.968	-0.274	-0.057
-180.042	-50.880	-0.314	-0.145
-179.027	-90.766	0.314	0.089
-178.012	124.909	0.140	-0.173
-176.998	369.477	0.039	-0.078
-175.983	8.694	0.087	0.064
-174.969	380.767	0.161	-0.324
-173.954	800.000	0.069	-0.204
-172.939	507.727	0.063	0.144
-171.925	-20.851	-0.126	-0.075
-170.910	50.702	0.406	-0.377
-169.896	343.913	0.245	0.471
-168.881	-45.604	0.069	-0.034
-167.866	-151.967	0.199	0.014
-166.852	-200.000	-0.029	-0.351
-165.837	337.510	-0.120	0.230
-164.823	528.979	-0.106	-0.245
-163.808	345.632	-0.107	0.207
-162.793	6.263	-0.311	-0.226
-161.779	-200.000	-0.010	-0.435
-160.764	258.077	0.152	0.256
-159.750	-200.000	-0.046	0.000
-158.735	800.000	-0.045	0.123
-157.720	-79.552	0.384	0.127
-156.706	-200.000	0.018	0.212
-155.691	-200.000	-0.005	-0.105
-154.677	308.017	0.079	-0.144
-153.662	-200.000	0.004	0.069
-152.647	164.032	0.056	0.077
-151.633	-145.660	-0.164	0.014
-150.618	50.020	-0.083	0.077
-149.604	800.000	0.085	-0.276
-148.589	149.919	0.141	-0.187
-147.574	-128.456	-0.185	-0.026
-146.560	-21.492	0.063	-0.038
-145.545	800.000	0.086	-0.322
-144.531	405.217	0.140	0.290
-143.516	55.693	-0.356	0.338
-142.502	-16.828	0.160	0.099
-141.487	800.000	0.042	-0.139
-140.472	-77.179	-0.306	0.104
-139.458	-96.586	-0.195	0.050
-138.443	210.711	0.181	0.278
-137.429	-88.694	-0.341	-0.099
-136.414	-200.000	-0.042	-0.450
-135.399	-27.447	0.277	-0.158
-134.385	-186.193	-0.030	0.000
-133.370	-200.000	-0.030	-0.326
-132.356	24.523	-0.214	0.174
-131.341	49.312	0.105	0.096
-130.326	45.536	0.192	0.174
-129.312	71.562	-0.363	0.369
-128.297	-12.806	-0.219	0.139
-127.283	-140.659	0.175	-0.018
-126.268	-118.607	-0.188	-0.033
-125.253	-108.097	-0.119	-0.025
-124.239	-54.814	-0.202	-0.089
-123.224	230.723	0.133	0.213
-122.210	-25.176	-0.093	-0.054
-121.195	-119.530	-0.109	0.019
-120.180	-200.000	0.002	0.112
