DTS Sentinel unit serial number:	SN413079Multiplexer serial number:	ORYXHardware model number:	OX4-SRSoftware version number:	ORYX F/W v4.00 Oryx Data Collector v3.7.2.0data status	okinstallation	princeton_trtdifferential loss correction	single-endedforward channel	channel 1reverse channel	N/Adate	2019/09/14time	14:38:35forward acquisition time	60.00reverse acquisition time	0.00gamma	496.2192k internal	0.2293k external	0.2293temperature offset calibration	1.0072default loss term (dB/km)	0.3790temperature slope calibration	1.0000multiplexer offset coefficient	1.0000multiplexer slope coefficient	1.0000fibre end	0.00T internal ref (°C)	39.25T ext. ref 1 (°C)	4.98T ext. ref 2 (°C)	34.96length (m)	temperature (°C)	Stokes	anti-Stokes-747.200	-18.923	0.155	-0.098
-746.185	251.932	0.050	0.087
-745.171	-93.962	0.176	-0.049
-744.156	-183.848	0.361	0.006
-743.142	-200.000	0.008	0.119
-742.127	49.810	-0.104	0.100
-741.112	-189.422	-0.342	0.004
-740.098	800.000	0.028	0.122
-739.083	-50.168	0.170	-0.082
-738.069	-200.000	0.004	0.439
-737.054	800.000	-0.100	0.342
-736.039	-49.012	-0.269	-0.132
-735.025	381.738	-0.081	0.171
-734.010	20.044	0.405	-0.334
-732.996	559.931	0.121	-0.298
-731.981	-135.554	-0.359	0.044
-730.966	-72.811	-0.343	-0.129
-729.952	-0.056	0.165	0.121
-728.937	486.010	0.077	0.180
-727.923	-138.663	-0.219	0.024
-726.908	3.622	-0.203	0.151
-725.894	-13.594	-0.152	0.101
-724.879	-24.127	-0.312	-0.190
-723.864	-42.725	0.180	-0.094
-722.850	205.547	-0.161	-0.255
-721.835	58.825	0.239	-0.240
-720.821	-176.423	0.086	-0.002
-719.806	-57.756	-0.313	0.140
-718.791	49.395	-0.197	-0.189
-717.777	278.526	-0.120	-0.218
-716.762	53.185	-0.069	-0.068
-715.748	40.625	-0.068	-0.062
-714.733	-104.655	0.057	-0.013
-713.718	-40.025	-0.235	0.125
-712.704	-200.000	-0.017	-0.084
-711.689	-200.000	0.209	0.000
-710.675	-30.812	-0.124	0.072
-709.660	-30.206	-0.316	-0.184
-708.645	519.882	0.138	0.331
-707.631	-47.392	0.101	0.050
-706.616	199.687	-0.088	-0.138
-705.602	-81.266	-0.153	-0.051
-704.587	-165.090	0.387	-0.018
-703.572	276.158	-0.127	-0.231
-702.558	-200.000	0.022	0.154
-701.543	59.427	0.262	0.264
-700.529	186.656	0.030	0.046
-699.514	230.743	0.049	-0.081
-698.499	54.965	-0.183	-0.181
-697.485	-50.704	0.062	0.030
-696.470	642.289	-0.144	-0.374
-695.456	-200.000	-0.031	-0.177
-694.441	68.001	0.194	0.203
-693.426	384.853	0.035	0.074
-692.412	-200.000	-0.031	-0.156
-691.397	-80.139	0.180	0.062
-690.383	-200.000	0.015	-0.068
-689.368	-71.935	-0.083	0.032
-688.354	146.955	-0.183	-0.252
-687.339	282.909	-0.135	0.247
-686.324	-200.000	0.007	-0.085
-685.310	-150.746	-0.277	-0.022
-684.295	42.271	-0.041	-0.038
-683.281	-30.730	0.110	0.064
-682.266	473.952	0.031	-0.071
-681.251	70.743	-0.016	0.017
-680.237	-83.986	-0.141	-0.046
-679.222	180.699	0.138	-0.207
-678.208	61.772	-0.174	-0.177
-677.193	408.972	0.062	-0.133
-676.178	-87.946	-0.250	-0.077
-675.164	-99.557	-0.261	0.067
-674.149	-200.000	0.035	-0.220
-673.135	-200.000	-0.058	-0.284
-672.120	-133.583	-0.232	-0.030
-671.105	-72.371	0.058	0.022
-670.091	800.000	0.029	-0.089
-669.076	-96.656	0.137	0.037
-668.062	67.356	-0.240	-0.250
-667.047	-128.950	-0.392	0.056
-666.032	-116.601	0.282	-0.053
-665.018	-13.327	-0.069	0.046
-664.003	556.690	-0.148	-0.365
-662.989	-58.491	0.181	0.080
-661.974	-137.910	-0.090	-0.010
-660.959	-200.000	0.024	-0.279
-659.945	536.570	0.038	-0.092
-658.930	-200.000	-0.113	-0.545
-657.916	-200.000	0.015	-0.267
-656.901	-139.327	-0.353	-0.039
-655.886	-200.000	-0.020	0.094
-654.872	-44.447	0.250	-0.128
-653.857	800.000	-0.054	-0.218
-652.843	-11.109	-0.192	0.129
-651.828	-179.332	0.299	-0.007
-650.814	81.127	0.159	-0.174
-649.799	-200.000	0.048	0.410
-648.784	800.000	0.020	-0.088
-647.770	-200.000	-0.009	-0.185
-646.755	292.471	-0.013	0.024
-645.741	-149.136	-0.175	0.014
-644.726	90.078	0.046	-0.052
-643.711	800.000	-0.009	-0.031
-642.697	60.564	-0.110	-0.111
-641.682	-25.877	-0.055	-0.033
-640.668	-200.000	0.045	-0.417
-639.653	74.968	0.189	0.203
-638.638	-101.364	0.309	-0.077
-637.624	-38.087	-0.079	-0.043
-636.609	-5.585	-0.074	-0.052
-635.595	-163.069	-0.288	0.014
-634.580	-79.676	-0.068	-0.023
-633.565	264.324	0.210	-0.372
-632.551	-6.568	-0.243	-0.169
-631.536	-136.955	-0.327	-0.038
-630.522	-200.000	0.172	0.000
-629.507	-62.167	0.185	0.079
-628.492	800.000	-0.046	0.198
-627.478	16.284	-0.180	0.144
-626.463	288.196	0.155	0.286
-625.449	95.233	-0.145	-0.169
-624.434	11.952	-0.221	0.173
-623.419	118.262	-0.153	-0.192
-622.405	-49.765	-0.212	0.103
-621.390	455.563	-0.158	-0.357
-620.376	-50.676	-0.338	-0.162
-619.361	-46.658	0.180	0.090
-618.346	-143.143	0.123	0.012
-617.332	344.038	-0.079	0.159
-616.317	-135.771	0.128	0.015
-615.303	800.000	0.069	0.234
-614.288	-41.324	-0.214	-0.112
-613.273	-100.967	-0.236	-0.059
-612.259	122.021	0.172	-0.219
-611.244	-200.000	-0.021	-0.271
-610.230	-200.000	0.033	-0.274
-609.215	800.000	0.048	-0.167
-608.201	-46.090	0.104	0.052
-607.186	38.274	0.216	-0.196
-606.171	800.000	0.059	0.179
-605.157	32.498	-0.097	-0.085
-604.142	-137.036	0.204	0.024
-603.128	-147.211	-0.439	0.038
-602.113	82.383	0.159	-0.176
-601.098	-49.257	0.117	-0.057
-600.084	37.966	-0.400	-0.362
-599.069	800.000	0.020	-0.077
-598.055	-200.000	-0.011	-0.054
-597.040	477.579	-0.049	-0.112
-596.025	-200.000	0.034	-0.199
-595.011	124.445	-0.051	-0.065
-593.996	418.596	-0.063	0.137
-592.982	-200.000	0.025	-0.301
-591.967	127.214	0.023	-0.030
-590.952	800.000	0.138	-0.408
-589.938	800.000	0.062	-0.195
-588.923	-126.795	0.253	-0.038
-587.909	-49.181	-0.134	-0.065
-586.894	800.000	0.044	0.169
-585.879	96.759	-0.195	0.227
-584.865	-135.580	-0.185	-0.022
-583.850	-107.356	0.273	0.061
-582.836	386.205	-0.084	-0.176
-581.821	800.000	-0.052	0.148
-580.806	800.000	-0.060	-0.170
-579.792	-23.986	-0.110	0.067
-578.777	-105.510	-0.338	-0.078
-577.763	-85.568	-0.145	-0.046
-576.748	-74.150	0.125	-0.046
-575.733	-200.000	-0.000	-0.145
-574.719	-48.652	-0.212	0.104
-573.704	79.028	0.330	0.360
-572.690	448.412	0.084	0.189
-571.675	800.000	-0.017	0.060
-570.661	17.103	-0.130	-0.105
-569.646	-200.000	-0.006	0.083
-568.631	800.000	-0.072	-0.229
-567.617	-52.532	0.250	0.117
-566.602	-59.524	0.056	-0.024
-565.588	-200.000	0.115	0.000
-564.573	-71.689	0.039	-0.015
-563.558	113.321	-0.143	0.177
-562.544	34.231	-0.203	0.179
-561.529	54.869	0.093	0.091
-560.515	-26.131	-0.359	-0.215
-559.500	800.000	0.075	-0.243
-558.485	489.891	-0.067	-0.156
-557.471	-139.838	-0.201	-0.022
-556.456	77.808	-0.100	0.108
-555.442	612.661	-0.077	-0.196
-554.427	-80.360	-0.166	-0.056
-553.412	118.454	0.117	0.147
-552.398	-90.141	-0.265	-0.078
-551.383	800.000	0.016	0.053
-550.369	-112.321	0.220	-0.045
-549.354	-200.000	0.017	0.381
-548.339	-127.468	-0.062	-0.009
-547.325	123.196	-0.135	0.172
-546.310	29.817	0.121	0.105
-545.296	-200.000	-0.022	0.372
-544.281	-200.000	-0.051	-0.262
-543.266	-200.000	0.011	0.212
-542.252	800.000	-0.026	0.084
-541.237	-200.000	-0.002	0.184
-540.223	-200.000	0.078	-0.511
-539.208	233.326	-0.104	-0.173
-538.193	800.000	0.060	-0.200
-537.179	218.096	0.091	0.147
-536.164	-200.000	0.016	-0.196
-535.150	-200.000	0.012	-0.121
-534.135	-200.000	0.055	0.300
-533.121	800.000	-0.042	-0.119
-532.106	93.059	-0.225	0.258
-531.091	-20.190	-0.005	-0.003
-530.077	-79.416	-0.090	-0.031
-529.062	800.000	0.081	0.237
-528.048	-200.000	0.008	0.093
-527.033	-136.904	0.340	0.040
-526.018	-200.000	0.017	-0.198
-525.004	298.802	-0.074	-0.139
-523.989	-174.915	0.148	-0.004
-522.975	-128.316	-0.148	-0.021
-521.960	708.027	-0.096	-0.257
-520.945	800.000	-0.059	-0.204
-519.931	54.570	0.223	-0.218
-518.916	91.080	-0.106	0.120
-517.902	239.319	0.028	0.047
-516.887	-102.219	0.337	-0.082
-515.872	174.428	0.278	-0.407
-514.858	11.155	0.150	0.116
-513.843	706.272	-0.029	0.079
-512.829	-61.560	0.068	-0.029
-511.814	-138.663	-0.184	-0.020
-510.799	-84.130	-0.161	0.052
-509.785	-174.215	-0.260	0.008
-508.770	7.386	0.182	-0.138
-507.756	-200.000	0.019	0.086
-506.741	73.372	-0.169	0.179
-505.726	800.000	0.084	0.288
-504.712	-43.712	-0.166	0.085
-503.697	22.564	0.137	-0.114
-502.683	-77.748	-0.358	-0.125
-501.668	0.530	-0.064	-0.046
-500.653	-103.584	0.094	-0.022
-499.639	20.292	-0.315	0.258
-498.624	-91.301	0.626	0.182
-497.610	-141.012	-0.256	-0.027
-496.595	-61.225	-0.175	-0.075
-495.581	105.967	-0.110	0.132
-494.566	-56.160	-0.118	0.053
-493.551	800.000	0.144	0.480
-492.537	-62.252	0.016	0.007
-491.522	-200.000	-0.005	-0.109
-490.508	-46.325	0.381	-0.190
-489.493	135.961	-0.199	0.262
-488.478	-83.920	0.056	-0.018
-487.464	158.621	-0.213	-0.299
-486.449	-47.901	0.192	0.094
-485.435	235.205	0.182	0.304
-484.420	170.125	0.145	-0.210
-483.405	234.048	0.131	0.218
-482.391	571.613	0.101	0.249
-481.376	98.170	0.073	0.085
-480.362	-200.000	-0.037	-0.366
-479.347	-118.144	0.210	0.038
-478.332	-200.000	0.031	0.245
-477.318	75.773	0.168	-0.180
-476.303	-200.000	0.051	0.260
-475.289	-140.919	0.304	-0.032
-474.274	112.269	-0.030	-0.036
-473.259	-62.663	0.207	0.087
-472.245	-84.341	-0.328	-0.105
-471.230	-12.696	0.007	0.004
-470.216	125.996	-0.063	0.080
-469.201	58.818	-0.163	0.163
-468.186	-200.000	0.003	0.153
-467.172	-200.000	-0.036	0.333
-466.157	-57.351	-0.317	-0.141
-465.143	6.163	-0.138	0.104
-464.128	800.000	-0.019	-0.073
-463.113	76.374	-0.032	0.034
-462.099	37.137	-0.354	-0.317
-461.084	-200.000	-0.035	0.217
-460.070	515.657	-0.092	-0.218
-459.055	-157.519	0.033	0.002
-458.040	115.495	0.153	-0.190
-457.026	-200.000	0.007	-0.111
-456.011	-52.830	-0.292	-0.136
-454.997	-106.027	-0.487	-0.111
-453.982	389.745	-0.101	0.213
-452.968	-106.546	0.108	0.024
-451.953	12.159	0.162	-0.126
-450.938	219.557	-0.024	0.039
-449.924	-105.718	-0.121	-0.028
-448.909	-8.156	-0.086	0.058
-447.895	800.000	-0.073	-0.214
-446.880	319.264	0.111	-0.212
-445.865	-200.000	0.014	0.077
-444.851	70.859	-0.167	-0.175
-443.836	-115.546	-0.204	0.039
-442.822	510.098	-0.081	-0.191
-441.807	-33.652	0.271	0.151
-440.792	34.418	0.287	0.254
-439.778	-79.190	0.285	0.098
-438.763	-200.000	-0.050	0.237
-437.749	-200.000	0.028	-0.296
-436.734	141.049	-0.171	-0.229
-435.719	-44.525	0.160	0.081
-434.705	-69.134	-0.086	0.033
-433.690	-80.697	0.219	-0.074
-432.676	124.360	-0.045	0.057
-431.661	-149.019	0.179	-0.015
-430.646	592.790	-0.053	-0.133
-429.632	519.409	-0.195	-0.462
-428.617	130.924	-0.070	-0.091
-427.603	-24.382	-0.081	0.049
-426.588	-94.827	0.462	0.127
-425.573	-200.000	0.022	-0.169
-424.559	24.334	-0.277	0.231
-423.544	146.597	0.179	0.243
-422.530	-5.606	-0.267	0.185
-421.515	-98.930	0.097	0.025
-420.500	57.247	0.078	-0.077
-419.486	303.169	-0.033	0.062
-418.471	-135.429	0.111	-0.013
-417.457	168.760	-0.175	0.253
-416.442	-200.000	-0.033	0.257
-415.428	-10.114	-0.102	-0.069
-414.413	169.404	0.129	0.186
-413.398	167.349	-0.099	-0.142
-412.384	128.461	0.248	-0.319
-411.369	-113.595	-0.026	-0.005
-410.355	24.019	-0.099	-0.082
-409.340	-200.000	0.025	0.110
-408.325	184.774	0.091	0.136
-407.311	-200.000	0.102	-0.493
-406.296	25.450	-0.067	-0.057
-405.282	37.134	0.279	-0.249
-404.267	389.760	0.142	-0.297
-403.252	-87.784	-0.208	-0.063
-402.238	-72.495	-0.135	0.050
-401.223	-17.706	0.260	-0.165
-400.209	-6.031	0.211	-0.146
-399.194	338.519	-0.033	0.064
-398.179	-200.000	-0.005	-0.245
-397.165	242.128	-0.087	-0.147
-396.150	118.264	-0.106	0.132
-395.136	-30.457	-0.189	-0.108
-394.121	290.904	-0.085	-0.157
-393.106	-200.000	0.002	0.073
-392.092	38.167	0.108	0.097
-391.077	800.000	-0.083	0.245
-390.063	800.000	-0.041	0.135
-389.048	-200.000	-0.025	-0.168
-388.033	48.230	0.128	-0.121
-387.019	-200.000	0.031	0.253
-386.004	306.906	-0.101	0.189
-384.990	361.215	-0.150	0.303
-383.975	7.413	0.122	-0.092
-382.960	-14.368	-0.286	-0.186
-381.946	-97.535	0.145	-0.038
-380.931	269.754	-0.174	0.309
-379.917	-200.000	-0.028	0.279
-378.902	-200.000	0.032	-0.221
-377.888	-55.206	-0.192	0.087
-376.873	-57.071	-0.131	-0.058
-375.858	-200.000	-0.028	-0.170
-374.844	143.596	-0.089	-0.120
-373.829	-130.795	0.098	0.013
-372.815	-200.000	0.025	-0.159
-371.800	361.984	0.071	0.143
-370.785	-196.699	0.264	-0.002
-369.771	-78.869	-0.278	0.096
-368.756	367.076	-0.051	-0.104
-367.742	67.846	0.339	0.350
-366.727	-200.000	-0.059	0.273
-365.712	117.441	-0.047	0.059
-364.698	-200.000	-0.037	-0.441
-363.683	800.000	-0.033	0.101
-362.669	-24.320	-0.233	-0.140
-361.654	-200.000	0.014	0.104
-360.639	-57.068	0.420	0.187
-359.625	284.190	-0.132	0.239
-358.610	227.105	-0.038	0.062
-357.596	800.000	0.028	0.082
-356.581	800.000	0.107	-0.329
-355.566	5.606	0.274	-0.204
-354.552	272.275	-0.111	-0.198
-353.537	58.064	-0.066	-0.065
-352.523	358.906	-0.185	-0.372
-351.508	238.870	-0.176	-0.295
-350.493	-9.352	0.156	0.105
-349.479	-101.104	0.221	-0.055
-348.464	327.529	-0.068	-0.131
-347.450	800.000	0.132	0.457
-346.435	-158.323	-0.228	-0.013
-345.420	40.308	0.105	-0.095
-344.406	800.000	-0.097	-0.295
-343.391	62.486	-0.052	-0.053
-342.377	-63.848	0.066	-0.027
-341.362	-200.000	-0.001	-0.049
-340.348	120.383	0.053	-0.066
-339.333	65.748	0.257	-0.262
-338.318	-104.679	0.276	0.064
-337.304	46.840	0.100	0.094
-336.289	226.394	-0.078	0.127
-335.275	-123.582	0.209	0.033
-334.260	-200.000	-0.017	0.108
-333.245	56.631	-0.137	0.134
-332.231	93.203	0.174	-0.198
-331.216	222.990	0.241	-0.391
-330.202	-200.000	0.024	-0.237
-329.187	-10.080	0.307	0.205
-328.172	174.748	-0.096	-0.140
-327.158	-80.049	-0.131	0.044
-326.143	-200.000	-0.008	0.280
-325.129	-200.000	0.034	0.246
-324.114	678.690	-0.075	0.196
-323.099	3.749	0.103	0.076
-322.085	-27.979	0.402	0.234
-321.070	-109.199	0.114	0.024
-320.056	-16.526	0.125	0.080
-319.041	800.000	0.027	-0.090
-318.026	386.166	0.028	-0.058
-317.012	-35.631	0.134	-0.073
-315.997	-126.850	0.271	0.040
-314.983	-5.821	-0.144	-0.099
-313.968	-200.000	-0.020	0.104
-312.953	800.000	0.053	0.156
-311.939	-200.000	-0.044	0.514
-310.924	800.000	0.041	-0.124
-309.910	-53.011	-0.067	0.031
-308.895	209.029	-0.163	-0.257
-307.880	-200.000	0.009	0.163
-306.866	667.964	0.194	0.504
-305.851	-82.154	0.138	0.045
-304.837	800.000	-0.100	0.374
-303.822	108.932	-0.265	0.319
-302.807	-200.000	0.031	0.416
-301.793	145.273	-0.426	0.573
-300.778	103.818	0.149	-0.175
-299.764	-49.311	0.113	-0.054
-298.749	-80.785	-0.331	0.110
-297.735	-200.000	0.026	-0.487
-296.720	15.490	0.181	0.143
-295.705	800.000	0.038	-0.131
-294.691	-140.181	-0.215	0.023
-293.676	-200.000	0.028	-0.240
-292.662	800.000	0.049	0.142
-291.647	76.448	0.172	-0.183
-290.632	-84.433	0.295	-0.094
-289.618	153.461	-0.116	-0.160
-288.603	-200.000	-0.012	-0.301
-287.589	-70.267	0.329	-0.126
-286.574	518.424	-0.066	-0.154
-285.559	79.659	-0.228	0.246
-284.545	94.060	-0.196	0.224
-283.530	-200.000	0.025	-0.407
-282.516	80.736	-0.052	0.057
-281.501	375.349	-0.157	0.321
-280.486	10.784	-0.101	-0.078
-279.472	-63.005	0.286	-0.119
-278.457	-87.159	-0.201	-0.061
-277.443	-91.902	0.359	-0.102
-276.428	-107.641	0.309	0.068
-275.413	-90.794	0.141	-0.041
-274.399	-88.861	0.261	0.078
-273.384	-191.212	-0.358	-0.004
-272.370	21.848	0.130	-0.107
-271.355	57.739	-0.092	-0.091
-270.340	-190.035	0.243	-0.003
-269.326	-85.372	-0.268	0.084
-268.311	800.000	-0.085	-0.276
-267.297	46.276	0.129	0.120
-266.282	-144.834	0.161	0.015
-265.267	63.892	0.062	0.062
-264.253	100.682	0.134	0.156
-263.238	-200.000	0.010	0.271
-262.224	-85.445	-0.285	-0.089
-261.209	800.000	-0.049	-0.167
-260.195	509.933	0.142	-0.332
-259.180	-38.363	-0.174	-0.093
-258.165	-11.052	0.261	-0.173
-257.151	14.571	-0.188	0.148
-256.136	628.532	-0.087	0.220
-255.122	330.688	0.113	0.218
-254.107	-200.000	-0.011	0.234
-253.092	174.836	0.068	0.099
-252.078	-30.131	0.345	0.197
-251.063	-102.282	0.257	-0.062
-250.049	-200.000	0.015	-0.242
-249.034	55.306	-0.242	0.235
-248.019	800.000	-0.022	0.090
-247.005	7.528	0.019	-0.014
-245.990	87.136	-0.174	-0.193
-244.976	-6.545	0.297	0.203
-243.961	-200.000	-0.015	0.318
-242.946	-120.213	-0.113	-0.019
-241.932	115.951	-0.118	0.145
-240.917	449.135	-0.087	-0.193
-239.903	-62.659	-0.161	-0.067
-238.888	396.609	-0.119	0.249
-237.873	182.014	-0.055	-0.082
-236.859	-190.460	-0.108	-0.001
-235.844	800.000	0.122	-0.409
-234.830	-166.689	-0.221	-0.009
-233.815	670.210	-0.068	-0.176
-232.800	-111.608	-0.250	-0.051
-231.786	55.132	0.118	-0.114
-230.771	-200.000	-0.009	-0.387
-229.757	-200.000	-0.012	0.538
-228.742	250.421	0.245	-0.418
-227.727	-48.973	-0.298	0.143
-226.713	-25.316	0.235	0.140
-225.698	94.821	-0.258	-0.294
-224.684	67.714	-0.176	0.180
-223.669	800.000	-0.080	-0.267
-222.655	34.839	0.217	0.191
-221.640	-86.484	-0.098	0.030
-220.625	-33.245	-0.268	-0.149
-219.611	-100.632	0.267	-0.066
-218.596	-48.154	0.121	0.058
-217.582	800.000	0.021	0.060
-216.567	155.187	0.114	0.157
-215.552	408.346	-0.136	0.288
-214.538	39.312	0.273	-0.245
-213.523	-200.000	0.041	0.242
-212.509	-200.000	0.054	-0.298
-211.494	-127.982	-0.117	-0.017
-210.479	-200.000	-0.048	0.251
-209.465	-0.963	0.194	-0.137
-208.450	-176.002	0.447	0.012
-207.436	-130.843	0.087	-0.012
-206.421	800.000	-0.043	-0.176
-205.406	25.353	-0.104	-0.087
-204.392	66.238	-0.077	-0.079
-203.377	-85.198	0.094	0.029
-202.363	-11.853	0.422	0.277
-201.348	-110.215	0.165	0.035
-200.333	-86.087	-0.098	0.030
-199.319	509.946	0.074	-0.173
-198.304	800.000	0.048	0.156
-197.290	-22.843	-0.089	0.054
-196.275	800.000	-0.079	0.336
-195.260	-75.084	-0.081	-0.029
-194.246	-46.646	-0.144	-0.071
-193.231	-153.239	0.236	-0.017
-192.217	705.542	0.091	0.240
-191.202	44.088	-0.083	0.076
-190.187	800.000	-0.094	0.274
-189.173	37.684	-0.358	0.318
-188.158	-2.275	-0.035	0.025
-187.144	710.069	-0.083	0.220
-186.129	7.763	0.316	0.237
-185.114	83.518	-0.181	0.198
-184.100	-132.912	0.122	-0.016
-183.085	-162.894	-0.227	-0.011
-182.071	33.871	-0.112	0.097
-181.056	84.820	0.144	0.158
-180.042	361.550	-0.051	0.103
-179.027	-155.843	-0.050	0.003
-178.012	-73.787	-0.245	-0.089
-176.998	-200.000	0.012	-0.206
-175.983	-107.336	-0.198	-0.043
-174.969	390.054	0.009	-0.020
-173.954	-115.376	-0.351	0.066
-172.939	-4.927	0.207	0.143
-171.925	19.290	-0.237	0.190
-170.910	-139.748	0.196	0.021
-169.896	5.974	-0.399	0.296
-168.881	134.612	0.215	0.279
-167.866	189.181	0.127	0.191
-166.852	-200.000	-0.089	-0.396
-165.837	-104.463	0.071	0.016
-164.823	302.943	0.103	0.190
-163.808	186.261	0.244	-0.363
-162.793	-7.892	0.273	0.184
-161.779	479.785	-0.053	-0.121
-160.764	-191.272	0.154	0.002
-159.750	-85.444	0.226	-0.070
-158.735	-187.717	-0.074	0.001
-157.720	800.000	-0.100	0.341
-156.706	-18.087	0.304	-0.190
-155.691	115.384	-0.166	-0.203
-154.677	-3.137	-0.224	-0.156
-153.662	-138.789	0.148	0.016
-152.647	73.036	0.194	-0.202
-151.633	-136.175	-0.047	0.006
-150.618	-49.404	0.061	-0.029
-149.604	-200.000	-0.052	0.253
-148.589	-53.117	0.174	0.080
-147.574	17.585	-0.119	-0.094
-146.560	-180.860	0.158	0.003
-145.545	800.000	0.150	0.460
-144.531	527.574	-0.027	-0.065
-143.516	-11.122	0.213	-0.141
-142.502	445.396	0.057	0.125
-141.487	-13.980	-0.168	-0.108
-140.472	-124.797	0.134	-0.021
-139.458	-167.185	0.458	0.019
-138.443	301.892	0.113	-0.209
-137.429	-55.892	0.360	0.161
-136.414	19.247	0.158	0.127
-135.399	-163.573	-0.091	-0.004
-134.385	-62.215	0.146	0.061
-133.370	8.225	0.364	0.273
-132.356	239.872	-0.116	0.193
-131.341	-62.681	0.273	0.113
-130.326	368.606	-0.037	-0.075
-129.312	-200.000	-0.010	0.061
-128.297	800.000	-0.023	-0.064
-127.283	-122.229	-0.199	0.033
-126.268	10.536	-0.243	-0.185
-125.253	-200.000	-0.011	-0.070
-124.239	-56.875	-0.245	-0.108
-123.224	0.902	0.335	0.240
-122.210	46.055	-0.157	-0.145
-121.195	800.000	0.033	-0.112
