DTS Sentinel unit serial number:	SN413079Multiplexer serial number:	ORYXHardware model number:	OX4-SRSoftware version number:	ORYX F/W v4.00 Oryx Data Collector v3.7.2.0data status	okinstallation	princeton_trtdifferential loss correction	single-endedforward channel	channel 1reverse channel	N/Adate	2019/09/15time	23:14:35forward acquisition time	60.00reverse acquisition time	0.00gamma	496.2192k internal	0.2332k external	0.2332temperature offset calibration	0.9966default loss term (dB/km)	0.3790temperature slope calibration	1.0000multiplexer offset coefficient	1.0000multiplexer slope coefficient	1.0000fibre end	0.00T internal ref (°C)	28.37T ext. ref 1 (°C)	9.06T ext. ref 2 (°C)	22.16length (m)	temperature (°C)	Stokes	anti-Stokes-747.200	-21.235	0.111	0.068
-746.185	457.298	-0.039	0.086
-745.171	-66.683	0.156	0.062
-744.156	354.808	0.115	0.231
-743.142	394.954	0.079	-0.166
-742.127	619.697	0.092	0.233
-741.112	-70.938	-0.113	-0.043
-740.098	494.335	-0.087	0.200
-739.083	-18.775	0.288	0.181
-738.069	-87.778	0.174	-0.053
-737.054	-200.000	0.042	0.189
-736.039	158.162	-0.190	-0.265
-735.025	29.098	0.083	0.071
-734.010	-14.894	-0.277	-0.178
-732.996	-31.417	-0.035	0.020
-731.981	549.974	0.082	0.197
-730.966	-127.484	0.267	-0.039
-729.952	256.421	-0.087	-0.150
-728.937	-144.371	0.061	0.006
-727.923	288.757	-0.174	-0.317
-726.908	-89.110	0.114	0.034
-725.894	-4.091	-0.333	-0.232
-724.879	-200.000	-0.056	-0.444
-723.864	-200.000	0.009	0.147
-722.850	-103.639	-0.165	0.039
-721.835	161.706	0.296	-0.417
-720.821	-135.702	-0.060	0.007
-719.806	245.745	0.217	0.368
-718.791	610.609	-0.117	0.294
-717.777	96.121	-0.151	-0.173
-716.762	-61.710	-0.282	-0.119
-715.748	14.159	-0.313	0.245
-714.733	-63.849	-0.160	0.066
-713.718	4.692	0.176	0.130
-712.704	46.113	-0.192	-0.179
-711.689	-200.000	-0.056	-0.329
-710.675	51.759	0.283	0.270
-709.660	-123.494	0.192	0.031
-708.645	-200.000	-0.021	0.233
-707.631	-34.908	0.150	-0.082
-706.616	32.874	-0.164	0.143
-705.602	142.210	-0.064	0.086
-704.587	-200.000	-0.005	0.145
-703.572	800.000	0.045	0.166
-702.558	-114.212	0.206	0.040
-701.543	225.048	0.170	-0.276
-700.529	149.167	-0.076	0.104
-699.514	-155.512	0.245	-0.016
-698.499	-114.150	-0.119	0.023
-697.485	-124.135	0.113	-0.018
-696.470	237.141	-0.138	-0.230
-695.456	113.509	0.168	0.205
-694.441	98.988	-0.165	0.192
-693.426	-108.038	0.397	0.086
-692.412	-54.058	0.332	-0.152
-691.397	153.542	0.068	-0.094
-690.383	207.784	0.062	-0.096
-689.368	800.000	0.020	-0.080
-688.354	757.897	-0.034	-0.092
-687.339	77.750	0.115	-0.123
-686.324	100.768	0.091	-0.106
-685.310	-193.939	0.411	0.003
-684.295	-36.458	0.184	0.100
-683.281	77.547	-0.319	-0.340
-682.266	-149.355	0.031	-0.002
-681.251	187.212	0.259	-0.388
-680.237	-147.551	0.341	0.029
-679.222	-73.074	0.094	0.035
-678.208	-86.694	-0.188	0.058
-677.193	-200.000	-0.050	0.257
-676.178	261.398	-0.303	0.526
-675.164	-200.000	-0.026	0.237
-674.149	23.789	-0.074	-0.061
-673.135	283.255	0.083	-0.150
-672.120	-104.824	-0.217	0.050
-671.105	-180.341	-0.114	0.002
-670.091	576.494	0.100	-0.244
-669.076	-200.000	0.007	-0.305
-668.062	8.256	0.207	-0.156
-667.047	-89.423	0.102	0.030
-666.032	25.550	0.133	-0.111
-665.018	-122.370	0.120	0.020
-664.003	196.262	-0.085	0.130
-662.989	-75.836	0.192	-0.068
-661.974	-147.947	-0.371	0.031
-660.959	331.579	0.036	0.069
-659.945	52.626	0.123	-0.117
-658.930	-200.000	-0.022	-0.426
-657.916	-127.857	0.173	-0.025
-656.901	-15.733	-0.249	0.159
-655.886	-13.995	0.224	-0.145
-654.872	-20.637	0.263	-0.162
-653.857	-138.047	0.228	0.025
-652.843	489.485	0.092	-0.210
-651.828	-141.483	0.390	-0.040
-650.814	-99.621	-0.058	0.015
-649.799	8.291	0.133	0.101
-648.784	-200.000	-0.026	0.231
-647.770	28.304	-0.081	-0.069
-646.755	96.956	0.166	0.190
-645.741	-123.972	-0.237	-0.037
-644.726	-84.534	0.294	0.093
-643.711	48.581	-0.103	0.097
-642.697	-78.784	0.108	0.037
-641.682	-200.000	0.031	0.336
-640.668	-200.000	-0.057	-0.313
-639.653	-200.000	0.003	-0.100
-638.638	22.376	-0.344	-0.281
-637.624	-200.000	-0.035	-0.156
-636.609	131.519	-0.065	0.084
-635.595	80.058	-0.252	0.271
-634.580	800.000	0.069	-0.282
-633.565	164.625	-0.128	0.181
-632.551	-34.426	0.263	-0.144
-631.536	101.608	0.102	-0.119
-630.522	-200.000	-0.012	0.300
-629.507	-138.630	0.252	-0.028
-628.492	-120.289	0.520	0.089
-627.478	800.000	-0.118	0.439
-626.463	140.347	0.149	0.197
-625.449	-76.352	0.158	-0.056
-624.434	81.553	0.128	-0.139
-623.419	-200.000	0.016	-0.358
-622.405	-200.000	0.034	-0.288
-621.390	-140.051	-0.348	-0.037
-620.376	-200.000	-0.030	0.418
-619.361	-200.000	-0.024	0.170
-618.346	123.154	-0.166	0.208
-617.332	-200.000	0.061	0.285
-616.317	85.360	-0.238	-0.262
-615.303	-41.259	-0.176	0.091
-614.288	283.204	0.057	-0.103
-613.273	44.727	-0.101	-0.093
-612.259	-200.000	0.045	-0.258
-611.244	-134.467	-0.244	0.030
-610.230	800.000	-0.092	0.272
-609.215	-49.430	-0.146	0.070
-608.201	121.724	-0.031	-0.039
-607.186	-117.297	0.326	-0.059
-606.171	497.413	-0.150	-0.345
-605.157	441.043	-0.053	-0.116
-604.142	193.955	-0.037	-0.056
-603.128	800.000	0.079	-0.248
-602.113	-74.612	-0.267	0.096
-601.098	-200.000	0.063	0.338
-600.084	-200.000	-0.010	0.074
-599.069	800.000	-0.080	0.329
-598.055	94.571	0.164	-0.186
-597.040	-200.000	-0.010	-0.199
-596.025	800.000	-0.097	0.299
-595.011	-58.394	-0.326	0.142
-593.996	8.627	0.180	-0.136
-592.982	-45.929	-0.100	0.049
-591.967	140.665	-0.163	-0.215
-590.952	-55.067	-0.182	0.082
-589.938	-200.000	0.005	0.048
-588.923	283.181	-0.175	0.314
-587.909	67.956	-0.092	0.094
-586.894	49.641	0.096	-0.091
-585.879	18.263	-0.248	-0.198
-584.865	-88.195	0.304	-0.091
-583.850	800.000	-0.022	-0.060
-582.836	-58.529	-0.258	-0.112
-581.821	129.657	0.122	-0.156
-580.806	-200.000	-0.064	-0.508
-579.792	41.934	0.126	-0.114
-578.777	356.146	-0.028	-0.055
-577.763	-16.039	-0.239	0.152
-576.748	117.711	-0.112	-0.138
-575.733	280.023	0.110	-0.196
-574.719	-200.000	-0.001	-0.009
-573.704	-200.000	0.039	-0.244
-572.690	-83.997	-0.104	-0.033
-571.675	-200.000	-0.013	-0.119
-570.661	72.579	-0.214	-0.223
-569.646	-28.485	-0.191	-0.110
-568.631	-91.106	-0.075	-0.022
-567.617	800.000	-0.042	0.126
-566.602	-200.000	-0.013	0.069
-565.588	-111.277	0.336	0.069
-564.573	-82.084	0.229	-0.075
-563.558	-160.567	0.180	-0.010
-562.544	-58.020	-0.213	0.093
-561.529	-200.000	-0.004	-0.020
-560.515	800.000	0.110	-0.349
-559.500	-75.252	-0.341	0.122
-558.485	-200.000	0.020	-0.428
-557.471	-98.251	0.321	-0.082
-556.456	46.784	-0.130	-0.120
-555.442	227.325	0.036	-0.058
-554.427	-96.271	-0.069	0.018
-553.412	-32.595	-0.226	-0.126
-552.398	-164.043	0.348	-0.016
-551.383	-58.122	-0.284	0.124
-550.369	800.000	0.059	0.204
-549.354	-49.321	0.302	-0.144
-548.339	-1.565	-0.059	-0.042
-547.325	137.709	0.130	0.171
-546.310	-126.333	0.385	0.057
-545.296	297.494	-0.142	-0.260
-544.281	278.347	-0.255	0.453
-543.266	-159.764	-0.153	-0.008
-542.252	800.000	0.101	-0.312
-541.237	-153.807	-0.161	0.011
-540.223	36.538	-0.170	0.150
-539.208	21.015	0.309	-0.250
-538.193	-19.998	0.230	-0.142
-537.179	550.947	-0.045	-0.107
-536.164	-157.249	0.227	0.014
-535.150	76.157	0.081	-0.086
-534.135	-128.617	-0.244	-0.034
-533.121	-85.057	0.063	0.020
-532.106	-21.853	-0.142	-0.086
-531.091	-46.810	0.258	-0.126
-530.077	120.271	-0.211	-0.261
-529.062	800.000	-0.054	0.201
-528.048	162.514	0.077	-0.108
-527.033	-9.756	-0.159	-0.106
-526.018	65.602	-0.245	0.248
-525.004	204.153	0.039	-0.060
-523.989	37.235	0.177	-0.156
-522.975	-196.954	-0.385	-0.003
-521.960	412.072	0.095	-0.202
-520.945	800.000	0.023	-0.068
-519.931	226.345	-0.138	0.223
-518.916	-200.000	0.016	0.123
-517.902	-27.595	0.180	-0.104
-516.887	-200.000	-0.063	-0.320
-515.872	-200.000	0.039	-0.208
-514.858	-116.774	-0.385	-0.070
-513.843	266.221	-0.047	-0.082
-512.829	-200.000	0.018	0.121
-511.814	-162.032	-0.105	0.005
-510.799	-105.806	-0.214	0.048
-509.785	-113.828	0.309	0.060
-508.770	-200.000	-0.015	0.138
-507.756	-46.237	0.202	-0.099
-506.741	-88.236	0.152	-0.045
-505.726	-178.913	0.266	0.006
-504.712	-33.705	-0.195	-0.107
-503.697	234.954	-0.114	0.187
-502.683	-144.808	0.392	0.036
-501.668	-150.264	-0.107	-0.008
-500.653	196.647	0.272	-0.413
-499.639	-104.682	0.140	-0.032
-498.624	96.278	0.206	-0.235
-497.610	-40.042	0.078	0.041
-496.595	27.775	-0.323	-0.271
-495.581	191.141	0.095	-0.142
-494.566	332.934	0.126	0.243
-493.551	-142.406	-0.142	-0.014
-492.537	21.532	0.140	0.113
-491.522	309.113	-0.027	-0.049
-490.508	-13.497	-0.206	0.133
-489.493	86.836	0.197	0.216
-488.478	162.865	-0.088	0.122
-487.464	93.893	-0.238	0.268
-486.449	-14.805	-0.204	0.130
-485.435	-169.821	0.043	0.002
-484.420	-120.460	0.076	0.013
-483.405	-200.000	-0.001	-0.146
-482.391	108.399	-0.045	0.053
-481.376	-37.872	0.062	-0.033
-480.362	-79.000	-0.125	-0.042
-479.347	25.234	0.248	0.205
-478.332	-200.000	-0.048	0.276
-477.318	715.700	-0.120	0.317
-476.303	-63.005	0.112	0.046
-475.289	209.944	-0.064	0.099
-474.274	219.341	-0.258	0.410
-473.259	-200.000	-0.001	0.345
-472.245	-24.295	0.193	0.115
-471.230	247.368	-0.131	-0.221
-470.216	14.009	0.094	0.073
-469.201	-200.000	0.056	0.245
-468.186	-110.555	-0.098	-0.020
-467.172	16.529	0.290	0.228
-466.157	800.000	-0.112	-0.334
-465.143	-54.447	0.093	-0.042
-464.128	381.767	0.013	-0.027
-463.113	-200.000	-0.036	-0.212
-462.099	800.000	0.098	0.294
-461.084	314.309	0.141	-0.264
-460.070	-76.442	0.241	0.084
-459.055	543.561	0.063	0.149
-458.040	-68.119	-0.195	-0.076
-457.026	-200.000	-0.019	-0.403
-456.011	800.000	0.058	0.163
-454.997	-51.780	-0.120	-0.056
-453.982	-171.956	0.271	0.009
-452.968	53.969	-0.193	-0.185
-451.953	-132.570	-0.269	-0.034
-450.938	6.374	-0.086	-0.063
-449.924	-131.938	-0.467	-0.061
-448.909	-170.051	0.145	-0.005
-447.895	-91.347	-0.172	-0.049
-446.880	-120.760	-0.381	0.064
-445.865	-89.158	0.332	0.097
-444.851	-101.822	0.200	0.048
-443.836	183.262	0.237	-0.348
-442.822	75.058	0.041	0.043
-441.807	-200.000	-0.022	0.124
-440.792	-139.090	-0.248	-0.027
-439.778	-73.964	0.279	-0.101
-438.763	-200.000	-0.051	0.387
-437.749	-21.953	-0.152	-0.092
-436.734	34.383	-0.169	-0.147
-435.719	-200.000	0.006	0.234
-434.705	-5.228	0.127	-0.087
-433.690	389.834	0.222	0.457
-432.676	203.224	0.008	0.012
-431.661	800.000	0.022	-0.090
-430.646	-29.936	0.195	0.110
-429.632	-98.148	0.151	0.039
-428.617	-36.914	-0.445	-0.237
-427.603	-42.402	-0.114	-0.058
-426.588	-200.000	0.051	0.304
-425.573	-200.000	0.054	0.263
-424.559	-200.000	0.057	-0.276
-423.544	-200.000	-0.053	-0.426
-422.530	347.099	0.125	-0.245
-421.515	23.537	-0.092	0.075
-420.500	540.265	-0.068	0.162
-419.486	428.932	-0.147	-0.316
-418.471	-73.417	0.237	-0.086
-417.457	-63.225	-0.138	0.057
-416.442	-69.401	0.194	-0.074
-415.428	295.270	-0.106	0.192
-414.413	800.000	-0.053	-0.209
-413.398	362.714	0.176	-0.351
-412.384	35.015	0.068	0.059
-411.369	-200.000	0.009	-0.167
-410.355	800.000	-0.043	0.121
-409.340	288.965	0.095	0.172
-408.325	-115.261	-0.069	0.013
-407.311	76.480	0.049	0.051
-406.296	639.585	0.061	0.153
-405.282	145.818	-0.131	-0.175
-404.267	-200.000	-0.036	-0.220
-403.252	-200.000	0.007	0.081
-402.238	-154.431	0.177	-0.012
-401.223	16.083	-0.037	0.029
-400.209	-82.021	-0.312	0.101
-399.194	53.858	-0.109	-0.104
-398.179	467.613	0.215	-0.479
-397.165	800.000	0.046	0.176
-396.150	58.836	0.151	0.147
-395.136	-75.471	0.227	-0.080
-394.121	-183.763	-0.058	-0.001
-393.106	-6.844	0.183	0.124
-392.092	55.700	0.207	-0.199
-391.077	-200.000	0.017	-0.156
-390.063	373.223	0.066	-0.134
-389.048	800.000	0.044	-0.123
-388.033	-90.866	0.216	-0.062
-387.019	-17.493	-0.225	0.140
-386.004	-111.398	-0.325	0.066
-384.990	246.086	0.087	0.145
-383.975	-61.220	0.225	-0.094
-382.960	-86.633	0.132	0.040
-381.946	-95.877	-0.129	-0.034
-380.931	108.826	-0.118	0.140
-379.917	-57.564	0.126	-0.055
-378.902	800.000	-0.079	-0.231
-377.888	-134.717	-0.123	-0.015
-376.873	-200.000	-0.047	0.205
-375.858	-84.032	0.196	0.062
-374.844	265.201	-0.127	0.220
-373.829	-59.306	-0.105	0.045
-372.815	327.256	-0.100	0.191
-371.800	45.074	0.129	0.117
-370.785	106.525	0.110	-0.129
-369.771	-96.782	-0.177	-0.046
-368.756	800.000	-0.029	-0.121
-367.742	682.819	-0.105	0.270
-366.727	-78.298	0.281	-0.096
-365.712	-110.962	-0.128	-0.026
-364.698	-64.772	0.161	0.065
-363.683	-68.702	-0.144	0.055
-362.669	-46.818	0.072	0.035
-361.654	-104.984	0.183	0.041
-360.639	63.875	0.311	-0.310
-359.625	-59.866	0.252	0.107
-358.610	552.164	-0.052	-0.124
-357.596	-186.569	-0.331	0.005
-356.581	800.000	0.072	-0.237
-355.566	-94.943	-0.273	-0.073
-354.552	800.000	-0.049	0.183
-353.537	11.172	0.105	0.080
-352.523	14.928	-0.083	0.064
-351.508	-200.000	-0.004	0.072
-350.493	800.000	-0.064	-0.207
-349.479	-143.888	0.214	0.020
-348.464	-50.369	-0.383	-0.179
-347.450	-200.000	-0.003	-0.276
-346.435	471.006	-0.150	-0.333
-345.420	709.139	0.059	-0.154
-344.406	51.180	0.141	-0.132
-343.391	121.440	0.065	0.080
-342.377	414.142	0.050	0.105
-341.362	284.496	-0.120	-0.215
-340.348	800.000	0.046	0.162
-339.333	800.000	-0.127	-0.427
-338.318	648.961	0.102	0.258
-337.304	-8.587	0.039	0.026
-336.289	-200.000	-0.025	-0.122
-335.275	20.137	0.320	0.255
-334.260	-200.000	-0.011	0.172
-333.245	-4.154	-0.114	0.078
-332.231	-200.000	0.016	-0.243
-331.216	-121.846	-0.066	0.011
-330.202	-200.000	0.009	0.118
-329.187	150.681	0.102	-0.138
-328.172	800.000	0.017	0.072
-327.158	-78.279	0.159	0.054
-326.143	-200.000	0.005	0.026
-325.129	-171.296	0.297	0.010
-324.114	-29.096	-0.306	0.174
-323.099	-29.338	0.023	0.013
-322.085	-99.865	0.236	0.059
-321.070	161.063	0.092	0.127
-320.056	-77.110	-0.334	-0.115
-319.041	-12.050	-0.059	0.038
-318.026	780.982	0.034	-0.091
-317.012	91.556	-0.065	-0.072
-315.997	793.335	0.055	0.149
-314.983	228.611	-0.127	0.204
-313.968	261.394	0.165	-0.282
-312.953	74.368	-0.135	0.140
-311.939	-200.000	-0.012	0.097
-310.924	274.510	-0.106	0.185
-309.910	-47.211	0.269	-0.130
-308.895	369.009	0.099	0.197
-307.880	-65.016	0.269	0.107
-306.866	-102.309	0.339	0.081
-305.851	-200.000	0.042	-0.208
-304.837	129.063	-0.006	-0.008
-303.822	-200.000	-0.028	-0.309
-302.807	-80.168	-0.168	0.056
-301.793	40.155	-0.162	0.144
-300.778	-147.081	0.236	0.020
-299.764	-200.000	-0.023	-0.150
-298.749	-91.624	0.033	0.009
-297.735	-109.471	-0.274	0.057
-296.720	-157.054	0.412	-0.025
-295.705	-200.000	0.020	0.365
-294.691	180.246	-0.115	-0.167
-293.676	162.791	-0.090	0.124
-292.662	-86.912	-0.133	0.040
-291.647	-5.498	0.207	0.140
-290.632	45.596	-0.220	0.201
-289.618	-200.000	0.033	-0.192
-288.603	216.941	-0.033	0.052
-287.589	46.825	-0.118	-0.109
-286.574	-153.689	-0.215	0.015
-285.559	355.288	0.048	-0.095
-284.545	-29.557	-0.223	0.126
-283.530	95.912	-0.240	-0.271
-282.516	184.999	0.160	0.235
-281.501	-17.843	-0.126	0.078
-280.486	-200.000	0.047	0.206
-279.472	-200.000	0.032	0.300
-278.457	206.079	0.032	0.049
-277.443	-191.705	-0.184	0.002
-276.428	-200.000	0.015	0.074
-275.413	24.553	0.249	-0.203
-274.399	-150.817	0.181	0.014
-273.384	-200.000	-0.008	-0.231
-272.370	-8.035	0.181	-0.121
-271.355	94.972	0.210	-0.236
-270.340	-80.252	0.386	0.128
-269.326	-200.000	0.043	-0.256
-268.311	-155.754	0.177	0.011
-267.297	-14.772	-0.243	0.154
-266.282	800.000	0.019	-0.054
-265.267	65.761	-0.213	-0.213
-264.253	-188.050	-0.192	0.002
-263.238	-200.000	0.050	0.319
-262.224	-35.504	0.174	-0.093
-261.209	14.203	-0.313	0.240
-260.195	-150.416	0.332	-0.025
-259.180	-3.067	-0.327	-0.225
-258.165	800.000	0.088	-0.280
-257.151	110.578	-0.068	0.081
-256.136	268.960	0.043	-0.074
-255.122	-91.232	0.175	0.050
-254.107	-135.723	0.165	-0.019
-253.092	-200.000	0.099	0.479
-252.078	-149.415	-0.203	0.016
-251.063	-200.000	-0.007	0.034
-250.049	490.656	-0.143	0.324
-249.034	800.000	-0.092	-0.307
-248.019	-95.509	0.107	0.028
-247.005	22.583	0.177	-0.143
-245.990	-9.307	0.132	-0.087
-244.976	-55.250	0.086	0.038
-243.961	-135.995	-0.133	-0.015
-242.946	-33.904	0.134	0.073
-241.932	218.036	-0.194	0.305
-240.917	-194.372	-0.072	-0.001
-239.903	-135.850	0.052	-0.006
-238.888	-102.112	-0.100	-0.024
-237.873	-88.448	-0.149	-0.044
-236.859	105.107	0.069	-0.080
-235.844	-200.000	-0.009	0.041
-234.830	89.168	0.093	-0.102
-233.815	800.000	-0.068	0.276
-232.800	18.988	-0.130	-0.103
-231.786	-200.000	-0.032	0.173
-230.771	800.000	-0.054	0.152
-229.757	-127.242	0.170	-0.024
-228.742	800.000	-0.052	-0.186
-227.727	-87.029	0.200	-0.060
-226.713	-200.000	-0.019	0.320
-225.698	-48.750	0.429	0.203
-224.684	237.508	-0.258	0.421
-223.669	-200.000	-0.035	-0.329
-222.655	-200.000	-0.008	-0.114
-221.640	524.843	0.097	-0.224
-220.625	-106.059	0.228	-0.051
-219.611	-200.000	-0.002	0.188
-218.596	-109.042	0.321	0.067
-217.582	8.103	-0.061	-0.045
-216.567	-41.583	-0.188	-0.095
-215.552	-157.397	-0.256	0.015
-214.538	54.216	-0.127	-0.120
-213.523	-200.000	0.019	-0.131
-212.509	-200.000	-0.024	0.000
-211.494	456.305	-0.043	-0.094
-210.479	-61.227	0.226	0.094
-209.465	-61.592	-0.044	0.018
-208.450	182.266	-0.292	0.424
-207.436	-80.667	-0.195	-0.064
-206.421	-165.441	0.190	0.008
-205.406	-137.145	0.369	-0.041
-204.392	46.412	0.057	-0.052
-203.377	-42.366	-0.180	-0.090
-202.363	-28.995	0.152	0.086
-201.348	-200.000	-0.053	-0.279
-200.333	-13.045	-0.116	-0.074
-199.319	-8.922	-0.105	-0.069
-198.304	60.956	-0.112	-0.109
-197.290	-73.172	-0.343	0.124
-196.275	-133.335	0.373	-0.046
-195.260	800.000	-0.083	-0.349
-194.246	112.093	0.375	0.446
-193.231	-67.454	0.327	-0.126
-192.217	171.000	0.061	-0.085
-191.202	207.728	0.203	0.313
-190.187	800.000	-0.008	-0.023
-189.173	800.000	0.052	0.157
-188.158	743.165	0.117	-0.310
-187.144	-200.000	0.001	0.118
-186.129	10.178	0.104	0.078
-185.114	-200.000	-0.035	-0.252
-184.100	-200.000	0.020	0.317
-183.085	-115.106	-0.151	0.028
-182.071	4.554	0.261	0.189
-181.056	800.000	-0.109	-0.328
-180.042	156.757	-0.178	-0.242
-179.027	352.464	0.187	-0.365
-178.012	315.593	-0.067	0.124
-176.998	42.782	-0.278	0.249
-175.983	-62.197	-0.112	0.046
-174.969	393.923	0.042	-0.086
-173.954	800.000	0.018	0.075
-172.939	184.835	-0.143	0.208
-171.925	-200.000	0.005	0.164
-170.910	-200.000	0.018	-0.263
-169.896	-99.574	0.083	0.021
-168.881	800.000	-0.032	0.099
-167.866	99.412	0.090	0.102
-166.852	40.365	-0.183	-0.162
-165.837	99.632	0.106	0.121
-164.823	-200.000	-0.006	0.071
-163.808	-151.588	-0.198	-0.014
-162.793	-200.000	-0.037	0.233
-161.779	-200.000	0.002	0.092
-160.764	800.000	0.080	-0.303
-159.750	71.769	-0.335	0.343
-158.735	-55.020	-0.270	-0.120
-157.720	-200.000	0.041	0.292
-156.706	800.000	0.149	0.562
-155.691	-166.751	-0.277	-0.011
-154.677	-109.251	-0.108	0.023
-153.662	110.047	0.232	0.274
-152.647	120.619	-0.163	0.199
-151.633	-124.592	-0.157	0.024
-150.618	716.931	0.014	-0.036
-149.604	213.682	0.234	-0.364
-148.589	-103.979	-0.101	-0.023
-147.574	132.479	-0.109	0.138
-146.560	211.845	0.060	-0.094
-145.545	-44.952	0.385	0.188
-144.531	-200.000	-0.046	-0.368
-143.516	-129.928	-0.309	-0.042
-142.502	-200.000	-0.007	-0.158
-141.487	399.417	-0.035	-0.072
-140.472	800.000	0.034	0.092
-139.458	355.159	0.022	0.043
-138.443	800.000	-0.082	0.352
-137.429	-34.884	-0.360	0.193
-136.414	417.999	-0.081	0.169
-135.399	-200.000	0.001	-0.259
-134.385	-25.551	-0.233	0.135
-133.370	559.391	-0.063	-0.149
-132.356	295.940	-0.056	0.101
-131.341	-76.946	0.179	-0.062
-130.326	-98.218	-0.196	0.049
-129.312	243.606	0.165	-0.271
-128.297	800.000	-0.037	0.143
-127.283	-59.452	0.191	-0.080
-126.268	-57.255	-0.181	-0.078
-125.253	-82.193	-0.214	-0.068
-124.239	54.190	0.304	0.287
-123.224	-90.529	-0.283	0.080
-122.210	-93.069	0.288	0.079
