DTS Sentinel unit serial number:	SN413079Multiplexer serial number:	ORYXHardware model number:	OX4-SRSoftware version number:	ORYX F/W v4.00 Oryx Data Collector v3.7.2.0data status	okinstallation	princeton_trtdifferential loss correction	single-endedforward channel	channel 1reverse channel	N/Adate	2019/09/18time	14:58:35forward acquisition time	60.00reverse acquisition time	0.00gamma	496.2192k internal	0.2307k external	0.2307temperature offset calibration	0.9995default loss term (dB/km)	0.3790temperature slope calibration	1.0000multiplexer offset coefficient	1.0000multiplexer slope coefficient	1.0000fibre end	0.00T internal ref (°C)	35.19T ext. ref 1 (°C)	0.73T ext. ref 2 (°C)	30.09length (m)	temperature (°C)	Stokes	anti-Stokes-747.200	495.346	-0.056	0.130
-746.185	-83.771	-0.246	-0.080
-745.171	-74.337	0.242	0.089
-744.156	-97.610	-0.077	0.020
-743.142	-83.490	0.287	0.093
-742.127	293.462	0.262	0.486
-741.112	-200.000	0.021	-0.142
-740.098	-48.255	-0.167	-0.082
-739.083	-146.803	0.326	0.029
-738.069	-200.000	0.004	0.200
-737.054	2.443	0.280	-0.206
-736.039	85.440	-0.160	-0.179
-735.025	-68.833	-0.502	-0.197
-734.010	-97.107	0.098	0.026
-732.996	-59.693	0.204	-0.089
-731.981	-200.000	0.019	0.092
-730.966	-151.177	0.079	0.006
-729.952	111.553	0.205	-0.251
-728.937	-200.000	-0.059	0.388
-727.923	-19.068	-0.012	-0.008
-726.908	-200.000	0.001	0.072
-725.894	34.166	-0.201	-0.178
-724.879	9.717	-0.093	0.072
-723.864	160.380	0.148	-0.210
-722.850	800.000	-0.087	0.261
-721.835	-162.025	-0.347	-0.018
-720.821	596.140	-0.105	0.263
-719.806	122.809	0.027	0.035
-718.791	129.787	-0.170	-0.221
-717.777	800.000	0.087	0.283
-716.762	401.878	0.115	0.245
-715.748	127.424	-0.098	-0.127
-714.733	-74.977	0.270	-0.098
-713.718	17.552	-0.063	0.051
-712.704	-72.069	0.126	-0.048
-711.689	-4.996	-0.186	-0.130
-710.675	648.929	-0.070	0.183
-709.660	20.692	0.206	0.169
-708.645	401.214	0.075	-0.159
-707.631	-115.721	-0.331	0.063
-706.616	-41.610	0.269	0.141
-705.602	-81.800	0.204	-0.068
-704.587	-15.509	-0.152	0.098
-703.572	363.289	-0.134	0.273
-702.558	123.875	0.300	0.383
-701.543	-102.844	-0.095	-0.023
-700.529	800.000	0.102	-0.314
-699.514	-17.458	0.315	0.201
-698.499	-75.841	0.163	-0.059
-697.485	-154.448	0.101	0.007
-696.470	129.690	0.133	-0.173
-695.456	-200.000	-0.014	-0.364
-694.441	-9.527	-0.132	-0.090
-693.426	200.947	0.107	-0.167
-692.412	-200.000	0.054	0.250
-691.397	-200.000	-0.013	-0.322
-690.383	-185.933	-0.214	0.003
-689.368	209.313	-0.190	-0.303
-688.354	623.077	-0.120	0.305
-687.339	114.300	0.050	-0.061
-686.324	-200.000	0.024	-0.156
-685.310	16.335	0.075	0.060
-684.295	-74.651	0.147	-0.054
-683.281	-200.000	0.007	0.109
-682.266	-114.756	-0.075	0.015
-681.251	497.689	-0.008	-0.018
-680.237	39.687	-0.034	0.031
-679.222	800.000	-0.025	-0.082
-678.208	-89.276	0.325	-0.097
-677.193	-53.046	0.229	0.107
-676.178	153.512	0.188	0.261
-675.164	-136.360	-0.239	0.028
-674.149	-67.517	0.075	-0.030
-673.135	-200.000	-0.042	-0.489
-672.120	-30.950	-0.114	-0.065
-671.105	-47.132	-0.238	-0.118
-670.091	118.509	-0.139	-0.174
-669.076	-39.646	-0.305	-0.162
-668.062	35.843	0.166	0.148
-667.047	433.199	0.056	-0.123
-666.032	4.665	-0.058	0.043
-665.018	800.000	0.019	-0.055
-664.003	-10.852	-0.167	-0.112
-662.989	-159.653	0.026	-0.001
-661.974	273.469	-0.117	-0.209
-660.959	19.594	0.275	0.224
-659.945	141.669	0.116	0.156
-658.930	-135.078	-0.259	-0.032
-657.916	-70.890	0.167	0.064
-656.901	-82.653	-0.160	0.053
-655.886	-162.737	0.143	0.007
-654.872	-113.061	0.237	0.047
-653.857	-28.623	-0.365	0.213
-652.843	-53.988	-0.153	-0.070
-651.828	79.936	-0.022	-0.024
-650.814	-200.000	0.015	-0.376
-649.799	574.455	-0.053	0.132
-648.784	8.628	-0.194	-0.148
-647.770	-98.986	-0.443	0.114
-646.755	68.886	-0.139	-0.144
-645.741	800.000	-0.034	0.130
-644.726	12.294	-0.163	0.128
-643.711	-200.000	0.040	-0.193
-642.697	-113.100	-0.223	-0.045
-641.682	-106.863	-0.123	0.028
-640.668	298.200	-0.165	0.307
-639.653	20.269	0.355	0.290
-638.638	-51.154	-0.344	-0.163
-637.624	-25.385	-0.340	-0.203
-636.609	-139.804	-0.385	-0.041
-635.595	84.455	-0.328	-0.363
-634.580	220.377	-0.105	-0.170
-633.565	-1.430	-0.073	0.053
-632.551	38.883	-0.222	0.201
-631.536	-143.212	-0.132	0.013
-630.522	86.997	-0.203	0.227
-629.507	-62.637	0.106	-0.045
-628.492	338.850	0.120	0.237
-627.478	69.828	-0.060	0.062
-626.463	-65.182	-0.269	0.110
-625.449	12.410	-0.224	-0.175
-624.434	151.360	-0.122	0.168
-623.419	-200.000	0.026	0.194
-622.405	-42.434	-0.281	0.145
-621.390	-37.240	0.163	-0.088
-620.376	-102.875	-0.223	-0.054
-619.361	-200.000	-0.053	0.244
-618.346	138.369	0.058	-0.077
-617.332	-104.426	-0.248	-0.058
-616.317	-79.028	0.298	0.102
-615.303	154.095	0.062	-0.086
-614.288	-113.609	0.371	-0.073
-613.273	-150.378	0.325	-0.025
-612.259	198.071	0.130	0.200
-611.244	-48.009	-0.003	-0.001
-610.230	130.676	-0.008	0.010
-609.215	-127.146	0.085	-0.013
-608.201	-131.935	0.139	-0.018
-607.186	-17.149	-0.100	-0.064
-606.171	800.000	-0.049	0.206
-605.157	32.674	0.259	-0.227
-604.142	-89.015	0.073	0.022
-603.128	124.876	-0.207	-0.263
-602.113	-98.056	-0.173	0.045
-601.098	15.824	-0.284	0.226
-600.084	506.115	0.086	-0.201
-599.069	-200.000	-0.000	-0.286
-598.055	293.828	0.246	0.454
-597.040	-151.312	-0.460	0.035
-596.025	-108.862	0.039	0.008
-595.011	-197.401	-0.031	-0.000
-593.996	-63.838	0.380	-0.157
-592.982	254.749	0.052	-0.090
-591.967	-115.081	0.168	-0.032
-590.952	-36.500	0.095	0.052
-589.938	257.417	-0.217	0.377
-588.923	49.591	0.184	-0.175
-587.909	133.353	-0.075	-0.099
-586.894	-166.292	0.114	0.005
-585.879	-200.000	-0.041	-0.203
-584.865	197.940	-0.062	0.096
-583.850	-142.601	-0.074	0.007
-582.836	800.000	0.092	-0.386
-581.821	-164.811	0.245	-0.011
-580.806	-200.000	0.032	0.146
-579.792	-102.257	0.193	-0.047
-578.777	-39.505	-0.171	-0.090
-577.763	58.482	0.189	0.188
-576.748	515.310	-0.110	-0.258
-575.733	-156.494	0.158	-0.010
-574.719	-60.721	0.237	-0.101
-573.704	731.037	0.059	0.160
-572.690	193.023	-0.032	-0.049
-571.675	-200.000	-0.049	-0.288
-570.661	-200.000	-0.015	0.079
-569.646	800.000	-0.144	0.422
-568.631	-34.891	-0.116	0.064
-567.617	313.537	0.220	-0.418
-566.602	30.838	0.147	-0.127
-565.588	0.872	-0.186	-0.135
-564.573	36.079	0.221	-0.196
-563.558	-43.990	-0.171	0.087
-562.544	-200.000	0.010	0.198
-561.529	462.902	0.088	0.197
-560.515	-45.017	-0.154	0.077
-559.500	27.950	0.101	0.086
-558.485	-35.595	-0.099	-0.054
-557.471	-200.000	0.076	-0.391
-556.456	-24.412	-0.078	-0.047
-555.442	-26.320	0.165	-0.098
-554.427	364.601	0.060	0.122
-553.412	800.000	-0.035	0.127
-552.398	-159.655	0.200	-0.011
-551.383	102.491	-0.170	-0.201
-550.369	-35.156	0.210	-0.115
-549.354	-200.000	-0.018	-0.112
-548.339	353.199	0.046	0.092
-547.325	-55.110	0.110	0.050
-546.310	37.266	0.081	-0.072
-545.296	-128.576	-0.326	0.047
-544.281	800.000	-0.049	0.180
-543.266	-186.425	-0.111	-0.002
-542.252	121.591	0.239	0.301
-541.237	-106.882	-0.313	-0.070
-540.223	-159.282	-0.353	0.020
-539.208	-58.407	-0.365	0.160
-538.193	-200.000	-0.003	-0.089
-537.179	-119.411	-0.190	-0.033
-536.164	255.742	0.171	-0.295
-535.150	-200.000	-0.008	-0.127
-534.135	232.073	-0.147	0.243
-533.121	-200.000	0.018	-0.118
-532.106	-81.029	-0.160	-0.053
-531.091	800.000	0.030	-0.127
-530.077	-200.000	0.004	-0.192
-529.062	-0.428	-0.127	0.091
-528.048	-200.000	-0.010	-0.259
-527.033	-181.333	-0.330	0.007
-526.018	380.254	0.107	0.222
-525.004	-19.452	-0.215	0.134
-523.989	246.473	0.089	-0.151
-522.975	-70.246	-0.226	0.087
-521.960	-135.624	-0.259	0.031
-520.945	194.543	0.114	0.174
-519.931	45.976	0.143	-0.134
-518.916	-43.051	-0.310	-0.158
-517.902	-97.052	0.324	0.085
-516.887	213.996	-0.110	-0.175
-515.872	518.751	0.017	-0.040
-514.858	-38.713	-0.236	0.125
-513.843	-34.492	0.165	-0.091
-512.829	-200.000	0.029	0.175
-511.814	800.000	0.015	0.054
-510.799	-3.573	-0.186	0.131
-509.785	201.099	-0.150	-0.232
-508.770	-43.693	-0.166	-0.084
-507.756	50.391	0.198	0.188
-506.741	-200.000	0.011	-0.232
-505.726	-39.985	0.169	0.089
-504.712	25.869	0.295	0.247
-503.697	-200.000	0.011	0.186
-502.683	-200.000	-0.034	-0.419
-501.668	511.522	0.030	0.071
-500.653	238.671	0.111	-0.185
-499.639	-28.445	-0.210	-0.122
-498.624	-20.083	-0.032	0.020
-497.610	-32.256	-0.409	-0.230
-496.595	-67.492	0.237	-0.094
-495.581	-113.811	0.167	0.033
-494.566	31.006	0.012	0.010
-493.551	-75.114	0.389	0.140
-492.537	800.000	-0.054	-0.152
-491.522	-180.215	0.248	-0.005
-490.508	-101.066	0.159	-0.039
-489.493	347.453	-0.066	0.130
-488.478	-200.000	0.003	-0.097
-487.464	-200.000	0.031	-0.161
-486.449	75.383	-0.250	0.266
-485.435	-12.946	-0.043	0.028
-484.420	2.333	0.311	-0.227
-483.405	800.000	-0.012	0.051
-482.391	-161.216	0.113	-0.006
-481.376	1.869	0.193	0.140
-480.362	-200.000	-0.026	0.377
-479.347	-16.211	-0.147	0.094
-478.332	185.026	-0.091	-0.136
-477.318	-47.590	0.414	-0.203
-476.303	84.604	-0.126	0.139
-475.289	-4.181	-0.208	0.145
-474.274	-104.633	0.213	0.049
-473.259	-87.086	0.300	0.092
-472.245	84.263	-0.065	-0.072
-471.230	-158.900	-0.322	-0.018
-470.216	2.996	-0.174	0.127
-469.201	-200.000	-0.068	0.398
-468.186	135.660	-0.105	0.138
-467.172	-20.997	0.201	0.124
-466.157	-162.575	0.285	0.014
-465.143	-161.440	-0.411	0.021
-464.128	-200.000	-0.004	-0.044
-463.113	66.133	0.048	0.049
-462.099	97.749	0.265	-0.306
-461.084	800.000	-0.016	-0.062
-460.070	-53.219	-0.067	0.031
-459.055	-200.000	-0.035	0.191
-458.040	-79.037	0.072	-0.025
-457.026	-200.000	0.011	0.245
-456.011	567.389	-0.115	0.282
-454.997	-78.442	0.654	0.225
-453.982	-200.000	-0.011	-0.239
-452.968	-0.764	-0.193	0.137
-451.953	224.250	-0.074	-0.120
-450.938	800.000	0.012	0.053
-449.924	-72.256	-0.151	0.056
-448.909	657.818	-0.087	0.226
-447.895	-156.211	0.174	0.011
-446.880	-119.389	0.107	-0.019
-445.865	76.419	0.142	0.151
-444.851	-97.813	-0.325	0.085
-443.836	18.939	-0.205	0.165
-442.822	45.162	0.208	0.193
-441.807	57.411	0.046	0.046
-440.792	100.251	-0.040	0.047
-439.778	3.420	0.340	-0.249
-438.763	387.946	-0.152	0.316
-437.749	49.390	-0.133	0.125
-436.734	-74.331	-0.221	-0.080
-435.719	-80.609	0.187	0.063
-434.705	-41.254	-0.075	0.039
-433.690	-64.167	-0.195	0.080
-432.676	-179.276	0.204	0.005
-431.661	-50.206	-0.053	0.025
-430.646	800.000	-0.053	0.205
-429.632	591.859	0.032	0.079
-428.617	-200.000	-0.041	-0.230
-427.603	-28.107	0.508	0.295
-426.588	183.224	-0.075	-0.112
-425.573	236.198	0.123	0.204
-424.559	-99.393	-0.044	0.011
-423.544	800.000	-0.033	-0.104
-422.530	-200.000	0.011	-0.053
-421.515	800.000	0.058	-0.238
-420.500	-200.000	0.004	-0.093
-419.486	13.380	-0.089	0.069
-418.471	410.752	-0.165	-0.352
-417.457	-11.886	0.215	-0.142
-416.442	458.994	-0.120	-0.267
-415.428	190.573	-0.271	0.409
-414.413	-78.573	0.276	0.095
-413.398	305.869	-0.114	0.212
-412.384	-200.000	0.016	-0.138
-411.369	-200.000	0.022	0.185
-410.355	372.368	0.241	-0.491
-409.340	-55.672	-0.157	-0.070
-408.325	-123.517	0.235	-0.037
-407.311	-200.000	-0.002	-0.143
-406.296	-104.065	-0.406	0.095
-405.282	-200.000	-0.004	-0.360
-404.267	-47.327	-0.231	0.113
-403.252	-200.000	-0.064	0.286
-402.238	-17.545	-0.063	0.039
-401.223	-200.000	0.027	0.187
-400.209	-46.133	0.083	0.041
-399.194	698.387	0.028	-0.075
-398.179	413.371	-0.118	0.252
-397.165	63.825	-0.275	0.277
-396.150	15.044	0.061	0.048
-395.136	91.572	-0.016	0.019
-394.121	800.000	-0.057	0.235
-393.106	-200.000	-0.018	0.102
-392.092	327.322	0.092	-0.178
-391.077	-200.000	-0.018	-0.167
-390.063	-200.000	0.027	0.252
-389.048	-200.000	-0.037	0.225
-388.033	-52.164	-0.210	-0.098
-387.019	-200.000	-0.006	-0.106
-386.004	-200.000	0.014	-0.146
-384.990	800.000	-0.032	0.138
-383.975	-46.482	0.220	-0.108
-382.960	-200.000	0.003	-0.029
-381.946	-99.215	0.205	0.052
-380.931	239.502	-0.124	0.206
-379.917	-61.163	-0.174	-0.073
-378.902	800.000	-0.056	-0.166
-377.888	25.302	-0.190	-0.158
-376.873	-200.000	-0.022	0.111
-375.858	-25.363	-0.066	0.039
-374.844	232.949	0.077	-0.126
-373.829	-200.000	-0.032	0.182
-372.815	-85.921	-0.053	-0.016
-371.800	577.832	-0.094	-0.230
-370.785	-10.082	0.166	-0.110
-369.771	-167.599	-0.117	-0.005
-368.756	48.179	0.280	-0.263
-367.742	480.654	-0.108	-0.245
-366.727	550.758	-0.138	-0.331
-365.712	229.742	-0.050	-0.082
-364.698	340.343	-0.079	0.155
-363.683	-99.045	0.414	0.105
-362.669	423.200	0.117	-0.253
-361.654	-200.000	0.011	0.386
-360.639	-200.000	-0.099	0.495
-359.625	800.000	-0.014	0.058
-358.610	800.000	-0.117	0.364
-357.596	-200.000	-0.001	-0.044
-356.581	-36.469	0.114	0.061
-355.566	-200.000	-0.084	0.440
-354.552	27.088	0.292	-0.245
-353.537	-153.839	0.153	0.010
-352.523	291.397	-0.098	-0.178
-351.508	800.000	-0.072	-0.265
-350.493	94.136	-0.182	-0.206
-349.479	-53.893	-0.045	-0.021
-348.464	-51.643	-0.086	-0.040
-347.450	-46.974	-0.229	0.112
-346.435	-95.526	-0.453	0.122
-345.420	-200.000	0.003	0.128
-344.406	800.000	0.048	0.184
-343.391	305.366	-0.098	-0.182
-342.377	77.719	-0.063	0.067
-341.362	-200.000	-0.083	0.412
-340.348	57.173	0.125	0.122
-339.333	800.000	-0.044	0.144
-338.318	54.345	-0.223	-0.215
-337.304	-200.000	-0.026	-0.259
-336.289	331.928	-0.063	-0.122
-335.275	-200.000	-0.015	-0.140
-334.260	57.632	-0.129	0.126
-333.245	-200.000	0.008	0.103
-332.231	66.578	0.086	0.087
-331.216	-82.939	0.184	-0.059
-330.202	607.890	-0.141	0.352
-329.187	683.709	-0.069	0.179
-328.172	255.958	0.083	-0.143
-327.158	9.770	-0.181	-0.137
-326.143	-137.428	0.165	-0.019
-325.129	-142.272	0.377	-0.037
-324.114	800.000	0.023	0.082
-323.099	20.064	-0.194	0.157
-322.085	-200.000	0.010	-0.067
-321.070	18.495	-0.169	-0.135
-320.056	-102.863	-0.293	0.070
-319.041	-200.000	0.032	0.165
-318.026	-200.000	0.017	0.253
-317.012	-68.016	0.411	-0.160
-315.997	-122.023	0.149	-0.024
-314.983	800.000	0.140	-0.439
-313.968	360.189	0.078	-0.156
-312.953	87.562	-0.081	-0.089
-311.939	-110.263	0.328	-0.068
-310.924	412.328	0.073	0.154
-309.910	-131.888	0.233	-0.030
-308.895	395.360	0.058	-0.121
-307.880	-20.743	0.221	0.136
-306.866	44.126	0.303	-0.278
-305.851	-200.000	-0.034	0.224
-304.837	-92.396	-0.458	0.129
-303.822	-200.000	-0.015	-0.347
-302.807	-200.000	-0.015	0.219
-301.793	24.576	0.367	-0.304
-300.778	115.630	-0.061	0.074
-299.764	82.976	0.077	0.084
-298.749	-81.066	-0.153	-0.051
-297.735	58.694	-0.177	0.173
-296.720	-99.622	-0.157	0.039
-295.705	-141.819	0.141	0.014
-294.691	-140.880	0.258	0.027
-293.676	300.305	0.194	-0.357
-292.662	800.000	-0.059	0.240
-291.647	18.642	-0.130	-0.104
-290.632	-1.848	0.243	0.171
-289.618	-43.726	0.233	-0.117
-288.603	-200.000	0.025	0.139
-287.589	117.641	0.132	-0.162
-286.574	-120.105	-0.131	0.022
-285.559	757.044	0.018	-0.049
-284.545	590.392	0.064	0.158
-283.530	-59.614	-0.262	-0.112
-282.516	-55.966	0.099	0.044
-281.501	-80.910	-0.360	-0.119
-280.486	492.513	0.188	-0.430
-279.472	-200.000	0.001	-0.060
-278.457	198.151	-0.206	-0.315
-277.443	467.742	0.132	0.295
-276.428	0.352	-0.344	0.245
-275.413	133.729	0.143	-0.184
-274.399	-200.000	0.026	-0.320
-273.384	-200.000	-0.002	0.055
-272.370	114.828	0.118	0.144
-271.355	-161.758	0.099	-0.005
-270.340	-200.000	-0.012	0.312
-269.326	4.551	0.133	0.097
-268.311	-106.013	-0.349	0.078
-267.297	404.402	-0.174	-0.367
-266.282	-5.188	0.100	-0.069
-265.267	655.914	0.116	0.297
-264.253	-119.521	0.219	0.038
-263.238	-55.775	-0.431	-0.192
-262.224	310.134	0.063	0.118
-261.209	-112.330	0.189	-0.038
-260.195	390.193	-0.135	-0.280
-259.180	-71.612	0.185	-0.069
-258.165	30.259	-0.158	0.134
-257.151	165.633	-0.070	-0.098
-256.136	28.273	-0.356	0.300
-255.122	520.800	-0.091	-0.213
-254.107	-117.915	-0.065	0.012
-253.092	61.632	0.024	-0.024
-252.078	-30.467	0.270	0.153
-251.063	165.201	0.062	-0.088
-250.049	-74.275	0.306	-0.110
-249.034	-200.000	-0.001	0.180
-248.019	190.235	-0.154	-0.231
-247.005	-131.572	-0.154	0.020
-245.990	-173.986	0.164	-0.005
-244.976	245.266	0.226	-0.379
-243.961	-200.000	-0.035	0.152
-242.946	-200.000	-0.002	0.207
-241.932	-200.000	0.059	-0.426
-240.917	-97.143	0.394	0.103
-239.903	-83.170	-0.242	-0.078
-238.888	59.869	0.152	0.150
-237.873	-16.660	0.201	-0.127
-236.859	-44.435	-0.178	-0.089
-235.844	-85.558	0.166	-0.052
-234.830	-174.759	-0.159	0.004
-233.815	800.000	-0.147	-0.452
-232.800	38.745	0.111	-0.099
-231.786	-60.647	0.334	0.141
-230.771	-200.000	0.047	0.257
-229.757	-13.644	0.141	-0.091
-228.742	517.906	0.065	-0.152
-227.727	800.000	-0.071	-0.260
-226.713	800.000	0.015	0.049
-225.698	-95.060	0.406	0.109
-224.684	-18.229	0.142	0.089
-223.669	800.000	-0.095	0.287
-222.655	-0.685	-0.101	0.071
-221.640	-24.839	0.202	0.119
-220.625	49.031	0.090	0.084
-219.611	-200.000	0.019	0.151
-218.596	78.035	-0.124	0.131
-217.582	40.982	-0.125	0.112
-216.567	31.024	-0.156	-0.133
-215.552	25.701	-0.227	-0.188
-214.538	-179.926	-0.034	-0.001
-213.523	639.746	0.100	0.255
-212.509	-200.000	0.024	-0.308
-211.494	-172.078	0.287	-0.009
-210.479	-8.761	0.096	0.064
-209.465	159.826	-0.162	0.225
-208.450	26.259	0.337	-0.280
-207.436	28.800	-0.086	-0.073
-206.421	-35.477	-0.271	0.147
-205.406	-48.846	-0.231	0.110
-204.392	800.000	-0.045	-0.178
-203.377	87.616	0.147	-0.162
-202.363	-8.059	0.129	0.086
-201.348	196.331	0.105	-0.160
-200.333	-136.482	-0.143	0.017
-199.319	-42.175	0.304	-0.155
-198.304	-125.293	0.174	-0.026
-197.290	-200.000	-0.056	0.399
-196.275	-40.743	0.344	-0.177
-195.260	168.522	-0.148	-0.210
-194.246	-31.354	0.161	-0.090
-193.231	70.940	-0.103	0.107
-192.217	-200.000	0.009	-0.377
-191.202	800.000	-0.007	-0.021
-190.187	800.000	0.049	0.208
-189.173	614.525	0.048	0.120
-188.158	-59.207	0.202	-0.087
-187.144	11.772	-0.326	0.249
-186.129	52.368	0.263	0.250
-185.114	669.861	-0.047	0.121
-184.100	81.610	-0.218	0.235
-183.085	155.985	0.122	-0.167
-182.071	-200.000	-0.006	-0.095
-181.056	-142.846	0.250	0.024
-180.042	103.867	-0.031	-0.036
-179.027	-200.000	-0.014	-0.162
-178.012	-160.550	-0.466	-0.025
-176.998	-29.282	0.140	-0.080
-175.983	91.235	0.109	0.121
-174.969	800.000	-0.030	-0.114
-173.954	3.696	0.168	-0.122
-172.939	800.000	0.095	0.346
-171.925	227.180	-0.065	0.106
-170.910	-0.392	-0.246	-0.174
-169.896	64.109	-0.050	0.050
-168.881	218.848	0.113	0.179
-167.866	273.729	0.233	-0.410
-166.852	85.454	0.080	-0.087
-165.837	-200.000	0.000	0.032
-164.823	-200.000	0.003	0.021
-163.808	-22.650	0.204	-0.122
-162.793	-101.189	-0.307	-0.075
-161.779	41.744	0.101	-0.091
-160.764	358.542	0.068	-0.135
-159.750	-119.882	0.196	0.033
-158.735	-125.849	0.314	-0.047
-157.720	221.689	0.076	0.121
-156.706	-200.000	0.012	-0.253
-155.691	158.246	-0.129	-0.177
-154.677	-32.444	0.165	-0.092
-153.662	181.836	0.190	-0.278
-152.647	-3.530	-0.213	-0.147
-151.633	124.820	0.215	0.268
-150.618	-80.657	0.200	-0.066
-149.604	800.000	0.051	0.155
-148.589	800.000	0.065	0.178
-147.574	188.303	0.113	-0.167
-146.560	800.000	-0.083	-0.261
-145.545	96.783	-0.174	0.198
-144.531	24.319	-0.280	0.230
-143.516	41.792	-0.087	-0.078
-142.502	170.843	0.154	0.219
-141.487	-200.000	0.037	-0.296
-140.472	694.810	-0.100	-0.260
-139.458	800.000	-0.061	-0.250
-138.443	-8.136	0.125	0.084
-137.429	-3.876	0.129	-0.089
-136.414	-200.000	-0.012	-0.130
-135.399	174.616	-0.144	-0.208
-134.385	307.475	-0.128	-0.238
-133.370	127.571	-0.333	0.420
-132.356	-16.471	-0.109	-0.069
-131.341	145.093	0.111	0.147
-130.326	-49.464	0.401	0.190
-129.312	-200.000	0.004	0.063
-128.297	114.796	-0.149	0.181
-127.283	-39.291	0.153	-0.080
-126.268	800.000	-0.151	-0.418
-125.253	800.000	0.049	-0.193
-124.239	667.842	0.086	0.221
-123.224	103.297	-0.103	-0.120
-122.210	-200.000	-0.009	0.041
-121.195	-54.750	-0.140	-0.063
