DTS Sentinel unit serial number:	SN413079Multiplexer serial number:	ORYXHardware model number:	OX4-SRSoftware version number:	ORYX F/W v4.00 Oryx Data Collector v3.7.2.0data status	okinstallation	princeton_trtdifferential loss correction	single-endedforward channel	channel 1reverse channel	N/Adate	2019/09/16time	07:14:35forward acquisition time	60.00reverse acquisition time	0.00gamma	496.2192k internal	0.2331k external	0.2331temperature offset calibration	0.9988default loss term (dB/km)	0.3790temperature slope calibration	1.0000multiplexer offset coefficient	1.0000multiplexer slope coefficient	1.0000fibre end	0.00T internal ref (°C)	27.37T ext. ref 1 (°C)	11.56T ext. ref 2 (°C)	22.18length (m)	temperature (°C)	Stokes	anti-Stokes-747.200	166.622	-0.037	0.053
-746.185	35.659	-0.084	0.074
-745.171	-148.618	-0.392	0.032
-744.156	537.053	0.049	0.118
-743.142	-50.606	0.086	-0.041
-742.127	-38.064	0.171	-0.092
-741.112	59.226	0.182	-0.180
-740.098	-52.550	0.180	-0.084
-739.083	92.748	0.277	0.315
-738.069	-124.012	-0.410	0.065
-737.054	-76.736	-0.052	-0.018
-736.039	-25.772	-0.385	0.228
-735.025	-7.387	0.151	-0.103
-734.010	283.859	-0.105	0.190
-732.996	-116.713	-0.375	-0.069
-731.981	238.964	0.096	0.161
-730.966	-112.805	-0.092	-0.018
-729.952	-24.009	0.045	-0.027
-728.937	-200.000	0.014	-0.341
-727.923	210.181	0.079	-0.125
-726.908	-200.000	-0.009	-0.138
-725.894	238.587	0.207	-0.346
-724.879	-179.667	0.295	-0.006
-723.864	333.068	-0.172	-0.334
-722.850	-82.536	0.171	-0.056
-721.835	83.287	-0.139	0.152
-720.821	-200.000	-0.012	-0.076
-719.806	-75.771	-0.250	0.089
-718.791	-85.225	0.323	0.101
-717.777	-153.377	0.204	0.014
-716.762	40.115	-0.292	-0.264
-715.748	270.937	0.070	-0.124
-714.733	-153.642	0.185	-0.013
-713.718	29.336	0.130	-0.111
-712.704	683.135	0.059	0.156
-711.689	54.499	-0.072	0.069
-710.675	-1.523	-0.190	-0.135
-709.660	800.000	0.045	-0.150
-708.645	236.777	0.150	0.249
-707.631	-165.324	0.128	-0.006
-706.616	226.038	0.203	-0.330
-705.602	-118.627	0.166	0.030
-704.587	-40.387	0.113	0.059
-703.572	-23.700	0.091	-0.055
-702.558	1.865	0.039	0.028
-701.543	800.000	-0.084	0.368
-700.529	-78.355	0.111	-0.038
-699.514	-140.445	0.346	0.036
-698.499	-200.000	0.026	0.265
-697.485	800.000	-0.031	0.124
-696.470	24.759	-0.128	-0.106
-695.456	107.505	-0.048	0.057
-694.441	-32.938	0.141	0.079
-693.426	-126.508	0.267	0.040
-692.412	370.402	-0.114	0.232
-691.397	-194.658	0.414	-0.003
-690.383	-11.159	-0.169	0.112
-689.368	457.608	-0.074	0.166
-688.354	-114.762	0.356	0.068
-687.339	800.000	0.038	-0.108
-686.324	73.003	0.141	-0.148
-685.310	-7.640	-0.080	0.054
-684.295	-200.000	0.026	-0.166
-683.281	-200.000	0.016	-0.232
-682.266	-78.437	0.279	-0.096
-681.251	107.766	-0.109	0.131
-680.237	10.514	-0.268	-0.205
-679.222	-80.242	-0.131	0.044
-678.208	334.224	0.050	0.097
-677.193	-200.000	-0.015	-0.367
-676.178	197.850	-0.100	-0.154
-675.164	98.754	0.083	0.097
-674.149	-200.000	-0.109	0.000
-673.135	-200.000	-0.018	0.082
-672.120	377.159	-0.179	-0.368
-671.105	800.000	0.067	-0.274
-670.091	-128.224	0.328	-0.047
-669.076	15.295	0.193	0.152
-668.062	177.582	0.088	-0.129
-667.047	43.608	0.047	0.043
-666.032	45.892	0.229	0.213
-665.018	40.144	-0.058	0.052
-664.003	244.546	0.110	-0.186
-662.989	-145.295	0.219	-0.020
-661.974	-186.457	0.152	0.002
-660.959	204.593	-0.231	-0.359
-659.945	643.087	-0.050	-0.127
-658.930	334.638	-0.115	-0.223
-657.916	-82.185	0.212	0.069
-656.901	-131.760	-0.088	0.012
-655.886	-28.975	-0.087	-0.050
-654.872	-81.780	0.130	0.043
-653.857	78.762	-0.196	0.210
-652.843	-78.875	0.626	0.214
-651.828	800.000	0.073	-0.206
-650.814	18.913	-0.230	0.185
-649.799	59.724	0.038	0.038
-648.784	800.000	-0.071	-0.248
-647.770	463.722	0.142	0.319
-646.755	-96.080	0.114	0.030
-645.741	-200.000	-0.260	0.000
-644.726	-200.000	-0.030	0.216
-643.711	300.955	0.158	0.293
-642.697	-200.000	0.014	-0.310
-641.682	-159.486	0.260	0.015
-640.668	800.000	0.018	0.054
-639.653	-54.874	0.191	0.087
-638.638	800.000	0.053	0.206
-637.624	-97.410	-0.347	-0.091
-636.609	318.913	0.037	-0.070
-635.595	-154.554	0.127	-0.009
-634.580	-33.570	-0.276	0.153
-633.565	78.014	-0.025	-0.027
-632.551	11.340	-0.295	-0.226
-631.536	-200.000	0.009	-0.556
-630.522	30.162	0.065	0.055
-629.507	413.406	-0.041	-0.087
-628.492	288.315	0.115	0.209
-627.478	-200.000	0.403	0.001
-626.463	358.597	0.101	0.203
-625.449	-182.795	-0.314	-0.006
-624.434	20.458	-0.167	-0.135
-623.419	-200.000	-0.018	0.120
-622.405	269.022	0.059	0.103
-621.390	800.000	-0.088	-0.385
-620.376	-158.361	-0.204	-0.012
-619.361	-51.868	0.037	0.017
-618.346	598.914	0.109	0.271
-617.332	-137.518	-0.167	-0.019
-616.317	-136.883	0.258	-0.030
-615.303	10.936	-0.113	0.087
-614.288	-140.590	-0.197	0.020
-613.273	11.785	-0.167	-0.128
-612.259	800.000	0.044	-0.169
-611.244	205.388	-0.057	-0.089
-610.230	-73.343	0.435	-0.159
-609.215	-22.196	0.292	-0.177
-608.201	-123.602	-0.087	0.014
-607.186	93.242	-0.159	0.181
-606.171	61.099	-0.174	-0.173
-605.157	242.524	-0.103	0.173
-604.142	-69.113	-0.049	-0.019
-603.128	-95.517	0.248	0.067
-602.113	-200.000	0.002	-0.010
-601.098	-38.883	-0.198	-0.104
-600.084	-55.936	0.184	0.082
-599.069	167.072	-0.065	0.092
-598.055	-87.518	0.345	0.104
-597.040	-51.038	0.037	0.017
-596.025	-198.780	-0.188	-0.001
-595.011	53.515	0.123	-0.118
-593.996	323.215	-0.061	0.117
-592.982	13.308	-0.271	-0.210
-591.967	-24.321	0.108	-0.065
-590.952	77.473	-0.265	-0.282
-589.938	-28.779	0.100	0.058
-588.923	398.170	0.037	-0.078
-587.909	-200.000	-0.004	0.150
-586.894	-90.077	-0.493	-0.144
-585.879	-68.240	0.207	-0.080
-584.865	800.000	0.060	-0.239
-583.850	-97.088	-0.226	-0.059
-582.836	-17.193	-0.366	-0.231
-581.821	99.998	-0.178	-0.206
-580.806	17.403	0.204	-0.162
-579.792	-90.695	-0.321	-0.093
-578.777	88.284	-0.087	-0.097
-577.763	-130.988	-0.379	-0.051
-576.748	-200.000	-0.021	-0.233
-575.733	-143.017	0.094	-0.009
-574.719	-143.875	0.103	-0.010
-573.704	763.788	-0.018	-0.050
-572.690	800.000	-0.023	-0.075
-571.675	332.424	0.162	-0.313
-570.661	48.937	-0.089	0.084
-569.646	235.389	0.041	0.067
-568.631	57.107	0.111	0.108
-567.617	-34.744	0.134	0.073
-566.602	19.439	0.246	0.198
-565.588	-122.281	-0.213	-0.035
-564.573	-117.561	0.158	0.028
-563.558	54.057	-0.271	-0.261
-562.544	-7.073	-0.211	0.143
-561.529	-98.797	0.260	-0.066
-560.515	4.782	-0.257	-0.189
-559.500	342.299	0.146	0.285
-558.485	-125.152	-0.379	0.058
-557.471	-200.000	0.005	-0.096
-556.456	47.950	-0.239	0.223
-555.442	485.635	-0.128	0.292
-554.427	-200.000	0.041	-0.186
-553.412	-200.000	-0.074	-0.333
-552.398	800.000	0.052	0.200
-551.383	211.289	-0.034	0.053
-550.369	81.770	0.093	-0.100
-549.354	17.493	0.143	0.114
-548.339	29.662	0.101	0.086
-547.325	268.220	0.134	-0.234
-546.310	500.403	-0.076	-0.174
-545.296	800.000	0.124	-0.340
-544.281	800.000	-0.090	-0.310
-543.266	409.415	-0.076	-0.161
-542.252	800.000	-0.078	0.290
-541.237	254.861	-0.145	-0.248
-540.223	319.257	-0.076	0.144
-539.208	-49.944	-0.181	-0.086
-538.193	510.056	0.012	-0.027
-537.179	-174.714	0.126	0.004
-536.164	-28.670	0.216	-0.124
-535.150	-200.000	-0.001	0.087
-534.135	54.293	-0.057	0.055
-533.121	-161.660	-0.279	0.014
-532.106	19.959	0.113	-0.091
-531.091	-182.482	0.251	-0.005
-530.077	-109.268	-0.265	0.056
-529.062	-200.000	-0.003	-0.189
-528.048	-149.893	0.230	0.018
-527.033	-200.000	0.032	0.335
-526.018	800.000	0.089	0.284
-525.004	137.823	0.119	-0.156
-523.989	-200.000	0.022	-0.225
-522.975	-200.000	0.006	-0.142
-521.960	-113.893	-0.141	-0.027
-520.945	96.670	0.118	-0.134
-519.931	137.569	-0.202	0.264
-518.916	-200.000	0.008	-0.108
-517.902	307.334	-0.082	-0.153
-516.887	-97.489	-0.112	-0.029
-515.872	800.000	0.092	-0.256
-514.858	-107.426	-0.216	-0.047
-513.843	191.455	0.009	0.013
-512.829	62.822	-0.365	-0.364
-511.814	800.000	0.027	-0.085
-510.799	-48.773	-0.185	-0.088
-509.785	353.757	-0.173	-0.343
-508.770	192.436	-0.042	-0.063
-507.756	-101.526	-0.308	0.075
-506.741	138.530	-0.154	0.201
-505.726	-121.242	0.158	0.026
-504.712	-164.460	0.160	0.007
-503.697	-6.574	-0.273	0.185
-502.683	-114.528	0.307	-0.059
-501.668	193.816	-0.037	-0.055
-500.653	721.039	-0.072	-0.190
-499.639	290.801	0.137	-0.248
-498.624	27.476	-0.239	-0.200
-497.610	593.229	0.152	0.373
-496.595	800.000	0.051	-0.169
-495.581	24.247	-0.048	-0.040
-494.566	167.708	0.080	-0.114
-493.551	800.000	0.013	0.041
-492.537	800.000	-0.039	-0.113
-491.522	-200.000	-0.004	0.215
-490.508	49.520	-0.067	-0.063
-489.493	106.410	0.065	0.077
-488.478	165.317	0.140	-0.198
-487.464	-139.767	0.238	-0.025
-486.449	189.711	-0.082	-0.123
-485.435	-49.166	-0.302	0.144
-484.420	68.663	0.146	0.150
-483.405	31.817	0.056	-0.048
-482.391	800.000	-0.070	0.278
-481.376	-200.000	-0.071	-0.000
-480.362	-38.954	-0.072	0.038
-479.347	-27.503	0.069	-0.040
-478.332	-139.513	-0.149	-0.016
-477.318	65.317	-0.113	-0.113
-476.303	-16.717	0.140	0.088
-475.289	-39.905	-0.096	0.050
-474.274	11.658	-0.128	-0.098
-473.259	-118.323	0.062	0.011
-472.245	131.005	0.190	-0.244
-471.230	-134.631	-0.296	0.036
-470.216	252.974	0.112	0.189
-469.201	-118.382	0.208	0.037
-468.186	-11.827	-0.267	-0.174
-467.172	62.594	0.083	0.082
-466.157	-151.710	-0.138	-0.010
-465.143	-144.731	0.278	-0.025
-464.128	-200.000	-0.057	-0.355
-463.113	472.474	-0.047	0.105
-462.099	800.000	0.051	-0.186
-461.084	217.986	-0.211	-0.335
-460.070	305.395	0.064	0.119
-459.055	11.116	-0.136	-0.104
-458.040	329.243	-0.160	-0.306
-457.026	90.708	-0.087	0.096
-456.011	800.000	0.009	0.038
-454.997	54.881	0.294	0.282
-453.982	-91.456	0.238	0.068
-452.968	27.601	0.216	0.181
-451.953	173.198	-0.227	0.325
-450.938	152.812	-0.275	0.374
-449.924	-125.686	0.085	-0.013
-448.909	-133.515	0.243	-0.030
-447.895	-141.492	0.357	-0.036
-446.880	-200.000	0.047	-0.476
-445.865	-200.000	-0.015	0.103
-444.851	-39.743	-0.180	0.094
-443.836	170.801	0.224	0.319
-442.822	-144.668	-0.200	-0.018
-441.807	70.639	0.132	0.136
-440.792	752.122	0.036	0.096
-439.778	559.012	-0.057	0.137
-438.763	-53.014	0.092	0.042
-437.749	82.969	-0.149	-0.161
-436.734	-96.997	-0.184	0.048
-435.719	106.127	0.198	-0.233
-434.705	31.202	-0.095	0.081
-433.690	-34.233	-0.053	-0.029
-432.676	-11.392	0.040	-0.026
-431.661	6.136	0.060	-0.044
-430.646	257.431	0.126	0.215
-429.632	38.117	0.146	0.129
-428.617	-99.802	-0.187	0.047
-427.603	800.000	-0.071	0.220
-426.588	-103.683	0.160	-0.037
-425.573	16.506	-0.203	0.160
-424.559	373.834	-0.107	0.216
-423.544	-200.000	0.021	-0.218
-422.530	-108.844	0.038	0.008
-421.515	-200.000	-0.075	-0.471
-420.500	800.000	0.076	0.242
-419.486	-200.000	-0.036	-0.237
-418.471	-95.605	0.371	0.099
-417.457	-200.000	-0.007	-0.063
-416.442	1.817	0.231	-0.165
-415.428	-165.010	0.158	0.007
-414.413	95.944	0.130	-0.147
-413.398	8.222	0.161	-0.120
-412.384	-104.988	0.465	0.106
-411.369	67.327	-0.163	-0.166
-410.355	-68.775	-0.325	0.125
-409.340	800.000	-0.013	0.050
-408.325	-143.851	0.118	-0.011
-407.311	-82.509	-0.181	0.058
-406.296	-200.000	-0.059	0.349
-405.282	-168.962	-0.307	0.011
-404.267	132.126	0.005	0.006
-403.252	109.611	0.083	0.098
-402.238	558.964	0.083	0.198
-401.223	-11.833	0.351	0.229
-400.209	197.526	-0.121	0.184
-399.194	64.286	-0.138	0.138
-398.179	-49.981	0.347	-0.163
-397.165	-59.349	-0.280	0.120
-396.150	-142.168	-0.160	-0.016
-395.136	-36.716	0.096	-0.051
-394.121	240.873	-0.096	0.159
-393.106	-197.288	-0.141	0.001
-392.092	-95.121	0.262	0.070
-391.077	94.170	0.249	0.280
-390.063	326.442	0.172	0.326
-389.048	-200.000	-0.001	0.054
-388.033	-136.667	0.477	0.055
-387.019	61.885	0.081	0.080
-386.004	252.372	0.095	0.161
-384.990	-18.683	0.133	0.082
-383.975	26.036	0.134	0.111
-382.960	329.344	0.178	-0.340
-381.946	-110.679	-0.116	0.024
-380.931	-200.000	0.022	0.361
-379.917	42.070	0.122	0.110
-378.902	800.000	-0.059	-0.194
-377.888	17.887	0.125	-0.099
-376.873	54.948	0.219	-0.210
-375.858	-20.504	0.109	0.067
-374.844	159.139	0.100	-0.138
-373.829	-179.945	0.257	0.005
-372.815	789.616	-0.030	-0.083
-371.800	-200.000	0.052	-0.270
-370.785	267.931	0.019	-0.033
-369.771	-85.872	-0.031	0.010
-368.756	116.888	0.151	-0.184
-367.742	134.423	-0.162	0.209
-366.727	23.295	-0.205	0.167
-365.712	84.841	-0.062	0.067
-364.698	-200.000	-0.240	0.001
-363.683	621.155	0.090	-0.226
-362.669	141.144	-0.071	0.094
-361.654	32.749	0.040	0.035
-360.639	-200.000	0.008	-0.132
-359.625	193.941	-0.257	-0.385
-358.610	-200.000	-0.021	-0.243
-357.596	-200.000	-0.016	-0.322
-356.581	49.331	-0.178	-0.166
-355.566	-131.615	0.156	0.020
-354.552	23.660	-0.317	0.259
-353.537	-200.000	0.002	0.309
-352.523	183.193	-0.056	-0.082
-351.508	-131.293	-0.086	-0.011
-350.493	40.530	-0.213	-0.191
-349.479	147.735	-0.307	-0.410
-348.464	800.000	0.102	-0.292
-347.450	118.723	-0.022	0.027
-346.435	516.024	-0.112	-0.258
-345.420	-0.358	0.082	0.058
-344.406	-120.858	0.323	0.054
-343.391	800.000	-0.069	0.229
-342.377	112.540	-0.054	0.065
-341.362	552.880	0.058	0.137
-340.348	154.959	0.266	0.362
-339.333	-44.514	0.424	-0.210
-338.318	25.989	-0.342	0.283
-337.304	32.596	0.037	-0.032
-336.289	-25.894	-0.449	0.262
-335.275	360.920	-0.047	-0.094
-334.260	-134.401	0.133	-0.016
-333.245	-155.583	-0.180	-0.011
-332.231	-80.492	-0.084	0.028
-331.216	60.724	0.071	0.069
-330.202	-200.000	-0.014	-0.086
-329.187	800.000	-0.035	0.149
-328.172	2.386	-0.078	0.056
-327.158	-46.411	0.352	-0.171
-326.143	-108.945	-0.487	0.103
-325.129	164.180	0.210	-0.294
-324.114	800.000	0.026	0.086
-323.099	436.433	0.041	-0.089
-322.085	413.010	0.028	0.060
-321.070	-118.635	-0.342	0.060
-320.056	449.959	-0.148	0.322
-319.041	-200.000	-0.020	0.114
-318.026	103.547	0.087	0.101
-317.012	38.299	-0.062	-0.055
-315.997	-78.494	0.409	-0.139
-314.983	-200.000	0.075	-0.399
-313.968	224.147	0.131	0.210
-312.953	-68.552	0.129	0.049
-311.939	-189.209	-0.329	-0.004
-310.924	-78.182	0.277	0.094
-309.910	96.811	0.193	0.219
-308.895	172.958	0.279	-0.398
-307.880	-200.000	0.006	-0.077
-306.866	-196.217	0.232	0.002
-305.851	41.570	0.144	-0.129
-304.837	-200.000	0.076	-0.336
-303.822	-10.798	0.070	0.046
-302.807	800.000	-0.123	0.344
-301.793	800.000	-0.049	0.184
-300.778	-132.367	0.050	0.006
-299.764	-96.117	0.203	0.053
-298.749	5.853	0.240	0.175
-297.735	-200.000	-0.071	0.359
-296.720	-40.356	-0.042	-0.021
-295.705	-60.435	-0.186	-0.078
-294.691	126.796	-0.177	-0.222
-293.676	-145.085	-0.333	0.030
-292.662	101.247	0.090	-0.104
-291.647	-175.956	0.220	0.006
-290.632	-93.247	0.106	0.029
-289.618	-200.000	-0.034	0.258
-288.603	800.000	-0.155	0.510
-287.589	-163.818	-0.157	-0.007
-286.574	-74.362	0.171	0.061
-285.559	-6.059	0.103	0.069
-284.545	-200.000	0.011	-0.234
-283.530	89.826	-0.129	-0.142
-282.516	68.292	-0.399	0.404
-281.501	-200.000	0.083	0.413
-280.486	-85.301	-0.097	0.030
-279.472	730.295	0.029	-0.075
-278.457	24.963	-0.105	0.086
-277.443	800.000	0.065	-0.212
-276.428	-8.955	0.133	0.088
-275.413	-76.389	0.214	-0.074
-274.399	-25.269	-0.141	-0.082
-273.384	-69.742	0.416	0.157
-272.370	-91.782	0.236	-0.066
-271.355	499.682	-0.107	0.244
-270.340	117.670	-0.135	-0.164
-269.326	489.873	0.112	0.254
-268.311	-71.430	-0.168	-0.062
-267.297	-200.000	0.045	-0.232
-266.282	465.154	0.010	-0.021
-265.267	-20.208	0.124	0.075
-264.253	-200.000	-0.021	0.113
-263.238	113.148	0.144	0.173
-262.224	-133.683	-0.236	-0.029
-261.209	-8.869	0.285	0.188
-260.195	121.211	-0.095	-0.117
-259.180	425.173	-0.105	-0.222
-258.165	-25.831	0.211	0.123
-257.151	-149.129	-0.186	0.015
-256.136	-142.296	-0.387	-0.038
-255.122	479.240	0.108	-0.241
-254.107	-148.139	0.417	-0.034
-253.092	-20.001	0.119	-0.072
-252.078	-9.746	-0.268	0.177
-251.063	388.417	0.093	0.189
-250.049	-67.442	-0.153	0.059
-249.034	-200.000	0.049	0.216
-248.019	94.842	0.207	-0.233
-247.005	-66.593	-0.233	-0.091
-245.990	800.000	-0.119	-0.372
-244.976	73.272	0.164	0.170
-243.961	-17.129	0.342	-0.213
-242.946	-200.000	0.005	-0.186
-241.932	-200.000	-0.019	0.091
-240.917	-99.518	0.247	0.061
-239.903	-74.251	0.312	0.111
-238.888	-200.000	-0.011	0.103
-237.873	800.000	0.094	0.386
-236.859	-200.000	0.007	-0.165
-235.844	800.000	-0.220	-0.620
-234.830	-200.000	0.033	0.152
-233.815	-200.000	-0.021	0.189
-232.800	-200.000	-0.012	-0.178
-231.786	-104.312	0.126	-0.029
-230.771	-200.000	0.055	0.269
-229.757	800.000	-0.113	0.358
-228.742	-200.000	-0.047	-0.370
-227.727	-54.189	0.285	-0.128
-226.713	-148.223	0.022	0.002
-225.698	-4.061	0.200	0.137
-224.684	667.120	0.045	0.115
-223.669	382.680	-0.136	0.275
-222.655	73.469	-0.041	-0.042
-221.640	-164.400	-0.143	-0.006
-220.625	-34.287	0.078	-0.042
-219.611	531.287	-0.074	-0.173
-218.596	168.077	-0.073	-0.102
-217.582	-53.211	-0.122	-0.055
-216.567	272.356	-0.034	0.059
-215.552	99.431	0.126	0.144
-214.538	3.527	-0.107	0.077
-213.523	-85.641	0.416	0.128
-212.509	562.457	-0.087	-0.209
-211.494	800.000	-0.030	-0.106
-210.479	-200.000	0.002	-0.025
-209.465	-162.336	0.410	-0.020
-208.450	-200.000	-0.009	0.066
-207.436	163.996	-0.135	-0.188
-206.421	264.466	0.095	0.162
-205.406	546.110	0.005	-0.011
-204.392	800.000	0.051	0.168
-203.377	-34.689	0.124	0.067
-202.363	800.000	-0.080	-0.318
-201.348	-68.118	-0.334	0.128
-200.333	95.131	0.126	0.142
-199.319	-200.000	-0.007	0.344
-198.304	41.525	0.219	0.195
-197.290	-200.000	-0.017	-0.199
-196.275	244.869	-0.053	-0.088
-195.260	-81.536	-0.345	0.112
-194.246	42.544	0.063	-0.056
-193.231	-38.290	-0.111	0.058
-192.217	667.906	-0.058	-0.147
-191.202	-85.592	-0.148	-0.045
-190.187	-200.000	0.004	-0.064
-189.173	-101.335	-0.093	-0.022
-188.158	-187.041	-0.175	0.002
-187.144	800.000	-0.021	-0.061
-186.129	-200.000	0.002	-0.125
-185.114	86.454	0.078	-0.085
-184.100	197.760	-0.049	0.073
-183.085	37.203	-0.158	0.138
-182.071	55.330	-0.256	-0.244
-181.056	-9.113	0.037	-0.024
-180.042	-90.910	-0.320	0.091
-179.027	80.846	0.060	-0.063
-178.012	-32.495	-0.113	0.062
-176.998	722.373	-0.047	-0.124
-175.983	19.296	0.154	0.122
-174.969	800.000	-0.054	0.185
-173.954	140.953	0.184	0.239
-172.939	21.138	-0.053	-0.042
-171.925	-36.481	-0.298	0.158
-170.910	-96.137	-0.141	0.037
-169.896	-200.000	0.005	-0.052
-168.881	-127.568	-0.195	-0.028
-167.866	800.000	0.015	0.054
-166.852	312.284	-0.083	-0.153
-165.837	646.010	0.080	0.202
-164.823	641.759	0.028	0.070
-163.808	60.875	0.223	0.217
-162.793	166.414	0.119	-0.166
-161.779	179.979	0.251	0.362
-160.764	-77.198	-0.146	-0.050
-159.750	263.620	0.232	0.396
-158.735	-200.000	0.020	-0.108
-157.720	-200.000	0.007	-0.150
-156.706	-200.000	0.011	0.265
-155.691	435.058	-0.042	0.089
-154.677	92.374	-0.174	-0.193
-153.662	800.000	0.083	-0.253
-152.647	182.478	0.029	0.043
-151.633	-200.000	0.038	0.278
-150.618	362.034	-0.085	0.168
-149.604	800.000	-0.102	0.309
-148.589	-120.255	0.273	0.046
-147.574	450.567	-0.130	0.281
-146.560	348.294	0.126	0.245
-145.545	30.288	-0.281	0.236
-144.531	114.476	-0.167	-0.200
-143.516	-85.213	0.375	0.115
-142.502	-33.603	-0.224	-0.122
-141.487	317.803	0.112	0.207
-140.472	800.000	0.084	-0.331
-139.458	800.000	-0.045	-0.124
-138.443	-57.105	-0.041	0.018
-137.429	199.911	0.078	-0.118
-136.414	189.878	0.108	-0.159
-135.399	359.883	-0.258	0.507
-134.385	456.003	0.141	0.308
-133.370	141.368	0.114	0.148
-132.356	-143.248	0.065	-0.006
-131.341	491.887	-0.105	-0.236
-130.326	-84.783	-0.142	-0.044
-129.312	-65.130	0.082	0.032
-128.297	252.610	-0.101	-0.169
-127.283	-200.000	-0.021	0.240
-126.268	800.000	0.063	-0.174
-125.253	800.000	0.095	0.298
-124.239	-54.763	-0.234	-0.104
-123.224	-49.893	-0.070	-0.033
-122.210	254.605	0.169	-0.284
-121.195	800.000	0.014	0.057
-120.180	-43.279	-0.100	-0.050
