DTS Sentinel unit serial number:	SN413079Multiplexer serial number:	ORYXHardware model number:	OX4-SRSoftware version number:	ORYX F/W v4.00 Oryx Data Collector v3.7.2.0data status	okinstallation	princeton_trtdifferential loss correction	single-endedforward channel	channel 1reverse channel	N/Adate	2019/09/18time	02:18:35forward acquisition time	60.00reverse acquisition time	0.00gamma	496.2192k internal	0.2340k external	0.2340temperature offset calibration	0.9982default loss term (dB/km)	0.3790temperature slope calibration	1.0000multiplexer offset coefficient	1.0000multiplexer slope coefficient	1.0000fibre end	0.00T internal ref (°C)	22.81T ext. ref 1 (°C)	0.15T ext. ref 2 (°C)	16.74length (m)	temperature (°C)	Stokes	anti-Stokes-747.200	295.769	-0.124	0.228
-746.185	-200.000	-0.001	0.186
-745.171	800.000	-0.035	0.124
-744.156	67.670	-0.206	0.211
-743.142	800.000	0.103	-0.316
-742.127	-0.486	-0.352	0.251
-741.112	-65.370	0.199	-0.080
-740.098	109.445	-0.151	0.181
-739.083	356.617	0.181	-0.362
-738.069	-162.372	-0.119	0.006
-737.054	-200.000	-0.024	-0.196
-736.039	95.150	-0.359	-0.410
-735.025	-71.985	0.224	0.083
-734.010	-101.684	-0.526	-0.128
-732.996	-200.000	-0.013	-0.267
-731.981	-34.297	0.284	0.156
-730.966	800.000	-0.043	0.178
-729.952	-200.000	0.010	-0.196
-728.937	330.478	0.043	-0.083
-727.923	219.965	-0.114	0.183
-726.908	-106.413	0.272	-0.061
-725.894	-157.515	-0.197	0.012
-724.879	119.660	-0.222	-0.276
-723.864	82.536	-0.162	-0.177
-722.850	-200.000	0.018	-0.135
-721.835	-80.023	-0.168	-0.056
-720.821	-152.189	0.183	0.013
-719.806	68.538	0.126	0.129
-718.791	69.625	0.145	-0.150
-717.777	169.342	-0.081	-0.116
-716.762	-132.335	-0.363	-0.047
-715.748	178.464	-0.150	0.219
-714.733	-200.000	-0.038	-0.188
-713.718	-102.360	-0.049	0.012
-712.704	324.438	-0.097	-0.186
-711.689	100.927	-0.139	-0.162
-710.675	126.258	-0.101	-0.128
-709.660	-200.000	0.019	0.169
-708.645	-100.951	-0.186	-0.046
-707.631	-65.246	0.363	0.147
-706.616	298.029	0.181	0.333
-705.602	210.506	-0.035	-0.055
-704.587	53.887	-0.147	-0.141
-703.572	319.473	0.093	0.177
-702.558	540.653	0.081	0.192
-701.543	183.820	-0.119	-0.176
-700.529	520.712	-0.034	0.081
-699.514	-200.000	0.005	-0.162
-698.499	-73.610	-0.431	-0.157
-697.485	20.986	-0.091	-0.074
-696.470	-117.245	-0.088	0.016
-695.456	-28.816	0.178	0.102
-694.441	299.036	0.055	0.101
-693.426	567.566	-0.135	0.328
-692.412	247.980	0.187	0.317
-691.397	84.805	-0.084	0.093
-690.383	121.545	-0.152	-0.189
-689.368	-185.001	0.181	-0.003
-688.354	-12.560	0.082	0.053
-687.339	-73.610	-0.408	-0.149
-686.324	-155.422	-0.088	0.006
-685.310	-200.000	-0.001	0.074
-684.295	229.433	-0.041	0.068
-683.281	-200.000	0.036	0.285
-682.266	228.267	-0.088	0.144
-681.251	-200.000	-0.039	0.175
-680.237	608.263	-0.117	-0.291
-679.222	68.027	-0.173	-0.177
-678.208	-200.000	0.076	0.343
-677.193	-200.000	0.021	-0.133
-676.178	151.113	-0.090	-0.122
-675.164	-91.521	0.403	-0.115
-674.149	800.000	-0.058	0.242
-673.135	800.000	-0.062	-0.236
-672.120	-58.181	0.251	0.109
-671.105	75.605	-0.130	-0.138
-670.091	64.665	0.089	0.090
-669.076	-39.272	-0.471	0.247
-668.062	312.424	0.136	-0.256
-667.047	100.606	0.036	-0.042
-666.032	-99.907	-0.139	0.035
-665.018	-44.283	0.229	0.115
-664.003	159.698	0.058	0.081
-662.989	-41.338	-0.151	-0.078
-661.974	118.251	-0.302	-0.372
-660.959	292.759	-0.078	0.142
-659.945	-200.000	-0.037	0.174
-658.930	-68.240	0.255	0.099
-657.916	-200.000	-0.011	-0.395
-656.901	55.266	-0.131	-0.127
-655.886	52.466	0.246	-0.235
-654.872	608.762	0.089	-0.222
-653.857	-193.892	-0.237	0.002
-652.843	-45.753	-0.148	0.073
-651.828	-200.000	-0.052	-0.241
-650.814	800.000	0.027	0.075
-649.799	-143.535	0.125	0.012
-648.784	-200.000	-0.033	0.303
-647.770	39.127	0.202	0.180
-646.755	-200.000	0.039	0.364
-645.741	-200.000	0.018	0.136
-644.726	-102.108	0.090	-0.022
-643.711	-105.328	-0.400	-0.091
-642.697	-48.205	0.107	0.052
-641.682	195.949	0.143	-0.218
-640.668	-75.204	-0.202	-0.072
-639.653	-59.510	-0.225	0.096
-638.638	800.000	0.072	-0.230
-637.624	248.650	-0.005	-0.008
-636.609	-85.193	0.127	0.040
-635.595	391.724	-0.066	-0.136
-634.580	-168.928	0.170	0.006
-633.565	64.417	-0.181	0.182
-632.551	-154.310	-0.088	0.006
-631.536	-104.082	0.252	-0.059
-630.522	178.619	0.339	-0.495
-629.507	-200.000	0.037	0.221
-628.492	-200.000	-0.005	0.061
-627.478	270.620	0.160	-0.282
-626.463	34.972	0.094	0.082
-625.449	-200.000	0.036	-0.318
-624.434	501.754	-0.031	-0.071
-623.419	800.000	0.082	-0.275
-622.405	-175.936	-0.113	-0.003
-621.390	243.805	0.065	0.109
-620.376	-3.009	-0.258	-0.180
-619.361	560.503	-0.111	-0.268
-618.346	343.348	-0.131	-0.256
-617.332	-200.000	-0.034	0.542
-616.317	-17.485	0.180	0.113
-615.303	-200.000	-0.047	0.345
-614.288	-39.949	-0.233	0.121
-613.273	-6.151	0.213	0.145
-612.259	-42.279	-0.090	0.046
-611.244	142.813	-0.056	0.075
-610.230	623.137	-0.046	-0.116
-609.215	-163.121	-0.193	0.009
-608.201	-200.000	0.015	0.319
-607.186	20.482	-0.158	-0.127
-606.171	-18.276	-0.266	-0.166
-605.157	386.859	0.098	-0.202
-604.142	-36.226	0.290	-0.156
-603.128	-30.007	-0.275	-0.156
-602.113	9.065	-0.055	-0.042
-601.098	-200.000	0.039	-0.244
-600.084	-174.837	-0.348	0.010
-599.069	-34.449	0.129	0.070
-598.055	-47.739	-0.198	0.096
-597.040	800.000	0.030	-0.122
-596.025	-66.882	-0.041	-0.016
-595.011	7.866	0.048	-0.036
-593.996	-42.898	0.178	-0.090
-592.982	-97.961	0.273	0.070
-591.967	-200.000	-0.009	0.089
-590.952	154.557	0.156	0.214
-589.938	-80.109	-0.561	-0.187
-588.923	-200.000	-0.002	0.013
-587.909	359.686	-0.034	0.069
-586.894	105.527	0.212	-0.249
-585.879	61.564	0.129	-0.128
-584.865	-17.955	-0.055	-0.035
-583.850	212.849	-0.089	-0.140
-582.836	-30.738	-0.064	-0.036
-581.821	-140.845	-0.194	0.020
-580.806	-154.815	-0.405	-0.027
-579.792	-200.000	0.004	0.046
-578.777	-16.901	0.088	-0.055
-577.763	-104.124	0.336	-0.078
-576.748	-160.198	-0.087	-0.005
-575.733	-130.087	0.143	-0.019
-574.719	-38.158	0.157	-0.083
-573.704	-131.680	-0.425	0.056
-572.690	26.150	-0.141	0.117
-571.675	-89.191	0.439	0.129
-570.661	800.000	-0.106	0.407
-569.646	-160.721	0.168	0.009
-568.631	-18.165	0.210	-0.131
-567.617	-55.094	-0.111	-0.050
-566.602	46.392	0.099	0.091
-565.588	-185.367	0.182	0.003
-564.573	99.482	-0.063	0.073
-563.558	-129.008	-0.433	0.060
-562.544	36.685	0.042	0.037
-561.529	800.000	0.043	-0.145
-560.515	800.000	-0.099	-0.384
-559.500	-200.000	0.014	0.145
-558.485	-18.961	0.237	0.147
-557.471	-200.000	0.007	0.097
-556.456	-110.073	-0.363	-0.075
-555.442	-200.000	-0.011	0.296
-554.427	-200.000	0.000	0.185
-553.412	-171.285	0.076	-0.003
-552.398	-181.888	-0.146	-0.003
-551.383	800.000	-0.075	0.268
-550.369	-200.000	-0.057	0.340
-549.354	406.998	-0.070	-0.147
-548.339	491.043	0.057	0.131
-547.325	-200.000	0.003	-0.233
-546.310	-200.000	-0.042	-0.353
-545.296	166.435	-0.203	-0.286
-544.281	-200.000	0.057	-0.325
-543.266	-142.590	0.333	0.032
-542.252	70.353	-0.127	0.131
-541.237	104.063	-0.157	0.184
-540.223	335.322	-0.226	0.435
-539.208	121.685	0.174	0.215
-538.193	31.669	-0.137	0.117
-537.179	251.856	0.192	0.326
-536.164	-200.000	-0.005	-0.104
-535.150	-89.384	0.335	-0.098
-534.135	-200.000	0.032	0.281
-533.121	-200.000	-0.009	0.101
-532.106	-200.000	-0.058	0.651
-531.091	600.731	0.148	0.367
-530.077	-95.078	0.125	0.033
-529.062	-200.000	-0.017	0.097
-528.048	92.324	0.099	-0.111
-527.033	-132.507	-0.314	-0.040
-526.018	-200.000	-0.067	-0.454
-525.004	370.485	-0.106	0.214
-523.989	800.000	0.032	-0.122
-522.975	-91.558	0.104	0.029
-521.960	-13.878	-0.112	-0.072
-520.945	-61.668	0.183	0.076
-519.931	-112.862	0.321	0.063
-518.916	110.069	0.174	-0.208
-517.902	6.579	-0.171	0.126
-516.887	79.145	-0.078	-0.083
-515.872	16.863	0.104	0.082
-514.858	282.872	-0.199	-0.356
-513.843	150.960	-0.106	-0.143
-512.829	-200.000	-0.000	-0.014
-511.814	-200.000	0.010	-0.159
-510.799	-138.277	0.182	0.020
-509.785	103.882	0.197	-0.230
-508.770	-112.320	0.080	-0.016
-507.756	-200.000	0.005	-0.126
-506.741	-97.214	-0.214	-0.056
-505.726	109.720	0.104	-0.124
-504.712	800.000	-0.026	-0.087
-503.697	-190.333	-0.350	-0.004
-502.683	-88.179	-0.208	0.062
-501.668	800.000	-0.031	-0.090
-500.653	-128.251	-0.392	-0.056
-499.639	-200.000	0.001	-0.177
-498.624	-95.530	0.072	0.019
-497.610	156.326	0.209	0.286
-496.595	800.000	-0.047	-0.148
-495.581	-38.705	-0.106	0.056
-494.566	-160.936	0.199	-0.010
-493.551	-114.263	0.321	-0.062
-492.537	536.139	0.026	0.061
-491.522	27.281	-0.207	0.173
-490.508	-129.954	0.133	0.018
-489.493	-200.000	0.016	-0.083
-488.478	-151.351	0.410	-0.030
-487.464	725.520	0.131	-0.346
-486.449	514.433	0.085	-0.196
-485.435	651.920	0.089	-0.227
-484.420	433.166	0.081	-0.174
-483.405	-73.963	0.192	0.069
-482.391	-82.839	0.039	-0.013
-481.376	800.000	-0.064	-0.223
-480.362	-76.932	0.351	-0.122
-479.347	-200.000	0.022	-0.204
-478.332	-200.000	0.013	-0.071
-477.318	491.541	-0.012	0.026
-476.303	283.303	-0.036	0.064
-475.289	800.000	0.078	-0.302
-474.274	-77.373	-0.168	-0.058
-473.259	50.861	-0.234	0.220
-472.245	-200.000	-0.010	0.160
-471.230	-136.102	-0.385	-0.045
-470.216	-109.227	-0.185	-0.039
-469.201	-200.000	0.006	-0.241
-468.186	-87.008	-0.104	-0.031
-467.172	192.780	0.097	0.145
-466.157	-200.000	0.019	0.251
-465.143	29.645	0.178	-0.150
-464.128	-62.524	0.367	-0.151
-463.113	368.545	0.041	0.083
-462.099	105.033	0.277	0.324
-461.084	-161.282	0.151	0.008
-460.070	800.000	0.032	-0.119
-459.055	-154.015	-0.254	-0.017
-458.040	-71.777	0.422	-0.156
-457.026	650.586	-0.084	0.212
-456.011	-160.545	-0.280	0.015
-454.997	-31.657	0.155	-0.086
-453.982	-79.802	0.335	0.112
-452.968	-92.246	-0.403	-0.113
-451.953	800.000	0.166	0.544
-450.938	-200.000	0.016	-0.119
-449.924	57.097	-0.133	-0.128
-448.909	8.294	0.091	0.068
-447.895	67.701	0.083	0.084
-446.880	800.000	-0.038	0.130
-445.865	-131.312	-0.528	-0.069
-444.851	115.366	-0.087	0.106
-443.836	181.390	-0.107	0.156
-442.822	-47.965	-0.132	0.063
-441.807	186.346	-0.127	0.187
-440.792	766.420	-0.037	0.100
-439.778	229.457	0.178	-0.289
-438.763	-79.455	-0.170	-0.057
-437.749	-127.532	0.207	-0.030
-436.734	107.159	-0.074	0.088
-435.719	53.393	0.168	0.159
-434.705	-53.835	-0.045	-0.020
-433.690	-200.000	-0.061	-0.393
-432.676	-102.779	-0.211	-0.050
-431.661	-32.364	-0.229	-0.126
-430.646	-96.417	-0.301	-0.079
-429.632	260.717	0.173	-0.297
-428.617	150.805	-0.105	-0.141
-427.603	668.082	0.065	0.167
-426.588	422.076	-0.149	-0.317
-425.573	8.367	-0.036	0.027
-424.559	408.449	-0.048	0.100
-423.544	381.648	-0.123	0.250
-422.530	19.356	0.254	-0.202
-421.515	-136.743	-0.411	0.047
-420.500	16.538	0.108	0.085
-419.486	70.596	0.186	0.190
-418.471	-100.781	0.137	0.033
-417.457	95.986	-0.161	-0.182
-416.442	-65.926	-0.105	-0.042
-415.428	-200.000	-0.007	-0.307
-414.413	-200.000	0.042	-0.190
-413.398	138.891	0.207	0.269
-412.384	-99.898	0.286	-0.071
-411.369	800.000	-0.052	0.185
-410.355	5.976	-0.237	0.174
-409.340	421.804	0.063	0.134
-408.325	59.118	-0.090	-0.087
-407.311	11.997	-0.281	-0.214
-406.296	-120.181	-0.226	-0.038
-405.282	255.267	-0.036	0.061
-404.267	-17.356	-0.096	0.060
-403.252	-140.962	-0.239	0.024
-402.238	120.497	0.252	-0.310
-401.223	800.000	0.060	-0.240
-400.209	-200.000	0.057	-0.325
-399.194	-67.377	0.216	0.084
-398.179	39.322	-0.301	0.266
-397.165	800.000	-0.083	-0.344
-396.150	-33.952	-0.168	0.091
-395.136	-44.645	0.250	-0.123
-394.121	548.051	-0.077	0.182
-393.106	464.519	-0.130	0.288
-392.092	-158.918	-0.423	0.024
-391.077	17.100	-0.040	0.031
-390.063	9.268	-0.090	-0.067
-389.048	-100.742	-0.041	0.010
-388.033	119.276	0.114	0.139
-387.019	252.789	-0.039	0.066
-386.004	-135.294	-0.244	0.029
-384.990	-106.476	-0.177	0.039
-383.975	-200.000	0.036	-0.196
-382.960	-97.982	-0.260	0.066
-381.946	-68.380	0.249	-0.096
-380.931	-150.125	-0.094	0.007
-379.917	-76.166	-0.258	-0.090
-378.902	-165.668	0.250	-0.011
-377.888	-83.464	0.384	-0.121
-376.873	-27.102	0.323	0.186
-375.858	-101.750	-0.171	-0.041
-374.844	-73.700	0.183	0.066
-373.829	162.889	0.085	-0.118
-372.815	-102.210	-0.504	-0.120
-371.800	-112.051	-0.146	-0.029
-370.785	533.747	0.048	0.111
-369.771	800.000	0.133	-0.447
-368.756	62.566	0.065	-0.064
-367.742	242.748	-0.054	-0.090
-366.727	800.000	-0.048	-0.186
-365.712	-200.000	0.064	0.340
-364.698	800.000	-0.051	0.148
-363.683	-200.000	0.013	0.104
-362.669	-9.521	0.254	0.167
-361.654	-21.409	0.207	0.125
-360.639	5.407	-0.340	0.248
-359.625	-200.000	-0.032	0.224
-358.610	-81.966	0.058	0.019
-357.596	34.526	0.379	-0.327
-356.581	51.435	-0.297	-0.278
-355.566	131.077	-0.217	0.275
-354.552	229.073	0.217	0.349
-353.537	800.000	-0.030	0.130
-352.523	-200.000	-0.051	0.357
-351.508	-33.084	0.068	0.037
-350.493	-103.095	0.180	-0.042
-349.479	176.942	-0.358	0.514
-348.464	271.972	-0.301	-0.525
-347.450	-116.789	0.641	-0.116
-346.435	-200.000	-0.023	-0.141
-345.420	46.466	-0.121	-0.111
-344.406	-123.227	0.245	-0.039
-343.391	97.462	-0.226	-0.256
-342.377	800.000	0.050	-0.160
-341.362	183.408	-0.228	-0.333
-340.348	743.172	0.120	0.318
-339.333	800.000	-0.044	0.130
-338.318	-154.244	0.234	0.016
-337.304	-33.136	-0.138	0.075
-336.289	84.819	-0.185	-0.200
-335.275	-200.000	0.043	0.277
-334.260	-62.163	0.213	-0.088
-333.245	590.466	-0.111	0.270
-332.231	32.820	0.091	0.078
-331.216	-136.315	0.123	-0.014
-330.202	480.956	-0.076	-0.170
-329.187	-73.157	0.415	-0.150
-328.172	-62.901	-0.136	0.055
-327.158	-46.345	0.204	-0.099
-326.143	-200.000	-0.032	-0.263
-325.129	200.350	0.092	-0.139
-324.114	104.005	-0.161	-0.187
-323.099	-61.963	0.230	0.095
-322.085	-146.678	0.034	0.003
-321.070	-11.688	0.223	-0.144
-320.056	-39.922	0.104	-0.054
-319.041	-176.889	0.105	-0.003
-318.026	800.000	-0.080	-0.297
-317.012	277.224	0.098	-0.171
-315.997	60.161	-0.026	0.025
-314.983	-127.935	0.073	0.010
-313.968	-58.066	-0.225	0.097
-312.953	134.246	-0.134	0.171
-311.939	-200.000	-0.066	0.399
-310.924	-25.501	-0.240	-0.140
-309.910	415.202	0.085	-0.179
-308.895	143.357	0.219	0.288
-307.880	-148.546	-0.174	-0.014
-306.866	-180.966	-0.341	-0.007
-305.851	800.000	0.006	0.018
-304.837	153.520	-0.193	0.261
-303.822	3.106	-0.085	-0.061
-302.807	-31.737	0.246	-0.136
-301.793	182.103	0.159	-0.231
-300.778	70.215	0.092	0.094
-299.764	-200.000	-0.004	-0.189
-298.749	99.350	-0.085	0.097
-297.735	-34.300	-0.397	-0.215
-296.720	-184.903	0.054	-0.001
-295.705	188.045	0.121	-0.177
-294.691	-200.000	0.054	-0.258
-293.676	-107.107	0.074	-0.016
-292.662	800.000	0.043	0.150
-291.647	-200.000	-0.007	-0.175
-290.632	496.254	0.073	0.166
-289.618	-200.000	0.050	0.219
-288.603	-47.737	0.144	0.069
-287.589	52.592	-0.118	0.111
-286.574	239.864	0.142	-0.233
-285.559	-130.782	-0.168	0.022
-284.545	456.285	0.051	0.111
-283.530	-13.828	-0.470	-0.299
-282.516	27.034	0.190	-0.157
-281.501	-96.931	0.238	0.061
-280.486	-186.273	-0.183	-0.003
-279.472	46.047	-0.025	-0.023
-278.457	-89.777	0.383	0.110
-277.443	800.000	0.112	-0.414
-276.428	800.000	-0.021	-0.090
-275.413	-38.696	-0.169	0.088
-274.399	124.868	0.050	-0.062
-273.384	-123.026	-0.158	-0.025
-272.370	78.795	0.144	-0.151
-271.355	-40.101	0.206	-0.106
-270.340	-127.654	-0.276	-0.039
-269.326	-56.137	0.211	0.093
-268.311	538.962	-0.159	-0.372
-267.297	-200.000	-0.005	-0.060
-266.282	-50.528	0.147	-0.068
-265.267	-169.273	-0.154	0.006
-264.253	-39.540	0.195	0.100
-263.238	-118.284	-0.271	-0.047
-262.224	-75.537	0.246	0.086
-261.209	24.071	-0.292	-0.237
-260.195	151.452	0.072	-0.096
-259.180	97.260	0.179	0.203
-258.165	52.725	-0.292	0.275
-257.151	67.163	0.217	0.218
-256.136	-67.725	0.190	-0.073
-255.122	800.000	0.033	0.133
-254.107	-44.645	0.057	0.028
-253.092	800.000	0.031	0.110
-252.078	-93.741	-0.181	0.049
-251.063	1.830	0.158	-0.112
-250.049	-56.155	0.299	-0.131
-249.034	-1.275	0.146	-0.101
-248.019	-72.741	-0.095	-0.034
-247.005	-151.683	-0.299	0.022
-245.990	401.687	0.067	0.139
-244.976	-68.558	-0.065	0.025
-243.961	800.000	0.065	0.249
-242.946	-165.429	-0.303	0.013
-241.932	-94.335	0.368	0.099
-240.917	365.193	0.064	0.126
-239.903	800.000	0.038	-0.160
-238.888	-95.585	0.251	-0.066
-237.873	68.224	-0.224	0.225
-236.859	-8.599	0.375	0.248
-235.844	800.000	0.046	0.163
-234.830	153.307	-0.066	0.089
-233.815	-200.000	-0.020	0.301
-232.800	-200.000	0.050	-0.365
-231.786	-125.772	0.150	0.022
-230.771	-40.265	0.256	0.131
-229.757	800.000	0.065	-0.191
-228.742	-200.000	-0.044	-0.505
-227.727	472.745	0.119	-0.263
-226.713	14.568	0.127	0.097
-225.698	76.994	-0.031	-0.033
-224.684	225.701	0.204	0.324
-223.669	-7.437	-0.237	0.157
-222.655	9.544	-0.078	-0.058
-221.640	800.000	0.054	0.188
-220.625	-171.843	-0.420	0.013
-219.611	-110.080	0.248	-0.051
-218.596	10.928	-0.036	-0.027
-217.582	143.365	-0.332	0.434
-216.567	237.054	-0.085	0.139
-215.552	-200.000	-0.006	0.056
-214.538	152.714	-0.045	0.060
-213.523	-79.014	0.224	0.075
-212.509	-10.127	-0.102	-0.066
-211.494	101.305	0.084	0.096
-210.479	127.540	-0.038	-0.047
-209.465	800.000	0.128	-0.407
-208.450	-35.897	0.185	0.098
-207.436	-200.000	-0.013	0.082
-206.421	5.565	-0.145	0.105
-205.406	41.589	-0.258	0.229
-204.392	20.226	-0.102	-0.080
-203.377	-200.000	0.028	-0.260
-202.363	-69.961	0.132	0.049
-201.348	-200.000	0.003	0.033
-200.333	-200.000	0.001	0.136
-199.319	-200.000	0.005	-0.072
-198.304	-81.857	0.330	0.106
-197.290	-200.000	0.026	-0.481
-196.275	69.562	-0.140	-0.141
-195.260	-200.000	0.046	0.273
-194.246	-110.179	-0.171	0.035
-193.231	-200.000	-0.007	0.467
-192.217	362.085	-0.043	-0.085
-191.202	-62.196	-0.253	0.103
-190.187	800.000	0.055	-0.229
-189.173	800.000	-0.075	-0.246
-188.158	26.884	0.086	-0.071
-187.144	294.204	0.062	-0.112
-186.129	20.999	-0.076	0.061
-185.114	-63.232	-0.224	0.091
-184.100	800.000	-0.053	0.173
-183.085	800.000	-0.016	0.064
-182.071	54.394	0.399	0.377
-181.056	-3.501	0.042	0.028
-180.042	-178.925	0.068	-0.002
-179.027	280.930	0.081	0.143
-178.012	392.372	0.086	0.175
-176.998	239.387	0.002	-0.004
-175.983	773.450	-0.122	-0.327
-174.969	-67.325	-0.211	0.081
-173.954	-200.000	-0.014	0.331
-172.939	-156.924	-0.174	-0.010
-171.925	-111.635	0.386	0.077
-170.910	-200.000	-0.003	0.092
-169.896	311.513	-0.062	-0.115
-168.881	-200.000	0.010	0.174
-167.866	-41.810	-0.118	0.059
-166.852	-177.233	0.216	0.005
-165.837	-0.559	0.303	0.211
-164.823	-200.000	0.043	0.437
-163.808	-113.068	-0.142	-0.027
-162.793	-82.895	0.077	-0.024
-161.779	-200.000	-0.009	0.201
-160.764	800.000	0.043	0.170
-159.750	-0.733	-0.085	-0.059
-158.735	32.311	0.187	-0.159
-157.720	-89.217	0.197	-0.057
-156.706	9.151	-0.091	-0.067
-155.691	184.250	-0.035	-0.051
-154.677	-65.887	-0.251	0.098
-153.662	173.256	0.073	0.104
-152.647	498.604	-0.092	-0.207
-151.633	22.550	-0.068	0.054
-150.618	502.997	-0.145	0.329
-149.604	137.869	0.082	-0.106
-148.589	-71.132	-0.031	0.011
-147.574	-143.214	-0.146	0.014
-146.560	-92.763	0.145	-0.040
-145.545	-61.281	0.237	-0.098
-144.531	-78.184	-0.200	-0.067
-143.516	-13.286	-0.060	-0.038
-142.502	453.376	0.183	0.397
-141.487	-174.397	-0.104	0.003
-140.472	15.157	-0.094	-0.072
-139.458	-18.641	0.030	-0.018
-138.443	247.837	0.078	-0.129
-137.429	83.592	0.159	0.169
-136.414	800.000	-0.067	0.215
-135.399	-49.105	-0.252	0.118
-134.385	-200.000	0.036	-0.419
-133.370	64.668	-0.313	-0.309
-132.356	800.000	0.048	0.135
-131.341	-101.420	-0.395	0.094
-130.326	-168.098	-0.217	-0.008
-129.312	101.199	0.184	-0.209
-128.297	4.387	0.150	-0.108
-127.283	326.702	0.076	0.142
-126.268	74.995	0.081	0.084
-125.253	206.951	-0.109	0.166
-124.239	-200.000	0.037	-0.285
-123.224	-149.291	-0.149	-0.012
-122.210	-178.794	0.175	0.004
