DTS Sentinel unit serial number:	SN413079Multiplexer serial number:	ORYXHardware model number:	OX4-SRSoftware version number:	ORYX F/W v4.00 Oryx Data Collector v3.7.2.0data status	okinstallation	princeton_trtdifferential loss correction	single-endedforward channel	channel 1reverse channel	N/Adate	2019/09/15time	08:18:35forward acquisition time	60.00reverse acquisition time	0.00gamma	496.2192k internal	0.2323k external	0.2323temperature offset calibration	0.9997default loss term (dB/km)	0.3790temperature slope calibration	1.0000multiplexer offset coefficient	1.0000multiplexer slope coefficient	1.0000fibre end	0.00T internal ref (°C)	31.19T ext. ref 1 (°C)	5.01T ext. ref 2 (°C)	28.25length (m)	temperature (°C)	Stokes	anti-Stokes-747.200	-16.000	-0.129	-0.083
-746.185	55.829	-0.308	0.302
-745.171	644.662	-0.025	0.065
-744.156	-10.902	-0.131	-0.087
-743.142	800.000	-0.068	-0.244
-742.127	201.265	0.269	0.419
-741.112	21.142	-0.210	0.172
-740.098	-116.382	-0.318	0.059
-739.083	-140.699	-0.298	-0.031
-738.069	40.206	0.102	0.092
-737.054	-42.672	-0.240	-0.124
-736.039	96.620	-0.199	-0.230
-735.025	800.000	-0.038	0.133
-734.010	-24.730	0.175	-0.105
-732.996	-107.017	-0.329	-0.074
-731.981	-3.531	-0.345	0.242
-730.966	-58.519	-0.051	0.023
-729.952	-200.000	0.003	-0.415
-728.937	-200.000	-0.051	-0.295
-727.923	-87.091	0.220	0.068
-726.908	-118.208	-0.075	0.013
-725.894	441.745	0.065	-0.144
-724.879	54.170	-0.228	0.221
-723.864	800.000	0.042	-0.184
-722.850	-200.000	-0.041	-0.282
-721.835	39.873	-0.248	-0.224
-720.821	-62.303	-0.179	0.075
-719.806	26.630	-0.264	-0.223
-718.791	800.000	-0.120	-0.373
-717.777	-200.000	-0.169	0.000
-716.762	89.909	-0.026	0.030
-715.748	-200.000	-0.024	-0.268
-714.733	-151.092	0.093	0.007
-713.718	800.000	0.062	-0.267
-712.704	-90.193	-0.187	0.055
-711.689	355.535	-0.061	0.123
-710.675	-38.432	-0.280	-0.149
-709.660	800.000	-0.043	-0.169
-708.645	47.372	-0.166	0.156
-707.631	800.000	0.031	-0.132
-706.616	-84.711	-0.191	0.060
-705.602	-101.795	0.020	0.005
-704.587	-51.000	0.285	-0.135
-703.572	-39.702	0.081	0.043
-702.558	-75.515	0.177	-0.064
-701.543	190.111	-0.098	0.148
-700.529	-53.346	0.137	0.063
-699.514	134.241	-0.114	0.149
-698.499	800.000	0.059	-0.183
-697.485	-15.279	0.252	0.162
-696.470	-200.000	0.021	0.093
-695.456	129.788	-0.063	0.081
-694.441	-53.383	0.292	-0.135
-693.426	10.880	-0.124	-0.096
-692.412	-94.584	-0.231	0.063
-691.397	-200.000	-0.046	0.237
-690.383	-151.664	-0.193	0.014
-689.368	-200.000	-0.036	-0.238
-688.354	-193.180	0.243	0.002
-687.339	800.000	-0.075	0.222
-686.324	84.604	0.240	-0.264
-685.310	800.000	0.055	-0.173
-684.295	551.175	-0.137	-0.332
-683.281	-29.942	-0.253	-0.145
-682.266	-200.000	-0.014	-0.078
-681.251	-128.720	-0.084	-0.012
-680.237	-58.314	0.084	0.037
-679.222	-16.382	0.221	0.141
-678.208	800.000	-0.070	0.308
-677.193	-146.423	0.062	-0.005
-676.178	28.327	-0.090	0.077
-675.164	-200.000	-0.051	0.244
-674.149	800.000	0.110	-0.314
-673.135	800.000	-0.114	0.348
-672.120	-30.388	-0.184	-0.105
-671.105	-200.000	0.054	-0.269
-670.091	-9.726	-0.204	-0.137
-669.076	36.865	-0.229	-0.203
-668.062	800.000	0.036	0.128
-667.047	268.611	-0.121	-0.213
-666.032	-95.749	0.184	0.050
-665.018	-200.000	0.043	0.214
-664.003	-186.670	0.443	-0.006
-662.989	7.734	-0.162	-0.122
-661.974	21.958	-0.207	-0.170
-660.959	800.000	0.101	-0.280
-659.945	376.377	0.186	-0.382
-658.930	108.325	-0.090	-0.108
-657.916	-90.309	-0.259	-0.076
-656.901	648.641	0.061	-0.156
-655.886	22.145	0.286	-0.235
-654.872	800.000	0.067	-0.221
-653.857	-136.659	0.177	-0.021
-652.843	-139.278	-0.578	-0.063
-651.828	37.385	0.179	0.160
-650.814	-35.690	-0.298	0.163
-649.799	118.493	0.140	0.173
-648.784	337.685	0.210	0.410
-647.770	494.315	-0.135	-0.312
-646.755	-80.972	-0.213	-0.071
-645.741	-94.685	0.133	-0.036
-644.726	58.021	-0.070	-0.069
-643.711	41.199	-0.235	-0.214
-642.697	-105.759	-0.442	0.100
-641.682	-171.793	0.168	-0.006
-640.668	-26.280	0.248	-0.146
-639.653	-123.448	-0.468	-0.075
-638.638	85.317	0.133	-0.146
-637.624	-200.000	-0.029	-0.262
-636.609	143.151	-0.043	0.057
-635.595	-200.000	0.012	-0.151
-634.580	-60.971	0.238	-0.101
-633.565	-200.000	-0.063	0.364
-632.551	104.048	-0.050	-0.059
-631.536	-200.000	0.036	-0.306
-630.522	-69.979	-0.131	-0.050
-629.507	-65.051	-0.136	0.055
-628.492	13.050	0.156	0.121
-627.478	90.509	-0.059	0.066
-626.463	-200.000	-0.023	0.150
-625.449	90.590	0.186	-0.209
-624.434	263.500	-0.168	-0.294
-623.419	-56.004	-0.073	0.033
-622.405	33.542	-0.104	0.091
-621.390	-63.436	-0.145	-0.060
-620.376	85.969	0.272	-0.300
-619.361	-114.715	-0.250	-0.048
-618.346	-188.813	0.145	0.002
-617.332	-200.000	-0.018	-0.130
-616.317	-22.237	-0.140	-0.085
-615.303	40.412	-0.031	-0.028
-614.288	-135.677	0.164	-0.020
-613.273	-20.707	-0.248	0.153
-612.259	-179.893	0.096	0.002
-611.244	-200.000	-0.080	-0.419
-610.230	223.821	-0.158	0.257
-609.215	-21.402	-0.171	0.105
-608.201	-69.211	-0.179	-0.069
-607.186	-120.143	0.073	-0.013
-606.171	407.956	-0.104	-0.221
-605.157	-130.181	-0.330	0.045
-604.142	57.223	0.090	0.088
-603.128	6.252	0.287	-0.214
-602.113	-55.688	0.127	0.057
-601.098	-200.000	-0.037	-0.186
-600.084	800.000	-0.109	-0.324
-599.069	662.767	0.016	0.041
-598.055	-200.000	0.012	-0.228
-597.040	-200.000	0.018	0.088
-596.025	215.391	0.195	0.310
-595.011	211.254	0.174	0.274
-593.996	-114.646	-0.347	0.067
-592.982	-200.000	0.005	0.082
-591.967	-65.636	0.081	-0.033
-590.952	-30.647	-0.353	0.200
-589.938	274.185	-0.017	-0.031
-588.923	-61.369	-0.328	-0.139
-587.909	461.203	0.108	0.243
-586.894	67.788	0.134	0.138
-585.879	4.976	0.111	-0.082
-584.865	-131.439	0.137	-0.018
-583.850	-121.021	-0.164	-0.028
-582.836	-182.430	0.374	0.007
-581.821	-14.983	0.157	0.101
-580.806	-200.000	0.015	0.139
-579.792	-99.946	0.377	0.095
-578.777	-155.842	-0.231	0.015
-577.763	57.393	-0.110	0.108
-576.748	45.231	0.190	-0.175
-575.733	-12.276	-0.244	-0.160
-574.719	674.880	0.039	-0.101
-573.704	13.965	0.103	-0.080
-572.690	-117.783	0.054	0.010
-571.675	55.281	0.035	0.034
-570.661	800.000	-0.053	0.187
-569.646	-200.000	-0.029	-0.147
-568.631	-200.000	-0.054	-0.414
-567.617	-200.000	0.018	0.129
-566.602	-88.906	-0.307	0.091
-565.588	48.576	0.054	-0.051
-564.573	800.000	0.064	0.247
-563.558	-200.000	-0.058	0.357
-562.544	69.045	0.206	-0.212
-561.529	-139.410	-0.099	-0.011
-560.515	-38.585	0.235	0.124
-559.500	-75.142	0.179	0.064
-558.485	-7.544	-0.200	-0.136
-557.471	201.833	0.023	0.035
-556.456	370.890	-0.047	0.097
-555.442	41.165	-0.084	-0.076
-554.427	95.294	-0.266	-0.304
-553.412	-138.513	-0.163	0.018
-552.398	-48.184	-0.084	-0.041
-551.383	-113.420	-0.145	-0.028
-550.369	-89.737	0.036	0.011
-549.354	800.000	0.147	0.430
-548.339	379.983	-0.105	0.216
-547.325	-200.000	-0.021	0.116
-546.310	-195.368	0.252	0.002
-545.296	-200.000	-0.028	-0.192
-544.281	-58.243	0.205	-0.090
-543.266	303.963	0.221	0.411
-542.252	654.424	0.144	0.369
-541.237	9.021	-0.180	-0.136
-540.223	-19.358	-0.389	0.242
-539.208	-200.000	-0.066	-0.399
-538.193	-89.839	-0.189	-0.055
-537.179	467.327	0.022	0.050
-536.164	-87.963	-0.381	0.115
-535.150	10.981	0.361	0.277
-534.135	-200.000	0.006	-0.096
-533.121	212.291	0.080	0.127
-532.106	-200.000	-0.101	-0.650
-531.091	778.835	0.048	-0.132
-530.077	122.021	-0.088	-0.110
-529.062	10.794	0.149	0.114
-528.048	-44.051	0.200	0.101
-527.033	-83.861	-0.134	-0.043
-526.018	158.710	-0.163	0.226
-525.004	368.603	-0.060	-0.121
-523.989	-120.069	0.168	-0.029
-522.975	-65.056	0.098	0.039
-521.960	225.990	0.032	0.052
-520.945	-200.000	0.018	0.116
-519.931	-200.000	-0.060	-0.264
-518.916	-165.707	-0.041	-0.002
-517.902	-67.594	-0.320	-0.126
-516.887	198.609	-0.266	-0.408
-515.872	-106.986	-0.305	-0.068
-514.858	266.812	0.111	-0.194
-513.843	-140.470	0.049	-0.005
-512.829	800.000	-0.043	-0.144
-511.814	505.198	0.104	0.241
-510.799	72.834	-0.102	0.107
-509.785	230.560	0.128	0.210
-508.770	-200.000	-0.338	0.000
-507.756	-200.000	0.016	0.163
-506.741	-200.000	-0.019	0.117
-505.726	490.149	-0.046	-0.106
-504.712	-33.839	0.252	0.139
-503.697	-172.777	0.250	0.008
-502.683	196.653	-0.182	-0.277
-501.668	218.708	0.107	0.171
-500.653	-117.636	0.205	-0.037
-499.639	-6.828	0.256	0.174
-498.624	318.984	0.089	0.168
-497.610	95.115	0.071	0.081
-496.595	-200.000	-0.010	-0.163
-495.581	524.974	-0.073	0.171
-494.566	-134.072	0.306	0.038
-493.551	-200.000	0.010	-0.103
-492.537	244.441	0.089	-0.149
-491.522	-46.171	-0.089	-0.044
-490.508	519.043	-0.047	-0.110
-489.493	-54.539	-0.118	-0.053
-488.478	-22.625	-0.153	-0.093
-487.464	-42.659	-0.207	-0.105
-486.449	362.192	0.069	0.139
-485.435	132.915	0.091	0.117
-484.420	13.631	0.101	0.078
-483.405	-49.251	0.121	0.058
-482.391	-67.949	-0.199	-0.078
-481.376	-96.485	0.253	0.067
-480.362	38.310	0.222	0.198
-479.347	-200.000	-0.009	-0.174
-478.332	-200.000	0.014	0.211
-477.318	32.028	0.095	0.082
-476.303	-1.379	-0.312	-0.220
-475.289	338.356	0.042	0.081
-474.274	-111.273	-0.234	-0.048
-473.259	-80.624	0.227	0.076
-472.245	-16.133	-0.155	-0.098
-471.230	-17.152	0.274	-0.173
-470.216	-19.799	-0.172	0.106
-469.201	58.428	-0.178	-0.174
-468.186	492.360	-0.071	-0.162
-467.172	347.925	0.195	-0.383
-466.157	-125.785	0.168	-0.025
-465.143	57.709	-0.054	0.053
-464.128	267.926	0.234	0.409
-463.113	301.118	0.101	0.186
-462.099	182.627	0.073	-0.107
-461.084	44.265	0.286	-0.262
-460.070	-62.322	0.195	-0.081
-459.055	-23.509	-0.154	-0.092
-458.040	-200.000	-0.006	-0.063
-457.026	7.787	0.387	-0.289
-456.011	-116.915	0.145	-0.027
-454.997	330.509	-0.023	-0.043
-453.982	-123.839	0.142	-0.022
-452.968	-200.000	-0.029	-0.154
-451.953	166.359	-0.217	0.306
-450.938	-200.000	-0.011	0.201
-449.924	31.157	-0.137	-0.117
-448.909	423.876	-0.069	-0.148
-447.895	274.074	0.017	0.030
-446.880	251.350	-0.243	0.413
-445.865	35.327	-0.188	-0.165
-444.851	-43.373	0.172	-0.087
-443.836	40.525	0.185	-0.167
-442.822	183.644	-0.230	0.340
-441.807	-91.301	-0.119	-0.034
-440.792	-200.000	-0.058	-0.320
-439.778	6.403	0.175	-0.130
-438.763	32.848	-0.047	0.041
-437.749	-187.823	0.262	-0.003
-436.734	155.886	0.101	0.139
-435.719	164.303	-0.043	0.060
-434.705	-200.000	-0.008	0.168
-433.690	508.714	-0.129	0.299
-432.676	-200.000	0.008	-0.320
-431.661	-0.464	0.210	0.149
-430.646	-34.129	0.096	-0.053
-429.632	800.000	0.106	-0.299
-428.617	-42.633	0.140	-0.071
-427.603	392.724	0.149	-0.309
-426.588	-55.402	0.193	-0.086
-425.573	-132.908	-0.209	0.027
-424.559	-174.322	-0.213	-0.006
-423.544	254.982	-0.019	0.033
-422.530	156.716	-0.060	-0.083
-421.515	293.946	-0.107	0.195
-420.500	-200.000	-0.016	0.072
-419.486	-191.444	-0.118	-0.001
-418.471	-142.663	-0.301	-0.029
-417.457	70.040	-0.041	0.042
-416.442	190.898	-0.060	-0.091
-415.428	155.942	-0.100	0.137
-414.413	-200.000	-0.002	0.050
-413.398	-200.000	0.032	0.171
-412.384	-108.113	0.148	-0.032
-411.369	-14.851	-0.326	-0.209
-410.355	36.677	-0.088	-0.077
-409.340	49.049	-0.054	0.050
-408.325	-38.385	-0.103	0.054
-407.311	270.445	0.242	0.424
-406.296	89.533	-0.084	0.094
-405.282	57.650	0.191	-0.186
-404.267	8.433	-0.156	0.117
-403.252	-47.552	-0.140	0.068
-402.238	-16.664	0.165	-0.104
-401.223	-89.081	0.177	0.052
-400.209	-31.219	-0.348	-0.196
-399.194	800.000	-0.073	0.226
-398.179	-41.387	-0.097	0.050
-397.165	7.079	0.167	0.124
-396.150	-118.480	-0.172	-0.030
-395.136	51.429	0.199	-0.189
-394.121	681.057	-0.075	-0.196
-393.106	-82.370	0.256	-0.083
-392.092	124.122	-0.030	0.037
-391.077	115.163	0.138	-0.168
-390.063	245.611	-0.140	-0.235
-389.048	281.004	0.123	0.219
-388.033	-110.639	-0.294	0.060
-387.019	-200.000	-0.304	0.001
-386.004	317.546	0.163	-0.307
-384.990	1.655	-0.123	0.088
-383.975	743.533	-0.092	0.246
-382.960	-117.838	0.319	0.057
-381.946	76.366	0.190	-0.201
-380.931	29.883	0.096	0.081
-379.917	107.482	-0.157	-0.186
-378.902	-200.000	-0.016	-0.289
-377.888	800.000	0.103	-0.346
-376.873	540.127	0.107	-0.253
-375.858	800.000	-0.041	-0.168
-374.844	178.729	-0.085	-0.123
-373.829	426.912	0.060	0.129
-372.815	301.091	0.057	-0.104
-371.800	800.000	-0.054	0.151
-370.785	91.740	-0.112	-0.125
-369.771	-200.000	-0.056	-0.263
-368.756	800.000	-0.064	-0.179
-367.742	25.039	0.240	-0.198
-366.727	217.953	-0.106	-0.168
-365.712	721.484	0.148	0.392
-364.698	250.355	-0.175	0.296
-363.683	86.822	0.112	-0.123
-362.669	278.295	-0.228	-0.404
-361.654	27.079	0.191	-0.160
-360.639	-200.000	0.014	-0.089
-359.625	732.965	0.065	0.172
-358.610	-200.000	-0.081	-0.424
-357.596	-200.000	0.017	0.108
-356.581	-200.000	0.011	-0.189
-355.566	-150.733	0.099	0.008
-354.552	-173.347	0.137	0.004
-353.537	-134.165	0.183	0.023
-352.523	-43.198	0.245	-0.123
-351.508	-178.592	0.100	-0.002
-350.493	77.445	-0.189	-0.200
-349.479	395.544	0.087	0.180
-348.464	160.527	0.095	0.132
-347.450	179.673	-0.098	-0.142
-346.435	230.041	0.024	0.039
-345.420	800.000	0.080	-0.246
-344.406	39.969	0.213	0.190
-343.391	-17.417	-0.156	0.098
-342.377	-158.891	0.343	-0.019
-341.362	541.232	0.114	-0.270
-340.348	48.127	0.249	0.232
-339.333	95.656	-0.246	0.279
-338.318	-46.260	0.101	0.049
-337.304	-22.559	0.237	-0.143
-336.289	-169.339	0.516	-0.019
-335.275	-137.943	-0.244	0.027
-334.260	-200.000	-0.010	-0.215
-333.245	-200.000	0.060	0.346
-332.231	161.270	0.081	0.112
-331.216	-200.000	-0.016	0.407
-330.202	800.000	0.038	-0.138
-329.187	55.261	-0.127	0.122
-328.172	51.045	0.262	0.247
-327.158	79.232	-0.244	0.260
-326.143	-200.000	0.070	-0.384
-325.129	387.195	-0.068	0.140
-324.114	-170.737	0.169	0.006
-323.099	15.424	-0.068	0.053
-322.085	171.688	0.028	0.041
-321.070	-142.429	-0.151	0.015
-320.056	-200.000	-0.058	-0.339
-319.041	-131.266	0.150	0.020
-318.026	106.624	-0.254	-0.299
-317.012	-200.000	0.003	0.073
-315.997	95.864	-0.144	0.163
-314.983	-36.483	0.342	-0.183
-313.968	6.908	-0.143	0.106
-312.953	208.917	0.248	-0.385
-311.939	800.000	-0.052	-0.213
-310.924	-200.000	-0.030	0.173
-309.910	-200.000	-0.005	0.048
-308.895	800.000	0.057	-0.187
-307.880	-24.813	-0.149	0.088
-306.866	-9.204	0.448	-0.297
-305.851	94.281	-0.095	0.107
-304.837	7.946	-0.251	0.186
-303.822	-200.000	-0.017	-0.081
-302.807	140.424	0.184	-0.242
-301.793	-110.852	-0.048	-0.010
-300.778	-200.000	-0.018	-0.089
-299.764	-200.000	0.056	0.315
-298.749	-200.000	-0.023	-0.118
-297.735	-59.039	-0.276	0.118
-296.720	-54.542	-0.167	-0.075
-295.705	0.832	-0.111	0.079
-294.691	622.963	-0.098	0.245
-293.676	-37.153	-0.165	-0.088
-292.662	-125.428	0.067	0.010
-291.647	-200.000	-0.010	0.059
-290.632	-103.389	0.168	0.039
-289.618	-125.790	-0.368	-0.055
-288.603	355.975	0.129	0.255
-287.589	-40.432	0.158	0.082
-286.574	-127.823	-0.282	-0.040
-285.559	-4.092	-0.170	-0.117
-284.545	-36.041	0.208	0.112
-283.530	25.004	0.131	0.108
-282.516	133.750	-0.254	-0.327
-281.501	33.009	0.038	-0.033
-280.486	376.146	0.098	0.198
-279.472	-129.067	-0.191	-0.027
-278.457	-81.048	0.135	-0.044
-277.443	-123.764	-0.332	0.052
-276.428	800.000	-0.003	-0.013
-275.413	-200.000	0.031	0.303
-274.399	-123.863	-0.283	-0.044
-273.384	800.000	0.033	0.133
-272.370	-114.216	0.121	0.023
-271.355	-88.396	0.262	0.078
-270.340	800.000	-0.148	0.419
-269.326	-24.794	0.130	-0.077
-268.311	-148.026	-0.190	-0.016
-267.297	-124.715	-0.104	-0.016
-266.282	1.046	-0.160	0.114
-265.267	122.158	-0.167	-0.206
-264.253	87.700	-0.080	0.088
-263.238	49.779	0.081	-0.076
-262.224	-58.308	-0.196	0.085
-261.209	214.817	-0.076	-0.119
-260.195	800.000	-0.154	0.472
-259.180	-89.622	-0.209	-0.061
-258.165	-200.000	-0.023	0.262
-257.151	-14.288	-0.066	-0.042
-256.136	-48.936	0.085	0.040
-255.122	362.794	0.100	-0.200
-254.107	19.845	-0.362	-0.289
-253.092	-11.230	-0.153	-0.100
-252.078	172.725	-0.240	0.342
-251.063	6.113	-0.200	-0.147
-250.049	303.851	0.163	0.300
-249.034	-94.497	-0.341	-0.092
-248.019	550.065	0.108	0.257
-247.005	88.346	0.111	0.122
-245.990	8.029	0.148	-0.110
-244.976	-200.000	0.027	0.226
-243.961	376.978	0.009	-0.019
-242.946	-78.105	-0.244	0.083
-241.932	-110.224	0.255	-0.053
-240.917	-200.000	0.004	0.180
-239.903	-200.000	0.013	-0.160
-238.888	800.000	-0.019	0.060
-237.873	218.708	0.176	-0.279
-236.859	800.000	-0.052	-0.183
-235.844	-132.874	0.282	-0.036
-234.830	199.429	0.160	-0.244
-233.815	-26.698	0.194	0.112
-232.800	70.255	0.111	0.114
-231.786	190.457	0.127	0.189
-230.771	28.843	-0.272	-0.228
-229.757	-99.234	-0.213	0.053
-228.742	-200.000	-0.011	-0.133
-227.727	166.371	-0.188	0.264
-226.713	-200.000	0.022	0.167
-225.698	-147.707	-0.101	0.008
-224.684	-139.994	-0.330	0.034
-223.669	-126.212	0.152	0.023
-222.655	800.000	0.078	0.213
-221.640	548.586	0.055	0.130
-220.625	-10.331	0.104	-0.069
-219.611	-60.048	-0.209	-0.088
-218.596	176.703	-0.135	-0.195
-217.582	800.000	0.102	0.317
-216.567	-84.709	-0.142	-0.044
-215.552	-109.716	0.226	0.047
-214.538	94.667	0.316	0.356
-213.523	139.520	0.234	0.305
-212.509	-42.483	0.173	0.087
-211.494	81.796	0.305	0.326
-210.479	-22.974	0.088	-0.052
-209.465	-40.009	0.261	-0.135
-208.450	-165.254	0.116	0.005
-207.436	111.779	0.083	-0.099
-206.421	-55.408	-0.300	-0.133
-205.406	50.698	0.218	-0.204
-204.392	-200.000	0.039	0.330
-203.377	241.424	-0.151	0.249
-202.363	26.857	0.131	0.108
-201.348	800.000	0.058	0.164
-200.333	800.000	0.101	0.344
-199.319	386.033	-0.079	0.161
-198.304	124.025	0.129	0.161
-197.290	-24.315	-0.247	0.146
-196.275	80.061	0.165	0.175
-195.260	77.283	0.190	-0.200
-194.246	-107.250	-0.050	0.011
-193.231	-68.771	-0.338	-0.129
-192.217	-200.000	-0.011	0.081
-191.202	14.321	0.232	0.179
-190.187	-127.835	0.038	-0.005
-189.173	800.000	0.086	0.268
-188.158	-142.586	0.109	0.011
-187.144	39.116	-0.152	-0.134
-186.129	57.450	0.243	0.235
-185.114	-51.054	0.230	0.106
-184.100	-117.952	-0.229	-0.041
-183.085	-139.464	-0.017	-0.002
-182.071	-147.741	-0.349	0.029
-181.056	-106.748	0.145	-0.032
-180.042	-19.342	-0.221	0.135
-179.027	-50.025	0.122	-0.057
-178.012	374.236	-0.093	0.188
-176.998	800.000	0.056	-0.161
-175.983	133.854	-0.209	0.267
-174.969	448.906	-0.099	0.215
-173.954	-200.000	0.037	-0.167
-172.939	18.221	0.153	-0.121
-171.925	800.000	0.084	-0.306
-170.910	413.861	0.062	-0.130
-169.896	800.000	-0.106	0.310
-168.881	178.360	-0.023	-0.034
-167.866	406.633	-0.042	-0.088
-166.852	-144.949	0.445	-0.040
-165.837	800.000	-0.077	-0.291
-164.823	-64.744	0.134	-0.054
-163.808	67.486	0.262	-0.264
-162.793	-200.000	-0.047	0.242
-161.779	21.568	-0.129	0.104
-160.764	443.856	-0.110	-0.238
-159.750	-99.484	0.232	0.058
-158.735	91.467	-0.055	-0.061
-157.720	-200.000	0.014	0.184
-156.706	-109.283	-0.203	-0.042
-155.691	168.872	0.201	-0.283
-154.677	432.233	0.098	-0.210
-153.662	-200.000	-0.001	0.368
-152.647	126.654	-0.212	-0.265
-151.633	-145.411	-0.135	0.012
-150.618	-121.625	-0.303	0.050
-149.604	-183.068	0.339	-0.006
-148.589	26.832	0.133	-0.110
-147.574	30.037	0.140	0.117
-146.560	-200.000	0.028	-0.135
-145.545	-62.553	-0.099	-0.040
-144.531	-61.956	-0.282	0.116
-143.516	-94.918	-0.337	-0.090
-142.502	-100.287	-0.106	-0.026
-141.487	800.000	-0.123	-0.433
-140.472	107.529	-0.110	0.129
-139.458	77.796	0.218	0.229
-138.443	-6.231	-0.059	-0.040
-137.429	-122.029	-0.351	-0.057
-136.414	266.368	-0.177	-0.305
-135.399	225.864	-0.142	-0.226
-134.385	-29.918	-0.123	0.069
-133.370	-200.000	0.073	0.340
-132.356	13.554	-0.215	0.165
-131.341	125.663	-0.042	-0.053
-130.326	-200.000	0.064	0.346
-129.312	-200.000	0.016	0.124
-128.297	101.903	0.163	-0.188
-127.283	-165.212	-0.235	0.010
-126.268	-101.021	0.369	0.089
-125.253	205.975	-0.078	0.119
-124.239	-37.106	-0.136	-0.072
-123.224	-153.384	0.149	-0.010
-122.210	-30.052	0.051	0.029
-121.195	800.000	0.036	0.109
