DTS Sentinel unit serial number:	SN413079Multiplexer serial number:	ORYXHardware model number:	OX4-SRSoftware version number:	ORYX F/W v4.00 Oryx Data Collector v3.7.2.0data status	okinstallation	princeton_trtdifferential loss correction	single-endedforward channel	channel 1reverse channel	N/Adate	2019/09/14time	17:14:35forward acquisition time	60.00reverse acquisition time	0.00gamma	496.2192k internal	0.2296k external	0.2296temperature offset calibration	1.0047default loss term (dB/km)	0.3790temperature slope calibration	1.0000multiplexer offset coefficient	1.0000multiplexer slope coefficient	1.0000fibre end	0.00T internal ref (°C)	37.92T ext. ref 1 (°C)	5.03T ext. ref 2 (°C)	32.80length (m)	temperature (°C)	Stokes	anti-Stokes-747.200	724.517	-0.071	0.192
-746.185	-29.500	-0.274	0.160
-745.171	800.000	0.068	-0.217
-744.156	303.572	0.054	0.103
-743.142	800.000	-0.071	0.235
-742.127	-135.456	-0.457	-0.056
-741.112	-131.940	-0.278	0.037
-740.098	127.046	0.192	0.248
-739.083	-200.000	-0.013	0.306
-738.069	152.648	-0.288	0.402
-737.054	-4.766	-0.232	-0.163
-736.039	-87.647	-0.428	0.132
-735.025	61.401	0.111	0.113
-734.010	-129.541	-0.115	-0.016
-732.996	-200.000	0.012	0.053
-731.981	-120.167	-0.281	0.049
-730.966	-162.189	-0.190	-0.010
-729.952	-62.590	0.192	-0.081
-728.937	6.636	-0.097	-0.074
-727.923	-200.000	0.042	-0.260
-726.908	-45.985	-0.238	0.120
-725.894	277.627	-0.233	-0.424
-724.879	220.392	-0.067	-0.110
-723.864	-146.620	-0.393	0.035
-722.850	-200.000	-0.004	0.262
-721.835	691.260	-0.112	-0.300
-720.821	61.806	0.042	0.043
-719.806	-153.515	0.257	-0.018
-718.791	-200.000	0.045	-0.290
-717.777	-100.224	0.260	-0.066
-716.762	-37.256	-0.105	-0.057
-715.748	-17.620	-0.077	0.050
-714.733	221.352	-0.138	0.226
-713.718	-123.187	-0.068	-0.011
-712.704	-31.223	-0.328	0.188
-711.689	-6.829	-0.213	-0.148
-710.675	-190.639	-0.292	0.003
-709.660	800.000	-0.130	0.419
-708.645	13.067	0.118	0.093
-707.631	530.569	0.100	-0.241
-706.616	-200.000	0.020	-0.167
-705.602	30.051	0.163	-0.142
-704.587	-50.122	0.211	0.102
-703.572	-48.515	-0.225	0.110
-702.558	-76.792	0.122	0.044
-701.543	-113.657	-0.213	-0.042
-700.529	287.630	0.269	0.496
-699.514	39.294	-0.193	0.176
-698.499	-125.635	-0.126	-0.020
-697.485	24.162	0.230	-0.194
-696.470	-65.264	-0.071	0.029
-695.456	800.000	0.015	-0.067
-694.441	-91.835	0.056	0.016
-693.426	0.814	-0.162	-0.119
-692.412	96.458	-0.085	0.099
-691.397	-86.135	-0.246	0.077
-690.383	-80.735	-0.212	0.072
-689.368	372.430	0.069	-0.143
-688.354	-159.302	-0.061	-0.003
-687.339	15.502	0.125	0.100
-686.324	-76.316	0.124	0.045
-685.310	-108.650	-0.135	0.029
-684.295	177.194	-0.113	-0.168
-683.281	-32.547	-0.093	0.053
-682.266	-66.458	0.294	0.119
-681.251	-182.577	-0.075	-0.001
-680.237	416.830	-0.024	-0.053
-679.222	-200.000	0.032	-0.167
-678.208	547.888	0.098	0.239
-677.193	-200.000	0.025	0.384
-676.178	-115.309	-0.191	-0.037
-675.164	-37.828	0.121	0.065
-674.149	800.000	-0.159	0.485
-673.135	166.461	0.148	-0.213
-672.120	30.795	-0.183	0.160
-671.105	30.684	-0.079	-0.069
-670.091	186.483	-0.084	0.127
-669.076	-107.292	0.137	0.031
-668.062	-58.590	-0.199	0.088
-667.047	-76.045	-0.213	-0.077
-666.032	178.760	0.182	-0.271
-665.018	121.412	-0.074	-0.094
-664.003	168.438	-0.071	-0.103
-662.989	60.093	-0.215	0.216
-661.974	800.000	0.013	0.039
-660.959	-33.043	0.059	0.033
-659.945	800.000	-0.006	0.019
-658.930	800.000	-0.127	0.438
-657.916	-145.873	-0.176	0.016
-656.901	-91.284	0.076	0.022
-655.886	169.292	-0.100	0.145
-654.872	226.505	-0.057	-0.094
-653.857	162.894	-0.128	0.183
-652.843	-147.105	-0.163	0.014
-651.828	-124.242	-0.291	0.046
-650.814	-136.486	-0.227	0.027
-649.799	484.944	0.112	0.259
-648.784	-165.273	-0.081	-0.004
-647.770	-39.521	0.314	-0.168
-646.755	-106.310	-0.017	0.004
-645.741	88.078	-0.164	-0.186
-644.726	-74.651	-0.417	-0.153
-643.711	6.689	-0.128	-0.097
-642.697	159.334	-0.282	-0.400
-641.682	800.000	-0.052	-0.151
-640.668	-193.927	0.008	0.000
-639.653	-143.667	0.138	-0.013
-638.638	-200.000	0.005	0.320
-637.624	-160.783	-0.288	0.016
-636.609	575.084	-0.071	0.177
-635.595	-97.415	0.211	0.056
-634.580	194.620	0.173	-0.266
-633.565	800.000	0.027	0.085
-632.551	26.838	-0.209	-0.178
-631.536	505.062	0.093	0.220
-630.522	183.395	-0.075	-0.113
-629.507	17.390	-0.225	-0.182
-628.492	-148.513	-0.160	-0.013
-627.478	-200.000	0.040	-0.219
-626.463	259.164	-0.130	0.229
-625.449	800.000	-0.047	-0.202
-624.434	171.487	-0.042	-0.061
-623.419	556.548	-0.041	0.102
-622.405	800.000	0.050	-0.184
-621.390	-200.000	0.026	0.176
-620.376	-113.727	0.478	-0.095
-619.361	139.048	0.103	-0.138
-618.346	-200.000	0.008	0.077
-617.332	-24.241	0.443	0.269
-616.317	-50.785	0.205	-0.098
-615.303	174.214	0.015	-0.022
-614.288	-150.825	0.205	-0.016
-613.273	119.834	0.077	-0.098
-612.259	-200.000	0.028	0.143
-611.244	20.730	-0.211	-0.174
-610.230	152.347	0.206	-0.286
-609.215	455.680	-0.111	-0.251
-608.201	85.793	-0.153	0.171
-607.186	-200.000	0.009	0.134
-606.171	-42.353	-0.203	-0.105
-605.157	-200.000	0.001	-0.182
-604.142	800.000	0.097	-0.305
-603.128	478.360	-0.074	-0.171
-602.113	800.000	-0.074	-0.210
-601.098	236.827	0.021	0.035
-600.084	330.595	-0.124	-0.242
-599.069	581.016	-0.028	0.070
-598.055	-52.254	-0.270	-0.127
-597.040	-135.482	-0.465	0.056
-596.025	14.470	-0.244	0.193
-595.011	-69.593	0.112	-0.044
-593.996	276.877	-0.117	0.211
-592.982	-127.559	0.363	0.054
-591.967	-64.040	0.410	0.170
-590.952	48.995	0.197	0.188
-589.938	-114.984	0.173	0.033
-588.923	-54.528	-0.140	0.064
-587.909	-26.991	-0.108	-0.064
-586.894	-58.992	-0.142	0.062
-585.879	800.000	-0.011	-0.048
-584.865	-200.000	-0.012	-0.248
-583.850	-141.179	0.280	-0.029
-582.836	103.969	0.188	0.224
-581.821	-200.000	-0.020	0.372
-580.806	-113.635	0.124	-0.025
-579.792	-111.194	0.058	0.012
-578.777	-156.610	-0.150	0.009
-577.763	31.835	0.187	-0.163
-576.748	198.278	-0.308	0.478
-575.733	170.086	0.147	-0.214
-574.719	548.556	-0.048	-0.118
-573.704	-200.000	0.047	0.292
-572.690	-40.669	-0.146	-0.077
-571.675	-114.056	-0.050	0.010
-570.661	177.136	-0.264	0.391
-569.646	-177.288	-0.340	-0.009
-568.631	800.000	0.061	-0.243
-567.617	-40.331	0.129	-0.068
-566.602	-200.000	-0.022	0.183
-565.588	180.237	0.062	0.092
-564.573	-41.012	-0.045	0.023
-563.558	-200.000	-0.022	0.123
-562.544	-86.387	0.413	0.129
-561.529	-147.848	0.122	0.010
-560.515	79.900	0.026	0.028
-559.500	800.000	0.060	-0.170
-558.485	-114.779	0.218	-0.042
-557.471	-59.052	0.088	-0.039
-556.456	-200.000	-0.014	-0.143
-555.442	651.508	-0.075	-0.196
-554.427	27.828	-0.289	0.247
-553.412	-90.351	0.066	-0.020
-552.398	574.747	0.153	-0.379
-551.383	50.212	0.103	-0.099
-550.369	800.000	-0.130	-0.450
-549.354	-57.902	0.131	-0.058
-548.339	800.000	-0.046	0.135
-547.325	-126.269	0.308	0.047
-546.310	-0.659	-0.169	-0.121
-545.296	-15.560	-0.205	-0.133
-544.281	146.263	0.134	-0.182
-543.266	669.861	-0.014	0.037
-542.252	6.209	-0.093	0.070
-541.237	-21.784	-0.059	-0.037
-540.223	-86.174	0.151	0.047
-539.208	800.000	-0.035	-0.120
-538.193	-118.509	-0.287	-0.052
-537.179	-48.609	0.091	0.044
-536.164	-67.921	-0.333	-0.132
-535.150	-171.691	0.367	-0.012
-534.135	-134.678	0.226	0.028
-533.121	74.911	-0.090	0.097
-532.106	-144.941	0.376	-0.035
-531.091	-107.462	0.220	-0.049
-530.077	800.000	-0.017	-0.053
-529.062	-200.000	-0.024	0.450
-528.048	-152.883	-0.349	-0.025
-527.033	40.783	-0.445	-0.407
-526.018	-113.099	0.063	-0.013
-525.004	610.480	0.105	0.265
-523.989	18.487	0.255	0.207
-522.975	-66.244	0.239	0.096
-521.960	-93.089	0.178	0.050
-520.945	-25.796	-0.256	-0.153
-519.931	-200.000	0.017	0.136
-518.916	18.268	0.231	-0.186
-517.902	-104.562	-0.051	-0.012
-516.887	-179.412	-0.383	-0.009
-515.872	-35.600	-0.131	-0.072
-514.858	-21.773	-0.167	0.103
-513.843	800.000	-0.096	0.305
-512.829	199.558	-0.066	-0.103
-511.814	-115.950	0.196	0.037
-510.799	-10.207	0.093	0.062
-509.785	-112.973	-0.423	-0.085
-508.770	-136.498	0.181	0.021
-507.756	332.728	-0.071	0.139
-506.741	-36.981	0.022	0.012
-505.726	54.754	0.296	-0.289
-504.712	170.798	-0.096	-0.139
-503.697	-113.090	-0.405	-0.081
-502.683	178.741	0.063	0.094
-501.668	-80.337	0.439	-0.148
-500.653	800.000	0.017	0.065
-499.639	758.286	-0.138	0.377
-498.624	9.247	-0.161	0.123
-497.610	-38.802	-0.208	0.111
-496.595	35.738	0.168	0.150
-495.581	-87.151	0.130	-0.040
-494.566	-93.243	-0.346	0.097
-493.551	176.589	0.075	0.110
-492.537	694.940	-0.036	0.096
-491.522	195.819	-0.141	-0.217
-490.508	800.000	-0.044	-0.157
-489.493	192.454	0.163	-0.249
-488.478	-47.744	-0.238	0.117
-487.464	-58.413	-0.102	-0.045
-486.449	409.412	0.048	-0.103
-485.435	-40.393	0.225	-0.119
-484.420	-200.000	0.000	0.036
-483.405	800.000	0.028	-0.095
-482.391	295.468	0.202	-0.375
-481.376	-141.726	0.303	-0.031
-480.362	124.194	0.063	-0.080
-479.347	165.123	-0.079	-0.112
-478.332	357.227	-0.075	-0.151
-477.318	-200.000	0.000	0.078
-476.303	324.006	-0.090	0.174
-475.289	379.274	0.054	0.113
-474.274	-16.717	0.191	0.122
-473.259	17.999	-0.122	-0.099
-472.245	-147.872	-0.179	-0.015
-471.230	-180.754	-0.076	-0.002
-470.216	668.898	0.041	0.107
-469.201	-4.647	0.076	-0.053
-468.186	-28.497	0.327	0.190
-467.172	-68.918	-0.154	0.060
-466.157	800.000	-0.025	0.082
-465.143	-200.000	-0.008	-0.148
-464.128	137.017	0.067	0.089
-463.113	-200.000	-0.217	-0.001
-462.099	-125.853	-0.142	0.022
-461.084	-200.000	-0.002	0.495
-460.070	-200.000	-0.002	-0.022
-459.055	-43.943	0.402	0.204
-458.040	346.441	-0.017	-0.035
-457.026	178.297	0.201	-0.296
-456.011	-127.451	0.343	-0.050
-454.997	132.960	0.141	0.184
-453.982	-59.683	0.285	0.123
-452.968	-115.004	0.397	-0.076
-451.953	-43.808	-0.236	0.120
-450.938	-76.249	0.082	0.029
-449.924	75.604	-0.029	-0.031
-448.909	-200.000	0.011	-0.119
-447.895	-18.947	0.251	-0.158
-446.880	-37.478	0.098	-0.053
-445.865	772.312	-0.056	0.156
-444.851	-200.000	-0.087	-0.441
-443.836	-200.000	-0.011	0.151
-442.822	-200.000	-0.070	0.313
-441.807	-84.559	0.185	-0.059
-440.792	-200.000	-0.029	0.271
-439.778	-200.000	-0.002	-0.077
-438.763	-128.012	0.030	-0.004
-437.749	-29.247	0.178	0.103
-436.734	-200.000	0.009	0.161
-435.719	296.415	-0.205	-0.380
-434.705	99.128	0.195	0.227
-433.690	205.730	0.203	0.319
-432.676	800.000	-0.072	0.249
-431.661	-98.798	0.138	0.035
-430.646	46.686	-0.270	0.253
-429.632	-125.612	0.178	0.027
-428.617	563.105	0.151	0.368
-427.603	-115.932	-0.067	-0.013
-426.588	368.658	-0.075	-0.153
-425.573	70.711	-0.047	-0.049
-424.559	-92.062	-0.191	-0.055
-423.544	-43.505	0.142	-0.073
-422.530	67.905	0.156	-0.161
-421.515	800.000	0.055	0.209
-420.500	-87.959	0.205	0.062
-419.486	196.587	-0.150	-0.231
-418.471	-27.871	-0.123	0.072
-417.457	15.735	-0.110	0.087
-416.442	-75.023	0.074	-0.027
-415.428	800.000	0.014	0.042
-414.413	800.000	-0.022	-0.085
-413.398	11.112	-0.268	-0.207
-412.384	41.095	0.077	-0.070
-411.369	32.196	-0.313	0.273
-410.355	33.265	-0.201	-0.176
-409.340	800.000	-0.027	-0.114
-408.325	220.367	-0.032	-0.051
-407.311	-79.573	-0.118	-0.040
-406.296	-196.941	0.124	0.001
-405.282	726.417	-0.058	0.156
-404.267	-84.389	-0.109	-0.035
-403.252	-21.840	-0.155	-0.095
-402.238	172.424	0.159	-0.230
-401.223	-47.908	-0.164	0.080
-400.209	800.000	-0.089	0.272
-399.194	723.174	-0.033	0.088
-398.179	-200.000	0.059	-0.280
-397.165	-38.801	-0.119	-0.063
-396.150	-5.610	0.233	-0.161
-395.136	-200.000	0.015	-0.156
-394.121	77.416	-0.027	-0.029
-393.106	-16.260	0.044	0.028
-392.092	0.868	-0.183	0.132
-391.077	-61.746	0.330	-0.139
-390.063	800.000	0.017	-0.070
-389.048	1.103	-0.284	0.206
-388.033	-200.000	-0.012	0.205
-387.019	-89.336	0.155	0.046
-386.004	-200.000	-0.084	0.000
-384.990	67.780	-0.178	-0.183
-383.975	800.000	-0.105	0.327
-382.960	-29.473	0.103	-0.059
-381.946	-118.008	-0.156	0.028
-380.931	6.773	-0.178	0.134
-379.917	-200.000	0.013	0.081
-378.902	-132.866	-0.280	0.036
-377.888	1.996	0.250	0.182
-376.873	-181.835	0.104	0.002
-375.858	220.628	0.165	-0.267
-374.844	44.758	-0.130	-0.120
-373.829	-200.000	0.000	-0.044
-372.815	117.287	0.323	-0.400
-371.800	677.656	-0.064	0.168
-370.785	-200.000	0.003	-0.113
-369.771	-200.000	-0.050	-0.264
-368.756	-103.837	0.169	0.040
-367.742	-200.000	-0.023	-0.554
-366.727	376.523	0.052	0.106
-365.712	244.571	-0.117	0.198
-364.698	223.611	-0.137	-0.223
-363.683	-28.144	0.084	0.049
-362.669	-103.924	-0.096	-0.022
-361.654	363.452	0.128	-0.259
-360.639	306.748	-0.095	0.179
-359.625	-62.699	-0.109	0.046
-358.610	-131.327	-0.043	-0.006
-357.596	215.480	0.101	-0.161
-356.581	19.363	0.275	-0.222
-355.566	-145.840	0.240	0.021
-354.552	-200.000	0.007	-0.125
-353.537	64.802	-0.134	0.136
-352.523	345.550	-0.121	0.239
-351.508	-115.886	0.383	-0.072
-350.493	241.229	-0.073	0.123
-349.479	-51.813	0.263	0.123
-348.464	-200.000	-0.022	0.176
-347.450	-124.580	0.152	0.024
-346.435	118.072	0.275	-0.341
-345.420	-200.000	0.005	-0.193
-344.406	76.793	0.241	0.257
-343.391	-200.000	-0.015	-0.365
-342.377	-147.256	-0.235	0.020
-341.362	-26.543	0.102	-0.060
-340.348	-33.801	-0.147	-0.081
-339.333	67.926	0.333	-0.343
-338.318	-21.013	0.232	0.143
-337.304	-100.175	0.065	-0.016
-336.289	2.343	-0.142	-0.103
-335.275	-15.891	-0.330	0.211
-334.260	800.000	0.051	0.176
-333.245	93.556	0.068	0.078
-332.231	-89.214	0.210	0.062
-331.216	-111.160	-0.146	0.030
-330.202	-161.397	-0.119	0.006
-329.187	-85.182	-0.403	0.127
-328.172	203.560	0.070	0.108
-327.158	199.319	0.066	0.102
-326.143	762.127	-0.110	0.300
-325.129	-87.733	-0.313	0.095
-324.114	-200.000	-0.039	0.191
-323.099	-164.495	-0.268	0.012
-322.085	-47.904	0.208	-0.101
-321.070	-15.681	-0.294	-0.188
-320.056	-200.000	0.054	0.369
-319.041	158.264	-0.070	0.098
-318.026	21.879	0.183	0.150
-317.012	70.984	0.024	-0.025
-315.997	-200.000	0.075	-0.452
-314.983	-27.137	0.136	0.080
-313.968	-97.604	-0.268	-0.070
-312.953	-94.645	0.245	-0.067
-311.939	-79.028	0.155	0.053
-310.924	800.000	0.031	-0.135
-309.910	294.874	0.126	0.232
-308.895	45.433	0.184	0.171
-307.880	-79.719	0.123	-0.042
-306.866	-77.025	0.200	0.070
-305.851	565.174	-0.091	0.221
-304.837	-51.802	0.135	-0.063
-303.822	-182.068	-0.106	0.002
-302.807	-65.389	-0.053	-0.021
-301.793	-137.615	-0.285	-0.032
-300.778	90.133	0.046	-0.051
-299.764	-14.868	-0.183	0.118
-298.749	-200.000	-0.427	0.002
-297.735	800.000	-0.007	0.024
-296.720	279.746	-0.019	-0.034
-295.705	-169.313	-0.327	0.012
-294.691	-58.221	0.096	0.042
-293.676	-200.000	0.003	0.129
-292.662	-5.222	-0.184	0.127
-291.647	-200.000	-0.004	-0.226
-290.632	-61.641	-0.237	-0.100
-289.618	-200.000	0.038	0.263
-288.603	-146.870	0.183	0.016
-287.589	333.808	-0.178	0.345
-286.574	-57.726	0.131	0.058
-285.559	-108.431	-0.033	0.007
-284.545	-122.187	0.251	-0.041
-283.530	-83.136	-0.305	-0.098
-282.516	-172.408	0.109	0.003
-281.501	-177.426	0.280	-0.007
-280.486	-92.622	-0.251	-0.071
-279.472	-200.000	0.020	-0.165
-278.457	147.289	-0.281	-0.380
-277.443	33.208	-0.062	-0.054
-276.428	560.363	-0.088	0.213
-275.413	-54.888	0.289	0.131
-274.399	64.095	-0.208	-0.210
-273.384	-74.941	-0.217	0.078
-272.370	274.274	0.131	-0.233
-271.355	-200.000	0.014	-0.190
-270.340	-133.609	-0.095	0.012
-269.326	14.142	-0.031	0.024
-268.311	-61.744	-0.228	-0.096
-267.297	-70.759	-0.301	-0.114
-266.282	283.928	0.189	-0.341
-265.267	800.000	-0.051	-0.152
-264.253	-167.156	-0.188	-0.008
-263.238	256.214	-0.152	-0.262
-262.224	800.000	0.069	0.288
-261.209	306.681	-0.091	-0.170
-260.195	-33.576	0.112	0.062
-259.180	-40.027	-0.190	0.099
-258.165	-144.092	0.219	0.021
-257.151	-153.854	0.176	0.012
-256.136	63.155	-0.072	-0.072
-255.122	-200.000	0.003	-0.229
-254.107	-200.000	0.019	-0.088
-253.092	582.202	0.073	-0.178
-252.078	800.000	-0.106	0.298
-251.063	800.000	0.177	0.622
-250.049	-200.000	-0.037	-0.247
-249.034	-69.998	-0.148	-0.056
-248.019	7.984	-0.229	0.172
-247.005	-153.765	0.394	-0.027
-245.990	-178.980	-0.043	-0.001
-244.976	224.068	0.092	0.149
-243.961	-45.112	0.124	0.062
-242.946	-200.000	0.005	-0.179
-241.932	-104.474	0.150	0.035
-240.917	-22.308	-0.183	-0.111
-239.903	109.634	0.074	-0.089
-238.888	-200.000	-0.052	0.246
-237.873	64.884	-0.132	0.133
-236.859	-56.828	0.158	0.070
-235.844	36.111	0.041	0.036
-234.830	-42.149	-0.070	0.036
-233.815	-142.224	0.046	-0.005
-232.800	-200.000	0.041	-0.573
-231.786	166.936	0.095	0.136
-230.771	14.305	0.137	0.107
-229.757	-183.170	-0.164	-0.003
-228.742	64.850	0.120	-0.122
-227.727	-28.345	0.069	0.040
-226.713	-31.921	-0.182	0.102
-225.698	800.000	0.041	-0.172
-224.684	-56.836	-0.194	0.086
-223.669	-19.594	0.169	0.105
-222.655	-167.875	-0.066	0.003
-221.640	640.750	-0.022	0.056
-220.625	800.000	0.093	0.274
-219.611	179.846	-0.087	-0.128
-218.596	-163.488	-0.295	-0.014
-217.582	-131.364	0.350	-0.046
-216.567	-46.389	0.393	-0.193
-215.552	-148.580	-0.235	0.019
-214.538	-53.142	-0.329	0.151
-213.523	-87.760	-0.077	0.023
-212.509	-135.657	0.307	0.036
-211.494	-115.951	0.148	-0.028
-210.479	417.703	-0.142	-0.304
-209.465	-21.247	-0.134	0.082
-208.450	786.048	0.075	-0.205
-207.436	243.284	0.151	-0.252
-206.421	-92.027	-0.354	-0.100
-205.406	-200.000	-0.081	0.431
-204.392	42.401	0.117	-0.107
-203.377	-121.115	-0.270	-0.045
-202.363	800.000	-0.021	-0.072
-201.348	-140.576	0.025	-0.003
-200.333	-81.169	-0.396	0.131
-199.319	765.339	0.021	0.057
-198.304	208.328	-0.224	0.350
-197.290	88.978	0.039	-0.043
-196.275	11.388	0.215	0.165
-195.260	-200.000	-0.060	0.373
-194.246	-130.915	-0.175	-0.023
-193.231	-33.931	0.150	-0.083
-192.217	800.000	-0.120	-0.468
-191.202	-200.000	0.007	-0.058
-190.187	800.000	0.075	0.241
-189.173	543.974	0.035	0.084
-188.158	-200.000	0.098	0.482
-187.144	54.239	-0.130	-0.125
-186.129	-200.000	-0.070	0.359
-185.114	368.271	0.162	0.327
-184.100	-90.774	0.239	0.069
-183.085	800.000	-0.100	-0.276
-182.071	800.000	-0.011	-0.044
-181.056	180.499	-0.016	0.023
-180.042	-186.443	0.337	0.005
-179.027	-200.000	0.057	0.285
-178.012	800.000	0.103	0.364
-176.998	-100.445	-0.306	0.076
-175.983	-71.399	0.094	0.035
-174.969	-11.669	0.301	-0.198
-173.954	-200.000	0.032	0.236
-172.939	-75.236	-0.047	-0.017
-171.925	-82.445	-0.186	0.060
-170.910	267.857	-0.037	0.066
-169.896	-194.801	0.448	-0.003
-168.881	-111.514	0.180	0.037
-167.866	-83.975	-0.111	-0.035
-166.852	71.346	-0.142	0.147
-165.837	13.191	0.232	-0.180
-164.823	-200.000	-0.022	-0.122
-163.808	-200.000	0.007	-0.252
-162.793	-28.286	-0.331	-0.191
-161.779	-200.000	0.045	-0.219
-160.764	143.801	-0.147	0.196
-159.750	320.587	-0.137	-0.260
-158.735	116.436	-0.095	-0.117
-157.720	-200.000	0.024	-0.109
-156.706	467.269	-0.076	0.171
-155.691	-200.000	-0.024	-0.302
-154.677	-200.000	0.042	0.380
-153.662	41.050	0.088	0.079
-152.647	-78.354	-0.103	-0.035
-151.633	-137.270	0.291	0.033
-150.618	-9.700	0.415	-0.276
-149.604	-200.000	-0.044	-0.210
-148.589	45.579	0.140	-0.129
-147.574	358.295	0.084	0.168
-146.560	92.198	-0.067	0.075
-145.545	-142.638	-0.291	0.028
-144.531	2.352	-0.182	0.131
-143.516	28.654	-0.139	0.117
-142.502	36.916	0.129	0.114
-141.487	-200.000	0.046	0.209
-140.472	-200.000	0.017	0.280
-139.458	-113.943	0.113	0.022
-138.443	26.540	-0.006	0.005
-137.429	-110.067	0.114	0.024
-136.414	800.000	0.077	0.259
-135.399	-53.964	0.252	0.115
-134.385	224.382	-0.070	0.113
-133.370	27.825	0.113	-0.095
-132.356	178.244	-0.119	-0.173
-131.341	-75.769	-0.181	-0.064
-130.326	-173.137	0.458	-0.014
-129.312	-200.000	-0.001	0.218
-128.297	-150.237	-0.124	-0.010
-127.283	598.310	-0.074	-0.182
-126.268	29.576	0.093	-0.079
-125.253	800.000	0.072	-0.235
-124.239	-102.970	-0.059	-0.014
-123.224	-31.735	0.129	-0.072
-122.210	-51.718	0.033	-0.015
