DTS Sentinel unit serial number:	SN413079Multiplexer serial number:	ORYXHardware model number:	OX4-SRSoftware version number:	ORYX F/W v4.00 Oryx Data Collector v3.7.2.0data status	okinstallation	princeton_trtdifferential loss correction	single-endedforward channel	channel 1reverse channel	N/Adate	2019/09/12time	17:52:11forward acquisition time	60.00reverse acquisition time	0.00gamma	496.2192k internal	0.2318k external	0.2318temperature offset calibration	1.0107default loss term (dB/km)	0.3790temperature slope calibration	1.0000multiplexer offset coefficient	1.0000multiplexer slope coefficient	1.0000fibre end	0.00T internal ref (°C)	34.00T ext. ref 1 (°C)	2.91T ext. ref 2 (°C)	28.24length (m)	temperature (°C)	Stokes	anti-Stokes-747.200	331.805	-0.113	-0.221
-746.185	-120.722	-0.146	0.025
-745.171	75.353	0.057	-0.061
-744.156	-200.000	0.001	0.242
-743.142	-65.752	-0.313	0.127
-742.127	322.328	-0.167	0.322
-741.112	2.526	-0.225	-0.165
-740.098	578.055	-0.138	0.341
-739.083	77.091	0.123	0.133
-738.069	-17.807	0.188	-0.120
-737.054	-200.000	0.010	0.093
-736.039	-37.334	-0.544	0.294
-735.025	176.383	0.106	0.156
-734.010	-162.917	0.289	0.014
-732.996	-200.000	-0.031	-0.275
-731.981	-163.678	0.143	0.007
-730.966	-60.463	-0.334	-0.144
-729.952	454.036	-0.079	-0.176
-728.937	450.235	0.102	-0.229
-727.923	-37.540	0.193	-0.104
-726.908	800.000	-0.041	-0.127
-725.894	-200.000	-0.012	-0.198
-724.879	-127.594	-0.247	-0.036
-723.864	-141.690	-0.375	-0.038
-722.850	-200.000	0.010	0.167
-721.835	-20.146	-0.101	-0.063
-720.821	22.058	0.199	-0.164
-719.806	800.000	0.002	-0.004
-718.791	244.047	-0.133	0.226
-717.777	19.087	0.185	0.150
-716.762	-51.810	0.192	0.090
-715.748	-200.000	0.005	0.097
-714.733	-159.804	0.346	0.019
-713.718	-175.548	-0.271	-0.007
-712.704	-43.542	-0.185	-0.094
-711.689	-200.000	-0.015	0.118
-710.675	-200.000	-0.030	0.226
-709.660	-155.088	-0.123	0.008
-708.645	-2.514	-0.225	-0.159
-707.631	569.309	0.031	-0.076
-706.616	-43.320	-0.260	0.133
-705.602	-52.054	0.347	-0.163
-704.587	-30.791	-0.224	-0.128
-703.572	29.291	-0.209	-0.180
-702.558	-62.130	0.099	0.042
-701.543	800.000	-0.017	0.050
-700.529	225.956	0.077	0.126
-699.514	98.264	-0.010	0.012
-698.499	317.548	-0.022	0.043
-697.485	-92.947	0.226	0.064
-696.470	81.450	0.187	-0.204
-695.456	-48.802	-0.164	-0.080
-694.441	800.000	-0.073	-0.264
-693.426	13.209	-0.138	-0.108
-692.412	-5.229	-0.151	-0.105
-691.397	-13.377	0.524	0.344
-690.383	-87.980	0.184	0.056
-689.368	-168.576	-0.324	0.012
-688.354	800.000	-0.070	-0.263
-687.339	-28.780	-0.198	0.115
-686.324	-132.525	0.151	-0.020
-685.310	-200.000	0.017	0.085
-684.295	-86.533	-0.101	0.031
-683.281	-200.000	-0.032	0.220
-682.266	-3.970	0.215	-0.150
-681.251	-200.000	0.046	0.330
-680.237	34.138	0.234	0.206
-679.222	-160.855	0.081	0.004
-678.208	82.585	0.090	0.099
-677.193	-44.137	-0.155	0.079
-676.178	2.008	-0.256	-0.186
-675.164	471.438	0.032	-0.073
-674.149	-47.645	0.149	-0.073
-673.135	-139.637	-0.159	0.017
-672.120	-200.000	-0.004	-0.235
-671.105	-46.075	0.279	-0.139
-670.091	-200.000	-0.066	-0.318
-669.076	205.840	0.118	0.185
-668.062	-103.999	-0.512	0.121
-667.047	16.308	0.048	0.038
-666.032	-129.144	0.109	-0.015
-665.018	175.246	0.114	-0.167
-664.003	-152.443	0.347	0.025
-662.989	-154.733	0.313	-0.021
-661.974	118.041	0.133	0.165
-660.959	-96.963	-0.240	-0.063
-659.945	-198.205	-0.487	-0.003
-658.930	14.452	0.276	0.218
-657.916	-106.453	-0.060	0.014
-656.901	-200.000	-0.051	0.282
-655.886	-79.853	-0.125	0.043
-654.872	129.789	-0.049	-0.064
-653.857	-73.499	0.074	-0.027
-652.843	-125.868	-0.153	0.023
-651.828	-130.560	-0.179	-0.024
-650.814	66.147	-0.133	-0.136
-649.799	42.454	0.268	-0.246
-648.784	149.693	0.185	-0.253
-647.770	-159.531	0.338	0.019
-646.755	800.000	0.049	-0.185
-645.741	130.448	-0.144	-0.186
-644.726	-110.067	-0.256	0.054
-643.711	-26.437	-0.100	0.059
-642.697	-200.000	-0.008	-0.168
-641.682	23.784	0.323	0.268
-640.668	800.000	-0.086	0.289
-639.653	407.155	0.084	-0.178
-638.638	-91.103	0.112	-0.032
-637.624	21.565	0.086	-0.071
-636.609	-128.615	-0.169	0.024
-635.595	486.310	0.031	0.071
-634.580	800.000	0.064	-0.197
-633.565	321.045	0.051	-0.097
-632.551	160.885	0.179	0.252
-631.536	-62.990	0.120	0.050
-630.522	40.797	-0.101	-0.092
-629.507	118.596	0.179	0.223
-628.492	492.560	-0.073	0.167
-627.478	-100.880	-0.240	-0.059
-626.463	-134.053	0.287	-0.036
-625.449	140.206	-0.152	-0.202
-624.434	36.022	0.154	-0.136
-623.419	-167.643	-0.298	-0.012
-622.405	-104.532	-0.165	0.038
-621.390	210.363	0.055	0.087
-620.376	-155.039	0.570	-0.038
-619.361	61.815	-0.104	-0.104
-618.346	146.035	-0.119	-0.161
-617.332	-200.000	-0.003	-0.232
-616.317	-123.542	-0.182	-0.029
-615.303	800.000	-0.068	-0.197
-614.288	-0.058	0.081	0.058
-613.273	140.495	-0.131	0.174
-612.259	-33.611	0.070	-0.039
-611.244	800.000	-0.081	-0.260
-610.230	800.000	0.092	-0.276
-609.215	21.048	-0.072	-0.059
-608.201	695.006	0.071	0.187
-607.186	-177.371	0.307	-0.008
-606.171	-46.472	0.281	-0.139
-605.157	-25.935	-0.437	0.259
-604.142	245.633	-0.124	0.210
-603.128	115.687	-0.061	0.076
-602.113	-21.733	0.152	-0.093
-601.098	-200.000	0.042	-0.362
-600.084	-109.948	-0.205	0.043
-599.069	-200.000	0.004	-0.287
-598.055	104.261	-0.166	0.197
-597.040	-76.164	0.349	0.124
-596.025	230.238	-0.098	-0.162
-595.011	-200.000	-0.003	0.026
-593.996	-128.252	-0.103	-0.015
-592.982	96.960	0.299	0.345
-591.967	800.000	0.086	-0.316
-590.952	-169.400	0.473	0.017
-589.938	-102.176	-0.133	-0.032
-588.923	-94.437	-0.115	0.032
-587.909	-177.581	0.272	0.007
-586.894	-27.578	-0.308	-0.180
-585.879	188.594	-0.096	0.145
-584.865	-53.851	-0.057	0.026
-583.850	-200.000	-0.034	-0.158
-582.836	138.130	-0.113	-0.149
-581.821	258.290	0.118	-0.205
-580.806	-151.616	0.131	0.010
-579.792	83.278	0.210	-0.230
-578.777	-140.842	0.274	-0.028
-577.763	-124.110	0.230	0.036
-576.748	800.000	-0.061	-0.230
-575.733	78.128	-0.118	0.127
-574.719	-200.000	0.017	0.081
-573.704	277.703	-0.149	-0.267
-572.690	271.746	-0.086	-0.152
-571.675	800.000	0.084	0.290
-570.661	415.876	0.090	0.194
-569.646	-92.276	-0.264	0.075
-568.631	-0.079	-0.216	0.154
-567.617	-71.632	0.092	0.035
-566.602	46.372	-0.141	-0.132
-565.588	130.649	-0.089	0.115
-564.573	-131.734	0.143	0.019
-563.558	800.000	0.081	0.242
-562.544	-200.000	0.066	0.389
-561.529	116.814	-0.238	-0.294
-560.515	-128.853	-0.335	-0.047
-559.500	-200.000	0.005	-0.083
-558.485	45.337	0.104	0.097
-557.471	-200.000	-0.033	0.237
-556.456	619.018	-0.137	0.346
-555.442	-138.791	0.256	0.028
-554.427	-200.000	0.037	0.422
-553.412	690.130	0.091	-0.239
-552.398	-200.000	0.027	-0.271
-551.383	345.837	-0.062	-0.123
-550.369	461.579	0.103	-0.231
-549.354	55.035	-0.200	-0.194
-548.339	-69.627	-0.138	0.053
-547.325	800.000	-0.061	-0.226
-546.310	16.901	-0.285	-0.226
-545.296	800.000	-0.020	-0.077
-544.281	-71.490	-0.219	-0.082
-543.266	-53.674	0.387	0.178
-542.252	569.066	0.011	0.027
-541.237	-135.443	-0.416	0.050
-540.223	-200.000	0.083	0.000
-539.208	113.970	0.139	0.169
-538.193	-74.473	-0.195	-0.071
-537.179	-42.998	0.197	-0.100
-536.164	800.000	0.086	-0.268
-535.150	94.923	-0.093	-0.106
-534.135	584.640	0.066	-0.162
-533.121	38.292	-0.158	0.141
-532.106	-200.000	0.015	-0.242
-531.091	266.968	-0.097	-0.170
-530.077	800.000	0.094	-0.359
-529.062	-200.000	0.067	-0.323
-528.048	-200.000	-0.003	-0.208
-527.033	14.502	0.133	0.104
-526.018	190.572	-0.095	-0.144
-525.004	128.203	0.127	-0.163
-523.989	-111.077	-0.227	-0.047
-522.975	-56.758	-0.227	0.101
-521.960	354.997	0.090	-0.181
-520.945	-152.759	0.152	0.011
-519.931	-110.837	0.077	0.016
-518.916	217.219	-0.031	0.049
-517.902	-72.095	0.049	-0.018
-516.887	-13.640	0.039	0.025
-515.872	800.000	0.094	0.302
-514.858	97.792	-0.207	0.239
-513.843	130.999	-0.088	0.113
-512.829	36.411	-0.096	0.085
-511.814	-24.648	-0.177	0.105
-510.799	151.338	0.236	0.322
-509.785	-88.280	-0.146	0.044
-508.770	800.000	0.064	-0.240
-507.756	-200.000	-0.010	-0.069
-506.741	800.000	0.042	0.172
-505.726	134.562	0.256	0.333
-504.712	213.817	0.156	0.248
-503.697	448.575	-0.076	-0.168
-502.683	-200.000	-0.030	0.147
-501.668	559.069	0.024	0.058
-500.653	-141.058	-0.082	-0.008
-499.639	580.237	-0.155	0.380
-498.624	-200.000	-0.001	0.127
-497.610	275.778	0.089	0.159
-496.595	800.000	-0.067	0.252
-495.581	-200.000	-0.010	-0.325
-494.566	-45.503	0.116	0.057
-493.551	-200.000	0.021	0.110
-492.537	-200.000	-0.034	-0.219
-491.522	-27.927	0.243	-0.141
-490.508	640.915	-0.051	-0.131
-489.493	-200.000	0.001	-0.028
-488.478	-180.283	0.148	0.003
-487.464	-15.652	0.196	-0.126
-486.449	-200.000	-0.063	-0.402
-485.435	-105.341	0.221	-0.050
-484.420	247.069	-0.129	0.219
-483.405	-31.363	-0.128	-0.072
-482.391	12.643	0.079	-0.061
-481.376	109.808	-0.192	-0.230
-480.362	-200.000	-0.007	-0.136
-479.347	263.044	0.038	0.066
-478.332	473.354	-0.117	0.265
-477.318	800.000	-0.080	-0.320
-476.303	506.074	-0.153	0.356
-475.289	221.996	0.078	0.126
-474.274	-25.707	0.198	0.117
-473.259	800.000	-0.085	0.343
-472.245	-153.998	-0.294	-0.020
-471.230	800.000	-0.040	-0.127
-470.216	-200.000	-0.011	0.287
-469.201	-200.000	0.090	-0.458
-468.186	-7.239	-0.082	0.055
-467.172	277.631	-0.090	-0.161
-466.157	-48.006	-0.168	-0.081
-465.143	-83.754	0.305	-0.098
-464.128	-43.399	-0.422	-0.213
-463.113	-200.000	0.022	0.252
-462.099	-19.109	-0.344	-0.214
-461.084	110.127	-0.120	0.144
-460.070	136.732	-0.157	-0.205
-459.055	47.867	0.252	-0.236
-458.040	-200.000	-0.006	0.263
-457.026	136.540	-0.104	0.136
-456.011	-42.846	-0.359	0.182
-454.997	800.000	0.041	0.149
-453.982	122.438	-0.109	0.136
-452.968	-39.255	-0.271	0.143
-451.953	49.929	-0.245	-0.232
-450.938	38.710	-0.160	0.143
-449.924	203.314	-0.129	0.199
-448.909	52.519	0.169	-0.161
-447.895	-112.795	-0.139	-0.028
-446.880	172.014	0.095	0.137
-445.865	272.265	0.124	-0.219
-444.851	800.000	0.051	0.160
-443.836	28.595	-0.182	-0.154
-442.822	-200.000	-0.194	0.000
-441.807	183.624	0.016	0.024
-440.792	-124.765	0.051	0.008
-439.778	-32.174	-0.087	0.049
-438.763	-84.045	0.134	-0.042
-437.749	-47.158	0.169	-0.082
-436.734	-200.000	-0.064	0.355
-435.719	-59.607	-0.098	0.042
-434.705	-70.326	-0.178	-0.068
-433.690	-60.740	0.380	0.161
-432.676	-36.719	0.148	0.080
-431.661	32.736	-0.189	-0.163
-430.646	246.123	0.038	0.064
-429.632	-46.440	-0.177	-0.087
-428.617	-70.185	-0.094	0.036
-427.603	-82.744	-0.184	0.059
-426.588	-42.263	-0.102	-0.052
-425.573	93.196	0.139	-0.157
-424.559	-44.760	-0.082	-0.041
-423.544	-149.626	-0.316	0.025
-422.530	-200.000	0.003	0.288
-421.515	-80.041	0.438	0.147
-420.500	-200.000	-0.060	-0.303
-419.486	246.847	-0.245	-0.413
-418.471	-4.336	-0.230	0.159
-417.457	109.850	-0.049	0.059
-416.442	671.400	-0.102	0.265
-415.428	-200.000	-0.010	0.127
-414.413	-200.000	0.041	-0.205
-413.398	164.692	0.133	-0.187
-412.384	-11.309	0.258	0.170
-411.369	-99.568	-0.404	-0.101
-410.355	395.274	-0.091	-0.189
-409.340	338.813	0.039	0.077
-408.325	176.279	0.157	-0.228
-407.311	620.118	-0.038	-0.096
-406.296	-106.752	0.267	0.059
-405.282	126.324	-0.104	0.131
-404.267	-200.000	0.006	-0.225
-403.252	800.000	0.107	-0.351
-402.238	800.000	-0.015	0.046
-401.223	800.000	-0.018	0.072
-400.209	800.000	-0.094	0.262
-399.194	121.822	-0.126	0.157
-398.179	78.188	-0.207	0.220
-397.165	491.234	-0.128	0.292
-396.150	-200.000	-0.041	0.188
-395.136	-113.012	0.246	-0.049
-394.121	23.993	-0.279	0.230
-393.106	96.155	0.268	-0.305
-392.092	335.252	-0.028	0.055
-391.077	-117.172	0.167	-0.030
-390.063	-160.492	-0.141	0.008
-389.048	-57.500	0.354	-0.155
-388.033	239.975	-0.107	0.177
-387.019	6.817	-0.274	-0.204
-386.004	-200.000	-0.022	0.242
-384.990	110.428	0.130	0.156
-383.975	-200.000	-0.007	0.271
-382.960	-174.097	0.264	0.008
-381.946	174.819	0.248	0.358
-380.931	-26.885	-0.085	0.050
-379.917	291.816	0.025	0.046
-378.902	129.478	0.194	-0.248
-377.888	800.000	0.071	0.235
-376.873	80.507	-0.328	0.352
-375.858	-167.925	-0.139	0.005
-374.844	156.427	-0.054	-0.074
-373.829	-161.284	-0.173	-0.009
-372.815	124.751	0.079	0.100
-371.800	800.000	0.032	-0.102
-370.785	-62.999	-0.284	-0.117
-369.771	179.684	-0.037	-0.054
-368.756	-200.000	-0.033	0.174
-367.742	-101.249	0.293	-0.071
-366.727	800.000	-0.065	0.209
-365.712	-95.209	0.159	-0.043
-364.698	181.927	0.074	-0.109
-363.683	-200.000	-0.020	-0.452
-362.669	-39.327	0.209	0.109
-361.654	508.420	0.127	0.293
-360.639	-200.000	-0.051	-0.255
-359.625	521.899	0.067	-0.157
-358.610	304.973	0.139	0.257
-357.596	-51.962	-0.444	-0.206
-356.581	800.000	-0.078	0.225
-355.566	-200.000	0.037	0.342
-354.552	25.280	-0.351	-0.291
-353.537	638.736	0.035	-0.090
-352.523	-200.000	0.006	0.175
-351.508	99.697	0.266	0.307
-350.493	-88.722	-0.084	0.025
-349.479	30.987	-0.112	-0.095
-348.464	30.362	-0.076	0.065
-347.450	-106.654	0.137	-0.030
-346.435	-107.702	0.070	0.015
-345.420	216.026	-0.226	-0.358
-344.406	0.329	0.355	0.253
-343.391	-200.000	-0.026	-0.147
-342.377	-96.061	0.210	0.056
-341.362	58.662	-0.120	0.117
-340.348	312.788	0.053	0.098
-339.333	418.827	-0.117	-0.249
-338.318	-10.071	0.023	-0.015
-337.304	-200.000	0.009	-0.045
-336.289	-104.040	0.042	0.010
-335.275	341.056	0.155	-0.302
-334.260	-184.980	0.122	0.002
-333.245	-121.653	0.102	0.017
-332.231	-108.750	0.323	-0.069
-331.216	60.654	0.167	-0.165
-330.202	29.620	-0.337	0.286
-329.187	423.794	-0.131	0.280
-328.172	-128.142	-0.400	-0.057
-327.158	-1.856	-0.092	0.064
-326.143	31.177	-0.215	0.184
-325.129	-16.162	-0.076	-0.048
-324.114	-200.000	-0.066	-0.359
-323.099	607.671	0.104	0.257
-322.085	-59.767	-0.303	-0.129
-321.070	189.430	0.139	-0.207
-320.056	102.698	-0.032	0.037
-319.041	-174.568	-0.265	0.008
-318.026	800.000	0.026	0.085
-317.012	330.680	0.072	-0.137
-315.997	-81.965	-0.162	0.053
-314.983	-200.000	-0.017	-0.132
-313.968	-200.000	0.057	0.299
-312.953	800.000	0.066	-0.253
-311.939	-112.239	-0.182	0.036
-310.924	-69.584	-0.166	-0.063
-309.910	199.267	0.130	-0.199
-308.895	-200.000	-0.001	0.230
-307.880	-90.397	-0.308	0.089
-306.866	494.790	0.179	-0.408
-305.851	-200.000	-0.021	0.142
-304.837	-124.845	0.078	-0.012
-303.822	-200.000	-0.060	0.393
-302.807	-25.083	-0.213	-0.126
-301.793	-56.619	-0.056	0.025
-300.778	-200.000	0.009	-0.377
-299.764	-96.733	0.069	0.018
-298.749	-120.840	0.098	-0.016
-297.735	-159.472	0.412	-0.023
-296.720	-123.062	-0.175	0.028
-295.705	88.510	0.120	0.132
-294.691	57.342	-0.080	-0.078
-293.676	54.148	-0.250	-0.239
-292.662	553.107	0.150	0.360
-291.647	28.572	-0.214	0.180
-290.632	-16.811	-0.320	-0.201
-289.618	22.746	0.172	0.140
-288.603	-114.425	-0.231	0.044
-287.589	-43.044	0.154	0.077
-286.574	-200.000	-0.011	0.236
-285.559	-171.529	0.288	-0.010
-284.545	-61.274	-0.240	-0.100
-283.530	-122.127	-0.097	-0.016
-282.516	-200.000	0.008	-0.040
-281.501	2.710	0.225	0.162
-280.486	-200.000	0.006	0.229
-279.472	629.572	-0.037	0.092
-278.457	-98.654	-0.335	0.085
-277.443	-64.443	-0.225	-0.091
-276.428	108.203	0.249	-0.295
-275.413	-90.586	0.099	-0.028
-274.399	-200.000	-0.032	-0.138
-273.384	-40.836	0.222	-0.114
-272.370	51.588	-0.144	-0.136
-271.355	-33.557	-0.082	0.045
-270.340	33.352	0.202	-0.175
-269.326	-200.000	0.005	0.275
-268.311	800.000	0.099	0.283
-267.297	-63.498	-0.081	-0.033
-266.282	15.997	0.111	0.087
-265.267	-65.001	-0.188	0.075
-264.253	-26.087	0.220	0.128
-263.238	19.888	0.234	-0.187
-262.224	-200.000	0.092	-0.449
-261.209	258.287	-0.144	-0.247
-260.195	-118.218	-0.152	-0.027
-259.180	122.384	-0.092	-0.115
-258.165	186.768	-0.082	0.121
-257.151	-104.723	0.175	-0.040
-256.136	-77.334	0.154	0.053
-255.122	800.000	-0.055	0.238
-254.107	-66.767	0.138	0.054
-253.092	-150.870	0.335	0.025
-252.078	-50.253	-0.189	0.089
-251.063	515.655	-0.101	0.235
-250.049	-26.724	0.257	-0.149
-249.034	71.728	-0.121	0.125
-248.019	371.991	-0.063	0.126
-247.005	-200.000	-0.012	-0.179
-245.990	-119.166	0.144	-0.025
-244.976	786.570	0.095	-0.259
-243.961	-200.000	-0.011	0.229
-242.946	800.000	-0.069	-0.194
-241.932	800.000	0.075	0.221
-240.917	22.660	0.206	0.167
-239.903	84.030	0.143	0.155
-238.888	131.400	0.143	0.183
-237.873	-20.174	-0.332	0.203
-236.859	162.021	0.147	0.204
-235.844	-83.199	0.196	-0.063
-234.830	-63.530	-0.218	-0.089
-233.815	-200.000	0.021	-0.137
-232.800	-153.948	0.250	0.017
-231.786	356.496	0.049	-0.097
-230.771	707.954	0.048	-0.127
-229.757	-74.635	0.346	-0.123
-228.742	58.232	-0.123	0.120
-227.727	65.105	0.020	-0.020
-226.713	800.000	-0.061	-0.178
-225.698	-146.635	-0.095	-0.008
-224.684	274.585	0.182	-0.320
-223.669	306.381	-0.057	0.105
-222.655	800.000	0.014	-0.045
-221.640	195.926	0.096	0.145
-220.625	-200.000	-0.037	0.181
-219.611	464.035	0.053	0.116
-218.596	-92.009	-0.354	-0.099
-217.582	800.000	-0.021	-0.078
-216.567	800.000	-0.112	0.354
-215.552	-200.000	-0.009	-0.233
-214.538	-67.960	-0.408	-0.158
-213.523	-200.000	0.022	-0.180
-212.509	-23.520	-0.283	0.169
-211.494	484.610	0.108	0.245
-210.479	-179.029	0.119	0.003
-209.465	-65.504	-0.068	-0.027
-208.450	21.826	0.107	-0.086
-207.436	800.000	0.075	0.267
-206.421	122.287	0.258	-0.319
-205.406	-200.000	-0.012	0.169
-204.392	80.459	-0.483	-0.515
-203.377	780.558	0.042	0.113
-202.363	317.544	0.191	-0.357
-201.348	-200.000	-0.036	-0.436
-200.333	37.366	0.223	-0.196
-199.319	536.693	0.089	0.210
-198.304	-200.000	0.039	0.332
-197.290	24.413	0.214	0.175
-196.275	-116.590	0.157	-0.029
-195.260	369.482	0.087	-0.175
-194.246	140.095	0.095	0.124
-193.231	800.000	0.060	-0.236
-192.217	102.092	0.133	0.154
-191.202	-43.456	-0.128	-0.064
-190.187	58.582	0.114	-0.111
-189.173	-125.376	-0.165	0.025
-188.158	239.435	0.016	0.027
-187.144	-118.349	-0.230	0.040
-186.129	23.074	0.069	-0.056
-185.114	640.328	0.202	0.510
-184.100	-132.733	0.350	0.044
-183.085	-95.247	-0.335	0.089
-182.071	-200.000	0.006	0.096
-181.056	-31.431	0.275	0.153
-180.042	-103.023	-0.355	0.083
-179.027	3.087	-0.046	0.033
-178.012	-127.702	0.190	-0.027
-176.998	-109.785	-0.219	0.046
-175.983	40.032	-0.076	0.068
-174.969	40.945	0.193	0.172
-173.954	-3.508	0.170	0.117
-172.939	603.980	0.076	-0.186
-171.925	-135.608	0.329	0.039
-170.910	800.000	-0.065	0.238
-169.896	-77.408	0.194	0.067
-168.881	-200.000	0.021	-0.111
-167.866	42.109	0.218	-0.196
-166.852	-120.203	-0.440	-0.074
-165.837	-118.172	0.222	0.039
-164.823	51.080	0.108	-0.101
-163.808	168.515	-0.127	-0.179
-162.793	-29.023	0.201	0.114
-161.779	654.570	0.117	0.297
-160.764	-30.614	0.422	-0.237
-159.750	-84.663	-0.284	-0.089
-158.735	73.268	0.113	0.117
-157.720	-200.000	0.013	0.066
-156.706	-40.964	-0.236	0.121
-155.691	-13.273	0.142	-0.091
-154.677	-104.522	-0.277	-0.063
-153.662	-130.719	0.369	-0.049
-152.647	172.376	0.128	0.182
-151.633	257.202	0.154	-0.261
-150.618	7.582	0.200	0.148
-149.604	-200.000	-0.019	0.152
-148.589	-33.162	0.075	0.041
-147.574	-130.186	0.363	-0.049
-146.560	543.070	-0.054	-0.127
-145.545	-200.000	0.023	-0.158
-144.531	34.904	0.173	0.150
-143.516	320.955	0.144	-0.271
-142.502	-155.118	0.290	0.019
-141.487	598.180	0.074	0.182
-140.472	-162.059	-0.248	-0.012
-139.458	537.577	0.035	-0.083
-138.443	178.815	0.212	-0.306
-137.429	-200.000	0.014	-0.196
-136.414	322.958	0.044	0.083
-135.399	-13.457	-0.144	-0.093
-134.385	482.251	0.161	0.362
-133.370	-133.468	-0.227	0.028
-132.356	-85.299	0.164	-0.050
-131.341	-36.111	-0.150	0.080
-130.326	31.546	0.105	0.089
-129.312	-144.503	0.247	-0.023
-128.297	-200.000	-0.072	-0.324
-127.283	-97.218	0.181	0.047
-126.268	149.884	-0.109	-0.146
-125.253	501.002	-0.076	0.173
-124.239	-159.097	-0.267	-0.015
-123.224	277.737	-0.082	0.143
-122.210	-18.045	-0.490	0.303
-121.195	71.856	0.168	-0.172
