DTS Sentinel unit serial number:	SN413079Multiplexer serial number:	ORYXHardware model number:	OX4-SRSoftware version number:	ORYX F/W v4.00 Oryx Data Collector v3.7.2.0data status	okinstallation	princeton_trtdifferential loss correction	single-endedforward channel	channel 1reverse channel	N/Adate	2019/09/17time	14:42:35forward acquisition time	60.00reverse acquisition time	0.00gamma	496.2192k internal	0.2297k external	0.2297temperature offset calibration	0.9966default loss term (dB/km)	0.3790temperature slope calibration	1.0000multiplexer offset coefficient	1.0000multiplexer slope coefficient	1.0000fibre end	0.00T internal ref (°C)	36.84T ext. ref 1 (°C)	0.40T ext. ref 2 (°C)	33.76length (m)	temperature (°C)	Stokes	anti-Stokes-747.200	155.546	-0.148	0.208
-746.185	67.346	0.118	0.123
-745.171	-127.305	-0.247	0.037
-744.156	-58.841	0.176	0.078
-743.142	800.000	0.072	0.270
-742.127	800.000	-0.131	0.389
-741.112	-123.858	-0.160	-0.026
-740.098	711.239	0.046	-0.123
-739.083	405.571	0.091	-0.197
-738.069	239.165	-0.101	0.172
-737.054	138.086	0.069	0.093
-736.039	-200.000	-0.001	-0.157
-735.025	-15.093	0.098	-0.064
-734.010	28.677	-0.354	-0.306
-732.996	18.700	-0.092	-0.075
-731.981	-30.631	-0.319	-0.185
-730.966	341.287	0.060	-0.120
-729.952	-23.040	-0.168	0.103
-728.937	-178.561	-0.359	-0.008
-727.923	-200.000	-0.031	0.254
-726.908	167.055	-0.292	0.424
-725.894	-61.597	-0.048	-0.021
-724.879	-148.545	-0.221	-0.018
-723.864	-133.157	0.077	0.010
-722.850	-66.613	-0.214	-0.087
-721.835	644.749	0.029	0.076
-720.821	562.487	0.068	-0.169
-719.806	800.000	0.024	-0.087
-718.791	-82.147	0.543	0.181
-717.777	-200.000	0.104	-0.480
-716.762	53.979	-0.131	-0.128
-715.748	232.988	0.088	-0.148
-714.733	-101.044	-0.234	0.058
-713.718	800.000	-0.043	-0.147
-712.704	-21.248	0.120	-0.075
-711.689	308.262	-0.126	-0.239
-710.675	-3.208	0.052	0.037
-709.660	-81.419	-0.363	-0.122
-708.645	292.786	-0.151	-0.281
-707.631	800.000	0.091	0.311
-706.616	-200.000	0.036	0.192
-705.602	0.987	-0.252	-0.184
-704.587	-51.135	-0.033	-0.016
-703.572	-200.000	-0.003	-0.130
-702.558	-57.392	-0.091	0.041
-701.543	-129.117	0.062	-0.009
-700.529	-29.363	0.319	-0.186
-699.514	-137.651	-0.444	0.051
-698.499	-23.742	0.248	0.152
-697.485	-42.355	-0.319	0.166
-696.470	800.000	-0.059	-0.218
-695.456	35.680	0.264	0.236
-694.441	-27.865	0.236	0.140
-693.426	164.128	-0.176	0.252
-692.412	462.708	-0.123	-0.280
-691.397	-135.991	-0.286	0.034
-690.383	800.000	0.098	0.281
-689.368	44.061	-0.189	0.177
-688.354	74.186	-0.087	0.093
-687.339	800.000	-0.056	0.215
-686.324	-103.061	-0.251	-0.061
-685.310	-117.635	0.188	0.034
-684.295	224.184	-0.121	0.199
-683.281	-200.000	0.044	0.220
-682.266	-15.295	-0.115	0.075
-681.251	162.061	0.077	-0.110
-680.237	800.000	-0.060	-0.180
-679.222	-57.276	0.204	0.091
-678.208	-41.654	-0.144	-0.075
-677.193	800.000	-0.029	-0.121
-676.178	-65.463	-0.119	-0.049
-675.164	-200.000	-0.074	-0.344
-674.149	800.000	-0.081	-0.278
-673.135	-91.198	0.057	0.017
-672.120	186.489	0.158	0.240
-671.105	-1.836	-0.221	0.158
-670.091	160.332	-0.081	-0.115
-669.076	-54.190	-0.061	0.028
-668.062	-44.941	0.256	-0.130
-667.047	467.719	-0.090	-0.206
-666.032	505.312	-0.042	-0.100
-665.018	-61.203	0.194	-0.083
-664.003	-200.000	0.012	0.182
-662.989	-149.912	0.192	0.015
-661.974	-60.560	0.048	0.021
-660.959	286.302	0.036	0.067
-659.945	800.000	0.072	0.306
-658.930	-83.102	0.089	0.029
-657.916	-77.917	-0.203	-0.071
-656.901	19.384	0.114	0.094
-655.886	-122.588	0.243	0.040
-654.872	-200.000	0.025	0.521
-653.857	117.433	-0.091	-0.114
-652.843	88.879	0.034	-0.039
-651.828	-200.000	-0.032	-0.195
-650.814	-11.394	-0.166	-0.111
-649.799	71.433	0.081	0.086
-648.784	70.374	-0.038	-0.040
-647.770	265.115	-0.079	-0.139
-646.755	97.428	-0.173	-0.202
-645.741	-200.000	0.048	-0.254
-644.726	47.235	0.390	0.369
-643.711	-184.433	0.035	0.001
-642.697	800.000	-0.050	-0.161
-641.682	11.272	0.215	0.167
-640.668	-57.558	0.203	0.091
-639.653	-112.168	-0.251	0.051
-638.638	-53.476	-0.085	0.040
-637.624	-127.707	0.233	0.034
-636.609	-200.000	-0.038	-0.181
-635.595	-125.871	0.281	-0.043
-634.580	-200.000	-0.026	0.239
-633.565	44.040	-0.213	0.198
-632.551	72.177	0.065	0.068
-631.536	-200.000	0.054	-0.384
-630.522	278.277	0.156	0.282
-629.507	-32.628	0.100	-0.057
-628.492	58.920	0.336	-0.336
-627.478	-94.722	0.209	-0.058
-626.463	736.090	-0.074	0.201
-625.449	-40.563	0.102	0.054
-624.434	-136.975	-0.266	-0.031
-623.419	-114.712	0.370	0.072
-622.405	25.336	-0.102	0.086
-621.390	218.488	0.054	-0.088
-620.376	-91.312	-0.280	-0.081
-619.361	-200.000	-0.042	-0.210
-618.346	-123.887	0.252	0.040
-617.332	222.478	0.131	-0.214
-616.317	26.876	-0.247	-0.211
-615.303	800.000	-0.083	-0.265
-614.288	227.305	0.153	-0.253
-613.273	365.279	0.130	-0.266
-612.259	-200.000	0.015	0.075
-611.244	238.012	0.062	-0.104
-610.230	800.000	-0.080	-0.254
-609.215	-200.000	-0.002	-0.111
-608.201	764.090	-0.057	-0.158
-607.186	800.000	0.013	0.037
-606.171	-55.274	0.328	-0.150
-605.157	-116.976	-0.341	-0.063
-604.142	-90.990	0.282	0.082
-603.128	-200.000	-0.024	0.296
-602.113	-0.512	-0.213	-0.154
-601.098	64.475	0.113	-0.116
-600.084	-60.030	-0.292	0.126
-599.069	-73.675	-0.124	-0.046
-598.055	-39.880	-0.266	0.141
-597.040	-59.284	0.182	-0.080
-596.025	-143.268	-0.178	0.017
-595.011	408.665	0.050	0.107
-593.996	-152.125	0.127	-0.009
-592.982	-66.380	0.239	0.096
-591.967	-200.000	-0.018	-0.168
-590.952	216.477	0.162	-0.262
-589.938	-200.000	-0.009	0.124
-588.923	-175.773	0.022	0.001
-587.909	-200.000	0.024	0.158
-586.894	-154.568	0.298	0.020
-585.879	800.000	-0.042	-0.185
-584.865	92.280	0.032	-0.037
-583.850	-200.000	-0.005	0.042
-582.836	127.533	-0.214	0.276
-581.821	222.880	0.118	0.194
-580.806	197.741	0.153	-0.237
-579.792	85.444	0.147	-0.164
-578.777	-54.391	0.084	0.039
-577.763	-200.000	0.012	-0.377
-576.748	-104.461	-0.125	-0.029
-575.733	-200.000	0.007	0.376
-574.719	-200.000	0.010	-0.419
-573.704	-56.772	0.106	-0.048
-572.690	55.455	0.157	-0.154
-571.675	-37.931	-0.126	0.068
-570.661	-200.000	-0.002	-0.303
-569.646	-147.395	0.340	-0.029
-568.631	-32.536	0.034	-0.019
-567.617	-45.885	0.079	0.040
-566.602	-188.839	-0.277	-0.003
-565.588	-122.025	-0.175	0.029
-564.573	-64.399	-0.191	-0.079
-563.558	-200.000	0.002	0.059
-562.544	225.306	0.065	-0.107
-561.529	4.714	-0.205	0.152
-560.515	-88.756	0.253	-0.076
-559.500	-69.545	0.136	0.053
-558.485	-160.978	0.084	-0.004
-557.471	-66.838	0.232	0.093
-556.456	157.919	-0.071	0.100
-555.442	292.317	0.096	-0.177
-554.427	-132.110	-0.126	0.017
-553.412	67.383	-0.079	0.082
-552.398	800.000	-0.042	-0.146
-551.383	-200.000	0.016	0.179
-550.369	756.304	-0.028	0.076
-549.354	800.000	-0.100	-0.345
-548.339	260.017	-0.156	-0.272
-547.325	-0.543	0.139	0.100
-546.310	-200.000	-0.002	-0.255
-545.296	-200.000	0.008	-0.037
-544.281	76.915	-0.164	0.176
-543.266	-165.381	0.180	-0.008
-542.252	476.400	-0.073	0.168
-541.237	322.249	-0.021	0.041
-540.223	84.385	-0.078	-0.087
-539.208	-27.797	0.285	0.167
-538.193	322.793	0.007	-0.013
-537.179	-100.246	-0.023	-0.006
-536.164	529.502	0.051	0.123
-535.150	482.981	-0.060	0.139
-534.135	57.590	-0.103	-0.102
-533.121	-200.000	0.023	-0.225
-532.106	800.000	0.029	-0.109
-531.091	-82.155	-0.209	-0.069
-530.077	10.963	-0.157	-0.122
-529.062	800.000	0.166	-0.544
-528.048	-200.000	0.047	-0.395
-527.033	590.231	0.028	0.069
-526.018	50.579	-0.046	0.044
-525.004	-54.995	0.235	0.107
-523.989	41.373	0.154	0.141
-522.975	397.024	0.011	0.022
-521.960	173.268	-0.113	0.164
-520.945	93.572	-0.209	-0.240
-519.931	-66.984	0.141	0.057
-518.916	2.458	0.300	-0.220
-517.902	800.000	0.032	0.098
-516.887	-135.369	-0.303	0.037
-515.872	-200.000	-0.027	-0.197
-514.858	21.926	0.045	-0.037
-513.843	87.783	0.106	0.119
-512.829	-130.343	-0.328	-0.045
-511.814	-86.048	0.072	-0.022
-510.799	800.000	0.022	0.071
-509.785	-22.001	0.158	-0.097
-508.770	24.652	-0.143	-0.120
-507.756	518.428	0.072	0.171
-506.741	54.749	-0.254	0.248
-505.726	42.326	0.113	0.104
-504.712	-200.000	0.009	-0.174
-503.697	19.273	-0.402	-0.327
-502.683	238.724	-0.148	-0.249
-501.668	448.310	0.041	0.092
-500.653	-81.513	0.326	-0.108
-499.639	-142.068	-0.282	0.028
-498.624	107.055	0.255	-0.307
-497.610	-42.795	0.276	0.142
-496.595	5.890	-0.210	-0.157
-495.581	290.496	-0.125	-0.230
-494.566	264.485	-0.072	-0.127
-493.551	-182.072	-0.389	0.007
-492.537	800.000	-0.064	-0.246
-491.522	800.000	-0.020	-0.075
-490.508	800.000	-0.048	-0.199
-489.493	-200.000	-0.013	0.181
-488.478	206.407	0.151	0.237
-487.464	530.148	-0.061	-0.146
-486.449	56.778	0.256	-0.252
-485.435	-36.124	-0.132	0.072
-484.420	111.914	-0.200	0.245
-483.405	-39.900	0.445	0.235
-482.391	55.199	0.041	0.041
-481.376	312.881	-0.152	-0.288
-480.362	800.000	-0.047	-0.188
-479.347	215.659	-0.146	0.234
-478.332	764.032	0.038	0.104
-477.318	631.839	0.074	-0.190
-476.303	-22.326	-0.071	-0.043
-475.289	13.021	0.093	0.073
-474.274	-107.628	0.291	-0.064
-473.259	-200.000	0.032	0.421
-472.245	800.000	-0.077	0.308
-471.230	-51.130	-0.096	0.046
-470.216	350.076	0.139	0.278
-469.201	548.865	0.062	0.149
-468.186	-11.762	-0.196	-0.130
-467.172	431.969	0.196	-0.428
-466.157	441.018	0.120	0.266
-465.143	-19.161	0.179	0.112
-464.128	-200.000	0.024	-0.198
-463.113	-144.756	-0.139	-0.013
-462.099	-38.845	0.255	-0.136
-461.084	-56.062	0.323	0.145
-460.070	-137.314	-0.114	-0.013
-459.055	215.641	0.147	0.236
-458.040	568.314	-0.105	-0.258
-457.026	-200.000	0.019	-0.277
-456.011	-29.298	0.327	0.189
-454.997	29.000	-0.115	0.098
-453.982	800.000	-0.039	-0.170
-452.968	800.000	-0.013	-0.038
-451.953	137.472	0.085	0.112
-450.938	60.502	0.069	-0.069
-449.924	-95.110	0.365	0.100
-448.909	91.484	-0.248	0.282
-447.895	11.752	0.089	0.069
-446.880	-43.144	0.174	-0.089
-445.865	181.465	-0.028	0.042
-444.851	-112.867	-0.421	-0.084
-443.836	-200.000	0.031	-0.248
-442.822	800.000	-0.041	0.175
-441.807	800.000	0.020	0.084
-440.792	-200.000	0.008	0.146
-439.778	452.808	0.144	0.321
-438.763	-81.790	-0.034	-0.011
-437.749	-94.074	-0.135	0.037
-436.734	55.101	0.138	0.135
-435.719	-34.473	0.357	0.197
-434.705	-64.076	-0.296	0.122
-433.690	-115.966	-0.259	0.049
-432.676	-30.332	0.304	0.174
-431.661	-129.848	0.143	-0.020
-430.646	-200.000	-0.022	0.266
-429.632	-21.227	-0.274	-0.169
-428.617	-200.000	0.053	-0.334
-427.603	-116.602	0.239	0.044
-426.588	-159.258	-0.136	0.008
-425.573	-155.979	-0.128	0.008
-424.559	102.026	-0.281	0.331
-423.544	-85.464	0.203	-0.064
-422.530	-71.480	0.110	-0.042
-421.515	-200.000	0.017	-0.352
-420.500	404.016	0.042	0.089
-419.486	181.718	0.091	0.134
-418.471	-105.647	-0.302	-0.069
-417.457	-22.440	0.491	0.300
-416.442	-56.632	0.121	-0.054
-415.428	-69.233	0.068	-0.026
-414.413	-112.118	0.487	-0.099
-413.398	402.271	0.083	0.175
-412.384	18.060	0.316	-0.254
-411.369	245.610	-0.045	-0.076
-410.355	-99.547	-0.189	-0.048
-409.340	800.000	0.142	0.442
-408.325	275.275	0.077	0.137
-407.311	579.842	-0.117	-0.288
-406.296	398.088	0.067	0.140
-405.282	-200.000	-0.111	0.495
-404.267	144.202	-0.113	-0.152
-403.252	-116.075	0.171	-0.032
-402.238	84.216	-0.053	0.058
-401.223	244.197	-0.203	-0.343
-400.209	46.133	-0.149	-0.139
-399.194	100.656	0.028	0.033
-398.179	-158.062	0.313	0.019
-397.165	-87.888	-0.345	0.105
-396.150	28.564	0.288	0.245
-395.136	-78.671	0.179	-0.062
-394.121	-200.000	0.035	0.274
-393.106	-70.418	-0.148	-0.057
-392.092	394.984	-0.042	0.087
-391.077	5.865	0.074	0.055
-390.063	78.529	0.186	0.200
-389.048	426.863	-0.046	0.099
-388.033	-26.553	-0.285	-0.168
-387.019	-136.663	-0.134	-0.016
-386.004	-127.362	-0.150	-0.022
-384.990	76.027	-0.280	0.298
-383.975	-200.000	0.071	0.327
-382.960	148.343	0.104	-0.141
-381.946	417.681	-0.078	-0.167
-380.931	-37.620	-0.392	0.210
-379.917	38.353	0.042	0.038
-378.902	327.435	-0.192	-0.372
-377.888	-96.444	0.134	-0.036
-376.873	139.663	0.149	-0.197
-375.858	-200.000	-0.013	-0.097
-374.844	800.000	-0.025	-0.100
-373.829	353.989	0.036	-0.072
-372.815	0.050	-0.359	0.258
-371.800	289.312	0.046	-0.084
-370.785	-123.117	-0.115	0.019
-369.771	-84.817	-0.072	-0.023
-368.756	89.172	-0.161	-0.180
-367.742	670.819	-0.102	-0.267
-366.727	47.858	0.231	0.217
-365.712	-132.460	0.308	0.040
-364.698	380.989	-0.100	0.206
-363.683	-68.747	-0.066	0.026
-362.669	75.310	-0.196	-0.208
-361.654	195.245	-0.079	0.120
-360.639	206.507	0.172	0.269
-359.625	800.000	-0.028	-0.110
-358.610	-95.833	-0.363	0.097
-357.596	440.630	-0.115	0.252
-356.581	-55.127	-0.169	0.076
-355.566	-188.593	-0.285	0.004
-354.552	-52.375	0.148	0.069
-353.537	800.000	0.112	0.328
-352.523	198.530	-0.044	-0.067
-351.508	-97.768	-0.101	0.026
-350.493	-97.590	-0.225	0.059
-349.479	800.000	-0.037	-0.114
-348.464	800.000	0.104	-0.358
-347.450	-140.982	-0.429	0.044
-346.435	6.013	-0.209	0.155
-345.420	-200.000	-0.051	-0.346
-344.406	-200.000	0.014	-0.212
-343.391	92.274	0.072	0.082
-342.377	-108.534	0.253	0.055
-341.362	-56.106	-0.539	0.241
-340.348	-200.000	-0.033	0.167
-339.333	-68.223	0.285	-0.111
-338.318	-200.000	0.005	0.151
-337.304	800.000	-0.081	0.342
-336.289	-42.459	-0.127	0.065
-335.275	-15.096	0.128	-0.082
-334.260	-23.922	-0.136	0.082
-333.245	35.304	0.258	-0.227
-332.231	-56.043	-0.127	-0.057
-331.216	-200.000	0.007	0.096
-330.202	-96.564	0.151	-0.040
-329.187	-156.168	-0.340	0.022
-328.172	-200.000	-0.016	-0.302
-327.158	-43.418	0.162	-0.082
-326.143	-163.742	0.217	0.010
-325.129	-200.000	-0.033	0.325
-324.114	291.602	0.104	0.190
-323.099	24.906	0.089	-0.074
-322.085	118.702	-0.112	0.139
-321.070	212.566	0.178	-0.283
-320.056	-168.955	0.150	0.006
-319.041	-123.183	-0.078	0.013
-318.026	800.000	-0.028	-0.091
-317.012	-137.635	0.308	0.035
-315.997	-123.097	-0.086	-0.014
-314.983	31.448	-0.253	-0.219
-313.968	-81.132	0.161	0.054
-312.953	-102.377	0.240	-0.058
-311.939	-34.239	-0.227	0.125
-310.924	-200.000	-0.070	0.422
-309.910	124.455	-0.078	-0.099
-308.895	-99.804	0.188	0.047
-307.880	800.000	0.139	0.419
-306.866	34.669	-0.042	-0.037
-305.851	77.709	-0.176	-0.188
-304.837	-200.000	0.027	-0.135
-303.822	567.286	-0.110	0.269
-302.807	-200.000	-0.015	-0.234
-301.793	99.865	-0.168	0.195
-300.778	-49.986	0.335	0.159
-299.764	36.342	0.291	0.258
-298.749	-104.021	0.134	0.031
-297.735	120.499	0.155	-0.194
-296.720	-111.329	-0.294	-0.060
-295.705	525.828	0.038	-0.090
-294.691	-72.895	-0.085	-0.031
-293.676	-119.929	0.146	0.025
-292.662	98.208	-0.199	-0.230
-291.647	95.496	0.059	-0.068
-290.632	-1.268	-0.371	0.263
-289.618	-59.309	-0.088	-0.038
-288.603	21.858	0.121	-0.099
-287.589	-200.000	0.042	-0.378
-286.574	2.788	-0.299	0.218
-285.559	119.666	0.249	0.310
-284.545	94.094	0.168	0.192
-283.530	-200.000	0.011	0.061
-282.516	800.000	0.033	0.144
-281.501	800.000	-0.047	-0.163
-280.486	-200.000	0.075	-0.343
-279.472	210.494	-0.136	-0.214
-278.457	231.832	-0.076	-0.126
-277.443	-49.105	-0.083	-0.040
-276.428	-110.625	-0.047	0.010
-275.413	-112.280	0.174	0.035
-274.399	105.922	-0.161	0.191
-273.384	-200.000	0.310	-0.001
-272.370	-29.949	-0.382	0.218
-271.355	800.000	-0.093	0.312
-270.340	136.924	-0.175	-0.229
-269.326	-109.355	-0.158	0.034
-268.311	800.000	0.069	-0.236
-267.297	314.402	0.099	-0.187
-266.282	-59.721	-0.064	0.028
-265.267	800.000	-0.168	-0.607
-264.253	156.120	0.103	0.143
-263.238	311.636	-0.069	0.130
-262.224	-5.713	-0.187	0.128
-261.209	81.955	-0.085	-0.093
-260.195	75.965	-0.045	-0.048
-259.180	-165.281	-0.094	-0.004
-258.165	-70.278	0.083	0.031
-257.151	24.419	0.139	0.115
-256.136	800.000	0.071	0.308
-255.122	709.280	-0.096	-0.253
-254.107	439.772	0.060	0.130
-253.092	-19.762	-0.121	0.075
-252.078	-121.178	0.065	0.011
-251.063	-200.000	0.018	-0.159
-250.049	51.837	-0.290	-0.277
-249.034	-36.327	-0.169	-0.091
-248.019	800.000	-0.045	0.152
-247.005	-200.000	-0.015	0.226
-245.990	-200.000	-0.007	0.111
-244.976	356.557	-0.154	-0.307
-243.961	-200.000	0.027	0.279
-242.946	368.308	-0.047	0.096
-241.932	-140.629	-0.026	-0.003
-240.917	121.763	-0.054	-0.067
-239.903	-200.000	-0.002	-0.134
-238.888	171.487	-0.123	-0.177
-237.873	329.515	-0.170	0.328
-236.859	-39.056	-0.376	0.198
-235.844	-200.000	-0.002	-0.367
-234.830	-83.218	-0.175	-0.056
-233.815	271.359	-0.018	0.031
-232.800	800.000	-0.097	-0.305
-231.786	-200.000	-0.010	-0.164
-230.771	329.269	-0.178	0.342
-229.757	54.270	0.127	0.122
-228.742	431.456	-0.164	0.356
-227.727	-70.657	0.200	0.076
-226.713	16.340	-0.175	0.138
-225.698	155.684	-0.011	-0.016
-224.684	-136.049	-0.134	0.016
-223.669	-37.243	0.277	-0.148
-222.655	-200.000	0.033	-0.146
-221.640	-70.880	-0.245	-0.092
-220.625	84.472	0.159	0.174
-219.611	-107.754	0.152	0.033
-218.596	-0.170	-0.159	0.114
-217.582	-48.762	-0.150	0.072
-216.567	132.542	0.243	0.313
-215.552	800.000	0.026	0.081
-214.538	-200.000	0.024	0.108
-213.523	800.000	0.054	-0.178
-212.509	-96.353	-0.055	-0.015
-211.494	129.722	-0.021	0.027
-210.479	-200.000	0.070	0.320
-209.465	-200.000	-0.007	-0.132
-208.450	-102.108	-0.248	-0.060
-207.436	93.957	-0.215	0.243
-206.421	111.774	0.242	-0.293
-205.406	408.627	0.034	0.072
-204.392	800.000	0.083	0.299
-203.377	-200.000	-0.027	0.261
-202.363	157.319	-0.245	-0.340
-201.348	-95.827	0.117	-0.031
-200.333	-200.000	-0.022	-0.235
-199.319	137.469	-0.122	-0.160
-198.304	-21.423	0.062	0.038
-197.290	661.534	-0.089	0.229
-196.275	-165.471	-0.221	-0.010
-195.260	-32.437	-0.358	0.199
-194.246	-76.271	0.120	0.042
-193.231	-200.000	0.040	0.000
-192.217	-200.000	-0.006	0.070
-191.202	-200.000	0.003	0.062
-190.187	496.052	-0.030	0.070
-189.173	-90.075	-0.094	-0.027
-188.158	414.258	0.134	0.285
-187.144	-89.618	0.251	0.073
-186.129	292.486	-0.053	-0.097
-185.114	-39.926	0.202	0.106
-184.100	-88.936	-0.050	0.015
-183.085	-200.000	-0.105	0.529
-182.071	-139.988	-0.013	-0.001
-181.056	323.312	-0.167	-0.319
-180.042	190.790	0.064	0.097
-179.027	350.254	-0.111	-0.220
-178.012	800.000	-0.026	-0.096
-176.998	198.167	-0.038	0.058
-175.983	-200.000	-0.074	-0.402
-174.969	344.431	-0.062	-0.122
-173.954	160.137	0.230	0.320
-172.939	-200.000	-0.001	-0.235
-171.925	-177.589	-0.201	-0.005
-170.910	66.051	0.233	-0.236
-169.896	-140.711	0.454	0.047
-168.881	37.647	0.180	-0.160
-167.866	-139.783	-0.181	-0.019
-166.852	-200.000	0.022	-0.123
-165.837	-26.453	0.109	-0.064
-164.823	159.865	0.259	0.360
-163.808	-200.000	-0.009	0.174
-162.793	-145.511	0.017	-0.001
-161.779	61.910	0.187	-0.186
-160.764	103.727	-0.254	-0.298
-159.750	-104.779	0.169	-0.039
-158.735	-29.146	-0.088	0.050
-157.720	-200.000	-0.001	0.087
-156.706	800.000	-0.095	0.264
-155.691	-174.559	0.313	0.009
-154.677	210.827	-0.097	0.153
-153.662	335.647	0.110	0.213
-152.647	-53.644	0.277	0.126
-151.633	466.638	0.132	-0.295
-150.618	184.163	0.186	0.274
-149.604	800.000	-0.071	0.237
-148.589	34.694	0.036	-0.031
-147.574	40.589	0.107	-0.096
-146.560	-25.451	-0.271	-0.160
-145.545	518.378	-0.086	0.201
-144.531	204.690	0.202	0.313
-143.516	-45.218	-0.058	0.029
-142.502	-88.791	0.063	-0.019
-141.487	38.851	-0.213	-0.190
-140.472	81.486	0.379	-0.409
-139.458	-200.000	-0.028	0.309
-138.443	-200.000	0.064	0.336
-137.429	256.658	-0.135	-0.232
-136.414	-107.262	0.124	0.027
-135.399	-164.647	0.582	-0.026
-134.385	-140.371	-0.100	-0.010
-133.370	-56.279	0.227	0.101
-132.356	-19.616	-0.232	-0.143
-131.341	-114.812	-0.236	0.045
-130.326	800.000	-0.062	-0.176
-129.312	219.180	-0.130	0.208
-128.297	103.706	-0.209	-0.244
-127.283	-67.358	0.425	-0.167
-126.268	25.584	-0.140	-0.116
-125.253	19.274	-0.303	-0.243
-124.239	79.144	-0.205	0.219
-123.224	137.148	-0.165	0.215
-122.210	-119.041	0.348	0.061
-121.195	721.902	0.074	0.196
