DTS Sentinel unit serial number:	SN413079Multiplexer serial number:	ORYXHardware model number:	OX4-SRSoftware version number:	ORYX F/W v4.00 Oryx Data Collector v3.7.2.0data status	okinstallation	princeton_trtdifferential loss correction	single-endedforward channel	channel 1reverse channel	N/Adate	2019/09/16time	12:54:35forward acquisition time	60.00reverse acquisition time	0.00gamma	496.2192k internal	0.2295k external	0.2295temperature offset calibration	0.9947default loss term (dB/km)	0.3790temperature slope calibration	1.0000multiplexer offset coefficient	1.0000multiplexer slope coefficient	1.0000fibre end	0.00T internal ref (°C)	40.44T ext. ref 1 (°C)	13.55T ext. ref 2 (°C)	37.46length (m)	temperature (°C)	Stokes	anti-Stokes-747.200	28.398	0.080	-0.069
-746.185	137.401	0.362	0.484
-745.171	-122.381	0.121	-0.020
-744.156	21.615	0.142	0.118
-743.142	576.781	-0.154	0.385
-742.127	800.000	0.103	0.417
-741.112	-38.080	-0.078	0.042
-740.098	340.448	-0.093	0.185
-739.083	-69.789	-0.530	-0.207
-738.069	44.704	-0.045	0.043
-737.054	656.957	-0.070	-0.183
-736.039	-103.983	-0.241	0.057
-735.025	-200.000	0.017	0.253
-734.010	62.097	-0.098	0.100
-732.996	298.516	-0.115	-0.216
-731.981	91.249	0.137	0.157
-730.966	-65.953	-0.229	-0.094
-729.952	-149.733	0.260	-0.021
-728.937	-47.094	0.141	-0.070
-727.923	177.609	-0.082	-0.123
-726.908	-200.000	0.003	-0.071
-725.894	-2.294	0.146	-0.105
-724.879	-85.478	-0.319	-0.102
-723.864	-200.000	-0.018	-0.210
-722.850	-110.124	0.372	-0.079
-721.835	34.064	0.271	-0.241
-720.821	4.795	-0.187	0.140
-719.806	-50.651	0.324	-0.156
-718.791	321.757	0.122	-0.237
-717.777	800.000	0.081	-0.332
-716.762	-61.751	-0.279	-0.119
-715.748	-26.208	-0.219	-0.131
-714.733	133.413	-0.138	-0.182
-713.718	-200.000	-0.000	-0.270
-712.704	39.963	-0.073	-0.067
-711.689	-80.981	0.122	0.041
-710.675	501.025	0.115	-0.271
-709.660	633.161	0.083	-0.214
-708.645	3.865	-0.074	0.055
-707.631	-3.793	0.081	-0.057
-706.616	800.000	-0.025	-0.086
-705.602	-90.145	0.157	0.047
-704.587	457.848	0.094	-0.212
-703.572	489.315	0.040	-0.093
-702.558	800.000	-0.074	-0.234
-701.543	-125.239	0.134	-0.021
-700.529	800.000	0.075	0.236
-699.514	-94.384	-0.230	0.064
-698.499	-13.505	-0.196	-0.129
-697.485	-200.000	0.002	0.195
-696.470	81.878	-0.171	0.189
-695.456	-200.000	0.053	-0.250
-694.441	-6.678	-0.277	0.192
-693.426	800.000	0.100	0.324
-692.412	-200.000	0.044	0.250
-691.397	-11.902	-0.269	0.180
-690.383	-116.447	0.192	-0.036
-689.368	-200.000	0.017	-0.085
-688.354	6.685	0.429	0.325
-687.339	800.000	0.045	0.128
-686.324	-66.400	-0.482	0.195
-685.310	44.841	0.055	-0.052
-684.295	62.710	-0.119	0.122
-683.281	-200.000	-0.219	0.000
-682.266	95.710	0.184	-0.215
-681.251	176.573	0.079	-0.118
-680.237	800.000	0.073	-0.246
-679.222	800.000	-0.102	-0.333
-678.208	265.069	-0.184	0.327
-677.193	-30.736	0.245	-0.141
-676.178	88.226	-0.054	-0.061
-675.164	-81.168	-0.270	0.091
-674.149	-98.465	-0.329	-0.086
-673.135	2.198	-0.345	-0.254
-672.120	125.642	0.186	-0.239
-671.105	-200.000	0.032	0.246
-670.091	-200.000	-0.007	0.102
-669.076	43.632	0.162	0.151
-668.062	-3.059	-0.121	-0.086
-667.047	-17.060	0.104	0.067
-666.032	800.000	-0.080	-0.348
-665.018	-82.668	0.115	-0.038
-664.003	102.173	0.223	-0.265
-662.989	-200.000	0.040	0.247
-661.974	21.392	0.158	0.131
-660.959	-200.000	-0.041	0.329
-659.945	-179.474	0.105	0.002
-658.930	145.253	0.166	-0.227
-657.916	156.387	0.235	-0.331
-656.901	-8.896	-0.178	0.122
-655.886	226.585	0.124	-0.204
-654.872	-61.508	0.412	-0.176
-653.857	-69.961	0.024	-0.009
-652.843	45.455	0.348	-0.327
-651.828	148.029	0.112	-0.154
-650.814	-39.025	-0.159	-0.085
-649.799	-200.000	0.034	-0.185
-648.784	66.104	0.098	0.101
-647.770	-41.916	-0.145	0.075
-646.755	-183.301	-0.304	0.005
-645.741	406.920	-0.025	-0.054
-644.726	-167.504	-0.352	-0.014
-643.711	-43.760	0.213	0.109
-642.697	17.939	-0.182	0.148
-641.682	6.192	-0.235	-0.178
-640.668	-200.000	-0.001	0.106
-639.653	-27.923	-0.198	0.117
-638.638	-200.000	-0.089	-0.424
-637.624	-200.000	-0.039	0.218
-636.609	-165.020	0.139	0.006
-635.595	312.342	0.025	0.047
-634.580	-200.000	0.035	0.257
-633.565	-19.864	-0.297	0.187
-632.551	-111.846	0.146	-0.030
-631.536	133.767	-0.175	-0.231
-630.522	-74.139	0.433	-0.160
-629.507	34.527	-0.101	-0.090
-628.492	-121.356	-0.474	-0.080
-627.478	800.000	0.061	-0.229
-626.463	800.000	0.088	0.251
-625.449	91.535	0.278	0.318
-624.434	800.000	0.083	-0.286
-623.419	-200.000	0.019	-0.308
-622.405	-80.200	-0.160	0.055
-621.390	-129.529	-0.427	-0.060
-620.376	-163.188	0.220	0.011
-619.361	800.000	0.089	0.344
-618.346	-200.000	0.008	0.093
-617.332	-78.231	0.061	0.021
-616.317	358.545	0.083	0.169
-615.303	57.208	-0.187	-0.186
-614.288	147.890	0.263	0.361
-613.273	-200.000	0.038	-0.318
-612.259	-163.758	-0.160	-0.008
-611.244	-42.326	0.178	0.093
-610.230	33.658	0.251	0.222
-609.215	92.499	0.121	0.138
-608.201	-78.322	-0.059	-0.021
-607.186	-27.689	0.254	0.150
-606.171	248.186	-0.071	0.122
-605.157	-84.995	-0.148	0.047
-604.142	-50.963	-0.365	0.174
-603.128	413.979	0.040	-0.085
-602.113	-69.802	0.224	-0.087
-601.098	-98.698	0.430	-0.111
-600.084	800.000	0.072	-0.301
-599.069	86.010	0.279	0.312
-598.055	519.978	0.172	0.410
-597.040	-128.341	0.117	-0.017
-596.025	-200.000	-0.018	0.159
-595.011	-109.021	0.117	0.025
-593.996	-200.000	0.003	-0.230
-592.982	-47.748	0.089	0.044
-591.967	345.812	-0.062	0.124
-590.952	124.113	-0.211	0.270
-589.938	-200.000	-0.027	-0.174
-588.923	121.858	-0.184	-0.234
-587.909	-200.000	-0.044	-0.236
-586.894	-200.000	0.000	-0.163
-585.879	-176.335	0.115	0.003
-584.865	45.187	-0.142	-0.133
-583.850	50.490	-0.119	0.114
-582.836	800.000	-0.026	0.088
-581.821	-68.680	0.190	-0.075
-580.806	-184.026	0.081	-0.001
-579.792	189.859	0.234	-0.357
-578.777	-82.830	0.188	-0.062
-577.763	-61.418	0.279	0.119
-576.748	-177.437	0.168	-0.004
-575.733	800.000	0.069	-0.255
-574.719	31.372	0.248	-0.216
-573.704	800.000	-0.093	0.325
-572.690	-2.819	-0.209	-0.148
-571.675	-200.000	0.019	0.161
-570.661	-77.258	-0.367	0.130
-569.646	-200.000	-0.271	-0.001
-568.631	520.953	0.125	0.297
-567.617	-116.698	0.196	0.037
-566.602	117.068	-0.338	0.421
-565.588	-41.972	-0.097	0.051
-564.573	-102.897	0.094	0.023
-563.558	241.106	0.116	0.197
-562.544	-200.000	0.008	0.107
-561.529	147.640	0.081	-0.111
-560.515	173.652	0.062	-0.091
-559.500	16.863	0.144	0.116
-558.485	182.139	0.087	0.131
-557.471	-117.041	-0.281	-0.052
-556.456	1.211	-0.198	-0.144
-555.442	800.000	-0.070	-0.258
-554.427	-141.960	-0.140	-0.014
-553.412	-11.888	0.170	-0.113
-552.398	88.868	0.071	0.080
-551.383	-200.000	0.015	-0.298
-550.369	-91.879	-0.201	0.058
-549.354	-32.396	0.163	0.092
-548.339	800.000	-0.038	0.128
-547.325	291.209	0.098	0.180
-546.310	-76.071	0.100	0.036
-545.296	731.877	0.039	0.106
-544.281	345.492	-0.067	-0.134
-543.266	44.768	0.102	0.095
-542.252	-100.390	-0.270	0.068
-541.237	-200.000	-0.014	-0.066
-540.223	-100.014	-0.254	0.064
-539.208	-182.724	-0.214	-0.004
-538.193	-50.551	-0.052	-0.025
-537.179	24.168	-0.112	0.093
-536.164	111.836	0.150	0.184
-535.150	-110.601	0.148	0.031
-534.135	676.138	-0.012	-0.032
-533.121	-70.507	0.280	0.107
-532.106	-30.912	0.342	-0.196
-531.091	42.472	-0.224	-0.206
-530.077	30.640	-0.250	0.216
-529.062	-27.602	0.146	-0.086
-528.048	380.376	-0.041	-0.085
-527.033	-49.498	0.150	0.072
-526.018	86.677	-0.259	-0.289
-525.004	219.760	-0.195	-0.317
-523.989	-200.000	-0.043	0.436
-522.975	22.582	0.224	0.186
-521.960	0.689	-0.225	0.163
-520.945	-200.000	0.038	0.330
-519.931	800.000	-0.073	-0.286
-518.916	258.437	0.034	-0.059
-517.902	-67.805	-0.182	-0.072
-516.887	2.757	-0.224	0.165
-515.872	20.177	0.138	-0.113
-514.858	-148.373	-0.400	-0.033
-513.843	20.715	0.135	0.111
-512.829	-200.000	0.007	-0.084
-511.814	516.963	0.058	-0.137
-510.799	225.873	-0.144	-0.237
-509.785	57.921	-0.052	0.052
-508.770	173.552	-0.234	0.342
-507.756	11.986	0.094	-0.073
-506.741	-200.000	-0.021	0.181
-505.726	-200.000	0.008	0.157
-504.712	-48.269	-0.231	0.113
-503.697	110.770	-0.120	-0.146
-502.683	-12.953	-0.104	-0.068
-501.668	-200.000	-0.065	-0.421
-500.653	213.569	0.055	-0.087
-499.639	-179.904	-0.279	0.006
-498.624	120.994	0.089	0.112
-497.610	-41.696	0.205	-0.107
-496.595	98.135	-0.062	-0.073
-495.581	-200.000	0.042	0.323
-494.566	96.678	-0.281	0.325
-493.551	-68.394	0.218	0.086
-492.537	-55.182	-0.375	0.171
-491.522	-0.920	-0.244	0.175
-490.508	-200.000	0.020	-0.204
-489.493	800.000	-0.088	-0.302
-488.478	28.440	-0.201	0.172
-487.464	-41.139	0.146	0.076
-486.449	-176.341	0.245	-0.006
-485.435	-75.447	-0.330	0.119
-484.420	11.725	0.206	-0.160
-483.405	-9.089	0.019	-0.013
-482.391	-200.000	0.012	0.222
-481.376	-72.463	0.380	-0.142
-480.362	713.576	-0.062	-0.166
-479.347	-200.000	0.017	-0.260
-478.332	800.000	-0.070	-0.236
-477.318	-200.000	-0.023	0.167
-476.303	-86.517	-0.232	0.072
-475.289	-200.000	-0.042	-0.283
-474.274	-68.797	0.199	-0.078
-473.259	-18.255	-0.050	0.031
-472.245	-26.331	-0.175	-0.104
-471.230	-93.047	-0.120	-0.034
-470.216	-11.567	0.169	0.112
-469.201	75.642	0.281	0.300
-468.186	15.377	0.181	-0.144
-467.172	-153.285	0.223	-0.016
-466.157	-73.752	0.196	0.072
-465.143	7.338	0.431	0.326
-464.128	800.000	0.044	-0.148
-463.113	-101.300	-0.079	0.019
-462.099	440.856	-0.074	-0.165
-461.084	-200.000	0.011	-0.048
-460.070	-82.508	0.206	-0.067
-459.055	800.000	-0.159	0.481
-458.040	299.528	-0.055	-0.102
-457.026	-70.897	0.356	-0.135
-456.011	264.647	0.152	-0.268
-454.997	-109.947	0.121	-0.026
-453.982	364.966	-0.139	0.283
-452.968	-16.469	-0.262	0.168
-451.953	-200.000	-0.006	0.071
-450.938	-200.000	-0.037	-0.213
-449.924	-20.077	0.079	-0.049
-448.909	-200.000	0.004	-0.127
-447.895	351.152	0.175	-0.350
-446.880	-46.290	-0.124	0.061
-445.865	-60.796	0.139	0.060
-444.851	235.593	-0.146	-0.244
-443.836	800.000	-0.032	-0.091
-442.822	800.000	-0.030	0.102
-441.807	305.375	0.092	0.173
-440.792	-115.532	-0.190	0.036
-439.778	-40.863	-0.056	0.029
-438.763	800.000	-0.037	-0.157
-437.749	-167.375	-0.155	-0.006
-436.734	-81.118	-0.251	0.084
-435.719	-52.365	-0.123	-0.058
-434.705	-152.161	0.128	-0.009
-433.690	800.000	0.057	-0.180
-432.676	49.556	0.109	-0.104
-431.661	180.248	0.146	-0.216
-430.646	201.926	-0.238	0.371
-429.632	-63.562	-0.286	-0.118
-428.617	32.094	0.354	-0.308
-427.603	-19.754	0.175	0.109
-426.588	206.599	-0.170	0.267
-425.573	50.128	0.171	-0.163
-424.559	-200.000	-0.033	-0.293
-423.544	-200.000	-0.028	-0.147
-422.530	-200.000	0.023	-0.255
-421.515	-56.426	0.212	0.095
-420.500	33.042	-0.263	-0.230
-419.486	800.000	-0.028	-0.106
-418.471	140.270	0.261	0.348
-417.457	800.000	-0.073	-0.287
-416.442	-132.568	0.158	-0.021
-415.428	-200.000	0.020	0.194
-414.413	-163.029	-0.148	0.007
-413.398	188.577	0.139	-0.210
-412.384	256.737	0.050	-0.086
-411.369	105.848	0.103	-0.123
-410.355	-40.296	-0.154	-0.081
-409.340	-200.000	0.083	0.383
-408.325	-200.000	0.021	0.113
-407.311	-103.552	-0.214	0.051
-406.296	-50.884	0.077	-0.037
-405.282	685.077	0.076	0.201
-404.267	46.938	0.110	-0.103
-403.252	-87.381	0.206	0.063
-402.238	-61.958	0.165	-0.069
-401.223	32.182	0.266	-0.232
-400.209	-96.440	-0.222	-0.059
-399.194	-89.171	0.181	0.054
-398.179	800.000	0.005	0.019
-397.165	800.000	-0.061	0.187
-396.150	-45.001	-0.316	0.159
-395.136	-200.000	-0.032	-0.299
-394.121	-27.027	-0.158	0.093
-393.106	-23.972	-0.181	-0.109
-392.092	537.217	0.017	0.041
-391.077	-93.021	-0.037	0.010
-390.063	-56.044	0.306	0.137
-389.048	-69.949	-0.235	0.090
-388.033	-28.997	-0.077	-0.045
-387.019	-177.523	-0.135	0.003
-386.004	-46.568	0.023	0.012
-384.990	-140.870	-0.061	-0.006
-383.975	-200.000	-0.023	0.221
-382.960	-200.000	-0.009	0.105
-381.946	192.224	-0.048	-0.073
-380.931	-200.000	-0.013	-0.259
-379.917	-113.409	-0.199	-0.039
-378.902	-65.740	-0.162	-0.066
-377.888	542.036	-0.136	-0.327
-376.873	-30.768	-0.070	0.040
-375.858	-200.000	0.055	0.355
-374.844	-200.000	-0.031	0.204
-373.829	65.271	0.121	0.123
-372.815	345.597	0.081	-0.161
-371.800	-92.288	-0.090	0.025
-370.785	110.547	0.176	-0.213
-369.771	132.279	0.052	0.067
-368.756	800.000	-0.062	0.215
-367.742	399.863	-0.089	-0.187
-366.727	-200.000	0.006	0.087
-365.712	800.000	-0.157	0.551
-364.698	-109.423	-0.217	0.046
-363.683	-157.713	-0.185	0.011
-362.669	-74.991	0.206	0.074
-361.654	171.062	-0.124	-0.180
-360.639	-128.549	-0.043	0.006
-359.625	450.078	0.069	-0.152
-358.610	-169.553	-0.289	0.011
-357.596	-64.264	0.124	-0.051
-356.581	-29.137	0.188	0.109
-355.566	618.723	0.063	0.160
-354.552	298.768	0.037	-0.069
-353.537	13.617	0.195	-0.152
-352.523	297.257	0.109	0.201
-351.508	-71.223	0.047	0.018
-350.493	693.329	-0.064	-0.168
-349.479	-54.541	0.253	-0.115
-348.464	347.041	-0.114	-0.226
-347.450	-44.068	0.335	-0.169
-346.435	-200.000	-0.028	-0.345
-345.420	359.568	0.142	-0.287
-344.406	588.158	-0.119	-0.294
-343.391	-48.164	0.168	-0.082
-342.377	-147.252	-0.359	0.031
-341.362	31.658	0.091	-0.079
-340.348	332.493	-0.029	0.056
-339.333	-130.255	-0.459	-0.063
-338.318	800.000	0.036	-0.156
-337.304	663.421	0.039	-0.101
-336.289	-41.103	0.121	-0.063
-335.275	-61.541	-0.097	-0.041
-334.260	-2.449	-0.343	-0.242
-333.245	92.683	0.323	-0.367
-332.231	121.396	-0.341	0.427
-331.216	60.951	-0.202	-0.202
-330.202	-56.553	0.404	0.180
-329.187	-150.898	0.200	0.015
-328.172	-72.241	-0.081	0.030
-327.158	-200.000	0.051	-0.258
-326.143	800.000	0.048	0.187
-325.129	378.832	-0.064	0.132
-324.114	-200.000	-0.092	-0.458
-323.099	61.244	-0.168	0.168
-322.085	98.149	0.251	0.291
-321.070	-65.317	-0.254	0.103
-320.056	-21.491	0.381	0.234
-319.041	-144.275	0.375	0.035
-318.026	800.000	-0.054	-0.194
-317.012	737.175	0.123	0.333
-315.997	367.903	-0.094	-0.192
-314.983	-200.000	0.036	0.185
-313.968	-200.000	-0.052	0.362
-312.953	-200.000	0.009	-0.126
-311.939	0.614	0.303	-0.218
-310.924	167.395	-0.225	-0.322
-309.910	-200.000	0.048	-0.399
-308.895	63.384	-0.285	-0.287
-307.880	595.231	0.047	-0.117
-306.866	-3.661	-0.168	0.117
-305.851	-82.944	-0.240	0.078
-304.837	800.000	-0.034	-0.110
-303.822	166.379	-0.112	-0.160
-302.807	40.947	-0.366	-0.332
-301.793	30.087	0.165	-0.141
-300.778	-10.242	0.300	-0.200
-299.764	-110.139	-0.285	0.060
-298.749	205.238	-0.052	0.081
-297.735	297.026	-0.143	0.264
-296.720	-200.000	-0.054	0.388
-295.705	-166.091	0.283	0.012
-294.691	800.000	0.109	-0.354
-293.676	91.925	0.329	-0.372
-292.662	800.000	-0.052	-0.229
-291.647	58.370	0.098	-0.096
-290.632	-200.000	0.020	0.118
-289.618	800.000	-0.034	0.145
-288.603	230.303	-0.175	0.288
-287.589	-15.600	-0.262	0.168
-286.574	-133.161	0.095	-0.012
-285.559	159.186	-0.186	-0.259
-284.545	259.992	-0.051	0.088
-283.530	-200.000	0.085	0.559
-282.516	800.000	-0.065	-0.183
-281.501	63.900	-0.220	-0.222
-280.486	-51.540	-0.399	0.187
-279.472	703.267	-0.111	0.294
-278.457	65.915	-0.198	0.202
-277.443	-200.000	0.026	0.192
-276.428	-33.041	-0.224	0.125
-275.413	-200.000	-0.075	0.357
-274.399	251.750	0.117	-0.201
-273.384	-200.000	0.006	0.076
-272.370	-100.549	0.262	0.065
-271.355	-13.676	-0.253	0.164
-270.340	-161.770	0.313	0.016
-269.326	800.000	-0.031	0.123
-268.311	115.508	0.273	-0.335
-267.297	-64.351	-0.032	-0.013
-266.282	-200.000	-0.017	-0.172
-265.267	467.182	-0.085	0.191
-264.253	-200.000	0.011	-0.276
-263.238	-16.038	0.104	0.066
-262.224	800.000	0.077	0.322
-261.209	40.588	-0.158	-0.143
-260.195	-200.000	-0.001	-0.050
-259.180	85.974	-0.087	-0.096
-258.165	66.797	0.154	-0.158
-257.151	463.416	0.106	0.237
-256.136	83.215	-0.060	0.065
-255.122	400.211	0.079	0.166
-254.107	-190.994	0.464	0.005
-253.092	156.515	-0.139	0.193
-252.078	316.189	-0.038	-0.072
-251.063	-200.000	0.044	0.195
-250.049	236.645	0.107	0.177
-249.034	691.436	-0.167	-0.438
-248.019	-186.733	-0.224	-0.003
-247.005	-73.152	0.190	-0.070
-245.990	-135.818	-0.146	0.017
-244.976	220.836	-0.092	0.148
-243.961	-200.000	0.001	0.049
-242.946	-64.972	0.345	-0.140
-241.932	178.369	-0.128	0.187
-240.917	-3.559	0.255	0.178
-239.903	78.691	-0.316	0.338
-238.888	-134.784	0.258	0.031
-237.873	-8.153	0.192	-0.130
-236.859	660.270	-0.041	-0.105
-235.844	156.929	0.149	-0.206
-234.830	800.000	0.129	-0.439
-233.815	103.585	0.225	-0.264
-232.800	188.205	-0.145	0.217
-231.786	800.000	0.080	-0.265
-230.771	-118.182	0.370	0.066
-229.757	-12.101	-0.078	-0.051
-228.742	46.994	-0.136	0.126
-227.727	18.815	0.210	0.168
-226.713	159.634	-0.136	-0.189
-225.698	-62.069	0.119	0.050
-224.684	-37.848	-0.125	0.067
-223.669	-200.000	0.032	0.192
-222.655	87.663	0.224	0.248
-221.640	101.158	0.253	0.295
-220.625	183.574	-0.175	0.260
-219.611	-39.113	-0.125	0.066
-218.596	170.426	-0.093	-0.134
-217.582	59.537	-0.136	-0.134
-216.567	67.583	-0.089	0.091
-215.552	800.000	-0.044	0.148
-214.538	-18.250	-0.113	0.071
-213.523	-92.366	-0.452	0.127
-212.509	227.001	-0.144	-0.235
-211.494	-39.094	0.310	-0.163
-210.479	-200.000	0.002	0.030
-209.465	-200.000	-0.023	-0.147
-208.450	719.253	-0.038	0.101
-207.436	-117.451	0.542	-0.098
-206.421	-140.138	0.163	-0.017
-205.406	-200.000	0.004	0.108
-204.392	320.919	0.091	-0.174
-203.377	8.567	0.232	-0.175
-202.363	-116.848	0.078	0.014
-201.348	110.711	0.152	-0.183
-200.333	80.511	-0.155	-0.167
-199.319	-137.267	-0.021	-0.002
-198.304	41.077	-0.139	-0.126
-197.290	-77.463	0.264	-0.092
-196.275	16.387	0.364	0.288
-195.260	-62.580	-0.193	0.080
-194.246	-91.549	-0.276	0.079
-193.231	800.000	-0.053	0.171
-192.217	141.065	-0.162	-0.215
-191.202	95.756	-0.185	-0.212
-190.187	800.000	0.136	-0.400
-189.173	548.708	0.132	0.317
-188.158	-73.784	0.544	0.198
-187.144	-80.569	-0.219	0.073
-186.129	207.994	-0.065	-0.101
-185.114	-200.000	0.016	-0.166
-184.100	57.447	-0.285	-0.278
-183.085	-30.841	-0.088	-0.050
-182.071	33.658	0.138	-0.120
-181.056	-62.244	0.180	-0.075
-180.042	-200.000	-0.021	0.123
-179.027	142.739	0.098	0.130
-178.012	52.023	0.159	0.151
-176.998	800.000	-0.069	0.225
-175.983	-200.000	-0.006	-0.123
-174.969	309.321	-0.051	0.094
-173.954	-200.000	0.053	-0.269
-172.939	800.000	0.069	-0.236
-171.925	203.955	-0.143	0.221
-170.910	-196.566	-0.193	0.001
-169.896	-200.000	0.049	-0.250
-168.881	-111.661	-0.059	-0.012
-167.866	-55.613	-0.154	-0.069
-166.852	800.000	0.136	0.408
-165.837	-84.049	0.168	0.053
-164.823	8.170	0.074	-0.056
-163.808	-124.471	-0.138	0.021
-162.793	745.990	0.077	0.207
-161.779	-200.000	-0.034	0.356
-160.764	91.450	0.045	0.051
-159.750	91.478	-0.224	-0.252
-158.735	79.095	-0.139	0.149
-157.720	-200.000	0.009	-0.061
-156.706	659.887	0.036	-0.092
-155.691	17.913	0.147	-0.117
-154.677	53.594	0.171	0.164
-153.662	175.924	0.176	0.255
-152.647	-26.530	0.133	0.078
-151.633	-200.000	0.017	0.185
-150.618	-200.000	0.042	-0.284
-149.604	-60.054	-0.274	-0.117
-148.589	-200.000	-0.014	0.337
-147.574	800.000	-0.085	0.329
-146.560	-56.544	0.238	-0.106
-145.545	93.260	-0.102	-0.115
-144.531	-91.263	-0.204	0.058
-143.516	291.718	0.076	-0.138
-142.502	-99.108	0.195	0.049
-141.487	-200.000	-0.010	-0.051
-140.472	-94.425	0.266	0.073
-139.458	-200.000	-0.002	0.118
-138.443	-200.000	0.004	-0.167
-137.429	800.000	0.054	0.179
-136.414	800.000	-0.081	-0.266
-135.399	193.228	-0.045	-0.068
-134.385	-108.023	0.305	0.066
-133.370	-103.642	-0.067	0.016
-132.356	223.038	-0.115	-0.184
-131.341	273.711	-0.115	-0.203
-130.326	19.830	-0.099	-0.079
-129.312	-200.000	0.066	-0.374
-128.297	800.000	-0.029	0.082
-127.283	800.000	-0.055	0.202
-126.268	800.000	-0.156	0.534
-125.253	-133.322	-0.102	0.013
-124.239	332.429	0.103	0.199
-123.224	-9.360	0.414	0.276
-122.210	-200.000	-0.018	0.224
-121.195	-74.767	0.194	-0.070
-120.180	307.031	-0.061	-0.114
