DTS Sentinel unit serial number:	SN413079Multiplexer serial number:	ORYXHardware model number:	OX4-SRSoftware version number:	ORYX F/W v4.00 Oryx Data Collector v3.7.2.0data status	okinstallation	princeton_trtdifferential loss correction	single-endedforward channel	channel 1reverse channel	N/Adate	2019/09/19time	09:34:35forward acquisition time	60.00reverse acquisition time	0.00gamma	496.2192k internal	0.2340k external	0.2340temperature offset calibration	0.9999default loss term (dB/km)	0.3790temperature slope calibration	1.0000multiplexer offset coefficient	1.0000multiplexer slope coefficient	1.0000fibre end	0.00T internal ref (°C)	22.94T ext. ref 1 (°C)	0.62T ext. ref 2 (°C)	19.33length (m)	temperature (°C)	Stokes	anti-Stokes-747.200	-70.778	0.123	-0.047
-746.185	-200.000	0.005	0.135
-745.171	108.471	-0.054	0.065
-744.156	86.697	0.140	-0.155
-743.142	-135.623	-0.446	0.053
-742.127	-9.355	-0.039	0.026
-741.112	355.771	-0.184	-0.368
-740.098	-2.476	-0.094	0.066
-739.083	505.198	0.043	0.100
-738.069	2.543	0.268	0.195
-737.054	204.470	-0.299	0.464
-736.039	-116.463	-0.375	0.069
-735.025	800.000	0.126	0.403
-734.010	-88.718	-0.438	-0.130
-732.996	289.542	-0.138	-0.250
-731.981	622.188	-0.068	0.171
-730.966	-200.000	0.023	0.170
-729.952	385.401	0.065	-0.134
-728.937	10.128	0.165	-0.126
-727.923	-78.312	-0.076	0.026
-726.908	-70.603	-0.272	-0.103
-725.894	-4.356	0.215	-0.149
-724.879	372.566	-0.033	-0.068
-723.864	800.000	-0.024	0.105
-722.850	-143.989	-0.148	-0.014
-721.835	401.531	0.056	-0.118
-720.821	-200.000	-0.033	-0.154
-719.806	319.973	-0.140	-0.267
-718.791	10.592	-0.381	0.291
-717.777	-200.000	-0.005	0.162
-716.762	158.443	0.042	-0.059
-715.748	-200.000	-0.029	-0.141
-714.733	-121.854	-0.395	0.065
-713.718	13.722	-0.274	-0.213
-712.704	-75.224	-0.333	-0.119
-711.689	800.000	-0.179	-0.594
-710.675	124.647	-0.099	-0.125
-709.660	-90.405	0.306	-0.089
-708.645	-188.261	0.188	0.002
-707.631	44.781	-0.347	0.319
-706.616	7.608	0.165	0.124
-705.602	71.707	-0.137	-0.142
-704.587	241.601	-0.049	-0.082
-703.572	-16.884	0.116	-0.073
-702.558	25.107	-0.206	-0.171
-701.543	800.000	-0.056	-0.222
-700.529	-200.000	-0.087	0.433
-699.514	-28.819	0.197	0.113
-698.499	-90.608	-0.117	-0.034
-697.485	158.621	-0.024	-0.033
-696.470	-114.275	0.412	-0.080
-695.456	-200.000	-0.001	0.379
-694.441	49.767	-0.231	0.218
-693.426	5.069	0.086	-0.064
-692.412	42.279	-0.178	-0.162
-691.397	-200.000	-0.422	0.000
-690.383	248.091	0.111	-0.188
-689.368	207.742	0.051	-0.080
-688.354	99.232	-0.049	0.057
-687.339	800.000	0.087	-0.331
-686.324	-131.576	0.340	0.045
-685.310	29.734	-0.467	0.398
-684.295	88.984	-0.177	0.197
-683.281	-200.000	-0.021	-0.189
-682.266	102.645	0.222	-0.260
-681.251	54.341	0.200	0.192
-680.237	800.000	-0.112	-0.482
-679.222	-5.754	-0.163	-0.112
-678.208	-200.000	0.047	-0.219
-677.193	185.859	0.054	-0.080
-676.178	-62.719	-0.188	0.078
-675.164	800.000	0.085	-0.275
-674.149	226.630	-0.016	-0.026
-673.135	-200.000	-0.004	-0.163
-672.120	162.956	0.176	-0.247
-671.105	-95.512	-0.411	0.110
-670.091	-200.000	-0.008	-0.115
-669.076	134.594	0.080	0.104
-668.062	155.501	-0.215	0.296
-667.047	-80.217	0.130	0.043
-666.032	-200.000	-0.040	-0.305
-665.018	-127.650	0.131	-0.019
-664.003	274.740	-0.143	0.252
-662.989	302.432	0.100	-0.185
-661.974	620.872	-0.101	0.253
-660.959	20.617	0.322	-0.260
-659.945	-101.057	0.117	-0.029
-658.930	758.927	0.070	0.190
-657.916	-171.393	0.414	0.014
-656.901	-200.000	0.002	-0.434
-655.886	-168.976	-0.083	-0.003
-654.872	373.395	0.051	0.104
-653.857	-66.187	0.025	0.010
-652.843	-200.000	-0.008	-0.081
-651.828	659.446	0.045	0.114
-650.814	-7.039	-0.222	-0.151
-649.799	-28.505	-0.108	-0.062
-648.784	-73.778	0.089	0.032
-647.770	-76.170	0.091	0.032
-646.755	272.916	0.035	0.062
-645.741	-29.216	0.235	0.135
-644.726	231.040	-0.113	-0.184
-643.711	-165.813	-0.080	0.003
-642.697	-103.952	-0.285	0.066
-641.682	682.601	0.120	-0.312
-640.668	-64.033	-0.246	-0.100
-639.653	573.173	0.036	-0.087
-638.638	800.000	-0.064	0.203
-637.624	535.618	-0.132	-0.312
-636.609	-45.714	-0.126	-0.062
-635.595	-200.000	0.029	0.245
-634.580	-83.678	-0.176	-0.056
-633.565	-21.969	0.123	-0.075
-632.551	-143.035	-0.177	0.017
-631.536	-200.000	-0.065	-0.415
-630.522	-105.759	-0.088	-0.020
-629.507	15.450	-0.138	-0.108
-628.492	-153.504	-0.131	0.009
-627.478	203.880	0.102	-0.158
-626.463	124.759	0.200	-0.252
-625.449	-51.664	-0.345	0.161
-624.434	11.552	0.187	-0.143
-623.419	-95.526	-0.074	0.020
-622.405	-81.308	-0.207	-0.068
-621.390	-98.635	-0.336	-0.085
-620.376	-163.333	0.392	0.019
-619.361	-200.000	0.016	0.170
-618.346	66.034	-0.013	-0.013
-617.332	-61.118	-0.081	-0.034
-616.317	-200.000	0.024	0.478
-615.303	238.235	0.153	-0.253
-614.288	800.000	0.039	-0.167
-613.273	-179.884	0.250	-0.005
-612.259	800.000	-0.109	-0.302
-611.244	92.944	-0.148	-0.166
-610.230	-200.000	-0.016	0.077
-609.215	-16.272	0.209	0.132
-608.201	800.000	0.042	-0.175
-607.186	268.683	-0.089	0.156
-606.171	26.759	0.092	-0.077
-605.157	-62.815	0.237	-0.098
-604.142	7.010	0.250	-0.185
-603.128	56.219	-0.215	-0.208
-602.113	-5.929	-0.307	-0.209
-601.098	-152.629	-0.169	-0.012
-600.084	-182.614	-0.285	-0.005
-599.069	42.749	-0.204	0.186
-598.055	92.950	-0.198	0.223
-597.040	-200.000	-0.003	-0.104
-596.025	-200.000	0.025	-0.274
-595.011	-200.000	0.005	-0.381
-593.996	-66.785	0.364	0.144
-592.982	200.225	0.066	-0.101
-591.967	21.151	-0.237	-0.192
-590.952	678.261	-0.036	0.094
-589.938	-103.456	-0.501	0.118
-588.923	-31.915	0.176	-0.098
-587.909	-165.416	-0.344	0.015
-586.894	112.340	-0.114	0.138
-585.879	-56.651	0.320	-0.141
-584.865	62.947	-0.053	0.052
-583.850	800.000	0.106	0.325
-582.836	-68.748	0.329	-0.127
-581.821	800.000	-0.084	0.346
-580.806	462.565	-0.066	-0.146
-579.792	242.406	-0.110	-0.184
-578.777	-82.843	0.145	-0.047
-577.763	-146.445	-0.242	-0.021
-576.748	-200.000	0.010	0.140
-575.733	800.000	-0.077	-0.275
-574.719	-200.000	-0.006	0.103
-573.704	386.431	0.063	-0.130
-572.690	-113.102	0.344	-0.068
-571.675	-126.085	-0.156	0.023
-570.661	-155.310	0.314	0.020
-569.646	-200.000	-0.040	0.296
-568.631	95.941	-0.091	-0.103
-567.617	419.868	-0.129	-0.274
-566.602	605.643	-0.100	0.248
-565.588	-184.323	-0.218	0.004
-564.573	57.808	-0.283	0.276
-563.558	-2.890	-0.076	-0.053
-562.544	79.090	0.090	-0.096
-561.529	60.211	0.226	0.223
-560.515	800.000	0.072	-0.225
-559.500	800.000	-0.043	-0.140
-558.485	800.000	0.025	0.085
-557.471	159.409	0.130	0.181
-556.456	800.000	0.036	0.148
-555.442	5.108	-0.196	-0.144
-554.427	-200.000	-0.001	-0.177
-553.412	14.417	0.178	0.138
-552.398	-200.000	0.024	-0.306
-551.383	18.588	0.048	0.038
-550.369	-187.524	0.437	0.006
-549.354	736.578	0.081	-0.217
-548.339	-113.730	-0.239	-0.046
-547.325	800.000	-0.056	-0.191
-546.310	-44.386	-0.042	-0.021
-545.296	-73.243	-0.162	-0.059
-544.281	-17.692	-0.118	0.074
-543.266	13.005	-0.088	-0.068
-542.252	245.556	0.155	-0.259
-541.237	-48.539	0.175	0.084
-540.223	346.225	0.040	0.077
-539.208	-200.000	0.004	-0.196
-538.193	-158.075	-0.076	-0.004
-537.179	126.167	0.120	0.151
-536.164	671.618	-0.079	-0.204
-535.150	-184.500	-0.368	0.006
-534.135	161.551	-0.134	-0.187
-533.121	-200.000	-0.001	0.146
-532.106	140.397	0.071	0.094
-531.091	205.138	-0.048	-0.074
-530.077	-69.775	0.382	-0.145
-529.062	50.007	0.105	-0.099
-528.048	800.000	-0.066	-0.195
-527.033	415.429	-0.155	-0.329
-526.018	52.238	-0.142	-0.135
-525.004	-200.000	-0.023	-0.269
-523.989	-25.193	0.174	-0.103
-522.975	-200.000	0.059	-0.272
-521.960	537.595	0.081	0.192
-520.945	584.856	-0.061	0.149
-519.931	800.000	-0.002	0.009
-518.916	-63.747	0.141	-0.058
-517.902	571.398	0.132	0.319
-516.887	-200.000	-0.029	0.218
-515.872	-24.064	-0.210	-0.125
-514.858	-134.085	0.243	-0.030
-513.843	180.674	-0.075	0.110
-512.829	-200.000	0.014	-0.059
-511.814	-101.964	-0.280	-0.067
-510.799	-41.604	-0.142	0.073
-509.785	-163.068	0.195	0.009
-508.770	-42.394	-0.089	0.045
-507.756	501.608	0.156	0.357
-506.741	47.642	0.111	-0.103
-505.726	-200.000	-0.020	-0.161
-504.712	-200.000	0.044	-0.252
-503.697	-143.168	-0.216	-0.021
-502.683	-31.519	0.083	-0.046
-501.668	708.925	0.111	0.291
-500.653	-60.952	0.068	-0.028
-499.639	6.485	-0.241	-0.178
-498.624	2.763	0.093	0.067
-497.610	5.489	-0.263	0.193
-496.595	-9.163	0.181	0.120
-495.581	7.756	-0.250	0.186
-494.566	-200.000	-0.008	-0.126
-493.551	800.000	-0.103	-0.330
-492.537	-34.172	0.080	0.044
-491.522	233.356	0.050	0.082
-490.508	-2.374	-0.100	0.070
-489.493	171.756	0.104	0.149
-488.478	236.966	-0.117	-0.192
-487.464	-18.012	0.208	-0.130
-486.449	260.336	-0.122	0.210
-485.435	-13.753	0.080	0.051
-484.420	800.000	0.064	0.180
-483.405	632.547	0.095	0.238
-482.391	-80.665	0.260	-0.086
-481.376	-80.927	-0.293	-0.096
-480.362	-145.947	-0.019	-0.002
-479.347	-200.000	-0.003	-0.019
-478.332	78.548	-0.091	-0.097
-477.318	-84.106	0.142	-0.045
-476.303	164.938	-0.056	0.078
-475.289	190.346	-0.030	0.044
-474.274	152.040	-0.150	-0.203
-473.259	13.121	0.268	-0.206
-472.245	-200.000	0.021	0.158
-471.230	-95.711	-0.076	0.020
-470.216	-200.000	-0.030	-0.147
-469.201	83.669	-0.082	-0.088
-468.186	95.374	-0.064	-0.072
-467.172	-123.543	-0.182	0.029
-466.157	404.324	-0.024	-0.049
-465.143	308.036	-0.014	-0.026
-464.128	57.272	0.270	0.262
-463.113	-96.491	-0.521	0.137
-462.099	-33.521	0.281	0.154
-461.084	-5.847	-0.181	-0.123
-460.070	163.228	0.174	0.242
-459.055	63.876	0.277	0.276
-458.040	86.705	0.179	-0.195
-457.026	361.741	0.083	0.165
-456.011	-200.000	-0.002	0.066
-454.997	800.000	-0.079	0.253
-453.982	-58.057	-0.148	0.064
-452.968	-86.979	0.152	0.046
-451.953	-200.000	-0.003	0.076
-450.938	-184.343	-0.493	0.008
-449.924	-200.000	-0.050	-0.227
-448.909	270.974	0.101	-0.176
-447.895	-7.764	-0.327	-0.219
-446.880	800.000	0.113	0.346
-445.865	396.058	-0.022	-0.045
-444.851	-175.648	0.211	0.006
-443.836	525.652	-0.076	0.177
-442.822	-126.767	-0.318	0.047
-441.807	31.570	0.028	0.024
-440.792	-13.956	0.298	0.191
-439.778	8.644	-0.351	-0.262
-438.763	441.934	0.028	0.061
-437.749	227.344	0.139	-0.223
-436.734	-13.356	-0.255	-0.164
-435.719	163.277	-0.058	-0.081
-434.705	62.856	-0.083	-0.082
-433.690	586.450	0.106	0.258
-432.676	-200.000	-0.056	-0.303
-431.661	64.216	0.138	-0.138
-430.646	-135.021	0.149	0.018
-429.632	-142.635	-0.155	0.015
-428.617	-67.980	-0.245	-0.095
-427.603	-37.475	0.021	-0.011
-426.588	37.267	0.069	0.060
-425.573	-20.561	0.248	-0.151
-424.559	800.000	0.089	-0.330
-423.544	39.481	0.272	0.241
-422.530	-74.897	0.064	0.023
-421.515	360.875	0.156	-0.310
-420.500	532.568	0.162	0.381
-419.486	101.174	0.261	0.300
-418.471	52.942	0.187	0.177
-417.457	108.956	-0.137	0.162
-416.442	-97.245	0.145	0.038
-415.428	-200.000	0.004	-0.053
-414.413	-200.000	0.013	-0.236
-413.398	8.048	-0.014	-0.011
-412.384	228.620	-0.081	-0.130
-411.369	800.000	-0.080	0.234
-410.355	-119.733	0.069	0.012
-409.340	104.875	0.216	0.253
-408.325	71.195	0.109	-0.112
-407.311	-16.896	0.103	-0.064
-406.296	-52.912	-0.373	0.170
-405.282	-79.957	-0.305	0.101
-404.267	-200.000	-0.018	-0.288
-403.252	-67.233	-0.133	-0.052
-402.238	800.000	0.097	0.318
-401.223	-200.000	-0.015	0.175
-400.209	-116.526	0.324	0.059
-399.194	294.896	-0.044	-0.080
-398.179	309.275	-0.124	-0.230
-397.165	-76.874	0.242	-0.084
-396.150	800.000	-0.014	0.060
-395.136	-200.000	0.012	-0.192
-394.121	-200.000	0.013	0.191
-393.106	-83.881	-0.294	-0.093
-392.092	-73.734	-0.083	0.030
-391.077	26.683	0.064	-0.053
-390.063	9.694	0.240	0.180
-389.048	-144.626	-0.011	0.001
-388.033	-129.407	0.479	0.066
-387.019	93.613	-0.224	-0.250
-386.004	-83.688	-0.193	-0.061
-384.990	-200.000	-0.058	0.269
-383.975	565.883	-0.049	-0.118
-382.960	351.746	0.101	-0.198
-381.946	29.986	0.285	-0.240
-380.931	-46.133	0.266	0.130
-379.917	-200.000	-0.001	-0.042
-378.902	16.742	-0.110	0.086
-377.888	-200.000	-0.026	0.210
-376.873	-200.000	-0.028	-0.122
-375.858	-64.748	0.233	-0.093
-374.844	-139.350	0.280	0.030
-373.829	-9.057	0.198	0.131
-372.815	-172.096	0.274	0.009
-371.800	-200.000	-0.004	0.295
-370.785	-159.682	0.071	-0.004
-369.771	148.732	0.273	0.365
-368.756	-115.485	0.283	0.053
-367.742	599.640	0.094	-0.230
-366.727	271.625	-0.233	-0.405
-365.712	137.562	-0.081	0.104
-364.698	-200.000	0.060	-0.275
-363.683	-84.865	0.254	-0.079
-362.669	-200.000	-0.011	0.305
-361.654	671.861	0.010	0.027
-360.639	138.565	0.161	-0.208
-359.625	-200.000	0.038	0.327
-358.610	-76.036	-0.259	0.091
-357.596	134.111	-0.235	0.300
-356.581	-129.054	-0.145	0.020
-355.566	-200.000	0.029	0.186
-354.552	-94.635	0.286	0.077
-353.537	85.592	0.093	-0.101
-352.523	81.501	0.160	-0.171
-351.508	104.092	0.281	0.326
-350.493	-200.000	0.015	0.418
-349.479	-68.425	-0.208	-0.080
-348.464	800.000	-0.068	0.261
-347.450	41.505	0.209	0.186
-346.435	-8.955	-0.191	0.126
-345.420	-32.735	0.343	-0.188
-344.406	360.559	0.062	0.123
-343.391	130.973	0.075	0.095
-342.377	-200.000	-0.043	0.220
-341.362	-170.310	0.312	-0.011
-340.348	-200.000	-0.010	-0.107
-339.333	34.477	-0.200	0.173
-338.318	-58.759	0.197	-0.084
-337.304	53.258	-0.404	-0.381
-336.289	800.000	0.100	0.393
-335.275	-200.000	0.031	0.261
-334.260	56.905	-0.221	0.212
-333.245	3.924	-0.053	-0.038
-332.231	-200.000	-0.006	-0.066
-331.216	126.872	0.163	-0.204
-330.202	-198.178	0.180	0.001
-329.187	100.147	0.091	0.104
-328.172	21.985	-0.245	0.197
-327.158	152.467	0.168	-0.226
-326.143	-200.000	-0.046	0.304
-325.129	510.938	0.048	0.110
-324.114	-158.196	0.353	-0.020
-323.099	-118.827	0.291	0.050
-322.085	-200.000	-0.049	-0.435
-321.070	-200.000	-0.020	0.211
-320.056	-89.176	0.416	0.121
-319.041	-200.000	-0.003	0.137
-318.026	800.000	-0.098	-0.341
-317.012	-113.917	0.070	-0.013
-315.997	238.539	0.031	-0.051
-314.983	-60.436	-0.190	-0.080
-313.968	-200.000	0.081	-0.388
-312.953	62.293	-0.137	0.135
-311.939	800.000	-0.054	0.167
-310.924	670.476	0.013	0.034
-309.910	-10.696	0.201	-0.131
-308.895	-156.644	-0.199	-0.012
-307.880	-71.490	-0.111	-0.041
-306.866	-200.000	0.003	-0.064
-305.851	69.281	0.250	-0.253
-304.837	128.706	-0.272	-0.342
-303.822	-82.753	-0.057	-0.018
-302.807	150.935	-0.085	0.114
-301.793	-60.517	-0.295	0.123
-300.778	800.000	-0.036	-0.103
-299.764	-55.675	0.040	0.018
-298.749	800.000	0.119	-0.325
-297.735	-4.336	0.067	0.046
-296.720	-200.000	0.013	-0.232
-295.705	127.550	-0.089	-0.111
-294.691	136.213	-0.195	0.250
-293.676	-200.000	0.033	-0.259
-292.662	-157.815	0.407	0.024
-291.647	111.021	-0.255	-0.302
-290.632	26.791	0.130	0.107
-289.618	38.681	0.219	0.192
-288.603	341.097	0.143	-0.276
-287.589	-81.296	-0.157	-0.051
-286.574	-200.000	0.024	-0.120
-285.559	-200.000	0.033	0.167
-284.545	-131.951	0.067	0.009
-283.530	281.200	-0.157	-0.277
-282.516	-67.979	-0.106	0.041
-281.501	279.788	0.253	0.446
-280.486	260.978	-0.073	0.124
-279.472	800.000	0.028	0.085
-278.457	50.969	-0.387	-0.361
-277.443	-35.928	-0.482	-0.257
-276.428	553.581	-0.150	0.356
-275.413	9.133	0.353	-0.263
-274.399	-136.612	0.171	0.019
-273.384	-7.192	0.067	0.045
-272.370	-200.000	-0.016	0.072
-271.355	-30.978	-0.264	0.147
-270.340	-43.288	0.064	0.032
-269.326	42.211	0.133	-0.119
-268.311	198.291	-0.044	-0.066
-267.297	-60.553	0.176	0.073
-266.282	800.000	-0.025	0.096
-265.267	800.000	-0.001	0.003
-264.253	-54.079	0.199	-0.089
-263.238	-90.084	-0.118	-0.034
-262.224	229.163	-0.180	0.289
-261.209	88.644	-0.173	0.189
-260.195	560.992	0.025	0.060
-259.180	762.806	-0.006	-0.015
-258.165	-67.873	-0.397	0.152
-257.151	-86.574	0.078	0.023
-256.136	800.000	0.032	-0.107
-255.122	-136.868	-0.204	0.023
-254.107	33.486	-0.103	-0.088
-253.092	800.000	-0.028	0.098
-252.078	-130.189	-0.224	-0.030
-251.063	-59.002	-0.359	0.152
-250.049	800.000	-0.086	-0.247
-249.034	191.156	0.091	-0.135
-248.019	92.737	-0.109	-0.121
-247.005	-86.980	-0.228	-0.068
-245.990	76.018	-0.264	-0.274
-244.976	-148.700	-0.143	0.011
-243.961	-200.000	0.034	0.162
-242.946	9.675	0.069	-0.051
-241.932	36.730	-0.172	0.150
-240.917	-200.000	-0.010	-0.102
-239.903	800.000	-0.057	0.167
-238.888	-71.019	0.319	-0.118
-237.873	800.000	-0.036	-0.130
-236.859	-35.890	-0.150	0.080
-235.844	181.156	-0.130	-0.187
-234.830	8.849	-0.222	-0.164
-233.815	-200.000	0.076	-0.480
-232.800	-64.465	-0.161	0.064
-231.786	-71.139	0.125	0.046
-230.771	-64.203	0.185	-0.074
-229.757	-200.000	0.015	-0.073
-228.742	-200.000	-0.021	-0.325
-227.727	-200.000	-0.054	-0.249
-226.713	-95.988	-0.210	-0.055
-225.698	-109.637	0.346	0.072
-224.684	800.000	-0.140	0.390
-223.669	587.942	-0.055	-0.133
-222.655	-143.582	0.251	0.023
-221.640	-108.814	-0.153	0.032
-220.625	-200.000	0.046	0.396
-219.611	220.362	-0.186	0.292
-218.596	565.736	-0.239	0.569
-217.582	-8.179	-0.258	0.171
-216.567	-200.000	-0.002	-0.117
-215.552	-30.850	-0.240	-0.133
-214.538	270.143	-0.188	0.325
-213.523	800.000	-0.042	0.171
-212.509	71.734	-0.131	-0.134
-211.494	-153.311	0.126	0.009
-210.479	-59.399	0.079	-0.033
-209.465	16.100	-0.146	-0.113
-208.450	106.270	-0.113	-0.131
-207.436	-105.956	-0.183	-0.040
-206.421	-149.956	-0.167	0.013
-205.406	-152.446	0.219	0.015
-204.392	-176.442	0.596	0.015
-203.377	-33.516	-0.086	-0.047
-202.363	31.332	-0.141	0.118
-201.348	65.274	0.192	0.190
-200.333	-200.000	0.039	-0.188
-199.319	25.891	0.088	0.072
-198.304	-104.364	0.328	0.075
-197.290	800.000	0.088	0.370
-196.275	119.495	0.158	0.192
-195.260	-200.000	0.021	0.103
-194.246	-200.000	0.020	0.193
-193.231	66.833	0.113	-0.113
-192.217	-6.253	0.231	-0.155
-191.202	-200.000	-0.026	-0.263
-190.187	800.000	-0.063	-0.170
-189.173	800.000	-0.056	0.165
-188.158	-151.092	-0.260	0.019
-187.144	-200.000	0.008	0.277
-186.129	88.407	0.261	-0.284
-185.114	-200.000	-0.054	-0.253
-184.100	5.793	-0.371	-0.269
-183.085	719.767	0.113	-0.294
-182.071	50.026	0.179	0.165
-181.056	-89.943	-0.135	-0.039
-180.042	429.631	0.101	0.214
-179.027	-63.877	-0.151	-0.061
-178.012	452.487	0.118	-0.256
-176.998	165.838	-0.254	0.352
-175.983	-111.641	-0.437	0.087
-174.969	14.277	0.073	-0.056
-173.954	147.678	0.295	0.390
-172.939	-159.781	-0.261	-0.014
-171.925	800.000	0.118	0.418
-170.910	-89.819	0.169	-0.048
-169.896	-80.642	0.193	0.063
-168.881	-200.000	-0.058	0.283
-167.866	163.338	-0.127	-0.175
-166.852	-59.124	-0.275	-0.116
-165.837	-200.000	0.005	0.067
-164.823	61.322	0.085	-0.083
-163.808	465.161	-0.091	0.200
-162.793	326.738	0.103	0.193
-161.779	101.149	0.144	-0.164
-160.764	445.721	-0.045	0.096
-159.750	-200.000	0.049	0.347
-158.735	800.000	0.022	0.067
-157.720	800.000	-0.112	0.434
-156.706	-38.721	0.334	-0.172
-155.691	-102.374	0.362	-0.085
-154.677	-200.000	-0.002	0.172
-153.662	-7.534	0.321	0.213
-152.647	193.382	0.027	0.040
-151.633	-102.989	0.262	0.061
-150.618	312.960	0.151	0.279
-149.604	-99.316	0.128	-0.032
-148.589	-200.000	0.022	0.220
-147.574	-58.753	0.182	-0.077
-146.560	-200.000	-0.043	-0.286
-145.545	-200.000	0.075	-0.371
-144.531	-16.735	0.148	-0.092
-143.516	71.380	-0.184	0.187
-142.502	74.628	-0.109	-0.112
-141.487	-57.046	0.196	0.084
-140.472	282.224	-0.114	-0.200
-139.458	-27.185	0.286	0.163
-138.443	313.556	0.163	0.300
-137.429	-200.000	0.044	-0.377
-136.414	-162.155	0.366	0.018
-135.399	66.779	0.040	0.040
-134.385	198.848	-0.178	0.267
-133.370	-200.000	0.005	-0.152
-132.356	-131.793	0.302	0.039
-131.341	-159.076	-0.244	-0.013
-130.326	35.355	-0.135	0.116
-129.312	-110.890	-0.337	-0.068
-128.297	800.000	-0.046	-0.147
-127.283	33.084	0.045	0.038
-126.268	4.573	0.410	-0.294
-125.253	119.557	-0.113	0.137
-124.239	50.991	-0.204	0.190
-123.224	-91.570	0.264	-0.074
-122.210	-23.223	0.025	0.015
-121.195	704.716	-0.072	-0.186
