DTS Sentinel unit serial number:	SN413079Multiplexer serial number:	ORYXHardware model number:	OX4-SRSoftware version number:	ORYX F/W v4.00 Oryx Data Collector v3.7.2.0data status	okinstallation	princeton_trtdifferential loss correction	single-endedforward channel	channel 1reverse channel	N/Adate	2019/09/16time	00:58:35forward acquisition time	60.00reverse acquisition time	0.00gamma	496.2192k internal	0.2335k external	0.2335temperature offset calibration	0.9978default loss term (dB/km)	0.3790temperature slope calibration	1.0000multiplexer offset coefficient	1.0000multiplexer slope coefficient	1.0000fibre end	0.00T internal ref (°C)	27.36T ext. ref 1 (°C)	9.73T ext. ref 2 (°C)	21.28length (m)	temperature (°C)	Stokes	anti-Stokes-747.200	83.420	-0.325	-0.355
-746.185	50.716	-0.171	0.163
-745.171	-200.000	-0.022	-0.213
-744.156	-5.791	-0.260	0.179
-743.142	800.000	0.037	0.120
-742.127	482.633	-0.014	0.033
-741.112	-40.409	-0.208	-0.109
-740.098	-200.000	-0.042	0.261
-739.083	-122.525	-0.204	0.033
-738.069	139.761	-0.143	0.190
-737.054	-131.907	0.434	0.057
-736.039	800.000	-0.014	0.061
-735.025	-74.554	0.165	0.060
-734.010	800.000	-0.024	-0.068
-732.996	800.000	0.087	-0.253
-731.981	-90.820	0.082	-0.024
-730.966	-54.694	-0.466	-0.212
-729.952	-200.000	-0.012	0.158
-728.937	-123.319	-0.335	-0.054
-727.923	-56.931	0.096	-0.043
-726.908	-169.700	0.227	0.008
-725.894	-62.662	-0.362	-0.151
-724.879	-200.000	0.042	-0.258
-723.864	-63.549	-0.151	0.062
-722.850	-87.850	-0.670	-0.202
-721.835	-138.372	0.258	0.029
-720.821	-93.296	0.106	-0.030
-719.806	-112.802	-0.223	0.044
-718.791	-97.441	-0.140	-0.037
-717.777	60.801	0.124	-0.123
-716.762	381.294	0.154	0.318
-715.748	-200.000	0.017	0.200
-714.733	25.096	-0.177	0.147
-713.718	284.558	0.108	-0.194
-712.704	245.844	0.179	-0.303
-711.689	-56.273	-0.150	0.067
-710.675	-177.481	0.112	0.003
-709.660	-200.000	-0.042	0.327
-708.645	81.766	0.141	-0.153
-707.631	94.866	-0.099	0.113
-706.616	-200.000	0.008	-0.316
-705.602	-171.303	-0.099	0.003
-704.587	693.373	-0.087	0.229
-703.572	-6.003	-0.211	0.145
-702.558	20.214	-0.103	0.083
-701.543	-200.000	0.012	0.214
-700.529	800.000	-0.081	0.288
-699.514	-13.198	0.197	0.128
-698.499	35.813	0.134	-0.118
-697.485	800.000	-0.088	0.245
-696.470	-200.000	-0.028	-0.358
-695.456	203.775	-0.056	0.086
-694.441	60.295	-0.219	-0.217
-693.426	38.021	0.089	-0.080
-692.412	-200.000	-0.002	0.115
-691.397	213.543	-0.094	-0.148
-690.383	-200.000	0.016	-0.163
-689.368	-68.500	-0.377	-0.146
-688.354	139.292	-0.152	0.200
-687.339	66.233	0.207	0.211
-686.324	-200.000	-0.011	0.320
-685.310	146.092	-0.104	0.140
-684.295	-200.000	-0.014	-0.085
-683.281	-151.558	0.085	-0.006
-682.266	-200.000	0.057	-0.318
-681.251	153.048	-0.084	-0.116
-680.237	-66.867	-0.295	0.117
-679.222	181.604	-0.182	-0.268
-678.208	-113.540	-0.141	-0.028
-677.193	-10.777	0.292	-0.193
-676.178	-144.181	-0.120	0.011
-675.164	614.840	0.033	-0.083
-674.149	800.000	-0.122	0.358
-673.135	99.857	0.219	-0.254
-672.120	800.000	-0.080	-0.277
-671.105	-200.000	-0.009	-0.418
-670.091	-8.856	0.345	0.232
-669.076	-200.000	0.102	0.000
-668.062	298.090	-0.122	0.224
-667.047	125.688	0.015	0.019
-666.032	683.727	0.111	-0.289
-665.018	76.017	-0.054	-0.058
-664.003	-91.759	0.064	-0.018
-662.989	150.727	-0.077	0.105
-661.974	-200.000	0.048	-0.245
-660.959	268.882	0.061	-0.107
-659.945	-69.818	-0.243	-0.093
-658.930	433.726	-0.023	0.051
-657.916	232.161	-0.162	0.267
-656.901	-200.000	0.062	0.373
-655.886	-120.462	-0.178	0.030
-654.872	113.564	-0.180	-0.219
-653.857	146.236	0.119	-0.159
-652.843	-163.299	-0.253	-0.012
-651.828	-135.232	-0.445	0.053
-650.814	127.628	0.162	-0.206
-649.799	-101.304	-0.238	0.058
-648.784	695.157	0.155	-0.407
-647.770	-20.820	-0.223	0.137
-646.755	-200.000	0.014	0.096
-645.741	-200.000	-0.015	-0.151
-644.726	800.000	0.065	0.182
-643.711	9.078	-0.100	0.076
-642.697	-132.049	-0.191	0.025
-641.682	800.000	0.038	-0.151
-640.668	-78.266	-0.182	0.063
-639.653	-132.401	0.179	0.023
-638.638	114.625	0.157	-0.192
-637.624	195.405	-0.188	-0.286
-636.609	200.599	-0.028	-0.042
-635.595	67.990	-0.053	0.054
-634.580	-41.384	0.203	0.105
-633.565	800.000	-0.072	-0.313
-632.551	-11.904	0.248	-0.163
-631.536	43.048	0.089	-0.081
-630.522	800.000	0.057	-0.197
-629.507	-7.669	0.130	0.088
-628.492	351.874	0.121	0.240
-627.478	-200.000	0.014	-0.107
-626.463	-55.425	-0.247	-0.111
-625.449	-3.924	-0.157	-0.109
-624.434	4.878	0.171	0.126
-623.419	-48.099	-0.203	0.098
-622.405	67.843	0.100	-0.102
-621.390	-104.254	-0.062	0.014
-620.376	548.093	-0.004	-0.010
-619.361	-109.072	-0.116	0.025
-618.346	267.961	0.103	-0.181
-617.332	-28.690	0.169	0.098
-616.317	35.472	-0.063	-0.055
-615.303	-37.862	0.200	-0.106
-614.288	-13.835	-0.310	0.201
-613.273	-86.625	-0.089	-0.027
-612.259	-136.981	-0.103	0.012
-611.244	362.834	-0.150	0.300
-610.230	293.663	-0.144	0.263
-609.215	6.711	-0.195	0.145
-608.201	571.625	0.098	-0.238
-607.186	108.808	-0.124	0.148
-606.171	800.000	0.006	-0.024
-605.157	-117.426	-0.353	-0.064
-604.142	-34.581	-0.244	0.133
-603.128	-24.265	0.080	0.048
-602.113	13.626	0.241	0.187
-601.098	7.282	0.083	-0.062
-600.084	-129.618	0.099	0.014
-599.069	-51.552	-0.111	0.052
-598.055	-36.018	-0.158	-0.085
-597.040	-130.769	-0.194	-0.026
-596.025	-107.408	-0.256	-0.056
-595.011	35.576	0.080	-0.070
-593.996	42.790	-0.266	-0.242
-592.982	77.300	-0.118	-0.125
-591.967	-114.941	-0.178	-0.034
-590.952	737.743	0.031	0.082
-589.938	-163.824	-0.208	0.010
-588.923	-91.384	0.221	-0.063
-587.909	379.570	0.086	-0.176
-586.894	-200.000	-0.006	0.027
-585.879	-62.679	0.282	0.117
-584.865	-68.442	0.279	-0.108
-583.850	-16.026	0.126	-0.080
-582.836	-92.914	-0.125	-0.035
-581.821	-181.108	-0.079	0.002
-580.806	-33.523	-0.236	-0.130
-579.792	-123.934	-0.379	-0.060
-578.777	665.773	-0.115	0.296
-577.763	-200.000	-0.017	0.220
-576.748	41.714	-0.269	-0.243
-575.733	113.415	-0.184	-0.223
-574.719	-105.034	0.175	-0.040
-573.704	-200.000	0.009	-0.169
-572.690	-22.665	-0.179	-0.108
-571.675	-174.578	0.165	0.005
-570.661	-76.815	0.382	-0.133
-569.646	101.407	-0.244	-0.284
-568.631	-36.846	-0.169	0.091
-567.617	-22.775	-0.253	-0.152
-566.602	-106.588	0.399	-0.089
-565.588	389.458	0.068	-0.140
-564.573	-27.204	-0.283	0.165
-563.558	-147.533	-0.315	0.027
-562.544	-150.017	-0.299	0.023
-561.529	317.340	-0.087	-0.165
-560.515	-38.929	-0.152	-0.080
-559.500	4.189	-0.243	0.177
-558.485	-200.000	0.057	0.342
-557.471	-58.117	0.058	-0.025
-556.456	384.433	0.037	-0.076
-555.442	-200.000	-0.088	-0.476
-554.427	-11.935	0.213	-0.140
-553.412	10.811	-0.182	0.139
-552.398	-200.000	-0.003	0.312
-551.383	784.759	-0.037	0.101
-550.369	-69.238	0.115	-0.044
-549.354	-200.000	-0.040	-0.228
-548.339	297.341	0.160	-0.293
-547.325	108.025	-0.068	-0.080
-546.310	-90.290	-0.045	-0.013
-545.296	-200.000	-0.032	-0.157
-544.281	-200.000	-0.018	0.203
-543.266	28.187	0.148	-0.125
-542.252	27.204	0.102	-0.086
-541.237	332.943	0.121	-0.234
-540.223	-200.000	-0.011	0.195
-539.208	-130.451	-0.429	0.058
-538.193	712.848	0.080	0.211
-537.179	265.903	0.111	0.194
-536.164	90.142	0.215	-0.240
-535.150	167.098	0.180	0.255
-534.135	-200.000	0.068	0.297
-533.121	-89.127	-0.097	-0.029
-532.106	88.947	0.138	-0.154
-531.091	-200.000	-0.034	0.196
-530.077	-37.610	-0.485	-0.258
-529.062	-145.330	0.503	-0.045
-528.048	-39.356	0.213	0.111
-527.033	411.732	-0.132	-0.279
-526.018	800.000	0.091	0.350
-525.004	-106.296	-0.259	-0.058
-523.989	-0.629	0.310	0.219
-522.975	-23.677	-0.402	0.240
-521.960	-200.000	0.008	-0.128
-520.945	-200.000	-0.000	0.082
-519.931	800.000	0.032	0.109
-518.916	-161.259	-0.188	0.010
-517.902	-200.000	-0.023	0.194
-516.887	187.964	-0.184	0.274
-515.872	209.118	0.077	-0.120
-514.858	244.680	-0.104	-0.173
-513.843	800.000	-0.111	-0.392
-512.829	800.000	0.015	0.063
-511.814	-72.280	0.169	-0.062
-510.799	317.784	-0.040	0.076
-509.785	193.297	-0.208	-0.312
-508.770	718.019	-0.046	0.123
-507.756	-200.000	-0.046	-0.219
-506.741	90.539	-0.176	-0.196
-505.726	-69.053	0.235	-0.090
-504.712	-172.740	-0.121	-0.004
-503.697	156.079	-0.219	-0.301
-502.683	19.446	-0.064	-0.051
-501.668	46.327	-0.153	-0.141
-500.653	-4.939	-0.103	0.071
-499.639	-74.774	0.340	0.122
-498.624	-200.000	-0.019	0.278
-497.610	424.319	0.111	0.237
-496.595	-167.266	0.449	0.018
-495.581	-101.397	-0.219	-0.053
-494.566	104.336	-0.281	-0.329
-493.551	800.000	-0.034	-0.127
-492.537	-87.860	0.243	-0.073
-491.522	357.160	0.131	0.260
-490.508	81.966	0.199	0.214
-489.493	6.987	-0.393	-0.292
-488.478	442.247	0.150	-0.326
-487.464	-24.479	0.080	-0.048
-486.449	-200.000	-0.031	-0.434
-485.435	-73.971	0.210	-0.076
-484.420	-77.919	0.379	-0.130
-483.405	84.283	0.023	-0.025
-482.391	172.954	-0.100	0.144
-481.376	-141.302	-0.148	0.015
-480.362	-200.000	-0.056	0.306
-479.347	-61.773	0.044	0.018
-478.332	800.000	0.061	0.203
-477.318	-98.198	-0.189	0.048
-476.303	-12.532	0.208	0.135
-475.289	800.000	-0.120	0.364
-474.274	504.274	0.019	-0.044
-473.259	208.537	-0.055	-0.085
-472.245	118.173	0.030	0.037
-471.230	-33.445	-0.006	-0.003
-470.216	-200.000	-0.371	0.001
-469.201	-200.000	0.052	-0.241
-468.186	136.393	-0.137	0.178
-467.172	30.930	0.074	-0.063
-466.157	-63.624	-0.154	0.063
-465.143	52.134	0.288	0.273
-464.128	-41.513	-0.507	0.259
-463.113	-25.711	-0.019	0.011
-462.099	121.671	0.118	0.146
-461.084	-31.928	0.166	-0.092
-460.070	-61.173	0.502	-0.210
-459.055	-8.991	-0.065	-0.043
-458.040	-200.000	-0.030	-0.133
-457.026	-30.428	0.265	-0.150
-456.011	276.476	0.230	-0.405
-454.997	-200.000	-0.049	-0.292
-453.982	121.244	-0.150	0.186
-452.968	-200.000	0.019	-0.334
-451.953	-13.903	0.213	-0.137
-450.938	28.058	-0.134	0.113
-449.924	-77.959	-0.049	0.017
-448.909	-124.751	-0.036	0.006
-447.895	-45.120	0.090	-0.045
-446.880	159.656	-0.243	-0.336
-445.865	13.454	0.216	-0.166
-444.851	-142.429	0.124	-0.012
-443.836	141.566	0.185	-0.244
-442.822	-200.000	0.014	-0.165
-441.807	55.698	-0.165	0.159
-440.792	-25.563	-0.421	0.247
-439.778	-200.000	0.027	0.298
-438.763	-92.542	-0.091	-0.025
-437.749	-200.000	0.042	-0.200
-436.734	194.587	0.160	-0.241
-435.719	-21.305	-0.485	-0.294
-434.705	-116.893	0.294	-0.053
-433.690	-1.700	-0.138	-0.096
-432.676	-200.000	0.009	0.084
-431.661	-49.567	0.088	-0.042
-430.646	-25.191	-0.239	-0.141
-429.632	-32.122	-0.113	0.063
-428.617	800.000	0.099	0.382
-427.603	253.558	0.106	0.179
-426.588	-175.069	-0.223	0.006
-425.573	25.404	0.031	-0.025
-424.559	-31.425	0.288	0.161
-423.544	-200.000	0.016	0.355
-422.530	-11.670	-0.218	0.142
-421.515	-200.000	-0.007	0.063
-420.500	800.000	-0.069	0.224
-419.486	358.799	0.137	0.271
-418.471	-185.264	-0.373	-0.006
-417.457	149.148	0.233	0.312
-416.442	-25.033	-0.078	-0.046
-415.428	-200.000	0.065	-0.313
-414.413	-74.898	0.099	-0.035
-413.398	-68.185	0.189	-0.073
-412.384	800.000	0.093	-0.364
-411.369	161.655	-0.073	0.102
-410.355	11.980	-0.300	0.229
-409.340	-52.221	0.121	-0.056
-408.325	-200.000	-0.023	-0.326
-407.311	800.000	-0.086	-0.240
-406.296	-113.309	-0.113	0.022
-405.282	69.646	-0.102	-0.104
-404.267	187.018	0.226	0.334
-403.252	111.478	-0.140	-0.167
-402.238	120.237	0.149	-0.184
-401.223	529.677	0.180	0.422
-400.209	-117.088	0.185	-0.033
-399.194	-22.110	0.285	0.171
-398.179	-186.512	0.205	-0.003
-397.165	-136.854	0.371	0.042
-396.150	-200.000	-0.028	0.131
-395.136	14.258	-0.146	-0.113
-394.121	-154.246	0.259	0.017
-393.106	800.000	-0.073	0.261
-392.092	-125.810	0.295	-0.044
-391.077	260.259	-0.245	-0.420
-390.063	684.249	-0.103	-0.265
-389.048	-200.000	0.043	0.242
-388.033	-1.923	-0.096	0.067
-387.019	800.000	0.064	0.275
-386.004	-53.367	-0.291	-0.132
-384.990	28.051	0.097	-0.081
-383.975	-181.418	-0.226	0.004
-382.960	-47.724	0.153	0.073
-381.946	264.140	0.065	-0.112
-380.931	650.947	0.140	0.356
-379.917	800.000	0.093	0.272
-378.902	-200.000	-0.001	-0.198
-377.888	64.077	-0.149	0.148
-376.873	-146.772	0.374	0.032
-375.858	-108.049	-0.271	-0.058
-374.844	800.000	-0.024	-0.085
-373.829	200.488	0.160	-0.243
-372.815	-103.634	-0.295	0.069
-371.800	-34.785	-0.081	0.044
-370.785	-12.314	0.152	-0.099
-369.771	31.168	0.343	0.291
-368.756	-96.408	-0.299	-0.078
-367.742	-200.000	-0.011	-0.103
-366.727	194.650	0.029	-0.044
-365.712	441.571	0.061	0.133
-364.698	-5.611	-0.238	0.162
-363.683	181.595	-0.057	-0.083
-362.669	298.064	-0.034	-0.061
-361.654	-156.293	0.044	-0.003
-360.639	94.354	-0.091	-0.102
-359.625	154.418	-0.175	0.238
-358.610	-115.502	0.012	0.002
-357.596	-35.922	-0.111	-0.059
-356.581	67.726	-0.091	0.092
-355.566	160.649	-0.066	-0.091
-354.552	512.984	-0.046	-0.105
-353.537	389.769	-0.085	0.175
-352.523	-54.411	-0.066	0.029
-351.508	-49.275	0.056	0.027
-350.493	-11.277	0.098	-0.064
-349.479	-200.000	0.013	-0.213
-348.464	-200.000	-0.011	-0.119
-347.450	133.460	-0.179	-0.230
-346.435	183.434	0.079	-0.115
-345.420	-32.357	-0.121	0.067
-344.406	170.511	0.330	0.468
-343.391	45.518	-0.183	-0.167
-342.377	-200.000	-0.062	0.282
-341.362	-2.644	0.099	-0.068
-340.348	112.845	-0.170	-0.204
-339.333	-142.336	-0.025	0.002
-338.318	-30.021	0.182	-0.103
-337.304	-117.911	0.314	0.056
-336.289	166.053	-0.163	0.228
-335.275	8.148	-0.090	0.067
-334.260	25.328	0.192	0.157
-333.245	-39.366	0.191	-0.099
-332.231	-200.000	-0.028	-0.489
-331.216	66.686	0.344	-0.346
-330.202	-122.106	-0.352	0.057
-329.187	85.883	-0.148	0.161
-328.172	444.560	-0.104	-0.225
-327.158	-111.464	-0.221	-0.044
-326.143	-51.301	0.038	0.018
-325.129	-200.000	-0.068	0.415
-324.114	-200.000	-0.040	0.222
-323.099	128.363	-0.214	-0.269
-322.085	-6.698	-0.129	0.087
-321.070	-101.488	0.003	0.001
-320.056	354.051	-0.103	0.202
-319.041	-200.000	-0.036	0.192
-318.026	488.344	0.070	0.158
-317.012	-91.247	0.272	-0.077
-315.997	-7.088	-0.079	-0.053
-314.983	-117.457	0.103	-0.018
-313.968	800.000	0.014	-0.038
-312.953	-131.676	0.274	-0.036
-311.939	-139.402	0.222	0.024
-310.924	-56.247	-0.280	-0.123
-309.910	-200.000	-0.041	0.188
-308.895	208.507	-0.163	0.252
-307.880	82.608	0.072	0.077
-306.866	7.098	-0.068	-0.050
-305.851	-24.853	0.258	0.151
-304.837	-200.000	0.035	-0.344
-303.822	-129.761	0.357	0.049
-302.807	-200.000	0.024	0.258
-301.793	-83.502	-0.230	0.073
-300.778	-57.295	0.114	-0.050
-299.764	30.384	0.112	-0.095
-298.749	25.724	-0.123	0.102
-297.735	-38.277	-0.127	-0.066
-296.720	-35.801	0.244	0.130
-295.705	-131.223	0.080	-0.010
-294.691	-2.790	-0.245	-0.169
-293.676	-200.000	-0.008	0.048
-292.662	568.212	-0.235	0.565
-291.647	800.000	-0.139	-0.462
-290.632	-153.876	0.190	0.013
-289.618	656.585	-0.049	-0.125
-288.603	-47.269	0.285	-0.137
-287.589	65.603	0.250	0.250
-286.574	-142.751	0.200	0.019
-285.559	-105.905	-0.283	-0.063
-284.545	-91.327	0.192	-0.054
-283.530	-34.882	-0.031	-0.017
-282.516	433.889	-0.111	-0.238
-281.501	419.425	-0.140	-0.295
-280.486	257.959	0.157	0.267
-279.472	-82.650	-0.018	0.006
-278.457	288.342	0.224	0.400
-277.443	73.587	-0.093	-0.096
-276.428	-200.000	0.009	-0.079
-275.413	33.193	-0.059	-0.050
-274.399	-200.000	-0.049	0.339
-273.384	43.606	-0.137	-0.124
-272.370	-116.296	0.193	0.035
-271.355	-200.000	0.016	0.234
-270.340	-200.000	-0.064	0.288
-269.326	223.002	0.221	0.352
-268.311	150.143	0.071	-0.096
-267.297	-200.000	0.015	-0.165
-266.282	-0.323	0.215	-0.151
-265.267	675.554	-0.085	0.219
-264.253	-187.601	-0.210	0.003
-263.238	193.736	-0.037	0.056
-262.224	-200.000	0.027	-0.231
-261.209	21.178	-0.023	0.018
-260.195	-162.521	0.273	-0.013
-259.180	800.000	0.112	-0.315
-258.165	591.937	-0.052	0.128
-257.151	39.016	0.344	-0.303
-256.136	-74.867	0.180	0.064
-255.122	-171.250	-0.074	-0.002
-254.107	800.000	-0.040	-0.127
-253.092	-34.728	-0.137	0.074
-252.078	41.783	-0.268	0.240
-251.063	396.354	-0.191	0.392
-250.049	39.198	0.073	-0.065
-249.034	-133.755	0.385	0.047
-248.019	-119.629	-0.157	-0.027
-247.005	39.313	0.116	-0.102
-245.990	-17.721	0.220	-0.136
-244.976	572.643	0.061	-0.146
-243.961	-200.000	0.036	-0.183
-242.946	-200.000	0.360	0.001
-241.932	308.769	-0.172	-0.316
-240.917	622.698	-0.101	-0.250
-239.903	-48.772	0.235	0.111
-238.888	62.202	0.207	0.203
-237.873	-42.582	-0.215	-0.108
-236.859	-200.000	-0.004	-0.038
-235.844	477.949	0.045	0.099
-234.830	181.254	0.193	0.280
-233.815	-152.035	-0.210	0.015
-232.800	-200.000	-0.005	-0.134
-231.786	-82.383	-0.632	-0.202
-230.771	-200.000	-0.091	0.570
-229.757	281.580	0.090	-0.159
-228.742	248.429	0.265	-0.441
-227.727	243.589	-0.066	0.108
-226.713	726.599	0.189	0.496
-225.698	-200.000	0.000	0.178
-224.684	-7.166	-0.190	0.127
-223.669	800.000	-0.046	-0.126
-222.655	-200.000	-0.018	0.238
-221.640	301.392	0.126	0.228
-220.625	-147.717	0.158	0.013
-219.611	-200.000	-0.038	0.336
-218.596	-49.624	-0.133	0.062
-217.582	-200.000	-0.038	-0.172
-216.567	183.490	0.234	0.340
-215.552	93.532	0.210	0.234
-214.538	-62.044	0.236	-0.097
-213.523	90.574	-0.094	0.103
-212.509	118.701	-0.232	0.282
-211.494	-64.327	0.095	0.038
-210.479	800.000	-0.036	-0.123
-209.465	-200.000	0.003	-0.269
-208.450	-39.925	-0.074	0.038
-207.436	-116.222	-0.332	-0.061
-206.421	-27.433	0.119	0.068
-205.406	-5.422	0.150	0.102
-204.392	492.704	0.153	0.345
-203.377	528.925	-0.049	0.113
-202.363	-29.194	0.272	0.153
-201.348	10.671	-0.122	0.091
-200.333	-103.947	0.157	-0.036
-199.319	-53.234	0.299	-0.135
-198.304	376.831	0.117	0.236
-197.290	44.636	0.117	0.106
-196.275	800.000	-0.086	-0.312
-195.260	-200.000	0.027	-0.273
-194.246	90.291	-0.065	-0.072
-193.231	86.237	0.189	0.204
-192.217	-49.956	0.191	0.089
-191.202	174.582	-0.164	0.233
-190.187	-74.073	0.054	0.019
-189.173	-45.519	0.360	-0.175
-188.158	800.000	0.109	-0.355
-187.144	233.403	0.028	-0.045
-186.129	-15.001	0.366	-0.231
-185.114	6.097	0.225	0.164
-184.100	800.000	-0.062	0.222
-183.085	-200.000	0.023	0.102
-182.071	113.374	-0.062	0.074
-181.056	17.608	-0.196	0.153
-180.042	48.567	0.192	-0.177
-179.027	-163.418	-0.030	0.001
-178.012	96.047	-0.189	-0.213
-176.998	70.891	0.113	0.115
-175.983	-159.375	-0.147	0.008
-174.969	-53.240	0.346	0.156
-173.954	-122.762	-0.291	-0.046
-172.939	-69.170	-0.035	-0.013
-171.925	-200.000	-0.076	-0.338
-170.910	-92.061	0.281	0.078
-169.896	-200.000	-0.008	0.132
-168.881	-106.980	-0.123	0.027
-167.866	144.468	0.238	-0.312
-166.852	-5.550	0.039	-0.027
-165.837	196.796	-0.160	-0.239
-164.823	40.584	-0.198	-0.176
-163.808	431.453	0.119	-0.253
-162.793	313.051	0.064	0.118
-161.779	800.000	-0.057	0.200
-160.764	442.499	-0.082	-0.176
-159.750	113.616	-0.196	-0.233
-158.735	74.383	0.138	-0.142
-157.720	85.196	0.175	0.189
-156.706	314.048	-0.173	0.319
-155.691	-43.700	-0.065	0.032
-154.677	54.168	0.100	0.095
-153.662	-16.072	-0.199	0.124
-152.647	-200.000	0.020	0.152
-151.633	800.000	0.060	0.193
-150.618	209.169	-0.346	-0.532
-149.604	56.800	0.077	-0.074
-148.589	-55.010	0.166	-0.073
-147.574	-200.000	0.045	-0.335
-146.560	18.214	0.242	-0.189
-145.545	135.193	-0.091	0.116
-144.531	-76.392	0.304	0.105
-143.516	800.000	0.079	0.322
-142.502	106.884	0.125	-0.145
-141.487	-49.780	-0.252	0.118
-140.472	258.109	-0.138	-0.233
-139.458	800.000	-0.023	0.070
-138.443	-180.553	0.055	0.001
-137.429	-121.767	-0.195	-0.032
-136.414	374.080	0.067	-0.133
-135.399	0.392	-0.075	-0.052
-134.385	-92.242	-0.556	-0.154
-133.370	800.000	0.074	0.245
-132.356	399.720	0.074	0.151
-131.341	-186.653	0.155	-0.002
-130.326	-140.970	-0.311	0.031
-129.312	-200.000	-0.043	-0.342
-128.297	-87.103	0.414	0.124
-127.283	800.000	0.048	0.175
-126.268	-76.570	0.156	0.054
-125.253	67.391	0.373	-0.373
-124.239	-120.128	0.239	0.040
-123.224	800.000	0.069	0.292
-122.210	357.146	0.107	-0.210
