DTS Sentinel unit serial number:	SN413079Multiplexer serial number:	ORYXHardware model number:	OX4-SRSoftware version number:	ORYX F/W v4.00 Oryx Data Collector v3.7.2.0data status	okinstallation	princeton_trtdifferential loss correction	single-endedforward channel	channel 1reverse channel	N/Adate	2019/09/19time	04:22:35forward acquisition time	60.00reverse acquisition time	0.00gamma	496.2192k internal	0.2342k external	0.2342temperature offset calibration	1.0024default loss term (dB/km)	0.3790temperature slope calibration	1.0000multiplexer offset coefficient	1.0000multiplexer slope coefficient	1.0000fibre end	0.00T internal ref (°C)	20.25T ext. ref 1 (°C)	0.64T ext. ref 2 (°C)	13.44length (m)	temperature (°C)	Stokes	anti-Stokes-747.200	-89.464	0.104	0.031
-746.185	-10.768	-0.158	0.104
-745.171	-102.051	0.486	-0.117
-744.156	800.000	0.036	-0.126
-743.142	-67.434	-0.117	0.046
-742.127	276.711	0.115	0.204
-741.112	269.642	0.247	-0.434
-740.098	800.000	-0.042	0.157
-739.083	800.000	0.041	0.156
-738.069	-200.000	0.100	0.568
-737.054	173.738	0.085	-0.122
-736.039	-107.200	-0.307	0.068
-735.025	-120.050	0.283	-0.049
-734.010	31.339	-0.255	-0.219
-732.996	142.065	0.283	-0.376
-731.981	-147.730	0.428	0.036
-730.966	84.738	0.264	-0.289
-729.952	-200.000	0.017	-0.094
-728.937	-38.963	-0.372	-0.196
-727.923	-200.000	0.105	0.491
-726.908	414.102	0.034	0.072
-725.894	-129.592	-0.240	-0.033
-724.879	318.573	0.060	0.115
-723.864	-159.178	-0.150	0.008
-722.850	150.814	-0.100	-0.136
-721.835	-200.000	-0.033	-0.175
-720.821	48.651	-0.290	-0.272
-719.806	-104.525	0.388	0.090
-718.791	-200.000	-0.036	0.451
-717.777	233.822	-0.070	-0.115
-716.762	286.236	-0.109	-0.198
-715.748	-141.909	-0.419	0.042
-714.733	19.346	0.196	-0.158
-713.718	2.799	0.124	0.090
-712.704	625.901	0.014	0.035
-711.689	-85.825	-0.216	0.067
-710.675	-101.564	0.255	-0.062
-709.660	-99.119	0.158	0.040
-708.645	-48.028	-0.106	-0.051
-707.631	800.000	-0.013	0.056
-706.616	-54.411	0.238	-0.108
-705.602	800.000	-0.057	0.198
-704.587	463.058	-0.010	-0.022
-703.572	-151.037	-0.268	-0.020
-702.558	-87.657	0.404	0.122
-701.543	-200.000	-0.000	-0.265
-700.529	121.854	0.173	0.216
-699.514	-95.181	-0.114	0.031
-698.499	32.059	-0.101	0.087
-697.485	-200.000	0.012	-0.284
-696.470	52.161	0.233	-0.222
-695.456	-91.725	0.253	0.072
-694.441	-139.959	-0.148	0.016
-693.426	800.000	0.030	0.126
-692.412	-200.000	-0.017	-0.133
-691.397	-92.540	-0.453	0.127
-690.383	-200.000	-0.010	-0.367
-689.368	80.872	0.105	-0.113
-688.354	382.284	0.153	-0.315
-687.339	-43.267	-0.208	0.105
-686.324	800.000	0.069	0.238
-685.310	-151.137	-0.139	0.010
-684.295	-38.620	0.076	-0.040
-683.281	-88.435	-0.279	0.083
-682.266	-17.650	-0.179	0.112
-681.251	398.457	-0.048	-0.101
-680.237	-100.942	-0.506	-0.124
-679.222	800.000	0.063	0.275
-678.208	44.265	0.142	-0.131
-677.193	41.308	-0.160	0.144
-676.178	-174.447	0.096	0.003
-675.164	5.181	0.229	-0.168
-674.149	-200.000	0.012	-0.163
-673.135	266.823	-0.081	0.142
-672.120	53.482	0.053	-0.051
-671.105	-151.398	0.229	-0.017
-670.091	497.768	0.124	-0.286
-669.076	-143.334	-0.074	0.007
-668.062	224.009	-0.091	-0.146
-667.047	-96.592	-0.294	0.077
-666.032	-78.357	-0.032	0.011
-665.018	-32.052	0.138	-0.077
-664.003	-55.903	0.277	-0.124
-662.989	41.060	0.164	0.148
-661.974	-109.436	0.328	0.069
-660.959	-200.000	-0.039	-0.240
-659.945	-200.000	-0.044	-0.258
-658.930	-7.288	0.084	0.057
-657.916	256.401	-0.218	-0.373
-656.901	800.000	0.060	-0.175
-655.886	240.812	0.217	-0.362
-654.872	44.193	-0.164	0.150
-653.857	-200.000	-0.012	-0.146
-652.843	-157.139	-0.340	-0.021
-651.828	-52.478	-0.238	-0.110
-650.814	143.243	0.190	0.252
-649.799	40.676	-0.127	-0.114
-648.784	-145.974	-0.225	-0.020
-647.770	-6.004	0.179	0.122
-646.755	113.145	0.157	0.190
-645.741	80.223	-0.198	0.212
-644.726	-162.070	-0.186	-0.009
-643.711	-62.473	0.370	0.153
-642.697	-200.000	0.019	0.398
-641.682	-14.627	0.113	-0.073
-640.668	-49.612	0.205	0.097
-639.653	24.135	0.086	-0.071
-638.638	800.000	0.024	0.085
-637.624	27.521	-0.235	0.197
-636.609	-200.000	-0.001	0.190
-635.595	-59.059	0.305	0.131
-634.580	800.000	0.158	-0.455
-633.565	167.188	0.096	0.135
-632.551	116.661	-0.275	-0.336
-631.536	-200.000	0.043	-0.323
-630.522	-45.288	-0.149	0.074
-629.507	-200.000	0.002	-0.020
-628.492	-50.733	0.094	-0.044
-627.478	800.000	-0.092	-0.341
-626.463	25.799	0.180	0.150
-625.449	56.370	-0.196	-0.189
-624.434	341.386	0.102	-0.198
-623.419	91.370	0.199	-0.222
-622.405	237.935	0.066	0.109
-621.390	-73.002	-0.277	-0.101
-620.376	-150.798	0.374	-0.028
-619.361	162.856	-0.082	-0.115
-618.346	-47.857	-0.222	0.107
-617.332	136.819	-0.087	0.113
-616.317	212.207	0.227	0.357
-615.303	-90.811	-0.358	0.103
-614.288	-82.054	-0.112	0.036
-613.273	101.921	-0.157	0.182
-612.259	-103.156	-0.184	0.043
-611.244	-200.000	-0.062	-0.609
-610.230	-88.438	-0.283	0.084
-609.215	206.970	0.159	0.247
-608.201	800.000	-0.096	0.274
-607.186	-43.102	0.053	0.027
-606.171	-87.179	0.261	-0.079
-605.157	-57.284	-0.184	-0.081
-604.142	213.575	0.108	0.170
-603.128	-148.120	-0.265	0.022
-602.113	-200.000	0.003	-0.127
-601.098	-18.338	-0.232	0.145
-600.084	800.000	0.049	0.163
-599.069	50.318	-0.259	0.244
-598.055	673.730	0.139	0.358
-597.040	-65.013	-0.310	-0.125
-596.025	64.147	0.096	0.096
-595.011	-85.836	0.203	0.063
-593.996	7.582	0.055	-0.041
-592.982	102.911	0.147	-0.171
-591.967	91.964	0.169	-0.189
-590.952	-92.083	0.259	-0.073
-589.938	-30.361	-0.041	0.023
-588.923	-96.062	0.292	0.077
-587.909	298.063	0.215	0.394
-586.894	-200.000	0.024	0.270
-585.879	-60.994	-0.149	0.062
-584.865	-28.137	0.301	0.173
-583.850	146.340	0.108	0.145
-582.836	85.925	0.180	-0.197
-581.821	244.706	-0.168	0.281
-580.806	10.853	-0.157	-0.119
-579.792	-23.584	0.304	-0.182
-578.777	-25.374	-0.239	-0.141
-577.763	-136.762	-0.272	0.031
-576.748	766.550	0.057	0.155
-575.733	-29.568	0.040	0.023
-574.719	43.781	0.235	0.214
-573.704	-200.000	-0.035	-0.272
-572.690	-200.000	0.006	0.240
-571.675	-55.875	-0.235	-0.105
-570.661	643.964	0.065	-0.164
-569.646	203.466	0.155	0.238
-568.631	-107.762	0.051	-0.011
-567.617	150.338	-0.082	-0.110
-566.602	174.031	-0.121	0.174
-565.588	-200.000	0.029	-0.205
-564.573	-188.067	0.215	0.003
-563.558	108.661	0.149	0.177
-562.544	-131.317	0.155	0.020
-561.529	-29.723	-0.055	0.031
-560.515	-57.466	0.192	-0.084
-559.500	-15.224	0.090	0.057
-558.485	-39.771	-0.070	-0.036
-557.471	-155.927	-0.474	-0.030
-556.456	519.737	0.138	0.321
-555.442	-200.000	0.008	0.078
-554.427	66.083	0.203	-0.204
-553.412	372.649	-0.071	0.144
-552.398	800.000	-0.120	0.415
-551.383	-112.527	0.107	-0.021
-550.369	-25.970	-0.079	-0.046
-549.354	-54.164	0.200	-0.090
-548.339	-118.129	-0.240	0.042
-547.325	-157.518	0.421	0.025
-546.310	256.798	-0.040	-0.069
-545.296	-155.559	0.394	-0.025
-544.281	246.515	0.110	-0.184
-543.266	7.314	0.133	0.098
-542.252	144.264	-0.086	-0.113
-541.237	408.241	-0.052	0.109
-540.223	255.196	0.111	0.188
-539.208	-21.011	0.069	-0.042
-538.193	-14.381	-0.140	0.090
-537.179	188.658	0.106	-0.157
-536.164	-37.219	0.032	0.017
-535.150	-60.798	-0.174	0.073
-534.135	-200.000	-0.003	0.147
-533.121	-200.000	-0.057	-0.251
-532.106	-200.000	0.001	0.074
-531.091	511.820	0.225	-0.521
-530.077	800.000	-0.053	-0.157
-529.062	46.159	-0.323	-0.297
-528.048	-200.000	-0.009	0.051
-527.033	-131.589	0.328	0.043
-526.018	-49.064	-0.220	0.104
-525.004	-200.000	-0.077	0.388
-523.989	-77.185	-0.131	0.045
-522.975	800.000	-0.034	0.106
-521.960	-93.042	-0.320	-0.089
-520.945	627.545	-0.159	0.398
-519.931	147.446	0.104	-0.139
-518.916	-29.349	-0.209	0.119
-517.902	-200.000	-0.039	-0.315
-516.887	-130.268	0.518	0.070
-515.872	-36.452	-0.341	0.182
-514.858	-10.823	0.142	-0.093
-513.843	-1.087	0.296	-0.207
-512.829	-32.043	-0.193	-0.107
-511.814	-36.171	0.047	0.025
-510.799	-200.000	-0.015	-0.114
-509.785	9.886	-0.052	0.039
-508.770	232.456	-0.178	0.291
-507.756	800.000	-0.048	0.153
-506.741	171.655	-0.095	0.136
-505.726	-156.498	-0.239	0.015
-504.712	65.314	-0.158	-0.159
-503.697	-101.772	0.368	-0.088
-502.683	76.285	-0.122	-0.128
-501.668	-134.197	0.105	0.013
-500.653	706.056	0.186	0.488
-499.639	102.268	-0.076	0.089
-498.624	-6.205	-0.140	-0.095
-497.610	312.620	0.025	0.047
-496.595	473.878	0.151	-0.338
-495.581	-200.000	-0.010	-0.098
-494.566	800.000	0.090	0.297
-493.551	745.396	-0.024	0.064
-492.537	252.798	-0.167	-0.282
-491.522	-29.771	-0.316	-0.179
-490.508	-200.000	-0.014	0.518
-489.493	101.836	0.149	0.173
-488.478	-77.454	-0.200	-0.069
-487.464	-63.529	-0.137	-0.056
-486.449	478.629	0.091	0.204
-485.435	-107.873	-0.323	0.070
-484.420	-110.344	0.060	0.012
-483.405	800.000	-0.068	-0.208
-482.391	-200.000	-0.041	0.245
-481.376	800.000	-0.085	-0.298
-480.362	-55.980	-0.375	0.166
-479.347	-200.000	-0.055	-0.323
-478.332	13.790	-0.085	-0.066
-477.318	-134.947	0.372	0.045
-476.303	-126.253	-0.378	0.056
-475.289	48.527	-0.108	0.100
-474.274	195.449	-0.102	-0.154
-473.259	55.142	-0.077	-0.074
-472.245	-168.583	0.177	-0.007
-471.230	-84.400	0.202	-0.063
-470.216	-200.000	0.005	0.318
-469.201	-200.000	-0.011	0.049
-468.186	-55.612	0.106	-0.047
-467.172	303.835	0.129	-0.236
-466.157	779.014	-0.066	0.180
-465.143	-146.351	-0.323	-0.028
-464.128	78.657	0.020	-0.022
-463.113	-36.573	-0.245	-0.131
-462.099	53.225	0.199	0.189
-461.084	800.000	0.053	-0.210
-460.070	-9.114	-0.045	-0.030
-459.055	-40.163	0.195	-0.100
-458.040	102.053	-0.112	-0.129
-457.026	-64.600	0.200	0.080
-456.011	-45.396	-0.245	-0.120
-454.997	-154.231	-0.094	0.006
-453.982	50.749	0.206	-0.194
-452.968	-136.855	-0.306	-0.035
-451.953	-130.986	0.209	-0.028
-450.938	-79.802	0.410	0.137
-449.924	-25.809	0.570	-0.332
-448.909	-200.000	0.023	0.239
-447.895	-200.000	0.051	0.343
-446.880	800.000	-0.102	0.311
-445.865	201.154	-0.052	0.079
-444.851	273.446	-0.048	-0.083
-443.836	-93.783	0.111	-0.030
-442.822	-92.427	0.097	-0.027
-441.807	259.913	0.160	-0.274
-440.792	4.285	0.118	0.086
-439.778	-35.864	-0.253	-0.135
-438.763	-106.887	-0.257	-0.056
-437.749	18.884	0.106	0.084
-436.734	-63.058	-0.136	0.056
-435.719	180.526	0.123	-0.179
-434.705	-81.153	-0.149	-0.049
-433.690	-200.000	-0.021	-0.172
-432.676	-23.117	0.063	-0.038
-431.661	800.000	0.062	-0.196
-430.646	449.942	-0.076	0.166
-429.632	56.520	0.007	-0.007
-428.617	18.892	-0.347	-0.275
-427.603	184.580	0.157	0.230
-426.588	800.000	0.106	-0.368
-425.573	-12.396	-0.336	-0.217
-424.559	-100.630	0.264	-0.064
-423.544	-131.139	0.159	-0.021
-422.530	128.224	-0.139	0.175
-421.515	57.721	0.342	-0.331
-420.500	98.977	0.165	-0.188
-419.486	-119.671	0.135	-0.023
-418.471	-149.594	-0.176	0.014
-417.457	-118.808	0.175	0.030
-416.442	249.782	-0.023	-0.039
-415.428	184.057	0.142	0.208
-414.413	-115.945	-0.214	0.039
-413.398	264.629	-0.109	0.187
-412.384	122.495	0.098	-0.121
-411.369	-27.130	0.179	-0.103
-410.355	-200.000	-0.014	0.306
-409.340	-67.578	-0.188	0.073
-408.325	-122.711	0.120	-0.019
-407.311	-69.928	0.165	-0.062
-406.296	224.293	-0.158	-0.252
-405.282	59.971	-0.057	0.056
-404.267	-104.464	-0.262	0.060
-403.252	-44.588	0.047	-0.023
-402.238	-112.251	-0.181	-0.036
-401.223	43.476	0.118	-0.106
-400.209	-141.782	-0.203	0.020
-399.194	40.587	-0.148	-0.132
-398.179	234.185	0.137	-0.222
-397.165	-200.000	-0.072	-0.349
-396.150	42.552	0.082	0.074
-395.136	-113.591	0.180	-0.035
-394.121	-200.000	-0.061	-0.267
-393.106	241.342	-0.162	0.267
-392.092	-132.029	0.420	0.054
-391.077	-9.162	-0.125	0.082
-390.063	-54.700	0.334	0.149
-389.048	-99.823	0.265	0.065
-388.033	800.000	0.053	-0.157
-387.019	-149.184	0.190	0.015
-386.004	119.859	0.091	-0.112
-384.990	-7.500	-0.134	-0.090
-383.975	562.182	-0.094	-0.226
-382.960	-200.000	-0.021	-0.092
-381.946	-200.000	-0.016	-0.275
-380.931	-80.009	0.050	-0.017
-379.917	-200.000	0.064	0.285
-378.902	81.561	0.138	0.148
-377.888	-108.257	-0.157	0.034
-376.873	-200.000	-0.028	-0.121
-375.858	800.000	0.070	0.206
-374.844	54.533	0.106	-0.101
-373.829	-45.802	-0.153	-0.075
-372.815	-47.670	0.315	0.151
-371.800	-96.016	-0.131	-0.034
-370.785	-3.830	-0.205	-0.140
-369.771	800.000	-0.006	0.025
-368.756	55.657	0.100	0.096
-367.742	75.442	0.182	-0.190
-366.727	-31.703	-0.172	-0.095
-365.712	800.000	0.074	0.231
-364.698	566.078	0.129	-0.309
-363.683	-200.000	-0.027	-0.128
-362.669	27.108	-0.036	0.030
-361.654	301.913	0.063	0.115
-360.639	70.040	-0.276	0.281
-359.625	126.493	-0.182	0.227
-358.610	-200.000	0.008	-0.179
-357.596	-31.065	-0.227	-0.127
-356.581	-115.720	-0.055	0.010
-355.566	800.000	0.044	-0.140
-354.552	536.310	0.096	-0.225
-353.537	800.000	-0.077	0.280
-352.523	800.000	-0.048	-0.142
-351.508	-140.062	0.161	-0.017
-350.493	-6.949	-0.177	0.118
-349.479	800.000	0.074	-0.293
-348.464	800.000	0.050	-0.200
-347.450	-200.000	0.044	-0.216
-346.435	-81.759	-0.363	0.117
-345.420	28.470	0.153	0.128
-344.406	-60.476	0.141	-0.059
-343.391	250.562	0.174	0.292
-342.377	800.000	-0.050	-0.137
-341.362	510.156	-0.109	-0.250
-340.348	800.000	0.057	-0.216
-339.333	336.032	-0.122	0.233
-338.318	-200.000	0.020	-0.399
-337.304	66.328	-0.225	0.226
-336.289	20.686	0.138	0.110
-335.275	358.192	0.122	0.241
-334.260	-200.000	0.089	-0.464
-333.245	-11.461	-0.117	-0.076
-332.231	-111.931	-0.093	-0.019
-331.216	-117.816	0.291	0.052
-330.202	-91.883	0.164	0.046
-329.187	279.229	-0.100	0.175
-328.172	-106.965	-0.207	-0.045
-327.158	399.192	0.196	-0.405
-326.143	54.757	-0.208	-0.198
-325.129	800.000	-0.037	-0.123
-324.114	-113.937	0.014	-0.003
-323.099	-115.080	-0.082	0.015
-322.085	-46.820	-0.344	0.166
-321.070	-0.639	0.130	-0.091
-320.056	800.000	0.059	-0.188
-319.041	-177.466	0.157	-0.004
-318.026	-200.000	0.042	0.365
-317.012	-2.856	-0.322	-0.222
-315.997	762.813	0.083	-0.221
-314.983	-33.084	0.242	0.132
-313.968	229.169	0.141	-0.227
-312.953	-75.324	-0.202	-0.071
-311.939	800.000	0.027	-0.077
-310.924	150.254	0.087	0.117
-309.910	-200.000	-0.001	0.132
-308.895	397.135	0.055	0.114
-307.880	800.000	-0.049	-0.148
-306.866	-82.551	0.187	-0.060
-305.851	-61.380	-0.142	0.059
-304.837	-36.531	0.301	-0.159
-303.822	-54.844	0.157	-0.070
-302.807	-200.000	-0.031	0.308
-301.793	-48.185	0.164	-0.078
-300.778	-135.430	-0.238	0.028
-299.764	-106.723	0.328	0.072
-298.749	247.416	-0.175	-0.291
-297.735	190.214	-0.217	-0.320
-296.720	-200.000	-0.020	0.262
-295.705	204.738	-0.271	-0.414
-294.691	62.369	0.094	0.092
-293.676	-84.984	-0.078	0.024
-292.662	-200.000	0.022	0.160
-291.647	-200.000	-0.301	-0.000
-290.632	-13.802	0.121	-0.077
-289.618	88.635	0.118	0.129
-288.603	279.284	-0.224	0.393
-287.589	-5.277	-0.310	-0.210
-286.574	-200.000	0.025	0.120
-285.559	-143.978	-0.077	-0.007
-284.545	-21.487	0.149	-0.089
-283.530	-200.000	-0.024	0.276
-282.516	-179.019	-0.171	-0.004
-281.501	610.597	-0.115	-0.283
-280.486	-200.000	-0.066	-0.340
-279.472	-97.742	0.056	-0.014
-278.457	800.000	0.061	-0.242
-277.443	9.602	0.237	-0.177
-276.428	800.000	0.116	-0.332
-275.413	64.054	0.147	-0.146
-274.399	-116.308	-0.278	-0.051
-273.384	10.031	0.061	0.046
-272.370	47.878	-0.073	-0.067
-271.355	50.850	0.105	0.098
-270.340	800.000	0.032	-0.119
-269.326	-74.156	-0.065	-0.023
-268.311	800.000	-0.050	0.175
-267.297	-113.275	-0.141	0.027
-266.282	-46.683	0.206	0.099
-265.267	-200.000	0.019	0.176
-264.253	-31.623	-0.272	-0.150
-263.238	218.603	0.259	0.406
-262.224	800.000	0.015	0.049
-261.209	-77.372	-0.162	-0.055
-260.195	107.935	0.037	-0.044
-259.180	-121.509	-0.135	-0.022
-258.165	-145.713	-0.146	-0.013
-257.151	202.380	0.034	-0.051
-256.136	-183.318	0.375	0.006
-255.122	-62.845	0.094	-0.038
-254.107	-200.000	-0.014	-0.115
-253.092	-200.000	-0.012	0.197
-252.078	-200.000	0.049	0.239
-251.063	-50.897	0.073	-0.034
-250.049	800.000	-0.183	0.552
-249.034	437.962	0.084	0.180
-248.019	164.447	-0.150	-0.208
-247.005	60.376	0.121	0.117
-245.990	-200.000	0.010	0.253
-244.976	-200.000	0.007	-0.197
-243.961	72.124	0.370	0.378
-242.946	-51.247	-0.451	-0.208
-241.932	-200.000	-0.017	-0.231
-240.917	-200.000	-0.037	-0.255
-239.903	37.539	0.093	-0.081
-238.888	-63.732	-0.198	0.080
-237.873	-153.221	0.098	0.007
-236.859	-131.109	0.202	0.026
-235.844	-67.479	0.299	0.115
-234.830	-25.957	-0.229	-0.132
-233.815	-70.290	-0.083	0.031
-232.800	-67.083	-0.462	0.179
-231.786	-200.000	-0.032	0.167
-230.771	157.387	0.140	-0.190
-229.757	-14.107	0.070	-0.045
-228.742	-11.159	-0.157	0.102
-227.727	19.061	0.235	0.185
-226.713	800.000	-0.075	-0.253
-225.698	29.872	-0.160	0.134
-224.684	-135.242	-0.218	-0.026
-223.669	44.524	-0.187	-0.169
-222.655	60.149	0.084	-0.081
-221.640	-58.293	0.345	0.147
-220.625	-156.733	-0.188	-0.011
-219.611	-22.556	-0.232	0.138
-218.596	800.000	-0.024	0.080
-217.582	-17.987	-0.206	0.126
-216.567	629.007	0.048	-0.120
-215.552	11.756	0.088	-0.066
-214.538	-111.816	-0.182	0.036
-213.523	226.548	0.131	-0.209
-212.509	251.396	-0.174	-0.290
-211.494	800.000	-0.069	-0.249
-210.479	-27.168	0.333	0.190
-209.465	44.340	-0.204	0.184
-208.450	-12.591	-0.357	0.228
-207.436	-91.127	0.066	0.018
-206.421	444.480	-0.111	0.239
-205.406	-121.115	0.194	-0.032
-204.392	-129.417	-0.049	-0.007
-203.377	-200.000	-0.006	0.292
-202.363	-103.863	0.050	-0.011
-201.348	-47.777	-0.079	-0.038
-200.333	-100.228	0.079	0.019
-199.319	441.562	0.125	0.268
-198.304	283.335	0.074	0.130
-197.290	144.985	0.107	-0.141
-196.275	-200.000	-0.007	-0.184
-195.260	779.261	0.154	-0.412
-194.246	-200.000	-0.054	0.378
-193.231	8.298	0.267	-0.197
-192.217	536.074	0.042	0.098
-191.202	114.031	-0.088	0.105
-190.187	69.978	-0.249	-0.252
-189.173	-21.576	0.078	-0.047
-188.158	-200.000	0.032	0.153
-187.144	207.907	0.096	0.147
-186.129	-200.000	-0.032	0.254
-185.114	-200.000	0.056	0.423
-184.100	-167.888	-0.162	-0.006
-183.085	198.602	-0.219	0.328
-182.071	291.816	-0.063	0.112
-181.056	82.825	0.135	-0.144
-180.042	-10.392	0.407	-0.264
-179.027	-135.224	0.213	-0.025
-178.012	-117.195	0.260	-0.046
-176.998	729.620	0.077	0.200
-175.983	-121.660	-0.182	0.030
-174.969	793.290	-0.031	-0.083
-173.954	-11.249	-0.287	0.185
-172.939	59.587	-0.069	-0.067
-171.925	-144.044	0.074	-0.007
-170.910	-64.713	0.212	-0.084
-169.896	-123.714	0.147	0.023
-168.881	121.030	-0.078	-0.095
-167.866	44.702	0.131	0.118
-166.852	-149.430	-0.407	0.032
-165.837	245.818	-0.078	0.128
-164.823	-83.167	0.222	0.070
-163.808	-64.551	0.235	-0.093
-162.793	800.000	0.037	0.111
-161.779	725.610	-0.028	0.074
-160.764	6.410	0.278	0.202
-159.750	-200.000	0.156	0.000
-158.735	287.514	-0.060	-0.107
-157.720	800.000	-0.040	0.111
-156.706	173.751	-0.111	-0.157
-155.691	-200.000	-0.080	-0.417
-154.677	-50.253	-0.073	0.034
-153.662	121.608	-0.160	-0.195
-152.647	800.000	-0.078	-0.252
-151.633	800.000	-0.196	0.578
-150.618	-34.420	0.121	-0.065
-149.604	800.000	0.064	-0.210
-148.589	69.105	0.358	-0.361
-147.574	-81.028	0.040	0.013
-146.560	243.128	0.045	-0.075
-145.545	167.509	0.094	0.131
-144.531	16.667	-0.111	0.086
-143.516	310.856	-0.107	0.196
-142.502	-200.000	-0.018	-0.380
-141.487	-139.505	0.421	-0.044
-140.472	-200.000	-0.041	0.511
-139.458	800.000	-0.108	0.299
-138.443	-200.000	-0.086	0.458
-137.429	800.000	-0.054	0.185
-136.414	-200.000	-0.032	-0.162
-135.399	-200.000	-0.015	-0.386
-134.385	-160.019	-0.068	-0.004
-133.370	63.147	-0.198	0.194
-132.356	456.331	0.062	-0.135
-131.341	-49.998	0.073	0.034
-130.326	-200.000	-0.001	0.140
-129.312	-200.000	-0.007	0.264
-128.297	-25.928	0.175	0.101
-127.283	-200.000	0.009	-0.088
-126.268	59.806	0.280	-0.270
-125.253	-104.637	0.162	0.036
-124.239	290.625	0.114	0.202
-123.224	22.810	0.148	-0.119
-122.210	175.235	0.166	-0.235
-121.195	95.545	-0.148	-0.165
