DTS Sentinel unit serial number:	SN413079Multiplexer serial number:	ORYXHardware model number:	OX4-SRSoftware version number:	ORYX F/W v4.00 Oryx Data Collector v3.7.2.0data status	okinstallation	princeton_trtdifferential loss correction	single-endedforward channel	channel 1reverse channel	N/Adate	2019/09/12time	15:44:11forward acquisition time	60.00reverse acquisition time	0.00gamma	496.2192k internal	0.2296k external	0.2296temperature offset calibration	1.0082default loss term (dB/km)	0.3790temperature slope calibration	1.0000multiplexer offset coefficient	1.0000multiplexer slope coefficient	1.0000fibre end	0.00T internal ref (°C)	39.94T ext. ref 1 (°C)	2.46T ext. ref 2 (°C)	32.55length (m)	temperature (°C)	Stokes	anti-Stokes-747.200	-200.000	-0.007	0.078
-746.185	800.000	-0.063	0.230
-745.171	800.000	0.037	-0.109
-744.156	59.489	0.076	-0.077
-743.142	288.538	0.127	0.236
-742.127	7.585	-0.212	0.162
-741.112	166.827	0.094	0.136
-740.098	-200.000	-0.110	0.542
-739.083	-55.656	0.035	-0.016
-738.069	800.000	0.043	-0.161
-737.054	219.125	-0.160	-0.261
-736.039	-1.355	-0.173	-0.125
-735.025	551.144	0.066	-0.162
-734.010	201.722	-0.226	-0.356
-732.996	85.378	-0.045	-0.051
-731.981	164.374	0.128	-0.184
-730.966	-94.276	-0.047	-0.013
-729.952	-31.066	-0.285	-0.164
-728.937	175.233	0.083	0.123
-727.923	-32.893	0.303	-0.172
-726.908	-137.237	-0.230	0.027
-725.894	121.951	-0.126	0.161
-724.879	211.178	0.136	-0.218
-723.864	0.927	0.226	-0.165
-722.850	91.953	0.142	-0.163
-721.835	-110.488	-0.205	-0.043
-720.821	-33.323	-0.086	-0.049
-719.806	179.694	-0.084	0.125
-718.791	-200.000	-0.036	0.269
-717.777	-15.515	-0.074	-0.048
-716.762	-30.415	0.036	-0.021
-715.748	-70.572	-0.161	0.062
-714.733	21.025	0.120	0.099
-713.718	-11.292	0.261	-0.175
-712.704	-113.586	-0.461	0.092
-711.689	9.360	-0.030	0.023
-710.675	800.000	0.029	-0.105
-709.660	-132.801	-0.306	-0.040
-708.645	-52.995	-0.152	0.071
-707.631	-103.928	-0.206	-0.049
-706.616	-93.203	-0.305	-0.086
-705.602	77.638	0.189	-0.205
-704.587	-200.000	-0.067	0.419
-703.572	107.228	-0.155	-0.187
-702.558	-189.765	-0.159	0.002
-701.543	55.181	-0.221	-0.218
-700.529	-61.816	0.336	0.143
-699.514	617.657	0.059	0.150
-698.499	800.000	-0.110	-0.369
-697.485	-59.708	0.107	-0.047
-696.470	285.820	0.102	-0.187
-695.456	-35.493	-0.350	-0.194
-694.441	-200.000	0.008	-0.194
-693.426	-200.000	0.036	-0.176
-692.412	800.000	0.074	-0.210
-691.397	-45.517	0.369	-0.186
-690.383	800.000	-0.049	-0.174
-689.368	46.983	-0.183	-0.173
-688.354	-61.872	0.118	0.050
-687.339	145.009	0.028	-0.039
-686.324	-154.528	-0.066	0.005
-685.310	245.094	0.171	-0.293
-684.295	800.000	0.041	-0.151
-683.281	-200.000	-0.071	0.341
-682.266	-111.382	-0.191	-0.040
-681.251	-11.178	-0.218	-0.146
-680.237	-200.000	-0.060	0.450
-679.222	388.639	-0.065	0.137
-678.208	-200.000	-0.042	-0.691
-677.193	-37.903	0.260	-0.141
-676.178	168.059	-0.089	-0.129
-675.164	-200.000	-0.000	0.398
-674.149	-26.328	-0.327	0.196
-673.135	58.244	-0.079	0.079
-672.120	-16.119	-0.034	0.022
-671.105	-34.930	-0.127	-0.070
-670.091	-22.644	-0.430	-0.265
-669.076	-200.000	-0.017	-0.190
-668.062	-159.408	-0.025	0.001
-667.047	99.156	-0.068	0.080
-666.032	58.924	0.105	0.105
-665.018	-200.000	0.031	0.224
-664.003	800.000	-0.016	-0.067
-662.989	43.329	-0.032	-0.029
-661.974	14.784	-0.258	-0.206
-660.959	54.192	-0.057	0.056
-659.945	-200.000	0.002	0.278
-658.930	-200.000	-0.037	0.239
-657.916	54.157	0.305	-0.299
-656.901	643.851	0.015	0.039
-655.886	592.414	-0.065	-0.164
-654.872	-96.496	0.204	0.055
-653.857	-96.006	0.267	0.072
-652.843	91.432	0.288	-0.330
-651.828	-104.249	-0.092	0.022
-650.814	-20.537	-0.114	0.071
-649.799	-14.403	-0.099	-0.065
-648.784	75.479	-0.078	0.084
-647.770	232.437	-0.169	0.283
-646.755	-111.504	-0.281	-0.058
-645.741	33.469	0.257	-0.227
-644.726	734.808	0.116	-0.317
-643.711	746.064	0.085	0.233
-642.697	69.663	-0.019	0.020
-641.682	-147.520	-0.364	0.031
-640.668	-6.522	0.245	-0.170
-639.653	-122.687	0.076	0.013
-638.638	-102.713	-0.074	0.018
-637.624	230.535	0.148	0.247
-636.609	800.000	0.039	0.140
-635.595	38.051	-0.072	-0.065
-634.580	39.725	0.221	0.202
-633.565	-156.302	0.071	-0.005
-632.551	-200.000	-0.025	0.169
-631.536	800.000	-0.039	0.132
-630.522	-200.000	0.004	0.134
-629.507	118.602	0.252	0.317
-628.492	-37.325	-0.222	0.121
-627.478	-54.595	-0.255	0.117
-626.463	289.691	-0.082	-0.151
-625.449	-148.395	0.054	-0.005
-624.434	10.598	-0.158	0.123
-623.419	800.000	0.036	0.117
-622.405	279.133	0.236	0.428
-621.390	-200.000	-0.029	0.340
-620.376	428.544	0.076	-0.168
-619.361	380.421	-0.028	0.059
-618.346	2.250	-0.124	-0.091
-617.332	-80.337	-0.214	0.073
-616.317	-200.000	0.017	-0.225
-615.303	-106.471	-0.208	-0.047
-614.288	32.230	-0.140	0.123
-613.273	144.083	-0.063	0.085
-612.259	-200.000	-0.022	-0.502
-611.244	-100.773	-0.191	-0.048
-610.230	-133.023	-0.184	-0.024
-609.215	34.358	-0.133	0.118
-608.201	110.823	0.184	-0.225
-607.186	73.857	-0.074	0.079
-606.171	359.373	0.046	-0.094
-605.157	241.032	-0.190	0.322
-604.142	122.835	0.093	-0.118
-603.128	234.092	0.104	-0.175
-602.113	-200.000	-0.021	0.286
-601.098	1.847	-0.184	0.135
-600.084	-200.000	0.022	-0.336
-599.069	-73.087	0.234	0.087
-598.055	112.372	-0.155	-0.191
-597.040	-144.057	0.172	-0.016
-596.025	14.988	-0.170	-0.135
-595.011	250.953	-0.080	-0.139
-593.996	800.000	0.057	0.205
-592.982	-200.000	-0.068	0.430
-591.967	-200.000	0.049	-0.494
-590.952	77.430	-0.264	-0.285
-589.938	-200.000	-0.069	0.394
-588.923	-90.302	0.326	-0.096
-587.909	-46.216	0.322	0.161
-586.894	49.186	0.123	-0.117
-585.879	800.000	0.081	0.323
-584.865	-200.000	0.006	-0.204
-583.850	-200.000	0.069	-0.369
-582.836	278.769	0.121	-0.218
-581.821	800.000	-0.062	-0.242
-580.806	-101.192	-0.094	-0.023
-579.792	6.866	-0.214	-0.162
-578.777	-124.462	0.427	-0.068
-577.763	-44.653	0.129	-0.065
-576.748	80.183	0.151	-0.165
-575.733	-53.370	0.361	0.168
-574.719	-104.496	-0.350	-0.082
-573.704	-200.000	0.047	-0.297
-572.690	-200.000	-0.021	-0.192
-571.675	92.518	0.165	-0.189
-570.661	-200.000	-0.021	0.139
-569.646	237.098	0.026	-0.043
-568.631	274.351	0.078	0.140
-567.617	-25.872	-0.111	-0.066
-566.602	-110.027	0.182	0.039
-565.588	409.074	-0.127	-0.274
-564.573	285.875	-0.138	-0.252
-563.558	800.000	0.017	-0.051
-562.544	-77.897	-0.113	-0.039
-561.529	99.917	0.213	-0.251
-560.515	173.526	-0.086	0.125
-559.500	44.056	-0.152	0.141
-558.485	-101.446	0.323	-0.080
-557.471	122.430	0.265	-0.336
-556.456	89.335	0.220	0.249
-555.442	227.528	0.134	0.221
-554.427	5.876	-0.384	0.288
-553.412	-166.133	-0.175	0.008
-552.398	-20.638	0.199	-0.124
-551.383	373.389	0.138	-0.285
-550.369	-38.790	0.173	-0.093
-549.354	167.129	0.153	0.220
-548.339	-200.000	-0.041	0.244
-547.325	-200.000	0.071	0.350
-546.310	-9.046	-0.129	0.087
-545.296	106.015	-0.150	0.180
-544.281	-8.050	0.211	-0.144
-543.266	-200.000	0.022	-0.260
-542.252	-108.512	0.172	-0.038
-541.237	83.299	-0.089	-0.098
-540.223	217.842	0.107	0.173
-539.208	-200.000	0.002	0.396
-538.193	-1.843	0.273	-0.195
-537.179	-200.000	-0.013	-0.351
-536.164	419.366	-0.057	0.124
-535.150	-128.396	0.243	-0.035
-534.135	-200.000	-0.060	-0.271
-533.121	254.394	-0.241	0.417
-532.106	-183.458	0.199	-0.004
-531.091	11.482	-0.106	0.082
-530.077	-200.000	-0.042	-0.249
-529.062	-146.798	0.378	0.033
-528.048	800.000	-0.114	0.338
-527.033	800.000	-0.046	0.195
-526.018	-94.544	-0.181	0.050
-525.004	-198.806	0.122	0.001
-523.989	18.350	-0.300	-0.243
-522.975	-167.626	-0.213	0.009
-521.960	63.588	0.295	-0.300
-520.945	-6.627	-0.191	0.132
-519.931	-3.385	-0.214	-0.151
-518.916	800.000	-0.015	0.057
-517.902	315.196	-0.153	-0.292
-516.887	-14.787	0.199	0.129
-515.872	93.771	-0.183	-0.210
-514.858	-126.816	-0.249	0.037
-513.843	-200.000	0.017	-0.103
-512.829	-200.000	-0.004	-0.339
-511.814	-200.000	0.018	-0.132
-510.799	22.101	0.163	0.135
-509.785	800.000	-0.014	0.057
-508.770	240.337	0.210	-0.354
-507.756	-61.896	-0.012	-0.005
-506.741	23.526	-0.384	-0.320
-505.726	-59.017	-0.159	-0.069
-504.712	-35.686	-0.226	-0.124
-503.697	-122.570	-0.139	0.023
-502.683	-101.275	-0.091	0.022
-501.668	800.000	0.087	-0.320
-500.653	-200.000	0.012	-0.109
-499.639	540.292	0.081	0.195
-498.624	368.622	-0.074	0.151
-497.610	-128.708	-0.317	-0.045
-496.595	-149.843	0.154	-0.012
-495.581	-140.419	0.013	0.001
-494.566	137.529	-0.262	0.347
-493.551	136.343	-0.208	-0.274
-492.537	-123.630	-0.195	-0.031
-491.522	-75.812	-0.314	-0.113
-490.508	-200.000	0.041	0.351
-489.493	-38.283	-0.111	-0.059
-488.478	-150.905	0.056	0.004
-487.464	186.593	0.112	-0.169
-486.449	800.000	0.129	-0.419
-485.435	661.931	-0.140	0.366
-484.420	-4.559	-0.342	0.239
-483.405	225.543	0.139	0.227
-482.391	480.908	-0.028	0.065
-481.376	-50.993	-0.069	-0.033
-480.362	-131.430	-0.416	-0.056
-479.347	-200.000	-0.021	-0.138
-478.332	18.005	0.284	-0.229
-477.318	800.000	0.078	-0.218
-476.303	473.310	-0.087	-0.198
-475.289	46.701	-0.183	-0.171
-474.274	267.680	-0.154	-0.273
-473.259	800.000	0.076	0.327
-472.245	374.059	0.011	0.022
-471.230	800.000	-0.094	-0.291
-470.216	56.034	-0.085	-0.083
-469.201	-200.000	-0.015	0.517
-468.186	327.748	-0.088	0.170
-467.172	-24.187	-0.114	0.069
-466.157	129.646	0.154	-0.198
-465.143	-92.497	-0.162	-0.046
-464.128	-156.144	0.036	-0.002
-463.113	316.344	-0.019	-0.036
-462.099	-175.969	-0.147	0.004
-461.084	-62.030	-0.068	0.029
-460.070	-185.092	-0.278	0.004
-459.055	322.379	0.171	0.329
-458.040	-104.623	0.371	-0.087
-457.026	149.486	0.325	-0.445
-456.011	100.756	-0.139	0.164
-454.997	-141.962	0.114	0.012
-453.982	-22.019	-0.114	-0.070
-452.968	800.000	-0.008	0.036
-451.953	22.683	0.040	0.033
-450.938	800.000	-0.146	0.457
-449.924	-44.284	-0.107	0.054
-448.909	225.517	0.120	0.196
-447.895	-161.316	0.194	-0.010
-446.880	37.330	-0.181	0.162
-445.865	-95.644	-0.189	0.051
-444.851	-49.266	-0.209	0.101
-443.836	-5.489	-0.181	0.126
-442.822	9.678	-0.124	-0.095
-441.807	800.000	-0.062	0.179
-440.792	-200.000	-0.003	-0.245
-439.778	647.301	0.053	0.138
-438.763	131.546	0.163	-0.212
-437.749	19.104	-0.210	0.170
-436.734	-116.829	-0.124	-0.023
-435.719	800.000	0.040	0.145
-434.705	104.844	-0.158	0.188
-433.690	-200.000	0.010	0.458
-432.676	216.329	-0.131	-0.211
-431.661	-200.000	-0.034	-0.192
-430.646	-191.781	0.218	-0.002
-429.632	683.137	0.115	-0.301
-428.617	-57.807	-0.111	-0.049
-427.603	-75.696	-0.186	0.067
-426.588	-130.714	0.306	-0.042
-425.573	-92.876	0.398	0.112
-424.559	800.000	0.023	-0.070
-423.544	-18.505	-0.320	-0.202
-422.530	-101.081	0.168	0.042
-421.515	-200.000	0.015	0.253
-420.500	726.945	-0.123	0.330
-419.486	28.683	0.091	-0.078
-418.471	-4.128	0.106	-0.074
-417.457	-200.000	0.015	0.089
-416.442	186.168	-0.038	-0.057
-415.428	-200.000	0.035	-0.263
-414.413	-37.444	-0.096	-0.052
-413.398	79.097	0.099	-0.107
-412.384	336.791	0.098	-0.192
-411.369	-130.507	-0.078	0.011
-410.355	540.979	-0.119	-0.286
-409.340	-60.741	0.344	-0.147
-408.325	-38.516	-0.138	0.073
-407.311	619.891	0.055	0.139
-406.296	98.964	0.189	0.220
-405.282	130.396	-0.130	0.168
-404.267	-38.134	-0.097	-0.052
-403.252	-200.000	-0.032	-0.534
-402.238	569.545	0.106	-0.261
-401.223	-182.763	-0.331	0.006
-400.209	-200.000	-0.005	-0.210
-399.194	193.516	0.278	0.425
-398.179	115.220	0.198	-0.243
-397.165	136.734	-0.183	-0.241
-396.150	25.271	0.216	-0.181
-395.136	47.453	0.192	-0.180
-394.121	295.117	-0.077	0.142
-393.106	66.280	0.238	-0.244
-392.092	-200.000	-0.008	0.088
-391.077	62.955	0.151	0.152
-390.063	-200.000	-0.039	-0.198
-389.048	358.087	0.116	-0.233
-388.033	464.618	-0.091	0.205
-387.019	-67.306	-0.485	0.192
-386.004	-140.239	0.230	0.024
-384.990	87.743	0.090	-0.101
-383.975	43.010	0.245	0.225
-382.960	-80.654	-0.174	0.058
-381.946	-103.902	-0.055	0.013
-380.931	-62.045	-0.300	0.126
-379.917	196.472	0.187	-0.287
-378.902	-180.637	-0.220	0.005
-377.888	-21.462	0.138	0.085
-376.873	454.243	0.144	-0.322
-375.858	-200.000	0.017	0.208
-374.844	-138.376	0.259	0.029
-373.829	64.409	-0.071	-0.072
-372.815	124.126	0.134	-0.169
-371.800	160.127	-0.187	0.262
-370.785	119.446	0.066	0.083
-369.771	-178.832	-0.198	-0.005
-368.756	104.069	-0.144	-0.170
-367.742	-139.284	0.411	0.044
-366.727	-4.789	0.160	-0.111
-365.712	-110.874	0.347	0.072
-364.698	-42.735	-0.041	-0.021
-363.683	107.560	-0.271	-0.325
-362.669	177.680	0.167	0.245
-361.654	800.000	-0.079	-0.257
-360.639	-200.000	0.011	-0.079
-359.625	800.000	0.033	0.129
-358.610	23.802	-0.356	-0.295
-357.596	-200.000	0.055	0.276
-356.581	11.493	0.126	0.097
-355.566	-162.380	-0.093	0.005
-354.552	92.280	-0.177	0.200
-353.537	-20.997	-0.020	-0.012
-352.523	-64.299	-0.447	-0.183
-351.508	-139.803	0.384	0.041
-350.493	-43.598	0.143	0.072
-349.479	-62.052	0.198	-0.083
-348.464	-200.000	0.007	0.127
-347.450	-68.874	-0.318	-0.123
-346.435	211.926	-0.020	0.031
-345.420	9.800	0.269	-0.205
-344.406	-200.000	0.046	0.342
-343.391	-135.880	-0.158	0.019
-342.377	-27.612	0.049	-0.028
-341.362	-97.832	-0.088	-0.023
-340.348	-122.835	-0.130	-0.021
-339.333	-57.098	-0.019	-0.008
-338.318	191.895	-0.082	0.124
-337.304	92.406	0.144	-0.163
-336.289	-82.855	0.069	0.022
-335.275	-78.408	-0.171	-0.059
-334.260	341.789	0.096	-0.188
-333.245	800.000	-0.050	-0.190
-332.231	800.000	-0.061	-0.179
-331.216	-200.000	-0.090	0.414
-330.202	413.054	-0.083	0.178
-329.187	-142.115	-0.340	-0.034
-328.172	-136.450	0.128	-0.015
-327.158	-23.226	-0.319	0.193
-326.143	-200.000	-0.004	0.089
-325.129	-36.142	0.413	0.224
-324.114	98.323	-0.142	0.165
-323.099	-200.000	-0.080	-0.354
-322.085	-200.000	0.030	0.184
-321.070	800.000	-0.020	0.074
-320.056	29.917	-0.123	0.105
-319.041	-200.000	0.019	0.266
-318.026	91.573	0.241	-0.272
-317.012	-200.000	-0.051	-0.292
-315.997	318.735	0.145	-0.276
-314.983	-22.477	-0.314	0.191
-313.968	-91.257	-0.304	0.087
-312.953	-18.714	-0.314	-0.197
-311.939	-200.000	-0.011	-0.138
-310.924	198.236	-0.123	0.189
-309.910	-200.000	-0.001	0.091
-308.895	-89.977	-0.266	-0.078
-307.880	-7.283	0.287	0.195
-306.866	218.300	-0.250	-0.400
-305.851	-133.293	0.467	-0.059
-304.837	8.939	0.116	-0.088
-303.822	56.685	-0.157	-0.154
-302.807	192.446	0.167	-0.253
-301.793	-11.871	0.204	-0.135
-300.778	61.053	0.172	-0.171
-299.764	518.922	-0.093	0.219
-298.749	800.000	-0.040	0.121
-297.735	-200.000	0.030	-0.239
-296.720	518.524	0.152	-0.358
-295.705	-46.631	0.135	0.066
-294.691	-200.000	-0.012	0.221
-293.676	-77.843	-0.106	0.037
-292.662	-65.262	0.339	0.137
-291.647	800.000	-0.042	-0.120
-290.632	-200.000	-0.015	-0.177
-289.618	-2.203	-0.087	-0.062
-288.603	-132.010	0.261	-0.034
-287.589	-103.375	-0.333	0.079
-286.574	241.913	-0.037	-0.062
-285.559	-134.800	-0.163	0.020
-284.545	-43.725	0.431	0.218
-283.530	-106.964	0.157	0.035
-282.516	-200.000	-0.061	0.431
-281.501	-200.000	0.012	0.362
-280.486	-158.658	-0.205	0.012
-279.472	-150.942	-0.117	0.009
-278.457	800.000	0.100	-0.381
-277.443	-200.000	-0.061	0.281
-276.428	172.654	-0.221	0.319
-275.413	68.124	-0.278	0.286
-274.399	-106.027	-0.330	-0.075
-273.384	-115.618	-0.174	-0.033
-272.370	142.612	-0.111	0.148
-271.355	617.689	-0.036	-0.090
-270.340	-106.267	-0.424	-0.095
-269.326	158.797	-0.162	-0.225
-268.311	138.730	0.149	-0.196
-267.297	-93.893	-0.134	0.037
-266.282	-29.926	0.033	-0.019
-265.267	800.000	0.101	0.301
-264.253	800.000	0.061	0.221
-263.238	-122.390	-0.205	-0.033
-262.224	141.060	0.113	0.149
-261.209	-200.000	-0.025	-0.131
-260.195	4.333	0.261	-0.192
-259.180	-200.000	0.035	0.162
-258.165	-59.165	-0.235	-0.101
-257.151	-200.000	-0.060	0.311
-256.136	661.973	0.118	-0.305
-255.122	-52.451	0.474	-0.220
-254.107	-166.185	-0.358	0.015
-253.092	-4.400	-0.089	0.062
-252.078	-53.533	0.237	0.109
-251.063	240.531	0.153	0.255
-250.049	-33.616	-0.052	0.029
-249.034	240.559	-0.075	-0.125
-248.019	-51.431	0.139	-0.065
-247.005	-200.000	0.029	0.166
-245.990	-22.867	0.045	-0.027
-244.976	47.442	-0.132	-0.123
-243.961	120.226	-0.146	-0.182
-242.946	208.805	-0.065	-0.101
-241.932	-200.000	-0.066	0.381
-240.917	-200.000	-0.014	-0.094
-239.903	-165.974	0.133	0.006
-238.888	127.458	0.070	-0.089
-237.873	-200.000	0.058	-0.286
-236.859	328.530	-0.121	-0.233
-235.844	66.000	-0.165	0.168
-234.830	-200.000	-0.021	0.307
-233.815	-64.506	-0.265	0.108
-232.800	146.802	-0.068	0.092
-231.786	24.423	-0.134	-0.111
-230.771	-46.031	-0.272	-0.134
-229.757	180.907	0.217	-0.319
-228.742	-200.000	-0.020	-0.136
-227.727	191.176	0.096	0.145
-226.713	459.731	-0.086	-0.192
-225.698	800.000	0.072	0.268
-224.684	102.749	0.105	0.124
-223.669	720.412	0.164	0.436
-222.655	-137.613	0.293	-0.033
-221.640	-125.624	0.320	-0.049
-220.625	32.130	-0.253	0.218
-219.611	19.956	0.042	0.034
-218.596	-4.432	0.334	0.231
-217.582	222.896	0.110	-0.178
-216.567	586.163	-0.070	-0.173
-215.552	-200.000	0.070	-0.422
-214.538	-155.615	0.156	0.010
-213.523	-169.048	0.066	-0.002
-212.509	360.343	0.043	-0.087
-211.494	-170.690	0.157	-0.005
-210.479	800.000	-0.029	0.093
-209.465	71.113	-0.031	0.032
-208.450	800.000	0.019	-0.080
-207.436	-200.000	0.030	-0.265
-206.421	800.000	0.050	0.204
-205.406	551.131	0.076	0.183
-204.392	-62.875	0.358	-0.148
-203.377	-200.000	-0.052	0.276
-202.363	-200.000	-0.578	0.002
-201.348	-97.040	-0.327	0.085
-200.333	-106.275	0.350	-0.079
-199.319	-200.000	0.010	0.069
-198.304	244.292	-0.125	0.209
-197.290	43.899	0.165	0.151
-196.275	-200.000	0.023	-0.124
-195.260	77.387	0.152	-0.162
-194.246	108.356	0.160	-0.191
-193.231	-17.277	0.277	-0.175
-192.217	-200.000	0.004	0.115
-191.202	-200.000	0.007	-0.101
-190.187	800.000	-0.041	0.143
-189.173	-200.000	0.098	0.521
-188.158	223.158	0.145	0.234
-187.144	-115.544	0.129	0.024
-186.129	-200.000	0.018	0.085
-185.114	-133.590	0.225	-0.028
-184.100	-200.000	0.001	-0.163
-183.085	-8.244	0.238	0.160
-182.071	-163.827	0.189	0.009
-181.056	-200.000	0.027	0.210
-180.042	-43.923	0.373	-0.188
-179.027	-200.000	-0.021	0.362
-178.012	-41.776	0.288	0.148
-176.998	800.000	0.085	0.300
-175.983	187.555	0.193	0.288
-174.969	564.016	0.066	-0.159
-173.954	433.655	-0.114	0.247
-172.939	7.036	0.151	-0.112
-171.925	94.765	0.218	0.248
-170.910	800.000	-0.068	0.292
-169.896	401.267	-0.182	0.381
-168.881	21.569	-0.220	-0.179
-167.866	92.250	0.100	0.113
-166.852	-82.704	0.136	-0.044
-165.837	390.546	0.037	-0.077
-164.823	-65.564	-0.173	0.069
-163.808	-50.736	0.128	0.060
-162.793	-164.187	0.295	-0.014
-161.779	423.543	0.048	0.103
-160.764	-200.000	0.060	-0.295
-159.750	-137.994	0.218	0.024
-158.735	-113.645	-0.162	0.032
-157.720	719.174	0.074	-0.195
-156.706	773.677	-0.107	0.290
-155.691	800.000	0.029	-0.080
-154.677	42.292	-0.047	-0.042
-153.662	-98.033	-0.093	0.024
-152.647	-128.338	-0.316	-0.045
-151.633	10.695	0.241	-0.184
-150.618	-200.000	-0.016	0.105
-149.604	-200.000	-0.040	0.208
-148.589	-129.603	0.292	0.040
-147.574	-186.105	-0.128	0.002
-146.560	800.000	0.017	0.060
-145.545	-129.971	0.178	-0.024
-144.531	-35.283	0.221	-0.120
-143.516	-156.667	-0.319	0.020
-142.502	413.860	0.099	-0.209
-141.487	34.912	-0.224	-0.195
-140.472	800.000	0.067	0.279
-139.458	367.677	-0.066	-0.133
-138.443	57.865	-0.089	-0.086
-137.429	-45.829	0.327	-0.161
-136.414	-124.416	0.263	0.041
-135.399	-168.242	0.272	0.010
-134.385	-138.802	0.208	0.023
-133.370	800.000	0.018	-0.068
-132.356	242.999	0.131	-0.219
-131.341	-113.072	0.142	0.028
-130.326	61.333	-0.124	0.123
-129.312	-8.417	0.118	0.079
-128.297	800.000	0.101	0.314
-127.283	43.486	-0.220	-0.201
-126.268	35.942	0.167	-0.147
-125.253	40.746	-0.147	-0.132
-124.239	122.976	0.124	0.155
-123.224	-69.893	-0.206	0.078
-122.210	-200.000	-0.012	0.090
