DTS Sentinel unit serial number:	SN413079Multiplexer serial number:	ORYXHardware model number:	OX4-SRSoftware version number:	ORYX F/W v4.00 Oryx Data Collector v3.7.2.0data status	okinstallation	princeton_trtdifferential loss correction	single-endedforward channel	channel 1reverse channel	N/Adate	2019/09/11time	14:24:11forward acquisition time	60.00reverse acquisition time	0.00gamma	496.2192k internal	0.2292k external	0.2292temperature offset calibration	0.9986default loss term (dB/km)	0.3790temperature slope calibration	1.0000multiplexer offset coefficient	1.0000multiplexer slope coefficient	1.0000fibre end	0.00T internal ref (°C)	42.06T ext. ref 1 (°C)	0.88T ext. ref 2 (°C)	36.96length (m)	temperature (°C)	Stokes	anti-Stokes-747.200	-21.518	-0.217	0.136
-746.185	13.266	-0.368	0.292
-745.171	-130.077	0.134	0.019
-744.156	800.000	0.054	0.243
-743.142	-4.140	0.347	0.246
-742.127	800.000	0.062	0.230
-741.112	755.762	0.099	-0.275
-740.098	-142.084	-0.201	0.020
-739.083	-121.752	0.314	-0.053
-738.069	3.893	0.063	0.047
-737.054	-91.579	0.131	-0.038
-736.039	-200.000	0.014	0.099
-735.025	493.800	-0.106	0.248
-734.010	99.394	-0.200	-0.237
-732.996	800.000	0.162	-0.461
-731.981	14.012	-0.069	0.055
-730.966	-200.000	-0.012	0.090
-729.952	-17.017	0.073	0.047
-728.937	38.420	-0.213	0.194
-727.923	87.638	0.123	0.139
-726.908	800.000	0.076	-0.320
-725.894	800.000	-0.126	-0.377
-724.879	1.732	-0.446	-0.329
-723.864	156.209	0.049	-0.069
-722.850	2.096	0.179	0.132
-721.835	110.415	-0.176	0.217
-720.821	615.087	0.053	0.136
-719.806	-200.000	-0.017	-0.152
-718.791	-200.000	0.006	0.052
-717.777	257.433	0.124	-0.218
-716.762	623.262	0.103	-0.265
-715.748	-200.000	0.005	0.146
-714.733	292.647	-0.013	0.023
-713.718	164.727	0.093	-0.134
-712.704	-200.000	0.041	-0.295
-711.689	-29.768	-0.343	-0.200
-710.675	-152.181	0.359	-0.027
-709.660	-185.629	-0.345	-0.005
-708.645	57.068	0.129	-0.128
-707.631	-200.000	-0.021	-0.347
-706.616	44.094	-0.530	0.497
-705.602	800.000	-0.013	-0.048
-704.587	800.000	0.161	0.652
-703.572	-85.929	-0.288	0.091
-702.558	-200.000	-0.021	-0.234
-701.543	439.602	-0.142	-0.316
-700.529	-156.455	-0.295	0.019
-699.514	-85.713	0.103	0.033
-698.499	58.653	-0.084	-0.084
-697.485	-200.000	-0.059	0.277
-696.470	-200.000	-0.005	-0.029
-695.456	-20.223	-0.160	-0.101
-694.441	-200.000	0.004	0.220
-693.426	-80.868	-0.159	-0.054
-692.412	-96.705	0.040	-0.011
-691.397	-59.926	-0.261	0.114
-690.383	529.876	0.053	-0.127
-689.368	-67.505	-0.175	0.070
-688.354	111.096	0.070	0.087
-687.339	-120.197	0.117	0.020
-686.324	506.994	0.107	-0.253
-685.310	-132.191	-0.121	0.016
-684.295	-200.000	0.052	0.279
-683.281	0.800	0.144	-0.105
-682.266	92.230	0.117	0.134
-681.251	21.928	-0.170	0.141
-680.237	334.786	-0.017	0.033
-679.222	197.875	-0.063	0.099
-678.208	800.000	0.076	-0.265
-677.193	-19.713	0.223	-0.140
-676.178	428.359	-0.061	0.135
-675.164	800.000	-0.036	-0.124
-674.149	310.298	-0.066	-0.126
-673.135	800.000	-0.057	0.202
-672.120	-200.000	0.033	0.170
-671.105	82.909	-0.138	0.153
-670.091	121.137	-0.302	-0.384
-669.076	-59.214	0.205	0.090
-668.062	-123.871	-0.130	-0.021
-667.047	-85.723	-0.222	0.070
-666.032	-13.505	-0.279	0.184
-665.018	240.738	-0.127	0.216
-664.003	125.049	0.093	-0.119
-662.989	-129.468	0.221	-0.031
-661.974	-5.623	-0.156	-0.109
-660.959	164.954	-0.246	-0.355
-659.945	-200.000	0.055	0.251
-658.930	98.874	0.185	-0.218
-657.916	800.000	0.003	-0.014
-656.901	-10.283	-0.192	-0.130
-655.886	295.229	0.144	-0.269
-654.872	4.346	-0.045	-0.033
-653.857	-56.599	0.105	0.048
-652.843	-48.463	0.344	-0.169
-651.828	-200.000	-0.063	0.397
-650.814	266.696	-0.140	0.250
-649.799	174.253	0.086	-0.127
-648.784	-200.000	-0.037	-0.297
-647.770	-200.000	0.053	0.282
-646.755	-200.000	0.002	0.448
-645.741	-129.290	0.302	0.043
-644.726	-96.628	-0.412	0.111
-643.711	194.933	-0.151	0.234
-642.697	149.493	-0.286	0.395
-641.682	-200.000	0.066	0.447
-640.668	583.376	-0.036	0.090
-639.653	-91.151	0.148	-0.043
-638.638	800.000	0.082	0.251
-637.624	-200.000	0.011	0.087
-636.609	-45.610	0.403	-0.204
-635.595	260.167	-0.092	0.161
-634.580	800.000	0.088	0.294
-633.565	-59.678	0.194	-0.085
-632.551	-33.597	0.124	0.070
-631.536	-200.000	0.051	-0.238
-630.522	-11.409	0.320	0.214
-629.507	-138.445	-0.389	-0.044
-628.492	-200.000	0.030	-0.208
-627.478	-129.688	0.048	-0.007
-626.463	-109.932	-0.438	-0.093
-625.449	47.908	-0.184	0.175
-624.434	800.000	0.073	-0.243
-623.419	-175.199	0.198	0.006
-622.405	-200.000	0.014	-0.278
-621.390	15.007	0.092	-0.073
-620.376	-31.786	-0.345	0.197
-619.361	-200.000	-0.024	-0.304
-618.346	501.518	0.183	-0.429
-617.332	-156.960	-0.204	0.013
-616.317	445.534	-0.100	-0.224
-615.303	34.353	0.076	0.067
-614.288	-89.061	0.326	0.098
-613.273	419.471	-0.189	-0.411
-612.259	74.897	0.099	-0.106
-611.244	56.905	0.223	-0.221
-610.230	-155.689	-0.309	0.020
-609.215	-95.501	0.124	-0.034
-608.201	426.398	0.135	0.296
-607.186	141.865	0.198	0.267
-606.171	5.657	-0.337	0.253
-605.157	536.927	0.134	0.323
-604.142	800.000	-0.062	0.177
-603.128	229.002	-0.061	0.102
-602.113	254.240	0.223	-0.388
-601.098	-200.000	0.053	-0.238
-600.084	121.107	0.196	-0.248
-599.069	22.468	0.239	-0.199
-598.055	-133.081	-0.340	-0.044
-597.040	97.330	-0.237	-0.277
-596.025	2.710	0.299	0.221
-595.011	355.117	-0.089	-0.181
-593.996	-200.000	-0.008	-0.036
-592.982	-185.826	0.405	-0.006
-591.967	299.640	0.074	0.140
-590.952	269.427	-0.150	-0.267
-589.938	-70.291	0.206	-0.080
-588.923	800.000	0.162	-0.455
-587.909	-34.715	-0.438	-0.244
-586.894	-103.025	-0.255	-0.061
-585.879	-159.600	-0.195	-0.011
-584.865	-2.920	0.083	0.059
-583.850	12.638	0.275	-0.216
-582.836	-200.000	-0.003	-0.174
-581.821	800.000	-0.057	-0.173
-580.806	800.000	0.128	0.424
-579.792	271.148	0.139	-0.249
-578.777	60.866	0.019	0.020
-577.763	16.694	-0.035	-0.028
-576.748	-114.776	-0.308	0.060
-575.733	-104.447	-0.375	0.088
-574.719	332.291	-0.114	-0.225
-573.704	-35.387	0.066	0.037
-572.690	71.268	-0.231	-0.243
-571.675	444.046	-0.127	0.283
-570.661	-47.941	0.358	0.176
-569.646	31.198	-0.137	-0.120
-568.631	-79.948	-0.356	0.121
-567.617	-136.221	0.318	-0.038
-566.602	-131.660	-0.219	-0.029
-565.588	-178.506	-0.278	0.007
-564.573	381.397	-0.091	-0.191
-563.558	92.328	0.178	0.204
-562.544	-200.000	0.009	0.169
-561.529	217.969	0.101	-0.164
-560.515	-200.000	-0.200	-0.001
-559.500	-71.771	-0.215	0.082
-558.485	472.007	0.036	-0.083
-557.471	-31.999	-0.079	-0.045
-556.456	-90.170	0.346	0.102
-555.442	388.459	0.052	-0.109
-554.427	-3.894	-0.121	0.085
-553.412	40.595	-0.058	-0.053
-552.398	-141.306	0.074	0.008
-551.383	-200.000	0.011	-0.116
-550.369	282.491	-0.111	0.203
-549.354	-46.576	0.153	-0.076
-548.339	800.000	-0.037	0.141
-547.325	27.672	0.282	-0.241
-546.310	472.332	-0.184	-0.421
-545.296	233.291	0.230	0.384
-544.281	394.693	-0.166	0.352
-543.266	-5.095	-0.128	0.089
-542.252	24.235	-0.261	-0.219
-541.237	-77.288	-0.144	-0.051
-540.223	-10.041	-0.168	0.113
-539.208	-200.000	0.016	0.128
-538.193	34.909	0.140	0.124
-537.179	-49.289	0.457	-0.222
-536.164	-18.376	-0.172	-0.109
-535.150	-126.158	0.184	0.028
-534.135	-63.435	-0.105	0.044
-533.121	95.002	0.230	-0.266
-532.106	-55.616	0.257	0.117
-531.091	-200.000	0.020	-0.205
-530.077	-190.016	-0.084	-0.001
-529.062	173.614	-0.186	-0.272
-528.048	31.059	-0.358	-0.311
-527.033	45.974	-0.229	-0.215
-526.018	-111.075	0.169	0.035
-525.004	216.797	0.168	0.271
-523.989	536.214	0.088	0.212
-522.975	84.531	-0.032	0.036
-521.960	-108.437	0.188	0.041
-520.945	-72.701	-0.188	0.070
-519.931	800.000	-0.052	0.151
-518.916	-77.742	-0.215	-0.076
-517.902	22.225	-0.036	-0.030
-516.887	800.000	0.164	-0.463
-515.872	-89.724	0.140	-0.041
-514.858	-102.308	0.080	-0.019
-513.843	270.725	0.160	-0.286
-512.829	636.446	-0.037	-0.096
-511.814	247.260	-0.046	-0.078
-510.799	282.739	-0.128	-0.232
-509.785	800.000	-0.035	-0.135
-508.770	13.352	-0.135	-0.106
-507.756	60.010	0.393	0.394
-506.741	-104.914	-0.186	-0.043
-505.726	-103.197	-0.094	0.023
-504.712	91.496	-0.135	0.154
-503.697	-200.000	0.023	-0.131
-502.683	-100.535	0.059	0.015
-501.668	-104.688	0.175	-0.041
-500.653	-26.926	-0.279	-0.165
-499.639	-91.503	-0.465	-0.134
-498.624	-57.438	-0.103	0.046
-497.610	36.382	0.041	-0.036
-496.595	102.052	-0.256	-0.302
-495.581	59.369	-0.103	0.103
-494.566	-31.492	0.227	0.129
-493.551	-87.814	-0.092	-0.028
-492.537	-200.000	-0.023	-0.119
-491.522	613.616	-0.032	0.082
-490.508	-50.784	0.156	0.074
-489.493	43.596	0.091	0.084
-488.478	-200.000	-0.023	0.380
-487.464	800.000	0.059	0.189
-486.449	-6.771	-0.049	0.034
-485.435	514.720	-0.040	-0.095
-484.420	800.000	-0.063	0.240
-483.405	-200.000	0.072	0.353
-482.391	-200.000	-0.025	0.194
-481.376	-200.000	0.044	0.586
-480.362	154.267	0.066	-0.092
-479.347	-14.913	0.133	-0.086
-478.332	-3.184	0.121	-0.086
-477.318	-200.000	-0.000	-0.154
-476.303	-139.521	0.134	-0.015
-475.289	-165.685	0.158	0.007
-474.274	-13.593	0.436	0.286
-473.259	-117.757	-0.110	0.020
-472.245	76.991	0.100	-0.108
-471.230	261.325	-0.071	0.125
-470.216	-128.611	-0.232	0.033
-469.201	259.502	0.084	-0.146
-468.186	178.992	-0.060	0.089
-467.172	-200.000	0.011	-0.288
-466.157	800.000	-0.059	0.209
-465.143	800.000	0.058	0.167
-464.128	-200.000	0.033	-0.343
-463.113	-106.757	0.206	-0.046
-462.099	210.632	0.058	0.092
-461.084	-200.000	-0.003	-0.064
-460.070	-89.894	0.126	-0.037
-459.055	100.709	-0.186	-0.219
-458.040	-27.611	0.360	-0.212
-457.026	-143.205	0.173	0.017
-456.011	210.463	-0.254	0.403
-454.997	250.444	-0.068	0.117
-453.982	-54.687	0.132	0.061
-452.968	-95.017	-0.063	0.017
-451.953	606.116	-0.049	0.123
-450.938	-181.122	0.018	-0.000
-449.924	-35.670	0.040	0.022
-448.909	-200.000	0.010	-0.101
-447.895	-98.595	-0.260	-0.067
-446.880	-200.000	-0.029	-0.226
-445.865	-119.125	-0.253	-0.045
-444.851	800.000	0.076	0.257
-443.836	-136.751	-0.078	-0.009
-442.822	-200.000	-0.025	-0.117
-441.807	-200.000	0.030	0.157
-440.792	-71.482	-0.053	-0.020
-439.778	8.438	0.017	-0.013
-438.763	800.000	0.008	-0.030
-437.749	-33.921	-0.374	0.208
-436.734	315.776	-0.011	-0.021
-435.719	553.917	-0.069	-0.169
-434.705	-77.843	0.271	-0.095
-433.690	800.000	-0.067	0.231
-432.676	37.780	0.110	0.099
-431.661	36.311	0.177	-0.158
-430.646	-200.000	0.389	0.001
-429.632	-41.987	0.368	0.191
-428.617	188.229	-0.219	0.332
-427.603	-175.663	0.326	-0.009
-426.588	20.725	0.118	0.096
-425.573	-96.309	-0.348	0.093
-424.559	-135.090	0.073	0.009
-423.544	800.000	-0.137	0.468
-422.530	-25.640	0.192	-0.114
-421.515	-133.107	-0.242	-0.031
-420.500	185.038	0.113	0.170
-419.486	247.275	-0.272	0.465
-418.471	47.551	0.167	0.157
-417.457	-6.719	-0.182	-0.125
-416.442	130.593	0.265	0.344
-415.428	163.917	0.233	0.332
-414.413	-200.000	0.016	0.180
-413.398	54.140	-0.312	-0.303
-412.384	10.793	0.179	0.138
-411.369	-200.000	0.051	0.233
-410.355	103.146	0.158	-0.187
-409.340	-30.044	0.060	-0.035
-408.325	-200.000	-0.034	-0.154
-407.311	12.311	0.055	0.043
-406.296	-20.146	0.218	0.136
-405.282	84.600	0.205	0.227
-404.267	-79.698	-0.367	0.125
-403.252	8.427	-0.257	0.195
-402.238	-61.584	-0.130	-0.055
-401.223	800.000	-0.072	-0.213
-400.209	-200.000	-0.027	-0.132
-399.194	-131.374	-0.172	-0.023
-398.179	-36.371	0.063	0.035
-397.165	-118.681	-0.126	0.022
-396.150	-49.914	0.286	-0.137
-395.136	-149.330	-0.179	-0.014
-394.121	110.738	0.087	0.105
-393.106	-200.000	-0.000	0.227
-392.092	-73.093	-0.290	-0.107
-391.077	615.519	0.088	0.221
-390.063	-136.830	0.333	0.039
-389.048	-71.846	0.297	0.112
-388.033	800.000	-0.076	0.294
-387.019	800.000	0.057	0.204
-386.004	125.700	-0.161	-0.205
-384.990	-76.561	0.073	-0.026
-383.975	-80.706	-0.227	0.076
-382.960	-93.788	-0.198	-0.055
-381.946	159.473	0.193	-0.271
-380.931	-200.000	0.023	0.347
-379.917	-112.137	0.163	0.033
-378.902	6.517	-0.166	-0.124
-377.888	440.522	-0.145	-0.319
-376.873	-129.129	0.317	-0.045
-375.858	-3.527	0.022	0.016
-374.844	57.053	0.208	-0.204
-373.829	284.124	0.210	-0.382
-372.815	-200.000	-0.017	-0.147
-371.800	51.440	0.245	-0.235
-370.785	309.302	0.151	-0.285
-369.771	-129.030	0.311	0.044
-368.756	-161.188	-0.308	0.016
-367.742	135.905	0.144	-0.189
-366.727	276.769	-0.034	0.060
-365.712	-62.093	-0.331	0.140
-364.698	245.156	0.233	0.395
-363.683	141.230	0.103	-0.138
-362.669	142.993	-0.179	-0.240
-361.654	800.000	-0.051	0.214
-360.639	13.888	0.344	0.270
-359.625	-200.000	-0.041	0.181
-358.610	183.378	0.094	-0.141
-357.596	236.998	0.053	0.088
-356.581	19.584	-0.058	0.047
-355.566	418.312	-0.111	0.240
-354.552	145.368	-0.169	-0.227
-353.537	267.846	-0.088	0.155
-352.523	-117.623	0.187	-0.034
-351.508	-117.207	-0.383	0.070
-350.493	-39.480	0.322	0.170
-349.479	306.508	-0.219	0.412
-348.464	619.740	0.103	-0.262
-347.450	800.000	-0.049	0.142
-346.435	-89.610	0.150	0.044
-345.420	-121.872	0.255	-0.042
-344.406	800.000	0.045	-0.133
-343.391	-200.000	-0.026	-0.168
-342.377	-76.910	0.158	0.056
-341.362	-12.780	-0.211	-0.139
-340.348	-151.145	-0.406	-0.031
-339.333	-5.573	-0.251	-0.173
-338.318	71.368	-0.134	0.140
-337.304	-26.920	0.243	-0.143
-336.289	-80.830	0.099	0.033
-335.275	84.575	-0.158	-0.174
-334.260	-10.299	-0.133	-0.089
-333.245	123.084	-0.271	-0.341
-332.231	51.734	-0.127	-0.122
-331.216	7.898	0.188	0.142
-330.202	662.445	-0.177	-0.461
-329.187	42.669	0.075	0.068
-328.172	549.654	-0.013	-0.031
-327.158	548.263	-0.089	0.215
-326.143	-67.913	-0.103	0.041
-325.129	51.993	-0.051	0.048
-324.114	800.000	0.143	0.421
-323.099	-200.000	-0.032	0.210
-322.085	-82.190	0.152	-0.050
-321.070	-164.937	-0.229	-0.010
-320.056	388.865	-0.208	-0.433
-319.041	-128.710	-0.281	0.040
-318.026	800.000	0.027	-0.091
-317.012	18.187	0.218	-0.175
-315.997	-131.474	0.049	-0.007
-314.983	-6.726	0.030	0.020
-313.968	70.678	0.151	0.157
-312.953	-200.000	0.013	0.096
-311.939	-25.994	-0.151	-0.090
-310.924	-26.804	0.534	-0.314
-309.910	-6.106	-0.180	0.124
-308.895	-60.088	0.070	0.030
-307.880	8.319	-0.108	0.082
-306.866	-173.239	-0.244	0.008
-305.851	27.006	0.124	0.105
-304.837	-25.746	0.137	0.081
-303.822	481.681	-0.128	0.293
-302.807	414.850	-0.070	-0.150
-301.793	273.266	0.071	-0.127
-300.778	301.831	-0.054	0.101
-299.764	-95.718	0.157	0.042
-298.749	184.645	-0.204	0.304
-297.735	251.908	0.106	0.182
-296.720	-118.414	-0.055	0.010
-295.705	-200.000	0.003	-0.272
-294.691	415.617	-0.082	0.176
-293.676	43.605	-0.231	-0.213
-292.662	800.000	-0.065	0.192
-291.647	-112.870	-0.076	0.015
-290.632	766.468	-0.076	0.207
-289.618	-200.000	-0.028	0.124
-288.603	-200.000	-0.025	-0.121
-287.589	-122.515	0.382	-0.062
-286.574	-76.508	-0.106	-0.038
-285.559	765.258	-0.119	-0.326
-284.545	-23.082	-0.082	0.050
-283.530	-140.250	0.365	-0.038
-282.516	488.075	0.085	0.196
-281.501	516.913	-0.039	-0.091
-280.486	-200.000	-0.012	0.233
-279.472	-77.231	-0.333	0.117
-278.457	394.044	0.114	-0.239
-277.443	-46.036	-0.395	0.196
-276.428	-200.000	0.019	0.131
-275.413	79.952	0.135	-0.146
-274.399	-28.815	-0.171	-0.099
-273.384	-21.442	-0.412	-0.252
-272.370	-63.345	0.057	0.024
-271.355	-99.377	-0.171	-0.043
-270.340	143.864	0.146	-0.195
-269.326	46.195	-0.113	0.105
-268.311	800.000	-0.048	0.156
-267.297	-200.000	-0.018	0.189
-266.282	800.000	0.146	0.502
-265.267	-200.000	-0.001	-0.210
-264.253	-128.471	0.106	0.015
-263.238	-104.936	0.238	0.055
-262.224	-64.573	-0.163	-0.066
-261.209	800.000	0.066	-0.231
-260.195	-200.000	0.017	-0.284
-259.180	49.047	0.204	-0.192
-258.165	-200.000	0.062	-0.328
-257.151	-20.576	-0.167	-0.103
-256.136	-171.066	-0.137	-0.005
-255.122	-86.742	-0.090	0.028
-254.107	65.739	-0.033	-0.034
-253.092	-112.615	0.120	-0.024
-252.078	-200.000	-0.018	-0.293
-251.063	102.728	-0.115	0.136
-250.049	-98.444	-0.165	0.042
-249.034	-200.000	0.070	-0.337
-248.019	800.000	-0.049	-0.214
-247.005	-200.000	0.012	0.379
-245.990	-20.848	-0.381	-0.234
-244.976	800.000	-0.077	-0.228
-243.961	11.356	0.181	0.139
-242.946	406.217	-0.119	0.253
-241.932	-12.635	0.131	0.086
-240.917	-55.379	-0.220	-0.099
-239.903	-99.719	0.194	0.049
-238.888	82.251	-0.445	-0.484
-237.873	175.282	0.078	0.113
-236.859	-200.000	0.045	-0.239
-235.844	800.000	0.078	-0.336
-234.830	196.277	-0.040	-0.062
-233.815	70.287	0.261	0.271
-232.800	53.410	0.089	0.086
-231.786	-59.142	-0.147	0.063
-230.771	51.518	0.210	-0.200
-229.757	-129.048	-0.136	-0.019
-228.742	-194.709	0.169	-0.001
-227.727	11.191	-0.205	-0.157
-226.713	112.810	0.199	0.242
-225.698	-86.352	-0.357	-0.110
-224.684	-165.278	0.134	-0.006
-223.669	800.000	-0.020	0.081
-222.655	-25.695	0.126	-0.075
-221.640	-10.317	-0.249	-0.165
-220.625	800.000	-0.046	0.200
-219.611	800.000	0.066	-0.206
-218.596	-63.497	0.104	-0.043
-217.582	-200.000	0.005	0.148
-216.567	800.000	-0.023	0.096
-215.552	167.403	-0.199	0.283
-214.538	97.876	-0.157	-0.181
-213.523	800.000	-0.020	0.077
-212.509	-56.198	0.113	-0.050
-211.494	-183.133	0.330	-0.006
-210.479	-200.000	-0.014	0.215
-209.465	-200.000	0.034	-0.324
-208.450	-143.603	0.069	0.007
-207.436	35.978	-0.132	-0.117
-206.421	-99.531	0.173	0.044
-205.406	132.902	0.158	-0.204
-204.392	227.135	-0.062	0.101
-203.377	212.621	-0.122	0.192
-202.363	-3.776	-0.090	0.063
-201.348	56.018	0.091	-0.088
-200.333	120.233	-0.063	-0.078
-199.319	-75.296	-0.170	0.061
-198.304	540.446	0.049	-0.117
-197.290	130.859	0.048	0.062
-196.275	-57.260	-0.225	0.099
-195.260	-25.196	-0.408	0.242
-194.246	800.000	0.061	0.257
-193.231	-200.000	-0.086	-0.400
-192.217	-78.915	0.204	-0.070
-191.202	-200.000	-0.023	0.119
-190.187	98.863	0.113	-0.131
-189.173	71.106	0.117	-0.121
-188.158	116.100	-0.155	-0.190
-187.144	99.751	-0.040	-0.046
-186.129	246.585	0.058	-0.097
-185.114	737.858	-0.070	-0.188
-184.100	-150.764	0.337	0.026
-183.085	85.757	0.138	0.152
-182.071	-200.000	0.046	0.439
-181.056	-200.000	-0.037	-0.202
-180.042	-200.000	0.017	-0.168
-179.027	-142.018	0.086	0.009
-178.012	-200.000	-0.037	0.340
-176.998	-200.000	0.021	0.243
-175.983	614.081	0.190	0.478
-174.969	-97.186	0.256	0.067
-173.954	261.347	-0.169	-0.293
-172.939	-61.851	0.156	-0.065
-171.925	79.691	-0.092	0.099
-170.910	60.956	-0.042	0.042
-169.896	-200.000	0.019	-0.370
-168.881	-97.547	0.242	-0.063
-167.866	-78.221	0.357	-0.123
-166.852	23.545	-0.254	-0.209
-165.837	-200.000	0.038	0.285
-164.823	592.602	0.019	-0.047
-163.808	-173.579	0.099	0.003
-162.793	-103.798	-0.237	-0.055
-161.779	112.031	0.004	0.004
-160.764	-6.531	0.211	-0.144
-159.750	239.397	-0.069	0.114
-158.735	-200.000	-0.035	0.433
-157.720	-200.000	0.017	-0.087
-156.706	50.742	-0.073	0.069
-155.691	-36.587	-0.139	0.075
-154.677	9.387	0.063	-0.048
-153.662	-17.975	0.310	0.194
-152.647	-94.706	-0.072	-0.020
-151.633	-61.153	0.422	-0.178
-150.618	800.000	-0.025	-0.107
-149.604	-96.523	-0.269	-0.071
-148.589	800.000	0.101	0.289
-147.574	-134.265	-0.270	-0.033
-146.560	-14.087	0.295	0.190
-145.545	-200.000	-0.057	0.360
-144.531	77.453	0.091	-0.096
-143.516	-40.415	0.271	-0.141
-142.502	79.862	-0.138	0.149
-141.487	-200.000	-0.036	0.231
-140.472	800.000	-0.088	0.286
-139.458	-85.860	0.393	0.122
-138.443	356.364	-0.144	-0.286
-137.429	773.833	-0.203	-0.552
-136.414	22.703	0.149	0.122
-135.399	105.673	0.176	-0.208
-134.385	-109.344	-0.163	0.035
-133.370	95.430	-0.200	0.228
-132.356	-147.350	-0.088	0.008
-131.341	-200.000	-0.035	0.214
-130.326	536.739	-0.071	-0.169
-129.312	-200.000	0.043	0.275
-128.297	101.070	0.173	0.201
-127.283	-74.736	0.231	0.083
-126.268	-184.856	0.088	-0.001
-125.253	-200.000	-0.035	0.225
-124.239	-104.295	0.315	-0.073
-123.224	279.955	0.207	0.370
-122.210	691.270	-0.032	0.084
-121.195	339.322	-0.036	-0.070
-120.180	-169.189	0.143	0.005
