DTS Sentinel unit serial number:	SN413079Multiplexer serial number:	ORYXHardware model number:	OX4-SRSoftware version number:	ORYX F/W v4.00 Oryx Data Collector v3.7.2.0data status	okinstallation	princeton_trtdifferential loss correction	single-endedforward channel	channel 1reverse channel	N/Adate	2019/09/14time	18:30:35forward acquisition time	60.00reverse acquisition time	0.00gamma	496.2192k internal	0.2302k external	0.2302temperature offset calibration	1.0031default loss term (dB/km)	0.3790temperature slope calibration	1.0000multiplexer offset coefficient	1.0000multiplexer slope coefficient	1.0000fibre end	0.00T internal ref (°C)	36.61T ext. ref 1 (°C)	4.91T ext. ref 2 (°C)	30.44length (m)	temperature (°C)	Stokes	anti-Stokes-747.200	718.624	0.041	-0.110
-746.185	41.941	0.114	-0.105
-745.171	-63.126	0.253	-0.106
-744.156	-200.000	-0.023	0.127
-743.142	-200.000	-0.011	-0.303
-742.127	-74.209	0.010	-0.004
-741.112	-87.953	0.084	-0.026
-740.098	-200.000	0.002	-0.020
-739.083	-200.000	-0.021	0.223
-738.069	-131.178	-0.256	-0.035
-737.054	29.136	0.090	-0.078
-736.039	2.690	-0.247	0.183
-735.025	437.970	0.124	0.275
-734.010	-200.000	0.083	-0.575
-732.996	24.565	0.118	-0.100
-731.981	348.895	0.160	-0.322
-730.966	-66.359	-0.272	-0.110
-729.952	474.507	0.135	-0.310
-728.937	-200.000	0.016	-0.073
-727.923	-152.198	-0.068	0.005
-726.908	800.000	0.038	0.123
-725.894	-101.554	-0.218	0.054
-724.879	800.000	0.068	0.211
-723.864	-200.000	0.024	-0.116
-722.850	-14.218	0.355	-0.233
-721.835	-87.353	0.195	0.060
-720.821	-200.000	-0.036	-0.310
-719.806	-73.988	0.355	-0.131
-718.791	800.000	-0.132	0.515
-717.777	12.044	0.053	-0.041
-716.762	148.433	-0.201	0.277
-715.748	-145.966	-0.289	-0.026
-714.733	-200.000	0.010	-0.054
-713.718	507.781	-0.077	-0.181
-712.704	800.000	0.070	-0.254
-711.689	141.735	-0.049	0.067
-710.675	-86.751	0.175	-0.055
-709.660	227.790	0.095	-0.157
-708.645	167.335	-0.155	-0.224
-707.631	86.887	-0.182	-0.205
-706.616	-200.000	0.019	-0.143
-705.602	-100.384	0.158	-0.040
-704.587	66.953	-0.198	-0.205
-703.572	108.620	-0.114	-0.139
-702.558	-74.637	-0.129	-0.047
-701.543	-110.552	-0.248	-0.052
-700.529	166.293	-0.232	0.334
-699.514	-1.682	0.151	0.108
-698.499	-98.694	-0.164	0.043
-697.485	-23.759	0.218	-0.133
-696.470	800.000	-0.063	-0.209
-695.456	343.757	-0.042	-0.084
-694.441	59.853	-0.084	-0.084
-693.426	-15.530	0.206	0.134
-692.412	264.572	-0.153	0.271
-691.397	493.841	0.047	0.110
-690.383	-200.000	-0.063	0.456
-689.368	-16.051	0.320	0.207
-688.354	-96.332	-0.122	0.033
-687.339	-148.279	0.180	-0.015
-686.324	-34.736	-0.076	-0.042
-685.310	307.501	0.078	-0.149
-684.295	-200.000	0.018	-0.104
-683.281	-94.078	0.285	-0.080
-682.266	344.792	-0.042	-0.083
-681.251	-39.442	-0.091	0.049
-680.237	-61.717	-0.132	-0.056
-679.222	-87.771	0.268	-0.082
-678.208	-139.221	0.337	0.037
-677.193	-42.029	0.295	0.153
-676.178	138.152	0.080	-0.107
-675.164	-41.879	-0.436	-0.227
-674.149	-200.000	-0.019	-0.164
-673.135	-12.137	-0.029	-0.019
-672.120	-11.398	-0.067	-0.045
-671.105	-200.000	0.012	0.111
-670.091	-36.251	0.360	0.197
-669.076	161.902	0.084	0.119
-668.062	731.874	-0.079	-0.215
-667.047	1.399	-0.078	-0.057
-666.032	-169.176	-0.162	-0.006
-665.018	-200.000	-0.045	-0.276
-664.003	310.430	0.113	-0.215
-662.989	233.147	0.142	-0.236
-661.974	195.403	0.118	0.182
-660.959	-120.906	-0.390	0.067
-659.945	31.264	0.185	0.161
-658.930	-75.154	0.122	-0.044
-657.916	-200.000	0.014	0.280
-656.901	-16.464	0.139	0.090
-655.886	-200.000	-0.033	0.492
-654.872	-116.101	-0.191	0.036
-653.857	26.428	-0.211	0.179
-652.843	800.000	0.073	-0.250
-651.828	109.313	0.115	-0.140
-650.814	-156.411	-0.060	0.004
-649.799	800.000	0.096	-0.330
-648.784	-200.000	0.002	0.178
-647.770	2.900	-0.313	-0.230
-646.755	-200.000	0.012	0.088
-645.741	-71.285	0.372	0.142
-644.726	800.000	-0.072	-0.279
-643.711	141.325	0.094	-0.126
-642.697	-157.339	0.423	0.026
-641.682	-26.658	-0.058	-0.034
-640.668	-137.459	-0.367	-0.042
-639.653	-123.230	-0.176	-0.029
-638.638	-88.617	0.233	-0.070
-637.624	-73.107	-0.225	-0.084
-636.609	-73.734	0.237	-0.088
-635.595	462.434	-0.071	-0.161
-634.580	-200.000	0.015	-0.162
-633.565	800.000	-0.076	0.288
-632.551	158.138	0.116	0.164
-631.536	148.840	0.138	0.189
-630.522	-200.000	0.059	-0.301
-629.507	53.211	-0.125	0.121
-628.492	-85.701	0.260	0.082
-627.478	64.144	0.147	0.150
-626.463	-53.684	-0.297	0.137
-625.449	118.409	-0.057	0.072
-624.434	20.882	0.229	-0.188
-623.419	800.000	0.080	-0.315
-622.405	-16.211	0.111	-0.071
-621.390	-2.369	-0.129	0.092
-620.376	-200.000	-0.047	-0.344
-619.361	44.179	0.037	-0.034
-618.346	-147.271	0.166	0.014
-617.332	-72.941	-0.168	-0.063
-616.317	-132.591	0.205	0.027
-615.303	14.365	-0.111	0.087
-614.288	159.003	-0.138	0.194
-613.273	-44.006	-0.199	-0.102
-612.259	-200.000	-0.037	-0.329
-611.244	164.496	0.083	0.119
-610.230	-118.455	-0.334	0.060
-609.215	697.453	-0.046	0.121
-608.201	-123.128	0.426	-0.069
-607.186	295.181	-0.133	0.248
-606.171	-12.571	-0.036	-0.024
-605.157	-63.975	0.255	-0.105
-604.142	518.449	-0.147	0.348
-603.128	-8.428	0.142	0.097
-602.113	-147.248	-0.213	-0.018
-601.098	-61.944	-0.298	0.126
-600.084	311.699	0.069	0.131
-599.069	-200.000	-0.042	-0.270
-598.055	174.757	0.108	0.158
-597.040	-58.097	0.068	0.030
-596.025	-56.768	0.182	0.082
-595.011	-184.333	-0.124	0.002
-593.996	800.000	-0.085	0.251
-592.982	-107.954	0.056	-0.012
-591.967	-11.061	0.168	-0.112
-590.952	311.869	-0.115	0.219
-589.938	-51.778	-0.338	-0.160
-588.923	527.632	-0.035	-0.083
-587.909	-6.141	0.199	-0.138
-586.894	209.112	0.066	0.104
-585.879	-147.371	-0.200	0.017
-584.865	174.085	0.132	-0.194
-583.850	-12.179	-0.286	-0.189
-582.836	800.000	0.036	-0.123
-581.821	800.000	-0.032	-0.110
-580.806	-200.000	-0.070	-0.331
-579.792	-200.000	0.018	0.131
-578.777	-148.720	0.341	0.028
-577.763	-98.513	-0.292	-0.075
-576.748	-70.678	-0.028	0.011
-575.733	-200.000	0.053	0.340
-574.719	-141.308	-0.359	-0.037
-573.704	800.000	0.059	0.232
-572.690	-13.353	-0.352	0.231
-571.675	73.288	0.243	0.257
-570.661	253.562	-0.196	0.338
-569.646	-126.627	-0.182	0.027
-568.631	38.821	0.127	0.115
-567.617	744.820	0.080	-0.219
-566.602	5.941	0.117	0.088
-565.588	-112.943	-0.077	-0.016
-564.573	87.930	0.187	0.210
-563.558	-43.786	-0.353	0.180
-562.544	-200.000	0.008	-0.047
-561.529	-127.991	0.070	-0.010
-560.515	613.614	0.106	-0.268
-559.500	-200.000	-0.032	0.180
-558.485	167.828	0.126	-0.181
-557.471	-137.255	-0.208	-0.024
-556.456	234.500	-0.205	0.342
-555.442	-90.229	0.447	-0.131
-554.427	-24.169	0.175	0.105
-553.412	-1.141	-0.076	0.054
-552.398	380.252	0.136	-0.282
-551.383	8.667	-0.097	-0.074
-550.369	-94.742	-0.292	0.080
-549.354	664.295	-0.084	-0.220
-548.339	-125.086	0.493	0.077
-547.325	-32.341	0.219	0.123
-546.310	242.038	-0.046	-0.078
-545.296	-38.479	0.243	-0.130
-544.281	461.345	-0.086	-0.194
-543.266	29.360	-0.249	-0.214
-542.252	-200.000	0.060	0.377
-541.237	39.658	0.033	0.030
-540.223	72.196	-0.195	-0.206
-539.208	-67.362	0.200	0.079
-538.193	371.290	0.083	-0.170
-537.179	-127.055	-0.280	0.042
-536.164	287.597	-0.111	0.203
-535.150	-101.507	0.038	0.009
-534.135	-29.796	-0.051	0.029
-533.121	177.871	-0.054	-0.079
-532.106	-30.305	-0.042	-0.024
-531.091	-200.000	-0.015	0.325
-530.077	-200.000	-0.040	0.306
-529.062	126.165	0.217	-0.277
-528.048	297.544	-0.102	-0.190
-527.033	-134.938	0.148	-0.018
-526.018	-118.717	0.188	-0.034
-525.004	800.000	0.106	-0.351
-523.989	72.969	-0.081	-0.086
-522.975	-94.893	0.046	-0.013
-521.960	-141.160	0.336	-0.035
-520.945	-132.532	-0.046	-0.006
-519.931	-200.000	0.023	-0.133
-518.916	256.029	0.161	0.280
-517.902	-200.000	-0.000	0.341
-516.887	-200.000	0.001	-0.332
-515.872	800.000	0.038	0.165
-514.858	41.863	0.099	-0.090
-513.843	774.185	0.022	0.062
-512.829	800.000	-0.074	-0.259
-511.814	56.469	-0.079	-0.078
-510.799	-139.882	-0.269	-0.029
-509.785	110.390	-0.271	-0.329
-508.770	-37.884	-0.134	-0.072
-507.756	246.752	0.125	-0.213
-506.741	727.166	-0.096	0.259
-505.726	-47.782	0.218	0.106
-504.712	20.923	0.209	0.171
-503.697	98.647	0.141	0.164
-502.683	-108.481	-0.212	0.046
-501.668	526.981	0.054	0.128
-500.653	-166.521	-0.242	0.010
-499.639	800.000	0.051	0.211
-498.624	337.293	0.067	-0.131
-497.610	-200.000	0.006	0.180
-496.595	800.000	0.056	0.216
-495.581	-41.119	0.183	-0.095
-494.566	-36.273	-0.143	-0.078
-493.551	-200.000	-0.003	-0.067
-492.537	73.233	-0.214	-0.226
-491.522	34.240	0.106	0.093
-490.508	-55.575	0.071	0.032
-489.493	-103.831	0.325	0.077
-488.478	15.269	-0.142	-0.113
-487.464	47.252	-0.058	-0.054
-486.449	-200.000	-0.060	0.268
-485.435	-200.000	0.063	-0.289
-484.420	-37.059	0.178	0.096
-483.405	192.901	0.037	0.056
-482.391	-164.463	-0.111	-0.005
-481.376	-200.000	0.070	-0.324
-480.362	168.400	0.063	-0.091
-479.347	-43.223	-0.156	0.080
-478.332	-87.510	-0.249	0.076
-477.318	800.000	-0.050	-0.140
-476.303	-138.860	-0.166	-0.018
-475.289	-9.913	0.158	0.106
-474.274	800.000	0.044	0.181
-473.259	15.847	0.332	-0.263
-472.245	126.190	0.032	-0.041
-471.230	-67.090	0.263	0.105
-470.216	-200.000	-0.044	0.217
-469.201	338.329	-0.111	-0.218
-468.186	111.147	-0.176	-0.214
-467.172	-200.000	-0.003	-0.112
-466.157	-113.759	0.128	0.025
-465.143	-63.104	-0.178	-0.074
-464.128	-37.488	0.145	-0.078
-463.113	-39.701	0.119	0.063
-462.099	-19.195	-0.106	-0.067
-461.084	-200.000	0.014	0.327
-460.070	-28.003	-0.287	0.168
-459.055	60.528	-0.281	0.280
-458.040	-80.263	0.080	-0.027
-457.026	335.487	0.056	-0.110
-456.011	501.086	-0.059	-0.138
-454.997	-112.270	-0.516	0.104
-453.982	86.537	0.051	0.057
-452.968	-147.652	-0.337	-0.029
-451.953	0.268	0.178	0.128
-450.938	218.299	-0.059	0.095
-449.924	282.743	0.091	-0.164
-448.909	-28.498	0.371	0.216
-447.895	48.474	-0.113	0.107
-446.880	-200.000	-0.008	-0.066
-445.865	23.695	-0.272	0.225
-444.851	-171.793	0.198	-0.007
-443.836	256.698	-0.039	-0.068
-442.822	2.179	0.141	-0.103
-441.807	-43.889	-0.082	-0.041
-440.792	-200.000	-0.014	0.203
-439.778	74.146	0.224	-0.236
-438.763	692.003	-0.058	-0.154
-437.749	-51.864	0.128	-0.060
-436.734	289.598	0.171	-0.312
-435.719	695.213	0.040	0.106
-434.705	40.747	0.194	-0.176
-433.690	426.987	-0.205	-0.446
-432.676	-84.659	-0.369	0.117
-431.661	-47.789	0.234	-0.114
-430.646	638.837	0.028	-0.072
-429.632	-200.000	0.022	-0.141
-428.617	86.866	0.122	0.136
-427.603	800.000	0.049	-0.161
-426.588	-3.088	0.232	0.163
-425.573	800.000	-0.142	-0.429
-424.559	543.329	-0.005	-0.013
-423.544	-200.000	-0.028	-0.163
-422.530	197.614	0.054	0.084
-421.515	-156.670	0.149	0.009
-420.500	-200.000	0.020	-0.111
-419.486	-200.000	0.035	0.207
-418.471	-125.755	0.211	-0.032
-417.457	-72.884	0.092	0.034
-416.442	800.000	-0.041	-0.144
-415.428	279.110	0.222	0.399
-414.413	-82.752	-0.146	-0.047
-413.398	-200.000	-0.006	-0.173
-412.384	-174.918	-0.085	-0.002
-411.369	499.108	-0.051	-0.119
-410.355	800.000	-0.081	0.281
-409.340	-131.445	-0.025	0.003
-408.325	-72.204	0.142	0.053
-407.311	-68.534	-0.096	-0.037
-406.296	587.931	0.020	-0.050
-405.282	-4.120	-0.085	0.059
-404.267	-200.000	-0.010	0.146
-403.252	12.154	-0.070	0.054
-402.238	-61.990	-0.214	0.090
-401.223	-40.037	-0.081	-0.042
-400.209	-200.000	0.001	0.135
-399.194	-158.642	0.029	-0.002
-398.179	-3.875	-0.158	-0.110
-397.165	-118.825	0.126	-0.022
-396.150	800.000	0.060	0.196
-395.136	-165.483	0.300	0.013
-394.121	101.692	0.188	-0.220
-393.106	369.273	0.120	-0.244
-392.092	52.985	0.056	0.054
-391.077	-45.884	-0.373	0.185
-390.063	782.908	0.052	-0.144
-389.048	-111.047	0.114	-0.024
-388.033	362.049	-0.145	-0.293
-387.019	-149.679	0.303	-0.024
-386.004	-113.990	0.062	0.012
-384.990	-200.000	0.025	-0.296
-383.975	-104.489	-0.077	0.018
-382.960	-200.000	-0.003	0.197
-381.946	-200.000	0.017	0.199
-380.931	-44.782	0.171	0.085
-379.917	168.600	-0.085	0.121
-378.902	79.396	0.110	-0.118
-377.888	-200.000	-0.002	-0.187
-376.873	800.000	-0.028	-0.106
-375.858	-54.539	-0.406	-0.185
-374.844	113.283	-0.183	-0.222
-373.829	-19.035	0.066	-0.041
-372.815	191.704	0.122	0.185
-371.800	800.000	0.022	-0.081
-370.785	-11.441	-0.197	0.130
-369.771	-200.000	0.082	-0.445
-368.756	-41.389	-0.201	0.104
-367.742	-23.403	0.302	0.182
-366.727	496.886	0.157	0.363
-365.712	-44.316	-0.365	0.184
-364.698	736.882	0.094	0.254
-363.683	800.000	0.037	-0.108
-362.669	29.512	-0.089	-0.076
-361.654	106.356	-0.150	0.178
-360.639	-200.000	0.042	0.268
-359.625	-72.328	0.266	0.099
-358.610	647.003	0.103	-0.264
-357.596	-94.280	-0.463	-0.127
-356.581	800.000	-0.084	-0.294
-355.566	11.582	0.250	-0.193
-354.552	106.034	0.160	-0.190
-353.537	-117.417	0.306	0.056
-352.523	78.865	-0.303	0.326
-351.508	-149.776	-0.219	0.017
-350.493	52.889	-0.126	-0.121
-349.479	-133.338	-0.344	-0.044
-348.464	-29.643	0.321	-0.184
-347.450	-200.000	0.012	-0.142
-346.435	305.988	-0.218	-0.408
-345.420	363.450	0.123	-0.248
-344.406	-190.064	0.193	0.002
-343.391	93.403	0.059	-0.067
-342.377	-37.820	0.359	0.192
-341.362	452.163	0.098	0.218
-340.348	-49.117	0.240	0.115
-339.333	188.137	0.208	0.311
-338.318	-99.832	0.223	-0.056
-337.304	-200.000	-0.003	-0.021
-336.289	800.000	0.070	-0.259
-335.275	96.862	0.186	-0.213
-334.260	-200.000	-0.010	0.139
-333.245	-107.144	-0.198	0.044
-332.231	8.763	-0.257	-0.194
-331.216	-105.711	0.228	-0.052
-330.202	800.000	-0.020	-0.079
-329.187	-200.000	-0.004	-0.165
-328.172	-63.960	0.265	-0.109
-327.158	-66.522	-0.326	-0.130
-326.143	800.000	0.047	0.160
-325.129	-200.000	-0.006	0.277
-324.114	62.925	0.137	-0.137
-323.099	-147.615	-0.130	0.011
-322.085	19.244	0.103	0.082
-321.070	129.812	-0.256	0.328
-320.056	-26.259	-0.058	-0.034
-319.041	-200.000	0.067	-0.297
-318.026	-35.349	0.194	0.106
-317.012	-200.000	0.036	-0.198
-315.997	76.061	-0.187	-0.198
-314.983	-39.893	0.011	0.006
-313.968	-200.000	0.059	-0.261
-312.953	-200.000	0.015	-0.204
-311.939	-90.342	-0.096	-0.028
-310.924	-90.977	0.206	-0.059
-309.910	800.000	-0.036	-0.127
-308.895	144.339	-0.019	-0.025
-307.880	-88.889	-0.296	0.088
-306.866	-24.643	0.207	0.123
-305.851	776.325	0.029	-0.079
-304.837	27.351	0.169	0.143
-303.822	-152.753	0.036	-0.003
-302.807	60.700	0.351	-0.348
-301.793	-38.209	0.400	-0.212
-300.778	117.787	-0.042	-0.052
-299.764	287.245	0.018	0.033
-298.749	65.484	0.041	-0.041
-297.735	47.392	-0.113	0.106
-296.720	173.286	-0.154	-0.223
-295.705	82.409	-0.226	0.246
-294.691	-62.715	-0.261	0.108
-293.676	800.000	-0.050	0.138
-292.662	-27.048	-0.348	0.203
-291.647	94.383	0.030	0.035
-290.632	217.283	0.085	0.136
-289.618	656.541	0.107	0.276
-288.603	-8.980	-0.140	0.094
-287.589	-32.874	-0.080	0.044
-286.574	-150.150	-0.249	-0.019
-285.559	159.804	-0.300	-0.418
-284.545	335.355	0.126	0.245
-283.530	-200.000	0.011	0.168
-282.516	800.000	0.074	0.265
-281.501	128.269	-0.018	-0.023
-280.486	-69.640	0.067	0.026
-279.472	-200.000	-0.033	0.255
-278.457	216.200	-0.172	-0.273
-277.443	-105.093	-0.184	-0.042
-276.428	70.444	-0.053	0.055
-275.413	-200.000	-0.002	0.110
-274.399	800.000	-0.016	0.060
-273.384	-128.616	-0.124	0.018
-272.370	-13.179	0.244	-0.158
-271.355	540.430	0.057	0.136
-270.340	-200.000	0.028	0.490
-269.326	-40.437	0.396	0.206
-268.311	-200.000	0.001	0.171
-267.297	-200.000	-0.012	-0.360
-266.282	800.000	-0.063	-0.212
-265.267	362.842	0.138	0.277
-264.253	-88.571	-0.089	-0.026
-263.238	-54.896	-0.109	-0.049
-262.224	246.486	-0.105	0.177
-261.209	140.027	-0.125	0.165
-260.195	-23.463	0.145	-0.087
-259.180	633.098	-0.044	0.111
-258.165	-103.261	-0.245	0.058
-257.151	-9.475	0.353	-0.236
-256.136	220.543	-0.035	-0.057
-255.122	214.807	0.081	0.128
-254.107	79.091	-0.080	0.086
-253.092	-22.980	-0.333	-0.201
-252.078	-200.000	-0.031	0.251
-251.063	800.000	-0.091	0.337
-250.049	73.747	-0.122	0.128
-249.034	-200.000	-0.028	0.234
-248.019	800.000	-0.048	-0.172
-247.005	-200.000	-0.008	-0.077
-245.990	210.699	0.109	-0.171
-244.976	-200.000	0.009	0.146
-243.961	4.198	0.228	-0.167
-242.946	429.060	-0.055	-0.119
-241.932	-186.980	-0.074	0.001
-240.917	17.742	0.133	0.106
-239.903	653.237	-0.027	-0.069
-238.888	12.921	0.146	-0.113
-237.873	-7.784	-0.156	0.106
-236.859	-140.043	-0.328	0.035
-235.844	-96.799	0.201	-0.053
-234.830	-42.613	0.179	0.091
-233.815	-96.255	-0.187	-0.050
-232.800	75.511	-0.065	-0.069
-231.786	800.000	-0.093	-0.289
-230.771	800.000	-0.129	0.398
-229.757	-52.871	0.370	0.170
-228.742	-166.056	0.155	-0.007
-227.727	215.209	-0.069	-0.109
-226.713	800.000	-0.049	-0.178
-225.698	800.000	-0.019	0.063
-224.684	800.000	-0.078	-0.315
-223.669	38.299	0.239	0.213
-222.655	-142.677	0.229	-0.022
-221.640	139.993	-0.052	0.068
-220.625	-116.266	-0.096	-0.018
-219.611	-50.678	-0.083	-0.039
-218.596	27.535	0.011	-0.009
-217.582	-70.885	-0.114	0.043
-216.567	7.659	-0.170	-0.127
-215.552	-1.875	0.072	-0.050
-214.538	-50.430	0.275	-0.129
-213.523	353.100	0.124	-0.245
-212.509	-37.592	0.240	0.128
-211.494	-198.865	-0.079	0.000
-210.479	-29.278	-0.171	0.097
-209.465	-12.634	0.028	0.018
-208.450	717.482	-0.021	0.057
-207.436	262.995	0.048	-0.082
-206.421	215.241	-0.184	0.291
-205.406	800.000	-0.115	0.333
-204.392	245.484	-0.127	0.214
-203.377	800.000	0.025	0.090
-202.363	111.570	-0.042	0.050
-201.348	800.000	-0.049	0.188
-200.333	312.755	-0.188	0.353
-199.319	103.239	-0.094	0.110
-198.304	-174.289	-0.311	0.009
-197.290	-141.407	0.122	0.012
-196.275	90.924	-0.179	-0.200
-195.260	595.092	0.171	-0.423
-194.246	-97.333	0.472	-0.123
-193.231	-166.045	0.196	-0.008
-192.217	-60.901	-0.483	0.204
-191.202	-200.000	-0.009	-0.254
-190.187	178.901	0.067	-0.098
-189.173	473.296	-0.084	-0.190
-188.158	-4.519	-0.159	0.110
-187.144	-181.261	-0.166	-0.003
-186.129	122.388	-0.057	-0.071
-185.114	800.000	0.037	-0.143
-184.100	91.443	-0.225	0.252
-183.085	-200.000	-0.003	-0.177
-182.071	-24.831	-0.342	-0.202
-181.056	164.550	0.178	0.250
-180.042	-135.241	0.289	-0.035
-179.027	-200.000	0.005	0.119
-178.012	-62.945	-0.229	-0.094
-176.998	46.351	-0.154	-0.142
-175.983	-108.189	0.265	-0.057
-174.969	-200.000	-0.067	0.390
-173.954	69.369	0.076	0.078
-172.939	800.000	0.051	-0.150
-171.925	760.817	0.166	0.449
-170.910	562.182	-0.053	0.127
-169.896	-125.267	-0.184	0.028
-168.881	121.940	0.089	0.110
-167.866	71.365	-0.070	0.072
-166.852	-157.339	-0.030	-0.002
-165.837	-30.085	0.158	0.089
-164.823	-200.000	-0.021	0.314
-163.808	-200.000	0.022	-0.147
-162.793	530.960	-0.121	-0.286
-161.779	-200.000	0.038	-0.305
-160.764	800.000	0.047	-0.175
-159.750	-200.000	0.000	-0.049
-158.735	331.976	0.054	-0.105
-157.720	561.205	0.142	0.342
-156.706	-63.419	-0.324	0.133
-155.691	40.381	0.066	0.059
-154.677	154.259	-0.067	0.092
-153.662	-27.384	-0.130	0.075
-152.647	-101.313	0.266	-0.065
-151.633	-72.849	0.198	0.073
-150.618	-102.574	-0.058	0.014
-149.604	65.310	0.324	0.326
-148.589	-38.829	0.154	0.081
-147.574	-28.092	-0.197	-0.114
-146.560	-200.000	-0.009	0.238
-145.545	424.963	-0.071	0.152
-144.531	-75.534	-0.151	0.053
-143.516	89.290	0.071	0.079
-142.502	43.796	0.165	0.150
-141.487	-12.325	0.065	0.043
-140.472	-47.936	0.349	0.168
-139.458	143.432	-0.120	-0.159
-138.443	235.710	-0.094	-0.155
-137.429	-74.855	0.376	-0.134
-136.414	800.000	-0.014	0.042
-135.399	-200.000	-0.023	-0.175
-134.385	-195.245	-0.121	-0.001
-133.370	-200.000	0.000	-0.139
-132.356	483.281	-0.031	-0.070
-131.341	-153.245	0.183	-0.013
-130.326	-156.397	-0.437	-0.027
-129.312	472.518	-0.053	0.119
-128.297	53.795	0.078	0.075
-127.283	45.243	-0.079	-0.073
-126.268	-118.396	0.272	-0.048
-125.253	289.591	-0.223	-0.403
-124.239	5.934	0.290	0.213
-123.224	263.392	0.138	0.238
-122.210	-34.274	0.137	0.075
