DTS Sentinel unit serial number:	SN413079Multiplexer serial number:	ORYXHardware model number:	OX4-SRSoftware version number:	ORYX F/W v4.00 Oryx Data Collector v3.7.2.0data status	okinstallation	princeton_trtdifferential loss correction	single-endedforward channel	channel 1reverse channel	N/Adate	2019/09/19time	07:02:35forward acquisition time	60.00reverse acquisition time	0.00gamma	496.2192k internal	0.2342k external	0.2342temperature offset calibration	1.0019default loss term (dB/km)	0.3790temperature slope calibration	1.0000multiplexer offset coefficient	1.0000multiplexer slope coefficient	1.0000fibre end	0.00T internal ref (°C)	19.00T ext. ref 1 (°C)	0.56T ext. ref 2 (°C)	13.05length (m)	temperature (°C)	Stokes	anti-Stokes-747.200	308.479	0.119	0.223
-746.185	214.733	-0.201	0.319
-745.171	-26.991	0.118	-0.069
-744.156	-148.356	-0.244	0.020
-743.142	-200.000	0.033	0.401
-742.127	43.343	0.083	0.076
-741.112	800.000	0.121	0.353
-740.098	321.602	0.062	0.119
-739.083	-102.448	0.155	0.037
-738.069	-200.000	-0.018	0.203
-737.054	-102.484	0.160	-0.038
-736.039	-76.409	-0.571	-0.201
-735.025	-200.000	0.019	0.222
-734.010	-72.840	-0.336	-0.124
-732.996	11.395	-0.302	-0.232
-731.981	-190.388	0.172	-0.002
-730.966	-49.248	0.128	0.061
-729.952	-1.854	-0.232	0.164
-728.937	131.276	-0.150	-0.192
-727.923	-124.846	-0.320	-0.049
-726.908	52.637	0.261	0.249
-725.894	-33.084	0.166	-0.092
-724.879	-128.615	-0.308	-0.044
-723.864	496.477	0.127	-0.292
-722.850	606.455	0.094	-0.235
-721.835	69.521	0.094	0.097
-720.821	-67.803	-0.203	-0.079
-719.806	-200.000	-0.026	0.294
-718.791	-25.732	-0.224	0.132
-717.777	7.513	0.146	-0.109
-716.762	584.039	0.058	0.143
-715.748	129.824	0.134	-0.172
-714.733	45.350	-0.072	-0.066
-713.718	-200.000	-0.026	-0.155
-712.704	346.145	0.050	0.098
-711.689	-158.557	0.246	-0.014
-710.675	530.155	0.111	-0.263
-709.660	-123.855	-0.058	0.009
-708.645	345.258	0.163	-0.320
-707.631	-200.000	-0.032	-0.183
-706.616	77.285	0.108	0.115
-705.602	54.748	-0.141	0.136
-704.587	41.296	0.313	-0.283
-703.572	435.997	0.152	-0.330
-702.558	26.941	-0.056	0.047
-701.543	39.142	0.034	-0.031
-700.529	-187.460	0.062	-0.001
-699.514	-44.231	0.142	0.071
-698.499	286.368	0.138	-0.250
-697.485	-127.253	0.329	-0.048
-696.470	-130.625	-0.420	-0.057
-695.456	-200.000	0.001	-0.392
-694.441	-55.861	-0.148	-0.066
-693.426	-12.767	-0.105	0.069
-692.412	-40.408	-0.357	-0.186
-691.397	36.782	-0.078	0.069
-690.383	-120.457	0.306	-0.052
-689.368	-40.678	-0.277	-0.143
-688.354	-58.511	-0.196	-0.085
-687.339	244.673	-0.044	-0.074
-686.324	229.507	0.040	0.065
-685.310	-99.080	-0.235	-0.059
-684.295	380.791	-0.053	0.109
-683.281	409.267	-0.051	-0.108
-682.266	-130.318	0.181	0.025
-681.251	207.746	0.172	0.269
-680.237	-200.000	0.026	-0.161
-679.222	-200.000	-0.029	0.131
-678.208	368.121	0.141	-0.284
-677.193	74.301	-0.200	0.210
-676.178	800.000	0.055	0.161
-675.164	431.957	0.055	-0.119
-674.149	800.000	-0.075	-0.310
-673.135	24.884	0.183	0.151
-672.120	83.396	-0.042	-0.046
-671.105	-7.831	0.082	-0.055
-670.091	220.547	0.148	0.237
-669.076	-128.491	-0.382	0.054
-668.062	-54.634	0.121	0.054
-667.047	-200.000	-0.005	-0.051
-666.032	99.719	-0.315	-0.364
-665.018	800.000	-0.077	-0.329
-664.003	-76.793	-0.179	0.063
-662.989	27.973	-0.015	-0.013
-661.974	-200.000	-0.002	-0.352
-660.959	800.000	0.139	-0.498
-659.945	-40.733	0.119	0.062
-658.930	-200.000	0.006	-0.343
-657.916	-132.424	0.162	0.021
-656.901	-52.224	-0.335	-0.155
-655.886	119.701	-0.230	-0.285
-654.872	-200.000	0.031	-0.233
-653.857	-200.000	-0.025	-0.221
-652.843	800.000	-0.080	-0.225
-651.828	-200.000	-0.003	0.123
-650.814	194.516	0.041	0.062
-649.799	92.698	-0.109	-0.123
-648.784	-62.854	-0.088	-0.036
-647.770	117.147	-0.388	-0.476
-646.755	60.212	0.107	-0.105
-645.741	257.224	0.170	0.292
-644.726	-77.751	-0.230	-0.079
-643.711	-71.491	-0.052	0.019
-642.697	59.650	-0.023	0.023
-641.682	354.531	-0.018	0.036
-640.668	-56.863	-0.125	-0.055
-639.653	-147.970	0.150	-0.012
-638.638	800.000	0.151	-0.497
-637.624	-200.000	-0.020	-0.236
-636.609	-200.000	0.010	-0.217
-635.595	-113.964	0.289	0.056
-634.580	22.610	0.237	0.193
-633.565	5.776	-0.381	-0.281
-632.551	-137.933	0.100	-0.011
-631.536	193.784	-0.076	-0.115
-630.522	-54.886	-0.175	0.079
-629.507	18.562	0.220	0.175
-628.492	-145.402	-0.201	-0.018
-627.478	37.741	0.275	0.243
-626.463	-200.000	0.029	-0.212
-625.449	196.094	0.174	-0.264
-624.434	-87.114	-0.351	0.106
-623.419	104.910	0.263	0.310
-622.405	800.000	-0.012	0.050
-621.390	56.527	-0.235	-0.228
-620.376	74.749	-0.035	0.037
-619.361	-32.204	-0.252	0.140
-618.346	-95.965	0.408	0.108
-617.332	-200.000	-0.061	0.281
-616.317	-49.078	-0.159	-0.076
-615.303	-200.000	0.014	0.301
-614.288	800.000	0.056	0.159
-613.273	-17.707	-0.192	0.120
-612.259	10.280	-0.105	0.079
-611.244	68.648	0.176	-0.180
-610.230	149.539	0.101	-0.137
-609.215	-58.011	0.305	0.133
-608.201	-200.000	0.039	-0.345
-607.186	800.000	0.051	-0.175
-606.171	-126.466	-0.292	-0.043
-605.157	-113.115	0.095	0.019
-604.142	-110.036	0.296	-0.062
-603.128	-27.237	0.186	0.108
-602.113	46.214	0.120	-0.111
-601.098	800.000	-0.052	0.216
-600.084	-188.112	0.144	0.002
-599.069	-200.000	-0.026	0.216
-598.055	-118.469	-0.096	-0.017
-597.040	27.854	0.060	0.050
-596.025	800.000	0.044	0.127
-595.011	800.000	-0.063	0.180
-593.996	398.395	0.080	0.167
-592.982	-52.834	-0.149	0.069
-591.967	-122.037	0.241	-0.039
-590.952	-200.000	0.030	-0.372
-589.938	156.067	0.151	-0.207
-588.923	-200.000	-0.029	0.244
-587.909	73.922	-0.039	0.040
-586.894	-64.879	0.173	-0.070
-585.879	86.554	-0.052	0.058
-584.865	111.522	-0.121	-0.146
-583.850	-103.645	0.019	-0.005
-582.836	-123.938	0.490	-0.077
-581.821	-103.592	0.085	0.020
-580.806	-82.126	-0.259	0.084
-579.792	-122.184	-0.103	0.017
-578.777	800.000	0.020	0.058
-577.763	800.000	0.047	-0.203
-576.748	-22.170	0.089	-0.054
-575.733	482.442	0.029	-0.065
-574.719	-200.000	0.020	0.206
-573.704	-200.000	-0.007	-0.098
-572.690	402.047	-0.120	-0.251
-571.675	8.379	-0.115	0.086
-570.661	-23.857	0.286	-0.170
-569.646	199.480	0.165	0.251
-568.631	448.023	-0.084	0.184
-567.617	-45.827	-0.103	0.051
-566.602	49.157	-0.119	0.111
-565.588	-93.698	0.180	-0.049
-564.573	-200.000	0.014	0.130
-563.558	800.000	0.042	-0.154
-562.544	-87.207	0.078	0.024
-561.529	280.869	0.138	-0.245
-560.515	80.514	0.232	-0.249
-559.500	220.343	0.144	-0.230
-558.485	-9.158	0.022	-0.015
-557.471	-107.241	-0.085	-0.019
-556.456	263.970	-0.025	-0.044
-555.442	295.912	0.087	-0.159
-554.427	-78.694	0.196	-0.067
-553.412	287.445	0.096	-0.172
-552.398	-200.000	-0.024	-0.154
-551.383	291.672	0.022	0.039
-550.369	-200.000	0.020	0.233
-549.354	-89.710	-0.123	0.036
-548.339	-200.000	-0.029	-0.175
-547.325	410.949	-0.113	0.239
-546.310	166.309	-0.096	-0.135
-545.296	189.555	-0.118	0.176
-544.281	-200.000	-0.001	0.105
-543.266	167.135	-0.307	-0.433
-542.252	-44.600	-0.258	0.128
-541.237	-134.371	0.193	-0.024
-540.223	-200.000	0.017	-0.195
-539.208	-200.000	0.018	0.135
-538.193	452.023	0.174	-0.383
-537.179	-200.000	0.019	0.135
-536.164	-43.110	0.276	-0.139
-535.150	92.506	0.092	-0.103
-534.135	17.087	-0.081	0.063
-533.121	-150.954	-0.251	-0.019
-532.106	-92.299	-0.379	0.106
-531.091	-39.731	0.344	0.179
-530.077	-151.817	-0.099	-0.007
-529.062	-200.000	-0.025	0.141
-528.048	21.879	0.232	0.188
-527.033	-79.151	-0.213	0.072
-526.018	-58.773	0.147	0.063
-525.004	326.267	-0.036	-0.069
-523.989	-200.000	-0.012	-0.102
-522.975	26.715	-0.122	-0.101
-521.960	49.576	0.157	0.147
-520.945	-164.929	-0.229	0.010
-519.931	43.267	0.189	-0.171
-518.916	800.000	-0.059	-0.200
-517.902	-11.937	-0.177	-0.116
-516.887	-200.000	0.040	0.279
-515.872	-95.416	-0.106	-0.028
-514.858	-200.000	0.019	0.104
-513.843	-89.303	0.305	0.089
-512.829	242.315	-0.081	-0.134
-511.814	-53.251	-0.274	-0.125
-510.799	-131.984	0.114	-0.015
-509.785	-114.847	-0.366	0.069
-508.770	-102.916	-0.305	-0.072
-507.756	-102.790	-0.246	0.058
-506.741	-91.839	0.295	0.083
-505.726	-194.329	-0.063	0.001
-504.712	113.631	-0.077	0.093
-503.697	149.509	-0.200	-0.269
-502.683	-120.749	0.155	-0.026
-501.668	290.146	0.153	-0.276
-500.653	311.738	0.073	0.135
-499.639	-116.055	0.333	0.062
-498.624	309.133	0.185	-0.342
-497.610	756.705	-0.126	-0.339
-496.595	-87.367	-0.385	0.116
-495.581	-72.991	-0.137	0.050
-494.566	505.078	0.034	-0.079
-493.551	-200.000	-0.012	-0.128
-492.537	645.811	0.088	-0.224
-491.522	11.993	0.210	0.160
-490.508	21.463	-0.049	-0.040
-489.493	-153.084	0.361	0.025
-488.478	104.584	-0.152	-0.177
-487.464	-173.270	0.032	0.001
-486.449	422.171	0.173	0.368
-485.435	-43.541	-0.398	-0.199
-484.420	-107.705	-0.398	0.086
-483.405	800.000	0.082	-0.285
-482.391	-96.377	-0.195	-0.051
-481.376	514.598	-0.062	-0.143
-480.362	-100.259	0.244	-0.060
-479.347	-121.016	-0.257	-0.043
-478.332	-158.072	-0.285	-0.017
-477.318	-50.457	0.116	0.054
-476.303	-200.000	-0.014	-0.118
-475.289	-200.000	0.031	0.161
-474.274	-56.218	0.292	0.129
-473.259	32.058	-0.140	-0.120
-472.245	-133.195	0.261	0.033
-471.230	167.336	-0.185	-0.260
-470.216	432.820	-0.056	0.121
-469.201	-42.565	-0.221	0.112
-468.186	79.344	-0.237	0.252
-467.172	-128.468	-0.104	0.015
-466.157	342.582	0.067	-0.131
-465.143	251.660	-0.230	0.388
-464.128	-10.911	0.060	0.040
-463.113	-99.209	-0.285	0.071
-462.099	399.783	0.100	0.207
-461.084	-147.554	-0.170	0.014
-460.070	786.750	0.099	0.270
-459.055	205.144	-0.164	0.252
-458.040	-159.357	0.063	-0.004
-457.026	-84.826	0.156	-0.049
-456.011	-161.730	-0.372	0.019
-454.997	-200.000	0.026	0.144
-453.982	-123.755	0.106	0.017
-452.968	41.511	-0.122	0.110
-451.953	-22.520	0.145	-0.087
-450.938	-47.339	0.158	0.076
-449.924	79.072	0.222	-0.236
-448.909	245.957	-0.040	-0.067
-447.895	-200.000	0.032	-0.247
-446.880	-98.726	0.108	0.027
-445.865	318.112	-0.139	-0.261
-444.851	3.831	-0.376	0.272
-443.836	-137.161	-0.281	0.032
-442.822	-1.055	-0.163	-0.114
-441.807	-82.065	0.602	0.195
-440.792	800.000	-0.065	0.186
-439.778	379.309	-0.054	-0.110
-438.763	162.922	0.188	-0.262
-437.749	328.668	-0.248	-0.472
-436.734	-77.118	-0.400	-0.138
-435.719	-200.000	-0.008	-0.048
-434.705	3.229	0.077	0.055
-433.690	800.000	-0.135	0.463
-432.676	305.881	-0.102	0.188
-431.661	-144.656	0.212	0.019
-430.646	-8.626	0.116	-0.077
-429.632	-20.472	-0.249	-0.152
-428.617	-60.036	-0.132	-0.056
-427.603	-15.394	0.111	-0.070
-426.588	132.919	0.123	-0.158
-425.573	98.177	-0.094	-0.107
-424.559	-200.000	0.033	0.386
-423.544	152.477	0.259	0.349
-422.530	611.770	0.082	-0.203
-421.515	-29.639	0.330	0.186
-420.500	-200.000	-0.020	0.109
-419.486	25.103	0.189	0.155
-418.471	83.519	0.069	0.074
-417.457	-82.278	-0.295	-0.095
-416.442	315.126	-0.117	-0.218
-415.428	-200.000	-0.029	-0.259
-414.413	-8.735	-0.099	-0.066
-413.398	312.377	-0.081	-0.150
-412.384	-200.000	-0.054	-0.240
-411.369	-114.356	0.194	-0.037
-410.355	46.523	0.352	-0.322
-409.340	-200.000	-0.019	-0.250
-408.325	800.000	0.112	-0.362
-407.311	800.000	-0.031	-0.130
-406.296	-128.275	-0.098	0.014
-405.282	-51.500	0.156	0.072
-404.267	-200.000	0.004	0.223
-403.252	800.000	0.037	-0.120
-402.238	207.958	-0.197	-0.304
-401.223	-200.000	-0.011	-0.050
-400.209	-165.319	-0.234	0.010
-399.194	-24.565	-0.239	-0.140
-398.179	800.000	-0.143	-0.396
-397.165	6.592	0.111	0.081
-396.150	241.549	0.055	-0.091
-395.136	-8.695	0.028	0.019
-394.121	-148.266	-0.134	-0.011
-393.106	173.266	-0.101	0.144
-392.092	575.975	-0.197	-0.475
-391.077	60.188	0.177	-0.172
-390.063	188.112	-0.059	-0.087
-389.048	-103.518	-0.345	-0.080
-388.033	-158.148	0.083	0.005
-387.019	714.192	-0.088	-0.230
-386.004	-159.977	-0.357	-0.019
-384.990	-200.000	0.037	0.246
-383.975	-200.000	-0.013	0.075
-382.960	102.862	-0.065	-0.076
-381.946	-82.563	-0.153	0.049
-380.931	-94.806	0.209	-0.056
-379.917	134.893	-0.106	0.135
-378.902	-200.000	0.029	0.182
-377.888	31.048	0.178	0.151
-376.873	109.079	-0.102	-0.121
-375.858	-56.225	0.263	0.115
-374.844	-20.903	0.328	0.199
-373.829	-82.556	0.146	0.047
-372.815	-181.268	-0.353	0.007
-371.800	106.801	-0.307	0.360
-370.785	-200.000	-0.002	0.234
-369.771	62.363	0.183	0.180
-368.756	-28.222	-0.278	-0.159
-367.742	-13.924	-0.105	-0.067
-366.727	-200.000	0.012	-0.106
-365.712	-63.178	-0.246	0.100
-364.698	800.000	-0.045	-0.157
-363.683	-84.705	-0.106	0.033
-362.669	-200.000	0.023	-0.195
-361.654	264.731	-0.034	0.058
-360.639	158.845	-0.137	0.188
-359.625	-47.037	-0.016	0.008
-358.610	800.000	-0.026	0.081
-357.596	58.908	-0.041	0.040
-356.581	-147.527	-0.258	0.021
-355.566	-76.004	-0.262	-0.091
-354.552	96.624	-0.168	0.190
-353.537	700.199	0.089	-0.231
-352.523	46.819	-0.216	0.198
-351.508	-200.000	-0.044	0.250
-350.493	-90.592	-0.086	0.025
-349.479	-153.737	0.306	-0.021
-348.464	36.075	-0.154	-0.133
-347.450	-46.656	-0.214	-0.104
-346.435	46.766	-0.179	-0.164
-345.420	-200.000	0.019	-0.107
-344.406	354.925	0.208	0.407
-343.391	361.948	0.053	-0.105
-342.377	-19.005	-0.101	-0.062
-341.362	-60.436	0.184	-0.077
-340.348	6.001	-0.299	-0.218
-339.333	-103.774	0.099	0.023
-338.318	689.521	-0.015	0.039
-337.304	-134.722	0.317	0.038
-336.289	800.000	0.077	0.240
-335.275	549.837	-0.089	0.211
-334.260	-80.414	-0.261	0.086
-333.245	82.634	-0.168	-0.180
-332.231	800.000	-0.041	-0.155
-331.216	146.551	0.226	-0.299
-330.202	257.613	0.090	-0.153
-329.187	282.645	-0.053	-0.094
-328.172	-134.957	-0.115	0.014
-327.158	-200.000	-0.014	0.064
-326.143	172.602	-0.042	-0.060
-325.129	-186.934	0.059	0.001
-324.114	-200.000	0.003	0.226
-323.099	-96.606	-0.178	-0.046
-322.085	-3.034	-0.249	0.171
-321.070	11.581	-0.110	0.083
-320.056	51.559	-0.249	0.233
-319.041	800.000	-0.002	0.007
-318.026	0.276	-0.131	-0.092
-317.012	800.000	-0.048	0.137
-315.997	800.000	-0.218	0.603
-314.983	-81.592	-0.194	-0.063
-313.968	704.284	0.029	-0.076
-312.953	-200.000	0.022	0.110
-311.939	517.132	0.145	-0.335
-310.924	2.840	0.095	-0.068
-309.910	-170.139	0.146	0.005
-308.895	-200.000	0.022	0.256
-307.880	-80.630	-0.168	-0.055
-306.866	-115.462	0.100	0.019
-305.851	76.126	-0.147	0.153
-304.837	51.337	-0.292	0.273
-303.822	21.147	-0.049	0.039
-302.807	-121.133	-0.156	-0.026
-301.793	-96.529	0.156	-0.041
-300.778	231.668	-0.042	-0.068
-299.764	-48.097	-0.099	-0.047
-298.749	501.362	0.061	-0.139
-297.735	-106.612	0.320	0.070
-296.720	-200.000	-0.007	-0.087
-295.705	408.355	-0.079	0.165
-294.691	-200.000	0.055	0.297
-293.676	69.341	0.368	0.373
-292.662	2.467	0.201	0.143
-291.647	63.392	-0.230	-0.227
-290.632	-95.442	0.149	-0.039
-289.618	-52.160	0.036	-0.016
-288.603	143.248	-0.032	0.043
-287.589	-129.287	-0.295	0.040
-286.574	-200.000	0.013	0.091
-285.559	800.000	0.061	-0.235
-284.545	16.879	0.269	0.209
-283.530	358.846	0.099	0.195
-282.516	-11.894	0.108	0.070
-281.501	-26.081	-0.307	-0.178
-280.486	0.311	0.287	-0.202
-279.472	800.000	0.061	0.229
-278.457	800.000	-0.087	-0.267
-277.443	800.000	-0.057	0.191
-276.428	-138.992	-0.364	0.039
-275.413	-200.000	-0.027	-0.127
-274.399	-53.744	-0.096	0.043
-273.384	-178.388	0.301	0.007
-272.370	172.480	-0.129	-0.183
-271.355	-2.739	-0.133	0.092
-270.340	252.417	-0.062	0.104
-269.326	-200.000	-0.015	-0.197
-268.311	-76.939	0.071	-0.024
-267.297	105.435	-0.059	-0.068
-266.282	-200.000	0.014	0.333
-265.267	-68.703	-0.117	-0.045
-264.253	-90.804	-0.140	0.040
-263.238	-200.000	-0.004	-0.198
-262.224	633.154	0.044	0.110
-261.209	-108.177	0.373	0.079
-260.195	800.000	0.050	0.165
-259.180	-105.237	0.144	-0.032
-258.165	-95.643	-0.179	0.047
-257.151	326.889	-0.196	0.370
-256.136	30.735	-0.107	0.090
-255.122	-200.000	-0.031	-0.255
-254.107	-17.472	0.270	0.167
-253.092	363.391	0.115	0.227
-252.078	45.661	0.128	-0.117
-251.063	-177.389	0.348	-0.008
-250.049	-200.000	0.006	0.136
-249.034	-66.090	0.139	-0.055
-248.019	-110.906	0.277	0.056
-247.005	800.000	0.006	-0.022
-245.990	-200.000	0.022	0.100
-244.976	-65.182	-0.180	-0.071
-243.961	165.441	0.062	0.087
-242.946	-76.071	-0.063	0.022
-241.932	800.000	0.061	0.169
-240.917	800.000	0.013	-0.038
-239.903	800.000	0.117	-0.476
-238.888	39.025	0.237	-0.208
-237.873	171.237	-0.131	0.185
-236.859	523.708	-0.142	0.327
-235.844	-200.000	-0.026	0.185
-234.830	56.133	0.110	0.105
-233.815	767.534	0.063	-0.169
-232.800	157.697	-0.044	0.060
-231.786	-200.000	-0.011	-0.156
-230.771	250.885	0.155	-0.259
-229.757	182.163	0.073	0.106
-228.742	-200.000	-0.034	0.203
-227.727	-200.000	-0.053	-0.419
-226.713	-191.968	0.166	-0.002
-225.698	-141.720	0.078	-0.008
-224.684	-200.000	0.195	0.001
-223.669	-200.000	-0.005	0.215
-222.655	28.191	0.151	0.125
-221.640	-99.950	0.191	0.047
-220.625	765.157	0.015	-0.040
-219.611	319.993	0.175	-0.326
-218.596	-30.615	-0.121	0.067
-217.582	-102.907	0.123	-0.029
-216.567	-200.000	-0.033	0.175
-215.552	40.793	0.202	-0.179
-214.538	-150.095	0.373	-0.028
-213.523	14.856	-0.097	0.074
-212.509	700.533	0.061	0.157
-211.494	800.000	-0.081	0.242
-210.479	-127.046	-0.208	0.030
-209.465	114.127	0.159	0.190
-208.450	-129.588	-0.067	0.009
-207.436	-158.307	0.118	0.007
-206.421	152.064	0.119	0.160
-205.406	184.421	0.110	0.160
-204.392	21.777	0.166	0.133
-203.377	799.610	0.011	-0.030
-202.363	52.690	0.169	-0.158
-201.348	800.000	0.119	0.339
-200.333	-95.160	-0.300	0.079
-199.319	-80.758	0.190	0.062
-198.304	84.020	-0.132	-0.141
-197.290	-200.000	-0.017	0.257
-196.275	421.181	0.164	-0.344
-195.260	265.511	-0.223	-0.381
-194.246	-156.239	0.139	-0.009
-193.231	-200.000	-0.026	-0.168
-192.217	-200.000	0.034	0.250
-191.202	53.253	0.453	0.425
-190.187	63.769	0.075	0.074
-189.173	800.000	0.102	-0.302
-188.158	474.361	-0.034	-0.075
-187.144	800.000	0.040	-0.127
-186.129	-158.429	0.365	0.021
-185.114	494.801	0.129	0.291
-184.100	-200.000	-0.001	-0.033
-183.085	-200.000	-0.050	-0.298
-182.071	800.000	0.096	0.284
-181.056	396.140	0.164	-0.336
-180.042	-124.384	-0.215	0.033
-179.027	660.560	-0.100	0.253
-178.012	-62.473	0.020	-0.008
-176.998	-200.000	0.066	-0.445
-175.983	-46.311	0.241	-0.116
-174.969	-5.039	-0.277	0.187
-173.954	229.649	0.172	-0.275
-172.939	34.591	-0.052	-0.044
-171.925	800.000	0.029	0.087
-170.910	62.189	0.168	0.164
-169.896	92.437	-0.066	0.073
-168.881	-42.507	0.254	-0.127
-167.866	311.404	0.018	0.033
-166.852	672.000	0.118	0.300
-165.837	800.000	0.030	0.086
-164.823	21.208	0.190	-0.151
-163.808	-56.346	-0.143	0.062
-162.793	108.014	0.060	0.070
-161.779	-8.162	0.411	0.271
-160.764	-65.074	-0.331	-0.131
-159.750	-171.444	-0.398	0.013
-158.735	338.960	-0.139	0.265
-157.720	-19.906	0.262	0.158
-156.706	9.700	0.159	0.118
-155.691	-118.903	-0.285	-0.049
-154.677	-200.000	-0.018	0.146
-153.662	-173.646	0.105	-0.003
-152.647	-97.489	-0.124	-0.032
-151.633	800.000	0.060	-0.213
-150.618	-200.000	0.030	-0.169
-149.604	-111.463	-0.109	-0.022
-148.589	49.068	-0.063	0.058
-147.574	-72.278	0.266	-0.096
-146.560	-52.765	-0.525	-0.237
-145.545	-16.511	-0.073	-0.045
-144.531	314.733	0.158	0.292
-143.516	-50.805	-0.165	-0.076
-142.502	-193.154	0.164	-0.001
-141.487	800.000	-0.048	0.200
-140.472	-161.902	-0.257	-0.013
-139.458	-81.224	0.284	-0.092
-138.443	8.426	-0.191	0.140
-137.429	-8.969	-0.110	-0.072
-136.414	-12.732	0.046	0.029
-135.399	-200.000	0.025	-0.138
-134.385	-124.714	-0.177	-0.027
-133.370	112.017	-0.249	-0.295
-132.356	73.389	-0.163	0.167
-131.341	-103.959	0.331	-0.075
-130.326	-200.000	-0.007	0.131
-129.312	-124.676	-0.189	0.029
-128.297	160.862	-0.030	0.040
-127.283	46.709	-0.239	-0.217
-126.268	-11.413	-0.131	-0.084
-125.253	-35.592	-0.250	-0.132
-124.239	91.817	0.295	-0.325
-123.224	-200.000	0.031	-0.189
-122.210	-200.000	0.006	0.185
-121.195	800.000	0.069	0.204
