DTS Sentinel unit serial number:	SN413079Multiplexer serial number:	ORYXHardware model number:	OX4-SRSoftware version number:	ORYX F/W v4.00 Oryx Data Collector v3.7.2.0data status	okinstallation	princeton_trtdifferential loss correction	single-endedforward channel	channel 1reverse channel	N/Adate	2019/09/15time	01:34:35forward acquisition time	60.00reverse acquisition time	0.00gamma	496.2192k internal	0.2322k external	0.2322temperature offset calibration	0.9983default loss term (dB/km)	0.3790temperature slope calibration	1.0000multiplexer offset coefficient	1.0000multiplexer slope coefficient	1.0000fibre end	0.00T internal ref (°C)	31.86T ext. ref 1 (°C)	4.52T ext. ref 2 (°C)	26.72length (m)	temperature (°C)	Stokes	anti-Stokes-747.200	-21.439	-0.137	-0.085
-746.185	20.172	-0.177	0.144
-745.171	-33.648	-0.432	-0.241
-744.156	450.442	0.046	-0.103
-743.142	186.551	-0.136	0.205
-742.127	-40.235	-0.381	0.200
-741.112	800.000	-0.108	0.341
-740.098	-122.670	-0.315	-0.052
-739.083	91.889	-0.319	-0.362
-738.069	89.655	-0.235	0.265
-737.054	-164.540	0.216	0.010
-736.039	322.355	-0.184	-0.354
-735.025	-104.212	0.292	0.068
-734.010	-78.720	-0.318	0.110
-732.996	120.492	0.163	-0.204
-731.981	-14.020	0.116	0.076
-730.966	-200.000	0.003	0.137
-729.952	-112.310	0.222	0.045
-728.937	800.000	0.074	0.244
-727.923	-111.287	-0.145	0.030
-726.908	86.759	-0.119	-0.132
-725.894	-200.000	0.006	-0.272
-724.879	-81.974	-0.226	0.075
-723.864	-150.823	0.145	-0.011
-722.850	800.000	-0.056	-0.167
-721.835	-110.277	-0.393	-0.083
-720.821	-102.805	-0.315	-0.076
-719.806	-200.000	-0.002	0.057
-718.791	-149.008	0.198	-0.016
-717.777	-100.419	0.160	0.040
-716.762	-79.145	0.075	0.026
-715.748	-200.000	-0.087	-0.481
-714.733	-200.000	-0.040	-0.232
-713.718	800.000	-0.122	-0.437
-712.704	-57.260	-0.079	-0.035
-711.689	-54.262	0.147	0.067
-710.675	-124.216	0.203	0.032
-709.660	84.730	0.208	0.230
-708.645	-8.322	-0.159	-0.108
-707.631	-64.417	-0.409	-0.168
-706.616	-34.106	-0.482	0.267
-705.602	-200.000	-0.012	0.065
-704.587	115.355	-0.145	0.179
-703.572	122.659	0.015	-0.019
-702.558	411.679	-0.095	0.203
-701.543	800.000	-0.046	0.195
-700.529	464.664	-0.121	-0.272
-699.514	-94.151	0.232	0.064
-698.499	48.599	0.167	0.158
-697.485	-117.695	-0.249	-0.045
-696.470	800.000	0.085	-0.367
-695.456	-200.000	0.025	0.146
-694.441	-200.000	0.014	-0.233
-693.426	-110.040	0.044	0.009
-692.412	-200.000	-0.034	-0.307
-691.397	-166.755	0.221	-0.009
-690.383	74.226	0.290	-0.307
-689.368	34.989	0.220	-0.194
-688.354	-13.574	-0.287	0.187
-687.339	105.049	-0.197	0.235
-686.324	-200.000	-0.000	0.009
-685.310	425.738	-0.170	-0.369
-684.295	153.484	-0.145	0.201
-683.281	-179.668	0.292	0.006
-682.266	593.844	0.092	0.229
-681.251	800.000	0.038	-0.126
-680.237	635.318	-0.008	0.022
-679.222	-18.631	0.142	-0.089
-678.208	-5.581	-0.261	0.180
-677.193	-200.000	-0.003	0.236
-676.178	-128.651	-0.476	0.068
-675.164	-69.035	0.074	-0.029
-674.149	267.603	0.163	0.287
-673.135	65.095	-0.145	0.147
-672.120	118.597	0.123	-0.154
-671.105	-93.448	-0.256	0.072
-670.091	238.777	-0.133	-0.223
-669.076	-152.519	0.379	-0.027
-668.062	800.000	0.019	-0.066
-667.047	-200.000	0.023	-0.262
-666.032	135.954	-0.169	-0.222
-665.018	-33.628	0.386	-0.215
-664.003	-139.251	0.142	0.015
-662.989	-134.794	-0.103	0.013
-661.974	-169.653	0.119	-0.004
-660.959	34.073	-0.131	-0.115
-659.945	-167.979	0.287	-0.011
-658.930	317.974	-0.206	-0.393
-657.916	394.989	0.193	0.404
-656.901	-70.652	0.388	-0.148
-655.886	50.803	0.231	-0.221
-654.872	-21.575	0.112	-0.069
-653.857	244.547	-0.054	-0.091
-652.843	800.000	0.039	0.126
-651.828	800.000	0.071	-0.228
-650.814	-151.395	-0.182	-0.014
-649.799	800.000	0.017	0.069
-648.784	-69.783	0.134	-0.052
-647.770	-154.831	-0.105	-0.007
-646.755	21.784	0.067	0.055
-645.741	200.850	0.208	0.321
-644.726	-62.249	-0.381	-0.160
-643.711	235.696	0.032	-0.054
-642.697	80.493	0.163	-0.177
-641.682	666.048	-0.125	0.324
-640.668	-89.631	-0.261	-0.077
-639.653	-200.000	0.067	0.296
-638.638	153.374	0.042	0.058
-637.624	-86.873	0.308	0.095
-636.609	800.000	-0.067	0.255
-635.595	-125.066	-0.164	0.025
-634.580	-200.000	-0.049	-0.247
-633.565	-174.184	-0.136	0.004
-632.551	800.000	-0.065	-0.269
-631.536	-100.230	0.186	0.046
-630.522	-200.000	0.028	0.218
-629.507	-44.438	0.203	0.102
-628.492	-36.856	0.131	0.071
-627.478	-90.978	0.338	-0.098
-626.463	23.662	-0.101	-0.084
-625.449	-200.000	0.013	0.154
-624.434	-200.000	-0.031	0.228
-623.419	-200.000	-0.170	0.000
-622.405	-51.525	-0.108	0.051
-621.390	6.683	-0.081	-0.061
-620.376	-200.000	0.016	0.162
-619.361	-200.000	-0.017	-0.202
-618.346	800.000	0.075	-0.249
-617.332	326.794	-0.047	0.091
-616.317	-77.100	0.381	0.133
-615.303	-59.596	-0.379	-0.163
-614.288	298.265	0.067	0.124
-613.273	-18.933	0.378	0.237
-612.259	800.000	0.090	-0.265
-611.244	-200.000	-0.375	-0.002
-610.230	56.590	-0.110	-0.107
-609.215	6.370	-0.288	0.215
-608.201	77.155	-0.228	-0.244
-607.186	-79.472	-0.116	0.039
-606.171	-75.940	0.192	-0.068
-605.157	-93.551	0.121	0.034
-604.142	1.648	-0.280	-0.203
-603.128	218.997	-0.036	-0.058
-602.113	43.581	0.040	0.037
-601.098	96.377	-0.096	-0.110
-600.084	-200.000	0.007	-0.221
-599.069	-25.341	-0.187	0.111
-598.055	-4.511	0.118	0.082
-597.040	-200.000	0.010	0.194
-596.025	-88.190	0.013	0.004
-595.011	-83.830	-0.311	0.099
-593.996	-200.000	0.005	-0.029
-592.982	-59.837	-0.290	0.125
-591.967	-142.961	-0.179	-0.017
-590.952	-103.451	-0.072	0.017
-589.938	35.325	-0.050	-0.044
-588.923	129.811	-0.122	0.157
-587.909	-200.000	0.053	-0.233
-586.894	800.000	0.074	0.215
-585.879	297.262	-0.150	0.276
-584.865	-55.764	0.261	0.117
-583.850	435.489	0.100	0.219
-582.836	38.410	0.160	0.143
-581.821	800.000	-0.023	0.079
-580.806	42.671	-0.322	-0.295
-579.792	-200.000	0.031	-0.226
-578.777	26.982	-0.152	0.128
-577.763	273.105	-0.049	-0.087
-576.748	111.256	-0.060	0.072
-575.733	-118.868	0.353	-0.062
-574.719	-74.812	0.143	0.052
-573.704	120.472	-0.108	0.134
-572.690	488.018	0.087	-0.200
-571.675	-165.529	0.180	0.008
-570.661	800.000	0.028	0.080
-569.646	-39.950	0.045	-0.024
-568.631	308.954	-0.166	0.312
-567.617	-200.000	-0.017	0.138
-566.602	333.943	-0.160	-0.311
-565.588	-200.000	-0.021	0.217
-564.573	-200.000	-0.020	-0.096
-563.558	-135.956	0.123	0.015
-562.544	402.923	0.053	-0.112
-561.529	800.000	0.015	-0.054
-560.515	-106.662	-0.270	-0.060
-559.500	348.129	0.075	0.148
-558.485	-121.044	-0.066	0.011
-557.471	-91.560	-0.435	-0.124
-556.456	170.954	0.042	0.061
-555.442	-200.000	0.006	-0.073
-554.427	159.515	0.189	-0.263
-553.412	402.256	0.119	-0.252
-552.398	800.000	-0.121	-0.398
-551.383	26.675	-0.057	-0.048
-550.369	334.599	0.150	-0.291
-549.354	121.039	-0.107	-0.134
-548.339	-200.000	0.016	-0.139
-547.325	56.437	0.204	-0.199
-546.310	-200.000	0.044	-0.270
-545.296	-200.000	-0.015	-0.133
-544.281	-107.114	0.131	0.029
-543.266	-200.000	0.025	0.254
-542.252	-200.000	0.008	-0.145
-541.237	36.714	-0.213	-0.189
-540.223	-65.155	-0.214	0.086
-539.208	-200.000	-0.028	-0.167
-538.193	-85.551	0.377	-0.117
-537.179	71.707	0.212	-0.221
-536.164	-87.514	0.077	-0.023
-535.150	-200.000	0.016	-0.147
-534.135	280.872	-0.112	0.201
-533.121	82.542	-0.181	-0.197
-532.106	437.004	-0.012	0.026
-531.091	-55.324	0.253	-0.114
-530.077	-71.750	0.162	-0.061
-529.062	-105.627	-0.060	-0.014
-528.048	120.332	-0.076	-0.094
-527.033	-143.094	-0.158	-0.015
-526.018	-143.176	0.113	-0.011
-525.004	-159.410	-0.043	-0.002
-523.989	-20.139	-0.070	0.043
-522.975	265.307	-0.085	-0.149
-521.960	101.995	-0.189	-0.221
-520.945	266.473	0.251	0.439
-519.931	-142.048	-0.091	-0.009
-518.916	341.970	0.041	-0.080
-517.902	-46.161	0.171	-0.084
-516.887	-37.685	-0.128	-0.068
-515.872	69.696	-0.114	-0.117
-514.858	-104.743	0.148	0.034
-513.843	34.308	-0.221	-0.193
-512.829	-129.234	0.396	-0.055
-511.814	177.859	0.185	-0.270
-510.799	603.581	-0.087	-0.216
-509.785	-31.734	0.242	-0.136
-508.770	57.395	-0.148	-0.145
-507.756	-89.413	0.108	-0.032
-506.741	-83.895	0.330	-0.105
-505.726	-45.390	-0.217	-0.108
-504.712	157.909	-0.160	-0.222
-503.697	14.404	-0.121	-0.094
-502.683	-21.195	0.045	0.027
-501.668	-120.197	0.089	0.015
-500.653	-200.000	0.045	-0.375
-499.639	-200.000	-0.015	-0.148
-498.624	13.535	-0.184	-0.143
-497.610	20.302	0.139	0.112
-496.595	9.114	-0.101	0.076
-495.581	-200.000	0.009	0.093
-494.566	-160.116	0.270	0.015
-493.551	75.698	-0.345	-0.364
-492.537	506.941	0.080	0.187
-491.522	244.400	0.067	0.112
-490.508	209.874	-0.024	-0.037
-489.493	-200.000	0.050	0.309
-488.478	800.000	-0.051	-0.169
-487.464	24.380	0.211	-0.175
-486.449	60.093	-0.018	0.018
-485.435	-200.000	0.094	0.000
-484.420	-90.877	-0.104	0.030
-483.405	-27.553	-0.078	0.045
-482.391	800.000	-0.099	0.275
-481.376	-200.000	-0.005	-0.149
-480.362	-148.253	-0.128	-0.011
-479.347	-103.171	0.156	-0.037
-478.332	122.015	-0.192	0.240
-477.318	800.000	0.032	0.132
-476.303	-200.000	0.077	-0.384
-475.289	800.000	0.108	0.308
-474.274	-126.030	0.217	-0.033
-473.259	-200.000	-0.045	-0.283
-472.245	-200.000	-0.040	-0.446
-471.230	-103.145	-0.259	-0.061
-470.216	-2.327	-0.244	-0.171
-469.201	800.000	-0.084	-0.239
-468.186	-22.116	0.200	-0.121
-467.172	339.904	0.204	-0.398
-466.157	62.682	0.140	-0.140
-465.143	192.448	-0.153	-0.231
-464.128	-87.265	0.165	0.050
-463.113	-72.190	0.249	0.092
-462.099	-200.000	0.012	-0.064
-461.084	131.683	-0.174	0.224
-460.070	24.437	0.135	0.111
-459.055	-200.000	-0.047	0.356
-458.040	-110.449	-0.184	0.038
-457.026	-200.000	-0.017	0.345
-456.011	85.643	0.222	-0.243
-454.997	444.850	-0.053	-0.116
-453.982	-3.347	-0.445	0.309
-452.968	659.275	-0.108	0.277
-451.953	800.000	-0.079	-0.327
-450.938	43.889	0.093	0.085
-449.924	-40.049	0.234	0.122
-448.909	3.650	-0.125	0.091
-447.895	-73.989	0.195	0.071
-446.880	-35.915	0.287	-0.155
-445.865	494.976	-0.154	-0.354
-444.851	76.465	-0.149	-0.158
-443.836	21.353	0.071	0.057
-442.822	-200.000	-0.024	-0.167
-441.807	190.276	-0.176	0.265
-440.792	-0.414	-0.175	0.124
-439.778	800.000	-0.082	-0.260
-438.763	-143.915	0.300	0.028
-437.749	-200.000	-0.003	0.058
-436.734	-127.540	0.414	-0.060
-435.719	62.229	-0.051	-0.050
-434.705	25.005	0.028	-0.023
-433.690	-148.050	-0.176	-0.015
-432.676	-60.593	0.021	-0.009
-431.661	-101.911	0.435	-0.105
-430.646	-72.384	0.128	0.047
-429.632	-200.000	-0.024	0.106
-428.617	-200.000	-0.082	-0.430
-427.603	-152.365	0.182	-0.013
-426.588	-71.496	-0.240	0.090
-425.573	12.069	-0.247	-0.189
-424.559	-28.401	-0.067	0.038
-423.544	-143.486	-0.279	-0.027
-422.530	350.742	-0.036	0.071
-421.515	-200.000	0.066	0.332
-420.500	110.308	0.173	0.208
-419.486	-101.621	-0.265	0.064
-418.471	223.329	0.033	-0.053
-417.457	88.207	0.091	0.100
-416.442	-138.909	0.165	0.018
-415.428	-129.971	0.380	-0.052
-414.413	-49.662	0.044	-0.021
-413.398	800.000	-0.030	0.131
-412.384	-83.392	-0.099	-0.032
-411.369	800.000	-0.104	0.360
-410.355	-61.491	0.083	-0.035
-409.340	-200.000	-0.006	0.089
-408.325	160.486	-0.011	0.015
-407.311	621.458	0.112	-0.282
-406.296	-171.758	0.090	0.003
-405.282	-23.201	-0.080	-0.048
-404.267	71.593	-0.296	0.307
-403.252	50.843	0.216	0.204
-402.238	-200.000	0.031	-0.320
-401.223	-200.000	0.001	0.159
-400.209	36.676	-0.250	-0.220
-399.194	84.231	0.163	0.178
-398.179	-200.000	0.054	0.272
-397.165	49.032	0.060	-0.056
-396.150	703.104	0.096	-0.251
-395.136	2.024	0.178	-0.128
-394.121	-18.292	-0.215	0.134
-393.106	232.156	0.111	0.181
-392.092	800.000	-0.144	0.431
-391.077	50.305	0.360	-0.339
-390.063	148.877	-0.191	0.258
-389.048	117.620	0.047	-0.058
-388.033	-200.000	-0.027	-0.428
-387.019	-92.070	-0.113	0.032
-386.004	522.787	-0.071	0.166
-384.990	-171.349	0.254	0.008
-383.975	800.000	0.166	-0.486
-382.960	426.632	0.037	0.079
-381.946	-200.000	0.007	0.144
-380.931	-52.397	-0.117	0.054
-379.917	109.052	-0.143	-0.170
-378.902	131.564	0.038	0.049
-377.888	-9.953	-0.217	-0.144
-376.873	-200.000	-0.003	0.117
-375.858	800.000	-0.032	-0.103
-374.844	462.313	-0.034	-0.075
-373.829	-200.000	-0.006	0.030
-372.815	800.000	0.163	0.687
-371.800	99.946	-0.156	0.181
-370.785	144.035	0.054	0.071
-369.771	337.375	-0.155	0.300
-368.756	9.125	-0.034	0.025
-367.742	800.000	0.110	0.395
-366.727	-109.256	0.246	0.052
-365.712	351.069	0.103	0.203
-364.698	-155.847	0.459	-0.029
-363.683	-82.094	-0.141	0.046
-362.669	-200.000	0.050	0.300
-361.654	128.284	-0.034	-0.043
-360.639	10.376	0.211	0.160
-359.625	-176.485	0.392	0.010
-358.610	-112.826	0.156	-0.031
-357.596	367.539	0.036	-0.072
-356.581	122.238	-0.138	0.171
-355.566	-44.216	0.169	-0.084
-354.552	493.230	-0.092	-0.209
-353.537	-72.462	-0.396	-0.146
-352.523	629.714	-0.074	0.185
-351.508	655.457	0.192	-0.492
-350.493	-48.556	-0.167	0.080
-349.479	-35.827	0.295	-0.159
-348.464	188.672	-0.123	-0.183
-347.450	273.162	-0.171	0.301
-346.435	800.000	0.058	-0.171
-345.420	-5.599	-0.304	-0.208
-344.406	-200.000	-0.009	0.061
-343.391	90.376	0.249	-0.278
-342.377	283.843	0.103	0.183
-341.362	149.519	-0.079	0.106
-340.348	-8.021	-0.423	0.284
-339.333	-92.576	-0.043	0.012
-338.318	-200.000	-0.019	-0.187
-337.304	156.722	-0.153	-0.210
-336.289	-128.207	0.321	-0.046
-335.275	535.791	0.070	-0.166
-334.260	-91.499	-0.317	0.090
-333.245	-94.080	-0.478	-0.130
-332.231	-72.447	0.128	-0.047
-331.216	-109.335	0.029	-0.006
-330.202	-200.000	0.000	0.127
-329.187	46.351	-0.255	0.235
-328.172	-147.135	-0.138	0.012
-327.158	-23.467	0.028	0.017
-326.143	-37.107	-0.309	0.164
-325.129	-200.000	0.006	0.041
-324.114	-52.950	-0.191	-0.087
-323.099	-200.000	0.136	0.615
-322.085	800.000	-0.069	-0.193
-321.070	51.328	-0.197	0.186
-320.056	-154.262	-0.177	0.012
-319.041	416.445	-0.032	0.067
-318.026	-200.000	0.112	0.706
-317.012	-54.394	-0.130	-0.058
-315.997	2.680	0.296	-0.213
-314.983	800.000	-0.070	-0.260
-313.968	88.607	0.308	-0.340
-312.953	-200.000	-0.010	-0.309
-311.939	65.072	-0.147	-0.147
-310.924	49.442	-0.072	0.068
-309.910	-200.000	0.020	0.120
-308.895	-40.214	-0.131	0.068
-307.880	-193.620	0.315	-0.003
-306.866	243.018	0.144	-0.240
-305.851	-155.579	-0.279	-0.018
-304.837	630.395	-0.084	0.212
-303.822	-96.230	0.320	0.084
-302.807	-172.894	0.275	-0.008
-301.793	177.819	-0.117	0.169
-300.778	-200.000	0.028	-0.124
-299.764	-87.071	-0.227	-0.069
-298.749	-200.000	-0.037	0.171
-297.735	55.937	-0.263	0.253
-296.720	-200.000	-0.012	0.055
-295.705	-8.509	0.194	0.129
-294.691	-79.953	0.077	0.026
-293.676	-60.449	-0.344	-0.145
-292.662	9.379	-0.017	0.012
-291.647	3.206	0.341	0.246
-290.632	54.633	-0.172	0.165
-289.618	-200.000	0.023	0.236
-288.603	-72.945	0.048	0.017
-287.589	228.053	0.031	-0.051
-286.574	-109.502	-0.048	0.010
-285.559	477.041	0.025	-0.057
-284.545	38.389	-0.133	0.118
-283.530	335.599	-0.176	-0.339
-282.516	-108.978	0.192	-0.041
-281.501	15.349	-0.126	-0.098
-280.486	11.863	0.143	0.109
-279.472	800.000	0.019	0.052
-278.457	-117.445	-0.435	-0.078
-277.443	46.460	-0.183	-0.169
-276.428	683.639	0.065	0.168
-275.413	-66.606	-0.075	0.029
-274.399	70.383	-0.080	-0.082
-273.384	534.154	-0.008	-0.018
-272.370	132.533	0.202	0.259
-271.355	-35.942	0.411	0.221
-270.340	-59.982	0.194	-0.082
-269.326	115.658	-0.188	-0.228
-268.311	51.223	0.260	-0.245
-267.297	-40.904	-0.398	0.204
-266.282	-200.000	-0.050	-0.531
-265.267	585.817	0.118	-0.289
-264.253	-61.218	0.178	0.074
-263.238	-98.413	-0.217	-0.055
-262.224	111.105	0.186	0.222
-261.209	15.968	0.292	0.228
-260.195	266.109	0.109	0.189
-259.180	279.630	0.028	0.050
-258.165	-200.000	0.007	0.148
-257.151	170.953	0.228	-0.324
-256.136	-200.000	0.053	-0.340
-255.122	-157.689	-0.106	-0.006
-254.107	800.000	-0.107	0.337
-253.092	800.000	-0.088	-0.320
-252.078	75.157	0.119	-0.124
-251.063	22.088	-0.182	0.147
-250.049	-200.000	-0.025	0.161
-249.034	152.699	-0.082	0.112
-248.019	-106.266	0.082	0.018
-247.005	-42.764	-0.129	0.065
-245.990	-52.284	0.115	-0.053
-244.976	350.975	-0.149	-0.292
-243.961	225.195	-0.175	0.280
-242.946	273.331	-0.113	-0.198
-241.932	800.000	-0.076	-0.290
-240.917	800.000	-0.049	0.148
-239.903	-14.423	-0.246	-0.157
-238.888	-25.550	-0.232	0.136
-237.873	-138.066	0.181	-0.020
-236.859	72.164	-0.084	-0.086
-235.844	-76.722	-0.126	-0.044
-234.830	18.141	0.163	0.129
-233.815	-30.116	0.251	0.142
-232.800	-52.271	-0.127	-0.058
-231.786	-200.000	-0.019	0.108
-230.771	112.786	-0.253	0.304
-229.757	-200.000	-0.006	-0.081
-228.742	-197.090	0.094	-0.001
-227.727	52.485	0.036	-0.034
-226.713	-101.385	0.081	0.019
-225.698	800.000	0.137	0.423
-224.684	-66.685	-0.205	0.080
-223.669	800.000	-0.075	0.228
-222.655	-200.000	-0.030	0.399
-221.640	800.000	0.132	0.390
-220.625	800.000	0.133	0.405
-219.611	569.339	0.073	-0.175
-218.596	479.359	-0.142	0.318
-217.582	-152.419	0.084	-0.006
-216.567	216.480	-0.146	0.230
-215.552	-103.559	-0.259	0.060
-214.538	-114.751	-0.400	-0.076
-213.523	26.939	0.224	-0.185
-212.509	800.000	-0.106	-0.374
-211.494	-200.000	0.000	-0.251
-210.479	-200.000	-0.000	-0.187
-209.465	-152.584	0.185	-0.013
-208.450	59.852	-0.060	0.059
-207.436	-57.238	0.217	0.094
-206.421	800.000	0.039	0.112
-205.406	69.541	0.161	0.164
-204.392	88.142	-0.124	-0.136
-203.377	153.222	-0.061	0.083
-202.363	-179.114	-0.268	-0.006
-201.348	-103.165	0.251	-0.059
-200.333	192.528	-0.153	0.228
-199.319	-88.213	0.170	0.050
-198.304	724.348	0.073	0.192
-197.290	454.024	0.079	-0.173
-196.275	800.000	0.066	-0.253
-195.260	-102.590	0.290	-0.068
-194.246	-39.561	0.342	0.177
-193.231	-126.812	0.295	0.043
-192.217	-84.470	-0.158	-0.049
-191.202	145.325	0.056	-0.074
-190.187	-200.000	-0.005	0.035
-189.173	-67.420	0.263	0.102
-188.158	-96.748	-0.225	-0.059
-187.144	800.000	0.078	0.231
-186.129	-144.769	0.092	0.008
-185.114	-200.000	0.000	-0.045
-184.100	-54.611	-0.093	0.042
-183.085	3.078	-0.065	-0.047
-182.071	-90.070	0.098	-0.028
-181.056	63.201	-0.199	0.197
-180.042	75.426	0.063	0.066
-179.027	123.842	0.133	-0.165
-178.012	385.478	0.080	-0.163
-176.998	219.607	-0.097	-0.153
-175.983	-99.113	0.317	0.079
-174.969	-80.498	-0.131	-0.043
-173.954	-200.000	0.012	-0.173
-172.939	-200.000	-0.030	-0.456
-171.925	-200.000	-0.014	-0.268
-170.910	800.000	-0.121	-0.383
-169.896	-200.000	0.029	0.297
-168.881	-54.678	-0.082	-0.037
-167.866	196.334	0.177	-0.266
-166.852	-39.451	0.235	0.122
-165.837	-80.145	0.177	-0.059
-164.823	-114.888	0.235	-0.044
-163.808	33.279	0.141	-0.121
-162.793	-64.743	-0.237	0.095
-161.779	-200.000	0.064	0.294
-160.764	22.412	0.249	0.201
-159.750	-200.000	-0.083	0.377
-158.735	-72.150	-0.243	0.089
-157.720	-92.322	0.137	0.038
-156.706	800.000	-0.047	-0.203
-155.691	-42.422	-0.177	0.089
-154.677	-27.554	-0.476	0.273
-153.662	-80.442	0.251	0.083
-152.647	-16.196	0.213	0.134
-151.633	-200.000	-0.013	0.211
-150.618	-59.227	0.320	0.136
-149.604	91.410	0.228	0.253
-148.589	-79.784	0.134	0.045
-147.574	-30.182	0.200	-0.112
-146.560	-130.939	0.204	-0.027
-145.545	-39.760	0.169	0.087
-144.531	73.978	-0.190	0.196
-143.516	2.745	0.187	0.134
-142.502	-142.010	-0.062	-0.006
-141.487	-200.000	0.006	-0.097
-140.472	259.228	0.172	-0.294
-139.458	536.175	-0.113	-0.266
-138.443	462.887	-0.055	-0.121
-137.429	-1.992	-0.115	-0.080
-136.414	-133.189	-0.363	0.045
-135.399	83.476	0.243	0.262
-134.385	155.229	-0.089	0.120
-133.370	300.062	-0.068	0.123
-132.356	448.410	0.079	0.172
-131.341	-200.000	0.015	0.072
-130.326	-200.000	-0.038	-0.208
-129.312	-98.871	-0.304	0.076
-128.297	-35.214	0.329	-0.177
-127.283	-200.000	-0.056	-0.255
-126.268	66.216	0.084	-0.084
-125.253	800.000	-0.052	0.156
-124.239	-200.000	-0.036	-0.169
-123.224	-171.564	-0.141	0.005
-122.210	-81.180	0.177	-0.058
-121.195	-189.217	0.203	-0.002
