DTS Sentinel unit serial number:	SN413079Multiplexer serial number:	ORYXHardware model number:	OX4-SRSoftware version number:	ORYX F/W v4.00 Oryx Data Collector v3.7.2.0data status	okinstallation	princeton_trtdifferential loss correction	single-endedforward channel	channel 1reverse channel	N/Adate	2019/09/18time	07:02:35forward acquisition time	60.00reverse acquisition time	0.00gamma	496.2192k internal	0.2340k external	0.2340temperature offset calibration	0.9980default loss term (dB/km)	0.3790temperature slope calibration	1.0000multiplexer offset coefficient	1.0000multiplexer slope coefficient	1.0000fibre end	0.00T internal ref (°C)	23.19T ext. ref 1 (°C)	0.19T ext. ref 2 (°C)	17.13length (m)	temperature (°C)	Stokes	anti-Stokes-747.200	262.128	0.120	0.208
-746.185	-22.297	-0.333	0.203
-745.171	500.034	0.136	0.315
-744.156	-109.715	-0.240	-0.051
-743.142	-101.481	0.025	-0.006
-742.127	800.000	0.106	0.314
-741.112	-14.262	-0.076	-0.049
-740.098	17.012	-0.122	-0.097
-739.083	-15.482	-0.418	-0.268
-738.069	247.378	-0.084	0.143
-737.054	-200.000	0.044	0.240
-736.039	17.631	-0.300	0.239
-735.025	155.786	-0.129	-0.178
-734.010	505.491	0.076	-0.177
-732.996	154.966	-0.071	-0.098
-731.981	-33.964	0.330	-0.182
-730.966	-73.933	-0.224	-0.082
-729.952	90.398	0.208	-0.234
-728.937	-109.852	-0.414	-0.087
-727.923	-82.672	-0.116	0.038
-726.908	26.516	-0.239	-0.200
-725.894	444.823	0.009	-0.021
-724.879	493.495	-0.095	-0.218
-723.864	-118.360	-0.285	0.051
-722.850	-143.240	0.135	-0.013
-721.835	-69.738	-0.144	-0.055
-720.821	-171.249	-0.164	0.006
-719.806	-61.325	-0.051	-0.022
-718.791	800.000	0.085	-0.244
-717.777	85.666	0.085	0.094
-716.762	-123.217	0.067	-0.011
-715.748	48.557	-0.131	0.123
-714.733	276.395	0.090	0.160
-713.718	95.296	0.145	0.166
-712.704	-200.000	-0.004	0.060
-711.689	-42.802	0.113	-0.057
-710.675	-124.353	-0.125	0.020
-709.660	426.818	0.107	-0.231
-708.645	-6.064	-0.210	-0.144
-707.631	-22.646	0.296	-0.179
-706.616	671.989	0.027	0.069
-705.602	57.145	-0.083	-0.081
-704.587	129.977	-0.105	-0.134
-703.572	618.411	0.004	-0.009
-702.558	-200.000	0.065	-0.342
-701.543	-33.424	0.114	0.063
-700.529	571.736	-0.097	-0.236
-699.514	259.772	-0.150	-0.259
-698.499	-200.000	-0.007	-0.154
-697.485	-25.655	-0.179	-0.106
-696.470	384.874	0.142	-0.292
-695.456	-200.000	0.001	-0.031
-694.441	-173.710	0.120	0.004
-693.426	132.337	0.120	0.155
-692.412	800.000	-0.033	-0.127
-691.397	-41.370	-0.345	0.178
-690.383	524.849	-0.103	0.243
-689.368	-58.925	0.180	0.078
-688.354	-200.000	-0.030	0.245
-687.339	-200.000	-0.010	0.190
-686.324	-200.000	0.019	0.379
-685.310	-20.990	-0.255	-0.156
-684.295	-200.000	-0.002	0.188
-683.281	-86.883	0.129	-0.039
-682.266	784.066	-0.127	0.348
-681.251	-7.349	0.377	-0.255
-680.237	290.993	-0.116	-0.210
-679.222	370.768	0.127	-0.257
-678.208	723.668	-0.121	0.323
-677.193	-178.178	0.171	-0.004
-676.178	141.473	0.275	-0.364
-675.164	-200.000	0.004	-0.102
-674.149	105.138	-0.095	0.112
-673.135	517.404	-0.078	0.183
-672.120	0.644	0.305	0.218
-671.105	-98.289	-0.296	0.076
-670.091	-98.192	0.135	0.035
-669.076	-6.472	0.232	-0.158
-668.062	-200.000	0.028	0.151
-667.047	-45.887	-0.165	0.081
-666.032	-72.741	0.135	0.050
-665.018	-200.000	-0.007	0.445
-664.003	800.000	-0.032	-0.117
-662.989	-200.000	0.027	0.164
-661.974	800.000	0.009	-0.026
-660.959	-200.000	-0.034	-0.151
-659.945	-166.617	0.233	0.010
-658.930	542.609	0.125	0.298
-657.916	207.324	0.105	-0.164
-656.901	-86.025	-0.024	-0.007
-655.886	451.902	0.024	-0.054
-654.872	-200.000	-0.004	-0.104
-653.857	-200.000	0.126	-0.000
-652.843	-161.657	-0.288	-0.015
-651.828	-21.525	0.147	0.089
-650.814	288.434	-0.217	0.393
-649.799	238.150	0.160	0.266
-648.784	-200.000	0.038	0.262
-647.770	-1.850	-0.173	-0.122
-646.755	710.161	0.118	0.313
-645.741	-171.547	0.044	-0.001
-644.726	29.197	-0.129	-0.109
-643.711	-139.526	0.117	0.012
-642.697	126.002	-0.128	-0.161
-641.682	-102.078	0.095	-0.023
-640.668	-200.000	-0.009	0.225
-639.653	-8.991	-0.156	0.104
-638.638	800.000	0.075	0.224
-637.624	144.096	-0.034	0.045
-636.609	357.006	0.057	0.114
-635.595	-200.000	0.067	0.435
-634.580	-112.623	0.141	0.028
-633.565	800.000	-0.112	0.344
-632.551	-148.151	-0.360	-0.030
-631.536	62.152	0.230	-0.229
-630.522	284.731	0.025	0.046
-629.507	123.437	0.105	-0.132
-628.492	471.546	0.080	0.181
-627.478	-200.000	0.026	0.146
-626.463	118.355	-0.246	-0.303
-625.449	-20.388	-0.148	0.091
-624.434	440.167	-0.113	0.247
-623.419	-174.824	-0.326	-0.009
-622.405	-54.587	0.066	-0.030
-621.390	-130.291	-0.447	-0.061
-620.376	598.875	-0.139	-0.344
-619.361	-77.067	-0.269	0.093
-618.346	-200.000	0.041	0.229
-617.332	-160.506	-0.211	-0.011
-616.317	461.270	0.040	-0.089
-615.303	-200.000	-0.050	-0.253
-614.288	-200.000	-0.008	-0.236
-613.273	-116.620	0.037	0.007
-612.259	666.106	0.065	-0.168
-611.244	46.853	-0.211	-0.196
-610.230	-58.295	-0.097	0.042
-609.215	-200.000	0.020	-0.338
-608.201	-26.992	0.226	0.131
-607.186	30.797	0.150	0.128
-606.171	-28.091	-0.150	-0.086
-605.157	-0.221	0.298	-0.211
-604.142	62.004	0.388	-0.386
-603.128	800.000	0.032	-0.122
-602.113	459.653	0.013	-0.030
-601.098	391.394	0.108	0.224
-600.084	-65.719	0.282	-0.113
-599.069	-200.000	-0.037	-0.424
-598.055	-200.000	-0.040	-0.433
-597.040	-40.043	-0.325	0.169
-596.025	-93.505	0.259	0.071
-595.011	800.000	-0.006	-0.025
-593.996	180.461	-0.140	-0.205
-592.982	-200.000	-0.034	-0.364
-591.967	-200.000	0.057	-0.468
-590.952	476.052	0.015	-0.035
-589.938	-49.530	-0.161	-0.077
-588.923	-200.000	-0.011	0.145
-587.909	62.644	-0.043	-0.043
-586.894	-200.000	-0.036	-0.179
-585.879	48.515	0.294	-0.274
-584.865	131.531	0.188	-0.241
-583.850	-81.372	-0.137	-0.045
-582.836	703.847	-0.122	0.319
-581.821	-200.000	-0.046	-0.375
-580.806	49.436	0.234	-0.219
-579.792	-200.000	0.039	0.398
-578.777	-200.000	-0.010	-0.440
-577.763	78.349	-0.118	0.125
-576.748	-40.592	-0.109	0.057
-575.733	-28.757	-0.263	-0.151
-574.719	-182.580	0.066	0.001
-573.704	-200.000	-0.037	0.265
-572.690	724.368	0.094	-0.248
-571.675	-179.185	-0.052	0.001
-570.661	-200.000	-0.067	0.317
-569.646	11.974	-0.280	-0.215
-568.631	-110.659	-0.153	0.031
-567.617	-200.000	-0.066	-0.299
-566.602	-200.000	-0.011	0.202
-565.588	299.932	0.085	0.156
-564.573	12.222	-0.017	0.013
-563.558	-156.414	0.305	0.019
-562.544	-200.000	0.046	-0.336
-561.529	-100.373	0.064	0.016
-560.515	39.098	-0.217	0.193
-559.500	620.213	-0.114	0.285
-558.485	-40.115	-0.174	0.090
-557.471	13.431	-0.190	-0.147
-556.456	31.578	-0.091	0.078
-555.442	800.000	0.053	0.222
-554.427	800.000	0.057	0.182
-553.412	-45.760	-0.326	-0.160
-552.398	-200.000	-0.012	0.100
-551.383	-49.572	-0.223	0.106
-550.369	-32.320	-0.062	-0.034
-549.354	334.188	-0.129	-0.248
-548.339	-97.167	-0.413	-0.107
-547.325	-200.000	0.000	0.143
-546.310	732.344	-0.067	-0.179
-545.296	46.166	-0.074	-0.068
-544.281	43.078	-0.080	-0.073
-543.266	-97.774	0.189	0.049
-542.252	-5.134	-0.107	0.073
-541.237	-200.000	-0.001	-0.181
-540.223	-34.481	-0.178	-0.097
-539.208	-98.943	-0.253	0.064
-538.193	-42.897	0.248	0.125
-537.179	136.312	0.080	-0.103
-536.164	-13.411	0.279	0.180
-535.150	-153.132	-0.202	-0.014
-534.135	-180.156	0.154	-0.003
-533.121	800.000	-0.055	-0.155
-532.106	-86.773	0.241	-0.073
-531.091	3.381	0.341	-0.247
-530.077	-144.907	-0.035	0.003
-529.062	484.279	-0.014	0.032
-528.048	-200.000	-0.018	0.085
-527.033	649.913	0.169	0.431
-526.018	188.225	-0.164	-0.243
-525.004	-126.309	0.424	0.063
-523.989	108.380	-0.215	0.255
-522.975	142.279	-0.183	0.241
-521.960	800.000	0.037	-0.102
-520.945	-19.776	0.135	-0.083
-519.931	161.790	0.169	0.235
-518.916	461.248	-0.066	0.147
-517.902	77.737	0.202	0.213
-516.887	345.897	-0.199	-0.388
-515.872	-69.262	0.209	-0.080
-514.858	-200.000	0.041	0.421
-513.843	0.233	0.103	-0.073
-512.829	-151.250	0.302	-0.022
-511.814	126.170	0.133	-0.167
-510.799	170.094	0.210	-0.299
-509.785	-101.488	0.098	0.024
-508.770	-200.000	-0.012	0.117
-507.756	96.047	-0.229	-0.259
-506.741	50.593	0.283	-0.266
-505.726	-126.395	0.097	0.014
-504.712	70.726	0.180	0.185
-503.697	-42.088	0.256	-0.130
-502.683	-184.621	-0.128	0.002
-501.668	-113.609	0.135	-0.026
-500.653	-133.820	0.236	0.029
-499.639	-191.307	-0.261	-0.003
-498.624	-200.000	0.044	0.262
-497.610	-140.095	0.183	0.019
-496.595	-200.000	-0.010	0.062
-495.581	-137.529	0.258	-0.029
-494.566	471.275	-0.094	-0.209
-493.551	53.957	-0.217	-0.207
-492.537	412.050	0.049	-0.103
-491.522	9.484	0.387	-0.291
-490.508	120.921	0.087	0.107
-489.493	42.888	-0.237	-0.214
-488.478	-129.618	0.174	-0.024
-487.464	-102.049	0.352	0.084
-486.449	-10.172	-0.144	0.095
-485.435	147.864	0.130	0.174
-484.420	-86.592	-0.220	-0.067
-483.405	-118.465	0.052	0.009
-482.391	89.364	-0.196	0.217
-481.376	-200.000	0.053	0.286
-480.362	128.315	0.137	-0.173
-479.347	83.651	-0.053	0.058
-478.332	6.573	-0.047	0.034
-477.318	-185.911	0.112	0.002
-476.303	-200.000	0.023	-0.269
-475.289	-200.000	-0.017	0.093
-474.274	84.288	-0.072	-0.078
-473.259	-13.654	-0.277	-0.178
-472.245	-73.825	-0.186	-0.067
-471.230	-1.935	0.302	-0.211
-470.216	-72.265	0.164	0.060
-469.201	-200.000	-0.021	0.126
-468.186	-99.510	-0.068	0.017
-467.172	-200.000	0.044	0.249
-466.157	-34.456	0.107	0.058
-465.143	-77.164	-0.207	0.071
-464.128	-127.855	-0.345	0.049
-463.113	-137.886	0.205	0.023
-462.099	-156.651	0.123	0.008
-461.084	525.578	-0.064	-0.150
-460.070	-18.802	-0.139	0.086
-459.055	-24.090	-0.424	-0.251
-458.040	-60.458	-0.184	0.077
-457.026	-185.726	-0.091	0.001
-456.011	-130.121	0.307	0.042
-454.997	327.710	0.065	0.123
-453.982	-22.112	0.238	0.143
-452.968	161.956	-0.229	0.317
-451.953	-129.895	-0.210	-0.029
-450.938	-83.984	0.343	-0.108
-449.924	-200.000	0.045	-0.202
-448.909	63.486	0.284	-0.283
-447.895	-120.031	-0.103	0.017
-446.880	72.978	-0.312	0.323
-445.865	82.011	0.178	-0.191
-444.851	-200.000	-0.013	-0.124
-443.836	190.020	0.015	0.022
-442.822	-125.932	0.192	-0.029
-441.807	235.056	-0.102	-0.167
-440.792	-84.873	0.181	0.056
-439.778	800.000	-0.079	-0.278
-438.763	800.000	0.076	-0.216
-437.749	800.000	0.093	-0.364
-436.734	265.456	-0.122	0.211
-435.719	41.890	-0.140	-0.126
-434.705	133.747	0.165	0.212
-433.690	360.473	-0.075	-0.148
-432.676	63.176	-0.306	0.304
-431.661	-48.727	0.116	0.055
-430.646	374.734	-0.118	0.237
-429.632	-70.942	0.401	0.150
-428.617	-90.570	-0.217	0.062
-427.603	-132.233	-0.110	0.014
-426.588	68.339	0.096	-0.097
-425.573	22.896	-0.302	-0.245
-424.559	800.000	-0.040	-0.163
-423.544	363.952	0.088	-0.175
-422.530	-72.863	0.333	0.121
-421.515	-99.672	-0.201	0.050
-420.500	-43.295	-0.266	-0.133
-419.486	-200.000	0.044	0.430
-418.471	-90.060	-0.425	-0.123
-417.457	-200.000	0.024	0.274
-416.442	67.510	0.191	0.193
-415.428	535.444	0.032	-0.075
-414.413	-80.080	-0.141	0.047
-413.398	800.000	-0.048	0.139
-412.384	800.000	0.111	0.325
-411.369	-112.383	0.216	0.043
-410.355	-107.371	-0.239	-0.052
-409.340	72.846	0.245	0.253
-408.325	-200.000	0.019	0.207
-407.311	114.460	-0.064	-0.077
-406.296	438.854	-0.188	-0.407
-405.282	94.069	-0.220	-0.247
-404.267	-173.695	-0.130	-0.004
-403.252	548.902	0.035	-0.083
-402.238	751.370	0.088	-0.236
-401.223	148.938	-0.258	0.345
-400.209	800.000	-0.093	-0.310
-399.194	26.640	-0.180	-0.149
-398.179	126.552	0.070	0.088
-397.165	398.312	-0.153	0.318
-396.150	86.496	0.065	-0.070
-395.136	778.661	0.028	-0.075
-394.121	139.406	-0.062	0.081
-393.106	207.209	-0.161	0.248
-392.092	800.000	0.130	0.371
-391.077	-30.095	0.210	0.118
-390.063	-23.139	-0.109	0.065
-389.048	49.393	0.291	0.271
-388.033	-49.805	-0.044	-0.021
-387.019	75.643	0.284	0.297
-386.004	-45.784	0.227	0.111
-384.990	-200.000	0.037	0.268
-383.975	565.368	0.099	0.238
-382.960	-69.907	0.396	0.149
-381.946	-96.690	0.091	0.024
-380.931	-63.379	0.370	0.150
-379.917	-24.719	0.180	-0.106
-378.902	-137.019	-0.184	-0.021
-377.888	800.000	-0.060	-0.250
-376.873	535.575	-0.094	0.221
-375.858	-200.000	0.029	-0.175
-374.844	-49.331	-0.227	0.107
-373.829	49.834	-0.097	0.090
-372.815	-111.084	0.318	0.064
-371.800	45.988	-0.166	0.151
-370.785	-200.000	0.040	0.193
-369.771	1.536	-0.155	0.110
-368.756	-74.488	-0.126	-0.045
-367.742	-135.661	0.147	-0.017
-366.727	-13.776	-0.209	0.134
-365.712	-86.571	0.245	-0.074
-364.698	114.087	-0.088	-0.106
-363.683	-197.220	0.192	0.001
-362.669	152.068	-0.142	-0.192
-361.654	90.950	-0.252	0.279
-360.639	-120.240	-0.629	-0.106
-359.625	80.221	-0.176	-0.187
-358.610	800.000	0.012	-0.042
-357.596	-154.813	-0.261	0.017
-356.581	-101.711	0.184	0.044
-355.566	-57.389	0.271	0.117
-354.552	800.000	-0.037	0.161
-353.537	-200.000	0.004	0.220
-352.523	52.151	0.218	-0.205
-351.508	84.597	0.129	-0.140
-350.493	-200.000	0.015	0.281
-349.479	-200.000	-0.022	-0.269
-348.464	204.303	0.097	-0.148
-347.450	233.006	-0.057	0.093
-346.435	-43.786	-0.299	0.149
-345.420	427.186	-0.085	0.180
-344.406	-37.015	0.210	-0.111
-343.391	11.646	-0.161	0.122
-342.377	800.000	-0.054	-0.176
-341.362	-48.018	0.043	0.020
-340.348	800.000	-0.085	0.352
-339.333	-57.316	0.243	-0.106
-338.318	743.922	-0.048	0.128
-337.304	-34.078	-0.149	0.081
-336.289	246.758	0.212	-0.353
-335.275	-141.265	-0.104	0.010
-334.260	525.314	-0.078	-0.181
-333.245	-164.222	0.235	-0.011
-332.231	-138.638	-0.468	-0.051
-331.216	-0.719	0.158	-0.111
-330.202	-98.793	-0.319	0.080
-329.187	-123.651	-0.290	-0.045
-328.172	114.261	-0.138	0.166
-327.158	11.423	0.097	-0.073
-326.143	-160.911	-0.195	-0.010
-325.129	105.313	0.343	0.399
-324.114	116.522	0.164	0.199
-323.099	-57.344	-0.065	-0.028
-322.085	93.116	0.174	0.194
-321.070	-152.445	-0.009	0.001
-320.056	800.000	-0.015	-0.065
-319.041	-52.244	-0.218	-0.100
-318.026	271.169	0.070	0.122
-317.012	153.064	0.038	-0.052
-315.997	410.200	-0.139	0.290
-314.983	89.946	-0.139	-0.153
-313.968	-148.543	-0.210	0.017
-312.953	122.735	-0.115	0.142
-311.939	-59.251	0.095	-0.040
-310.924	-200.000	-0.034	0.219
-309.910	274.963	0.085	-0.149
-308.895	712.530	-0.050	0.130
-307.880	112.597	0.207	-0.247
-306.866	-69.541	-0.125	-0.047
-305.851	131.036	-0.073	0.092
-304.837	89.925	-0.061	-0.067
-303.822	225.243	-0.040	0.064
-302.807	-130.646	-0.066	0.009
-301.793	-124.875	0.131	-0.020
-300.778	-120.981	0.172	0.029
-299.764	151.329	-0.076	0.102
-298.749	13.549	0.118	-0.090
-297.735	105.101	0.113	0.132
-296.720	-31.827	0.079	0.044
-295.705	33.624	-0.083	0.071
-294.691	62.754	-0.106	0.104
-293.676	455.817	-0.080	0.175
-292.662	-90.371	-0.175	-0.050
-291.647	-74.850	-0.327	-0.116
-290.632	33.161	0.243	0.208
-289.618	387.947	0.074	-0.151
-288.603	-3.144	0.156	-0.107
-287.589	-167.598	0.158	0.006
-286.574	-110.839	0.320	0.065
-285.559	501.570	-0.168	0.383
-284.545	-52.505	0.141	0.064
-283.530	58.467	-0.159	-0.153
-282.516	-31.849	-0.285	-0.157
-281.501	270.661	0.101	0.174
-280.486	66.786	0.233	-0.233
-279.472	-130.061	-0.197	0.027
-278.457	225.258	-0.013	-0.020
-277.443	70.627	0.091	-0.093
-276.428	-200.000	-0.009	-0.087
-275.413	67.152	-0.064	0.065
-274.399	121.269	0.047	-0.058
-273.384	16.294	0.282	0.219
-272.370	-101.204	0.155	-0.037
-271.355	-200.000	-0.034	-0.289
-270.340	-200.000	-0.046	-0.227
-269.326	-200.000	-0.007	0.053
-268.311	800.000	-0.092	0.367
-267.297	-200.000	0.063	-0.375
-266.282	800.000	-0.064	0.258
-265.267	-200.000	-0.031	0.441
-264.253	-88.601	-0.432	0.127
-263.238	-2.024	-0.293	0.203
-262.224	-95.067	-0.103	-0.027
-261.209	272.435	-0.073	-0.126
-260.195	-19.466	0.324	-0.197
-259.180	-154.387	-0.207	-0.014
-258.165	75.205	-0.165	0.172
-257.151	-150.440	0.079	-0.006
-256.136	-200.000	0.024	0.138
-255.122	-200.000	0.034	-0.307
-254.107	163.501	-0.165	-0.229
-253.092	95.065	0.113	-0.127
-252.078	577.442	-0.022	0.054
-251.063	-39.362	0.093	0.048
-250.049	76.567	0.154	-0.161
-249.034	126.663	0.095	0.118
-248.019	-116.488	-0.141	-0.026
-247.005	800.000	-0.069	0.198
-245.990	-122.588	-0.602	-0.096
-244.976	-33.366	0.318	-0.173
-243.961	467.653	-0.190	0.418
-242.946	162.799	-0.134	0.186
-241.932	-46.476	-0.063	-0.031
-240.917	641.188	-0.128	-0.321
-239.903	439.760	0.096	0.206
-238.888	224.824	0.096	-0.153
-237.873	-200.000	-0.035	0.255
-236.859	406.419	0.151	-0.314
-235.844	-200.000	-0.015	0.070
-234.830	800.000	0.051	0.144
-233.815	-200.000	-0.025	0.141
-232.800	-18.638	0.290	0.178
-231.786	-26.941	0.206	0.118
-230.771	63.596	-0.082	0.081
-229.757	-200.000	0.035	0.257
-228.742	-121.709	-0.363	0.059
-227.727	-0.854	-0.299	-0.208
-226.713	800.000	0.069	-0.293
-225.698	800.000	0.072	-0.230
-224.684	423.424	0.169	-0.356
-223.669	-104.871	-0.189	-0.043
-222.655	-83.396	0.027	-0.009
-221.640	-200.000	-0.029	0.246
-220.625	-55.866	0.131	-0.057
-219.611	-200.000	-0.004	0.353
-218.596	287.112	0.068	0.121
-217.582	263.434	0.155	0.265
-216.567	484.343	-0.042	-0.094
-215.552	311.005	0.062	0.114
-214.538	3.642	-0.067	-0.048
-213.523	44.144	0.062	0.056
-212.509	166.830	0.242	0.337
-211.494	429.120	0.163	-0.347
-210.479	-7.504	0.111	-0.074
-209.465	-200.000	0.035	-0.275
-208.450	114.456	0.112	-0.134
-207.436	76.418	-0.163	-0.169
-206.421	103.307	0.139	-0.160
-205.406	162.076	-0.153	0.211
-204.392	-124.844	0.108	0.016
-203.377	572.560	0.139	0.333
-202.363	-122.568	0.090	-0.014
-201.348	800.000	0.058	-0.241
-200.333	-167.885	-0.207	0.008
-199.319	12.992	-0.251	-0.190
-198.304	-200.000	0.073	-0.552
-197.290	-64.951	0.275	0.109
-196.275	-43.007	-0.305	-0.152
-195.260	-200.000	0.059	-0.280
-194.246	127.678	0.039	0.049
-193.231	3.484	0.362	-0.259
-192.217	403.161	0.100	0.207
-191.202	-200.000	-0.047	-0.291
-190.187	86.214	-0.108	-0.117
-189.173	111.494	-0.070	-0.083
-188.158	51.190	-0.264	-0.246
-187.144	26.846	-0.025	0.020
-186.129	-75.215	0.281	-0.098
-185.114	-200.000	-0.063	-0.270
-184.100	-126.277	-0.175	0.026
-183.085	-50.394	0.158	0.073
-182.071	336.021	0.101	0.191
-181.056	-127.286	-0.243	-0.035
-180.042	-124.849	0.181	-0.027
-179.027	-12.998	0.188	-0.120
-178.012	150.251	-0.184	0.245
-176.998	115.490	-0.126	-0.152
-175.983	800.000	-0.059	-0.187
-174.969	144.519	0.154	-0.202
-173.954	800.000	0.065	-0.187
-172.939	800.000	-0.089	-0.281
-171.925	611.684	0.041	-0.100
-170.910	-67.004	0.206	-0.080
-169.896	-200.000	0.008	-0.172
-168.881	-179.644	0.250	-0.005
-167.866	706.848	-0.036	-0.093
-166.852	-129.435	0.170	0.023
-165.837	12.599	0.328	0.248
-164.823	20.510	-0.013	-0.010
-163.808	-115.986	0.178	-0.033
-162.793	-200.000	0.020	-0.125
-161.779	108.385	0.123	0.143
-160.764	-164.635	0.184	0.008
-159.750	-200.000	-0.026	0.243
-158.735	-71.274	0.188	-0.069
-157.720	194.746	-0.152	0.226
-156.706	377.010	0.138	0.276
-155.691	-40.147	-0.189	0.096
-154.677	-133.981	0.053	0.006
-153.662	800.000	-0.028	0.108
-152.647	-200.000	0.020	0.090
-151.633	-17.570	0.139	-0.086
-150.618	-25.506	-0.054	-0.031
-149.604	-132.064	0.214	0.027
-148.589	513.955	-0.072	-0.165
-147.574	-200.000	0.304	-0.001
-146.560	-82.600	0.277	-0.088
-145.545	300.958	0.205	0.370
-144.531	20.773	0.379	-0.300
-143.516	-77.564	0.120	0.041
-142.502	134.058	-0.182	-0.231
-141.487	201.468	-0.094	-0.142
-140.472	-20.277	-0.064	-0.039
-139.458	195.340	-0.105	-0.157
-138.443	-200.000	-0.013	-0.250
-137.429	40.689	0.052	0.046
-136.414	800.000	-0.036	-0.131
-135.399	27.254	0.353	0.290
-134.385	-12.267	0.351	0.225
-133.370	195.553	-0.028	-0.041
-132.356	247.436	-0.063	0.103
-131.341	100.224	0.187	-0.212
-130.326	-200.000	-0.064	0.296
-129.312	-67.663	0.296	0.114
-128.297	-200.000	-0.071	0.323
-127.283	-130.361	-0.271	-0.036
-126.268	83.329	0.280	0.299
-125.253	29.421	-0.170	0.141
-124.239	-31.057	-0.158	-0.087
-123.224	-76.655	0.316	-0.108
-122.210	-130.651	0.187	-0.025
