DTS Sentinel unit serial number:	SN413079Multiplexer serial number:	ORYXHardware model number:	OX4-SRSoftware version number:	ORYX F/W v4.00 Oryx Data Collector v3.7.2.0data status	okinstallation	princeton_trtdifferential loss correction	single-endedforward channel	channel 1reverse channel	N/Adate	2019/09/18time	06:06:35forward acquisition time	60.00reverse acquisition time	0.00gamma	496.2192k internal	0.2339k external	0.2339temperature offset calibration	0.9980default loss term (dB/km)	0.3790temperature slope calibration	1.0000multiplexer offset coefficient	1.0000multiplexer slope coefficient	1.0000fibre end	0.00T internal ref (°C)	23.19T ext. ref 1 (°C)	0.19T ext. ref 2 (°C)	17.61length (m)	temperature (°C)	Stokes	anti-Stokes-747.200	-44.613	0.142	0.071
-746.185	-73.852	-0.248	0.090
-745.171	-124.867	0.210	0.032
-744.156	-200.000	-0.003	0.399
-743.142	-123.058	-0.229	0.037
-742.127	-5.579	-0.081	-0.056
-741.112	-102.808	0.156	0.037
-740.098	-48.330	0.101	0.049
-739.083	-135.975	-0.094	-0.011
-738.069	-186.995	-0.109	0.002
-737.054	-133.423	-0.136	-0.017
-736.039	34.420	-0.309	0.270
-735.025	-118.758	0.100	0.018
-734.010	800.000	0.055	-0.183
-732.996	-27.727	-0.191	-0.111
-731.981	-140.192	0.170	0.018
-730.966	-56.429	-0.310	-0.138
-729.952	800.000	-0.013	-0.042
-728.937	57.514	-0.219	-0.214
-727.923	330.966	0.184	-0.355
-726.908	-82.474	0.142	-0.046
-725.894	-77.277	-0.420	-0.146
-724.879	-200.000	-0.001	0.208
-723.864	323.533	-0.159	0.304
-722.850	800.000	-0.097	0.332
-721.835	-107.355	-0.175	0.039
-720.821	78.292	-0.201	-0.215
-719.806	192.157	-0.238	-0.359
-718.791	-200.000	-0.174	0.000
-717.777	-194.905	0.208	-0.002
-716.762	-200.000	-0.002	-0.159
-715.748	-200.000	-0.039	0.196
-714.733	-1.329	0.124	0.088
-713.718	-113.265	-0.199	0.039
-712.704	-74.272	0.235	-0.085
-711.689	-16.191	0.089	-0.056
-710.675	52.290	-0.188	-0.179
-709.660	-200.000	-0.013	0.127
-708.645	-96.225	-0.118	0.031
-707.631	24.106	0.192	0.158
-706.616	425.494	0.029	-0.062
-705.602	800.000	-0.140	-0.407
-704.587	-69.469	-0.328	-0.126
-703.572	95.374	0.266	-0.303
-702.558	247.433	-0.162	-0.275
-701.543	84.133	0.131	-0.143
-700.529	-3.268	0.091	0.063
-699.514	-111.272	0.131	-0.027
-698.499	15.173	-0.093	-0.073
-697.485	-200.000	-0.027	-0.168
-696.470	-5.735	0.076	-0.052
-695.456	-8.243	-0.302	-0.204
-694.441	88.619	0.205	0.229
-693.426	112.484	0.111	-0.134
-692.412	800.000	-0.076	-0.215
-691.397	1.412	-0.063	-0.045
-690.383	-200.000	-0.047	0.214
-689.368	118.623	-0.097	-0.120
-688.354	-33.856	-0.206	-0.113
-687.339	-35.111	0.096	0.052
-686.324	338.852	-0.009	-0.017
-685.310	-16.262	-0.160	-0.102
-684.295	-200.000	-0.025	0.137
-683.281	-116.750	0.346	-0.064
-682.266	-44.077	-0.215	-0.108
-681.251	80.600	-0.154	-0.166
-680.237	52.860	-0.102	-0.097
-679.222	-84.336	0.298	0.094
-678.208	129.387	-0.218	-0.279
-677.193	379.514	0.206	-0.422
-676.178	800.000	-0.046	0.156
-675.164	-131.798	-0.061	-0.008
-674.149	111.784	-0.127	-0.153
-673.135	99.665	-0.122	-0.141
-672.120	65.184	-0.100	-0.101
-671.105	121.483	0.052	-0.065
-670.091	278.350	0.103	0.183
-669.076	56.326	0.016	-0.016
-668.062	-103.314	-0.089	-0.021
-667.047	32.362	0.105	0.091
-666.032	-131.797	0.131	0.017
-665.018	-168.767	0.263	-0.010
-664.003	-200.000	-0.006	0.047
-662.989	492.276	-0.084	0.192
-661.974	229.401	0.148	0.241
-660.959	35.964	-0.029	0.026
-659.945	129.817	-0.147	-0.188
-658.930	5.683	0.184	-0.136
-657.916	708.696	-0.098	0.258
-656.901	-123.751	0.020	0.003
-655.886	25.781	-0.299	0.249
-654.872	-98.574	0.255	0.065
-653.857	18.113	-0.079	-0.063
-652.843	35.810	0.133	-0.117
-651.828	-0.230	-0.200	-0.142
-650.814	-62.786	-0.109	0.045
-649.799	-200.000	-0.018	-0.164
-648.784	-27.183	0.095	0.055
-647.770	-6.950	-0.112	-0.076
-646.755	-171.170	0.184	-0.006
-645.741	642.787	0.044	-0.113
-644.726	112.197	0.036	-0.044
-643.711	-200.000	0.011	0.082
-642.697	-200.000	-0.034	0.388
-641.682	-200.000	-0.000	-0.040
-640.668	113.912	-0.110	0.133
-639.653	294.493	-0.190	-0.347
-638.638	-76.868	-0.076	-0.027
-637.624	-200.000	0.034	0.176
-636.609	130.501	0.204	-0.261
-635.595	525.915	-0.052	-0.121
-634.580	80.274	0.139	-0.149
-633.565	-60.706	-0.269	0.114
-632.551	800.000	0.027	0.106
-631.536	-151.637	0.138	-0.010
-630.522	-134.491	-0.273	0.033
-629.507	-23.341	-0.309	-0.186
-628.492	-101.010	-0.162	0.040
-627.478	121.930	0.144	0.180
-626.463	-94.401	0.206	-0.056
-625.449	-157.333	0.117	0.007
-624.434	-52.060	-0.185	0.086
-623.419	-115.457	-0.105	0.020
-622.405	-183.945	0.131	-0.002
-621.390	98.814	0.017	-0.020
-620.376	-48.522	-0.182	0.087
-619.361	-168.611	0.201	0.008
-618.346	16.070	-0.256	-0.201
-617.332	-22.580	-0.061	-0.037
-616.317	45.695	-0.131	0.121
-615.303	-183.153	-0.199	-0.004
-614.288	182.233	0.131	-0.192
-613.273	800.000	-0.040	0.153
-612.259	-200.000	0.001	-0.046
-611.244	-46.472	0.068	-0.033
-610.230	65.827	0.237	-0.240
-609.215	-36.439	0.204	-0.110
-608.201	800.000	0.153	-0.438
-607.186	-148.083	-0.195	-0.016
-606.171	-151.635	0.379	0.028
-605.157	306.492	-0.132	0.244
-604.142	-200.000	-0.044	-0.201
-603.128	211.380	0.143	0.225
-602.113	21.825	-0.094	0.076
-601.098	44.401	0.119	0.109
-600.084	-200.000	0.032	-0.386
-599.069	298.908	-0.046	-0.084
-598.055	800.000	-0.075	0.309
-597.040	17.383	-0.102	-0.081
-596.025	-41.280	0.077	0.039
-595.011	169.876	-0.232	-0.331
-593.996	-200.000	-0.089	-0.440
-592.982	-6.939	0.209	0.142
-591.967	-41.763	0.394	0.201
-590.952	22.925	-0.302	0.247
-589.938	-130.879	-0.375	-0.050
-588.923	800.000	-0.049	-0.177
-587.909	-22.776	0.032	0.019
-586.894	-200.000	-0.006	0.120
-585.879	589.698	-0.084	0.207
-584.865	-134.544	0.268	0.033
-583.850	800.000	0.107	-0.409
-582.836	302.111	0.137	0.252
-581.821	-16.535	0.121	-0.077
-580.806	-111.873	-0.041	0.008
-579.792	-161.417	-0.070	0.004
-578.777	800.000	0.072	-0.284
-577.763	-78.863	-0.020	0.007
-576.748	61.079	0.070	-0.069
-575.733	800.000	0.114	0.329
-574.719	-200.000	-0.013	-0.226
-573.704	-139.498	-0.301	0.032
-572.690	120.302	0.119	-0.147
-571.675	30.450	0.073	-0.062
-570.661	800.000	-0.119	0.391
-569.646	-200.000	0.004	-0.177
-568.631	800.000	0.057	0.192
-567.617	-200.000	0.030	0.221
-566.602	-103.332	-0.418	0.098
-565.588	-22.265	0.353	-0.213
-564.573	-200.000	-0.038	0.187
-563.558	386.822	0.060	-0.122
-562.544	-122.338	0.220	-0.036
-561.529	-95.866	-0.132	-0.035
-560.515	-59.172	-0.084	-0.036
-559.500	9.896	0.332	0.251
-558.485	359.047	-0.090	0.179
-557.471	-200.000	-0.051	0.288
-556.456	369.777	0.168	0.339
-555.442	-200.000	0.028	0.321
-554.427	800.000	0.074	-0.208
-553.412	-125.601	-0.046	-0.007
-552.398	118.704	0.169	0.208
-551.383	31.444	-0.129	0.110
-550.369	-200.000	-0.006	-0.196
-549.354	-200.000	0.081	0.556
-548.339	43.436	-0.246	0.224
-547.325	-200.000	-0.026	-0.232
-546.310	-2.568	0.081	-0.057
-545.296	223.262	-0.063	0.102
-544.281	-28.064	-0.312	-0.180
-543.266	-10.281	-0.495	-0.327
-542.252	-200.000	0.024	-0.434
-541.237	169.596	-0.084	0.119
-540.223	-54.130	0.278	-0.126
-539.208	-68.575	-0.261	-0.100
-538.193	99.728	0.081	-0.093
-537.179	-200.000	0.200	0.000
-536.164	364.354	-0.134	-0.269
-535.150	30.146	0.143	-0.122
-534.135	22.347	-0.088	0.071
-533.121	-18.057	-0.159	-0.099
-532.106	800.000	0.101	-0.348
-531.091	-200.000	0.012	-0.074
-530.077	-118.875	-0.188	-0.033
-529.062	484.339	-0.136	-0.309
-528.048	-197.569	-0.349	0.002
-527.033	-107.356	0.303	-0.066
-526.018	408.161	0.059	-0.125
-525.004	-200.000	-0.007	-0.402
-523.989	-20.252	-0.140	0.086
-522.975	-146.169	0.327	-0.029
-521.960	-138.046	0.251	0.028
-520.945	83.796	-0.016	0.017
-519.931	800.000	0.051	0.176
-518.916	39.021	0.164	-0.146
-517.902	-76.669	-0.307	0.107
-516.887	-98.143	-0.068	-0.017
-515.872	621.676	-0.156	0.390
-514.858	-48.556	0.063	0.030
-513.843	-79.509	-0.295	-0.099
-512.829	-104.454	-0.055	-0.013
-511.814	199.732	0.065	0.100
-510.799	-6.285	0.248	0.168
-509.785	-5.589	-0.233	0.159
-508.770	-68.680	0.134	0.052
-507.756	-68.268	0.216	0.083
-506.741	-87.949	0.175	-0.052
-505.726	800.000	0.047	0.149
-504.712	-116.077	0.354	-0.065
-503.697	-26.604	-0.377	-0.219
-502.683	-38.793	-0.382	-0.200
-501.668	229.721	-0.107	0.173
-500.653	255.892	-0.053	-0.090
-499.639	89.625	-0.272	-0.301
-498.624	-48.966	0.198	0.094
-497.610	-200.000	-0.006	0.043
-496.595	-51.069	0.099	0.046
-495.581	-102.888	0.314	-0.074
-494.566	-42.358	0.048	0.024
-493.551	-105.260	-0.170	-0.039
-492.537	247.574	-0.176	-0.295
-491.522	800.000	-0.084	-0.266
-490.508	-200.000	0.048	-0.367
-489.493	-64.568	-0.141	-0.057
-488.478	-36.572	-0.103	0.055
-487.464	800.000	0.098	-0.408
-486.449	512.594	-0.073	-0.169
-485.435	-150.705	-0.093	0.007
-484.420	212.959	0.163	-0.256
-483.405	-151.019	-0.187	0.014
-482.391	-45.725	-0.309	0.151
-481.376	247.893	-0.104	0.175
-480.362	-170.256	0.255	0.009
-479.347	-200.000	0.001	-0.417
-478.332	69.178	0.108	-0.110
-477.318	-105.054	0.216	0.049
-476.303	45.747	0.214	-0.196
-475.289	-109.735	-0.262	0.055
-474.274	800.000	0.077	0.248
-473.259	-184.270	0.178	-0.003
-472.245	-40.127	-0.094	0.048
-471.230	-64.758	0.106	0.043
-470.216	58.127	-0.139	-0.135
-469.201	800.000	0.053	-0.154
-468.186	-200.000	0.029	0.439
-467.172	25.891	-0.183	0.151
-466.157	-72.552	-0.101	0.037
-465.143	391.564	0.124	-0.255
-464.128	-200.000	0.062	-0.521
-463.113	-111.908	-0.080	-0.016
-462.099	-200.000	0.020	0.169
-461.084	-53.616	-0.336	0.152
-460.070	800.000	0.075	0.270
-459.055	145.222	0.056	-0.075
-458.040	327.987	0.049	-0.094
-457.026	757.684	-0.110	-0.296
-456.011	236.780	0.062	0.103
-454.997	88.353	0.087	-0.095
-453.982	800.000	-0.040	-0.131
-452.968	-51.385	-0.182	0.085
-451.953	-115.879	0.245	0.045
-450.938	112.119	-0.029	-0.034
-449.924	-97.940	-0.261	0.067
-448.909	-31.369	0.149	-0.083
-447.895	-40.457	-0.397	0.204
-446.880	-117.247	-0.181	-0.033
-445.865	-29.913	0.233	-0.131
-444.851	-116.567	0.035	-0.006
-443.836	268.504	-0.058	-0.101
-442.822	-123.334	-0.120	0.019
-441.807	205.116	0.099	0.152
-440.792	-6.480	-0.174	0.117
-439.778	-200.000	0.018	0.085
-438.763	455.175	0.097	0.212
-437.749	-200.000	-0.000	0.111
-436.734	74.984	-0.201	-0.210
-435.719	-200.000	0.041	0.359
-434.705	800.000	0.054	-0.184
-433.690	-200.000	-0.033	-0.161
-432.676	-137.000	0.332	-0.038
-431.661	-145.667	-0.329	0.029
-430.646	-95.102	0.492	-0.132
-429.632	70.678	-0.054	0.056
-428.617	8.653	-0.142	0.106
-427.603	217.923	0.235	0.371
-426.588	-45.576	0.229	0.112
-425.573	44.038	0.192	-0.174
-424.559	241.738	-0.099	-0.163
-423.544	800.000	-0.083	0.346
-422.530	-200.000	-0.004	-0.093
-421.515	38.869	0.129	-0.114
-420.500	67.519	-0.260	-0.263
-419.486	-110.183	0.168	0.035
-418.471	2.559	-0.211	-0.152
-417.457	541.133	-0.118	-0.279
-416.442	300.611	0.054	-0.098
-415.428	89.809	0.351	-0.387
-414.413	-118.800	0.357	0.062
-413.398	-200.000	-0.007	0.076
-412.384	176.812	0.123	0.178
-411.369	-173.951	0.118	0.003
-410.355	-200.000	0.000	-0.056
-409.340	-170.698	-0.196	0.007
-408.325	800.000	0.026	-0.103
-407.311	64.487	0.234	-0.233
-406.296	-200.000	0.007	-0.202
-405.282	305.813	0.052	0.095
-404.267	-200.000	0.010	0.135
-403.252	105.175	-0.167	-0.195
-402.238	-200.000	-0.047	0.326
-401.223	268.694	0.078	-0.135
-400.209	-129.383	-0.286	0.039
-399.194	-78.406	0.099	0.033
-398.179	-200.000	-0.002	-0.077
-397.165	554.545	0.077	0.183
-396.150	22.715	-0.040	-0.033
-395.136	-200.000	-0.016	-0.101
-394.121	-90.816	-0.084	-0.024
-393.106	19.951	-0.124	0.099
-392.092	-155.634	-0.209	0.013
-391.077	64.271	0.217	-0.216
-390.063	-132.677	-0.200	0.025
-389.048	-88.006	0.134	-0.040
-388.033	-106.379	0.061	-0.013
-387.019	-200.000	0.002	-0.012
-386.004	-120.850	0.146	-0.024
-384.990	-93.671	0.083	-0.023
-383.975	173.608	-0.151	-0.215
-382.960	770.106	0.032	0.087
-381.946	469.676	0.132	0.294
-380.931	230.264	-0.222	0.359
-379.917	-122.131	0.253	0.041
-378.902	577.474	0.143	0.345
-377.888	800.000	-0.044	0.176
-376.873	800.000	-0.028	-0.102
-375.858	-96.978	0.197	0.051
-374.844	100.150	-0.075	0.086
-373.829	69.314	-0.150	0.153
-372.815	548.980	-0.079	-0.186
-371.800	7.694	-0.214	0.158
-370.785	46.031	0.039	-0.035
-369.771	-200.000	0.030	0.177
-368.756	-98.780	-0.104	-0.026
-367.742	800.000	0.039	-0.155
-366.727	184.411	-0.073	0.107
-365.712	800.000	-0.036	0.107
-364.698	-200.000	-0.098	0.582
-363.683	301.330	-0.067	-0.122
-362.669	-49.948	-0.250	-0.117
-361.654	-200.000	0.040	-0.196
-360.639	66.433	0.158	0.158
-359.625	33.407	0.071	-0.061
-358.610	-119.513	0.227	-0.039
-357.596	473.219	0.034	-0.076
-356.581	800.000	0.098	0.299
-355.566	38.264	0.254	0.223
-354.552	-3.295	-0.274	-0.188
-353.537	-144.843	0.199	0.018
-352.523	-123.549	-0.211	-0.033
-351.508	158.753	0.081	-0.112
-350.493	-101.053	0.158	-0.038
-349.479	-80.127	0.171	0.056
-348.464	-164.072	-0.158	-0.007
-347.450	69.527	0.043	-0.044
-346.435	-57.327	0.078	0.034
-345.420	-200.000	0.059	-0.272
-344.406	22.185	-0.344	-0.277
-343.391	99.108	-0.237	0.270
-342.377	476.362	0.117	0.261
-341.362	82.649	0.236	0.253
-340.348	-150.317	-0.177	-0.013
-339.333	-200.000	-0.038	-0.259
-338.318	-75.047	0.267	-0.094
-337.304	-148.786	0.147	0.012
-336.289	18.419	-0.207	0.163
-335.275	76.681	-0.045	-0.047
-334.260	268.408	-0.147	0.253
-333.245	64.990	0.138	-0.138
-332.231	-125.797	-0.280	-0.042
-331.216	223.373	0.177	0.281
-330.202	571.852	-0.073	-0.176
-329.187	-68.145	-0.082	-0.032
-328.172	-113.096	-0.128	-0.025
-327.158	-114.664	0.312	0.059
-326.143	-200.000	-0.036	0.260
-325.129	-200.000	-0.019	-0.176
-324.114	-5.965	0.163	-0.110
-323.099	-65.810	0.087	0.034
-322.085	416.319	0.068	-0.143
-321.070	104.822	0.188	-0.218
-320.056	196.879	-0.168	0.252
-319.041	-200.000	-0.005	-0.395
-318.026	71.815	-0.065	0.067
-317.012	104.188	0.121	0.141
-315.997	-137.396	-0.372	0.042
-314.983	28.377	-0.023	0.019
-313.968	-200.000	-0.030	0.524
-312.953	79.547	0.375	0.397
-311.939	-59.979	-0.344	-0.145
-310.924	-19.977	0.338	-0.205
-309.910	57.821	0.226	0.218
-308.895	-125.029	0.372	0.056
-307.880	19.241	-0.118	0.093
-306.866	151.905	-0.100	-0.134
-305.851	-157.131	0.085	0.005
-304.837	-39.645	0.146	0.075
-303.822	70.394	-0.215	0.219
-302.807	-200.000	-0.027	0.260
-301.793	37.240	0.173	0.151
-300.778	-190.485	0.231	-0.002
-299.764	46.769	0.118	-0.108
-298.749	-35.463	0.158	0.085
-297.735	-82.341	-0.156	0.050
-296.720	157.066	-0.192	0.262
-295.705	539.707	0.111	-0.259
-294.691	-132.482	0.142	-0.018
-293.676	-77.940	-0.309	-0.105
-292.662	124.529	0.202	0.251
-291.647	-192.245	0.219	-0.002
-290.632	30.621	0.099	0.084
-289.618	-128.048	-0.193	0.027
-288.603	63.745	-0.180	-0.178
-287.589	-200.000	0.026	-0.128
-286.574	263.470	0.139	0.237
-285.559	-68.468	0.148	0.056
-284.545	-113.213	-0.596	0.116
-283.530	-63.124	-0.083	0.034
-282.516	327.239	0.036	0.068
-281.501	-200.000	0.037	0.167
-280.486	-40.147	0.092	0.047
-279.472	-200.000	-0.026	0.118
-278.457	433.100	0.053	0.113
-277.443	-200.000	0.009	0.299
-276.428	107.701	0.133	0.156
-275.413	9.052	-0.123	-0.091
-274.399	-200.000	-0.054	-0.373
-273.384	-114.738	-0.340	0.064
-272.370	800.000	-0.033	0.103
-271.355	-70.396	0.239	-0.089
-270.340	59.556	-0.095	-0.092
-269.326	-26.987	0.050	0.029
-268.311	60.717	0.172	0.168
-267.297	221.008	-0.162	0.256
-266.282	126.120	0.160	0.199
-265.267	-149.771	-0.075	0.006
-264.253	-143.159	0.110	0.010
-263.238	-91.361	-0.185	-0.052
-262.224	105.313	0.208	-0.241
-261.209	-40.163	-0.361	-0.185
-260.195	-200.000	-0.008	0.050
-259.180	153.701	-0.101	-0.137
-258.165	-61.754	0.220	-0.090
-257.151	64.509	-0.393	-0.390
-256.136	493.609	0.154	0.347
-255.122	-17.839	-0.176	-0.108
-254.107	-169.255	0.178	-0.006
-253.092	-54.198	0.202	-0.090
-252.078	-3.578	-0.285	0.195
-251.063	-4.803	-0.220	-0.149
-250.049	176.041	0.275	-0.392
-249.034	144.677	-0.232	0.304
-248.019	155.184	0.289	-0.391
-247.005	188.575	0.070	-0.103
-245.990	-101.639	-0.079	-0.019
-244.976	-200.000	-0.004	-0.295
-243.961	44.646	-0.240	0.217
-242.946	57.117	0.282	0.270
-241.932	0.893	0.230	-0.162
-240.917	203.900	0.279	0.424
-239.903	800.000	0.028	0.079
-238.888	133.307	0.140	-0.178
-237.873	425.500	-0.197	0.418
-236.859	311.391	0.049	0.090
-235.844	-200.000	0.001	0.071
-234.830	-52.549	0.263	-0.120
-233.815	-18.729	-0.031	-0.019
-232.800	-200.000	0.006	0.221
-231.786	-149.090	-0.263	-0.021
-230.771	800.000	-0.046	-0.139
-229.757	370.679	0.079	0.157
-228.742	-0.736	0.402	-0.280
-227.727	94.094	-0.186	-0.208
-226.713	146.418	-0.056	-0.074
-225.698	297.435	-0.289	0.522
-224.684	-71.606	0.228	0.084
-223.669	217.608	-0.125	-0.195
-222.655	-175.579	-0.406	-0.011
-221.640	800.000	-0.089	0.276
-220.625	-52.482	0.275	-0.125
-219.611	-154.123	-0.305	-0.020
-218.596	-38.667	-0.328	0.170
-217.582	-41.497	0.324	-0.164
-216.567	-94.717	0.197	0.052
-215.552	36.166	-0.259	0.224
-214.538	-189.834	0.309	0.003
-213.523	55.726	0.250	-0.238
-212.509	-85.419	-0.415	0.127
-211.494	291.413	0.224	0.399
-210.479	-147.071	-0.159	0.013
-209.465	2.146	0.100	0.071
-208.450	-111.278	-0.133	0.027
-207.436	-147.647	-0.281	0.023
-206.421	800.000	0.046	-0.149
-205.406	-166.202	0.206	-0.009
-204.392	-165.773	-0.136	-0.006
-203.377	-200.000	-0.015	-0.156
-202.363	-200.000	-0.018	-0.128
-201.348	258.768	0.095	-0.161
-200.333	-87.152	-0.149	-0.044
-199.319	-2.281	-0.109	-0.075
-198.304	-68.759	0.217	0.082
-197.290	-55.958	0.224	-0.098
-196.275	-139.128	0.191	0.020
-195.260	276.816	0.065	-0.113
-194.246	61.188	0.016	0.016
-193.231	11.242	-0.258	0.194
-192.217	58.734	-0.088	-0.085
-191.202	58.392	0.140	0.135
-190.187	-200.000	0.024	-0.145
-189.173	-13.547	0.252	-0.160
-188.158	214.028	-0.176	-0.273
-187.144	-20.252	-0.091	0.055
-186.129	-200.000	0.030	-0.360
-185.114	455.272	-0.025	-0.055
-184.100	253.651	0.073	-0.122
-183.085	-109.098	-0.558	0.116
-182.071	-103.068	0.129	0.030
-181.056	-21.540	-0.106	0.064
-180.042	-200.000	0.028	-0.148
-179.027	-121.717	-0.373	0.060
-178.012	-32.019	0.219	0.120
-176.998	-179.236	0.221	0.005
-175.983	261.428	-0.007	0.012
-174.969	-200.000	0.051	-0.223
-173.954	102.990	0.175	0.201
-172.939	800.000	-0.065	-0.236
-171.925	800.000	-0.113	-0.316
-170.910	39.521	0.125	0.110
-169.896	-49.383	-0.151	0.071
-168.881	-200.000	0.022	-0.102
-167.866	-200.000	-0.002	0.121
-166.852	538.810	-0.033	-0.077
-165.837	-200.000	0.004	0.178
-164.823	-60.596	0.145	-0.061
-163.808	-179.760	0.092	0.002
-162.793	-200.000	-0.015	-0.112
-161.779	-200.000	0.013	0.089
-160.764	14.834	0.105	-0.081
-159.750	800.000	0.011	-0.044
-158.735	-62.435	-0.502	0.205
-157.720	263.506	0.102	0.174
-156.706	-50.766	0.175	-0.081
-155.691	-93.127	0.053	0.015
-154.677	-200.000	0.008	0.410
-153.662	800.000	0.061	0.239
-152.647	-200.000	-0.001	-0.091
-151.633	-200.000	0.032	0.181
-150.618	-63.808	0.322	0.129
-149.604	-200.000	0.014	-0.096
-148.589	800.000	-0.110	-0.327
-147.574	-72.966	0.126	0.045
-146.560	324.786	-0.089	0.167
-145.545	800.000	0.036	0.133
-144.531	-28.820	-0.262	-0.148
-143.516	-8.850	-0.291	0.191
-142.502	43.672	-0.210	0.188
-141.487	628.128	0.034	0.083
-140.472	509.009	-0.096	0.219
-139.458	-26.420	-0.335	0.192
-138.443	-143.106	-0.159	0.015
-137.429	-48.928	-0.298	-0.140
-136.414	-53.150	-0.247	-0.111
-135.399	-169.921	0.122	-0.004
-134.385	800.000	0.056	-0.184
-133.370	-200.000	-0.012	-0.066
-132.356	-150.567	0.120	0.009
-131.341	61.093	0.227	0.221
-130.326	-161.490	0.048	0.002
-129.312	4.792	0.318	0.229
-128.297	-200.000	-0.010	-0.127
-127.283	218.739	0.077	-0.121
-126.268	20.767	-0.165	-0.130
-125.253	-49.756	0.319	0.148
-124.239	-150.731	-0.230	-0.017
-123.224	-57.364	-0.111	0.048
-122.210	46.883	0.122	0.111
-121.195	-152.947	-0.170	0.012
