DTS Sentinel unit serial number:	SN413079Multiplexer serial number:	ORYXHardware model number:	OX4-SRSoftware version number:	ORYX F/W v4.00 Oryx Data Collector v3.7.2.0data status	okinstallation	princeton_trtdifferential loss correction	single-endedforward channel	channel 1reverse channel	N/Adate	2019/09/15time	13:02:35forward acquisition time	60.00reverse acquisition time	0.00gamma	496.2192k internal	0.2296k external	0.2296temperature offset calibration	0.9983default loss term (dB/km)	0.3790temperature slope calibration	1.0000multiplexer offset coefficient	1.0000multiplexer slope coefficient	1.0000fibre end	0.00T internal ref (°C)	36.56T ext. ref 1 (°C)	5.00T ext. ref 2 (°C)	34.83length (m)	temperature (°C)	Stokes	anti-Stokes-747.200	-92.856	-0.352	-0.101
-746.185	31.579	-0.394	0.346
-745.171	-113.565	0.286	-0.057
-744.156	420.115	-0.183	0.401
-743.142	-73.675	0.566	-0.211
-742.127	78.734	0.200	0.218
-741.112	530.906	0.055	0.132
-740.098	-110.224	-0.325	0.069
-739.083	112.467	-0.069	0.086
-738.069	-11.075	-0.132	-0.089
-737.054	4.414	-0.191	-0.143
-736.039	800.000	0.017	0.075
-735.025	-192.817	0.255	-0.002
-734.010	-200.000	0.006	-0.090
-732.996	-200.000	-0.030	-0.639
-731.981	36.584	0.186	-0.168
-730.966	134.750	0.046	-0.061
-729.952	-80.498	-0.331	0.113
-728.937	-57.163	-0.150	0.068
-727.923	236.585	-0.101	-0.171
-726.908	800.000	-0.056	0.169
-725.894	265.746	-0.153	-0.273
-724.879	739.061	0.099	0.270
-723.864	404.094	0.146	0.315
-722.850	-62.503	0.126	-0.053
-721.835	127.823	0.103	-0.133
-720.821	-64.740	0.109	-0.045
-719.806	-134.528	0.146	0.018
-718.791	-200.000	-0.022	-0.205
-717.777	299.961	0.028	-0.052
-716.762	-77.664	-0.184	-0.065
-715.748	-200.000	0.013	-0.239
-714.733	-173.456	0.087	0.003
-713.718	111.403	-0.140	-0.173
-712.704	53.354	0.168	-0.164
-711.689	-200.000	0.251	-0.001
-710.675	148.589	0.121	0.167
-709.660	238.881	0.194	-0.330
-708.645	-107.901	-0.141	0.031
-707.631	-62.531	-0.050	-0.021
-706.616	-69.998	0.213	-0.083
-705.602	-123.077	0.010	-0.002
-704.587	-72.369	-0.096	0.036
-703.572	-108.943	-0.240	-0.052
-702.558	39.053	0.050	0.045
-701.543	-94.453	-0.191	0.053
-700.529	-180.503	0.225	0.005
-699.514	269.915	-0.052	-0.093
-698.499	-35.939	0.104	-0.057
-697.485	599.386	-0.120	-0.304
-696.470	-200.000	-0.031	0.280
-695.456	-200.000	0.020	-0.246
-694.441	26.484	-0.028	-0.024
-693.426	-144.960	-0.221	-0.021
-692.412	800.000	-0.113	0.405
-691.397	115.009	0.045	-0.056
-690.383	800.000	0.089	-0.297
-689.368	800.000	-0.142	0.555
-688.354	356.545	-0.135	-0.274
-687.339	800.000	-0.045	-0.176
-686.324	-13.529	0.291	-0.192
-685.310	-173.647	0.154	0.005
-684.295	-104.601	-0.207	0.049
-683.281	-200.000	-0.282	0.000
-682.266	800.000	-0.065	-0.256
-681.251	-200.000	0.049	-0.519
-680.237	800.000	0.018	0.057
-679.222	-85.867	0.276	-0.087
-678.208	800.000	-0.108	-0.363
-677.193	-21.356	0.012	0.007
-676.178	33.006	0.178	0.158
-675.164	127.422	0.122	0.157
-674.149	23.551	-0.161	-0.135
-673.135	-71.645	-0.157	0.060
-672.120	800.000	0.097	0.294
-671.105	34.512	-0.032	-0.029
-670.091	-29.039	0.110	0.064
-669.076	66.339	-0.077	0.080
-668.062	-100.498	-0.113	-0.029
-667.047	95.823	-0.065	0.075
-666.032	-24.927	-0.097	0.059
-665.018	-117.276	0.162	0.030
-664.003	800.000	0.055	-0.182
-662.989	-94.828	0.292	0.081
-661.974	-82.926	-0.229	-0.075
-660.959	-14.240	0.126	0.083
-659.945	133.395	0.054	0.071
-658.930	800.000	0.016	0.052
-657.916	223.129	-0.042	-0.068
-656.901	-26.398	-0.034	0.020
-655.886	102.471	0.190	-0.227
-654.872	5.264	0.079	-0.059
-653.857	-61.744	0.371	0.158
-652.843	-200.000	0.029	-0.192
-651.828	32.698	0.044	0.039
-650.814	-200.000	0.022	-0.167
-649.799	112.571	0.218	0.269
-648.784	-53.223	-0.282	-0.132
-647.770	800.000	0.011	0.050
-646.755	152.341	-0.090	-0.126
-645.741	-104.404	-0.260	0.061
-644.726	-81.541	0.057	-0.019
-643.711	-200.000	0.001	-0.092
-642.697	294.811	-0.082	-0.152
-641.682	24.060	0.176	0.148
-640.668	2.823	-0.103	0.076
-639.653	142.704	0.123	-0.166
-638.638	-200.000	-0.081	0.405
-637.624	84.737	-0.090	0.100
-636.609	46.269	-0.188	-0.177
-635.595	-91.676	-0.354	-0.103
-634.580	94.057	0.169	-0.195
-633.565	-129.473	-0.330	-0.046
-632.551	-86.258	0.056	-0.017
-631.536	-142.179	-0.097	0.010
-630.522	393.665	0.209	-0.442
-629.507	-200.000	-0.006	-0.236
-628.492	11.690	0.121	-0.095
-627.478	-200.000	0.015	0.070
-626.463	-80.143	0.090	-0.031
-625.449	425.887	-0.067	0.146
-624.434	87.696	-0.144	-0.162
-623.419	52.738	0.179	-0.174
-622.405	-2.914	-0.185	0.132
-621.390	-200.000	0.036	0.307
-620.376	161.195	0.073	0.104
-619.361	15.449	0.126	0.101
-618.346	-10.415	0.137	0.092
-617.332	-103.582	-0.287	-0.068
-616.317	5.583	-0.211	-0.159
-615.303	516.935	-0.080	-0.190
-614.288	-117.220	-0.285	0.053
-613.273	171.451	-0.127	-0.185
-612.259	318.577	-0.074	0.143
-611.244	-29.092	-0.128	0.075
-610.230	-200.000	0.019	0.111
-609.215	-191.348	0.057	-0.001
-608.201	133.559	0.169	0.222
-607.186	268.233	-0.098	0.175
-606.171	-83.643	-0.257	0.083
-605.157	351.343	-0.061	0.124
-604.142	-94.101	-0.472	-0.131
-603.128	-107.687	-0.347	0.077
-602.113	583.030	-0.059	0.146
-601.098	-18.298	0.171	-0.109
-600.084	500.055	-0.090	-0.211
-599.069	486.882	-0.069	0.159
-598.055	-200.000	0.002	0.044
-597.040	-77.824	-0.577	-0.202
-596.025	-106.782	0.152	-0.034
-595.011	-200.000	0.022	-0.150
-593.996	-200.000	-0.010	0.107
-592.982	40.378	-0.105	-0.096
-591.967	53.617	-0.201	-0.196
-590.952	-200.000	-0.052	-0.235
-589.938	-200.000	-0.003	0.115
-588.923	-200.000	-0.032	-0.166
-587.909	-200.000	0.019	0.234
-586.894	-19.049	-0.300	-0.190
-585.879	-84.828	0.232	-0.074
-584.865	800.000	-0.055	-0.192
-583.850	-66.590	-0.208	0.084
-582.836	-200.000	0.045	0.314
-581.821	-200.000	0.001	0.044
-580.806	518.311	0.042	0.099
-579.792	-90.145	0.128	0.038
-578.777	-131.272	0.123	-0.017
-577.763	8.013	0.103	0.078
-576.748	-200.000	-0.020	0.116
-575.733	4.367	-0.167	-0.124
-574.719	-124.712	0.590	-0.093
-573.704	800.000	0.106	0.312
-572.690	-30.952	-0.217	0.125
-571.675	-68.971	0.067	0.026
-570.661	-200.000	-0.011	-0.230
-569.646	-9.542	0.138	-0.094
-568.631	-122.467	-0.191	-0.031
-567.617	-149.650	-0.268	0.021
-566.602	690.752	0.151	-0.400
-565.588	-60.280	0.194	-0.084
-564.573	800.000	0.045	-0.147
-563.558	-68.658	-0.147	0.058
-562.544	-200.000	-0.019	-0.129
-561.529	-127.624	0.247	0.036
-560.515	265.416	0.142	-0.250
-559.500	-81.714	-0.391	-0.130
-558.485	49.604	-0.085	-0.081
-557.471	-100.640	-0.118	-0.030
-556.456	800.000	0.065	-0.210
-555.442	130.421	-0.162	0.210
-554.427	-66.001	0.095	0.038
-553.412	-47.513	-0.345	0.170
-552.398	35.939	0.122	0.109
-551.383	-70.727	-0.258	0.099
-550.369	37.207	-0.014	0.012
-549.354	42.148	0.064	-0.059
-548.339	-103.973	-0.015	0.004
-547.325	-152.603	-0.214	-0.016
-546.310	-170.443	-0.059	0.002
-545.296	80.237	0.176	-0.192
-544.281	523.710	-0.093	0.221
-543.266	-200.000	0.044	0.293
-542.252	-120.565	0.168	-0.029
-541.237	-3.115	0.304	0.215
-540.223	22.626	0.273	-0.226
-539.208	-144.552	-0.029	0.003
-538.193	-122.676	-0.256	0.042
-537.179	-156.657	-0.262	0.016
-536.164	800.000	-0.042	0.140
-535.150	-96.416	-0.033	0.009
-534.135	-42.567	0.180	0.093
-533.121	-23.797	0.345	-0.210
-532.106	-28.478	0.103	-0.060
-531.091	75.573	-0.045	-0.048
-530.077	-27.549	0.346	0.204
-529.062	-27.510	0.216	0.127
-528.048	-41.838	0.138	-0.072
-527.033	-142.014	-0.169	0.017
-526.018	-29.451	0.213	0.124
-525.004	109.279	-0.057	0.070
-523.989	-109.288	0.125	0.027
-522.975	-80.154	-0.147	-0.050
-521.960	-84.967	-0.164	-0.052
-520.945	2.542	-0.336	-0.246
-519.931	-200.000	0.032	0.214
-518.916	403.511	0.093	0.197
-517.902	-129.701	0.277	0.039
-516.887	82.709	0.150	-0.165
-515.872	-141.283	-0.301	-0.031
-514.858	43.339	-0.359	0.332
-513.843	-28.160	-0.422	-0.247
-512.829	-200.000	0.011	0.348
-511.814	-133.742	-0.226	-0.029
-510.799	111.248	0.153	-0.187
-509.785	-124.632	0.202	-0.032
-508.770	540.349	-0.077	0.186
-507.756	-149.710	-0.147	-0.012
-506.741	669.299	0.096	-0.253
-505.726	-97.730	0.164	-0.043
-504.712	183.232	-0.064	0.095
-503.697	-14.385	-0.158	-0.103
-502.683	-97.394	0.213	0.056
-501.668	-147.252	-0.479	0.041
-500.653	491.568	-0.143	-0.331
-499.639	759.867	-0.101	0.277
-498.624	800.000	-0.077	0.337
-497.610	73.913	-0.184	0.196
-496.595	800.000	-0.026	-0.085
-495.581	355.314	-0.121	0.244
-494.566	-81.456	0.105	-0.035
-493.551	-18.014	-0.201	-0.127
-492.537	105.824	0.094	0.113
-491.522	-5.933	0.056	0.039
-490.508	241.661	0.101	-0.171
-489.493	-92.884	0.186	0.053
-488.478	70.292	-0.151	-0.158
-487.464	800.000	0.046	0.198
-486.449	0.845	-0.253	-0.183
-485.435	-92.400	0.269	0.077
-484.420	-39.892	0.251	-0.133
-483.405	14.346	0.381	0.301
-482.391	-36.215	-0.020	-0.011
-481.376	13.615	0.336	-0.264
-480.362	-200.000	-0.002	0.168
-479.347	-60.617	0.133	-0.057
-478.332	736.313	0.125	0.340
-477.318	76.157	0.197	-0.211
-476.303	-57.509	-0.424	-0.188
-475.289	-200.000	0.025	-0.122
-474.274	-63.135	0.341	-0.142
-473.259	-200.000	-0.052	-0.488
-472.245	-200.000	-0.018	0.116
-471.230	-200.000	0.004	0.299
-470.216	-15.682	0.313	0.202
-469.201	94.398	-0.240	0.275
-468.186	-11.468	-0.255	-0.169
-467.172	-47.032	0.360	-0.178
-466.157	-200.000	0.004	0.027
-465.143	601.070	0.128	-0.320
-464.128	-29.976	0.407	0.234
-463.113	194.378	0.103	0.157
-462.099	800.000	0.085	0.253
-461.084	515.223	-0.002	0.006
-460.070	-105.123	0.451	0.104
-459.055	320.701	-0.045	-0.086
-458.040	21.590	-0.041	0.033
-457.026	-128.915	0.076	0.011
-456.011	268.271	0.158	-0.280
-454.997	195.374	-0.182	0.279
-453.982	8.233	-0.170	0.129
-452.968	800.000	-0.085	-0.238
-451.953	-52.500	-0.263	-0.123
-450.938	-29.220	0.122	-0.071
-449.924	285.643	-0.088	-0.159
-448.909	-200.000	0.063	-0.321
-447.895	131.094	-0.100	0.130
-446.880	757.894	-0.060	-0.165
-445.865	264.777	0.102	-0.179
-444.851	225.450	0.142	-0.233
-443.836	-90.713	-0.226	-0.066
-442.822	-81.001	-0.187	-0.063
-441.807	-200.000	-0.005	0.182
-440.792	291.991	-0.126	-0.233
-439.778	5.154	0.217	-0.161
-438.763	635.179	-0.110	0.282
-437.749	800.000	-0.011	-0.038
-436.734	-107.930	0.399	-0.088
-435.719	-121.596	0.123	0.021
-434.705	-109.276	0.188	0.040
-433.690	-200.000	-0.038	0.215
-432.676	800.000	0.030	0.093
-431.661	-200.000	-0.004	-0.251
-430.646	-105.673	0.198	-0.045
-429.632	368.465	0.084	0.172
-428.617	-113.593	-0.344	-0.068
-427.603	-94.507	0.110	-0.030
-426.588	139.736	-0.028	0.037
-425.573	-200.000	-0.011	-0.054
-424.559	70.057	0.134	0.139
-423.544	209.651	0.159	0.252
-422.530	513.474	-0.048	0.114
-421.515	146.351	0.117	-0.158
-420.500	-44.095	0.162	0.082
-419.486	132.577	0.059	-0.077
-418.471	-32.761	-0.191	0.107
-417.457	-43.526	-0.227	-0.115
-416.442	79.428	-0.160	0.173
-415.428	596.595	0.065	0.162
-414.413	-200.000	-0.003	0.198
-413.398	3.322	-0.252	-0.185
-412.384	83.382	0.148	-0.162
-411.369	105.528	0.076	0.090
-410.355	466.447	-0.043	-0.098
-409.340	414.026	-0.121	-0.260
-408.325	-116.404	0.255	-0.048
-407.311	144.650	-0.124	0.167
-406.296	-200.000	0.045	0.332
-405.282	114.021	-0.176	0.216
-404.267	572.342	-0.079	-0.194
-403.252	-111.583	-0.170	-0.035
-402.238	-97.465	-0.099	0.026
-401.223	358.777	-0.100	0.202
-400.209	-200.000	-0.017	0.337
-399.194	503.885	0.038	-0.088
-398.179	106.685	-0.074	-0.088
-397.165	-200.000	-0.031	0.167
-396.150	-105.152	-0.477	-0.110
-395.136	-111.317	0.114	-0.024
-394.121	-200.000	0.009	-0.186
-393.106	-68.348	0.252	-0.099
-392.092	-138.723	0.044	-0.005
-391.077	-69.527	0.366	-0.141
-390.063	-130.777	-0.269	0.036
-389.048	-129.813	0.224	-0.031
-388.033	197.611	-0.109	-0.168
-387.019	-118.622	-0.057	0.010
-386.004	-121.241	-0.137	0.023
-384.990	380.876	0.130	0.269
-383.975	-66.278	0.310	0.124
-382.960	-80.650	-0.250	-0.084
-381.946	-129.346	-0.126	-0.018
-380.931	-74.259	-0.095	0.035
-379.917	-49.498	0.225	0.108
-378.902	-200.000	0.036	0.158
-377.888	-15.556	-0.199	0.128
-376.873	263.853	0.095	-0.167
-375.858	-193.987	-0.284	0.002
-374.844	540.973	-0.087	0.210
-373.829	350.923	-0.124	0.248
-372.815	461.799	-0.073	0.165
-371.800	64.431	-0.317	0.321
-370.785	-200.000	0.002	0.089
-369.771	192.774	0.142	-0.216
-368.756	797.320	0.064	-0.177
-367.742	-200.000	-0.074	-0.346
-366.727	-27.904	0.291	-0.169
-365.712	-124.693	0.221	-0.034
-364.698	-56.968	-0.270	0.120
-363.683	-200.000	-0.055	0.268
-362.669	800.000	-0.016	0.063
-361.654	2.607	0.130	-0.095
-360.639	240.833	0.221	-0.372
-359.625	-36.869	-0.081	0.044
-358.610	-146.992	0.096	0.008
-357.596	800.000	-0.082	0.327
-356.581	96.735	-0.256	0.296
-355.566	191.648	-0.079	0.120
-354.552	122.618	0.227	-0.286
-353.537	626.493	-0.118	-0.301
-352.523	248.891	0.009	-0.015
-351.508	474.851	-0.125	-0.284
-350.493	-200.000	0.019	0.125
-349.479	-53.019	0.192	-0.089
-348.464	-148.420	-0.204	-0.017
-347.450	-123.196	-0.311	0.050
-346.435	76.740	-0.095	0.101
-345.420	-120.692	0.234	0.040
-344.406	702.852	0.036	-0.096
-343.391	88.207	-0.320	0.358
-342.377	-21.554	0.209	0.128
-341.362	300.288	0.137	0.255
-340.348	-73.270	-0.156	0.057
-339.333	800.000	-0.081	-0.266
-338.318	243.710	0.087	0.146
-337.304	-200.000	-0.036	0.198
-336.289	236.300	0.046	0.077
-335.275	1.028	-0.140	0.101
-334.260	-200.000	0.060	0.329
-333.245	800.000	0.101	-0.385
-332.231	69.291	0.068	0.071
-331.216	-94.708	0.049	-0.013
-330.202	170.519	-0.124	0.179
-329.187	47.497	0.025	-0.023
-328.172	35.791	-0.168	-0.148
-327.158	170.625	-0.186	-0.268
-326.143	-33.813	0.388	-0.215
-325.129	77.840	0.172	-0.184
-324.114	-200.000	0.064	-0.297
-323.099	161.125	0.094	0.132
-322.085	-144.423	0.061	0.006
-321.070	-20.467	0.470	-0.291
-320.056	-83.479	0.340	0.110
-319.041	-200.000	-0.009	0.231
-318.026	-84.450	-0.118	0.037
-317.012	-1.154	0.181	0.129
-315.997	-200.000	-0.058	0.388
-314.983	-200.000	0.025	0.192
-313.968	15.590	0.136	-0.107
-312.953	-113.443	-0.112	0.022
-311.939	-124.929	-0.200	-0.031
-310.924	31.617	0.203	-0.175
-309.910	180.250	0.192	-0.283
-308.895	63.704	0.157	0.158
-307.880	-200.000	-0.001	0.006
-306.866	-88.922	-0.076	0.023
-305.851	440.077	0.144	0.316
-304.837	-12.852	-0.206	-0.135
-303.822	-157.908	0.006	-0.000
-302.807	212.788	-0.077	-0.122
-301.793	-58.500	-0.170	0.074
-300.778	253.617	0.145	-0.249
-299.764	-112.850	0.327	-0.065
-298.749	39.477	-0.180	-0.162
-297.735	-200.000	0.289	-0.001
-296.720	-70.964	0.245	0.093
-295.705	38.749	0.190	-0.170
-294.691	570.384	0.131	0.320
-293.676	800.000	0.008	-0.032
-292.662	-133.843	0.174	0.022
-291.647	-200.000	-0.076	-0.336
-290.632	38.248	-0.345	-0.309
-289.618	-200.000	-0.005	0.155
-288.603	148.046	0.243	0.328
-287.589	51.919	0.108	0.103
-286.574	297.617	-0.054	-0.100
-285.559	347.153	-0.113	0.224
-284.545	-48.479	-0.169	0.082
-283.530	800.000	0.087	-0.251
-282.516	227.759	-0.044	-0.071
-281.501	132.446	0.115	-0.148
-280.486	-200.000	-0.006	0.031
-279.472	357.395	-0.066	-0.133
-278.457	800.000	-0.058	0.173
-277.443	81.793	0.094	0.103
-276.428	-200.000	-0.016	-0.196
-275.413	-200.000	0.046	-0.271
-274.399	-121.549	0.351	-0.058
-273.384	-200.000	-0.035	0.187
-272.370	-200.000	-0.002	0.020
-271.355	-127.817	0.138	0.020
-270.340	202.212	0.286	0.443
-269.326	-200.000	0.016	-0.107
-268.311	-83.394	-0.267	0.086
-267.297	103.453	-0.223	-0.263
-266.282	-111.623	0.317	-0.065
-265.267	-47.138	0.290	0.142
-264.253	-156.243	-0.259	0.016
-263.238	-200.000	-0.019	-0.297
-262.224	66.410	0.183	0.186
-261.209	73.875	0.204	-0.214
-260.195	-78.880	-0.068	-0.023
-259.180	32.462	-0.164	-0.142
-258.165	53.788	0.026	-0.025
-257.151	21.255	-0.180	0.146
-256.136	-77.898	-0.299	-0.103
-255.122	-51.282	0.083	0.039
-254.107	800.000	0.093	0.302
-253.092	-90.805	-0.178	0.051
-252.078	-142.594	0.174	0.017
-251.063	-19.428	0.235	0.146
-250.049	745.715	-0.049	0.132
-249.034	-113.312	0.094	-0.018
-248.019	-157.721	-0.107	-0.006
-247.005	-31.463	-0.211	0.119
-245.990	-191.043	-0.328	0.003
-244.976	413.587	-0.048	0.103
-243.961	-24.296	-0.089	0.053
-242.946	9.804	0.176	0.134
-241.932	184.712	0.079	-0.117
-240.917	-99.626	0.016	0.004
-239.903	-200.000	0.001	-0.060
-238.888	468.388	0.099	-0.222
-237.873	-200.000	0.101	-0.459
-236.859	625.622	-0.104	0.264
-235.844	-149.230	-0.184	-0.015
-234.830	-150.169	0.379	-0.029
-233.815	800.000	-0.037	-0.104
-232.800	800.000	-0.053	-0.176
-231.786	9.422	-0.113	0.085
-230.771	-67.314	0.254	-0.100
-229.757	-137.934	-0.169	-0.019
-228.742	91.541	-0.103	-0.116
-227.727	-6.022	0.129	0.088
-226.713	90.056	0.174	-0.195
-225.698	-10.613	-0.181	0.120
-224.684	-153.400	-0.204	0.014
-223.669	2.922	-0.101	0.074
-222.655	-155.395	0.077	0.005
-221.640	-200.000	0.016	-0.217
-220.625	-200.000	-0.006	0.143
-219.611	-200.000	-0.023	-0.196
-218.596	16.827	0.215	0.170
-217.582	-200.000	0.024	-0.216
-216.567	-200.000	-0.022	-0.113
-215.552	162.799	-0.076	0.106
-214.538	164.425	-0.082	-0.116
-213.523	-200.000	-0.014	-0.136
-212.509	66.282	0.123	-0.125
-211.494	-85.909	0.209	0.065
-210.479	-130.759	-0.157	-0.021
-209.465	106.359	0.038	0.045
-208.450	52.398	-0.099	-0.094
-207.436	-41.374	0.311	0.160
-206.421	169.353	0.160	0.229
-205.406	296.875	-0.010	-0.018
-204.392	-74.895	0.110	-0.039
-203.377	331.653	-0.185	0.356
-202.363	-34.384	-0.219	-0.120
-201.348	33.642	0.076	-0.066
-200.333	800.000	0.019	-0.083
-199.319	-61.613	0.141	0.059
-198.304	143.347	-0.229	-0.305
-197.290	-69.559	0.059	0.023
-196.275	149.180	-0.034	-0.046
-195.260	-78.314	0.216	-0.074
-194.246	-60.603	0.297	-0.126
-193.231	-200.000	0.000	-0.286
-192.217	-127.766	-0.068	0.010
-191.202	-30.183	0.200	-0.114
-190.187	43.163	0.213	0.194
-189.173	719.568	0.061	0.162
-188.158	18.623	-0.304	0.243
-187.144	-200.000	0.006	0.155
-186.129	-140.726	-0.039	-0.004
-185.114	54.999	-0.102	0.098
-184.100	-54.985	-0.274	-0.123
-183.085	800.000	-0.042	0.115
-182.071	-200.000	-0.002	0.093
-181.056	-7.506	0.192	-0.130
-180.042	-62.567	-0.413	-0.171
-179.027	-200.000	0.049	-0.251
-178.012	-200.000	-0.007	-0.067
-176.998	-200.000	-0.025	0.232
-175.983	-145.124	-0.248	0.023
-174.969	800.000	-0.069	0.241
-173.954	-74.728	-0.159	-0.057
-172.939	35.187	0.105	0.092
-171.925	149.820	-0.032	-0.044
-170.910	1.677	-0.239	0.172
-169.896	-110.800	-0.319	0.066
-168.881	29.383	-0.151	-0.128
-167.866	800.000	0.016	-0.046
-166.852	381.319	0.116	-0.239
-165.837	32.643	0.270	-0.233
-164.823	-47.485	-0.213	0.104
-163.808	-44.020	-0.145	0.073
-162.793	105.404	0.245	0.290
-161.779	-200.000	-0.007	-0.133
-160.764	36.171	0.082	0.072
-159.750	-78.659	0.153	-0.052
-158.735	-160.991	0.116	-0.006
-157.720	257.865	-0.078	0.134
-156.706	-98.432	0.325	-0.083
-155.691	-200.000	0.007	0.094
-154.677	88.695	0.274	-0.304
-153.662	173.845	0.095	-0.137
-152.647	800.000	0.089	0.343
-151.633	6.513	0.226	0.168
-150.618	185.343	-0.133	-0.197
-149.604	400.320	-0.123	-0.257
-148.589	800.000	-0.077	-0.325
-147.574	800.000	0.105	0.383
-146.560	-200.000	0.001	-0.008
-145.545	-56.191	-0.043	-0.019
-144.531	-154.009	-0.496	-0.034
-143.516	-24.788	-0.212	-0.126
-142.502	223.790	-0.172	-0.278
-141.487	-71.430	0.130	0.049
-140.472	225.619	0.176	0.285
-139.458	-200.000	-0.016	0.182
-138.443	353.356	-0.146	-0.289
-137.429	-139.956	-0.143	-0.015
-136.414	-200.000	0.011	0.195
-135.399	-200.000	-0.043	0.271
-134.385	123.526	-0.106	-0.133
-133.370	-200.000	0.009	0.201
-132.356	-20.066	0.043	-0.027
-131.341	-106.347	0.423	0.094
-130.326	-104.886	-0.058	-0.013
-129.312	-200.000	-0.018	-0.171
-128.297	-64.084	-0.111	-0.045
-127.283	800.000	0.087	0.329
-126.268	591.386	0.073	0.180
-125.253	194.878	-0.033	0.050
-124.239	-34.843	-0.206	-0.112
-123.224	-50.438	0.127	-0.060
-122.210	319.044	-0.050	0.095
-121.195	328.285	0.040	-0.077
