DTS Sentinel unit serial number:	SN413079Multiplexer serial number:	ORYXHardware model number:	OX4-SRSoftware version number:	ORYX F/W v4.00 Oryx Data Collector v3.7.2.0data status	okinstallation	princeton_trtdifferential loss correction	single-endedforward channel	channel 1reverse channel	N/Adate	2019/09/13time	04:50:35forward acquisition time	60.00reverse acquisition time	0.00gamma	496.2192k internal	0.2335k external	0.2335temperature offset calibration	1.0156default loss term (dB/km)	0.3790temperature slope calibration	1.0000multiplexer offset coefficient	1.0000multiplexer slope coefficient	1.0000fibre end	0.00T internal ref (°C)	26.56T ext. ref 1 (°C)	4.05T ext. ref 2 (°C)	21.03length (m)	temperature (°C)	Stokes	anti-Stokes-747.200	800.000	0.062	-0.269
-746.185	-136.277	-0.386	-0.045
-745.171	100.954	-0.162	-0.189
-744.156	-42.185	-0.080	-0.041
-743.142	-66.091	-0.215	0.086
-742.127	-200.000	0.086	0.544
-741.112	-200.000	-0.034	0.322
-740.098	523.802	0.078	0.183
-739.083	408.353	-0.142	0.301
-738.069	800.000	0.038	0.138
-737.054	-96.714	0.106	0.028
-736.039	-11.850	-0.305	-0.201
-735.025	-200.000	0.020	0.144
-734.010	-48.994	-0.301	-0.145
-732.996	393.538	0.115	0.240
-731.981	321.167	-0.140	-0.267
-730.966	-200.000	0.042	-0.378
-729.952	89.766	0.345	-0.387
-728.937	-60.870	-0.233	0.099
-727.923	-106.639	0.160	0.036
-726.908	-86.620	-0.269	-0.083
-725.894	-62.183	-0.211	0.088
-724.879	-200.000	0.021	-0.172
-723.864	323.863	0.029	-0.055
-722.850	-64.168	0.301	0.123
-721.835	-33.708	-0.160	0.088
-720.821	-200.000	-0.015	0.312
-719.806	759.231	-0.071	-0.193
-718.791	-200.000	0.007	-0.196
-717.777	-159.383	-0.256	0.014
-716.762	42.553	0.292	0.267
-715.748	61.673	-0.173	0.173
-714.733	-111.677	0.240	-0.049
-713.718	224.703	-0.101	0.163
-712.704	276.458	0.044	0.078
-711.689	60.722	-0.239	-0.237
-710.675	-89.783	-0.213	-0.063
-709.660	-134.989	0.400	-0.048
-708.645	427.749	0.038	-0.082
-707.631	800.000	0.067	-0.243
-706.616	203.104	-0.118	-0.182
-705.602	307.810	0.061	0.114
-704.587	-89.713	0.152	0.045
-703.572	-57.912	-0.225	0.099
-702.558	339.119	-0.026	-0.052
-701.543	78.119	0.203	-0.217
-700.529	-37.799	0.096	0.051
-699.514	-22.566	-0.138	-0.084
-698.499	307.363	-0.080	-0.149
-697.485	44.746	-0.214	-0.197
-696.470	84.620	0.281	0.308
-695.456	-200.000	0.075	-0.399
-694.441	216.542	0.130	-0.207
-693.426	128.159	-0.107	-0.137
-692.412	-200.000	0.034	-0.171
-691.397	-51.916	-0.296	-0.138
-690.383	27.564	-0.217	-0.183
-689.368	59.098	-0.201	0.198
-688.354	-200.000	-0.006	0.137
-687.339	433.971	0.088	-0.191
-686.324	-49.965	-0.135	-0.064
-685.310	-73.331	-0.134	0.049
-684.295	-200.000	-0.007	0.062
-683.281	-79.365	-0.201	0.068
-682.266	-176.705	-0.213	-0.005
-681.251	-144.750	0.053	0.005
-680.237	247.190	-0.299	-0.505
-679.222	-125.270	-0.097	0.015
-678.208	1.894	-0.255	0.184
-677.193	-62.695	-0.090	0.037
-676.178	800.000	-0.051	-0.150
-675.164	650.573	0.053	-0.137
-674.149	215.684	0.117	0.186
-673.135	102.370	0.228	0.267
-672.120	-81.368	-0.108	-0.036
-671.105	-200.000	0.059	-0.385
-670.091	800.000	0.044	-0.182
-669.076	-200.000	0.003	-0.129
-668.062	-40.245	-0.169	0.088
-667.047	-200.000	0.025	0.565
-666.032	-200.000	0.000	-0.031
-665.018	800.000	0.106	-0.330
-664.003	-39.510	-0.170	0.089
-662.989	119.311	0.029	0.036
-661.974	492.148	-0.044	0.101
-660.959	-74.930	0.221	0.079
-659.945	-200.000	-0.017	0.143
-658.930	469.748	-0.088	-0.197
-657.916	-118.753	0.250	-0.044
-656.901	-59.849	0.114	0.049
-655.886	800.000	-0.032	-0.113
-654.872	-200.000	-0.016	0.220
-653.857	30.852	-0.031	0.026
-652.843	78.079	-0.125	-0.134
-651.828	-40.718	-0.268	0.139
-650.814	50.034	-0.074	-0.070
-649.799	-200.000	0.027	-0.355
-648.784	-169.392	-0.167	-0.006
-647.770	-117.715	-0.077	0.014
-646.755	-177.891	0.293	-0.007
-645.741	-127.505	0.570	-0.083
-644.726	117.496	-0.107	-0.132
-643.711	800.000	0.026	0.072
-642.697	124.402	0.247	0.311
-641.682	-200.000	0.020	0.331
-640.668	800.000	-0.053	0.186
-639.653	-106.521	-0.384	0.086
-638.638	-200.000	0.043	-0.381
-637.624	594.500	0.064	0.159
-636.609	-157.596	0.173	0.010
-635.595	157.947	0.168	-0.232
-634.580	423.014	0.154	-0.331
-633.565	158.846	0.007	0.009
-632.551	87.812	-0.083	-0.092
-631.536	13.208	-0.023	-0.017
-630.522	-15.091	-0.081	0.052
-629.507	-157.773	0.131	0.008
-628.492	-29.295	-0.166	-0.095
-627.478	-122.889	0.118	-0.019
-626.463	800.000	-0.066	0.267
-625.449	-112.098	-0.141	-0.028
-624.434	-63.907	-0.043	0.017
-623.419	-200.000	0.023	-0.154
-622.405	-200.000	-0.022	-0.131
-621.390	47.988	0.165	0.154
-620.376	256.342	0.207	0.355
-619.361	-19.056	-0.129	0.080
-618.346	1.370	0.234	-0.168
-617.332	-115.555	-0.391	0.073
-616.317	62.793	0.084	-0.084
-615.303	-41.723	0.226	-0.116
-614.288	427.801	-0.131	-0.283
-613.273	111.628	-0.221	-0.266
-612.259	800.000	-0.015	-0.046
-611.244	-77.538	0.358	0.124
-610.230	-146.619	-0.372	-0.032
-609.215	800.000	0.176	0.577
-608.201	-103.448	-0.151	0.035
-607.186	800.000	0.065	-0.262
-606.171	-200.000	0.047	0.464
-605.157	-60.253	-0.168	-0.072
-604.142	-126.672	0.283	0.042
-603.128	230.817	-0.071	-0.116
-602.113	144.135	-0.063	-0.083
-601.098	-99.169	0.056	0.014
-600.084	187.534	-0.056	-0.084
-599.069	659.769	0.056	0.144
-598.055	-150.872	-0.058	0.004
-597.040	-144.496	-0.194	-0.018
-596.025	299.443	-0.062	-0.115
-595.011	10.746	0.199	-0.151
-593.996	177.406	-0.160	0.232
-592.982	-85.966	-0.318	0.098
-591.967	800.000	0.063	-0.207
-590.952	207.824	0.185	0.289
-589.938	800.000	0.024	0.092
-588.923	-18.209	0.102	-0.064
-587.909	-124.194	0.403	0.063
-586.894	227.091	-0.196	-0.319
-585.879	-96.260	-0.152	0.040
-584.865	216.762	-0.042	0.067
-583.850	-100.670	-0.426	0.105
-582.836	-123.129	-0.090	-0.014
-581.821	370.810	-0.122	0.247
-580.806	-200.000	0.028	-0.283
-579.792	210.344	0.082	-0.129
-578.777	-200.000	0.000	-0.157
-577.763	800.000	0.065	0.256
-576.748	-119.598	0.186	0.032
-575.733	234.497	-0.120	-0.198
-574.719	-147.820	-0.679	-0.057
-573.704	668.664	0.071	0.182
-572.690	7.949	-0.306	-0.229
-571.675	-67.381	0.503	0.197
-570.661	-116.961	-0.082	0.015
-569.646	-72.390	-0.342	-0.126
-568.631	-200.000	-0.039	0.253
-567.617	698.083	0.043	-0.113
-566.602	-17.352	-0.248	-0.156
-565.588	135.565	-0.143	-0.186
-564.573	9.061	0.103	-0.078
-563.558	800.000	-0.030	0.101
-562.544	800.000	-0.043	0.144
-561.529	248.574	-0.056	-0.094
-560.515	-33.186	0.054	-0.030
-559.500	-6.585	-0.165	0.112
-558.485	265.948	-0.117	0.203
-557.471	-64.008	0.317	0.129
-556.456	35.364	0.215	-0.188
-555.442	568.245	0.061	-0.149
-554.427	-109.288	0.166	-0.035
-553.412	-77.769	-0.087	-0.030
-552.398	57.591	-0.015	0.015
-551.383	125.073	0.086	0.108
-550.369	-113.488	-0.412	-0.080
-549.354	126.069	-0.154	-0.194
-548.339	232.549	0.108	-0.177
-547.325	56.657	0.205	-0.199
-546.310	-99.904	-0.089	-0.022
-545.296	-200.000	-0.023	-0.166
-544.281	369.923	0.088	-0.178
-543.266	-200.000	0.012	-0.148
-542.252	39.501	0.140	-0.125
-541.237	-93.615	-0.417	-0.115
-540.223	78.730	-0.053	-0.057
-539.208	-44.977	-0.269	0.133
-538.193	261.275	-0.082	-0.141
-537.179	86.146	0.234	-0.257
-536.164	47.932	-0.205	-0.191
-535.150	183.572	0.092	-0.136
-534.135	-104.441	0.168	-0.039
-533.121	452.456	0.050	-0.111
-532.106	-200.000	-0.016	-0.097
-531.091	-137.390	-0.144	0.016
-530.077	-81.932	-0.126	0.041
-529.062	-82.620	0.302	0.097
-528.048	713.165	-0.074	0.195
-527.033	43.236	-0.145	-0.132
-526.018	212.727	0.059	-0.092
-525.004	85.284	-0.209	-0.229
-523.989	-200.000	0.022	-0.414
-522.975	81.045	0.033	0.035
-521.960	193.518	-0.207	0.312
-520.945	-200.000	-0.089	0.406
-519.931	364.657	0.132	0.265
-518.916	-77.027	0.221	-0.077
-517.902	100.163	-0.099	0.114
-516.887	800.000	0.042	0.158
-515.872	546.610	-0.133	-0.316
-514.858	-140.575	0.269	-0.028
-513.843	173.237	-0.034	0.048
-512.829	439.152	0.065	-0.141
-511.814	80.560	-0.146	-0.157
-510.799	-200.000	-0.019	0.094
-509.785	267.713	-0.169	0.295
-508.770	398.667	-0.038	-0.080
-507.756	231.270	0.102	-0.166
-506.741	800.000	-0.025	-0.099
-505.726	119.019	0.106	0.131
-504.712	-200.000	0.034	0.190
-503.697	-59.249	-0.270	0.116
-502.683	-200.000	0.044	-0.258
-501.668	-31.967	0.030	0.017
-500.653	274.865	-0.137	0.242
-499.639	54.592	-0.096	-0.092
-498.624	121.858	-0.084	0.104
-497.610	-160.908	-0.123	0.006
-496.595	262.303	-0.149	0.258
-495.581	-200.000	0.033	-0.000
-494.566	-26.250	-0.140	-0.082
-493.551	-42.328	0.257	0.130
-492.537	-200.000	-0.035	0.165
-491.522	-169.835	0.487	0.017
-490.508	63.136	0.158	0.157
-489.493	149.165	0.091	0.122
-488.478	-192.197	-0.277	0.003
-487.464	0.253	0.257	-0.182
-486.449	-200.000	0.018	0.168
-485.435	-100.585	-0.085	0.021
-484.420	563.246	-0.112	0.271
-483.405	-21.907	0.178	0.108
-482.391	-199.406	-0.163	0.001
-481.376	-85.237	-0.203	-0.063
-480.362	-105.115	-0.157	-0.036
-479.347	800.000	-0.088	0.372
-478.332	-109.861	0.426	0.089
-477.318	127.263	0.201	0.253
-476.303	-190.169	-0.185	0.002
-475.289	159.658	0.034	0.048
-474.274	13.289	-0.070	-0.054
-473.259	-125.959	0.341	0.051
-472.245	314.487	-0.075	0.141
-471.230	-198.792	0.062	0.000
-470.216	113.575	0.058	0.070
-469.201	7.514	-0.117	-0.087
-468.186	-97.780	-0.063	0.016
-467.172	370.748	0.054	-0.108
-466.157	-21.541	0.098	-0.059
-465.143	412.983	-0.068	0.143
-464.128	-200.000	-0.018	0.141
-463.113	-144.331	0.126	-0.012
-462.099	-181.177	-0.261	0.005
-461.084	-110.096	0.310	-0.064
-460.070	-200.000	0.005	0.171
-459.055	800.000	0.074	-0.256
-458.040	-86.956	0.062	0.019
-457.026	-200.000	-0.016	0.231
-456.011	-200.000	0.001	0.092
-454.997	-200.000	0.043	0.213
-453.982	-35.013	-0.245	-0.133
-452.968	-11.885	0.249	0.162
-451.953	15.537	-0.046	-0.036
-450.938	-200.000	-0.041	0.316
-449.924	296.232	0.200	-0.365
-448.909	24.593	-0.034	-0.028
-447.895	205.769	-0.242	0.373
-446.880	54.032	-0.162	-0.155
-445.865	-97.462	0.354	0.092
-444.851	800.000	-0.023	0.066
-443.836	206.603	0.119	0.184
-442.822	58.550	-0.078	-0.076
-441.807	-64.188	0.026	0.010
-440.792	800.000	-0.053	-0.179
-439.778	422.400	-0.064	-0.136
-438.763	524.058	0.047	0.111
-437.749	-200.000	0.032	0.236
-436.734	109.353	-0.076	-0.090
-435.719	-19.697	0.072	0.044
-434.705	276.152	0.096	0.169
-433.690	185.690	-0.298	-0.440
-432.676	681.421	-0.007	-0.018
-431.661	217.416	0.012	-0.019
-430.646	558.901	0.077	0.183
-429.632	-200.000	-0.099	0.000
-428.617	-46.675	0.192	-0.093
-427.603	178.544	-0.104	-0.151
-426.588	-70.901	-0.345	-0.129
-425.573	-99.727	0.179	0.044
-424.559	800.000	0.017	-0.062
-423.544	299.161	-0.050	-0.091
-422.530	106.199	-0.254	-0.298
-421.515	59.191	0.131	0.128
-420.500	-200.000	-0.040	0.383
-419.486	412.279	0.116	0.245
-418.471	290.704	-0.105	-0.189
-417.457	32.777	-0.272	-0.234
-416.442	117.295	-0.169	0.206
-415.428	-57.054	-0.172	0.075
-414.413	14.692	0.406	0.315
-413.398	257.184	0.224	0.382
-412.384	6.818	-0.298	0.220
-411.369	-100.012	0.090	0.022
-410.355	34.570	-0.262	-0.227
-409.340	353.709	0.034	-0.067
-408.325	-118.836	-0.186	0.032
-407.311	800.000	-0.123	-0.473
-406.296	-43.679	0.337	-0.168
-405.282	-200.000	-0.001	0.036
-404.267	281.528	0.097	0.172
-403.252	-200.000	-0.055	0.246
-402.238	19.756	-0.158	-0.126
-401.223	-108.513	0.256	-0.054
-400.209	87.576	0.126	-0.138
-399.194	-169.956	0.102	-0.004
-398.179	-157.158	-0.075	0.004
-397.165	-44.490	0.085	0.042
-396.150	800.000	-0.083	-0.348
-395.136	705.993	0.127	-0.331
-394.121	-39.095	0.194	0.101
-393.106	-200.000	-0.020	-0.164
-392.092	633.969	-0.081	0.205
-391.077	-125.452	-0.101	0.015
-390.063	-106.150	0.242	0.054
-389.048	413.417	0.111	-0.235
-388.033	485.670	0.146	0.329
-387.019	-28.771	-0.100	-0.057
-386.004	-10.800	0.132	0.086
-384.990	800.000	0.012	-0.035
-383.975	-131.352	-0.165	-0.022
-382.960	-200.000	0.031	0.216
-381.946	-69.443	0.247	0.094
-380.931	800.000	-0.035	0.111
-379.917	27.616	-0.254	-0.212
-378.902	48.681	-0.113	-0.105
-377.888	-200.000	0.017	0.282
-376.873	-135.915	0.265	0.031
-375.858	-62.844	0.168	-0.069
-374.844	-200.000	0.004	0.152
-373.829	355.296	-0.080	-0.158
-372.815	31.515	0.066	-0.056
-371.800	205.173	0.107	-0.164
-370.785	-26.051	0.324	-0.189
-369.771	695.364	-0.162	-0.421
-368.756	152.344	0.100	-0.135
-367.742	205.895	0.278	-0.428
-366.727	-33.676	0.246	0.134
-365.712	-150.153	-0.127	-0.010
-364.698	-200.000	0.004	0.141
-363.683	792.957	0.093	0.254
-362.669	16.783	-0.092	0.072
-361.654	38.141	-0.236	0.208
-360.639	486.644	0.032	-0.073
-359.625	-107.629	-0.327	0.071
-358.610	255.750	-0.141	-0.240
-357.596	-200.000	0.043	-0.242
-356.581	108.978	-0.127	-0.150
-355.566	-32.891	-0.399	-0.219
-354.552	14.343	0.074	-0.057
-353.537	21.526	-0.144	0.116
-352.523	-200.000	0.000	0.048
-351.508	-96.724	-0.349	0.091
-350.493	58.150	-0.153	-0.149
-349.479	-117.848	-0.225	-0.040
-348.464	161.139	-0.057	0.079
-347.450	-7.784	0.090	0.060
-346.435	800.000	0.071	0.223
-345.420	138.155	0.184	0.238
-344.406	-73.924	-0.147	0.053
-343.391	-200.000	0.014	-0.349
-342.377	-15.313	0.142	0.090
-341.362	-200.000	0.042	0.203
-340.348	-200.000	-0.051	0.298
-339.333	-68.418	0.281	0.108
-338.318	-180.835	-0.357	-0.007
-337.304	-200.000	0.053	0.325
-336.289	-200.000	-0.024	0.346
-335.275	800.000	-0.082	0.333
-334.260	-108.162	-0.170	-0.036
-333.245	160.791	0.108	-0.149
-332.231	225.110	-0.026	0.042
-331.216	-182.465	-0.177	-0.003
-330.202	17.533	0.092	0.073
-329.187	-31.480	-0.115	-0.064
-328.172	-200.000	-0.029	-0.178
-327.158	179.413	-0.171	-0.247
-326.143	266.420	-0.020	-0.034
-325.129	-20.731	0.087	0.053
-324.114	17.213	-0.111	0.087
-323.099	-156.648	0.103	0.006
-322.085	174.835	-0.285	-0.407
-321.070	800.000	-0.039	-0.147
-320.056	141.170	-0.059	0.077
-319.041	124.430	0.091	0.113
-318.026	125.356	-0.192	0.239
-317.012	-34.039	0.344	0.187
-315.997	440.160	0.058	-0.124
-314.983	-30.200	-0.077	-0.043
-313.968	-135.920	-0.282	-0.033
-312.953	191.251	-0.231	0.343
-311.939	312.905	-0.058	0.107
-310.924	192.808	0.134	-0.200
-309.910	0.348	-0.238	-0.168
-308.895	736.865	0.056	0.149
-307.880	-200.000	-0.008	0.083
-306.866	-200.000	0.002	0.037
-305.851	-124.070	-0.037	-0.006
-304.837	800.000	-0.097	-0.311
-303.822	-89.400	-0.155	-0.045
-302.807	-169.870	0.129	-0.005
-301.793	-121.458	0.102	0.017
-300.778	-43.444	-0.234	-0.117
-299.764	-200.000	-0.004	-0.098
-298.749	-98.449	-0.261	-0.066
-297.735	-42.447	0.258	0.130
-296.720	39.011	-0.142	0.126
-295.705	-123.875	0.386	-0.060
-294.691	-200.000	0.017	-0.129
-293.676	800.000	0.026	-0.082
-292.662	68.311	0.185	0.187
-291.647	-20.180	-0.161	-0.098
-290.632	123.641	-0.080	-0.098
-289.618	-29.091	0.248	0.140
-288.603	800.000	-0.026	0.095
-287.589	-200.000	-0.030	0.251
-286.574	-68.355	0.259	0.099
-285.559	-180.904	0.099	-0.002
-284.545	505.784	0.134	-0.306
-283.530	-200.000	0.015	-0.171
-282.516	1.216	0.099	0.070
-281.501	-27.607	-0.155	-0.089
-280.486	-86.018	0.113	-0.035
-279.472	-200.000	0.008	-0.065
-278.457	800.000	0.037	-0.158
-277.443	-140.725	-0.501	-0.051
-276.428	787.891	-0.141	-0.381
-275.413	-0.067	0.127	0.089
-274.399	523.061	-0.106	0.246
-273.384	-133.330	0.194	0.024
-272.370	160.063	-0.123	-0.170
-271.355	-119.719	0.200	0.034
-270.340	-122.102	0.344	-0.056
-269.326	-71.691	0.219	0.081
-268.311	-200.000	-0.007	-0.045
-267.297	90.006	0.106	-0.117
-266.282	97.205	-0.250	-0.283
-265.267	-139.349	0.364	0.039
-264.253	-50.107	-0.136	0.063
-263.238	-137.172	-0.114	-0.013
-262.224	-18.496	-0.118	0.073
-261.209	-200.000	-0.067	0.513
-260.195	-97.438	0.110	0.028
-259.180	800.000	-0.022	-0.075
-258.165	-89.419	0.338	-0.098
-257.151	-200.000	0.055	-0.376
-256.136	-72.622	-0.156	0.057
-255.122	65.987	-0.108	0.108
-254.107	-200.000	0.036	0.322
-253.092	-46.812	0.141	0.068
-252.078	21.793	-0.029	0.023
-251.063	-200.000	-0.016	-0.081
-250.049	246.988	0.100	0.167
-249.034	-88.777	0.298	0.087
-248.019	544.260	-0.104	0.245
-247.005	-200.000	0.065	0.393
-245.990	-55.182	0.149	0.066
-244.976	-12.840	0.207	0.133
-243.961	473.950	0.047	0.106
-242.946	-33.775	-0.175	0.095
-241.932	1.448	0.162	-0.114
-240.917	219.944	0.034	-0.054
-239.903	106.564	0.127	0.148
-238.888	-200.000	-0.042	-0.504
-237.873	-17.149	-0.121	0.075
-236.859	-168.524	-0.129	0.005
-235.844	-33.115	0.223	0.122
-234.830	23.355	-0.147	-0.119
-233.815	-103.111	-0.150	-0.035
-232.800	-200.000	-0.010	0.105
-231.786	-158.440	0.391	0.022
-230.771	-200.000	-0.002	0.174
-229.757	21.140	0.396	-0.317
-228.742	-31.360	0.140	-0.078
-227.727	-27.247	0.560	0.321
-226.713	166.806	-0.152	-0.212
-225.698	-93.050	-0.319	0.087
-224.684	-200.000	0.001	0.302
-223.669	-10.480	0.269	0.176
-222.655	800.000	0.072	0.215
-221.640	21.785	-0.059	0.047
-220.625	-80.120	0.145	0.048
-219.611	800.000	-0.077	0.244
-218.596	-200.000	0.002	0.093
-217.582	800.000	-0.019	-0.058
-216.567	-85.943	-0.288	-0.088
-215.552	-73.680	0.031	0.011
-214.538	-6.850	0.299	-0.200
-213.523	-35.523	-0.165	-0.088
-212.509	-200.000	-0.008	-0.038
-211.494	-164.233	0.109	0.005
-210.479	-46.167	-0.520	-0.252
-209.465	-147.630	-0.112	0.009
-208.450	584.797	-0.092	0.222
-207.436	112.285	0.187	-0.222
-206.421	800.000	-0.136	-0.428
-205.406	118.392	-0.082	-0.099
-204.392	-90.437	-0.134	0.038
-203.377	30.818	0.106	0.090
-202.363	352.029	0.146	-0.284
-201.348	62.074	-0.121	0.119
-200.333	-116.232	-0.399	0.073
-199.319	800.000	0.069	-0.240
-198.304	-200.000	0.020	-0.241
-197.290	-100.010	0.359	-0.088
-196.275	130.818	-0.106	-0.133
-195.260	168.527	-0.170	-0.238
-194.246	-76.243	0.259	0.090
-193.231	-60.365	0.310	0.130
-192.217	-200.000	-0.032	-0.152
-191.202	489.560	0.030	0.067
-190.187	800.000	-0.040	0.141
-189.173	676.071	0.012	-0.031
-188.158	-200.000	0.298	-0.001
-187.144	70.509	-0.137	0.140
-186.129	-60.536	0.267	0.111
-185.114	-29.527	0.032	0.018
-184.100	-93.993	-0.407	-0.110
-183.085	-108.852	0.381	0.080
-182.071	583.585	-0.102	0.247
-181.056	-121.485	-0.205	0.033
-180.042	800.000	-0.067	-0.225
-179.027	-7.847	-0.153	0.101
-178.012	20.292	0.297	-0.236
-176.998	559.144	0.029	-0.068
-175.983	800.000	0.033	-0.124
-174.969	290.685	-0.173	-0.308
-173.954	237.213	0.335	0.545
-172.939	-10.654	-0.362	0.236
-171.925	-200.000	-0.076	0.605
-170.910	719.231	0.019	-0.050
-169.896	800.000	0.091	-0.391
-168.881	167.591	-0.111	0.155
-167.866	3.034	0.269	-0.192
-166.852	-54.373	0.183	-0.082
-165.837	-0.989	0.376	-0.261
-164.823	64.820	-0.278	-0.275
-163.808	-76.569	-0.371	-0.128
-162.793	-118.476	0.206	-0.036
-161.779	676.206	0.120	0.306
-160.764	115.452	0.162	0.195
-159.750	-61.551	0.213	0.088
-158.735	6.002	-0.285	-0.208
-157.720	-200.000	0.056	-0.283
-156.706	-200.000	0.016	-0.081
-155.691	305.867	-0.123	-0.225
-154.677	-54.200	-0.316	-0.141
-153.662	-86.677	0.334	0.100
-152.647	-102.094	-0.170	-0.040
-151.633	-48.778	0.023	0.011
-150.618	-123.557	0.145	-0.023
-149.604	-144.854	-0.296	-0.027
-148.589	118.197	-0.055	0.066
-147.574	116.291	0.128	0.154
-146.560	800.000	-0.040	-0.160
-145.545	441.247	0.062	0.133
-144.531	-189.759	-0.070	0.001
-143.516	-13.667	-0.203	0.129
-142.502	800.000	-0.040	-0.161
-141.487	-117.344	0.225	-0.040
-140.472	-80.153	0.054	-0.018
-139.458	800.000	-0.069	0.223
-138.443	188.270	0.078	0.114
-137.429	44.573	-0.041	0.037
-136.414	41.989	-0.086	0.077
-135.399	-200.000	-0.056	0.260
-134.385	-46.079	0.346	0.167
-133.370	68.355	-0.138	0.139
-132.356	-43.882	-0.179	-0.088
-131.341	-126.198	0.127	0.019
-130.326	65.820	-0.094	0.093
-129.312	41.616	-0.206	0.183
-128.297	172.059	0.059	0.083
-127.283	-155.000	-0.355	-0.023
-126.268	-111.775	-0.107	-0.021
-125.253	69.573	-0.218	0.220
-124.239	-155.478	0.121	-0.008
-123.224	173.881	-0.186	-0.264
-122.210	22.616	-0.100	0.081
