DTS Sentinel unit serial number:	SN413079Multiplexer serial number:	ORYXHardware model number:	OX4-SRSoftware version number:	ORYX F/W v4.00 Oryx Data Collector v3.7.2.0data status	okinstallation	princeton_trtdifferential loss correction	single-endedforward channel	channel 1reverse channel	N/Adate	2019/09/14time	23:26:35forward acquisition time	60.00reverse acquisition time	0.00gamma	496.2192k internal	0.2320k external	0.2320temperature offset calibration	0.9993default loss term (dB/km)	0.3790temperature slope calibration	1.0000multiplexer offset coefficient	1.0000multiplexer slope coefficient	1.0000fibre end	0.00T internal ref (°C)	32.37T ext. ref 1 (°C)	4.63T ext. ref 2 (°C)	27.39length (m)	temperature (°C)	Stokes	anti-Stokes-747.200	-200.000	-0.063	-0.332
-746.185	588.318	-0.048	-0.118
-745.171	-68.433	0.196	-0.077
-744.156	-23.422	0.193	0.117
-743.142	41.240	0.139	-0.127
-742.127	540.982	-0.144	0.347
-741.112	-28.168	0.095	-0.056
-740.098	237.530	-0.088	0.148
-739.083	735.651	-0.030	0.081
-738.069	-128.668	0.277	0.040
-737.054	278.990	-0.126	0.228
-736.039	31.586	-0.270	0.235
-735.025	800.000	-0.015	-0.053
-734.010	-67.484	0.317	-0.126
-732.996	-115.420	0.219	0.042
-731.981	800.000	-0.077	0.321
-730.966	-160.304	-0.275	-0.015
-729.952	30.719	-0.076	0.065
-728.937	-2.566	-0.175	-0.124
-727.923	184.934	0.076	0.114
-726.908	-137.711	-0.215	0.024
-725.894	-200.000	0.023	-0.138
-724.879	12.744	-0.054	-0.042
-723.864	34.979	-0.204	-0.180
-722.850	333.802	0.026	0.050
-721.835	-72.149	-0.023	0.009
-720.821	-77.619	-0.335	0.117
-719.806	-20.575	0.126	-0.078
-718.791	-90.355	-0.326	-0.095
-717.777	-50.193	-0.052	0.025
-716.762	-53.822	-0.291	-0.134
-715.748	-42.158	-0.172	-0.089
-714.733	-23.539	-0.175	-0.106
-713.718	272.337	0.046	-0.081
-712.704	-112.060	0.136	0.028
-711.689	166.509	-0.062	0.089
-710.675	-115.199	0.081	-0.016
-709.660	-200.000	-0.014	-0.255
-708.645	800.000	0.065	-0.206
-707.631	800.000	0.021	-0.066
-706.616	5.724	-0.165	-0.123
-705.602	58.636	-0.186	0.184
-704.587	25.759	0.088	0.074
-703.572	-28.412	-0.240	0.139
-702.558	59.890	-0.195	-0.194
-701.543	-72.773	-0.378	0.141
-700.529	-200.000	0.001	-0.199
-699.514	77.063	-0.155	-0.166
-698.499	-37.516	0.272	0.146
-697.485	-157.901	0.392	-0.023
-696.470	800.000	-0.089	-0.294
-695.456	179.820	0.368	0.544
-694.441	-164.048	-0.343	0.016
-693.426	-133.934	0.264	-0.033
-692.412	-200.000	-0.012	0.154
-691.397	61.410	-0.015	-0.015
-690.383	800.000	0.056	-0.218
-689.368	130.681	0.154	-0.199
-688.354	800.000	0.058	0.183
-687.339	58.537	-0.042	0.042
-686.324	-63.450	-0.141	-0.059
-685.310	56.928	0.098	-0.096
-684.295	132.837	0.140	-0.182
-683.281	-200.000	0.021	0.235
-682.266	504.261	-0.040	-0.093
-681.251	800.000	0.073	0.252
-680.237	-200.000	-0.012	-0.203
-679.222	162.383	-0.133	0.188
-678.208	-113.405	-0.203	-0.040
-677.193	636.469	-0.008	0.021
-676.178	800.000	0.116	-0.357
-675.164	-200.000	0.007	0.228
-674.149	-97.353	-0.188	0.049
-673.135	-85.829	0.367	-0.115
-672.120	-200.000	0.033	-0.151
-671.105	-109.350	0.226	-0.048
-670.091	-65.961	-0.087	-0.035
-669.076	-87.692	-0.131	0.040
-668.062	-121.682	0.159	0.027
-667.047	193.035	-0.149	0.227
-666.032	30.717	-0.212	0.183
-665.018	-2.549	0.165	-0.116
-664.003	-51.929	-0.084	-0.039
-662.989	103.698	-0.117	0.139
-661.974	-84.681	-0.036	-0.011
-660.959	-96.982	-0.184	0.048
-659.945	321.398	-0.114	-0.219
-658.930	217.517	0.077	-0.123
-657.916	-66.082	-0.196	-0.079
-656.901	547.322	-0.135	-0.326
-655.886	168.516	-0.090	0.129
-654.872	-200.000	-0.015	-0.157
-653.857	130.525	-0.164	0.211
-652.843	26.434	0.250	-0.210
-651.828	299.262	0.023	0.044
-650.814	800.000	0.020	-0.066
-649.799	-68.498	0.143	0.056
-648.784	117.060	-0.134	0.166
-647.770	-47.367	-0.056	0.028
-646.755	-181.579	-0.451	0.009
-645.741	-119.220	-0.282	-0.050
-644.726	58.527	-0.035	-0.034
-643.711	-68.911	0.217	0.084
-642.697	0.106	-0.076	-0.054
-641.682	173.347	-0.174	0.253
-640.668	39.298	0.320	0.288
-639.653	62.981	0.058	0.058
-638.638	-151.589	-0.248	-0.018
-637.624	-131.757	-0.124	-0.016
-636.609	-200.000	-0.030	0.150
-635.595	-200.000	0.048	0.284
-634.580	-15.212	0.040	0.026
-633.565	-200.000	0.012	0.105
-632.551	-13.628	-0.123	-0.080
-631.536	-91.727	0.289	0.083
-630.522	-105.349	-0.231	0.053
-629.507	-200.000	0.003	0.092
-628.492	80.133	0.113	-0.122
-627.478	800.000	-0.056	0.171
-626.463	-58.390	0.137	-0.060
-625.449	-200.000	0.044	-0.243
-624.434	800.000	-0.064	0.239
-623.419	298.797	-0.108	-0.200
-622.405	-78.972	-0.237	-0.081
-621.390	-200.000	0.012	0.228
-620.376	154.595	-0.045	0.062
-619.361	-200.000	-0.016	-0.148
-618.346	-4.403	0.157	0.109
-617.332	89.472	0.319	0.358
-616.317	8.521	0.277	-0.210
-615.303	-57.518	-0.236	0.104
-614.288	-15.883	-0.293	-0.188
-613.273	1.726	-0.326	0.236
-612.259	421.081	-0.114	-0.246
-611.244	64.153	0.216	-0.219
-610.230	-128.273	-0.440	0.063
-609.215	201.527	-0.165	0.256
-608.201	482.198	0.112	0.255
-607.186	61.586	-0.192	-0.192
-606.171	299.081	-0.054	0.100
-605.157	-200.000	0.008	-0.063
-604.142	-26.301	-0.067	-0.039
-603.128	66.656	0.280	0.287
-602.113	312.989	0.179	-0.337
-601.098	800.000	0.034	-0.122
-600.084	566.575	0.030	-0.074
-599.069	53.261	0.048	0.046
-598.055	696.888	-0.096	0.253
-597.040	508.351	-0.054	0.127
-596.025	-103.998	0.458	0.107
-595.011	-92.543	-0.255	-0.072
-593.996	503.951	-0.021	0.050
-592.982	-157.723	0.023	0.001
-591.967	-98.349	-0.076	0.020
-590.952	247.913	0.083	0.141
-589.938	575.956	-0.080	-0.197
-588.923	301.649	-0.128	-0.238
-587.909	-200.000	0.033	-0.283
-586.894	-11.436	0.058	0.038
-585.879	-111.660	-0.059	-0.012
-584.865	140.058	0.144	0.190
-583.850	-143.055	-0.152	0.015
-582.836	-32.435	-0.280	0.157
-581.821	37.795	0.143	-0.127
-580.806	-15.116	-0.177	-0.114
-579.792	-22.071	0.508	-0.310
-578.777	-115.701	0.084	-0.016
-577.763	175.097	0.075	0.109
-576.748	-62.789	0.091	0.038
-575.733	-52.739	-0.391	0.181
-574.719	-29.889	-0.162	0.093
-573.704	-200.000	0.015	-0.168
-572.690	164.520	-0.275	0.389
-571.675	-36.145	-0.035	-0.019
-570.661	22.067	-0.295	0.242
-569.646	135.596	0.088	-0.116
-568.631	-27.996	0.136	0.079
-567.617	-19.367	0.326	0.203
-566.602	-70.473	0.222	-0.084
-565.588	-112.157	-0.061	-0.012
-564.573	-9.365	-0.123	-0.082
-563.558	-175.143	-0.563	0.016
-562.544	-200.000	0.003	-0.074
-561.529	-99.069	0.250	0.064
-560.515	-14.174	-0.149	0.097
-559.500	-90.338	0.249	-0.073
-558.485	-137.375	-0.192	0.022
-557.471	800.000	-0.093	0.360
-556.456	-53.149	-0.214	0.099
-555.442	327.605	0.143	-0.275
-554.427	287.439	-0.056	-0.102
-553.412	-200.000	-0.023	-0.282
-552.398	-200.000	-0.000	0.286
-551.383	800.000	-0.065	-0.240
-550.369	-24.463	-0.239	0.143
-549.354	-101.908	-0.089	-0.021
-548.339	-22.048	0.155	-0.095
-547.325	-34.638	-0.215	-0.118
-546.310	800.000	-0.067	-0.214
-545.296	-179.516	-0.112	-0.002
-544.281	-200.000	0.093	-0.421
-543.266	667.793	-0.076	-0.197
-542.252	271.630	-0.165	-0.292
-541.237	602.144	0.019	-0.047
-540.223	-61.745	-0.252	0.106
-539.208	-200.000	-0.010	-0.068
-538.193	-25.348	-0.162	0.096
-537.179	568.011	-0.082	0.199
-536.164	36.777	-0.164	0.145
-535.150	-200.000	-0.042	0.300
-534.135	-200.000	0.035	-0.219
-533.121	350.533	-0.051	-0.102
-532.106	64.298	0.103	-0.104
-531.091	36.464	0.058	0.052
-530.077	85.289	-0.184	0.202
-529.062	-68.542	-0.189	-0.074
-528.048	761.254	-0.048	-0.131
-527.033	-106.010	0.148	-0.033
-526.018	-95.056	0.132	0.036
-525.004	-87.550	-0.081	-0.025
-523.989	800.000	0.026	0.075
-522.975	-118.924	0.269	-0.047
-521.960	283.122	0.082	0.147
-520.945	-200.000	-0.020	0.144
-519.931	-176.675	-0.167	-0.004
-518.916	800.000	-0.059	0.165
-517.902	161.693	0.104	0.146
-516.887	92.937	0.114	0.129
-515.872	-65.567	-0.128	0.051
-514.858	800.000	0.080	0.231
-513.843	-200.000	0.032	0.252
-512.829	-4.291	0.271	0.188
-511.814	-65.818	0.325	0.130
-510.799	185.664	-0.102	0.152
-509.785	-200.000	0.039	0.337
-508.770	-183.437	-0.251	0.004
-507.756	-141.474	-0.147	0.015
-506.741	286.024	0.110	0.199
-505.726	177.275	-0.341	-0.497
-504.712	-130.908	-0.126	0.017
-503.697	-54.489	-0.084	0.038
-502.683	-64.934	-0.228	-0.092
-501.668	-200.000	0.063	0.308
-500.653	-129.624	0.435	-0.060
-499.639	-138.162	-0.280	-0.031
-498.624	-200.000	-0.007	0.144
-497.610	-20.214	0.093	0.057
-496.595	800.000	-0.043	-0.122
-495.581	5.410	-0.199	-0.147
-494.566	388.485	0.107	0.221
-493.551	800.000	-0.080	-0.274
-492.537	800.000	-0.090	-0.291
-491.522	-38.380	-0.041	0.022
-490.508	-51.687	-0.083	0.039
-489.493	-104.451	0.127	0.029
-488.478	-200.000	0.074	-0.400
-487.464	-200.000	-0.017	-0.122
-486.449	-200.000	0.043	-0.348
-485.435	-114.413	0.230	-0.044
-484.420	-200.000	-0.020	-0.403
-483.405	193.135	0.088	0.133
-482.391	-108.605	0.143	-0.031
-481.376	100.265	0.105	0.122
-480.362	-6.868	-0.100	-0.068
-479.347	-76.674	0.313	0.110
-478.332	222.351	0.135	0.218
-477.318	306.321	-0.123	0.230
-476.303	-200.000	0.004	0.151
-475.289	729.316	0.026	-0.068
-474.274	-28.206	-0.263	-0.152
-473.259	-171.154	-0.291	0.010
-472.245	-117.974	-0.208	-0.037
-471.230	-200.000	-0.013	-0.264
-470.216	800.000	-0.083	-0.236
-469.201	-169.040	0.453	-0.017
-468.186	86.390	-0.161	-0.178
-467.172	-129.576	0.201	0.028
-466.157	140.762	-0.090	0.119
-465.143	796.831	0.039	0.107
-464.128	800.000	0.034	-0.119
-463.113	-75.989	-0.415	-0.147
-462.099	-31.912	0.192	0.107
-461.084	-95.956	-0.043	0.011
-460.070	280.282	-0.115	-0.206
-459.055	-63.719	-0.152	-0.062
-458.040	446.111	0.038	0.084
-457.026	-132.327	0.203	0.026
-456.011	8.263	-0.277	-0.208
-454.997	-200.000	-0.043	-0.338
-453.982	-152.287	0.316	0.023
-452.968	-98.096	0.230	-0.059
-451.953	-94.135	0.132	0.036
-450.938	-200.000	-0.052	0.335
-449.924	-84.573	-0.094	-0.030
-448.909	800.000	-0.066	-0.242
-447.895	-109.370	0.367	0.078
-446.880	800.000	-0.035	-0.132
-445.865	-76.393	-0.164	-0.058
-444.851	30.217	-0.308	-0.263
-443.836	1.693	0.254	-0.183
-442.822	-7.882	-0.159	0.108
-441.807	-200.000	0.011	0.182
-440.792	265.769	0.164	0.286
-439.778	-111.781	-0.203	0.041
-438.763	-8.574	0.233	-0.157
-437.749	-1.515	-0.026	-0.019
-436.734	-200.000	-0.021	-0.499
-435.719	-56.859	0.189	0.083
-434.705	-7.496	0.033	-0.022
-433.690	-7.370	-0.145	0.098
-432.676	800.000	-0.022	0.070
-431.661	-200.000	0.020	0.199
-430.646	-200.000	0.008	0.300
-429.632	-123.605	0.307	-0.049
-428.617	-200.000	-0.003	-0.103
-427.603	-73.848	0.229	0.083
-426.588	800.000	-0.103	-0.304
-425.573	113.744	0.185	-0.224
-424.559	-38.526	-0.071	-0.038
-423.544	-120.396	0.160	0.027
-422.530	800.000	0.069	0.217
-421.515	-6.116	0.144	-0.098
-420.500	501.532	-0.115	-0.266
-419.486	-200.000	0.023	-0.335
-418.471	6.528	-0.108	-0.080
-417.457	-167.701	-0.164	-0.006
-416.442	225.320	0.279	0.450
-415.428	-4.953	-0.081	-0.056
-414.413	-115.775	0.050	-0.009
-413.398	-105.884	0.145	-0.033
-412.384	166.229	-0.060	0.085
-411.369	136.152	0.108	0.140
-410.355	249.605	0.284	0.480
-409.340	225.097	-0.069	-0.111
-408.325	-115.876	-0.426	-0.079
-407.311	118.750	0.131	-0.161
-406.296	-200.000	-0.003	-0.130
-405.282	-123.524	-0.340	0.054
-404.267	800.000	-0.088	-0.267
-403.252	-200.000	-0.023	0.271
-402.238	-200.000	-0.066	0.369
-401.223	18.672	0.218	-0.174
-400.209	291.483	0.117	0.213
-399.194	69.861	-0.162	0.166
-398.179	116.750	-0.217	-0.266
-397.165	-199.724	0.338	-0.002
-396.150	498.318	0.027	-0.063
-395.136	60.988	0.121	0.119
-394.121	-86.387	0.188	-0.058
-393.106	-7.594	0.088	0.059
-392.092	-34.226	-0.055	0.030
-391.077	75.576	-0.158	-0.166
-390.063	33.276	-0.037	-0.032
-389.048	114.397	-0.198	0.240
-388.033	-123.125	-0.248	0.040
-387.019	651.339	0.029	-0.075
-386.004	39.604	0.250	0.224
-384.990	800.000	-0.119	0.357
-383.975	330.216	0.078	-0.149
-382.960	-19.026	0.051	0.032
-381.946	471.553	0.068	-0.153
-380.931	-100.640	0.286	-0.070
-379.917	-49.691	-0.036	0.017
-378.902	75.871	-0.189	-0.199
-377.888	241.042	0.099	-0.166
-376.873	445.458	0.117	-0.256
-375.858	88.913	0.076	0.085
-374.844	125.261	-0.148	0.186
-373.829	-200.000	-0.019	-0.404
-372.815	-157.205	0.234	0.014
-371.800	165.663	-0.085	0.120
-370.785	-44.228	-0.301	0.150
-369.771	-200.000	-0.022	0.402
-368.756	-60.740	-0.111	0.047
-367.742	70.612	0.197	-0.203
-366.727	800.000	0.056	-0.208
-365.712	-118.692	0.301	-0.053
-364.698	-200.000	0.001	0.182
-363.683	96.364	0.097	-0.110
-362.669	-85.928	0.219	-0.067
-361.654	-200.000	-0.001	-0.067
-360.639	99.192	-0.160	-0.184
-359.625	-200.000	0.046	-0.414
-358.610	-186.501	0.234	0.003
-357.596	-80.358	-0.022	0.007
-356.581	-145.769	0.351	0.031
-355.566	-124.463	0.219	0.034
-354.552	800.000	0.017	-0.058
-353.537	-200.000	0.007	-0.257
-352.523	800.000	0.072	0.224
-351.508	-200.000	-0.019	0.306
-350.493	800.000	-0.071	0.231
-349.479	-78.596	-0.324	-0.110
-348.464	74.905	0.184	-0.192
-347.450	800.000	-0.039	-0.114
-346.435	352.824	0.144	-0.283
-345.420	69.437	-0.162	-0.166
-344.406	52.211	-0.197	0.187
-343.391	-144.685	-0.305	0.028
-342.377	550.161	0.078	-0.186
-341.362	166.281	-0.041	-0.057
-340.348	34.277	-0.426	0.370
-339.333	-200.000	-0.026	-0.214
-338.318	-43.976	-0.297	-0.149
-337.304	460.778	-0.147	0.326
-336.289	98.968	0.054	0.063
-335.275	37.328	-0.083	0.073
-334.260	-46.523	0.149	0.073
-333.245	-37.766	0.296	-0.156
-332.231	-20.780	-0.359	0.219
-331.216	267.755	-0.142	0.248
-330.202	-200.000	-0.031	0.200
-329.187	-38.206	0.139	0.074
-328.172	57.726	0.296	-0.288
-327.158	-84.183	-0.438	-0.138
-326.143	78.633	0.161	-0.171
-325.129	66.378	0.066	-0.067
-324.114	-200.000	-0.019	-0.263
-323.099	-92.332	-0.063	0.018
-322.085	316.958	-0.099	0.185
-321.070	-110.894	0.083	0.017
-320.056	-84.794	0.133	0.041
-319.041	361.042	0.085	-0.169
-318.026	-111.279	-0.386	0.078
-317.012	-81.127	0.091	0.030
-315.997	-110.540	-0.488	-0.101
-314.983	294.335	0.260	0.473
-313.968	669.738	-0.035	-0.091
-312.953	253.515	-0.084	-0.142
-311.939	-39.717	0.105	0.055
-310.924	21.063	0.114	-0.092
-309.910	88.317	0.154	-0.170
-308.895	-29.952	0.281	-0.159
-307.880	-129.809	0.111	0.015
-306.866	75.143	0.099	-0.103
-305.851	-200.000	0.025	0.117
-304.837	-118.182	0.112	0.020
-303.822	386.085	0.096	-0.196
-302.807	27.563	-0.045	-0.037
-301.793	144.444	-0.250	0.332
-300.778	-82.365	-0.330	0.107
-299.764	-75.259	0.055	0.019
-298.749	-200.000	-0.051	-0.296
-297.735	151.049	0.136	-0.183
-296.720	488.494	-0.075	-0.170
-295.705	70.673	-0.255	0.263
-294.691	440.516	-0.124	-0.270
-293.676	-31.254	0.247	0.138
-292.662	800.000	-0.033	-0.097
-291.647	52.110	0.204	0.193
-290.632	418.575	-0.090	-0.190
-289.618	-70.900	-0.201	-0.075
-288.603	-95.214	0.046	-0.012
-287.589	-68.570	-0.263	0.101
-286.574	198.184	-0.099	-0.151
-285.559	-200.000	0.004	0.073
-284.545	-200.000	0.176	-0.001
-283.530	800.000	0.069	0.209
-282.516	800.000	0.022	-0.092
-281.501	-200.000	0.021	0.154
-280.486	142.630	0.163	0.216
-279.472	-200.000	-0.051	0.250
-278.457	533.522	0.090	0.213
-277.443	-200.000	-0.030	-0.194
-276.428	-91.665	0.136	-0.038
-275.413	146.416	0.092	0.122
-274.399	-200.000	0.038	-0.196
-273.384	12.539	-0.182	0.139
-272.370	354.463	0.151	0.298
-271.355	-91.787	0.255	-0.072
-270.340	639.988	-0.124	0.313
-269.326	-17.713	0.239	-0.149
-268.311	-51.479	-0.164	-0.076
-267.297	28.378	0.276	0.232
-266.282	-200.000	0.025	0.315
-265.267	800.000	-0.092	-0.326
-264.253	-200.000	0.001	-0.060
-263.238	-25.603	-0.224	-0.131
-262.224	70.319	0.170	-0.174
-261.209	-155.304	-0.241	-0.016
-260.195	90.157	-0.220	-0.244
-259.180	71.475	0.266	0.274
-258.165	-200.000	0.032	0.186
-257.151	39.077	-0.034	0.030
-256.136	-49.379	-0.123	0.058
-255.122	-119.189	-0.157	-0.027
-254.107	-200.000	-0.001	-0.295
-253.092	30.528	-0.094	-0.080
-252.078	800.000	-0.027	0.103
-251.063	-200.000	-0.017	0.101
-250.049	800.000	0.072	0.298
-249.034	-125.523	0.434	-0.065
-248.019	88.068	-0.177	-0.194
-247.005	115.207	0.036	-0.044
-245.990	20.242	0.090	0.072
-244.976	-148.279	0.277	-0.023
-243.961	-1.109	0.353	-0.248
-242.946	-68.479	-0.289	0.111
-241.932	-12.696	0.343	-0.222
-240.917	86.251	-0.134	-0.147
-239.903	83.089	-0.036	0.039
-238.888	235.899	-0.093	0.153
-237.873	800.000	0.034	-0.144
-236.859	141.436	-0.190	-0.249
-235.844	88.006	0.375	-0.413
-234.830	99.312	-0.138	-0.158
-233.815	-12.424	-0.106	0.069
-232.800	309.603	-0.108	-0.200
-231.786	-125.563	0.068	-0.010
-230.771	-44.306	-0.094	0.047
-229.757	800.000	-0.080	-0.273
-228.742	67.922	0.340	-0.344
-227.727	-200.000	0.049	0.416
-226.713	-172.224	-0.031	-0.001
-225.698	30.915	0.110	-0.094
-224.684	-58.047	0.114	-0.049
-223.669	140.999	-0.205	-0.269
-222.655	-73.765	0.322	-0.116
-221.640	-110.213	0.306	0.063
-220.625	-200.000	-0.001	0.218
-219.611	800.000	0.162	0.462
-218.596	-63.809	-0.111	0.045
-217.582	437.031	-0.042	0.090
-216.567	-200.000	0.035	0.277
-215.552	-200.000	-0.074	-0.362
-214.538	-200.000	-0.009	-0.113
-213.523	-120.823	-0.226	-0.038
-212.509	-82.093	-0.408	0.132
-211.494	-63.308	0.326	0.133
-210.479	283.441	-0.118	0.210
-209.465	-200.000	-0.007	0.049
-208.450	161.523	-0.120	0.166
-207.436	-37.270	-0.105	0.056
-206.421	-200.000	0.039	-0.336
-205.406	-37.809	0.093	-0.049
-204.392	-114.024	-0.349	0.067
-203.377	439.801	-0.124	0.267
-202.363	-200.000	-0.039	0.186
-201.348	-200.000	0.035	-0.295
-200.333	-58.423	-0.157	-0.068
-199.319	286.852	-0.048	-0.085
-198.304	44.483	0.269	-0.244
-197.290	99.229	0.100	-0.114
-196.275	800.000	-0.089	0.349
-195.260	-200.000	-0.002	-0.178
-194.246	-64.015	0.256	-0.103
-193.231	-200.000	0.018	-0.192
-192.217	288.159	0.108	0.194
-191.202	75.499	0.119	-0.125
-190.187	60.035	-0.152	0.148
-189.173	371.811	0.055	0.110
-188.158	24.566	-0.021	0.017
-187.144	57.174	0.207	0.200
-186.129	409.806	-0.175	0.366
-185.114	-200.000	-0.005	-0.104
-184.100	-65.522	0.331	-0.131
-183.085	-113.409	-0.172	0.033
-182.071	800.000	0.062	0.230
-181.056	-200.000	0.055	0.306
-180.042	112.059	-0.141	-0.169
-179.027	19.244	0.264	0.210
-178.012	87.525	0.240	-0.262
-176.998	-200.000	-0.053	-0.354
-175.983	154.980	0.025	0.034
-174.969	800.000	0.150	-0.502
-173.954	3.963	0.094	-0.068
-172.939	-141.747	0.471	-0.047
-171.925	800.000	0.031	0.094
-170.910	498.386	0.095	0.217
-169.896	800.000	0.098	0.305
-168.881	-0.171	-0.228	0.160
-167.866	388.694	0.022	0.045
-166.852	-49.942	-0.169	0.079
-165.837	16.235	0.220	0.171
-164.823	800.000	0.078	-0.257
-163.808	758.998	0.070	-0.187
-162.793	28.339	0.211	0.177
-161.779	800.000	0.042	0.118
-160.764	-48.223	0.211	0.100
-159.750	-87.638	0.203	0.061
-158.735	-78.662	-0.063	-0.021
-157.720	-200.000	0.020	-0.277
-156.706	800.000	-0.076	0.307
-155.691	-142.237	-0.299	-0.029
-154.677	-10.587	0.249	0.163
-153.662	224.813	-0.096	-0.153
-152.647	-140.559	-0.377	0.039
-151.633	513.152	0.021	-0.047
-150.618	308.260	-0.048	0.089
-149.604	800.000	-0.048	0.185
-148.589	-79.109	0.076	-0.025
-147.574	-115.219	0.172	0.032
-146.560	800.000	0.071	0.207
-145.545	-100.834	-0.352	0.086
-144.531	373.432	-0.185	-0.372
-143.516	-137.017	0.330	0.037
-142.502	98.823	0.341	0.389
-141.487	30.243	-0.302	0.254
-140.472	-134.671	0.158	-0.019
-139.458	-200.000	0.018	0.163
-138.443	106.514	0.102	-0.120
-137.429	-110.777	0.126	0.026
-136.414	65.962	-0.030	0.030
-135.399	-65.073	0.224	-0.089
-134.385	800.000	-0.098	-0.278
-133.370	-200.000	-0.017	-0.128
-132.356	-200.000	-0.083	0.543
-131.341	800.000	-0.052	-0.166
-130.326	197.441	-0.229	-0.345
-129.312	-19.125	0.156	-0.096
-128.297	-200.000	-0.007	-0.302
-127.283	8.112	-0.075	-0.055
-126.268	-95.571	-0.087	0.023
-125.253	107.420	0.124	0.146
-124.239	-200.000	-0.026	0.236
-123.224	-200.000	0.003	-0.042
-122.210	523.468	0.100	0.232
-121.195	-200.000	0.009	-0.159
