DTS Sentinel unit serial number:	SN413079Multiplexer serial number:	ORYXHardware model number:	OX4-SRSoftware version number:	ORYX F/W v4.00 Oryx Data Collector v3.7.2.0data status	okinstallation	princeton_trtdifferential loss correction	single-endedforward channel	channel 1reverse channel	N/Adate	2019/09/12time	19:34:34forward acquisition time	15.00reverse acquisition time	0.00gamma	496.2192k internal	0.2322k external	0.2322temperature offset calibration	1.0130default loss term (dB/km)	0.3790temperature slope calibration	1.0000multiplexer offset coefficient	1.0000multiplexer slope coefficient	1.0000fibre end	0.00T internal ref (°C)	32.19T ext. ref 1 (°C)	3.29T ext. ref 2 (°C)	26.58length (m)	temperature (°C)	Stokes	anti-Stokes-747.200	800.000	-0.095	0.285
-746.185	325.890	-0.312	-0.603
-745.171	-10.817	0.429	-0.286
-744.156	800.000	0.147	-0.478
-743.142	163.516	-0.351	-0.498
-742.127	60.458	-0.744	-0.744
-741.112	235.762	-0.486	-0.811
-740.098	800.000	0.086	-0.334
-739.083	-200.000	0.004	-0.185
-738.069	-200.000	-0.045	0.644
-737.054	-110.015	-0.878	0.186
-736.039	250.353	-0.298	0.511
-735.025	-51.595	-0.859	0.405
-734.010	185.888	0.662	0.994
-732.996	-200.000	-0.089	0.871
-731.981	34.803	-0.300	0.265
-730.966	-200.000	0.131	0.961
-729.952	126.652	-0.088	0.113
-728.937	-6.945	0.169	0.116
-727.923	-3.334	-0.320	-0.225
-726.908	-1.481	-0.675	-0.480
-725.894	19.300	0.316	-0.257
-724.879	-200.000	0.113	-0.614
-723.864	-147.949	0.428	0.036
-722.850	104.161	0.632	-0.750
-721.835	-107.512	-0.607	-0.134
-720.821	-193.048	-0.903	-0.008
-719.806	43.272	0.280	-0.258
-718.791	800.000	-0.088	-0.254
-717.777	-200.000	0.011	-0.318
-716.762	5.600	0.521	0.389
-715.748	-50.942	0.109	0.052
-714.733	-200.000	-0.068	0.448
-713.718	800.000	0.251	-0.932
-712.704	121.134	-0.506	-0.635
-711.689	-200.000	-0.002	0.729
-710.675	172.942	0.061	-0.089
-709.660	405.977	-0.223	0.474
-708.645	174.028	0.427	0.623
-707.631	-200.000	0.020	-0.160
-706.616	-200.000	0.035	-0.690
-705.602	219.088	0.242	-0.391
-704.587	12.269	-0.168	0.131
-703.572	551.734	0.043	-0.105
-702.558	23.749	-0.164	-0.136
-701.543	800.000	0.129	0.555
-700.529	206.134	0.057	0.089
-699.514	26.088	0.633	-0.533
-698.499	276.693	-0.172	-0.308
-697.485	-125.781	1.348	0.205
-696.470	-200.000	0.150	1.137
-695.456	-200.000	0.076	-0.540
-694.441	-200.000	-0.109	-0.553
-693.426	91.186	-0.764	-0.865
-692.412	296.939	-0.186	0.344
-691.397	-121.422	0.185	-0.031
-690.383	627.291	-0.199	0.508
-689.368	267.702	0.096	-0.169
-688.354	-58.752	1.085	-0.474
-687.339	-56.697	0.706	-0.315
-686.324	184.448	-0.431	-0.644
-685.310	232.452	0.062	0.102
-684.295	435.385	-0.425	0.932
-683.281	456.769	0.222	0.498
-682.266	-102.740	0.599	0.144
-681.251	132.096	-0.406	-0.527
-680.237	-3.348	-0.673	0.473
-679.222	-200.000	-0.008	-0.120
-678.208	800.000	-0.160	0.641
-677.193	-46.908	0.594	0.293
-676.178	-191.260	-0.215	-0.002
-675.164	-108.146	0.689	0.150
-674.149	130.984	-0.217	-0.280
-673.135	-143.514	0.485	-0.047
-672.120	-200.000	-0.070	0.310
-671.105	442.983	-0.178	-0.392
-670.091	157.665	0.194	-0.270
-669.076	43.778	0.422	-0.389
-668.062	265.131	0.288	0.506
-667.047	800.000	-0.172	0.655
-666.032	62.009	-0.487	0.490
-665.018	56.420	0.451	-0.442
-664.003	126.895	-0.464	0.593
-662.989	286.592	0.112	0.205
-661.974	32.842	0.329	0.287
-660.959	-71.622	-0.546	-0.205
-659.945	433.581	0.164	0.359
-658.930	147.839	0.246	-0.334
-657.916	800.000	-0.171	-0.516
-656.901	-78.755	-0.370	-0.127
-655.886	483.222	-0.265	-0.607
-654.872	-200.000	-0.017	0.677
-653.857	188.545	0.167	0.252
-652.843	-200.000	-0.007	-0.276
-651.828	800.000	-0.284	-1.148
-650.814	9.784	-0.080	-0.061
-649.799	-18.012	-0.472	0.298
-648.784	-114.182	0.921	-0.179
-647.770	-153.787	-0.191	-0.013
-646.755	46.390	0.542	-0.506
-645.741	-200.000	0.135	0.637
-644.726	-146.168	0.402	-0.036
-643.711	86.410	-0.288	0.320
-642.697	-61.687	0.350	0.148
-641.682	-118.054	-0.879	-0.158
-640.668	50.890	-0.607	-0.579
-639.653	-104.127	0.331	-0.077
-638.638	11.348	0.481	-0.370
-637.624	34.122	0.202	0.177
-636.609	323.620	-0.457	-0.877
-635.595	343.440	0.240	-0.472
-634.580	336.881	-0.059	-0.115
-633.565	704.604	0.117	-0.312
-632.551	98.729	-0.584	0.678
-631.536	-200.000	0.074	0.475
-630.522	-182.775	0.521	0.009
-629.507	-56.982	0.770	0.342
-628.492	709.843	0.036	0.096
-627.478	-89.444	-0.487	0.144
-626.463	584.048	-0.067	0.167
-625.449	-118.980	-0.934	0.165
-624.434	800.000	0.156	0.625
-623.419	800.000	-0.027	0.082
-622.405	-82.217	-0.596	-0.195
-621.390	36.685	-0.209	-0.186
-620.376	-200.000	0.015	-0.232
-619.361	-200.000	-0.062	-0.440
-618.346	-29.638	0.593	0.341
-617.332	-170.526	-1.180	-0.041
-616.317	163.008	-0.360	-0.508
-615.303	-200.000	-0.179	-0.791
-614.288	-30.462	0.310	0.177
-613.273	800.000	-0.247	1.082
-612.259	102.983	-0.447	0.526
-611.244	234.306	-0.331	-0.548
-610.230	-34.564	-0.503	0.277
-609.215	-200.000	-0.084	0.571
-608.201	75.460	0.623	-0.660
-607.186	-104.012	0.214	-0.050
-606.171	204.243	-0.233	-0.364
-605.157	-200.000	-0.169	0.779
-604.142	26.489	0.365	0.306
-603.128	-77.073	0.361	-0.127
-602.113	105.334	0.308	0.365
-601.098	-92.267	-0.519	-0.147
-600.084	210.947	-0.642	-1.015
-599.069	-200.000	0.160	0.715
-598.055	602.483	-0.130	-0.325
-597.040	-200.000	0.037	0.277
-596.025	-200.000	-0.095	0.955
-595.011	-137.779	-0.384	0.043
-593.996	167.516	0.326	-0.466
-592.982	-200.000	-0.007	0.083
-591.967	270.038	-0.170	-0.301
-590.952	114.824	0.069	0.085
-589.938	-83.817	0.698	0.223
-588.923	-200.000	-0.007	0.261
-587.909	442.394	0.265	0.584
-586.894	50.443	0.222	0.211
-585.879	-85.025	0.314	-0.099
-584.865	126.828	-0.404	0.515
-583.850	212.129	-0.284	-0.449
-582.836	-200.000	0.072	0.676
-581.821	-55.604	-0.458	0.206
-580.806	-13.902	0.343	0.223
-579.792	-150.894	-1.194	-0.091
-578.777	-73.775	-0.772	-0.282
-577.763	800.000	-0.060	0.225
-576.748	-39.488	0.815	-0.429
-575.733	14.900	-1.086	0.853
-574.719	-119.825	0.537	0.093
-573.704	-85.015	0.650	0.205
-572.690	-55.715	0.387	-0.174
-571.675	-200.000	-0.052	-0.322
-570.661	-82.067	-0.670	0.220
-569.646	90.137	-0.279	-0.313
-568.631	68.739	-0.353	0.363
-567.617	-17.635	0.151	0.095
-566.602	68.271	-0.250	-0.256
-565.588	-56.743	0.334	0.148
-564.573	-98.779	0.874	0.223
-563.558	82.209	0.328	0.357
-562.544	-170.183	-0.496	0.018
-561.529	315.417	0.348	-0.659
-560.515	-200.000	-0.102	0.635
-559.500	4.889	-0.080	-0.059
-558.485	38.716	-0.283	-0.254
-557.471	-67.813	-0.239	0.094
-556.456	-160.056	0.619	0.034
-555.442	122.621	0.245	-0.307
-554.427	-70.456	-0.611	-0.232
-553.412	800.000	0.342	-1.138
-552.398	572.157	0.428	1.046
-551.383	99.805	-0.249	-0.289
-550.369	-21.702	0.253	0.155
-549.354	-120.197	-0.471	0.081
-548.339	-125.968	0.697	-0.105
-547.325	-146.448	-0.566	-0.050
-546.310	-32.746	0.192	-0.107
-545.296	800.000	-0.153	0.641
-544.281	279.039	0.299	-0.534
-543.266	251.046	0.297	0.507
-542.252	-82.366	0.378	0.123
-541.237	-160.329	0.627	0.034
-540.223	29.014	-0.285	0.242
-539.208	-77.256	0.077	0.027
-538.193	-32.324	-1.194	0.668
-537.179	-61.868	-1.138	0.477
-536.164	-46.969	0.893	0.437
-535.150	73.771	0.717	-0.753
-534.135	224.421	0.202	-0.327
-533.121	800.000	-0.074	0.319
-532.106	-5.083	-0.099	0.069
-531.091	-200.000	0.028	-0.976
-530.077	-13.895	0.434	-0.281
-529.062	61.028	0.396	0.394
-528.048	-200.000	0.001	-0.077
-527.033	-79.937	-0.854	0.287
-526.018	-29.422	0.074	0.043
-525.004	-200.000	-0.162	-0.893
-523.989	-53.466	-0.242	-0.111
-522.975	800.000	-0.131	0.394
-521.960	800.000	0.330	-1.003
-520.945	-70.836	0.335	0.126
-519.931	340.636	0.496	0.971
-518.916	-156.580	-0.368	0.023
-517.902	-200.000	0.195	0.931
-516.887	748.543	-0.212	0.571
-515.872	-114.718	-0.491	-0.094
-514.858	-200.000	-0.109	-0.502
-513.843	-104.404	0.323	0.075
-512.829	8.284	-0.246	0.185
-511.814	-28.572	-0.404	0.233
-510.799	-200.000	0.176	-0.871
-509.785	-200.000	0.100	-0.648
-508.770	319.144	-0.390	0.740
-507.756	-121.054	0.550	-0.092
-506.741	-50.894	-0.699	-0.329
-505.726	-200.000	-0.022	0.230
-504.712	-77.171	-0.368	0.128
-503.697	800.000	-0.056	0.187
-502.683	-200.000	-0.091	-0.625
-501.668	53.803	-0.252	-0.242
-500.653	21.393	0.730	-0.594
-499.639	-118.340	0.646	-0.115
-498.624	-93.660	0.253	-0.070
-497.610	-0.341	0.208	0.148
-496.595	-13.319	0.480	-0.312
-495.581	-74.935	0.264	0.095
-494.566	20.946	-0.431	-0.350
-493.551	596.075	0.134	0.332
-492.537	-89.168	-0.688	0.203
-491.522	-3.279	0.867	-0.604
-490.508	800.000	0.149	0.533
-489.493	624.455	0.230	0.581
-488.478	-84.428	-0.462	0.146
-487.464	-2.065	0.122	0.086
-486.449	-200.000	0.020	-0.329
-485.435	209.826	-0.133	0.209
-484.420	-200.000	0.131	0.653
-483.405	625.294	-0.228	-0.574
-482.391	556.086	-0.374	0.900
-481.376	-178.753	0.922	0.021
-480.362	-77.075	0.235	-0.082
-479.347	800.000	0.135	-0.571
-478.332	-200.000	0.009	0.479
-477.318	-200.000	0.105	0.554
-476.303	-43.138	1.117	-0.566
-475.289	-104.838	0.744	-0.171
-474.274	33.703	-0.580	-0.504
-473.259	-134.088	-0.805	0.099
-472.245	800.000	0.193	0.637
-471.230	90.614	-0.591	0.661
-470.216	800.000	-0.155	0.535
-469.201	49.777	-0.681	0.641
-468.186	-200.000	0.004	0.978
-467.172	-147.887	-0.489	-0.041
-466.157	481.580	-0.328	0.744
-465.143	-196.848	-0.509	-0.003
-464.128	-127.165	-1.003	0.147
-463.113	-108.049	0.141	0.030
-462.099	-52.177	-0.279	-0.129
-461.084	-146.144	-0.684	-0.060
-460.070	-78.204	0.160	-0.055
-459.055	196.314	-0.248	0.378
-458.040	82.432	0.160	-0.173
-457.026	-200.000	-0.043	-0.402
-456.011	-72.066	0.087	-0.032
-454.997	250.204	-0.349	-0.592
-453.982	800.000	-0.162	0.524
-452.968	40.617	0.499	-0.449
-451.953	17.139	0.222	0.176
-450.938	800.000	0.050	0.186
-449.924	-64.163	0.719	0.293
-448.909	2.659	-0.557	0.403
-447.895	153.469	-0.815	-1.114
-446.880	118.426	0.489	0.602
-445.865	-200.000	-0.015	-0.559
-444.851	1.274	0.214	-0.153
-443.836	14.121	0.911	0.709
-442.822	29.431	0.536	0.455
-441.807	329.104	-0.184	-0.352
-440.792	32.150	0.675	0.581
-439.778	-105.165	-0.241	-0.055
-438.763	151.175	-0.537	-0.730
-437.749	130.790	-0.251	-0.321
-436.734	11.866	-0.462	-0.354
-435.719	-78.307	-0.294	0.101
-434.705	-200.000	0.031	0.365
-433.690	800.000	-0.179	-0.764
-432.676	800.000	-0.299	-1.006
-431.661	-200.000	0.157	1.093
-430.646	156.127	-0.285	0.393
-429.632	433.529	0.452	-0.980
-428.617	800.000	0.219	0.649
-427.603	-200.000	0.062	-0.460
-426.588	27.065	0.387	-0.324
-425.573	-85.249	0.195	-0.061
-424.559	78.987	0.323	-0.345
-423.544	-29.226	0.736	-0.421
-422.530	-130.138	-0.303	0.041
-421.515	-78.152	0.373	-0.128
-420.500	-3.520	-0.130	0.090
-419.486	-89.637	0.415	-0.121
-418.471	-122.485	-0.530	0.086
-417.457	29.126	0.641	0.543
-416.442	-200.000	-0.107	-0.503
-415.428	-45.874	-0.119	0.059
-414.413	-106.168	0.433	0.097
-413.398	-23.373	-0.541	-0.324
-412.384	-125.031	0.167	0.026
-411.369	129.454	0.242	0.308
-410.355	195.388	0.219	0.331
-409.340	-128.624	0.211	0.030
-408.325	-29.672	0.125	-0.071
-407.311	-36.317	-0.774	-0.416
-406.296	491.756	-0.051	-0.118
-405.282	483.277	-0.154	-0.350
-404.267	-67.846	0.248	-0.097
-403.252	-155.030	0.425	0.028
-402.238	-69.681	0.564	-0.215
-401.223	255.136	-0.087	-0.148
-400.209	-119.559	0.319	-0.055
-399.194	155.547	-0.255	0.351
-398.179	414.876	0.110	0.234
-397.165	-4.604	-0.657	-0.452
-396.150	-35.521	-0.463	-0.251
-395.136	-34.338	0.726	-0.397
-394.121	-50.778	-0.229	0.108
-393.106	-126.949	-1.192	-0.175
-392.092	186.874	0.433	-0.644
-391.077	-52.397	1.294	0.597
-390.063	-200.000	-0.014	-0.085
-389.048	-82.196	-0.315	0.102
-388.033	-88.483	-0.060	-0.018
-387.019	-200.000	-0.097	-0.872
-386.004	-111.293	-0.548	-0.112
-384.990	420.483	0.077	0.165
-383.975	585.058	0.159	0.388
-382.960	110.089	0.379	0.454
-381.946	-141.138	0.418	0.043
-380.931	-126.229	0.443	0.066
-379.917	272.384	-0.367	-0.645
-378.902	800.000	-0.121	0.439
-377.888	76.074	-0.384	-0.405
-376.873	48.617	0.154	0.144
-375.858	133.820	0.161	-0.208
-374.844	-93.327	0.372	-0.103
-373.829	800.000	0.079	-0.284
-372.815	250.336	-0.274	-0.463
-371.800	59.778	-0.627	0.616
-370.785	-65.654	0.188	-0.075
-369.771	-93.342	-0.942	-0.260
-368.756	-200.000	-0.141	-0.838
-367.742	-200.000	0.024	-0.517
-366.727	118.083	0.267	0.328
-365.712	-200.000	0.054	-0.870
-364.698	35.187	0.355	-0.310
-363.683	205.057	0.236	0.364
-362.669	268.807	-0.347	0.606
-361.654	-87.351	0.375	0.113
-360.639	36.967	-0.570	-0.502
-359.625	-106.010	0.188	0.042
-358.610	-200.000	-0.071	-0.521
-357.596	47.149	0.397	0.368
-356.581	132.862	0.329	-0.423
-355.566	50.115	0.608	-0.571
-354.552	-200.000	0.044	-0.382
-353.537	120.397	0.242	-0.300
-352.523	306.374	-0.184	0.342
-351.508	800.000	-0.165	-0.669
-350.493	-54.711	-0.562	0.253
-349.479	-200.000	0.043	0.287
-348.464	-200.000	-0.077	-0.544
-347.450	-155.890	-0.807	0.051
-346.435	-43.086	0.538	0.271
-345.420	-101.512	-0.169	-0.041
-344.406	725.321	-0.302	0.801
-343.391	-114.357	1.047	0.200
-342.377	-142.075	0.280	-0.028
-341.362	-164.542	-1.086	0.049
-340.348	236.755	-0.155	0.255
-339.333	528.843	-0.400	-0.939
-338.318	173.084	-0.711	-1.019
-337.304	169.795	0.277	-0.393
-336.289	32.767	-0.441	-0.380
-335.275	341.785	-0.315	-0.612
-334.260	39.268	0.574	-0.510
-333.245	-23.303	-0.771	0.461
-332.231	601.674	0.282	-0.696
-331.216	23.288	-0.393	0.321
-330.202	-115.950	-0.231	-0.043
-329.187	39.475	-0.962	0.857
-328.172	-140.290	0.271	0.028
-327.158	-62.736	-0.223	0.092
-326.143	40.499	0.303	-0.271
-325.129	568.278	0.116	-0.280
-324.114	-200.000	0.099	0.693
-323.099	185.206	-0.300	-0.443
-322.085	99.400	-0.257	-0.295
-321.070	58.993	0.452	-0.441
-320.056	-7.644	0.263	-0.177
-319.041	-97.992	-0.422	-0.108
-318.026	-200.000	0.104	-0.507
-317.012	800.000	0.133	-0.461
-315.997	-200.000	-0.130	0.846
-314.983	-22.688	0.558	0.335
-313.968	25.171	-0.326	0.269
-312.953	-97.355	0.331	-0.086
-311.939	-200.000	-0.011	0.640
-310.924	-102.362	-0.124	-0.030
-309.910	29.128	-0.449	0.379
-308.895	295.101	0.492	-0.894
-307.880	79.104	0.230	-0.245
-306.866	800.000	-0.103	-0.362
-305.851	522.961	-0.089	0.208
-304.837	-150.452	0.920	-0.070
-303.822	-0.698	-0.288	-0.203
-302.807	-85.373	-0.584	-0.181
-301.793	-152.233	1.389	0.100
-300.778	-100.006	1.058	-0.262
-299.764	2.122	-0.617	-0.443
-298.749	-120.850	-0.454	-0.076
-297.735	169.035	-0.242	-0.342
-296.720	-17.531	-0.539	-0.337
-295.705	-69.985	1.095	0.414
-294.691	396.673	-0.545	1.130
-293.676	-5.271	-0.532	-0.363
-292.662	-66.820	-0.209	0.082
-291.647	673.374	-0.248	0.640
-290.632	-200.000	-0.097	-0.474
-289.618	3.657	0.471	-0.341
-288.603	-99.127	0.561	0.141
-287.589	-200.000	0.035	0.262
-286.574	108.736	-0.419	-0.497
-285.559	-170.649	0.732	0.025
-284.545	-200.000	-0.043	0.308
-283.530	800.000	0.259	0.963
-282.516	-141.211	0.444	0.045
-281.501	800.000	-0.102	0.361
-280.486	-200.000	0.123	0.688
-279.472	105.183	0.390	-0.457
-278.457	-200.000	-0.117	0.766
-277.443	-125.158	-0.557	0.085
-276.428	-200.000	0.038	-0.660
-275.413	12.860	0.578	0.443
-274.399	-188.495	-0.632	-0.008
-273.384	25.025	0.461	0.380
-272.370	-200.000	0.008	-0.393
-271.355	78.269	-0.244	0.258
-270.340	224.509	0.225	-0.360
-269.326	16.009	0.476	0.372
-268.311	-200.000	-0.057	-0.279
-267.297	-1.837	-0.428	0.299
-266.282	3.318	0.344	0.249
-265.267	248.956	-0.428	0.719
-264.253	-127.952	-0.412	0.059
-263.238	-200.000	0.103	-0.679
-262.224	-200.000	0.041	0.845
-261.209	36.949	0.543	-0.476
-260.195	16.678	-0.756	0.593
-259.180	-89.692	-0.976	-0.284
-258.165	72.478	-0.336	-0.348
-257.151	800.000	0.117	0.437
-256.136	-200.000	0.061	0.372
-255.122	-84.580	-0.545	0.170
-254.107	-200.000	-0.028	0.161
-253.092	510.347	0.225	0.520
-252.078	-151.567	0.773	0.057
-251.063	152.624	-0.195	0.264
-250.049	-200.000	-0.043	-0.209
-249.034	-139.943	0.913	0.096
-248.019	-70.184	-0.983	-0.370
-247.005	-200.000	0.056	0.734
-245.990	800.000	0.061	0.261
-244.976	-131.768	-0.299	-0.039
-243.961	255.591	0.511	-0.868
-242.946	-32.921	0.507	0.279
-241.932	-46.077	0.057	0.028
-240.917	69.599	0.704	-0.719
-239.903	306.698	0.360	0.664
-238.888	77.106	-0.107	-0.112
-237.873	765.550	-0.112	-0.302
-236.859	-145.800	0.872	0.077
-235.844	-136.881	0.149	-0.017
-234.830	299.633	-0.118	0.215
-233.815	73.246	0.391	0.406
-232.800	-42.481	-0.923	0.466
-231.786	800.000	0.203	0.633
-230.771	-39.281	-0.849	-0.442
-229.757	101.219	0.275	0.317
-228.742	-29.939	-0.524	-0.296
-227.727	24.821	-0.300	-0.246
-226.713	-200.000	-0.023	0.235
-225.698	-57.710	0.440	0.191
-224.684	-200.000	-0.080	0.682
-223.669	-200.000	0.062	0.356
-222.655	-200.000	0.052	0.755
-221.640	-71.306	0.340	0.126
-220.625	-45.529	0.162	-0.079
-219.611	-124.849	0.564	0.086
-218.596	-200.000	-0.072	0.618
-217.582	310.409	0.430	0.796
-216.567	-200.000	0.049	0.319
-215.552	-37.507	0.418	-0.221
-214.538	125.877	0.197	-0.247
-213.523	43.650	0.552	-0.499
-212.509	-200.000	0.057	-0.249
-211.494	-22.565	0.139	-0.083
-210.479	800.000	-0.035	-0.144
-209.465	-179.672	0.656	-0.014
-208.450	-57.313	0.564	0.245
-207.436	265.804	0.182	-0.314
-206.421	30.901	-0.437	-0.371
-205.406	-200.000	0.032	-0.583
-204.392	-1.841	-0.229	-0.160
-203.377	-200.000	0.054	-0.676
-202.363	-200.000	0.021	0.485
-201.348	-140.076	0.472	0.049
-200.333	-13.067	0.248	0.159
-199.319	-28.087	-0.592	-0.339
-198.304	85.551	-0.679	-0.737
-197.290	12.206	-0.341	0.260
-196.275	238.518	0.321	0.527
-195.260	601.526	0.100	-0.245
-194.246	-113.482	0.538	-0.104
-193.231	25.577	0.176	0.145
-192.217	-25.826	0.686	-0.400
-191.202	68.528	0.308	-0.312
-190.187	35.482	0.215	-0.186
-189.173	19.651	-0.559	0.445
-188.158	-123.253	-0.316	-0.050
-187.144	4.648	-0.289	0.210
-186.129	-200.000	-0.069	-0.585
-185.114	582.746	-0.164	-0.399
-184.100	-200.000	-0.162	0.839
-183.085	79.649	-0.441	-0.468
-182.071	-200.000	-0.012	-0.559
-181.056	-157.971	-0.932	0.054
-180.042	6.179	-0.214	0.157
-179.027	-59.520	-0.847	0.360
-178.012	-10.196	0.348	-0.228
-176.998	22.667	0.358	-0.289
-175.983	-52.799	0.412	0.188
-174.969	39.987	0.289	0.257
-173.954	-85.774	0.235	0.072
-172.939	-84.371	-0.563	0.176
-171.925	-140.326	-0.395	-0.041
-170.910	-200.000	0.059	-0.298
-169.896	-157.173	-0.838	-0.050
-168.881	800.000	-0.200	-0.742
-167.866	9.820	-1.045	-0.784
-166.852	-146.792	-0.442	-0.038
-165.837	194.791	-0.898	1.347
-164.823	-107.365	1.060	0.230
-163.808	123.974	0.132	-0.164
-162.793	-67.924	0.563	-0.217
-161.779	507.307	-0.335	0.767
-160.764	-97.465	-0.562	-0.144
-159.750	-132.723	-0.138	-0.017
-158.735	183.815	0.388	-0.567
-157.720	-42.807	0.717	0.360
-156.706	-20.449	0.244	-0.148
-155.691	92.962	0.303	-0.338
-154.677	398.886	0.106	-0.220
-153.662	8.965	0.545	-0.406
-152.647	-31.480	0.170	0.094
-151.633	575.489	0.180	-0.433
-150.618	132.699	0.367	0.467
-149.604	61.037	-0.110	-0.108
-148.589	-82.751	0.653	0.208
-147.574	618.639	0.056	-0.138
-146.560	-70.982	0.283	-0.105
-145.545	-54.590	0.596	-0.266
-144.531	-164.206	-0.247	0.011
-143.516	170.888	-0.519	-0.735
-142.502	800.000	0.182	0.601
-141.487	-17.504	0.141	0.088
-140.472	-200.000	-0.040	-0.235
-139.458	545.707	-0.267	-0.631
-138.443	-130.556	0.832	-0.111
-137.429	-200.000	-0.084	-0.461
-136.414	-56.802	-0.164	-0.072
-135.399	-74.842	0.486	0.172
-134.385	39.160	-0.457	-0.403
-133.370	82.696	-0.480	-0.514
-132.356	-41.383	-0.407	0.207
-131.341	88.771	-0.435	0.477
-130.326	-11.253	0.420	-0.273
-129.312	-200.000	-0.094	-0.957
-128.297	800.000	-0.087	0.277
-127.283	445.166	0.160	0.347
-126.268	60.134	0.531	0.518
-125.253	346.857	0.278	0.540
-124.239	-200.000	0.087	0.740
-123.224	566.241	0.042	-0.100
-122.210	-17.097	-0.862	-0.537
-121.195	-63.833	0.462	-0.187
