DTS Sentinel unit serial number:	SN413079Multiplexer serial number:	ORYXHardware model number:	OX4-SRSoftware version number:	ORYX F/W v4.00 Oryx Data Collector v3.7.2.0data status	okinstallation	princeton_trtdifferential loss correction	single-endedforward channel	channel 1reverse channel	N/Adate	2019/09/11time	20:08:11forward acquisition time	60.00reverse acquisition time	0.00gamma	496.2192k internal	0.2301k external	0.2301temperature offset calibration	1.0035default loss term (dB/km)	0.3790temperature slope calibration	1.0000multiplexer offset coefficient	1.0000multiplexer slope coefficient	1.0000fibre end	0.00T internal ref (°C)	38.47T ext. ref 1 (°C)	1.42T ext. ref 2 (°C)	31.91length (m)	temperature (°C)	Stokes	anti-Stokes-747.200	31.335	0.136	-0.119
-746.185	286.961	-0.100	0.185
-745.171	-200.000	-0.040	0.282
-744.156	-200.000	0.021	0.226
-743.142	48.483	-0.020	0.020
-742.127	800.000	-0.068	0.267
-741.112	-38.386	-0.331	0.179
-740.098	74.916	0.201	0.215
-739.083	340.321	-0.038	0.075
-738.069	-200.000	-0.028	0.299
-737.054	-200.000	0.029	-0.198
-736.039	-200.000	-0.269	-0.001
-735.025	93.594	0.200	0.230
-734.010	-85.789	-0.343	-0.108
-732.996	-106.436	-0.506	0.115
-731.981	-133.789	0.112	-0.014
-730.966	-150.444	-0.390	-0.031
-729.952	-56.135	0.117	0.053
-728.937	273.275	0.124	-0.223
-727.923	-25.906	0.278	-0.167
-726.908	-46.338	0.309	-0.155
-725.894	434.597	-0.162	-0.360
-724.879	-128.876	-0.251	0.036
-723.864	33.252	-0.148	0.131
-722.850	28.744	-0.163	-0.141
-721.835	-200.000	-0.049	-0.312
-720.821	-200.000	0.023	-0.130
-719.806	25.308	0.168	-0.142
-718.791	800.000	0.056	0.237
-717.777	-22.968	-0.141	-0.087
-716.762	-171.177	0.105	0.004
-715.748	743.375	-0.082	-0.225
-714.733	644.788	-0.036	0.094
-713.718	-1.941	0.161	-0.115
-712.704	69.447	-0.102	-0.107
-711.689	-89.674	-0.311	-0.093
-710.675	-89.866	0.124	-0.037
-709.660	800.000	-0.083	-0.313
-708.645	-91.473	0.214	-0.062
-707.631	-40.434	-0.202	0.107
-706.616	172.993	0.121	0.178
-705.602	117.852	0.085	0.107
-704.587	324.670	0.065	-0.126
-703.572	3.635	0.190	-0.141
-702.558	15.302	0.156	0.125
-701.543	-143.840	0.124	-0.012
-700.529	-22.062	0.241	0.149
-699.514	139.026	0.146	0.195
-698.499	-43.957	0.316	0.161
-697.485	46.661	-0.151	-0.143
-696.470	-70.918	-0.228	0.088
-695.456	-139.563	-0.132	0.014
-694.441	-57.961	0.134	-0.059
-693.426	38.987	0.139	0.126
-692.412	80.761	0.144	-0.158
-691.397	-200.000	0.040	-0.239
-690.383	-119.534	-0.334	0.059
-689.368	598.129	0.024	-0.062
-688.354	800.000	-0.041	-0.142
-687.339	356.130	-0.157	0.319
-686.324	497.251	-0.075	-0.176
-685.310	-22.697	-0.190	0.117
-684.295	-200.000	-0.046	0.228
-683.281	-96.419	-0.341	-0.092
-682.266	-200.000	-0.022	0.367
-681.251	101.822	-0.055	0.065
-680.237	370.707	0.025	0.053
-679.222	-155.087	-0.318	-0.021
-678.208	800.000	0.009	0.031
-677.193	-138.739	0.148	0.016
-676.178	-200.000	0.000	-0.099
-675.164	-200.000	0.026	-0.216
-674.149	135.713	-0.173	0.228
-673.135	-42.203	-0.100	-0.052
-672.120	305.341	0.142	-0.269
-671.105	-25.225	0.176	-0.106
-670.091	-97.554	0.358	-0.094
-669.076	8.936	0.077	0.059
-668.062	295.230	-0.089	-0.165
-667.047	-200.000	0.004	-0.176
-666.032	-167.658	-0.083	-0.003
-665.018	-200.000	0.025	0.128
-664.003	249.818	0.151	0.260
-662.989	-14.677	0.123	0.080
-661.974	-200.000	0.032	-0.299
-660.959	-7.116	-0.048	-0.033
-659.945	593.551	-0.057	0.144
-658.930	-108.653	0.469	0.102
-657.916	342.868	0.183	-0.365
-656.901	-24.792	-0.092	-0.055
-655.886	-189.550	0.058	-0.001
-654.872	-24.967	-0.068	-0.041
-653.857	-85.117	-0.163	-0.052
-652.843	24.232	0.126	-0.106
-651.828	-200.000	-0.007	0.050
-650.814	301.424	-0.106	0.198
-649.799	-143.221	0.123	-0.012
-648.784	-88.626	-0.251	0.076
-647.770	-200.000	0.030	-0.173
-646.755	11.579	0.216	0.168
-645.741	-200.000	0.007	-0.097
-644.726	-200.000	-0.001	-0.180
-643.711	80.992	-0.178	-0.195
-642.697	-200.000	0.024	0.141
-641.682	119.837	0.084	-0.106
-640.668	-180.417	-0.116	0.002
-639.653	-200.000	0.001	-0.140
-638.638	-77.831	0.318	0.112
-637.624	-200.000	0.005	-0.102
-636.609	25.797	0.293	-0.248
-635.595	60.409	-0.156	-0.156
-634.580	73.238	-0.120	-0.127
-633.565	-21.747	0.131	0.081
-632.551	88.777	0.162	0.182
-631.536	-200.000	0.034	0.368
-630.522	-200.000	-0.005	-0.048
-629.507	-200.000	-0.019	-0.117
-628.492	41.979	-0.120	-0.111
-627.478	-43.279	0.176	-0.090
-626.463	-200.000	-0.007	-0.145
-625.449	-200.000	0.017	-0.190
-624.434	-40.996	-0.284	-0.149
-623.419	370.555	-0.190	-0.391
-622.405	800.000	0.036	-0.126
-621.390	800.000	0.034	0.097
-620.376	800.000	0.115	0.339
-619.361	707.934	-0.023	0.062
-618.346	163.820	-0.157	-0.224
-617.332	38.278	-0.246	0.222
-616.317	-91.680	0.385	0.111
-615.303	-200.000	0.020	-0.154
-614.288	800.000	0.133	-0.457
-613.273	523.736	-0.119	-0.283
-612.259	-181.701	-0.368	-0.007
-611.244	-134.582	0.271	0.033
-610.230	523.943	0.027	0.065
-609.215	-103.617	-0.176	0.042
-608.201	-140.887	-0.444	0.046
-607.186	-41.977	0.313	0.162
-606.171	-200.000	0.012	0.178
-605.157	161.625	-0.268	0.380
-604.142	381.599	-0.185	0.386
-603.128	-200.000	0.017	-0.230
-602.113	-139.226	0.244	0.027
-601.098	-200.000	-0.001	-0.202
-600.084	47.018	0.244	-0.230
-599.069	756.721	0.017	0.046
-598.055	564.598	-0.080	0.197
-597.040	21.481	0.021	0.017
-596.025	800.000	0.051	0.174
-595.011	-122.508	-0.056	0.009
-593.996	-24.423	0.147	0.089
-592.982	67.972	-0.057	-0.059
-591.967	-49.377	-0.250	0.121
-590.952	-61.050	0.281	-0.120
-589.938	800.000	0.103	-0.451
-588.923	199.952	-0.212	-0.330
-587.909	46.387	0.361	0.339
-586.894	166.996	-0.150	-0.216
-585.879	160.834	-0.119	-0.168
-584.865	-14.362	-0.102	-0.067
-583.850	-74.611	0.108	-0.039
-582.836	-156.537	0.206	0.013
-581.821	-92.686	-0.170	-0.048
-580.806	-200.000	0.010	-0.205
-579.792	-200.000	0.053	0.249
-578.777	105.457	-0.240	0.287
-577.763	32.499	0.230	-0.201
-576.748	644.100	0.131	0.337
-575.733	800.000	-0.059	-0.211
-574.719	440.452	0.060	-0.132
-573.704	517.879	0.045	0.108
-572.690	-69.148	0.305	0.119
-571.675	-200.000	0.014	-0.147
-570.661	-200.000	0.004	0.072
-569.646	17.604	-0.182	0.146
-568.631	165.941	0.084	-0.121
-567.617	83.215	0.077	0.085
-566.602	-157.808	0.389	0.023
-565.588	-137.099	0.315	-0.036
-564.573	33.998	-0.230	0.203
-563.558	-78.875	0.267	0.092
-562.544	-22.097	-0.047	0.029
-561.529	-26.428	-0.175	0.104
-560.515	368.308	0.099	0.202
-559.500	-200.000	0.019	-0.110
-558.485	236.348	-0.146	-0.244
-557.471	-56.215	0.193	0.087
-556.456	-166.250	0.401	0.017
-555.442	-43.516	0.244	0.125
-554.427	-69.200	0.063	0.024
-553.412	800.000	-0.044	0.137
-552.398	-114.454	-0.307	-0.060
-551.383	-12.374	-0.189	-0.125
-550.369	-6.537	-0.289	0.199
-549.354	739.091	0.104	0.283
-548.339	-34.001	-0.438	-0.244
-547.325	800.000	0.107	-0.394
-546.310	113.249	-0.043	0.053
-545.296	-200.000	0.000	-0.090
-544.281	-18.907	0.121	0.076
-543.266	279.648	0.069	-0.125
-542.252	-200.000	0.007	-0.186
-541.237	372.862	0.143	-0.295
-540.223	145.034	-0.073	-0.099
-539.208	-200.000	-0.006	0.309
-538.193	800.000	0.035	-0.142
-537.179	-70.190	-0.263	-0.101
-536.164	-121.995	-0.286	-0.047
-535.150	384.506	-0.043	0.090
-534.135	88.743	-0.142	0.159
-533.121	800.000	0.067	0.188
-532.106	176.351	-0.041	0.059
-531.091	-200.000	0.018	0.293
-530.077	28.396	0.255	-0.218
-529.062	365.717	0.175	-0.357
-528.048	-56.828	0.301	0.135
-527.033	156.542	0.128	0.179
-526.018	282.103	-0.068	-0.124
-525.004	16.626	-0.168	-0.134
-523.989	-10.253	0.299	0.200
-522.975	-159.308	-0.374	-0.021
-521.960	502.862	0.017	-0.039
-520.945	30.910	0.093	-0.080
-519.931	-41.807	-0.310	-0.161
-518.916	440.947	-0.123	-0.271
-517.902	93.032	0.128	0.146
-516.887	155.981	0.173	0.241
-515.872	-142.917	-0.134	0.013
-514.858	-116.404	-0.312	-0.058
-513.843	-26.993	-0.235	-0.139
-512.829	-200.000	0.014	-0.237
-511.814	-111.472	0.313	0.064
-510.799	-105.334	0.295	0.068
-509.785	-134.458	-0.146	-0.018
-508.770	600.404	0.040	-0.100
-507.756	21.206	-0.025	-0.020
-506.741	-13.125	-0.140	-0.092
-505.726	119.491	-0.182	-0.228
-504.712	-200.000	0.011	-0.069
-503.697	309.275	0.106	0.201
-502.683	-142.711	-0.138	0.014
-501.668	162.209	0.091	0.129
-500.653	-109.777	0.273	0.058
-499.639	243.200	-0.046	-0.078
-498.624	-200.000	-0.011	0.192
-497.610	800.000	-0.017	0.059
-496.595	261.691	0.119	0.208
-495.581	800.000	-0.018	-0.071
-494.566	-200.000	0.017	-0.158
-493.551	800.000	-0.050	-0.209
-492.537	-136.105	-0.190	-0.023
-491.522	27.747	0.224	0.191
-490.508	24.312	-0.181	-0.151
-489.493	-116.268	-0.040	-0.008
-488.478	-25.226	-0.232	-0.138
-487.464	-145.733	0.199	0.018
-486.449	-200.000	0.011	0.079
-485.435	-78.560	-0.077	0.027
-484.420	-200.000	0.003	-0.076
-483.405	200.169	0.257	-0.398
-482.391	-200.000	-0.001	-0.098
-481.376	800.000	-0.051	0.196
-480.362	-102.058	-0.048	-0.012
-479.347	57.612	-0.099	0.098
-478.332	800.000	0.103	-0.299
-477.318	800.000	-0.090	0.291
-476.303	67.083	-0.121	0.124
-475.289	-85.797	0.123	0.039
-474.274	-111.348	0.224	-0.046
-473.259	-200.000	0.024	-0.242
-472.245	-133.408	-0.250	0.032
-471.230	3.789	-0.128	0.094
-470.216	800.000	-0.043	0.153
-469.201	27.236	-0.215	-0.182
-468.186	-146.164	0.404	-0.036
-467.172	-200.000	-0.001	0.031
-466.157	-200.000	0.002	-0.156
-465.143	-162.207	0.122	0.006
-464.128	-33.566	0.052	0.029
-463.113	-68.284	0.167	0.065
-462.099	249.354	-0.186	-0.318
-461.084	-31.812	0.158	0.089
-460.070	142.931	-0.112	0.150
-459.055	800.000	-0.025	-0.100
-458.040	-200.000	-0.026	0.332
-457.026	267.805	0.036	-0.064
-456.011	108.769	0.112	-0.135
-454.997	157.229	0.073	0.101
-453.982	-86.805	-0.288	0.089
-452.968	-50.211	0.145	-0.069
-451.953	658.107	0.063	-0.164
-450.938	-124.304	0.171	-0.027
-449.924	-200.000	0.045	-0.370
-448.909	562.571	-0.153	-0.373
-447.895	-136.701	0.031	-0.004
-446.880	-194.899	-0.198	0.002
-445.865	800.000	0.087	0.275
-444.851	-118.513	-0.165	-0.030
-443.836	-27.337	0.203	-0.119
-442.822	38.318	-0.134	0.120
-441.807	-69.702	-0.537	-0.207
-440.792	-17.304	0.052	0.033
-439.778	504.383	-0.087	0.204
-438.763	205.568	-0.070	0.110
-437.749	-174.571	-0.271	-0.008
-436.734	-123.890	-0.306	-0.049
-435.719	-108.982	-0.519	-0.112
-434.705	-77.483	0.353	0.123
-433.690	300.250	-0.029	0.054
-432.676	-11.360	0.090	0.060
-431.661	-46.057	0.404	0.200
-430.646	-127.496	-0.201	0.029
-429.632	-12.553	-0.474	0.311
-428.617	93.655	0.129	-0.147
-427.603	-200.000	0.002	-0.060
-426.588	-200.000	0.026	-0.183
-425.573	-84.496	-0.083	0.027
-424.559	-18.468	-0.388	-0.244
-423.544	-0.575	-0.116	0.083
-422.530	800.000	0.113	-0.395
-421.515	66.176	0.313	0.320
-420.500	-29.971	-0.329	0.189
-419.486	476.528	0.111	0.252
-418.471	-111.110	0.134	0.028
-417.457	-98.122	-0.205	-0.053
-416.442	-200.000	0.050	0.356
-415.428	699.230	0.033	0.089
-414.413	-187.585	-0.316	0.004
-413.398	-73.524	0.118	0.043
-412.384	800.000	0.087	0.254
-411.369	-30.461	-0.170	-0.097
-410.355	37.477	-0.102	0.091
-409.340	677.767	-0.075	-0.195
-408.325	-200.000	-0.025	-0.289
-407.311	800.000	-0.055	0.153
-406.296	-21.196	0.193	0.118
-405.282	-133.098	-0.109	0.014
-404.267	-123.624	-0.137	0.022
-403.252	33.367	0.327	0.285
-402.238	-200.000	-0.051	-0.255
-401.223	11.109	-0.304	0.234
-400.209	202.093	-0.123	0.191
-399.194	402.660	-0.061	0.129
-398.179	-200.000	0.042	0.232
-397.165	255.448	0.120	-0.207
-396.150	800.000	-0.043	0.138
-395.136	29.736	0.204	0.175
-394.121	-28.889	0.299	-0.173
-393.106	-0.728	-0.220	0.157
-392.092	800.000	-0.065	-0.186
-391.077	-87.861	0.216	0.065
-390.063	-200.000	-0.064	0.320
-389.048	-51.829	-0.257	0.120
-388.033	-141.693	0.570	-0.058
-387.019	-78.183	-0.209	-0.072
-386.004	140.398	0.172	-0.229
-384.990	800.000	0.070	-0.247
-383.975	-200.000	0.010	-0.262
-382.960	-65.502	-0.108	0.044
-381.946	800.000	0.037	0.124
-380.931	-200.000	-0.012	0.200
-379.917	800.000	0.049	0.214
-378.902	545.972	-0.075	0.180
-377.888	800.000	0.056	0.220
-376.873	-200.000	0.043	-0.275
-375.858	133.239	0.102	-0.133
-374.844	175.827	0.138	0.201
-373.829	800.000	-0.064	-0.191
-372.815	-121.242	-0.245	-0.041
-371.800	-67.574	0.086	-0.034
-370.785	-200.000	-0.098	-0.449
-369.771	-117.305	0.271	-0.049
-368.756	-103.585	0.490	0.116
-367.742	17.950	-0.299	-0.239
-366.727	426.167	0.090	-0.195
-365.712	-150.886	0.196	0.015
-364.698	800.000	-0.033	0.107
-363.683	-21.628	0.138	0.085
-362.669	239.813	0.115	0.193
-361.654	-200.000	-0.010	0.051
-360.639	679.098	0.160	0.419
-359.625	142.110	-0.045	0.059
-358.610	421.591	0.139	-0.299
-357.596	122.179	-0.079	0.100
-356.581	-31.359	-0.124	0.070
-355.566	-6.488	0.198	0.135
-354.552	103.122	0.168	0.198
-353.537	-97.694	0.144	0.037
-352.523	-39.281	-0.231	-0.122
-351.508	316.794	-0.099	-0.187
-350.493	-200.000	-0.012	-0.229
-349.479	-26.156	0.154	0.091
-348.464	-12.223	0.274	-0.180
-347.450	-20.028	0.229	0.142
-346.435	-83.785	0.126	-0.040
-345.420	-164.564	-0.129	-0.006
-344.406	800.000	0.043	-0.150
-343.391	-124.816	0.070	0.011
-342.377	-87.417	0.314	-0.095
-341.362	-200.000	-0.081	-0.359
-340.348	-67.851	0.115	-0.045
-339.333	-64.430	0.269	0.110
-338.318	-200.000	-0.010	-0.225
-337.304	294.609	0.038	0.070
-336.289	188.097	0.098	-0.146
-335.275	-87.820	0.385	-0.116
-334.260	-75.751	-0.268	0.095
-333.245	-24.441	-0.035	-0.021
-332.231	297.307	-0.022	-0.041
-331.216	145.853	-0.124	0.167
-330.202	-187.756	0.221	0.003
-329.187	-200.000	-0.003	-0.287
-328.172	-157.586	-0.100	0.006
-327.158	-57.733	-0.211	0.092
-326.143	229.688	0.095	0.156
-325.129	88.860	0.160	0.179
-324.114	-176.399	-0.072	0.002
-323.099	652.121	0.101	0.258
-322.085	-121.630	0.253	0.042
-321.070	-200.000	0.017	0.096
-320.056	261.838	0.041	-0.071
-319.041	51.335	-0.068	-0.065
-318.026	-200.000	-0.039	-0.320
-317.012	-200.000	0.059	-0.325
-315.997	800.000	-0.017	-0.049
-314.983	74.786	0.453	-0.478
-313.968	-69.512	-0.238	0.091
-312.953	-91.944	-0.291	-0.083
-311.939	-5.394	0.187	0.129
-310.924	-50.592	0.206	0.098
-309.910	61.962	-0.156	0.156
-308.895	800.000	0.064	0.265
-307.880	134.729	0.072	-0.093
-306.866	-103.728	-0.246	0.058
-305.851	-136.590	-0.103	-0.012
-304.837	481.794	-0.098	-0.223
-303.822	82.736	-0.025	-0.027
-302.807	116.980	0.150	0.185
-301.793	-50.448	0.243	-0.115
-300.778	32.593	-0.192	-0.166
-299.764	-18.477	-0.107	0.067
-298.749	-103.437	-0.147	-0.035
-297.735	103.875	-0.024	-0.028
-296.720	800.000	-0.012	0.040
-295.705	-200.000	-0.020	-0.371
-294.691	-200.000	0.031	-0.220
-293.676	237.645	0.111	0.185
-292.662	800.000	-0.054	0.208
-291.647	45.820	-0.197	0.183
-290.632	-14.163	0.147	0.095
-289.618	-100.624	-0.391	-0.097
-288.603	-136.999	0.200	0.023
-287.589	-162.930	0.044	-0.002
-286.574	-200.000	-0.031	0.371
-285.559	-86.951	-0.190	0.058
-284.545	-26.706	-0.346	-0.203
-283.530	26.248	0.178	0.149
-282.516	800.000	0.057	0.211
-281.501	-200.000	0.003	0.290
-280.486	-73.477	-0.200	0.073
-279.472	-200.000	-0.031	-0.572
-278.457	29.842	-0.198	0.169
-277.443	328.370	-0.084	-0.161
-276.428	189.597	-0.210	-0.316
-275.413	-34.369	0.132	0.072
-274.399	-194.724	0.405	0.003
-273.384	366.568	0.092	-0.186
-272.370	-30.900	-0.268	0.152
-271.355	-137.864	0.274	-0.031
-270.340	84.337	0.074	0.081
-269.326	-200.000	0.035	-0.294
-268.311	13.760	0.183	-0.142
-267.297	-49.178	0.327	-0.156
-266.282	9.044	-0.066	-0.050
-265.267	-200.000	0.029	-0.375
-264.253	59.540	0.085	-0.084
-263.238	-1.748	0.284	0.200
-262.224	12.772	-0.339	-0.262
-261.209	800.000	-0.054	0.176
-260.195	-56.534	0.163	0.072
-259.180	-130.821	0.375	0.050
-258.165	27.124	-0.250	-0.210
-257.151	149.845	-0.162	0.220
-256.136	173.631	-0.219	0.316
-255.122	-200.000	0.030	0.280
-254.107	277.472	0.118	-0.210
-253.092	304.670	-0.187	0.347
-252.078	-200.000	-0.034	-0.215
-251.063	-108.640	-0.117	-0.025
-250.049	-22.416	-0.104	0.063
-249.034	5.960	0.302	0.223
-248.019	-200.000	-0.005	0.345
-247.005	56.084	-0.252	0.245
-245.990	-200.000	0.009	0.182
-244.976	-43.022	0.280	-0.142
-243.961	-200.000	0.111	0.486
-242.946	-2.821	-0.079	-0.055
-241.932	74.393	-0.258	0.272
-240.917	800.000	0.015	0.050
-239.903	408.397	0.107	-0.227
-238.888	5.754	-0.157	0.116
-237.873	-75.516	0.141	-0.050
-236.859	30.226	-0.232	-0.198
-235.844	-38.647	0.047	0.025
-234.830	-13.622	-0.197	0.127
-233.815	800.000	-0.030	-0.083
-232.800	301.396	-0.043	0.080
-231.786	-116.890	0.051	-0.009
-230.771	-200.000	0.071	-0.356
-229.757	188.255	0.176	0.263
-228.742	85.465	-0.188	0.206
-227.727	-0.696	0.084	0.059
-226.713	253.507	0.004	0.006
-225.698	78.421	-0.117	0.125
-224.684	-94.631	-0.172	-0.047
-223.669	-200.000	0.059	-0.296
-222.655	800.000	-0.048	0.168
-221.640	-57.634	0.108	0.047
-220.625	-66.905	-0.211	-0.083
-219.611	-200.000	0.049	0.243
-218.596	-200.000	0.008	-0.205
-217.582	-67.166	0.081	0.032
-216.567	183.783	-0.081	0.119
-215.552	50.700	0.057	0.054
-214.538	-200.000	-0.008	0.298
-213.523	-135.909	-0.078	-0.009
-212.509	-200.000	0.031	0.157
-211.494	800.000	-0.058	0.183
-210.479	-200.000	0.011	-0.298
-209.465	-200.000	-0.040	0.230
-208.450	656.709	0.028	-0.071
-207.436	-113.210	0.176	0.035
-206.421	-200.000	0.041	0.323
-205.406	445.095	0.028	0.060
-204.392	52.694	-0.219	-0.209
-203.377	-19.580	-0.010	0.006
-202.363	482.476	0.104	-0.236
-201.348	105.680	0.093	0.110
-200.333	-200.000	0.064	0.349
-199.319	27.888	-0.199	-0.168
-198.304	-73.360	0.480	-0.175
-197.290	64.897	-0.101	-0.102
-196.275	-200.000	0.021	0.254
-195.260	-120.657	0.513	0.087
-194.246	503.846	0.083	0.191
-193.231	-168.625	0.143	0.005
-192.217	-200.000	0.035	-0.168
-191.202	-200.000	0.016	0.112
-190.187	-33.946	0.196	-0.108
-189.173	-105.436	0.299	0.068
-188.158	114.887	0.131	0.160
-187.144	32.261	0.230	-0.198
-186.129	-200.000	0.014	0.228
-185.114	-200.000	-0.018	-0.158
-184.100	22.644	0.277	-0.226
-183.085	-26.971	-0.278	-0.162
-182.071	-112.787	-0.516	-0.102
-181.056	-95.420	-0.347	0.093
-180.042	71.402	-0.220	0.228
-179.027	-39.755	-0.161	0.084
-178.012	304.872	0.125	0.232
-176.998	310.137	-0.278	0.519
-175.983	-118.135	0.174	0.031
-174.969	-113.270	-0.110	-0.021
-173.954	591.316	0.043	-0.105
-172.939	-61.594	-0.425	0.178
-171.925	-78.129	-0.473	0.162
-170.910	-58.673	-0.290	-0.125
-169.896	158.312	0.166	-0.230
-168.881	248.231	0.128	0.215
-167.866	353.159	-0.038	0.075
-166.852	-155.525	-0.327	0.021
-165.837	62.055	0.163	-0.162
-164.823	75.728	0.068	-0.071
-163.808	-172.212	-0.262	-0.008
-162.793	800.000	-0.120	-0.383
-161.779	-58.307	-0.140	0.061
-160.764	-45.182	-0.213	0.105
-159.750	328.028	-0.093	-0.178
-158.735	163.374	-0.115	-0.161
-157.720	77.699	-0.126	-0.133
-156.706	-99.810	0.048	0.012
-155.691	-166.597	-0.156	-0.006
-154.677	-134.621	0.164	-0.020
-153.662	780.042	-0.049	0.133
-152.647	800.000	0.086	0.327
-151.633	800.000	0.125	-0.503
-150.618	-73.178	0.303	0.111
-149.604	303.870	-0.077	0.143
-148.589	-43.713	-0.125	0.063
-147.574	-200.000	-0.047	-0.240
-146.560	334.023	-0.068	-0.132
-145.545	-200.000	0.016	-0.318
-144.531	-113.457	0.148	-0.029
-143.516	-200.000	-0.012	0.316
-142.502	-153.965	0.264	-0.018
-141.487	16.260	0.176	-0.138
-140.472	356.737	0.049	-0.098
-139.458	-55.625	-0.251	-0.112
-138.443	-65.345	-0.258	0.103
-137.429	-200.000	-0.011	-0.136
-136.414	-98.936	0.260	0.066
-135.399	800.000	-0.084	-0.286
-134.385	-27.667	0.221	0.128
-133.370	-59.778	0.407	0.173
-132.356	-153.389	-0.168	0.012
-131.341	-149.170	0.268	0.021
-130.326	-100.264	-0.360	-0.089
-129.312	-200.000	0.012	0.165
-128.297	-92.327	0.187	0.053
-127.283	-200.000	0.038	-0.399
-126.268	-161.368	-0.256	-0.013
-125.253	712.598	-0.109	0.287
-124.239	27.190	0.270	0.226
-123.224	-200.000	-0.031	-0.140
-122.210	213.462	0.216	-0.339
-121.195	-72.683	0.248	0.091
