DTS Sentinel unit serial number:	SN413079Multiplexer serial number:	ORYXHardware model number:	OX4-SRSoftware version number:	ORYX F/W v4.00 Oryx Data Collector v3.7.2.0data status	okinstallation	princeton_trtdifferential loss correction	single-endedforward channel	channel 1reverse channel	N/Adate	2019/09/17time	08:06:35forward acquisition time	60.00reverse acquisition time	0.00gamma	496.2192k internal	0.2330k external	0.2330temperature offset calibration	0.9963default loss term (dB/km)	0.3790temperature slope calibration	1.0000multiplexer offset coefficient	1.0000multiplexer slope coefficient	1.0000fibre end	0.00T internal ref (°C)	27.31T ext. ref 1 (°C)	0.12T ext. ref 2 (°C)	22.48length (m)	temperature (°C)	Stokes	anti-Stokes-747.200	-62.928	0.086	0.036
-746.185	-18.640	-0.181	-0.113
-745.171	-122.842	-0.189	0.031
-744.156	-111.866	-0.144	-0.029
-743.142	169.465	0.076	0.109
-742.127	45.090	-0.159	-0.148
-741.112	800.000	-0.090	0.387
-740.098	21.028	-0.295	0.241
-739.083	800.000	-0.113	0.317
-738.069	-76.561	-0.296	0.105
-737.054	-116.557	0.204	-0.038
-736.039	-106.156	-0.252	-0.057
-735.025	476.537	0.166	-0.377
-734.010	41.087	-0.208	-0.190
-732.996	65.570	-0.054	-0.055
-731.981	36.894	0.154	0.137
-730.966	-82.510	-0.314	-0.102
-729.952	796.295	0.059	0.163
-728.937	-200.000	-0.026	0.115
-727.923	-200.000	0.039	-0.337
-726.908	-200.000	-0.063	-0.315
-725.894	444.128	-0.067	-0.148
-724.879	411.044	-0.047	-0.101
-723.864	-12.300	-0.297	0.195
-722.850	-200.000	0.002	0.264
-721.835	141.148	-0.084	-0.112
-720.821	211.219	0.083	-0.132
-719.806	229.075	-0.140	-0.230
-718.791	-71.996	-0.296	0.111
-717.777	35.365	-0.104	0.092
-716.762	800.000	0.026	-0.091
-715.748	-191.214	-0.146	0.002
-714.733	-200.000	-0.053	-0.250
-713.718	-102.792	0.366	-0.088
-712.704	52.253	0.025	-0.024
-711.689	-142.229	-0.297	-0.030
-710.675	80.910	0.175	0.190
-709.660	-99.107	-0.047	-0.012
-708.645	-120.430	-0.259	-0.044
-707.631	127.859	0.094	-0.120
-706.616	-200.000	-0.022	-0.370
-705.602	-24.385	0.365	-0.219
-704.587	141.603	-0.163	-0.218
-703.572	153.960	-0.241	-0.332
-702.558	226.711	0.237	0.388
-701.543	-63.084	0.080	-0.033
-700.529	345.761	0.101	-0.199
-699.514	-157.999	-0.131	0.008
-698.499	32.190	0.136	0.118
-697.485	3.373	0.060	0.044
-696.470	237.031	-0.064	0.107
-695.456	-110.568	0.230	0.048
-694.441	-200.000	0.024	0.217
-693.426	273.836	0.130	0.230
-692.412	-87.682	-0.396	-0.120
-691.397	-85.397	0.216	0.068
-690.383	-138.309	0.316	0.035
-689.368	-150.688	-0.147	-0.011
-688.354	773.546	-0.056	0.152
-687.339	-2.565	0.191	0.135
-686.324	-73.630	-0.168	-0.061
-685.310	707.964	-0.082	0.218
-684.295	499.241	-0.123	0.285
-683.281	278.973	-0.230	0.412
-682.266	187.060	0.017	-0.026
-681.251	21.772	0.358	0.292
-680.237	342.254	0.121	-0.238
-679.222	800.000	-0.062	0.198
-678.208	-148.682	-0.107	-0.009
-677.193	-200.000	0.035	0.248
-676.178	-132.452	-0.069	0.009
-675.164	-200.000	-0.078	0.349
-674.149	-200.000	0.013	0.162
-673.135	85.066	0.216	0.238
-672.120	-83.734	0.296	0.095
-671.105	45.969	0.051	0.047
-670.091	177.184	0.086	0.125
-669.076	-200.000	-0.119	0.000
-668.062	-82.267	-0.304	-0.099
-667.047	21.576	-0.055	-0.045
-666.032	-200.000	-0.035	0.271
-665.018	-29.261	-0.098	0.056
-664.003	18.390	-0.064	0.052
-662.989	-200.000	0.004	-0.171
-661.974	61.297	0.318	-0.317
-660.959	-25.881	-0.032	-0.019
-659.945	155.520	0.039	-0.054
-658.930	800.000	-0.029	-0.083
-657.916	75.027	-0.257	-0.271
-656.901	-157.847	-0.289	-0.017
-655.886	800.000	0.099	0.339
-654.872	-11.596	-0.253	0.167
-653.857	42.184	-0.097	0.088
-652.843	179.390	-0.178	0.262
-651.828	-200.000	0.040	0.229
-650.814	-132.431	0.278	0.036
-649.799	-81.444	-0.240	0.079
-648.784	-97.855	0.109	-0.028
-647.770	371.997	0.066	0.135
-646.755	322.645	-0.059	-0.112
-645.741	35.288	0.041	-0.036
-644.726	69.079	-0.074	-0.076
-643.711	-200.000	-0.060	-0.341
-642.697	93.924	0.159	0.181
-641.682	678.021	0.088	0.229
-640.668	-22.060	0.156	0.095
-639.653	-200.000	-0.002	0.016
-638.638	800.000	-0.067	-0.242
-637.624	120.580	0.073	-0.091
-636.609	-200.000	0.012	0.271
-635.595	-200.000	0.021	-0.182
-634.580	-103.253	-0.113	-0.027
-633.565	-26.621	-0.137	-0.080
-632.551	266.015	0.097	-0.170
-631.536	37.124	-0.140	-0.124
-630.522	93.870	-0.042	0.048
-629.507	800.000	-0.012	0.041
-628.492	800.000	0.052	0.167
-627.478	800.000	-0.027	0.085
-626.463	537.100	-0.120	-0.286
-625.449	29.779	0.126	-0.108
-624.434	-44.034	0.172	0.087
-623.419	-48.148	0.110	0.053
-622.405	109.260	0.163	-0.195
-621.390	-41.513	-0.125	-0.064
-620.376	328.981	-0.034	0.065
-619.361	800.000	-0.053	-0.150
-618.346	-200.000	-0.026	-0.315
-617.332	57.412	0.300	-0.294
-616.317	4.203	-0.186	0.137
-615.303	-200.000	-0.018	-0.437
-614.288	800.000	-0.035	-0.145
-613.273	201.831	-0.130	0.200
-612.259	-99.975	0.224	-0.056
-611.244	-98.009	-0.219	0.057
-610.230	-200.000	0.009	0.126
-609.215	800.000	0.086	0.349
-608.201	-95.768	0.135	-0.036
-607.186	2.515	0.074	-0.054
-606.171	-50.024	-0.150	0.071
-605.157	195.735	0.044	0.067
-604.142	-44.248	-0.224	-0.113
-603.128	24.170	0.181	-0.149
-602.113	49.650	0.113	0.106
-601.098	800.000	-0.010	0.043
-600.084	-119.708	0.282	-0.049
-599.069	-81.203	0.459	-0.152
-598.055	-49.659	-0.057	0.027
-597.040	-200.000	0.028	-0.129
-596.025	495.631	-0.084	0.192
-595.011	-42.774	0.178	0.091
-593.996	88.386	0.112	-0.125
-592.982	-182.435	0.281	-0.005
-591.967	-200.000	0.016	-0.279
-590.952	775.421	-0.094	-0.258
-589.938	84.509	-0.224	-0.245
-588.923	-200.000	0.041	0.195
-587.909	-200.000	0.018	0.366
-586.894	-200.000	-0.004	-0.233
-585.879	-200.000	0.019	0.257
-584.865	-88.541	-0.165	0.049
-583.850	-114.793	-0.111	0.021
-582.836	7.475	0.407	0.305
-581.821	-200.000	-0.013	-0.074
-580.806	800.000	-0.072	-0.267
-579.792	68.778	-0.230	0.236
-578.777	-77.484	0.062	-0.021
-577.763	-96.904	0.384	0.101
-576.748	-73.198	-0.055	-0.020
-575.733	70.438	-0.270	0.279
-574.719	85.313	-0.127	-0.140
-573.704	-200.000	-0.036	0.189
-572.690	-107.875	-0.099	-0.022
-571.675	800.000	-0.091	-0.336
-570.661	116.283	-0.165	-0.202
-569.646	-107.608	0.109	-0.024
-568.631	-200.000	-0.000	0.159
-567.617	254.890	0.183	0.313
-566.602	-200.000	0.003	-0.076
-565.588	67.914	-0.110	0.112
-564.573	123.609	-0.336	0.422
-563.558	147.018	-0.032	-0.042
-562.544	-200.000	0.026	-0.213
-561.529	2.155	-0.287	0.207
-560.515	668.726	0.064	0.167
-559.500	-59.119	0.239	0.103
-558.485	800.000	-0.083	-0.272
-557.471	81.925	0.007	0.007
-556.456	15.561	0.282	-0.222
-555.442	-200.000	-0.335	0.000
-554.427	124.585	0.077	-0.096
-553.412	65.058	0.130	-0.132
-552.398	-165.178	-0.131	0.006
-551.383	-104.648	-0.211	0.049
-550.369	134.322	0.222	-0.288
-549.354	133.349	-0.042	-0.055
-548.339	-7.245	0.239	0.162
-547.325	146.124	0.230	-0.309
-546.310	174.732	-0.062	-0.090
-545.296	18.866	-0.108	0.086
-544.281	-94.430	0.271	-0.074
-543.266	-182.030	-0.289	-0.005
-542.252	30.573	-0.341	0.292
-541.237	-62.011	0.141	0.059
-540.223	-67.336	-0.352	0.138
-539.208	146.538	0.193	0.259
-538.193	-12.638	0.142	-0.092
-537.179	278.984	-0.149	0.266
-536.164	106.885	-0.201	-0.238
-535.150	-24.637	-0.183	-0.109
-534.135	82.814	0.141	-0.153
-533.121	-126.766	0.461	0.068
-532.106	-25.492	0.437	0.258
-531.091	106.206	-0.187	-0.221
-530.077	317.210	0.084	-0.159
-529.062	231.588	0.182	-0.298
-528.048	-200.000	0.039	0.321
-527.033	-67.809	-0.401	0.156
-526.018	-67.701	0.085	0.033
-525.004	97.323	0.105	0.120
-523.989	-163.123	-0.256	0.012
-522.975	-66.589	-0.200	0.079
-521.960	-117.730	-0.188	-0.034
-520.945	-200.000	-0.001	-0.056
-519.931	-192.708	0.438	0.004
-518.916	-59.471	-0.132	-0.057
-517.902	60.537	0.113	-0.112
-516.887	90.286	0.098	-0.109
-515.872	-145.809	0.321	0.029
-514.858	-52.341	0.041	0.019
-513.843	800.000	-0.103	-0.290
-512.829	800.000	0.028	0.096
-511.814	-169.569	0.286	-0.010
-510.799	-200.000	-0.046	-0.329
-509.785	170.010	0.230	-0.328
-508.770	-200.000	0.016	0.071
-507.756	-55.816	0.236	0.105
-506.741	800.000	-0.076	0.291
-505.726	-154.709	0.099	0.007
-504.712	-134.646	-0.323	0.039
-503.697	-75.500	0.353	0.125
-502.683	119.527	-0.226	-0.279
-501.668	-74.813	-0.385	-0.138
-500.653	18.136	-0.253	0.202
-499.639	-84.057	-0.176	0.056
-498.624	-200.000	0.002	0.235
-497.610	-200.000	-0.006	-0.152
-496.595	67.959	0.077	-0.079
-495.581	-135.718	-0.293	0.035
-494.566	58.378	-0.193	-0.189
-493.551	-97.586	0.068	-0.018
-492.537	-200.000	0.020	-0.096
-491.522	169.851	0.252	-0.359
-490.508	800.000	-0.050	0.148
-489.493	-200.000	-0.036	-0.183
-488.478	140.201	-0.106	-0.140
-487.464	-200.000	-0.003	-0.197
-486.449	-74.853	0.051	-0.018
-485.435	-98.914	0.170	0.043
-484.420	798.337	0.141	-0.388
-483.405	79.236	-0.198	-0.212
-482.391	124.410	0.194	-0.243
-481.376	-35.549	0.068	0.037
-480.362	156.959	0.135	-0.186
-479.347	800.000	0.060	-0.203
-478.332	-200.000	-0.003	-0.241
-477.318	523.576	0.034	-0.080
-476.303	-200.000	-0.012	-0.329
-475.289	80.488	-0.024	0.026
-474.274	-115.162	-0.186	-0.035
-473.259	-55.153	-0.325	-0.146
-472.245	23.177	-0.181	-0.148
-471.230	-137.255	0.339	0.038
-470.216	-46.543	-0.066	0.032
-469.201	304.229	-0.039	0.072
-468.186	-200.000	-0.020	-0.295
-467.172	-200.000	0.037	-0.274
-466.157	-200.000	-0.005	0.155
-465.143	-103.182	0.056	-0.013
-464.128	-200.000	-0.070	-0.418
-463.113	57.644	0.055	-0.054
-462.099	-200.000	-0.060	-0.286
-461.084	96.594	-0.319	-0.364
-460.070	-200.000	-0.086	-0.000
-459.055	-200.000	-0.018	-0.222
-458.040	-200.000	-0.017	-0.341
-457.026	-200.000	0.003	-0.218
-456.011	-127.622	0.359	0.052
-454.997	-200.000	0.019	-0.235
-453.982	-200.000	-0.019	0.274
-452.968	4.022	0.074	-0.054
-451.953	-97.816	-0.057	0.015
-450.938	224.672	-0.085	0.137
-449.924	41.953	-0.147	0.133
-448.909	800.000	-0.041	-0.115
-447.895	-195.415	0.178	-0.001
-446.880	170.305	-0.083	-0.118
-445.865	-71.327	-0.269	-0.100
-444.851	150.689	-0.131	0.177
-443.836	176.573	-0.118	0.171
-442.822	0.797	-0.263	0.188
-441.807	161.213	-0.341	0.474
-440.792	-43.313	-0.157	-0.079
-439.778	-143.916	-0.252	-0.024
-438.763	-200.000	0.064	-0.317
-437.749	800.000	-0.134	-0.393
-436.734	-200.000	-0.009	0.097
-435.719	800.000	-0.114	-0.338
-434.705	8.680	-0.114	0.086
-433.690	401.836	-0.061	-0.127
-432.676	-92.128	0.248	0.070
-431.661	11.086	0.167	-0.127
-430.646	667.729	0.121	0.311
-429.632	-18.966	0.359	-0.222
-428.617	-200.000	-0.280	-0.001
-427.603	-116.635	0.439	0.080
-426.588	302.196	-0.110	-0.202
-425.573	2.792	-0.224	-0.161
-424.559	260.121	-0.137	0.236
-423.544	-200.000	0.032	0.261
-422.530	502.588	-0.029	0.066
-421.515	-78.114	-0.034	0.012
-420.500	-27.957	-0.079	0.046
-419.486	330.852	0.049	-0.094
-418.471	-200.000	-0.043	-0.250
-417.457	7.050	-0.109	0.080
-416.442	-99.342	-0.280	0.070
-415.428	-200.000	0.104	0.460
-414.413	-135.066	0.069	0.008
-413.398	-200.000	0.003	0.092
-412.384	-198.111	0.077	0.000
-411.369	800.000	0.047	0.190
-410.355	-29.807	0.191	0.108
-409.340	601.205	-0.109	0.268
-408.325	56.600	-0.143	0.139
-407.311	74.411	0.097	0.101
-406.296	127.080	-0.058	0.073
-405.282	146.077	0.109	-0.146
-404.267	800.000	-0.055	-0.233
-403.252	800.000	-0.036	-0.103
-402.238	362.209	0.061	-0.122
-401.223	203.554	-0.210	0.323
-400.209	113.349	-0.182	-0.219
-399.194	13.546	0.128	0.099
-398.179	-74.918	0.357	-0.127
-397.165	61.019	0.211	0.208
-396.150	752.739	-0.025	0.067
-395.136	552.915	-0.026	-0.061
-394.121	800.000	-0.124	-0.370
-393.106	-56.227	-0.216	-0.096
-392.092	-138.364	-0.127	0.014
-391.077	800.000	-0.093	-0.293
-390.063	-118.727	-0.533	0.093
-389.048	800.000	0.052	-0.212
-388.033	-151.376	-0.201	0.015
-387.019	-200.000	0.030	0.227
-386.004	-71.151	0.230	-0.086
-384.990	-200.000	0.035	0.213
-383.975	675.434	0.031	0.080
-382.960	0.756	-0.111	-0.079
-381.946	493.663	-0.048	0.110
-380.931	-117.510	-0.149	0.027
-379.917	606.359	-0.089	0.220
-378.902	-200.000	0.023	0.159
-377.888	-176.169	0.222	0.006
-376.873	-200.000	0.015	-0.347
-375.858	-179.012	0.153	0.003
-374.844	738.906	0.077	0.204
-373.829	729.947	0.019	-0.052
-372.815	-200.000	-0.023	0.247
-371.800	-72.734	0.189	0.069
-370.785	-171.614	-0.230	-0.008
-369.771	493.985	0.037	0.083
-368.756	373.639	-0.033	0.066
-367.742	-7.437	0.123	0.083
-366.727	40.059	-0.156	0.139
-365.712	800.000	-0.052	-0.142
-364.698	102.495	-0.149	0.173
-363.683	-200.000	0.023	0.170
-362.669	-200.000	-0.067	0.411
-361.654	404.249	-0.153	0.320
-360.639	173.535	-0.160	-0.229
-359.625	375.108	-0.076	0.153
-358.610	-164.885	0.228	0.010
-357.596	141.417	0.057	-0.074
-356.581	235.737	-0.186	-0.305
-355.566	-79.021	-0.269	-0.091
-354.552	-46.621	0.175	0.085
-353.537	371.037	0.044	-0.088
-352.523	800.000	-0.073	-0.229
-351.508	-57.787	0.268	-0.116
-350.493	-17.803	0.142	0.088
-349.479	37.739	0.064	-0.057
-348.464	-124.609	-0.267	-0.041
-347.450	-108.234	0.243	0.052
-346.435	-200.000	-0.014	-0.241
-345.420	-28.310	-0.272	0.156
-344.406	-172.646	0.315	0.010
-343.391	103.079	0.106	0.123
-342.377	565.903	-0.010	-0.024
-341.362	-200.000	-0.012	0.153
-340.348	121.062	0.169	0.208
-339.333	-200.000	-0.014	0.349
-338.318	402.370	0.113	-0.235
-337.304	-160.456	-0.179	0.010
-336.289	243.488	-0.061	-0.102
-335.275	-25.803	-0.226	0.132
-334.260	-200.000	0.032	-0.146
-333.245	-30.943	-0.314	0.176
-332.231	-120.449	0.039	0.007
-331.216	-200.000	0.004	-0.354
-330.202	-7.548	0.226	0.151
-329.187	-74.057	-0.224	0.080
-328.172	174.163	-0.222	-0.318
-327.158	-200.000	-0.003	0.343
-326.143	-9.181	0.344	-0.228
-325.129	250.977	0.104	0.174
-324.114	178.943	-0.207	0.300
-323.099	288.205	-0.171	-0.307
-322.085	-200.000	-0.060	0.411
-321.070	-153.526	-0.279	-0.019
-320.056	220.757	-0.150	0.239
-319.041	70.407	-0.056	0.058
-318.026	315.907	-0.048	-0.089
-317.012	-136.469	0.305	0.035
-315.997	-200.000	-0.032	-0.167
-314.983	151.780	-0.042	-0.056
-313.968	-70.017	-0.212	-0.080
-312.953	285.833	-0.201	0.359
-311.939	-200.000	0.002	-0.065
-310.924	-200.000	-0.055	0.267
-309.910	-108.366	-0.230	-0.049
-308.895	375.332	0.053	0.107
-307.880	320.387	0.085	-0.160
-306.866	800.000	0.033	0.130
-305.851	-74.222	-0.217	0.078
-304.837	-108.058	-0.299	-0.064
-303.822	-200.000	-0.050	0.230
-302.807	-200.000	0.016	-0.099
-301.793	-122.939	0.468	0.075
-300.778	-152.591	-0.317	-0.022
-299.764	-1.107	0.381	-0.267
-298.749	-163.263	-0.091	-0.004
-297.735	53.096	0.211	0.200
-296.720	800.000	0.090	0.369
-295.705	18.532	0.068	0.053
-294.691	-200.000	-0.012	0.210
-293.676	76.508	0.122	0.128
-292.662	-106.428	-0.148	-0.033
-291.647	642.890	0.120	-0.304
-290.632	800.000	-0.050	0.210
-289.618	255.825	-0.114	-0.193
-288.603	-97.446	-0.117	-0.030
-287.589	102.118	0.044	0.051
-286.574	-63.845	0.214	-0.087
-285.559	-200.000	-0.067	0.491
-284.545	631.942	0.049	0.122
-283.530	26.405	-0.129	-0.107
-282.516	-2.166	-0.135	-0.093
-281.501	-60.074	0.285	-0.120
-280.486	107.165	-0.111	0.130
-279.472	-200.000	-0.009	0.297
-278.457	-83.352	-0.278	-0.088
-277.443	-160.841	0.130	-0.007
-276.428	800.000	0.087	0.374
-275.413	185.540	-0.079	-0.116
-274.399	-40.788	0.201	-0.103
-273.384	-51.644	-0.211	0.097
-272.370	800.000	-0.036	0.141
-271.355	372.534	-0.031	-0.063
-270.340	361.765	0.055	0.109
-269.326	800.000	-0.033	-0.109
-268.311	20.563	-0.216	-0.173
-267.297	-7.788	0.127	0.085
-266.282	-50.945	0.056	-0.026
-265.267	-113.301	0.253	0.049
-264.253	-200.000	-0.015	-0.376
-263.238	-151.416	-0.073	0.005
-262.224	-200.000	-0.002	-0.234
-261.209	-200.000	-0.052	-0.288
-260.195	331.580	-0.132	-0.252
-259.180	-5.189	0.155	0.105
-258.165	-178.082	0.196	-0.005
-257.151	-200.000	0.036	0.222
-256.136	-200.000	0.018	-0.157
-255.122	800.000	0.043	0.175
-254.107	303.717	-0.151	0.277
-253.092	-200.000	0.014	0.086
-252.078	737.694	0.191	0.505
-251.063	-101.710	-0.220	0.053
-250.049	219.662	0.165	0.261
-249.034	-102.207	-0.177	-0.042
-248.019	-96.760	-0.489	0.127
-247.005	-52.050	-0.208	-0.095
-245.990	103.932	0.039	0.045
-244.976	-115.342	0.562	-0.105
-243.961	-92.984	-0.667	-0.184
-242.946	48.273	-0.157	0.145
-241.932	6.261	-0.072	0.053
-240.917	-9.398	-0.180	0.118
-239.903	103.572	0.178	0.206
-238.888	24.298	0.180	0.147
-237.873	-42.831	0.403	0.202
-236.859	395.184	-0.120	0.247
-235.844	800.000	-0.092	0.254
-234.830	99.915	0.188	0.215
-233.815	341.455	0.157	0.304
-232.800	-67.621	0.191	0.074
-231.786	-72.201	0.198	0.072
-230.771	90.187	0.153	-0.169
-229.757	-200.000	-0.018	-0.246
-228.742	800.000	-0.076	-0.238
-227.727	-104.917	0.096	-0.022
-226.713	-123.820	0.195	-0.030
-225.698	22.966	-0.100	-0.081
-224.684	166.363	0.231	0.322
-223.669	-65.524	0.389	0.154
-222.655	-200.000	-0.014	-0.134
-221.640	-9.030	-0.259	-0.171
-220.625	-57.121	-0.275	-0.119
-219.611	482.672	-0.091	-0.205
-218.596	-157.695	-0.096	-0.006
-217.582	102.901	-0.283	0.326
-216.567	4.431	-0.260	0.188
-215.552	-200.000	0.032	-0.180
-214.538	-76.080	-0.250	-0.087
-213.523	-200.000	0.004	-0.106
-212.509	297.215	0.172	0.311
-211.494	-85.217	0.354	0.109
-210.479	117.631	-0.050	0.060
-209.465	-59.607	-0.283	0.120
-208.450	-2.193	0.204	0.141
-207.436	-117.577	0.229	0.041
-206.421	63.751	-0.021	0.021
-205.406	-63.168	0.287	-0.117
-204.392	-200.000	0.060	-0.307
-203.377	10.224	-0.167	-0.125
-202.363	-200.000	0.058	0.284
-201.348	33.208	0.097	-0.083
-200.333	8.777	-0.177	0.131
-199.319	23.482	0.091	-0.074
-198.304	-126.626	0.099	0.014
-197.290	-179.997	0.375	-0.008
-196.275	373.411	0.082	0.165
-195.260	800.000	-0.075	0.314
-194.246	35.122	-0.015	-0.013
-193.231	-117.024	-0.045	-0.008
-192.217	72.079	-0.126	0.129
-191.202	800.000	0.076	0.222
-190.187	-105.141	0.070	-0.016
-189.173	-24.680	0.388	-0.227
-188.158	5.569	0.210	0.153
-187.144	710.228	0.126	0.328
-186.129	-200.000	0.029	-0.271
-185.114	-156.644	-0.158	-0.010
-184.100	90.708	0.130	-0.143
-183.085	15.362	-0.196	-0.152
-182.071	51.672	-0.127	0.119
-181.056	-118.270	0.230	0.040
-180.042	-200.000	-0.050	0.397
-179.027	51.503	-0.139	0.130
-178.012	-114.146	0.251	0.048
-176.998	-160.990	0.273	-0.014
-175.983	-18.023	-0.037	0.023
-174.969	800.000	0.057	0.209
-173.954	-100.335	0.314	0.077
-172.939	52.777	0.083	-0.078
-171.925	-200.000	-0.018	0.122
-170.910	-177.748	-0.175	-0.004
-169.896	151.835	0.172	-0.231
-168.881	-4.243	0.166	0.113
-167.866	161.677	0.184	-0.253
-166.852	450.313	0.030	-0.064
-165.837	-200.000	-0.038	-0.245
-164.823	-42.976	-0.130	0.065
-163.808	-85.975	0.384	-0.117
-162.793	-26.554	-0.168	0.097
-161.779	13.804	-0.151	0.116
-160.764	384.504	0.099	0.200
-159.750	453.035	0.106	-0.230
-158.735	21.093	0.267	-0.213
-157.720	-176.435	0.267	-0.007
-156.706	-142.747	-0.207	0.020
-155.691	53.111	-0.099	-0.093
-154.677	-122.747	0.115	-0.018
-153.662	800.000	0.095	-0.390
-152.647	-200.000	0.015	0.252
-151.633	202.571	-0.123	-0.186
-150.618	-200.000	0.015	-0.104
-149.604	679.865	-0.061	-0.156
-148.589	-42.878	0.290	0.145
-147.574	-21.259	-0.130	-0.078
-146.560	-91.371	0.216	-0.061
-145.545	-65.221	-0.087	-0.035
-144.531	154.043	0.250	-0.337
-143.516	800.000	0.084	0.238
-142.502	103.083	0.138	-0.159
-141.487	-200.000	0.001	-0.085
-140.472	-88.862	-0.380	0.111
-139.458	-200.000	-0.021	-0.102
-138.443	-183.219	0.464	0.008
-137.429	-158.639	0.086	-0.005
-136.414	34.840	-0.198	-0.171
-135.399	22.482	-0.147	-0.119
-134.385	200.928	-0.059	0.089
-133.370	800.000	0.089	0.350
-132.356	199.763	-0.060	0.091
-131.341	-23.176	-0.056	0.033
-130.326	424.240	-0.164	0.346
-129.312	-5.865	-0.290	0.195
-128.297	526.807	0.057	0.131
-127.283	172.855	0.140	0.199
-126.268	-200.000	0.047	-0.247
-125.253	800.000	0.087	0.311
-124.239	-12.689	-0.225	0.144
-123.224	-17.672	0.121	0.075
-122.210	43.647	0.230	0.207
-121.195	-94.618	-0.088	-0.023
