DTS Sentinel unit serial number:	SN413079Multiplexer serial number:	ORYXHardware model number:	OX4-SRSoftware version number:	ORYX F/W v4.00 Oryx Data Collector v3.7.2.0data status	okinstallation	princeton_trtdifferential loss correction	single-endedforward channel	channel 1reverse channel	N/Adate	2019/09/12time	18:37:34forward acquisition time	15.00reverse acquisition time	0.00gamma	496.2192k internal	0.2318k external	0.2318temperature offset calibration	1.0112default loss term (dB/km)	0.3790temperature slope calibration	1.0000multiplexer offset coefficient	1.0000multiplexer slope coefficient	1.0000fibre end	0.00T internal ref (°C)	33.12T ext. ref 1 (°C)	2.96T ext. ref 2 (°C)	27.69length (m)	temperature (°C)	Stokes	anti-Stokes-747.200	-7.225	0.630	0.432
-746.185	67.167	0.458	-0.473
-745.171	-114.928	0.400	-0.077
-744.156	-200.000	-0.032	0.310
-743.142	328.649	0.238	-0.463
-742.127	-36.896	0.840	0.456
-741.112	-195.635	-0.523	-0.004
-740.098	-200.000	0.037	0.482
-739.083	-200.000	-0.011	-0.319
-738.069	800.000	0.072	-0.221
-737.054	-183.105	-0.771	-0.014
-736.039	-200.000	0.004	0.024
-735.025	-200.000	-0.051	0.426
-734.010	-200.000	0.026	0.488
-732.996	0.915	-0.414	-0.300
-731.981	-187.195	-0.070	-0.001
-730.966	20.599	-0.232	-0.190
-729.952	-143.305	-0.492	0.048
-728.937	-200.000	-0.026	0.280
-727.923	800.000	0.251	0.895
-726.908	-68.019	-0.935	0.369
-725.894	344.215	0.395	-0.784
-724.879	396.046	0.167	-0.352
-723.864	-97.244	-0.421	-0.111
-722.850	341.000	0.294	0.581
-721.835	113.801	0.323	0.397
-720.821	-31.194	-0.439	-0.250
-719.806	179.588	-0.314	-0.465
-718.791	118.847	-0.556	-0.695
-717.777	139.106	0.462	-0.615
-716.762	-126.230	-0.606	-0.092
-715.748	99.551	-0.405	0.473
-714.733	293.439	0.207	-0.382
-713.718	-60.909	-0.210	0.090
-712.704	-200.000	-0.262	1.562
-711.689	800.000	0.053	0.183
-710.675	704.580	-0.069	0.183
-709.660	-200.000	0.047	1.142
-708.645	-200.000	-0.054	-0.864
-707.631	800.000	0.138	0.489
-706.616	-158.150	1.217	0.072
-705.602	185.160	-0.260	-0.390
-704.587	13.978	-0.860	0.676
-703.572	-147.903	0.686	-0.058
-702.558	-144.103	-0.955	0.090
-701.543	43.240	-0.426	0.393
-700.529	-200.000	0.069	-0.372
-699.514	121.066	0.457	0.574
-698.499	-106.849	0.405	-0.091
-697.485	-69.581	-0.671	0.259
-696.470	134.705	-0.148	-0.194
-695.456	-94.438	-0.717	-0.198
-694.441	-109.856	0.239	0.051
-693.426	800.000	0.209	-0.583
-692.412	-136.221	0.255	0.030
-691.397	800.000	0.193	-0.835
-690.383	3.232	-0.635	-0.467
-689.368	-30.324	-0.547	0.313
-688.354	-40.367	0.494	-0.259
-687.339	150.079	0.398	-0.545
-686.324	19.007	-0.445	0.360
-685.310	270.655	0.433	-0.770
-684.295	-140.032	-0.506	-0.054
-683.281	41.719	-0.323	-0.296
-682.266	95.332	-0.289	0.333
-681.251	-200.000	-0.007	-0.268
-680.237	-93.516	0.471	-0.132
-679.222	-97.904	-0.255	0.066
-678.208	104.915	-0.218	0.259
-677.193	43.546	-0.296	-0.273
-676.178	-163.582	-0.724	-0.035
-675.164	303.456	0.354	-0.662
-674.149	-200.000	0.039	0.221
-673.135	-137.318	-0.076	-0.009
-672.120	-2.789	0.864	-0.609
-671.105	800.000	-0.349	-1.079
-670.091	100.615	0.196	-0.230
-669.076	69.892	-0.699	0.728
-668.062	-41.884	-0.384	-0.198
-667.047	-200.000	0.044	-0.241
-666.032	40.865	0.342	0.312
-665.018	-78.029	0.476	0.165
-664.003	73.661	-0.159	-0.168
-662.989	428.527	0.391	-0.853
-661.974	-61.859	0.384	-0.162
-660.959	-113.061	0.425	-0.085
-659.945	-200.000	-0.040	0.354
-658.930	-85.028	0.164	0.052
-657.916	-200.000	0.151	-0.724
-656.901	354.265	0.151	0.302
-655.886	800.000	-0.152	-0.444
-654.872	-33.489	0.318	-0.177
-653.857	105.923	0.389	-0.464
-652.843	362.560	-0.306	-0.619
-651.828	233.511	-0.156	0.259
-650.814	388.090	-0.375	0.782
-649.799	487.406	-0.108	-0.248
-648.784	800.000	-0.059	-0.242
-647.770	800.000	0.024	-0.069
-646.755	-10.246	-0.519	-0.347
-645.741	-143.945	-0.893	0.085
-644.726	3.004	-0.385	0.282
-643.711	-173.216	0.227	-0.007
-642.697	-65.016	0.797	0.325
-641.682	-200.000	0.110	-0.548
-640.668	-200.000	-0.062	-0.321
-639.653	-83.439	0.469	0.151
-638.638	22.480	0.233	0.192
-637.624	-102.557	-0.387	-0.093
-636.609	425.421	0.353	0.767
-635.595	-25.768	0.492	0.292
-634.580	219.140	0.134	0.216
-633.565	-1.457	-0.705	-0.501
-632.551	47.210	-0.511	-0.480
-631.536	94.320	0.179	-0.204
-630.522	38.950	0.478	0.430
-629.507	-200.000	-0.020	-0.202
-628.492	800.000	-0.011	-0.039
-627.478	28.333	-0.634	-0.540
-626.463	-200.000	0.154	-0.875
-625.449	-143.599	-0.344	-0.033
-624.434	279.547	-0.314	0.564
-623.419	-116.972	0.595	0.109
-622.405	-200.000	0.009	-0.809
-621.390	390.934	-0.206	-0.430
-620.376	-20.236	-0.398	0.247
-619.361	-136.456	0.181	0.021
-618.346	-160.131	-0.632	-0.035
-617.332	-110.093	0.342	0.072
-616.317	-93.386	0.291	-0.081
-615.303	37.171	-0.437	0.390
-614.288	-69.145	0.897	0.347
-613.273	231.567	0.257	-0.424
-612.259	122.152	-0.419	-0.526
-611.244	33.968	0.324	-0.284
-610.230	166.452	-0.447	-0.637
-609.215	332.536	-0.294	0.572
-608.201	-16.140	0.850	0.544
-607.186	-67.246	-0.239	0.095
-606.171	386.934	0.255	-0.530
-605.157	159.374	-0.374	-0.524
-604.142	337.234	-0.387	0.758
-603.128	9.826	-0.401	0.306
-602.113	-200.000	0.034	-0.170
-601.098	-107.052	0.263	0.058
-600.084	-120.757	-1.061	-0.180
-599.069	-24.606	-0.328	-0.197
-598.055	-85.867	-1.214	-0.378
-597.040	-200.000	-0.085	-0.400
-596.025	378.116	0.107	-0.221
-595.011	-161.719	-0.728	-0.037
-593.996	-53.416	0.414	0.191
-592.982	-167.581	0.170	0.007
-591.967	-0.428	0.235	-0.168
-590.952	324.208	0.408	-0.785
-589.938	27.869	-0.132	-0.112
-588.923	11.319	0.070	-0.054
-587.909	-90.367	0.098	-0.029
-586.894	442.270	0.157	0.347
-585.879	-91.291	-0.361	-0.104
-584.865	-117.451	0.965	-0.176
-583.850	-200.000	-0.016	0.508
-582.836	-18.620	-0.545	-0.342
-581.821	-121.055	-0.222	-0.037
-580.806	244.130	0.171	-0.289
-579.792	-200.000	-0.025	-0.228
-578.777	107.559	0.417	0.499
-577.763	-66.788	0.525	-0.209
-576.748	-135.078	-0.383	0.046
-575.733	159.104	-0.314	0.439
-574.719	-200.000	0.056	0.321
-573.704	-115.467	-0.395	0.075
-572.690	526.683	0.329	0.780
-571.675	-142.040	-0.092	0.009
-570.661	-200.000	0.119	1.099
-569.646	32.392	-0.325	-0.282
-568.631	-141.856	0.214	-0.022
-567.617	67.651	0.837	-0.859
-566.602	-102.828	-0.380	-0.091
-565.588	484.634	-0.102	-0.233
-564.573	-77.257	0.608	0.213
-563.558	800.000	-0.173	-0.720
-562.544	-163.708	-0.260	0.012
-561.529	48.219	-0.354	0.333
-560.515	800.000	0.119	0.423
-559.500	-5.037	-0.240	-0.166
-558.485	74.744	-0.630	-0.666
-557.471	-200.000	0.013	0.290
-556.456	170.646	-0.027	-0.038
-555.442	800.000	-0.184	0.564
-554.427	-200.000	0.111	-0.561
-553.412	98.023	-0.239	0.277
-552.398	-174.930	-0.240	-0.007
-551.383	-24.981	-0.391	-0.233
-550.369	294.229	0.480	0.880
-549.354	485.966	0.294	-0.673
-548.339	-72.265	-0.299	0.111
-547.325	318.465	-0.085	0.162
-546.310	-200.000	0.040	-0.613
-545.296	228.344	-0.040	-0.066
-544.281	-200.000	0.044	-0.942
-543.266	105.692	0.219	-0.260
-542.252	16.106	0.474	-0.375
-541.237	-16.499	0.326	-0.208
-540.223	361.590	0.159	0.321
-539.208	144.715	0.310	0.416
-538.193	112.801	-0.144	-0.175
-537.179	-91.338	-0.140	-0.040
-536.164	3.462	-0.449	-0.329
-535.150	-74.722	0.586	0.211
-534.135	644.328	0.185	0.473
-533.121	65.507	-0.038	0.039
-532.106	463.830	-0.298	-0.668
-531.091	52.889	0.553	-0.531
-530.077	-10.598	0.406	0.269
-529.062	-200.000	0.011	-0.339
-528.048	800.000	0.074	0.258
-527.033	-200.000	-0.119	-0.609
-526.018	-2.125	-0.200	-0.141
-525.004	92.820	0.208	-0.235
-523.989	-79.526	-0.645	-0.219
-522.975	-69.448	0.081	-0.031
-521.960	-71.040	-0.349	0.132
-520.945	-60.437	0.134	-0.057
-519.931	105.845	-0.543	0.644
-518.916	23.520	0.427	-0.353
-517.902	-172.639	0.445	-0.014
-516.887	800.000	-0.106	-0.331
-515.872	15.509	0.204	-0.161
-514.858	-200.000	-0.043	0.193
-513.843	12.302	-0.625	-0.483
-512.829	-69.316	-0.305	0.117
-511.814	-200.000	-0.103	-1.073
-510.799	286.569	0.128	-0.231
-509.785	164.845	0.308	0.435
-508.770	-200.000	-0.047	0.648
-507.756	800.000	-0.039	0.159
-506.741	-200.000	-0.165	-0.918
-505.726	530.896	0.165	0.391
-504.712	277.188	0.486	0.866
-503.697	-91.336	-0.710	0.203
-502.683	-199.272	0.223	-0.001
-501.668	-90.808	0.233	-0.067
-500.653	140.370	0.413	0.546
-499.639	364.759	0.168	0.340
-498.624	30.432	-0.124	-0.106
-497.610	360.848	-0.471	-0.945
-496.595	-200.000	0.064	0.416
-495.581	-117.711	-0.272	-0.049
-494.566	-90.269	-0.640	0.186
-493.551	-11.407	-0.546	-0.360
-492.537	800.000	0.272	-0.851
-491.522	-115.896	0.393	-0.074
-490.508	26.496	0.228	0.191
-489.493	385.308	0.166	0.344
-488.478	400.435	0.233	0.489
-487.464	-78.890	1.284	-0.438
-486.449	7.185	0.249	0.187
-485.435	790.945	0.228	-0.628
-484.420	-147.110	-0.577	-0.049
-483.405	100.189	-0.366	-0.425
-482.391	-113.905	0.604	0.117
-481.376	168.191	0.310	-0.442
-480.362	-3.761	0.286	-0.199
-479.347	-125.140	-0.823	0.126
-478.332	-147.622	0.622	-0.052
-477.318	187.976	0.206	0.308
-476.303	800.000	0.125	0.409
-475.289	-175.949	0.201	0.005
-474.274	11.761	-0.535	-0.412
-473.259	-200.000	-0.100	-1.098
-472.245	-91.813	0.552	0.157
-471.230	241.277	0.192	0.321
-470.216	-200.000	-0.024	-0.215
-469.201	-92.656	0.364	-0.102
-468.186	-200.000	0.000	-0.241
-467.172	-76.926	-0.741	-0.259
-466.157	92.105	-0.336	0.379
-465.143	-200.000	0.025	-0.215
-464.128	-200.000	-0.098	-0.689
-463.113	-133.071	0.315	0.040
-462.099	292.673	0.487	-0.888
-461.084	-200.000	-0.051	0.312
-460.070	589.532	-0.311	0.768
-459.055	-117.948	-0.295	-0.053
-458.040	-49.269	-0.401	-0.192
-457.026	563.091	0.410	-0.993
-456.011	83.597	-0.752	-0.821
-454.997	18.922	0.866	0.695
-453.982	-200.000	0.015	-0.493
-452.968	-200.000	0.119	-0.920
-451.953	-15.031	-0.155	0.099
-450.938	1.093	0.481	-0.345
-449.924	21.577	0.092	-0.075
-448.909	-3.359	0.831	-0.579
-447.895	-200.000	-0.046	-0.211
-446.880	-9.335	0.719	0.480
-445.865	-163.270	0.298	-0.014
-444.851	357.748	0.248	-0.496
-443.836	79.708	-0.502	0.539
-442.822	-156.334	-0.281	-0.018
-441.807	66.479	0.580	0.590
-440.792	-13.085	0.610	-0.396
-439.778	-14.738	-0.526	0.338
-438.763	56.302	-0.472	-0.458
-437.749	-29.141	-0.375	0.215
-436.734	-89.206	-0.603	0.178
-435.719	-200.000	-0.203	-1.031
-434.705	-92.229	-0.278	0.079
-433.690	165.138	0.247	0.349
-432.676	-0.326	-0.501	0.356
-431.661	534.875	0.249	0.591
-430.646	-136.096	-0.153	-0.018
-429.632	94.029	-0.405	0.459
-428.617	57.452	-0.775	-0.757
-427.603	-93.132	-0.778	-0.217
-426.588	-200.000	-0.070	0.671
-425.573	-98.523	0.398	0.102
-424.559	-200.000	0.039	-0.532
-423.544	-88.320	0.518	-0.155
-422.530	172.754	0.406	0.584
-421.515	-200.000	0.038	0.223
-420.500	-200.000	0.002	-0.314
-419.486	486.143	0.105	-0.238
-418.471	283.411	-0.556	0.997
-417.457	-45.048	0.258	-0.128
-416.442	-135.006	-0.300	-0.036
-415.428	800.000	-0.116	-0.353
-414.413	800.000	-0.303	1.097
-413.398	-11.215	-0.277	-0.182
-412.384	35.741	-0.155	-0.136
-411.369	-200.000	-0.010	0.274
-410.355	415.226	-0.091	-0.193
-409.340	540.627	-0.103	0.246
-408.325	-200.000	-0.165	-0.853
-407.311	168.978	0.229	0.326
-406.296	-110.459	-0.254	-0.053
-405.282	-200.000	0.107	-0.677
-404.267	-200.000	0.017	1.039
-403.252	-103.463	0.511	-0.120
-402.238	800.000	0.223	-0.658
-401.223	-125.133	-0.559	0.086
-400.209	59.405	-0.230	0.226
-399.194	-79.592	-0.663	-0.223
-398.179	-25.031	-0.233	-0.138
-397.165	-119.675	0.270	-0.047
-396.150	311.058	0.309	0.579
-395.136	-71.825	-0.816	0.303
-394.121	-87.829	-0.391	-0.118
-393.106	-53.699	-0.747	0.341
-392.092	-81.497	0.770	-0.253
-391.077	-121.794	0.565	-0.093
-390.063	-56.130	-0.345	0.153
-389.048	147.129	0.251	-0.337
-388.033	-25.695	-0.790	0.465
-387.019	800.000	0.063	0.232
-386.004	30.014	-0.302	-0.257
-384.990	-102.150	-0.817	0.196
-383.975	491.024	0.236	0.538
-382.960	544.200	-0.209	0.498
-381.946	14.307	0.364	-0.283
-380.931	-200.000	0.076	0.743
-379.917	-142.544	-0.671	0.066
-378.902	-200.000	0.263	0.001
-377.888	800.000	-0.154	-0.493
-376.873	-200.000	0.036	0.530
-375.858	-120.930	0.818	0.137
-374.844	-94.113	-0.285	-0.078
-373.829	-200.000	0.016	0.480
-372.815	126.157	-0.121	0.152
-371.800	-117.349	-0.517	-0.093
-370.785	-200.000	0.160	0.798
-369.771	-200.000	-0.059	0.477
-368.756	-150.488	0.105	0.008
-367.742	13.334	0.215	-0.166
-366.727	-54.272	0.124	-0.056
-365.712	560.578	-0.093	-0.224
-364.698	-200.000	-0.068	0.612
-363.683	-112.309	-0.021	0.004
-362.669	306.576	-0.185	-0.343
-361.654	220.479	-0.389	0.622
-360.639	-70.224	-1.031	-0.391
-359.625	800.000	0.046	-0.139
-358.610	21.461	-0.464	0.376
-357.596	800.000	0.138	-0.487
-356.581	-47.260	0.923	-0.448
-355.566	800.000	-0.162	-0.575
-354.552	-45.082	0.173	-0.086
-353.537	-82.588	-0.366	0.118
-352.523	-58.961	0.580	-0.250
-351.508	256.844	0.431	0.738
-350.493	-125.564	-0.025	0.004
-349.479	-12.116	0.679	0.443
-348.464	-102.095	1.021	0.245
-347.450	349.212	-0.117	0.231
-346.435	208.152	-0.342	-0.533
-345.420	41.919	0.168	0.151
-344.406	-2.092	-0.331	0.232
-343.391	211.090	-0.484	0.758
-342.377	800.000	-0.125	-0.438
-341.362	-188.632	0.030	-0.000
-340.348	83.818	0.106	-0.115
-339.333	87.679	0.190	0.210
-338.318	800.000	-0.224	-0.717
-337.304	106.035	0.243	-0.287
-336.289	38.877	-0.079	0.070
-335.275	-200.000	0.116	-0.853
-334.260	-200.000	-0.017	0.617
-333.245	7.101	0.669	0.497
-332.231	141.197	0.350	-0.461
-331.216	-37.599	0.957	-0.508
-330.202	-47.606	-0.183	0.088
-329.187	800.000	0.204	-0.799
-328.172	532.086	-0.277	-0.652
-327.158	-200.000	0.153	0.836
-326.143	-200.000	-0.009	-0.527
-325.129	82.642	0.237	0.256
-324.114	-149.829	0.720	0.056
-323.099	250.148	-0.281	0.475
-322.085	22.789	-0.296	-0.242
-321.070	10.276	0.612	-0.463
-320.056	127.198	-0.198	0.251
-319.041	40.622	0.381	-0.342
-318.026	-15.260	0.239	-0.152
-317.012	35.750	0.330	0.289
-315.997	-115.448	0.767	-0.144
-314.983	-156.795	0.581	0.036
-313.968	207.371	-0.271	-0.420
-312.953	-200.000	-0.004	0.535
-311.939	99.581	-0.202	-0.233
-310.924	-200.000	0.001	-0.508
-309.910	-200.000	-0.013	-0.429
-308.895	-75.172	-0.604	-0.215
-307.880	-10.369	-0.114	-0.075
-306.866	-48.354	-0.327	-0.157
-305.851	108.424	0.532	0.631
-304.837	-200.000	-0.222	-1.274
-303.822	88.839	0.247	-0.274
-302.807	-104.131	-1.068	0.247
-301.793	-143.439	0.225	-0.021
-300.778	529.119	0.378	0.888
-299.764	-20.782	-0.351	0.214
-298.749	149.095	-0.116	-0.156
-297.735	-200.000	0.080	-0.451
-296.720	661.831	-0.047	0.120
-295.705	236.918	-0.423	0.697
-294.691	-100.883	-0.416	-0.102
-293.676	-107.845	-0.686	0.149
-292.662	-200.000	0.045	0.405
-291.647	738.958	0.089	0.239
-290.632	-200.000	0.066	-0.806
-289.618	-200.000	0.036	0.495
-288.603	-8.843	-0.305	-0.204
-287.589	729.968	0.120	-0.319
-286.574	-200.000	-0.254	1.144
-285.559	2.224	-1.130	0.812
-284.545	626.097	0.106	0.266
-283.530	-27.345	-1.087	-0.629
-282.516	-77.413	0.119	-0.041
-281.501	296.488	-0.298	0.544
-280.486	-116.544	1.043	0.191
-279.472	-200.000	0.020	-0.606
-278.457	44.961	-0.657	0.602
-277.443	-75.261	0.199	0.071
-276.428	-200.000	-0.045	-0.307
-275.413	800.000	-0.078	0.219
-274.399	-18.427	0.691	-0.429
-273.384	-200.000	-0.020	-0.990
-272.370	32.853	-0.407	0.350
-271.355	-200.000	0.004	0.946
-270.340	-200.000	-0.153	1.026
-269.326	-63.869	0.560	0.228
-268.311	627.392	-0.058	-0.147
-267.297	-172.546	0.844	0.026
-266.282	457.078	-0.078	-0.173
-265.267	139.524	-0.174	0.227
-264.253	-200.000	-0.103	-0.628
-263.238	800.000	-0.190	-0.714
-262.224	476.293	0.085	0.190
-261.209	-29.429	0.323	-0.183
-260.195	-95.926	0.238	0.063
-259.180	-200.000	0.014	-0.194
-258.165	435.214	-0.070	0.151
-257.151	118.059	-0.083	0.102
-256.136	328.125	-0.090	0.171
-255.122	65.375	-0.440	-0.442
-254.107	-200.000	-0.167	0.805
-253.092	64.800	0.207	-0.208
-252.078	290.672	-0.188	0.340
-251.063	800.000	-0.158	-0.576
-250.049	-152.691	0.459	-0.032
-249.034	-106.516	0.761	-0.168
-248.019	-8.155	-0.401	0.268
-247.005	-82.654	-0.728	0.234
-245.990	-173.728	-0.638	-0.019
-244.976	189.782	-0.260	-0.387
-243.961	-40.682	-0.586	0.301
-242.946	192.196	0.456	0.683
-241.932	244.104	-0.212	0.352
-240.917	-200.000	0.053	0.478
-239.903	182.543	-0.183	-0.269
-238.888	337.034	0.229	0.442
-237.873	30.799	-0.515	-0.438
-236.859	31.672	-0.757	0.646
-235.844	-200.000	0.007	0.159
-234.830	24.554	-0.383	0.314
-233.815	58.460	-0.195	-0.190
-232.800	-200.000	-0.058	0.362
-231.786	288.716	0.208	0.374
-230.771	-166.878	0.458	-0.019
-229.757	-200.000	-0.116	0.866
-228.742	-41.011	0.467	0.240
-227.727	-200.000	-0.019	0.410
-226.713	66.749	-0.306	0.309
-225.698	-88.394	-0.379	0.112
-224.684	486.752	0.112	-0.254
-223.669	-146.372	-0.103	0.009
-222.655	323.324	0.296	0.559
-221.640	-200.000	-0.073	0.343
-220.625	346.038	0.238	-0.465
-219.611	-138.587	0.745	-0.081
-218.596	-149.254	-0.742	0.059
-217.582	-125.796	-0.364	0.055
-216.567	-87.132	-0.436	0.131
-215.552	-128.215	0.247	0.035
-214.538	-110.491	0.322	0.066
-213.523	174.605	-0.564	-0.809
-212.509	-190.912	-0.435	0.005
-211.494	-18.463	0.512	-0.317
-210.479	-11.478	0.883	0.575
-209.465	-200.000	0.059	0.544
-208.450	-17.298	0.573	0.358
-207.436	-200.000	-0.036	1.076
-206.421	-200.000	0.127	-0.774
-205.406	215.920	0.576	-0.907
-204.392	800.000	-0.235	0.711
-203.377	29.789	0.993	0.838
-202.363	-175.702	0.271	-0.007
-201.348	-114.057	-0.299	0.057
-200.333	-127.143	-0.410	-0.059
-199.319	-8.665	0.650	0.432
-198.304	-35.324	-1.139	0.614
-197.290	231.058	0.178	-0.289
-196.275	-19.735	0.484	0.297
-195.260	-139.386	-0.789	-0.084
-194.246	90.706	0.252	0.279
-193.231	116.682	-0.207	0.252
-192.217	-82.344	0.678	-0.218
-191.202	-95.093	0.696	-0.186
-190.187	159.985	0.161	-0.222
-189.173	100.737	0.566	0.651
-188.158	-38.538	-0.727	0.381
-187.144	383.424	0.392	-0.800
-186.129	78.178	0.513	-0.542
-185.114	-152.362	-0.590	0.042
-184.100	258.333	0.089	0.151
-183.085	-200.000	0.100	0.508
-182.071	8.109	0.204	-0.152
-181.056	36.404	-0.071	0.062
-180.042	335.323	-0.269	0.517
-179.027	40.337	0.668	0.595
-178.012	-200.000	0.118	-0.716
-176.998	-16.399	-0.526	-0.330
-175.983	9.500	0.359	-0.269
-174.969	228.720	-0.135	-0.218
-173.954	135.710	0.597	0.769
-172.939	190.749	0.413	-0.615
-171.925	174.090	-0.481	0.688
-170.910	-33.258	0.440	0.241
-169.896	558.005	-0.248	-0.592
-168.881	-137.170	-0.525	-0.059
-167.866	110.413	0.339	-0.403
-166.852	-110.367	0.229	0.047
-165.837	-86.907	0.286	0.086
-164.823	-200.000	-0.005	0.634
-163.808	-200.000	-0.006	-0.088
-162.793	-200.000	-0.001	-0.602
-161.779	-200.000	-0.098	0.500
-160.764	-113.430	0.543	-0.105
-159.750	-17.176	0.280	-0.175
-158.735	-89.105	0.452	0.132
-157.720	284.890	0.192	0.342
-156.706	800.000	-0.200	0.678
-155.691	-109.719	0.555	0.116
-154.677	95.783	0.328	-0.370
-153.662	-96.950	0.438	0.113
-152.647	339.905	-0.147	-0.284
-151.633	-97.155	0.309	0.080
-150.618	-147.788	0.163	-0.013
-149.604	-42.853	-0.561	-0.282
-148.589	-50.920	-1.123	0.521
-147.574	282.134	0.072	-0.127
-146.560	-92.145	0.842	-0.235
-145.545	168.615	0.111	-0.156
-144.531	261.937	-0.352	-0.603
-143.516	40.196	-0.195	0.174
-142.502	18.730	-0.506	-0.400
-141.487	-200.000	0.033	-0.182
-140.472	24.771	-0.651	0.533
-139.458	497.802	0.366	0.834
-138.443	-36.028	-0.226	0.121
-137.429	197.586	0.347	0.524
-136.414	37.830	1.321	1.160
-135.399	-40.569	0.246	-0.126
-134.385	169.199	-0.264	-0.372
-133.370	800.000	-0.058	0.180
-132.356	95.275	-0.336	0.378
-131.341	-200.000	0.026	0.235
-130.326	-42.220	-0.603	0.304
-129.312	800.000	-0.061	0.229
-128.297	184.875	0.591	-0.866
-127.283	-1.070	-0.326	0.228
-126.268	132.279	0.225	0.286
-125.253	186.108	-0.083	-0.122
-124.239	-53.714	-0.294	-0.133
-123.224	-157.624	-0.428	-0.025
-122.210	-112.619	-0.667	-0.131
