DTS Sentinel unit serial number:	SN413079Multiplexer serial number:	ORYXHardware model number:	OX4-SRSoftware version number:	ORYX F/W v4.00 Oryx Data Collector v3.7.2.0data status	okinstallation	princeton_trtdifferential loss correction	single-endedforward channel	channel 1reverse channel	N/Adate	2019/09/12time	18:41:34forward acquisition time	15.00reverse acquisition time	0.00gamma	496.2192k internal	0.2319k external	0.2319temperature offset calibration	1.0107default loss term (dB/km)	0.3790temperature slope calibration	1.0000multiplexer offset coefficient	1.0000multiplexer slope coefficient	1.0000fibre end	0.00T internal ref (°C)	33.06T ext. ref 1 (°C)	2.98T ext. ref 2 (°C)	27.64length (m)	temperature (°C)	Stokes	anti-Stokes-747.200	-200.000	0.036	-0.284
-746.185	-98.602	0.429	-0.111
-745.171	3.839	0.534	0.395
-744.156	223.630	-0.409	-0.668
-743.142	357.377	0.279	-0.563
-742.127	-35.854	-0.779	0.427
-741.112	-51.862	-0.198	-0.093
-740.098	601.622	-0.038	0.096
-739.083	-7.577	0.203	-0.139
-738.069	-200.000	0.016	0.543
-737.054	583.083	-0.364	0.905
-736.039	-200.000	0.031	-1.028
-735.025	800.000	-0.085	-0.353
-734.010	-95.152	-0.426	0.116
-732.996	61.269	-0.662	-0.665
-731.981	-50.075	-0.148	-0.071
-730.966	310.516	0.306	0.580
-729.952	-80.066	-0.796	-0.270
-728.937	800.000	-0.117	0.387
-727.923	169.910	-0.153	-0.221
-726.908	800.000	-0.110	0.437
-725.894	-55.904	1.364	0.615
-724.879	28.211	-0.223	0.190
-723.864	-128.194	0.504	-0.073
-722.850	238.553	-0.167	-0.281
-721.835	-1.422	-0.572	-0.408
-720.821	-14.878	-0.265	0.172
-719.806	95.793	-0.458	-0.529
-718.791	-200.000	0.074	0.645
-717.777	-172.249	0.333	0.011
-716.762	-200.000	-0.092	0.457
-715.748	449.685	0.066	-0.148
-714.733	-109.644	-0.477	0.102
-713.718	168.719	0.155	0.223
-712.704	114.169	-0.190	-0.234
-711.689	611.644	-0.275	0.696
-710.675	-200.000	0.089	-0.781
-709.660	4.047	-0.820	0.606
-708.645	19.426	0.543	-0.441
-707.631	421.796	-0.089	0.192
-706.616	168.752	0.120	0.173
-705.602	-42.403	0.417	0.215
-704.587	781.380	-0.182	0.504
-703.572	-200.000	0.004	0.435
-702.558	-40.213	0.153	-0.080
-701.543	-45.943	0.291	0.145
-700.529	-95.818	-0.124	-0.033
-699.514	-32.152	-0.191	0.108
-698.499	15.211	-0.408	0.323
-697.485	230.010	0.433	0.714
-696.470	5.061	-0.286	-0.213
-695.456	-76.540	-0.550	-0.195
-694.441	798.143	0.266	-0.741
-693.426	70.286	-0.230	0.240
-692.412	-92.882	-0.090	0.025
-691.397	-94.483	0.253	-0.070
-690.383	81.501	-0.143	0.156
-689.368	-72.202	0.252	0.094
-688.354	-200.000	-0.073	-0.535
-687.339	800.000	0.144	-0.572
-686.324	11.963	-0.566	0.439
-685.310	800.000	0.094	-0.396
-684.295	408.414	0.261	-0.558
-683.281	800.000	0.209	0.596
-682.266	129.546	0.269	-0.347
-681.251	-92.250	-0.871	0.248
-680.237	450.207	-0.084	0.188
-679.222	33.042	0.568	-0.497
-678.208	47.182	0.239	-0.225
-677.193	775.094	-0.083	-0.230
-676.178	109.163	-0.935	1.130
-675.164	-102.231	1.037	0.251
-674.149	25.339	0.676	-0.567
-673.135	-200.000	-0.050	-0.396
-672.120	193.605	0.078	-0.119
-671.105	-120.628	1.124	0.192
-670.091	-75.060	0.708	-0.256
-669.076	800.000	0.049	-0.145
-668.062	81.029	-0.363	-0.395
-667.047	800.000	0.178	0.582
-666.032	-111.447	-0.984	0.202
-665.018	-200.000	-0.027	-0.224
-664.003	-154.054	0.226	-0.015
-662.989	-158.713	0.168	-0.010
-661.974	116.599	-0.512	0.634
-660.959	-109.002	-0.188	0.040
-659.945	117.752	-0.695	-0.863
-658.930	800.000	-0.070	-0.277
-657.916	-93.910	-0.774	0.215
-656.901	-93.425	0.676	-0.189
-655.886	800.000	0.278	-0.799
-654.872	439.414	-0.278	0.612
-653.857	-39.583	-0.238	-0.126
-652.843	274.348	-0.235	0.420
-651.828	69.778	0.252	-0.262
-650.814	35.839	-0.524	0.464
-649.799	69.132	0.280	0.290
-648.784	-22.115	0.143	0.088
-647.770	-200.000	0.097	-0.564
-646.755	187.094	-0.173	-0.260
-645.741	-79.468	-0.493	0.168
-644.726	520.836	0.117	-0.278
-643.711	-31.331	-0.422	-0.240
-642.697	800.000	-0.053	-0.227
-641.682	384.092	-0.216	-0.448
-640.668	-121.081	-0.441	-0.075
-639.653	222.286	0.195	0.317
-638.638	-53.765	0.460	-0.212
-637.624	729.476	0.107	0.289
-636.609	40.579	-0.855	-0.776
-635.595	319.310	0.367	0.701
-634.580	-57.748	0.796	0.351
-633.565	348.818	0.232	0.461
-632.551	134.141	0.511	-0.667
-631.536	-114.591	-0.535	0.103
-630.522	374.415	-0.104	-0.213
-629.507	-49.653	0.239	-0.115
-628.492	800.000	-0.350	1.066
-627.478	-200.000	-0.057	0.338
-626.463	104.660	-0.476	-0.565
-625.449	-135.267	-0.553	0.067
-624.434	298.630	0.300	0.557
-623.419	110.132	0.285	0.345
-622.405	-20.505	-0.245	0.151
-621.390	6.334	-0.249	-0.186
-620.376	-161.926	-0.479	0.024
-619.361	-117.555	0.834	0.152
-618.346	202.179	0.032	0.050
-617.332	-35.203	0.208	-0.114
-616.317	157.632	0.173	0.241
-615.303	-33.859	0.177	0.098
-614.288	-156.789	0.743	-0.046
-613.273	-140.832	0.242	-0.025
-612.259	-200.000	-0.003	0.552
-611.244	-200.000	-0.006	0.457
-610.230	171.235	-0.321	0.463
-609.215	-20.793	0.362	0.223
-608.201	-108.989	-0.723	-0.155
-607.186	-200.000	-0.062	-0.314
-606.171	-89.275	0.767	0.228
-605.157	687.997	0.173	0.454
-604.142	-200.000	-0.059	-1.073
-603.128	-200.000	0.028	-0.525
-602.113	-86.743	-0.448	0.138
-601.098	-83.627	-0.847	-0.272
-600.084	-86.968	-0.689	-0.211
-599.069	800.000	0.023	-0.084
-598.055	233.770	-0.129	-0.214
-597.040	430.879	-0.083	-0.181
-596.025	232.919	-0.189	-0.312
-595.011	-200.000	0.061	-0.282
-593.996	52.574	0.233	-0.224
-592.982	207.467	-0.121	-0.189
-591.967	-141.529	-0.382	-0.039
-590.952	196.278	0.175	-0.268
-589.938	14.584	0.311	-0.244
-588.923	178.630	-0.322	-0.473
-587.909	257.877	-0.215	0.372
-586.894	-38.150	0.628	-0.335
-585.879	426.900	0.404	-0.876
-584.865	-22.448	-0.957	0.582
-583.850	800.000	-0.221	0.618
-582.836	-60.464	0.279	0.119
-581.821	-189.382	-0.616	-0.007
-580.806	116.230	0.333	-0.411
-579.792	-106.391	0.155	-0.035
-578.777	-200.000	-0.017	-0.316
-577.763	-4.479	-0.275	0.191
-576.748	66.543	0.363	-0.372
-575.733	-133.579	0.670	0.084
-574.719	-31.726	0.707	-0.399
-573.704	-200.000	-0.082	0.495
-572.690	-103.403	-0.695	0.165
-571.675	-152.801	0.545	0.039
-570.661	-15.280	-0.429	-0.276
-569.646	264.290	0.120	-0.209
-568.631	210.247	0.216	-0.341
-567.617	389.744	-0.316	-0.658
-566.602	-29.008	-0.486	-0.281
-565.588	800.000	-0.105	-0.417
-564.573	-135.237	0.113	0.014
-563.558	78.628	0.736	-0.791
-562.544	-147.631	-0.158	-0.013
-561.529	-189.057	0.806	-0.010
-560.515	-123.737	-0.300	0.048
-559.500	170.876	0.534	0.768
-558.485	-200.000	-0.059	0.469
-557.471	-95.706	0.586	0.157
-556.456	-35.014	0.296	0.162
-555.442	-39.286	0.468	0.247
-554.427	-45.670	-0.411	-0.204
-553.412	-200.000	0.016	-0.091
-552.398	-200.000	0.017	0.792
-551.383	25.645	0.767	0.642
-550.369	181.168	-0.318	-0.469
-549.354	-38.267	0.369	-0.196
-548.339	-3.274	0.382	0.267
-547.325	-167.667	0.299	0.012
-546.310	1.419	0.945	-0.682
-545.296	-44.155	0.427	0.215
-544.281	174.357	0.033	0.048
-543.266	13.714	0.115	-0.089
-542.252	213.104	-0.405	-0.641
-541.237	-200.000	-0.136	1.231
-540.223	198.651	0.410	0.630
-539.208	-31.229	-1.058	-0.598
-538.193	-60.670	-0.829	0.353
-537.179	-200.000	-0.034	0.451
-536.164	-200.000	0.027	-0.148
-535.150	-200.000	0.288	1.273
-534.135	-200.000	0.029	-0.329
-533.121	403.008	0.336	0.710
-532.106	-155.125	0.156	-0.010
-531.091	-20.168	-0.643	0.398
-530.077	-33.058	0.228	-0.127
-529.062	127.804	-0.192	-0.244
-528.048	485.294	0.094	-0.215
-527.033	335.061	0.327	0.636
-526.018	-44.566	0.594	-0.298
-525.004	-155.769	-1.037	0.067
-523.989	-200.000	0.017	-0.155
-522.975	434.077	-0.279	-0.609
-521.960	9.768	-0.359	0.273
-520.945	-6.159	0.315	-0.215
-519.931	72.138	-0.156	0.163
-518.916	-55.635	0.646	-0.290
-517.902	-200.000	-0.151	-1.260
-516.887	-56.111	0.914	0.408
-515.872	-85.392	0.848	-0.265
-514.858	228.286	-0.295	0.482
-513.843	495.521	-0.334	-0.770
-512.829	-110.130	-0.241	-0.050
-511.814	47.168	0.298	0.278
-510.799	-200.000	-0.130	0.739
-509.785	-76.352	0.392	-0.138
-508.770	170.527	-0.257	-0.369
-507.756	-200.000	-0.030	0.824
-506.741	-67.029	0.176	-0.069
-505.726	-95.701	-0.661	0.177
-504.712	714.527	0.136	0.363
-503.697	-200.000	-0.028	-0.124
-502.683	800.000	0.326	0.963
-501.668	64.469	0.651	0.657
-500.653	-51.317	-0.333	-0.156
-499.639	-43.081	0.372	0.189
-498.624	800.000	0.321	-0.892
-497.610	227.475	0.501	-0.817
-496.595	-200.000	-0.045	0.384
-495.581	-89.872	0.667	-0.195
-494.566	-122.245	0.843	0.138
-493.551	-200.000	0.050	0.357
-492.537	-80.064	-0.617	-0.207
-491.522	-171.674	-0.327	-0.011
-490.508	-78.839	0.758	0.259
-489.493	75.856	-0.077	0.082
-488.478	-12.965	-0.806	-0.526
-487.464	-153.679	0.574	-0.040
-486.449	-22.357	0.555	-0.337
-485.435	800.000	-0.228	-0.954
-484.420	53.805	0.234	0.225
-483.405	-200.000	0.101	0.482
-482.391	-14.644	0.420	0.270
-481.376	655.938	0.354	0.911
-480.362	178.210	0.240	0.350
-479.347	-31.229	-0.272	0.153
-478.332	-83.719	-0.636	-0.203
-477.318	-30.644	-0.422	0.239
-476.303	-163.938	0.734	-0.034
-475.289	61.375	0.429	-0.427
-474.274	-133.828	-0.866	-0.108
-473.259	371.898	-0.093	-0.189
-472.245	415.832	0.325	-0.695
-471.230	219.294	-0.412	-0.659
-470.216	-200.000	0.280	-1.257
-469.201	-132.176	0.526	0.068
-468.186	-29.020	-0.473	0.272
-467.172	-200.000	0.021	-0.244
-466.157	-115.728	-1.145	0.215
-465.143	38.247	0.495	-0.441
-464.128	-7.599	-0.319	-0.216
-463.113	144.659	0.152	-0.203
-462.099	-116.106	1.347	0.251
-461.084	-16.731	-0.388	0.246
-460.070	800.000	-0.035	-0.097
-459.055	-22.676	-0.354	-0.214
-458.040	73.930	0.308	-0.323
-457.026	-67.164	-0.579	0.228
-456.011	-170.495	0.362	-0.013
-454.997	3.976	0.124	0.091
-453.982	-85.315	1.213	0.379
-452.968	-23.609	-0.618	0.371
-451.953	84.339	-0.616	-0.674
-450.938	85.161	-0.292	0.320
-449.924	100.042	-0.130	-0.151
-448.909	156.340	-0.527	-0.728
-447.895	208.088	0.437	-0.682
-446.880	417.496	-0.153	0.326
-445.865	-37.428	-0.586	0.313
-444.851	-39.197	0.366	-0.192
-443.836	205.639	-0.353	0.548
-442.822	-117.742	0.695	0.125
-441.807	800.000	0.057	0.202
-440.792	-200.000	-0.115	-0.839
-439.778	-94.862	-0.926	0.251
-438.763	114.398	-0.042	0.051
-437.749	267.972	-0.079	-0.138
-436.734	103.806	-0.400	-0.470
-435.719	575.963	0.312	0.763
-434.705	-152.344	0.552	-0.040
-433.690	83.603	-0.164	-0.179
-432.676	-93.945	1.034	0.284
-431.661	18.861	-0.403	0.323
-430.646	-200.000	0.088	0.953
-429.632	28.382	-0.578	0.488
-428.617	-133.549	0.363	0.046
-427.603	800.000	-0.168	-0.508
-426.588	-123.941	0.542	-0.085
-425.573	265.805	-0.175	-0.304
-424.559	42.927	-0.597	-0.544
-423.544	216.117	0.294	0.467
-422.530	128.172	0.368	0.468
-421.515	430.232	-0.088	0.190
-420.500	800.000	0.075	-0.292
-419.486	-95.075	0.148	-0.040
-418.471	-200.000	0.058	-0.281
-417.457	800.000	0.130	0.383
-416.442	-93.845	0.581	-0.160
-415.428	163.839	-0.289	-0.407
-414.413	-137.382	0.573	-0.065
-413.398	45.178	-0.486	0.448
-412.384	-22.597	0.073	-0.044
-411.369	-131.086	-0.443	-0.059
-410.355	731.353	0.166	-0.444
-409.340	350.045	0.430	0.849
-408.325	304.487	-0.719	1.332
-407.311	101.909	-0.128	0.149
-406.296	800.000	-0.353	-1.199
-405.282	800.000	0.071	0.200
-404.267	-200.000	-0.057	-0.349
-403.252	25.695	-0.667	-0.555
-402.238	800.000	0.054	0.164
-401.223	-33.922	-0.259	-0.142
-400.209	-200.000	-0.095	-0.766
-399.194	139.396	-0.211	-0.277
-398.179	315.670	0.122	-0.229
-397.165	228.419	-0.350	-0.569
-396.150	-61.568	-0.521	0.219
-395.136	800.000	0.131	0.462
-394.121	800.000	-0.081	-0.245
-393.106	123.246	0.208	0.261
-392.092	-7.039	-0.436	-0.296
-391.077	-68.852	-0.381	-0.147
-390.063	-116.446	1.031	0.190
-389.048	212.789	0.410	0.646
-388.033	-200.000	-0.046	0.409
-387.019	800.000	0.182	-0.602
-386.004	403.696	0.295	0.621
-384.990	131.039	-0.132	-0.170
-383.975	800.000	0.108	-0.421
-382.960	21.626	-0.464	-0.377
-381.946	-140.171	-0.641	-0.067
-380.931	-108.368	0.922	0.198
-379.917	-142.432	0.369	0.036
-378.902	129.213	0.279	-0.355
-377.888	167.424	-0.236	0.335
-376.873	-61.620	0.692	-0.290
-375.858	-114.415	0.537	-0.103
-374.844	800.000	0.036	0.116
-373.829	-182.262	-1.108	-0.021
-372.815	-200.000	0.046	-0.218
-371.800	25.126	-0.133	-0.110
-370.785	800.000	-0.366	-1.343
-369.771	-98.219	-0.450	-0.115
-368.756	621.709	-0.048	-0.120
-367.742	5.189	-0.234	-0.172
-366.727	800.000	-0.154	0.619
-365.712	-200.000	-0.150	0.981
-364.698	12.449	-0.500	0.384
-363.683	-4.418	0.532	-0.367
-362.669	800.000	0.110	0.356
-361.654	-15.596	-0.006	0.004
-360.639	124.756	0.032	0.040
-359.625	-200.000	0.071	0.428
-358.610	-158.778	-0.473	0.027
-357.596	138.371	0.358	0.469
-356.581	-119.351	0.589	-0.102
-355.566	-20.693	-0.974	0.596
-354.552	317.169	0.294	-0.553
-353.537	141.718	-0.247	0.326
-352.523	-182.580	-0.894	-0.016
-351.508	800.000	-0.054	0.191
-350.493	-52.948	-0.863	-0.396
-349.479	800.000	-0.100	0.371
-348.464	-190.200	-0.568	-0.006
-347.450	-179.550	0.143	-0.003
-346.435	254.113	0.404	-0.688
-345.420	-97.687	0.522	-0.135
-344.406	309.757	0.064	-0.119
-343.391	-200.000	-0.010	0.080
-342.377	88.584	-0.673	0.745
-341.362	0.399	0.407	0.289
-340.348	82.260	0.226	-0.244
-339.333	-35.620	0.262	-0.141
-338.318	54.035	0.316	-0.303
-337.304	800.000	0.530	1.519
-336.289	-200.000	-0.004	-0.297
-335.275	187.761	0.229	-0.341
-334.260	-155.725	0.208	-0.013
-333.245	259.183	0.438	-0.752
-332.231	752.769	0.326	0.877
-331.216	532.957	0.058	-0.138
-330.202	314.071	-0.356	0.666
-329.187	-152.521	-0.057	0.004
-328.172	-33.127	0.160	-0.088
-327.158	-200.000	-0.086	-0.604
-326.143	-200.000	-0.060	-0.526
-325.129	512.415	-0.243	-0.564
-324.114	-143.929	0.565	0.053
-323.099	-200.000	0.015	0.170
-322.085	23.429	0.231	-0.189
-321.070	-200.000	0.070	0.604
-320.056	95.690	-0.134	0.152
-319.041	522.987	0.124	-0.290
-318.026	-200.000	0.115	-0.518
-317.012	247.738	0.344	0.579
-315.997	-200.000	-0.049	-0.771
-314.983	196.008	-0.165	0.250
-313.968	-134.511	0.781	-0.095
-312.953	-86.416	-0.169	-0.052
-311.939	-200.000	0.097	-0.595
-310.924	106.863	0.206	0.243
-309.910	-147.426	-1.091	-0.092
-308.895	-200.000	-0.071	-0.419
-307.880	-106.131	-0.384	-0.086
-306.866	45.294	0.169	-0.155
-305.851	-52.283	0.188	-0.087
-304.837	-123.670	0.139	0.022
-303.822	-84.861	0.859	0.268
-302.807	325.320	-0.378	0.720
-301.793	327.384	0.282	-0.537
-300.778	120.811	0.291	0.360
-299.764	122.226	-0.494	-0.613
-298.749	52.180	0.215	0.204
-297.735	423.257	-0.354	0.756
-296.720	-200.000	0.007	0.746
-295.705	123.394	0.325	0.405
-294.691	-23.017	-0.490	0.293
-293.676	-9.228	-0.429	-0.285
-292.662	-102.436	0.654	0.156
-291.647	37.522	0.522	0.460
-290.632	-89.047	0.404	-0.119
-289.618	137.243	-0.531	-0.690
-288.603	-124.965	0.216	0.033
-287.589	522.795	-0.073	-0.169
-286.574	-136.070	-1.171	0.137
-285.559	144.428	-0.406	0.539
-284.545	183.023	-0.243	-0.356
-283.530	-20.223	0.593	0.363
-282.516	75.427	-0.132	0.139
-281.501	62.872	-0.149	-0.148
-280.486	560.543	-0.310	0.745
-279.472	168.165	0.500	0.707
-278.457	-78.720	0.677	0.230
-277.443	-200.000	0.130	-0.919
-276.428	-101.626	-0.599	-0.145
-275.413	-105.425	0.311	-0.070
-274.399	800.000	-0.188	-0.588
-273.384	-200.000	-0.044	-0.377
-272.370	-200.000	0.131	-0.587
-271.355	800.000	0.126	-0.541
-270.340	254.084	-0.264	0.448
-269.326	-41.250	0.287	0.147
-268.311	-87.282	-0.176	0.053
-267.297	-200.000	-0.010	-0.173
-266.282	16.282	-0.386	-0.302
-265.267	106.175	0.029	0.034
-264.253	114.970	-0.105	-0.127
-263.238	480.379	-0.154	0.346
-262.224	800.000	0.090	0.277
-261.209	276.198	-0.150	-0.264
-260.195	14.561	0.624	0.484
-259.180	134.015	-0.381	0.489
-258.165	95.348	-0.535	0.605
-257.151	212.127	-0.444	-0.695
-256.136	-29.807	-0.347	0.196
-255.122	-200.000	0.047	-0.222
-254.107	-200.000	0.027	-0.208
-253.092	-14.509	0.094	0.060
-252.078	-154.770	-0.307	0.020
-251.063	-93.871	0.569	0.155
-250.049	-47.155	-0.402	0.195
-249.034	800.000	-0.245	-0.810
-248.019	126.149	-0.480	-0.602
-247.005	-26.129	-0.322	-0.188
-245.990	60.229	0.540	-0.530
-244.976	-60.884	0.514	0.216
-243.961	-64.094	-0.304	-0.123
-242.946	-104.075	-1.206	-0.279
-241.932	66.377	0.392	0.396
-240.917	12.282	-0.424	-0.324
-239.903	-154.210	0.637	-0.043
-238.888	-200.000	0.090	0.552
-237.873	-200.000	-0.012	0.343
-236.859	109.120	1.113	1.320
-235.844	114.373	-0.353	0.426
-234.830	151.710	-0.122	0.165
-233.815	-29.872	-0.266	0.150
-232.800	289.069	-0.117	-0.210
-231.786	123.828	0.620	-0.772
-230.771	-200.000	0.055	0.837
-229.757	266.441	-0.201	0.348
-228.742	800.000	-0.292	0.875
-227.727	-200.000	-0.112	-0.648
-226.713	339.941	-0.136	0.263
-225.698	-2.725	0.658	0.457
-224.684	-57.506	0.795	0.346
-223.669	-136.294	-0.427	-0.049
-222.655	170.425	-0.517	-0.733
-221.640	-200.000	-0.068	0.406
-220.625	110.891	0.405	0.483
-219.611	-108.891	-0.975	0.206
-218.596	-88.290	0.468	0.139
-217.582	800.000	-0.091	0.307
-216.567	37.460	-0.411	-0.362
-215.552	-200.000	0.025	-0.130
-214.538	-17.780	-0.160	-0.100
-213.523	-155.194	-1.142	-0.074
-212.509	-200.000	-0.037	0.264
-211.494	-59.964	-0.177	0.075
-210.479	-167.015	-0.592	0.024
-209.465	13.486	0.374	0.288
-208.450	335.901	0.312	-0.600
-207.436	69.879	-0.723	0.739
-206.421	24.265	0.599	0.490
-205.406	290.830	-0.410	-0.739
-204.392	-110.793	-0.479	-0.098
-203.377	-200.000	-0.083	-0.878
-202.363	200.688	-0.451	-0.687
-201.348	6.846	-0.693	-0.511
-200.333	-4.234	-0.621	-0.426
-199.319	9.368	-0.383	-0.287
-198.304	32.379	0.553	-0.473
-197.290	-47.475	-0.717	0.345
-196.275	800.000	-0.122	0.398
-195.260	167.430	0.201	0.283
-194.246	47.848	-0.320	0.296
-193.231	-51.161	0.898	0.417
-192.217	466.857	0.211	-0.468
-191.202	-69.460	0.748	0.284
-190.187	-70.340	0.404	0.152
-189.173	520.232	-0.023	0.054
-188.158	752.189	0.056	0.151
-187.144	-63.820	0.828	0.336
-186.129	56.515	-0.209	0.202
-185.114	-200.000	0.015	-0.198
-184.100	800.000	-0.202	-0.619
-183.085	-30.849	-0.404	0.226
-182.071	232.919	-0.486	0.790
-181.056	800.000	0.291	-0.868
-180.042	-56.442	-0.482	0.212
-179.027	-200.000	0.066	-0.346
-178.012	-200.000	-0.059	-0.349
-176.998	283.635	-0.140	0.249
-175.983	800.000	-0.077	0.329
-174.969	-6.213	-0.904	-0.611
-173.954	-51.908	0.625	0.288
-172.939	800.000	0.270	0.763
-171.925	187.712	0.110	0.163
-170.910	800.000	0.149	-0.517
-169.896	166.778	-0.487	0.683
-168.881	-200.000	0.071	-0.600
-167.866	-200.000	0.140	-0.795
-166.852	-122.117	-0.431	-0.070
-165.837	59.294	0.110	0.108
-164.823	78.045	0.255	-0.269
-163.808	-97.585	-0.729	0.187
-162.793	-170.201	0.504	0.018
-161.779	-24.274	-0.369	-0.218
-160.764	-200.000	0.095	0.436
-159.750	159.755	0.335	0.462
-158.735	784.221	-0.124	-0.336
-157.720	74.691	0.261	-0.271
-156.706	276.966	-0.025	-0.044
-155.691	-147.479	-0.607	-0.051
-154.677	412.237	-0.261	0.549
-153.662	-3.228	0.624	0.430
-152.647	107.298	-0.104	0.122
-151.633	-76.448	1.163	-0.404
-150.618	37.519	-0.764	-0.670
-149.604	225.610	-0.150	0.240
-148.589	64.821	-0.295	0.294
-147.574	-127.897	1.139	-0.162
-146.560	94.082	-0.734	-0.823
-145.545	-68.336	0.832	-0.319
-144.531	800.000	-0.019	0.061
-143.516	-51.686	0.895	-0.412
-142.502	-58.464	-0.462	-0.198
-141.487	90.168	0.331	0.366
-140.472	-93.887	0.404	-0.110
-139.458	53.837	-0.472	-0.448
-138.443	800.000	0.073	0.218
-137.429	800.000	-0.077	-0.252
-136.414	79.093	0.683	0.723
-135.399	-105.166	0.151	-0.034
-134.385	-200.000	0.020	0.475
-133.370	35.306	-0.289	0.251
-132.356	-40.455	-0.354	-0.181
-131.341	-62.401	0.320	-0.131
-130.326	-200.000	0.111	0.541
-129.312	-200.000	-0.018	-0.946
-128.297	62.488	0.240	0.237
-127.283	800.000	-0.088	0.261
-126.268	-21.707	0.419	0.252
-125.253	-132.580	0.682	-0.087
-124.239	85.306	-0.540	0.585
-123.224	-200.000	-0.086	0.746
-122.210	800.000	0.161	0.443
-121.195	554.578	0.143	-0.339
