DTS Sentinel unit serial number:	SN413079Multiplexer serial number:	ORYXHardware model number:	OX4-SRSoftware version number:	ORYX F/W v4.00 Oryx Data Collector v3.7.2.0data status	okinstallation	princeton_trtdifferential loss correction	single-endedforward channel	channel 1reverse channel	N/Adate	2019/09/12time	08:16:11forward acquisition time	60.00reverse acquisition time	0.00gamma	496.2192k internal	0.2313k external	0.2313temperature offset calibration	1.0041default loss term (dB/km)	0.3790temperature slope calibration	1.0000multiplexer offset coefficient	1.0000multiplexer slope coefficient	1.0000fibre end	0.00T internal ref (°C)	33.37T ext. ref 1 (°C)	1.67T ext. ref 2 (°C)	30.07length (m)	temperature (°C)	Stokes	anti-Stokes-747.200	800.000	-0.144	0.466
-746.185	-137.288	0.279	0.032
-745.171	-73.035	-0.082	-0.030
-744.156	88.844	-0.201	-0.227
-743.142	345.560	0.178	-0.355
-742.127	-200.000	0.009	0.326
-741.112	-136.215	0.233	0.028
-740.098	120.719	0.197	0.248
-739.083	-134.651	0.221	0.027
-738.069	-197.034	-0.226	-0.001
-737.054	-64.606	0.114	-0.047
-736.039	151.434	0.150	-0.207
-735.025	-69.972	0.211	0.081
-734.010	-123.940	-0.189	-0.030
-732.996	240.653	-0.193	-0.326
-731.981	151.966	0.094	0.130
-730.966	-10.511	0.101	0.068
-729.952	-200.000	-0.000	-0.248
-728.937	-75.218	-0.226	0.082
-727.923	-96.717	-0.259	0.069
-726.908	103.028	-0.053	-0.063
-725.894	324.546	0.069	0.134
-724.879	115.270	0.019	-0.023
-723.864	-64.495	-0.315	0.130
-722.850	587.273	-0.021	-0.053
-721.835	172.041	-0.139	0.203
-720.821	66.362	-0.270	0.278
-719.806	-6.150	0.192	0.133
-718.791	-200.000	0.020	0.115
-717.777	-6.167	0.230	0.159
-716.762	-200.000	0.024	-0.322
-715.748	292.063	-0.202	-0.374
-714.733	-113.093	-0.270	0.054
-713.718	-157.994	-0.191	0.011
-712.704	86.894	-0.305	0.341
-711.689	103.902	-0.153	-0.183
-710.675	380.545	0.125	-0.260
-709.660	41.453	0.100	0.091
-708.645	-16.142	0.245	-0.158
-707.631	-103.682	0.301	0.071
-706.616	154.326	-0.043	-0.060
-705.602	-153.300	0.132	0.009
-704.587	-200.000	-0.004	-0.145
-703.572	457.026	-0.062	-0.139
-702.558	292.483	0.100	-0.185
-701.543	123.812	0.253	0.322
-700.529	800.000	0.082	0.260
-699.514	-90.505	0.284	0.083
-698.499	-4.663	0.137	0.096
-697.485	-88.926	-0.171	-0.051
-696.470	800.000	0.033	-0.112
-695.456	384.229	0.021	0.044
-694.441	444.232	-0.057	0.128
-693.426	800.000	0.046	-0.187
-692.412	44.293	0.014	-0.013
-691.397	-200.000	0.024	-0.116
-690.383	41.410	-0.242	0.221
-689.368	175.148	0.100	0.147
-688.354	26.344	0.204	0.172
-687.339	13.569	0.119	-0.093
-686.324	15.332	0.130	-0.103
-685.310	27.280	-0.267	0.227
-684.295	-200.000	0.009	-0.133
-683.281	-94.968	-0.078	-0.021
-682.266	62.165	0.034	-0.034
-681.251	-200.000	0.015	-0.268
-680.237	-20.538	0.146	-0.091
-679.222	800.000	-0.080	0.249
-678.208	-47.349	0.058	-0.029
-677.193	240.141	-0.159	-0.268
-676.178	800.000	-0.084	-0.245
-675.164	-200.000	-0.023	-0.394
-674.149	-200.000	-0.008	-0.043
-673.135	170.128	0.204	-0.295
-672.120	108.541	-0.184	0.222
-671.105	-200.000	-0.002	0.220
-670.091	310.957	-0.077	-0.146
-669.076	-48.306	0.143	-0.070
-668.062	800.000	-0.070	0.251
-667.047	-114.191	-0.248	0.049
-666.032	-200.000	0.033	-0.287
-665.018	19.247	-0.254	-0.206
-664.003	189.092	0.179	-0.271
-662.989	-105.089	0.257	-0.060
-661.974	800.000	0.095	0.289
-660.959	1.604	-0.247	0.179
-659.945	-158.742	-0.210	0.012
-658.930	-23.311	-0.120	-0.073
-657.916	-200.000	0.029	-0.168
-656.901	150.873	0.080	-0.110
-655.886	-9.121	-0.253	0.171
-654.872	-120.390	0.070	-0.012
-653.857	584.371	-0.050	-0.125
-652.843	-200.000	0.008	0.234
-651.828	-111.009	-0.269	0.056
-650.814	85.880	-0.210	-0.233
-649.799	800.000	0.028	-0.100
-648.784	86.137	0.094	0.104
-647.770	79.929	0.180	-0.195
-646.755	308.097	-0.086	0.161
-645.741	65.580	-0.087	-0.089
-644.726	800.000	-0.085	-0.253
-643.711	152.388	-0.026	0.036
-642.697	432.032	0.066	0.146
-641.682	381.985	0.199	-0.414
-640.668	3.711	0.441	0.325
-639.653	255.295	-0.112	0.194
-638.638	-200.000	-0.005	-0.267
-637.624	527.762	0.127	-0.302
-636.609	-34.322	0.054	-0.030
-635.595	152.695	0.117	-0.162
-634.580	-22.316	0.176	-0.107
-633.565	-23.560	0.303	0.183
-632.551	-33.967	0.331	-0.184
-631.536	-200.000	0.010	-0.189
-630.522	-61.067	-0.181	-0.077
-629.507	800.000	0.033	0.132
-628.492	485.563	-0.077	-0.178
-627.478	-102.839	-0.274	-0.066
-626.463	-200.000	-0.023	0.283
-625.449	-90.919	-0.381	-0.111
-624.434	-131.184	0.093	-0.012
-623.419	91.176	0.235	0.266
-622.405	800.000	-0.047	0.156
-621.390	-67.594	-0.225	0.089
-620.376	-19.449	-0.570	0.357
-619.361	-200.000	-0.019	0.244
-618.346	-106.114	0.301	0.068
-617.332	468.463	0.196	-0.443
-616.317	103.894	-0.166	0.197
-615.303	235.090	0.053	-0.088
-614.288	-105.060	0.082	-0.019
-613.273	-61.610	0.143	0.061
-612.259	-85.466	-0.055	-0.017
-611.244	-113.262	-0.109	0.022
-610.230	-97.537	-0.185	0.048
-609.215	-161.287	0.263	-0.014
-608.201	-115.534	-0.192	0.036
-607.186	-200.000	-0.007	0.091
-606.171	22.877	-0.118	-0.097
-605.157	-200.000	-0.039	0.281
-604.142	20.777	0.095	-0.077
-603.128	196.208	0.090	0.138
-602.113	-85.830	-0.093	0.029
-601.098	62.408	0.069	0.070
-600.084	-200.000	0.018	0.104
-599.069	-199.112	-0.270	-0.001
-598.055	45.598	0.208	0.194
-597.040	-181.060	0.398	0.008
-596.025	-82.573	0.387	-0.126
-595.011	-200.000	0.035	-0.297
-593.996	563.557	0.108	0.263
-592.982	-5.614	0.258	0.178
-591.967	-200.000	-0.000	0.192
-590.952	615.130	0.170	0.429
-589.938	800.000	-0.130	-0.399
-588.923	-152.223	-0.212	0.015
-587.909	-143.069	0.169	-0.016
-586.894	800.000	0.070	0.252
-585.879	101.674	-0.107	-0.125
-584.865	-29.183	-0.223	0.129
-583.850	0.195	0.194	0.140
-582.836	-200.000	-0.036	-0.275
-581.821	-114.724	0.177	-0.034
-580.806	800.000	0.025	0.082
-579.792	246.479	-0.193	-0.328
-578.777	-200.000	-0.057	-0.374
-577.763	-200.000	0.026	-0.152
-576.748	-81.733	-0.286	-0.095
-575.733	168.505	-0.114	-0.164
-574.719	-53.008	-0.149	-0.069
-573.704	280.552	-0.037	0.066
-572.690	75.842	0.160	-0.170
-571.675	224.246	0.185	-0.302
-570.661	-198.805	0.343	-0.002
-569.646	-79.231	-0.071	-0.024
-568.631	-200.000	0.077	0.344
-567.617	-3.361	0.097	-0.068
-566.602	-58.390	-0.303	-0.133
-565.588	800.000	0.110	-0.477
-564.573	-3.688	-0.439	-0.307
-563.558	-98.238	-0.193	0.050
-562.544	-107.919	-0.094	0.021
-561.529	-200.000	0.049	0.274
-560.515	-200.000	-0.070	-0.339
-559.500	-89.815	0.278	-0.082
-558.485	319.438	0.103	-0.197
-557.471	110.638	-0.165	-0.199
-556.456	159.984	-0.260	-0.365
-555.442	90.602	-0.102	0.115
-554.427	78.375	-0.246	-0.264
-553.412	-200.000	-0.031	0.178
-552.398	-27.349	-0.028	0.016
-551.383	-74.406	-0.215	0.078
-550.369	-32.460	0.283	0.159
-549.354	3.219	-0.080	-0.059
-548.339	-68.641	0.158	0.061
-547.325	800.000	0.037	0.123
-546.310	7.841	-0.138	0.104
-545.296	-104.673	-0.119	0.028
-544.281	-4.049	-0.224	-0.157
-543.266	194.815	0.296	-0.452
-542.252	-81.337	0.299	0.099
-541.237	38.663	-0.195	0.175
-540.223	332.820	0.049	0.095
-539.208	294.782	0.122	-0.225
-538.193	423.921	-0.117	-0.252
-537.179	239.852	-0.047	0.078
-536.164	50.694	0.142	0.135
-535.150	800.000	0.064	0.203
-534.135	148.610	0.083	0.113
-533.121	800.000	0.030	0.094
-532.106	800.000	0.046	-0.134
-531.091	-97.389	0.069	-0.018
-530.077	-200.000	0.027	-0.127
-529.062	142.657	-0.167	-0.224
-528.048	138.713	-0.070	-0.092
-527.033	145.033	-0.157	-0.212
-526.018	-200.000	-0.011	-0.126
-525.004	63.625	0.263	0.265
-523.989	-67.810	0.225	0.088
-522.975	250.074	-0.076	0.130
-521.960	-16.322	0.349	0.223
-520.945	-147.268	0.165	0.014
-519.931	16.287	0.284	0.225
-518.916	371.639	-0.047	0.096
-517.902	1.892	0.231	0.167
-516.887	206.563	-0.066	0.104
-515.872	202.109	-0.248	-0.385
-514.858	263.062	-0.059	0.103
-513.843	457.450	-0.196	0.437
-512.829	21.150	0.197	0.161
-511.814	-159.782	-0.091	-0.005
-510.799	169.767	-0.171	-0.245
-509.785	-3.839	0.185	0.129
-508.770	485.840	-0.041	-0.093
-507.756	-168.991	-0.201	-0.008
-506.741	-113.218	0.040	-0.008
-505.726	-56.744	0.374	0.166
-504.712	-95.926	-0.627	-0.168
-503.697	7.615	0.104	-0.078
-502.683	702.881	0.093	-0.246
-501.668	354.086	-0.127	-0.254
-500.653	-137.791	-0.021	0.002
-499.639	-119.527	0.160	0.028
-498.624	-149.669	0.047	-0.004
-497.610	164.263	-0.091	-0.128
-496.595	194.907	-0.144	0.219
-495.581	136.600	-0.083	-0.109
-494.566	54.428	-0.170	-0.164
-493.551	-200.000	-0.010	0.063
-492.537	800.000	0.036	-0.128
-491.522	450.937	-0.069	0.152
-490.508	205.830	0.069	0.108
-489.493	-9.502	0.073	0.049
-488.478	388.252	-0.064	0.134
-487.464	-200.000	0.004	0.069
-486.449	-92.413	0.338	0.095
-485.435	46.175	0.074	-0.069
-484.420	-137.892	-0.087	0.010
-483.405	411.987	0.076	0.162
-482.391	-110.648	-0.274	-0.057
-481.376	83.861	-0.004	-0.004
-480.362	-122.176	-0.360	-0.059
-479.347	58.847	-0.116	-0.114
-478.332	-59.327	-0.244	-0.106
-477.318	-200.000	0.007	-0.185
-476.303	800.000	0.057	-0.159
-475.289	-21.629	0.281	-0.172
-474.274	229.779	-0.070	-0.115
-473.259	800.000	0.071	0.237
-472.245	-95.195	0.187	0.050
-471.230	170.935	0.061	0.088
-470.216	-120.772	-0.300	0.051
-469.201	476.035	0.060	0.137
-468.186	35.529	0.073	0.065
-467.172	80.042	0.068	-0.073
-466.157	800.000	-0.031	0.114
-465.143	171.780	0.233	-0.335
-464.128	-101.346	-0.176	0.043
-463.113	-80.858	-0.212	0.071
-462.099	-200.000	-0.033	-0.321
-461.084	-62.406	-0.256	-0.107
-460.070	-200.000	-0.031	-0.168
-459.055	-200.000	-0.038	-0.350
-458.040	-126.302	0.117	0.018
-457.026	7.900	0.085	-0.064
-456.011	-22.834	-0.088	0.053
-454.997	279.260	-0.100	0.179
-453.982	-45.679	0.276	-0.137
-452.968	-116.478	0.062	0.011
-451.953	634.531	-0.056	0.142
-450.938	-153.267	-0.469	0.033
-449.924	-145.231	-0.141	-0.013
-448.909	-48.792	0.177	-0.085
-447.895	-145.726	-0.148	0.013
-446.880	537.549	-0.040	0.096
-445.865	-200.000	-0.048	-0.230
-444.851	-200.000	-0.013	0.113
-443.836	-200.000	0.035	0.254
-442.822	198.985	-0.154	0.236
-441.807	-64.984	-0.209	0.084
-440.792	-93.613	-0.136	-0.038
-439.778	385.335	0.115	-0.239
-438.763	-62.570	0.210	-0.087
-437.749	42.631	0.134	0.122
-436.734	-159.564	0.229	-0.013
-435.719	-85.563	0.030	-0.009
-434.705	-200.000	-0.060	0.296
-433.690	-84.071	0.275	0.088
-432.676	8.141	0.200	0.150
-431.661	-200.000	-0.027	0.322
-430.646	800.000	0.062	-0.246
-429.632	-133.771	-0.212	-0.026
-428.617	-172.683	0.207	-0.007
-427.603	-117.317	-0.269	0.049
-426.588	-200.000	0.003	0.146
-425.573	233.044	0.101	-0.167
-424.559	298.654	-0.099	0.182
-423.544	602.964	-0.045	-0.112
-422.530	-200.000	0.030	-0.174
-421.515	-200.000	0.045	-0.278
-420.500	-189.060	0.150	0.002
-419.486	160.063	0.152	0.211
-418.471	607.405	0.045	0.112
-417.457	43.274	-0.137	-0.126
-416.442	-34.160	0.143	-0.079
-415.428	-4.166	-0.275	0.190
-414.413	-84.743	-0.075	0.024
-413.398	171.240	-0.204	-0.293
-412.384	-81.986	-0.078	-0.026
-411.369	-150.010	-0.202	0.016
-410.355	-68.847	0.264	-0.102
-409.340	800.000	-0.112	-0.483
-408.325	-43.050	-0.117	0.059
-407.311	-138.934	-0.356	-0.039
-406.296	1.771	0.135	0.097
-405.282	800.000	0.137	-0.497
-404.267	-79.535	0.301	0.102
-403.252	348.532	-0.075	0.149
-402.238	-98.037	0.241	0.062
-401.223	94.576	-0.093	0.106
-400.209	-135.534	0.242	0.029
-399.194	26.136	-0.189	0.158
-398.179	800.000	-0.059	0.170
-397.165	-47.578	-0.211	-0.102
-396.150	8.617	0.122	-0.092
-395.136	56.528	-0.139	0.135
-394.121	62.379	0.091	0.091
-393.106	173.294	-0.044	0.064
-392.092	622.899	-0.053	0.134
-391.077	584.337	-0.138	0.340
-390.063	-148.414	-0.085	-0.007
-389.048	-7.019	-0.264	0.179
-388.033	-94.024	-0.172	0.047
-387.019	-163.195	0.145	0.007
-386.004	-79.346	0.127	0.043
-384.990	291.218	0.135	0.246
-383.975	92.302	-0.082	-0.093
-382.960	3.086	-0.298	-0.217
-381.946	670.922	0.105	0.273
-380.931	-83.540	0.110	-0.035
-379.917	-51.733	0.213	-0.099
-378.902	-200.000	0.003	-0.262
-377.888	286.217	-0.105	0.189
-376.873	298.703	0.024	0.044
-375.858	-5.378	-0.118	0.081
-374.844	620.591	0.055	-0.137
-373.829	-90.422	0.225	-0.065
-372.815	-98.621	-0.261	0.067
-371.800	800.000	0.032	0.087
-370.785	800.000	-0.087	-0.240
-369.771	-91.744	-0.113	0.032
-368.756	-101.027	0.190	-0.046
-367.742	-108.921	-0.273	0.058
-366.727	-200.000	0.020	0.479
-365.712	800.000	0.024	0.069
-364.698	127.859	0.086	-0.110
-363.683	-43.562	0.191	-0.096
-362.669	80.175	0.200	-0.215
-361.654	56.467	0.228	0.222
-360.639	-200.000	-0.036	-0.199
-359.625	33.539	-0.140	-0.122
-358.610	27.085	-0.255	0.214
-357.596	185.009	-0.137	-0.202
-356.581	91.567	0.133	-0.149
-355.566	-61.127	0.192	0.081
-354.552	702.961	0.031	-0.082
-353.537	272.033	-0.051	0.089
-352.523	58.612	-0.163	-0.160
-351.508	10.143	-0.222	-0.169
-350.493	47.310	0.074	-0.069
-349.479	-14.790	0.099	0.064
-348.464	-130.561	-0.066	0.009
-347.450	24.897	-0.117	0.097
-346.435	-200.000	-0.015	0.367
-345.420	-24.343	0.117	-0.070
-344.406	-97.922	0.356	0.092
-343.391	800.000	-0.055	0.225
-342.377	800.000	0.006	-0.023
-341.362	-200.000	0.051	-0.244
-340.348	-200.000	-0.013	0.172
-339.333	-34.596	0.153	-0.084
-338.318	-200.000	0.051	0.302
-337.304	-200.000	0.017	0.193
-336.289	-200.000	-0.028	-0.131
-335.275	-77.760	-0.022	0.007
-334.260	-200.000	0.015	0.194
-333.245	787.568	-0.089	0.243
-332.231	249.990	0.108	-0.184
-331.216	128.817	-0.139	0.177
-330.202	-200.000	0.045	0.267
-329.187	-56.820	-0.223	0.098
-328.172	-168.390	0.267	0.010
-327.158	-164.823	-0.135	-0.006
-326.143	30.132	-0.256	0.218
-325.129	113.896	0.155	0.188
-324.114	744.716	-0.095	0.256
-323.099	-200.000	-0.006	0.236
-322.085	-153.345	-0.038	0.003
-321.070	-89.690	0.243	0.071
-320.056	4.040	-0.192	-0.140
-319.041	-104.638	-0.061	0.014
-318.026	131.183	-0.068	0.087
-317.012	177.401	0.098	-0.143
-315.997	-174.347	-0.278	-0.008
-314.983	108.745	0.250	-0.298
-313.968	800.000	0.071	0.284
-312.953	-37.675	-0.100	0.053
-311.939	25.719	0.194	0.161
-310.924	800.000	-0.061	0.198
-309.910	-137.141	-0.206	0.023
-308.895	800.000	-0.049	-0.187
-307.880	1.373	0.321	-0.230
-306.866	90.191	-0.132	0.147
-305.851	81.048	0.189	0.203
-304.837	344.947	-0.068	-0.134
-303.822	-19.754	0.077	0.047
-302.807	7.384	-0.338	0.251
-301.793	-78.595	0.073	0.025
-300.778	-95.145	0.129	-0.035
-299.764	46.366	-0.159	-0.147
-298.749	-90.753	-0.203	-0.058
-297.735	800.000	-0.067	0.221
-296.720	-200.000	0.028	-0.223
-295.705	-200.000	-0.040	-0.213
-294.691	-200.000	-0.007	0.035
-293.676	333.806	-0.103	0.199
-292.662	-34.697	-0.108	-0.059
-291.647	800.000	-0.045	0.177
-290.632	-200.000	0.004	-0.140
-289.618	-91.154	0.242	0.069
-288.603	-57.614	0.192	-0.084
-287.589	358.295	-0.088	0.175
-286.574	-2.188	0.123	-0.086
-285.559	-161.424	0.393	-0.020
-284.545	-200.000	0.018	-0.251
-283.530	-142.663	0.395	0.038
-282.516	800.000	-0.058	-0.228
-281.501	-154.452	0.300	-0.020
-280.486	-40.992	-0.085	0.044
-279.472	-83.079	0.246	-0.079
-278.457	13.251	0.211	-0.163
-277.443	296.471	0.062	-0.114
-276.428	-162.758	-0.357	0.017
-275.413	65.820	-0.046	-0.046
-274.399	-200.000	-0.041	-0.217
-273.384	-200.000	0.009	0.041
-272.370	47.973	0.172	0.160
-271.355	-24.820	0.118	0.070
-270.340	371.280	0.094	0.190
-269.326	800.000	-0.054	-0.162
-268.311	-39.509	-0.155	0.081
-267.297	34.046	0.218	0.189
-266.282	-102.658	-0.189	-0.045
-265.267	800.000	-0.063	-0.231
-264.253	-72.868	-0.326	0.119
-263.238	-129.298	0.141	0.020
-262.224	-115.713	-0.317	-0.059
-261.209	85.137	-0.150	-0.164
-260.195	800.000	0.031	-0.093
-259.180	800.000	-0.068	0.236
-258.165	-200.000	-0.033	0.256
-257.151	137.026	0.031	0.041
-256.136	800.000	0.060	0.185
-255.122	-108.222	-0.219	-0.047
-254.107	179.750	-0.138	-0.202
-253.092	190.651	-0.205	-0.307
-252.078	65.133	-0.131	0.132
-251.063	321.062	-0.045	0.086
-250.049	46.545	0.138	0.128
-249.034	-93.090	0.195	-0.054
-248.019	-155.874	-0.051	-0.003
-247.005	13.946	-0.184	0.142
-245.990	87.118	-0.065	0.072
-244.976	175.805	-0.039	-0.057
-243.961	-53.689	-0.037	-0.017
-242.946	281.847	0.118	0.210
-241.932	-113.163	-0.222	-0.043
-240.917	-146.190	0.219	0.019
-239.903	225.892	-0.195	0.314
-238.888	66.288	-0.102	0.103
-237.873	40.038	-0.032	0.029
-236.859	102.414	0.107	-0.124
-235.844	800.000	-0.109	-0.318
-234.830	-84.626	0.081	-0.026
-233.815	800.000	0.040	0.115
-232.800	490.008	-0.156	-0.354
-231.786	121.829	-0.124	-0.154
-230.771	-33.739	-0.323	-0.177
-229.757	113.204	0.236	-0.284
-228.742	-110.378	0.213	-0.044
-227.727	252.191	-0.103	-0.175
-226.713	-200.000	-0.013	-0.106
-225.698	349.388	0.112	0.220
-224.684	163.765	0.148	-0.207
-223.669	-108.084	-0.058	-0.012
-222.655	-114.988	0.185	0.035
-221.640	-61.353	-0.231	-0.097
-220.625	131.594	0.145	-0.185
-219.611	800.000	-0.061	0.194
-218.596	2.286	0.206	0.148
-217.582	-200.000	0.005	0.201
-216.567	-110.720	0.254	-0.052
-215.552	-25.166	0.370	0.218
-214.538	281.286	-0.149	0.265
-213.523	-18.642	-0.095	-0.059
-212.509	-81.439	-0.301	0.099
-211.494	63.424	-0.132	0.131
-210.479	-35.873	0.296	-0.159
-209.465	52.864	-0.226	-0.215
-208.450	-162.577	0.246	0.012
-207.436	-200.000	-0.045	0.245
-206.421	-200.000	-0.021	0.240
-205.406	185.481	0.111	-0.163
-204.392	-51.302	0.219	0.102
-203.377	800.000	-0.065	0.263
-202.363	499.926	-0.033	-0.075
-201.348	-54.944	0.108	0.049
-200.333	-88.970	0.183	-0.054
-199.319	-26.010	-0.244	0.143
-198.304	-64.411	0.176	-0.071
-197.290	679.198	0.143	0.368
-196.275	-118.925	-0.032	0.006
-195.260	148.256	0.095	-0.128
-194.246	-189.133	0.251	0.003
-193.231	-200.000	0.042	-0.323
-192.217	175.841	-0.147	-0.212
-191.202	-27.756	-0.114	-0.066
-190.187	-200.000	-0.058	-0.265
-189.173	-200.000	0.012	0.104
-188.158	36.579	0.241	-0.211
-187.144	800.000	-0.016	0.055
-186.129	564.693	0.061	0.146
-185.114	-139.105	-0.161	0.017
-184.100	800.000	0.115	0.329
-183.085	-177.254	0.222	-0.005
-182.071	-50.512	-0.218	0.102
-181.056	683.884	0.076	-0.195
-180.042	-200.000	0.045	0.227
-179.027	-92.348	-0.346	0.097
-178.012	-56.346	0.318	-0.140
-176.998	403.398	0.057	-0.118
-175.983	754.347	-0.014	0.038
-174.969	594.298	0.176	0.431
-173.954	4.042	-0.129	0.094
-172.939	-128.069	0.229	0.033
-171.925	-200.000	-0.009	0.057
-170.910	219.854	-0.228	-0.362
-169.896	85.172	-0.005	-0.005
-168.881	217.080	-0.129	0.203
-167.866	-112.292	0.116	0.023
-166.852	8.528	-0.023	-0.017
-165.837	-55.428	0.445	0.198
-164.823	800.000	-0.080	-0.257
-163.808	96.178	-0.024	-0.028
-162.793	182.731	-0.186	-0.272
-161.779	-200.000	-0.034	0.245
-160.764	-51.096	0.058	0.027
-159.750	-93.476	-0.211	0.058
-158.735	16.349	0.183	-0.143
-157.720	239.980	-0.138	0.227
-156.706	-1.320	-0.265	-0.186
-155.691	56.403	-0.302	-0.291
-154.677	-200.000	-0.027	-0.180
-153.662	-200.000	0.028	-0.241
-152.647	762.108	-0.068	-0.182
-151.633	143.779	0.050	-0.066
-150.618	-98.239	0.314	0.080
-149.604	-200.000	-0.034	0.149
-148.589	-25.464	0.078	-0.046
-147.574	800.000	0.014	-0.060
-146.560	-86.527	-0.300	-0.091
-145.545	204.717	0.173	0.266
-144.531	185.794	0.025	-0.038
-143.516	800.000	-0.142	-0.458
-142.502	354.077	0.095	-0.187
-141.487	-95.562	-0.230	0.061
-140.472	-37.669	0.064	-0.034
-139.458	-97.681	-0.077	0.020
-138.443	-1.198	-0.189	0.132
-137.429	800.000	-0.037	-0.122
-136.414	397.523	-0.116	-0.240
-135.399	390.512	-0.057	0.116
-134.385	272.146	0.167	0.292
-133.370	-61.822	-0.172	-0.071
-132.356	154.849	0.294	-0.400
-131.341	800.000	-0.090	-0.278
-130.326	55.404	0.290	0.278
-129.312	-98.238	0.044	0.011
-128.297	-75.723	-0.187	-0.066
-127.283	800.000	0.022	0.070
-126.268	431.505	-0.080	0.172
-125.253	189.555	-0.030	0.044
-124.239	-8.711	-0.120	-0.079
-123.224	55.333	0.059	0.057
-122.210	-40.006	-0.396	0.205
-121.195	-200.000	-0.027	-0.274
-120.180	-114.303	0.280	0.053
