DTS Sentinel unit serial number:	SN413079Multiplexer serial number:	ORYXHardware model number:	OX4-SRSoftware version number:	ORYX F/W v4.00 Oryx Data Collector v3.7.2.0data status	okinstallation	princeton_trtdifferential loss correction	single-endedforward channel	channel 1reverse channel	N/Adate	2019/09/13time	01:30:35forward acquisition time	60.00reverse acquisition time	0.00gamma	496.2192k internal	0.2331k external	0.2331temperature offset calibration	1.0144default loss term (dB/km)	0.3790temperature slope calibration	1.0000multiplexer offset coefficient	1.0000multiplexer slope coefficient	1.0000fibre end	0.00T internal ref (°C)	27.80T ext. ref 1 (°C)	3.73T ext. ref 2 (°C)	22.43length (m)	temperature (°C)	Stokes	anti-Stokes-747.200	-200.000	-0.005	-0.132
-746.185	-171.245	-0.082	-0.003
-745.171	-105.663	0.133	0.030
-744.156	-200.000	-0.024	0.486
-743.142	285.191	-0.090	0.163
-742.127	-200.000	-0.066	0.580
-741.112	-100.608	0.177	0.044
-740.098	-5.884	-0.235	0.162
-739.083	-49.092	-0.186	0.090
-738.069	313.334	-0.105	0.199
-737.054	-47.462	0.359	0.175
-736.039	-57.479	-0.358	-0.158
-735.025	5.732	-0.044	0.033
-734.010	-126.927	-0.020	-0.003
-732.996	-6.667	-0.166	-0.113
-731.981	52.619	-0.199	-0.191
-730.966	-124.879	0.222	-0.034
-729.952	-38.225	-0.077	0.041
-728.937	2.461	-0.150	0.109
-727.923	-29.356	-0.263	0.152
-726.908	130.206	-0.219	-0.282
-725.894	800.000	0.096	-0.355
-724.879	-64.106	0.181	-0.074
-723.864	-200.000	0.047	-0.213
-722.850	-85.930	-0.178	0.055
-721.835	-87.408	-0.140	-0.043
-720.821	-117.918	-0.379	-0.068
-719.806	16.416	0.131	-0.104
-718.791	-200.000	-0.004	0.133
-717.777	-104.857	0.447	0.103
-716.762	147.757	0.075	-0.102
-715.748	-118.237	0.321	-0.058
-714.733	-190.713	-0.142	-0.002
-713.718	-200.000	-0.027	-0.273
-712.704	-200.000	0.013	0.074
-711.689	241.749	-0.092	-0.155
-710.675	800.000	0.036	0.124
-709.660	-40.267	0.056	-0.029
-708.645	71.933	0.082	-0.086
-707.631	747.091	-0.082	0.222
-706.616	-133.357	-0.349	0.044
-705.602	-200.000	0.019	0.171
-704.587	-200.000	-0.003	0.072
-703.572	144.176	0.119	0.159
-702.558	-42.451	0.327	0.167
-701.543	587.684	0.095	0.235
-700.529	-9.760	0.199	-0.133
-699.514	78.315	0.103	-0.111
-698.499	-118.359	0.273	0.049
-697.485	-200.000	-0.007	0.196
-696.470	-200.000	-0.004	-0.165
-695.456	-200.000	0.003	0.155
-694.441	187.241	0.048	-0.072
-693.426	135.237	0.160	0.209
-692.412	-136.502	0.303	0.035
-691.397	800.000	0.073	-0.266
-690.383	60.127	0.140	-0.139
-689.368	144.055	0.158	-0.212
-688.354	-150.897	-0.227	-0.017
-687.339	-129.110	-0.179	0.025
-686.324	-186.858	-0.257	-0.004
-685.310	113.679	-0.185	-0.226
-684.295	800.000	0.016	-0.063
-683.281	-45.719	-0.442	0.220
-682.266	-163.610	0.162	0.008
-681.251	800.000	0.100	-0.302
-680.237	183.113	-0.161	0.239
-679.222	-19.595	-0.196	0.122
-678.208	41.707	-0.283	0.257
-677.193	-200.000	-0.031	0.210
-676.178	339.743	0.134	-0.263
-675.164	25.410	-0.159	0.133
-674.149	-200.000	-0.013	0.354
-673.135	-143.663	-0.141	-0.013
-672.120	-18.544	-0.417	0.261
-671.105	-39.490	-0.205	0.108
-670.091	800.000	0.109	0.452
-669.076	-70.502	0.208	-0.079
-668.062	800.000	-0.085	-0.318
-667.047	-9.009	0.277	0.186
-666.032	-178.491	-0.234	0.005
-665.018	-78.192	0.170	0.059
-664.003	800.000	-0.039	0.146
-662.989	250.280	0.091	-0.155
-661.974	326.882	-0.120	0.230
-660.959	-200.000	0.028	-0.199
-659.945	523.412	0.035	-0.083
-658.930	-26.369	0.308	-0.181
-657.916	-91.684	-0.443	-0.126
-656.901	-70.268	0.103	0.039
-655.886	12.641	-0.234	-0.181
-654.872	254.573	0.169	0.289
-653.857	-15.384	-0.293	0.188
-652.843	-90.138	0.227	0.066
-651.828	-39.665	-0.263	-0.138
-650.814	4.083	0.068	0.050
-649.799	800.000	-0.052	-0.145
-648.784	-73.146	0.470	0.173
-647.770	407.922	0.036	0.075
-646.755	273.362	-0.034	0.061
-645.741	128.076	0.158	-0.202
-644.726	261.386	0.143	-0.248
-643.711	122.967	-0.156	0.196
-642.697	7.667	0.155	-0.117
-641.682	-52.697	-0.080	-0.037
-640.668	599.209	-0.149	0.369
-639.653	-200.000	0.029	0.135
-638.638	2.785	-0.091	0.066
-637.624	712.889	0.010	0.026
-636.609	47.925	-0.231	-0.217
-635.595	800.000	0.054	-0.200
-634.580	-108.199	-0.373	0.081
-633.565	-200.000	0.009	-0.103
-632.551	-28.078	0.208	0.121
-631.536	-164.680	-0.296	-0.013
-630.522	11.299	-0.055	0.042
-629.507	800.000	-0.027	0.080
-628.492	147.561	0.105	0.142
-627.478	-56.521	0.304	0.135
-626.463	20.231	-0.192	-0.155
-625.449	-39.522	-0.190	-0.100
-624.434	-126.337	0.232	0.035
-623.419	-200.000	0.017	0.310
-622.405	-108.879	-0.449	0.096
-621.390	-200.000	-0.051	-0.235
-620.376	75.498	-0.108	-0.114
-619.361	-58.147	0.032	-0.014
-618.346	288.127	0.077	0.140
-617.332	733.085	0.115	0.307
-616.317	-120.396	-0.178	0.030
-615.303	800.000	0.046	0.129
-614.288	-45.072	0.217	0.108
-613.273	-200.000	-0.004	0.194
-612.259	800.000	-0.067	0.277
-611.244	-13.462	-0.232	-0.151
-610.230	413.211	-0.072	0.153
-609.215	800.000	-0.030	0.120
-608.201	-51.595	0.288	0.134
-607.186	504.502	0.111	-0.257
-606.171	-160.769	-0.177	0.009
-605.157	-200.000	0.033	-0.412
-604.142	491.055	-0.177	-0.406
-603.128	-160.957	-0.164	-0.009
-602.113	16.991	0.108	-0.086
-601.098	-67.730	-0.151	0.059
-600.084	800.000	-0.019	0.061
-599.069	0.366	0.221	0.158
-598.055	131.356	-0.121	-0.155
-597.040	-38.626	-0.496	-0.262
-596.025	-10.507	0.232	-0.154
-595.011	615.157	-0.190	-0.477
-593.996	-200.000	0.002	0.063
-592.982	-200.000	-0.044	0.272
-591.967	-26.127	-0.266	-0.156
-590.952	58.169	0.130	0.128
-589.938	175.893	0.136	0.198
-588.923	800.000	-0.035	-0.138
-587.909	-43.290	0.430	-0.218
-586.894	4.570	0.138	-0.101
-585.879	334.357	0.041	0.080
-584.865	-200.000	-0.019	-0.157
-583.850	800.000	-0.103	-0.344
-582.836	-174.187	0.409	-0.012
-581.821	-81.771	0.099	0.033
-580.806	221.589	-0.211	0.338
-579.792	0.091	0.354	-0.252
-578.777	387.848	0.204	0.422
-577.763	-164.742	-0.070	0.003
-576.748	69.676	0.221	-0.228
-575.733	-200.000	-0.026	0.379
-574.719	373.169	0.065	-0.131
-573.704	-200.000	-0.025	0.360
-572.690	-64.297	0.207	-0.084
-571.675	108.015	0.171	0.204
-570.661	-121.927	-0.149	-0.025
-569.646	-154.439	-0.136	0.009
-568.631	-200.000	-0.004	0.105
-567.617	-183.743	-0.177	0.003
-566.602	-58.176	-0.248	-0.108
-565.588	-200.000	-0.008	0.096
-564.573	-149.650	0.250	0.020
-563.558	-85.751	-0.206	0.064
-562.544	611.450	-0.052	0.130
-561.529	800.000	0.102	0.312
-560.515	29.593	0.107	0.091
-559.500	-200.000	0.015	-0.217
-558.485	-200.000	0.034	0.196
-557.471	-200.000	-0.039	-0.397
-556.456	-96.599	0.136	-0.036
-555.442	58.641	-0.233	0.229
-554.427	222.370	-0.197	-0.317
-553.412	-200.000	0.022	-0.260
-552.398	96.733	0.009	0.010
-551.383	-19.731	-0.227	0.140
-550.369	214.926	0.082	0.130
-549.354	-48.937	-0.157	0.075
-548.339	-200.000	-0.001	-0.145
-547.325	-28.924	-0.085	0.049
-546.310	-20.631	0.115	-0.071
-545.296	-200.000	0.025	-0.261
-544.281	-30.477	-0.159	0.090
-543.266	-36.229	0.167	-0.090
-542.252	800.000	-0.082	-0.250
-541.237	800.000	-0.043	-0.127
-540.223	-24.489	0.149	-0.089
-539.208	31.553	0.246	-0.211
-538.193	-115.021	0.207	-0.039
-537.179	12.868	-0.239	-0.184
-536.164	-200.000	0.014	-0.164
-535.150	800.000	-0.071	0.250
-534.135	-132.095	-0.325	-0.042
-533.121	491.310	-0.097	0.221
-532.106	-17.327	-0.230	-0.144
-531.091	-200.000	0.051	-0.302
-530.077	-48.036	-0.045	0.022
-529.062	-148.107	0.125	-0.010
-528.048	0.913	-0.157	0.112
-527.033	-200.000	-0.008	-0.129
-526.018	-200.000	-0.031	0.144
-525.004	602.755	-0.065	0.161
-523.989	244.556	-0.047	-0.079
-522.975	-28.358	0.077	0.044
-521.960	-200.000	-0.003	0.056
-520.945	-12.162	-0.232	0.152
-519.931	17.784	0.235	-0.187
-518.916	405.159	-0.054	-0.114
-517.902	504.467	-0.087	-0.202
-516.887	-58.723	-0.345	-0.149
-515.872	75.702	0.163	-0.172
-514.858	-200.000	-0.019	0.083
-513.843	215.515	-0.082	0.130
-512.829	531.282	-0.091	0.214
-511.814	0.446	-0.161	0.114
-510.799	-51.102	-0.102	-0.048
-509.785	-100.844	-0.064	-0.016
-508.770	89.721	-0.314	0.349
-507.756	107.812	0.316	0.375
-506.741	800.000	-0.057	-0.218
-505.726	262.105	0.140	-0.242
-504.712	-35.826	0.087	0.047
-503.697	40.880	0.055	0.050
-502.683	388.027	0.217	-0.449
-501.668	69.891	-0.206	-0.212
-500.653	114.244	0.191	-0.232
-499.639	-75.733	-0.282	0.100
-498.624	-200.000	-0.012	-0.134
-497.610	292.693	0.013	-0.025
-496.595	-91.640	-0.312	0.089
-495.581	157.463	0.094	0.130
-494.566	-25.010	-0.049	0.029
-493.551	80.129	0.107	0.114
-492.537	-200.000	0.016	0.158
-491.522	-200.000	-0.002	-0.037
-490.508	80.450	-0.057	0.062
-489.493	800.000	0.101	0.326
-488.478	66.704	-0.178	-0.181
-487.464	800.000	0.076	0.257
-486.449	285.942	-0.059	-0.106
-485.435	285.236	-0.011	0.020
-484.420	-178.816	-0.153	0.003
-483.405	114.870	-0.146	0.177
-482.391	-12.460	-0.040	0.026
-481.376	86.314	0.143	-0.157
-480.362	-104.304	-0.291	-0.067
-479.347	66.711	-0.145	-0.146
-478.332	-200.000	0.033	0.337
-477.318	-200.000	-0.013	0.057
-476.303	-200.000	-0.036	-0.327
-475.289	658.143	-0.078	0.199
-474.274	41.779	0.097	-0.087
-473.259	306.893	0.121	0.224
-472.245	118.762	0.089	0.110
-471.230	20.418	0.064	-0.052
-470.216	-200.000	-0.023	-0.203
-469.201	800.000	0.078	0.296
-468.186	-118.470	-0.101	0.018
-467.172	313.635	-0.081	0.151
-466.157	-17.812	-0.114	-0.071
-465.143	-126.769	-0.177	0.026
-464.128	-200.000	-0.035	0.256
-463.113	-154.544	0.254	0.017
-462.099	-102.387	0.225	-0.054
-461.084	-125.469	-0.110	-0.017
-460.070	46.121	0.045	0.041
-459.055	188.111	0.177	-0.263
-458.040	34.933	-0.184	0.160
-457.026	800.000	-0.056	-0.164
-456.011	66.610	0.118	-0.119
-454.997	-9.688	-0.204	0.136
-453.982	-98.861	-0.148	-0.037
-452.968	0.709	0.248	-0.176
-451.953	800.000	0.123	-0.389
-450.938	-37.955	0.139	0.073
-449.924	-55.292	0.233	-0.104
-448.909	-200.000	0.005	0.109
-447.895	-51.019	-0.348	0.163
-446.880	-66.879	-0.273	0.107
-445.865	109.136	-0.252	-0.299
-444.851	-51.630	0.217	-0.101
-443.836	-81.959	-0.359	-0.117
-442.822	-147.260	-0.058	-0.005
-441.807	-85.777	0.383	-0.118
-440.792	450.640	-0.186	0.409
-439.778	-153.270	0.270	0.019
-438.763	-200.000	0.066	-0.419
-437.749	-6.391	-0.017	0.011
-436.734	22.164	-0.120	-0.098
-435.719	-50.579	-0.139	-0.065
-434.705	-200.000	0.012	0.066
-433.690	-81.729	0.629	-0.205
-432.676	-123.581	-0.426	0.067
-431.661	-200.000	0.002	0.187
-430.646	316.765	-0.097	0.182
-429.632	-105.518	0.312	0.071
-428.617	-62.762	0.250	0.103
-427.603	318.780	0.295	0.556
-426.588	5.456	-0.112	0.082
-425.573	73.157	-0.016	0.017
-424.559	170.864	0.152	0.216
-423.544	210.811	0.181	0.283
-422.530	89.841	-0.163	0.181
-421.515	316.435	0.169	-0.317
-420.500	17.578	-0.300	-0.237
-419.486	3.649	-0.250	-0.181
-418.471	339.211	-0.223	-0.433
-417.457	-64.492	-0.036	0.015
-416.442	94.501	-0.191	-0.216
-415.428	54.440	-0.161	-0.154
-414.413	800.000	0.104	0.396
-413.398	-149.070	0.345	-0.028
-412.384	197.498	0.043	0.065
-411.369	-58.102	-0.253	-0.109
-410.355	-111.661	-0.123	-0.025
-409.340	-148.844	-0.374	-0.030
-408.325	-200.000	0.017	-0.212
-407.311	-200.000	0.207	-0.000
-406.296	-40.099	-0.225	0.117
-405.282	-107.101	0.288	-0.063
-404.267	-13.605	0.158	-0.102
-403.252	-26.748	-0.072	-0.042
-402.238	-107.363	-0.246	-0.054
-401.223	450.436	-0.062	0.136
-400.209	-21.768	-0.136	-0.082
-399.194	-63.010	0.158	-0.065
-398.179	-81.276	0.297	-0.097
-397.165	5.084	0.134	-0.098
-396.150	-200.000	-0.014	0.353
-395.136	800.000	0.122	0.368
-394.121	-90.564	0.216	0.062
-393.106	107.878	0.193	0.229
-392.092	-200.000	0.033	0.354
-391.077	-99.507	-0.136	-0.034
-390.063	14.380	-0.062	-0.048
-389.048	-137.077	-0.159	-0.018
-388.033	-149.222	0.145	0.012
-387.019	-4.667	0.097	-0.067
-386.004	-35.703	-0.048	-0.026
-384.990	-15.807	0.088	-0.055
-383.975	23.796	0.144	0.118
-382.960	800.000	0.068	-0.218
-381.946	-59.401	-0.269	-0.115
-380.931	-105.051	0.056	0.013
-379.917	-9.690	-0.305	-0.202
-378.902	-200.000	-0.045	-0.224
-377.888	751.053	0.058	-0.155
-376.873	-200.000	-0.208	-0.000
-375.858	527.254	-0.099	-0.232
-374.844	-119.721	-0.142	-0.024
-373.829	-200.000	-0.060	0.526
-372.815	-133.613	0.112	0.014
-371.800	-162.337	0.124	-0.006
-370.785	-61.608	-0.233	-0.097
-369.771	-110.424	-0.111	-0.023
-368.756	-86.432	0.230	0.070
-367.742	-40.117	-0.215	0.111
-366.727	-200.000	-0.016	-0.099
-365.712	-68.512	-0.210	-0.081
-364.698	-200.000	0.049	0.305
-363.683	-32.596	-0.256	-0.142
-362.669	800.000	0.019	-0.083
-361.654	78.198	0.239	0.253
-360.639	800.000	0.062	0.265
-359.625	-200.000	-0.235	0.001
-358.610	132.099	0.135	-0.173
-357.596	574.698	-0.080	0.193
-356.581	-200.000	0.012	0.193
-355.566	62.609	-0.167	0.165
-354.552	-200.000	-0.007	0.121
-353.537	-16.631	0.109	-0.068
-352.523	-200.000	0.008	0.091
-351.508	178.005	0.051	-0.074
-350.493	162.545	0.057	0.079
-349.479	-27.423	0.108	0.062
-348.464	135.764	-0.033	0.043
-347.450	-44.643	0.110	-0.054
-346.435	-168.144	-0.190	0.007
-345.420	-121.784	0.397	-0.065
-344.406	-55.845	-0.259	0.114
-343.391	38.838	-0.181	-0.161
-342.377	800.000	0.121	-0.355
-341.362	37.014	0.347	-0.304
-340.348	800.000	-0.054	-0.174
-339.333	-42.817	0.163	0.082
-338.318	589.013	0.037	0.091
-337.304	590.575	-0.092	-0.224
-336.289	237.420	-0.113	-0.185
-335.275	-170.829	-0.265	0.009
-334.260	-200.000	-0.071	-0.333
-333.245	-166.783	-0.317	-0.013
-332.231	601.840	-0.056	0.138
-331.216	-28.122	-0.270	0.155
-330.202	361.420	-0.027	0.053
-329.187	-200.000	-0.031	-0.151
-328.172	-2.818	-0.184	0.128
-327.158	128.412	0.184	-0.233
-326.143	75.327	-0.106	-0.110
-325.129	-200.000	-0.007	-0.332
-324.114	-200.000	0.003	-0.021
-323.099	-200.000	0.022	-0.118
-322.085	-111.106	-0.350	0.071
-321.070	0.761	-0.214	0.152
-320.056	209.560	0.254	0.394
-319.041	-200.000	-0.015	0.231
-318.026	800.000	-0.091	0.284
-317.012	-49.228	0.135	-0.064
-315.997	-75.125	-0.228	0.081
-314.983	-32.383	0.338	-0.187
-313.968	-93.260	0.272	-0.075
-312.953	111.037	-0.266	-0.316
-311.939	12.285	0.154	-0.117
-310.924	-9.706	0.171	0.113
-309.910	-44.634	-0.226	0.112
-308.895	74.098	0.213	-0.221
-307.880	800.000	-0.086	-0.238
-306.866	191.048	-0.095	-0.141
-305.851	71.418	-0.295	-0.303
-304.837	800.000	0.090	0.265
-303.822	162.093	-0.096	-0.132
-302.807	294.048	0.124	-0.223
-301.793	131.056	-0.140	0.178
-300.778	-7.095	0.357	0.240
-299.764	-200.000	0.008	0.129
-298.749	-200.000	-0.026	0.215
-297.735	-26.434	-0.172	-0.100
-296.720	-200.000	-0.039	-0.365
-295.705	-74.837	0.261	0.093
-294.691	-200.000	-0.042	0.200
-293.676	77.391	-0.241	0.253
-292.662	800.000	0.007	-0.019
-291.647	310.593	0.040	-0.075
-290.632	-108.757	0.435	-0.092
-289.618	-126.154	0.274	0.041
-288.603	-54.909	0.301	-0.134
-287.589	-87.771	0.306	0.091
-286.574	89.550	-0.153	-0.169
-285.559	-107.305	0.520	-0.113
-284.545	-95.474	-0.446	0.118
-283.530	129.013	0.153	-0.193
-282.516	-139.420	0.320	0.034
-281.501	145.132	0.168	0.222
-280.486	-29.527	0.237	-0.134
-279.472	-200.000	0.036	-0.216
-278.457	-115.747	-0.324	-0.060
-277.443	-74.675	0.202	-0.072
-276.428	-200.000	-0.012	0.065
-275.413	197.702	0.132	0.199
-274.399	116.857	-0.233	-0.283
-273.384	-200.000	-0.047	0.268
-272.370	800.000	0.079	0.325
-271.355	-140.171	-0.216	0.022
-270.340	-200.000	-0.016	-0.106
-269.326	-116.724	-0.218	-0.040
-268.311	-79.016	0.319	-0.107
-267.297	780.231	0.040	-0.108
-266.282	444.012	0.027	0.058
-265.267	800.000	-0.023	-0.077
-264.253	-12.112	-0.131	0.085
-263.238	-200.000	-0.022	0.401
-262.224	646.613	0.118	0.297
-261.209	800.000	-0.035	0.146
-260.195	-61.345	0.246	0.102
-259.180	205.572	-0.140	0.215
-258.165	-121.599	-0.208	-0.034
-257.151	48.765	-0.048	0.044
-256.136	-172.909	0.367	0.011
-255.122	69.588	-0.185	0.188
-254.107	341.010	-0.147	-0.284
-253.092	180.514	0.075	0.108
-252.078	-146.219	0.247	-0.021
-251.063	-175.792	0.131	0.003
-250.049	-200.000	0.003	0.146
-249.034	221.677	0.214	0.340
-248.019	141.966	-0.091	0.119
-247.005	106.654	0.139	0.163
-245.990	-148.406	-0.231	-0.019
-244.976	267.255	-0.040	-0.069
-243.961	-131.828	0.167	-0.022
-242.946	326.784	0.165	-0.313
-241.932	-200.000	0.030	0.395
-240.917	-56.639	-0.060	-0.026
-239.903	52.879	0.172	0.162
-238.888	-200.000	0.031	-0.181
-237.873	-80.739	-0.186	-0.061
-236.859	207.372	0.123	-0.190
-235.844	-127.046	-0.153	0.022
-234.830	-51.734	0.181	0.083
-233.815	800.000	0.090	0.377
-232.800	-11.373	0.186	0.121
-231.786	729.211	-0.082	-0.215
-230.771	40.850	-0.101	0.090
-229.757	-67.701	0.133	0.051
-228.742	-200.000	0.030	0.183
-227.727	-149.580	0.244	-0.019
-226.713	-200.000	-0.055	-0.260
-225.698	-31.370	-0.150	-0.083
-224.684	-25.063	0.416	0.243
-223.669	800.000	-0.049	-0.194
-222.655	4.518	0.178	-0.129
-221.640	-87.273	0.163	-0.049
-220.625	397.747	-0.165	0.341
-219.611	146.515	0.158	0.209
-218.596	-37.206	0.036	-0.019
-217.582	177.822	-0.230	0.331
-216.567	259.197	0.071	0.120
-215.552	-63.062	-0.059	-0.024
-214.538	-126.647	-0.061	0.009
-213.523	229.081	-0.074	0.118
-212.509	99.265	0.083	0.095
-211.494	-18.723	0.229	-0.141
-210.479	-15.128	-0.137	0.086
-209.465	800.000	0.066	-0.210
-208.450	-22.849	0.225	-0.134
-207.436	-140.128	-0.259	0.027
-206.421	-200.000	0.025	0.194
-205.406	156.806	-0.216	-0.294
-204.392	268.336	0.113	-0.195
-203.377	-200.000	-0.031	-0.295
-202.363	-200.000	0.001	-0.120
-201.348	184.800	-0.104	0.152
-200.333	178.578	0.099	0.143
-199.319	550.166	0.077	-0.183
-198.304	800.000	0.101	0.281
-197.290	-200.000	-0.002	0.017
-196.275	-200.000	0.004	0.151
-195.260	-200.000	-0.018	-0.135
-194.246	43.481	-0.214	-0.192
-193.231	-108.182	0.157	0.033
-192.217	-112.324	-0.070	0.014
-191.202	179.931	0.209	0.302
-190.187	419.558	-0.063	0.134
-189.173	-67.386	0.447	0.173
-188.158	171.424	0.121	0.171
-187.144	25.466	0.102	-0.084
-186.129	222.464	-0.021	-0.034
-185.114	-200.000	0.014	0.292
-184.100	75.257	-0.159	0.166
-183.085	800.000	-0.054	-0.170
-182.071	800.000	-0.038	-0.127
-181.056	800.000	0.035	-0.098
-180.042	380.579	-0.167	-0.337
-179.027	70.454	0.098	0.100
-178.012	800.000	-0.090	-0.275
-176.998	-82.280	-0.411	-0.132
-175.983	206.887	0.053	-0.081
-174.969	-200.000	0.016	-0.270
-173.954	-200.000	0.039	-0.309
-172.939	-81.057	0.037	0.012
-171.925	-200.000	0.018	0.182
-170.910	-200.000	0.002	0.031
-169.896	800.000	-0.105	-0.327
-168.881	800.000	0.055	0.197
-167.866	800.000	0.092	-0.265
-166.852	-36.817	-0.257	0.136
-165.837	-56.736	0.329	-0.143
-164.823	1.184	0.197	0.139
-163.808	-45.714	0.090	0.044
-162.793	-102.946	0.162	0.038
-161.779	-200.000	-0.003	0.096
-160.764	48.825	-0.050	-0.046
-159.750	-200.000	0.017	-0.099
-158.735	800.000	0.045	-0.173
-157.720	-200.000	0.039	-0.185
-156.706	7.601	-0.159	-0.117
-155.691	60.844	-0.403	0.393
-154.677	264.221	0.148	0.254
-153.662	213.164	0.261	-0.405
-152.647	46.975	0.135	-0.123
-151.633	-97.613	-0.152	-0.039
-150.618	-200.000	0.016	0.145
-149.604	-55.986	-0.332	-0.146
-148.589	199.584	0.069	0.105
-147.574	-200.000	0.018	0.157
-146.560	-6.184	0.126	0.085
-145.545	-200.000	-0.026	0.311
-144.531	-200.000	-0.008	0.116
-143.516	605.395	0.083	0.203
-142.502	73.786	0.143	-0.147
-141.487	196.969	0.030	0.046
-140.472	800.000	0.049	-0.150
-139.458	164.278	0.119	-0.165
-138.443	116.105	-0.148	0.178
-137.429	65.736	-0.119	-0.118
-136.414	4.682	0.390	-0.281
-135.399	800.000	-0.067	0.276
-134.385	51.841	-0.386	0.361
-133.370	-200.000	0.044	-0.276
-132.356	185.322	0.317	0.463
-131.341	-107.674	-0.042	0.009
-130.326	-9.820	-0.096	-0.062
-129.312	612.616	0.155	-0.382
-128.297	800.000	0.084	0.294
-127.283	-65.046	-0.216	0.085
-126.268	-85.860	-0.167	0.051
-125.253	336.212	0.109	0.208
-124.239	-104.866	-0.371	0.084
-123.224	109.783	0.169	0.199
-122.210	-121.747	-0.388	-0.063
-121.195	-126.262	-0.290	-0.043
