DTS Sentinel unit serial number:	SN413079Multiplexer serial number:	ORYXHardware model number:	OX4-SRSoftware version number:	ORYX F/W v4.00 Oryx Data Collector v3.7.2.0data status	okinstallation	princeton_trtdifferential loss correction	single-endedforward channel	channel 1reverse channel	N/Adate	2019/09/14time	21:30:35forward acquisition time	60.00reverse acquisition time	0.00gamma	496.2192k internal	0.2318k external	0.2318temperature offset calibration	1.0014default loss term (dB/km)	0.3790temperature slope calibration	1.0000multiplexer offset coefficient	1.0000multiplexer slope coefficient	1.0000fibre end	0.00T internal ref (°C)	32.87T ext. ref 1 (°C)	4.76T ext. ref 2 (°C)	27.75length (m)	temperature (°C)	Stokes	anti-Stokes-747.200	-92.847	-0.503	0.142
-746.185	-12.523	-0.189	0.125
-745.171	282.141	-0.158	0.287
-744.156	-47.670	-0.348	0.171
-743.142	48.577	0.149	-0.142
-742.127	377.523	-0.127	0.263
-741.112	339.244	-0.021	-0.041
-740.098	-44.101	0.058	-0.029
-739.083	-127.984	-0.109	-0.016
-738.069	32.951	0.049	-0.043
-737.054	-199.316	-0.363	-0.002
-736.039	-51.460	-0.216	-0.102
-735.025	-200.000	0.024	0.290
-734.010	-200.000	0.020	-0.348
-732.996	-178.073	0.235	0.006
-731.981	-8.991	-0.154	-0.104
-730.966	-200.000	0.049	0.308
-729.952	438.554	-0.046	0.102
-728.937	-23.655	-0.176	-0.107
-727.923	-55.390	0.059	-0.027
-726.908	-49.015	0.212	0.103
-725.894	131.462	-0.073	-0.095
-724.879	156.252	-0.054	-0.075
-723.864	213.075	-0.005	0.007
-722.850	-99.589	-0.193	0.049
-721.835	800.000	0.084	-0.258
-720.821	-200.000	-0.000	-0.256
-719.806	763.680	0.098	-0.268
-718.791	22.749	-0.250	-0.207
-717.777	-24.562	-0.175	-0.105
-716.762	-112.034	0.170	0.035
-715.748	-95.635	0.331	0.090
-714.733	-200.000	-0.015	-0.105
-713.718	46.359	0.122	0.115
-712.704	-101.043	-0.159	0.039
-711.689	-200.000	-0.038	-0.279
-710.675	-16.893	-0.367	-0.235
-709.660	48.283	-0.184	-0.174
-708.645	800.000	0.073	-0.225
-707.631	-150.106	-0.389	-0.031
-706.616	-200.000	0.011	-0.095
-705.602	-65.041	0.250	-0.102
-704.587	-117.124	0.005	-0.001
-703.572	66.188	-0.412	-0.423
-702.558	-29.580	-0.199	0.115
-701.543	109.100	0.206	0.249
-700.529	770.402	0.008	-0.021
-699.514	800.000	0.081	0.229
-698.499	800.000	0.053	-0.181
-697.485	273.191	-0.194	-0.347
-696.470	-38.616	-0.334	0.178
-695.456	295.725	-0.082	0.151
-694.441	800.000	0.081	-0.329
-693.426	-181.170	-0.086	-0.002
-692.412	78.053	-0.230	-0.248
-691.397	-94.389	-0.219	0.060
-690.383	800.000	-0.034	0.112
-689.368	-147.423	0.249	-0.021
-688.354	-28.570	0.216	0.125
-687.339	328.929	0.075	0.145
-686.324	-94.972	0.109	0.030
-685.310	-147.010	0.157	-0.014
-684.295	547.904	-0.096	-0.232
-683.281	-200.000	0.025	-0.246
-682.266	45.886	0.191	0.178
-681.251	-200.000	-0.019	0.196
-680.237	90.007	0.052	-0.059
-679.222	-105.625	0.075	0.017
-678.208	233.021	-0.173	0.287
-677.193	-200.000	-0.035	0.214
-676.178	-65.435	0.181	0.073
-675.164	78.360	0.107	0.115
-674.149	800.000	-0.045	0.187
-673.135	-200.000	0.009	-0.113
-672.120	-85.999	-0.208	-0.065
-671.105	800.000	0.047	-0.170
-670.091	-35.633	0.213	-0.117
-669.076	24.774	0.132	0.110
-668.062	-146.340	-0.435	-0.038
-667.047	-84.188	0.111	0.036
-666.032	141.667	-0.271	0.362
-665.018	-116.266	0.043	-0.008
-664.003	-61.105	0.275	-0.117
-662.989	442.968	0.150	-0.332
-661.974	-200.000	-0.074	-0.425
-660.959	-200.000	-0.001	-0.035
-659.945	215.604	0.076	-0.121
-658.930	800.000	0.028	0.091
-657.916	-126.855	0.212	0.032
-656.901	800.000	0.063	0.198
-655.886	371.825	-0.025	-0.052
-654.872	-200.000	0.023	0.171
-653.857	-64.443	-0.223	0.091
-652.843	800.000	-0.014	0.051
-651.828	-80.391	0.178	-0.060
-650.814	518.145	0.239	0.565
-649.799	30.788	0.285	0.246
-648.784	614.749	0.143	0.362
-647.770	-120.013	0.065	0.011
-646.755	-46.181	-0.069	-0.034
-645.741	616.990	0.062	0.157
-644.726	-185.795	-0.204	-0.003
-643.711	253.606	-0.137	-0.236
-642.697	253.864	0.052	0.090
-641.682	191.714	0.106	0.161
-640.668	-200.000	-0.013	0.100
-639.653	-118.831	0.375	-0.066
-638.638	800.000	0.031	0.126
-637.624	-120.011	-0.232	0.040
-636.609	752.277	-0.027	0.073
-635.595	590.130	-0.105	-0.260
-634.580	-200.000	0.008	-0.149
-633.565	39.838	-0.224	0.202
-632.551	800.000	0.059	0.191
-631.536	-8.120	-0.449	0.305
-630.522	-20.123	-0.101	-0.063
-629.507	800.000	-0.059	0.197
-628.492	-200.000	-0.002	-0.272
-627.478	87.552	-0.257	-0.287
-626.463	-200.000	-0.044	-0.292
-625.449	-146.649	0.287	0.025
-624.434	75.979	-0.113	-0.120
-623.419	-200.000	-0.065	-0.402
-622.405	-38.570	0.226	-0.120
-621.390	69.513	-0.340	-0.352
-620.376	264.072	-0.127	-0.222
-619.361	800.000	0.047	-0.176
-618.346	-200.000	0.002	-0.063
-617.332	-200.000	-0.240	-0.000
-616.317	293.008	0.026	0.048
-615.303	608.763	-0.105	-0.263
-614.288	-8.889	-0.223	-0.150
-613.273	-200.000	-0.013	0.335
-612.259	95.594	-0.196	0.225
-611.244	367.968	-0.034	0.069
-610.230	-99.206	0.371	-0.094
-609.215	610.322	-0.076	0.191
-608.201	-200.000	0.004	-0.031
-607.186	-36.720	-0.227	0.123
-606.171	213.126	-0.068	0.108
-605.157	125.385	-0.098	-0.124
-604.142	21.229	-0.099	-0.081
-603.128	-200.000	0.015	-0.317
-602.113	-6.967	-0.214	-0.146
-601.098	129.049	-0.318	-0.408
-600.084	7.951	0.103	0.077
-599.069	87.985	-0.107	0.120
-598.055	-9.336	-0.084	-0.056
-597.040	304.589	0.107	0.199
-596.025	-200.000	0.068	-0.455
-595.011	10.461	0.116	-0.089
-593.996	17.186	-0.229	-0.182
-592.982	70.542	0.202	-0.210
-591.967	-80.005	-0.242	-0.082
-590.952	69.212	0.146	-0.151
-589.938	-82.477	-0.496	-0.162
-588.923	800.000	-0.081	0.248
-587.909	800.000	-0.061	-0.172
-586.894	89.814	0.105	0.118
-585.879	312.960	0.158	0.298
-584.865	-88.231	-0.350	0.105
-583.850	257.843	-0.146	-0.253
-582.836	8.503	0.507	-0.383
-581.821	-73.979	-0.388	0.142
-580.806	-157.877	0.344	0.020
-579.792	-200.000	0.026	-0.205
-578.777	-75.465	0.062	0.022
-577.763	-169.804	0.339	-0.012
-576.748	-200.000	0.029	0.175
-575.733	-200.000	0.018	-0.239
-574.719	-200.000	-0.019	0.111
-573.704	75.857	-0.256	0.272
-572.690	-154.190	-0.559	0.038
-571.675	-124.303	-0.118	-0.018
-570.661	-200.000	0.011	0.222
-569.646	-134.687	-0.140	-0.017
-568.631	-95.014	-0.185	-0.050
-567.617	-200.000	0.004	0.141
-566.602	-200.000	-0.020	-0.120
-565.588	-200.000	-0.019	-0.112
-564.573	-34.585	-0.095	-0.052
-563.558	111.021	0.153	0.185
-562.544	270.175	0.104	-0.184
-561.529	309.107	0.158	-0.297
-560.515	29.928	0.013	0.012
-559.500	584.624	-0.083	-0.205
-558.485	-159.437	-0.260	-0.015
-557.471	-200.000	0.051	0.264
-556.456	159.602	-0.087	0.122
-555.442	435.066	0.095	0.207
-554.427	-89.048	0.239	-0.071
-553.412	-121.497	-0.386	-0.064
-552.398	800.000	-0.119	0.486
-551.383	112.778	-0.156	0.189
-550.369	-161.658	0.286	-0.015
-549.354	-76.355	-0.064	-0.023
-548.339	119.072	-0.121	-0.151
-547.325	656.972	-0.114	-0.295
-546.310	185.478	-0.154	-0.229
-545.296	800.000	0.044	0.123
-544.281	-70.044	-0.039	0.015
-543.266	-167.778	-0.264	-0.010
-542.252	371.611	-0.164	0.335
-541.237	800.000	0.061	0.225
-540.223	594.552	-0.018	0.046
-539.208	-144.043	0.360	-0.034
-538.193	-200.000	-0.032	-0.190
-537.179	79.424	0.082	-0.089
-536.164	-105.930	-0.319	-0.072
-535.150	-31.089	0.181	0.102
-534.135	233.186	-0.096	0.159
-533.121	-102.531	-0.271	-0.065
-532.106	-136.259	-0.432	-0.051
-531.091	-76.742	-0.163	0.057
-530.077	662.411	-0.116	-0.301
-529.062	13.457	0.098	-0.076
-528.048	-200.000	-0.014	0.154
-527.033	-151.038	0.203	0.015
-526.018	135.413	-0.050	0.065
-525.004	169.955	-0.074	0.106
-523.989	375.010	-0.077	-0.157
-522.975	-120.440	0.451	-0.077
-521.960	-96.672	0.139	-0.037
-520.945	800.000	-0.068	-0.286
-519.931	-54.684	0.261	-0.119
-518.916	107.657	0.156	-0.187
-517.902	161.432	-0.090	0.127
-516.887	116.457	0.060	0.073
-515.872	-200.000	0.046	0.212
-514.858	53.762	0.135	-0.130
-513.843	-200.000	-0.005	0.402
-512.829	135.767	0.199	0.260
-511.814	-200.000	-0.027	-0.147
-510.799	-102.966	-0.201	-0.048
-509.785	-104.627	0.215	-0.050
-508.770	39.619	0.305	-0.274
-507.756	344.418	0.158	-0.311
-506.741	-37.164	-0.172	0.092
-505.726	-144.595	-0.255	0.024
-504.712	-200.000	0.056	0.270
-503.697	359.509	-0.086	0.173
-502.683	-115.825	-0.176	-0.033
-501.668	-200.000	-0.010	-0.153
-500.653	-96.839	0.390	-0.103
-499.639	-200.000	-0.041	0.190
-498.624	132.012	0.104	-0.135
-497.610	800.000	0.056	0.183
-496.595	601.967	-0.105	0.262
-495.581	800.000	-0.040	-0.130
-494.566	-86.716	-0.117	0.036
-493.551	93.750	0.217	0.246
-492.537	-45.388	0.293	-0.145
-491.522	-200.000	-0.041	-0.391
-490.508	69.722	-0.117	-0.121
-489.493	-200.000	-0.043	0.287
-488.478	-135.625	0.344	-0.041
-487.464	-200.000	-0.000	-0.358
-486.449	189.346	0.053	-0.080
-485.435	-163.239	-0.253	-0.012
-484.420	64.907	0.098	-0.099
-483.405	-200.000	0.038	-0.239
-482.391	236.686	-0.135	0.224
-481.376	241.989	0.072	-0.121
-480.362	204.079	-0.146	-0.227
-479.347	68.779	-0.063	-0.065
-478.332	-31.263	-0.328	-0.185
-477.318	-126.282	-0.372	0.056
-476.303	-20.615	0.319	-0.196
-475.289	273.006	0.137	0.243
-474.274	75.719	-0.074	-0.078
-473.259	800.000	-0.166	-0.567
-472.245	-112.058	0.253	0.051
-471.230	-54.826	0.303	0.137
-470.216	-26.406	-0.072	0.042
-469.201	5.418	-0.142	-0.105
-468.186	73.540	0.146	-0.153
-467.172	800.000	-0.024	-0.088
-466.157	800.000	-0.024	0.079
-465.143	800.000	-0.070	-0.300
-464.128	800.000	-0.056	0.169
-463.113	-60.274	0.377	-0.161
-462.099	-114.093	-0.186	0.036
-461.084	-58.894	-0.161	0.070
-460.070	800.000	-0.018	0.058
-459.055	38.512	0.198	0.177
-458.040	-200.000	-0.028	-0.212
-457.026	800.000	0.051	0.199
-456.011	232.750	-0.102	0.168
-454.997	-131.185	0.311	-0.041
-453.982	-118.947	-0.148	-0.026
-452.968	130.553	0.097	0.124
-451.953	-179.390	-0.513	0.011
-450.938	87.626	-0.263	-0.291
-449.924	-72.591	-0.294	-0.108
-448.909	-200.000	-0.082	-0.391
-447.895	102.726	0.099	-0.116
-446.880	-200.000	-0.045	0.207
-445.865	35.990	0.282	0.249
-444.851	-200.000	0.024	-0.166
-443.836	305.920	-0.104	-0.194
-442.822	-82.525	0.057	0.019
-441.807	-115.149	0.286	-0.054
-440.792	-111.775	-0.535	0.108
-439.778	-200.000	0.014	0.262
-438.763	-200.000	0.002	0.083
-437.749	-20.984	0.333	-0.204
-436.734	704.959	-0.029	-0.077
-435.719	800.000	0.034	0.127
-434.705	-114.598	-0.454	-0.087
-433.690	-53.053	-0.207	-0.095
-432.676	503.174	-0.105	-0.243
-431.661	-70.861	-0.453	0.171
-430.646	-39.235	0.273	-0.143
-429.632	13.804	-0.158	0.123
-428.617	-200.000	0.016	-0.309
-427.603	-35.473	-0.176	0.095
-426.588	-97.425	0.414	-0.108
-425.573	-142.048	0.327	0.033
-424.559	155.770	-0.075	-0.103
-423.544	-113.584	0.074	0.014
-422.530	-26.231	-0.380	0.223
-421.515	-132.747	0.156	0.020
-420.500	-43.168	0.119	0.060
-419.486	-200.000	-0.006	0.194
-418.471	32.641	-0.123	0.107
-417.457	474.585	0.169	0.381
-416.442	-120.832	0.104	-0.018
-415.428	800.000	0.003	-0.009
-414.413	800.000	-0.086	0.258
-413.398	800.000	0.054	0.175
-412.384	171.533	0.190	0.273
-411.369	-33.815	0.203	-0.112
-410.355	-147.962	-0.168	0.014
-409.340	-200.000	-0.043	-0.406
-408.325	-200.000	0.018	-0.210
-407.311	-200.000	0.014	0.149
-406.296	784.584	-0.051	0.141
-405.282	28.349	0.124	0.105
-404.267	-200.000	0.066	0.373
-403.252	-40.095	-0.119	0.062
-402.238	167.315	-0.075	-0.107
-401.223	-200.000	-0.015	-0.234
-400.209	65.928	0.154	-0.156
-399.194	180.236	-0.094	0.137
-398.179	96.128	-0.072	0.083
-397.165	-73.890	0.258	0.094
-396.150	-200.000	-0.010	-0.086
-395.136	285.830	0.164	-0.295
-394.121	106.964	0.300	0.355
-393.106	-137.000	-0.139	0.016
-392.092	-200.000	-0.009	0.088
-391.077	-200.000	-0.040	0.303
-390.063	231.385	0.198	0.324
-389.048	-83.232	0.145	0.047
-388.033	-144.133	0.270	0.025
-387.019	-115.661	-0.059	0.011
-386.004	44.000	-0.445	-0.407
-384.990	144.413	-0.084	0.111
-383.975	-86.382	0.217	0.066
-382.960	219.668	0.085	-0.136
-381.946	-144.624	-0.147	0.013
-380.931	-112.420	-0.075	0.015
-379.917	800.000	0.061	-0.181
-378.902	-62.715	0.140	-0.058
-377.888	-155.624	-0.139	-0.009
-376.873	328.603	-0.105	-0.201
-375.858	-85.767	-0.081	0.025
-374.844	-200.000	-0.021	0.322
-373.829	-139.034	-0.213	-0.023
-372.815	-200.000	-0.042	0.321
-371.800	449.094	0.111	-0.245
-370.785	442.580	0.081	0.177
-369.771	-64.370	-0.053	-0.022
-368.756	35.546	0.235	0.206
-367.742	29.482	-0.125	0.106
-366.727	210.758	-0.188	-0.294
-365.712	-105.634	0.106	-0.024
-364.698	-200.000	0.089	0.450
-363.683	454.571	-0.092	0.204
-362.669	-200.000	-0.001	-0.202
-361.654	-8.438	-0.135	0.091
-360.639	-200.000	0.060	0.311
-359.625	-184.711	-0.103	-0.002
-358.610	596.044	-0.137	-0.338
-357.596	800.000	-0.039	0.126
-356.581	-200.000	0.009	-0.198
-355.566	-136.480	0.203	-0.023
-354.552	800.000	-0.084	0.240
-353.537	-108.844	0.350	0.075
-352.523	-39.291	-0.267	-0.140
-351.508	-42.431	0.437	0.222
-350.493	-122.267	-0.170	0.028
-349.479	35.754	0.031	-0.027
-348.464	35.229	0.094	0.082
-347.450	-54.643	-0.086	0.039
-346.435	93.888	-0.079	-0.089
-345.420	331.040	0.087	-0.168
-344.406	800.000	0.068	0.208
-343.391	182.267	0.304	-0.447
-342.377	-99.686	0.080	-0.020
-341.362	-200.000	-0.002	0.151
-340.348	-200.000	-0.030	-0.268
-339.333	295.137	-0.107	-0.195
-338.318	-200.000	0.016	0.208
-337.304	99.967	-0.216	-0.250
-336.289	-52.547	-0.048	-0.022
-335.275	203.591	0.290	-0.447
-334.260	-107.496	-0.112	0.024
-333.245	136.940	0.095	-0.124
-332.231	-25.353	-0.166	0.098
-331.216	531.216	0.096	-0.227
-330.202	-200.000	-0.040	0.278
-329.187	-146.301	-0.116	-0.010
-328.172	-69.050	0.222	-0.085
-327.158	-41.080	0.308	0.158
-326.143	-88.861	0.184	-0.054
-325.129	592.881	0.060	-0.149
-324.114	-200.000	-0.046	0.277
-323.099	-13.629	-0.121	0.078
-322.085	252.831	0.114	-0.194
-321.070	-98.030	0.059	-0.015
-320.056	800.000	-0.014	-0.059
-319.041	-200.000	0.015	-0.173
-318.026	800.000	0.118	0.334
-317.012	-85.050	0.056	0.017
-315.997	-69.367	0.293	0.112
-314.983	-200.000	0.003	0.133
-313.968	-200.000	0.058	0.300
-312.953	-200.000	-0.052	0.348
-311.939	350.101	0.080	0.157
-310.924	120.673	0.189	-0.233
-309.910	-29.239	-0.227	-0.129
-308.895	15.506	-0.166	0.130
-307.880	-50.730	0.198	-0.093
-306.866	520.788	0.233	0.544
-305.851	-200.000	0.128	-0.599
-304.837	800.000	0.069	-0.254
-303.822	-200.000	-0.006	-0.234
-302.807	83.651	-0.117	-0.127
-301.793	-133.758	-0.256	-0.032
-300.778	-47.050	-0.357	-0.173
-299.764	-29.205	0.142	-0.081
-298.749	-121.878	-0.185	0.030
-297.735	605.765	-0.189	0.469
-296.720	800.000	-0.081	0.275
-295.705	-200.000	-0.009	-0.305
-294.691	247.172	0.167	-0.280
-293.676	800.000	-0.026	0.092
-292.662	800.000	-0.120	0.501
-291.647	70.645	0.070	-0.072
-290.632	20.684	-0.260	-0.209
-289.618	800.000	0.080	0.293
-288.603	-60.482	-0.105	0.044
-287.589	206.882	0.224	0.348
-286.574	-200.000	0.009	0.180
-285.559	40.137	-0.091	-0.081
-284.545	-200.000	0.001	-0.031
-283.530	324.098	0.132	0.250
-282.516	173.186	0.151	-0.216
-281.501	-2.223	0.224	-0.156
-280.486	-76.116	0.438	0.154
-279.472	800.000	0.083	-0.253
-278.457	-97.333	0.321	-0.083
-277.443	800.000	-0.029	0.108
-276.428	-200.000	0.030	0.226
-275.413	-1.040	0.210	-0.148
-274.399	800.000	-0.077	0.262
-273.384	58.061	-0.108	0.105
-272.370	119.830	0.188	-0.231
-271.355	72.554	0.050	0.052
-270.340	174.784	-0.205	-0.294
-269.326	178.861	0.057	-0.083
-268.311	800.000	-0.109	-0.317
-267.297	-28.431	0.145	-0.083
-266.282	-130.720	-0.138	-0.018
-265.267	800.000	0.013	-0.051
-264.253	-168.139	0.173	-0.007
-263.238	-86.101	-0.290	0.089
-262.224	-131.532	0.081	-0.011
-261.209	-200.000	-0.048	0.368
-260.195	516.328	-0.064	0.149
-259.180	-59.592	-0.182	0.077
-258.165	-200.000	-0.027	0.393
-257.151	12.997	-0.112	0.086
-256.136	211.518	-0.023	0.037
-255.122	800.000	0.025	-0.086
-254.107	284.706	-0.125	0.223
-253.092	548.473	-0.118	0.281
-252.078	-129.287	0.370	0.051
-251.063	129.334	-0.214	-0.272
-250.049	-200.000	0.051	0.270
-249.034	-51.482	0.230	0.107
-248.019	-71.362	0.345	0.128
-247.005	-152.788	-0.231	-0.016
-245.990	-200.000	-0.053	0.378
-244.976	674.272	-0.077	0.197
-243.961	-187.148	0.198	-0.003
-242.946	243.144	-0.048	0.079
-241.932	-200.000	-0.040	0.251
-240.917	156.556	0.072	-0.099
-239.903	20.946	0.149	-0.120
-238.888	800.000	-0.039	-0.135
-237.873	-200.000	0.024	0.218
-236.859	800.000	0.062	-0.198
-235.844	-121.236	-0.303	-0.050
-234.830	-144.058	0.097	-0.009
-233.815	684.353	0.039	-0.100
-232.800	560.906	0.145	-0.348
-231.786	29.486	-0.141	0.119
-230.771	-11.529	0.281	0.184
-229.757	28.404	-0.149	-0.125
-228.742	800.000	-0.100	0.275
-227.727	800.000	0.038	-0.124
-226.713	800.000	0.015	0.063
-225.698	186.131	0.014	-0.021
-224.684	-101.119	-0.197	-0.048
-223.669	266.725	-0.192	-0.333
-222.655	-200.000	-0.039	0.307
-221.640	-84.433	-0.212	-0.066
-220.625	149.117	0.372	0.500
-219.611	7.893	-0.201	-0.149
-218.596	-37.653	0.164	0.087
-217.582	14.172	-0.137	0.106
-216.567	281.601	0.175	-0.311
-215.552	-200.000	-0.026	0.255
-214.538	34.510	-0.021	-0.018
-213.523	-151.848	-0.235	-0.017
-212.509	-83.028	0.284	0.091
-211.494	-45.165	0.341	-0.168
-210.479	-135.660	0.272	0.032
-209.465	-197.969	0.400	0.002
-208.450	-200.000	-0.049	-0.539
-207.436	-200.000	-0.011	0.136
-206.421	-20.796	-0.191	0.116
-205.406	-102.414	-0.126	-0.030
-204.392	37.590	-0.169	0.149
-203.377	686.897	0.115	-0.297
-202.363	-98.703	-0.369	-0.093
-201.348	278.615	-0.068	0.120
-200.333	-66.402	-0.120	-0.047
-199.319	8.081	0.095	-0.071
-198.304	103.150	0.340	-0.395
-197.290	-49.505	0.159	0.075
-196.275	-84.698	-0.124	0.039
-195.260	-46.859	0.162	0.078
-194.246	-53.426	0.076	0.034
-193.231	-200.000	-0.007	0.107
-192.217	44.433	-0.043	-0.039
-191.202	31.188	0.395	0.336
-190.187	-187.434	0.227	0.003
-189.173	-200.000	-0.004	-0.360
-188.158	751.393	0.067	0.179
-187.144	-200.000	-0.048	0.274
-186.129	610.100	0.097	-0.240
-185.114	-200.000	0.021	0.119
-184.100	316.207	-0.034	-0.064
-183.085	412.058	0.111	-0.234
-182.071	92.744	0.138	0.154
-181.056	93.456	0.231	0.259
-180.042	-43.343	-0.092	0.046
-179.027	468.794	0.063	-0.141
-178.012	-30.154	-0.132	-0.074
-176.998	9.909	0.197	-0.148
-175.983	77.735	-0.037	0.039
-174.969	-30.441	-0.237	-0.133
-173.954	75.090	-0.216	-0.226
-172.939	-200.000	0.041	0.237
-171.925	-17.858	-0.168	0.104
-170.910	33.578	0.226	0.194
-169.896	-200.000	0.007	-0.510
-168.881	-78.212	-0.160	0.054
-167.866	92.688	0.205	0.229
-166.852	-134.620	0.159	0.019
-165.837	-200.000	0.008	0.252
-164.823	-151.169	0.262	-0.019
-163.808	51.201	0.156	-0.147
-162.793	-25.232	0.130	0.076
-161.779	-144.542	-0.109	0.010
-160.764	26.016	0.370	0.305
-159.750	200.543	-0.057	-0.087
-158.735	16.817	-0.171	-0.134
-157.720	-9.236	-0.195	0.129
-156.706	43.569	-0.142	0.128
-155.691	119.680	-0.017	0.021
-154.677	-131.179	-0.251	-0.033
-153.662	253.849	0.105	-0.178
-152.647	-83.071	0.253	0.081
-151.633	-85.488	-0.198	-0.061
-150.618	21.509	0.234	-0.188
-149.604	-41.702	-0.132	0.067
-148.589	-200.000	-0.027	-0.123
-147.574	250.678	0.042	0.071
-146.560	-100.763	-0.079	-0.019
-145.545	-200.000	-0.007	-0.384
-144.531	300.964	0.079	0.144
-143.516	302.976	-0.127	-0.232
-142.502	148.941	0.148	-0.198
-141.487	505.044	-0.130	-0.297
-140.472	-200.000	0.024	-0.112
-139.458	-97.289	-0.156	0.040
-138.443	-200.000	-0.075	-0.429
-137.429	-200.000	-0.004	0.108
-136.414	251.387	-0.112	-0.188
-135.399	-200.000	-0.018	-0.178
-134.385	-132.005	-0.142	0.018
-133.370	66.123	-0.073	0.073
-132.356	-2.264	-0.146	-0.101
-131.341	78.779	-0.062	-0.066
-130.326	22.521	-0.261	-0.211
-129.312	-200.000	0.008	-0.146
-128.297	-200.000	0.026	0.283
-127.283	-200.000	0.024	0.452
-126.268	424.193	-0.031	-0.066
-125.253	668.397	0.033	-0.085
-124.239	109.052	-0.142	0.168
-123.224	82.249	0.200	0.214
