DTS Sentinel unit serial number:	SN413079Multiplexer serial number:	ORYXHardware model number:	OX4-SRSoftware version number:	ORYX F/W v4.00 Oryx Data Collector v3.7.2.0data status	okinstallation	princeton_trtdifferential loss correction	single-endedforward channel	channel 1reverse channel	N/Adate	2019/09/19time	08:06:35forward acquisition time	60.00reverse acquisition time	0.00gamma	496.2192k internal	0.2342k external	0.2342temperature offset calibration	1.0006default loss term (dB/km)	0.3790temperature slope calibration	1.0000multiplexer offset coefficient	1.0000multiplexer slope coefficient	1.0000fibre end	0.00T internal ref (°C)	20.00T ext. ref 1 (°C)	0.56T ext. ref 2 (°C)	15.66length (m)	temperature (°C)	Stokes	anti-Stokes-747.200	-200.000	-0.028	-0.207
-746.185	47.472	-0.216	0.202
-745.171	-157.471	0.228	0.014
-744.156	442.087	-0.080	0.174
-743.142	460.681	-0.081	0.180
-742.127	-29.350	-0.141	0.081
-741.112	432.160	0.089	-0.194
-740.098	-102.384	-0.460	-0.111
-739.083	196.218	0.185	-0.282
-738.069	-200.000	0.020	-0.378
-737.054	244.280	0.057	0.095
-736.039	800.000	0.095	0.275
-735.025	-200.000	-0.004	-0.145
-734.010	-200.000	-0.033	-0.331
-732.996	-17.125	0.083	-0.052
-731.981	185.490	-0.059	0.088
-730.966	800.000	-0.061	-0.225
-729.952	-93.853	0.104	0.029
-728.937	-92.359	-0.155	0.044
-727.923	403.161	-0.051	-0.107
-726.908	87.497	-0.061	0.068
-725.894	-200.000	0.034	0.216
-724.879	-7.242	-0.244	0.166
-723.864	-200.000	-0.011	0.104
-722.850	9.982	0.022	-0.017
-721.835	800.000	-0.032	0.105
-720.821	-90.780	-0.465	0.134
-719.806	-200.000	-0.002	-0.039
-718.791	233.836	-0.116	0.191
-717.777	-166.463	-0.266	0.011
-716.762	-163.412	-0.104	0.005
-715.748	800.000	0.071	-0.223
-714.733	-119.515	0.167	0.029
-713.718	41.192	-0.295	0.267
-712.704	159.403	0.158	0.219
-711.689	66.937	0.116	-0.119
-710.675	200.017	0.144	0.221
-709.660	-111.506	-0.247	0.050
-708.645	-200.000	0.029	-0.169
-707.631	230.907	0.175	0.287
-706.616	394.108	0.127	-0.264
-705.602	800.000	0.085	0.256
-704.587	7.924	0.161	-0.120
-703.572	-53.168	0.170	-0.078
-702.558	427.789	0.109	0.234
-701.543	-57.372	0.154	-0.067
-700.529	768.092	0.041	0.111
-699.514	-137.813	-0.289	0.032
-698.499	-18.911	-0.401	-0.250
-697.485	800.000	-0.102	-0.434
-696.470	493.529	0.044	-0.101
-695.456	-58.735	-0.139	-0.060
-694.441	83.308	-0.006	0.006
-693.426	-171.590	-0.372	-0.012
-692.412	-29.491	-0.136	0.078
-691.397	655.271	-0.153	0.393
-690.383	-200.000	-0.024	-0.189
-689.368	-27.331	-0.367	0.214
-688.354	-0.276	0.076	-0.054
-687.339	401.720	-0.127	-0.267
-686.324	166.176	0.148	-0.209
-685.310	800.000	0.053	0.157
-684.295	302.031	0.130	0.239
-683.281	-67.530	-0.146	-0.057
-682.266	-200.000	0.054	0.265
-681.251	43.324	0.233	0.213
-680.237	17.522	-0.237	-0.188
-679.222	-35.682	-0.310	-0.168
-678.208	64.095	0.097	-0.098
-677.193	305.112	0.096	-0.178
-676.178	-75.464	0.036	0.013
-675.164	317.561	-0.020	0.039
-674.149	-200.000	0.004	-0.031
-673.135	-41.546	-0.240	-0.123
-672.120	-89.228	-0.106	-0.031
-671.105	-146.192	-0.282	-0.025
-670.091	-117.447	-0.124	-0.022
-669.076	422.315	-0.059	0.127
-668.062	-35.202	-0.362	-0.197
-667.047	25.954	-0.075	0.062
-666.032	538.825	-0.183	0.434
-665.018	11.972	0.102	-0.078
-664.003	-200.000	-0.084	-0.412
-662.989	226.894	0.024	0.039
-661.974	800.000	0.082	-0.252
-660.959	-130.687	-0.193	-0.026
-659.945	-200.000	0.051	0.278
-658.930	-37.268	-0.217	0.116
-657.916	-200.000	0.016	-0.208
-656.901	-200.000	-0.021	0.139
-655.886	254.171	-0.044	0.076
-654.872	-134.401	0.090	0.011
-653.857	141.214	-0.169	-0.223
-652.843	44.688	0.146	0.134
-651.828	-121.415	-0.320	-0.053
-650.814	-101.932	0.164	0.039
-649.799	327.378	0.006	0.011
-648.784	296.200	0.201	0.369
-647.770	-95.097	-0.204	0.055
-646.755	-200.000	0.017	-0.302
-645.741	800.000	-0.083	0.335
-644.726	-119.829	0.144	-0.025
-643.711	132.481	-0.093	0.120
-642.697	36.172	0.070	0.061
-641.682	93.574	0.012	-0.014
-640.668	-122.177	0.134	-0.022
-639.653	-72.292	0.321	-0.119
-638.638	-74.695	-0.115	0.041
-637.624	800.000	-0.064	0.188
-636.609	26.508	0.178	-0.149
-635.595	780.905	0.057	0.155
-634.580	321.461	-0.016	0.031
-633.565	47.431	-0.164	0.152
-632.551	3.537	0.266	-0.193
-631.536	-128.722	0.135	-0.019
-630.522	-8.802	0.113	-0.076
-629.507	76.818	-0.075	0.079
-628.492	220.791	0.163	-0.261
-627.478	-9.918	0.037	0.024
-626.463	-129.920	0.394	-0.054
-625.449	800.000	-0.024	0.076
-624.434	303.495	0.104	0.192
-623.419	-77.772	-0.395	0.136
-622.405	127.735	-0.192	0.243
-621.390	324.766	0.059	0.112
-620.376	370.416	-0.097	-0.196
-619.361	-159.361	0.070	-0.004
-618.346	27.887	-0.092	0.077
-617.332	-200.000	0.019	-0.274
-616.317	266.332	-0.182	0.316
-615.303	-96.705	-0.231	0.061
-614.288	-117.593	-0.277	0.050
-613.273	-87.289	0.230	-0.070
-612.259	16.585	-0.274	-0.216
-611.244	282.601	0.124	0.222
-610.230	384.884	-0.050	-0.104
-609.215	352.442	0.215	0.425
-608.201	-43.129	-0.151	0.076
-607.186	163.619	-0.218	-0.306
-606.171	752.788	-0.090	0.243
-605.157	177.944	-0.099	0.143
-604.142	-116.430	0.257	0.047
-603.128	-32.424	0.088	0.049
-602.113	-28.563	-0.156	-0.089
-601.098	-102.157	-0.141	0.034
-600.084	-200.000	-0.099	-0.616
-599.069	735.355	-0.052	-0.139
-598.055	62.164	-0.222	-0.220
-597.040	800.000	0.059	-0.225
-596.025	-65.307	-0.076	0.030
-595.011	-158.236	-0.070	0.004
-593.996	33.839	0.237	-0.206
-592.982	-200.000	-0.035	0.236
-591.967	58.660	0.258	-0.252
-590.952	44.473	0.186	-0.170
-589.938	81.241	0.257	0.276
-588.923	-200.000	0.052	-0.450
-587.909	280.407	-0.075	0.134
-586.894	422.984	-0.083	0.177
-585.879	209.898	0.133	0.208
-584.865	83.285	0.136	0.148
-583.850	-54.411	-0.149	0.067
-582.836	67.209	0.083	0.085
-581.821	800.000	0.028	-0.099
-580.806	94.742	-0.150	0.170
-579.792	-200.000	-0.003	0.121
-578.777	-157.501	-0.140	0.008
-577.763	-200.000	0.018	0.239
-576.748	-109.622	-0.208	-0.044
-575.733	-92.677	0.298	0.083
-574.719	7.964	-0.073	-0.055
-573.704	800.000	0.028	0.101
-572.690	182.427	0.152	0.222
-571.675	-111.139	-0.346	-0.071
-570.661	-200.000	0.046	-0.217
-569.646	692.931	-0.046	0.120
-568.631	29.622	0.249	0.211
-567.617	230.842	-0.102	0.167
-566.602	-200.000	0.014	-0.181
-565.588	-200.000	-0.035	-0.167
-564.573	-125.714	-0.263	0.040
-563.558	18.666	0.218	0.173
-562.544	12.343	0.034	0.026
-561.529	56.131	-0.152	0.147
-560.515	319.327	-0.165	-0.311
-559.500	140.921	0.171	0.224
-558.485	-89.890	-0.609	0.177
-557.471	800.000	0.024	0.069
-556.456	-69.091	-0.221	0.084
-555.442	287.006	-0.143	0.258
-554.427	-14.211	-0.393	-0.252
-553.412	-200.000	0.232	-0.001
-552.398	-97.113	-0.185	0.048
-551.383	-150.806	0.148	0.011
-550.369	247.836	-0.239	-0.401
-549.354	-40.446	0.110	0.057
-548.339	40.734	-0.176	0.157
-547.325	676.796	-0.039	0.102
-546.310	454.414	0.108	-0.238
-545.296	-117.359	-0.149	0.027
-544.281	28.282	-0.150	-0.126
-543.266	-11.329	-0.211	-0.138
-542.252	0.060	-0.298	-0.211
-541.237	-42.770	0.262	-0.133
-540.223	582.903	0.018	0.044
-539.208	80.513	-0.225	0.241
-538.193	-200.000	0.023	-0.278
-537.179	70.083	-0.343	-0.352
-536.164	-200.000	0.007	0.182
-535.150	-133.992	0.251	0.031
-534.135	-200.000	0.033	0.249
-533.121	123.418	-0.128	-0.159
-532.106	452.720	0.041	-0.090
-531.091	-200.000	-0.052	0.314
-530.077	79.001	-0.062	0.066
-529.062	-77.787	-0.100	0.034
-528.048	-148.376	0.397	-0.032
-527.033	-200.000	0.022	-0.111
-526.018	-141.419	-0.341	-0.034
-525.004	-10.133	-0.141	-0.093
-523.989	-200.000	-0.007	0.366
-522.975	14.740	-0.109	-0.085
-521.960	162.134	-0.130	-0.182
-520.945	-200.000	0.001	-0.055
-519.931	-200.000	-0.074	-0.392
-518.916	800.000	-0.076	-0.223
-517.902	719.874	0.223	0.588
-516.887	-135.285	-0.304	0.036
-515.872	76.140	-0.083	-0.087
-514.858	124.138	0.226	-0.282
-513.843	800.000	-0.041	0.134
-512.829	-145.818	-0.176	-0.016
-511.814	507.509	0.049	0.113
-510.799	-14.758	-0.074	-0.047
-509.785	-66.112	0.097	0.038
-508.770	-200.000	-0.041	-0.194
-507.756	-200.000	-0.019	0.213
-506.741	124.248	-0.071	0.089
-505.726	-109.077	0.143	-0.030
-504.712	301.375	-0.115	0.211
-503.697	379.452	-0.051	0.104
-502.683	-81.409	0.117	-0.038
-501.668	-64.586	0.188	0.076
-500.653	105.790	-0.137	-0.161
-499.639	133.171	-0.164	-0.210
-498.624	-200.000	-0.000	0.171
-497.610	-103.891	-0.222	-0.051
-496.595	-71.892	0.123	0.045
-495.581	-154.611	0.239	-0.016
-494.566	44.848	-0.253	-0.231
-493.551	800.000	-0.058	0.211
-492.537	-181.271	0.190	0.004
-491.522	-6.681	-0.148	0.100
-490.508	-87.382	-0.248	-0.074
-489.493	-166.416	0.187	-0.008
-488.478	-44.856	-0.207	-0.102
-487.464	204.758	-0.111	-0.171
-486.449	58.827	0.088	-0.086
-485.435	-200.000	0.030	-0.469
-484.420	336.980	-0.064	-0.123
-483.405	287.692	0.164	-0.295
-482.391	800.000	-0.053	-0.152
-481.376	-70.718	0.099	0.037
-480.362	-96.811	-0.085	-0.022
-479.347	369.975	-0.112	0.226
-478.332	551.396	0.057	0.135
-477.318	800.000	0.046	0.195
-476.303	-164.395	0.212	-0.010
-475.289	411.514	0.059	-0.124
-474.274	-52.653	0.146	0.067
-473.259	-112.448	0.085	-0.017
-472.245	-7.581	-0.252	-0.169
-471.230	-200.000	-0.029	-0.162
-470.216	-200.000	-0.016	0.175
-469.201	-200.000	0.031	-0.230
-468.186	58.187	0.350	0.340
-467.172	251.814	-0.008	-0.013
-466.157	-41.664	-0.086	-0.044
-465.143	-128.703	0.146	0.020
-464.128	436.742	-0.123	0.266
-463.113	5.359	0.203	-0.148
-462.099	102.911	-0.123	-0.142
-461.084	11.908	0.146	-0.111
-460.070	-58.948	0.295	0.126
-459.055	800.000	-0.058	0.249
-458.040	-157.863	0.122	0.007
-457.026	-93.980	-0.358	-0.098
-456.011	-79.692	-0.213	-0.071
-454.997	457.403	-0.093	0.206
-453.982	-13.883	-0.074	-0.048
-452.968	-8.533	0.259	0.172
-451.953	-200.000	-0.010	0.075
-450.938	-136.075	-0.262	-0.030
-449.924	-28.502	0.015	-0.008
-448.909	-200.000	0.063	-0.340
-447.895	-76.089	-0.043	-0.015
-446.880	-200.000	0.006	0.086
-445.865	-145.171	0.132	-0.012
-444.851	-58.195	-0.355	-0.153
-443.836	-200.000	-0.002	0.051
-442.822	-41.880	-0.107	-0.054
-441.807	-200.000	0.023	0.242
-440.792	-129.892	-0.243	-0.033
-439.778	-72.770	0.400	0.146
-438.763	80.785	0.133	-0.142
-437.749	-130.887	0.109	0.014
-436.734	75.336	0.179	0.187
-435.719	-45.070	-0.103	-0.051
-434.705	48.511	-0.138	0.128
-433.690	-200.000	0.009	-0.100
-432.676	-200.000	-0.019	-0.101
-431.661	-133.901	0.314	0.039
-430.646	-75.186	-0.240	0.085
-429.632	-200.000	-0.020	0.263
-428.617	-200.000	-0.173	-0.001
-427.603	14.441	-0.246	0.190
-426.588	-147.394	0.224	-0.019
-425.573	-50.642	0.246	-0.115
-424.559	-117.246	-0.170	-0.030
-423.544	-142.257	0.057	-0.006
-422.530	-89.584	-0.173	-0.050
-421.515	-161.241	0.239	-0.012
-420.500	-200.000	0.008	0.071
-419.486	-65.405	-0.066	-0.026
-418.471	-200.000	0.007	-0.102
-417.457	-123.243	-0.129	-0.020
-416.442	35.629	0.106	-0.092
-415.428	-200.000	-0.005	-0.115
-414.413	800.000	-0.032	0.097
-413.398	2.995	0.145	0.104
-412.384	-95.411	0.102	0.027
-411.369	367.082	0.070	-0.140
-410.355	-87.136	0.156	0.047
-409.340	203.739	-0.100	-0.153
-408.325	434.956	-0.036	-0.078
-407.311	42.100	0.045	-0.040
-406.296	288.742	0.121	-0.217
-405.282	-105.416	-0.219	0.049
-404.267	-200.000	-0.014	-0.159
-403.252	-7.635	-0.180	-0.120
-402.238	49.896	-0.262	0.244
-401.223	800.000	0.071	-0.210
-400.209	800.000	0.060	0.243
-399.194	-200.000	0.014	0.076
-398.179	-64.519	-0.069	-0.028
-397.165	800.000	-0.075	0.232
-396.150	366.801	0.142	0.283
-395.136	-131.506	0.327	-0.043
-394.121	800.000	-0.056	-0.188
-393.106	334.076	-0.123	-0.235
-392.092	364.458	-0.083	0.166
-391.077	-200.000	0.025	-0.299
-390.063	-200.000	-0.001	-0.029
-389.048	-63.223	-0.061	-0.025
-388.033	-135.412	0.169	-0.020
-387.019	558.192	-0.094	0.225
-386.004	-86.126	0.287	-0.088
-384.990	800.000	-0.025	0.100
-383.975	-10.101	-0.274	-0.180
-382.960	-156.173	-0.029	0.002
-381.946	245.068	-0.228	-0.378
-380.931	164.459	0.243	-0.338
-379.917	800.000	0.038	-0.136
-378.902	702.689	0.107	-0.278
-377.888	-81.011	0.382	0.125
-376.873	-200.000	-0.005	-0.132
-375.858	-200.000	-0.029	-0.260
-374.844	106.577	0.220	0.258
-373.829	130.896	0.172	-0.218
-372.815	-200.000	0.009	-0.209
-371.800	-94.334	0.188	-0.051
-370.785	-79.458	-0.341	0.114
-369.771	48.204	0.218	0.202
-368.756	-200.000	-0.014	0.061
-367.742	-56.286	0.349	0.153
-366.727	-200.000	-0.029	-0.178
-365.712	-65.224	0.070	0.028
-364.698	-159.326	0.110	-0.006
-363.683	-200.000	-0.053	-0.230
-362.669	108.893	-0.216	0.255
-361.654	-200.000	0.050	0.279
-360.639	25.696	-0.268	-0.220
-359.625	-92.566	0.143	0.040
-358.610	32.566	-0.251	-0.214
-357.596	800.000	-0.114	0.336
-356.581	-200.000	-0.032	0.202
-355.566	175.029	0.111	0.158
-354.552	221.572	0.126	-0.199
-353.537	131.546	-0.042	0.053
-352.523	-52.265	0.274	-0.125
-351.508	-87.246	0.184	0.055
-350.493	-200.000	-0.014	-0.245
-349.479	118.551	0.135	0.164
-348.464	10.467	-0.334	-0.251
-347.450	48.593	-0.168	0.155
-346.435	800.000	0.103	-0.396
-345.420	-50.573	0.193	-0.090
-344.406	-200.000	0.037	0.402
-343.391	-200.000	-0.023	-0.161
-342.377	-99.251	-0.355	0.088
-341.362	-200.000	0.102	-0.507
-340.348	326.099	-0.058	0.110
-339.333	142.410	0.054	-0.071
-338.318	-107.134	0.358	0.078
-337.304	-78.990	-0.105	0.035
-336.289	-81.859	-0.393	0.127
-335.275	-164.086	0.093	-0.004
-334.260	673.373	-0.049	-0.125
-333.245	-99.583	0.157	0.039
-332.231	643.327	-0.148	0.373
-331.216	420.460	0.030	-0.063
-330.202	-200.000	0.007	0.166
-329.187	0.099	0.248	-0.174
-328.172	136.685	0.130	-0.167
-327.158	280.264	0.148	-0.261
-326.143	-11.902	0.127	-0.082
-325.129	-12.524	0.167	-0.107
-324.114	720.590	0.116	0.304
-323.099	146.273	0.091	0.120
-322.085	800.000	0.013	-0.050
-321.070	800.000	-0.042	0.126
-320.056	292.727	-0.099	0.178
-319.041	-90.177	0.096	-0.028
-318.026	202.317	-0.091	-0.139
-317.012	-29.360	-0.213	0.120
-315.997	-141.215	0.099	-0.010
-314.983	183.386	0.062	0.090
-313.968	-200.000	0.037	-0.252
-312.953	45.795	0.234	-0.213
-311.939	108.183	-0.075	0.088
-310.924	76.762	-0.143	0.149
-309.910	-59.532	0.114	0.048
-308.895	89.440	-0.366	0.402
-307.880	800.000	-0.077	-0.287
-306.866	16.891	0.109	0.085
-305.851	-200.000	0.002	-0.093
-304.837	-200.000	-0.020	-0.125
-303.822	-1.095	-0.158	0.110
-302.807	-200.000	-0.014	-0.118
-301.793	800.000	0.071	-0.285
-300.778	43.300	0.191	0.172
-299.764	434.501	-0.039	-0.083
-298.749	289.761	-0.087	-0.155
-297.735	-200.000	-0.029	0.196
-296.720	-200.000	0.032	0.232
-295.705	169.825	0.285	0.402
-294.691	-57.764	-0.195	0.084
-293.676	-200.000	0.004	0.265
-292.662	78.722	0.221	-0.232
-291.647	9.032	0.211	-0.157
-290.632	-200.000	-0.021	-0.238
-289.618	-187.022	-0.166	0.002
-288.603	800.000	-0.010	0.035
-287.589	-200.000	0.005	0.412
-286.574	-189.205	0.286	0.003
-285.559	-159.615	0.329	-0.018
-284.545	-200.000	-0.002	0.081
-283.530	-97.679	0.213	-0.054
-282.516	-46.849	0.169	0.082
-281.501	-50.685	0.070	0.032
-280.486	-12.601	-0.123	0.079
-279.472	-133.122	0.174	0.022
-278.457	14.357	0.146	-0.112
-277.443	-200.000	0.074	-0.339
-276.428	78.534	0.195	-0.205
-275.413	800.000	0.066	-0.264
-274.399	331.973	0.036	0.068
-273.384	-200.000	0.045	0.211
-272.370	-126.470	-0.102	0.015
-271.355	-200.000	-0.009	-0.115
-270.340	76.875	0.291	-0.304
-269.326	-74.748	-0.011	-0.004
-268.311	-63.898	-0.296	-0.119
-267.297	-5.555	-0.070	-0.047
-266.282	17.766	-0.198	-0.155
-265.267	528.892	-0.078	0.180
-264.253	244.193	-0.043	-0.071
-263.238	485.928	0.035	0.079
-262.224	-200.000	-0.005	-0.205
-261.209	330.137	0.101	0.192
-260.195	4.253	0.124	0.089
-259.180	-200.000	0.031	0.276
-258.165	-68.118	0.171	0.066
-257.151	31.975	0.166	0.140
-256.136	-56.847	-0.093	-0.040
-255.122	-132.711	0.212	-0.027
-254.107	473.142	0.018	0.039
-253.092	-67.022	-0.296	0.115
-252.078	34.075	0.193	-0.165
-251.063	538.696	-0.033	-0.078
-250.049	57.593	-0.276	0.265
-249.034	101.518	0.096	-0.110
-248.019	800.000	0.032	-0.089
-247.005	-17.301	0.139	0.086
-245.990	241.901	-0.090	0.148
-244.976	-15.615	0.215	-0.135
-243.961	-11.021	-0.147	0.096
-242.946	191.981	0.048	0.071
-241.932	80.363	-0.091	0.097
-240.917	-200.000	0.042	0.282
-239.903	-112.825	-0.141	0.028
-238.888	-189.552	-0.129	-0.001
-237.873	800.000	-0.042	0.121
-236.859	-59.898	-0.237	-0.100
-235.844	222.681	0.135	0.214
-234.830	89.913	-0.012	0.013
-233.815	-102.904	0.138	0.032
-232.800	-40.016	-0.101	-0.052
-231.786	-200.000	-0.020	-0.091
-230.771	-52.834	0.256	-0.116
-229.757	70.095	0.017	-0.017
-228.742	-43.474	0.119	0.059
-227.727	128.513	0.010	0.013
-226.713	48.196	-0.259	-0.238
-225.698	242.894	-0.059	0.098
-224.684	193.342	-0.181	0.269
-223.669	-56.133	-0.309	-0.135
-222.655	-75.282	-0.205	0.072
-221.640	8.272	0.146	-0.108
-220.625	582.691	0.067	-0.161
-219.611	726.015	0.020	-0.053
-218.596	170.409	-0.122	0.171
-217.582	800.000	-0.060	0.230
-216.567	-200.000	0.014	0.269
-215.552	86.426	0.304	-0.329
-214.538	-200.000	-0.050	0.326
-213.523	-132.687	-0.279	-0.035
-212.509	-200.000	-0.098	-0.000
-211.494	187.637	-0.250	0.365
-210.479	-200.000	-0.006	-0.251
-209.465	-31.305	-0.062	-0.034
-208.450	800.000	-0.049	-0.197
-207.436	800.000	0.034	-0.121
-206.421	-108.111	0.078	0.016
-205.406	-19.937	-0.218	0.132
-204.392	92.948	-0.109	-0.121
-203.377	-200.000	0.110	-0.571
-202.363	248.969	-0.156	-0.260
-201.348	35.689	0.093	0.080
-200.333	133.856	0.046	0.058
-199.319	177.071	0.266	0.380
-198.304	-195.476	0.367	-0.003
-197.290	-89.257	-0.164	-0.048
-196.275	31.296	-0.313	0.263
-195.260	34.041	-0.256	0.219
-194.246	228.167	-0.088	0.141
-193.231	25.950	-0.128	0.105
-192.217	800.000	-0.031	0.126
-191.202	-20.627	0.079	-0.048
-190.187	196.273	0.103	0.154
-189.173	-72.976	0.549	-0.198
-188.158	51.845	-0.094	-0.088
-187.144	59.226	-0.075	-0.072
-186.129	6.530	-0.033	-0.024
-185.114	394.550	0.113	0.231
-184.100	800.000	-0.015	0.047
-183.085	67.445	0.179	0.179
-182.071	-52.983	0.176	0.079
-181.056	-70.950	0.308	0.114
-180.042	-43.654	-0.309	-0.153
-179.027	-76.033	0.214	-0.074
-178.012	-200.000	-0.049	-0.426
-176.998	-126.363	-0.452	-0.066
-175.983	-125.411	0.115	0.017
-174.969	-200.000	0.034	-0.225
-173.954	-127.418	0.275	-0.039
-172.939	67.663	-0.072	0.072
-171.925	559.353	-0.153	-0.361
-170.910	75.553	0.071	-0.074
-169.896	800.000	0.070	-0.261
-168.881	-16.705	-0.114	-0.071
-167.866	632.561	-0.091	0.225
-166.852	-100.536	0.109	-0.026
-165.837	-200.000	0.040	-0.216
-164.823	246.076	-0.123	0.203
-163.808	-200.000	-0.065	0.333
-162.793	100.221	0.063	0.071
-161.779	26.634	-0.170	0.139
-160.764	-82.695	-0.128	0.041
-159.750	6.922	-0.223	-0.163
-158.735	-200.000	0.015	0.172
-157.720	-100.249	0.299	0.073
-156.706	39.893	0.247	-0.217
-155.691	-98.050	0.320	0.081
-154.677	54.219	-0.127	0.120
-153.662	165.418	-0.065	0.089
-152.647	-63.167	0.250	-0.101
-151.633	-200.000	0.002	-0.043
-150.618	-66.462	0.295	0.115
-149.604	293.189	-0.094	0.167
-148.589	800.000	0.062	-0.184
-147.574	85.490	-0.069	-0.074
-146.560	158.993	-0.139	0.188
-145.545	74.439	-0.165	0.170
-144.531	235.798	-0.065	0.105
-143.516	-200.000	-0.002	-0.059
-142.502	-132.753	0.174	-0.022
-141.487	-200.000	0.019	0.177
-140.472	572.918	-0.041	-0.099
-139.458	258.792	0.060	-0.101
-138.443	-97.311	0.266	0.068
-137.429	-200.000	-0.001	0.114
-136.414	-122.486	0.141	-0.022
-135.399	693.870	0.110	-0.281
-134.385	-127.443	0.512	-0.073
-133.370	-200.000	0.002	-0.154
-132.356	-200.000	0.031	0.209
-131.341	440.805	-0.160	0.342
-130.326	18.378	0.207	0.161
-129.312	-200.000	0.042	0.402
-128.297	800.000	0.034	0.118
-127.283	-103.184	-0.207	0.048
-126.268	67.110	-0.209	0.209
-125.253	680.568	0.026	0.065
-124.239	-63.341	-0.361	0.145
-123.224	-200.000	-0.003	0.106
-122.210	282.783	-0.143	0.251
-121.195	-42.897	0.279	-0.138
