DTS Sentinel unit serial number:	SN413079Multiplexer serial number:	ORYXHardware model number:	OX4-SRSoftware version number:	ORYX F/W v4.00 Oryx Data Collector v3.7.2.0data status	okinstallation	princeton_trtdifferential loss correction	single-endedforward channel	channel 1reverse channel	N/Adate	2019/09/12time	18:30:34forward acquisition time	15.00reverse acquisition time	0.00gamma	496.2192k internal	0.2318k external	0.2318temperature offset calibration	1.0109default loss term (dB/km)	0.3790temperature slope calibration	1.0000multiplexer offset coefficient	1.0000multiplexer slope coefficient	1.0000fibre end	0.00T internal ref (°C)	33.25T ext. ref 1 (°C)	2.97T ext. ref 2 (°C)	27.84length (m)	temperature (°C)	Stokes	anti-Stokes-747.200	45.709	0.322	0.302
-746.185	447.442	-0.063	-0.141
-745.171	-38.725	-0.488	-0.260
-744.156	800.000	0.167	0.740
-743.142	198.965	-0.236	0.365
-742.127	61.023	0.373	0.375
-741.112	-200.000	-0.066	1.119
-740.098	92.485	0.420	0.480
-739.083	708.686	0.363	0.970
-738.069	-200.000	-0.099	0.754
-737.054	-22.515	0.385	-0.236
-736.039	-107.435	-0.426	-0.095
-735.025	68.234	0.361	-0.374
-734.010	800.000	-0.042	-0.174
-732.996	-7.862	-0.606	0.414
-731.981	177.362	0.424	0.624
-730.966	333.492	-0.096	-0.188
-729.952	-126.124	0.077	0.012
-728.937	25.335	-0.863	0.726
-727.923	321.156	0.329	-0.633
-726.908	-45.668	0.403	0.202
-725.894	-48.703	0.400	-0.194
-724.879	800.000	0.207	0.878
-723.864	0.621	-0.232	0.168
-722.850	158.558	0.121	0.169
-721.835	254.954	-0.281	-0.486
-720.821	-71.669	-0.634	0.239
-719.806	-99.318	0.531	0.135
-718.791	20.744	0.174	-0.142
-717.777	-68.582	-0.515	-0.202
-716.762	137.891	-0.297	0.394
-715.748	-200.000	-0.190	0.901
-714.733	-178.954	0.520	-0.012
-713.718	800.000	-0.086	-0.362
-712.704	-132.105	0.415	0.054
-711.689	800.000	-0.081	0.299
-710.675	-63.663	-0.987	0.409
-709.660	-175.085	-0.456	-0.013
-708.645	-181.901	-0.803	-0.015
-707.631	-200.000	0.050	-0.352
-706.616	-187.149	-0.299	-0.004
-705.602	53.999	0.975	-0.947
-704.587	22.312	0.448	-0.370
-703.572	13.250	-0.617	0.483
-702.558	-115.650	-0.575	-0.109
-701.543	116.689	-0.240	-0.297
-700.529	-77.200	0.486	0.171
-699.514	98.091	0.098	0.114
-698.499	-152.269	-0.655	-0.048
-697.485	-158.713	-0.709	-0.041
-696.470	271.583	0.388	-0.691
-695.456	191.715	-0.419	-0.638
-694.441	-7.391	0.233	-0.159
-693.426	-13.704	-0.423	-0.276
-692.412	-49.869	-0.565	0.271
-691.397	800.000	0.080	-0.339
-690.383	219.076	-0.197	0.318
-689.368	-99.174	0.537	-0.137
-688.354	47.562	-0.604	0.569
-687.339	800.000	0.108	-0.401
-686.324	-144.598	0.168	-0.016
-685.310	101.152	0.397	0.467
-684.295	-107.821	-0.194	0.043
-683.281	-200.000	0.036	0.316
-682.266	-52.007	0.669	-0.314
-681.251	132.017	-0.574	-0.746
-680.237	-132.257	-0.564	-0.074
-679.222	-110.345	0.666	-0.140
-678.208	-48.438	-0.077	-0.037
-677.193	-37.787	-0.293	-0.158
-676.178	-76.755	0.494	0.175
-675.164	-0.096	0.365	-0.262
-674.149	21.676	-0.283	-0.232
-673.135	363.706	0.166	0.337
-672.120	58.381	-0.166	-0.164
-671.105	-131.130	0.802	-0.108
-670.091	800.000	-0.098	-0.282
-669.076	260.275	-0.070	-0.122
-668.062	159.198	-0.308	0.432
-667.047	-200.000	-0.055	0.713
-666.032	-53.923	-0.186	0.085
-665.018	62.742	0.208	0.210
-664.003	-200.000	0.097	-1.086
-662.989	-57.245	-0.432	-0.192
-661.974	560.072	-0.200	0.487
-660.959	-200.000	0.180	0.939
-659.945	40.048	0.520	-0.472
-658.930	85.310	-0.305	-0.338
-657.916	34.434	-0.146	-0.128
-656.901	509.480	0.056	0.132
-655.886	800.000	-0.067	-0.200
-654.872	182.587	0.207	-0.308
-653.857	-150.105	-0.440	0.034
-652.843	26.844	-0.473	-0.400
-651.828	-157.357	0.179	0.011
-650.814	104.638	0.186	0.220
-649.799	-42.104	0.450	-0.232
-648.784	800.000	-0.184	-0.602
-647.770	191.523	0.351	-0.533
-646.755	-200.000	0.007	-0.067
-645.741	-90.967	-0.046	-0.013
-644.726	-34.297	-0.287	-0.159
-643.711	-200.000	-0.142	0.696
-642.697	180.198	0.121	-0.179
-641.682	66.272	0.521	-0.533
-640.668	-140.579	-0.268	0.028
-639.653	-113.726	0.871	-0.171
-638.638	6.644	0.492	-0.369
-637.624	-200.000	-0.054	-0.642
-636.609	-12.824	-0.127	-0.083
-635.595	-200.000	0.176	-0.914
-634.580	68.242	-0.248	-0.256
-633.565	25.566	-0.226	0.189
-632.551	-200.000	-0.111	0.547
-631.536	-200.000	0.042	-0.613
-630.522	-146.762	-0.217	-0.019
-629.507	800.000	-0.101	-0.431
-628.492	23.648	-0.190	-0.158
-627.478	-103.765	-0.312	-0.074
-626.463	-200.000	0.162	-0.854
-625.449	800.000	-0.039	-0.128
-624.434	-42.635	-0.657	0.337
-623.419	68.718	0.162	0.168
-622.405	-137.972	-0.556	-0.062
-621.390	-200.000	0.016	-0.315
-620.376	-67.121	0.250	0.099
-619.361	371.159	-0.154	0.315
-618.346	25.574	0.557	-0.467
-617.332	-162.416	0.668	0.033
-616.317	25.879	0.397	0.333
-615.303	-28.701	-0.994	0.576
-614.288	175.482	0.445	-0.650
-613.273	30.873	-0.592	-0.511
-612.259	618.324	0.104	-0.264
-611.244	-136.796	0.574	0.066
-610.230	32.526	0.647	0.563
-609.215	53.015	0.242	-0.233
-608.201	76.939	0.321	-0.343
-607.186	217.350	0.389	-0.624
-606.171	-34.008	0.673	0.372
-605.157	-60.900	0.159	-0.068
-604.142	714.835	0.149	0.398
-603.128	125.509	0.302	-0.384
-602.113	-200.000	0.117	0.832
-601.098	-200.000	-0.095	-0.852
-600.084	120.733	-0.271	-0.338
-599.069	800.000	-0.185	0.540
-598.055	-77.945	-0.643	0.223
-597.040	-132.542	-0.403	0.052
-596.025	62.746	-0.213	-0.214
-595.011	179.879	0.151	-0.222
-593.996	-85.709	0.332	0.104
-592.982	-112.322	0.322	0.065
-591.967	-103.205	-0.780	-0.186
-590.952	-200.000	-0.042	0.660
-589.938	-162.942	-0.416	-0.020
-588.923	80.685	0.329	0.356
-587.909	-0.347	-0.424	0.303
-586.894	-68.914	0.742	-0.288
-585.879	-54.863	0.629	0.286
-584.865	22.952	-0.447	0.369
-583.850	-126.792	0.270	-0.040
-582.836	74.573	-0.438	-0.463
-581.821	-34.180	0.495	0.274
-580.806	-153.483	-0.343	-0.024
-579.792	-102.735	0.247	-0.059
-578.777	-169.234	-0.274	-0.010
-577.763	-150.191	0.614	-0.048
-576.748	-53.670	-0.450	-0.207
-575.733	221.284	-0.351	0.566
-574.719	-60.316	0.245	-0.105
-573.704	-200.000	-0.154	0.852
-572.690	-200.000	-0.154	0.763
-571.675	111.380	0.385	-0.467
-570.661	-53.456	0.116	-0.053
-569.646	107.328	-0.644	0.770
-568.631	92.016	-0.169	-0.191
-567.617	36.864	-0.329	-0.293
-566.602	24.583	-0.490	0.407
-565.588	-34.069	-0.303	-0.168
-564.573	800.000	0.157	-0.568
-563.558	-35.899	-0.357	0.194
-562.544	800.000	0.103	0.387
-561.529	161.270	-0.725	1.018
-560.515	-145.547	-0.236	0.021
-559.500	-60.674	-0.427	0.182
-558.485	-52.514	-0.277	-0.129
-557.471	95.242	-0.529	-0.606
-556.456	-3.296	0.402	0.282
-555.442	13.256	-0.236	0.183
-554.427	800.000	0.429	1.341
-553.412	50.185	0.357	0.338
-552.398	144.240	0.182	0.244
-551.383	-70.243	0.574	0.219
-550.369	568.255	-0.154	-0.375
-549.354	-5.098	0.561	0.388
-548.339	-86.702	-0.303	-0.093
-547.325	205.667	-0.476	-0.743
-546.310	32.360	0.681	0.591
-545.296	276.072	0.432	-0.769
-544.281	528.804	0.219	0.518
-543.266	-100.647	-0.149	0.037
-542.252	-54.258	0.406	-0.185
-541.237	800.000	-0.174	0.690
-540.223	357.757	-0.139	-0.279
-539.208	-200.000	-0.087	0.679
-538.193	-200.000	-0.045	-0.285
-537.179	-200.000	0.088	0.433
-536.164	-114.645	0.323	-0.062
-535.150	62.306	0.553	-0.554
-534.135	-113.946	0.561	0.109
-533.121	735.024	-0.204	-0.548
-532.106	298.950	-0.114	-0.210
-531.091	358.734	0.207	0.414
-530.077	44.074	0.572	-0.526
-529.062	-171.717	0.829	0.027
-528.048	-200.000	-0.040	0.658
-527.033	38.905	0.185	-0.166
-526.018	-113.904	0.408	0.080
-525.004	-6.704	0.750	0.512
-523.989	157.303	0.369	0.512
-522.975	-131.997	0.463	-0.061
-521.960	-61.017	0.233	-0.099
-520.945	-71.743	-0.253	0.095
-519.931	-50.301	-0.458	0.217
-518.916	-64.619	0.884	-0.360
-517.902	-97.332	1.142	-0.299
-516.887	-200.000	-0.095	0.562
-515.872	-200.000	-0.028	0.327
-514.858	-67.381	0.577	0.227
-513.843	153.547	0.309	0.424
-512.829	85.824	0.217	-0.239
-511.814	6.072	-0.375	-0.279
-510.799	-123.034	-0.306	0.049
-509.785	-134.745	-0.501	-0.061
-508.770	-49.139	0.716	-0.343
-507.756	-151.809	-0.419	-0.031
-506.741	-75.636	0.574	0.205
-505.726	96.476	-0.377	0.433
-504.712	67.577	-0.052	-0.053
-503.697	49.683	-0.426	0.402
-502.683	35.049	0.363	0.319
-501.668	800.000	0.284	-0.834
-500.653	58.935	0.347	-0.342
-499.639	12.558	-0.203	-0.157
-498.624	100.270	-0.264	0.307
-497.610	800.000	0.148	0.523
-496.595	-42.827	0.288	0.146
-495.581	-20.188	-0.860	-0.531
-494.566	-200.000	0.056	0.379
-493.551	45.275	-0.109	0.101
-492.537	-200.000	0.058	0.441
-491.522	-120.787	-0.206	0.035
-490.508	-200.000	-0.001	0.145
-489.493	-47.517	1.108	0.539
-488.478	58.542	-0.717	-0.705
-487.464	374.861	-0.341	0.697
-486.449	31.689	0.216	0.186
-485.435	-115.597	0.881	-0.166
-484.420	6.405	0.712	-0.530
-483.405	-200.000	-0.005	0.807
-482.391	27.543	1.020	-0.859
-481.376	-88.044	-0.626	0.188
-480.362	239.544	0.381	0.635
-479.347	-29.819	0.411	-0.234
-478.332	-117.837	1.133	-0.204
-477.318	-52.068	0.775	-0.361
-476.303	-200.000	0.127	-0.557
-475.289	-200.000	0.040	0.378
-474.274	-79.190	0.530	-0.180
-473.259	60.226	-0.433	-0.429
-472.245	785.275	-0.168	0.460
-471.230	-140.592	0.459	-0.048
-470.216	-71.118	-0.108	-0.041
-469.201	215.231	0.387	0.614
-468.186	-200.000	-0.342	0.000
-467.172	-26.711	0.367	0.215
-466.157	800.000	0.104	-0.355
-465.143	-183.959	-0.899	-0.015
-464.128	-24.330	-0.207	-0.124
-463.113	800.000	0.179	0.503
-462.099	297.919	-0.333	-0.612
-461.084	-82.295	-0.540	-0.176
-460.070	800.000	-0.193	0.641
-459.055	-16.440	-0.297	-0.188
-458.040	-123.646	0.608	-0.096
-457.026	-76.685	-0.511	-0.179
-456.011	-62.663	1.215	-0.504
-454.997	-98.902	0.412	-0.105
-453.982	-22.631	0.535	0.324
-452.968	-200.000	0.026	0.215
-451.953	-116.871	-0.682	-0.125
-450.938	212.710	-0.213	0.336
-449.924	164.986	0.510	0.720
-448.909	-200.000	-0.063	-0.409
-447.895	221.933	-0.238	-0.382
-446.880	-70.732	-0.648	0.245
-445.865	216.456	-0.459	0.730
-444.851	-108.146	-0.023	-0.005
-443.836	54.798	0.365	0.352
-442.822	43.771	0.223	0.204
-441.807	-136.277	0.717	0.084
-440.792	572.261	0.153	0.372
-439.778	800.000	-0.145	0.416
-438.763	-58.104	-0.600	0.261
-437.749	-22.393	0.140	0.085
-436.734	-65.810	0.538	0.215
-435.719	-24.473	0.496	-0.296
-434.705	-58.696	1.099	-0.476
-433.690	-48.036	-0.603	-0.292
-432.676	-200.000	-0.069	0.543
-431.661	-103.621	-0.369	0.087
-430.646	392.795	-0.093	0.194
-429.632	275.331	-0.151	-0.268
-428.617	102.136	0.463	-0.541
-427.603	-119.964	-0.850	-0.146
-426.588	-34.562	-0.316	-0.173
-425.573	-112.321	-0.804	-0.161
-424.559	117.501	-0.267	-0.329
-423.544	-200.000	-0.101	0.971
-422.530	-200.000	-0.745	0.001
-421.515	86.233	0.181	0.200
-420.500	-200.000	-0.027	0.122
-419.486	521.235	0.224	-0.526
-418.471	-112.521	-0.345	0.069
-417.457	101.008	-0.207	0.240
-416.442	-44.394	0.410	0.205
-415.428	-54.951	0.481	0.217
-414.413	18.533	-0.465	0.371
-413.398	-109.691	0.215	0.045
-412.384	800.000	-0.217	-0.649
-411.369	-65.510	-0.527	0.211
-410.355	-68.894	0.252	0.097
-409.340	-200.000	-0.141	0.657
-408.325	-52.629	-0.264	-0.122
-407.311	319.188	0.113	-0.214
-406.296	3.924	-0.265	-0.194
-405.282	-92.324	1.086	-0.306
-404.267	-200.000	-0.017	-0.427
-403.252	272.609	-0.144	-0.253
-402.238	86.591	-0.372	-0.409
-401.223	50.042	-0.475	-0.448
-400.209	-88.373	0.716	-0.213
-399.194	640.048	-0.279	-0.710
-398.179	-120.981	-0.249	-0.042
-397.165	-108.047	-0.672	0.146
-396.150	211.001	0.247	-0.388
-395.136	-72.940	-0.575	-0.211
-394.121	-166.514	0.100	0.004
-393.106	-200.000	-0.040	0.403
-392.092	143.140	-0.402	-0.534
-391.077	-200.000	-0.057	-0.266
-390.063	524.093	0.171	0.402
-389.048	-164.669	-0.802	-0.036
-388.033	204.692	-0.438	0.678
-387.019	800.000	0.111	-0.484
-386.004	-35.261	0.129	-0.070
-384.990	-65.628	-0.381	-0.152
-383.975	800.000	0.058	-0.198
-382.960	37.577	-0.514	-0.456
-381.946	37.306	-0.284	0.251
-380.931	-91.765	-0.739	-0.209
-379.917	42.778	-0.332	0.302
-378.902	-41.765	-0.611	0.313
-377.888	220.697	0.398	0.638
-376.873	-136.922	0.387	-0.044
-375.858	23.374	-0.690	-0.566
-374.844	-200.000	-0.047	-0.956
-373.829	-139.926	-0.653	0.069
-372.815	-112.368	-0.150	0.030
-371.800	-200.000	0.139	0.623
-370.785	-104.873	-0.470	-0.108
-369.771	-200.000	0.127	-0.777
-368.756	-84.390	0.769	-0.243
-367.742	-58.043	-0.472	0.205
-366.727	800.000	-0.129	-0.499
-365.712	800.000	0.088	0.283
-364.698	-200.000	-0.020	0.416
-363.683	-130.965	0.161	-0.021
-362.669	38.095	0.227	0.201
-361.654	-200.000	-0.055	-0.368
-360.639	18.400	-0.398	-0.317
-359.625	-172.069	-0.805	0.026
-358.610	149.239	-0.168	0.227
-357.596	12.796	0.914	0.704
-356.581	800.000	-0.340	-0.957
-355.566	-140.706	-0.772	-0.080
-354.552	-90.993	0.331	-0.095
-353.537	142.736	0.481	0.636
-352.523	127.091	0.490	0.619
-351.508	-142.396	0.591	-0.058
-350.493	-200.000	-0.017	-0.572
-349.479	-96.234	-0.386	-0.102
-348.464	-69.627	0.236	-0.090
-347.450	-46.163	-0.489	0.240
-346.435	-200.000	-0.070	-0.487
-345.420	422.352	0.304	0.650
-344.406	12.875	-0.521	-0.401
-343.391	353.471	0.075	-0.149
-342.377	-200.000	-0.173	1.183
-341.362	306.955	-0.416	0.773
-340.348	-140.966	0.325	-0.033
-339.333	287.449	-0.133	-0.240
-338.318	800.000	0.281	-0.900
-337.304	-96.427	0.366	-0.096
-336.289	-122.053	-0.194	-0.032
-335.275	-200.000	-0.022	-0.388
-334.260	515.983	0.326	-0.760
-333.245	-54.104	0.123	0.056
-332.231	-116.271	0.203	0.037
-331.216	424.392	0.374	0.801
-330.202	-200.000	0.007	-0.485
-329.187	-97.137	0.403	-0.105
-328.172	72.768	0.188	-0.196
-327.158	358.866	-0.268	-0.533
-326.143	-67.767	0.417	0.162
-325.129	-178.138	-0.373	0.009
-324.114	-93.070	-0.479	-0.133
-323.099	25.592	-0.998	-0.827
-322.085	800.000	-0.087	-0.291
-321.070	-44.542	0.022	0.011
-320.056	-200.000	0.053	0.316
-319.041	57.664	0.321	-0.312
-318.026	-159.457	-0.085	0.005
-317.012	-52.844	0.207	-0.095
-315.997	-90.149	0.414	0.120
-314.983	644.168	0.050	-0.127
-313.968	78.572	-0.241	-0.257
-312.953	177.373	-0.122	-0.177
-311.939	-200.000	-0.031	0.687
-310.924	-200.000	-0.128	1.178
-309.910	-26.746	0.847	-0.493
-308.895	54.983	0.341	-0.328
-307.880	-200.000	-0.018	0.294
-306.866	20.586	-0.571	0.460
-305.851	48.626	-0.559	0.522
-304.837	72.242	-0.323	-0.334
-303.822	233.812	-0.227	-0.372
-302.807	-88.083	0.495	0.148
-301.793	-83.047	-0.613	-0.197
-300.778	-87.969	-0.783	0.234
-299.764	120.588	0.296	-0.365
-298.749	-92.529	-0.709	-0.198
-297.735	-200.000	0.097	-0.736
-296.720	144.201	0.342	-0.454
-295.705	-111.890	0.144	0.029
-294.691	75.490	-0.589	-0.618
-293.676	-23.151	-0.597	0.358
-292.662	30.156	0.532	0.452
-291.647	47.878	-0.227	-0.210
-290.632	-3.662	0.621	-0.429
-289.618	-131.628	0.277	-0.036
-288.603	-200.000	-0.055	-0.335
-287.589	430.635	-0.346	0.746
-286.574	-86.080	-0.551	-0.169
-285.559	-200.000	-0.032	0.429
-284.545	669.189	0.181	-0.465
-283.530	200.422	-0.630	-0.962
-282.516	-36.537	-0.201	0.108
-281.501	-144.568	-0.291	-0.027
-280.486	586.530	-0.110	-0.269
-279.472	174.815	0.229	-0.329
-278.457	167.421	0.107	0.151
-277.443	-134.829	-0.578	0.070
-276.428	-110.393	0.810	0.167
-275.413	800.000	0.086	0.267
-274.399	103.452	-0.389	-0.453
-273.384	91.517	-0.450	-0.502
-272.370	-71.813	-0.414	-0.153
-271.355	-152.214	0.448	0.032
-270.340	644.672	-0.104	0.264
-269.326	800.000	-0.059	0.213
-268.311	90.930	-0.228	-0.254
-267.297	-38.279	-0.274	-0.144
-266.282	349.830	-0.246	0.482
-265.267	87.608	-0.899	0.989
-264.253	-43.529	0.165	0.083
-263.238	-200.000	-0.008	-0.326
-262.224	12.113	0.330	0.252
-261.209	18.476	-0.145	0.115
-260.195	72.053	1.256	1.298
-259.180	-200.000	-0.059	0.641
-258.165	-191.280	-0.600	0.006
-257.151	-70.149	0.258	0.097
-256.136	-200.000	-0.007	0.203
-255.122	42.149	-0.320	-0.288
-254.107	800.000	-0.173	-0.735
-253.092	434.799	-0.194	0.418
-252.078	-155.455	0.501	0.032
-251.063	135.677	-0.275	0.355
-250.049	19.796	0.347	-0.277
-249.034	-108.621	0.526	0.112
-248.019	-46.967	0.520	0.252
-247.005	-34.856	-0.803	0.435
-245.990	166.083	0.508	-0.714
-244.976	800.000	0.245	-0.696
-243.961	-141.454	0.374	-0.038
-242.946	101.238	-0.379	0.438
-241.932	-21.245	-0.672	0.408
-240.917	24.108	-0.411	0.337
-239.903	32.673	-0.666	-0.572
-238.888	-120.328	-0.207	-0.035
-237.873	-60.113	0.490	0.208
-236.859	43.380	0.363	0.329
-235.844	-22.365	0.347	0.209
-234.830	368.485	-0.463	0.928
-233.815	-200.000	0.027	-0.848
-232.800	284.756	0.299	-0.534
-231.786	667.490	-0.243	0.623
-230.771	-200.000	0.026	0.485
-229.757	-200.000	0.022	0.376
-228.742	-200.000	0.163	-0.783
-227.727	-52.473	-0.245	0.112
-226.713	196.398	-0.267	0.404
-225.698	394.192	0.089	-0.183
-224.684	34.701	-0.192	-0.167
-223.669	-200.000	0.029	-0.635
-222.655	800.000	-0.094	-0.341
-221.640	-42.325	-0.575	0.291
-220.625	-175.468	-0.552	0.015
-219.611	17.426	-0.119	-0.094
-218.596	17.633	1.002	-0.790
-217.582	204.786	-0.133	0.205
-216.567	-116.869	0.290	0.053
-215.552	-76.037	0.733	0.257
-214.538	4.702	0.491	0.358
-213.523	-47.299	0.476	-0.230
-212.509	117.629	0.134	0.164
-211.494	-112.272	-0.331	-0.066
-210.479	800.000	-0.232	-0.769
-209.465	-200.000	-0.046	-0.621
-208.450	-200.000	-0.013	-0.281
-207.436	363.002	-0.107	0.214
-206.421	-84.334	-0.434	-0.136
-205.406	-200.000	-0.013	-0.247
-204.392	-200.000	-0.069	0.429
-203.377	800.000	0.323	1.035
-202.363	274.062	0.512	0.898
-201.348	-50.542	0.660	0.308
-200.333	-34.511	0.172	0.093
-199.319	-200.000	-0.007	-0.443
-198.304	105.060	0.567	0.663
-197.290	-3.088	-0.346	0.239
-196.275	-130.579	-0.238	0.032
-195.260	97.786	-0.461	0.526
-194.246	-200.000	0.048	0.243
-193.231	19.906	-0.517	-0.413
-192.217	59.766	-0.647	0.632
-191.202	-99.870	0.606	-0.150
-190.187	-200.000	-0.134	0.696
-189.173	800.000	-0.441	-1.216
-188.158	92.430	-0.399	0.446
-187.144	80.566	0.235	-0.251
-186.129	-200.000	-0.047	-0.600
-185.114	114.449	0.821	0.990
-184.100	-65.520	-0.485	-0.193
-183.085	-72.449	-0.833	-0.305
-182.071	-127.251	0.453	-0.066
-181.056	-142.665	-0.681	-0.066
-180.042	-200.000	-0.094	1.783
-179.027	380.688	0.166	0.337
-178.012	-129.199	-0.211	0.029
-176.998	274.011	-0.228	-0.399
-175.983	-62.989	-0.901	0.369
-174.969	50.995	0.280	-0.262
-173.954	-56.018	0.792	-0.349
-172.939	374.595	0.057	-0.114
-171.925	-122.723	0.644	-0.103
-170.910	539.484	-0.430	1.014
-169.896	800.000	0.085	0.289
-168.881	15.262	0.610	-0.474
-167.866	482.983	-0.199	-0.447
-166.852	167.135	-0.231	-0.325
-165.837	207.397	0.605	-0.933
-164.823	-5.040	0.527	-0.359
-163.808	-200.000	0.094	-1.162
-162.793	52.300	-0.445	0.420
-161.779	-60.457	0.514	-0.216
-160.764	2.827	-0.657	-0.471
-159.750	521.587	0.302	-0.702
-158.735	89.367	-0.389	0.429
-157.720	-113.867	0.685	0.132
-156.706	-189.748	0.564	-0.006
-155.691	-79.654	-0.942	0.314
-154.677	223.894	0.438	0.699
-153.662	-120.415	-0.736	-0.124
-152.647	-200.000	0.011	-0.963
-151.633	233.193	-0.150	0.244
-150.618	164.620	-0.379	-0.528
-149.604	-110.335	0.308	-0.063
-148.589	149.410	-0.116	0.156
-147.574	223.966	0.333	-0.532
-146.560	-200.000	0.011	-0.077
-145.545	168.008	0.244	0.343
-144.531	-200.000	-0.014	0.104
-143.516	-192.683	1.172	0.011
-142.502	-80.538	-0.346	0.114
-141.487	-127.717	-0.382	0.055
-140.472	-200.000	-0.010	-0.364
-139.458	19.316	-0.803	0.638
-138.443	-85.821	0.527	0.161
-137.429	81.998	0.632	0.676
-136.414	192.234	0.457	0.682
-135.399	37.592	-0.092	0.081
-134.385	6.702	-0.249	-0.183
-133.370	374.980	-0.396	-0.798
-132.356	5.345	-0.171	0.125
-131.341	-95.493	0.337	0.089
-130.326	-70.881	0.532	0.198
-129.312	-184.451	-1.207	-0.019
-128.297	-136.828	0.978	-0.111
-127.283	800.000	-0.042	0.129
-126.268	800.000	0.041	0.147
-125.253	329.121	0.250	0.475
-124.239	-152.484	-0.241	0.017
-123.224	-68.689	0.267	-0.102
-122.210	800.000	0.211	-0.723
