DTS Sentinel unit serial number:	SN413079Multiplexer serial number:	ORYXHardware model number:	OX4-SRSoftware version number:	ORYX F/W v4.00 Oryx Data Collector v3.7.2.0data status	okinstallation	princeton_trtdifferential loss correction	single-endedforward channel	channel 1reverse channel	N/Adate	2019/09/16time	03:02:35forward acquisition time	60.00reverse acquisition time	0.00gamma	496.2192k internal	0.2330k external	0.2330temperature offset calibration	0.9981default loss term (dB/km)	0.3790temperature slope calibration	1.0000multiplexer offset coefficient	1.0000multiplexer slope coefficient	1.0000fibre end	0.00T internal ref (°C)	27.75T ext. ref 1 (°C)	10.42T ext. ref 2 (°C)	22.16length (m)	temperature (°C)	Stokes	anti-Stokes-747.200	100.441	-0.117	0.136
-746.185	800.000	0.074	0.263
-745.171	-91.083	-0.152	0.044
-744.156	175.012	-0.086	0.126
-743.142	761.025	0.048	-0.132
-742.127	53.169	-0.105	0.102
-741.112	-200.000	-0.002	-0.334
-740.098	182.541	-0.219	0.326
-739.083	-126.283	0.028	-0.004
-738.069	-129.818	-0.342	-0.047
-737.054	-19.707	0.144	0.089
-736.039	-50.007	-0.107	-0.051
-735.025	-200.000	0.005	-0.320
-734.010	-200.000	-0.046	-0.221
-732.996	-147.971	-0.122	-0.010
-731.981	-156.192	-0.208	-0.013
-730.966	-53.394	-0.301	0.139
-729.952	439.979	-0.119	0.263
-728.937	16.344	-0.045	0.036
-727.923	800.000	-0.028	-0.079
-726.908	283.740	-0.169	-0.306
-725.894	443.426	-0.204	-0.449
-724.879	-33.037	0.059	-0.033
-723.864	-169.508	0.313	0.012
-722.850	225.306	-0.244	0.397
-721.835	28.917	0.191	0.163
-720.821	-51.260	-0.069	-0.032
-719.806	-173.210	-0.239	-0.007
-718.791	-200.000	-0.026	-0.250
-717.777	-48.598	0.149	0.072
-716.762	-200.000	0.014	-0.283
-715.748	800.000	-0.016	-0.065
-714.733	-200.000	-0.000	-0.020
-713.718	-200.000	0.018	-0.111
-712.704	456.022	-0.130	0.291
-711.689	-82.275	0.430	-0.141
-710.675	-126.969	0.118	-0.018
-709.660	-84.272	-0.197	-0.063
-708.645	-200.000	0.003	-0.307
-707.631	-200.000	0.030	-0.310
-706.616	-103.515	0.390	0.092
-705.602	271.641	0.131	0.232
-704.587	4.031	-0.301	0.222
-703.572	128.116	0.127	-0.162
-702.558	248.844	-0.176	0.300
-701.543	461.544	0.056	-0.125
-700.529	123.255	0.185	-0.233
-699.514	-200.000	0.174	0.000
-698.499	9.544	0.350	0.266
-697.485	-2.620	0.054	0.038
-696.470	753.809	0.024	-0.065
-695.456	24.078	-0.466	-0.386
-694.441	344.050	0.128	0.252
-693.426	-145.839	0.262	-0.023
-692.412	-200.000	0.014	-0.376
-691.397	-140.876	0.416	-0.043
-690.383	-135.719	0.146	0.017
-689.368	-69.973	-0.391	0.150
-688.354	25.700	0.094	0.078
-687.339	33.767	0.215	0.188
-686.324	652.463	0.088	0.227
-685.310	-79.899	0.310	-0.105
-684.295	620.678	-0.049	0.123
-683.281	-76.395	-0.120	0.042
-682.266	127.440	-0.258	-0.329
-681.251	800.000	0.034	0.129
-680.237	-32.570	-0.339	0.189
-679.222	-82.788	-0.066	0.021
-678.208	-200.000	-0.047	0.248
-677.193	-160.413	-0.070	-0.004
-676.178	-53.194	-0.060	0.027
-675.164	222.323	-0.133	0.215
-674.149	-200.000	0.004	-0.028
-673.135	24.192	0.078	0.065
-672.120	-200.000	0.058	-0.273
-671.105	-184.430	-0.114	-0.002
-670.091	32.270	0.452	0.392
-669.076	-166.916	0.095	0.004
-668.062	-200.000	0.067	0.321
-667.047	-130.351	-0.229	-0.031
-666.032	94.689	-0.129	-0.147
-665.018	528.638	0.085	0.202
-664.003	-192.048	-0.136	-0.001
-662.989	-177.825	0.299	-0.007
-661.974	689.696	0.075	-0.196
-660.959	-187.006	-0.230	0.003
-659.945	-9.457	-0.269	-0.180
-658.930	800.000	-0.046	-0.129
-657.916	307.015	-0.060	-0.111
-656.901	-114.951	-0.213	-0.041
-655.886	-200.000	0.047	-0.349
-654.872	62.416	-0.206	-0.206
-653.857	-200.000	-0.008	-0.251
-652.843	-78.622	-0.230	0.079
-651.828	179.026	0.153	-0.224
-650.814	-199.924	-0.343	-0.002
-649.799	-200.000	0.034	-0.378
-648.784	163.954	0.094	-0.133
-647.770	800.000	-0.018	0.078
-646.755	-126.446	-0.016	-0.002
-645.741	-80.405	0.272	0.091
-644.726	-6.367	0.267	-0.183
-643.711	800.000	-0.104	0.410
-642.697	-117.157	-0.209	0.038
-641.682	-51.997	0.171	-0.080
-640.668	332.234	-0.038	-0.073
-639.653	800.000	0.054	-0.186
-638.638	77.607	-0.299	-0.319
-637.624	-92.523	-0.017	0.005
-636.609	36.128	0.296	-0.261
-635.595	403.640	-0.166	0.350
-634.580	-56.526	-0.050	0.022
-633.565	3.838	0.235	0.172
-632.551	-99.013	-0.343	-0.087
-631.536	800.000	0.021	-0.080
-630.522	-159.443	-0.371	-0.021
-629.507	100.823	0.139	-0.162
-628.492	-65.545	-0.134	0.054
-627.478	22.860	-0.070	-0.058
-626.463	350.125	-0.087	-0.172
-625.449	-21.319	0.151	-0.093
-624.434	-200.000	0.009	0.088
-623.419	-77.251	0.087	0.030
-622.405	10.129	0.284	0.216
-621.390	108.538	-0.172	0.206
-620.376	90.128	-0.138	0.155
-619.361	-200.000	0.004	-0.130
-618.346	800.000	-0.020	-0.066
-617.332	-90.856	0.257	0.074
-616.317	73.760	0.162	-0.170
-615.303	-200.000	0.005	0.060
-614.288	100.138	-0.087	0.101
-613.273	211.682	0.161	0.254
-612.259	-200.000	0.019	0.215
-611.244	282.100	0.043	-0.078
-610.230	100.078	0.105	0.121
-609.215	58.829	0.014	-0.014
-608.201	163.522	-0.202	-0.285
-607.186	800.000	-0.036	-0.112
-606.171	-200.000	0.024	0.303
-605.157	-6.701	0.151	0.103
-604.142	106.274	-0.116	0.138
-603.128	81.004	-0.049	0.053
-602.113	800.000	-0.034	0.096
-601.098	47.769	0.127	0.119
-600.084	-123.096	0.196	-0.032
-599.069	-26.492	-0.242	-0.142
-598.055	58.983	0.052	-0.052
-597.040	-9.593	0.051	0.034
-596.025	800.000	-0.066	0.185
-595.011	-70.530	-0.175	-0.066
-593.996	-200.000	0.043	-0.459
-592.982	-200.000	-0.066	-0.313
-591.967	-117.057	-0.250	-0.046
-590.952	-155.413	0.129	0.008
-589.938	-80.232	-0.208	0.070
-588.923	61.492	0.108	-0.107
-587.909	-56.887	0.107	-0.047
-586.894	-96.384	-0.372	0.098
-585.879	259.788	0.068	-0.118
-584.865	26.550	0.109	-0.091
-583.850	23.959	-0.127	-0.105
-582.836	-151.984	0.086	0.006
-581.821	-160.293	-0.147	0.008
-580.806	-200.000	-0.018	0.376
-579.792	-15.659	0.055	0.035
-578.777	-36.738	-0.116	-0.062
-577.763	23.837	-0.288	0.237
-576.748	-77.320	0.108	-0.037
-575.733	233.474	-0.054	-0.089
-574.719	408.727	-0.215	-0.455
-573.704	457.900	0.103	-0.229
-572.690	-200.000	-0.024	-0.107
-571.675	-42.869	-0.281	0.143
-570.661	-179.270	0.294	-0.007
-569.646	-34.974	-0.121	0.066
-568.631	-13.301	-0.106	0.069
-567.617	59.237	-0.405	-0.398
-566.602	-65.315	-0.201	-0.081
-565.588	287.943	0.116	0.209
-564.573	66.597	-0.218	0.222
-563.558	-166.041	0.141	-0.006
-562.544	-77.878	0.073	-0.025
-561.529	34.276	-0.143	-0.125
-560.515	-200.000	0.030	-0.189
-559.500	-10.611	-0.093	0.061
-558.485	-39.728	0.085	0.045
-557.471	-70.758	0.188	-0.071
-556.456	166.474	-0.127	-0.180
-555.442	-116.619	-0.118	-0.022
-554.427	16.066	0.166	0.131
-553.412	133.833	-0.058	0.075
-552.398	-200.000	-0.035	0.273
-551.383	-87.238	0.362	0.110
-550.369	-200.000	-0.038	-0.320
-549.354	-6.044	-0.251	-0.171
-548.339	-200.000	0.044	-0.357
-547.325	80.508	-0.070	-0.075
-546.310	-200.000	0.030	-0.321
-545.296	-85.350	-0.179	0.056
-544.281	-78.123	0.121	-0.042
-543.266	800.000	0.065	-0.232
-542.252	-200.000	-0.019	0.154
-541.237	-200.000	-0.004	0.321
-540.223	-200.000	-0.040	0.229
-539.208	-54.590	-0.138	0.062
-538.193	343.965	-0.058	-0.114
-537.179	163.406	-0.206	-0.290
-536.164	800.000	0.046	0.152
-535.150	-110.012	-0.153	-0.032
-534.135	-200.000	-0.021	0.260
-533.121	-200.000	-0.073	0.396
-532.106	-152.742	0.219	-0.016
-531.091	491.952	-0.098	0.223
-530.077	217.741	0.191	-0.303
-529.062	-9.054	0.075	0.050
-528.048	-48.778	-0.078	-0.037
-527.033	-21.682	-0.048	-0.029
-526.018	-23.772	0.266	0.159
-525.004	800.000	0.094	-0.294
-523.989	800.000	0.025	-0.084
-522.975	79.601	0.112	-0.120
-521.960	71.111	-0.290	0.300
-520.945	726.180	-0.050	0.134
-519.931	386.069	0.125	-0.257
-518.916	-25.348	-0.012	-0.007
-517.902	-168.385	0.325	-0.012
-516.887	102.104	0.044	0.051
-515.872	-54.567	-0.090	-0.041
-514.858	-92.309	-0.261	0.073
-513.843	317.448	-0.041	0.077
-512.829	-47.875	0.242	0.117
-511.814	-69.605	-0.450	-0.172
-510.799	-122.854	0.080	0.013
-509.785	-200.000	-0.092	-0.000
-508.770	800.000	0.075	0.303
-507.756	362.624	0.133	-0.266
-506.741	51.223	-0.065	0.062
-505.726	661.811	-0.040	0.103
-504.712	7.068	0.115	0.085
-503.697	-200.000	0.062	0.287
-502.683	-200.000	0.048	0.230
-501.668	-91.067	0.185	-0.053
-500.653	-36.826	-0.171	0.091
-499.639	-200.000	0.051	0.231
-498.624	800.000	-0.061	0.187
-497.610	-164.615	-0.109	0.005
-496.595	-168.898	-0.295	0.011
-495.581	-83.047	0.134	0.043
-494.566	-80.502	-0.246	0.082
-493.551	-85.629	-0.083	0.026
-492.537	225.932	-0.033	-0.054
-491.522	114.285	-0.114	-0.138
-490.508	-200.000	-0.007	-0.318
-489.493	-148.022	-0.226	0.019
-488.478	-26.577	0.506	-0.295
-487.464	426.361	0.089	0.190
-486.449	412.595	0.081	0.172
-485.435	-136.894	-0.474	-0.054
-484.420	-200.000	0.053	0.280
-483.405	151.021	-0.087	0.118
-482.391	650.930	-0.141	0.361
-481.376	170.968	-0.055	-0.079
-480.362	800.000	-0.080	0.278
-479.347	-200.000	-0.029	0.273
-478.332	-19.335	0.128	-0.079
-477.318	-124.787	0.093	0.014
-476.303	153.676	-0.114	0.155
-475.289	379.217	0.095	0.193
-474.274	11.800	-0.201	-0.154
-473.259	25.006	-0.154	0.127
-472.245	-200.000	0.045	-0.334
-471.230	239.221	-0.176	-0.292
-470.216	183.674	0.074	-0.109
-469.201	-178.112	-0.190	0.004
-468.186	-14.215	0.271	0.174
-467.172	-15.264	0.062	-0.039
-466.157	182.861	0.055	0.080
-465.143	-140.830	-0.181	0.019
-464.128	7.409	0.088	-0.065
-463.113	-49.443	-0.277	0.132
-462.099	438.477	-0.096	-0.209
-461.084	-200.000	0.019	-0.305
-460.070	-200.000	-0.010	-0.140
-459.055	-98.709	-0.160	0.041
-458.040	-92.091	-0.090	-0.025
-457.026	324.384	-0.077	0.146
-456.011	-70.810	0.054	-0.020
-454.997	230.823	-0.078	-0.127
-453.982	-135.381	0.210	0.025
-452.968	-71.668	-0.128	0.048
-451.953	-200.000	-0.004	-0.295
-450.938	40.632	-0.168	0.151
-449.924	61.487	0.109	-0.108
-448.909	-104.041	0.083	0.019
-447.895	-200.000	0.010	0.084
-446.880	-112.903	0.160	0.032
-445.865	325.388	-0.117	0.223
-444.851	-200.000	0.027	-0.179
-443.836	-200.000	0.105	0.490
-442.822	-150.185	-0.048	-0.004
-441.807	-86.079	-0.286	-0.088
-440.792	-168.152	0.142	-0.005
-439.778	-58.573	0.205	0.089
-438.763	-136.252	-0.039	-0.005
-437.749	-200.000	0.005	-0.050
-436.734	-130.719	0.178	-0.024
-435.719	-200.000	-0.070	-0.416
-434.705	31.904	0.147	-0.126
-433.690	-29.529	0.170	0.097
-432.676	103.353	-0.049	-0.057
-431.661	-64.532	0.078	0.032
-430.646	-56.379	0.054	0.024
-429.632	-52.929	-0.021	0.010
-428.617	800.000	0.112	-0.338
-427.603	-110.310	-0.182	0.038
-426.588	-200.000	-0.047	-0.510
-425.573	-200.000	0.026	0.296
-424.559	89.953	-0.101	0.112
-423.544	-200.000	0.018	-0.096
-422.530	-200.000	0.016	-0.106
-421.515	171.854	-0.313	-0.447
-420.500	-110.423	0.288	-0.059
-419.486	-157.696	0.232	0.014
-418.471	-200.000	-0.028	0.135
-417.457	-90.676	0.079	0.023
-416.442	201.883	-0.175	-0.268
-415.428	99.961	-0.170	0.196
-414.413	-50.469	-0.151	-0.071
-413.398	-60.775	0.158	0.066
-412.384	-14.836	0.171	-0.109
-411.369	58.127	-0.211	0.205
-410.355	-200.000	-0.016	0.387
-409.340	129.055	-0.171	0.217
-408.325	279.919	-0.086	-0.153
-407.311	-129.572	-0.309	-0.042
-406.296	-200.000	-0.027	0.390
-405.282	-80.234	0.094	0.031
-404.267	23.077	0.084	-0.068
-403.252	636.694	-0.065	0.164
-402.238	-80.417	-0.233	0.077
-401.223	800.000	-0.024	0.100
-400.209	427.665	-0.216	0.462
-399.194	37.259	-0.102	-0.090
-398.179	223.135	0.069	-0.110
-397.165	-200.000	0.006	-0.042
-396.150	122.727	0.147	-0.183
-395.136	-159.629	0.117	0.006
-394.121	-68.838	-0.165	0.063
-393.106	-171.306	-0.158	0.005
-392.092	-200.000	0.111	0.000
-391.077	-146.578	0.259	-0.022
-390.063	40.132	0.140	-0.125
-389.048	207.479	-0.072	0.112
-388.033	-86.965	-0.343	0.104
-387.019	20.269	0.210	0.168
-386.004	329.491	0.040	0.077
-384.990	-200.000	0.031	-0.142
-383.975	117.873	-0.122	0.149
-382.960	-79.488	0.180	-0.060
-381.946	-36.956	-0.240	0.128
-380.931	91.327	0.243	0.271
-379.917	57.886	0.120	0.117
-378.902	-86.860	-0.212	0.064
-377.888	200.839	-0.042	-0.063
-376.873	93.785	0.170	0.191
-375.858	-4.064	-0.198	-0.136
-374.844	332.710	-0.015	0.029
-373.829	-101.489	-0.153	0.037
-372.815	-131.276	-0.117	-0.015
-371.800	-39.882	0.370	0.192
-370.785	-200.000	0.016	0.215
-369.771	-200.000	-0.000	0.194
-368.756	67.470	0.285	0.289
-367.742	-82.846	0.165	0.053
-366.727	64.305	0.063	-0.063
-365.712	800.000	-0.056	-0.228
-364.698	-123.956	0.076	0.012
-363.683	-110.807	0.555	0.113
-362.669	-43.314	0.227	-0.114
-361.654	-200.000	-0.005	-0.242
-360.639	-200.000	-0.012	-0.156
-359.625	-58.964	-0.363	-0.155
-358.610	-200.000	-0.009	0.149
-357.596	18.526	0.172	-0.136
-356.581	-128.145	0.267	0.038
-355.566	-111.999	-0.169	0.034
-354.552	114.236	-0.154	-0.186
-353.537	800.000	-0.051	-0.196
-352.523	23.808	0.087	-0.071
-351.508	-39.338	-0.234	0.122
-350.493	615.191	-0.091	0.227
-349.479	-200.000	0.030	0.345
-348.464	-146.664	0.475	-0.041
-347.450	-200.000	-0.013	0.185
-346.435	4.414	0.135	0.098
-345.420	84.400	0.093	0.101
-344.406	187.201	0.134	-0.198
-343.391	-21.266	0.210	-0.127
-342.377	800.000	0.024	0.095
-341.362	76.660	-0.195	-0.205
-340.348	-157.729	-0.228	-0.013
-339.333	444.619	-0.078	-0.169
-338.318	242.684	-0.177	-0.294
-337.304	-200.000	-0.030	0.160
-336.289	679.873	0.173	0.447
-335.275	-42.662	0.247	0.124
-334.260	-80.171	-0.084	0.028
-333.245	617.137	-0.080	0.198
-332.231	-200.000	0.051	-0.237
-331.216	-200.000	-0.025	0.122
-330.202	-40.307	-0.239	0.123
-329.187	469.389	0.115	-0.256
-328.172	-200.000	0.049	0.484
-327.158	-140.638	0.091	0.009
-326.143	-97.258	0.296	0.077
-325.129	300.669	-0.083	0.151
-324.114	98.831	-0.160	0.183
-323.099	-161.888	0.257	-0.013
-322.085	-2.699	0.134	0.093
-321.070	-200.000	0.050	0.293
-320.056	66.063	0.013	0.013
-319.041	39.185	-0.131	-0.116
-318.026	-47.026	0.036	0.018
-317.012	-200.000	0.013	-0.193
-315.997	223.999	-0.094	-0.151
-314.983	118.785	-0.115	0.141
-313.968	46.590	-0.127	-0.117
-312.953	-200.000	-0.045	-0.323
-311.939	132.378	0.116	0.148
-310.924	-188.288	-0.168	0.002
-309.910	-44.615	0.243	-0.120
-308.895	124.134	-0.092	0.115
-307.880	-108.979	-0.092	0.019
-306.866	-200.000	-0.031	0.302
-305.851	800.000	0.097	-0.287
-304.837	-75.035	-0.130	0.046
-303.822	-139.442	-0.390	-0.041
-302.807	18.054	0.171	-0.135
-301.793	-57.652	0.356	-0.154
-300.778	800.000	-0.047	-0.174
-299.764	-85.288	-0.293	-0.090
-298.749	-94.201	-0.082	0.022
-297.735	360.461	0.267	-0.528
-296.720	199.410	-0.163	-0.248
-295.705	15.135	0.064	0.050
-294.691	-186.250	-0.177	0.003
-293.676	-85.902	0.302	-0.092
-292.662	28.470	-0.255	-0.213
-291.647	-200.000	-0.025	0.210
-290.632	-12.905	0.091	-0.059
-289.618	-200.000	-0.006	-0.191
-288.603	46.160	-0.252	0.231
-287.589	113.167	0.063	-0.076
-286.574	148.771	-0.030	-0.040
-285.559	800.000	0.085	-0.301
-284.545	-39.421	0.098	-0.051
-283.530	89.599	0.063	-0.069
-282.516	-49.826	0.346	-0.162
-281.501	-57.968	0.196	-0.084
-280.486	32.474	0.192	0.164
-279.472	-42.395	0.104	-0.052
-278.457	800.000	-0.094	0.310
-277.443	-111.780	0.092	0.018
-276.428	777.329	0.045	-0.122
-275.413	-200.000	-0.000	-0.207
-274.399	-122.863	-0.099	0.016
-273.384	-200.000	0.009	-0.044
-272.370	800.000	0.066	-0.284
-271.355	335.099	-0.130	0.250
-270.340	-200.000	-0.084	0.378
-269.326	-163.144	0.242	-0.012
-268.311	213.124	0.193	0.301
-267.297	208.529	0.082	-0.126
-266.282	784.867	0.131	0.355
-265.267	59.563	-0.129	-0.126
-264.253	-54.248	-0.212	-0.095
-263.238	-84.506	0.165	0.052
-262.224	-81.259	0.088	0.029
-261.209	-108.510	-0.216	-0.046
-260.195	173.769	0.053	0.075
-259.180	402.395	-0.069	-0.144
-258.165	-147.379	-0.152	-0.013
-257.151	14.749	0.137	0.106
-256.136	233.818	0.169	-0.274
-255.122	-30.869	0.127	-0.071
-254.107	-17.869	0.127	-0.079
-253.092	9.612	0.200	0.149
-252.078	-200.000	0.015	0.266
-251.063	-117.886	-0.194	0.034
-250.049	-107.711	0.305	0.066
-249.034	-200.000	0.015	0.219
-248.019	800.000	-0.033	0.095
-247.005	36.548	0.317	-0.276
-245.990	-138.777	-0.007	0.001
-244.976	-11.269	0.144	-0.094
-243.961	38.985	0.065	-0.057
-242.946	15.722	-0.138	0.107
-241.932	-53.331	0.167	0.076
-240.917	-64.889	0.579	-0.231
-239.903	-200.000	0.010	-0.294
-238.888	380.965	0.061	-0.125
-237.873	-129.383	0.162	-0.022
-236.859	652.806	-0.037	-0.095
-235.844	800.000	-0.050	0.163
-234.830	800.000	0.012	0.038
-233.815	2.689	0.273	-0.195
-232.800	-10.178	-0.057	-0.037
-231.786	-131.900	0.157	-0.020
-230.771	123.332	-0.263	0.325
-229.757	-200.000	0.069	0.465
-228.742	-200.000	-0.030	0.163
-227.727	-200.000	0.001	0.161
-226.713	-200.000	-0.005	0.127
-225.698	612.467	-0.114	-0.281
-224.684	32.170	-0.023	-0.020
-223.669	-90.083	-0.320	0.092
-222.655	330.574	0.113	-0.216
-221.640	-200.000	0.010	0.308
-220.625	721.512	-0.058	-0.153
-219.611	148.562	0.190	0.254
-218.596	-103.235	0.183	-0.043
-217.582	218.552	0.083	-0.130
-216.567	800.000	-0.043	0.155
-215.552	-82.408	-0.139	0.045
-214.538	145.887	-0.124	-0.164
-213.523	-91.312	-0.242	0.068
-212.509	483.268	-0.139	-0.311
-211.494	279.381	0.141	-0.248
-210.479	-6.899	0.188	-0.126
-209.465	800.000	0.062	0.212
-208.450	-200.000	0.019	0.220
-207.436	-20.036	-0.227	-0.138
-206.421	-122.551	0.048	-0.008
-205.406	-56.055	0.135	-0.059
-204.392	6.315	0.065	0.048
-203.377	-200.000	-0.001	0.194
-202.363	-55.154	0.340	0.151
-201.348	-82.524	0.171	0.055
-200.333	-200.000	-0.011	0.095
-199.319	-108.632	-0.272	-0.058
-198.304	363.882	0.020	-0.040
-197.290	-119.536	-0.225	0.038
-196.275	632.209	0.058	0.144
-195.260	75.454	0.225	-0.234
-194.246	-200.000	0.022	0.000
-193.231	167.500	0.031	-0.043
-192.217	118.047	-0.218	-0.265
-191.202	-98.905	-0.294	0.074
-190.187	50.863	-0.202	0.188
-189.173	357.114	-0.176	-0.346
-188.158	800.000	-0.076	0.284
-187.144	-96.905	0.084	-0.022
-186.129	-56.473	-0.320	-0.140
-185.114	-120.928	0.157	-0.026
-184.100	127.864	0.199	-0.250
-183.085	79.430	-0.201	-0.212
-182.071	-25.594	0.254	0.147
-181.056	800.000	0.059	0.174
-180.042	8.579	0.074	0.055
-179.027	800.000	0.043	-0.155
-178.012	506.558	0.087	-0.199
-176.998	-200.000	-0.084	-0.381
-175.983	38.171	0.088	-0.077
-174.969	800.000	-0.127	-0.351
-173.954	71.198	0.216	-0.221
-172.939	-122.890	0.453	0.072
-171.925	800.000	-0.053	-0.146
-170.910	14.245	-0.205	-0.158
-169.896	-61.384	-0.080	0.033
-168.881	138.653	0.217	0.281
-167.866	-200.000	-0.022	0.122
-166.852	518.404	0.033	-0.077
-165.837	-24.991	-0.048	-0.028
-164.823	-70.267	0.099	-0.037
-163.808	-200.000	-0.006	-0.166
-162.793	-93.298	0.077	-0.021
-161.779	-200.000	0.001	0.074
-160.764	257.282	0.037	0.062
-159.750	-37.293	-0.224	-0.118
-158.735	171.388	0.068	0.096
-157.720	-187.828	-0.317	0.004
-156.706	-95.243	0.085	-0.022
-155.691	339.686	-0.034	0.064
-154.677	-200.000	0.016	-0.156
-153.662	-45.779	-0.282	-0.137
-152.647	129.353	0.106	0.133
-151.633	30.648	-0.353	0.297
-150.618	800.000	-0.054	0.191
-149.604	-18.167	0.068	-0.042
-148.589	800.000	0.062	0.222
-147.574	52.646	0.208	-0.195
-146.560	-104.164	-0.296	-0.068
-145.545	78.983	-0.243	0.256
-144.531	-14.631	0.336	0.213
-143.516	488.322	0.030	0.067
-142.502	389.668	0.147	0.299
-141.487	102.443	0.142	-0.163
-140.472	103.534	0.377	-0.435
-139.458	439.940	-0.104	0.223
-138.443	-84.973	-0.170	-0.053
-137.429	-141.507	-0.285	-0.028
-136.414	-58.659	0.186	-0.079
-135.399	298.645	0.128	-0.232
-134.385	204.313	0.134	0.204
-133.370	-20.546	0.328	0.198
-132.356	118.594	0.281	-0.341
-131.341	153.290	-0.019	0.025
-130.326	101.720	-0.161	-0.184
-129.312	296.313	-0.095	-0.172
-128.297	-183.379	-0.227	0.004
-127.283	59.903	-0.103	0.100
-126.268	13.383	0.107	-0.082
-125.253	-200.000	0.025	-0.113
-124.239	665.335	0.090	-0.227
-123.224	-63.095	0.188	0.076
-122.210	-51.673	0.309	-0.142
