DTS Sentinel unit serial number:	SN413079Multiplexer serial number:	ORYXHardware model number:	OX4-SRSoftware version number:	ORYX F/W v4.00 Oryx Data Collector v3.7.2.0data status	okinstallation	princeton_trtdifferential loss correction	single-endedforward channel	channel 1reverse channel	N/Adate	2019/09/13time	13:06:35forward acquisition time	60.00reverse acquisition time	0.00gamma	496.2192k internal	0.2305k external	0.2305temperature offset calibration	1.0166default loss term (dB/km)	0.3790temperature slope calibration	1.0000multiplexer offset coefficient	1.0000multiplexer slope coefficient	1.0000fibre end	0.00T internal ref (°C)	34.81T ext. ref 1 (°C)	4.55T ext. ref 2 (°C)	31.41length (m)	temperature (°C)	Stokes	anti-Stokes-747.200	130.537	-0.237	0.309
-746.185	-51.437	-0.331	0.158
-745.171	-120.573	0.211	0.036
-744.156	-164.647	-0.547	0.025
-743.142	526.048	-0.025	-0.060
-742.127	-101.579	-0.385	0.095
-741.112	28.712	-0.040	0.034
-740.098	-41.354	0.079	-0.042
-739.083	141.052	-0.048	0.064
-738.069	-200.000	-0.023	-0.336
-737.054	-200.000	-0.020	-0.111
-736.039	800.000	0.038	0.145
-735.025	-200.000	0.157	-0.001
-734.010	-200.000	-0.050	-0.411
-732.996	64.154	-0.055	0.056
-731.981	-92.547	-0.206	0.059
-730.966	211.586	-0.053	-0.084
-729.952	-103.294	-0.449	-0.108
-728.937	92.552	-0.188	-0.215
-727.923	-200.000	0.048	0.227
-726.908	800.000	-0.057	-0.252
-725.894	-72.831	-0.189	0.071
-724.879	139.986	-0.047	-0.063
-723.864	-200.000	-0.001	-0.259
-722.850	11.177	-0.406	-0.316
-721.835	-109.139	-0.366	0.079
-720.821	-2.168	-0.217	0.155
-719.806	800.000	-0.113	-0.369
-718.791	-30.080	-0.277	-0.160
-717.777	209.756	0.098	-0.157
-716.762	-34.763	0.050	-0.028
-715.748	-156.489	0.077	0.005
-714.733	-200.000	0.017	-0.160
-713.718	-93.942	-0.442	-0.123
-712.704	660.099	-0.106	0.279
-711.689	-200.000	-0.018	0.205
-710.675	-200.000	0.004	0.036
-709.660	23.422	-0.091	-0.076
-708.645	48.997	0.376	0.359
-707.631	-198.658	-0.139	-0.001
-706.616	99.044	0.227	0.266
-705.602	-33.018	0.101	-0.057
-704.587	-129.617	0.517	-0.073
-703.572	61.566	0.119	0.120
-702.558	-200.000	0.024	0.201
-701.543	-111.167	0.263	0.055
-700.529	38.502	0.120	0.109
-699.514	-77.096	0.255	-0.090
-698.499	201.061	0.068	-0.107
-697.485	-124.989	0.093	0.014
-696.470	265.212	0.059	0.105
-695.456	800.000	0.031	-0.121
-694.441	418.517	0.048	0.104
-693.426	-200.000	0.023	-0.252
-692.412	-146.325	0.276	-0.025
-691.397	-77.354	0.149	-0.053
-690.383	-98.799	-0.067	0.017
-689.368	-162.986	-0.059	0.003
-688.354	314.450	0.059	0.112
-687.339	156.407	0.147	0.205
-686.324	-169.057	-0.316	-0.012
-685.310	-137.020	-0.325	-0.038
-684.295	131.507	-0.183	0.240
-683.281	-94.533	-0.102	0.028
-682.266	-200.000	0.033	-0.234
-681.251	70.079	0.049	0.052
-680.237	-200.000	0.028	0.170
-679.222	24.178	0.347	-0.291
-678.208	-200.000	0.043	0.203
-677.193	-108.623	0.153	0.033
-676.178	-200.000	0.024	0.142
-675.164	117.932	0.050	-0.063
-674.149	-143.224	0.422	0.041
-673.135	-133.249	-0.296	-0.038
-672.120	-91.180	-0.103	-0.030
-671.105	109.324	0.085	-0.103
-670.091	105.001	-0.055	-0.066
-669.076	88.017	0.072	-0.081
-668.062	-200.000	0.001	0.068
-667.047	-141.413	0.401	0.041
-666.032	-84.883	0.044	0.014
-665.018	-200.000	0.067	-0.334
-664.003	-83.196	0.249	-0.081
-662.989	-6.450	0.035	-0.024
-661.974	-200.000	0.045	-0.514
-660.959	-1.766	0.121	-0.087
-659.945	702.146	-0.070	-0.188
-658.930	-84.834	0.279	0.089
-657.916	-200.000	-0.031	0.203
-656.901	10.450	-0.271	0.209
-655.886	35.707	-0.153	0.137
-654.872	-200.000	0.070	-0.378
-653.857	161.499	0.134	-0.190
-652.843	800.000	-0.044	-0.167
-651.828	-101.572	0.154	0.038
-650.814	-200.000	-0.082	-0.404
-649.799	-107.646	-0.142	0.032
-648.784	24.467	-0.205	-0.172
-647.770	-43.808	-0.150	-0.077
-646.755	800.000	0.066	-0.251
-645.741	-63.822	0.055	-0.023
-644.726	5.341	0.043	0.032
-643.711	402.290	-0.145	-0.309
-642.697	-67.134	0.186	-0.074
-641.682	340.309	-0.136	-0.269
-640.668	21.779	-0.102	0.084
-639.653	-57.419	-0.296	-0.132
-638.638	102.785	0.131	0.156
-637.624	-200.000	0.014	0.076
-636.609	28.080	0.265	0.226
-635.595	800.000	-0.016	0.051
-634.580	-179.539	-0.306	0.007
-633.565	26.470	-0.136	-0.116
-632.551	-82.893	0.054	0.018
-631.536	800.000	-0.029	0.091
-630.522	-65.457	0.176	0.072
-629.507	800.000	0.065	0.194
-628.492	-200.000	-0.005	0.211
-627.478	-172.545	0.192	-0.006
-626.463	-200.000	0.009	-0.064
-625.449	-78.768	-0.227	0.079
-624.434	-200.000	0.025	0.235
-623.419	-170.334	-0.231	0.008
-622.405	43.697	-0.102	-0.094
-621.390	-114.405	-0.341	-0.066
-620.376	-16.845	0.121	0.078
-619.361	215.648	0.157	0.252
-618.346	77.635	-0.187	0.202
-617.332	-107.770	-0.151	-0.033
-616.317	800.000	0.061	-0.246
-615.303	72.130	-0.239	-0.252
-614.288	-200.000	0.010	-0.208
-613.273	-200.000	0.036	-0.259
-612.259	-87.974	-0.415	-0.126
-611.244	52.562	-0.163	0.158
-610.230	370.523	-0.042	0.087
-609.215	273.302	0.156	0.279
-608.201	800.000	0.077	0.217
-607.186	800.000	-0.040	-0.160
-606.171	30.838	0.309	-0.268
-605.157	-200.000	-0.012	-0.191
-604.142	249.158	-0.129	0.221
-603.128	-159.736	-0.214	-0.012
-602.113	-80.989	-0.164	0.055
-601.098	-200.000	0.002	-0.158
-600.084	800.000	0.053	0.171
-599.069	800.000	-0.050	-0.161
-598.055	-200.000	0.005	0.164
-597.040	-200.000	-0.009	0.070
-596.025	394.167	0.126	-0.266
-595.011	-74.141	0.181	-0.066
-593.996	-200.000	-0.029	-0.132
-592.982	-46.462	0.194	0.097
-591.967	-59.925	0.274	-0.119
-590.952	-114.760	-0.370	-0.072
-589.938	-28.396	-0.333	0.194
-588.923	-31.223	-0.187	-0.106
-587.909	-200.000	0.003	-0.279
-586.894	-200.000	-0.021	-0.281
-585.879	149.049	-0.302	-0.413
-584.865	39.456	-0.103	-0.093
-583.850	-200.000	-0.035	-0.159
-582.836	-127.548	0.207	0.030
-581.821	-200.000	0.013	0.166
-580.806	-104.486	0.111	0.026
-579.792	-100.350	-0.394	0.099
-578.777	358.388	0.124	0.250
-577.763	-41.639	-0.140	0.073
-576.748	-151.382	0.269	-0.020
-575.733	-200.000	-0.035	0.280
-574.719	-40.335	-0.297	0.156
-573.704	5.250	0.238	0.178
-572.690	-200.000	0.093	-0.453
-571.675	519.047	0.068	-0.162
-570.661	441.607	-0.133	-0.295
-569.646	241.930	-0.154	-0.260
-568.631	-25.695	-0.271	-0.161
-567.617	-200.000	-0.007	-0.291
-566.602	-200.000	0.031	-0.214
-565.588	800.000	0.074	0.209
-564.573	-82.632	0.117	-0.038
-563.558	122.709	0.235	-0.298
-562.544	-170.534	0.150	0.005
-561.529	636.147	-0.166	-0.426
-560.515	800.000	0.007	0.022
-559.500	92.339	0.140	-0.160
-558.485	-200.000	0.009	-0.094
-557.471	-108.379	0.212	-0.046
-556.456	12.728	0.146	-0.114
-555.442	-191.419	0.281	-0.003
-554.427	-17.345	0.185	-0.118
-553.412	800.000	-0.024	0.104
-552.398	59.225	-0.231	-0.230
-551.383	800.000	-0.088	0.257
-550.369	-200.000	0.142	-0.000
-549.354	-200.000	0.025	-0.196
-548.339	67.258	-0.097	0.100
-547.325	-94.474	-0.328	0.090
-546.310	68.710	0.073	0.076
-545.296	-2.203	-0.168	0.119
-544.281	12.972	-0.180	0.141
-543.266	800.000	0.025	0.104
-542.252	-58.093	0.446	-0.197
-541.237	-66.947	0.121	-0.048
-540.223	411.151	0.037	0.079
-539.208	-78.820	0.232	-0.080
-538.193	54.635	0.056	0.055
-537.179	-200.000	0.078	0.345
-536.164	-103.882	-0.280	-0.066
-535.150	65.597	-0.231	-0.236
-534.135	42.957	-0.073	0.067
-533.121	-21.386	0.108	-0.067
-532.106	-90.093	-0.222	0.065
-531.091	-200.000	0.093	-0.441
-530.077	510.707	-0.121	0.283
-529.062	64.546	0.110	0.112
-528.048	-168.491	0.071	0.003
-527.033	498.219	0.054	0.126
-526.018	96.791	-0.209	0.242
-525.004	117.068	-0.038	-0.047
-523.989	144.545	-0.095	-0.128
-522.975	210.211	0.133	0.210
-521.960	-104.518	-0.116	-0.027
-520.945	263.154	-0.068	0.120
-519.931	43.885	0.164	-0.152
-518.916	-200.000	0.009	-0.198
-517.902	-40.488	0.191	-0.100
-516.887	236.421	-0.158	0.265
-515.872	-69.884	-0.201	0.078
-514.858	-200.000	0.060	0.285
-513.843	198.298	-0.297	0.459
-512.829	637.190	0.074	-0.188
-511.814	-103.206	0.322	0.077
-510.799	-161.114	0.185	0.010
-509.785	35.060	-0.082	-0.072
-508.770	-68.811	-0.116	0.045
-507.756	-107.871	-0.198	-0.043
-506.741	15.438	-0.241	0.191
-505.726	-200.000	0.037	0.319
-504.712	-157.969	-0.416	0.025
-503.697	172.287	-0.027	0.039
-502.683	-32.716	0.208	0.116
-501.668	415.862	0.126	0.271
-500.653	-200.000	0.041	-0.211
-499.639	-200.000	0.015	0.221
-498.624	800.000	-0.053	0.152
-497.610	800.000	-0.022	0.078
-496.595	-29.378	-0.063	0.036
-495.581	-200.000	0.066	-0.313
-494.566	-200.000	0.011	-0.198
-493.551	686.529	-0.122	-0.320
-492.537	-200.000	0.005	-0.079
-491.522	800.000	0.019	-0.059
-490.508	-17.980	-0.149	-0.094
-489.493	-107.522	0.187	0.041
-488.478	-141.049	0.060	0.006
-487.464	-10.738	-0.137	-0.091
-486.449	-19.737	-0.225	0.140
-485.435	-108.620	0.294	0.064
-484.420	-77.934	-0.284	0.099
-483.405	557.991	-0.058	-0.142
-482.391	-52.491	-0.054	-0.025
-481.376	-200.000	-0.039	0.185
-480.362	-186.851	-0.320	-0.005
-479.347	-200.000	0.011	0.189
-478.332	800.000	0.032	0.099
-477.318	537.773	0.026	-0.062
-476.303	-200.000	-0.002	-0.337
-475.289	84.934	0.094	-0.104
-474.274	-136.267	-0.167	-0.020
-473.259	-97.625	0.226	0.059
-472.245	-96.313	0.549	-0.146
-471.230	-90.515	0.245	-0.071
-470.216	-112.814	-0.339	0.068
-469.201	-200.000	0.011	0.153
-468.186	370.435	0.166	-0.340
-467.172	-107.950	-0.124	-0.027
-466.157	79.824	0.076	0.082
-465.143	-88.308	-0.218	-0.066
-464.128	-90.295	0.503	-0.147
-463.113	166.108	-0.100	-0.143
-462.099	2.198	-0.145	-0.106
-461.084	-200.000	0.006	-0.062
-460.070	800.000	0.025	-0.105
-459.055	8.919	0.078	-0.059
-458.040	259.601	-0.164	0.284
-457.026	657.627	0.164	0.425
-456.011	61.755	-0.129	-0.129
-454.997	114.833	0.072	-0.089
-453.982	-45.357	0.153	0.076
-452.968	-7.537	-0.084	0.057
-451.953	378.917	-0.051	-0.105
-450.938	352.355	0.122	0.243
-449.924	-176.223	0.024	-0.001
-448.909	-100.872	0.134	-0.033
-447.895	-189.266	-0.145	0.002
-446.880	38.238	0.141	0.126
-445.865	102.505	0.132	-0.156
-444.851	-1.232	0.223	-0.158
-443.836	117.407	0.111	0.137
-442.822	-185.433	0.371	0.006
-441.807	800.000	0.044	-0.154
-440.792	99.093	0.017	0.020
-439.778	800.000	0.052	-0.195
-438.763	-1.723	0.248	0.175
-437.749	409.769	-0.066	0.140
-436.734	800.000	0.141	0.437
-435.719	800.000	0.086	0.314
-434.705	17.046	-0.190	-0.152
-433.690	603.289	-0.032	0.079
-432.676	-200.000	-0.012	0.206
-431.661	390.947	-0.219	0.458
-430.646	472.809	-0.115	-0.260
-429.632	158.832	-0.130	-0.181
-428.617	93.088	0.110	-0.125
-427.603	-200.000	-0.039	0.182
-426.588	-85.153	0.134	0.042
-425.573	-95.350	0.219	0.059
-424.559	-16.458	0.187	0.119
-423.544	800.000	-0.035	0.143
-422.530	120.632	-0.137	-0.171
-421.515	323.915	-0.052	-0.099
-420.500	800.000	0.020	0.063
-419.486	-103.404	0.176	0.042
-418.471	172.534	0.100	-0.145
-417.457	-99.527	0.202	-0.051
-416.442	139.498	0.102	0.135
-415.428	-155.467	0.189	0.012
-414.413	-200.000	-0.015	-0.076
-413.398	-135.092	-0.139	0.017
-412.384	800.000	-0.079	0.240
-411.369	68.333	0.069	-0.071
-410.355	-45.568	-0.284	0.141
-409.340	-76.538	0.305	0.108
-408.325	-200.000	-0.005	-0.104
-407.311	-200.000	0.004	0.069
-406.296	-119.115	0.106	0.019
-405.282	-200.000	0.072	0.504
-404.267	-65.308	-0.166	0.067
-403.252	605.325	0.128	-0.319
-402.238	-160.934	0.229	-0.012
-401.223	-137.503	0.198	0.022
-400.209	145.771	0.060	0.081
-399.194	-200.000	0.053	0.428
-398.179	-37.773	-0.055	-0.029
-397.165	800.000	-0.081	-0.289
-396.150	-163.016	-0.294	0.014
-395.136	182.457	0.166	-0.246
-394.121	-200.000	0.043	-0.219
-393.106	-135.575	-0.218	0.026
-392.092	60.881	0.069	-0.069
-391.077	133.998	0.066	0.085
-390.063	-32.417	-0.145	-0.081
-389.048	-10.205	0.303	-0.202
-388.033	-160.056	-0.178	-0.010
-387.019	-129.895	0.247	0.034
-386.004	-90.997	0.161	0.047
-384.990	-36.015	-0.056	0.030
-383.975	28.891	0.288	-0.245
-382.960	735.463	0.061	0.165
-381.946	623.013	-0.062	-0.156
-380.931	-158.833	0.283	-0.016
-379.917	-141.042	0.097	0.010
-378.902	-73.307	-0.106	-0.039
-377.888	-200.000	0.007	0.122
-376.873	-181.038	-0.477	0.010
-375.858	201.060	-0.090	-0.138
-374.844	-17.758	0.295	-0.186
-373.829	-77.373	-0.353	0.123
-372.815	800.000	-0.095	0.297
-371.800	-5.409	0.324	0.223
-370.785	-149.619	0.204	0.016
-369.771	16.478	-0.124	-0.098
-368.756	-200.000	-0.032	0.263
-367.742	116.208	-0.097	0.119
-366.727	-50.169	0.301	0.143
-365.712	-41.460	0.144	0.075
-364.698	66.952	-0.192	-0.196
-363.683	-150.682	0.286	-0.022
-362.669	4.894	-0.255	0.188
-361.654	800.000	-0.022	0.076
-360.639	-200.000	-0.013	0.172
-359.625	347.270	-0.144	-0.285
-358.610	-156.223	0.362	0.023
-357.596	107.320	-0.228	-0.271
-356.581	-7.142	-0.158	0.108
-355.566	-200.000	-0.036	0.188
-354.552	-200.000	-0.003	0.226
-353.537	458.556	-0.131	0.293
-352.523	430.129	0.071	-0.154
-351.508	-55.220	-0.222	-0.100
-350.493	-57.275	0.326	0.144
-349.479	-131.641	0.168	0.022
-348.464	-200.000	-0.016	0.080
-347.450	-48.159	0.072	0.035
-346.435	-0.058	0.163	0.116
-345.420	6.115	0.075	0.056
-344.406	-165.884	-0.016	0.001
-343.391	83.156	0.100	0.109
-342.377	-111.863	0.294	0.059
-341.362	-200.000	-0.002	-0.170
-340.348	800.000	0.005	-0.019
-339.333	-155.559	0.523	0.034
-338.318	100.047	-0.097	-0.113
-337.304	-57.462	0.183	-0.080
-336.289	312.844	-0.052	0.097
-335.275	208.891	-0.115	0.180
-334.260	-175.454	-0.460	0.013
-333.245	-175.067	-0.178	0.005
-332.231	712.295	-0.034	-0.090
-331.216	35.759	-0.088	-0.078
-330.202	-130.310	-0.071	0.010
-329.187	-200.000	-0.035	0.179
-328.172	-200.000	-0.006	0.040
-327.158	153.732	-0.207	0.284
-326.143	800.000	-0.033	-0.136
-325.129	800.000	-0.083	0.336
-324.114	552.469	0.136	-0.326
-323.099	82.511	0.097	0.106
-322.085	102.205	0.124	0.145
-321.070	715.351	-0.082	0.219
-320.056	-89.452	-0.116	0.034
-319.041	-41.837	0.147	-0.075
-318.026	-31.943	0.119	-0.067
-317.012	-44.625	-0.176	0.088
-315.997	-200.000	0.009	-0.217
-314.983	374.576	-0.032	-0.065
-313.968	375.640	0.032	-0.066
-312.953	-147.574	-0.113	0.010
-311.939	11.121	-0.106	-0.081
-310.924	-174.313	0.484	0.014
-309.910	800.000	0.032	-0.108
-308.895	-99.504	0.230	-0.058
-307.880	260.138	-0.159	-0.275
-306.866	-136.108	0.135	0.016
-305.851	-30.773	0.070	0.040
-304.837	-200.000	-0.043	0.294
-303.822	71.148	-0.154	-0.160
-302.807	800.000	-0.101	0.409
-301.793	192.619	-0.134	0.202
-300.778	-79.143	0.281	0.096
-299.764	-200.000	-0.004	-0.164
-298.749	800.000	-0.018	0.070
-297.735	-169.636	0.108	-0.004
-296.720	-200.000	0.039	-0.442
-295.705	9.611	-0.138	-0.104
-294.691	-56.526	0.264	-0.117
-293.676	209.590	0.048	-0.075
-292.662	11.726	-0.098	0.076
-291.647	396.679	0.028	-0.059
-290.632	800.000	0.022	-0.074
-289.618	117.420	-0.123	-0.151
-288.603	-106.556	0.111	0.025
-287.589	9.925	-0.164	-0.124
-286.574	81.022	0.079	0.085
-285.559	230.689	0.089	-0.145
-284.545	-72.652	-0.292	-0.108
-283.530	-200.000	-0.022	0.215
-282.516	240.587	-0.044	-0.073
-281.501	-122.139	0.129	0.021
-280.486	-200.000	-0.009	0.121
-279.472	729.783	-0.068	-0.181
-278.457	54.079	0.223	0.214
-277.443	-200.000	-0.022	-0.121
-276.428	-1.045	0.143	0.101
-275.413	180.525	-0.078	0.114
-274.399	155.789	0.070	0.096
-273.384	-10.154	-0.176	-0.117
-272.370	236.733	-0.236	-0.391
-271.355	181.247	-0.078	-0.114
-270.340	-58.800	-0.156	0.067
-269.326	32.443	0.082	-0.071
-268.311	-126.037	-0.199	-0.030
-267.297	108.618	-0.244	-0.291
-266.282	63.781	0.080	0.080
-265.267	-39.400	-0.201	0.105
-264.253	800.000	-0.031	-0.103
-263.238	-92.102	0.210	0.059
-262.224	800.000	-0.052	0.147
-261.209	-2.469	-0.078	0.055
-260.195	-101.491	0.174	0.042
-259.180	-88.187	0.339	0.101
-258.165	800.000	-0.028	-0.078
-257.151	124.409	-0.228	-0.287
-256.136	-200.000	-0.062	-0.290
-255.122	188.958	-0.199	0.297
-254.107	-0.119	0.121	0.086
-253.092	-56.112	0.300	0.133
-252.078	227.184	-0.097	0.157
-251.063	40.112	-0.039	0.035
-250.049	609.654	-0.024	0.059
-249.034	18.805	-0.365	0.291
-248.019	-200.000	-0.045	-0.271
-247.005	-5.391	0.054	0.037
-245.990	-200.000	0.037	-0.167
-244.976	144.229	-0.233	0.311
-243.961	-123.141	0.180	-0.029
-242.946	46.256	0.066	-0.061
-241.932	237.992	-0.047	0.078
-240.917	109.989	0.187	-0.224
-239.903	800.000	-0.110	-0.448
-238.888	-33.963	0.101	-0.055
-237.873	-200.000	0.010	0.138
-236.859	-200.000	0.012	-0.050
-235.844	-200.000	-0.001	0.365
-234.830	-20.028	0.217	0.133
-233.815	-200.000	0.051	-0.315
-232.800	800.000	0.070	-0.202
-231.786	800.000	0.090	0.367
-230.771	-177.926	-0.251	-0.006
-229.757	58.352	-0.077	0.075
-228.742	20.072	-0.183	-0.147
-227.727	335.117	-0.041	-0.080
-226.713	167.646	-0.120	0.170
-225.698	61.073	-0.155	0.154
-224.684	381.125	-0.037	-0.075
-223.669	-200.000	-0.045	-0.226
-222.655	-200.000	-0.013	0.417
-221.640	278.556	0.195	0.346
-220.625	800.000	-0.069	0.229
-219.611	-108.172	-0.239	0.052
-218.596	-200.000	-0.035	-0.492
-217.582	734.152	0.019	-0.051
-216.567	502.138	0.011	-0.026
-215.552	44.649	0.082	0.075
-214.538	-200.000	-0.055	-0.252
-213.523	-200.000	0.033	-0.176
-212.509	-68.193	-0.099	-0.038
-211.494	8.000	0.076	0.057
-210.479	38.655	-0.115	-0.103
-209.465	49.709	0.278	-0.261
-208.450	-92.721	-0.149	0.042
-207.436	-200.000	-0.011	0.171
-206.421	-200.000	0.046	-0.289
-205.406	-23.801	0.290	-0.173
-204.392	-200.000	-0.001	0.043
-203.377	576.417	-0.096	-0.234
-202.363	29.592	0.365	-0.310
-201.348	-200.000	0.000	0.175
-200.333	-200.000	-0.007	0.323
-199.319	386.916	-0.089	-0.183
-198.304	644.150	-0.058	0.147
-197.290	-15.040	-0.191	0.122
-196.275	78.317	0.162	0.173
-195.260	800.000	-0.028	-0.104
-194.246	-16.572	-0.197	-0.124
-193.231	-200.000	0.063	-0.369
-192.217	-105.962	-0.087	-0.019
-191.202	444.446	-0.311	-0.680
-190.187	-96.459	-0.138	-0.036
-189.173	16.025	-0.263	-0.207
-188.158	-200.000	-0.023	0.112
-187.144	-200.000	-0.037	0.263
-186.129	800.000	-0.044	0.133
-185.114	-108.708	0.246	0.053
-184.100	21.399	-0.145	-0.117
-183.085	36.698	0.112	-0.099
-182.071	-200.000	0.011	0.210
-181.056	-157.858	-0.336	-0.020
-180.042	-102.355	0.160	-0.038
-179.027	-84.139	0.173	0.055
-178.012	225.322	0.060	0.097
-176.998	800.000	-0.031	0.104
-175.983	-200.000	0.080	-0.353
-174.969	-154.935	0.157	-0.010
-173.954	800.000	0.126	0.366
-172.939	114.084	-0.150	0.182
-171.925	19.954	0.252	0.202
-170.910	32.186	-0.207	-0.178
-169.896	-84.946	0.396	-0.124
-168.881	800.000	-0.063	0.185
-167.866	275.028	-0.121	-0.213
-166.852	-200.000	0.065	0.407
-165.837	-17.022	0.236	0.148
-164.823	800.000	-0.017	0.050
-163.808	-200.000	-0.035	0.301
-162.793	221.822	0.018	0.029
-161.779	194.889	0.038	0.058
-160.764	560.028	0.101	0.242
-159.750	-82.164	-0.217	-0.071
-158.735	74.115	0.081	-0.084
-157.720	800.000	-0.061	0.217
-156.706	800.000	-0.062	0.186
-155.691	-16.140	0.125	0.079
-154.677	297.500	-0.109	-0.198
-153.662	39.112	-0.101	-0.090
-152.647	29.206	0.267	-0.225
-151.633	-67.022	-0.142	-0.056
-150.618	-200.000	-0.002	-0.178
-149.604	-88.341	0.046	0.014
-148.589	-86.562	-0.288	0.088
-147.574	115.558	0.188	-0.229
-146.560	13.358	-0.222	-0.171
-145.545	-30.418	0.236	-0.133
-144.531	162.747	-0.093	-0.130
-143.516	-155.846	0.280	0.018
-142.502	-26.596	0.218	-0.127
-141.487	84.548	0.068	-0.075
-140.472	-55.154	-0.134	0.060
-139.458	123.225	0.240	0.299
-138.443	31.881	-0.120	0.103
-137.429	-200.000	0.013	-0.144
-136.414	-20.214	0.216	-0.132
-135.399	-65.932	0.194	0.077
-134.385	60.313	0.125	-0.122
-133.370	-44.284	-0.270	-0.134
-132.356	-72.713	-0.295	0.108
-131.341	-127.093	0.126	0.018
-130.326	52.990	-0.170	-0.161
-129.312	197.020	-0.068	0.104
-128.297	-17.367	0.233	-0.146
-127.283	110.730	-0.211	0.252
-126.268	23.935	0.241	0.198
-125.253	238.076	-0.279	0.461
-124.239	-30.221	-0.293	-0.166
-123.224	397.520	-0.052	0.108
-122.210	-200.000	0.019	-0.111
-121.195	-178.653	-0.251	0.006
