DTS Sentinel unit serial number:	SN413079Multiplexer serial number:	ORYXHardware model number:	OX4-SRSoftware version number:	ORYX F/W v4.00 Oryx Data Collector v3.7.2.0data status	okinstallation	princeton_trtdifferential loss correction	single-endedforward channel	channel 1reverse channel	N/Adate	2019/09/18time	03:42:35forward acquisition time	60.00reverse acquisition time	0.00gamma	496.2192k internal	0.2340k external	0.2340temperature offset calibration	0.9974default loss term (dB/km)	0.3790temperature slope calibration	1.0000multiplexer offset coefficient	1.0000multiplexer slope coefficient	1.0000fibre end	0.00T internal ref (°C)	22.94T ext. ref 1 (°C)	0.18T ext. ref 2 (°C)	18.05length (m)	temperature (°C)	Stokes	anti-Stokes-747.200	-67.328	0.220	0.087
-746.185	338.685	-0.059	-0.116
-745.171	190.972	-0.093	-0.140
-744.156	631.956	-0.122	0.309
-743.142	-25.851	-0.208	0.123
-742.127	438.645	0.055	0.120
-741.112	64.148	-0.050	0.050
-740.098	-200.000	0.033	0.190
-739.083	-200.000	0.037	-0.234
-738.069	104.798	0.168	0.198
-737.054	590.820	-0.144	-0.355
-736.039	800.000	-0.087	-0.271
-735.025	-200.000	0.010	0.045
-734.010	-200.000	-0.026	-0.154
-732.996	-157.195	-0.130	-0.008
-731.981	11.973	-0.181	0.139
-730.966	-68.357	-0.354	-0.138
-729.952	800.000	-0.060	-0.219
-728.937	-132.221	0.088	-0.011
-727.923	-200.000	-0.004	-0.090
-726.908	-84.036	0.134	-0.043
-725.894	-165.655	-0.221	-0.010
-724.879	-33.125	0.208	0.116
-723.864	790.785	-0.072	-0.199
-722.850	124.611	0.059	0.074
-721.835	-122.780	0.138	0.022
-720.821	-200.000	-0.063	0.534
-719.806	33.515	-0.168	-0.146
-718.791	357.648	-0.080	0.159
-717.777	279.822	-0.114	-0.204
-716.762	-90.834	0.117	0.034
-715.748	-74.470	0.057	-0.020
-714.733	-200.000	-0.019	0.343
-713.718	-117.135	-0.421	-0.077
-712.704	-200.000	-0.038	0.241
-711.689	221.102	0.032	-0.052
-710.675	-59.268	-0.238	-0.102
-709.660	-200.000	-0.031	-0.313
-708.645	147.155	0.097	-0.130
-707.631	388.737	-0.117	-0.242
-706.616	-175.299	-0.366	0.010
-705.602	512.437	0.089	-0.207
-704.587	-4.426	0.132	0.092
-703.572	800.000	-0.030	0.125
-702.558	-162.349	0.220	0.011
-701.543	-79.712	0.389	0.131
-700.529	-0.655	0.204	0.145
-699.514	-37.093	0.201	0.108
-698.499	638.676	-0.091	0.231
-697.485	-143.286	-0.143	0.014
-696.470	-200.000	0.023	0.175
-695.456	127.856	-0.185	-0.235
-694.441	800.000	0.059	-0.239
-693.426	58.797	-0.193	-0.190
-692.412	-0.625	-0.247	0.175
-691.397	-15.861	0.049	-0.031
-690.383	800.000	-0.052	-0.184
-689.368	-89.670	-0.300	-0.088
-688.354	85.742	-0.132	0.146
-687.339	-140.652	0.209	0.022
-686.324	415.626	0.053	0.113
-685.310	59.750	0.212	0.209
-684.295	99.333	0.044	0.051
-683.281	-100.713	0.194	-0.048
-682.266	800.000	-0.062	-0.268
-681.251	800.000	-0.066	0.258
-680.237	-200.000	0.036	0.185
-679.222	56.237	0.194	-0.188
-678.208	-53.072	0.340	0.156
-677.193	-158.910	0.247	0.014
-676.178	-200.000	0.021	-0.234
-675.164	124.391	0.130	-0.164
-674.149	72.627	0.155	-0.162
-673.135	-200.000	-0.002	-0.177
-672.120	-102.594	0.163	-0.039
-671.105	-35.763	-0.155	-0.084
-670.091	-172.871	0.154	-0.005
-669.076	-200.000	0.002	-0.034
-668.062	143.322	-0.128	-0.170
-667.047	2.447	0.230	-0.166
-666.032	-76.945	-0.236	0.082
-665.018	-200.000	-0.001	0.232
-664.003	-32.520	-0.187	0.104
-662.989	18.299	0.233	0.186
-661.974	208.172	0.192	-0.300
-660.959	-200.000	0.030	0.177
-659.945	54.027	-0.133	0.128
-658.930	-137.346	0.154	0.017
-657.916	39.935	-0.340	0.305
-656.901	-103.658	-0.166	-0.039
-655.886	350.368	0.118	0.233
-654.872	-60.988	0.155	-0.066
-653.857	-96.861	0.471	0.124
-652.843	-99.932	-0.161	0.040
-651.828	-200.000	-0.035	-0.245
-650.814	159.217	0.076	0.105
-649.799	10.583	-0.103	0.078
-648.784	-61.883	-0.312	0.131
-647.770	40.829	0.140	-0.126
-646.755	800.000	0.100	0.384
-645.741	-63.632	-0.241	0.099
-644.726	-6.233	0.532	0.363
-643.711	-62.285	-0.169	-0.070
-642.697	-200.000	0.017	-0.156
-641.682	-72.542	-0.439	-0.162
-640.668	-71.220	-0.307	-0.115
-639.653	154.727	-0.170	-0.234
-638.638	-200.000	-0.023	0.323
-637.624	-15.510	-0.324	-0.207
-636.609	-176.886	-0.185	0.005
-635.595	-156.699	-0.093	0.006
-634.580	228.526	0.126	-0.205
-633.565	182.987	-0.141	-0.208
-632.551	-200.000	-0.020	0.155
-631.536	-200.000	-0.018	-0.109
-630.522	-97.705	0.158	-0.041
-629.507	-163.085	0.360	0.017
-628.492	800.000	-0.017	-0.058
-627.478	108.039	0.185	0.220
-626.463	-109.888	0.345	0.072
-625.449	51.956	-0.130	-0.124
-624.434	510.063	-0.058	-0.135
-623.419	613.778	-0.086	-0.215
-622.405	111.995	0.251	-0.302
-621.390	124.893	-0.263	0.331
-620.376	225.223	-0.074	0.119
-619.361	40.176	-0.218	0.196
-618.346	-11.703	-0.236	0.155
-617.332	-57.443	-0.252	0.111
-616.317	-200.000	0.002	-0.057
-615.303	-61.096	0.111	0.047
-614.288	-66.466	0.394	0.156
-613.273	-200.000	-0.019	0.141
-612.259	800.000	-0.033	-0.128
-611.244	-200.000	0.011	0.199
-610.230	-200.000	0.003	-0.446
-609.215	87.100	0.185	0.204
-608.201	-48.018	0.095	0.046
-607.186	-200.000	0.057	0.288
-606.171	800.000	0.100	0.325
-605.157	-103.389	-0.182	0.043
-604.142	-200.000	-0.036	0.324
-603.128	-72.098	0.158	0.059
-602.113	800.000	-0.112	-0.312
-601.098	-63.780	-0.296	0.121
-600.084	-200.000	0.017	0.457
-599.069	0.916	0.268	-0.191
-598.055	19.236	0.043	-0.035
-597.040	641.751	-0.062	-0.157
-596.025	-103.512	0.412	-0.097
-595.011	-118.238	-0.305	-0.054
-593.996	47.399	0.359	0.334
-592.982	-200.000	-0.011	0.133
-591.967	-200.000	-0.018	-0.083
-590.952	183.916	-0.081	-0.120
-589.938	146.908	-0.198	-0.265
-588.923	-39.307	-0.076	0.040
-587.909	-37.717	0.093	-0.049
-586.894	-200.000	-0.007	-0.187
-585.879	37.204	-0.169	0.149
-584.865	0.958	-0.347	0.248
-583.850	-200.000	-0.014	0.076
-582.836	800.000	-0.062	0.262
-581.821	9.678	-0.096	-0.072
-580.806	-200.000	-0.018	-0.322
-579.792	-200.000	0.014	-0.129
-578.777	-75.638	-0.082	-0.029
-577.763	255.137	0.196	-0.334
-576.748	38.847	-0.299	0.266
-575.733	-200.000	-0.003	-0.305
-574.719	-63.598	-0.201	0.082
-573.704	-200.000	-0.042	0.242
-572.690	239.856	0.032	-0.054
-571.675	-200.000	0.039	-0.311
-570.661	-90.249	-0.163	0.047
-569.646	247.915	-0.063	-0.106
-568.631	35.073	0.289	0.252
-567.617	218.566	-0.286	0.454
-566.602	-89.426	0.399	-0.117
-565.588	437.309	-0.043	0.093
-564.573	311.500	-0.219	-0.409
-563.558	-200.000	0.025	0.190
-562.544	96.444	-0.175	-0.199
-561.529	-200.000	-0.069	-0.344
-560.515	-93.934	-0.087	0.024
-559.500	419.015	-0.118	0.252
-558.485	-97.476	0.101	0.026
-557.471	-187.489	0.251	-0.003
-556.456	-115.830	0.331	-0.062
-555.442	55.938	0.216	0.208
-554.427	-50.639	0.154	0.072
-553.412	555.494	-0.107	-0.256
-552.398	174.465	0.088	-0.126
-551.383	800.000	-0.094	0.271
-550.369	165.537	0.063	0.089
-549.354	-200.000	-0.064	0.313
-548.339	-111.667	-0.248	0.050
-547.325	-44.796	0.270	0.134
-546.310	-126.392	0.271	-0.040
-545.296	-19.389	0.169	0.104
-544.281	-200.000	0.031	-0.188
-543.266	-33.727	-0.335	0.184
-542.252	-200.000	0.063	-0.364
-541.237	-64.278	-0.316	0.128
-540.223	201.939	-0.120	0.184
-539.208	800.000	0.016	0.046
-538.193	123.662	-0.018	0.022
-537.179	613.354	-0.044	-0.110
-536.164	-69.933	-0.252	0.095
-535.150	-200.000	0.012	0.348
-534.135	-95.288	-0.357	-0.095
-533.121	80.953	-0.162	0.173
-532.106	-200.000	-0.038	0.217
-531.091	-128.023	-0.167	-0.024
-530.077	-200.000	-0.035	0.348
-529.062	-12.742	0.143	0.092
-528.048	800.000	-0.056	0.240
-527.033	-68.089	0.169	0.066
-526.018	-200.000	-0.009	0.310
-525.004	-40.082	0.240	0.124
-523.989	-83.618	0.087	-0.028
-522.975	-151.795	-0.182	-0.013
-521.960	-150.091	-0.334	0.026
-520.945	-200.000	0.034	-0.407
-519.931	-200.000	0.013	-0.129
-518.916	350.084	-0.144	0.283
-517.902	800.000	0.058	-0.196
-516.887	183.131	-0.132	-0.194
-515.872	50.078	-0.205	-0.192
-514.858	18.029	-0.073	-0.058
-513.843	71.102	-0.116	-0.120
-512.829	764.347	-0.021	-0.057
-511.814	448.820	0.175	-0.383
-510.799	126.677	-0.097	-0.123
-509.785	-0.974	-0.111	0.078
-508.770	-200.000	0.004	0.264
-507.756	-200.000	-0.047	0.616
-506.741	-200.000	-0.008	-0.058
-505.726	-86.667	0.381	-0.116
-504.712	-162.716	0.237	0.012
-503.697	-79.621	-0.144	-0.048
-502.683	-200.000	-0.009	-0.127
-501.668	265.596	0.173	-0.299
-500.653	-19.100	0.089	-0.055
-499.639	472.317	-0.119	0.266
-498.624	302.476	-0.107	-0.196
-497.610	193.803	0.087	0.130
-496.595	800.000	0.030	-0.103
-495.581	-15.431	-0.165	-0.105
-494.566	-84.754	0.196	0.061
-493.551	151.963	-0.113	-0.153
-492.537	-155.479	0.105	0.007
-491.522	-165.162	-0.185	0.008
-490.508	-124.898	0.074	-0.011
-489.493	-200.000	-0.086	0.390
-488.478	-18.778	-0.191	0.118
-487.464	-177.396	0.184	-0.004
-486.449	423.326	-0.019	-0.041
-485.435	-200.000	0.026	0.147
-484.420	48.828	-0.254	-0.237
-483.405	21.478	0.036	-0.029
-482.391	78.397	0.116	0.123
-481.376	40.544	0.118	-0.105
-480.362	-145.871	0.267	0.024
-479.347	800.000	-0.087	-0.337
-478.332	-52.526	-0.182	0.083
-477.318	-116.705	0.228	-0.041
-476.303	-65.524	0.321	0.128
-475.289	-120.117	-0.100	0.017
-474.274	800.000	-0.066	0.284
-473.259	-1.138	0.328	0.230
-472.245	800.000	0.050	-0.145
-471.230	-200.000	0.010	0.156
-470.216	-60.351	-0.147	0.062
-469.201	286.458	-0.134	-0.240
-468.186	-131.860	-0.461	-0.060
-467.172	138.895	-0.119	0.154
-466.157	21.056	-0.201	-0.162
-465.143	65.942	-0.233	0.234
-464.128	800.000	0.102	0.295
-463.113	-109.985	-0.163	-0.034
-462.099	163.878	0.107	0.149
-461.084	-200.000	0.040	-0.174
-460.070	-108.148	0.224	0.048
-459.055	800.000	-0.056	-0.204
-458.040	154.659	0.273	0.372
-457.026	800.000	-0.026	-0.104
-456.011	-175.602	0.075	0.002
-454.997	37.476	-0.154	0.135
-453.982	10.184	0.126	-0.095
-452.968	-200.000	-0.046	0.327
-451.953	-137.895	-0.478	0.053
-450.938	-130.381	0.188	0.025
-449.924	-17.166	0.128	-0.080
-448.909	63.543	0.041	0.041
-447.895	-126.058	0.463	-0.069
-446.880	34.576	0.177	-0.153
-445.865	-200.000	0.024	0.126
-444.851	270.744	-0.085	0.147
-443.836	-67.783	-0.119	-0.046
-442.822	668.856	-0.053	-0.136
-441.807	-200.000	0.006	0.047
-440.792	-108.115	0.573	-0.123
-439.778	182.788	-0.128	-0.187
-438.763	800.000	-0.127	-0.388
-437.749	-51.697	-0.105	-0.049
-436.734	-200.000	-0.031	-0.343
-435.719	55.562	0.158	-0.151
-434.705	-79.049	-0.207	-0.070
-433.690	-88.978	0.045	0.013
-432.676	-95.911	0.029	0.008
-431.661	-36.667	-0.105	0.056
-430.646	319.607	-0.120	0.225
-429.632	-119.671	-0.334	0.057
-428.617	211.741	-0.288	0.449
-427.603	-159.420	-0.171	0.009
-426.588	-126.384	0.256	0.038
-425.573	-165.566	0.364	0.016
-424.559	-19.556	0.090	-0.055
-423.544	800.000	0.109	0.440
-422.530	25.895	-0.203	-0.167
-421.515	-163.960	0.243	-0.011
-420.500	-179.882	-0.275	-0.006
-419.486	-200.000	-0.007	-0.330
-418.471	-30.065	0.376	0.212
-417.457	-28.715	-0.132	-0.075
-416.442	8.078	-0.379	-0.282
-415.428	800.000	-0.056	-0.156
-414.413	800.000	-0.048	-0.148
-413.398	-200.000	-0.030	0.182
-412.384	-75.119	-0.300	0.106
-411.369	-46.493	-0.182	-0.088
-410.355	71.442	0.106	0.109
-409.340	-71.409	0.339	-0.126
-408.325	-200.000	-0.012	-0.362
-407.311	-200.000	-0.013	-0.061
-406.296	-200.000	0.038	0.221
-405.282	-200.000	0.001	-0.044
-404.267	72.155	-0.155	-0.160
-403.252	-200.000	0.019	-0.105
-402.238	33.117	0.134	0.115
-401.223	-70.101	-0.294	-0.111
-400.209	470.170	-0.024	-0.053
-399.194	-200.000	0.006	-0.031
-398.179	381.904	-0.097	-0.196
-397.165	28.697	-0.111	0.093
-396.150	113.954	0.194	-0.234
-395.136	137.269	-0.076	0.098
-394.121	-91.139	0.187	0.053
-393.106	-200.000	-0.053	0.315
-392.092	1.065	0.264	-0.187
-391.077	743.001	-0.083	-0.221
-390.063	-44.988	0.113	0.056
-389.048	-97.308	0.425	0.109
-388.033	-200.000	0.034	0.154
-387.019	222.269	0.072	-0.115
-386.004	-150.031	0.102	0.008
-384.990	135.819	0.150	0.194
-383.975	-149.211	-0.425	-0.034
-382.960	-189.660	-0.359	-0.004
-381.946	-107.739	0.063	-0.014
-380.931	-85.388	-0.329	-0.101
-379.917	-200.000	0.023	-0.127
-378.902	-163.027	-0.129	0.006
-377.888	-200.000	0.080	0.388
-376.873	60.890	-0.058	-0.057
-375.858	-98.610	0.298	-0.075
-374.844	52.217	0.188	0.177
-373.829	-2.629	-0.238	0.165
-372.815	-135.172	0.062	-0.007
-371.800	-156.251	-0.034	-0.002
-370.785	-69.579	0.148	0.056
-369.771	-200.000	0.035	-0.242
-368.756	800.000	0.062	-0.190
-367.742	-19.131	0.084	-0.051
-366.727	-6.932	-0.166	0.112
-365.712	-74.972	-0.097	0.034
-364.698	-200.000	-0.048	-0.355
-363.683	800.000	-0.104	0.318
-362.669	800.000	-0.046	-0.165
-361.654	800.000	-0.036	0.132
-360.639	-200.000	-0.013	-0.128
-359.625	-48.645	0.502	0.238
-358.610	47.278	0.189	-0.174
-357.596	55.722	0.155	-0.148
-356.581	-200.000	0.016	-0.361
-355.566	-200.000	-0.005	-0.038
-354.552	-48.781	0.138	0.066
-353.537	-5.155	-0.157	0.107
-352.523	160.169	0.018	-0.024
-351.508	596.764	0.086	-0.211
-350.493	411.976	-0.226	-0.474
-349.479	-200.000	-0.053	-0.236
-348.464	-105.814	-0.074	0.017
-347.450	-200.000	-0.042	0.298
-346.435	-70.272	-0.042	0.016
-345.420	113.255	0.134	0.161
-344.406	-103.518	-0.325	-0.075
-343.391	-200.000	-0.019	0.165
-342.377	-14.314	0.345	-0.220
-341.362	800.000	0.050	-0.192
-340.348	162.375	0.156	0.215
-339.333	-200.000	0.014	-0.144
-338.318	-7.458	-0.154	-0.103
-337.304	77.913	0.075	-0.078
-336.289	-32.877	-0.302	0.166
-335.275	-167.351	0.154	-0.006
-334.260	148.499	-0.149	0.199
-333.245	-56.880	-0.151	-0.066
-332.231	-37.025	-0.203	0.107
-331.216	-179.634	-0.203	-0.004
-330.202	-200.000	-0.044	0.294
-329.187	-85.872	0.089	0.027
-328.172	194.350	0.068	-0.101
-327.158	-128.750	0.232	-0.032
-326.143	-99.146	0.230	-0.057
-325.129	-25.300	0.147	0.086
-324.114	-200.000	0.007	-0.216
-323.099	167.854	-0.290	0.406
-322.085	31.565	-0.041	0.035
-321.070	-200.000	0.062	-0.330
-320.056	-31.770	0.387	-0.214
-319.041	-28.879	0.150	-0.085
-318.026	-200.000	0.059	0.399
-317.012	-200.000	-0.155	0.000
-315.997	-43.596	0.190	0.095
-314.983	-160.747	0.281	0.015
-313.968	-200.000	0.027	-0.463
-312.953	-46.792	0.066	-0.032
-311.939	-126.890	-0.300	-0.044
-310.924	-200.000	0.011	-0.209
-309.910	800.000	-0.115	0.320
-308.895	800.000	0.049	-0.171
-307.880	-15.440	-0.035	-0.022
-306.866	52.231	0.059	-0.055
-305.851	-200.000	0.044	-0.212
-304.837	-91.541	0.181	-0.051
-303.822	-11.479	0.099	-0.064
-302.807	-200.000	0.045	-0.208
-301.793	-138.008	-0.124	-0.014
-300.778	-200.000	-0.055	0.399
-299.764	8.435	-0.244	0.181
-298.749	-8.777	0.189	-0.125
-297.735	704.611	0.106	-0.276
-296.720	9.444	0.186	0.139
-295.705	800.000	-0.075	-0.283
-294.691	-79.913	0.129	0.043
-293.676	29.321	-0.258	0.216
-292.662	-105.978	-0.192	0.043
-291.647	-162.965	-0.254	0.012
-290.632	-200.000	-0.003	-0.056
-289.618	-200.000	0.003	0.023
-288.603	52.324	0.086	-0.081
-287.589	18.972	0.236	0.186
-286.574	-149.504	-0.104	0.008
-285.559	-200.000	-0.006	0.345
-284.545	260.806	0.082	-0.139
-283.530	18.570	0.136	-0.107
-282.516	-124.013	-0.206	0.032
-281.501	-180.190	0.427	0.009
-280.486	-133.716	0.063	0.008
-279.472	-119.119	0.202	0.035
-278.457	-148.697	0.049	-0.004
-277.443	-4.308	-0.093	-0.063
-276.428	65.347	0.173	-0.172
-275.413	800.000	-0.036	0.128
-274.399	130.377	0.104	0.132
-273.384	12.220	-0.181	-0.138
-272.370	451.150	0.060	-0.130
-271.355	-1.636	0.239	-0.165
-270.340	-44.508	0.064	0.032
-269.326	39.686	-0.195	0.172
-268.311	50.604	-0.096	-0.089
-267.297	-6.809	0.341	0.228
-266.282	-89.277	0.302	0.087
-265.267	77.935	0.187	-0.196
-264.253	-186.681	-0.313	-0.004
-263.238	4.670	-0.188	-0.136
-262.224	-97.354	0.195	-0.050
-261.209	-75.233	-0.221	0.078
-260.195	-34.965	0.326	0.175
-259.180	800.000	-0.104	-0.316
-258.165	0.794	0.287	0.202
-257.151	84.051	-0.062	-0.067
-256.136	-87.801	0.062	0.018
-255.122	-200.000	-0.028	-0.282
-254.107	-200.000	0.096	-0.469
-253.092	103.898	0.136	0.157
-252.078	800.000	0.084	0.271
-251.063	800.000	0.076	-0.291
-250.049	-83.283	-0.253	-0.080
-249.034	357.058	-0.030	0.059
-248.019	-200.000	0.008	0.261
-247.005	391.447	0.064	0.130
-245.990	-200.000	0.027	-0.294
-244.976	-200.000	-0.007	0.093
-243.961	-5.680	0.130	0.088
-242.946	-119.509	-0.299	-0.051
-241.932	41.081	0.130	-0.115
-240.917	365.515	-0.091	0.180
-239.903	523.566	-0.074	0.172
-238.888	-98.307	0.284	-0.072
-237.873	-16.385	0.138	0.086
-236.859	-47.546	0.111	0.053
-235.844	800.000	0.045	0.130
-234.830	294.209	-0.103	-0.186
-233.815	362.048	-0.205	-0.405
-232.800	-200.000	-0.033	0.240
-231.786	-174.491	-0.136	0.004
-230.771	131.345	-0.328	-0.414
-229.757	4.618	0.224	-0.162
-228.742	-34.124	-0.087	-0.047
-227.727	800.000	-0.064	0.234
-226.713	72.289	-0.216	-0.221
-225.698	4.392	-0.340	-0.245
-224.684	-69.319	0.342	0.129
-223.669	-180.852	0.110	0.002
-222.655	-55.139	-0.363	-0.160
-221.640	-3.967	0.257	-0.175
-220.625	29.573	0.138	0.115
-219.611	720.135	-0.065	-0.170
-218.596	800.000	-0.040	-0.142
-217.582	743.584	0.127	-0.336
-216.567	-162.274	-0.080	0.004
-215.552	-49.649	0.181	-0.084
-214.538	-47.201	0.222	-0.106
-213.523	-25.089	-0.141	-0.082
-212.509	-200.000	0.036	0.223
-211.494	-200.000	0.083	0.416
-210.479	-13.154	-0.224	-0.143
-209.465	-37.346	0.453	0.237
-208.450	-58.720	-0.198	0.084
-207.436	-200.000	0.079	0.476
-206.421	-200.000	0.007	0.133
-205.406	216.693	0.132	-0.206
-204.392	294.785	-0.084	0.151
-203.377	37.389	0.392	0.341
-202.363	226.562	-0.093	0.149
-201.348	-74.644	0.133	0.047
-200.333	-200.000	0.008	-0.140
-199.319	-40.351	0.140	-0.072
-198.304	162.629	-0.122	-0.168
-197.290	-200.000	0.056	-0.313
-196.275	228.695	0.273	0.436
-195.260	761.143	-0.037	0.099
-194.246	-200.000	0.035	-0.190
-193.231	-42.263	-0.291	0.146
-192.217	41.479	0.242	-0.215
-191.202	76.494	-0.156	0.162
-190.187	-138.309	0.138	-0.015
-189.173	-200.000	0.028	0.380
-188.158	-39.143	-0.203	-0.105
-187.144	239.776	-0.127	-0.208
-186.129	84.351	-0.138	0.148
-185.114	552.702	-0.037	-0.086
-184.100	-200.000	0.007	-0.217
-183.085	-83.150	0.209	-0.066
-182.071	523.655	0.053	-0.122
-181.056	800.000	-0.138	-0.428
-180.042	774.910	0.027	-0.072
-179.027	800.000	0.061	-0.198
-178.012	-200.000	0.000	0.089
-176.998	592.307	-0.075	-0.182
-175.983	-200.000	-0.019	-0.141
-174.969	438.435	-0.096	-0.205
-173.954	151.404	0.108	0.144
-172.939	-123.384	0.160	-0.025
-171.925	462.701	0.050	-0.109
-170.910	800.000	0.078	0.223
-169.896	-200.000	0.044	-0.374
-168.881	652.084	-0.088	0.222
-167.866	-200.000	-0.007	-0.112
-166.852	-142.733	-0.075	-0.007
-165.837	21.974	0.111	-0.089
-164.823	-157.102	-0.454	-0.027
-163.808	-200.000	0.025	-0.258
-162.793	-65.840	0.098	-0.038
-161.779	236.064	0.102	0.166
-160.764	-200.000	0.030	0.198
-159.750	48.184	-0.270	0.248
-158.735	266.771	0.067	0.115
-157.720	49.108	0.152	0.140
-156.706	375.237	0.058	-0.116
-155.691	-200.000	-0.059	0.419
-154.677	282.956	0.180	0.317
-153.662	13.896	-0.047	-0.036
-152.647	160.618	-0.165	0.225
-151.633	-15.401	0.079	0.050
-150.618	800.000	0.075	0.230
-149.604	202.633	-0.043	-0.065
-148.589	180.671	-0.063	0.091
-147.574	646.061	-0.105	-0.262
-146.560	-200.000	0.043	-0.228
-145.545	-75.202	0.383	-0.134
-144.531	-124.374	0.393	-0.060
-143.516	-77.053	0.392	0.134
-142.502	165.622	-0.096	-0.133
-141.487	-80.859	-0.016	0.005
-140.472	-200.000	-0.023	0.225
-139.458	41.377	0.322	0.285
-138.443	-111.482	-0.183	-0.036
-137.429	-57.527	0.180	-0.077
-136.414	128.502	-0.049	-0.061
-135.399	339.069	0.119	0.226
-134.385	115.014	-0.109	0.130
-133.370	92.148	0.128	0.142
-132.356	-23.071	0.113	-0.067
-131.341	88.463	-0.172	0.187
-130.326	-70.255	0.249	-0.092
-129.312	-100.218	-0.273	-0.066
-128.297	800.000	0.108	0.319
-127.283	66.518	-0.170	-0.169
-126.268	6.464	-0.154	0.112
-125.253	69.660	-0.399	0.402
-124.239	-160.324	0.418	-0.022
-123.224	370.743	-0.073	0.145
-122.210	378.610	0.151	0.301
