DTS Sentinel unit serial number:	SN413079Multiplexer serial number:	ORYXHardware model number:	OX4-SRSoftware version number:	ORYX F/W v4.00 Oryx Data Collector v3.7.2.0data status	okinstallation	princeton_trtdifferential loss correction	single-endedforward channel	channel 1reverse channel	N/Adate	2019/09/12time	04:56:11forward acquisition time	60.00reverse acquisition time	0.00gamma	496.2192k internal	0.2323k external	0.2323temperature offset calibration	1.0060default loss term (dB/km)	0.3790temperature slope calibration	1.0000multiplexer offset coefficient	1.0000multiplexer slope coefficient	1.0000fibre end	0.00T internal ref (°C)	31.69T ext. ref 1 (°C)	1.80T ext. ref 2 (°C)	27.08length (m)	temperature (°C)	Stokes	anti-Stokes-747.200	800.000	-0.086	0.346
-746.185	-200.000	0.018	0.141
-745.171	-173.270	-0.113	-0.003
-744.156	-24.803	0.090	-0.054
-743.142	22.368	0.184	0.152
-742.127	-200.000	0.052	0.353
-741.112	-200.000	-0.083	0.510
-740.098	-106.607	-0.093	0.021
-739.083	-200.000	-0.008	0.159
-738.069	43.064	-0.201	-0.185
-737.054	18.687	0.135	0.109
-736.039	-1.623	-0.155	-0.110
-735.025	800.000	0.029	0.105
-734.010	-200.000	-0.024	-0.108
-732.996	800.000	0.047	0.149
-731.981	-94.621	-0.274	-0.075
-730.966	800.000	-0.046	0.198
-729.952	195.269	0.062	-0.095
-728.937	-189.447	0.030	-0.000
-727.923	194.571	0.167	0.256
-726.908	-200.000	-0.006	0.207
-725.894	179.280	-0.259	-0.383
-724.879	455.071	-0.109	-0.244
-723.864	353.446	-0.110	0.221
-722.850	518.862	0.220	0.519
-721.835	62.331	-0.095	0.095
-720.821	-106.388	-0.201	0.045
-719.806	189.064	0.323	-0.488
-718.791	-109.225	-0.491	-0.105
-717.777	-200.000	0.004	-0.117
-716.762	-54.087	-0.350	-0.161
-715.748	224.301	0.100	-0.163
-714.733	306.725	-0.263	0.493
-713.718	-200.000	0.008	-0.154
-712.704	-118.399	-0.018	-0.003
-711.689	70.717	-0.106	-0.110
-710.675	-106.479	-0.221	0.050
-709.660	800.000	0.168	-0.528
-708.645	-45.486	0.066	0.033
-707.631	-15.941	-0.123	-0.079
-706.616	13.319	-0.175	-0.137
-705.602	-19.842	0.142	-0.088
-704.587	800.000	0.036	0.120
-703.572	162.868	-0.159	-0.225
-702.558	-200.000	-0.054	-0.260
-701.543	63.217	-0.067	0.067
-700.529	-58.963	0.072	-0.031
-699.514	327.405	0.068	-0.131
-698.499	71.523	0.253	0.265
-697.485	-156.560	0.101	-0.006
-696.470	-200.000	-0.021	-0.151
-695.456	502.242	-0.056	-0.130
-694.441	223.007	-0.099	-0.161
-693.426	-200.000	-0.028	0.132
-692.412	-94.839	0.172	0.047
-691.397	-200.000	0.005	-0.066
-690.383	476.962	-0.093	-0.211
-689.368	-47.174	-0.224	0.110
-688.354	232.313	0.256	-0.423
-687.339	-46.648	0.375	0.185
-686.324	-137.265	-0.251	0.029
-685.310	-200.000	0.002	-0.369
-684.295	108.415	0.117	0.140
-683.281	-166.273	-0.589	-0.025
-682.266	130.172	0.126	0.163
-681.251	-4.833	-0.028	0.019
-680.237	28.434	0.115	-0.098
-679.222	-23.565	-0.103	-0.062
-678.208	800.000	-0.011	0.041
-677.193	-116.468	0.107	-0.020
-676.178	-64.557	-0.121	0.050
-675.164	18.686	-0.133	0.107
-674.149	-200.000	0.009	-0.195
-673.135	-200.000	-0.015	-0.158
-672.120	-106.320	0.407	-0.092
-671.105	-133.148	0.224	0.029
-670.091	52.453	-0.261	0.251
-669.076	-29.617	-0.141	-0.081
-668.062	-200.000	0.005	-0.249
-667.047	-59.032	0.190	-0.082
-666.032	-170.247	-0.170	0.006
-665.018	39.118	-0.212	0.191
-664.003	-200.000	0.036	0.277
-662.989	166.955	0.087	0.124
-661.974	-80.060	0.198	0.067
-660.959	-92.633	0.274	0.077
-659.945	-147.633	-0.408	0.035
-658.930	546.488	0.100	-0.241
-657.916	-33.862	0.174	-0.096
-656.901	256.798	-0.144	-0.249
-655.886	20.083	-0.147	-0.119
-654.872	-132.632	-0.196	-0.025
-653.857	-75.478	-0.088	-0.032
-652.843	77.399	0.108	-0.115
-651.828	-84.350	0.086	-0.028
-650.814	638.718	0.063	-0.160
-649.799	-200.000	-0.001	-0.278
-648.784	88.519	-0.183	-0.204
-647.770	-69.705	-0.349	-0.134
-646.755	247.959	-0.068	-0.115
-645.741	-60.517	-0.266	-0.114
-644.726	-80.277	-0.270	0.091
-643.711	-200.000	0.064	-0.323
-642.697	-80.039	0.258	-0.087
-641.682	800.000	0.034	-0.129
-640.668	-185.341	-0.142	-0.002
-639.653	40.663	-0.080	-0.072
-638.638	-105.378	0.366	0.084
-637.624	-79.770	0.059	0.020
-636.609	-200.000	-0.016	-0.343
-635.595	800.000	-0.031	0.126
-634.580	125.609	-0.052	0.066
-633.565	54.851	0.157	-0.152
-632.551	-47.517	-0.149	-0.073
-631.536	156.848	0.032	-0.045
-630.522	41.323	0.047	-0.043
-629.507	-51.152	-0.235	-0.111
-628.492	-169.493	-0.169	-0.006
-627.478	433.908	0.124	-0.271
-626.463	46.215	-0.053	-0.050
-625.449	-128.990	0.036	0.005
-624.434	-96.567	-0.110	-0.029
-623.419	133.980	-0.236	-0.307
-622.405	481.310	-0.060	-0.137
-621.390	-7.830	0.237	-0.161
-620.376	383.891	-0.040	-0.084
-619.361	800.000	0.070	-0.245
-618.346	-49.682	0.149	-0.071
-617.332	-3.510	0.244	-0.171
-616.317	-28.137	0.248	0.144
-615.303	287.440	-0.057	0.104
-614.288	45.094	-0.240	-0.222
-613.273	-160.477	-0.500	-0.027
-612.259	-73.682	0.310	-0.113
-611.244	-44.333	0.127	0.064
-610.230	56.528	0.166	0.162
-609.215	161.378	-0.053	0.075
-608.201	-200.000	0.001	0.056
-607.186	-99.753	0.267	0.067
-606.171	494.703	-0.112	-0.259
-605.157	18.279	-0.187	0.150
-604.142	75.339	-0.150	-0.159
-603.128	-200.000	0.090	0.475
-602.113	327.194	0.144	0.277
-601.098	-111.075	0.359	-0.074
-600.084	63.929	-0.219	-0.221
-599.069	-125.490	-0.084	-0.013
-598.055	-200.000	-0.050	0.352
-597.040	-116.551	-0.230	-0.043
-596.025	292.425	-0.042	-0.077
-595.011	-131.453	-0.117	0.016
-593.996	-200.000	-0.001	0.226
-592.982	-200.000	0.006	0.119
-591.967	800.000	-0.060	0.255
-590.952	13.877	-0.092	-0.072
-589.938	351.980	-0.149	-0.296
-588.923	-200.000	-0.006	0.089
-587.909	800.000	-0.131	-0.366
-586.894	-200.000	0.022	-0.302
-585.879	-127.796	0.363	0.053
-584.865	-16.485	0.128	-0.081
-583.850	800.000	-0.087	-0.350
-582.836	149.287	0.061	0.083
-581.821	232.265	0.066	-0.108
-580.806	-69.687	-0.086	0.033
-579.792	-200.000	-0.063	0.366
-578.777	41.221	0.274	0.249
-577.763	800.000	-0.081	0.245
-576.748	617.896	0.039	-0.098
-575.733	58.436	0.252	0.248
-574.719	144.030	0.090	-0.120
-573.704	-200.000	-0.007	-0.045
-572.690	37.514	-0.286	0.255
-571.675	-200.000	0.027	-0.266
-570.661	-67.133	0.088	0.035
-569.646	800.000	0.042	0.156
-568.631	245.685	0.074	-0.125
-567.617	-180.132	0.237	-0.005
-566.602	2.944	0.074	0.054
-565.588	-200.000	0.059	0.379
-564.573	800.000	-0.039	-0.114
-563.558	-200.000	-0.034	0.361
-562.544	235.895	0.107	0.177
-561.529	800.000	0.018	0.066
-560.515	-138.978	0.302	0.033
-559.500	-200.000	0.020	-0.283
-558.485	513.408	-0.086	0.201
-557.471	800.000	0.096	0.317
-556.456	2.985	0.176	0.128
-555.442	110.094	-0.162	0.195
-554.427	598.086	-0.149	0.369
-553.412	-17.827	-0.431	0.271
-552.398	-60.056	0.140	0.060
-551.383	252.229	-0.089	0.152
-550.369	29.168	-0.205	0.174
-549.354	-130.037	-0.059	0.008
-548.339	364.049	0.129	-0.259
-547.325	-154.063	-0.370	-0.025
-546.310	-66.963	0.160	0.063
-545.296	-81.948	-0.194	-0.063
-544.281	94.245	-0.307	0.349
-543.266	-9.745	-0.296	0.198
-542.252	474.430	0.045	0.101
-541.237	800.000	0.056	0.169
-540.223	-200.000	0.041	0.245
-539.208	-74.341	-0.231	0.084
-538.193	-49.206	0.018	0.009
-537.179	285.100	-0.099	0.179
-536.164	-3.068	0.343	-0.240
-535.150	-40.646	0.252	-0.131
-534.135	107.170	-0.066	-0.079
-533.121	-144.208	-0.126	0.012
-532.106	73.906	0.030	0.032
-531.091	-93.780	-0.044	-0.012
-530.077	60.913	-0.146	-0.145
-529.062	31.715	-0.162	-0.139
-528.048	397.079	-0.035	-0.074
-527.033	-16.562	-0.177	0.112
-526.018	90.552	0.242	0.272
-525.004	30.619	-0.106	0.091
-523.989	55.025	0.049	0.047
-522.975	89.410	0.077	0.086
-521.960	-0.348	-0.138	-0.098
-520.945	109.347	-0.146	-0.175
-519.931	-200.000	0.012	-0.164
-518.916	-48.731	0.032	0.015
-517.902	1.530	0.168	0.121
-516.887	21.153	-0.055	-0.045
-515.872	161.260	0.044	0.062
-514.858	6.615	-0.207	0.154
-513.843	513.869	0.028	-0.066
-512.829	426.790	-0.048	-0.103
-511.814	-21.391	-0.054	0.033
-510.799	-147.799	0.249	0.021
-509.785	-200.000	0.031	0.241
-508.770	-129.858	-0.139	-0.019
-507.756	800.000	-0.067	0.224
-506.741	-126.963	0.124	-0.018
-505.726	37.269	-0.115	-0.102
-504.712	-39.933	-0.164	-0.086
-503.697	208.696	0.113	0.178
-502.683	800.000	-0.044	-0.133
-501.668	800.000	0.100	-0.388
-500.653	27.613	0.159	-0.134
-499.639	-108.094	-0.325	-0.070
-498.624	-144.527	-0.170	-0.016
-497.610	51.924	0.346	-0.330
-496.595	-112.751	-0.193	-0.038
-495.581	-0.022	0.077	-0.055
-494.566	-141.626	0.210	-0.021
-493.551	-200.000	0.031	-0.262
-492.537	-17.685	0.306	0.192
-491.522	-32.790	0.189	0.105
-490.508	669.934	0.106	0.275
-489.493	-157.910	-0.195	0.012
-488.478	-200.000	-0.025	0.312
-487.464	110.053	0.135	0.162
-486.449	42.663	-0.122	-0.111
-485.435	-167.306	-0.163	-0.007
-484.420	800.000	0.060	0.261
-483.405	84.842	-0.119	-0.131
-482.391	-121.806	0.129	0.021
-481.376	800.000	0.028	0.112
-480.362	-95.919	-0.251	-0.067
-479.347	105.797	-0.141	0.166
-478.332	54.913	0.248	0.240
-477.318	800.000	-0.053	-0.157
-476.303	-164.070	-0.269	-0.012
-475.289	-168.363	0.072	0.003
-474.274	745.946	0.016	-0.043
-473.259	-69.060	0.389	0.150
-472.245	-59.820	0.086	0.037
-471.230	-118.181	-0.159	-0.028
-470.216	-2.498	-0.087	0.061
-469.201	-200.000	-0.044	0.269
-468.186	60.382	-0.231	0.229
-467.172	-200.000	-0.004	0.194
-466.157	-200.000	-0.026	-0.124
-465.143	-200.000	0.013	-0.218
-464.128	98.857	-0.171	0.197
-463.113	800.000	0.074	-0.278
-462.099	800.000	0.079	-0.338
-461.084	18.485	-0.162	0.129
-460.070	-119.193	0.321	0.056
-459.055	-200.000	-0.024	0.172
-458.040	-54.760	-0.252	-0.114
-457.026	-122.264	0.042	-0.007
-456.011	334.701	0.103	-0.199
-454.997	-77.763	0.247	0.085
-453.982	-200.000	0.018	-0.226
-452.968	-200.000	0.023	0.173
-451.953	800.000	-0.092	0.338
-450.938	63.289	0.151	-0.151
-449.924	220.126	-0.144	-0.231
-448.909	49.490	-0.091	0.086
-447.895	298.730	0.090	-0.166
-446.880	800.000	-0.042	-0.161
-445.865	202.218	0.092	0.141
-444.851	-103.039	-0.069	-0.016
-443.836	800.000	-0.064	0.216
-442.822	380.425	0.138	0.283
-441.807	629.570	0.104	-0.261
-440.792	-200.000	-0.007	-0.130
-439.778	-200.000	-0.032	0.170
-438.763	45.451	0.143	0.132
-437.749	15.488	0.084	-0.066
-436.734	-175.891	-0.249	0.007
-435.719	-78.405	0.407	0.139
-434.705	435.824	0.077	-0.167
-433.690	-200.000	-0.025	0.336
-432.676	-200.000	0.002	-0.013
-431.661	219.378	0.071	0.113
-430.646	18.957	-0.128	-0.102
-429.632	-78.585	-0.163	-0.056
-428.617	5.874	0.221	-0.163
-427.603	800.000	-0.044	-0.138
-426.588	800.000	0.036	0.140
-425.573	-68.784	0.318	-0.123
-424.559	175.604	-0.236	0.341
-423.544	-63.246	0.153	-0.063
-422.530	800.000	-0.023	-0.070
-421.515	128.833	0.098	-0.124
-420.500	-75.941	-0.317	-0.112
-419.486	-103.027	0.318	-0.075
-418.471	-69.280	-0.085	-0.033
-417.457	153.939	0.155	0.212
-416.442	-200.000	0.025	0.276
-415.428	-3.315	-0.146	0.102
-414.413	800.000	-0.135	0.379
-413.398	272.797	-0.013	0.024
-412.384	432.835	0.085	-0.184
-411.369	521.545	0.106	0.247
-410.355	-4.292	0.212	-0.147
-409.340	-92.156	0.105	-0.030
-408.325	-118.149	0.151	-0.027
-407.311	692.332	0.068	0.177
-406.296	-83.914	0.105	-0.033
-405.282	-42.853	-0.268	0.136
-404.267	-39.990	-0.273	-0.142
-403.252	-76.706	-0.125	0.044
-402.238	-26.515	-0.239	-0.139
-401.223	-190.904	0.187	0.002
-400.209	306.651	0.020	-0.037
-399.194	-104.888	0.238	-0.054
-398.179	-200.000	-0.013	-0.279
-397.165	-200.000	-0.005	0.284
-396.150	103.554	-0.096	-0.112
-395.136	91.971	0.274	0.308
-394.121	218.649	-0.196	0.312
-393.106	39.329	0.203	0.181
-392.092	-58.647	-0.213	-0.092
-391.077	-0.348	-0.337	-0.239
-390.063	-82.528	-0.012	-0.004
-389.048	63.322	0.093	-0.092
-388.033	800.000	0.032	0.112
-387.019	-54.834	-0.087	0.039
-386.004	800.000	-0.062	0.270
-384.990	791.208	-0.136	-0.371
-383.975	588.296	-0.011	0.028
-382.960	800.000	-0.099	0.281
-381.946	31.145	-0.225	-0.193
-380.931	-114.603	0.237	0.045
-379.917	-60.901	-0.252	-0.106
-378.902	800.000	-0.051	-0.173
-377.888	319.094	-0.046	0.086
-376.873	258.240	-0.106	0.183
-375.858	800.000	0.025	0.108
-374.844	86.082	0.157	0.172
-373.829	-200.000	-0.005	0.404
-372.815	723.531	-0.125	0.331
-371.800	88.394	-0.105	0.116
-370.785	-200.000	-0.099	-0.000
-369.771	800.000	0.080	-0.259
-368.756	-124.163	-0.152	-0.024
-367.742	-74.823	-0.156	-0.056
-366.727	64.219	-0.276	-0.276
-365.712	-16.237	0.245	-0.155
-364.698	124.684	-0.278	-0.348
-363.683	578.188	-0.076	-0.186
-362.669	-105.602	0.277	-0.062
-361.654	-143.843	0.085	0.008
-360.639	-123.988	0.442	0.069
-359.625	800.000	0.029	0.101
-358.610	-115.565	-0.429	0.080
-357.596	-1.151	0.090	-0.063
-356.581	-38.898	0.424	0.222
-355.566	800.000	0.186	-0.541
-354.552	2.493	-0.193	0.139
-353.537	30.363	0.124	-0.106
-352.523	-18.744	-0.273	0.169
-351.508	273.228	0.190	-0.334
-350.493	71.317	0.279	-0.288
-349.479	-65.861	-0.163	-0.065
-348.464	51.794	0.193	-0.183
-347.450	800.000	-0.021	-0.090
-346.435	150.811	-0.122	-0.166
-345.420	105.907	0.167	-0.197
-344.406	-161.356	0.214	0.011
-343.391	-200.000	-0.031	-0.240
-342.377	-32.382	-0.518	-0.287
-341.362	-63.012	-0.258	-0.106
-340.348	80.377	0.266	-0.285
-339.333	70.781	0.188	-0.194
-338.318	31.882	0.258	0.221
-337.304	207.546	-0.085	0.132
-336.289	-107.968	0.242	-0.052
-335.275	172.726	0.133	0.190
-334.260	20.514	0.338	-0.272
-333.245	-200.000	-0.006	0.295
-332.231	591.119	-0.131	0.322
-331.216	-200.000	-0.044	-0.231
-330.202	-200.000	0.019	0.173
-329.187	-101.284	0.327	-0.079
-328.172	38.878	-0.165	-0.146
-327.158	-82.456	-0.104	-0.034
-326.143	-176.441	0.318	0.008
-325.129	-139.236	0.246	-0.026
-324.114	-48.870	-0.232	-0.111
-323.099	-70.018	-0.327	-0.124
-322.085	-33.212	-0.065	0.036
-321.070	144.367	0.124	0.164
-320.056	741.679	-0.127	0.339
-319.041	2.484	-0.130	-0.093
-318.026	-3.956	0.247	-0.170
-317.012	140.795	-0.114	0.150
-315.997	10.884	0.202	-0.153
-314.983	800.000	-0.037	0.105
-313.968	800.000	0.037	-0.122
-312.953	168.138	0.039	-0.055
-311.939	11.320	0.108	-0.082
-310.924	-166.717	-0.291	0.012
-309.910	-200.000	-0.040	0.370
-308.895	-200.000	-0.028	0.233
-307.880	55.484	-0.295	0.284
-306.866	-38.905	-0.251	-0.132
-305.851	-200.000	-0.006	0.244
-304.837	-23.357	-0.155	0.093
-303.822	38.970	-0.410	0.363
-302.807	265.752	-0.113	0.196
-301.793	-200.000	-0.006	-0.027
-300.778	-84.318	-0.088	0.028
-299.764	-84.611	-0.159	0.050
-298.749	-23.372	-0.110	-0.066
-297.735	-1.300	0.209	0.146
-296.720	-65.465	0.309	0.123
-295.705	-200.000	-0.013	0.225
-294.691	117.991	-0.191	-0.234
-293.676	-69.201	0.155	-0.059
-292.662	-15.923	-0.069	-0.044
-291.647	-200.000	0.084	-0.428
-290.632	-200.000	-0.007	0.070
-289.618	615.334	-0.126	0.313
-288.603	552.215	0.016	0.039
-287.589	15.548	-0.218	-0.170
-286.574	-50.722	0.261	0.122
-285.559	800.000	-0.027	0.119
-284.545	-200.000	-0.016	-0.225
-283.530	-110.610	0.166	0.034
-282.516	-200.000	0.103	-0.494
-281.501	77.826	0.263	-0.278
-280.486	66.921	0.161	-0.163
-279.472	-94.005	0.207	-0.056
-278.457	800.000	-0.104	-0.310
-277.443	-1.865	0.083	-0.058
-276.428	274.750	-0.017	-0.030
-275.413	89.291	-0.182	0.201
-274.399	29.536	-0.155	0.131
-273.384	-13.085	0.168	0.108
-272.370	-81.451	0.144	-0.047
-271.355	-200.000	0.034	-0.271
-270.340	390.257	0.128	-0.264
-269.326	-10.706	-0.070	-0.046
-268.311	350.162	0.060	-0.117
-267.297	111.484	-0.119	-0.142
-266.282	-83.223	-0.395	0.126
-265.267	800.000	-0.059	0.184
-264.253	4.886	-0.118	0.086
-263.238	61.945	0.339	-0.335
-262.224	-200.000	0.093	0.574
-261.209	35.444	0.199	-0.173
-260.195	-45.630	0.190	-0.093
-259.180	-27.985	0.314	-0.180
-258.165	800.000	0.171	0.553
-257.151	262.856	-0.050	-0.086
-256.136	-200.000	-0.068	0.327
-255.122	0.160	0.265	-0.188
-254.107	497.739	-0.028	0.064
-253.092	-158.221	0.244	0.014
-252.078	-72.116	0.148	0.055
-251.063	99.509	-0.227	-0.260
-250.049	-73.272	0.189	-0.069
-249.034	728.090	0.161	-0.425
-248.019	-45.604	-0.134	0.066
-247.005	800.000	-0.075	0.255
-245.990	-200.000	-0.024	-0.281
-244.976	210.502	-0.091	0.141
-243.961	-17.073	-0.321	-0.201
-242.946	-36.163	-0.092	-0.049
-241.932	366.178	-0.085	0.169
-240.917	171.866	0.217	-0.308
-239.903	321.590	0.065	0.123
-238.888	-139.221	0.226	0.024
-237.873	-37.550	-0.268	-0.141
-236.859	567.092	0.192	-0.462
-235.844	-52.100	-0.354	0.163
-234.830	-120.255	0.156	0.026
-233.815	62.182	0.217	-0.215
-232.800	89.854	0.028	0.030
-231.786	-119.681	0.109	-0.019
-230.771	-70.731	-0.314	-0.118
-229.757	17.054	-0.285	0.223
-228.742	-70.156	0.202	0.076
-227.727	117.022	-0.170	0.207
-226.713	-108.134	0.244	-0.052
-225.698	205.764	0.080	-0.123
-224.684	-200.000	0.031	-0.476
-223.669	800.000	-0.071	-0.221
-222.655	265.924	-0.047	-0.081
-221.640	73.086	0.083	0.086
-220.625	364.359	-0.131	-0.260
-219.611	255.079	0.047	-0.079
-218.596	155.279	0.221	-0.301
-217.582	-200.000	-0.004	0.092
-216.567	742.642	0.155	-0.412
-215.552	302.165	0.073	0.134
-214.538	800.000	-0.063	0.178
-213.523	47.278	-0.114	-0.105
-212.509	-200.000	0.012	0.255
-211.494	767.375	-0.045	0.120
-210.479	481.124	-0.184	0.413
-209.465	-74.222	0.020	-0.007
-208.450	-200.000	0.001	-0.196
-207.436	-174.918	-0.265	0.007
-206.421	599.907	0.087	-0.214
-205.406	11.133	0.304	-0.230
-204.392	-76.904	0.220	0.076
-203.377	800.000	0.117	0.327
-202.363	182.516	-0.022	-0.033
-201.348	541.180	-0.084	0.199
-200.333	-21.387	-0.342	0.207
-199.319	546.946	0.038	-0.090
-198.304	-62.944	-0.173	0.071
-197.290	58.231	0.172	0.166
-196.275	-200.000	-0.002	-0.335
-195.260	-35.746	-0.197	0.105
-194.246	-200.000	-0.041	-0.211
-193.231	25.995	0.068	0.056
-192.217	197.963	0.095	0.143
-191.202	-200.000	-0.008	0.040
-190.187	-200.000	-0.302	-0.001
-189.173	-200.000	0.002	-0.179
-188.158	-152.332	0.059	0.004
-187.144	-36.495	0.095	0.050
-186.129	64.267	0.130	0.129
-185.114	405.235	0.067	-0.140
-184.100	-200.000	0.042	-0.286
-183.085	-52.328	-0.136	-0.062
-182.071	-176.961	0.202	-0.005
-181.056	208.933	0.086	0.133
-180.042	-200.000	0.049	0.270
-179.027	-82.922	-0.107	-0.034
-178.012	178.257	-0.119	0.171
-176.998	800.000	0.195	0.562
-175.983	-151.256	-0.316	0.023
-174.969	24.635	0.084	0.069
-173.954	85.202	0.167	-0.181
-172.939	100.423	0.183	-0.210
-171.925	180.285	-0.188	-0.272
-170.910	-138.046	0.204	-0.022
-169.896	19.468	-0.124	-0.099
-168.881	26.918	-0.147	-0.122
-167.866	800.000	-0.056	0.225
-166.852	-200.000	0.010	0.071
-165.837	321.997	-0.086	-0.162
-164.823	52.232	-0.269	0.253
-163.808	61.202	-0.082	-0.080
-162.793	-72.780	0.129	-0.047
-161.779	-121.394	-0.151	-0.025
-160.764	-55.866	0.187	0.082
-159.750	-109.465	-0.170	-0.035
-158.735	-124.172	0.279	-0.043
-157.720	-34.258	-0.188	-0.102
-156.706	-141.864	0.053	0.005
-155.691	-200.000	0.009	0.177
-154.677	55.128	0.076	0.073
-153.662	155.073	-0.269	0.366
-152.647	-95.982	0.266	-0.070
-151.633	485.796	0.080	0.180
-150.618	800.000	0.010	0.041
-149.604	-24.449	-0.047	-0.028
-148.589	146.156	-0.039	-0.052
-147.574	-55.563	-0.157	-0.069
-146.560	75.620	0.095	-0.099
-145.545	60.170	-0.235	-0.229
-144.531	-67.248	0.136	-0.053
-143.516	-130.713	0.125	0.017
-142.502	800.000	0.051	0.203
-141.487	800.000	-0.073	0.247
-140.472	-200.000	-0.042	-0.283
-139.458	-121.261	-0.134	0.022
-138.443	-122.034	0.079	0.013
-137.429	-9.195	-0.251	0.166
-136.414	27.101	0.299	0.247
-135.399	800.000	0.109	0.351
-134.385	156.049	-0.197	0.269
-133.370	285.626	-0.114	-0.203
-132.356	163.442	-0.109	0.151
-131.341	-200.000	0.006	0.040
-130.326	-200.000	-0.083	-0.489
-129.312	210.756	0.084	-0.130
-128.297	800.000	0.086	0.368
-127.283	766.442	0.082	0.221
-126.268	-72.113	-0.130	-0.047
-125.253	32.665	-0.124	0.106
-124.239	800.000	0.072	-0.204
-123.224	-139.308	0.058	0.006
-122.210	-200.000	-0.043	0.251
-121.195	-200.000	-0.017	0.306
