DTS Sentinel unit serial number:	SN413079Multiplexer serial number:	ORYXHardware model number:	OX4-SRSoftware version number:	ORYX F/W v4.00 Oryx Data Collector v3.7.2.0data status	okinstallation	princeton_trtdifferential loss correction	single-endedforward channel	channel 1reverse channel	N/Adate	2019/09/18time	07:50:35forward acquisition time	60.00reverse acquisition time	0.00gamma	496.2192k internal	0.2339k external	0.2339temperature offset calibration	0.9976default loss term (dB/km)	0.3790temperature slope calibration	1.0000multiplexer offset coefficient	1.0000multiplexer slope coefficient	1.0000fibre end	0.00T internal ref (°C)	23.41T ext. ref 1 (°C)	0.21T ext. ref 2 (°C)	19.12length (m)	temperature (°C)	Stokes	anti-Stokes-747.200	231.352	0.148	-0.243
-746.185	-150.931	-0.293	-0.022
-745.171	-4.801	0.097	0.067
-744.156	-200.000	0.046	0.241
-743.142	-200.000	0.003	-0.036
-742.127	101.047	-0.088	0.103
-741.112	-50.006	0.171	0.081
-740.098	-0.064	0.298	0.213
-739.083	-160.486	-0.267	-0.014
-738.069	183.562	-0.033	0.049
-737.054	740.667	-0.011	0.030
-736.039	175.511	-0.295	0.429
-735.025	-135.399	0.317	-0.038
-734.010	-181.431	-0.300	-0.006
-732.996	93.762	0.181	-0.206
-731.981	381.683	-0.015	0.031
-730.966	-4.565	0.153	0.106
-729.952	-156.733	-0.181	0.011
-728.937	-200.000	-0.011	-0.231
-727.923	778.955	0.063	-0.173
-726.908	-14.259	-0.226	-0.146
-725.894	70.970	0.243	0.252
-724.879	-47.424	0.139	0.068
-723.864	-168.334	-0.230	-0.009
-722.850	-4.519	-0.271	0.188
-721.835	-200.000	-0.002	-0.215
-720.821	-200.000	-0.009	0.249
-719.806	-28.460	0.048	-0.028
-718.791	-200.000	-0.069	-0.325
-717.777	618.691	0.065	-0.164
-716.762	42.079	-0.072	-0.065
-715.748	265.153	-0.010	0.017
-714.733	-133.341	-0.235	0.030
-713.718	-54.052	0.189	-0.086
-712.704	-15.785	0.247	-0.158
-711.689	-97.889	0.382	-0.099
-710.675	-200.000	-0.012	0.353
-709.660	-140.784	-0.154	0.016
-708.645	74.190	0.178	0.187
-707.631	39.430	0.123	-0.110
-706.616	155.675	0.056	0.078
-705.602	800.000	0.022	0.091
-704.587	12.439	0.267	0.206
-703.572	-11.801	-0.111	-0.073
-702.558	-200.000	-0.045	-0.205
-701.543	57.073	0.134	0.130
-700.529	-43.948	-0.106	0.053
-699.514	-0.770	0.238	-0.169
-698.499	336.293	-0.114	-0.222
-697.485	-200.000	-0.016	-0.147
-696.470	62.988	-0.089	0.090
-695.456	800.000	0.055	-0.208
-694.441	800.000	0.032	-0.130
-693.426	-102.648	0.356	0.085
-692.412	31.754	-0.067	-0.058
-691.397	800.000	-0.142	-0.433
-690.383	-97.788	0.135	0.035
-689.368	-54.991	-0.354	-0.160
-688.354	13.194	0.084	0.065
-687.339	-155.436	-0.419	-0.027
-686.324	316.611	0.103	-0.194
-685.310	800.000	0.103	-0.318
-684.295	-76.435	-0.121	-0.043
-683.281	497.944	0.052	-0.120
-682.266	-78.928	0.087	0.029
-681.251	128.084	0.177	-0.225
-680.237	75.856	0.092	-0.098
-679.222	361.968	-0.067	0.134
-678.208	-200.000	-0.083	-0.429
-677.193	-121.304	0.249	0.042
-676.178	109.857	-0.131	0.157
-675.164	388.098	0.124	0.257
-674.149	-111.019	-0.302	0.062
-673.135	222.325	-0.137	0.221
-672.120	-143.513	-0.138	0.013
-671.105	-167.734	0.123	-0.005
-670.091	105.308	0.104	0.123
-669.076	-200.000	-0.020	-0.284
-668.062	112.303	-0.046	0.056
-667.047	80.883	-0.135	-0.146
-666.032	101.022	0.105	0.123
-665.018	800.000	0.039	-0.144
-664.003	229.278	0.183	0.299
-662.989	-85.177	0.162	0.051
-661.974	787.336	-0.077	-0.211
-660.959	-74.505	0.328	0.118
-659.945	-175.590	-0.244	-0.007
-658.930	-34.954	0.195	0.106
-657.916	258.374	0.081	-0.139
-656.901	-71.907	0.125	0.046
-655.886	65.066	-0.158	-0.160
-654.872	-65.180	0.185	-0.075
-653.857	-12.861	0.115	-0.075
-652.843	-43.660	-0.158	-0.079
-651.828	-75.308	0.126	0.045
-650.814	120.035	-0.335	-0.415
-649.799	160.466	0.050	0.070
-648.784	800.000	0.094	0.262
-647.770	-10.695	0.129	0.085
-646.755	194.568	-0.047	-0.071
-645.741	-122.345	-0.190	0.031
-644.726	-200.000	0.006	-0.246
-643.711	800.000	-0.065	-0.220
-642.697	20.034	-0.318	-0.256
-641.682	118.667	0.098	0.121
-640.668	22.446	0.151	0.123
-639.653	-117.033	-0.279	0.051
-638.638	-51.522	-0.150	-0.070
-637.624	290.384	0.277	-0.503
-636.609	737.643	-0.027	0.073
-635.595	800.000	-0.063	-0.226
-634.580	-62.026	0.216	-0.090
-633.565	-98.791	-0.125	0.032
-632.551	-55.844	0.175	-0.078
-631.536	-20.940	0.121	-0.074
-630.522	54.733	0.126	0.122
-629.507	260.461	-0.190	0.328
-628.492	800.000	0.032	-0.088
-627.478	800.000	0.068	0.264
-626.463	-22.538	-0.295	-0.178
-625.449	-109.697	0.309	-0.065
-624.434	-200.000	0.016	0.254
-623.419	125.044	-0.182	-0.229
-622.405	6.942	-0.288	-0.214
-621.390	177.554	0.232	-0.338
-620.376	163.608	-0.081	-0.113
-619.361	61.832	0.107	-0.106
-618.346	-139.149	-0.473	0.051
-617.332	-200.000	-0.000	0.092
-616.317	-57.982	0.166	-0.072
-615.303	-22.176	0.168	-0.102
-614.288	-200.000	0.000	0.013
-613.273	222.804	0.211	0.339
-612.259	-200.000	-0.228	0.001
-611.244	-79.037	-0.164	0.056
-610.230	-68.280	0.065	-0.025
-609.215	193.886	-0.158	-0.238
-608.201	57.877	0.084	0.082
-607.186	-200.000	-0.006	-0.103
-606.171	800.000	0.083	0.245
-605.157	733.067	-0.088	0.234
-604.142	14.467	0.183	0.143
-603.128	800.000	0.046	0.180
-602.113	107.649	-0.234	-0.278
-601.098	800.000	-0.020	-0.058
-600.084	800.000	0.086	0.239
-599.069	-95.769	0.282	0.075
-598.055	118.943	0.146	-0.180
-597.040	-0.807	0.298	-0.210
-596.025	160.954	-0.068	-0.095
-595.011	354.610	-0.096	-0.191
-593.996	-200.000	0.027	0.427
-592.982	-38.977	-0.059	-0.031
-591.967	-10.800	-0.227	-0.150
-590.952	12.474	-0.156	-0.120
-589.938	3.072	0.153	0.111
-588.923	800.000	0.031	-0.087
-587.909	319.925	0.075	-0.142
-586.894	-81.715	-0.114	0.037
-585.879	581.844	-0.071	0.173
-584.865	800.000	0.138	-0.463
-583.850	98.293	0.272	-0.312
-582.836	-200.000	-0.041	-0.184
-581.821	-200.000	0.039	0.480
-580.806	-200.000	0.026	0.245
-579.792	-27.380	0.221	-0.128
-578.777	-200.000	-0.024	-0.127
-577.763	-29.459	0.096	0.055
-576.748	-200.000	-0.066	-0.335
-575.733	800.000	0.108	-0.339
-574.719	-109.371	0.143	-0.030
-573.704	-200.000	0.027	-0.233
-572.690	-127.167	-0.176	0.026
-571.675	800.000	-0.032	0.100
-570.661	-26.490	-0.137	0.080
-569.646	800.000	-0.041	0.145
-568.631	617.664	0.025	-0.063
-567.617	204.498	0.214	-0.330
-566.602	618.996	0.152	-0.379
-565.588	185.168	-0.197	0.291
-564.573	-200.000	0.016	-0.089
-563.558	800.000	0.097	0.365
-562.544	147.477	-0.166	0.222
-561.529	428.023	0.045	0.098
-560.515	-111.159	0.449	-0.092
-559.500	-200.000	-0.043	-0.292
-558.485	-131.469	-0.439	0.058
-557.471	306.966	0.081	0.150
-556.456	-36.301	-0.115	0.062
-555.442	415.206	-0.087	0.184
-554.427	124.470	-0.139	0.174
-553.412	27.650	-0.293	-0.245
-552.398	800.000	-0.030	0.086
-551.383	-200.000	0.004	-0.145
-550.369	-19.315	0.188	-0.116
-549.354	-200.000	-0.006	0.144
-548.339	437.908	0.094	0.205
-547.325	-24.796	0.039	0.023
-546.310	195.192	0.116	-0.175
-545.296	-80.890	0.146	0.048
-544.281	277.081	-0.140	0.247
-543.266	800.000	-0.072	0.249
-542.252	-24.014	-0.117	0.069
-541.237	-20.882	-0.114	-0.070
-540.223	-82.550	-0.379	0.122
-539.208	-84.200	0.165	-0.052
-538.193	114.181	-0.057	-0.069
-537.179	-17.346	0.195	-0.122
-536.164	-94.388	-0.279	0.076
-535.150	341.109	-0.297	-0.576
-534.135	800.000	0.079	-0.250
-533.121	-200.000	-0.032	0.199
-532.106	277.423	-0.095	0.168
-531.091	16.116	0.138	0.109
-530.077	60.150	-0.245	0.241
-529.062	126.158	0.226	-0.284
-528.048	-72.602	-0.325	0.119
-527.033	369.465	0.056	0.112
-526.018	-200.000	0.060	-0.415
-525.004	800.000	0.058	-0.167
-523.989	119.351	-0.057	-0.070
-522.975	273.841	0.076	-0.133
-521.960	-67.796	0.179	-0.070
-520.945	-65.231	-0.025	0.010
-519.931	148.736	0.143	-0.192
-518.916	-29.247	-0.089	0.051
-517.902	-200.000	-0.024	-0.198
-516.887	800.000	0.111	-0.350
-515.872	-77.372	-0.175	-0.060
-514.858	-200.000	-0.024	0.116
-513.843	153.879	0.327	0.445
-512.829	100.821	-0.079	0.091
-511.814	-200.000	-0.009	-0.058
-510.799	-200.000	0.008	-0.059
-509.785	325.099	-0.188	-0.357
-508.770	-39.667	0.165	0.086
-507.756	-100.040	-0.490	0.121
-506.741	-176.811	0.197	0.005
-505.726	-200.000	-0.066	-0.000
-504.712	-3.773	-0.108	-0.074
-503.697	95.922	-0.218	0.247
-502.683	-152.531	-0.269	-0.019
-501.668	92.276	0.128	0.143
-500.653	55.327	0.248	0.238
-499.639	37.057	0.225	-0.198
-498.624	-200.000	-0.016	-0.166
-497.610	800.000	0.059	0.213
-496.595	-4.183	0.022	-0.015
-495.581	98.589	-0.261	0.299
-494.566	-118.418	0.132	0.023
-493.551	328.063	0.165	0.314
-492.537	120.051	-0.040	0.049
-491.522	-200.000	0.011	-0.344
-490.508	-200.000	-0.004	-0.120
-489.493	9.589	-0.142	0.107
-488.478	-199.428	-0.104	-0.001
-487.464	800.000	0.055	0.168
-486.449	-101.440	-0.487	0.118
-485.435	-76.381	-0.137	-0.048
-484.420	800.000	0.053	-0.152
-483.405	-200.000	-0.005	-0.235
-482.391	-55.681	0.189	-0.084
-481.376	-200.000	0.011	0.192
-480.362	-117.477	0.107	0.019
-479.347	-156.265	-0.106	-0.007
-478.332	202.642	-0.127	-0.195
-477.318	3.863	-0.165	0.119
-476.303	37.797	0.362	0.319
-475.289	6.860	0.245	0.181
-474.274	-200.000	-0.007	0.173
-473.259	135.081	0.221	-0.285
-472.245	800.000	0.003	-0.012
-471.230	-136.386	-0.172	-0.020
-470.216	-200.000	0.032	0.139
-469.201	800.000	-0.050	0.168
-468.186	165.648	-0.144	0.202
-467.172	172.033	0.057	-0.082
-466.157	-81.813	0.412	0.134
-465.143	-200.000	-0.008	-0.130
-464.128	-107.013	-0.040	0.009
-463.113	800.000	0.073	0.224
-462.099	-28.360	-0.366	0.209
-461.084	329.251	0.142	-0.271
-460.070	125.610	-0.121	-0.152
-459.055	68.498	-0.082	0.084
-458.040	33.285	-0.122	-0.105
-457.026	-32.480	-0.239	-0.132
-456.011	15.767	0.240	-0.187
-454.997	83.525	0.090	0.097
-453.982	485.326	0.078	-0.175
-452.968	28.609	-0.193	-0.162
-451.953	186.196	0.232	0.342
-450.938	-123.757	0.235	0.037
-449.924	-31.851	0.373	-0.208
-448.909	163.939	0.194	-0.271
-447.895	59.782	0.120	0.117
-446.880	-200.000	-0.039	-0.183
-445.865	-80.338	-0.240	-0.080
-444.851	-121.600	0.189	-0.031
-443.836	604.732	0.040	-0.100
-442.822	109.545	0.157	-0.186
-441.807	43.953	0.322	0.293
-440.792	138.349	-0.318	0.414
-439.778	-110.665	0.210	0.043
-438.763	37.435	0.341	0.299
-437.749	-73.577	-0.039	0.014
-436.734	-193.274	-0.231	-0.002
-435.719	-24.915	-0.072	0.042
-434.705	-200.000	0.058	-0.372
-433.690	611.366	-0.116	-0.288
-432.676	399.280	0.055	-0.114
-431.661	-34.197	-0.143	-0.078
-430.646	-5.098	0.208	0.142
-429.632	-120.553	-0.124	-0.021
-428.617	-52.320	-0.091	0.042
-427.603	-60.338	0.211	-0.089
-426.588	70.188	0.148	-0.151
-425.573	-105.027	-0.304	0.069
-424.559	-54.105	-0.229	0.103
-423.544	-200.000	0.047	-0.364
-422.530	-30.485	0.169	-0.095
-421.515	-200.000	-0.013	0.097
-420.500	675.966	0.035	-0.090
-419.486	-90.954	-0.294	0.084
-418.471	-200.000	0.040	0.195
-417.457	-54.094	0.105	0.047
-416.442	-92.078	-0.218	-0.061
-415.428	-200.000	0.052	0.234
-414.413	16.197	-0.150	0.117
-413.398	-172.648	0.269	0.008
-412.384	-153.551	-0.114	-0.008
-411.369	14.212	0.254	-0.196
-410.355	396.181	0.049	0.101
-409.340	272.897	-0.156	-0.273
-408.325	-200.000	-0.008	-0.136
-407.311	398.218	-0.210	0.434
-406.296	-39.166	0.392	0.204
-405.282	-93.506	0.118	-0.032
-404.267	-35.391	0.100	0.054
-403.252	800.000	0.039	0.140
-402.238	-144.894	-0.311	0.028
-401.223	-87.647	0.184	0.055
-400.209	-66.605	0.093	-0.036
-399.194	-16.180	-0.046	0.029
-398.179	204.688	-0.162	0.249
-397.165	-162.305	0.140	0.007
-396.150	42.259	-0.204	-0.183
-395.136	-70.262	-0.103	-0.039
-394.121	275.503	0.080	-0.141
-393.106	209.079	-0.077	-0.119
-392.092	367.371	0.111	-0.221
-391.077	-110.693	-0.149	0.030
-390.063	-121.114	-0.004	-0.001
-389.048	-19.707	-0.227	0.139
-388.033	-110.440	-0.323	-0.066
-387.019	-61.152	0.076	-0.032
-386.004	800.000	0.116	0.425
-384.990	-132.773	-0.163	-0.021
-383.975	800.000	-0.062	0.216
-382.960	-40.339	-0.095	-0.049
-381.946	313.374	0.037	-0.069
-380.931	50.859	0.092	0.087
-379.917	-79.466	-0.187	0.063
-378.902	-200.000	0.020	-0.266
-377.888	800.000	0.050	-0.209
-376.873	-200.000	0.003	-0.133
-375.858	-200.000	0.001	-0.016
-374.844	800.000	0.062	-0.253
-373.829	422.868	0.051	0.107
-372.815	166.064	-0.027	0.038
-371.800	-200.000	-0.053	-0.312
-370.785	35.647	0.105	0.091
-369.771	800.000	0.058	0.166
-368.756	630.616	-0.172	-0.430
-367.742	-200.000	0.022	0.306
-366.727	273.858	0.260	0.455
-365.712	-200.000	-0.014	-0.157
-364.698	67.563	0.059	0.060
-363.683	130.831	0.200	0.253
-362.669	-0.115	-0.166	-0.117
-361.654	398.463	-0.169	0.350
-360.639	158.667	-0.083	0.114
-359.625	-92.985	-0.052	0.014
-358.610	165.921	0.219	-0.306
-357.596	-24.572	0.101	-0.059
-356.581	-102.102	0.237	0.056
-355.566	23.732	0.181	0.147
-354.552	-153.651	0.027	0.002
-353.537	-126.684	-0.271	0.040
-352.523	34.708	0.181	0.156
-351.508	130.079	-0.101	0.128
-350.493	-15.774	0.052	0.033
-349.479	-200.000	0.051	0.230
-348.464	276.178	-0.104	0.183
-347.450	-200.000	-0.042	-0.331
-346.435	-102.162	0.111	-0.026
-345.420	-200.000	0.039	-0.404
-344.406	800.000	0.079	-0.227
-343.391	-200.000	0.044	-0.241
-342.377	285.177	-0.162	0.288
-341.362	-200.000	-0.078	0.422
-340.348	800.000	-0.096	0.284
-339.333	-67.431	0.250	-0.097
-338.318	99.046	-0.118	0.134
-337.304	174.164	0.241	-0.343
-336.289	800.000	-0.019	-0.064
-335.275	662.854	0.070	0.177
-334.260	800.000	-0.055	-0.228
-333.245	-129.550	-0.126	-0.017
-332.231	800.000	-0.057	0.165
-331.216	168.695	-0.210	0.295
-330.202	-200.000	-0.005	0.112
-329.187	5.467	0.119	-0.087
-328.172	-15.125	-0.227	-0.143
-327.158	-54.352	-0.105	0.047
-326.143	34.092	0.274	-0.236
-325.129	-200.000	0.004	-0.053
-324.114	51.867	-0.135	-0.127
-323.099	-191.806	0.038	-0.000
-322.085	-71.342	-0.229	-0.084
-321.070	-56.118	-0.242	0.106
-320.056	170.837	-0.187	0.264
-319.041	-200.000	-0.016	0.093
-318.026	-200.000	-0.032	-0.426
-317.012	-90.307	-0.193	-0.055
-315.997	20.635	0.295	0.235
-314.983	-143.025	0.108	-0.010
-313.968	-52.119	-0.467	-0.214
-312.953	800.000	-0.030	-0.116
-311.939	175.579	0.067	-0.095
-310.924	4.861	0.152	-0.110
-309.910	-149.398	0.252	-0.020
-308.895	43.087	0.203	-0.183
-307.880	14.379	-0.343	0.264
-306.866	800.000	-0.046	-0.125
-305.851	800.000	0.101	0.325
-304.837	-183.170	-0.141	0.002
-303.822	437.628	-0.059	0.126
-302.807	72.220	-0.220	-0.226
-301.793	451.386	-0.153	0.334
-300.778	96.903	0.221	0.249
-299.764	-200.000	-0.020	0.480
-298.749	-200.000	0.009	-0.084
-297.735	-200.000	-0.007	0.274
-296.720	4.615	0.105	0.076
-295.705	-142.309	-0.329	0.032
-294.691	-26.964	-0.172	-0.099
-293.676	-100.230	0.241	-0.059
-292.662	-35.063	0.125	0.067
-291.647	-181.570	0.129	-0.002
-290.632	75.645	0.262	0.273
-289.618	592.079	0.055	-0.133
-288.603	-22.591	0.117	0.069
-287.589	-200.000	0.013	-0.187
-286.574	9.039	-0.169	0.125
-285.559	-175.337	-0.207	-0.006
-284.545	-164.608	-0.248	0.011
-283.530	-200.000	-0.051	-0.235
-282.516	-200.000	0.025	0.284
-281.501	107.800	0.217	-0.255
-280.486	-39.946	0.060	-0.031
-279.472	-121.767	0.418	-0.068
-278.457	-27.686	0.135	0.077
-277.443	798.739	-0.111	-0.302
-276.428	-31.817	0.165	0.091
-275.413	-200.000	0.023	-0.308
-274.399	-200.000	0.027	-0.204
-273.384	-90.026	0.154	0.044
-272.370	171.035	0.311	0.439
-271.355	-80.184	-0.068	0.022
-270.340	276.524	-0.109	0.190
-269.326	-64.107	0.206	-0.083
-268.311	-142.977	0.231	-0.022
-267.297	36.510	-0.138	0.120
-266.282	-136.035	0.182	0.021
-265.267	-200.000	0.005	0.029
-264.253	-70.386	-0.226	0.084
-263.238	328.330	0.043	0.082
-262.224	4.178	0.130	-0.094
-261.209	157.317	0.144	-0.196
-260.195	-106.139	0.205	-0.045
-259.180	-14.026	-0.190	-0.121
-258.165	-200.000	0.035	0.397
-257.151	-55.515	-0.294	0.129
-256.136	-200.000	0.066	-0.372
-255.122	-34.017	-0.210	0.114
-254.107	100.260	0.175	-0.200
-253.092	716.230	-0.092	0.240
-252.078	49.295	-0.059	0.054
-251.063	37.152	0.129	-0.112
-250.049	198.297	0.062	-0.093
-249.034	-121.123	0.118	-0.019
-248.019	-77.650	-0.307	0.104
-247.005	176.047	0.138	-0.197
-245.990	145.335	-0.122	0.160
-244.976	-200.000	-0.000	-0.282
-243.961	206.454	0.211	-0.324
-242.946	800.000	-0.043	0.119
-241.932	-2.574	0.152	0.105
-240.917	-67.245	-0.318	0.123
-239.903	47.323	0.242	0.222
-238.888	800.000	0.033	0.140
-237.873	-200.000	0.048	0.330
-236.859	-83.604	-0.201	-0.063
-235.844	313.260	-0.057	0.105
-234.830	-97.629	0.194	-0.050
-233.815	-200.000	-0.025	-0.151
-232.800	-200.000	-0.018	0.441
-231.786	-102.393	-0.119	0.028
-230.771	-200.000	0.002	0.244
-229.757	-81.267	0.134	0.043
-228.742	-70.090	-0.329	-0.123
-227.727	-22.044	-0.339	-0.202
-226.713	151.955	0.273	0.366
-225.698	-200.000	0.008	0.257
-224.684	75.302	-0.303	-0.314
-223.669	-151.703	-0.132	0.010
-222.655	324.617	-0.115	-0.215
-221.640	4.667	-0.071	0.051
-220.625	388.184	0.040	0.081
-219.611	26.047	0.169	0.139
-218.596	-91.149	-0.239	0.067
-217.582	800.000	-0.059	-0.235
-216.567	-73.814	-0.056	-0.020
-215.552	-200.000	0.037	0.334
-214.538	-98.924	-0.429	-0.107
-213.523	184.819	0.123	0.180
-212.509	-70.108	0.274	-0.102
-211.494	25.683	-0.080	-0.065
-210.479	-200.000	-0.033	-0.178
-209.465	-41.498	-0.140	-0.071
-208.450	-184.952	0.243	0.004
-207.436	284.078	-0.078	-0.138
-206.421	-166.565	0.373	-0.015
-205.406	800.000	0.096	-0.271
-204.392	-26.296	0.217	-0.125
-203.377	800.000	0.026	-0.080
-202.363	-39.189	-0.091	0.047
-201.348	-200.000	-0.009	-0.327
-200.333	334.310	-0.121	0.230
-199.319	669.119	0.105	0.267
-198.304	134.483	-0.049	-0.062
-197.290	-25.594	0.336	0.195
-196.275	-95.214	0.089	0.024
-195.260	176.437	0.239	-0.341
-194.246	-34.997	-0.208	-0.112
-193.231	-37.380	-0.282	0.148
-192.217	-73.200	-0.435	0.157
-191.202	-10.716	0.130	0.084
-190.187	426.745	-0.093	0.198
-189.173	155.860	0.120	0.163
-188.158	85.208	0.211	-0.227
-187.144	-123.002	0.226	-0.036
-186.129	-69.895	0.194	0.073
-185.114	49.604	0.131	-0.121
-184.100	-2.211	-0.279	-0.192
-183.085	62.426	-0.218	0.214
-182.071	800.000	0.066	-0.199
-181.056	15.031	-0.029	0.023
-180.042	46.119	-0.025	-0.023
-179.027	-85.937	-0.058	-0.017
-178.012	-134.909	-0.200	-0.024
-176.998	-108.015	0.064	-0.014
-175.983	98.749	0.294	0.333
-174.969	56.783	0.080	-0.077
-173.954	130.956	-0.045	0.057
-172.939	-129.739	0.308	0.042
-171.925	602.920	0.064	0.157
-170.910	8.079	-0.175	-0.129
-169.896	239.563	-0.227	0.371
-168.881	-84.694	-0.434	0.134
-167.866	-111.367	-0.157	-0.031
-166.852	-200.000	-0.012	-0.424
-165.837	-59.344	0.399	0.168
-164.823	282.438	-0.161	0.283
-163.808	-116.007	0.205	0.037
-162.793	111.137	-0.272	-0.321
-161.779	-85.333	-0.208	0.063
-160.764	681.373	-0.073	0.187
-159.750	43.225	0.244	0.218
-158.735	217.091	0.117	-0.183
-157.720	31.322	0.153	-0.129
-156.706	-200.000	0.031	-0.252
-155.691	491.258	0.054	-0.122
-154.677	-80.061	-0.071	-0.023
-153.662	-200.000	-0.053	-0.251
-152.647	-132.490	0.155	0.020
-151.633	3.899	-0.138	-0.099
-150.618	353.435	0.159	-0.308
-149.604	-200.000	-0.027	-0.148
-148.589	13.737	0.196	-0.149
-147.574	-98.546	0.215	-0.054
-146.560	549.663	0.114	-0.268
-145.545	800.000	0.083	-0.311
-144.531	-28.089	0.354	-0.201
-143.516	-70.956	-0.047	-0.017
-142.502	-128.810	0.203	0.028
-141.487	-200.000	-0.001	-0.071
-140.472	210.768	0.140	-0.215
-139.458	74.371	0.192	0.198
-138.443	-98.199	-0.086	0.022
-137.429	-13.416	0.142	-0.090
-136.414	511.805	-0.049	-0.113
-135.399	-28.019	-0.192	-0.109
-134.385	-200.000	0.030	0.248
-133.370	258.503	0.144	0.243
-132.356	-200.000	-0.021	-0.258
-131.341	49.279	0.142	-0.131
-130.326	375.194	0.100	-0.199
-129.312	-89.529	-0.206	0.059
-128.297	-136.240	0.145	0.017
-127.283	420.058	0.117	0.245
-126.268	-112.616	0.184	-0.036
-125.253	-135.283	-0.205	-0.024
-124.239	-200.000	-0.003	0.205
-123.224	-6.856	-0.086	0.057
-122.210	207.906	0.181	-0.276
-121.195	632.243	-0.319	-0.790
