DTS Sentinel unit serial number:	SN413079Multiplexer serial number:	ORYXHardware model number:	OX4-SRSoftware version number:	ORYX F/W v4.00 Oryx Data Collector v3.7.2.0data status	okinstallation	princeton_trtdifferential loss correction	single-endedforward channel	channel 1reverse channel	N/Adate	2019/09/12time	23:22:35forward acquisition time	60.00reverse acquisition time	0.00gamma	496.2192k internal	0.2328k external	0.2328temperature offset calibration	1.0145default loss term (dB/km)	0.3790temperature slope calibration	1.0000multiplexer offset coefficient	1.0000multiplexer slope coefficient	1.0000fibre end	0.00T internal ref (°C)	29.06T ext. ref 1 (°C)	3.74T ext. ref 2 (°C)	23.73length (m)	temperature (°C)	Stokes	anti-Stokes-747.200	34.329	0.094	0.083
-746.185	-200.000	0.003	0.198
-745.171	70.880	-0.338	0.353
-744.156	800.000	0.161	0.455
-743.142	34.550	0.259	-0.228
-742.127	382.925	-0.095	0.198
-741.112	56.079	0.252	0.247
-740.098	-104.218	-0.365	-0.086
-739.083	-200.000	-0.019	-0.550
-738.069	-81.758	-0.340	0.112
-737.054	-177.614	-0.136	-0.003
-736.039	-85.929	-0.305	-0.095
-735.025	447.868	0.045	-0.101
-734.010	293.209	-0.022	0.040
-732.996	-77.026	-0.310	-0.109
-731.981	-200.000	-0.026	-0.119
-730.966	38.948	0.213	0.192
-729.952	800.000	-0.042	-0.144
-728.937	189.315	-0.253	-0.382
-727.923	-176.608	-0.314	-0.008
-726.908	-101.025	-0.329	-0.081
-725.894	62.477	0.107	0.107
-724.879	-96.604	0.220	0.058
-723.864	800.000	-0.003	0.008
-722.850	-113.834	0.036	-0.007
-721.835	800.000	0.087	-0.345
-720.821	-105.513	-0.527	-0.120
-719.806	-63.754	-0.251	-0.103
-718.791	-166.928	0.016	-0.001
-717.777	800.000	-0.097	0.271
-716.762	-5.217	-0.081	0.056
-715.748	33.121	-0.221	-0.193
-714.733	303.504	0.147	0.274
-713.718	-193.604	0.506	0.004
-712.704	-200.000	0.016	-0.078
-711.689	-200.000	-0.033	0.191
-710.675	-186.153	0.279	0.004
-709.660	-19.977	0.198	-0.123
-708.645	-192.482	0.275	-0.003
-707.631	71.813	0.203	0.212
-706.616	-200.000	0.004	-0.027
-705.602	731.571	-0.053	-0.142
-704.587	-170.786	0.153	0.005
-703.572	9.949	0.115	-0.088
-702.558	-49.244	0.110	0.053
-701.543	-200.000	-0.001	-0.436
-700.529	119.898	0.065	0.081
-699.514	-77.014	-0.095	0.033
-698.499	-199.349	-0.214	0.001
-697.485	-154.780	-0.247	-0.016
-696.470	99.346	0.132	-0.154
-695.456	-200.000	-0.017	0.297
-694.441	70.751	0.085	-0.088
-693.426	53.654	-0.190	-0.183
-692.412	73.068	-0.062	-0.065
-691.397	-200.000	-0.022	-0.299
-690.383	-150.902	0.524	-0.040
-689.368	800.000	0.045	0.133
-688.354	-15.205	-0.388	-0.250
-687.339	-200.000	-0.022	-0.232
-686.324	-115.418	-0.279	0.053
-685.310	-200.000	0.055	0.283
-684.295	-54.127	-0.347	-0.159
-683.281	-177.283	0.163	0.004
-682.266	572.008	0.176	-0.432
-681.251	-49.127	-0.074	0.036
-680.237	126.676	-0.185	0.236
-679.222	-200.000	-0.021	-0.332
-678.208	800.000	0.040	0.154
-677.193	23.472	-0.350	0.289
-676.178	-114.242	-0.129	-0.025
-675.164	171.334	0.053	0.077
-674.149	-200.000	0.030	-0.169
-673.135	-57.203	-0.134	0.059
-672.120	53.599	0.197	0.190
-671.105	-130.272	-0.306	-0.042
-670.091	2.079	0.217	0.157
-669.076	-105.649	-0.191	-0.043
-668.062	131.941	-0.235	0.304
-667.047	-7.568	-0.292	0.199
-666.032	-200.000	0.033	-0.190
-665.018	-200.000	0.025	0.209
-664.003	139.784	-0.181	0.239
-662.989	-200.000	-0.010	-0.089
-661.974	-200.000	-0.015	-0.224
-660.959	800.000	-0.046	-0.192
-659.945	211.509	-0.226	-0.357
-658.930	-124.895	-0.493	-0.076
-657.916	71.913	-0.134	-0.140
-656.901	118.671	0.121	0.151
-655.886	132.183	-0.121	0.156
-654.872	-145.773	-0.316	0.028
-653.857	5.577	-0.352	0.261
-652.843	-121.475	0.089	0.015
-651.828	-69.630	-0.119	0.046
-650.814	-63.657	-0.251	0.103
-649.799	-104.190	-0.368	-0.086
-648.784	-200.000	0.006	-0.219
-647.770	-200.000	0.028	-0.249
-646.755	800.000	-0.033	-0.107
-645.741	-23.294	-0.087	0.052
-644.726	-200.000	0.066	-0.418
-643.711	79.995	0.114	0.123
-642.697	-200.000	-0.001	-0.243
-641.682	800.000	-0.060	0.168
-640.668	370.098	-0.070	-0.143
-639.653	-200.000	-0.072	-0.351
-638.638	118.871	0.154	0.191
-637.624	-84.211	0.286	0.091
-636.609	-172.761	0.264	-0.008
-635.595	-48.756	0.191	-0.092
-634.580	287.902	-0.091	-0.166
-633.565	2.257	-0.121	0.088
-632.551	-4.578	0.088	-0.061
-631.536	-92.663	0.110	0.031
-630.522	800.000	0.070	0.205
-629.507	-49.452	0.142	0.068
-628.492	137.019	0.123	-0.161
-627.478	85.074	0.069	-0.076
-626.463	-37.752	0.243	-0.130
-625.449	800.000	0.029	0.087
-624.434	105.150	0.040	0.047
-623.419	-23.308	0.032	-0.019
-622.405	-200.000	0.029	-0.321
-621.390	74.276	0.094	0.099
-620.376	-177.123	-0.287	0.007
-619.361	-90.444	-0.354	0.103
-618.346	-46.412	-0.121	0.059
-617.332	-131.869	-0.487	0.064
-616.317	-153.209	-0.208	0.015
-615.303	-138.226	-0.157	0.017
-614.288	293.313	0.026	-0.047
-613.273	-35.186	-0.500	0.273
-612.259	-66.680	0.088	0.035
-611.244	671.225	-0.124	-0.323
-610.230	302.282	-0.058	-0.108
-609.215	-200.000	0.015	0.191
-608.201	58.525	-0.306	-0.301
-607.186	-200.000	-0.008	-0.079
-606.171	-80.378	-0.455	-0.152
-605.157	495.195	-0.083	-0.190
-604.142	-200.000	0.049	-0.260
-603.128	-13.733	0.154	0.100
-602.113	282.481	0.097	-0.174
-601.098	800.000	-0.095	-0.266
-600.084	-49.278	0.147	0.070
-599.069	-45.782	0.222	0.110
-598.055	117.681	0.470	0.580
-597.040	544.710	-0.179	0.429
-596.025	61.087	-0.214	0.212
-595.011	100.127	0.065	-0.075
-593.996	188.872	0.121	0.182
-592.982	-117.311	0.232	-0.042
-591.967	249.765	0.062	0.105
-590.952	-142.256	0.083	-0.008
-589.938	-155.468	0.219	0.014
-588.923	126.531	-0.047	-0.059
-587.909	188.254	-0.107	0.160
-586.894	-175.333	-0.193	0.005
-585.879	264.065	-0.102	-0.178
-584.865	800.000	0.072	0.243
-583.850	50.135	-0.100	0.094
-582.836	323.123	0.063	-0.120
-581.821	-196.290	-0.158	0.001
-580.806	23.227	-0.204	0.168
-579.792	262.292	-0.039	0.068
-578.777	-57.215	-0.259	-0.114
-577.763	-200.000	-0.014	-0.105
-576.748	-200.000	0.019	-0.123
-575.733	71.277	-0.213	0.222
-574.719	160.896	0.051	0.071
-573.704	130.972	-0.087	0.112
-572.690	128.778	0.083	0.106
-571.675	-200.000	-0.015	-0.072
-570.661	19.013	-0.257	-0.206
-569.646	-200.000	0.017	0.310
-568.631	555.382	-0.008	0.019
-567.617	-135.298	0.260	-0.031
-566.602	19.289	0.039	0.031
-565.588	-164.112	0.206	0.010
-564.573	44.701	-0.231	-0.212
-563.558	800.000	0.107	0.367
-562.544	-126.988	-0.385	0.057
-561.529	684.005	0.047	0.123
-560.515	564.895	-0.101	-0.245
-559.500	-176.805	-0.335	0.009
-558.485	-50.808	-0.419	-0.197
-557.471	43.601	-0.116	0.107
-556.456	-47.134	-0.214	0.104
-555.442	84.295	0.300	0.328
-554.427	33.387	-0.116	0.101
-553.412	-200.000	0.022	-0.366
-552.398	9.311	-0.099	0.075
-551.383	539.380	-0.059	0.139
-550.369	101.291	0.143	0.167
-549.354	57.237	0.255	-0.249
-548.339	-120.951	0.321	-0.054
-547.325	-200.000	-0.012	0.068
-546.310	-200.000	-0.044	0.412
-545.296	409.521	0.053	-0.113
-544.281	-63.699	0.100	0.041
-543.266	-69.679	-0.011	-0.004
-542.252	207.497	-0.052	0.080
-541.237	800.000	-0.084	0.341
-540.223	8.993	0.169	-0.128
-539.208	49.119	-0.082	0.077
-538.193	800.000	-0.031	0.088
-537.179	-113.023	0.359	-0.071
-536.164	788.728	-0.007	0.020
-535.150	-200.000	0.028	-0.433
-534.135	-96.661	0.434	0.114
-533.121	-200.000	0.061	0.325
-532.106	-200.000	0.043	0.230
-531.091	800.000	0.145	0.545
-530.077	-104.778	0.071	-0.016
-529.062	-25.527	0.157	0.093
-528.048	-115.114	0.277	0.053
-527.033	129.508	-0.078	0.099
-526.018	181.210	0.066	-0.097
-525.004	61.299	-0.173	-0.172
-523.989	-35.782	0.095	-0.052
-522.975	120.717	0.154	-0.192
-521.960	-77.214	-0.221	0.077
-520.945	-200.000	-0.018	0.139
-519.931	-63.402	0.118	-0.048
-518.916	184.984	0.108	0.160
-517.902	287.485	-0.222	0.401
-516.887	461.336	0.092	0.206
-515.872	-200.000	0.002	0.149
-514.858	-200.000	0.005	-0.198
-513.843	134.558	0.064	-0.082
-512.829	-190.958	0.094	-0.001
-511.814	-200.000	-0.111	-0.564
-510.799	150.959	-0.133	0.181
-509.785	496.778	0.079	0.180
-508.770	-200.000	-0.054	-0.305
-507.756	-200.000	-0.044	-0.241
-506.741	37.334	0.091	0.081
-505.726	-60.595	-0.256	-0.109
-504.712	-200.000	-0.028	-0.179
-503.697	-200.000	0.002	0.210
-502.683	308.019	0.043	-0.079
-501.668	-90.430	0.296	-0.086
-500.653	227.908	0.088	-0.142
-499.639	800.000	-0.092	0.286
-498.624	157.194	-0.104	-0.144
-497.610	-200.000	0.015	0.147
-496.595	-78.801	0.077	-0.026
-495.581	-200.000	0.023	-0.147
-494.566	-53.646	0.192	-0.088
-493.551	110.810	-0.203	0.244
-492.537	-200.000	-0.005	0.347
-491.522	-200.000	-0.011	0.215
-490.508	-110.669	0.134	-0.028
-489.493	35.534	0.180	0.158
-488.478	-9.826	0.295	-0.196
-487.464	-152.640	-0.633	-0.045
-486.449	86.759	-0.177	0.195
-485.435	112.967	0.091	0.111
-484.420	-144.903	-0.170	-0.016
-483.405	-88.616	-0.264	-0.078
-482.391	-12.907	0.300	-0.195
-481.376	121.827	-0.047	0.058
-480.362	727.558	0.154	0.410
-479.347	-96.921	-0.203	-0.053
-478.332	24.714	-0.274	0.227
-477.318	-53.062	0.263	-0.121
-476.303	-58.426	-0.366	0.158
-475.289	-116.289	0.325	0.060
-474.274	161.864	-0.134	-0.187
-473.259	800.000	0.129	-0.421
-472.245	-133.471	0.512	0.064
-471.230	-48.222	-0.102	0.049
-470.216	-200.000	-0.013	-0.157
-469.201	97.331	0.197	0.226
-468.186	40.948	0.164	0.148
-467.172	-68.557	0.140	0.054
-466.157	224.715	0.146	-0.235
-465.143	-107.655	-0.138	-0.030
-464.128	-46.383	0.031	0.015
-463.113	268.378	-0.053	-0.093
-462.099	459.749	-0.141	-0.313
-461.084	-75.395	-0.361	-0.128
-460.070	-200.000	-0.000	-0.090
-459.055	-200.000	-0.002	0.010
-458.040	-200.000	0.022	0.103
-457.026	-60.105	0.057	0.024
-456.011	800.000	0.060	-0.229
-454.997	-26.406	0.381	0.222
-453.982	95.310	-0.201	0.228
-452.968	244.776	0.158	-0.265
-451.953	12.328	0.064	0.049
-450.938	-13.937	0.330	-0.212
-449.924	-200.000	0.015	-0.181
-448.909	-26.030	0.256	-0.150
-447.895	-102.557	-0.225	0.054
-446.880	107.108	-0.245	-0.289
-445.865	-36.351	0.169	0.091
-444.851	-12.644	0.277	-0.180
-443.836	-165.838	0.120	-0.005
-442.822	-58.347	-0.247	0.107
-441.807	-61.488	0.246	-0.103
-440.792	335.364	-0.250	0.482
-439.778	414.495	-0.071	-0.151
-438.763	338.631	0.168	-0.327
-437.749	120.822	0.166	0.206
-436.734	-47.369	0.178	-0.086
-435.719	155.454	-0.121	-0.166
-434.705	-71.447	0.225	0.084
-433.690	-146.167	-0.168	0.015
-432.676	87.052	-0.296	0.326
-431.661	800.000	-0.092	-0.274
-430.646	94.182	0.142	0.160
-429.632	87.533	-0.396	0.436
-428.617	-39.692	0.138	0.072
-427.603	-200.000	-0.048	-0.392
-426.588	94.589	-0.177	-0.200
-425.573	-9.478	0.141	-0.094
-424.559	45.247	0.199	0.183
-423.544	-188.898	0.389	-0.005
-422.530	12.466	-0.229	-0.176
-421.515	-162.975	0.229	0.011
-420.500	800.000	0.134	0.374
-419.486	-14.993	-0.362	-0.231
-418.471	-200.000	0.025	-0.281
-417.457	19.809	0.362	0.290
-416.442	95.359	-0.088	0.100
-415.428	144.585	-0.054	-0.072
-414.413	36.740	-0.104	0.091
-413.398	-118.738	-0.049	0.009
-412.384	23.173	-0.248	0.202
-411.369	-118.884	0.292	0.051
-410.355	125.078	0.095	0.120
-409.340	-200.000	-0.007	-0.143
-408.325	-197.744	-0.286	0.002
-407.311	-128.152	-0.253	0.036
-406.296	-200.000	0.040	0.245
-405.282	-90.661	-0.090	-0.026
-404.267	135.137	0.038	-0.049
-403.252	-75.263	-0.346	0.123
-402.238	654.333	-0.081	-0.205
-401.223	-0.356	-0.417	-0.295
-400.209	-161.849	0.323	0.016
-399.194	800.000	0.029	0.119
-398.179	-165.621	-0.481	0.021
-397.165	-86.245	0.181	-0.056
-396.150	800.000	0.095	-0.266
-395.136	299.710	0.219	-0.400
-394.121	41.165	-0.026	0.023
-393.106	102.604	-0.182	-0.212
-392.092	699.185	0.039	-0.101
-391.077	728.303	0.166	0.440
-390.063	115.253	-0.165	0.200
-389.048	-96.763	-0.051	0.013
-388.033	-200.000	-0.080	-0.449
-387.019	214.596	-0.151	0.238
-386.004	-71.387	-0.196	0.073
-384.990	260.205	-0.032	-0.054
-383.975	-84.787	0.360	0.113
-382.960	50.875	0.212	0.200
-381.946	-200.000	-0.053	-0.266
-380.931	57.462	-0.092	-0.089
-379.917	-200.000	0.033	-0.156
-378.902	128.248	-0.095	0.120
-377.888	248.611	0.059	-0.099
-376.873	784.471	-0.107	0.291
-375.858	-107.339	0.139	0.030
-374.844	-98.207	0.146	0.037
-373.829	-20.111	-0.095	0.058
-372.815	367.559	-0.094	-0.189
-371.800	98.284	0.180	0.206
-370.785	204.739	0.042	-0.065
-369.771	-114.833	-0.042	0.008
-368.756	-114.403	0.067	0.013
-367.742	-68.403	-0.379	-0.146
-366.727	800.000	0.027	0.109
-365.712	-138.622	0.147	-0.016
-364.698	12.770	-0.161	-0.123
-363.683	-137.603	0.152	0.017
-362.669	-93.795	0.276	0.075
-361.654	800.000	0.091	0.265
-360.639	6.852	-0.216	0.160
-359.625	-8.261	-0.020	0.013
-358.610	-93.050	-0.429	0.119
-357.596	-86.547	-0.199	0.061
-356.581	-89.836	0.057	0.017
-355.566	-47.216	0.332	-0.161
-354.552	-200.000	-0.051	-0.351
-353.537	62.401	-0.125	0.124
-352.523	-101.400	-0.193	-0.047
-351.508	-22.894	0.009	0.006
-350.493	-138.275	-0.354	0.039
-349.479	-104.826	-0.103	-0.023
-348.464	21.449	-0.229	0.185
-347.450	-123.973	0.030	-0.005
-346.435	-46.456	-0.589	-0.287
-345.420	-78.709	0.112	-0.038
-344.406	-200.000	0.068	-0.442
-343.391	800.000	0.029	-0.118
-342.377	-32.016	-0.158	0.088
-341.362	62.499	0.186	0.184
-340.348	258.254	0.146	0.249
-339.333	95.926	-0.175	0.198
-338.318	-51.350	-0.161	0.075
-337.304	-200.000	-0.006	-0.099
-336.289	800.000	-0.090	0.313
-335.275	-36.746	0.253	0.135
-334.260	-27.920	0.285	-0.163
-333.245	-22.967	0.245	0.146
-332.231	43.414	-0.019	-0.018
-331.216	551.105	0.134	-0.318
-330.202	800.000	0.030	-0.093
-329.187	178.914	-0.073	-0.106
-328.172	8.945	-0.206	0.154
-327.158	800.000	0.046	0.137
-326.143	-45.982	0.056	0.027
-325.129	-17.577	0.274	0.171
-324.114	-20.027	0.082	-0.050
-323.099	-195.199	-0.251	0.002
-322.085	-12.804	0.097	-0.063
-321.070	-200.000	0.061	-0.432
-320.056	131.927	0.079	0.101
-319.041	6.665	0.125	-0.092
-318.026	34.321	-0.141	-0.122
-317.012	353.010	-0.029	0.057
-315.997	560.991	-0.015	0.036
-314.983	-153.995	0.131	0.009
-313.968	-0.457	0.104	0.073
-312.953	87.838	-0.220	-0.241
-311.939	-200.000	-0.004	0.105
-310.924	11.968	0.152	0.116
-309.910	800.000	-0.024	-0.070
-308.895	211.465	-0.189	0.295
-307.880	800.000	0.089	-0.341
-306.866	48.404	-0.051	-0.047
-305.851	800.000	-0.060	0.239
-304.837	-78.558	0.439	-0.149
-303.822	35.589	-0.177	-0.154
-302.807	752.876	-0.098	-0.261
-301.793	371.278	-0.124	-0.248
-300.778	85.869	-0.268	-0.292
-299.764	-81.581	0.171	-0.056
-298.749	-149.120	-0.441	0.035
-297.735	-15.615	-0.097	-0.061
-296.720	38.647	-0.072	0.064
-295.705	-200.000	0.072	0.344
-294.691	-22.676	0.158	-0.094
-293.676	-180.175	0.180	0.004
-292.662	-14.061	0.201	0.128
-291.647	-200.000	-0.031	0.263
-290.632	-53.007	0.227	0.103
-289.618	24.523	0.148	0.121
-288.603	95.820	-0.328	-0.370
-287.589	6.570	-0.090	0.066
-286.574	-20.056	0.299	-0.182
-285.559	800.000	0.078	0.263
-284.545	-11.645	-0.103	-0.067
-283.530	7.086	0.213	0.157
-282.516	-49.686	0.373	-0.176
-281.501	-95.520	0.122	-0.032
-280.486	71.580	-0.162	0.167
-279.472	-3.549	-0.188	-0.130
-278.457	454.506	-0.162	-0.356
-277.443	-200.000	-0.002	-0.250
-276.428	-200.000	0.005	-0.032
-275.413	34.300	0.117	0.101
-274.399	-200.000	0.006	0.179
-273.384	-128.306	-0.185	-0.026
-272.370	173.584	0.101	0.144
-271.355	-200.000	-0.008	-0.105
-270.340	-34.976	-0.011	0.006
-269.326	-19.634	-0.105	0.064
-268.311	-13.111	0.381	-0.245
-267.297	300.704	-0.112	0.204
-266.282	19.406	-0.031	0.024
-265.267	86.179	0.133	-0.144
-264.253	144.660	0.301	0.398
-263.238	148.752	0.069	-0.092
-262.224	-200.000	0.024	-0.128
-261.209	95.665	0.248	-0.280
-260.195	800.000	-0.044	-0.184
-259.180	120.462	0.146	-0.179
-258.165	-200.000	0.029	-0.283
-257.151	-40.656	-0.167	-0.086
-256.136	-167.994	-0.267	-0.010
-255.122	11.375	-0.070	0.053
-254.107	800.000	-0.065	0.279
-253.092	-200.000	-0.030	0.194
-252.078	800.000	-0.101	0.436
-251.063	5.829	0.434	0.317
-250.049	551.688	-0.107	-0.254
-249.034	216.194	-0.240	0.378
-248.019	-200.000	-0.037	0.213
-247.005	-106.550	0.139	-0.031
-245.990	-52.252	-0.322	0.148
-244.976	-85.330	0.100	-0.031
-243.961	94.186	0.214	0.240
-242.946	-117.186	0.270	-0.049
-241.932	-105.580	-0.295	-0.066
-240.917	-200.000	-0.003	-0.032
-239.903	-5.351	0.141	-0.096
-238.888	150.912	0.053	0.071
-237.873	-93.809	-0.315	0.086
-236.859	319.744	0.150	-0.281
-235.844	250.300	0.132	-0.222
-234.830	-167.959	0.201	0.008
-233.815	104.075	0.035	0.040
-232.800	79.568	-0.272	-0.288
-231.786	-200.000	0.010	-0.170
-230.771	-61.862	0.181	-0.075
-229.757	234.040	0.089	-0.144
-228.742	-1.274	-0.199	0.139
-227.727	-200.000	-0.014	-0.106
-226.713	800.000	-0.087	0.296
-225.698	-200.000	0.017	0.128
-224.684	-200.000	0.019	0.224
-223.669	129.964	0.109	-0.137
-222.655	-133.083	-0.332	-0.042
-221.640	-60.430	0.232	-0.097
-220.625	5.097	-0.159	-0.116
-219.611	-200.000	0.006	0.081
-218.596	95.402	0.218	0.246
-217.582	-45.434	0.390	0.191
-216.567	-18.432	-0.293	-0.181
-215.552	-72.943	0.113	0.041
-214.538	-200.000	0.048	0.475
-213.523	81.764	0.173	0.185
-212.509	-52.680	-0.234	0.107
-211.494	229.404	-0.123	-0.197
-210.479	747.117	-0.028	0.073
-209.465	-67.237	0.230	0.089
-208.450	-200.000	-0.039	0.198
-207.436	-200.000	0.014	-0.139
-206.421	-200.000	0.015	0.270
-205.406	-74.087	-0.036	0.013
-204.392	-132.472	-0.112	-0.014
-203.377	-92.963	0.298	-0.082
-202.363	69.667	-0.221	-0.225
-201.348	217.325	0.194	0.305
-200.333	116.101	-0.178	-0.215
-199.319	-7.042	0.348	-0.233
-198.304	166.932	0.109	-0.152
-197.290	51.646	0.121	-0.113
-196.275	-112.741	0.309	-0.061
-195.260	-156.593	-0.065	0.004
-194.246	-67.685	0.118	-0.046
-193.231	8.338	-0.133	-0.099
-192.217	776.308	-0.040	-0.108
-191.202	-200.000	-0.040	-0.189
-190.187	-152.952	-0.151	-0.010
-189.173	185.441	0.106	-0.155
-188.158	-105.115	0.272	0.061
-187.144	-194.370	-0.082	-0.001
-186.129	-200.000	0.020	0.100
-185.114	-149.142	-0.388	-0.031
-184.100	19.728	0.247	0.196
-183.085	-5.901	-0.154	-0.104
-182.071	51.913	0.199	-0.187
-181.056	-131.049	-0.261	0.034
-180.042	-11.573	-0.455	-0.295
-179.027	485.877	0.112	0.251
-178.012	0.530	-0.075	0.053
-176.998	-200.000	-0.034	0.168
-175.983	218.407	0.109	0.172
-174.969	800.000	0.106	0.321
-173.954	-69.963	-0.147	-0.055
-172.939	800.000	-0.026	-0.103
-171.925	-76.240	0.344	-0.120
-170.910	-36.268	0.350	0.186
-169.896	-200.000	-0.050	0.240
-168.881	-124.622	-0.266	0.041
-167.866	590.360	-0.148	-0.360
-166.852	-12.418	0.143	-0.092
-165.837	-106.730	0.168	0.037
-164.823	64.702	-0.155	0.154
-163.808	302.069	-0.152	-0.277
-162.793	673.524	0.054	-0.138
-161.779	94.270	-0.086	-0.097
-160.764	-200.000	-0.033	0.273
-159.750	615.239	-0.109	0.270
-158.735	-133.998	0.246	-0.030
-157.720	39.170	0.191	0.168
-156.706	-11.511	-0.193	-0.125
-155.691	693.865	-0.086	-0.221
-154.677	-109.161	-0.467	-0.098
-153.662	336.482	-0.091	-0.175
-152.647	-25.104	0.284	-0.166
-151.633	-200.000	0.028	-0.147
-150.618	569.760	0.030	-0.072
-149.604	-131.351	-0.118	0.015
-148.589	-37.925	0.251	0.131
-147.574	-41.707	-0.281	0.142
-146.560	-128.854	0.268	0.037
-145.545	4.733	0.086	-0.062
-144.531	-57.123	-0.152	0.066
-143.516	98.601	0.092	-0.104
-142.502	53.372	-0.120	0.113
-141.487	-94.798	-0.159	0.042
-140.472	-200.000	-0.040	-0.399
-139.458	800.000	0.031	-0.109
-138.443	-200.000	0.006	-0.072
-137.429	-200.000	-0.059	0.328
-136.414	-58.434	-0.059	-0.025
-135.399	22.203	0.106	0.085
-134.385	800.000	0.099	0.311
-133.370	18.039	0.053	-0.042
-132.356	-102.216	-0.222	-0.052
-131.341	800.000	-0.046	0.165
-130.326	662.360	-0.081	0.205
-129.312	199.940	-0.114	-0.172
-128.297	-122.491	0.166	-0.026
-127.283	800.000	-0.038	0.122
-126.268	221.449	-0.052	-0.082
-125.253	-200.000	0.011	-0.259
-124.239	-200.000	-0.018	-0.208
-123.224	-16.905	0.270	-0.168
-122.210	134.623	0.170	-0.217
-121.195	-200.000	0.024	-0.157
