DTS Sentinel unit serial number:	SN413079Multiplexer serial number:	ORYXHardware model number:	OX4-SRSoftware version number:	ORYX F/W v4.00 Oryx Data Collector v3.7.2.0data status	okinstallation	princeton_trtdifferential loss correction	single-endedforward channel	channel 1reverse channel	N/Adate	2019/09/14time	23:14:35forward acquisition time	60.00reverse acquisition time	0.00gamma	496.2192k internal	0.2319k external	0.2319temperature offset calibration	1.0001default loss term (dB/km)	0.3790temperature slope calibration	1.0000multiplexer offset coefficient	1.0000multiplexer slope coefficient	1.0000fibre end	0.00T internal ref (°C)	32.37T ext. ref 1 (°C)	4.66T ext. ref 2 (°C)	27.33length (m)	temperature (°C)	Stokes	anti-Stokes-747.200	-109.722	-0.089	-0.019
-746.185	-124.762	-0.401	-0.063
-745.171	20.679	-0.087	-0.071
-744.156	-121.608	0.083	0.014
-743.142	-200.000	0.024	-0.234
-742.127	-53.680	-0.176	0.081
-741.112	251.715	-0.130	0.223
-740.098	-86.426	-0.359	0.112
-739.083	-61.037	0.089	-0.038
-738.069	160.274	-0.090	-0.127
-737.054	-19.374	-0.046	0.029
-736.039	-161.844	-0.161	-0.008
-735.025	1.054	0.255	0.185
-734.010	25.475	-0.125	0.105
-732.996	-200.000	-0.048	-0.250
-731.981	800.000	0.035	-0.143
-730.966	-190.932	0.349	0.004
-729.952	145.132	-0.086	0.117
-728.937	-122.628	-0.202	-0.033
-727.923	-200.000	0.026	0.198
-726.908	-80.809	0.159	0.053
-725.894	-43.996	-0.265	-0.135
-724.879	800.000	-0.065	-0.204
-723.864	36.068	-0.220	0.196
-722.850	-48.137	-0.300	0.147
-721.835	-70.688	0.036	0.014
-720.821	800.000	-0.077	-0.223
-719.806	-104.674	0.313	-0.073
-718.791	469.096	0.073	0.166
-717.777	-2.169	0.008	0.006
-716.762	521.461	-0.118	-0.280
-715.748	413.078	-0.101	0.217
-714.733	456.713	-0.127	-0.285
-713.718	-34.724	-0.026	0.014
-712.704	-68.584	0.072	-0.028
-711.689	-118.151	-0.356	-0.064
-710.675	88.969	-0.214	-0.240
-709.660	-28.420	-0.276	-0.161
-708.645	5.647	-0.063	0.047
-707.631	103.175	-0.144	-0.170
-706.616	-200.000	0.003	0.182
-705.602	-200.000	0.024	-0.284
-704.587	201.309	0.117	-0.181
-703.572	90.756	0.106	0.120
-702.558	148.275	0.066	0.090
-701.543	-20.516	-0.336	-0.209
-700.529	-53.490	0.150	0.069
-699.514	-79.678	0.206	0.070
-698.499	-70.644	0.241	0.092
-697.485	242.192	-0.073	-0.123
-696.470	-78.356	-0.085	-0.030
-695.456	-24.160	-0.145	-0.088
-694.441	283.972	-0.202	-0.366
-693.426	-104.603	0.280	-0.065
-692.412	-127.357	-0.093	0.014
-691.397	-146.151	0.473	0.042
-690.383	800.000	0.015	0.055
-689.368	-28.163	-0.061	0.036
-688.354	-200.000	0.003	-0.358
-687.339	-200.000	-0.003	-0.094
-686.324	498.098	-0.112	0.260
-685.310	-45.337	-0.370	0.185
-684.295	34.600	-0.174	-0.154
-683.281	-90.456	-0.163	-0.048
-682.266	-200.000	-0.032	-0.155
-681.251	-139.183	-0.270	0.029
-680.237	-15.237	-0.176	0.114
-679.222	90.327	-0.126	0.143
-678.208	-56.320	0.346	0.155
-677.193	-47.719	-0.290	0.142
-676.178	-0.063	-0.251	-0.181
-675.164	-144.790	-0.105	0.010
-674.149	800.000	0.093	-0.302
-673.135	-148.792	0.152	-0.012
-672.120	-163.368	0.065	-0.003
-671.105	800.000	-0.058	0.216
-670.091	312.033	-0.070	-0.133
-669.076	-129.016	-0.514	0.073
-668.062	-56.515	-0.180	0.081
-667.047	-54.844	0.096	0.044
-666.032	800.000	0.069	0.236
-665.018	-111.732	-0.227	-0.046
-664.003	-125.727	0.086	0.013
-662.989	256.383	-0.068	0.117
-661.974	-200.000	-0.032	0.337
-660.959	-129.258	-0.100	0.014
-659.945	356.293	-0.097	-0.194
-658.930	-120.517	0.314	0.054
-657.916	-20.846	-0.092	-0.057
-656.901	800.000	-0.104	-0.371
-655.886	207.791	0.108	0.170
-654.872	324.382	0.121	-0.234
-653.857	-53.158	0.219	0.101
-652.843	-102.288	-0.218	-0.053
-651.828	-40.478	-0.073	0.038
-650.814	507.464	-0.009	0.022
-649.799	284.518	0.138	-0.251
-648.784	-134.930	0.202	-0.025
-647.770	-200.000	0.030	0.300
-646.755	271.782	-0.036	0.063
-645.741	-200.000	0.023	-0.104
-644.726	-51.208	-0.448	0.212
-643.711	184.691	0.091	0.136
-642.697	-132.614	-0.205	0.026
-641.682	-33.468	0.246	0.137
-640.668	-62.604	-0.151	-0.063
-639.653	-140.065	-0.088	-0.009
-638.638	26.045	0.255	0.215
-637.624	-52.861	-0.314	0.146
-636.609	-200.000	-0.000	-0.138
-635.595	144.786	-0.193	-0.260
-634.580	8.961	-0.317	0.241
-633.565	382.599	0.131	0.271
-632.551	800.000	-0.042	0.176
-631.536	694.658	-0.078	0.207
-630.522	-114.486	-0.279	0.054
-629.507	212.518	0.049	0.078
-628.492	800.000	-0.084	0.276
-627.478	-200.000	0.029	-0.231
-626.463	-50.763	-0.198	0.094
-625.449	800.000	0.076	-0.252
-624.434	-200.000	-0.005	-0.196
-623.419	-1.105	0.048	-0.034
-622.405	504.421	0.205	0.479
-621.390	676.110	0.117	-0.306
-620.376	420.102	-0.072	-0.155
-619.361	687.698	-0.087	-0.228
-618.346	-79.926	-0.268	-0.090
-617.332	-71.844	-0.049	0.018
-616.317	87.452	-0.113	0.126
-615.303	195.450	0.027	-0.041
-614.288	-200.000	0.037	-0.164
-613.273	132.066	-0.180	0.233
-612.259	295.860	-0.086	-0.158
-611.244	71.551	0.039	-0.041
-610.230	-52.411	0.110	-0.051
-609.215	-21.992	0.156	0.096
-608.201	-200.000	-0.032	-0.213
-607.186	-200.000	0.011	-0.187
-606.171	-111.276	-0.160	0.033
-605.157	-20.777	-0.161	-0.099
-604.142	611.562	-0.093	0.233
-603.128	155.473	0.018	-0.025
-602.113	237.828	0.196	0.328
-601.098	155.244	-0.055	-0.076
-600.084	-200.000	-0.028	-0.370
-599.069	1.695	0.254	-0.184
-598.055	-84.717	-0.294	-0.093
-597.040	-57.040	-0.046	-0.020
-596.025	-124.520	-0.057	-0.009
-595.011	-87.961	0.120	0.036
-593.996	-123.194	0.090	-0.014
-592.982	-122.171	0.097	-0.016
-591.967	74.949	-0.143	-0.152
-590.952	124.578	-0.088	0.112
-589.938	-93.014	0.099	-0.028
-588.923	-170.402	0.122	0.004
-587.909	7.006	0.193	-0.145
-586.894	-187.901	0.274	-0.004
-585.879	415.992	-0.120	-0.257
-584.865	800.000	0.049	0.148
-583.850	-200.000	-0.013	0.103
-582.836	226.598	0.046	-0.076
-581.821	-81.187	0.137	-0.045
-580.806	-200.000	-0.046	-0.290
-579.792	-18.802	0.151	-0.094
-578.777	-123.150	0.467	0.075
-577.763	-25.214	0.133	0.079
-576.748	-88.337	0.122	0.037
-575.733	-150.584	0.322	-0.025
-574.719	9.128	0.226	-0.172
-573.704	-52.291	-0.274	-0.128
-572.690	98.166	-0.096	-0.111
-571.675	-134.785	0.157	0.019
-570.661	397.765	-0.112	0.235
-569.646	110.495	0.174	0.210
-568.631	-103.836	0.326	-0.077
-567.617	800.000	0.018	0.063
-566.602	-197.661	0.147	-0.001
-565.588	118.793	-0.130	0.162
-564.573	-17.219	0.092	-0.058
-563.558	-96.822	0.369	0.097
-562.544	-200.000	-0.007	-0.068
-561.529	800.000	0.038	-0.110
-560.515	69.381	0.189	-0.196
-559.500	800.000	-0.084	-0.278
-558.485	-142.638	0.110	0.011
-557.471	-200.000	0.332	-0.001
-556.456	800.000	-0.153	0.442
-555.442	246.645	-0.081	-0.137
-554.427	236.271	-0.175	-0.291
-553.412	-96.078	0.216	-0.058
-552.398	51.332	0.045	-0.043
-551.383	-63.672	-0.368	-0.151
-550.369	162.164	0.237	-0.333
-549.354	77.378	-0.218	0.233
-548.339	800.000	-0.018	-0.056
-547.325	-83.485	0.056	-0.018
-546.310	-200.000	0.019	0.216
-545.296	57.730	0.139	0.136
-544.281	-200.000	-0.182	-0.001
-543.266	-134.612	-0.135	-0.017
-542.252	252.425	0.118	-0.202
-541.237	-52.180	0.138	-0.064
-540.223	320.336	-0.094	-0.179
-539.208	-200.000	0.055	-0.243
-538.193	75.988	0.106	-0.113
-537.179	337.204	0.046	0.090
-536.164	-53.696	-0.152	-0.070
-535.150	300.787	-0.088	-0.162
-534.135	108.752	-0.094	-0.113
-533.121	206.737	0.131	-0.204
-532.106	800.000	-0.094	-0.312
-531.091	-0.503	-0.125	-0.089
-530.077	63.186	0.195	-0.196
-529.062	-3.816	-0.065	0.045
-528.048	800.000	-0.013	0.037
-527.033	-3.532	0.160	0.111
-526.018	688.899	0.111	0.291
-525.004	360.845	0.250	0.503
-523.989	306.641	-0.060	0.112
-522.975	124.580	-0.218	0.275
-521.960	-200.000	-0.031	0.340
-520.945	800.000	0.108	0.388
-519.931	129.292	0.037	0.048
-518.916	-163.333	0.085	0.004
-517.902	14.008	0.179	0.140
-516.887	241.585	-0.074	0.125
-515.872	594.051	0.046	0.115
-514.858	-96.692	-0.102	-0.027
-513.843	-12.145	0.176	-0.116
-512.829	-157.605	0.269	-0.016
-511.814	-160.621	-0.039	-0.002
-510.799	800.000	-0.017	-0.069
-509.785	-108.357	-0.454	-0.098
-508.770	-59.357	0.082	0.035
-507.756	-148.955	-0.419	-0.034
-506.741	-200.000	0.016	-0.089
-505.726	8.050	0.149	0.112
-504.712	-51.118	-0.219	0.103
-503.697	200.870	-0.131	0.202
-502.683	62.628	-0.096	-0.096
-501.668	71.274	-0.181	0.188
-500.653	-50.817	-0.163	-0.077
-499.639	-141.342	0.159	-0.016
-498.624	316.046	-0.113	0.213
-497.610	27.761	0.062	0.052
-496.595	785.760	-0.043	0.117
-495.581	-16.502	0.166	-0.105
-494.566	-78.786	-0.133	-0.045
-493.551	-0.896	0.105	0.074
-492.537	171.699	0.075	-0.108
-491.522	34.290	-0.135	-0.118
-490.508	-38.891	0.383	0.202
-489.493	-37.201	-0.037	0.020
-488.478	-65.085	-0.168	0.068
-487.464	-69.684	-0.124	0.047
-486.449	-200.000	-0.045	-0.336
-485.435	-79.675	-0.203	-0.068
-484.420	-37.872	-0.311	0.166
-483.405	-60.760	0.222	-0.094
-482.391	800.000	-0.035	-0.112
-481.376	364.395	-0.187	0.377
-480.362	3.477	-0.095	-0.069
-479.347	-200.000	-0.023	-0.183
-478.332	249.053	0.106	-0.179
-477.318	800.000	-0.015	-0.049
-476.303	117.854	0.132	0.163
-475.289	408.989	0.062	-0.131
-474.274	-59.788	0.059	0.025
-473.259	-89.516	-0.243	-0.071
-472.245	58.149	0.160	-0.157
-471.230	800.000	-0.155	0.441
-470.216	800.000	0.066	0.193
-469.201	88.395	0.118	-0.132
-468.186	-98.742	0.090	0.023
-467.172	-171.690	-0.072	0.002
-466.157	20.664	-0.075	-0.061
-465.143	44.521	0.160	-0.148
-464.128	-22.986	-0.147	-0.088
-463.113	237.838	0.171	-0.284
-462.099	278.361	-0.186	-0.332
-461.084	239.483	-0.076	0.127
-460.070	87.859	0.039	0.044
-459.055	529.174	-0.061	-0.143
-458.040	6.573	-0.287	-0.213
-457.026	800.000	0.057	0.160
-456.011	-200.000	-0.000	-0.092
-454.997	-91.663	0.099	0.028
-453.982	800.000	0.087	-0.244
-452.968	800.000	0.060	-0.217
-451.953	293.831	-0.097	0.178
-450.938	-164.151	-0.112	0.005
-449.924	444.653	0.060	0.131
-448.909	-7.121	-0.078	-0.053
-447.895	-200.000	0.007	-0.103
-446.880	-149.952	0.607	0.047
-445.865	-129.747	-0.162	-0.022
-444.851	-200.000	0.008	0.461
-443.836	-60.300	-0.491	-0.209
-442.822	381.375	0.117	0.241
-441.807	-93.225	0.321	0.089
-440.792	-200.000	0.013	0.060
-439.778	313.461	-0.166	-0.312
-438.763	599.985	0.113	-0.281
-437.749	-116.583	0.076	0.014
-436.734	328.598	-0.046	0.088
-435.719	131.607	0.116	0.149
-434.705	243.999	0.108	0.181
-433.690	106.915	0.166	-0.197
-432.676	800.000	-0.024	-0.092
-431.661	-65.206	-0.134	-0.054
-430.646	-152.163	0.098	0.007
-429.632	287.250	0.185	-0.335
-428.617	-49.444	-0.219	-0.104
-427.603	-200.000	0.001	-0.413
-426.588	378.807	-0.199	-0.407
-425.573	800.000	0.120	0.332
-424.559	-103.403	0.272	0.064
-423.544	638.545	-0.023	-0.059
-422.530	-24.023	-0.106	0.063
-421.515	800.000	0.094	-0.386
-420.500	800.000	-0.085	0.286
-419.486	-78.672	-0.147	-0.050
-418.471	-2.283	-0.117	-0.082
-417.457	162.597	-0.076	-0.107
-416.442	800.000	0.042	-0.175
-415.428	798.733	-0.095	0.262
-414.413	-130.789	0.101	0.013
-413.398	220.497	0.087	-0.140
-412.384	-70.793	0.306	0.115
-411.369	800.000	0.039	-0.137
-410.355	545.072	0.014	-0.034
-409.340	-139.963	0.149	-0.016
-408.325	256.242	-0.102	-0.174
-407.311	66.688	0.291	0.296
-406.296	-195.409	0.162	-0.001
-405.282	-200.000	0.012	0.226
-404.267	-200.000	-0.077	0.337
-403.252	-105.215	-0.085	-0.019
-402.238	9.540	-0.186	-0.141
-401.223	49.101	-0.032	0.030
-400.209	220.258	-0.095	0.152
-399.194	287.112	0.045	-0.081
-398.179	-38.696	0.291	-0.153
-397.165	-200.000	-0.007	-0.257
-396.150	361.637	-0.043	0.086
-395.136	-39.243	0.194	-0.102
-394.121	74.959	-0.012	-0.013
-393.106	34.928	0.140	-0.123
-392.092	136.868	-0.116	0.152
-391.077	719.715	-0.087	-0.231
-390.063	-200.000	0.002	0.050
-389.048	61.386	-0.095	0.094
-388.033	800.000	-0.008	-0.024
-387.019	-29.586	-0.260	0.148
-386.004	79.584	0.075	0.080
-384.990	-96.584	0.247	0.065
-383.975	49.000	0.265	-0.248
-382.960	-151.066	-0.044	0.003
-381.946	-118.920	-0.167	-0.029
-380.931	-152.924	-0.134	-0.009
-379.917	641.172	-0.055	-0.139
-378.902	800.000	-0.084	-0.234
-377.888	726.503	0.031	-0.082
-376.873	-67.866	0.195	0.076
-375.858	-77.373	0.138	0.048
-374.844	415.429	0.018	0.039
-373.829	-38.728	0.142	-0.075
-372.815	-118.496	0.134	0.024
-371.800	-21.664	-0.232	0.141
-370.785	35.970	0.045	0.039
-369.771	218.472	-0.181	0.288
-368.756	41.233	0.240	0.217
-367.742	-200.000	-0.073	-0.466
-366.727	-46.165	-0.079	0.039
-365.712	240.765	-0.251	-0.418
-364.698	-60.709	-0.118	-0.050
-363.683	-49.311	0.176	0.084
-362.669	199.656	0.129	-0.197
-361.654	2.660	-0.146	0.106
-360.639	192.578	0.131	-0.197
-359.625	-200.000	0.045	0.318
-358.610	-86.101	-0.220	0.068
-357.596	222.308	-0.168	-0.269
-356.581	-128.720	-0.214	-0.030
-355.566	-122.527	-0.189	-0.031
-354.552	-127.259	0.259	-0.038
-353.537	800.000	-0.070	-0.239
-352.523	154.768	-0.046	-0.062
-351.508	800.000	-0.044	0.185
-350.493	207.852	0.188	0.293
-349.479	-200.000	-0.014	0.344
-348.464	-110.207	0.195	0.040
-347.450	-128.060	-0.248	-0.035
-346.435	-12.208	-0.099	0.065
-345.420	113.369	0.042	-0.051
-344.406	-200.000	-0.009	0.165
-343.391	-0.855	0.374	0.264
-342.377	-200.000	-0.007	0.193
-341.362	-23.044	-0.088	-0.053
-340.348	-200.000	-0.023	-0.409
-339.333	-131.635	-0.341	0.045
-338.318	-58.174	0.243	0.105
-337.304	42.493	0.239	-0.217
-336.289	60.634	-0.266	0.262
-335.275	167.066	-0.081	-0.115
-334.260	189.645	-0.084	0.125
-333.245	-70.558	-0.156	0.059
-332.231	24.640	0.102	0.084
-331.216	144.418	-0.057	-0.076
-330.202	-124.525	0.132	0.020
-329.187	800.000	0.039	0.144
-328.172	13.470	0.252	-0.195
-327.158	25.640	0.157	-0.130
-326.143	-47.821	-0.250	-0.120
-325.129	-200.000	-0.016	0.157
-324.114	-200.000	0.049	0.373
-323.099	22.938	0.149	0.121
-322.085	167.566	0.227	-0.321
-321.070	-4.289	0.205	0.141
-320.056	162.023	-0.220	0.307
-319.041	134.853	-0.093	0.120
-318.026	-61.640	-0.020	0.008
-317.012	-118.007	-0.264	-0.047
-315.997	-138.712	0.225	-0.024
-314.983	321.035	0.171	0.323
-313.968	107.316	0.090	-0.107
-312.953	305.947	-0.099	-0.182
-311.939	383.663	-0.173	0.354
-310.924	290.993	0.216	0.390
-309.910	164.203	0.291	0.407
-308.895	-15.696	-0.138	0.088
-307.880	-46.324	-0.254	-0.124
-306.866	35.275	-0.347	-0.303
-305.851	576.392	-0.097	0.236
-304.837	-13.096	-0.228	-0.147
-303.822	800.000	0.099	0.331
-302.807	800.000	0.049	0.149
-301.793	-131.814	0.311	-0.040
-300.778	688.941	-0.166	0.432
-299.764	322.352	-0.092	0.173
-298.749	370.287	-0.015	-0.030
-297.735	-20.901	0.350	-0.213
-296.720	61.536	0.041	-0.041
-295.705	-167.510	-0.199	0.008
-294.691	800.000	-0.039	0.141
-293.676	277.774	-0.205	0.363
-292.662	499.871	0.016	-0.036
-291.647	49.602	-0.049	0.046
-290.632	494.356	0.007	-0.015
-289.618	-200.000	0.006	0.045
-288.603	-42.513	-0.208	0.105
-287.589	-200.000	-0.026	-0.249
-286.574	-82.533	-0.065	-0.021
-285.559	13.707	0.125	0.097
-284.545	-200.000	-0.015	0.078
-283.530	-68.230	-0.171	0.066
-282.516	197.104	-0.057	-0.086
-281.501	172.740	0.127	-0.182
-280.486	800.000	-0.081	-0.291
-279.472	-81.154	0.113	0.037
-278.457	-200.000	0.012	-0.269
-277.443	257.259	-0.159	-0.272
-276.428	800.000	-0.094	-0.320
-275.413	-99.775	-0.179	0.045
-274.399	97.778	0.264	0.302
-273.384	-12.659	-0.308	0.199
-272.370	82.954	0.224	0.242
-271.355	-69.450	0.178	0.068
-270.340	51.084	-0.097	0.091
-269.326	117.650	-0.091	-0.111
-268.311	800.000	-0.056	0.211
-267.297	754.009	-0.054	-0.144
-266.282	-76.564	0.219	0.076
-265.267	-200.000	-0.083	-0.411
-264.253	200.928	0.286	0.437
-263.238	-92.487	-0.101	0.028
-262.224	-200.000	0.005	-0.048
-261.209	75.499	0.278	0.292
-260.195	128.630	0.158	-0.200
-259.180	15.832	-0.192	-0.150
-258.165	66.187	-0.180	-0.181
-257.151	-200.000	0.013	0.294
-256.136	66.744	-0.049	-0.049
-255.122	401.890	0.085	0.177
-254.107	36.925	-0.194	0.170
-253.092	-196.867	-0.061	-0.000
-252.078	-123.237	-0.277	0.044
-251.063	211.796	-0.085	0.133
-250.049	725.891	0.139	0.368
-249.034	699.587	0.101	0.262
-248.019	-84.173	0.225	-0.071
-247.005	-124.576	0.248	-0.038
-245.990	-200.000	0.014	-0.080
-244.976	800.000	-0.020	-0.066
-243.961	-116.443	-0.305	-0.056
-242.946	-200.000	0.080	0.557
-241.932	101.113	0.251	-0.290
-240.917	585.011	0.114	0.277
-239.903	-200.000	-0.059	-0.332
-238.888	-200.000	0.001	0.032
-237.873	-49.071	0.109	0.052
-236.859	-185.166	0.170	-0.003
-235.844	40.878	0.129	0.115
-234.830	-130.845	-0.077	0.010
-233.815	-190.479	-0.098	-0.001
-232.800	-105.457	0.143	0.032
-231.786	-45.062	0.155	-0.077
-230.771	69.193	-0.069	-0.070
-229.757	120.698	-0.233	-0.287
-228.742	-100.170	-0.168	0.041
-227.727	-47.293	0.062	0.030
-226.713	56.571	0.234	0.226
-225.698	-43.259	-0.267	0.134
-224.684	-2.807	-0.147	-0.102
-223.669	734.281	-0.096	0.256
-222.655	-200.000	0.020	-0.101
-221.640	-174.465	-0.256	-0.007
-220.625	-46.430	0.329	-0.160
-219.611	159.871	-0.121	0.167
-218.596	132.424	-0.157	0.201
-217.582	-45.446	0.093	-0.046
-216.567	-106.965	-0.177	-0.039
-215.552	551.568	-0.099	-0.234
-214.538	50.244	-0.090	-0.084
-213.523	417.367	0.188	-0.397
-212.509	-132.446	0.196	-0.025
-211.494	-29.533	-0.207	-0.117
-210.479	147.562	0.209	-0.278
-209.465	147.106	0.048	-0.064
-208.450	76.824	0.112	0.118
-207.436	-89.724	0.076	0.022
-206.421	-200.000	0.087	-0.482
-205.406	-200.000	-0.000	-0.147
-204.392	-60.753	-0.257	0.108
-203.377	72.842	-0.157	0.162
-202.363	61.503	-0.138	-0.136
-201.348	-71.012	-0.175	0.065
-200.333	-94.987	0.194	-0.052
-199.319	375.541	0.074	0.149
-198.304	-75.445	-0.119	-0.042
-197.290	33.288	-0.141	-0.121
-196.275	55.508	0.022	0.021
-195.260	254.427	-0.160	0.271
-194.246	-98.657	0.181	-0.046
-193.231	-200.000	0.086	0.433
-192.217	117.607	-0.107	0.131
-191.202	127.724	-0.183	-0.230
-190.187	-18.104	-0.142	-0.088
-189.173	9.908	0.081	0.061
-188.158	725.311	0.054	-0.142
-187.144	-153.002	-0.092	-0.006
-186.129	-200.000	0.020	0.131
-185.114	-175.151	0.336	-0.009
-184.100	-24.989	-0.346	0.203
-183.085	-57.750	-0.307	-0.133
-182.071	-200.000	-0.010	0.137
-181.056	90.890	0.027	0.030
-180.042	607.786	0.096	-0.238
-179.027	0.388	-0.088	0.062
-178.012	9.110	0.079	-0.059
-176.998	800.000	-0.024	0.078
-175.983	-33.001	-0.233	0.128
-174.969	-200.000	0.016	0.085
-173.954	-145.449	-0.086	-0.008
-172.939	16.265	0.022	-0.017
-171.925	-200.000	0.035	-0.239
-170.910	-200.000	0.035	-0.204
-169.896	144.658	0.125	-0.165
-168.881	-140.547	0.227	-0.023
-167.866	-200.000	0.012	-0.152
-166.852	132.058	0.091	-0.115
-165.837	82.256	-0.059	-0.064
-164.823	603.831	-0.072	-0.176
-163.808	295.368	-0.079	-0.144
-162.793	-143.428	-0.229	0.022
-161.779	-23.630	-0.362	0.215
-160.764	-148.964	0.289	-0.023
-159.750	98.229	-0.048	0.055
-158.735	-70.785	0.489	0.182
-157.720	-65.569	0.324	-0.129
-156.706	-147.662	-0.075	-0.006
-155.691	-7.229	0.153	-0.103
-154.677	-9.482	-0.266	0.176
-153.662	329.474	-0.253	-0.481
-152.647	309.328	-0.094	0.174
-151.633	-28.179	0.248	0.142
-150.618	-200.000	0.050	-0.232
-149.604	-121.796	-0.068	-0.011
-148.589	761.567	-0.062	-0.167
-147.574	51.429	-0.187	0.176
-146.560	-109.678	-0.021	-0.004
-145.545	-200.000	-0.012	0.229
-144.531	-200.000	0.064	-0.325
-143.516	-200.000	0.037	0.171
-142.502	-115.984	-0.243	0.045
-141.487	-86.792	0.037	0.011
-140.472	-55.997	-0.357	-0.157
-139.458	800.000	-0.101	0.307
-138.443	39.496	0.080	-0.071
-137.429	800.000	-0.049	0.160
-136.414	-53.210	0.331	-0.150
-135.399	-200.000	-0.029	-0.139
-134.385	-127.216	0.088	-0.013
-133.370	-143.767	-0.148	0.014
-132.356	-120.701	-0.381	0.064
-131.341	-137.484	0.117	-0.013
-130.326	344.137	0.159	0.307
-129.312	286.512	0.105	0.187
-128.297	-80.660	-0.260	0.085
-127.283	-200.000	0.017	0.142
-126.268	-200.000	0.010	-0.196
-125.253	-74.394	-0.504	0.180
-124.239	-200.000	-0.036	-0.407
-123.224	-41.214	0.202	0.103
-122.210	9.554	0.319	0.239
