DTS Sentinel unit serial number:	SN413079Multiplexer serial number:	ORYXHardware model number:	OX4-SRSoftware version number:	ORYX F/W v4.00 Oryx Data Collector v3.7.2.0data status	okinstallation	princeton_trtdifferential loss correction	single-endedforward channel	channel 1reverse channel	N/Adate	2019/09/16time	22:30:35forward acquisition time	60.00reverse acquisition time	0.00gamma	496.2192k internal	0.2325k external	0.2325temperature offset calibration	0.9957default loss term (dB/km)	0.3790temperature slope calibration	1.0000multiplexer offset coefficient	1.0000multiplexer slope coefficient	1.0000fibre end	0.00T internal ref (°C)	30.81T ext. ref 1 (°C)	0.09T ext. ref 2 (°C)	24.50length (m)	temperature (°C)	Stokes	anti-Stokes-747.200	-200.000	-0.026	-0.223
-746.185	-70.656	-0.089	0.034
-745.171	474.137	0.132	0.301
-744.156	27.706	-0.152	-0.129
-743.142	-4.449	0.296	-0.207
-742.127	-52.643	-0.232	0.108
-741.112	-200.000	-0.026	-0.182
-740.098	-95.600	-0.326	0.088
-739.083	-129.516	0.087	-0.012
-738.069	501.829	-0.100	0.232
-737.054	71.661	-0.071	0.074
-736.039	59.933	0.190	-0.189
-735.025	279.133	-0.083	-0.149
-734.010	-129.319	0.148	-0.021
-732.996	-146.604	-0.182	0.016
-731.981	-47.320	-0.194	-0.095
-730.966	257.809	0.201	0.348
-729.952	-130.169	-0.348	-0.048
-728.937	-113.439	-0.294	-0.058
-727.923	75.703	0.085	-0.090
-726.908	-200.000	0.031	-0.240
-725.894	-86.840	0.166	0.051
-724.879	108.632	-0.200	-0.241
-723.864	268.066	-0.123	-0.217
-722.850	-21.552	-0.236	0.145
-721.835	153.621	0.118	0.162
-720.821	-58.080	0.290	0.127
-719.806	-69.852	-0.238	-0.091
-718.791	800.000	-0.099	-0.345
-717.777	81.736	0.434	-0.473
-716.762	-107.803	-0.054	0.012
-715.748	-20.701	-0.195	-0.121
-714.733	-17.331	-0.296	-0.188
-713.718	-104.552	-0.123	0.029
-712.704	321.933	-0.024	-0.047
-711.689	-118.327	0.104	0.019
-710.675	-0.152	0.194	-0.139
-709.660	-200.000	0.003	-0.230
-708.645	400.757	-0.068	-0.144
-707.631	-200.000	-0.034	0.244
-706.616	800.000	0.011	0.036
-705.602	-111.905	0.118	0.024
-704.587	161.731	0.128	0.181
-703.572	299.147	0.056	0.105
-702.558	112.131	-0.114	-0.139
-701.543	-200.000	-0.009	0.052
-700.529	407.745	0.107	-0.228
-699.514	-174.787	0.148	-0.004
-698.499	31.061	-0.060	0.052
-697.485	63.407	-0.124	0.126
-696.470	103.992	0.382	-0.453
-695.456	331.107	-0.034	0.066
-694.441	18.971	0.133	0.108
-693.426	-200.000	0.014	0.077
-692.412	28.255	0.088	-0.075
-691.397	178.478	-0.103	0.151
-690.383	79.107	-0.160	0.173
-689.368	-200.000	-0.027	0.269
-688.354	83.980	-0.200	0.220
-687.339	-43.894	-0.200	-0.101
-686.324	-200.000	-0.029	-0.174
-685.310	263.613	0.094	0.164
-684.295	-156.774	0.341	0.021
-683.281	-88.304	0.127	-0.038
-682.266	-200.000	0.001	-0.023
-681.251	-77.415	-0.278	0.097
-680.237	274.946	0.183	-0.326
-679.222	-200.000	-0.008	-0.338
-678.208	736.149	0.033	-0.089
-677.193	19.491	0.165	-0.134
-676.178	-200.000	-0.012	-0.063
-675.164	183.329	-0.060	-0.090
-674.149	-74.512	-0.046	-0.017
-673.135	-200.000	0.027	-0.300
-672.120	-200.000	-0.036	-0.174
-671.105	-37.401	-0.070	0.038
-670.091	22.682	0.095	0.078
-669.076	338.568	0.123	0.241
-668.062	-200.000	-0.011	0.141
-667.047	229.389	0.005	0.008
-666.032	-200.000	-0.001	0.135
-665.018	800.000	-0.072	-0.201
-664.003	-6.913	-0.213	0.145
-662.989	800.000	0.080	0.226
-661.974	-52.528	-0.240	0.112
-660.959	-41.536	-0.182	0.094
-659.945	287.766	-0.185	-0.337
-658.930	192.285	0.101	0.153
-657.916	117.406	0.095	-0.117
-656.901	-168.136	-0.339	-0.013
-655.886	-200.000	0.002	0.123
-654.872	-121.268	-0.208	-0.035
-653.857	699.587	0.020	-0.053
-652.843	-200.000	0.019	-0.203
-651.828	-200.000	0.008	0.358
-650.814	-200.000	-0.005	-0.029
-649.799	582.901	-0.110	-0.271
-648.784	-149.050	0.212	-0.017
-647.770	-122.826	0.241	0.039
-646.755	36.467	-0.107	-0.095
-645.741	-44.844	-0.229	-0.115
-644.726	216.425	0.110	-0.176
-643.711	-93.937	0.300	0.083
-642.697	16.658	0.148	0.117
-641.682	800.000	0.073	0.276
-640.668	800.000	0.023	-0.101
-639.653	-85.660	-0.275	-0.086
-638.638	525.649	-0.099	-0.235
-637.624	-64.661	-0.018	0.007
-636.609	-99.289	-0.161	0.041
-635.595	-68.684	-0.221	-0.086
-634.580	344.925	-0.024	0.047
-633.565	-98.077	-0.490	-0.127
-632.551	-200.000	-0.021	-0.131
-631.536	51.053	-0.329	0.313
-630.522	13.752	0.057	-0.045
-629.507	657.240	-0.106	-0.274
-628.492	301.811	-0.152	-0.283
-627.478	-200.000	0.001	-0.380
-626.463	-115.810	0.207	0.039
-625.449	420.366	-0.022	-0.047
-624.434	-37.871	0.298	0.159
-623.419	-122.557	-0.232	0.038
-622.405	58.248	0.098	0.096
-621.390	-64.722	-0.114	0.046
-620.376	-129.903	0.236	0.032
-619.361	800.000	0.172	-0.537
-618.346	2.931	-0.054	-0.039
-617.332	-61.227	0.153	-0.065
-616.317	-112.926	-0.062	0.012
-615.303	-77.640	-0.104	-0.036
-614.288	-200.000	-0.050	-0.354
-613.273	67.549	-0.289	-0.296
-612.259	-200.000	-0.016	-0.151
-611.244	-118.776	0.065	-0.012
-610.230	-54.402	0.134	-0.061
-609.215	40.714	0.164	-0.148
-608.201	-200.000	0.007	0.110
-607.186	-113.191	0.270	0.053
-606.171	14.391	-0.088	0.069
-605.157	800.000	-0.092	0.314
-604.142	-92.493	-0.185	0.052
-603.128	-102.547	0.339	-0.081
-602.113	13.545	-0.316	0.246
-601.098	213.038	-0.176	-0.279
-600.084	-57.774	-0.082	0.036
-599.069	-200.000	-0.028	0.218
-598.055	-200.000	-0.016	0.181
-597.040	69.970	-0.203	-0.210
-596.025	-137.180	-0.207	0.024
-595.011	80.516	-0.153	0.165
-593.996	-49.221	0.209	-0.100
-592.982	782.871	-0.061	0.168
-591.967	-69.848	-0.132	0.051
-590.952	549.058	0.060	0.145
-589.938	-82.032	0.104	-0.034
-588.923	639.052	0.214	-0.545
-587.909	45.164	-0.052	0.048
-586.894	378.357	0.073	-0.150
-585.879	-129.545	0.247	0.034
-584.865	-73.218	0.214	-0.079
-583.850	302.697	-0.140	-0.260
-582.836	-43.784	0.232	-0.117
-581.821	-9.197	0.106	-0.071
-580.806	28.257	0.322	-0.272
-579.792	130.262	0.139	-0.179
-578.777	-61.470	-0.085	0.036
-577.763	-30.011	0.188	-0.107
-576.748	187.219	0.153	-0.229
-575.733	311.615	0.119	-0.225
-574.719	800.000	-0.043	-0.125
-573.704	-200.000	-0.040	-0.188
-572.690	-200.000	0.023	-0.232
-571.675	-132.312	-0.188	-0.024
-570.661	598.325	-0.061	0.152
-569.646	291.102	0.124	-0.226
-568.631	36.082	0.088	-0.078
-567.617	-200.000	0.008	-0.042
-566.602	-126.772	0.222	0.033
-565.588	-14.864	0.091	0.059
-564.573	800.000	0.105	-0.333
-563.558	-33.003	-0.101	0.056
-562.544	-170.874	-0.231	0.008
-561.529	329.687	0.081	-0.156
-560.515	-21.408	0.072	-0.044
-559.500	179.919	-0.100	0.146
-558.485	159.860	0.164	0.229
-557.471	-16.757	-0.345	0.219
-556.456	74.766	0.109	0.115
-555.442	-29.221	0.162	-0.093
-554.427	-200.000	0.004	-0.146
-553.412	5.397	0.302	-0.223
-552.398	391.364	0.031	-0.064
-551.383	-42.256	-0.195	-0.100
-550.369	-140.920	0.272	-0.028
-549.354	15.296	-0.335	-0.263
-548.339	800.000	0.123	0.392
-547.325	-200.000	-0.007	0.041
-546.310	-40.682	-0.100	-0.052
-545.296	-150.848	0.095	0.007
-544.281	-110.012	0.087	0.018
-543.266	800.000	-0.038	0.161
-542.252	800.000	-0.133	0.419
-541.237	-132.499	-0.275	-0.035
-540.223	-200.000	-0.060	-0.309
-539.208	-82.992	0.126	-0.041
-538.193	-46.866	0.193	0.095
-537.179	-113.403	0.287	-0.056
-536.164	258.336	0.165	0.285
-535.150	246.081	-0.212	0.358
-534.135	108.704	-0.030	-0.036
-533.121	26.843	-0.078	0.065
-532.106	-35.906	-0.185	0.100
-531.091	800.000	-0.153	-0.434
-530.077	52.351	-0.105	-0.100
-529.062	100.729	0.136	0.158
-528.048	-114.263	0.170	0.033
-527.033	15.131	-0.211	0.166
-526.018	-200.000	0.007	0.068
-525.004	172.247	0.103	0.149
-523.989	-151.661	0.029	-0.002
-522.975	229.107	-0.054	-0.087
-521.960	-200.000	0.004	0.090
-520.945	-200.000	-0.018	-0.100
-519.931	-200.000	0.070	0.318
-518.916	-127.135	0.268	0.039
-517.902	442.138	0.086	0.189
-516.887	170.011	-0.092	-0.132
-515.872	800.000	-0.031	-0.105
-514.858	-99.297	0.360	-0.091
-513.843	8.516	0.137	0.103
-512.829	-200.000	-0.022	-0.117
-511.814	-3.370	0.231	-0.161
-510.799	-144.890	0.345	0.032
-509.785	-200.000	-0.028	-0.147
-508.770	626.488	-0.161	0.405
-507.756	62.292	0.144	-0.144
-506.741	46.014	0.165	0.153
-505.726	187.887	0.177	0.264
-504.712	75.191	0.122	-0.129
-503.697	661.489	-0.058	-0.150
-502.683	159.194	-0.133	-0.185
-501.668	202.614	-0.227	0.350
-500.653	163.577	-0.060	0.084
-499.639	-151.288	0.160	0.012
-498.624	-200.000	-0.034	-0.296
-497.610	129.441	0.141	-0.180
-496.595	190.282	0.057	0.085
-495.581	24.056	0.109	-0.090
-494.566	-17.187	-0.198	-0.125
-493.551	-58.476	0.197	-0.086
-492.537	742.125	0.039	0.104
-491.522	-158.013	0.087	-0.005
-490.508	44.402	-0.172	-0.158
-489.493	8.948	-0.484	-0.365
-488.478	-6.902	0.054	0.036
-487.464	-127.373	0.400	0.058
-486.449	47.860	-0.134	0.125
-485.435	-78.763	0.297	0.101
-484.420	253.181	-0.056	-0.096
-483.405	-102.571	0.178	-0.043
-482.391	263.493	0.260	0.452
-481.376	-12.145	-0.151	0.099
-480.362	-98.935	-0.283	-0.072
-479.347	-51.521	0.270	-0.126
-478.332	800.000	-0.115	-0.334
-477.318	-144.019	-0.197	-0.018
-476.303	4.024	-0.232	0.170
-475.289	-200.000	-0.051	0.275
-474.274	162.760	0.039	-0.055
-473.259	363.852	0.009	-0.018
-472.245	-94.086	-0.264	-0.072
-471.230	9.574	-0.258	-0.195
-470.216	-200.000	-0.003	-0.319
-469.201	-200.000	0.000	-0.035
-468.186	48.937	-0.088	0.083
-467.172	-200.000	0.005	-0.208
-466.157	-102.635	-0.133	0.032
-465.143	11.867	-0.054	0.041
-464.128	-200.000	0.087	0.420
-463.113	-83.371	-0.175	-0.056
-462.099	137.882	-0.147	-0.192
-461.084	800.000	-0.042	0.143
-460.070	800.000	-0.053	-0.229
-459.055	28.071	0.039	-0.032
-458.040	-154.245	-0.213	0.014
-457.026	800.000	0.016	-0.070
-456.011	721.567	0.072	-0.192
-454.997	-24.146	0.037	0.022
-453.982	330.244	0.148	0.285
-452.968	-131.396	0.116	0.015
-451.953	-200.000	-0.017	0.193
-450.938	243.289	-0.117	0.196
-449.924	618.161	-0.049	-0.123
-448.909	800.000	-0.011	-0.032
-447.895	-200.000	0.009	0.110
-446.880	544.364	-0.022	0.051
-445.865	149.812	-0.203	0.275
-444.851	800.000	-0.047	-0.155
-443.836	-139.517	0.149	0.016
-442.822	-65.642	0.109	-0.044
-441.807	14.540	0.285	0.222
-440.792	231.933	0.120	0.197
-439.778	-200.000	0.001	-0.114
-438.763	-110.733	-0.194	0.040
-437.749	44.402	0.195	-0.178
-436.734	-127.804	0.305	0.044
-435.719	232.139	-0.162	0.266
-434.705	111.518	0.089	-0.108
-433.690	800.000	0.085	0.304
-432.676	-178.086	-0.198	0.005
-431.661	257.621	-0.221	0.380
-430.646	28.562	-0.188	0.159
-429.632	-83.885	-0.192	0.061
-428.617	-45.794	0.132	0.065
-427.603	16.062	0.006	0.005
-426.588	-60.353	0.047	-0.020
-425.573	-146.962	0.091	0.008
-424.559	-161.030	-0.141	0.007
-423.544	11.263	0.149	-0.114
-422.530	29.381	0.262	0.222
-421.515	-4.587	0.289	0.199
-420.500	-34.100	0.110	-0.060
-419.486	-200.000	0.005	-0.168
-418.471	-74.143	-0.481	0.174
-417.457	28.072	0.082	-0.069
-416.442	2.060	0.234	-0.168
-415.428	2.065	-0.204	0.147
-414.413	800.000	-0.105	0.363
-413.398	-57.660	-0.135	0.059
-412.384	17.414	-0.082	0.065
-411.369	-34.703	-0.062	0.034
-410.355	-17.796	-0.121	-0.075
-409.340	-200.000	-0.040	0.291
-408.325	-56.653	-0.538	-0.237
-407.311	-200.000	0.056	0.315
-406.296	171.153	-0.174	-0.248
-405.282	-108.343	0.398	0.086
-404.267	-60.929	0.205	0.086
-403.252	-87.672	-0.108	0.033
-402.238	352.879	-0.144	-0.284
-401.223	-175.489	-0.341	-0.009
-400.209	-30.405	-0.172	-0.097
-399.194	-110.076	0.216	0.045
-398.179	-200.000	0.089	0.436
-397.165	241.667	0.172	0.286
-396.150	-132.024	-0.216	0.028
-395.136	191.312	0.153	-0.229
-394.121	51.309	-0.013	0.013
-393.106	-133.503	-0.294	0.037
-392.092	274.144	0.081	0.142
-391.077	301.666	-0.128	-0.236
-390.063	-129.354	-0.303	-0.042
-389.048	451.598	-0.033	-0.072
-388.033	-200.000	0.140	-0.000
-387.019	-200.000	0.021	-0.251
-386.004	134.671	0.082	-0.106
-384.990	72.229	0.145	-0.150
-383.975	50.054	-0.345	0.324
-382.960	-200.000	-0.010	0.174
-381.946	16.412	0.155	0.122
-380.931	-86.786	-0.404	0.123
-379.917	75.135	-0.064	-0.067
-378.902	800.000	0.144	0.418
-377.888	114.905	0.205	0.249
-376.873	-107.011	0.135	-0.030
-375.858	-53.736	0.059	0.027
-374.844	102.811	0.187	-0.218
-373.829	-104.820	-0.363	0.083
-372.815	114.101	0.072	-0.087
-371.800	800.000	0.111	-0.463
-370.785	60.135	-0.109	0.107
-369.771	-65.907	0.184	-0.073
-368.756	267.318	0.012	-0.020
-367.742	-86.606	-0.221	-0.067
-366.727	-161.848	-0.110	-0.006
-365.712	-73.706	0.223	0.081
-364.698	4.330	0.078	0.057
-363.683	-142.396	-0.133	0.013
-362.669	710.470	0.065	0.172
-361.654	-119.180	-0.268	-0.047
-360.639	-65.955	-0.204	-0.081
-359.625	-134.274	0.327	0.040
-358.610	-200.000	-0.015	-0.193
-357.596	-200.000	0.033	-0.184
-356.581	-200.000	0.102	-0.481
-355.566	-45.120	-0.121	0.060
-354.552	-91.251	0.202	0.057
-353.537	-200.000	-0.103	-0.620
-352.523	489.785	-0.064	-0.146
-351.508	-200.000	0.001	-0.062
-350.493	-200.000	0.018	-0.363
-349.479	-48.336	0.312	-0.149
-348.464	512.211	0.173	0.401
-347.450	32.464	0.094	-0.081
-346.435	800.000	0.070	-0.220
-345.420	170.373	-0.123	-0.175
-344.406	-114.352	-0.066	0.013
-343.391	632.945	0.105	0.265
-342.377	501.966	0.149	0.341
-341.362	800.000	-0.077	0.248
-340.348	-57.176	-0.187	0.082
-339.333	115.638	0.071	-0.086
-338.318	-96.048	-0.089	0.023
-337.304	22.552	0.036	-0.030
-336.289	-93.386	0.026	0.007
-335.275	-172.393	0.176	0.006
-334.260	-3.865	0.080	0.055
-333.245	159.878	-0.120	-0.167
-332.231	-75.642	0.393	-0.138
-331.216	-200.000	0.081	0.439
-330.202	82.660	0.082	-0.088
-329.187	122.672	0.134	-0.167
-328.172	-199.838	0.454	-0.002
-327.158	-120.654	-0.234	-0.039
-326.143	-68.185	0.020	-0.008
-325.129	-52.856	-0.119	0.054
-324.114	-7.495	0.198	0.133
-323.099	-200.000	0.008	0.326
-322.085	-147.276	-0.098	0.008
-321.070	37.583	-0.099	-0.088
-320.056	135.831	-0.073	0.094
-319.041	550.279	0.184	0.439
-318.026	197.716	0.167	0.254
-317.012	-64.591	-0.323	-0.130
-315.997	-34.397	-0.144	0.078
-314.983	-99.905	0.135	-0.033
-313.968	203.416	-0.229	-0.351
-312.953	212.554	-0.086	0.135
-311.939	-200.000	0.013	0.176
-310.924	21.831	-0.249	0.202
-309.910	-151.462	-0.080	0.006
-308.895	183.823	0.086	-0.126
-307.880	238.706	0.180	0.296
-306.866	121.056	-0.044	-0.054
-305.851	800.000	0.182	-0.637
-304.837	-164.344	-0.279	0.013
-303.822	-200.000	0.016	-0.143
-302.807	800.000	0.030	-0.131
-301.793	78.801	-0.042	-0.044
-300.778	-50.515	0.096	0.045
-299.764	78.690	0.229	-0.243
-298.749	-200.000	-0.032	0.151
-297.735	107.618	-0.219	0.258
-296.720	-105.561	-0.277	0.062
-295.705	-200.000	-0.038	0.206
-294.691	-200.000	0.026	0.149
-293.676	-28.372	-0.382	0.219
-292.662	-72.917	0.177	0.064
-291.647	-109.496	0.115	-0.024
-290.632	267.671	0.075	-0.130
-289.618	625.477	0.153	-0.383
-288.603	214.471	-0.148	-0.233
-287.589	612.042	-0.101	0.250
-286.574	-35.186	-0.347	-0.187
-285.559	-200.000	-0.054	-0.385
-284.545	76.244	-0.027	-0.028
-283.530	78.058	0.141	-0.149
-282.516	-174.021	-0.115	-0.003
-281.501	-16.348	-0.226	0.142
-280.486	-5.134	0.258	-0.176
-279.472	-200.000	0.004	0.322
-278.457	-80.103	0.248	-0.082
-277.443	52.513	-0.186	-0.176
-276.428	-200.000	-0.081	-0.394
-275.413	151.767	-0.072	-0.097
-274.399	-200.000	-0.013	0.244
-273.384	6.041	-0.088	-0.065
-272.370	54.788	0.242	-0.231
-271.355	-200.000	0.005	0.113
-270.340	-42.765	-0.237	0.119
-269.326	-86.386	-0.230	0.070
-268.311	129.984	0.080	-0.101
-267.297	-79.610	0.130	0.043
-266.282	-85.436	0.220	0.068
-265.267	-79.532	0.051	0.017
-264.253	-21.106	0.091	0.055
-263.238	-0.080	0.111	-0.078
-262.224	-200.000	0.016	0.141
-261.209	203.170	0.019	-0.029
-260.195	231.104	-0.057	0.093
-259.180	-118.228	-0.116	0.020
-258.165	561.732	-0.136	0.327
-257.151	63.538	-0.032	0.032
-256.136	5.332	0.137	0.100
-255.122	800.000	-0.054	-0.177
-254.107	350.922	0.081	0.158
-253.092	-110.975	-0.361	0.073
-252.078	-61.980	-0.587	0.243
-251.063	-200.000	-0.002	0.079
-250.049	38.339	-0.191	0.168
-249.034	-109.741	-0.013	0.003
-248.019	800.000	-0.062	-0.177
-247.005	-200.000	0.032	-0.166
-245.990	800.000	-0.019	0.081
-244.976	117.443	0.080	-0.097
-243.961	161.257	0.139	0.192
-242.946	67.665	-0.049	0.050
-241.932	223.408	-0.099	-0.157
-240.917	134.717	0.060	-0.077
-239.903	-88.561	0.195	-0.058
-238.888	89.811	0.130	-0.143
-237.873	-171.409	0.213	-0.007
-236.859	-104.565	-0.138	0.031
-235.844	-200.000	0.024	0.293
-234.830	-166.669	0.086	0.004
-233.815	-90.541	-0.220	0.063
-232.800	127.530	0.070	-0.088
-231.786	-114.421	0.133	-0.025
-230.771	-67.026	-0.084	-0.033
-229.757	-59.871	0.115	0.049
-228.742	-160.518	0.340	-0.018
-227.727	62.434	-0.084	0.083
-226.713	-21.370	-0.352	-0.213
-225.698	-55.331	-0.377	-0.167
-224.684	356.697	-0.007	0.014
-223.669	67.042	-0.377	0.380
-222.655	-168.608	-0.058	0.002
-221.640	-46.932	-0.222	-0.107
-220.625	-172.109	-0.215	-0.007
-219.611	79.211	-0.128	0.135
-218.596	89.221	0.119	-0.131
-217.582	12.914	-0.082	0.063
-216.567	-91.044	0.199	0.056
-215.552	-200.000	0.004	0.097
-214.538	-200.000	-0.105	0.529
-213.523	-49.060	-0.021	0.010
-212.509	769.186	0.174	0.469
-211.494	25.057	0.215	0.177
-210.479	-64.038	-0.461	0.186
-209.465	-125.829	0.252	0.038
-208.450	-29.506	-0.192	-0.108
-207.436	-147.582	0.158	-0.013
-206.421	-200.000	0.051	-0.353
-205.406	86.191	0.227	-0.247
-204.392	193.039	0.068	-0.101
-203.377	-200.000	0.001	0.213
-202.363	-34.667	0.111	0.060
-201.348	-99.993	0.079	-0.020
-200.333	-142.796	0.563	0.054
-199.319	32.683	0.197	0.168
-198.304	-200.000	-0.006	0.169
-197.290	-200.000	0.017	-0.232
-196.275	-200.000	-0.003	0.260
-195.260	-93.375	0.085	0.023
-194.246	-16.697	0.103	0.064
-193.231	-30.483	0.290	-0.163
-192.217	459.800	0.126	-0.277
-191.202	-54.467	0.019	-0.009
-190.187	566.289	-0.112	-0.269
-189.173	-35.081	-0.293	0.158
-188.158	-39.314	-0.479	-0.248
-187.144	91.679	0.083	0.093
-186.129	800.000	-0.044	0.131
-185.114	-30.393	0.110	-0.062
-184.100	-200.000	-0.008	0.188
-183.085	-200.000	-0.010	0.065
-182.071	395.869	0.128	0.264
-181.056	-99.949	-0.141	0.035
-180.042	-135.291	-0.177	0.021
-179.027	-7.465	-0.089	0.059
-178.012	-28.938	0.316	0.179
-176.998	-96.095	0.098	-0.026
-175.983	195.252	-0.144	0.216
-174.969	800.000	-0.081	-0.223
-173.954	-200.000	-0.048	-0.342
-172.939	103.432	-0.361	-0.418
-171.925	-132.990	-0.217	0.027
-170.910	-55.711	-0.205	0.091
-169.896	29.056	0.344	-0.288
-168.881	-107.528	-0.009	0.002
-167.866	800.000	-0.095	0.326
-166.852	-83.323	0.213	-0.067
-165.837	93.440	0.144	-0.161
-164.823	453.844	0.081	0.177
-163.808	-56.984	0.067	0.029
-162.793	130.815	-0.072	0.091
-161.779	-200.000	0.008	-0.166
-160.764	30.657	0.195	0.164
-159.750	-0.141	-0.154	0.108
-158.735	117.577	-0.076	0.092
-157.720	-136.304	0.372	0.043
-156.706	-105.145	0.293	0.066
-155.691	116.748	0.099	0.120
-154.677	-106.648	-0.026	-0.006
-153.662	-200.000	-0.044	0.304
-152.647	-200.000	0.217	0.000
-151.633	-67.339	-0.265	-0.103
-150.618	17.653	-0.070	0.055
-149.604	120.882	-0.180	0.220
-148.589	800.000	-0.011	0.041
-147.574	-8.619	-0.103	0.068
-146.560	-84.029	-0.315	-0.099
-145.545	-103.130	0.257	0.060
-144.531	-114.682	0.573	0.108
-143.516	112.133	0.122	0.146
-142.502	-88.265	-0.431	0.127
-141.487	-113.625	0.152	0.029
-140.472	569.213	0.056	-0.134
-139.458	121.629	0.227	-0.279
-138.443	800.000	-0.013	-0.037
-137.429	249.817	-0.044	-0.073
-136.414	34.395	0.335	0.288
-135.399	32.928	0.255	0.218
-134.385	800.000	0.137	-0.462
-133.370	418.994	-0.073	-0.154
-132.356	-10.358	0.427	-0.279
-131.341	-59.498	-0.402	-0.170
-130.326	-149.743	-0.093	0.007
-129.312	-200.000	-0.044	-0.306
-128.297	85.690	-0.289	0.313
-127.283	210.932	-0.117	-0.181
-126.268	340.754	0.161	-0.310
-125.253	-50.789	0.233	-0.108
-124.239	478.727	-0.062	0.137
-123.224	409.820	-0.013	0.027
-122.210	800.000	-0.056	-0.155
-121.195	162.256	-0.176	0.243
