DTS Sentinel unit serial number:	SN413079Multiplexer serial number:	ORYXHardware model number:	OX4-SRSoftware version number:	ORYX F/W v4.00 Oryx Data Collector v3.7.2.0data status	okinstallation	princeton_trtdifferential loss correction	single-endedforward channel	channel 1reverse channel	N/Adate	2019/09/19time	08:54:35forward acquisition time	60.00reverse acquisition time	0.00gamma	496.2192k internal	0.2343k external	0.2343temperature offset calibration	1.0004default loss term (dB/km)	0.3790temperature slope calibration	1.0000multiplexer offset coefficient	1.0000multiplexer slope coefficient	1.0000fibre end	0.00T internal ref (°C)	21.31T ext. ref 1 (°C)	0.58T ext. ref 2 (°C)	17.19length (m)	temperature (°C)	Stokes	anti-Stokes-747.200	-70.028	-0.169	0.065
-746.185	-200.000	-0.001	0.203
-745.171	286.502	-0.150	0.271
-744.156	-113.870	-0.193	0.038
-743.142	33.410	-0.195	0.170
-742.127	388.021	-0.192	0.397
-741.112	-57.365	0.129	-0.057
-740.098	2.762	0.076	-0.055
-739.083	-178.673	0.114	0.003
-738.069	-200.000	0.015	0.338
-737.054	97.582	-0.165	0.190
-736.039	-28.903	-0.191	-0.110
-735.025	-128.256	0.449	0.064
-734.010	-70.688	-0.204	0.077
-732.996	286.546	-0.233	-0.420
-731.981	-152.559	-0.056	-0.004
-730.966	800.000	0.054	0.181
-729.952	-132.024	-0.245	0.032
-728.937	-30.893	0.145	0.082
-727.923	-103.710	-0.186	-0.044
-726.908	17.247	-0.228	-0.181
-725.894	-200.000	-0.015	-0.265
-724.879	63.365	0.091	-0.091
-723.864	-49.878	-0.181	-0.086
-722.850	-103.014	-0.241	0.057
-721.835	-72.518	-0.277	-0.102
-720.821	-167.894	-0.405	-0.016
-719.806	-200.000	-0.095	0.552
-718.791	224.465	-0.070	-0.113
-717.777	-104.157	0.110	-0.026
-716.762	214.868	0.128	-0.204
-715.748	40.816	0.251	-0.226
-714.733	99.104	-0.238	-0.275
-713.718	-200.000	-0.019	0.085
-712.704	48.466	0.074	0.069
-711.689	-43.738	-0.143	0.072
-710.675	-200.000	0.050	-0.278
-709.660	234.261	0.146	0.241
-708.645	324.144	-0.086	-0.164
-707.631	-7.229	0.243	0.165
-706.616	800.000	0.076	-0.326
-705.602	678.872	-0.136	-0.354
-704.587	-73.499	-0.379	-0.138
-703.572	-61.887	0.223	0.093
-702.558	-91.061	0.080	0.023
-701.543	-200.000	0.003	-0.045
-700.529	281.528	-0.067	-0.120
-699.514	158.505	0.245	-0.339
-698.499	-200.000	0.007	-0.102
-697.485	-179.103	-0.392	-0.009
-696.470	93.531	-0.141	-0.159
-695.456	286.246	0.049	0.088
-694.441	-72.921	0.129	0.047
-693.426	-131.615	0.301	-0.040
-692.412	-127.078	-0.298	-0.044
-691.397	-46.274	-0.118	0.058
-690.383	-129.063	-0.100	-0.014
-689.368	-46.375	0.207	0.102
-688.354	-200.000	0.043	-0.281
-687.339	9.082	0.244	-0.184
-686.324	-85.544	0.275	0.085
-685.310	302.599	0.093	0.172
-684.295	-200.000	0.001	0.148
-683.281	39.008	-0.273	-0.244
-682.266	152.176	-0.157	-0.214
-681.251	140.693	0.167	-0.220
-680.237	464.112	0.085	-0.190
-679.222	620.801	-0.066	-0.165
-678.208	153.400	0.049	-0.067
-677.193	93.686	0.010	0.011
-676.178	-129.939	0.221	-0.030
-675.164	-130.600	-0.168	0.023
-674.149	64.550	-0.176	-0.177
-673.135	-106.008	-0.327	0.073
-672.120	-166.192	-0.034	0.001
-671.105	-117.044	-0.085	-0.015
-670.091	10.389	-0.101	-0.077
-669.076	-200.000	-0.051	-0.399
-668.062	-52.337	-0.276	0.128
-667.047	92.215	-0.058	-0.065
-666.032	13.722	0.200	0.155
-665.018	-200.000	0.005	0.065
-664.003	-87.751	-0.280	0.084
-662.989	165.376	-0.184	0.260
-661.974	-101.573	-0.036	-0.009
-660.959	248.804	0.100	-0.170
-659.945	695.197	0.031	0.081
-658.930	131.365	0.052	0.067
-657.916	-100.370	0.309	0.076
-656.901	-122.548	-0.049	0.008
-655.886	393.276	-0.109	-0.226
-654.872	-47.081	-0.306	-0.149
-653.857	-133.833	0.286	0.036
-652.843	82.858	-0.185	0.200
-651.828	-156.648	0.059	0.004
-650.814	187.637	0.075	-0.111
-649.799	-24.851	-0.049	0.029
-648.784	-100.439	0.173	0.043
-647.770	-82.424	-0.216	-0.070
-646.755	-75.120	-0.419	-0.150
-645.741	-143.689	0.258	-0.024
-644.726	-103.902	0.190	0.044
-643.711	182.078	-0.191	0.281
-642.697	-135.933	0.490	0.058
-641.682	-71.023	0.075	-0.028
-640.668	-5.005	-0.408	0.280
-639.653	113.798	-0.099	0.120
-638.638	56.874	-0.152	-0.148
-637.624	800.000	-0.006	0.018
-636.609	-87.276	0.264	0.080
-635.595	-154.082	-0.409	0.028
-634.580	343.180	0.141	0.275
-633.565	-120.290	0.153	0.026
-632.551	-200.000	-0.016	0.099
-631.536	390.476	0.061	0.127
-630.522	-144.986	-0.155	0.014
-629.507	-200.000	-0.015	-0.097
-628.492	192.471	0.161	0.243
-627.478	242.641	-0.068	0.114
-626.463	279.495	-0.128	0.228
-625.449	105.617	-0.090	-0.106
-624.434	459.337	-0.121	-0.269
-623.419	-11.072	0.019	-0.013
-622.405	250.338	0.059	-0.099
-621.390	-153.980	0.285	-0.019
-620.376	-200.000	0.036	-0.222
-619.361	-24.979	0.085	0.051
-618.346	-102.933	-0.096	0.023
-617.332	15.903	-0.241	0.189
-616.317	210.104	-0.131	-0.204
-615.303	-168.574	0.335	0.013
-614.288	-103.538	-0.093	0.022
-613.273	-200.000	-0.018	0.122
-612.259	260.412	-0.208	0.357
-611.244	-200.000	0.180	0.000
-610.230	-32.825	0.304	0.168
-609.215	232.398	-0.074	-0.122
-608.201	10.750	0.207	0.158
-607.186	39.211	-0.289	0.257
-606.171	-175.750	-0.167	-0.004
-605.157	800.000	-0.099	0.289
-604.142	-200.000	-0.001	0.272
-603.128	-153.932	0.036	0.002
-602.113	355.461	0.226	-0.448
-601.098	51.614	0.264	-0.250
-600.084	-200.000	-0.033	-0.216
-599.069	67.579	-0.157	-0.159
-598.055	323.211	-0.124	0.235
-597.040	-155.045	-0.157	-0.010
-596.025	75.955	0.348	-0.366
-595.011	-30.805	0.278	-0.156
-593.996	213.296	-0.086	0.135
-592.982	-200.000	0.017	-0.165
-591.967	-200.000	-0.072	0.349
-590.952	-123.326	-0.120	0.019
-589.938	104.102	-0.134	0.157
-588.923	14.297	-0.135	-0.105
-587.909	-200.000	0.032	-0.237
-586.894	0.824	-0.048	0.034
-585.879	36.893	-0.187	0.165
-584.865	-89.381	-0.041	-0.012
-583.850	104.364	-0.100	-0.117
-582.836	-200.000	0.011	0.165
-581.821	-6.363	0.190	0.129
-580.806	800.000	-0.025	-0.073
-579.792	800.000	0.110	0.357
-578.777	79.626	-0.098	-0.104
-577.763	364.878	-0.110	0.220
-576.748	44.364	0.060	-0.055
-575.733	62.217	0.124	-0.123
-574.719	-7.411	0.170	0.115
-573.704	270.702	0.148	-0.258
-572.690	800.000	0.050	0.143
-571.675	10.888	-0.172	-0.130
-570.661	-127.210	0.447	0.065
-569.646	-200.000	-0.022	-0.166
-568.631	-118.584	-0.235	-0.041
-567.617	800.000	-0.028	-0.095
-566.602	-200.000	-0.027	-0.200
-565.588	-86.244	0.236	-0.072
-564.573	488.782	0.130	-0.295
-563.558	-172.544	-0.245	0.008
-562.544	42.566	0.175	0.159
-561.529	-200.000	-0.012	0.068
-560.515	-114.766	0.081	-0.015
-559.500	26.899	-0.121	0.101
-558.485	501.439	-0.059	-0.135
-557.471	8.798	-0.264	-0.197
-556.456	164.798	0.224	-0.315
-555.442	-200.000	-0.006	0.039
-554.427	800.000	0.022	0.079
-553.412	-159.105	-0.146	-0.008
-552.398	-110.983	-0.254	0.052
-551.383	-33.729	0.113	0.062
-550.369	800.000	0.048	-0.152
-549.354	8.692	0.446	0.334
-548.339	-200.000	0.027	0.208
-547.325	-200.000	0.021	0.245
-546.310	-200.000	0.047	-0.276
-545.296	34.598	-0.063	0.054
-544.281	-79.117	0.303	0.102
-543.266	419.647	-0.106	0.226
-542.252	66.765	-0.339	0.343
-541.237	34.531	0.147	-0.128
-540.223	-69.940	-0.187	0.071
-539.208	-164.143	-0.026	-0.001
-538.193	186.354	-0.026	0.038
-537.179	-8.139	-0.130	-0.087
-536.164	-124.502	0.141	-0.022
-535.150	-114.021	0.180	-0.035
-534.135	303.637	0.118	-0.216
-533.121	-34.809	-0.087	-0.047
-532.106	503.166	0.084	-0.192
-531.091	194.990	0.220	0.331
-530.077	26.949	-0.193	0.161
-529.062	-200.000	0.032	0.201
-528.048	-142.295	-0.049	-0.005
-527.033	661.969	0.096	-0.246
-526.018	26.102	0.065	-0.054
-525.004	-152.005	-0.125	0.009
-523.989	400.857	0.154	0.320
-522.975	-160.875	-0.046	-0.002
-521.960	-145.178	-0.311	0.028
-520.945	608.499	0.098	0.243
-519.931	602.734	-0.060	0.147
-518.916	449.199	0.160	0.349
-517.902	28.498	0.224	0.188
-516.887	-161.444	0.066	0.003
-515.872	800.000	-0.047	0.162
-514.858	-94.849	-0.263	-0.071
-513.843	-200.000	-0.009	0.153
-512.829	-200.000	-0.076	0.381
-511.814	-200.000	0.020	-0.112
-510.799	12.909	-0.158	-0.121
-509.785	-200.000	-0.386	0.001
-508.770	-70.189	0.385	-0.145
-507.756	-7.131	-0.107	0.072
-506.741	800.000	0.112	0.318
-505.726	-200.000	-0.014	0.148
-504.712	216.143	-0.022	0.035
-503.697	275.710	-0.080	-0.140
-502.683	-194.411	-0.203	0.002
-501.668	-160.692	0.280	-0.015
-500.653	-80.176	0.109	0.036
-499.639	-200.000	0.045	-0.278
-498.624	-120.600	0.264	-0.044
-497.610	399.152	-0.080	0.166
-496.595	-200.000	0.028	-0.140
-495.581	-30.934	-0.372	-0.208
-494.566	-200.000	-0.025	-0.371
-493.551	237.162	0.082	0.135
-492.537	-74.042	-0.133	0.048
-491.522	800.000	0.022	-0.078
-490.508	-108.840	-0.102	-0.022
-489.493	-200.000	0.007	0.061
-488.478	-71.795	-0.249	-0.092
-487.464	-123.374	0.316	-0.050
-486.449	207.544	-0.055	-0.085
-485.435	-90.195	0.252	-0.073
-484.420	-46.704	-0.068	-0.033
-483.405	-200.000	0.064	0.280
-482.391	-56.579	0.236	0.104
-481.376	-200.000	-0.025	-0.492
-480.362	-128.092	-0.118	0.017
-479.347	800.000	-0.026	-0.082
-478.332	350.693	-0.103	-0.202
-477.318	443.158	-0.114	0.249
-476.303	125.885	-0.079	0.099
-475.289	-171.923	-0.058	0.002
-474.274	-200.000	-0.046	0.214
-473.259	-44.246	0.067	0.033
-472.245	-200.000	-0.035	-0.205
-471.230	-38.343	-0.540	-0.283
-470.216	-200.000	0.033	-0.386
-469.201	-79.653	-0.175	-0.058
-468.186	110.922	0.195	0.232
-467.172	-200.000	-0.027	-0.367
-466.157	-66.823	-0.056	-0.022
-465.143	-184.522	0.280	-0.004
-464.128	490.488	-0.196	-0.444
-463.113	-200.000	0.064	-0.372
-462.099	800.000	-0.129	-0.369
-461.084	-89.071	-0.113	-0.033
-460.070	581.476	0.192	-0.467
-459.055	-58.943	0.046	-0.020
-458.040	164.830	-0.150	-0.209
-457.026	543.597	-0.029	0.069
-456.011	253.628	-0.133	-0.225
-454.997	800.000	0.085	-0.297
-453.982	132.504	-0.102	-0.131
-452.968	800.000	0.029	-0.095
-451.953	-117.969	-0.327	-0.058
-450.938	-146.463	-0.080	0.007
-449.924	-200.000	0.008	0.164
-448.909	336.548	0.071	-0.136
-447.895	-200.000	0.019	-0.586
-446.880	-38.482	-0.328	-0.172
-445.865	497.499	-0.064	-0.146
-444.851	-200.000	0.001	0.092
-443.836	-149.649	0.374	0.029
-442.822	-8.937	0.187	0.124
-441.807	131.401	-0.150	0.191
-440.792	-62.868	-0.222	-0.091
-439.778	-200.000	0.015	-0.308
-438.763	-18.960	0.157	0.097
-437.749	800.000	0.006	0.017
-436.734	-62.005	0.175	0.072
-435.719	-142.336	-0.146	-0.014
-434.705	-70.033	0.073	0.027
-433.690	91.549	-0.240	0.266
-432.676	-200.000	0.054	-0.280
-431.661	-61.352	-0.085	0.035
-430.646	4.561	0.064	-0.046
-429.632	-39.628	0.379	-0.196
-428.617	-101.419	-0.316	-0.076
-427.603	800.000	0.059	-0.193
-426.588	-200.000	0.015	-0.297
-425.573	-74.872	-0.097	-0.034
-424.559	-200.000	0.074	0.430
-423.544	-53.881	-0.110	-0.050
-422.530	-149.846	-0.156	0.012
-421.515	-170.217	0.267	0.009
-420.500	-58.863	-0.176	-0.075
-419.486	278.517	-0.108	0.190
-418.471	800.000	-0.060	-0.182
-417.457	-107.957	-0.409	-0.088
-416.442	34.373	0.190	0.164
-415.428	2.519	0.097	0.070
-414.413	-62.507	0.085	0.035
-413.398	-200.000	-0.008	0.049
-412.384	166.052	-0.220	-0.308
-411.369	-200.000	-0.001	-0.284
-410.355	176.989	0.114	-0.164
-409.340	173.912	0.036	-0.051
-408.325	-93.494	0.288	-0.079
-407.311	-102.581	0.319	-0.075
-406.296	800.000	-0.016	0.055
-405.282	84.677	0.141	0.152
-404.267	548.156	-0.071	-0.167
-403.252	177.160	0.067	0.096
-402.238	-78.529	0.277	-0.094
-401.223	56.512	-0.194	-0.187
-400.209	-200.000	-0.006	0.095
-399.194	51.268	0.136	-0.128
-398.179	-200.000	-0.030	-0.156
-397.165	-31.650	0.187	0.104
-396.150	-200.000	0.014	-0.143
-395.136	-200.000	0.026	0.261
-394.121	-59.163	-0.138	-0.059
-393.106	167.471	0.042	-0.059
-392.092	800.000	0.094	0.338
-391.077	173.017	0.160	-0.227
-390.063	37.698	0.077	0.067
-389.048	-200.000	-0.014	-0.074
-388.033	-53.059	-0.212	-0.096
-387.019	-200.000	0.029	-0.133
-386.004	-200.000	0.012	0.285
-384.990	-29.901	0.181	0.102
-383.975	-1.910	0.187	0.130
-382.960	77.617	-0.100	-0.105
-381.946	243.925	0.150	-0.249
-380.931	151.977	-0.286	0.385
-379.917	4.429	0.172	-0.124
-378.902	-49.015	0.075	0.035
-377.888	68.299	0.152	0.154
-376.873	526.646	0.099	0.231
-375.858	-189.816	0.401	-0.004
-374.844	-90.353	-0.242	-0.069
-373.829	-200.000	0.003	0.056
-372.815	67.272	0.107	-0.108
-371.800	64.222	0.255	0.253
-370.785	-200.000	-0.024	-0.254
-369.771	-109.804	-0.385	-0.080
-368.756	94.685	0.061	0.069
-367.742	800.000	0.034	-0.128
-366.727	15.704	-0.108	-0.084
-365.712	0.959	-0.059	-0.042
-364.698	-200.000	-0.005	0.135
-363.683	692.950	-0.136	0.350
-362.669	274.633	0.078	-0.137
-361.654	-109.639	0.125	0.026
-360.639	-79.338	0.302	-0.101
-359.625	150.931	-0.124	0.166
-358.610	-200.000	0.004	-0.208
-357.596	-200.000	0.024	-0.206
-356.581	23.398	0.210	0.171
-355.566	-31.580	-0.224	0.124
-354.552	-100.946	-0.108	0.026
-353.537	-200.000	-0.036	0.416
-352.523	378.071	0.045	0.092
-351.508	-200.000	0.001	-0.203
-350.493	-116.151	-0.203	-0.037
-349.479	9.205	0.201	-0.150
-348.464	-103.760	-0.312	0.072
-347.450	10.674	-0.136	0.102
-346.435	298.014	0.017	0.030
-345.420	614.959	0.048	0.118
-344.406	-154.873	0.061	0.004
-343.391	-63.543	-0.276	-0.112
-342.377	-200.000	-0.008	0.092
-341.362	504.266	0.159	0.364
-340.348	285.168	-0.118	-0.209
-339.333	-163.608	0.234	-0.011
-338.318	107.030	0.173	0.202
-337.304	-200.000	0.032	0.193
-336.289	96.842	0.157	0.177
-335.275	-200.000	0.000	-0.168
-334.260	-17.316	0.065	-0.040
-333.245	268.285	0.086	-0.149
-332.231	73.012	-0.047	0.048
-331.216	-39.595	-0.212	-0.110
-330.202	46.507	-0.282	0.258
-329.187	251.328	-0.129	0.217
-328.172	-55.634	0.327	0.144
-327.158	-200.000	-0.017	0.091
-326.143	318.316	-0.237	0.441
-325.129	-200.000	-0.006	0.384
-324.114	-100.530	-0.057	0.014
-323.099	-200.000	0.022	-0.146
-322.085	137.171	-0.211	0.272
-321.070	-64.834	-0.260	0.103
-320.056	94.147	-0.237	-0.265
-319.041	800.000	0.057	0.189
-318.026	143.339	-0.074	-0.097
-317.012	-55.511	0.183	-0.081
-315.997	20.853	0.201	-0.161
-314.983	-138.987	-0.087	-0.009
-313.968	363.221	0.060	0.119
-312.953	-87.278	-0.282	-0.084
-311.939	-99.152	0.154	-0.038
-310.924	441.098	0.115	0.248
-309.910	-200.000	-0.017	0.100
-308.895	-200.000	0.017	-0.155
-307.880	-140.895	-0.467	0.047
-306.866	-26.412	-0.055	0.032
-305.851	153.982	-0.095	-0.129
-304.837	-200.000	0.008	-0.137
-303.822	-200.000	-0.074	0.409
-302.807	565.987	-0.064	-0.153
-301.793	-15.514	-0.175	-0.110
-300.778	-45.857	0.202	-0.098
-299.764	241.033	0.058	0.095
-298.749	-46.684	0.258	0.125
-297.735	-118.284	0.306	0.054
-296.720	-38.924	-0.241	-0.125
-295.705	-106.815	-0.273	-0.060
-294.691	50.474	0.120	0.112
-293.676	727.440	0.096	-0.252
-292.662	430.020	0.130	-0.278
-291.647	-137.667	0.184	-0.020
-290.632	-103.036	-0.143	0.033
-289.618	53.049	0.069	-0.065
-288.603	-200.000	0.037	0.169
-287.589	362.220	0.066	-0.130
-286.574	182.033	-0.050	0.072
-285.559	-117.191	-0.142	-0.025
-284.545	-115.310	-0.090	-0.017
-283.530	-151.299	0.333	0.024
-282.516	53.288	-0.175	-0.165
-281.501	-53.940	0.092	0.041
-280.486	-82.791	-0.295	-0.094
-279.472	-200.000	0.022	-0.142
-278.457	443.017	-0.104	-0.224
-277.443	194.373	-0.156	-0.232
-276.428	-97.929	-0.221	0.056
-275.413	800.000	0.067	0.277
-274.399	-200.000	-0.077	0.431
-273.384	-114.866	-0.120	-0.022
-272.370	23.002	0.110	0.089
-271.355	-40.799	0.240	-0.122
-270.340	-200.000	-0.014	-0.298
-269.326	-8.510	-0.239	-0.158
-268.311	263.840	-0.091	-0.155
-267.297	-176.751	-0.165	0.004
-266.282	-152.645	-0.209	0.015
-265.267	-200.000	0.015	0.168
-264.253	-26.326	0.131	-0.076
-263.238	-2.123	-0.062	-0.043
-262.224	-158.784	-0.149	-0.008
-261.209	-44.564	0.110	-0.054
-260.195	342.905	0.031	0.060
-259.180	-200.000	0.033	0.192
-258.165	342.555	0.245	0.471
-257.151	252.032	-0.084	0.140
-256.136	-167.384	0.322	0.013
-255.122	-112.833	-0.240	-0.047
-254.107	-97.765	-0.188	0.048
-253.092	-200.000	0.004	0.042
-252.078	-16.876	0.159	-0.099
-251.063	-37.284	0.282	-0.148
-250.049	104.707	-0.038	-0.044
-249.034	470.236	0.143	0.316
-248.019	220.200	0.107	0.169
-247.005	-120.159	-0.219	-0.037
-245.990	286.743	0.188	-0.333
-244.976	248.172	-0.111	-0.184
-243.961	167.711	-0.169	-0.236
-242.946	-170.293	0.039	-0.001
-241.932	301.977	0.050	0.090
-240.917	-143.140	-0.046	-0.004
-239.903	552.471	-0.031	-0.072
-238.888	-200.000	-0.010	0.072
-237.873	-104.956	-0.033	-0.007
-236.859	-14.664	-0.178	0.112
-235.844	-190.436	0.269	-0.003
-234.830	555.241	0.087	-0.206
-233.815	-115.308	0.149	0.028
-232.800	-141.521	-0.458	0.045
-231.786	112.685	-0.090	0.107
-230.771	-11.467	0.151	-0.097
-229.757	-12.916	0.291	0.186
-228.742	-119.106	0.126	0.022
-227.727	-123.073	0.389	0.061
-226.713	167.399	-0.049	-0.069
-225.698	201.319	-0.101	0.152
-224.684	292.426	-0.141	0.251
-223.669	-153.896	0.244	-0.016
-222.655	800.000	0.022	0.073
-221.640	-45.198	0.088	0.043
-220.625	-20.592	0.286	-0.173
-219.611	-63.827	0.157	-0.063
-218.596	-52.712	-0.240	0.109
-217.582	24.149	0.260	0.211
-216.567	-199.330	0.519	-0.003
-215.552	142.258	-0.288	-0.375
-214.538	618.635	-0.096	-0.236
-213.523	45.387	0.332	0.300
-212.509	-128.957	-0.264	-0.036
-211.494	111.751	0.217	-0.257
-210.479	-165.468	-0.408	0.017
-209.465	-22.048	0.289	0.172
-208.450	-85.687	0.063	0.019
-207.436	-64.939	-0.087	0.035
-206.421	-200.000	0.022	0.202
-205.406	-200.000	-0.028	0.216
-204.392	-45.502	0.172	-0.083
-203.377	162.003	-0.207	-0.284
-202.363	-200.000	-0.003	0.100
-201.348	70.355	-0.104	0.105
-200.333	10.167	0.230	-0.171
-199.319	-200.000	0.009	0.085
-198.304	-200.000	0.021	0.149
-197.290	-112.668	-0.102	0.020
-196.275	-65.064	0.494	-0.195
-195.260	-87.077	-0.211	0.063
-194.246	43.196	0.258	-0.231
-193.231	-133.472	0.102	0.013
-192.217	191.498	-0.191	0.282
-191.202	94.724	-0.176	-0.196
-190.187	-93.796	0.252	-0.068
-189.173	-84.976	-0.384	-0.118
-188.158	-9.655	-0.216	0.141
-187.144	800.000	0.065	-0.192
-186.129	375.575	-0.172	-0.343
-185.114	-200.000	-0.013	-0.089
-184.100	-8.133	0.103	0.068
-183.085	11.961	-0.423	-0.319
-182.071	-28.471	0.282	0.159
-181.056	-149.014	0.287	0.023
-180.042	628.056	0.129	-0.320
-179.027	-91.380	-0.089	0.025
-178.012	446.455	-0.054	0.116
-176.998	-200.000	-0.045	-0.204
-175.983	800.000	-0.081	0.255
-174.969	181.244	0.038	0.054
-173.954	316.399	0.158	0.292
-172.939	-25.154	-0.377	0.219
-171.925	-200.000	0.049	-0.243
-170.910	-200.000	-0.019	0.105
-169.896	-200.000	0.025	0.141
-168.881	-75.822	-0.027	-0.009
-167.866	-200.000	-0.019	-0.091
-166.852	221.830	-0.252	0.396
-165.837	800.000	-0.084	-0.298
-164.823	455.126	0.138	0.300
-163.808	-35.476	-0.128	-0.068
-162.793	297.321	0.031	-0.056
-161.779	-200.000	0.047	0.212
-160.764	-200.000	0.013	-0.120
-159.750	-200.000	0.031	0.143
-158.735	-82.361	0.219	0.070
-157.720	-200.000	0.016	0.309
-156.706	-200.000	-0.034	-0.211
-155.691	800.000	-0.144	-0.465
-154.677	78.936	-0.144	0.151
-153.662	-125.895	0.207	0.031
-152.647	-200.000	-0.020	0.167
-151.633	800.000	0.046	0.188
-150.618	-91.838	-0.133	0.037
-149.604	-88.773	-0.025	-0.007
-148.589	-54.532	0.076	-0.034
-147.574	-170.238	0.120	0.004
-146.560	603.369	0.120	-0.293
-145.545	800.000	-0.109	-0.299
-144.531	102.865	0.045	-0.052
-143.516	-200.000	-0.033	0.351
-142.502	34.235	-0.221	-0.188
-141.487	800.000	-0.021	-0.074
-140.472	-200.000	0.038	-0.165
-139.458	17.105	-0.119	0.092
-138.443	137.727	0.141	0.181
-137.429	255.141	-0.074	0.125
-136.414	-49.460	0.220	0.103
-135.399	509.968	0.081	-0.184
-134.385	74.312	0.022	-0.023
-133.370	122.490	0.193	0.236
-132.356	800.000	0.068	-0.220
-131.341	252.986	0.095	-0.158
-130.326	-94.708	-0.203	-0.054
-129.312	202.616	0.028	0.042
-128.297	189.891	0.107	-0.157
-127.283	633.034	-0.043	-0.106
-126.268	97.527	-0.086	0.096
-125.253	-142.704	0.224	-0.021
-124.239	800.000	0.070	-0.192
-123.224	-5.902	-0.376	-0.252
