DTS Sentinel unit serial number:	SN413079Multiplexer serial number:	ORYXHardware model number:	OX4-SRSoftware version number:	ORYX F/W v4.00 Oryx Data Collector v3.7.2.0data status	okinstallation	princeton_trtdifferential loss correction	single-endedforward channel	channel 1reverse channel	N/Adate	2019/09/14time	23:06:35forward acquisition time	60.00reverse acquisition time	0.00gamma	496.2192k internal	0.2319k external	0.2319temperature offset calibration	1.0003default loss term (dB/km)	0.3790temperature slope calibration	1.0000multiplexer offset coefficient	1.0000multiplexer slope coefficient	1.0000fibre end	0.00T internal ref (°C)	32.44T ext. ref 1 (°C)	4.68T ext. ref 2 (°C)	27.43length (m)	temperature (°C)	Stokes	anti-Stokes-747.200	43.415	-0.248	0.230
-746.185	-157.170	-0.164	0.010
-745.171	142.018	-0.072	0.097
-744.156	766.860	-0.120	0.330
-743.142	-31.433	-0.426	0.242
-742.127	336.419	0.079	-0.155
-741.112	800.000	-0.033	-0.115
-740.098	293.483	-0.069	-0.127
-739.083	140.830	-0.162	-0.216
-738.069	14.985	0.109	0.086
-737.054	-123.803	0.338	0.054
-736.039	-200.000	-0.003	0.094
-735.025	-75.950	0.143	0.051
-734.010	-200.000	0.026	-0.190
-732.996	-194.030	-0.075	-0.001
-731.981	368.448	0.069	0.140
-730.966	219.562	0.037	0.059
-729.952	-137.879	-0.180	0.020
-728.937	-190.421	-0.354	-0.004
-727.923	-200.000	0.050	-0.304
-726.908	-79.634	-0.157	0.054
-725.894	36.116	0.121	0.108
-724.879	585.879	0.064	0.160
-723.864	37.944	-0.306	0.275
-722.850	103.811	-0.145	0.172
-721.835	-200.000	-0.010	-0.303
-720.821	-142.610	-0.187	0.019
-719.806	800.000	-0.060	0.198
-718.791	-42.908	0.129	0.066
-717.777	-175.156	-0.249	0.007
-716.762	85.154	0.163	0.181
-715.748	184.965	-0.085	-0.127
-714.733	-50.854	-0.248	0.118
-713.718	63.333	-0.135	-0.137
-712.704	-12.760	0.130	-0.086
-711.689	-200.000	-0.039	0.192
-710.675	291.196	-0.170	-0.312
-709.660	-65.560	0.093	-0.038
-708.645	361.406	-0.065	-0.132
-707.631	-200.000	0.006	0.281
-706.616	-138.684	-0.269	0.030
-705.602	-200.000	-0.029	0.140
-704.587	-108.655	-0.284	0.062
-703.572	-59.775	0.073	-0.032
-702.558	-200.000	0.021	-0.327
-701.543	619.628	-0.093	0.236
-700.529	75.221	0.122	-0.130
-699.514	-93.845	0.199	-0.055
-698.499	-200.000	-0.013	-0.193
-697.485	-200.000	-0.016	0.177
-696.470	190.566	0.125	0.190
-695.456	-200.000	0.021	0.246
-694.441	722.983	-0.103	0.276
-693.426	103.907	-0.190	0.226
-692.412	719.297	0.005	0.013
-691.397	-92.266	0.121	0.034
-690.383	-79.412	-0.269	0.092
-689.368	209.016	-0.121	-0.191
-688.354	-200.000	-0.007	0.087
-687.339	-54.981	0.057	-0.026
-686.324	-4.941	-0.175	0.122
-685.310	-82.186	0.084	-0.028
-684.295	27.148	0.178	-0.151
-683.281	800.000	-0.099	-0.381
-682.266	-54.053	0.213	-0.098
-681.251	-200.000	0.012	0.208
-680.237	90.994	0.033	0.037
-679.222	298.047	0.034	0.064
-678.208	100.685	0.173	0.203
-677.193	-94.100	0.114	0.032
-676.178	-56.572	-0.095	0.042
-675.164	85.760	-0.080	-0.089
-674.149	140.196	0.226	-0.301
-673.135	-66.237	-0.180	0.072
-672.120	-48.910	0.118	-0.057
-671.105	77.430	-0.286	0.307
-670.091	-52.184	0.024	-0.011
-669.076	-200.000	-0.032	-0.229
-668.062	-83.608	-0.162	0.052
-667.047	-188.535	-0.333	-0.004
-666.032	800.000	0.021	0.085
-665.018	800.000	0.092	0.265
-664.003	-200.000	-0.007	0.133
-662.989	-200.000	-0.003	0.069
-661.974	283.269	0.106	-0.191
-660.959	755.651	0.066	0.180
-659.945	-0.222	0.255	-0.183
-658.930	-200.000	-0.010	-0.231
-657.916	-200.000	-0.039	0.182
-656.901	-80.927	0.115	0.038
-655.886	169.186	-0.150	0.215
-654.872	-200.000	-0.006	-0.134
-653.857	-124.198	0.192	-0.030
-652.843	-167.135	0.127	-0.005
-651.828	-50.618	-0.289	-0.137
-650.814	-200.000	0.014	-0.326
-649.799	-26.844	0.299	0.176
-648.784	800.000	-0.077	0.268
-647.770	-158.246	-0.084	-0.005
-646.755	-22.695	0.129	-0.078
-645.741	-24.637	-0.175	-0.105
-644.726	168.181	-0.115	-0.164
-643.711	-95.486	-0.343	-0.093
-642.697	-182.033	-0.358	0.007
-641.682	-138.137	-0.192	0.021
-640.668	-168.609	-0.159	-0.006
-639.653	66.008	-0.211	-0.215
-638.638	-29.003	0.178	0.103
-637.624	61.057	0.104	0.104
-636.609	800.000	0.092	0.344
-635.595	214.650	0.131	0.209
-634.580	-200.000	-0.005	-0.054
-633.565	-128.928	0.178	-0.025
-632.551	-50.531	-0.335	-0.159
-631.536	-74.190	0.379	0.138
-630.522	-141.243	-0.430	-0.044
-629.507	191.580	0.062	0.094
-628.492	-200.000	0.044	0.314
-627.478	-184.275	-0.127	-0.002
-626.463	83.264	-0.251	-0.275
-625.449	-200.000	0.026	0.146
-624.434	-200.000	-0.015	-0.236
-623.419	-37.702	0.236	-0.126
-622.405	260.745	0.174	0.303
-621.390	-143.789	0.090	0.009
-620.376	169.111	-0.134	0.192
-619.361	8.249	0.170	-0.129
-618.346	569.521	0.083	-0.203
-617.332	110.617	-0.171	-0.207
-616.317	-86.707	0.267	-0.082
-615.303	142.611	-0.052	0.069
-614.288	40.115	0.404	-0.366
-613.273	-200.000	-0.021	0.305
-612.259	-200.000	0.044	0.258
-611.244	69.193	-0.094	-0.098
-610.230	-200.000	0.042	0.461
-609.215	283.018	-0.094	0.170
-608.201	-200.000	0.055	-0.292
-607.186	800.000	0.071	0.227
-606.171	-61.991	-0.211	0.089
-605.157	-127.312	-0.265	-0.039
-604.142	301.061	-0.018	0.034
-603.128	-52.158	-0.162	0.076
-602.113	-22.202	-0.193	0.118
-601.098	-164.299	0.028	0.001
-600.084	62.024	0.127	-0.127
-599.069	-200.000	0.091	-0.522
-598.055	-200.000	-0.006	-0.371
-597.040	800.000	0.030	-0.123
-596.025	-200.000	0.025	0.334
-595.011	49.908	-0.089	-0.084
-593.996	-145.717	-0.036	0.003
-592.982	64.079	0.224	-0.227
-591.967	90.437	-0.026	-0.029
-590.952	-80.078	-0.164	-0.055
-589.938	101.421	-0.310	-0.363
-588.923	-200.000	0.056	-0.322
-587.909	-122.908	-0.302	-0.049
-586.894	-59.706	-0.078	-0.034
-585.879	-200.000	-0.045	0.375
-584.865	173.489	-0.070	0.101
-583.850	-97.379	-0.073	-0.019
-582.836	657.836	0.069	0.178
-581.821	-200.000	-0.027	0.351
-580.806	-127.954	0.025	-0.004
-579.792	-200.000	-0.006	0.091
-578.777	271.307	0.058	0.103
-577.763	800.000	-0.087	0.243
-576.748	70.796	0.257	0.268
-575.733	144.711	-0.062	0.083
-574.719	800.000	0.033	-0.142
-573.704	-13.849	-0.279	0.181
-572.690	140.905	-0.093	-0.123
-571.675	-52.689	0.202	0.094
-570.661	800.000	-0.067	-0.262
-569.646	-117.382	-0.303	0.055
-568.631	-200.000	0.050	-0.249
-567.617	40.576	0.119	0.107
-566.602	-200.000	0.093	0.000
-565.588	634.171	-0.068	-0.173
-564.573	120.312	-0.046	-0.058
-563.558	-18.791	0.377	0.236
-562.544	-146.067	0.057	0.005
-561.529	-30.734	-0.365	0.208
-560.515	-200.000	-0.020	-0.135
-559.500	39.280	-0.159	-0.143
-558.485	-155.421	0.293	-0.019
-557.471	-31.002	0.270	0.153
-556.456	800.000	0.041	0.177
-555.442	173.201	0.051	-0.074
-554.427	374.977	-0.082	0.169
-553.412	396.100	0.088	-0.184
-552.398	-58.734	0.302	-0.131
-551.383	-50.420	-0.192	0.091
-550.369	649.669	0.083	-0.214
-549.354	120.604	-0.132	0.165
-548.339	-177.698	0.160	-0.004
-547.325	-125.527	0.092	-0.014
-546.310	-114.008	-0.357	0.069
-545.296	-66.885	-0.223	-0.088
-544.281	-42.930	0.193	-0.098
-543.266	-72.578	-0.200	-0.074
-542.252	28.012	-0.228	-0.193
-541.237	-200.000	0.022	0.203
-540.223	-23.840	0.201	0.121
-539.208	-161.100	-0.255	-0.013
-538.193	103.724	0.044	-0.051
-537.179	-168.339	-0.300	-0.012
-536.164	-111.718	0.045	0.009
-535.150	-200.000	0.001	0.119
-534.135	20.715	0.070	-0.057
-533.121	567.320	-0.053	-0.129
-532.106	43.839	-0.151	-0.139
-531.091	29.778	0.066	0.056
-530.077	-200.000	-0.013	0.150
-529.062	-15.572	0.206	-0.132
-528.048	-40.683	0.294	-0.153
-527.033	-126.946	-0.164	0.024
-526.018	-200.000	-0.005	0.424
-525.004	-61.250	-0.092	0.039
-523.989	320.497	0.059	0.113
-522.975	-1.576	-0.149	-0.105
-521.960	138.485	0.125	-0.165
-520.945	800.000	0.081	-0.324
-519.931	-200.000	-0.016	0.264
-518.916	-68.280	0.466	0.182
-517.902	800.000	0.067	-0.203
-516.887	-107.185	-0.199	-0.044
-515.872	361.064	-0.144	0.289
-514.858	800.000	-0.138	-0.560
-513.843	-118.224	-0.122	0.022
-512.829	31.727	0.214	0.184
-511.814	-53.219	-0.232	-0.107
-510.799	231.453	-0.044	0.073
-509.785	800.000	-0.037	0.109
-508.770	450.983	0.028	-0.061
-507.756	-58.292	0.294	-0.128
-506.741	56.911	0.213	0.208
-505.726	-42.787	-0.430	-0.219
-504.712	-200.000	0.048	-0.321
-503.697	-9.976	-0.194	-0.129
-502.683	-147.854	-0.295	-0.025
-501.668	434.701	-0.076	0.166
-500.653	403.419	0.073	-0.155
-499.639	19.658	-0.132	-0.106
-498.624	23.722	-0.179	-0.148
-497.610	800.000	-0.026	0.108
-496.595	320.353	-0.040	-0.076
-495.581	-154.204	0.160	0.011
-494.566	-126.769	-0.209	0.031
-493.551	-200.000	0.034	-0.234
-492.537	-1.022	0.247	0.175
-491.522	-65.270	-0.089	-0.036
-490.508	-200.000	-0.069	0.306
-489.493	-200.000	0.029	0.194
-488.478	-11.268	-0.183	0.120
-487.464	-17.371	0.033	-0.021
-486.449	57.902	0.207	0.203
-485.435	-74.966	0.307	0.110
-484.420	-167.447	-0.174	0.007
-483.405	538.584	0.061	0.146
-482.391	-150.670	-0.078	-0.006
-481.376	233.531	0.118	0.194
-480.362	-27.281	0.099	0.057
-479.347	405.874	0.066	0.140
-478.332	-53.540	0.117	-0.054
-477.318	6.480	-0.261	-0.194
-476.303	-148.113	0.244	-0.020
-475.289	-37.614	0.224	-0.119
-474.274	-42.653	-0.068	0.035
-473.259	133.968	0.081	0.105
-472.245	-200.000	-0.007	0.091
-471.230	-109.350	-0.332	-0.070
-470.216	47.169	0.342	-0.318
-469.201	59.593	-0.033	-0.033
-468.186	-101.066	-0.145	0.035
-467.172	-200.000	-0.011	-0.332
-466.157	-6.979	0.039	0.027
-465.143	-18.638	-0.201	-0.125
-464.128	-68.396	0.088	-0.034
-463.113	-200.000	0.011	0.101
-462.099	800.000	-0.075	0.226
-461.084	-146.084	-0.258	-0.023
-460.070	-137.102	0.372	-0.042
-459.055	15.420	0.052	-0.041
-458.040	60.636	0.064	0.063
-457.026	19.353	0.073	0.059
-456.011	-200.000	0.017	0.130
-454.997	-10.506	0.134	0.089
-453.982	19.669	0.133	0.107
-452.968	-200.000	0.005	-0.365
-451.953	211.522	0.189	-0.297
-450.938	-200.000	0.035	-0.326
-449.924	44.482	-0.137	0.126
-448.909	57.094	-0.234	0.228
-447.895	66.768	0.172	-0.175
-446.880	800.000	0.016	-0.066
-445.865	-200.000	0.062	0.429
-444.851	-9.008	0.243	-0.163
-443.836	-160.763	0.163	-0.009
-442.822	5.021	-0.132	-0.097
-441.807	-200.000	-0.057	0.383
-440.792	268.679	-0.110	0.192
-439.778	-117.390	-0.243	0.044
-438.763	222.894	0.097	0.156
-437.749	1.597	-0.124	-0.090
-436.734	-200.000	0.010	0.065
-435.719	5.787	0.129	0.095
-434.705	-74.873	-0.288	0.103
-433.690	-200.000	0.009	-0.194
-432.676	107.860	-0.294	0.350
-431.661	800.000	0.072	-0.233
-430.646	369.445	0.070	-0.141
-429.632	800.000	0.044	-0.128
-428.617	20.195	0.238	-0.192
-427.603	551.780	0.056	0.135
-426.588	460.763	0.122	0.272
-425.573	-94.698	0.130	0.035
-424.559	567.220	-0.019	-0.047
-423.544	800.000	-0.089	-0.250
-422.530	122.921	-0.130	-0.163
-421.515	308.870	0.116	0.216
-420.500	800.000	-0.073	-0.227
-419.486	298.191	-0.135	-0.248
-418.471	-200.000	0.032	-0.264
-417.457	-26.247	-0.009	0.005
-416.442	-88.529	-0.069	0.021
-415.428	361.952	-0.128	-0.257
-414.413	-86.472	-0.225	-0.069
-413.398	-107.246	0.411	-0.090
-412.384	800.000	-0.007	-0.027
-411.369	-61.727	0.225	-0.094
-410.355	92.831	0.281	-0.317
-409.340	-8.820	0.203	-0.136
-408.325	-200.000	-0.027	-0.151
-407.311	-3.965	0.365	-0.252
-406.296	284.306	-0.140	0.252
-405.282	160.536	-0.127	-0.176
-404.267	-95.711	0.058	0.015
-403.252	26.783	0.357	0.299
-402.238	99.348	-0.163	-0.188
-401.223	371.883	-0.122	0.247
-400.209	-48.248	0.437	-0.210
-399.194	79.601	-0.146	-0.156
-398.179	-58.439	0.210	-0.091
-397.165	-104.607	-0.397	-0.091
-396.150	-168.807	-0.110	0.004
-395.136	49.324	0.067	0.063
-394.121	307.506	-0.092	0.171
-393.106	-106.168	-0.240	-0.054
-392.092	439.553	-0.112	-0.244
-391.077	-157.317	0.125	0.008
-390.063	-84.891	-0.141	-0.044
-389.048	63.201	-0.065	-0.065
-388.033	-106.052	-0.360	0.081
-387.019	131.836	0.195	0.250
-386.004	800.000	0.067	-0.190
-384.990	-200.000	-0.015	-0.189
-383.975	-24.070	-0.237	0.141
-382.960	-200.000	0.018	-0.115
-381.946	800.000	0.045	-0.183
-380.931	-138.545	0.271	0.030
-379.917	-94.605	-0.101	-0.027
-378.902	-189.902	-0.131	0.001
-377.888	-148.933	0.101	0.008
-376.873	-200.000	0.010	0.338
-375.858	-200.000	0.005	0.406
-374.844	-21.421	0.089	0.054
-373.829	-137.582	-0.049	0.005
-372.815	-78.842	0.219	-0.074
-371.800	-200.000	0.055	0.307
-370.785	-58.742	-0.137	-0.059
-369.771	-200.000	-0.033	0.181
-368.756	87.329	0.151	-0.167
-367.742	-150.857	-0.065	-0.005
-366.727	543.092	0.174	-0.414
-365.712	800.000	-0.030	0.123
-364.698	-101.462	-0.028	0.007
-363.683	627.880	0.070	-0.175
-362.669	83.550	-0.108	-0.117
-361.654	17.200	0.098	0.077
-360.639	800.000	0.048	0.183
-359.625	-35.406	-0.067	0.036
-358.610	507.711	-0.114	-0.265
-357.596	-85.902	-0.278	0.086
-356.581	78.592	0.094	0.100
-355.566	-200.000	0.031	-0.163
-354.552	800.000	-0.035	-0.121
-353.537	800.000	0.084	0.305
-352.523	-87.164	-0.274	0.083
-351.508	-200.000	-0.031	0.141
-350.493	-87.364	0.187	-0.056
-349.479	539.500	0.048	0.114
-348.464	-200.000	-0.005	0.425
-347.450	-145.661	0.316	-0.028
-346.435	800.000	-0.045	-0.126
-345.420	-200.000	-0.016	-0.076
-344.406	-62.976	-0.349	-0.144
-343.391	63.981	-0.126	-0.126
-342.377	-168.077	0.077	-0.003
-341.362	30.737	0.108	0.092
-340.348	-200.000	0.031	0.271
-339.333	-200.000	-0.004	0.402
-338.318	186.933	-0.034	-0.051
-337.304	16.370	-0.236	-0.185
-336.289	-88.968	-0.520	0.153
-335.275	361.961	-0.050	-0.100
-334.260	-124.801	-0.126	0.019
-333.245	98.693	-0.330	-0.378
-332.231	115.666	0.170	-0.207
-331.216	146.208	0.086	0.115
-330.202	-154.084	-0.249	-0.017
-329.187	-110.993	0.208	0.042
-328.172	62.854	0.134	0.133
-327.158	-159.740	-0.183	0.010
-326.143	-200.000	-0.024	-0.469
-325.129	405.389	-0.131	0.274
-324.114	-200.000	0.025	-0.261
-323.099	-200.000	0.012	-0.115
-322.085	-200.000	-0.001	-0.188
-321.070	180.752	-0.055	-0.081
-320.056	-13.807	-0.070	-0.045
-319.041	800.000	-0.024	-0.077
-318.026	800.000	0.025	-0.076
-317.012	-35.905	-0.154	-0.083
-315.997	-127.346	0.179	-0.026
-314.983	-30.132	0.029	0.016
-313.968	219.893	-0.039	0.063
-312.953	-77.902	-0.428	0.147
-311.939	-72.960	-0.154	-0.056
-310.924	244.141	0.075	-0.126
-309.910	-70.653	0.283	-0.106
-308.895	227.246	0.091	0.148
-307.880	207.010	0.143	0.222
-306.866	29.229	0.125	-0.106
-305.851	-200.000	-0.001	0.101
-304.837	-84.323	0.052	0.016
-303.822	534.693	-0.057	0.134
-302.807	84.490	0.074	0.081
-301.793	271.070	0.071	0.124
-300.778	800.000	-0.050	0.169
-299.764	-137.411	-0.347	-0.039
-298.749	91.559	0.244	-0.272
-297.735	56.635	-0.038	0.037
-296.720	159.662	0.054	-0.075
-295.705	-169.522	0.144	-0.005
-294.691	-200.000	0.006	-0.292
-293.676	-169.725	-0.406	-0.015
-292.662	245.433	0.253	-0.423
-291.647	-116.895	-0.253	0.046
-290.632	76.841	0.160	0.169
-289.618	16.920	0.088	-0.069
-288.603	106.321	-0.212	-0.249
-287.589	-100.736	0.621	0.152
-286.574	-200.000	0.010	0.234
-285.559	67.325	0.287	0.291
-284.545	127.549	0.164	-0.207
-283.530	-200.000	0.007	0.062
-282.516	-118.020	-0.398	0.071
-281.501	-200.000	-0.041	-0.329
-280.486	507.130	-0.109	0.250
-279.472	-114.470	0.146	-0.028
-278.457	-24.063	0.201	-0.119
-277.443	-103.890	-0.288	-0.067
-276.428	166.902	0.248	-0.350
-275.413	800.000	-0.069	-0.242
-274.399	196.036	-0.174	0.263
-273.384	-200.000	0.007	-0.334
-272.370	-88.373	-0.103	-0.031
-271.355	266.361	0.044	0.076
-270.340	185.806	0.143	-0.212
-269.326	-26.706	-0.193	-0.112
-268.311	-200.000	0.041	0.000
-267.297	145.866	-0.111	0.147
-266.282	-86.540	0.171	0.052
-265.267	-46.613	-0.216	-0.105
-264.253	330.260	-0.199	-0.380
-263.238	283.225	-0.060	-0.106
-262.224	-200.000	0.009	-0.081
-261.209	-77.041	0.236	0.082
-260.195	206.618	0.099	0.153
-259.180	53.016	-0.210	-0.200
-258.165	-108.304	0.152	0.032
-257.151	-61.412	-0.243	-0.101
-256.136	169.185	0.030	-0.043
-255.122	-111.474	0.191	0.039
-254.107	-88.265	0.236	0.070
-253.092	-200.000	0.021	0.216
-252.078	-200.000	-0.055	-0.248
-251.063	800.000	-0.111	-0.340
-250.049	45.503	-0.142	0.130
-249.034	53.962	0.169	0.161
-248.019	-73.882	-0.219	-0.079
-247.005	295.116	-0.097	0.176
-245.990	-200.000	0.063	0.275
-244.976	133.207	0.070	0.090
-243.961	-52.683	0.448	-0.205
-242.946	-69.645	-0.147	-0.056
-241.932	-192.192	0.412	-0.004
-240.917	-26.808	0.135	-0.078
-239.903	140.151	0.072	0.095
-238.888	118.710	0.087	-0.107
-237.873	-66.452	0.058	0.023
-236.859	-112.836	0.207	-0.041
-235.844	93.887	-0.090	0.102
-234.830	-78.095	0.056	0.019
-233.815	-17.499	-0.052	0.032
-232.800	-142.177	-0.243	0.024
-231.786	-101.333	-0.152	0.037
-230.771	60.743	0.205	0.202
-229.757	800.000	-0.042	-0.154
-228.742	-2.594	-0.070	-0.049
-227.727	49.505	0.180	0.168
-226.713	307.582	0.250	0.462
-225.698	-200.000	0.018	0.243
-224.684	-133.233	-0.217	0.027
-223.669	-200.000	0.042	0.330
-222.655	-200.000	0.017	0.167
-221.640	332.575	0.219	0.419
-220.625	746.611	0.095	0.254
-219.611	-45.331	0.182	0.090
-218.596	-147.824	-0.196	-0.016
-217.582	373.156	-0.085	0.172
-216.567	-6.313	0.172	-0.116
-215.552	800.000	0.055	0.160
-214.538	-200.000	0.036	-0.257
-213.523	-13.895	-0.258	-0.165
-212.509	-116.362	0.070	-0.013
-211.494	-141.402	-0.124	0.012
-210.479	56.103	0.266	0.256
-209.465	297.781	-0.130	-0.236
-208.450	-170.619	0.367	0.013
-207.436	99.306	-0.114	-0.130
-206.421	7.643	0.232	0.172
-205.406	223.973	0.064	-0.102
-204.392	5.463	0.090	-0.066
-203.377	106.821	-0.079	-0.093
-202.363	-56.000	-0.177	-0.078
-201.348	-200.000	0.003	0.145
-200.333	-89.829	0.263	-0.076
-199.319	-63.594	-0.244	0.099
-198.304	377.168	-0.109	-0.220
-197.290	-84.521	0.383	0.120
-196.275	800.000	-0.042	0.140
-195.260	106.406	0.017	-0.019
-194.246	-200.000	0.012	-0.111
-193.231	-33.221	-0.196	0.107
-192.217	306.897	0.046	-0.085
-191.202	630.401	0.075	0.189
-190.187	60.775	-0.184	-0.181
-189.173	-161.059	-0.250	-0.013
-188.158	-22.260	0.126	-0.076
-187.144	-146.727	0.182	0.016
-186.129	-130.515	0.370	-0.049
-185.114	-105.333	-0.039	0.009
-184.100	42.931	-0.088	-0.080
-183.085	213.672	0.180	-0.281
-182.071	-113.739	-0.185	0.036
-181.056	528.288	-0.133	0.311
-180.042	-103.582	0.072	-0.017
-179.027	82.742	0.054	-0.058
-178.012	-200.000	-0.024	0.203
-176.998	800.000	-0.091	0.315
-175.983	-200.000	0.012	-0.227
-174.969	73.734	-0.275	-0.285
-173.954	195.780	0.154	-0.231
-172.939	-93.281	-0.310	0.085
-171.925	591.439	-0.049	-0.120
-170.910	-200.000	-0.012	-0.129
-169.896	-65.809	0.198	-0.078
-168.881	-113.249	0.222	-0.043
-167.866	154.684	-0.119	0.162
-166.852	-200.000	-0.035	0.268
-165.837	800.000	0.075	0.271
-164.823	-73.319	-0.344	0.125
-163.808	31.214	0.069	0.059
-162.793	-75.503	0.160	-0.056
-161.779	198.910	0.144	0.219
-160.764	110.229	0.204	0.242
-159.750	-111.157	-0.186	0.038
-158.735	-29.241	0.201	0.114
-157.720	214.487	0.252	0.394
-156.706	-18.245	0.252	-0.156
-155.691	-56.814	-0.344	-0.150
-154.677	71.164	0.155	0.159
-153.662	-200.000	-0.004	0.039
-152.647	-200.000	-0.111	0.560
-151.633	227.128	-0.126	-0.202
-150.618	-200.000	0.009	0.339
-149.604	85.201	0.103	0.111
-148.589	-198.904	0.171	-0.001
-147.574	134.557	0.132	0.170
-146.560	22.272	-0.276	-0.223
-145.545	327.149	0.054	0.103
-144.531	740.693	-0.091	0.242
-143.516	-52.198	-0.070	0.032
-142.502	127.613	0.186	0.234
-141.487	87.305	-0.062	-0.068
-140.472	800.000	0.030	0.104
-139.458	800.000	-0.060	0.192
-138.443	-13.018	0.088	-0.056
-137.429	-92.650	0.357	-0.099
-136.414	-54.021	0.423	0.190
-135.399	469.547	-0.163	0.361
-134.385	-123.740	0.144	-0.022
-133.370	-200.000	-0.013	-0.076
-132.356	312.311	0.037	0.068
-131.341	-200.000	0.025	-0.193
-130.326	105.095	0.076	-0.088
-129.312	8.873	-0.452	0.336
-128.297	141.221	-0.346	-0.452
-127.283	-200.000	-0.001	-0.139
-126.268	115.109	0.024	-0.029
-125.253	-29.978	-0.074	-0.042
-124.239	-87.830	-0.218	0.065
-123.224	-71.550	0.386	0.142
-122.210	-48.861	-0.094	0.044
