DTS Sentinel unit serial number:	SN413079Multiplexer serial number:	ORYXHardware model number:	OX4-SRSoftware version number:	ORYX F/W v4.00 Oryx Data Collector v3.7.2.0data status	okinstallation	princeton_trtdifferential loss correction	single-endedforward channel	channel 1reverse channel	N/Adate	2019/09/19time	13:54:35forward acquisition time	60.00reverse acquisition time	0.00gamma	496.2192k internal	0.2325k external	0.2325temperature offset calibration	1.0019default loss term (dB/km)	0.3790temperature slope calibration	1.0000multiplexer offset coefficient	1.0000multiplexer slope coefficient	1.0000fibre end	0.00T internal ref (°C)	30.92T ext. ref 1 (°C)	1.01T ext. ref 2 (°C)	28.22length (m)	temperature (°C)	Stokes	anti-Stokes-747.200	233.445	-0.070	0.117
-746.185	-200.000	-0.015	0.123
-745.171	176.701	0.191	-0.280
-744.156	-37.693	0.353	0.190
-743.142	92.901	0.117	0.133
-742.127	-200.000	0.048	0.231
-741.112	-164.006	-0.192	0.009
-740.098	72.070	-0.132	0.139
-739.083	42.046	0.178	0.163
-738.069	90.114	0.395	0.446
-737.054	363.372	-0.106	0.214
-736.039	228.790	-0.164	-0.270
-735.025	101.557	0.083	0.097
-734.010	-57.157	-0.144	-0.064
-732.996	-200.000	-0.034	0.184
-731.981	-200.000	0.004	-0.077
-730.966	469.143	-0.048	0.108
-729.952	45.555	-0.119	-0.111
-728.937	-200.000	0.099	-0.563
-727.923	800.000	0.061	-0.258
-726.908	141.675	-0.188	-0.251
-725.894	-32.968	-0.143	-0.080
-724.879	-6.270	-0.161	-0.111
-723.864	-200.000	-0.020	0.123
-722.850	-200.000	-0.027	-0.153
-721.835	-28.858	0.090	-0.052
-720.821	-47.445	-0.233	-0.114
-719.806	800.000	-0.099	0.325
-718.791	-200.000	-0.017	0.220
-717.777	-200.000	-0.019	-0.337
-716.762	-152.183	-0.210	-0.015
-715.748	156.163	-0.069	0.097
-714.733	220.880	-0.122	-0.198
-713.718	-76.877	0.307	-0.108
-712.704	-200.000	-0.058	-0.262
-711.689	-116.660	0.227	-0.042
-710.675	471.966	0.057	-0.130
-709.660	-112.355	0.138	0.028
-708.645	683.921	0.089	-0.234
-707.631	800.000	0.097	-0.410
-706.616	-200.000	0.008	0.063
-705.602	14.353	0.179	0.141
-704.587	-200.000	-0.032	-0.194
-703.572	-4.905	-0.087	0.060
-702.558	-108.536	0.284	-0.062
-701.543	107.440	-0.056	-0.067
-700.529	3.780	-0.087	-0.064
-699.514	24.528	-0.084	-0.070
-698.499	-59.811	0.254	0.109
-697.485	182.086	0.112	-0.166
-696.470	-200.000	-0.054	0.271
-695.456	-200.000	-0.023	-0.239
-694.441	46.419	-0.031	-0.029
-693.426	800.000	0.033	0.122
-692.412	45.429	-0.127	0.118
-691.397	-78.261	-0.221	-0.076
-690.383	800.000	0.012	-0.037
-689.368	62.402	0.140	-0.141
-688.354	43.062	0.256	-0.235
-687.339	-139.150	-0.109	-0.012
-686.324	135.590	-0.108	0.142
-685.310	-200.000	-0.009	-0.169
-684.295	94.837	-0.237	0.272
-683.281	-20.874	-0.096	0.059
-682.266	-88.552	-0.335	-0.100
-681.251	-92.034	-0.466	0.133
-680.237	-200.000	-0.062	-0.391
-679.222	4.968	-0.122	0.090
-678.208	-54.688	0.081	0.037
-677.193	-125.552	-0.166	0.025
-676.178	22.746	0.139	-0.115
-675.164	-45.857	-0.079	0.039
-674.149	-71.301	-0.218	0.082
-673.135	-35.649	-0.112	-0.061
-672.120	-69.867	0.143	0.055
-671.105	16.436	-0.361	-0.287
-670.091	183.065	0.103	-0.154
-669.076	166.409	-0.196	-0.280
-668.062	-200.000	-0.017	-0.334
-667.047	-55.128	-0.069	-0.031
-666.032	-13.935	0.192	-0.125
-665.018	-200.000	0.007	-0.126
-664.003	86.349	-0.176	0.195
-662.989	-116.530	0.182	0.034
-661.974	-200.000	0.080	-0.379
-660.959	-200.000	0.020	-0.168
-659.945	58.742	0.120	-0.118
-658.930	-86.502	0.349	-0.108
-657.916	-123.300	-0.198	-0.032
-656.901	-200.000	0.008	0.194
-655.886	-200.000	0.012	-0.324
-654.872	107.029	-0.024	0.029
-653.857	-200.000	-0.007	0.233
-652.843	-200.000	0.024	0.111
-651.828	-140.362	0.212	0.022
-650.814	-141.750	-0.119	-0.012
-649.799	325.924	0.110	-0.212
-648.784	-50.528	-0.282	-0.134
-647.770	330.603	0.080	-0.155
-646.755	-200.000	0.042	-0.306
-645.741	-180.764	0.491	0.010
-644.726	51.201	-0.358	0.341
-643.711	800.000	-0.120	-0.489
-642.697	204.694	0.223	-0.348
-641.682	-200.000	-0.038	0.429
-640.668	-161.870	-0.332	0.017
-639.653	-95.637	0.145	-0.039
-638.638	-123.197	-0.403	0.065
-637.624	16.106	0.243	0.192
-636.609	88.276	-0.091	-0.102
-635.595	-68.561	-0.172	0.067
-634.580	-143.104	0.187	0.018
-633.565	322.516	-0.039	0.075
-632.551	15.907	0.312	0.247
-631.536	800.000	-0.101	-0.435
-630.522	-109.104	0.314	0.067
-629.507	186.641	-0.169	0.252
-628.492	18.621	-0.323	-0.260
-627.478	171.555	-0.181	-0.261
-626.463	158.815	-0.093	0.130
-625.449	-11.731	0.022	0.015
-624.434	3.253	-0.178	-0.130
-623.419	-159.280	-0.327	-0.018
-622.405	-200.000	-0.057	-0.373
-621.390	-14.331	0.141	0.091
-620.376	147.332	-0.133	0.180
-619.361	-77.726	0.151	0.052
-618.346	118.556	0.136	0.168
-617.332	-117.410	-0.059	-0.011
-616.317	-200.000	0.006	0.063
-615.303	800.000	-0.105	-0.309
-614.288	-37.121	0.211	-0.113
-613.273	174.948	-0.093	0.135
-612.259	-33.981	-0.097	0.054
-611.244	19.420	0.167	0.134
-610.230	-40.707	0.100	0.052
-609.215	277.308	-0.121	-0.217
-608.201	-91.245	0.291	-0.084
-607.186	143.323	0.086	-0.115
-606.171	171.353	0.188	0.271
-605.157	800.000	-0.070	0.235
-604.142	-27.918	0.227	-0.132
-603.128	122.506	-0.241	-0.302
-602.113	-101.059	-0.240	-0.059
-601.098	-200.000	-0.019	-0.139
-600.084	-23.843	-0.140	-0.084
-599.069	23.827	-0.132	0.109
-598.055	-200.000	-0.011	0.201
-597.040	-200.000	-0.006	-0.036
-596.025	800.000	0.076	-0.298
-595.011	-42.327	-0.130	-0.066
-593.996	-47.524	0.151	-0.074
-592.982	73.870	-0.190	0.200
-591.967	-200.000	-0.047	0.497
-590.952	100.587	0.094	-0.109
-589.938	-129.099	-0.602	-0.084
-588.923	-58.812	0.352	-0.153
-587.909	-200.000	0.024	0.166
-586.894	-200.000	0.036	0.439
-585.879	-138.388	-0.307	0.034
-584.865	165.964	-0.055	-0.077
-583.850	-197.066	-0.297	0.002
-582.836	177.895	0.076	0.112
-581.821	-200.000	-0.023	0.298
-580.806	215.083	-0.113	0.179
-579.792	217.811	0.133	0.213
-578.777	34.122	-0.286	0.250
-577.763	-115.580	0.143	0.027
-576.748	-106.026	0.211	-0.048
-575.733	-90.090	-0.137	-0.040
-574.719	800.000	-0.006	-0.023
-573.704	-200.000	-0.027	0.204
-572.690	681.295	-0.070	0.183
-571.675	-200.000	-0.033	-0.339
-570.661	-200.000	0.059	0.398
-569.646	-200.000	-0.028	0.209
-568.631	-200.000	-0.023	-0.155
-567.617	124.205	0.177	0.223
-566.602	-179.404	-0.052	0.001
-565.588	58.088	-0.090	-0.088
-564.573	-108.745	0.436	0.094
-563.558	-68.682	0.296	-0.115
-562.544	-165.147	0.061	-0.003
-561.529	-200.000	0.012	-0.271
-560.515	-40.322	0.172	-0.090
-559.500	-200.000	0.043	-0.201
-558.485	-66.099	-0.246	0.098
-557.471	-159.041	-0.217	0.012
-556.456	0.997	-0.357	0.257
-555.442	186.919	-0.186	-0.278
-554.427	327.251	-0.150	-0.288
-553.412	159.314	-0.134	0.187
-552.398	800.000	-0.035	0.146
-551.383	78.200	-0.215	-0.230
-550.369	-200.000	-0.018	0.119
-549.354	116.704	0.134	-0.165
-548.339	-200.000	-0.037	0.235
-547.325	-87.844	0.051	0.015
-546.310	10.195	-0.244	-0.186
-545.296	-114.319	-0.264	-0.051
-544.281	315.768	0.177	-0.334
-543.266	99.216	-0.191	-0.222
-542.252	800.000	0.086	0.314
-541.237	-45.213	0.278	0.138
-540.223	-101.277	-0.115	0.028
-539.208	800.000	-0.021	0.078
-538.193	-133.779	-0.316	-0.039
-537.179	800.000	-0.050	-0.173
-536.164	198.803	0.119	0.182
-535.150	143.898	-0.049	0.066
-534.135	800.000	-0.092	-0.293
-533.121	-8.882	0.155	-0.104
-532.106	-61.466	0.288	-0.121
-531.091	-109.410	0.242	0.051
-530.077	-122.892	-0.364	0.059
-529.062	-200.000	-0.059	-0.439
-528.048	70.965	0.044	0.046
-527.033	-200.000	-0.060	-0.308
-526.018	192.548	0.008	-0.012
-525.004	-139.372	-0.083	-0.009
-523.989	183.390	0.079	-0.116
-522.975	-93.141	-0.026	-0.007
-521.960	-200.000	0.275	0.000
-520.945	-130.535	-0.030	-0.004
-519.931	234.062	-0.143	0.236
-518.916	800.000	-0.125	0.352
-517.902	-200.000	0.035	0.267
-516.887	20.405	-0.288	0.233
-515.872	133.805	-0.051	-0.067
-514.858	16.588	0.336	-0.266
-513.843	45.634	-0.084	-0.078
-512.829	398.595	0.085	0.178
-511.814	-68.513	0.166	0.064
-510.799	302.496	0.241	0.445
-509.785	154.280	-0.181	-0.248
-508.770	-200.000	-0.008	-0.297
-507.756	-200.000	-0.018	-0.471
-506.741	-200.000	0.021	-0.219
-505.726	-34.806	0.252	0.138
-504.712	800.000	0.146	0.458
-503.697	-200.000	0.022	-0.166
-502.683	748.805	0.197	-0.531
-501.668	255.312	-0.026	-0.045
-500.653	-24.350	-0.271	-0.162
-499.639	-177.487	-0.375	0.009
-498.624	-89.039	-0.243	-0.072
-497.610	-128.505	0.118	-0.017
-496.595	-200.000	0.035	-0.175
-495.581	87.007	-0.304	-0.335
-494.566	-111.146	0.183	0.038
-493.551	-200.000	0.011	0.064
-492.537	-2.317	-0.246	-0.172
-491.522	310.162	0.072	0.134
-490.508	642.184	0.076	0.193
-489.493	586.701	0.065	-0.159
-488.478	426.490	-0.083	0.178
-487.464	76.052	-0.164	-0.173
-486.449	-63.948	0.022	0.009
-485.435	262.143	-0.120	0.207
-484.420	25.597	0.092	0.077
-483.405	8.402	-0.299	-0.224
-482.391	362.853	0.086	0.172
-481.376	800.000	-0.084	0.300
-480.362	331.241	-0.041	0.078
-479.347	675.391	-0.117	-0.303
-478.332	-187.111	-0.120	-0.002
-477.318	-76.257	0.131	0.046
-476.303	29.970	-0.249	-0.212
-475.289	-90.710	-0.485	0.140
-474.274	-55.650	-0.169	-0.076
-473.259	-200.000	0.010	-0.158
-472.245	-147.768	-0.162	-0.014
-471.230	-6.098	0.346	-0.236
-470.216	764.164	-0.140	0.380
-469.201	65.037	0.113	-0.114
-468.186	175.547	-0.204	-0.295
-467.172	800.000	0.099	-0.305
-466.157	-41.819	-0.235	-0.120
-465.143	192.033	-0.100	0.151
-464.128	-200.000	0.021	0.464
-463.113	-200.000	-0.020	0.513
-462.099	142.052	-0.079	-0.105
-461.084	-200.000	0.055	0.263
-460.070	94.400	0.162	0.184
-459.055	-200.000	0.069	-0.395
-458.040	-79.808	0.368	-0.123
-457.026	-128.365	-0.137	-0.019
-456.011	436.469	0.092	0.201
-454.997	-50.225	-0.333	-0.157
-453.982	-11.900	0.214	0.140
-452.968	-31.487	0.282	-0.158
-451.953	18.402	0.250	0.199
-450.938	-87.332	-0.281	-0.085
-449.924	-101.972	-0.205	-0.049
-448.909	-123.526	0.095	0.015
-447.895	45.205	0.112	-0.103
-446.880	-169.961	-0.216	0.008
-445.865	-2.699	0.124	-0.086
-444.851	274.991	-0.206	0.364
-443.836	34.125	-0.128	-0.112
-442.822	-19.350	-0.092	-0.057
-441.807	-200.000	-0.057	0.279
-440.792	216.144	-0.121	-0.191
-439.778	552.467	-0.085	-0.204
-438.763	35.860	0.177	0.156
-437.749	4.822	0.199	-0.146
-436.734	-200.000	-0.012	-0.249
-435.719	120.222	0.180	0.222
-434.705	-157.681	0.248	-0.015
-433.690	57.762	0.195	-0.190
-432.676	136.496	0.192	-0.250
-431.661	520.539	0.099	0.232
-430.646	117.027	-0.073	-0.089
-429.632	178.491	-0.145	-0.211
-428.617	-200.000	0.038	0.201
-427.603	-200.000	0.005	-0.416
-426.588	-200.000	-0.018	0.166
-425.573	116.713	-0.155	0.190
-424.559	498.612	0.043	-0.099
-423.544	800.000	-0.055	-0.165
-422.530	-200.000	-0.057	0.325
-421.515	77.975	0.077	-0.081
-420.500	-86.989	0.172	-0.052
-419.486	-85.222	-0.153	-0.048
-418.471	-121.970	-0.121	0.020
-417.457	-82.282	0.383	0.124
-416.442	555.755	0.013	0.031
-415.428	16.813	-0.342	0.270
-414.413	535.633	0.065	-0.153
-413.398	-40.600	0.112	-0.058
-412.384	-154.929	-0.063	0.004
-411.369	312.803	0.081	0.152
-410.355	34.369	0.162	-0.141
-409.340	669.747	-0.080	-0.206
-408.325	-200.000	0.005	-0.100
-407.311	53.842	-0.155	0.149
-406.296	-25.271	-0.041	-0.024
-405.282	-21.233	-0.203	0.124
-404.267	-96.482	-0.196	-0.052
-403.252	-140.344	-0.282	0.029
-402.238	106.919	-0.189	0.224
-401.223	50.849	-0.209	-0.198
-400.209	107.734	0.156	0.185
-399.194	-100.990	0.411	0.100
-398.179	-119.199	-0.547	-0.095
-397.165	39.847	-0.229	-0.205
-396.150	-40.484	0.192	0.099
-395.136	29.708	0.165	0.140
-394.121	-78.634	0.223	-0.076
-393.106	-106.884	0.099	-0.022
-392.092	800.000	0.022	-0.073
-391.077	-25.600	0.242	0.142
-390.063	-39.933	0.087	0.045
-389.048	-42.497	-0.171	0.087
-388.033	-200.000	0.026	-0.133
-387.019	800.000	0.074	0.288
-386.004	-149.083	0.066	0.005
-384.990	-37.963	-0.225	-0.119
-383.975	-119.048	-0.056	-0.010
-382.960	-83.851	-0.112	-0.035
-381.946	72.120	-0.019	0.020
-380.931	229.061	0.183	0.297
-379.917	-10.376	-0.168	0.111
-378.902	31.777	-0.114	0.098
-377.888	-69.551	0.021	0.008
-376.873	-172.515	-0.113	-0.004
-375.858	800.000	-0.093	-0.332
-374.844	-133.415	0.258	-0.032
-373.829	-87.087	0.062	0.019
-372.815	-36.457	0.047	-0.025
-371.800	-45.228	0.239	-0.118
-370.785	-200.000	0.022	0.133
-369.771	-19.462	0.333	0.205
-368.756	-151.053	-0.278	-0.021
-367.742	-12.225	0.095	-0.061
-366.727	214.413	-0.112	0.176
-365.712	276.091	-0.045	-0.079
-364.698	-34.134	-0.033	0.018
-363.683	800.000	-0.130	-0.394
-362.669	415.170	-0.067	-0.142
-361.654	535.221	-0.069	0.162
-360.639	16.682	-0.278	-0.218
-359.625	-200.000	0.016	-0.074
-358.610	316.969	-0.168	0.316
-357.596	1.843	-0.188	0.135
-356.581	-6.879	0.226	-0.153
-355.566	69.876	0.101	0.103
-354.552	-21.453	0.118	0.072
-353.537	-10.851	0.233	0.153
-352.523	-62.767	0.051	0.021
-351.508	-136.864	0.366	-0.042
-350.493	-98.557	-0.518	0.131
-349.479	453.219	0.107	-0.234
-348.464	-47.154	0.099	-0.048
-347.450	-27.396	-0.251	0.145
-346.435	433.605	-0.175	0.378
-345.420	800.000	0.027	0.114
-344.406	30.807	-0.111	0.094
-343.391	800.000	-0.017	-0.060
-342.377	-78.823	0.235	-0.080
-341.362	9.358	0.168	-0.126
-340.348	62.416	0.088	-0.087
-339.333	-200.000	-0.002	-0.148
-338.318	131.520	0.205	-0.262
-337.304	-109.225	0.258	-0.054
-336.289	514.629	0.155	-0.359
-335.275	431.271	0.048	-0.103
-334.260	-138.861	0.549	-0.059
-333.245	49.122	-0.079	0.073
-332.231	71.422	0.098	-0.101
-331.216	218.982	-0.166	0.263
-330.202	75.448	0.319	0.335
-329.187	210.900	0.110	-0.172
-328.172	-64.911	-0.246	-0.099
-327.158	264.953	0.036	-0.062
-326.143	-157.765	-0.139	-0.008
-325.129	417.572	-0.087	0.184
-324.114	800.000	0.022	0.079
-323.099	-52.869	0.304	-0.139
-322.085	51.415	0.254	0.239
-321.070	-52.917	0.348	0.159
-320.056	348.803	0.041	-0.080
-319.041	352.634	-0.049	0.097
-318.026	-96.247	-0.407	0.107
-317.012	-80.137	-0.290	0.096
-315.997	800.000	0.039	0.158
-314.983	-200.000	0.059	0.261
-313.968	285.902	-0.039	-0.070
-312.953	-77.240	0.151	0.052
-311.939	-200.000	0.020	-0.109
-310.924	327.037	-0.055	0.105
-309.910	-43.003	0.183	0.092
-308.895	-142.635	0.221	0.021
-307.880	800.000	-0.072	-0.258
-306.866	133.242	0.170	0.218
-305.851	117.428	0.099	0.121
-304.837	-200.000	0.004	-0.278
-303.822	800.000	0.066	-0.254
-302.807	149.694	0.259	0.348
-301.793	488.490	0.075	0.169
-300.778	96.415	-0.164	0.186
-299.764	-200.000	-0.030	-0.355
-298.749	-57.461	0.066	0.029
-297.735	-79.889	0.307	0.102
-296.720	50.795	-0.121	0.113
-295.705	-94.936	-0.355	0.095
-294.691	-7.052	-0.264	-0.178
-293.676	43.603	0.115	0.104
-292.662	-112.967	0.051	-0.010
-291.647	-200.000	-0.003	0.092
-290.632	175.525	0.167	-0.240
-289.618	104.981	-0.121	-0.141
-288.603	784.641	0.088	0.240
-287.589	-200.000	-0.006	-0.117
-286.574	800.000	-0.098	-0.285
-285.559	-200.000	-0.077	-0.345
-284.545	-200.000	0.001	0.062
-283.530	-91.814	-0.251	-0.071
-282.516	-90.899	0.395	0.113
-281.501	-102.642	0.471	-0.111
-280.486	-143.073	0.244	-0.023
-279.472	295.488	-0.152	0.276
-278.457	721.967	-0.096	0.252
-277.443	65.230	0.104	-0.104
-276.428	-25.796	0.321	-0.187
-275.413	130.110	-0.097	0.123
-274.399	429.557	0.057	-0.122
-273.384	-200.000	-0.001	0.021
-272.370	-200.000	-0.023	-0.124
-271.355	-51.338	-0.171	0.079
-270.340	-13.608	-0.165	0.106
-269.326	-60.134	0.133	-0.056
-268.311	-88.539	-0.141	-0.042
-267.297	800.000	0.087	0.264
-266.282	-70.307	-0.376	0.141
-265.267	445.676	0.111	0.241
-264.253	173.783	0.227	0.324
-263.238	-79.398	-0.198	-0.066
-262.224	327.922	0.088	-0.168
-261.209	344.496	0.087	-0.169
-260.195	-67.867	0.229	-0.089
-259.180	-25.675	-0.277	0.162
-258.165	-200.000	0.047	0.372
-257.151	492.942	-0.165	-0.375
-256.136	-13.149	-0.146	-0.094
-255.122	-116.719	0.583	0.106
-254.107	62.551	-0.199	0.197
-253.092	-87.147	0.346	0.104
-252.078	40.288	0.147	-0.131
-251.063	-103.091	0.199	-0.047
-250.049	101.575	-0.078	0.090
-249.034	129.287	0.181	-0.229
-248.019	-158.682	-0.149	-0.008
-247.005	-110.783	0.292	-0.060
-245.990	-41.030	-0.251	0.128
-244.976	-153.180	-0.214	0.015
-243.961	503.982	0.098	-0.225
-242.946	-123.761	0.147	-0.023
-241.932	-103.148	0.123	0.029
-240.917	-99.921	0.112	-0.028
-239.903	75.269	-0.246	-0.256
-238.888	231.383	-0.084	0.136
-237.873	-197.601	-0.176	-0.001
-236.859	163.405	0.081	0.113
-235.844	299.545	0.248	0.452
-234.830	-172.701	0.220	0.007
-233.815	15.429	-0.033	0.025
-232.800	-167.866	-0.213	0.008
-231.786	-36.465	-0.142	-0.076
-230.771	800.000	0.121	-0.381
-229.757	-200.000	-0.011	-0.057
-228.742	-200.000	-0.003	-0.041
-227.727	800.000	0.047	0.190
-226.713	-25.234	0.085	0.050
-225.698	-86.543	-0.159	-0.048
-224.684	-200.000	-0.007	0.084
-223.669	43.033	0.148	0.134
-222.655	-152.090	0.252	0.018
-221.640	-200.000	-0.043	0.220
-220.625	-137.525	0.253	-0.028
-219.611	52.033	0.130	0.122
-218.596	-104.129	-0.179	-0.041
-217.582	-47.212	0.151	0.073
-216.567	-129.975	0.173	-0.023
-215.552	-148.477	0.143	-0.012
-214.538	-139.620	-0.458	-0.048
-213.523	-87.499	0.361	-0.108
-212.509	-200.000	-0.009	0.067
-211.494	48.532	-0.100	-0.093
-210.479	155.374	-0.273	-0.371
-209.465	109.110	-0.104	-0.123
-208.450	-200.000	0.013	-0.172
-207.436	18.539	-0.063	0.049
-206.421	629.914	0.101	0.251
-205.406	-200.000	-0.040	-0.580
-204.392	518.086	-0.062	-0.142
-203.377	390.073	0.146	-0.298
-202.363	12.506	-0.072	0.055
-201.348	800.000	0.041	0.151
-200.333	-192.428	-0.209	-0.002
-199.319	118.987	-0.051	0.063
-198.304	172.268	-0.195	0.277
-197.290	800.000	0.122	0.415
-196.275	441.519	0.153	-0.331
-195.260	433.469	-0.114	-0.244
-194.246	11.491	0.097	0.073
-193.231	158.133	-0.068	-0.094
-192.217	-7.941	0.080	0.053
-191.202	800.000	-0.049	0.165
-190.187	210.211	0.207	0.321
-189.173	-27.020	0.153	0.088
-188.158	2.894	-0.121	0.087
-187.144	-200.000	-0.011	-0.108
-186.129	-200.000	0.021	-0.324
-185.114	-17.762	0.334	-0.207
-184.100	-32.236	0.414	0.228
-183.085	514.637	0.063	0.144
-182.071	-200.000	-0.015	0.329
-181.056	-54.935	-0.217	-0.097
-180.042	-125.453	-0.147	0.022
-179.027	-91.803	-0.278	0.078
-178.012	-30.891	-0.104	-0.058
-176.998	248.303	-0.057	-0.095
-175.983	92.472	0.109	0.122
-174.969	-108.927	-0.322	-0.068
-173.954	-112.734	0.251	0.049
-172.939	-24.903	0.191	-0.112
-171.925	50.144	-0.237	-0.221
-170.910	-122.587	-0.396	0.063
-169.896	-200.000	0.019	0.112
-168.881	-200.000	0.006	0.138
-167.866	9.184	-0.282	0.211
-166.852	-6.066	0.243	0.164
-165.837	800.000	0.086	-0.234
-164.823	-200.000	-0.012	-0.176
-163.808	81.846	0.201	-0.214
-162.793	-78.160	0.243	-0.082
-161.779	651.328	0.042	-0.106
-160.764	-44.723	-0.113	-0.056
-159.750	-13.572	0.197	-0.126
-158.735	-200.000	0.009	0.044
-157.720	307.396	0.060	0.111
-156.706	-7.691	-0.030	0.020
-155.691	170.196	0.175	0.247
-154.677	-87.984	0.166	0.049
-153.662	6.412	-0.148	0.108
-152.647	-200.000	-0.033	0.219
-151.633	-143.571	-0.103	-0.010
-150.618	-200.000	-0.022	-0.108
-149.604	-106.341	-0.148	0.033
-148.589	-27.993	-0.159	0.091
-147.574	368.471	0.122	-0.243
-146.560	-200.000	0.024	-0.149
-145.545	-131.804	0.122	-0.016
-144.531	-200.000	-0.004	-0.202
-143.516	-133.322	-0.066	-0.008
-142.502	-200.000	0.018	0.216
-141.487	204.115	-0.214	-0.327
-140.472	-200.000	0.008	-0.251
-139.458	-185.400	0.245	0.004
-138.443	356.241	0.145	-0.285
-137.429	421.192	-0.176	-0.371
-136.414	800.000	0.060	0.239
-135.399	51.713	0.142	0.133
-134.385	-3.564	-0.161	-0.110
-133.370	-51.478	0.220	0.101
-132.356	43.849	0.060	-0.054
-131.341	-155.533	-0.306	-0.019
-130.326	-85.734	-0.328	-0.100
-129.312	-200.000	-0.033	0.382
-128.297	-103.016	0.096	0.023
-127.283	-56.778	-0.126	-0.055
-126.268	-63.669	0.236	0.095
-125.253	198.901	-0.057	-0.086
-124.239	800.000	-0.089	-0.303
-123.224	-200.000	-0.010	0.064
-122.210	800.000	0.034	0.097
