DTS Sentinel unit serial number:	SN413079Multiplexer serial number:	ORYXHardware model number:	OX4-SRSoftware version number:	ORYX F/W v4.00 Oryx Data Collector v3.7.2.0data status	okinstallation	princeton_trtdifferential loss correction	single-endedforward channel	channel 1reverse channel	N/Adate	2019/09/14time	05:58:35forward acquisition time	60.00reverse acquisition time	0.00gamma	496.2192k internal	0.2335k external	0.2335temperature offset calibration	1.0080default loss term (dB/km)	0.3790temperature slope calibration	1.0000multiplexer offset coefficient	1.0000multiplexer slope coefficient	1.0000fibre end	0.00T internal ref (°C)	26.84T ext. ref 1 (°C)	3.41T ext. ref 2 (°C)	21.05length (m)	temperature (°C)	Stokes	anti-Stokes-747.200	-200.000	0.047	0.275
-746.185	-101.454	-0.515	0.126
-745.171	-164.986	0.438	-0.020
-744.156	543.832	-0.067	0.162
-743.142	-200.000	0.069	0.348
-742.127	66.886	-0.066	0.067
-741.112	-28.207	0.188	0.109
-740.098	-153.522	-0.150	0.010
-739.083	-200.000	-0.000	0.187
-738.069	141.894	-0.047	0.062
-737.054	-93.615	0.308	-0.085
-736.039	85.829	-0.175	-0.193
-735.025	40.571	0.266	0.241
-734.010	-113.090	-0.172	0.034
-732.996	-79.131	-0.106	-0.036
-731.981	52.512	-0.226	-0.217
-730.966	-108.273	-0.164	0.036
-729.952	-88.849	-0.017	-0.005
-728.937	202.405	0.210	-0.325
-727.923	-85.726	-0.085	-0.027
-726.908	-44.336	0.240	-0.121
-725.894	116.026	0.149	0.183
-724.879	10.435	0.241	-0.184
-723.864	-93.648	0.077	0.021
-722.850	-200.000	0.010	0.300
-721.835	450.940	-0.074	0.164
-720.821	43.871	-0.184	0.169
-719.806	123.524	-0.142	-0.179
-718.791	165.133	-0.091	0.130
-717.777	-200.000	-0.016	0.216
-716.762	-91.295	-0.280	-0.080
-715.748	-8.325	-0.096	0.065
-714.733	-200.000	0.047	0.236
-713.718	84.831	0.235	-0.259
-712.704	-145.172	-0.437	0.040
-711.689	-70.013	-0.279	-0.107
-710.675	-59.369	0.373	-0.161
-709.660	-119.230	-0.339	0.059
-708.645	50.313	-0.249	0.236
-707.631	-66.171	0.367	-0.147
-706.616	9.345	0.282	-0.214
-705.602	195.767	0.160	-0.245
-704.587	-106.025	0.292	-0.066
-703.572	-200.000	-0.024	-0.617
-702.558	-39.830	0.228	-0.119
-701.543	-60.176	0.188	0.080
-700.529	800.000	-0.082	-0.234
-699.514	-53.405	-0.173	0.079
-698.499	372.167	0.086	-0.175
-697.485	-200.000	0.010	-0.106
-696.470	-200.000	0.005	-0.045
-695.456	164.967	0.225	-0.319
-694.441	68.073	-0.277	0.284
-693.426	-17.248	0.214	0.135
-692.412	-200.000	-0.006	-0.195
-691.397	-36.428	-0.166	0.090
-690.383	55.848	-0.272	0.264
-689.368	-26.189	-0.110	-0.065
-688.354	-200.000	-0.016	0.115
-687.339	133.837	0.181	0.234
-686.324	98.056	-0.118	0.136
-685.310	-34.261	-0.172	0.095
-684.295	82.055	0.075	-0.082
-683.281	744.625	-0.057	-0.153
-682.266	44.941	-0.163	0.151
-681.251	60.818	0.401	-0.398
-680.237	800.000	-0.130	-0.377
-679.222	-115.856	-0.323	-0.061
-678.208	-200.000	-0.029	-0.244
-677.193	-200.000	0.004	-0.103
-676.178	-200.000	0.013	-0.149
-675.164	-133.669	-0.200	0.025
-674.149	800.000	-0.016	-0.062
-673.135	676.605	-0.075	-0.194
-672.120	164.471	0.132	0.186
-671.105	-41.607	0.166	-0.085
-670.091	57.730	-0.226	-0.222
-669.076	148.515	-0.177	-0.239
-668.062	-44.442	0.099	-0.049
-667.047	-200.000	0.015	-0.161
-666.032	166.630	-0.119	0.170
-665.018	450.750	0.028	0.062
-664.003	25.147	0.156	0.130
-662.989	-62.485	0.118	-0.049
-661.974	-55.582	-0.122	0.055
-660.959	153.301	-0.089	-0.122
-659.945	-66.116	-0.343	-0.137
-658.930	-128.162	0.157	-0.023
-657.916	658.336	0.102	-0.264
-656.901	800.000	0.087	0.293
-655.886	213.524	-0.054	0.085
-654.872	-124.833	0.277	-0.043
-653.857	601.020	0.106	0.264
-652.843	-64.826	0.087	-0.035
-651.828	57.181	0.250	-0.245
-650.814	-19.459	-0.181	-0.112
-649.799	292.901	0.054	-0.099
-648.784	-7.509	-0.426	-0.289
-647.770	-18.159	0.061	-0.038
-646.755	-200.000	0.019	-0.110
-645.741	800.000	-0.044	-0.139
-644.726	53.727	0.020	-0.019
-643.711	511.924	-0.065	0.152
-642.697	739.614	-0.054	0.144
-641.682	-200.000	0.025	-0.534
-640.668	-80.582	-0.152	0.051
-639.653	-200.000	-0.015	-0.260
-638.638	44.845	-0.120	0.110
-637.624	425.874	-0.045	0.098
-636.609	800.000	0.056	0.194
-635.595	800.000	-0.042	-0.160
-634.580	383.743	-0.120	-0.247
-633.565	-90.520	-0.114	-0.033
-632.551	-200.000	0.023	-0.179
-631.536	172.491	-0.220	-0.317
-630.522	-32.656	0.123	-0.069
-629.507	-54.485	-0.022	0.010
-628.492	449.681	-0.015	-0.034
-627.478	188.244	-0.214	-0.320
-626.463	800.000	-0.016	0.055
-625.449	46.230	0.319	-0.295
-624.434	800.000	0.035	-0.109
-623.419	-200.000	0.048	-0.389
-622.405	22.837	0.200	-0.164
-621.390	96.422	-0.161	-0.184
-620.376	259.589	-0.111	0.191
-619.361	-52.486	-0.189	0.087
-618.346	-32.279	0.108	0.060
-617.332	28.774	-0.249	0.211
-616.317	-163.156	0.073	-0.004
-615.303	-46.301	-0.130	0.064
-614.288	99.540	0.119	-0.138
-613.273	620.601	-0.129	-0.324
-612.259	510.504	-0.038	0.088
-611.244	735.081	0.089	0.238
-610.230	39.817	-0.046	0.041
-609.215	213.287	0.048	0.076
-608.201	-200.000	0.010	-0.233
-607.186	-56.328	-0.253	-0.112
-606.171	321.294	0.110	-0.210
-605.157	800.000	0.016	-0.054
-604.142	47.630	-0.067	-0.062
-603.128	117.982	-0.125	0.154
-602.113	56.022	-0.087	0.085
-601.098	2.643	0.102	-0.074
-600.084	-200.000	-0.080	0.418
-599.069	-200.000	-0.015	-0.120
-598.055	-111.420	-0.296	0.060
-597.040	-73.423	0.067	-0.025
-596.025	5.873	0.241	-0.178
-595.011	-59.348	0.258	-0.111
-593.996	8.510	-0.085	-0.064
-592.982	59.362	0.172	0.169
-591.967	-200.000	-0.097	0.525
-590.952	-200.000	-0.007	0.092
-589.938	396.244	0.097	-0.203
-588.923	-57.260	-0.444	-0.195
-587.909	184.790	0.217	-0.321
-586.894	157.708	-0.106	-0.146
-585.879	800.000	0.069	-0.264
-584.865	108.220	-0.153	-0.183
-583.850	800.000	-0.079	0.271
-582.836	-149.903	-0.135	0.011
-581.821	-101.727	-0.309	0.075
-580.806	60.010	-0.328	0.324
-579.792	47.479	-0.310	-0.288
-578.777	312.385	-0.042	0.079
-577.763	120.661	-0.098	0.121
-576.748	110.152	0.104	0.125
-575.733	800.000	-0.116	-0.432
-574.719	800.000	0.108	-0.391
-573.704	-200.000	-0.039	-0.446
-572.690	-200.000	-0.014	0.467
-571.675	18.217	-0.291	-0.232
-570.661	176.357	0.038	-0.055
-569.646	-114.520	-0.264	0.051
-568.631	-8.746	0.292	0.196
-567.617	44.243	0.198	0.181
-566.602	24.908	0.087	-0.072
-565.588	-200.000	-0.008	0.058
-564.573	59.638	-0.187	0.184
-563.558	727.325	-0.075	-0.200
-562.544	-77.255	-0.220	-0.076
-561.529	-86.523	-0.144	0.044
-560.515	86.733	-0.084	-0.093
-559.500	129.700	-0.208	-0.266
-558.485	8.699	0.175	-0.131
-557.471	800.000	-0.027	-0.081
-556.456	-96.129	-0.137	0.036
-555.442	-115.730	-0.259	0.048
-554.427	256.917	-0.122	0.209
-553.412	-47.929	-0.325	-0.157
-552.398	-23.279	-0.072	0.043
-551.383	800.000	-0.066	-0.190
-550.369	-94.559	-0.140	0.038
-549.354	354.892	-0.136	-0.270
-548.339	-87.059	0.167	-0.051
-547.325	324.883	-0.066	-0.125
-546.310	148.355	0.197	-0.265
-545.296	-200.000	0.007	-0.409
-544.281	-171.844	-0.091	-0.003
-543.266	-4.386	-0.101	-0.070
-542.252	57.015	-0.356	-0.346
-541.237	-107.682	0.092	0.020
-540.223	288.220	0.039	0.071
-539.208	-200.000	-0.012	-0.349
-538.193	-82.270	0.085	-0.027
-537.179	25.694	-0.109	0.090
-536.164	134.221	0.087	-0.112
-535.150	-200.000	-0.007	-0.048
-534.135	-200.000	-0.027	-0.213
-533.121	-157.330	-0.124	0.007
-532.106	-61.547	-0.191	-0.080
-531.091	-112.224	-0.075	-0.015
-530.077	-22.018	-0.166	0.100
-529.062	135.648	0.051	-0.066
-528.048	-148.076	-0.119	-0.010
-527.033	-200.000	0.072	-0.320
-526.018	-200.000	-0.010	0.384
-525.004	64.174	0.031	0.031
-523.989	-195.176	0.137	0.001
-522.975	80.762	0.182	-0.195
-521.960	22.071	0.321	-0.261
-520.945	-200.000	-0.011	0.138
-519.931	800.000	0.068	0.282
-518.916	-121.237	-0.105	0.017
-517.902	800.000	-0.020	-0.078
-516.887	-126.367	-0.065	-0.010
-515.872	-200.000	0.083	-0.405
-514.858	132.168	-0.167	-0.214
-513.843	176.422	0.193	-0.279
-512.829	800.000	-0.047	-0.197
-511.814	-53.332	0.238	0.109
-510.799	130.895	0.167	0.214
-509.785	-28.565	-0.303	0.174
-508.770	17.800	0.166	0.131
-507.756	105.544	0.318	-0.375
-506.741	-200.000	-0.003	0.069
-505.726	384.278	0.142	0.291
-504.712	-200.000	-0.021	0.150
-503.697	599.281	0.167	-0.413
-502.683	1.515	0.114	-0.082
-501.668	-200.000	0.052	-0.233
-500.653	178.389	0.092	0.133
-499.639	290.691	-0.181	0.328
-498.624	-50.567	0.177	-0.083
-497.610	119.671	0.119	0.147
-496.595	294.559	0.097	0.177
-495.581	407.790	0.066	-0.140
-494.566	110.319	0.238	0.285
-493.551	-200.000	0.033	0.158
-492.537	38.111	-0.194	0.172
-491.522	120.872	-0.200	0.247
-490.508	25.119	0.082	0.068
-489.493	28.568	0.044	-0.037
-488.478	225.294	-0.180	0.291
-487.464	800.000	-0.110	-0.339
-486.449	800.000	0.127	-0.425
-485.435	86.666	0.196	0.215
-484.420	-200.000	0.077	0.390
-483.405	-200.000	0.009	-0.137
-482.391	-200.000	0.030	0.185
-481.376	194.558	-0.087	0.130
-480.362	97.007	0.189	0.215
-479.347	-125.735	-0.363	-0.055
-478.332	-168.765	0.390	-0.015
-477.318	6.907	0.103	-0.076
-476.303	158.447	0.120	0.165
-475.289	695.523	0.029	0.075
-474.274	-200.000	-0.005	-0.194
-473.259	-89.951	-0.108	0.031
-472.245	-200.000	-0.018	-0.134
-471.230	270.281	-0.169	0.296
-470.216	-65.752	-0.210	0.084
-469.201	-4.041	-0.525	0.362
-468.186	587.679	-0.076	0.187
-467.172	27.627	0.061	0.051
-466.157	-52.699	-0.094	0.043
-465.143	-200.000	0.037	0.212
-464.128	74.956	-0.134	0.140
-463.113	-200.000	0.010	-0.204
-462.099	353.615	0.133	0.262
-461.084	-200.000	0.027	-0.345
-460.070	28.642	0.220	-0.185
-459.055	227.053	-0.240	-0.387
-458.040	-5.458	-0.404	0.276
-457.026	189.408	-0.202	0.300
-456.011	-150.923	-0.026	0.002
-454.997	-49.310	0.203	0.096
-453.982	800.000	-0.011	-0.037
-452.968	-51.083	0.125	-0.058
-451.953	392.210	0.116	0.240
-450.938	-137.082	-0.152	-0.017
-449.924	800.000	0.112	0.474
-448.909	-200.000	0.024	-0.159
-447.895	-52.702	0.332	-0.152
-446.880	173.620	-0.097	0.139
-445.865	354.889	-0.159	0.314
-444.851	-200.000	0.007	0.180
-443.836	-28.610	-0.319	0.183
-442.822	366.502	0.071	-0.142
-441.807	765.928	0.103	-0.278
-440.792	85.357	-0.179	-0.195
-439.778	26.018	-0.125	-0.104
-438.763	-116.995	0.469	-0.085
-437.749	-200.000	0.039	-0.188
-436.734	376.868	-0.164	0.333
-435.719	95.537	0.196	-0.222
-434.705	-33.935	0.033	0.018
-433.690	-114.967	0.143	0.027
-432.676	800.000	0.008	-0.034
-431.661	16.617	0.078	-0.061
-430.646	800.000	0.059	0.226
-429.632	306.774	-0.067	0.123
-428.617	-200.000	-0.004	-0.043
-427.603	16.899	0.199	0.156
-426.588	482.914	0.084	0.189
-425.573	52.175	0.089	0.084
-424.559	-111.039	0.170	-0.035
-423.544	-200.000	-0.041	-0.370
-422.530	255.355	-0.145	0.246
-421.515	-45.387	0.415	0.204
-420.500	-200.000	-0.015	0.232
-419.486	-36.639	-0.072	0.039
-418.471	206.656	0.188	-0.291
-417.457	-148.873	-0.034	-0.003
-416.442	203.681	0.103	-0.159
-415.428	-175.085	-0.174	0.005
-414.413	-158.073	-0.280	0.016
-413.398	-106.418	-0.210	-0.047
-412.384	139.669	-0.163	0.213
-411.369	-121.112	0.402	0.067
-410.355	430.827	-0.049	-0.105
-409.340	-72.776	0.418	-0.153
-408.325	-200.000	-0.028	-0.284
-407.311	-50.616	0.170	0.080
-406.296	101.256	0.093	-0.107
-405.282	205.745	0.071	-0.109
-404.267	-83.234	-0.109	-0.035
-403.252	800.000	-0.061	0.209
-402.238	92.488	-0.066	0.073
-401.223	563.665	-0.096	-0.230
-400.209	81.334	0.089	0.095
-399.194	-64.292	0.221	-0.089
-398.179	-55.443	0.240	0.107
-397.165	43.953	-0.276	-0.251
-396.150	-200.000	0.032	0.405
-395.136	365.819	0.083	0.165
-394.121	-47.448	-0.199	-0.096
-393.106	-130.878	-0.052	-0.007
-392.092	-90.349	-0.167	0.048
-391.077	342.137	0.141	0.273
-390.063	-64.025	0.399	0.161
-389.048	10.996	-0.132	-0.100
-388.033	-48.940	0.236	-0.112
-387.019	212.098	-0.199	-0.310
-386.004	-200.000	-0.003	0.045
-384.990	42.514	0.202	0.183
-383.975	196.615	0.180	-0.271
-382.960	54.695	-0.250	0.239
-381.946	70.990	-0.091	0.093
-380.931	133.322	0.084	0.108
-379.917	-200.000	-0.013	-0.225
-378.902	-195.346	-0.310	0.002
-377.888	149.410	0.191	0.257
-376.873	-200.000	0.005	0.343
-375.858	800.000	-0.058	-0.196
-374.844	-200.000	-0.005	-0.043
-373.829	-72.363	0.100	-0.037
-372.815	-102.028	-0.158	-0.038
-371.800	355.743	0.096	-0.188
-370.785	210.796	0.023	-0.036
-369.771	-129.329	-0.067	-0.009
-368.756	24.509	-0.060	-0.049
-367.742	-151.927	-0.049	0.004
-366.727	198.462	-0.079	-0.119
-365.712	210.138	-0.097	-0.150
-364.698	59.920	-0.144	-0.141
-363.683	-34.432	0.043	-0.023
-362.669	-200.000	0.013	-0.239
-361.654	-126.013	-0.089	0.013
-360.639	-200.000	-0.003	0.403
-359.625	-39.961	0.034	0.018
-358.610	-200.000	0.015	0.291
-357.596	27.633	0.181	0.151
-356.581	-199.348	-0.182	0.001
-355.566	-200.000	0.016	0.218
-354.552	153.788	0.174	0.237
-353.537	226.246	-0.161	0.259
-352.523	190.576	-0.039	0.058
-351.508	-88.687	0.121	0.036
-350.493	11.833	0.089	-0.067
-349.479	30.405	-0.241	0.204
-348.464	19.504	0.166	-0.132
-347.450	-152.542	-0.382	-0.027
-346.435	112.272	0.111	-0.133
-345.420	-125.454	-0.344	-0.052
-344.406	-81.934	-0.167	0.054
-343.391	375.687	0.148	0.299
-342.377	-136.099	-0.105	0.012
-341.362	-183.101	-0.211	0.004
-340.348	-126.171	0.203	-0.030
-339.333	800.000	-0.023	-0.087
-338.318	800.000	0.025	0.096
-337.304	-148.134	0.071	-0.006
-336.289	-109.732	0.223	0.046
-335.275	800.000	0.128	0.491
-334.260	-17.446	0.075	0.047
-333.245	-200.000	0.006	-0.447
-332.231	-200.000	0.006	-0.217
-331.216	-195.800	-0.376	0.003
-330.202	-200.000	0.022	-0.172
-329.187	-170.832	-0.087	0.003
-328.172	66.117	-0.108	-0.108
-327.158	-200.000	0.018	-0.336
-326.143	-152.596	0.060	0.004
-325.129	148.712	-0.123	-0.164
-324.114	-41.986	-0.198	0.100
-323.099	-200.000	0.027	0.180
-322.085	800.000	0.159	0.439
-321.070	7.040	-0.331	-0.244
-320.056	-200.000	0.007	0.041
-319.041	-17.360	0.199	0.124
-318.026	-200.000	-0.002	-0.374
-317.012	-200.000	0.001	0.218
-315.997	-200.000	-0.060	0.297
-314.983	36.754	-0.245	0.214
-313.968	-64.335	0.087	0.035
-312.953	800.000	0.022	-0.067
-311.939	-63.073	0.129	-0.053
-310.924	501.922	-0.046	-0.105
-309.910	36.540	0.355	0.310
-308.895	246.549	0.230	-0.384
-307.880	-105.587	-0.179	0.040
-306.866	432.193	-0.024	-0.051
-305.851	-129.536	-0.276	0.038
-304.837	800.000	0.018	-0.052
-303.822	59.040	0.158	-0.154
-302.807	-39.938	-0.151	-0.078
-301.793	-67.762	0.125	0.048
-300.778	-78.203	0.210	-0.071
-299.764	-73.104	-0.274	-0.099
-298.749	800.000	-0.045	0.157
-297.735	-70.066	0.439	0.165
-296.720	-11.992	0.117	-0.076
-295.705	800.000	-0.053	-0.177
-294.691	-46.841	0.045	0.022
-293.676	-153.266	-0.279	-0.019
-292.662	-200.000	0.012	0.106
-291.647	-200.000	0.004	0.164
-290.632	-200.000	0.020	0.119
-289.618	-156.017	0.063	0.004
-288.603	-200.000	-0.002	0.043
-287.589	-200.000	-0.002	0.025
-286.574	-200.000	0.017	-0.178
-285.559	800.000	-0.040	-0.167
-284.545	45.187	0.137	0.125
-283.530	-58.721	-0.187	0.080
-282.516	-35.133	-0.052	0.028
-281.501	-97.228	-0.645	0.166
-280.486	-195.876	0.466	-0.003
-279.472	403.453	-0.070	-0.146
-278.457	-107.475	0.106	-0.023
-277.443	411.275	0.183	0.384
-276.428	-167.310	0.071	-0.003
-275.413	-46.972	0.086	0.042
-274.399	-26.933	-0.290	0.167
-273.384	-200.000	-0.009	0.054
-272.370	206.430	-0.151	0.231
-271.355	-62.798	0.489	0.200
-270.340	-47.298	0.355	0.171
-269.326	135.214	-0.091	-0.116
-268.311	-112.896	-0.099	-0.019
-267.297	-45.504	-0.185	0.090
-266.282	67.050	0.079	0.080
-265.267	-110.796	0.321	0.065
-264.253	-52.108	0.252	0.115
-263.238	-100.335	0.418	0.102
-262.224	-35.880	-0.298	0.159
-261.209	-130.691	-0.331	-0.044
-260.195	38.344	0.424	-0.372
-259.180	287.727	0.030	0.053
-258.165	306.227	0.047	-0.086
-257.151	85.767	0.035	0.037
-256.136	-129.724	-0.328	0.045
-255.122	-111.512	-0.212	0.043
-254.107	800.000	0.014	-0.050
-253.092	67.353	0.092	0.092
-252.078	86.453	0.118	0.128
-251.063	800.000	0.060	-0.193
-250.049	-200.000	-0.012	-0.093
-249.034	579.757	-0.156	-0.376
-248.019	-200.000	-0.160	0.001
-247.005	-200.000	-0.031	-0.391
-245.990	-72.291	0.316	0.115
-244.976	1.103	0.078	0.055
-243.961	81.057	0.109	-0.116
-242.946	-200.000	0.054	0.635
-241.932	-200.000	0.039	0.223
-240.917	-139.734	0.080	-0.008
-239.903	-82.474	0.188	-0.060
-238.888	-57.202	-0.069	-0.030
-237.873	480.740	0.053	-0.118
-236.859	-200.000	-0.012	-0.226
-235.844	-86.507	0.151	0.046
-234.830	546.084	0.041	-0.096
-233.815	-200.000	0.019	0.216
-232.800	39.548	0.290	-0.256
-231.786	-155.620	0.251	0.016
-230.771	230.374	0.079	-0.127
-229.757	-26.489	0.237	-0.137
-228.742	430.303	0.096	0.204
-227.727	-144.926	-0.030	-0.003
-226.713	129.628	-0.097	-0.122
-225.698	-114.896	-0.127	-0.024
-224.684	732.483	0.096	-0.254
-223.669	-29.587	-0.095	0.054
-222.655	94.116	0.353	-0.395
-221.640	688.202	0.058	0.150
-220.625	514.952	0.209	0.481
-219.611	-168.363	0.219	0.008
-218.596	-200.000	0.004	-0.274
-217.582	-26.452	-0.221	0.127
-216.567	-4.550	0.200	0.136
-215.552	41.059	0.229	0.204
-214.538	-129.824	-0.152	0.021
-213.523	107.727	-0.100	-0.118
-212.509	306.663	0.260	0.476
-211.494	-54.060	-0.103	-0.046
-210.479	800.000	0.140	-0.452
-209.465	-200.000	-0.009	0.221
-208.450	199.374	0.202	0.305
-207.436	-7.904	-0.066	0.044
-206.421	-73.170	-0.249	-0.090
-205.406	-122.551	-0.076	0.012
-204.392	552.305	0.034	0.080
-203.377	-151.081	0.223	-0.016
-202.363	-27.977	0.086	0.049
-201.348	177.180	0.138	0.197
-200.333	81.243	-0.051	-0.054
-199.319	-153.009	0.067	-0.005
-198.304	-115.367	0.293	0.054
-197.290	-122.071	0.085	-0.014
-196.275	217.445	0.146	0.229
-195.260	-19.519	0.259	0.158
-194.246	-38.861	-0.258	0.134
-193.231	-200.000	-0.094	-0.503
-192.217	-71.248	0.210	0.078
-191.202	98.356	0.032	0.036
-190.187	-102.073	-0.127	0.030
-189.173	131.133	-0.049	-0.062
-188.158	-72.799	-0.164	0.059
-187.144	-85.735	0.257	-0.079
-186.129	800.000	0.105	-0.290
-185.114	51.085	-0.362	0.337
-184.100	0.649	-0.290	-0.204
-183.085	-81.387	-0.073	0.024
-182.071	-110.816	-0.203	0.041
-181.056	-130.983	0.351	-0.046
-180.042	-158.160	-0.244	-0.014
-179.027	-38.160	-0.067	0.035
-178.012	800.000	-0.112	-0.361
-176.998	153.302	-0.122	0.164
-175.983	800.000	0.016	0.057
-174.969	55.744	-0.133	0.127
-173.954	-31.579	0.231	0.128
-172.939	-127.916	0.230	0.033
-171.925	758.005	-0.053	0.141
-170.910	144.680	-0.051	0.067
-169.896	-117.111	0.220	-0.039
-168.881	-121.985	-0.291	0.047
-167.866	183.994	-0.072	0.105
-166.852	-13.072	-0.096	-0.061
-165.837	-31.398	-0.135	0.074
-164.823	121.043	0.059	-0.072
-163.808	-15.280	0.236	-0.148
-162.793	-59.041	0.195	-0.083
-161.779	-200.000	0.024	-0.106
-160.764	107.200	0.086	0.100
-159.750	60.767	-0.105	-0.102
-158.735	0.006	0.382	0.267
-157.720	800.000	-0.134	0.367
-156.706	-33.918	-0.197	0.107
-155.691	-126.096	-0.258	-0.038
-154.677	-74.383	0.227	0.080
-153.662	-200.000	0.001	0.118
-152.647	800.000	0.014	-0.048
-151.633	7.589	0.094	0.069
-150.618	-168.437	-0.194	-0.007
-149.604	-167.889	0.159	0.006
-148.589	-39.296	0.211	0.109
-147.574	238.912	0.161	-0.262
-146.560	-49.335	0.286	0.134
-145.545	465.282	-0.109	0.239
-144.531	-111.811	-0.269	-0.053
-143.516	219.193	-0.089	0.139
-142.502	427.873	-0.017	0.036
-141.487	163.416	0.075	0.104
-140.472	-200.000	0.001	0.313
-139.458	118.796	0.210	-0.254
-138.443	292.429	-0.065	-0.117
-137.429	-4.975	0.272	-0.184
-136.414	117.239	-0.138	0.167
-135.399	15.516	0.213	0.164
-134.385	60.850	0.085	0.082
-133.370	142.966	-0.098	-0.127
-132.356	-88.112	-0.284	-0.084
-131.341	-200.000	-0.030	-0.299
-130.326	-200.000	-0.017	0.245
-129.312	-50.364	0.091	0.042
-128.297	-24.608	-0.442	0.258
-127.283	800.000	0.065	0.244
-126.268	459.021	-0.109	0.237
-125.253	800.000	-0.033	-0.114
-124.239	523.725	-0.146	0.337
-123.224	-98.727	-0.146	0.036
-122.210	-200.000	0.010	0.056
-121.195	-200.000	0.011	0.184
