DTS Sentinel unit serial number:	SN413079Multiplexer serial number:	ORYXHardware model number:	OX4-SRSoftware version number:	ORYX F/W v4.00 Oryx Data Collector v3.7.2.0data status	okinstallation	princeton_trtdifferential loss correction	single-endedforward channel	channel 1reverse channel	N/Adate	2019/09/13time	13:30:35forward acquisition time	60.00reverse acquisition time	0.00gamma	496.2192k internal	0.2304k external	0.2304temperature offset calibration	1.0165default loss term (dB/km)	0.3790temperature slope calibration	1.0000multiplexer offset coefficient	1.0000multiplexer slope coefficient	1.0000fibre end	0.00T internal ref (°C)	35.03T ext. ref 1 (°C)	4.57T ext. ref 2 (°C)	31.00length (m)	temperature (°C)	Stokes	anti-Stokes-747.200	800.000	0.085	-0.273
-746.185	349.062	-0.085	0.171
-745.171	96.340	-0.115	0.134
-744.156	214.903	-0.112	0.180
-743.142	-24.907	0.380	0.230
-742.127	311.395	0.142	0.270
-741.112	800.000	-0.010	0.039
-740.098	-200.000	-0.002	0.175
-739.083	-178.976	-0.150	0.003
-738.069	-185.551	-0.102	-0.002
-737.054	-158.829	-0.034	0.002
-736.039	664.083	0.050	-0.132
-735.025	-39.986	-0.380	0.202
-734.010	-128.624	-0.204	0.029
-732.996	24.433	-0.197	-0.165
-731.981	-124.006	0.132	-0.021
-730.966	46.459	-0.151	-0.143
-729.952	-107.880	0.111	-0.025
-728.937	-29.593	0.300	0.174
-727.923	800.000	0.032	0.144
-726.908	339.240	-0.066	-0.131
-725.894	279.808	0.084	0.152
-724.879	-95.728	0.352	-0.096
-723.864	-57.079	-0.298	-0.134
-722.850	-16.112	-0.287	0.186
-721.835	107.874	0.030	0.036
-720.821	7.719	0.195	0.149
-719.806	-112.353	-0.324	0.066
-718.791	82.653	0.047	-0.052
-717.777	-200.000	-0.012	0.227
-716.762	-99.985	0.230	-0.058
-715.748	-28.457	-0.086	-0.051
-714.733	227.583	0.036	0.059
-713.718	174.818	-0.103	-0.152
-712.704	6.570	0.086	0.065
-711.689	75.430	-0.190	0.204
-710.675	426.191	-0.056	-0.123
-709.660	-120.299	0.419	0.073
-708.645	-100.333	-0.217	-0.055
-707.631	466.618	-0.080	0.182
-706.616	-67.739	0.118	0.047
-705.602	-80.933	-0.079	0.026
-704.587	-200.000	0.023	0.515
-703.572	-11.779	0.161	0.107
-702.558	76.998	0.102	0.110
-701.543	151.600	-0.052	-0.072
-700.529	166.614	0.133	-0.192
-699.514	-200.000	0.049	0.384
-698.499	-63.541	0.199	-0.083
-697.485	800.000	0.147	-0.504
-696.470	-50.773	0.391	0.187
-695.456	-72.667	-0.262	-0.098
-694.441	-38.120	-0.098	-0.053
-693.426	-68.070	-0.219	-0.087
-692.412	-110.553	0.157	-0.033
-691.397	-3.420	-0.205	0.145
-690.383	-163.911	0.268	-0.013
-689.368	34.944	-0.237	-0.211
-688.354	152.532	-0.253	0.351
-687.339	-12.419	-0.177	0.117
-686.324	-102.812	-0.385	0.093
-685.310	-16.800	0.150	-0.096
-684.295	500.321	0.054	-0.126
-683.281	693.664	-0.062	-0.165
-682.266	-80.729	0.141	0.048
-681.251	770.563	-0.077	-0.212
-680.237	-200.000	-0.024	-0.128
-679.222	-200.000	0.003	0.072
-678.208	-44.251	-0.200	-0.102
-677.193	-200.000	-0.031	0.207
-676.178	221.174	-0.248	-0.405
-675.164	-8.697	-0.204	-0.139
-674.149	1.761	-0.151	0.111
-673.135	-152.764	-0.260	0.019
-672.120	-25.036	-0.354	-0.213
-671.105	-129.396	-0.309	0.044
-670.091	-200.000	0.011	-0.237
-669.076	480.396	-0.053	-0.122
-668.062	22.055	0.192	-0.159
-667.047	738.091	-0.098	-0.266
-666.032	-129.434	-0.325	-0.046
-665.018	800.000	-0.057	0.179
-664.003	-98.530	0.199	0.052
-662.989	296.775	-0.062	0.115
-661.974	-71.779	-0.099	-0.038
-660.959	230.021	-0.117	0.193
-659.945	-200.000	-0.045	0.373
-658.930	-144.718	-0.188	-0.018
-657.916	-155.070	0.327	-0.022
-656.901	-200.000	-0.010	0.374
-655.886	-167.681	0.060	0.002
-654.872	800.000	-0.103	0.310
-653.857	97.773	-0.259	-0.302
-652.843	-200.000	0.040	-0.376
-651.828	728.944	-0.029	-0.078
-650.814	90.902	-0.142	0.162
-649.799	558.074	0.132	-0.322
-648.784	187.426	-0.059	0.090
-647.770	-117.168	-0.266	-0.049
-646.755	-25.413	0.095	0.057
-645.741	-90.024	-0.059	0.018
-644.726	-145.483	-0.221	-0.020
-643.711	800.000	-0.150	-0.421
-642.697	-132.786	-0.188	-0.024
-641.682	-187.924	-0.070	0.001
-640.668	620.564	0.120	0.306
-639.653	-13.762	-0.036	0.023
-638.638	-200.000	0.017	0.282
-637.624	90.167	0.253	0.286
-636.609	-104.312	-0.172	-0.040
-635.595	-200.000	0.017	-0.148
-634.580	-133.462	-0.160	0.020
-633.565	27.159	-0.169	-0.144
-632.551	-83.674	-0.236	-0.076
-631.536	800.000	-0.068	-0.238
-630.522	800.000	0.043	-0.167
-629.507	800.000	0.067	-0.202
-628.492	283.250	0.140	-0.254
-627.478	-200.000	0.024	0.118
-626.463	-65.382	0.100	0.041
-625.449	-200.000	0.005	0.408
-624.434	22.080	0.195	0.161
-623.419	-151.634	0.094	0.007
-622.405	10.500	-0.340	0.262
-621.390	-78.539	0.255	0.088
-620.376	-200.000	-0.004	0.065
-619.361	215.924	-0.111	-0.179
-618.346	85.029	-0.031	-0.034
-617.332	300.365	-0.086	-0.160
-616.317	-23.372	0.100	-0.061
-615.303	149.519	0.113	-0.155
-614.288	110.184	0.153	-0.186
-613.273	-200.000	-0.014	0.144
-612.259	-52.935	-0.124	-0.058
-611.244	15.003	0.027	0.021
-610.230	-127.892	0.141	0.021
-609.215	-168.895	-0.022	-0.001
-608.201	33.860	-0.266	-0.235
-607.186	324.608	0.102	-0.198
-606.171	-200.000	-0.012	0.105
-605.157	620.102	-0.140	-0.356
-604.142	131.045	-0.090	-0.117
-603.128	-96.067	-0.134	-0.036
-602.113	-200.000	-0.059	0.327
-601.098	-76.721	-0.137	-0.049
-600.084	-91.722	0.280	-0.080
-599.069	629.627	-0.087	-0.223
-598.055	-106.096	0.201	0.046
-597.040	-95.011	-0.245	-0.067
-596.025	-200.000	-0.021	-0.232
-595.011	800.000	-0.051	0.194
-593.996	800.000	0.040	-0.127
-592.982	-200.000	-0.003	-0.096
-591.967	800.000	0.095	0.320
-590.952	-144.479	0.114	0.011
-589.938	91.114	0.084	0.095
-588.923	13.664	0.057	-0.044
-587.909	264.183	-0.127	0.224
-586.894	82.050	-0.056	0.061
-585.879	653.912	-0.102	-0.265
-584.865	-94.560	-0.432	0.119
-583.850	17.503	0.131	-0.105
-582.836	195.992	0.267	0.411
-581.821	-66.396	-0.114	0.046
-580.806	-200.000	0.043	0.214
-579.792	-13.662	0.102	0.067
-578.777	800.000	-0.096	-0.410
-577.763	800.000	-0.116	-0.357
-576.748	-148.945	0.212	-0.017
-575.733	345.177	-0.036	0.072
-574.719	191.980	-0.179	-0.272
-573.704	87.325	-0.189	-0.211
-572.690	-87.030	-0.332	-0.102
-571.675	503.281	-0.087	0.202
-570.661	156.395	-0.108	-0.151
-569.646	166.503	-0.024	-0.035
-568.631	-181.255	0.046	0.001
-567.617	-200.000	0.008	0.134
-566.602	-200.000	0.019	0.137
-565.588	165.079	-0.149	-0.213
-564.573	225.707	-0.150	-0.245
-563.558	329.330	-0.094	0.182
-562.544	-200.000	-0.042	0.251
-561.529	118.181	0.160	-0.199
-560.515	-15.049	-0.068	-0.044
-559.500	-72.921	-0.347	0.129
-558.485	-126.007	-0.270	0.041
-557.471	-105.142	0.168	0.039
-556.456	800.000	0.094	0.274
-555.442	194.743	-0.130	-0.200
-554.427	-66.999	0.050	-0.020
-553.412	347.940	0.069	-0.137
-552.398	800.000	-0.026	0.084
-551.383	85.307	-0.130	0.145
-550.369	323.462	-0.264	0.509
-549.354	115.004	-0.127	0.157
-548.339	134.277	0.168	0.220
-547.325	44.941	0.166	-0.155
-546.310	176.295	-0.123	-0.181
-545.296	-129.817	-0.172	-0.024
-544.281	-71.525	0.120	-0.045
-543.266	800.000	-0.021	0.076
-542.252	434.995	-0.093	-0.205
-541.237	-71.634	-0.109	0.041
-540.223	590.677	-0.177	-0.441
-539.208	-73.625	-0.413	-0.152
-538.193	155.739	0.125	0.174
-537.179	-53.329	-0.093	0.043
-536.164	62.105	0.201	0.202
-535.150	-85.977	0.195	-0.061
-534.135	355.326	0.041	0.083
-533.121	-200.000	-0.087	-0.431
-532.106	272.400	-0.064	-0.115
-531.091	557.580	-0.085	-0.207
-530.077	-62.038	0.201	-0.085
-529.062	45.667	0.198	0.184
-528.048	800.000	-0.100	0.413
-527.033	175.877	0.251	-0.367
-526.018	-51.426	0.501	0.236
-525.004	160.481	0.108	0.152
-523.989	-200.000	-0.066	0.338
-522.975	-14.039	0.378	-0.246
-521.960	800.000	-0.038	-0.123
-520.945	-34.341	-0.276	-0.153
-519.931	-132.768	-0.182	0.023
-518.916	789.065	-0.069	0.191
-517.902	-200.000	-0.004	-0.074
-516.887	-97.631	-0.139	-0.036
-515.872	169.699	-0.245	-0.354
-514.858	41.937	-0.200	-0.183
-513.843	237.366	0.069	-0.116
-512.829	-65.635	-0.162	0.066
-511.814	800.000	0.042	-0.163
-510.799	24.498	0.041	-0.034
-509.785	-166.211	-0.041	-0.002
-508.770	-86.289	-0.231	0.072
-507.756	-46.330	0.177	0.088
-506.741	62.620	-0.247	0.249
-505.726	-98.451	0.290	-0.075
-504.712	504.334	-0.092	0.216
-503.697	-189.801	0.223	0.003
-502.683	151.843	-0.212	-0.292
-501.668	78.624	-0.060	0.064
-500.653	-173.318	0.240	-0.007
-499.639	-156.854	0.306	-0.019
-498.624	21.525	0.053	-0.043
-497.610	-24.845	0.265	-0.159
-496.595	-158.556	-0.123	0.007
-495.581	246.811	-0.049	0.083
-494.566	-14.063	0.244	0.159
-493.551	21.612	0.359	-0.295
-492.537	-35.068	0.035	0.019
-491.522	25.321	-0.206	0.173
-490.508	-23.036	-0.457	0.278
-489.493	8.742	0.326	0.248
-488.478	-143.785	0.060	-0.006
-487.464	257.855	-0.064	0.111
-486.449	800.000	0.145	-0.529
-485.435	-70.996	-0.266	0.101
-484.420	-69.968	0.415	0.159
-483.405	-1.429	-0.053	0.037
-482.391	-124.487	-0.354	0.056
-481.376	135.011	-0.163	0.213
-480.362	-23.377	0.194	-0.118
-479.347	-18.002	0.138	-0.087
-478.332	-90.916	-0.080	0.023
-477.318	114.199	-0.018	-0.022
-476.303	524.516	0.099	-0.236
-475.289	-200.000	-0.019	-0.121
-474.274	-55.615	0.081	-0.037
-473.259	164.222	-0.176	0.250
-472.245	-14.367	0.139	0.090
-471.230	-116.974	-0.324	-0.060
-470.216	-200.000	-0.037	-0.165
-469.201	92.439	0.098	0.111
-468.186	93.020	0.076	-0.087
-467.172	800.000	0.106	-0.367
-466.157	108.745	-0.149	0.179
-465.143	516.344	-0.117	0.276
-464.128	23.375	-0.088	-0.073
-463.113	-38.949	0.272	-0.144
-462.099	-95.371	-0.210	0.057
-461.084	-200.000	-0.002	-0.100
-460.070	-200.000	-0.003	-0.197
-459.055	0.990	0.082	0.059
-458.040	260.851	0.100	-0.174
-457.026	-21.670	0.130	0.080
-456.011	212.767	0.105	0.167
-454.997	-34.979	-0.468	-0.257
-453.982	-67.349	-0.180	-0.071
-452.968	-65.846	0.100	-0.040
-451.953	-100.192	0.072	-0.018
-450.938	-61.833	-0.026	-0.011
-449.924	-132.488	0.338	-0.044
-448.909	-200.000	-0.072	-0.333
-447.895	-200.000	0.008	0.166
-446.880	800.000	0.072	-0.258
-445.865	-46.089	-0.098	0.049
-444.851	-123.100	0.114	-0.018
-443.836	-67.443	-0.127	-0.050
-442.822	-95.488	0.305	0.082
-441.807	16.075	-0.035	0.028
-440.792	-76.860	0.112	-0.039
-439.778	800.000	-0.097	-0.303
-438.763	-200.000	0.005	0.071
-437.749	73.623	0.143	-0.150
-436.734	268.218	-0.154	-0.272
-435.719	-34.154	-0.273	0.151
-434.705	-121.022	-0.284	0.048
-433.690	215.663	0.215	-0.343
-432.676	800.000	0.097	-0.297
-431.661	-137.884	-0.353	-0.040
-430.646	-200.000	-0.003	0.041
-429.632	-47.616	0.350	-0.171
-428.617	-200.000	-0.003	-0.030
-427.603	-75.651	0.213	-0.076
-426.588	431.683	0.153	-0.333
-425.573	284.831	0.034	0.061
-424.559	-200.000	-0.035	-0.220
-423.544	134.633	-0.186	0.243
-422.530	398.948	0.046	0.096
-421.515	-122.052	-0.473	-0.078
-420.500	23.597	0.086	0.071
-419.486	-132.301	0.288	0.037
-418.471	-127.581	0.120	0.018
-417.457	-78.680	0.332	0.114
-416.442	-200.000	-0.078	0.000
-415.428	55.767	-0.103	-0.100
-414.413	-18.842	-0.250	-0.156
-413.398	-200.000	-0.011	-0.172
-412.384	-21.397	-0.345	-0.212
-411.369	800.000	0.075	-0.301
-410.355	510.825	0.080	0.187
-409.340	141.924	-0.185	-0.247
-408.325	146.403	-0.063	-0.085
-407.311	141.199	0.126	-0.168
-406.296	800.000	0.022	-0.082
-405.282	758.288	0.075	0.204
-404.267	-134.814	0.317	0.039
-403.252	638.289	0.009	-0.024
-402.238	-136.467	-0.438	-0.051
-401.223	-200.000	0.031	0.279
-400.209	89.211	0.064	-0.072
-399.194	115.272	-0.134	-0.165
-398.179	-151.987	-0.243	0.018
-397.165	39.412	-0.062	0.056
-396.150	-28.814	0.083	-0.048
-395.136	-110.862	0.339	-0.070
-394.121	112.286	0.122	0.149
-393.106	-200.000	-0.025	-0.180
-392.092	173.164	-0.128	-0.186
-391.077	-99.310	-0.260	-0.066
-390.063	-69.158	0.053	0.021
-389.048	-200.000	-0.043	0.211
-388.033	800.000	-0.040	-0.125
-387.019	427.406	0.011	0.023
-386.004	-151.454	0.162	0.012
-384.990	-99.420	0.098	-0.025
-383.975	15.321	0.150	-0.118
-382.960	-123.719	0.061	-0.010
-381.946	59.964	0.128	0.127
-380.931	-77.720	-0.227	0.079
-379.917	778.082	0.060	-0.165
-378.902	-64.931	-0.375	-0.152
-377.888	-108.208	-0.328	0.071
-376.873	208.759	0.136	-0.213
-375.858	443.584	-0.106	0.232
-374.844	49.804	0.202	0.191
-373.829	228.287	-0.201	-0.329
-372.815	-200.000	-0.031	0.192
-371.800	260.741	0.111	0.193
-370.785	372.959	-0.159	0.324
-369.771	94.920	-0.227	0.260
-368.756	-60.787	0.122	-0.052
-367.742	40.594	0.287	-0.260
-366.727	-105.086	0.141	0.032
-365.712	148.438	-0.033	-0.045
-364.698	-56.331	-0.054	0.024
-363.683	710.808	-0.103	0.272
-362.669	262.825	0.259	0.452
-361.654	-148.906	-0.264	0.021
-360.639	-26.628	-0.116	0.068
-359.625	-3.541	-0.219	0.153
-358.610	-200.000	0.004	-0.054
-357.596	800.000	0.025	0.095
-356.581	65.228	-0.055	-0.056
-355.566	149.635	-0.242	0.329
-354.552	44.184	0.101	0.092
-353.537	-200.000	-0.004	0.197
-352.523	-200.000	-0.032	-0.298
-351.508	-49.201	-0.240	0.115
-350.493	-17.960	0.305	0.192
-349.479	57.440	0.233	-0.229
-348.464	-53.863	0.133	0.061
-347.450	260.914	0.205	-0.356
-346.435	-36.143	-0.183	-0.099
-345.420	800.000	0.080	-0.235
-344.406	-129.745	0.191	-0.026
-343.391	2.005	-0.258	0.187
-342.377	665.644	-0.058	0.149
-341.362	9.335	0.258	0.196
-340.348	-30.893	-0.272	0.154
-339.333	67.093	-0.059	0.060
-338.318	-116.006	0.185	0.034
-337.304	123.956	0.324	-0.407
-336.289	-109.077	-0.366	0.078
-335.275	153.077	0.038	0.052
-334.260	40.567	0.144	0.130
-333.245	-67.241	-0.434	0.171
-332.231	-74.678	0.237	-0.085
-331.216	800.000	0.053	0.181
-330.202	121.128	0.121	0.151
-329.187	-55.926	0.054	-0.024
-328.172	58.510	0.197	0.193
-327.158	140.489	0.076	0.101
-326.143	777.265	-0.034	0.094
-325.129	556.251	0.171	-0.413
-324.114	800.000	-0.136	0.407
-323.099	-89.939	0.263	-0.077
-322.085	-200.000	-0.023	-0.237
-321.070	-200.000	-0.035	0.167
-320.056	-54.336	0.071	-0.032
-319.041	-179.483	-0.100	-0.002
-318.026	800.000	0.134	-0.425
-317.012	-80.171	0.228	0.076
-315.997	-64.877	-0.378	0.153
-314.983	-40.000	-0.189	-0.099
-313.968	37.434	0.077	-0.068
-312.953	-200.000	0.028	-0.207
-311.939	-157.947	-0.222	0.013
-310.924	99.031	-0.182	0.210
-309.910	345.685	-0.092	0.181
-308.895	-193.874	-0.367	-0.003
-307.880	133.313	0.016	-0.021
-306.866	-102.440	-0.125	0.030
-305.851	293.001	0.105	0.191
-304.837	-5.424	-0.038	-0.026
-303.822	185.857	-0.050	0.074
-302.807	-200.000	0.009	-0.191
-301.793	367.043	0.069	-0.139
-300.778	548.396	-0.042	-0.100
-299.764	135.276	0.046	-0.060
-298.749	-45.932	-0.487	0.241
-297.735	-151.065	0.308	0.023
-296.720	372.246	-0.114	0.232
-295.705	319.469	0.027	0.052
-294.691	-200.000	-0.013	-0.084
-293.676	-200.000	0.059	0.266
-292.662	-124.600	-0.156	-0.024
-291.647	62.615	0.278	-0.278
-290.632	286.862	0.047	0.085
-289.618	671.860	-0.067	-0.173
-288.603	-168.320	0.374	0.014
-287.589	-115.524	-0.307	-0.058
-286.574	179.089	-0.105	-0.153
-285.559	21.241	0.229	0.186
-284.545	-11.289	-0.156	-0.103
-283.530	800.000	0.008	-0.030
-282.516	-49.458	0.076	0.036
-281.501	58.941	0.082	0.081
-280.486	-124.453	0.368	0.057
-279.472	-85.766	0.225	0.070
-278.457	573.805	-0.068	0.165
-277.443	-138.325	-0.240	0.026
-276.428	-21.716	-0.192	-0.117
-275.413	160.575	0.174	0.242
-274.399	-200.000	-0.014	-0.351
-273.384	-52.181	-0.119	-0.055
-272.370	38.692	-0.408	0.364
-271.355	166.364	-0.029	0.040
-270.340	800.000	-0.039	-0.119
-269.326	-78.647	-0.195	-0.067
-268.311	-200.000	0.009	-0.058
-267.297	-200.000	-0.006	0.302
-266.282	328.972	0.079	0.153
-265.267	-123.095	0.178	-0.029
-264.253	-28.549	-0.144	0.083
-263.238	307.376	-0.076	0.141
-262.224	-200.000	0.036	0.204
-261.209	-200.000	-0.009	0.190
-260.195	-79.045	-0.255	-0.087
-259.180	-82.516	0.156	-0.051
-258.165	-86.103	-0.217	-0.067
-257.151	-26.686	0.342	0.200
-256.136	-18.107	-0.449	0.281
-255.122	-97.989	0.049	0.013
-254.107	587.335	0.090	0.222
-253.092	-93.935	0.136	0.037
-252.078	-200.000	-0.020	-0.123
-251.063	168.354	0.152	-0.216
-250.049	-81.861	0.137	0.045
-249.034	223.948	0.230	-0.370
-248.019	-89.740	0.041	0.012
-247.005	-33.496	0.138	-0.076
-245.990	98.491	0.096	-0.110
-244.976	-92.708	-0.281	-0.079
-243.961	19.394	0.020	-0.016
-242.946	-200.000	0.023	-0.127
-241.932	-200.000	-0.017	-0.086
-240.917	-144.418	0.138	0.013
-239.903	-168.633	0.208	0.008
-238.888	128.601	-0.209	-0.266
-237.873	-200.000	-0.020	0.230
-236.859	-83.022	0.129	0.041
-235.844	-76.674	0.111	0.039
-234.830	455.200	-0.150	0.331
-233.815	131.744	-0.198	0.254
-232.800	800.000	-0.054	-0.234
-231.786	57.618	0.076	-0.074
-230.771	-76.259	-0.149	-0.052
-229.757	342.517	-0.029	0.056
-228.742	-3.561	0.105	0.073
-227.727	-182.392	0.271	-0.005
-226.713	53.899	0.195	-0.187
-225.698	-83.479	0.217	0.069
-224.684	179.492	0.114	0.166
-223.669	800.000	0.101	0.334
-222.655	64.150	-0.157	-0.158
-221.640	731.631	0.096	0.256
-220.625	800.000	-0.083	0.252
-219.611	7.983	0.126	0.094
-218.596	-200.000	-0.042	-0.203
-217.582	-15.691	0.274	-0.174
-216.567	800.000	-0.077	0.282
-215.552	158.487	-0.055	-0.076
-214.538	636.733	0.068	0.173
-213.523	800.000	0.086	0.361
-212.509	800.000	0.045	-0.159
-211.494	540.376	0.038	0.090
-210.479	-152.418	0.377	0.027
-209.465	-200.000	0.003	0.230
-208.450	5.576	0.156	0.115
-207.436	-200.000	0.017	0.268
-206.421	-200.000	0.046	0.394
-205.406	-122.099	0.259	-0.042
-204.392	105.417	-0.073	0.087
-203.377	800.000	-0.036	0.127
-202.363	-190.829	0.248	-0.003
-201.348	18.580	0.118	0.094
-200.333	-7.269	-0.088	-0.060
-199.319	-118.386	-0.096	0.017
-198.304	-200.000	0.077	-0.429
-197.290	800.000	-0.024	0.086
-196.275	-115.019	-0.197	-0.037
-195.260	107.219	-0.074	0.087
-194.246	198.072	0.060	0.091
-193.231	-86.662	0.074	-0.023
-192.217	-104.785	-0.259	0.059
-191.202	295.009	0.058	0.106
-190.187	-38.672	-0.095	0.050
-189.173	-39.124	0.088	-0.046
-188.158	280.755	0.180	-0.320
-187.144	-46.845	0.226	0.110
-186.129	120.777	0.127	-0.158
-185.114	-130.734	-0.175	0.023
-184.100	-55.355	-0.259	0.116
-183.085	165.467	0.069	0.097
-182.071	800.000	0.074	0.206
-181.056	-23.844	-0.040	0.024
-180.042	-83.544	-0.218	-0.069
-179.027	-68.732	0.069	0.027
-178.012	17.566	-0.153	-0.121
-176.998	-200.000	0.003	-0.064
-175.983	-75.134	0.129	-0.046
-174.969	407.798	0.124	-0.261
-173.954	-200.000	0.007	-0.064
-172.939	-98.511	0.112	-0.028
-171.925	10.768	0.134	0.102
-170.910	-118.461	0.349	-0.062
-169.896	-27.548	-0.167	0.096
-168.881	-80.486	0.304	-0.101
-167.866	-138.949	-0.100	-0.011
-166.852	-200.000	0.016	0.248
-165.837	-136.965	-0.044	-0.005
-164.823	-200.000	0.030	0.176
-163.808	81.951	0.195	0.210
-162.793	-200.000	0.047	-0.256
-161.779	800.000	0.044	-0.141
-160.764	32.551	-0.058	0.050
-159.750	-104.259	0.298	0.069
-158.735	603.458	0.123	-0.304
-157.720	20.171	-0.173	0.139
-156.706	-121.031	0.331	0.055
-155.691	800.000	0.047	0.129
-154.677	-49.061	-0.153	-0.073
-153.662	-20.686	-0.077	-0.047
-152.647	-127.046	0.236	0.034
-151.633	128.602	0.168	0.213
-150.618	-157.424	-0.102	0.006
-149.604	416.904	0.098	0.209
-148.589	68.410	-0.152	-0.155
-147.574	4.981	0.264	-0.193
-146.560	107.630	-0.133	-0.157
-145.545	-57.515	-0.051	0.022
-144.531	209.843	0.098	0.153
-143.516	-120.433	0.161	0.027
-142.502	720.775	0.054	-0.142
-141.487	-67.592	0.219	0.085
-140.472	337.188	0.158	-0.306
-139.458	-200.000	0.025	-0.421
-138.443	-200.000	-0.013	0.330
-137.429	-100.629	0.288	0.071
-136.414	226.117	0.086	0.139
-135.399	272.258	-0.119	-0.208
-134.385	-114.520	0.139	0.027
-133.370	-200.000	0.015	0.177
-132.356	800.000	-0.022	-0.079
-131.341	-58.793	0.150	0.064
-130.326	-40.689	-0.038	-0.020
-129.312	60.064	0.119	-0.117
-128.297	-173.139	0.055	0.002
-127.283	206.941	-0.037	0.058
-126.268	9.350	0.078	0.058
-125.253	800.000	0.027	0.107
-124.239	-53.750	-0.058	0.026
-123.224	452.454	0.063	0.139
-122.210	-200.000	0.060	0.326
-121.195	-60.355	0.130	0.055
