DTS Sentinel unit serial number:	SN413079Multiplexer serial number:	ORYXHardware model number:	OX4-SRSoftware version number:	ORYX F/W v4.00 Oryx Data Collector v3.7.2.0data status	okinstallation	princeton_trtdifferential loss correction	single-endedforward channel	channel 1reverse channel	N/Adate	2019/09/18time	18:10:35forward acquisition time	60.00reverse acquisition time	0.00gamma	496.2192k internal	0.2294k external	0.2294temperature offset calibration	1.0014default loss term (dB/km)	0.3790temperature slope calibration	1.0000multiplexer offset coefficient	1.0000multiplexer slope coefficient	1.0000fibre end	0.00T internal ref (°C)	39.12T ext. ref 1 (°C)	0.93T ext. ref 2 (°C)	32.23length (m)	temperature (°C)	Stokes	anti-Stokes-747.200	288.689	-0.068	0.126
-746.185	-82.394	0.298	0.099
-745.171	99.151	0.104	0.123
-744.156	-154.072	-0.409	0.028
-743.142	-23.375	0.033	0.020
-742.127	-200.000	-0.041	-0.215
-741.112	-60.553	-0.381	-0.165
-740.098	22.665	-0.215	0.180
-739.083	-129.659	0.223	-0.031
-738.069	800.000	0.029	0.097
-737.054	72.346	0.096	-0.103
-736.039	-84.897	-0.300	-0.096
-735.025	73.523	0.024	-0.026
-734.010	699.255	0.158	-0.424
-732.996	-50.868	-0.146	0.070
-731.981	-200.000	-0.003	0.220
-730.966	188.447	0.162	-0.248
-729.952	297.685	-0.076	-0.142
-728.937	444.474	0.019	-0.042
-727.923	470.065	-0.170	-0.391
-726.908	-5.134	-0.192	-0.135
-725.894	-200.000	-0.061	0.312
-724.879	-200.000	-0.002	-0.089
-723.864	7.199	-0.081	-0.061
-722.850	-80.638	0.465	0.158
-721.835	-142.212	0.328	0.033
-720.821	-200.000	0.012	0.298
-719.806	-85.481	-0.252	0.080
-718.791	-69.711	-0.267	0.104
-717.777	-200.000	-0.032	-0.159
-716.762	46.836	-0.103	0.098
-715.748	-14.900	-0.309	-0.203
-714.733	-22.900	0.292	0.180
-713.718	683.219	0.067	-0.178
-712.704	27.943	0.274	0.236
-711.689	-126.523	-0.374	0.057
-710.675	-26.285	-0.178	-0.107
-709.660	388.727	0.135	0.285
-708.645	-200.000	-0.004	-0.251
-707.631	800.000	0.074	0.314
-706.616	-137.572	0.129	0.015
-705.602	-79.997	-0.214	0.073
-704.587	-55.993	-0.286	0.130
-703.572	-10.004	0.465	0.316
-702.558	-200.000	0.013	0.406
-701.543	-200.000	-0.037	0.271
-700.529	-200.000	0.007	-0.086
-699.514	800.000	-0.099	0.385
-698.499	-102.318	0.382	0.094
-697.485	-124.495	-0.324	0.051
-696.470	-198.651	0.080	-0.000
-695.456	-200.000	0.035	0.158
-694.441	117.967	-0.093	0.117
-693.426	-94.227	-0.265	0.074
-692.412	-48.780	-0.227	0.111
-691.397	232.776	0.205	-0.343
-690.383	74.399	0.183	-0.197
-689.368	242.591	-0.119	0.203
-688.354	-200.000	0.005	0.121
-687.339	-200.000	0.057	-0.500
-686.324	-200.000	0.013	-0.145
-685.310	-23.087	-0.134	0.082
-684.295	78.993	-0.119	-0.130
-683.281	-178.108	0.241	0.006
-682.266	-200.000	0.037	-0.346
-681.251	800.000	-0.160	0.479
-680.237	800.000	-0.092	0.373
-679.222	72.997	-0.120	-0.128
-678.208	13.020	-0.164	-0.130
-677.193	-149.493	-0.138	-0.011
-676.178	800.000	-0.113	0.361
-675.164	-132.108	0.279	0.037
-674.149	-1.387	0.139	0.100
-673.135	-129.428	0.280	0.040
-672.120	35.032	0.380	-0.339
-671.105	-40.070	0.115	-0.061
-670.091	-139.218	-0.235	-0.026
-669.076	800.000	-0.032	0.145
-668.062	-200.000	-0.002	0.057
-667.047	-100.173	-0.080	-0.020
-666.032	547.174	0.027	0.066
-665.018	-200.000	0.008	-0.180
-664.003	-100.940	-0.236	-0.059
-662.989	-172.996	-0.259	-0.008
-661.974	315.420	0.224	0.431
-660.959	-48.531	-0.272	0.134
-659.945	-85.552	0.138	-0.044
-658.930	-42.010	-0.158	0.083
-657.916	-194.710	-0.448	-0.004
-656.901	18.882	-0.226	0.185
-655.886	92.750	-0.123	0.142
-654.872	-170.449	0.088	0.003
-653.857	-200.000	0.000	0.235
-652.843	-37.345	-0.098	0.053
-651.828	-81.225	-0.178	-0.060
-650.814	-160.632	0.178	0.010
-649.799	800.000	0.057	0.233
-648.784	-35.510	0.035	0.019
-647.770	-134.396	0.167	-0.021
-646.755	-200.000	0.004	-0.112
-645.741	495.214	-0.215	-0.504
-644.726	-200.000	-0.115	-0.602
-643.711	463.342	-0.063	-0.143
-642.697	-21.463	0.017	0.010
-641.682	427.967	0.083	-0.183
-640.668	22.376	-0.066	-0.055
-639.653	113.066	-0.227	-0.280
-638.638	6.147	0.246	0.185
-637.624	0.255	0.104	0.076
-636.609	800.000	-0.035	-0.103
-635.595	13.431	-0.175	-0.138
-634.580	-200.000	0.022	0.246
-633.565	-150.218	0.209	0.016
-632.551	-20.789	-0.269	-0.168
-631.536	323.221	0.173	-0.335
-630.522	-115.392	-0.343	0.066
-629.507	800.000	-0.080	0.289
-628.492	-200.000	0.026	0.167
-627.478	-127.276	-0.204	0.030
-626.463	-74.061	0.056	-0.021
-625.449	800.000	-0.040	-0.142
-624.434	-178.854	-0.359	-0.008
-623.419	89.673	0.191	-0.217
-622.405	-75.156	0.165	0.060
-621.390	-79.764	0.162	-0.056
-620.376	30.701	0.061	-0.053
-619.361	-161.795	-0.364	0.019
-618.346	-23.737	-0.162	-0.099
-617.332	-40.014	-0.354	-0.188
-616.317	696.898	0.118	-0.314
-615.303	-115.501	0.203	-0.039
-614.288	-37.215	0.204	0.111
-613.273	191.211	-0.107	-0.163
-612.259	-48.624	-0.460	0.225
-611.244	-97.026	-0.416	0.111
-610.230	-200.000	-0.034	0.195
-609.215	257.555	0.113	-0.198
-608.201	-13.346	0.104	0.069
-607.186	-143.958	-0.228	-0.022
-606.171	-163.993	0.329	-0.016
-605.157	-200.000	-0.018	0.124
-604.142	82.059	0.225	-0.248
-603.128	-200.000	-0.015	-0.200
-602.113	-74.353	0.160	-0.059
-601.098	73.396	-0.099	0.105
-600.084	-143.212	-0.254	0.025
-599.069	-136.712	0.216	0.025
-598.055	-112.726	0.132	-0.027
-597.040	-129.301	-0.284	-0.040
-596.025	195.598	0.139	-0.215
-595.011	36.684	0.397	0.356
-593.996	148.428	-0.132	-0.181
-592.982	253.011	-0.134	-0.232
-591.967	351.586	-0.051	-0.103
-590.952	766.024	-0.083	0.229
-589.938	-200.000	-0.002	0.117
-588.923	-40.558	-0.340	0.180
-587.909	-161.597	0.473	-0.025
-586.894	-200.000	0.041	0.309
-585.879	-200.000	0.005	-0.162
-584.865	-155.043	-0.481	-0.032
-583.850	800.000	0.083	0.324
-582.836	208.257	0.166	0.264
-581.821	173.021	-0.190	0.278
-580.806	155.851	0.133	0.186
-579.792	-57.146	-0.197	0.088
-578.777	21.465	-0.145	0.120
-577.763	178.111	-0.144	-0.214
-576.748	224.549	0.117	0.191
-575.733	800.000	0.032	0.132
-574.719	-73.769	0.178	0.066
-573.704	395.109	0.085	-0.180
-572.690	800.000	0.040	-0.125
-571.675	-78.910	-0.326	0.113
-570.661	412.541	0.158	-0.342
-569.646	-200.000	0.051	0.303
-568.631	-20.056	-0.082	0.051
-567.617	-118.623	0.253	0.045
-566.602	-200.000	-0.033	-0.384
-565.588	28.112	0.112	-0.096
-564.573	-128.635	0.196	0.028
-563.558	-200.000	0.003	0.220
-562.544	117.098	-0.105	0.132
-561.529	-200.000	-0.015	-0.372
-560.515	45.972	-0.190	0.178
-559.500	-112.849	-0.066	0.013
-558.485	-76.461	-0.310	0.111
-557.471	-200.000	0.002	-0.258
-556.456	196.690	0.055	-0.085
-555.442	226.106	-0.004	0.006
-554.427	29.577	0.036	0.031
-553.412	800.000	-0.033	-0.102
-552.398	800.000	0.106	-0.307
-551.383	101.644	-0.095	0.113
-550.369	63.081	-0.169	0.172
-549.354	-44.912	-0.253	-0.128
-548.339	-94.319	-0.361	-0.100
-547.325	128.295	0.124	0.160
-546.310	800.000	-0.129	-0.368
-545.296	-105.339	-0.328	0.076
-544.281	-133.378	-0.355	0.045
-543.266	-71.746	0.174	-0.066
-542.252	800.000	-0.016	-0.057
-541.237	-200.000	0.006	0.251
-540.223	-200.000	0.008	-0.103
-539.208	187.736	-0.353	-0.535
-538.193	120.629	0.123	0.155
-537.179	-200.000	0.011	-0.348
-536.164	-200.000	-0.018	0.134
-535.150	-12.874	0.132	-0.087
-534.135	800.000	0.116	0.396
-533.121	268.907	0.002	-0.004
-532.106	452.501	-0.139	0.312
-531.091	800.000	-0.029	-0.101
-530.077	-74.176	-0.123	0.045
-529.062	800.000	-0.025	-0.110
-528.048	-51.219	0.330	-0.157
-527.033	277.390	0.083	0.149
-526.018	50.694	-0.160	0.153
-525.004	-200.000	0.027	-0.274
-523.989	-31.117	0.192	-0.110
-522.975	-26.536	0.317	-0.188
-521.960	175.723	-0.197	-0.289
-520.945	-200.000	0.027	0.128
-519.931	-57.461	0.267	0.119
-518.916	-84.190	-0.308	0.099
-517.902	51.482	0.027	-0.026
-516.887	-164.637	0.184	-0.008
-515.872	800.000	-0.023	0.067
-514.858	-70.517	-0.129	-0.049
-513.843	699.065	-0.046	-0.124
-512.829	-200.000	0.016	-0.418
-511.814	-1.785	-0.053	0.038
-510.799	800.000	0.036	0.127
-509.785	-200.000	-0.023	0.105
-508.770	-60.782	0.310	-0.133
-507.756	45.710	0.140	0.131
-506.741	522.490	0.083	0.197
-505.726	-138.013	0.163	0.018
-504.712	-32.281	0.070	0.040
-503.697	800.000	0.136	-0.423
-502.683	800.000	0.052	-0.167
-501.668	-125.887	-0.128	-0.020
-500.653	-122.549	-0.346	0.057
-499.639	142.003	0.059	0.080
-498.624	16.073	-0.176	-0.140
-497.610	-160.653	0.151	0.008
-496.595	206.091	0.120	0.190
-495.581	800.000	0.085	0.277
-494.566	-162.782	-0.189	-0.009
-493.551	95.055	0.097	-0.111
-492.537	641.745	0.086	0.223
-491.522	-200.000	-0.027	0.170
-490.508	-124.055	-0.497	-0.079
-489.493	-34.703	0.102	-0.056
-488.478	94.318	0.118	0.136
-487.464	52.442	0.197	0.191
-486.449	-101.740	0.211	-0.052
-485.435	-104.860	-0.133	-0.031
-484.420	237.694	0.095	-0.159
-483.405	-42.641	0.100	-0.051
-482.391	41.974	0.097	0.089
-481.376	800.000	0.097	0.348
-480.362	800.000	-0.056	0.239
-479.347	796.685	0.040	0.113
-478.332	800.000	-0.154	-0.499
-477.318	800.000	-0.033	0.127
-476.303	-34.787	-0.274	-0.151
-475.289	79.516	0.125	-0.136
-474.274	-150.556	-0.133	0.010
-473.259	-170.440	0.194	-0.007
-472.245	-86.435	-0.383	-0.119
-471.230	-200.000	-0.033	0.169
-470.216	-51.593	-0.187	0.088
-469.201	-56.061	0.246	0.111
-468.186	-200.000	-0.068	-0.397
-467.172	58.548	0.144	0.143
-466.157	-23.638	0.099	0.060
-465.143	-109.067	0.081	0.017
-464.128	800.000	-0.042	-0.185
-463.113	-200.000	-0.021	-0.177
-462.099	-200.000	-0.102	0.527
-461.084	-113.307	-0.087	-0.017
-460.070	177.711	-0.120	0.177
-459.055	24.744	-0.079	-0.066
-458.040	-40.238	-0.504	-0.265
-457.026	-75.961	0.119	-0.042
-456.011	-63.254	-0.292	-0.122
-454.997	81.910	-0.154	-0.169
-453.982	-181.676	-0.222	0.004
-452.968	800.000	0.051	-0.222
-451.953	-123.221	0.109	0.018
-450.938	-64.108	0.354	-0.146
-449.924	-88.916	-0.295	-0.088
-448.909	-69.021	-0.096	0.038
-447.895	9.576	-0.065	-0.049
-446.880	-52.745	0.055	0.026
-445.865	69.794	0.088	0.092
-444.851	18.557	-0.212	-0.171
-443.836	-11.732	0.376	0.250
-442.822	90.213	-0.137	0.154
-441.807	462.005	0.104	0.235
-440.792	79.639	0.079	0.086
-439.778	-59.365	0.290	-0.126
-438.763	22.301	-0.124	-0.103
-437.749	-73.251	0.270	0.100
-436.734	256.869	0.045	-0.078
-435.719	-88.581	-0.352	0.106
-434.705	-200.000	0.010	-0.376
-433.690	161.013	-0.257	0.363
-432.676	213.164	-0.144	0.230
-431.661	-101.241	0.137	-0.034
-430.646	-5.478	-0.181	-0.125
-429.632	-51.992	0.223	0.105
-428.617	294.315	-0.193	0.356
-427.603	800.000	-0.054	0.209
-426.588	-159.061	-0.200	-0.011
-425.573	-200.000	0.029	0.250
-424.559	286.451	-0.138	0.252
-423.544	-61.472	0.376	0.160
-422.530	116.088	0.182	0.225
-421.515	191.946	-0.022	-0.033
-420.500	-96.796	-0.115	0.030
-419.486	-89.700	-0.234	-0.069
-418.471	-65.171	0.212	-0.086
-417.457	-200.000	-0.060	0.267
-416.442	-200.000	0.057	0.289
-415.428	800.000	0.046	-0.200
-414.413	-23.819	0.114	0.069
-413.398	195.433	0.152	-0.232
-412.384	71.079	-0.093	-0.097
-411.369	-200.000	-0.041	-0.257
-410.355	134.195	-0.036	-0.047
-409.340	345.754	-0.158	-0.314
-408.325	54.295	0.280	-0.272
-407.311	-36.687	-0.300	-0.163
-406.296	1.524	-0.176	-0.128
-405.282	117.689	-0.133	-0.165
-404.267	-75.472	0.208	0.075
-403.252	-118.009	0.203	0.037
-402.238	-175.627	0.344	-0.009
-401.223	-108.476	-0.224	-0.049
-400.209	800.000	0.082	0.232
-399.194	-200.000	-0.041	0.206
-398.179	-117.700	-0.258	-0.047
-397.165	-200.000	0.025	-0.196
-396.150	-115.667	0.227	0.043
-395.136	-198.218	-0.256	0.002
-394.121	-58.190	0.170	-0.075
-393.106	-20.192	-0.167	0.104
-392.092	-59.895	0.158	-0.068
-391.077	-200.000	0.034	0.193
-390.063	102.104	-0.165	-0.195
-389.048	-128.449	0.157	0.022
-388.033	-106.939	-0.382	-0.085
-387.019	100.960	0.074	0.087
-386.004	-109.415	0.231	-0.049
-384.990	-200.000	-0.034	-0.156
-383.975	-37.435	-0.210	-0.113
-382.960	-28.810	0.126	0.073
-381.946	-200.000	-0.022	-0.111
-380.931	-3.167	0.092	-0.064
-379.917	56.221	0.283	0.278
-378.902	-126.181	-0.161	0.024
-377.888	102.451	0.188	0.222
-376.873	73.542	-0.131	-0.139
-375.858	-200.000	-0.023	-0.318
-374.844	-46.640	-0.182	-0.090
-373.829	-64.827	0.064	0.026
-372.815	30.063	-0.038	0.032
-371.800	-34.697	0.269	0.148
-370.785	458.840	-0.143	0.321
-369.771	-101.314	0.104	-0.026
-368.756	800.000	0.070	0.225
-367.742	-200.000	0.046	-0.299
-366.727	446.004	-0.038	0.084
-365.712	438.596	0.040	0.088
-364.698	143.090	0.160	-0.215
-363.683	169.695	-0.195	0.281
-362.669	-87.942	0.252	0.076
-361.654	-134.702	0.315	-0.039
-360.639	617.932	-0.038	-0.097
-359.625	123.187	0.045	-0.057
-358.610	444.045	-0.079	-0.174
-357.596	-200.000	-0.040	-0.194
-356.581	800.000	0.024	-0.068
-355.566	16.763	0.221	0.176
-354.552	783.017	0.093	0.257
-353.537	38.343	0.421	0.378
-352.523	-200.000	0.001	0.073
-351.508	-22.260	0.099	0.061
-350.493	-105.259	-0.297	-0.068
-349.479	-134.824	-0.433	0.053
-348.464	-78.065	0.120	-0.042
-347.450	735.063	0.037	0.100
-346.435	43.455	0.080	0.074
-345.420	-113.309	-0.201	0.040
-344.406	42.478	0.088	0.081
-343.391	-138.561	0.075	-0.008
-342.377	-200.000	0.049	0.275
-341.362	-119.876	-0.130	0.023
-340.348	-199.508	-0.089	0.000
-339.333	49.059	0.176	-0.166
-338.318	-200.000	-0.001	0.179
-337.304	800.000	0.039	-0.118
-336.289	28.547	0.272	-0.232
-335.275	42.677	0.057	0.052
-334.260	-187.183	-0.066	0.001
-333.245	-200.000	-0.003	0.157
-332.231	-200.000	0.009	-0.153
-331.216	-200.000	-0.042	-0.262
-330.202	-200.000	0.017	-0.099
-329.187	454.298	-0.087	0.193
-328.172	-109.740	0.063	0.013
-327.158	-135.320	0.291	-0.035
-326.143	-63.509	-0.056	0.023
-325.129	364.740	-0.009	0.018
-324.114	-200.000	0.068	0.402
-323.099	-200.000	-0.004	-0.335
-322.085	800.000	-0.107	-0.382
-321.070	-200.000	0.020	-0.150
-320.056	-132.977	-0.289	-0.037
-319.041	-200.000	0.083	0.457
-318.026	48.166	-0.084	0.079
-317.012	-42.684	0.045	0.023
-315.997	410.527	0.124	0.265
-314.983	-85.976	-0.391	-0.121
-313.968	299.895	0.018	0.033
-312.953	-92.408	0.294	-0.083
-311.939	-185.488	-0.263	0.004
-310.924	779.004	0.094	-0.257
-309.910	-10.452	0.178	-0.119
-308.895	98.437	0.232	0.269
-307.880	123.438	-0.199	0.251
-306.866	304.881	-0.053	0.099
-305.851	-55.350	-0.155	-0.070
-304.837	-200.000	-0.031	-0.220
-303.822	288.831	0.135	-0.246
-302.807	800.000	0.045	-0.165
-301.793	-200.000	0.000	-0.059
-300.778	-8.727	-0.364	0.246
-299.764	-200.000	-0.045	0.252
-298.749	504.537	-0.019	0.044
-297.735	208.712	-0.144	-0.226
-296.720	-200.000	-0.015	-0.208
-295.705	-81.588	0.231	0.076
-294.691	-120.962	-0.060	-0.010
-293.676	-200.000	-0.012	0.229
-292.662	-200.000	-0.025	-0.190
-291.647	-127.669	0.173	-0.025
-290.632	-138.603	0.096	0.011
-289.618	-114.830	-0.167	-0.032
-288.603	-200.000	0.039	0.196
-287.589	-200.000	-0.008	0.172
-286.574	-79.890	-0.117	-0.039
-285.559	195.263	-0.130	0.199
-284.545	-3.556	0.139	0.097
-283.530	42.472	0.131	-0.120
-282.516	11.122	0.172	0.132
-281.501	-1.909	0.139	-0.098
-280.486	800.000	0.060	-0.181
-279.472	-186.949	0.023	0.000
-278.457	-36.158	-0.073	0.040
-277.443	-200.000	-0.021	0.183
-276.428	-200.000	0.017	0.111
-275.413	-101.282	0.305	0.075
-274.399	800.000	-0.187	-0.633
-273.384	-159.846	0.210	0.012
-272.370	29.625	0.247	-0.211
-271.355	51.727	-0.150	0.143
-270.340	-75.396	-0.444	0.159
-269.326	-15.641	0.257	-0.164
-268.311	488.986	0.076	-0.174
-267.297	-161.163	0.134	0.007
-266.282	-71.485	0.074	0.028
-265.267	800.000	0.045	-0.131
-264.253	-85.206	0.425	-0.133
-263.238	-105.134	0.242	0.056
-262.224	-59.893	0.308	0.132
-261.209	4.623	-0.289	0.213
-260.195	-20.348	-0.251	0.155
-259.180	-20.269	-0.072	0.045
-258.165	-72.156	0.158	0.059
-257.151	-200.000	0.013	0.168
-256.136	-200.000	0.008	-0.100
-255.122	228.691	-0.075	0.122
-254.107	0.961	-0.060	-0.043
-253.092	619.760	0.102	0.256
-252.078	798.390	0.091	0.252
-251.063	67.720	-0.068	0.069
-250.049	-46.313	-0.160	-0.079
-249.034	-22.783	0.101	0.061
-248.019	78.670	-0.224	-0.240
-247.005	450.836	-0.019	-0.042
-245.990	118.385	-0.120	0.148
-244.976	800.000	-0.056	-0.217
-243.961	-18.144	-0.064	0.040
-242.946	-18.155	0.244	0.153
-241.932	-159.579	0.173	0.010
-240.917	-38.554	0.356	0.189
-239.903	91.887	-0.125	0.141
-238.888	-200.000	-0.037	-0.196
-237.873	114.491	-0.082	-0.100
-236.859	170.451	0.268	0.385
-235.844	91.829	-0.151	0.170
-234.830	345.372	-0.107	0.211
-233.815	584.803	-0.083	0.203
-232.800	68.163	0.072	-0.074
-231.786	-200.000	-0.025	-0.232
-230.771	-165.409	-0.484	0.021
-229.757	-136.452	0.078	-0.009
-228.742	10.378	0.184	-0.140
-227.727	147.118	-0.196	0.264
-226.713	-200.000	0.019	-0.170
-225.698	204.102	0.103	0.160
-224.684	106.557	0.459	0.545
-223.669	80.621	-0.212	-0.229
-222.655	-117.033	-0.358	0.066
-221.640	247.640	-0.055	-0.094
-220.625	-200.000	-0.067	-0.302
-219.611	800.000	0.050	-0.206
-218.596	-50.836	-0.131	-0.061
-217.582	376.144	0.153	0.313
-216.567	169.108	0.156	-0.223
-215.552	-95.510	0.147	0.039
-214.538	229.094	0.246	0.402
-213.523	765.805	0.062	0.169
-212.509	-200.000	-0.010	-0.178
-211.494	-82.342	0.130	0.042
-210.479	-131.327	0.250	-0.033
-209.465	800.000	0.045	0.140
-208.450	-24.355	0.303	0.181
-207.436	-32.665	0.088	0.049
-206.421	0.240	0.299	0.214
-205.406	-3.907	0.285	0.198
-204.392	-200.000	0.022	-0.237
-203.377	-126.497	-0.066	-0.010
-202.363	-57.488	0.221	-0.097
-201.348	21.766	-0.067	0.055
-200.333	401.789	0.071	-0.150
-199.319	-115.975	-0.115	-0.021
-198.304	118.627	0.049	-0.060
-197.290	28.541	-0.340	-0.288
-196.275	39.749	0.124	0.111
-195.260	131.142	-0.179	-0.230
-194.246	133.288	-0.108	-0.140
-193.231	99.304	-0.244	0.282
-192.217	-72.304	0.313	0.116
-191.202	58.753	0.193	0.189
-190.187	-138.488	-0.165	0.018
-189.173	-200.000	-0.027	0.215
-188.158	15.830	0.101	-0.080
-187.144	9.994	-0.098	0.074
-186.129	-60.629	0.370	-0.157
-185.114	4.717	-0.207	-0.152
-184.100	390.483	-0.047	0.097
-183.085	39.976	0.184	0.166
-182.071	-43.143	-0.324	0.164
-181.056	-154.220	-0.180	-0.012
-180.042	310.615	0.024	-0.045
-179.027	226.226	0.146	-0.237
-178.012	214.465	-0.238	-0.376
-176.998	3.386	0.091	0.066
-175.983	-200.000	0.008	-0.057
-174.969	-200.000	-0.003	0.195
-173.954	-94.247	-0.255	-0.070
-172.939	-200.000	0.001	-0.172
-171.925	64.680	0.116	-0.117
-170.910	-32.128	-0.156	-0.087
-169.896	8.748	0.468	-0.352
-168.881	523.557	-0.126	-0.295
-167.866	800.000	0.032	0.097
-166.852	-200.000	-0.028	0.124
-165.837	95.350	-0.111	0.127
-164.823	-120.716	-0.265	0.045
-163.808	496.369	0.053	0.121
-162.793	-44.042	0.176	0.088
-161.779	800.000	0.094	0.277
-160.764	-112.300	-0.256	0.051
-159.750	-128.714	0.121	0.017
-158.735	-154.035	-0.158	-0.011
-157.720	-200.000	0.054	-0.272
-156.706	101.295	-0.159	-0.185
-155.691	330.931	-0.061	-0.118
-154.677	-132.518	0.170	-0.022
-153.662	800.000	0.052	-0.153
-152.647	54.437	0.343	-0.330
-151.633	192.901	-0.218	0.330
-150.618	272.976	-0.095	-0.167
-149.604	-48.368	0.293	-0.141
-148.589	22.001	0.083	-0.068
-147.574	-23.677	-0.202	0.121
-146.560	-200.000	0.054	0.320
-145.545	-117.637	-0.090	-0.016
-144.531	-13.430	0.113	-0.073
-143.516	-134.957	-0.119	-0.014
-142.502	-73.888	0.191	-0.069
-141.487	324.984	-0.187	-0.357
-140.472	54.445	0.101	0.098
-139.458	800.000	-0.014	0.056
-138.443	495.367	-0.079	0.181
-137.429	-200.000	-0.004	0.113
-136.414	-1.401	-0.102	-0.072
-135.399	-165.968	-0.396	-0.017
-134.385	-10.323	0.314	-0.208
-133.370	-130.067	0.210	-0.029
-132.356	-193.519	-0.274	0.002
-131.341	800.000	-0.073	-0.225
-130.326	-29.352	0.396	0.226
-129.312	-25.130	-0.153	-0.091
-128.297	-200.000	0.046	-0.219
-127.283	-67.942	0.240	0.094
-126.268	-130.913	-0.217	0.029
-125.253	-19.177	0.219	0.136
-124.239	47.897	-0.110	0.103
-123.224	247.430	0.123	0.207
-122.210	-174.830	0.206	0.006
-121.195	-151.412	0.210	-0.016
