DTS Sentinel unit serial number:	SN413079Multiplexer serial number:	ORYXHardware model number:	OX4-SRSoftware version number:	ORYX F/W v4.00 Oryx Data Collector v3.7.2.0data status	okinstallation	princeton_trtdifferential loss correction	single-endedforward channel	channel 1reverse channel	N/Adate	2019/09/15time	20:42:35forward acquisition time	60.00reverse acquisition time	0.00gamma	496.2192k internal	0.2326k external	0.2326temperature offset calibration	0.9961default loss term (dB/km)	0.3790temperature slope calibration	1.0000multiplexer offset coefficient	1.0000multiplexer slope coefficient	1.0000fibre end	0.00T internal ref (°C)	32.70T ext. ref 1 (°C)	7.90T ext. ref 2 (°C)	24.56length (m)	temperature (°C)	Stokes	anti-Stokes-747.200	35.716	0.183	0.163
-746.185	-14.796	-0.187	0.121
-745.171	758.483	-0.053	0.145
-744.156	-200.000	0.077	0.402
-743.142	6.296	-0.132	0.099
-742.127	700.161	-0.129	0.343
-741.112	479.925	-0.093	-0.213
-740.098	178.745	-0.193	0.285
-739.083	-147.739	0.299	0.025
-738.069	20.843	0.397	0.325
-737.054	-200.000	-0.022	0.149
-736.039	-65.068	-0.253	-0.103
-735.025	371.340	-0.071	0.145
-734.010	31.304	-0.288	-0.250
-732.996	308.609	0.044	-0.083
-731.981	-39.727	-0.128	-0.067
-730.966	-156.915	-0.166	0.010
-729.952	-121.124	-0.026	-0.004
-728.937	103.271	0.211	-0.250
-727.923	34.798	0.122	0.107
-726.908	-60.605	-0.201	0.086
-725.894	32.016	-0.255	0.222
-724.879	-79.176	0.171	0.058
-723.864	-33.013	-0.100	-0.056
-722.850	-73.400	0.130	-0.048
-721.835	800.000	0.035	-0.110
-720.821	128.370	-0.181	-0.233
-719.806	800.000	0.047	-0.164
-718.791	-78.597	0.062	-0.021
-717.777	-200.000	-0.001	-0.088
-716.762	-102.476	0.129	0.031
-715.748	-28.376	-0.269	-0.156
-714.733	-50.436	0.163	-0.078
-713.718	248.001	-0.163	-0.277
-712.704	-34.302	-0.034	-0.019
-711.689	-191.711	0.355	-0.004
-710.675	-200.000	0.019	0.288
-709.660	-161.515	-0.295	0.015
-708.645	0.891	-0.129	-0.093
-707.631	172.223	-0.162	0.234
-706.616	-156.946	-0.231	-0.014
-705.602	-36.461	0.221	0.120
-704.587	245.702	0.159	0.269
-703.572	14.264	-0.184	0.145
-702.558	119.384	0.079	-0.098
-701.543	5.785	-0.261	-0.194
-700.529	-113.869	-0.121	-0.024
-699.514	6.337	0.317	0.237
-698.499	555.772	-0.037	-0.089
-697.485	-200.000	-0.017	0.187
-696.470	800.000	-0.065	-0.183
-695.456	-193.808	0.142	0.001
-694.441	37.864	-0.136	-0.122
-693.426	122.087	0.209	-0.263
-692.412	11.569	-0.246	0.190
-691.397	-200.000	0.050	-0.533
-690.383	-200.000	-0.046	-0.259
-689.368	-99.098	0.079	-0.020
-688.354	-38.625	0.233	0.124
-687.339	69.710	-0.133	0.138
-686.324	120.784	-0.120	-0.150
-685.310	-70.845	0.257	0.097
-684.295	-200.000	-0.010	0.188
-683.281	-50.508	0.123	0.058
-682.266	257.674	0.083	0.144
-681.251	36.173	-0.259	-0.229
-680.237	-5.833	-0.308	-0.212
-679.222	502.569	-0.001	-0.003
-678.208	-4.514	-0.167	-0.116
-677.193	150.804	0.214	-0.292
-676.178	-12.389	0.118	0.078
-675.164	-76.868	0.178	-0.063
-674.149	-129.385	-0.017	0.002
-673.135	-200.000	-0.008	0.054
-672.120	-112.175	0.341	0.069
-671.105	145.648	-0.077	-0.104
-670.091	-200.000	0.017	-0.123
-669.076	-42.998	0.044	0.023
-668.062	461.113	0.141	-0.316
-667.047	-72.103	0.123	-0.046
-666.032	-200.000	-0.006	-0.094
-665.018	-154.867	-0.282	0.019
-664.003	-43.220	-0.161	0.082
-662.989	39.128	0.114	0.102
-661.974	-200.000	-0.012	-0.228
-660.959	-172.678	0.145	-0.005
-659.945	-125.024	0.164	0.025
-658.930	32.716	0.152	0.132
-657.916	-85.091	-0.128	-0.040
-656.901	-21.451	-0.279	-0.171
-655.886	800.000	0.033	0.122
-654.872	-155.768	-0.242	-0.016
-653.857	800.000	-0.014	-0.040
-652.843	-135.408	-0.357	0.043
-651.828	-43.221	0.137	-0.070
-650.814	99.549	-0.127	-0.147
-649.799	800.000	-0.062	-0.221
-648.784	223.300	-0.153	-0.248
-647.770	-70.484	-0.262	0.100
-646.755	91.450	0.176	-0.198
-645.741	16.716	0.290	0.231
-644.726	-145.527	-0.191	0.017
-643.711	800.000	0.140	0.401
-642.697	309.386	-0.067	-0.125
-641.682	52.535	-0.079	-0.076
-640.668	137.543	0.332	0.436
-639.653	800.000	-0.029	0.115
-638.638	67.283	0.253	0.259
-637.624	-60.467	-0.291	-0.124
-636.609	134.107	-0.090	0.117
-635.595	-200.000	0.011	-0.340
-634.580	284.461	-0.123	-0.223
-633.565	10.895	0.077	-0.059
-632.551	-57.756	-0.239	0.105
-631.536	-11.786	0.087	0.057
-630.522	-83.910	0.165	-0.053
-629.507	4.684	0.130	0.096
-628.492	-41.451	0.490	0.253
-627.478	-31.033	0.096	-0.054
-626.463	-50.842	0.241	0.114
-625.449	-61.993	-0.115	-0.048
-624.434	269.111	0.070	0.124
-623.419	579.231	-0.104	-0.256
-622.405	-200.000	-0.019	-0.136
-621.390	800.000	0.043	-0.154
-620.376	800.000	-0.048	-0.192
-619.361	36.591	0.101	0.089
-618.346	-26.802	-0.107	0.063
-617.332	784.499	0.060	0.164
-616.317	81.989	-0.170	-0.185
-615.303	-176.254	0.310	-0.008
-614.288	-108.218	-0.366	-0.080
-613.273	68.849	-0.152	-0.157
-612.259	-122.504	0.052	0.008
-611.244	-95.965	-0.245	0.066
-610.230	13.688	-0.278	-0.217
-609.215	800.000	-0.078	-0.293
-608.201	363.694	0.066	-0.133
-607.186	-116.529	-0.233	0.043
-606.171	-200.000	0.042	-0.232
-605.157	26.041	0.268	-0.224
-604.142	-55.913	-0.204	-0.092
-603.128	-156.434	0.188	0.012
-602.113	800.000	0.058	-0.170
-601.098	300.535	0.179	-0.331
-600.084	-136.968	-0.103	-0.012
-599.069	72.299	-0.150	0.157
-598.055	50.884	0.058	-0.055
-597.040	47.837	-0.039	0.036
-596.025	-200.000	0.027	-0.228
-595.011	28.962	0.084	-0.071
-593.996	-9.308	-0.161	0.108
-592.982	-190.304	0.173	-0.002
-591.967	-69.152	-0.266	0.103
-590.952	-200.000	0.017	0.100
-589.938	-91.804	-0.141	-0.040
-588.923	84.195	0.219	-0.240
-587.909	50.235	-0.297	-0.281
-586.894	215.600	0.091	0.145
-585.879	-26.217	0.217	0.128
-584.865	71.231	0.207	-0.215
-583.850	63.130	0.245	0.246
-582.836	800.000	0.041	-0.127
-581.821	127.127	-0.145	-0.184
-580.806	-147.082	-0.275	-0.024
-579.792	-109.154	0.300	-0.064
-578.777	-11.831	0.136	-0.090
-577.763	800.000	0.044	0.128
-576.748	-152.959	-0.310	-0.022
-575.733	-127.379	-0.262	0.038
-574.719	83.338	-0.271	-0.296
-573.704	800.000	-0.037	-0.112
-572.690	372.077	0.180	-0.367
-571.675	571.006	0.058	-0.142
-570.661	585.759	-0.016	0.039
-569.646	24.270	-0.119	0.099
-568.631	6.036	0.235	0.174
-567.617	-11.246	-0.129	0.085
-566.602	-19.440	0.145	0.090
-565.588	44.949	0.213	-0.196
-564.573	229.627	-0.196	0.321
-563.558	-200.000	0.090	0.545
-562.544	-136.801	0.123	-0.014
-561.529	-13.257	0.144	-0.094
-560.515	6.317	-0.250	0.186
-559.500	-19.337	-0.111	0.069
-558.485	63.335	-0.235	0.235
-557.471	401.977	0.138	-0.290
-556.456	-113.035	-0.134	0.027
-555.442	-12.828	-0.297	-0.194
-554.427	-59.728	-0.173	0.074
-553.412	88.845	0.114	-0.127
-552.398	800.000	0.008	-0.035
-551.383	523.163	-0.080	-0.188
-550.369	-125.547	0.257	0.039
-549.354	-156.267	0.078	0.005
-548.339	25.787	-0.211	0.176
-547.325	-200.000	0.012	-0.167
-546.310	-74.501	0.177	-0.064
-545.296	-3.050	-0.070	-0.049
-544.281	-65.180	-0.238	0.096
-543.266	183.808	-0.111	0.164
-542.252	-117.530	-0.216	0.039
-541.237	-22.623	-0.144	0.087
-540.223	-200.000	-0.061	0.297
-539.208	800.000	-0.136	0.543
-538.193	57.625	0.049	0.048
-537.179	133.940	0.289	0.375
-536.164	23.186	-0.046	-0.038
-535.150	706.234	0.112	-0.297
-534.135	-105.541	-0.125	-0.028
-533.121	800.000	-0.061	0.231
-532.106	-200.000	-0.042	-0.325
-531.091	35.910	-0.122	-0.108
-530.077	125.607	0.054	-0.068
-529.062	3.170	-0.105	0.077
-528.048	-122.895	-0.176	-0.028
-527.033	565.736	0.134	-0.324
-526.018	-144.138	-0.211	0.020
-525.004	-121.336	-0.424	0.071
-523.989	418.426	-0.103	-0.219
-522.975	-38.431	0.216	-0.114
-521.960	-89.094	-0.127	-0.038
-520.945	-5.993	0.427	-0.292
-519.931	208.090	0.107	0.168
-518.916	-93.948	-0.216	-0.059
-517.902	156.321	0.185	0.255
-516.887	594.796	0.145	0.359
-515.872	107.937	-0.225	0.268
-514.858	28.521	-0.091	-0.077
-513.843	-54.025	0.265	0.121
-512.829	-99.451	-0.104	-0.026
-511.814	-63.337	-0.304	0.125
-510.799	-200.000	0.016	-0.121
-509.785	-200.000	0.015	-0.190
-508.770	800.000	0.096	-0.359
-507.756	-200.000	-0.009	0.299
-506.741	249.151	-0.030	-0.051
-505.726	293.444	0.146	-0.267
-504.712	-49.378	0.059	-0.028
-503.697	-200.000	0.005	0.189
-502.683	-66.684	0.221	-0.088
-501.668	422.876	-0.139	0.298
-500.653	697.665	-0.151	-0.395
-499.639	64.365	0.269	-0.271
-498.624	-145.683	0.191	-0.017
-497.610	170.858	0.049	-0.071
-496.595	-25.170	-0.127	-0.075
-495.581	51.560	0.203	0.193
-494.566	-79.011	-0.549	-0.186
-493.551	-56.197	0.426	0.189
-492.537	117.917	0.131	0.162
-491.522	-101.995	-0.141	-0.034
-490.508	-200.000	-0.011	0.095
-489.493	-2.869	0.313	-0.218
-488.478	247.535	0.076	0.128
-487.464	-3.676	0.132	0.092
-486.449	339.588	0.151	0.294
-485.435	-137.149	0.306	-0.035
-484.420	-94.821	0.255	-0.069
-483.405	800.000	0.069	-0.250
-482.391	-114.534	0.086	0.016
-481.376	-200.000	-0.019	0.168
-480.362	38.673	-0.206	0.184
-479.347	-59.625	-0.373	0.160
-478.332	-200.000	-0.000	-0.369
-477.318	800.000	0.061	-0.235
-476.303	-110.542	0.302	-0.062
-475.289	800.000	-0.045	0.163
-474.274	80.779	-0.183	-0.197
-473.259	-128.543	0.211	0.030
-472.245	-200.000	-0.010	-0.045
-471.230	54.953	-0.122	-0.117
-470.216	299.865	0.186	0.342
-469.201	-79.234	0.296	-0.100
-468.186	52.485	-0.068	0.065
-467.172	-106.153	0.081	0.018
-466.157	-100.589	-0.162	0.040
-465.143	-200.000	-0.008	-0.107
-464.128	-75.035	-0.410	0.146
-463.113	-75.927	-0.229	0.081
-462.099	132.494	-0.057	-0.073
-461.084	-200.000	-0.001	0.304
-460.070	35.054	0.099	0.086
-459.055	-36.091	0.211	-0.113
-458.040	800.000	-0.044	-0.139
-457.026	800.000	-0.133	-0.497
-456.011	-97.134	-0.162	-0.042
-454.997	-156.743	-0.214	-0.013
-453.982	-200.000	0.002	0.175
-452.968	-24.235	-0.063	0.037
-451.953	416.600	-0.111	-0.237
-450.938	-0.531	-0.275	0.195
-449.924	450.885	-0.055	-0.122
-448.909	623.171	0.191	-0.479
-447.895	56.940	-0.051	0.049
-446.880	-200.000	-0.064	-0.364
-445.865	-200.000	-0.051	0.251
-444.851	-103.148	0.264	0.062
-443.836	37.839	0.173	-0.153
-442.822	497.359	0.103	0.237
-441.807	-200.000	-0.022	0.296
-440.792	-35.613	-0.342	0.185
-439.778	-135.100	-0.147	0.018
-438.763	110.276	-0.116	0.139
-437.749	323.631	0.139	-0.265
-436.734	800.000	-0.094	0.330
-435.719	-24.667	0.167	0.099
-434.705	619.294	-0.038	0.095
-433.690	787.109	-0.025	0.069
-432.676	157.279	-0.105	0.145
-431.661	292.837	0.030	0.055
-430.646	-176.429	0.309	-0.008
-429.632	-200.000	-0.030	-0.148
-428.617	156.192	0.080	0.109
-427.603	28.598	-0.156	-0.131
-426.588	-38.565	0.584	0.307
-425.573	-78.243	0.125	-0.043
-424.559	-200.000	0.019	-0.111
-423.544	-200.000	-0.269	-0.000
-422.530	800.000	-0.085	-0.332
-421.515	-200.000	-0.013	-0.179
-420.500	558.710	-0.121	0.292
-419.486	-192.570	0.388	0.004
-418.471	279.223	0.064	0.114
-417.457	-102.228	0.156	-0.037
-416.442	-68.360	-0.258	0.100
-415.428	360.919	-0.142	-0.283
-414.413	83.327	0.131	0.142
-413.398	-93.175	0.264	-0.073
-412.384	-200.000	-0.078	-0.432
-411.369	81.429	-0.212	0.229
-410.355	-99.579	0.084	0.021
-409.340	-44.160	-0.098	0.049
-408.325	-161.408	0.150	0.008
-407.311	-81.102	0.237	-0.078
-406.296	633.817	-0.063	0.159
-405.282	90.449	0.025	0.027
-404.267	49.501	-0.112	-0.105
-403.252	-53.887	0.083	0.038
-402.238	-56.086	-0.265	0.118
-401.223	369.887	0.073	0.148
-400.209	543.280	-0.065	-0.154
-399.194	300.899	-0.130	0.238
-398.179	242.087	-0.081	0.135
-397.165	-112.644	0.198	-0.039
-396.150	375.894	-0.112	-0.228
-395.136	-20.469	0.217	0.133
-394.121	-28.653	-0.114	0.065
-393.106	-126.010	0.104	-0.016
-392.092	669.091	0.016	-0.041
-391.077	-143.247	-0.169	-0.016
-390.063	-64.339	0.274	0.111
-389.048	-48.559	0.266	-0.127
-388.033	746.179	0.129	-0.347
-387.019	607.815	-0.092	0.227
-386.004	-66.200	0.134	0.053
-384.990	283.349	-0.047	-0.084
-383.975	85.895	0.080	-0.087
-382.960	92.983	-0.008	-0.009
-381.946	-97.031	0.222	-0.058
-380.931	800.000	-0.038	0.158
-379.917	2.473	0.331	-0.238
-378.902	-53.409	0.168	0.077
-377.888	-103.090	-0.087	-0.021
-376.873	207.053	0.091	-0.140
-375.858	-200.000	-0.014	0.122
-374.844	121.140	0.263	0.325
-373.829	-77.735	-0.302	0.104
-372.815	188.790	-0.121	-0.180
-371.800	-200.000	-0.040	0.387
-370.785	-100.935	-0.263	0.064
-369.771	180.531	0.186	0.271
-368.756	-42.708	-0.209	-0.106
-367.742	-79.731	0.070	0.023
-366.727	-5.526	0.299	-0.204
-365.712	15.432	-0.282	-0.220
-364.698	-56.231	-0.435	0.192
-363.683	31.968	0.080	0.068
-362.669	800.000	-0.063	-0.231
-361.654	-1.748	-0.152	-0.106
-360.639	-160.652	0.205	0.011
-359.625	687.091	0.148	0.385
-358.610	-34.210	-0.093	0.051
-357.596	182.062	0.084	-0.123
-356.581	800.000	-0.067	0.274
-355.566	-89.317	-0.036	0.010
-354.552	2.167	-0.142	0.102
-353.537	-4.646	-0.227	-0.155
-352.523	79.951	0.197	-0.210
-351.508	-11.996	-0.175	-0.114
-350.493	-53.011	-0.273	0.124
-349.479	-25.512	-0.280	0.164
-348.464	-72.178	0.185	0.068
-347.450	649.085	0.028	0.071
-346.435	-200.000	-0.024	-0.592
-345.420	800.000	0.084	-0.296
-344.406	-200.000	-0.016	-0.198
-343.391	38.402	0.244	0.216
-342.377	65.355	0.132	0.132
-341.362	214.503	-0.068	-0.107
-340.348	-9.681	0.056	-0.037
-339.333	-79.451	0.086	0.029
-338.318	-200.000	-0.008	0.214
-337.304	65.305	0.139	0.139
-336.289	26.731	0.144	0.120
-335.275	-200.000	-0.044	-0.242
-334.260	-200.000	0.011	0.130
-333.245	88.709	0.117	0.129
-332.231	-200.000	-0.044	0.355
-331.216	-12.969	0.226	-0.146
-330.202	-121.615	-0.162	0.027
-329.187	612.972	0.067	0.167
-328.172	587.749	-0.222	0.542
-327.158	32.585	-0.086	-0.074
-326.143	-200.000	-0.032	-0.259
-325.129	201.482	-0.180	-0.275
-324.114	-120.511	0.065	0.011
-323.099	-81.036	0.262	-0.086
-322.085	19.561	0.196	-0.156
-321.070	800.000	0.022	0.069
-320.056	-29.245	0.102	0.058
-319.041	-76.039	0.275	0.096
-318.026	758.015	0.036	-0.096
-317.012	258.833	0.194	-0.332
-315.997	-200.000	-0.012	-0.288
-314.983	-195.086	0.200	0.002
-313.968	75.839	0.150	0.157
-312.953	-200.000	-0.018	-0.270
-311.939	596.766	0.040	0.099
-310.924	34.312	-0.074	0.064
-309.910	34.984	0.335	-0.291
-308.895	-200.000	-0.014	-0.113
-307.880	0.609	-0.088	-0.063
-306.866	303.511	-0.208	-0.382
-305.851	-200.000	0.034	0.327
-304.837	800.000	-0.082	-0.271
-303.822	-200.000	0.029	0.146
-302.807	112.887	-0.055	-0.067
-301.793	129.703	-0.113	-0.143
-300.778	-132.507	-0.402	0.051
-299.764	-200.000	0.053	0.375
-298.749	-105.539	-0.116	0.026
-297.735	18.035	-0.023	0.018
-296.720	80.986	0.022	-0.024
-295.705	-85.944	0.548	0.168
-294.691	-27.645	-0.255	0.146
-293.676	-178.901	0.245	0.006
-292.662	-200.000	0.017	0.150
-291.647	167.108	-0.192	-0.269
-290.632	-141.487	0.085	0.008
-289.618	-147.280	0.463	-0.039
-288.603	157.195	-0.169	0.231
-287.589	800.000	-0.037	-0.125
-286.574	-107.651	-0.106	0.023
-285.559	-200.000	0.003	-0.150
-284.545	-26.162	0.208	-0.121
-283.530	-85.778	0.243	-0.075
-282.516	222.373	0.089	0.142
-281.501	-17.791	-0.234	0.145
-280.486	477.731	-0.092	-0.206
-279.472	171.880	0.085	0.121
-278.457	431.919	-0.115	0.247
-277.443	188.273	0.119	0.176
-276.428	159.122	0.065	-0.089
-275.413	98.597	0.194	0.222
-274.399	21.476	0.186	0.150
-273.384	7.189	-0.305	0.225
-272.370	-87.916	-0.146	-0.044
-271.355	-200.000	0.033	0.204
-270.340	151.739	-0.077	0.103
-269.326	-96.338	-0.388	-0.102
-268.311	-81.736	-0.109	-0.035
-267.297	234.588	-0.089	-0.146
-266.282	21.202	-0.162	-0.130
-265.267	36.584	0.250	0.218
-264.253	-30.065	0.027	0.015
-263.238	7.702	-0.310	-0.230
-262.224	164.143	0.217	0.303
-261.209	-81.543	0.205	0.067
-260.195	-48.637	0.299	0.142
-259.180	319.025	-0.210	0.394
-258.165	-71.360	-0.239	0.088
-257.151	449.649	-0.096	0.210
-256.136	-200.000	0.000	0.366
-255.122	-14.881	-0.154	0.098
-254.107	-30.425	-0.207	-0.116
-253.092	413.607	0.159	0.335
-252.078	800.000	-0.042	0.142
-251.063	266.533	-0.126	-0.217
-250.049	60.434	-0.054	0.053
-249.034	-200.000	-0.016	-0.077
-248.019	-112.270	-0.079	-0.016
-247.005	3.947	-0.282	-0.204
-245.990	-90.955	-0.321	0.091
-244.976	-62.843	0.311	-0.127
-243.961	129.463	0.200	0.253
-242.946	34.553	0.108	-0.094
-241.932	-88.255	-0.217	-0.064
-240.917	-0.850	0.070	-0.049
-239.903	-150.940	0.043	-0.003
-238.888	-167.516	0.203	0.008
-237.873	-17.789	0.164	-0.102
-236.859	800.000	-0.047	-0.169
-235.844	641.837	-0.060	-0.152
-234.830	-200.000	-0.043	-0.433
-233.815	15.165	-0.103	-0.080
-232.800	-200.000	-0.327	-0.001
-231.786	-11.721	0.142	-0.092
-230.771	641.470	0.101	0.254
-229.757	87.328	0.058	0.064
-228.742	45.150	0.090	0.082
-227.727	-132.165	0.102	0.013
-226.713	-37.516	-0.371	0.196
-225.698	161.623	0.092	0.127
-224.684	-20.466	0.208	0.126
-223.669	21.293	0.220	0.177
-222.655	-200.000	0.014	0.109
-221.640	-81.828	0.379	0.123
-220.625	-86.726	-0.203	-0.061
-219.611	667.796	-0.019	0.048
-218.596	163.507	-0.123	-0.171
-217.582	182.863	-0.094	0.137
-216.567	669.197	-0.093	-0.238
-215.552	374.012	-0.129	-0.259
-214.538	-200.000	0.026	-0.186
-213.523	-126.471	0.097	0.014
-212.509	800.000	0.067	-0.265
-211.494	51.332	-0.056	0.053
-210.479	131.334	0.134	0.171
-209.465	-200.000	-0.009	0.078
-208.450	180.604	-0.109	0.157
-207.436	-108.399	0.279	0.059
-206.421	-200.000	-0.025	0.307
-205.406	800.000	-0.093	-0.300
-204.392	49.185	-0.114	-0.105
-203.377	-200.000	0.003	-0.203
-202.363	-200.000	-0.025	-0.146
-201.348	-39.569	-0.359	0.186
-200.333	800.000	0.020	-0.082
-199.319	-117.381	0.044	-0.008
-198.304	800.000	0.102	-0.282
-197.290	-49.822	-0.299	-0.140
-196.275	-200.000	-0.005	-0.056
-195.260	708.672	0.185	0.483
-194.246	-200.000	-0.029	0.264
-193.231	800.000	-0.058	0.213
-192.217	-51.860	-0.141	-0.065
-191.202	-200.000	-0.052	-0.296
-190.187	575.769	0.027	0.065
-189.173	-27.625	0.046	0.026
-188.158	-14.102	-0.045	0.029
-187.144	103.760	-0.194	0.225
-186.129	-200.000	0.005	0.082
-185.114	-184.041	-0.205	-0.003
-184.100	-111.635	-0.093	0.019
-183.085	800.000	0.050	-0.179
-182.071	-95.573	0.287	-0.076
-181.056	84.590	-0.160	-0.173
-180.042	442.744	0.103	-0.223
-179.027	91.229	-0.129	-0.142
-178.012	-200.000	0.121	0.000
-176.998	-22.740	0.164	-0.098
-175.983	800.000	0.083	0.283
-174.969	-44.808	-0.175	-0.086
-173.954	595.296	-0.154	-0.375
-172.939	100.106	-0.092	-0.105
-171.925	41.769	-0.152	0.136
-170.910	156.117	0.141	-0.192
-169.896	800.000	-0.058	-0.161
-168.881	1.126	-0.095	-0.067
-167.866	374.463	-0.115	0.231
-166.852	-65.773	0.475	0.187
-165.837	800.000	-0.078	0.250
-164.823	345.638	-0.041	-0.080
-163.808	-44.600	0.107	-0.053
-162.793	118.814	0.141	0.172
-161.779	459.394	0.128	0.281
-160.764	-12.277	-0.070	0.045
-159.750	66.366	0.174	0.174
-158.735	-200.000	-0.028	-0.223
-157.720	220.875	-0.162	0.256
-156.706	-2.129	0.226	-0.156
-155.691	731.214	-0.123	-0.324
-154.677	152.064	-0.119	-0.161
-153.662	287.232	0.059	0.106
-152.647	800.000	-0.026	0.080
-151.633	-115.948	-0.106	-0.019
-150.618	76.754	0.105	-0.110
-149.604	-182.940	-0.195	0.003
-148.589	-19.490	0.183	0.111
-147.574	-24.098	-0.053	-0.031
-146.560	25.627	0.104	-0.085
-145.545	7.726	-0.317	0.234
-144.531	240.872	0.113	-0.186
-143.516	-200.000	-0.029	0.148
-142.502	519.581	0.074	-0.170
-141.487	-200.000	0.019	-0.206
-140.472	-8.445	-0.075	-0.050
-139.458	167.049	0.073	0.102
-138.443	49.200	-0.131	0.121
-137.429	86.690	-0.137	0.149
-136.414	800.000	-0.054	0.224
-135.399	-104.947	0.190	0.043
-134.385	246.690	-0.044	0.074
-133.370	23.476	-0.164	0.133
-132.356	-70.949	0.127	-0.047
-131.341	-200.000	-0.020	0.264
-130.326	56.735	0.130	0.125
-129.312	800.000	0.010	-0.029
-128.297	45.518	0.113	0.103
-127.283	-200.000	0.006	0.056
-126.268	372.411	0.084	-0.167
-125.253	-52.000	-0.079	-0.036
-124.239	317.567	0.042	-0.078
-123.224	139.700	-0.203	0.263
-122.210	-200.000	-0.036	-0.191
-121.195	-63.272	-0.289	-0.117
-120.180	65.633	0.157	0.157
