DTS Sentinel unit serial number:	SN413079Multiplexer serial number:	ORYXHardware model number:	OX4-SRSoftware version number:	ORYX F/W v4.00 Oryx Data Collector v3.7.2.0data status	okinstallation	princeton_trtdifferential loss correction	single-endedforward channel	channel 1reverse channel	N/Adate	2019/09/14time	13:26:35forward acquisition time	60.00reverse acquisition time	0.00gamma	496.2192k internal	0.2294k external	0.2294temperature offset calibration	1.0087default loss term (dB/km)	0.3790temperature slope calibration	1.0000multiplexer offset coefficient	1.0000multiplexer slope coefficient	1.0000fibre end	0.00T internal ref (°C)	37.94T ext. ref 1 (°C)	4.92T ext. ref 2 (°C)	33.60length (m)	temperature (°C)	Stokes	anti-Stokes-747.200	-112.407	-0.207	0.042
-746.185	-88.939	0.338	0.102
-745.171	-189.565	0.100	-0.001
-744.156	232.452	-0.126	0.212
-743.142	-200.000	0.030	-0.304
-742.127	-104.401	0.137	-0.033
-741.112	-125.168	0.139	0.022
-740.098	-111.707	-0.167	0.035
-739.083	500.834	0.122	-0.287
-738.069	19.503	-0.154	0.127
-737.054	800.000	0.028	-0.086
-736.039	133.054	-0.053	0.070
-735.025	-26.482	0.122	0.073
-734.010	-44.628	-0.194	-0.099
-732.996	4.560	-0.341	-0.256
-731.981	-132.251	0.156	0.021
-730.966	800.000	-0.059	0.257
-729.952	20.649	0.078	0.065
-728.937	-66.712	-0.317	-0.128
-727.923	-45.816	0.377	0.190
-726.908	3.127	-0.041	0.030
-725.894	261.847	0.117	-0.207
-724.879	288.469	-0.044	-0.081
-723.864	-49.958	-0.106	0.051
-722.850	-46.519	-0.296	0.148
-721.835	91.401	-0.047	-0.054
-720.821	-200.000	-0.016	0.100
-719.806	228.530	0.038	-0.063
-718.791	-200.000	0.023	0.117
-717.777	-24.509	-0.074	0.045
-716.762	-76.322	-0.186	0.067
-715.748	29.407	0.222	-0.192
-714.733	125.851	-0.120	-0.155
-713.718	356.622	0.073	-0.150
-712.704	19.110	0.087	-0.071
-711.689	-93.820	-0.333	-0.094
-710.675	-63.070	0.093	-0.039
-709.660	449.493	-0.115	-0.259
-708.645	-96.448	-0.118	-0.032
-707.631	-45.856	-0.209	-0.105
-706.616	242.791	-0.191	-0.326
-705.602	-34.241	0.207	-0.116
-704.587	-117.939	-0.355	0.065
-703.572	-200.000	-0.005	-0.202
-702.558	-200.000	0.027	-0.173
-701.543	127.028	0.065	-0.084
-700.529	398.807	-0.051	-0.110
-699.514	-118.862	-0.265	0.047
-698.499	-125.181	-0.063	-0.010
-697.485	-45.182	0.309	-0.157
-696.470	-200.000	0.047	0.238
-695.456	561.917	-0.175	0.432
-694.441	-79.746	0.403	-0.138
-693.426	-87.086	-0.070	0.022
-692.412	-200.000	-0.014	-0.125
-691.397	520.304	0.149	0.355
-690.383	287.903	0.113	-0.209
-689.368	-56.444	-0.350	-0.159
-688.354	-200.000	-0.018	0.414
-687.339	-14.207	-0.361	0.237
-686.324	254.799	0.046	0.080
-685.310	-151.555	0.404	0.031
-684.295	134.070	0.194	0.256
-683.281	-187.937	-0.290	0.004
-682.266	-200.000	-0.022	-0.235
-681.251	574.740	-0.207	0.516
-680.237	-130.823	-0.254	-0.035
-679.222	-146.187	-0.128	-0.011
-678.208	196.096	-0.133	-0.206
-677.193	142.135	0.245	0.331
-676.178	-200.000	0.059	0.287
-675.164	-200.000	-0.035	-0.305
-674.149	-20.300	-0.277	-0.174
-673.135	-142.759	0.171	0.017
-672.120	-78.059	0.319	-0.112
-671.105	74.111	-0.171	0.184
-670.091	271.605	-0.215	-0.386
-669.076	-200.000	0.078	0.607
-668.062	-200.000	0.039	0.202
-667.047	-68.657	0.143	-0.057
-666.032	373.667	0.163	-0.339
-665.018	-200.000	-0.012	-0.257
-664.003	66.266	0.049	0.050
-662.989	199.171	0.190	-0.297
-661.974	-36.612	0.047	-0.026
-660.959	-200.000	-0.054	-0.575
-659.945	800.000	-0.104	-0.328
-658.930	-200.000	-0.050	-0.380
-657.916	305.389	-0.044	-0.083
-656.901	-200.000	0.011	0.128
-655.886	-200.000	-0.005	-0.073
-654.872	-15.405	-0.223	-0.145
-653.857	13.741	0.195	0.155
-652.843	-200.000	0.013	0.195
-651.828	-71.714	0.136	0.052
-650.814	115.819	0.148	0.184
-649.799	-193.260	0.264	-0.002
-648.784	173.354	0.134	-0.196
-647.770	800.000	-0.037	-0.165
-646.755	800.000	-0.048	0.164
-645.741	800.000	0.051	0.145
-644.726	11.895	0.127	-0.099
-643.711	-15.500	0.131	0.086
-642.697	-200.000	0.036	0.203
-641.682	-200.000	-0.029	-0.280
-640.668	-69.335	-0.189	-0.074
-639.653	-187.058	0.116	-0.002
-638.638	586.808	-0.073	0.182
-637.624	-73.820	-0.083	0.031
-636.609	-27.820	0.194	0.114
-635.595	-200.000	0.009	0.176
-634.580	-200.000	0.048	-0.307
-633.565	396.054	0.087	0.186
-632.551	-111.240	0.282	-0.059
-631.536	130.436	-0.228	0.297
-630.522	482.727	0.015	-0.034
-629.507	596.262	0.101	0.254
-628.492	-129.365	-0.240	0.034
-627.478	-165.318	-0.411	-0.018
-626.463	-200.000	0.027	0.211
-625.449	11.309	-0.314	-0.245
-624.434	-152.932	0.044	-0.003
-623.419	190.975	0.040	0.061
-622.405	-97.625	0.056	-0.015
-621.390	79.563	0.260	-0.283
-620.376	80.543	-0.152	-0.167
-619.361	-200.000	-0.029	0.248
-618.346	-200.000	0.013	-0.196
-617.332	488.196	-0.123	-0.285
-616.317	-200.000	-0.032	0.248
-615.303	-17.902	-0.101	0.064
-614.288	-1.971	0.377	-0.270
-613.273	-123.134	0.397	-0.065
-612.259	-89.498	-0.202	0.060
-611.244	-200.000	0.004	-0.211
-610.230	-30.626	0.295	-0.170
-609.215	-79.782	0.231	0.079
-608.201	-200.000	-0.032	-0.169
-607.186	-10.099	0.286	0.194
-606.171	-79.470	0.191	0.066
-605.157	-83.113	0.147	-0.048
-604.142	-126.144	-0.195	-0.030
-603.128	347.399	-0.078	-0.157
-602.113	-200.000	0.010	-0.105
-601.098	800.000	0.094	0.339
-600.084	308.740	0.067	-0.127
-599.069	244.924	-0.052	0.088
-598.055	199.146	0.087	0.135
-597.040	-153.536	-0.036	0.003
-596.025	344.100	0.138	-0.275
-595.011	-151.913	0.244	0.018
-593.996	-104.807	-0.463	0.108
-592.982	-159.860	-0.245	-0.014
-591.967	253.154	0.091	0.158
-590.952	426.380	0.093	-0.204
-589.938	-63.962	0.182	-0.076
-588.923	6.206	-0.079	0.060
-587.909	-153.325	0.199	-0.014
-586.894	-200.000	0.016	0.247
-585.879	35.739	-0.294	-0.263
-584.865	-200.000	0.013	0.149
-583.850	-200.000	-0.003	0.117
-582.836	-41.315	0.080	0.042
-581.821	537.450	-0.057	0.138
-580.806	12.983	-0.113	0.089
-579.792	-200.000	-0.021	-0.222
-578.777	293.961	-0.135	-0.251
-577.763	-186.994	-0.150	-0.002
-576.748	321.790	-0.121	-0.234
-575.733	175.673	-0.126	-0.185
-574.719	49.633	0.116	-0.111
-573.704	39.156	0.400	-0.364
-572.690	341.120	-0.098	0.194
-571.675	-96.995	0.214	-0.057
-570.661	-118.570	-0.292	0.052
-569.646	-22.799	-0.266	0.163
-568.631	420.993	-0.029	0.064
-567.617	494.891	-0.109	0.254
-566.602	21.700	-0.158	-0.131
-565.588	59.370	0.093	-0.093
-564.573	342.497	0.072	-0.142
-563.558	-142.638	-0.369	-0.037
-562.544	-65.471	0.266	-0.108
-561.529	185.115	0.088	-0.133
-560.515	-183.553	-0.051	0.001
-559.500	800.000	-0.030	-0.107
-558.485	-97.959	0.079	-0.021
-557.471	244.089	0.120	-0.204
-556.456	-11.689	-0.188	-0.125
-555.442	-56.199	0.090	-0.041
-554.427	800.000	-0.047	-0.155
-553.412	-52.268	-0.034	0.016
-552.398	8.157	0.088	0.067
-551.383	800.000	0.012	-0.045
-550.369	129.970	0.091	0.118
-549.354	-200.000	-0.009	-0.062
-548.339	-7.529	0.108	-0.074
-547.325	91.046	0.108	-0.122
-546.310	-1.303	-0.050	-0.036
-545.296	800.000	-0.079	0.263
-544.281	-200.000	-0.087	-0.394
-543.266	800.000	-0.072	-0.221
-542.252	73.441	0.171	0.181
-541.237	557.300	0.055	0.135
-540.223	-200.000	0.005	-0.193
-539.208	71.670	-0.264	0.278
-538.193	800.000	-0.130	-0.433
-537.179	82.780	0.021	-0.023
-536.164	-200.000	0.018	-0.084
-535.150	800.000	-0.065	0.214
-534.135	70.253	-0.048	0.050
-533.121	-200.000	-0.014	0.070
-532.106	-85.387	0.102	0.032
-531.091	-142.391	-0.273	0.027
-530.077	800.000	-0.058	0.164
-529.062	81.236	-0.127	0.139
-528.048	-200.000	0.029	-0.315
-527.033	-76.589	-0.204	0.073
-526.018	-43.031	-0.291	-0.150
-525.004	119.089	-0.175	0.220
-523.989	-42.664	0.150	-0.077
-522.975	52.215	0.119	-0.115
-521.960	-91.841	0.386	-0.111
-520.945	-99.556	0.181	0.046
-519.931	194.027	0.134	0.206
-518.916	69.912	-0.141	0.148
-517.902	301.958	-0.108	-0.202
-516.887	-200.000	-0.000	0.106
-515.872	800.000	-0.058	-0.213
-514.858	-200.000	-0.048	-0.403
-513.843	-21.073	-0.255	0.158
-512.829	-143.841	0.162	-0.015
-511.814	75.538	0.206	-0.221
-510.799	83.226	-0.158	-0.174
-509.785	800.000	0.063	-0.241
-508.770	-200.000	-0.059	-0.347
-507.756	572.353	-0.040	0.099
-506.741	-109.124	-0.270	0.058
-505.726	800.000	-0.065	-0.274
-504.712	20.638	-0.098	0.080
-503.697	800.000	0.054	-0.213
-502.683	-200.000	0.040	0.358
-501.668	340.124	0.037	0.073
-500.653	123.288	-0.039	0.050
-499.639	-200.000	0.022	-0.148
-498.624	88.647	0.179	0.201
-497.610	800.000	0.059	0.217
-496.595	-23.762	-0.040	-0.024
-495.581	800.000	-0.035	0.150
-494.566	178.879	-0.209	-0.309
-493.551	306.421	-0.077	-0.144
-492.537	-136.730	0.184	0.021
-491.522	33.542	0.113	-0.100
-490.508	7.238	-0.230	0.174
-489.493	74.633	-0.158	-0.168
-488.478	29.708	-0.281	0.243
-487.464	-172.224	0.214	-0.007
-486.449	-92.668	0.120	0.034
-485.435	-159.254	-0.172	0.010
-484.420	484.541	-0.111	0.256
-483.405	-75.589	0.284	-0.102
-482.391	191.692	0.246	0.376
-481.376	-75.029	-0.079	-0.028
-480.362	-120.844	-0.336	0.057
-479.347	-31.267	-0.248	0.141
-478.332	518.738	0.080	-0.189
-477.318	-130.627	0.187	-0.026
-476.303	204.728	0.029	-0.045
-475.289	-69.858	-0.147	-0.057
-474.274	-200.000	0.059	-0.318
-473.259	190.688	0.114	0.174
-472.245	-118.629	0.325	0.058
-471.230	800.000	-0.102	0.296
-470.216	330.463	-0.039	-0.075
-469.201	184.431	-0.215	-0.323
-468.186	1.988	0.205	0.150
-467.172	541.467	-0.034	0.082
-466.157	28.894	-0.123	0.106
-465.143	60.367	-0.161	-0.161
-464.128	-141.418	0.304	0.031
-463.113	-200.000	0.019	0.128
-462.099	122.098	-0.119	0.151
-461.084	-2.631	-0.322	0.228
-460.070	-53.904	0.451	0.208
-459.055	-200.000	0.008	0.238
-458.040	100.234	-0.126	0.148
-457.026	121.036	0.085	-0.107
-456.011	-131.887	0.119	-0.016
-454.997	93.790	0.110	0.126
-453.982	651.350	-0.100	-0.259
-452.968	364.872	-0.058	0.118
-451.953	-66.118	0.326	-0.132
-450.938	20.459	-0.035	-0.028
-449.924	-68.291	0.396	0.156
-448.909	-38.768	-0.144	0.077
-447.895	530.244	-0.211	0.505
-446.880	236.065	0.174	0.290
-445.865	-168.130	-0.237	0.009
-444.851	305.158	-0.096	-0.181
-443.836	129.319	0.073	-0.094
-442.822	153.140	-0.182	0.251
-441.807	-92.624	0.230	-0.065
-440.792	243.495	0.171	0.290
-439.778	706.669	0.015	-0.040
-438.763	348.558	-0.116	0.232
-437.749	800.000	-0.076	-0.221
-436.734	-49.189	-0.501	0.242
-435.719	58.805	-0.161	0.160
-434.705	-111.022	-0.289	0.060
-433.690	188.266	-0.117	-0.177
-432.676	-36.927	0.262	-0.142
-431.661	-137.121	-0.379	-0.044
-430.646	800.000	0.138	-0.490
-429.632	-200.000	-0.254	-0.000
-428.617	-3.817	0.113	-0.079
-427.603	25.932	-0.113	0.096
-426.588	-120.761	0.243	-0.041
-425.573	-164.382	-0.126	-0.006
-424.559	800.000	-0.047	0.193
-423.544	-200.000	-0.027	0.487
-422.530	203.011	-0.145	0.227
-421.515	82.212	0.180	-0.197
-420.500	242.194	0.196	-0.331
-419.486	-126.582	0.301	0.045
-418.471	-79.896	0.370	0.126
-417.457	-200.000	-0.015	0.297
-416.442	-52.793	0.125	0.058
-415.428	-7.547	-0.082	-0.056
-414.413	157.138	-0.210	0.294
-413.398	800.000	0.045	0.150
-412.384	800.000	0.123	0.534
-411.369	800.000	-0.028	0.110
-410.355	44.183	0.162	-0.150
-409.340	-32.718	-0.463	0.260
-408.325	505.965	0.093	-0.218
-407.311	18.240	-0.063	0.051
-406.296	-99.709	0.212	-0.054
-405.282	800.000	-0.069	-0.291
-404.267	-120.984	-0.218	0.037
-403.252	-200.000	-0.036	0.377
-402.238	800.000	0.078	0.297
-401.223	-200.000	0.038	-0.185
-400.209	800.000	0.096	0.343
-399.194	800.000	0.111	-0.394
-398.179	102.104	-0.257	-0.303
-397.165	-32.337	0.130	-0.073
-396.150	-62.257	-0.219	0.092
-395.136	-0.324	0.204	-0.146
-394.121	9.622	-0.197	-0.151
-393.106	163.510	-0.162	0.230
-392.092	-173.978	-0.175	0.005
-391.077	-74.573	0.063	-0.023
-390.063	-140.751	-0.117	-0.012
-389.048	108.529	-0.150	-0.180
-388.033	381.983	-0.059	-0.123
-387.019	48.207	0.112	-0.106
-386.004	299.639	0.068	0.126
-384.990	-117.180	0.054	-0.010
-383.975	-127.586	0.148	-0.022
-382.960	58.294	-0.284	0.281
-381.946	800.000	-0.017	0.051
-380.931	-63.475	0.089	0.037
-379.917	474.137	0.046	0.105
-378.902	-200.000	0.016	-0.171
-377.888	-180.877	0.175	0.004
-376.873	-150.683	-0.321	-0.025
-375.858	172.485	-0.115	0.167
-374.844	-88.821	0.402	-0.120
-373.829	-132.449	0.168	0.022
-372.815	657.659	-0.166	-0.429
-371.800	-190.183	0.092	-0.001
-370.785	-134.500	-0.166	-0.021
-369.771	-133.664	-0.120	0.015
-368.756	24.800	-0.281	-0.235
-367.742	640.260	0.021	-0.055
-366.727	-63.673	-0.249	-0.103
-365.712	-120.301	0.124	0.021
-364.698	-45.343	-0.301	-0.151
-363.683	-200.000	0.025	0.247
-362.669	45.400	0.154	0.144
-361.654	-101.901	-0.368	0.090
-360.639	102.724	-0.161	-0.189
-359.625	71.967	-0.229	0.240
-358.610	-200.000	-0.039	0.297
-357.596	-13.970	0.115	-0.075
-356.581	-200.000	0.022	-0.194
-355.566	61.516	0.178	-0.179
-354.552	800.000	-0.076	0.271
-353.537	-55.085	-0.057	-0.026
-352.523	88.701	0.090	0.101
-351.508	78.519	-0.086	0.093
-350.493	-117.602	0.341	0.062
-349.479	42.888	-0.301	0.277
-348.464	76.901	0.237	-0.253
-347.450	5.035	0.227	0.169
-346.435	-135.731	0.026	-0.003
-345.420	137.334	-0.180	-0.237
-344.406	800.000	-0.101	0.361
-343.391	734.522	0.034	-0.091
-342.377	-200.000	0.004	0.311
-341.362	201.251	0.189	-0.293
-340.348	-118.595	0.254	-0.045
-339.333	487.235	0.028	-0.063
-338.318	174.123	0.024	0.035
-337.304	228.873	-0.107	-0.175
-336.289	-198.072	0.170	0.001
-335.275	33.963	0.100	0.088
-334.260	-200.000	0.007	0.062
-333.245	209.896	0.094	0.148
-332.231	-156.539	0.050	-0.003
-331.216	486.943	0.074	-0.170
-330.202	-188.578	0.033	0.000
-329.187	43.248	0.102	-0.093
-328.172	-144.196	-0.060	-0.006
-327.158	11.388	0.104	-0.080
-326.143	-20.477	0.079	-0.049
-325.129	800.000	-0.052	0.189
-324.114	800.000	0.046	-0.188
-323.099	800.000	-0.112	0.430
-322.085	-89.859	0.164	0.048
-321.070	34.358	0.195	0.171
-320.056	-70.092	-0.439	-0.168
-319.041	-153.742	-0.511	0.035
-318.026	72.134	0.179	0.188
-317.012	800.000	-0.043	0.126
-315.997	24.799	-0.118	0.098
-314.983	-59.109	0.255	0.111
-313.968	456.139	0.110	0.246
-312.953	-34.331	0.202	0.111
-311.939	-200.000	0.007	-0.103
-310.924	-30.772	0.139	-0.079
-309.910	-159.668	-0.259	-0.014
-308.895	150.543	-0.179	-0.244
-307.880	800.000	-0.146	-0.615
-306.866	27.103	-0.319	-0.269
-305.851	-200.000	0.039	0.205
-304.837	234.837	0.156	-0.259
-303.822	8.446	0.146	-0.110
-302.807	-5.326	-0.335	-0.231
-301.793	-200.000	0.005	-0.107
-300.778	50.561	-0.253	-0.241
-299.764	-92.560	0.194	-0.055
-298.749	-153.749	0.204	-0.014
-297.735	-200.000	0.010	0.443
-296.720	800.000	0.072	-0.262
-295.705	-200.000	-0.058	0.330
-294.691	309.477	0.088	-0.166
-293.676	162.704	0.182	0.257
-292.662	116.087	0.329	0.404
-291.647	-11.875	0.209	0.138
-290.632	800.000	-0.103	0.341
-289.618	5.454	0.224	-0.166
-288.603	-127.020	0.009	0.001
-287.589	61.970	-0.057	0.057
-286.574	-84.852	0.361	0.114
-285.559	181.805	-0.058	-0.086
-284.545	-44.386	0.213	0.107
-283.530	800.000	-0.023	-0.071
-282.516	-200.000	0.005	-0.133
-281.501	22.992	0.140	-0.116
-280.486	800.000	0.027	-0.092
-279.472	800.000	0.097	-0.380
-278.457	800.000	0.077	-0.320
-277.443	-200.000	0.046	0.281
-276.428	111.539	0.205	0.248
-275.413	1.291	-0.213	0.154
-274.399	-200.000	0.014	0.088
-273.384	199.705	-0.055	0.084
-272.370	134.072	-0.179	-0.233
-271.355	-21.099	0.482	-0.296
-270.340	-114.888	0.190	-0.036
-269.326	-23.981	0.180	-0.108
-268.311	-61.544	0.180	-0.076
-267.297	800.000	-0.101	-0.437
-266.282	-200.000	0.015	-0.139
-265.267	-76.136	-0.080	0.028
-264.253	582.698	0.042	0.104
-263.238	-131.796	0.034	-0.004
-262.224	-131.842	-0.337	-0.044
-261.209	133.045	0.026	0.034
-260.195	-17.231	0.098	0.062
-259.180	66.798	0.168	-0.172
-258.165	168.505	-0.130	0.186
-257.151	-62.224	0.277	0.116
-256.136	-200.000	-0.030	-0.158
-255.122	-124.788	0.360	-0.056
-254.107	-200.000	0.042	-0.439
-253.092	-6.938	-0.122	-0.083
-252.078	-115.328	-0.300	0.057
-251.063	-8.166	-0.315	0.213
-250.049	274.443	0.089	0.159
-249.034	-35.472	-0.207	-0.113
-248.019	-70.213	0.194	-0.074
-247.005	86.295	0.142	-0.157
-245.990	441.230	0.151	0.330
-244.976	-116.479	-0.276	0.051
-243.961	4.156	0.141	0.103
-242.946	-160.724	0.452	-0.024
-241.932	435.225	-0.067	-0.146
-240.917	20.464	-0.135	0.109
-239.903	-39.570	-0.179	0.094
-238.888	-200.000	-0.018	0.158
-237.873	-38.588	-0.093	-0.049
-236.859	-49.069	0.321	0.154
-235.844	288.789	0.010	0.017
-234.830	-200.000	0.020	0.261
-233.815	-131.658	-0.433	0.057
-232.800	-98.046	0.243	-0.063
-231.786	422.281	-0.101	0.218
-230.771	-73.609	-0.305	0.111
-229.757	22.531	0.165	-0.136
-228.742	-159.433	0.039	0.002
-227.727	-124.820	-0.199	0.031
-226.713	106.897	0.146	0.174
-225.698	77.031	0.125	0.133
-224.684	-200.000	0.036	-0.190
-223.669	261.085	0.118	0.205
-222.655	-58.094	-0.089	-0.039
-221.640	358.719	-0.063	0.126
-220.625	76.048	0.043	-0.046
-219.611	-97.097	-0.197	-0.052
-218.596	714.050	-0.127	-0.336
-217.582	453.418	0.113	-0.250
-216.567	592.074	-0.068	0.168
-215.552	-200.000	-0.025	-0.171
-214.538	-158.531	-0.365	-0.021
-213.523	367.729	-0.105	-0.212
-212.509	5.906	-0.114	-0.085
-211.494	-15.311	-0.295	-0.189
-210.479	-91.718	-0.147	-0.042
-209.465	136.016	0.263	-0.344
-208.450	-200.000	-0.027	-0.237
-207.436	-104.955	0.206	0.047
-206.421	-131.190	0.248	0.033
-205.406	-96.527	0.304	-0.080
-204.392	-200.000	0.015	0.187
-203.377	-105.521	-0.199	0.045
-202.363	-200.000	-0.027	-0.164
-201.348	-200.000	0.003	-0.211
-200.333	30.159	0.245	-0.210
-199.319	-81.792	-0.192	0.063
-198.304	41.966	0.103	-0.094
-197.290	-90.896	0.149	0.043
-196.275	-200.000	0.087	-0.401
-195.260	191.837	-0.204	0.308
-194.246	-153.009	-0.479	0.034
-193.231	729.515	0.059	0.159
-192.217	-200.000	-0.024	0.333
-191.202	-4.569	0.167	-0.115
-190.187	-191.574	-0.056	0.001
-189.173	424.629	-0.155	0.335
-188.158	98.345	0.096	0.111
-187.144	-75.722	0.124	0.044
-186.129	211.706	0.095	0.150
-185.114	-180.365	-0.178	0.004
-184.100	-28.950	-0.145	-0.083
-183.085	800.000	0.037	0.152
-182.071	-40.157	0.132	-0.069
-181.056	16.749	-0.249	-0.197
-180.042	424.760	0.086	0.184
-179.027	4.615	0.189	0.139
-178.012	-5.851	-0.196	0.134
-176.998	148.012	-0.021	0.029
-175.983	720.458	-0.087	-0.231
-174.969	-57.414	0.369	-0.162
-173.954	800.000	-0.080	-0.325
-172.939	-54.059	-0.168	0.076
-171.925	800.000	-0.100	0.289
-170.910	437.987	0.132	0.288
-169.896	-200.000	0.035	-0.414
-168.881	131.154	0.262	-0.336
-167.866	244.363	0.041	-0.069
-166.852	172.160	-0.235	-0.338
-165.837	-126.271	0.090	0.013
-164.823	241.803	-0.010	-0.017
-163.808	0.092	0.381	0.271
-162.793	-71.745	-0.281	-0.105
-161.779	140.917	-0.145	-0.192
-160.764	215.776	0.028	-0.045
-159.750	800.000	0.096	0.339
-158.735	-200.000	0.029	0.387
-157.720	448.602	-0.114	0.251
-156.706	-200.000	-0.039	0.292
-155.691	360.422	0.038	0.077
-154.677	392.599	0.082	-0.170
-153.662	-138.841	-0.172	-0.019
-152.647	-61.690	-0.114	0.048
-151.633	-50.934	-0.036	-0.017
-150.618	-4.175	0.181	-0.125
-149.604	12.145	0.133	-0.103
-148.589	-200.000	-0.028	0.301
-147.574	-86.244	-0.046	-0.014
-146.560	-200.000	0.007	0.121
-145.545	-200.000	0.027	0.135
-144.531	-144.983	0.282	0.026
-143.516	-25.849	0.157	0.092
-142.502	-186.073	-0.405	0.006
-141.487	106.321	-0.132	-0.156
-140.472	800.000	-0.085	0.327
-139.458	-200.000	0.162	-0.000
-138.443	-185.077	-0.238	0.004
-137.429	290.273	0.083	-0.151
-136.414	-13.023	-0.020	0.013
-135.399	400.905	0.061	0.127
-134.385	-200.000	-0.025	0.254
-133.370	800.000	-0.092	0.355
-132.356	23.206	-0.107	-0.088
-131.341	-58.941	0.155	0.067
-130.326	800.000	0.073	0.243
-129.312	265.261	-0.032	-0.056
-128.297	111.596	0.101	0.121
-127.283	191.177	-0.167	0.251
-126.268	-98.795	-0.258	-0.065
-125.253	-94.548	0.142	0.039
-124.239	-103.690	0.166	-0.039
-123.224	-112.344	0.167	-0.033
-122.210	-148.749	0.381	0.031
-121.195	-108.175	-0.458	0.099
