DTS Sentinel unit serial number:	SN413079Multiplexer serial number:	ORYXHardware model number:	OX4-SRSoftware version number:	ORYX F/W v4.00 Oryx Data Collector v3.7.2.0data status	okinstallation	princeton_trtdifferential loss correction	single-endedforward channel	channel 1reverse channel	N/Adate	2019/09/12time	23:26:35forward acquisition time	60.00reverse acquisition time	0.00gamma	496.2192k internal	0.2327k external	0.2327temperature offset calibration	1.0151default loss term (dB/km)	0.3790temperature slope calibration	1.0000multiplexer offset coefficient	1.0000multiplexer slope coefficient	1.0000fibre end	0.00T internal ref (°C)	29.00T ext. ref 1 (°C)	3.75T ext. ref 2 (°C)	23.67length (m)	temperature (°C)	Stokes	anti-Stokes-747.200	448.409	0.178	0.394
-746.185	-46.421	0.217	-0.107
-745.171	290.343	-0.210	0.384
-744.156	-45.208	-0.307	0.154
-743.142	-73.586	0.223	0.082
-742.127	99.621	0.165	0.193
-741.112	197.623	-0.079	-0.122
-740.098	-200.000	0.004	0.154
-739.083	-200.000	-0.013	-0.296
-738.069	82.821	0.216	0.236
-737.054	569.811	-0.151	0.370
-736.039	-159.968	-0.478	-0.026
-735.025	254.198	0.103	-0.177
-734.010	59.995	0.167	-0.167
-732.996	-200.000	-0.048	-0.225
-731.981	749.256	-0.028	-0.075
-730.966	68.383	-0.217	0.224
-729.952	800.000	0.061	-0.233
-728.937	-153.807	-0.206	-0.014
-727.923	29.635	-0.096	-0.083
-726.908	800.000	0.050	0.149
-725.894	8.246	0.076	0.058
-724.879	-200.000	-0.054	-0.349
-723.864	-11.941	0.112	-0.074
-722.850	-164.664	-0.164	0.007
-721.835	69.625	-0.173	0.180
-720.821	66.417	-0.061	0.062
-719.806	-42.804	-0.380	-0.195
-718.791	-130.408	-0.073	-0.010
-717.777	-31.984	0.180	-0.101
-716.762	800.000	0.019	0.064
-715.748	-108.816	-0.168	-0.036
-714.733	-189.677	0.105	0.001
-713.718	-60.271	0.106	0.045
-712.704	-71.779	0.302	-0.113
-711.689	-200.000	0.023	0.128
-710.675	-200.000	-0.009	-0.247
-709.660	800.000	-0.114	0.486
-708.645	344.437	-0.139	-0.275
-707.631	490.819	0.067	-0.155
-706.616	-200.000	0.008	-0.073
-705.602	182.832	0.091	0.135
-704.587	65.890	-0.351	0.359
-703.572	-38.489	-0.139	0.074
-702.558	19.781	0.270	-0.219
-701.543	91.911	-0.048	-0.055
-700.529	160.338	-0.006	0.009
-699.514	-200.000	0.017	-0.171
-698.499	91.257	-0.170	-0.191
-697.485	-200.000	0.061	-0.349
-696.470	105.705	0.138	0.164
-695.456	-200.000	0.031	0.428
-694.441	496.576	-0.012	-0.028
-693.426	296.328	0.045	-0.084
-692.412	361.326	-0.045	0.091
-691.397	800.000	-0.035	0.152
-690.383	-200.000	0.011	-0.310
-689.368	800.000	0.045	-0.166
-688.354	-82.667	-0.123	0.040
-687.339	-111.316	0.114	0.023
-686.324	-159.708	-0.272	-0.015
-685.310	-100.566	-0.405	0.101
-684.295	-179.060	0.218	0.005
-683.281	-95.730	-0.306	-0.082
-682.266	-4.454	0.045	-0.031
-681.251	-14.057	-0.080	0.052
-680.237	800.000	0.150	0.437
-679.222	-57.988	0.170	0.075
-678.208	-79.853	-0.460	-0.155
-677.193	-200.000	-0.042	0.218
-676.178	230.123	0.104	-0.170
-675.164	547.714	0.036	-0.086
-674.149	33.857	0.129	-0.113
-673.135	-59.487	0.250	0.108
-672.120	-125.095	0.228	0.035
-671.105	752.545	0.059	-0.161
-670.091	263.560	-0.124	0.216
-669.076	780.949	0.031	0.086
-668.062	-24.567	-0.323	-0.193
-667.047	28.838	-0.119	-0.101
-666.032	-200.000	-0.013	0.087
-665.018	-101.524	0.380	-0.093
-664.003	-134.634	-0.350	-0.043
-662.989	-56.428	0.093	-0.041
-661.974	-61.387	-0.142	-0.060
-660.959	5.121	0.317	0.235
-659.945	-141.180	-0.121	-0.012
-658.930	-24.447	-0.134	0.080
-657.916	-96.527	0.268	0.071
-656.901	51.401	0.107	0.102
-655.886	-72.765	-0.078	0.029
-654.872	-59.446	-0.134	-0.058
-653.857	-69.702	0.250	-0.096
-652.843	532.099	0.044	-0.105
-651.828	154.986	0.234	-0.323
-650.814	-200.000	0.005	0.220
-649.799	148.368	-0.170	-0.231
-648.784	409.025	0.030	-0.064
-647.770	-200.000	-0.152	-0.000
-646.755	229.246	0.182	0.298
-645.741	-174.029	-0.182	0.005
-644.726	329.743	0.069	-0.133
-643.711	-96.257	-0.144	-0.038
-642.697	5.162	0.189	-0.140
-641.682	291.756	-0.222	-0.405
-640.668	760.145	0.106	0.289
-639.653	75.074	0.267	-0.283
-638.638	88.255	-0.179	0.199
-637.624	-151.241	0.249	-0.019
-636.609	-51.345	-0.091	-0.043
-635.595	-113.965	0.081	-0.016
-634.580	-200.000	0.017	-0.102
-633.565	205.041	0.150	-0.234
-632.551	-0.853	0.105	-0.074
-631.536	-130.992	0.253	0.034
-630.522	26.704	0.079	0.067
-629.507	-35.756	0.192	-0.104
-628.492	234.265	0.181	0.299
-627.478	-200.000	-0.006	0.058
-626.463	80.624	0.357	0.386
-625.449	-42.524	-0.184	-0.094
-624.434	-164.105	-0.168	-0.008
-623.419	162.172	-0.144	0.203
-622.405	80.013	-0.095	-0.102
-621.390	-56.067	-0.147	-0.066
-620.376	-34.552	-0.372	0.204
-619.361	-21.468	-0.196	0.120
-618.346	205.041	0.220	0.342
-617.332	-80.931	-0.245	0.081
-616.317	465.522	-0.077	-0.174
-615.303	-146.742	-0.365	0.032
-614.288	-72.080	0.077	0.029
-613.273	-44.193	-0.306	0.154
-612.259	800.000	-0.057	-0.179
-611.244	257.849	0.275	-0.475
-610.230	-103.840	-0.069	-0.016
-609.215	-57.827	0.137	-0.060
-608.201	800.000	-0.025	-0.076
-607.186	163.876	-0.092	-0.130
-606.171	-86.164	-0.066	0.020
-605.157	-200.000	-0.025	0.205
-604.142	800.000	0.044	-0.132
-603.128	-77.920	-0.319	-0.110
-602.113	361.852	-0.036	0.072
-601.098	-87.591	0.310	-0.094
-600.084	176.477	-0.182	-0.265
-599.069	50.154	-0.317	0.300
-598.055	-33.298	0.293	0.162
-597.040	800.000	-0.057	0.229
-596.025	721.191	-0.013	0.034
-595.011	169.773	-0.077	-0.110
-593.996	-176.965	-0.385	-0.010
-592.982	522.908	0.061	-0.143
-591.967	367.457	0.039	0.080
-590.952	800.000	-0.034	0.135
-589.938	259.296	-0.206	-0.357
-588.923	-132.372	-0.227	0.029
-587.909	41.455	-0.062	-0.056
-586.894	88.480	-0.194	-0.216
-585.879	-94.832	-0.277	0.075
-584.865	12.533	0.334	0.258
-583.850	-89.304	0.133	0.039
-582.836	119.276	0.098	-0.121
-581.821	23.505	-0.171	-0.141
-580.806	123.612	0.140	0.176
-579.792	800.000	0.092	0.340
-578.777	-200.000	0.016	0.196
-577.763	-200.000	-0.002	-0.174
-576.748	738.025	0.109	0.293
-575.733	800.000	-0.028	-0.123
-574.719	-200.000	-0.023	-0.123
-573.704	695.209	-0.102	0.268
-572.690	114.244	-0.121	-0.147
-571.675	120.388	-0.147	0.183
-570.661	-200.000	0.009	-0.098
-569.646	65.256	-0.326	-0.330
-568.631	81.877	-0.101	0.110
-567.617	-11.477	-0.240	0.158
-566.602	-119.061	0.079	-0.014
-565.588	-58.574	0.202	0.088
-564.573	88.167	0.090	-0.100
-563.558	800.000	-0.107	0.297
-562.544	800.000	0.099	-0.281
-561.529	-138.545	0.128	-0.014
-560.515	-29.473	-0.098	0.056
-559.500	-200.000	-0.036	0.314
-558.485	-200.000	0.007	-0.126
-557.471	-200.000	-0.002	-0.204
-556.456	-200.000	-0.043	-0.287
-555.442	800.000	-0.068	-0.190
-554.427	-129.806	0.087	-0.012
-553.412	7.350	-0.161	-0.120
-552.398	74.485	-0.219	0.231
-551.383	-72.699	-0.252	0.093
-550.369	181.562	-0.125	-0.184
-549.354	630.733	-0.026	-0.066
-548.339	77.492	-0.366	0.390
-547.325	84.218	-0.220	-0.240
-546.310	8.948	-0.170	0.128
-545.296	9.573	0.239	-0.181
-544.281	666.590	-0.127	0.329
-543.266	-103.921	0.121	0.028
-542.252	201.752	-0.112	0.173
-541.237	329.139	-0.142	0.274
-540.223	-200.000	-0.023	0.152
-539.208	307.388	-0.102	-0.190
-538.193	800.000	-0.144	-0.439
-537.179	-200.000	-0.004	-0.260
-536.164	-154.782	0.249	0.016
-535.150	343.877	0.107	-0.209
-534.135	-200.000	-0.012	0.276
-533.121	6.472	0.385	-0.286
-532.106	-100.369	0.179	-0.044
-531.091	93.480	-0.208	0.236
-530.077	31.085	-0.229	0.196
-529.062	91.040	0.311	-0.348
-528.048	29.174	-0.049	-0.041
-527.033	-41.197	-0.154	0.079
-526.018	-82.310	0.340	0.111
-525.004	-121.980	0.140	0.023
-523.989	-61.233	0.285	-0.120
-522.975	-200.000	0.022	0.323
-521.960	95.993	0.139	-0.158
-520.945	-18.298	-0.043	-0.027
-519.931	800.000	-0.051	-0.148
-518.916	-129.806	-0.090	-0.012
-517.902	-200.000	0.008	0.330
-516.887	-151.287	-0.391	-0.029
-515.872	-87.019	0.118	0.036
-514.858	370.497	-0.087	0.176
-513.843	-200.000	-0.008	-0.361
-512.829	-200.000	-0.011	0.113
-511.814	-73.163	-0.250	-0.092
-510.799	110.521	-0.096	0.115
-509.785	800.000	-0.162	0.519
-508.770	87.582	0.123	0.136
-507.756	-142.010	-0.222	-0.022
-506.741	-63.096	-0.296	-0.122
-505.726	6.387	0.160	0.118
-504.712	-158.602	0.148	0.009
-503.697	183.541	0.137	0.202
-502.683	-130.768	-0.096	0.013
-501.668	68.630	0.094	-0.096
-500.653	471.044	0.041	0.092
-499.639	-162.237	-0.101	-0.005
-498.624	-102.869	-0.317	-0.075
-497.610	-51.870	-0.095	0.044
-496.595	160.031	-0.133	0.185
-495.581	-26.620	-0.326	-0.190
-494.566	437.683	-0.082	-0.179
-493.551	113.715	-0.112	-0.135
-492.537	-2.146	0.183	-0.128
-491.522	-22.584	0.195	0.118
-490.508	92.493	-0.092	0.104
-489.493	101.641	0.208	-0.242
-488.478	378.669	-0.191	0.389
-487.464	-14.192	-0.102	0.065
-486.449	-200.000	-0.010	0.102
-485.435	0.858	0.192	0.137
-484.420	-200.000	-0.014	-0.138
-483.405	261.625	-0.298	0.515
-482.391	-121.134	0.103	-0.017
-481.376	179.012	0.166	-0.242
-480.362	-200.000	-0.005	-0.042
-479.347	800.000	0.026	0.111
-478.332	86.470	0.340	-0.374
-477.318	-103.831	-0.404	-0.094
-476.303	107.829	0.151	-0.179
-475.289	800.000	-0.113	-0.425
-474.274	-200.000	0.029	0.395
-473.259	-64.981	0.092	0.037
-472.245	-112.999	0.247	0.049
-471.230	327.192	-0.020	0.039
-470.216	-27.166	0.167	0.097
-469.201	-67.513	0.291	0.114
-468.186	800.000	-0.047	-0.138
-467.172	-59.581	-0.109	0.047
-466.157	161.667	-0.108	0.151
-465.143	-7.399	0.338	-0.228
-464.128	-3.144	0.396	0.276
-463.113	-200.000	-0.018	0.176
-462.099	-58.452	0.081	-0.035
-461.084	530.861	-0.037	0.087
-460.070	430.488	-0.126	0.273
-459.055	592.126	0.123	0.303
-458.040	238.744	-0.154	0.256
-457.026	-19.756	0.353	0.218
-456.011	745.638	-0.082	0.220
-454.997	579.059	0.061	-0.148
-453.982	-76.515	0.140	0.049
-452.968	800.000	-0.123	-0.378
-451.953	800.000	0.035	-0.125
-450.938	29.974	0.097	-0.083
-449.924	208.045	0.062	-0.096
-448.909	800.000	-0.089	-0.280
-447.895	-200.000	0.104	0.579
-446.880	-189.917	0.208	-0.002
-445.865	-193.241	-0.280	-0.002
-444.851	126.377	0.137	0.173
-443.836	-35.692	0.290	-0.156
-442.822	-125.208	-0.118	-0.018
-441.807	392.662	0.073	-0.152
-440.792	-105.153	-0.074	-0.017
-439.778	-129.179	-0.157	0.022
-438.763	190.762	0.142	-0.213
-437.749	-200.000	0.010	-0.163
-436.734	313.921	-0.153	-0.286
-435.719	84.183	0.319	0.347
-434.705	-73.705	0.034	-0.012
-433.690	-133.976	0.343	0.042
-432.676	-70.048	-0.188	-0.071
-431.661	75.461	-0.108	-0.113
-430.646	110.080	-0.241	-0.288
-429.632	-96.190	0.141	0.037
-428.617	28.432	-0.148	0.124
-427.603	-33.936	0.093	0.051
-426.588	-131.831	0.339	-0.044
-425.573	-84.909	0.199	-0.062
-424.559	556.946	-0.131	0.314
-423.544	575.179	0.056	-0.136
-422.530	6.707	-0.125	-0.093
-421.515	-200.000	0.008	-0.433
-420.500	65.375	-0.238	-0.239
-419.486	179.577	-0.063	-0.092
-418.471	68.492	0.017	-0.018
-417.457	24.175	-0.149	0.122
-416.442	-200.000	0.041	-0.429
-415.428	145.149	-0.026	-0.035
-414.413	-4.862	0.308	0.211
-413.398	35.881	-0.242	-0.212
-412.384	-200.000	-0.019	-0.218
-411.369	8.673	0.188	-0.141
-410.355	182.223	-0.073	0.108
-409.340	21.529	0.053	-0.043
-408.325	-200.000	0.003	-0.200
-407.311	-148.252	-0.468	-0.038
-406.296	635.230	-0.047	0.119
-405.282	407.393	-0.008	0.017
-404.267	-178.682	0.099	0.002
-403.252	800.000	-0.032	-0.140
-402.238	180.794	-0.187	-0.274
-401.223	-8.098	0.271	-0.182
-400.209	44.790	-0.315	0.288
-399.194	800.000	0.095	0.303
-398.179	377.933	-0.135	-0.275
-397.165	-197.144	-0.223	-0.001
-396.150	-200.000	0.043	0.210
-395.136	595.342	0.159	0.390
-394.121	638.662	-0.080	-0.203
-393.106	134.092	-0.088	-0.113
-392.092	-22.055	0.312	0.189
-391.077	-200.000	-0.006	0.123
-390.063	54.404	-0.152	0.145
-389.048	0.521	-0.116	-0.082
-388.033	800.000	0.091	-0.351
-387.019	-120.107	0.190	0.032
-386.004	511.003	-0.034	-0.078
-384.990	77.969	0.154	-0.163
-383.975	-43.631	-0.118	-0.059
-382.960	-171.596	-0.052	0.002
-381.946	105.837	-0.165	0.194
-380.931	-27.852	-0.178	0.103
-379.917	800.000	-0.097	0.289
-378.902	-149.334	0.329	-0.026
-377.888	-105.469	0.206	-0.046
-376.873	64.207	-0.123	-0.123
-375.858	-200.000	0.041	-0.293
-374.844	-77.782	0.235	0.081
-373.829	327.372	-0.085	-0.162
-372.815	800.000	-0.041	-0.141
-371.800	800.000	-0.055	0.168
-370.785	111.277	0.134	0.160
-369.771	-53.527	-0.039	-0.018
-368.756	-50.309	0.337	-0.158
-367.742	-200.000	0.022	0.196
-366.727	-200.000	0.001	0.110
-365.712	800.000	0.013	-0.040
-364.698	-172.184	0.346	0.011
-363.683	-28.172	0.072	-0.042
-362.669	-200.000	-0.052	0.381
-361.654	32.662	0.212	-0.182
-360.639	108.103	-0.135	-0.160
-359.625	444.385	0.072	0.158
-358.610	143.315	-0.169	-0.223
-357.596	-10.317	-0.195	-0.128
-356.581	800.000	0.030	-0.091
-355.566	-200.000	0.183	-0.000
-354.552	251.626	-0.174	-0.294
-353.537	20.762	0.166	-0.134
-352.523	-200.000	0.029	0.194
-351.508	-200.000	-0.035	-0.290
-350.493	40.814	0.149	0.134
-349.479	11.823	0.250	0.191
-348.464	-200.000	0.011	-0.050
-347.450	-84.589	-0.277	-0.087
-346.435	-117.144	0.070	-0.013
-345.420	45.675	-0.487	0.447
-344.406	-4.675	-0.118	0.081
-343.391	295.611	0.116	-0.211
-342.377	-70.098	-0.301	-0.114
-341.362	800.000	0.044	0.126
-340.348	-93.825	0.404	-0.110
-339.333	-99.111	-0.145	-0.036
-338.318	-199.789	-0.194	-0.001
-337.304	131.338	0.168	-0.214
-336.289	-200.000	-0.020	-0.159
-335.275	-68.530	0.113	0.043
-334.260	17.482	-0.153	-0.121
-333.245	136.851	0.276	0.358
-332.231	242.907	-0.101	-0.168
-331.216	298.715	0.019	-0.036
-330.202	800.000	0.006	-0.017
-329.187	-39.030	0.153	-0.080
-328.172	800.000	-0.056	-0.194
-327.158	-81.817	0.221	0.072
-326.143	230.878	0.100	0.163
-325.129	-67.083	0.072	-0.028
-324.114	30.146	-0.134	0.113
-323.099	776.563	-0.027	-0.073
-322.085	-48.269	0.152	0.073
-321.070	-150.163	0.303	0.023
-320.056	-131.484	-0.172	0.022
-319.041	261.273	0.036	-0.062
-318.026	8.065	0.414	-0.308
-317.012	800.000	0.029	0.112
-315.997	-200.000	0.010	-0.136
-314.983	119.480	-0.023	0.029
-313.968	-116.242	-0.078	-0.014
-312.953	11.367	-0.040	0.031
-311.939	171.799	0.047	-0.067
-310.924	678.436	-0.085	0.219
-309.910	-200.000	0.010	-0.175
-308.895	36.173	-0.252	-0.220
-307.880	-200.000	-0.028	0.145
-306.866	515.115	-0.142	0.329
-305.851	74.253	-0.044	0.045
-304.837	-200.000	-0.049	0.281
-303.822	52.390	-0.242	-0.229
-302.807	38.099	0.059	0.052
-301.793	-17.703	-0.118	-0.074
-300.778	-200.000	0.001	-0.120
-299.764	340.446	-0.059	-0.113
-298.749	40.668	-0.216	-0.193
-297.735	-96.964	0.488	-0.127
-296.720	49.237	-0.096	0.089
-295.705	127.821	-0.185	-0.233
-294.691	714.173	0.074	-0.195
-293.676	94.599	-0.112	-0.126
-292.662	800.000	0.006	-0.026
-291.647	186.697	-0.084	0.124
-290.632	-200.000	0.051	0.291
-289.618	37.757	0.202	0.178
-288.603	-85.840	-0.227	0.070
-287.589	-85.177	-0.091	-0.028
-286.574	90.769	-0.101	0.112
-285.559	800.000	0.072	0.256
-284.545	35.507	0.192	0.167
-283.530	501.249	0.066	0.151
-282.516	-61.171	0.457	0.191
-281.501	33.659	-0.121	0.104
-280.486	69.056	0.280	0.285
-279.472	467.122	-0.059	-0.130
-278.457	142.333	-0.091	0.119
-277.443	-188.048	-0.180	0.002
-276.428	-100.215	0.255	-0.063
-275.413	493.732	0.096	-0.217
-274.399	379.165	-0.198	-0.402
-273.384	-35.772	0.305	-0.164
-272.370	-59.200	0.126	0.054
-271.355	-200.000	-0.004	0.100
-270.340	623.991	-0.138	0.345
-269.326	-174.292	-0.183	0.005
-268.311	-89.505	0.200	0.058
-267.297	-200.000	-0.022	-0.194
-266.282	239.132	-0.135	0.222
-265.267	753.101	-0.109	0.291
-264.253	-69.380	0.113	0.043
-263.238	-33.424	0.279	-0.152
-262.224	-60.670	-0.059	0.025
-261.209	-110.499	-0.247	-0.051
-260.195	280.280	0.017	-0.031
-259.180	-200.000	0.019	0.165
-258.165	74.425	-0.111	0.115
-257.151	800.000	-0.035	-0.121
-256.136	-127.395	-0.399	-0.057
-255.122	26.539	0.235	0.194
-254.107	-200.000	-0.028	0.163
-253.092	43.967	0.101	0.092
-252.078	800.000	-0.059	0.236
-251.063	-145.520	0.163	0.014
-250.049	128.093	0.227	-0.286
-249.034	208.611	-0.118	-0.182
-248.019	70.155	-0.090	0.092
-247.005	-153.183	-0.219	0.015
-245.990	-200.000	-0.020	-0.135
-244.976	-27.968	-0.231	-0.132
-243.961	35.062	-0.145	-0.125
-242.946	116.033	0.164	-0.198
-241.932	164.261	0.215	-0.299
-240.917	-31.393	0.147	0.082
-239.903	259.225	0.093	0.159
-238.888	89.267	0.033	0.037
-237.873	-28.706	-0.079	0.045
-236.859	44.970	0.092	-0.084
-235.844	-82.581	-0.321	-0.103
-234.830	25.916	0.114	-0.094
-233.815	586.350	-0.002	0.004
-232.800	755.507	-0.019	-0.052
-231.786	40.960	0.130	-0.116
-230.771	-200.000	-0.034	0.185
-229.757	-60.888	0.249	0.104
-228.742	66.224	-0.189	0.190
-227.727	-131.803	-0.265	-0.034
-226.713	4.530	0.233	-0.169
-225.698	-200.000	-0.015	0.220
-224.684	800.000	0.045	0.130
-223.669	-200.000	-0.001	0.059
-222.655	555.561	0.097	-0.231
-221.640	-9.286	0.224	-0.148
-220.625	585.739	-0.128	-0.312
-219.611	-97.080	0.095	0.025
-218.596	-200.000	-0.001	0.197
-217.582	85.277	0.315	0.341
-216.567	-133.128	0.323	0.040
-215.552	-180.622	0.145	-0.003
-214.538	323.075	-0.062	-0.117
-213.523	40.064	0.096	0.085
-212.509	99.543	-0.140	0.159
-211.494	326.609	0.118	0.223
-210.479	-99.999	-0.161	-0.040
-209.465	800.000	-0.048	0.172
-208.450	-10.019	-0.139	0.091
-207.436	-123.850	-0.119	0.019
-206.421	104.788	0.121	0.141
-205.406	228.334	0.060	-0.097
-204.392	284.405	-0.096	-0.171
-203.377	800.000	-0.090	-0.283
-202.363	380.369	-0.129	0.260
-201.348	777.324	0.084	0.228
-200.333	-200.000	0.003	0.033
-199.319	26.946	0.207	-0.171
-198.304	-67.085	0.283	-0.110
-197.290	-200.000	-0.013	-0.311
-196.275	800.000	-0.071	0.243
-195.260	24.017	0.160	0.131
-194.246	-91.782	0.199	0.056
-193.231	-200.000	-0.007	-0.147
-192.217	223.548	-0.177	0.281
-191.202	-17.291	-0.119	0.074
-190.187	44.579	-0.138	-0.125
-189.173	467.130	0.167	0.369
-188.158	49.610	-0.163	0.151
-187.144	88.685	-0.100	-0.110
-186.129	-200.000	-0.016	-0.192
-185.114	-50.605	0.183	0.085
-184.100	88.214	-0.135	0.148
-183.085	-49.660	-0.178	-0.083
-182.071	-12.881	-0.101	-0.065
-181.056	-0.234	0.228	-0.160
-180.042	-72.065	-0.157	0.058
-179.027	-115.587	0.178	0.033
-178.012	-200.000	-0.060	-0.289
-176.998	-27.305	-0.257	0.148
-175.983	184.831	0.087	-0.127
-174.969	-35.239	-0.089	-0.048
-173.954	-20.516	0.183	0.111
-172.939	-135.006	0.150	0.018
-171.925	-200.000	0.026	0.154
-170.910	662.917	0.134	-0.340
-169.896	46.219	0.217	-0.198
-168.881	-40.190	0.339	-0.174
-167.866	-200.000	0.023	-0.104
-166.852	-200.000	0.032	-0.225
-165.837	104.539	-0.163	0.189
-164.823	-200.000	0.033	0.402
-163.808	195.719	0.276	0.413
-162.793	-48.387	-0.188	-0.089
-161.779	-51.777	0.348	0.160
-160.764	13.021	-0.108	0.083
-159.750	544.994	0.055	-0.129
-158.735	-67.377	0.223	0.087
-157.720	7.328	-0.276	-0.203
-156.706	-166.560	-0.279	0.011
-155.691	660.161	-0.075	-0.191
-154.677	-16.637	0.293	-0.183
-153.662	-113.000	-0.103	0.020
-152.647	13.198	-0.093	-0.071
-151.633	-200.000	0.005	-0.083
-150.618	-158.950	0.219	-0.012
-149.604	-123.634	0.206	-0.032
-148.589	237.271	-0.058	0.095
-147.574	-7.102	0.110	-0.073
-146.560	-161.087	-0.159	0.008
-145.545	-23.706	-0.225	0.133
-144.531	22.877	-0.206	0.167
-143.516	-94.909	-0.006	-0.002
-142.502	-2.173	0.116	-0.080
-141.487	-78.408	-0.230	-0.078
-140.472	-39.876	-0.142	-0.073
-139.458	505.721	-0.037	0.084
-138.443	314.481	0.144	0.267
-137.429	-122.677	0.213	0.034
-136.414	-200.000	-0.058	0.540
-135.399	-106.532	-0.255	-0.056
-134.385	27.446	0.209	-0.173
-133.370	-63.770	0.288	-0.116
-132.356	419.466	0.096	-0.202
-131.341	434.325	0.123	-0.262
-130.326	50.105	0.049	-0.046
-129.312	-89.754	-0.168	-0.048
-128.297	-87.460	-0.212	0.063
-127.283	10.283	0.125	-0.093
-126.268	507.631	0.039	0.089
-125.253	-99.681	-0.253	-0.063
-124.239	48.915	0.116	-0.107
-123.224	458.505	-0.114	0.250
-122.210	1.388	-0.210	0.149
-121.195	-141.638	0.350	0.035
