DTS Sentinel unit serial number:	SN413079Multiplexer serial number:	ORYXHardware model number:	OX4-SRSoftware version number:	ORYX F/W v4.00 Oryx Data Collector v3.7.2.0data status	okinstallation	princeton_trtdifferential loss correction	single-endedforward channel	channel 1reverse channel	N/Adate	2019/09/18time	12:30:35forward acquisition time	60.00reverse acquisition time	0.00gamma	496.2192k internal	0.2320k external	0.2320temperature offset calibration	0.9982default loss term (dB/km)	0.3790temperature slope calibration	1.0000multiplexer offset coefficient	1.0000multiplexer slope coefficient	1.0000fibre end	0.00T internal ref (°C)	32.20T ext. ref 1 (°C)	0.52T ext. ref 2 (°C)	29.66length (m)	temperature (°C)	Stokes	anti-Stokes-747.200	-84.511	0.189	-0.060
-746.185	152.023	-0.292	0.402
-745.171	-92.877	-0.221	0.062
-744.156	-64.121	-0.200	-0.082
-743.142	26.327	-0.236	0.199
-742.127	49.066	0.138	0.131
-741.112	-137.784	0.207	0.023
-740.098	147.850	-0.043	0.059
-739.083	-200.000	0.028	-0.206
-738.069	-58.982	-0.231	-0.101
-737.054	68.413	0.218	0.226
-736.039	-200.000	-0.056	0.332
-735.025	-105.825	0.341	-0.078
-734.010	-33.111	-0.213	0.119
-732.996	-23.621	0.269	-0.163
-731.981	-26.112	-0.258	0.153
-730.966	-120.685	-0.331	0.057
-729.952	168.190	-0.137	-0.197
-728.937	800.000	-0.016	-0.063
-727.923	708.693	-0.106	-0.283
-726.908	400.098	-0.136	-0.289
-725.894	800.000	-0.043	-0.124
-724.879	-176.509	-0.283	-0.007
-723.864	-68.778	0.127	-0.050
-722.850	-97.921	-0.198	0.052
-721.835	-200.000	0.018	0.104
-720.821	-200.000	-0.006	-0.098
-719.806	193.824	-0.174	-0.266
-718.791	241.051	-0.090	-0.152
-717.777	-10.394	-0.191	0.128
-716.762	-35.289	-0.205	0.113
-715.748	-200.000	0.020	-0.435
-714.733	800.000	-0.083	-0.346
-713.718	-85.622	0.261	0.082
-712.704	-32.999	-0.116	0.065
-711.689	226.524	-0.122	0.199
-710.675	-120.912	0.266	0.045
-709.660	-126.270	-0.077	0.012
-708.645	-30.646	0.455	-0.260
-707.631	291.847	0.076	-0.140
-706.616	-113.869	0.201	-0.039
-705.602	-200.000	0.007	-0.212
-704.587	-200.000	0.100	-0.616
-703.572	76.265	-0.082	-0.088
-702.558	48.905	-0.133	0.126
-701.543	-150.586	-0.178	-0.014
-700.529	-52.573	0.145	0.067
-699.514	102.614	-0.133	0.157
-698.499	15.379	-0.061	-0.048
-697.485	-61.306	0.125	-0.053
-696.470	-116.595	0.270	0.050
-695.456	-200.000	0.033	-0.393
-694.441	-200.000	0.003	-0.416
-693.426	789.450	0.093	-0.259
-692.412	85.491	0.148	-0.164
-691.397	-145.373	0.151	-0.014
-690.383	422.957	-0.157	-0.340
-689.368	544.240	-0.131	0.316
-688.354	-178.305	-0.200	-0.005
-687.339	112.713	-0.324	0.396
-686.324	-27.603	0.195	-0.114
-685.310	365.292	0.094	0.191
-684.295	-98.212	-0.072	-0.019
-683.281	620.413	0.031	-0.078
-682.266	34.370	0.062	0.054
-681.251	100.140	0.141	-0.165
-680.237	-4.727	0.321	0.223
-679.222	80.699	0.074	-0.080
-678.208	-60.613	-0.124	-0.053
-677.193	22.059	-0.007	0.006
-676.178	-65.220	0.058	0.024
-675.164	-200.000	-0.006	-0.126
-674.149	223.244	0.125	0.203
-673.135	162.224	-0.151	-0.213
-672.120	-117.095	-0.102	-0.019
-671.105	78.727	0.196	0.211
-670.091	-142.258	0.306	0.030
-669.076	69.575	0.051	-0.053
-668.062	-56.409	0.294	-0.132
-667.047	-135.604	-0.039	0.005
-666.032	800.000	0.061	-0.184
-665.018	187.486	-0.126	0.189
-664.003	137.264	-0.082	-0.108
-662.989	-124.971	0.412	0.064
-661.974	-90.056	0.367	0.108
-660.959	329.601	0.135	0.263
-659.945	32.400	-0.224	-0.195
-658.930	-43.269	0.333	0.170
-657.916	136.008	0.180	0.236
-656.901	75.452	-0.183	0.195
-655.886	-35.970	-0.192	-0.104
-654.872	800.000	-0.019	-0.060
-653.857	137.450	0.124	0.164
-652.843	160.658	-0.108	0.152
-651.828	41.384	-0.135	-0.123
-650.814	-200.000	-0.011	-0.259
-649.799	-150.567	0.308	-0.024
-648.784	-38.812	0.161	-0.085
-647.770	-107.420	-0.280	0.062
-646.755	401.312	-0.239	-0.505
-645.741	280.269	-0.257	-0.463
-644.726	178.162	-0.067	-0.099
-643.711	-12.350	0.096	0.063
-642.697	-103.129	0.315	-0.075
-641.682	-35.936	0.262	-0.143
-640.668	-77.066	-0.198	-0.070
-639.653	800.000	-0.055	-0.220
-638.638	60.614	-0.161	0.161
-637.624	-200.000	-0.031	0.183
-636.609	106.917	-0.150	-0.180
-635.595	102.038	0.103	-0.121
-634.580	-200.000	-0.029	-0.311
-633.565	232.417	-0.085	-0.141
-632.551	-50.510	-0.312	-0.148
-631.536	-200.000	0.004	-0.184
-630.522	-200.000	-0.057	-0.388
-629.507	800.000	0.031	-0.128
-628.492	-200.000	0.080	-0.387
-627.478	-147.335	0.065	0.006
-626.463	-77.819	-0.185	0.064
-625.449	-200.000	0.019	-0.091
-624.434	-76.119	-0.235	0.084
-623.419	-156.203	0.251	0.016
-622.405	-200.000	0.030	-0.138
-621.390	-158.210	-0.311	0.018
-620.376	-41.497	-0.550	-0.285
-619.361	-46.039	-0.333	0.165
-618.346	-41.469	-0.257	-0.133
-617.332	247.101	-0.115	0.195
-616.317	-200.000	-0.217	0.000
-615.303	19.947	0.114	0.093
-614.288	14.546	-0.133	-0.104
-613.273	92.982	-0.040	-0.045
-612.259	110.680	-0.034	0.041
-611.244	62.215	-0.116	0.117
-610.230	800.000	0.017	0.062
-609.215	680.518	-0.068	-0.178
-608.201	176.220	-0.086	-0.125
-607.186	725.146	-0.138	-0.370
-606.171	10.251	-0.216	0.166
-605.157	-67.280	-0.108	-0.043
-604.142	-139.868	0.087	0.009
-603.128	-200.000	-0.006	0.287
-602.113	69.083	-0.235	-0.243
-601.098	800.000	-0.032	-0.138
-600.084	144.925	0.207	0.278
-599.069	-149.505	0.194	0.015
-598.055	-68.051	0.127	0.050
-597.040	339.234	0.082	0.161
-596.025	-66.849	0.334	-0.133
-595.011	395.398	0.178	0.373
-593.996	163.800	0.144	0.204
-592.982	800.000	0.130	0.507
-591.967	37.420	-0.113	-0.101
-590.952	-30.080	-0.232	-0.132
-589.938	-69.551	0.534	0.206
-588.923	-200.000	-0.035	-0.294
-587.909	-78.388	0.236	-0.081
-586.894	-58.986	-0.328	-0.142
-585.879	800.000	0.054	0.227
-584.865	-69.075	-0.450	0.174
-583.850	229.894	0.039	-0.064
-582.836	104.400	-0.079	0.093
-581.821	-200.000	0.046	-0.263
-580.806	-111.234	0.124	-0.026
-579.792	-200.000	-0.037	0.284
-578.777	198.766	0.182	0.279
-577.763	-200.000	0.036	-0.372
-576.748	-200.000	0.003	-0.140
-575.733	103.576	-0.176	0.208
-574.719	-117.181	-0.125	-0.023
-573.704	-200.000	0.057	0.377
-572.690	28.760	0.228	0.194
-571.675	-90.029	0.392	-0.115
-570.661	800.000	0.027	0.082
-569.646	322.013	-0.053	0.101
-568.631	800.000	-0.049	0.167
-567.617	-35.262	-0.178	-0.097
-566.602	-57.249	0.232	0.102
-565.588	13.843	-0.090	0.070
-564.573	2.175	-0.270	-0.196
-563.558	-111.278	-0.047	0.010
-562.544	135.945	-0.235	-0.308
-561.529	-91.967	-0.211	0.060
-560.515	-200.000	-0.010	0.180
-559.500	184.358	0.177	-0.263
-558.485	55.290	-0.066	0.064
-557.471	341.203	0.003	-0.006
-556.456	-6.551	-0.216	0.148
-555.442	-200.000	-0.046	-0.255
-554.427	800.000	0.067	-0.198
-553.412	28.571	0.063	0.053
-552.398	-22.763	-0.165	-0.100
-551.383	70.674	-0.102	0.106
-550.369	249.668	-0.120	0.205
-549.354	800.000	0.023	0.092
-548.339	34.084	-0.056	0.049
-547.325	-157.354	0.391	0.024
-546.310	-93.164	0.117	-0.033
-545.296	401.245	0.114	-0.241
-544.281	161.692	-0.042	-0.059
-543.266	12.357	0.452	0.350
-542.252	-200.000	-0.004	-0.156
-541.237	-34.446	-0.222	0.122
-540.223	269.641	0.040	0.071
-539.208	157.693	0.161	-0.224
-538.193	121.466	-0.031	0.039
-537.179	641.645	-0.077	-0.196
-536.164	-200.000	0.011	-0.299
-535.150	-6.716	-0.087	0.059
-534.135	-58.154	0.149	0.065
-533.121	-157.509	0.080	0.005
-532.106	567.011	-0.105	-0.256
-531.091	-200.000	0.000	-0.062
-530.077	-200.000	0.012	-0.357
-529.062	407.007	0.070	-0.149
-528.048	112.234	0.212	0.257
-527.033	-49.764	0.022	0.010
-526.018	800.000	-0.107	-0.329
-525.004	-200.000	0.037	0.266
-523.989	366.326	0.081	-0.164
-522.975	373.595	-0.063	0.128
-521.960	-46.402	-0.243	0.120
-520.945	55.164	-0.270	0.262
-519.931	10.191	-0.113	-0.086
-518.916	-200.000	-0.083	-0.427
-517.902	148.340	0.172	0.232
-516.887	159.512	-0.088	-0.122
-515.872	-178.519	-0.155	0.004
-514.858	-33.157	-0.018	0.010
-513.843	-35.346	0.140	-0.076
-512.829	777.702	-0.028	0.078
-511.814	-200.000	-0.004	-0.165
-510.799	19.949	-0.233	0.188
-509.785	-200.000	-0.012	0.056
-508.770	-8.022	-0.270	0.183
-507.756	586.463	0.125	0.307
-506.741	112.207	-0.296	0.359
-505.726	800.000	-0.041	-0.116
-504.712	-200.000	-0.011	-0.049
-503.697	-149.025	-0.583	0.047
-502.683	800.000	-0.041	-0.117
-501.668	-200.000	0.007	0.298
-500.653	77.637	0.112	0.120
-499.639	2.009	0.158	0.114
-498.624	-42.816	0.186	-0.095
-497.610	204.421	-0.150	0.234
-496.595	-174.719	-0.244	0.007
-495.581	-99.584	-0.183	-0.046
-494.566	-31.534	0.125	-0.070
-493.551	800.000	-0.041	-0.134
-492.537	698.575	-0.055	-0.145
-491.522	649.812	0.070	-0.179
-490.508	11.722	-0.250	0.192
-489.493	800.000	-0.114	-0.330
-488.478	59.293	-0.027	-0.027
-487.464	129.823	-0.108	-0.139
-486.449	266.539	0.154	-0.270
-485.435	-200.000	-0.023	-0.211
-484.420	57.424	0.125	-0.122
-483.405	-200.000	0.001	0.205
-482.391	65.616	-0.266	0.269
-481.376	50.227	0.115	-0.108
-480.362	-80.227	0.114	0.038
-479.347	-63.943	-0.121	-0.049
-478.332	163.777	-0.109	0.153
-477.318	83.338	-0.233	-0.254
-476.303	349.108	0.052	0.102
-475.289	-45.448	0.214	0.106
-474.274	-93.877	0.298	0.082
-473.259	-47.238	-0.302	0.147
-472.245	222.426	-0.037	-0.059
-471.230	238.408	-0.092	-0.153
-470.216	389.711	0.154	0.319
-469.201	-30.587	0.261	-0.148
-468.186	-200.000	-0.025	-0.152
-467.172	-200.000	-0.001	0.168
-466.157	800.000	0.042	0.130
-465.143	800.000	0.062	0.193
-464.128	22.026	0.218	0.178
-463.113	800.000	0.042	0.132
-462.099	-200.000	-0.022	-0.264
-461.084	-183.515	-0.122	0.002
-460.070	-72.923	0.207	0.076
-459.055	-1.822	0.058	-0.041
-458.040	-42.157	-0.280	-0.143
-457.026	-172.916	0.152	-0.005
-456.011	45.162	-0.151	-0.139
-454.997	95.006	0.023	0.026
-453.982	800.000	-0.060	-0.210
-452.968	-140.589	-0.285	-0.030
-451.953	-21.719	-0.504	-0.307
-450.938	348.681	-0.076	0.150
-449.924	112.631	-0.124	-0.150
-448.909	-200.000	0.046	-0.284
-447.895	-29.721	0.175	0.100
-446.880	-180.474	-0.314	-0.006
-445.865	-11.102	0.271	0.179
-444.851	128.523	0.129	-0.164
-443.836	-119.465	0.115	0.020
-442.822	145.703	-0.061	-0.082
-441.807	403.069	0.120	0.251
-440.792	-84.586	0.311	0.098
-439.778	70.586	0.111	-0.115
-438.763	-200.000	-0.045	-0.444
-437.749	325.943	0.068	-0.129
-436.734	188.335	0.037	0.055
-435.719	111.296	-0.175	0.211
-434.705	111.760	-0.058	0.070
-433.690	-200.000	0.030	0.157
-432.676	221.748	-0.071	0.113
-431.661	71.383	0.166	-0.172
-430.646	800.000	-0.072	0.222
-429.632	800.000	0.093	-0.257
-428.617	-50.534	-0.241	0.113
-427.603	245.542	-0.035	-0.059
-426.588	372.525	0.066	-0.134
-425.573	-41.814	0.094	-0.048
-424.559	417.551	0.091	0.194
-423.544	-200.000	0.011	-0.285
-422.530	-200.000	0.056	0.309
-421.515	-116.579	-0.185	0.034
-420.500	-200.000	0.002	0.031
-419.486	-200.000	-0.000	0.110
-418.471	162.306	-0.071	0.099
-417.457	-200.000	0.031	0.249
-416.442	17.830	-0.122	0.097
-415.428	93.677	-0.199	-0.225
-414.413	301.836	-0.120	-0.221
-413.398	-200.000	0.018	0.103
-412.384	-19.055	0.188	-0.117
-411.369	800.000	-0.014	0.050
-410.355	-200.000	0.004	0.224
-409.340	296.483	0.051	0.094
-408.325	-200.000	0.036	0.286
-407.311	-140.943	0.028	-0.003
-406.296	131.573	0.080	-0.103
-405.282	800.000	-0.019	0.055
-404.267	308.275	0.089	0.166
-403.252	38.174	0.211	-0.187
-402.238	111.448	-0.147	-0.177
-401.223	-128.783	0.288	0.040
-400.209	-131.094	0.057	-0.008
-399.194	-59.564	-0.207	-0.089
-398.179	-134.861	-0.284	0.034
-397.165	598.234	-0.039	-0.097
-396.150	34.942	-0.047	0.041
-395.136	-9.031	0.154	0.103
-394.121	131.901	-0.065	-0.083
-393.106	-117.820	-0.265	-0.047
-392.092	46.764	-0.326	0.302
-391.077	-31.570	0.270	-0.151
-390.063	-200.000	0.002	0.018
-389.048	66.215	-0.040	-0.041
-388.033	-132.406	-0.199	-0.026
-387.019	-149.572	-0.182	-0.014
-386.004	-152.661	0.298	-0.021
-384.990	-64.809	0.054	-0.022
-383.975	-200.000	-0.018	-0.114
-382.960	-200.000	-0.003	-0.078
-381.946	-75.824	0.435	-0.154
-380.931	90.632	-0.042	0.046
-379.917	173.158	-0.128	-0.183
-378.902	-172.296	0.449	-0.014
-377.888	-178.726	-0.060	0.001
-376.873	7.596	-0.030	0.022
-375.858	348.647	0.168	-0.331
-374.844	-167.236	0.359	-0.014
-373.829	800.000	0.031	0.087
-372.815	736.043	0.047	0.125
-371.800	-200.000	-0.039	-0.319
-370.785	217.605	-0.009	0.014
-369.771	-200.000	-0.016	0.075
-368.756	-200.000	0.016	-0.069
-367.742	-72.850	0.150	0.055
-366.727	-38.622	0.223	0.118
-365.712	374.710	0.117	0.238
-364.698	-200.000	-0.094	0.494
-363.683	-187.136	0.166	0.002
-362.669	-200.000	-0.006	0.388
-361.654	25.704	0.273	0.227
-360.639	800.000	0.040	0.141
-359.625	-13.334	0.094	-0.061
-358.610	-4.773	-0.110	-0.075
-357.596	-83.280	-0.323	-0.103
-356.581	-10.822	0.083	-0.055
-355.566	82.369	-0.103	0.111
-354.552	42.189	0.116	-0.105
-353.537	-61.838	0.139	-0.058
-352.523	-131.067	0.124	0.016
-351.508	-167.061	0.200	-0.008
-350.493	-104.110	-0.133	-0.031
-349.479	-62.349	0.326	-0.135
-348.464	32.484	-0.063	0.054
-347.450	-33.234	-0.261	-0.144
-346.435	346.371	0.103	-0.202
-345.420	-105.349	-0.343	-0.078
-344.406	-200.000	0.010	0.278
-343.391	7.676	-0.179	0.133
-342.377	-200.000	0.009	0.112
-341.362	319.011	0.121	0.229
-340.348	-200.000	0.008	-0.081
-339.333	757.745	0.037	-0.101
-338.318	-200.000	0.040	-0.281
-337.304	-200.000	0.041	0.228
-336.289	-4.764	0.394	-0.270
-335.275	-200.000	0.066	0.360
-334.260	-114.958	0.198	0.038
-333.245	-36.331	0.294	0.158
-332.231	-92.580	0.273	-0.076
-331.216	-73.177	-0.359	-0.131
-330.202	121.283	-0.100	0.124
-329.187	-123.446	0.094	-0.015
-328.172	53.570	-0.225	-0.215
-327.158	184.656	-0.103	0.152
-326.143	95.293	-0.075	0.085
-325.129	-200.000	-0.020	0.092
-324.114	99.342	0.198	0.228
-323.099	-23.619	0.200	0.119
-322.085	800.000	0.076	-0.272
-321.070	-200.000	0.023	0.151
-320.056	-28.891	0.164	0.094
-319.041	70.525	0.168	0.173
-318.026	28.997	-0.153	-0.129
-317.012	-200.000	-0.013	-0.389
-315.997	-200.000	0.001	-0.180
-314.983	164.432	0.136	0.191
-313.968	208.291	-0.006	0.009
-312.953	-200.000	0.002	-0.060
-311.939	683.085	0.044	-0.114
-310.924	17.832	0.170	-0.135
-309.910	38.456	-0.272	-0.241
-308.895	-47.116	-0.166	-0.081
-307.880	194.634	-0.210	-0.316
-306.866	568.238	-0.069	-0.166
-305.851	-107.436	-0.241	-0.053
-304.837	-9.845	-0.174	0.115
-303.822	38.960	-0.276	0.245
-302.807	-125.789	-0.172	0.026
-301.793	-52.814	-0.377	0.173
-300.778	-123.786	-0.289	-0.045
-299.764	800.000	-0.109	0.399
-298.749	93.837	0.223	-0.251
-297.735	16.762	0.146	0.115
-296.720	-40.674	-0.016	-0.008
-295.705	-75.177	-0.104	0.037
-294.691	116.730	0.255	0.311
-293.676	-20.354	-0.137	-0.084
-292.662	23.094	0.085	-0.070
-291.647	86.092	0.087	-0.096
-290.632	19.851	-0.363	0.291
-289.618	-200.000	0.013	-0.253
-288.603	-158.453	0.175	-0.010
-287.589	-106.333	0.068	-0.015
-286.574	431.260	0.037	-0.080
-285.559	-200.000	0.063	0.292
-284.545	-200.000	0.013	0.260
-283.530	800.000	-0.041	-0.158
-282.516	53.014	0.288	-0.274
-281.501	-164.907	0.162	0.007
-280.486	267.326	-0.171	-0.296
-279.472	-200.000	0.042	-0.275
-278.457	-95.426	-0.333	-0.089
-277.443	280.306	0.212	0.377
-276.428	-190.098	0.205	0.002
-275.413	-134.335	-0.362	-0.044
-274.399	-7.856	0.235	0.158
-273.384	174.260	0.057	0.082
-272.370	-86.103	-0.062	0.019
-271.355	2.702	-0.072	-0.052
-270.340	-118.809	-0.118	0.021
-269.326	-64.502	0.388	0.156
-268.311	57.732	-0.079	-0.076
-267.297	35.435	-0.218	0.190
-266.282	-70.488	0.428	0.161
-265.267	-3.878	-0.222	0.153
-264.253	-200.000	-0.025	-0.226
-263.238	-158.458	-0.330	0.019
-262.224	-159.738	-0.035	-0.002
-261.209	93.488	-0.039	-0.044
-260.195	-41.877	0.269	-0.137
-259.180	38.002	-0.046	-0.041
-258.165	-75.001	0.075	-0.027
-257.151	-78.374	-0.156	0.053
-256.136	800.000	-0.028	-0.099
-255.122	195.234	-0.246	0.371
-254.107	-47.483	0.168	-0.081
-253.092	79.913	-0.296	0.315
-252.078	672.788	-0.083	0.215
-251.063	-151.754	0.278	0.020
-250.049	-130.273	0.085	0.011
-249.034	137.865	-0.144	0.187
-248.019	-24.859	-0.161	0.095
-247.005	642.791	0.096	-0.242
-245.990	283.993	0.146	0.261
-244.976	127.677	0.074	-0.093
-243.961	-200.000	-0.013	0.074
-242.946	180.359	0.204	0.297
-241.932	195.955	-0.229	0.345
-240.917	-137.613	0.389	0.043
-239.903	5.341	0.181	0.132
-238.888	6.644	-0.158	-0.116
-237.873	190.979	0.166	-0.247
-236.859	437.884	0.127	0.274
-235.844	166.947	0.061	-0.086
-234.830	162.353	-0.242	0.336
-233.815	138.631	0.082	0.107
-232.800	-200.000	0.130	-0.571
-231.786	800.000	0.037	-0.158
-230.771	141.161	0.142	0.186
-229.757	-82.935	0.070	0.022
-228.742	-200.000	-0.004	0.184
-227.727	13.830	0.282	0.217
-226.713	-200.000	0.015	0.111
-225.698	-200.000	0.019	-0.348
-224.684	730.243	-0.102	-0.271
-223.669	-64.612	0.325	0.131
-222.655	336.340	0.193	0.372
-221.640	477.727	-0.036	-0.080
-220.625	-171.292	0.235	0.008
-219.611	288.371	0.073	-0.132
-218.596	66.386	0.188	0.190
-217.582	52.185	-0.170	-0.160
-216.567	800.000	-0.030	0.107
-215.552	111.312	0.129	0.154
-214.538	-22.362	0.170	-0.102
-213.523	272.342	-0.134	0.234
-212.509	352.424	0.083	0.164
-211.494	-47.235	-0.135	0.065
-210.479	50.232	-0.296	0.277
-209.465	800.000	0.056	-0.199
-208.450	-127.664	0.115	0.016
-207.436	319.637	0.257	-0.483
-206.421	-140.338	0.249	0.026
-205.406	-200.000	0.006	-0.026
-204.392	-170.285	-0.433	0.015
-203.377	-91.210	0.253	0.072
-202.363	-200.000	-0.087	-0.504
-201.348	-148.095	0.469	0.038
-200.333	103.388	-0.102	0.118
-199.319	-200.000	-0.058	0.302
-198.304	800.000	0.052	-0.193
-197.290	-115.298	0.269	-0.050
-196.275	203.506	-0.081	0.124
-195.260	-200.000	-0.000	0.010
-194.246	26.976	0.288	-0.239
-193.231	305.022	0.041	-0.076
-192.217	-159.128	0.241	0.013
-191.202	17.592	-0.306	-0.241
-190.187	-200.000	0.036	-0.422
-189.173	775.702	0.110	0.298
-188.158	58.626	0.051	-0.050
-187.144	220.489	-0.060	-0.095
-186.129	-114.731	0.276	-0.052
-185.114	-71.573	0.073	0.027
-184.100	696.105	-0.051	0.133
-183.085	-200.000	0.045	-0.468
-182.071	-200.000	0.027	0.249
-181.056	-200.000	0.051	0.230
-180.042	192.270	-0.249	-0.372
-179.027	-117.136	-0.170	-0.031
-178.012	-141.087	-0.200	-0.020
-176.998	366.260	0.108	-0.216
-175.983	33.430	0.140	0.121
-174.969	24.839	0.089	0.073
-173.954	239.452	0.145	0.239
-172.939	452.655	0.118	-0.258
-171.925	5.044	-0.214	0.156
-170.910	91.924	-0.165	-0.184
-169.896	-24.042	0.316	-0.187
-168.881	407.697	0.113	-0.237
-167.866	-15.122	-0.224	-0.142
-166.852	402.660	0.093	0.194
-165.837	-13.841	0.178	-0.114
-164.823	-200.000	0.034	0.410
-163.808	226.807	-0.231	-0.370
-162.793	241.440	-0.061	-0.100
-161.779	-200.000	0.008	0.142
-160.764	229.383	-0.229	0.369
-159.750	121.253	0.225	0.277
-158.735	-147.773	0.083	0.007
-157.720	48.553	0.074	-0.068
-156.706	164.588	0.064	-0.089
-155.691	-179.307	-0.240	-0.005
-154.677	-65.402	-0.142	-0.056
-153.662	-200.000	0.014	0.242
-152.647	800.000	-0.156	0.515
-151.633	-200.000	-0.013	0.401
-150.618	-143.775	-0.170	0.016
-149.604	170.274	-0.112	0.158
-148.589	-136.996	-0.338	-0.038
-147.574	262.286	-0.196	0.336
-146.560	63.731	-0.223	-0.221
-145.545	175.024	0.047	0.067
-144.531	651.970	0.113	-0.287
-143.516	800.000	0.045	0.171
-142.502	-149.709	0.087	-0.007
-141.487	7.591	-0.126	0.093
-140.472	-73.975	0.055	0.020
-139.458	-177.972	-0.122	-0.003
-138.443	433.327	-0.149	-0.319
-137.429	-106.198	-0.290	0.064
-136.414	-29.586	-0.124	-0.070
-135.399	-98.802	0.392	0.098
-134.385	800.000	0.077	0.224
-133.370	682.084	-0.046	-0.120
-132.356	-41.720	-0.345	0.175
-131.341	-155.355	0.117	0.008
-130.326	800.000	-0.038	0.107
-129.312	141.932	0.025	-0.032
-128.297	-200.000	-0.026	0.273
-127.283	-103.799	-0.135	-0.031
-126.268	-112.328	-0.173	-0.034
-125.253	-200.000	-0.028	0.150
-124.239	-200.000	0.049	-0.212
-123.224	147.131	0.118	0.157
-122.210	213.558	-0.090	0.140
-121.195	-140.516	0.370	-0.038
