DTS Sentinel unit serial number:	SN413079Multiplexer serial number:	ORYXHardware model number:	OX4-SRSoftware version number:	ORYX F/W v4.00 Oryx Data Collector v3.7.2.0data status	okinstallation	princeton_trtdifferential loss correction	single-endedforward channel	channel 1reverse channel	N/Adate	2019/09/19time	01:38:35forward acquisition time	60.00reverse acquisition time	0.00gamma	496.2192k internal	0.2344k external	0.2344temperature offset calibration	1.0020default loss term (dB/km)	0.3790temperature slope calibration	1.0000multiplexer offset coefficient	1.0000multiplexer slope coefficient	1.0000fibre end	0.00T internal ref (°C)	21.50T ext. ref 1 (°C)	0.69T ext. ref 2 (°C)	14.82length (m)	temperature (°C)	Stokes	anti-Stokes-747.200	-123.302	-0.114	-0.018
-746.185	12.338	-0.045	0.035
-745.171	-200.000	0.050	0.222
-744.156	184.279	-0.257	0.381
-743.142	586.802	-0.052	-0.129
-742.127	671.813	0.080	-0.207
-741.112	186.467	0.104	0.154
-740.098	-92.920	0.345	0.096
-739.083	-11.584	0.274	0.180
-738.069	323.263	-0.187	0.357
-737.054	-87.514	-0.122	0.037
-736.039	-108.474	-0.050	0.011
-735.025	800.000	-0.031	-0.095
-734.010	-116.965	-0.293	-0.054
-732.996	800.000	0.142	-0.411
-731.981	-200.000	-0.035	0.291
-730.966	53.445	0.246	-0.236
-729.952	-200.000	0.033	-0.260
-728.937	635.637	-0.076	-0.194
-727.923	338.585	0.078	0.153
-726.908	-64.511	0.100	-0.040
-725.894	133.667	-0.146	0.189
-724.879	196.439	0.117	0.178
-723.864	289.913	-0.146	0.265
-722.850	-176.590	0.290	0.007
-721.835	-109.932	-0.337	-0.071
-720.821	-92.779	-0.139	-0.039
-719.806	-148.581	-0.242	-0.020
-718.791	800.000	0.065	-0.190
-717.777	-200.000	-0.005	0.094
-716.762	-70.268	-0.163	-0.062
-715.748	-133.470	0.244	-0.031
-714.733	-134.086	-0.287	-0.035
-713.718	64.482	0.125	-0.125
-712.704	800.000	0.117	0.359
-711.689	130.300	0.227	0.290
-710.675	-200.000	-0.011	-0.407
-709.660	666.084	0.124	-0.320
-708.645	226.029	0.157	0.254
-707.631	148.448	-0.018	-0.024
-706.616	62.608	-0.230	-0.230
-705.602	-55.126	0.209	-0.094
-704.587	92.702	-0.063	-0.071
-703.572	139.870	0.050	0.066
-702.558	-99.959	0.281	0.070
-701.543	-200.000	0.044	-0.209
-700.529	-29.799	0.293	0.167
-699.514	-200.000	-0.046	-0.211
-698.499	-19.001	0.520	-0.323
-697.485	160.033	-0.318	-0.443
-696.470	-96.674	0.412	-0.108
-695.456	-28.705	-0.094	-0.054
-694.441	603.406	-0.143	-0.354
-693.426	162.920	-0.056	-0.078
-692.412	800.000	-0.113	-0.326
-691.397	79.205	0.051	-0.055
-690.383	-193.459	-0.167	-0.001
-689.368	160.251	0.321	-0.447
-688.354	-153.344	0.425	0.030
-687.339	113.979	0.201	-0.244
-686.324	255.912	-0.127	0.218
-685.310	55.222	0.179	-0.173
-684.295	167.732	-0.107	-0.152
-683.281	800.000	-0.071	-0.255
-682.266	800.000	-0.100	-0.334
-681.251	87.037	-0.131	0.144
-680.237	800.000	0.025	-0.088
-679.222	-200.000	-0.015	0.117
-678.208	-152.682	-0.132	0.009
-677.193	-24.970	-0.160	-0.095
-676.178	349.089	-0.138	0.272
-675.164	-117.937	-0.124	0.022
-674.149	-103.941	0.168	-0.039
-673.135	-200.000	-0.073	0.380
-672.120	61.876	-0.409	-0.406
-671.105	297.054	-0.130	0.237
-670.091	445.501	0.152	0.333
-669.076	379.998	-0.101	-0.207
-668.062	-91.776	-0.066	-0.019
-667.047	-21.127	0.187	0.114
-666.032	295.766	0.121	0.221
-665.018	-29.393	-0.245	0.140
-664.003	-75.612	-0.055	-0.020
-662.989	301.876	-0.090	-0.165
-661.974	502.677	0.072	0.165
-660.959	-22.316	0.072	0.044
-659.945	53.399	0.213	-0.203
-658.930	104.093	-0.196	0.229
-657.916	-118.551	-0.058	0.010
-656.901	118.375	0.168	-0.206
-655.886	415.326	-0.043	0.091
-654.872	800.000	0.084	-0.323
-653.857	-200.000	0.001	0.275
-652.843	495.937	0.027	0.062
-651.828	-80.036	-0.149	-0.050
-650.814	89.782	-0.083	-0.092
-649.799	-65.944	0.212	0.085
-648.784	19.803	0.214	-0.172
-647.770	-200.000	0.009	-0.278
-646.755	-200.000	0.063	-0.304
-645.741	71.643	0.045	0.047
-644.726	200.873	-0.113	0.173
-643.711	113.973	0.125	-0.151
-642.697	258.368	0.163	-0.279
-641.682	134.453	-0.060	-0.077
-640.668	35.227	-0.173	0.151
-639.653	79.178	0.019	0.021
-638.638	-100.967	0.186	-0.045
-637.624	-156.752	-0.385	0.024
-636.609	386.811	0.094	-0.194
-635.595	800.000	-0.036	0.155
-634.580	-38.677	-0.305	-0.161
-633.565	202.504	-0.110	0.170
-632.551	-4.632	-0.156	-0.108
-631.536	578.508	-0.121	-0.296
-630.522	388.630	0.057	0.118
-629.507	17.070	-0.072	0.057
-628.492	-5.719	-0.136	0.093
-627.478	-141.548	0.297	0.030
-626.463	-113.359	0.185	-0.036
-625.449	-200.000	-0.006	-0.207
-624.434	-200.000	0.011	-0.127
-623.419	-74.244	-0.144	0.052
-622.405	-146.868	-0.327	-0.028
-621.390	385.857	0.045	-0.093
-620.376	-28.430	-0.071	-0.041
-619.361	141.877	0.154	-0.203
-618.346	-131.261	-0.274	-0.036
-617.332	800.000	0.061	0.171
-616.317	-156.852	0.265	-0.016
-615.303	-58.220	-0.225	-0.097
-614.288	201.814	0.101	0.155
-613.273	18.298	-0.068	-0.054
-612.259	156.463	-0.099	-0.136
-611.244	-33.296	-0.426	-0.235
-610.230	-67.670	-0.253	0.099
-609.215	-160.555	0.429	-0.023
-608.201	20.116	0.155	-0.125
-607.186	307.758	0.134	-0.249
-606.171	-149.339	-0.341	-0.027
-605.157	-200.000	-0.034	0.312
-604.142	267.482	0.079	0.137
-603.128	-153.590	-0.161	-0.011
-602.113	-22.446	0.304	-0.183
-601.098	644.194	-0.051	-0.129
-600.084	-200.000	-0.023	-0.263
-599.069	-87.754	-0.132	0.040
-598.055	-140.693	0.206	0.021
-597.040	284.599	0.065	-0.117
-596.025	-55.985	0.247	0.109
-595.011	-200.000	-0.051	-0.297
-593.996	58.881	0.182	-0.178
-592.982	800.000	-0.103	-0.394
-591.967	69.067	0.132	0.135
-590.952	16.259	-0.056	-0.044
-589.938	197.153	-0.093	-0.141
-588.923	35.423	-0.054	-0.047
-587.909	-200.000	0.014	-0.537
-586.894	-107.571	0.244	0.053
-585.879	11.709	-0.185	0.141
-584.865	-118.208	-0.148	-0.026
-583.850	-27.751	0.097	-0.056
-582.836	-200.000	0.033	0.250
-581.821	-4.611	-0.306	-0.210
-580.806	316.462	0.214	0.401
-579.792	-200.000	0.000	0.052
-578.777	800.000	0.033	-0.127
-577.763	95.245	0.155	0.176
-576.748	143.639	0.092	-0.122
-575.733	-85.613	0.275	0.085
-574.719	-183.964	-0.225	0.004
-573.704	-161.964	-0.168	0.008
-572.690	-77.172	-0.376	0.130
-571.675	190.806	-0.130	0.194
-570.661	800.000	-0.128	0.519
-569.646	356.936	-0.129	0.257
-568.631	-101.179	-0.241	-0.059
-567.617	-200.000	-0.038	0.380
-566.602	128.803	0.082	-0.104
-565.588	-175.151	0.183	0.005
-564.573	95.583	0.255	-0.289
-563.558	442.830	-0.186	-0.405
-562.544	800.000	0.109	-0.365
-561.529	-66.918	-0.179	-0.070
-560.515	31.944	0.183	0.156
-559.500	61.083	-0.242	0.238
-558.485	800.000	-0.106	-0.356
-557.471	491.585	0.032	0.073
-556.456	49.736	0.170	0.159
-555.442	-102.458	0.308	0.073
-554.427	613.871	-0.171	-0.425
-553.412	43.318	0.057	-0.052
-552.398	244.160	-0.108	-0.181
-551.383	412.502	0.024	0.051
-550.369	-200.000	-0.010	0.176
-549.354	-200.000	-0.002	-0.139
-548.339	-157.147	0.163	0.010
-547.325	-145.416	-0.251	-0.022
-546.310	-32.457	0.198	0.110
-545.296	-200.000	0.034	0.225
-544.281	-112.752	-0.322	-0.063
-543.266	448.598	-0.130	-0.285
-542.252	45.609	-0.182	0.167
-541.237	-112.847	0.129	-0.025
-540.223	-200.000	-0.059	0.307
-539.208	70.828	-0.074	0.076
-538.193	386.490	-0.082	-0.168
-537.179	-200.000	0.031	-0.273
-536.164	-34.757	0.052	-0.028
-535.150	23.730	0.226	-0.185
-534.135	-85.754	-0.173	0.053
-533.121	114.590	-0.234	0.283
-532.106	-200.000	0.032	0.330
-531.091	20.645	0.214	0.172
-530.077	800.000	0.009	0.028
-529.062	-42.976	-0.189	-0.095
-528.048	-200.000	0.036	-0.229
-527.033	-200.000	-0.017	0.205
-526.018	-200.000	0.014	0.193
-525.004	-200.000	0.019	0.546
-523.989	-0.532	0.209	-0.147
-522.975	-75.990	-0.409	-0.144
-521.960	9.618	0.082	0.062
-520.945	153.190	-0.137	0.186
-519.931	250.974	-0.138	-0.233
-518.916	-200.000	0.001	0.118
-517.902	-200.000	0.014	-0.145
-516.887	65.538	0.112	-0.112
-515.872	155.710	-0.083	0.113
-514.858	-200.000	0.030	0.397
-513.843	-200.000	-0.041	-0.183
-512.829	800.000	0.072	-0.213
-511.814	32.044	0.067	-0.057
-510.799	-29.405	-0.108	0.061
-509.785	800.000	0.057	0.217
-508.770	-165.191	-0.342	0.015
-507.756	216.515	0.143	-0.225
-506.741	-114.756	-0.125	-0.024
-505.726	800.000	-0.049	-0.141
-504.712	-200.000	0.043	-0.218
-503.697	-200.000	0.029	0.182
-502.683	-57.915	-0.033	-0.014
-501.668	-1.867	-0.272	0.190
-500.653	-66.613	0.397	-0.156
-499.639	-200.000	0.001	-0.123
-498.624	800.000	-0.041	0.112
-497.610	-74.937	0.099	-0.035
-496.595	404.414	0.078	0.163
-495.581	84.407	-0.121	0.132
-494.566	-127.216	-0.213	-0.031
-493.551	-200.000	-0.035	-0.429
-492.537	-187.729	0.251	-0.003
-491.522	345.519	-0.167	0.326
-490.508	83.128	0.206	0.223
-489.493	598.519	0.167	-0.409
-488.478	-56.741	0.076	0.033
-487.464	319.014	0.089	0.168
-486.449	-200.000	-0.031	0.397
-485.435	800.000	-0.072	0.294
-484.420	284.217	-0.174	-0.310
-483.405	-34.344	0.171	-0.093
-482.391	-6.272	0.105	0.071
-481.376	306.429	-0.106	-0.195
-480.362	-25.622	0.120	-0.070
-479.347	-148.088	-0.186	-0.015
-478.332	218.562	-0.052	0.083
-477.318	25.705	-0.093	0.077
-476.303	-200.000	0.260	-0.001
-475.289	800.000	-0.027	-0.104
-474.274	179.815	-0.198	-0.287
-473.259	-14.736	0.022	-0.014
-472.245	-77.883	0.107	-0.037
-471.230	-12.530	0.033	-0.021
-470.216	-200.000	-0.038	0.204
-469.201	468.735	0.084	-0.187
-468.186	36.308	-0.083	-0.072
-467.172	-66.022	0.161	-0.064
-466.157	-200.000	0.019	0.094
-465.143	-129.177	-0.047	-0.006
-464.128	-47.151	-0.278	-0.134
-463.113	-200.000	0.020	0.152
-462.099	15.870	-0.245	0.191
-461.084	-200.000	-0.031	0.195
-460.070	-200.000	0.005	0.346
-459.055	800.000	0.037	0.105
-458.040	-120.587	0.353	0.059
-457.026	-48.663	0.090	0.043
-456.011	-200.000	0.021	0.435
-454.997	-115.509	-0.135	-0.025
-453.982	656.911	-0.108	0.275
-452.968	94.620	0.097	0.110
-451.953	-200.000	0.002	-0.266
-450.938	740.486	0.063	0.168
-449.924	800.000	-0.107	-0.355
-448.909	411.931	-0.135	-0.283
-447.895	-200.000	-0.009	0.289
-446.880	-26.734	0.093	0.054
-445.865	-33.290	0.231	-0.127
-444.851	268.763	0.065	0.112
-443.836	-200.000	-0.049	-0.225
-442.822	800.000	-0.043	0.120
-441.807	248.107	0.055	-0.092
-440.792	-124.738	-0.341	0.052
-439.778	285.765	0.066	-0.117
-438.763	-200.000	-0.017	0.298
-437.749	190.213	0.023	-0.034
-436.734	110.064	-0.191	-0.226
-435.719	63.483	-0.057	-0.056
-434.705	-66.493	0.215	-0.085
-433.690	-66.622	-0.072	0.028
-432.676	63.199	-0.149	0.148
-431.661	-200.000	-0.011	-0.056
-430.646	800.000	-0.055	0.171
-429.632	485.098	-0.080	-0.181
-428.617	-200.000	0.015	-0.065
-427.603	-1.146	0.309	-0.216
-426.588	-51.015	-0.179	0.083
-425.573	459.586	-0.133	-0.292
-424.559	34.115	-0.077	0.067
-423.544	-200.000	0.011	0.051
-422.530	57.249	0.328	-0.316
-421.515	160.879	0.086	-0.119
-420.500	-67.804	0.214	-0.082
-419.486	-75.329	-0.484	0.171
-418.471	800.000	0.039	-0.146
-417.457	407.203	-0.093	0.194
-416.442	-5.982	0.044	0.029
-415.428	194.184	0.072	0.108
-414.413	407.414	-0.074	0.155
-413.398	-200.000	0.008	0.253
-412.384	-43.004	0.273	0.137
-411.369	226.080	-0.190	0.304
-410.355	-120.926	0.151	-0.025
-409.340	220.540	0.111	0.175
-408.325	-200.000	-0.008	0.287
-407.311	88.921	-0.172	0.189
-406.296	-200.000	-0.052	0.336
-405.282	-200.000	0.015	-0.144
-404.267	776.612	0.115	0.309
-403.252	215.144	-0.077	0.121
-402.238	-132.338	0.236	-0.030
-401.223	42.689	-0.185	-0.167
-400.209	-132.043	0.157	-0.020
-399.194	674.377	-0.102	0.260
-398.179	-124.103	-0.095	0.015
-397.165	-28.970	-0.200	0.113
-396.150	234.091	0.144	0.234
-395.136	-181.569	-0.216	0.004
-394.121	-134.511	-0.230	-0.028
-393.106	-104.935	0.260	0.059
-392.092	-12.050	-0.103	-0.067
-391.077	73.579	-0.057	-0.059
-390.063	-70.386	-0.277	-0.104
-389.048	-200.000	0.053	-0.307
-388.033	87.474	-0.048	0.052
-387.019	337.527	-0.152	0.291
-386.004	-16.814	-0.232	0.145
-384.990	-162.393	0.212	-0.010
-383.975	-200.000	0.027	-0.339
-382.960	-115.996	-0.147	-0.027
-381.946	-63.832	0.175	-0.071
-380.931	-125.551	0.280	0.042
-379.917	-175.700	0.183	-0.005
-378.902	-114.647	0.138	-0.026
-377.888	-54.289	-0.149	-0.067
-376.873	103.872	0.212	0.246
-375.858	-84.854	-0.120	0.037
-374.844	-80.780	-0.339	-0.111
-373.829	507.808	-0.083	0.189
-372.815	-200.000	0.032	-0.299
-371.800	183.916	0.167	-0.244
-370.785	-153.767	0.184	-0.012
-369.771	800.000	0.041	-0.158
-368.756	73.682	0.183	-0.189
-367.742	301.225	0.084	-0.153
-366.727	617.955	-0.038	0.095
-365.712	-161.936	0.120	0.006
-364.698	207.224	0.146	-0.225
-363.683	-200.000	0.005	-0.073
-362.669	-41.735	0.109	0.055
-361.654	-163.310	-0.106	-0.005
-360.639	58.117	0.047	-0.046
-359.625	-81.554	-0.197	0.064
-358.610	-131.735	-0.489	0.063
-357.596	800.000	0.097	-0.353
-356.581	-80.050	0.350	0.116
-355.566	7.193	-0.208	-0.153
-354.552	-200.000	0.049	0.277
-353.537	-200.000	-0.023	0.130
-352.523	-165.680	0.393	-0.017
-351.508	187.381	0.061	-0.090
-350.493	800.000	0.083	-0.273
-349.479	-70.807	0.373	0.139
-348.464	-61.753	-0.250	-0.103
-347.450	701.133	-0.118	0.305
-346.435	-200.000	-0.044	0.277
-345.420	137.059	-0.057	0.074
-344.406	89.006	0.163	0.178
-343.391	-115.988	-0.274	0.050
-342.377	-69.565	-0.186	-0.070
-341.362	-200.000	-0.001	0.025
-340.348	800.000	-0.127	0.485
-339.333	406.665	0.118	0.245
-338.318	-9.150	0.111	-0.073
-337.304	-200.000	0.035	0.164
-336.289	-166.734	0.321	-0.013
-335.275	60.439	0.072	0.070
-334.260	94.533	-0.086	0.096
-333.245	-200.000	0.013	0.485
-332.231	-58.324	-0.155	0.066
-331.216	-200.000	0.003	-0.239
-330.202	-114.596	-0.195	0.037
-329.187	-80.521	-0.143	0.047
-328.172	-53.782	0.023	0.011
-327.158	167.550	0.076	-0.107
-326.143	-200.000	0.279	0.000
-325.129	317.904	0.125	-0.232
-324.114	151.786	-0.152	-0.203
-323.099	800.000	-0.044	-0.122
-322.085	393.802	-0.080	-0.165
-321.070	132.901	0.197	0.251
-320.056	-9.690	0.017	-0.011
-319.041	-0.487	0.056	-0.039
-318.026	146.390	0.141	0.186
-317.012	159.198	0.039	-0.053
-315.997	359.882	0.023	0.046
-314.983	-200.000	-0.003	-0.080
-313.968	17.028	0.098	0.077
-312.953	800.000	0.035	0.131
-311.939	800.000	0.129	0.453
-310.924	67.651	-0.105	0.105
-309.910	-3.631	0.248	-0.170
-308.895	65.738	0.032	-0.032
-307.880	800.000	0.042	-0.181
-306.866	-200.000	-0.001	0.353
-305.851	800.000	0.077	-0.328
-304.837	-91.888	-0.378	-0.106
-303.822	-67.561	-0.162	-0.062
-302.807	-62.619	0.389	-0.159
-301.793	740.656	0.094	0.248
-300.778	-54.793	0.243	-0.108
-299.764	-71.344	0.229	0.084
-298.749	30.164	0.048	-0.040
-297.735	-58.096	0.157	0.068
-296.720	216.282	0.221	0.345
-295.705	60.163	0.080	0.078
-294.691	-65.929	-0.244	0.096
-293.676	118.791	0.290	-0.353
-292.662	-64.050	0.179	-0.072
-291.647	-200.000	0.018	-0.204
-290.632	20.681	-0.086	0.068
-289.618	-14.479	0.227	-0.144
-288.603	-200.000	-0.003	0.165
-287.589	-200.000	-0.072	-0.318
-286.574	-49.145	0.235	0.110
-285.559	100.071	-0.080	-0.091
-284.545	171.813	0.190	-0.269
-283.530	387.268	0.072	-0.146
-282.516	-200.000	-0.053	0.441
-281.501	-185.166	0.068	-0.001
-280.486	800.000	0.053	-0.191
-279.472	800.000	-0.075	-0.257
-278.457	800.000	-0.024	0.088
-277.443	-140.868	-0.097	0.010
-276.428	-200.000	0.073	0.337
-275.413	-200.000	0.008	0.064
-274.399	800.000	0.073	-0.279
-273.384	29.555	0.369	-0.309
-272.370	-87.776	-0.119	-0.035
-271.355	-106.052	-0.147	0.033
-270.340	-69.259	0.270	-0.102
-269.326	271.081	0.148	0.255
-268.311	800.000	0.107	0.333
-267.297	-55.599	-0.284	0.125
-266.282	-133.181	0.319	-0.040
-265.267	78.965	-0.184	0.194
-264.253	7.479	-0.016	-0.012
-263.238	246.448	-0.144	-0.238
-262.224	-200.000	0.038	-0.282
-261.209	9.355	0.266	0.197
-260.195	-200.000	-0.001	0.052
-259.180	800.000	-0.044	-0.175
-258.165	-108.689	0.256	0.054
-257.151	543.868	0.083	0.193
-256.136	194.151	-0.110	-0.164
-255.122	22.997	0.295	-0.238
-254.107	-39.310	-0.262	-0.135
-253.092	-84.313	-0.271	-0.084
-252.078	606.867	-0.145	0.354
-251.063	67.839	0.087	-0.087
-250.049	96.543	-0.045	0.051
-249.034	-200.000	-0.012	0.488
-248.019	-5.854	-0.177	0.119
-247.005	-76.088	-0.193	-0.067
-245.990	-11.365	0.194	-0.125
-244.976	20.858	-0.094	-0.074
-243.961	-33.971	0.198	-0.107
-242.946	757.254	0.031	0.084
-241.932	-200.000	0.039	0.213
-240.917	-34.486	0.261	0.140
-239.903	179.790	-0.193	0.277
-238.888	-65.084	-0.094	-0.037
-237.873	149.755	-0.188	0.251
-236.859	-150.497	0.399	0.030
-235.844	-172.850	-0.096	-0.003
-234.830	-25.826	-0.103	-0.059
-233.815	408.659	0.144	0.298
-232.800	10.696	0.117	-0.087
-231.786	211.191	-0.086	-0.133
-230.771	-122.023	0.365	0.059
-229.757	-128.429	-0.166	-0.023
-228.742	-55.252	0.090	-0.040
-227.727	-123.388	-0.092	-0.014
-226.713	-76.647	-0.167	0.057
-225.698	-27.026	-0.175	0.100
-224.684	800.000	-0.034	-0.128
-223.669	-19.915	-0.281	-0.170
-222.655	287.033	0.071	-0.126
-221.640	-86.972	-0.292	0.087
-220.625	-41.591	0.281	0.142
-219.611	800.000	-0.159	-0.453
-218.596	-102.345	-0.293	0.069
-217.582	15.027	-0.116	0.089
-216.567	-159.778	-0.193	-0.010
-215.552	-200.000	0.001	0.072
-214.538	111.821	-0.205	0.242
-213.523	435.680	0.027	-0.057
-212.509	527.461	-0.052	0.120
-211.494	75.873	0.112	-0.116
-210.479	-141.749	-0.259	0.026
-209.465	124.441	0.137	0.169
-208.450	-200.000	0.033	-0.211
-207.436	116.142	0.175	-0.210
-206.421	236.351	-0.043	-0.069
-205.406	-72.652	0.207	0.075
-204.392	-194.198	-0.242	-0.002
-203.377	638.845	-0.031	-0.076
-202.363	14.716	0.347	0.266
-201.348	65.905	-0.030	0.030
-200.333	-107.429	-0.253	-0.054
-199.319	162.684	0.123	0.169
-198.304	240.619	-0.153	-0.250
-197.290	95.403	0.268	-0.299
-196.275	629.988	-0.048	0.119
-195.260	-200.000	-0.014	-0.138
-194.246	104.824	0.049	0.057
-193.231	-200.000	0.025	0.195
-192.217	538.336	0.101	0.236
-191.202	140.064	-0.055	0.071
-190.187	-106.915	-0.257	0.056
-189.173	-63.193	-0.361	-0.146
-188.158	-63.129	-0.067	-0.027
-187.144	-16.715	0.041	0.025
-186.129	-200.000	-0.001	0.059
-185.114	-73.883	-0.239	-0.085
-184.100	-55.509	-0.160	-0.070
-183.085	205.072	-0.033	-0.050
-182.071	241.033	-0.090	-0.147
-181.056	81.550	-0.233	-0.246
-180.042	457.663	-0.066	0.143
-179.027	-0.830	0.246	0.171
-178.012	-112.686	-0.130	0.025
-176.998	-158.583	0.130	0.007
-175.983	464.987	-0.152	-0.333
-174.969	72.900	0.243	-0.248
-173.954	175.488	0.127	0.180
-172.939	-200.000	0.015	0.224
-171.925	237.962	-0.148	-0.240
-170.910	134.008	0.170	-0.216
-169.896	486.185	0.110	-0.246
-168.881	228.843	-0.053	-0.084
-167.866	-86.853	0.226	-0.068
-166.852	-118.393	0.306	0.053
-165.837	-37.692	0.156	-0.081
-164.823	-151.282	-0.232	0.017
-163.808	-137.052	0.370	0.041
-162.793	94.465	0.103	-0.115
-161.779	7.007	-0.155	-0.113
-160.764	85.348	0.088	0.095
-159.750	-150.457	0.057	-0.004
-158.735	556.148	-0.092	-0.218
-157.720	-116.269	-0.164	0.030
-156.706	-200.000	-0.009	-0.179
-155.691	373.603	-0.129	-0.257
-154.677	-75.368	0.147	0.051
-153.662	-4.912	-0.213	0.144
-152.647	44.376	-0.255	0.229
-151.633	-128.620	0.123	-0.017
-150.618	-130.263	0.043	-0.006
-149.604	70.605	-0.063	0.064
-148.589	-27.154	0.094	0.053
-147.574	23.628	0.252	-0.203
-146.560	54.333	0.228	0.215
-145.545	800.000	0.111	0.322
-144.531	146.196	0.074	-0.098
-143.516	-200.000	-0.039	0.475
-142.502	238.149	0.150	0.244
-141.487	705.537	0.133	0.343
-140.472	-28.208	0.287	0.162
-139.458	6.622	-0.328	0.239
-138.443	-200.000	0.010	0.176
-137.429	155.883	0.164	0.221
-136.414	-133.664	-0.333	0.041
-135.399	-200.000	0.039	-0.371
-134.385	-79.829	0.110	-0.036
-133.370	-41.223	-0.090	0.046
-132.356	-76.038	-0.184	-0.063
-131.341	136.021	0.175	-0.222
-130.326	-200.000	0.002	-0.017
-129.312	-200.000	-0.024	0.235
-128.297	34.850	0.192	-0.164
-127.283	-5.931	0.127	-0.085
-126.268	-72.974	-0.055	0.020
-125.253	9.583	0.130	0.096
-124.239	-158.465	0.328	-0.019
-123.224	-136.795	0.168	-0.019
-122.210	-76.389	-0.449	-0.154
