DTS Sentinel unit serial number:	SN413079Multiplexer serial number:	ORYXHardware model number:	OX4-SRSoftware version number:	ORYX F/W v4.00 Oryx Data Collector v3.7.2.0data status	okinstallation	princeton_trtdifferential loss correction	single-endedforward channel	channel 1reverse channel	N/Adate	2019/09/15time	08:14:35forward acquisition time	60.00reverse acquisition time	0.00gamma	496.2192k internal	0.2323k external	0.2323temperature offset calibration	0.9998default loss term (dB/km)	0.3790temperature slope calibration	1.0000multiplexer offset coefficient	1.0000multiplexer slope coefficient	1.0000fibre end	0.00T internal ref (°C)	31.06T ext. ref 1 (°C)	4.99T ext. ref 2 (°C)	28.07length (m)	temperature (°C)	Stokes	anti-Stokes-747.200	199.534	-0.046	0.071
-746.185	83.720	0.019	-0.021
-745.171	61.551	0.150	0.150
-744.156	-102.498	-0.202	-0.049
-743.142	-82.022	-0.061	0.020
-742.127	-64.965	-0.276	0.113
-741.112	-57.764	0.288	-0.127
-740.098	137.326	0.061	0.081
-739.083	-108.417	-0.163	0.035
-738.069	136.552	-0.215	-0.283
-737.054	800.000	0.059	-0.173
-736.039	365.253	-0.072	-0.147
-735.025	-33.192	-0.249	0.139
-734.010	76.198	0.128	-0.137
-732.996	-88.919	-0.388	-0.116
-731.981	-99.355	-0.240	-0.061
-730.966	-1.016	-0.148	-0.106
-729.952	-131.827	0.114	-0.015
-728.937	-149.676	-0.152	-0.012
-727.923	-69.918	-0.147	0.057
-726.908	45.391	-0.326	0.304
-725.894	-200.000	-0.015	0.116
-724.879	-14.160	-0.195	-0.127
-723.864	-125.383	-0.262	0.040
-722.850	44.091	-0.218	0.202
-721.835	44.934	-0.254	-0.236
-720.821	-200.000	-0.013	-0.281
-719.806	-200.000	-0.006	-0.297
-718.791	-200.000	-0.031	-0.200
-717.777	-200.000	0.011	-0.147
-716.762	-118.329	-0.138	0.025
-715.748	-200.000	-0.048	0.220
-714.733	258.571	-0.187	0.325
-713.718	-157.292	-0.232	-0.014
-712.704	800.000	0.064	-0.194
-711.689	47.202	-0.250	-0.234
-710.675	800.000	-0.024	-0.082
-709.660	-13.693	0.050	-0.033
-708.645	431.850	0.357	0.780
-707.631	-86.809	-0.259	0.080
-706.616	419.748	-0.056	-0.120
-705.602	-131.099	0.234	-0.031
-704.587	-18.026	0.076	-0.048
-703.572	12.056	0.118	0.091
-702.558	-92.379	0.170	0.048
-701.543	413.672	-0.069	-0.148
-700.529	680.457	0.046	-0.121
-699.514	24.934	-0.107	0.089
-698.499	-200.000	-0.008	0.068
-697.485	29.910	0.059	-0.050
-696.470	257.594	0.172	0.298
-695.456	142.249	0.101	0.135
-694.441	137.763	0.167	0.221
-693.426	-200.000	-0.055	0.326
-692.412	-104.697	-0.386	-0.090
-691.397	-30.426	-0.184	0.105
-690.383	800.000	-0.046	-0.135
-689.368	17.191	-0.117	-0.093
-688.354	242.080	0.093	-0.156
-687.339	326.828	-0.082	0.159
-686.324	-28.258	-0.176	-0.102
-685.310	800.000	0.058	-0.227
-684.295	-200.000	-0.029	-0.340
-683.281	-114.518	-0.042	0.008
-682.266	351.264	-0.088	-0.175
-681.251	-200.000	-0.058	0.395
-680.237	-24.922	-0.140	-0.084
-679.222	-200.000	-0.018	-0.135
-678.208	165.453	-0.073	0.104
-677.193	-145.286	-0.180	-0.016
-676.178	-200.000	0.023	-0.252
-675.164	161.130	-0.059	-0.083
-674.149	422.819	0.211	0.456
-673.135	36.677	-0.127	-0.113
-672.120	-200.000	-0.072	-0.373
-671.105	24.058	-0.201	0.167
-670.091	98.576	-0.089	0.104
-669.076	-149.715	0.088	0.007
-668.062	-172.620	-0.154	0.005
-667.047	10.623	-0.240	-0.184
-666.032	54.074	0.308	-0.298
-665.018	-9.017	-0.163	0.110
-664.003	261.391	-0.019	-0.034
-662.989	-44.602	0.061	0.031
-661.974	-167.435	0.121	0.005
-660.959	800.000	0.038	0.144
-659.945	-200.000	-0.006	0.367
-658.930	45.253	0.081	0.075
-657.916	-200.000	-0.010	-0.092
-656.901	16.577	0.279	0.222
-655.886	233.659	0.257	-0.425
-654.872	328.567	-0.107	0.207
-653.857	-126.552	-0.264	-0.039
-652.843	126.359	-0.172	-0.219
-651.828	-200.000	0.018	-0.084
-650.814	-58.453	-0.352	-0.154
-649.799	-11.457	-0.086	-0.057
-648.784	-200.000	-0.043	0.225
-647.770	800.000	-0.125	-0.383
-646.755	-100.579	0.436	-0.108
-645.741	-200.000	0.013	-0.502
-644.726	-120.780	0.315	0.053
-643.711	286.828	0.064	-0.117
-642.697	-55.425	-0.101	-0.046
-641.682	109.000	0.206	-0.248
-640.668	800.000	0.074	-0.284
-639.653	218.996	0.070	0.112
-638.638	-200.000	-0.024	-0.413
-637.624	-200.000	0.037	0.284
-636.609	194.389	0.187	-0.285
-635.595	-112.518	0.301	-0.060
-634.580	-6.247	-0.034	-0.024
-633.565	165.094	-0.087	-0.124
-632.551	-200.000	-0.012	-0.160
-631.536	14.160	0.092	-0.072
-630.522	-200.000	0.039	0.343
-629.507	-81.989	-0.540	0.177
-628.492	132.884	0.231	0.300
-627.478	-200.000	-0.016	0.211
-626.463	204.277	-0.083	0.129
-625.449	315.136	-0.005	0.010
-624.434	-46.983	-0.265	-0.130
-623.419	800.000	-0.049	0.183
-622.405	-98.436	0.129	-0.033
-621.390	184.870	-0.153	0.228
-620.376	568.117	0.030	0.072
-619.361	-74.813	-0.219	-0.079
-618.346	-13.434	0.434	-0.283
-617.332	-71.817	-0.077	-0.029
-616.317	-200.000	0.010	0.181
-615.303	-200.000	0.019	-0.495
-614.288	311.184	-0.192	-0.361
-613.273	278.422	0.108	0.193
-612.259	621.881	0.085	-0.215
-611.244	-200.000	0.039	-0.210
-610.230	194.786	-0.069	-0.105
-609.215	-88.356	0.168	0.050
-608.201	800.000	0.068	-0.254
-607.186	245.340	-0.201	-0.339
-606.171	142.566	-0.053	-0.071
-605.157	-200.000	0.050	-0.384
-604.142	188.127	-0.225	0.337
-603.128	166.985	-0.103	0.147
-602.113	-75.381	-0.050	-0.018
-601.098	-39.175	-0.099	0.052
-600.084	-60.918	-0.291	0.124
-599.069	-200.000	0.011	0.144
-598.055	-83.363	-0.172	-0.055
-597.040	20.363	0.264	-0.214
-596.025	-46.635	-0.218	-0.107
-595.011	59.672	0.160	0.159
-593.996	-200.000	0.014	-0.157
-592.982	-200.000	-0.044	-0.267
-591.967	-78.224	0.125	0.043
-590.952	-86.012	-0.142	0.044
-589.938	118.489	0.142	0.176
-588.923	-115.651	-0.260	-0.049
-587.909	800.000	0.079	-0.255
-586.894	127.237	-0.105	-0.134
-585.879	-29.913	-0.255	0.146
-584.865	-200.000	0.010	0.193
-583.850	-114.398	0.327	-0.063
-582.836	-12.694	-0.387	-0.253
-581.821	730.537	0.067	0.180
-580.806	-186.934	-0.183	-0.003
-579.792	89.842	-0.111	-0.125
-578.777	800.000	0.054	0.162
-577.763	-200.000	-0.001	-0.219
-576.748	-20.509	-0.065	0.040
-575.733	111.943	-0.064	0.078
-574.719	-200.000	0.025	-0.141
-573.704	-48.977	-0.371	0.178
-572.690	-200.000	0.041	0.285
-571.675	-67.817	0.174	0.068
-570.661	800.000	0.115	0.487
-569.646	104.138	0.124	0.146
-568.631	228.262	0.120	-0.195
-567.617	563.840	-0.084	-0.204
-566.602	7.854	-0.071	-0.053
-565.588	-146.051	-0.398	-0.035
-564.573	97.813	0.209	-0.241
-563.558	26.255	-0.240	-0.201
-562.544	-12.659	-0.094	0.061
-561.529	-200.000	-0.047	-0.425
-560.515	73.860	-0.226	0.237
-559.500	-97.318	-0.378	0.099
-558.485	72.156	-0.305	0.318
-557.471	28.144	-0.325	0.275
-556.456	-20.007	-0.162	-0.100
-555.442	502.172	0.170	-0.394
-554.427	-9.736	0.264	-0.177
-553.412	-20.102	0.293	0.181
-552.398	-200.000	0.078	-0.362
-551.383	-57.335	-0.084	-0.037
-550.369	-6.156	0.238	-0.163
-549.354	-61.383	-0.492	-0.207
-548.339	-200.000	-0.007	0.033
-547.325	31.264	-0.157	-0.135
-546.310	74.539	-0.222	-0.234
-545.296	800.000	-0.100	-0.383
-544.281	28.437	0.233	0.198
-543.266	24.340	-0.088	0.073
-542.252	-148.149	-0.340	0.028
-541.237	49.603	0.190	0.179
-540.223	-200.000	0.003	-0.140
-539.208	6.415	0.172	0.128
-538.193	19.728	-0.306	-0.247
-537.179	-35.756	0.319	-0.173
-536.164	313.799	-0.159	-0.299
-535.150	437.655	0.056	-0.123
-534.135	292.873	0.058	0.105
-533.121	150.933	0.087	0.119
-532.106	-180.268	0.072	-0.002
-531.091	218.373	-0.018	0.029
-530.077	-33.322	0.291	0.161
-529.062	-72.305	-0.087	0.032
-528.048	800.000	0.006	-0.023
-527.033	131.850	-0.065	-0.084
-526.018	67.989	0.236	0.242
-525.004	37.500	-0.055	-0.049
-523.989	-145.497	-0.284	0.026
-522.975	-83.034	-0.215	0.069
-521.960	-185.499	-0.206	-0.003
-520.945	3.710	-0.083	0.061
-519.931	135.602	0.294	-0.383
-518.916	-157.039	0.082	0.005
-517.902	50.804	-0.157	0.149
-516.887	-36.394	0.054	0.029
-515.872	122.167	0.057	0.072
-514.858	-5.669	-0.205	0.141
-513.843	-35.369	-0.162	-0.088
-512.829	129.302	0.131	0.167
-511.814	102.722	0.067	-0.078
-510.799	-34.804	0.187	-0.102
-509.785	-60.358	0.198	0.084
-508.770	488.344	0.043	-0.098
-507.756	72.923	-0.182	-0.190
-506.741	27.796	0.111	-0.094
-505.726	-200.000	-0.022	0.208
-504.712	-200.000	0.015	0.173
-503.697	292.214	0.081	0.148
-502.683	-107.101	-0.200	0.044
-501.668	-123.533	0.113	0.018
-500.653	-54.878	-0.095	0.043
-499.639	1.364	0.244	-0.175
-498.624	555.369	-0.200	-0.482
-497.610	106.182	-0.136	-0.161
-496.595	269.644	0.150	-0.264
-495.581	431.918	0.095	-0.205
-494.566	-109.618	-0.205	0.043
-493.551	-145.123	-0.332	-0.030
-492.537	-152.563	0.126	0.009
-491.522	63.992	0.074	0.074
-490.508	-127.929	0.409	0.059
-489.493	-170.836	0.199	0.007
-488.478	-93.471	0.024	-0.007
-487.464	-134.558	-0.233	0.028
-486.449	-98.821	-0.138	0.035
-485.435	86.657	0.366	-0.404
-484.420	440.340	-0.195	-0.425
-483.405	538.371	0.140	-0.333
-482.391	-130.026	0.086	0.012
-481.376	-200.000	-0.052	-0.272
-480.362	-130.477	0.387	-0.052
-479.347	-55.565	0.222	0.099
-478.332	188.341	0.132	0.198
-477.318	-4.134	0.211	0.146
-476.303	-75.991	-0.205	0.072
-475.289	-200.000	0.029	0.204
-474.274	-112.574	0.584	0.116
-473.259	-135.280	-0.129	-0.015
-472.245	56.267	-0.027	0.026
-471.230	38.656	0.114	0.102
-470.216	86.529	-0.137	0.151
-469.201	-200.000	-0.031	-0.299
-468.186	72.078	0.126	0.131
-467.172	100.127	0.081	-0.093
-466.157	-72.583	0.261	-0.096
-465.143	-34.654	0.312	-0.170
-464.128	591.795	0.149	0.367
-463.113	-71.819	-0.165	-0.061
-462.099	-0.589	0.101	0.071
-461.084	-26.196	-0.116	-0.068
-460.070	-200.000	0.004	0.151
-459.055	800.000	-0.015	-0.056
-458.040	214.741	-0.098	-0.155
-457.026	-200.000	-0.071	-0.370
-456.011	9.560	0.194	0.147
-454.997	-168.665	0.083	-0.003
-453.982	-200.000	0.004	-0.097
-452.968	-112.014	-0.320	0.064
-451.953	-152.604	0.565	-0.040
-450.938	-125.067	-0.318	0.049
-449.924	62.493	-0.151	-0.150
-448.909	13.503	-0.033	0.026
-447.895	-34.341	0.232	-0.127
-446.880	-200.000	0.012	-0.214
-445.865	134.365	0.096	-0.124
-444.851	25.734	0.153	0.128
-443.836	-177.883	0.089	-0.002
-442.822	800.000	0.043	-0.180
-441.807	3.631	-0.402	-0.292
-440.792	25.156	0.364	-0.301
-439.778	-44.142	0.236	-0.118
-438.763	800.000	0.040	0.131
-437.749	-200.000	-0.030	0.233
-436.734	154.533	-0.079	0.109
-435.719	4.820	0.316	0.232
-434.705	800.000	0.009	-0.038
-433.690	-34.959	-0.086	0.047
-432.676	800.000	-0.127	0.360
-431.661	-200.000	0.012	0.138
-430.646	-17.865	-0.192	0.120
-429.632	9.305	0.068	0.052
-428.617	142.412	0.151	0.199
-427.603	800.000	0.011	0.031
-426.588	-190.565	0.113	-0.001
-425.573	196.859	0.122	-0.186
-424.559	-200.000	-0.009	-0.221
-423.544	-3.009	-0.462	-0.321
-422.530	-170.167	0.361	0.013
-421.515	-78.652	0.256	0.087
-420.500	-200.000	0.080	0.442
-419.486	15.003	0.078	-0.061
-418.471	-6.457	-0.091	0.062
-417.457	-142.209	0.103	0.010
-416.442	-38.364	-0.113	-0.060
-415.428	-200.000	0.009	-0.108
-414.413	-7.157	0.110	-0.074
-413.398	-60.843	-0.219	0.092
-412.384	-200.000	-0.026	0.259
-411.369	-200.000	0.023	0.209
-410.355	-80.364	-0.182	-0.060
-409.340	-3.590	-0.119	0.082
-408.325	165.244	-0.105	0.148
-407.311	733.488	0.034	0.092
-406.296	21.834	-0.082	-0.067
-405.282	-200.000	-0.024	0.127
-404.267	688.510	0.084	0.219
-403.252	75.198	-0.118	-0.124
-402.238	-41.214	0.054	-0.028
-401.223	623.606	0.162	-0.408
-400.209	75.034	-0.117	-0.123
-399.194	48.977	0.162	0.151
-398.179	38.438	0.158	0.140
-397.165	800.000	0.043	0.171
-396.150	272.204	-0.018	-0.032
-395.136	-26.040	0.064	-0.038
-394.121	800.000	-0.093	0.364
-393.106	-200.000	0.052	-0.315
-392.092	-200.000	0.054	0.236
-391.077	-75.267	0.417	-0.148
-390.063	591.964	0.133	-0.327
-389.048	85.881	0.102	-0.111
-388.033	-120.587	-0.118	-0.020
-387.019	-64.651	-0.288	-0.116
-386.004	-110.787	-0.435	0.089
-384.990	-53.436	0.249	-0.113
-383.975	467.992	-0.131	-0.293
-382.960	-200.000	0.000	0.113
-381.946	-79.175	-0.609	0.206
-380.931	-200.000	-0.005	0.057
-379.917	-28.154	-0.075	-0.043
-378.902	-135.390	-0.052	-0.006
-377.888	389.885	-0.115	0.236
-376.873	-200.000	0.022	0.211
-375.858	-101.231	0.070	0.017
-374.844	-200.000	-0.015	-0.283
-373.829	-161.095	-0.208	0.011
-372.815	36.715	-0.075	-0.066
-371.800	20.986	-0.047	-0.038
-370.785	71.274	-0.052	-0.053
-369.771	-119.413	-0.107	-0.019
-368.756	-31.442	-0.308	0.172
-367.742	-19.133	0.172	-0.106
-366.727	-28.685	0.084	-0.048
-365.712	-133.861	0.256	0.032
-364.698	16.449	0.070	-0.055
-363.683	432.143	-0.042	0.090
-362.669	-200.000	-0.004	0.122
-361.654	404.472	-0.070	0.147
-360.639	-113.754	-0.289	0.056
-359.625	-150.276	-0.305	0.023
-358.610	-200.000	-0.008	-0.037
-357.596	-54.781	0.074	0.033
-356.581	279.531	0.087	-0.155
-355.566	-48.643	0.249	-0.119
-354.552	-200.000	-0.006	-0.175
-353.537	-93.179	0.158	0.044
-352.523	-200.000	-0.009	-0.275
-351.508	-16.362	-0.133	0.084
-350.493	211.632	0.066	0.104
-349.479	323.193	-0.092	0.175
-348.464	-74.987	-0.087	0.031
-347.450	338.609	0.244	0.472
-346.435	-182.850	-0.288	0.005
-345.420	195.172	0.044	-0.067
-344.406	-85.711	-0.367	0.113
-343.391	-44.461	0.070	0.035
-342.377	212.842	-0.118	-0.185
-341.362	108.601	0.098	-0.116
-340.348	-146.595	-0.263	0.023
-339.333	140.362	0.110	0.144
-338.318	60.001	-0.052	0.051
-337.304	800.000	-0.062	0.239
-336.289	356.653	0.070	0.139
-335.275	-173.984	-0.118	-0.003
-334.260	89.651	-0.190	0.211
-333.245	-61.315	-0.212	-0.089
-332.231	-200.000	0.036	0.202
-331.216	49.116	-0.150	0.140
-330.202	-200.000	0.015	0.321
-329.187	128.393	0.211	-0.266
-328.172	-41.070	-0.127	0.065
-327.158	-117.103	0.205	0.037
-326.143	125.834	-0.103	-0.130
-325.129	183.465	-0.031	-0.046
-324.114	-200.000	-0.032	0.305
-323.099	15.325	0.277	0.216
-322.085	-33.393	-0.258	0.142
-321.070	-106.216	0.084	0.019
-320.056	-200.000	0.009	-0.097
-319.041	800.000	0.074	-0.260
-318.026	-29.185	-0.391	-0.222
-317.012	-119.462	0.116	-0.020
-315.997	-200.000	0.026	0.379
-314.983	658.858	0.063	-0.161
-313.968	-4.424	-0.233	0.160
-312.953	-157.695	0.377	-0.022
-311.939	-102.173	-0.206	-0.049
-310.924	196.358	0.058	0.088
-309.910	800.000	0.091	-0.286
-308.895	-167.403	-0.399	-0.016
-307.880	-71.866	-0.140	0.052
-306.866	800.000	0.023	-0.091
-305.851	-77.358	0.404	-0.139
-304.837	123.897	0.012	0.016
-303.822	199.263	-0.214	0.325
-302.807	73.245	-0.114	-0.118
-301.793	122.563	-0.083	-0.103
-300.778	134.384	0.068	0.088
-299.764	-70.121	0.085	-0.032
-298.749	371.743	-0.149	-0.299
-297.735	-157.949	-0.310	-0.018
-296.720	155.124	-0.071	0.097
-295.705	16.013	-0.229	-0.179
-294.691	800.000	-0.041	0.171
-293.676	-51.776	-0.048	-0.022
-292.662	-78.905	-0.356	0.120
-291.647	-200.000	0.052	0.231
-290.632	-31.237	-0.177	-0.099
-289.618	756.517	0.003	-0.008
-288.603	543.384	-0.097	-0.230
-287.589	-200.000	0.040	-0.185
-286.574	-102.853	-0.171	-0.040
-285.559	-87.756	0.158	0.047
-284.545	-59.990	-0.055	-0.023
-283.530	-0.989	0.008	-0.006
-282.516	86.438	0.136	0.149
-281.501	-105.786	-0.371	0.083
-280.486	-39.947	-0.207	0.107
-279.472	-200.000	-0.002	-0.045
-278.457	800.000	-0.072	0.218
-277.443	-151.139	-0.102	-0.008
-276.428	81.260	-0.138	-0.148
-275.413	-16.190	-0.254	0.160
-274.399	54.643	0.094	-0.090
-273.384	-15.581	-0.097	-0.061
-272.370	-200.000	-0.024	-0.265
-271.355	-186.434	0.269	0.004
-270.340	42.585	-0.205	0.185
-269.326	480.266	0.067	0.151
-268.311	-139.481	0.332	0.035
-267.297	-149.325	0.272	0.021
-266.282	800.000	-0.042	-0.163
-265.267	-99.903	-0.301	0.075
-264.253	-167.617	0.271	0.011
-263.238	120.019	0.218	-0.268
-262.224	-14.015	0.120	-0.076
-261.209	-71.720	0.032	0.012
-260.195	-157.147	-0.348	-0.021
-259.180	11.690	0.243	-0.185
-258.165	30.508	-0.089	-0.075
-257.151	800.000	-0.051	-0.151
-256.136	799.597	-0.094	-0.256
-255.122	69.506	0.179	-0.183
-254.107	129.680	0.146	0.185
-253.092	588.074	0.063	-0.154
-252.078	264.746	0.035	0.061
-251.063	88.233	-0.110	0.121
-250.049	388.408	-0.064	-0.131
-249.034	31.840	-0.218	0.186
-248.019	-68.659	0.103	0.040
-247.005	-200.000	-0.029	0.125
-245.990	96.441	0.135	-0.153
-244.976	292.260	0.049	-0.088
-243.961	800.000	-0.033	0.095
-242.946	-88.447	-0.156	0.046
-241.932	-200.000	0.014	0.166
-240.917	-15.459	0.089	0.057
-239.903	-200.000	-0.030	-0.267
-238.888	-130.239	-0.278	-0.037
-237.873	-200.000	-0.013	0.064
-236.859	-142.634	-0.095	-0.009
-235.844	442.208	0.161	0.349
-234.830	-23.097	-0.301	0.179
-233.815	800.000	-0.122	0.351
-232.800	36.590	0.249	-0.218
-231.786	-98.711	-0.331	-0.083
-230.771	800.000	-0.071	0.203
-229.757	-114.191	0.220	-0.042
-228.742	-94.206	-0.178	-0.048
-227.727	-2.801	0.044	0.030
-226.713	183.517	-0.125	0.183
-225.698	-147.648	0.280	0.023
-224.684	-200.000	-0.007	0.115
-223.669	308.494	-0.250	0.461
-222.655	-48.522	-0.228	0.108
-221.640	-200.000	-0.011	-0.373
-220.625	-200.000	-0.046	0.242
-219.611	-200.000	-0.015	0.074
-218.596	-121.169	0.285	0.047
-217.582	-72.276	-0.262	0.096
-216.567	-31.921	-0.040	0.022
-215.552	227.466	0.051	-0.082
-214.538	-72.841	-0.267	0.097
-213.523	70.120	0.174	0.178
-212.509	281.826	-0.054	0.096
-211.494	557.639	0.106	-0.254
-210.479	24.724	0.108	-0.089
-209.465	455.992	-0.130	0.286
-208.450	-6.752	-0.321	0.216
-207.436	-176.220	0.545	-0.014
-206.421	35.887	-0.085	-0.074
-205.406	95.260	-0.047	0.053
-204.392	-62.280	-0.122	0.050
-203.377	800.000	0.160	0.586
-202.363	-131.297	0.460	-0.060
-201.348	192.510	0.123	0.183
-200.333	-200.000	-0.046	-0.211
-199.319	460.804	-0.048	0.105
-198.304	60.152	0.132	0.129
-197.290	-7.761	-0.240	0.160
-196.275	465.882	0.163	0.361
-195.260	-40.498	0.384	-0.197
-194.246	800.000	0.094	-0.317
-193.231	-200.000	0.001	-0.151
-192.217	-143.493	-0.148	-0.014
-191.202	90.514	0.148	0.163
-190.187	800.000	0.159	0.553
-189.173	-45.840	0.258	-0.126
-188.158	-33.795	0.139	0.076
-187.144	504.404	0.134	0.306
-186.129	-124.817	0.307	0.047
-185.114	108.621	-0.316	-0.373
-184.100	31.521	-0.167	0.142
-183.085	171.933	-0.046	-0.066
-182.071	-76.252	-0.040	0.014
-181.056	178.971	-0.073	0.106
-180.042	-153.727	-0.137	0.009
-179.027	77.152	0.074	0.077
-178.012	-200.000	0.023	0.148
-176.998	800.000	-0.027	0.076
-175.983	800.000	-0.038	0.139
-174.969	-23.340	0.202	0.120
-173.954	-35.118	0.317	-0.171
-172.939	213.295	0.078	-0.121
-171.925	118.792	0.177	0.216
-170.910	70.868	0.289	-0.296
-169.896	-79.436	0.160	-0.053
-168.881	646.819	0.066	0.166
-167.866	197.272	0.189	-0.285
-166.852	-189.429	-0.075	0.001
-165.837	-196.381	0.380	-0.003
-164.823	504.155	-0.104	0.237
-163.808	493.204	0.142	0.321
-162.793	-146.667	0.326	0.028
-161.779	-200.000	0.022	0.373
-160.764	265.613	0.098	0.168
-159.750	-200.000	0.038	-0.248
-158.735	-75.202	0.078	-0.027
-157.720	800.000	-0.063	0.252
-156.706	-200.000	0.050	0.262
-155.691	42.486	0.105	0.094
-154.677	-200.000	0.012	0.100
-153.662	-10.999	0.313	-0.204
-152.647	53.135	0.073	-0.069
-151.633	-81.396	0.252	-0.082
-150.618	-29.796	-0.250	0.141
-149.604	45.658	-0.384	0.350
-148.589	-42.781	-0.041	0.021
-147.574	525.037	-0.042	0.097
-146.560	295.004	0.184	-0.332
-145.545	-34.309	-0.253	0.137
-144.531	-200.000	-0.017	-0.250
-143.516	-68.198	0.282	0.108
-142.502	6.117	0.090	-0.066
-141.487	-140.748	-0.158	-0.016
-140.472	-36.463	0.352	-0.187
-139.458	-132.970	0.087	0.011
-138.443	-97.812	0.175	-0.045
-137.429	-130.511	0.117	-0.016
-136.414	-200.000	-0.007	-0.132
-135.399	-120.378	-0.139	-0.023
-134.385	-132.041	0.222	0.028
-133.370	-148.407	-0.298	-0.024
-132.356	-200.000	0.332	0.001
-131.341	-200.000	-0.041	-0.256
-130.326	128.311	-0.238	-0.299
-129.312	397.636	-0.081	0.168
-128.297	-200.000	0.034	-0.275
-127.283	-20.659	-0.110	-0.067
-126.268	-200.000	-0.032	-0.228
-125.253	-4.405	-0.057	0.039
-124.239	-86.627	0.143	-0.043
-123.224	800.000	-0.081	-0.307
-122.210	-146.301	-0.207	-0.018
-121.195	69.221	0.058	-0.059
