DTS Sentinel unit serial number:	SN413079Multiplexer serial number:	ORYXHardware model number:	OX4-SRSoftware version number:	ORYX F/W v4.00 Oryx Data Collector v3.7.2.0data status	okinstallation	princeton_trtdifferential loss correction	single-endedforward channel	channel 1reverse channel	N/Adate	2019/09/17time	03:34:35forward acquisition time	60.00reverse acquisition time	0.00gamma	496.2192k internal	0.2323k external	0.2323temperature offset calibration	0.9961default loss term (dB/km)	0.3790temperature slope calibration	1.0000multiplexer offset coefficient	1.0000multiplexer slope coefficient	1.0000fibre end	0.00T internal ref (°C)	30.00T ext. ref 1 (°C)	0.14T ext. ref 2 (°C)	24.60length (m)	temperature (°C)	Stokes	anti-Stokes-747.200	-122.849	-0.196	-0.032
-746.185	-117.485	-0.063	-0.012
-745.171	-200.000	-0.005	0.366
-744.156	-200.000	-0.049	0.406
-743.142	-77.879	0.300	0.105
-742.127	511.682	-0.164	0.387
-741.112	-96.985	-0.195	0.052
-740.098	-114.184	0.443	-0.086
-739.083	30.851	-0.250	-0.217
-738.069	349.470	-0.195	0.389
-737.054	-26.556	-0.237	0.140
-736.039	-45.985	-0.393	0.196
-735.025	-29.777	0.240	0.138
-734.010	114.398	0.059	-0.073
-732.996	-138.746	-0.165	-0.018
-731.981	700.492	0.028	0.076
-730.966	-162.824	0.343	0.017
-729.952	514.337	0.133	-0.314
-728.937	5.524	-0.090	0.067
-727.923	576.579	-0.047	-0.115
-726.908	800.000	-0.068	-0.292
-725.894	638.636	0.134	-0.343
-724.879	-53.045	0.180	0.084
-723.864	800.000	0.038	0.131
-722.850	300.476	0.152	0.282
-721.835	800.000	-0.041	0.165
-720.821	631.803	-0.053	0.135
-719.806	-75.622	-0.201	0.072
-718.791	238.430	0.199	0.333
-717.777	501.682	-0.094	-0.218
-716.762	-52.304	-0.149	-0.070
-715.748	292.485	0.075	0.139
-714.733	-106.887	0.124	0.028
-713.718	-26.979	0.366	0.216
-712.704	-200.000	-0.007	0.059
-711.689	800.000	-0.031	0.098
-710.675	-41.683	-0.082	0.042
-709.660	-69.893	-0.186	-0.072
-708.645	651.678	0.029	0.076
-707.631	-200.000	-0.021	-0.139
-706.616	34.080	-0.108	-0.094
-705.602	139.061	0.043	0.057
-704.587	800.000	0.016	0.058
-703.572	-200.000	-0.019	0.137
-702.558	53.171	0.268	-0.259
-701.543	-88.410	0.246	0.074
-700.529	-132.680	0.413	0.053
-699.514	-145.418	-0.330	-0.030
-698.499	-72.079	-0.353	-0.132
-697.485	800.000	0.066	0.217
-696.470	213.277	0.173	0.275
-695.456	-82.779	0.181	0.059
-694.441	81.380	0.111	-0.121
-693.426	-76.709	-0.377	-0.133
-692.412	-200.000	-0.023	-0.123
-691.397	-51.824	0.125	-0.059
-690.383	20.751	-0.178	-0.146
-689.368	762.240	-0.080	0.219
-688.354	96.913	-0.154	-0.178
-687.339	117.981	-0.378	0.470
-686.324	-48.489	-0.213	0.103
-685.310	593.468	-0.118	-0.293
-684.295	-132.459	0.078	-0.010
-683.281	547.880	-0.021	0.051
-682.266	439.229	0.069	0.152
-681.251	-200.000	0.025	-0.175
-680.237	79.882	0.282	0.306
-679.222	512.784	0.056	-0.130
-678.208	-200.000	0.073	-0.500
-677.193	800.000	-0.048	0.153
-676.178	-200.000	0.053	-0.355
-675.164	138.914	-0.136	-0.180
-674.149	-97.290	-0.287	-0.075
-673.135	-117.155	0.158	-0.029
-672.120	-200.000	-0.030	-0.246
-671.105	-78.043	-0.166	0.058
-670.091	31.914	0.196	-0.170
-669.076	-82.021	0.072	-0.024
-668.062	-100.542	0.125	-0.031
-667.047	763.396	-0.069	-0.189
-666.032	-200.000	0.026	0.134
-665.018	288.461	-0.071	0.129
-664.003	-99.891	-0.218	0.055
-662.989	17.056	-0.095	-0.076
-661.974	29.511	-0.150	-0.129
-660.959	292.242	0.021	-0.038
-659.945	48.549	0.215	0.203
-658.930	132.387	-0.196	0.255
-657.916	243.151	-0.095	-0.161
-656.901	800.000	-0.023	-0.085
-655.886	-129.006	0.365	-0.052
-654.872	-42.672	-0.292	0.150
-653.857	48.692	0.132	0.125
-652.843	177.839	-0.222	-0.326
-651.828	-181.909	0.203	-0.004
-650.814	-69.686	0.203	-0.078
-649.799	-31.220	-0.056	-0.032
-648.784	-137.066	-0.229	-0.026
-647.770	-144.739	-0.305	-0.028
-646.755	-185.913	0.234	-0.003
-645.741	-36.100	0.134	0.073
-644.726	279.083	-0.078	-0.140
-643.711	-125.238	0.127	-0.019
-642.697	-42.201	-0.208	-0.107
-641.682	-118.919	0.282	-0.050
-640.668	89.686	-0.062	0.070
-639.653	111.029	-0.164	0.198
-638.638	800.000	0.115	-0.381
-637.624	125.599	-0.168	0.213
-636.609	536.252	-0.152	0.363
-635.595	800.000	0.086	-0.258
-634.580	138.174	-0.072	0.095
-633.565	-119.295	0.143	-0.025
-632.551	37.723	0.235	0.210
-631.536	128.647	-0.134	-0.171
-630.522	150.547	0.115	0.157
-629.507	590.959	0.090	-0.222
-628.492	-200.000	-0.001	-0.013
-627.478	-102.251	0.235	0.057
-626.463	-200.000	-0.041	0.223
-625.449	-83.814	-0.289	0.092
-624.434	-45.562	-0.302	0.150
-623.419	-66.911	-0.148	-0.059
-622.405	800.000	0.082	-0.240
-621.390	229.243	-0.049	0.080
-620.376	573.253	0.045	0.109
-619.361	-61.636	-0.042	-0.018
-618.346	318.034	-0.064	0.121
-617.332	-200.000	-0.089	0.482
-616.317	-200.000	0.002	0.218
-615.303	16.462	0.158	-0.125
-614.288	-28.106	-0.248	-0.144
-613.273	72.523	-0.022	-0.023
-612.259	-54.750	0.241	-0.110
-611.244	-91.322	0.112	-0.032
-610.230	-200.000	-0.023	0.265
-609.215	171.357	0.133	0.191
-608.201	-93.741	0.238	-0.066
-607.186	430.005	-0.015	0.034
-606.171	-105.966	-0.377	-0.085
-605.157	248.269	-0.029	-0.048
-604.142	-200.000	0.028	-0.471
-603.128	-44.933	0.282	-0.141
-602.113	-200.000	0.069	0.407
-601.098	-99.501	-0.206	0.052
-600.084	800.000	-0.037	0.128
-599.069	359.909	-0.064	0.128
-598.055	379.886	-0.125	-0.258
-597.040	9.478	0.325	-0.247
-596.025	-105.703	-0.064	0.014
-595.011	-148.473	0.235	-0.019
-593.996	-93.873	0.040	0.011
-592.982	-200.000	0.017	-0.078
-591.967	733.327	-0.048	-0.129
-590.952	54.832	-0.157	-0.152
-589.938	-38.508	0.034	-0.018
-588.923	-63.075	0.216	0.090
-587.909	-160.816	-0.175	-0.009
-586.894	-124.850	0.177	-0.027
-585.879	33.380	-0.122	-0.106
-584.865	21.905	0.385	-0.315
-583.850	339.400	-0.098	-0.192
-582.836	800.000	-0.099	-0.321
-581.821	701.731	0.069	0.181
-580.806	800.000	-0.054	-0.162
-579.792	-168.416	-0.326	0.013
-578.777	-200.000	0.043	-0.253
-577.763	-115.162	0.145	0.028
-576.748	226.965	0.133	0.217
-575.733	-200.000	0.006	-0.065
-574.719	302.034	0.142	0.263
-573.704	-200.000	0.013	0.093
-572.690	-41.507	0.160	0.083
-571.675	206.295	-0.115	-0.180
-570.661	42.228	0.144	-0.131
-569.646	-200.000	0.020	-0.191
-568.631	-127.774	-0.171	0.025
-567.617	179.693	0.270	0.396
-566.602	800.000	0.054	-0.211
-565.588	-10.612	-0.068	0.045
-564.573	477.531	-0.030	-0.068
-563.558	800.000	-0.028	0.122
-562.544	-200.000	-0.009	0.173
-561.529	-64.560	0.234	-0.095
-560.515	-200.000	-0.052	0.452
-559.500	800.000	-0.021	0.063
-558.485	800.000	0.051	0.165
-557.471	-200.000	-0.003	0.103
-556.456	118.328	-0.146	0.180
-555.442	286.886	-0.116	-0.211
-554.427	-37.697	0.263	-0.141
-553.412	800.000	-0.045	-0.185
-552.398	800.000	0.006	0.019
-551.383	800.000	0.084	-0.283
-550.369	-186.177	-0.133	-0.002
-549.354	381.369	-0.160	-0.329
-548.339	-59.083	0.209	-0.090
-547.325	-44.847	-0.241	0.121
-546.310	800.000	-0.045	0.127
-545.296	86.028	-0.160	-0.177
-544.281	800.000	-0.049	0.141
-543.266	490.299	0.185	0.424
-542.252	-200.000	0.006	0.391
-541.237	-200.000	0.024	0.260
-540.223	373.696	0.054	-0.110
-539.208	-74.028	0.142	0.052
-538.193	-98.955	-0.239	0.061
-537.179	10.778	0.229	-0.175
-536.164	353.126	0.110	0.219
-535.150	-49.813	0.033	-0.016
-534.135	-200.000	-0.008	0.166
-533.121	59.818	0.123	0.122
-532.106	211.739	-0.120	0.189
-531.091	155.427	-0.051	-0.070
-530.077	-156.576	0.170	-0.011
-529.062	-152.906	-0.196	-0.014
-528.048	-200.000	0.015	-0.217
-527.033	679.383	-0.045	-0.116
-526.018	-26.371	0.224	-0.131
-525.004	800.000	0.036	-0.111
-523.989	16.494	0.173	-0.137
-522.975	-200.000	0.012	0.082
-521.960	304.921	0.019	0.036
-520.945	-154.082	0.432	0.029
-519.931	70.887	-0.056	0.058
-518.916	122.204	-0.201	-0.252
-517.902	82.934	-0.033	0.036
-516.887	-58.759	0.365	-0.158
-515.872	-172.866	0.205	0.006
-514.858	148.084	-0.115	-0.155
-513.843	-183.582	-0.102	0.002
-512.829	-200.000	0.017	-0.315
-511.814	-87.874	0.406	0.122
-510.799	-28.526	0.045	-0.026
-509.785	-59.120	-0.368	-0.159
-508.770	-93.901	-0.144	-0.040
-507.756	-91.829	0.245	-0.070
-506.741	-200.000	-0.007	0.254
-505.726	91.754	0.145	0.164
-504.712	-25.937	-0.196	-0.115
-503.697	-66.682	0.411	-0.163
-502.683	800.000	-0.037	0.149
-501.668	-86.274	-0.163	-0.050
-500.653	30.235	-0.252	-0.215
-499.639	-69.711	0.322	-0.123
-498.624	-78.316	0.187	-0.064
-497.610	21.019	-0.216	-0.175
-496.595	-200.000	0.080	-0.454
-495.581	-200.000	-0.018	0.285
-494.566	47.559	0.115	-0.108
-493.551	429.002	-0.107	-0.231
-492.537	184.590	-0.123	0.182
-491.522	227.912	0.065	-0.105
-490.508	0.096	0.244	-0.174
-489.493	-200.000	-0.014	-0.098
-488.478	800.000	-0.005	0.018
-487.464	-86.295	0.230	0.071
-486.449	-101.471	-0.332	0.081
-485.435	-146.714	-0.161	0.014
-484.420	-116.372	-0.233	0.043
-483.405	54.790	-0.109	0.106
-482.391	800.000	0.079	0.228
-481.376	75.938	-0.227	-0.240
-480.362	800.000	0.054	-0.186
-479.347	-163.373	-0.116	-0.006
-478.332	800.000	-0.062	0.187
-477.318	-108.644	-0.278	-0.060
-476.303	-200.000	0.014	-0.114
-475.289	-21.151	-0.115	0.071
-474.274	-38.471	-0.361	-0.191
-473.259	421.854	0.077	-0.166
-472.245	557.048	0.064	-0.154
-471.230	445.718	0.134	0.293
-470.216	-71.389	0.202	0.076
-469.201	-30.842	0.288	0.163
-468.186	-200.000	-0.054	-0.265
-467.172	-8.390	-0.045	0.030
-466.157	-28.860	0.079	-0.046
-465.143	-200.000	-0.023	-0.570
-464.128	-63.848	-0.201	-0.082
-463.113	-19.241	-0.130	0.080
-462.099	-22.275	0.022	-0.013
-461.084	-200.000	-0.051	0.230
-460.070	-8.919	-0.182	0.122
-459.055	800.000	-0.054	-0.162
-458.040	-61.444	0.290	0.122
-457.026	226.679	-0.125	-0.203
-456.011	-18.257	0.193	0.120
-454.997	0.316	-0.037	0.027
-453.982	739.060	0.036	0.095
-452.968	223.902	-0.116	0.188
-451.953	-21.648	0.198	-0.120
-450.938	284.419	0.064	0.116
-449.924	-61.251	0.334	0.140
-448.909	-200.000	-0.078	-0.544
-447.895	-80.764	-0.206	-0.068
-446.880	800.000	0.029	-0.127
-445.865	52.022	-0.150	0.143
-444.851	68.839	0.048	-0.049
-443.836	800.000	0.056	0.182
-442.822	800.000	-0.043	0.163
-441.807	-93.913	-0.378	0.104
-440.792	800.000	-0.110	-0.468
-439.778	320.812	0.098	0.185
-438.763	377.488	-0.084	-0.171
-437.749	-62.303	-0.297	-0.124
-436.734	-153.423	-0.534	-0.037
-435.719	800.000	-0.029	-0.122
-434.705	-134.092	0.143	0.018
-433.690	-52.841	-0.245	0.113
-432.676	-118.464	-0.313	-0.055
-431.661	-19.005	-0.251	-0.156
-430.646	411.467	-0.071	-0.151
-429.632	-14.798	0.260	0.166
-428.617	49.736	-0.203	-0.190
-427.603	800.000	-0.103	-0.338
-426.588	-178.697	-0.085	-0.002
-425.573	800.000	0.057	-0.211
-424.559	-110.469	-0.319	0.066
-423.544	657.164	0.122	0.312
-422.530	-200.000	0.222	-0.000
-421.515	-118.885	-0.174	0.031
-420.500	800.000	-0.207	-0.717
-419.486	649.071	0.065	-0.167
-418.471	-144.242	0.251	-0.023
-417.457	-39.868	0.144	0.075
-416.442	94.276	0.158	-0.178
-415.428	-140.531	-0.472	-0.049
-414.413	44.370	0.132	-0.120
-413.398	100.793	-0.176	-0.204
-412.384	599.841	-0.054	0.135
-411.369	-125.234	0.133	-0.020
-410.355	-200.000	0.006	-0.044
-409.340	166.941	-0.061	-0.087
-408.325	-169.390	-0.056	0.002
-407.311	-64.362	0.525	0.213
-406.296	193.218	-0.085	0.128
-405.282	-111.963	-0.101	0.020
-404.267	-200.000	-0.020	0.176
-403.252	-104.350	-0.160	0.037
-402.238	328.590	-0.050	0.096
-401.223	-200.000	-0.034	-0.266
-400.209	72.406	0.227	-0.236
-399.194	-22.727	0.163	0.098
-398.179	-71.055	-0.176	-0.066
-397.165	174.572	0.183	-0.264
-396.150	-90.949	0.217	-0.062
-395.136	-61.676	0.072	0.030
-394.121	403.488	0.014	-0.029
-393.106	-53.844	0.313	-0.142
-392.092	-31.007	0.319	0.179
-391.077	231.072	0.145	0.236
-390.063	84.437	0.055	-0.060
-389.048	-38.892	0.124	0.065
-388.033	137.267	0.235	0.305
-387.019	5.843	0.254	0.187
-386.004	177.623	0.283	0.411
-384.990	-77.164	0.130	0.045
-383.975	76.358	-0.132	0.140
-382.960	-200.000	-0.017	-0.245
-381.946	800.000	-0.082	0.243
-380.931	-54.035	-0.343	0.155
-379.917	-123.455	0.198	0.031
-378.902	-45.350	0.133	-0.066
-377.888	800.000	0.084	-0.253
-376.873	92.462	-0.236	-0.265
-375.858	-54.664	-0.247	0.111
-374.844	-55.927	0.022	0.010
-373.829	208.350	-0.164	0.255
-372.815	-36.934	-0.162	-0.087
-371.800	-4.124	0.107	-0.074
-370.785	-104.840	0.106	0.024
-369.771	631.306	-0.052	-0.131
-368.756	57.059	0.136	0.132
-367.742	64.497	-0.097	0.097
-366.727	800.000	-0.055	0.234
-365.712	-7.988	-0.255	0.171
-364.698	-86.124	-0.194	-0.059
-363.683	-200.000	0.031	-0.301
-362.669	-200.000	0.061	0.434
-361.654	-200.000	0.057	0.252
-360.639	-2.346	-0.040	0.028
-359.625	-200.000	-0.022	0.237
-358.610	35.432	0.210	-0.183
-357.596	79.471	0.099	0.106
-356.581	45.314	-0.147	-0.135
-355.566	-101.119	-0.130	0.032
-354.552	729.810	-0.066	0.174
-353.537	115.181	0.207	-0.252
-352.523	42.701	0.245	-0.221
-351.508	40.317	-0.165	0.148
-350.493	800.000	-0.041	0.147
-349.479	45.783	0.230	-0.212
-348.464	34.135	-0.204	0.177
-347.450	232.273	0.141	0.230
-346.435	221.488	-0.189	-0.301
-345.420	-72.373	0.209	0.077
-344.406	-200.000	0.003	0.082
-343.391	350.633	-0.048	0.095
-342.377	-200.000	0.005	0.120
-341.362	-11.388	0.296	0.193
-340.348	626.173	0.078	-0.196
-339.333	-108.637	-0.157	-0.034
-338.318	-114.536	-0.217	-0.041
-337.304	163.398	0.076	0.106
-336.289	800.000	-0.082	-0.230
-335.275	-200.000	-0.006	-0.026
-334.260	49.250	0.306	0.286
-333.245	377.134	-0.060	-0.122
-332.231	124.082	-0.246	-0.307
-331.216	43.396	-0.063	0.057
-330.202	49.773	0.324	-0.303
-329.187	-143.997	0.368	-0.034
-328.172	-57.054	0.265	0.116
-327.158	-136.115	0.170	-0.020
-326.143	-152.257	-0.249	0.018
-325.129	-200.000	0.012	0.197
-324.114	175.484	-0.292	-0.420
-323.099	-94.712	-0.228	0.061
-322.085	51.349	-0.120	0.113
-321.070	-200.000	-0.000	-0.211
-320.056	218.775	0.141	0.224
-319.041	399.863	0.057	0.119
-318.026	221.537	0.089	-0.143
-317.012	-45.085	0.216	0.107
-315.997	-200.000	-0.016	0.340
-314.983	98.547	0.152	0.174
-313.968	138.071	-0.279	0.363
-312.953	-80.122	-0.227	-0.076
-311.939	800.000	-0.011	0.038
-310.924	-200.000	-0.304	0.000
-309.910	152.798	0.097	0.131
-308.895	84.085	-0.044	-0.048
-307.880	-125.193	-0.220	0.033
-306.866	-29.476	-0.151	0.086
-305.851	-53.510	-0.567	0.258
-304.837	3.342	0.269	0.195
-303.822	-200.000	0.012	-0.087
-302.807	-144.628	0.200	-0.018
-301.793	-2.273	0.242	0.168
-300.778	-45.367	-0.236	0.116
-299.764	-21.281	0.103	0.063
-298.749	-200.000	-0.009	-0.300
-297.735	198.039	0.213	0.323
-296.720	105.475	0.155	-0.182
-295.705	800.000	-0.112	-0.310
-294.691	-129.540	0.214	0.029
-293.676	-33.572	0.209	0.115
-292.662	800.000	-0.074	-0.263
-291.647	192.391	-0.133	0.199
-290.632	-200.000	-0.028	0.454
-289.618	66.645	-0.085	0.086
-288.603	-200.000	-0.022	0.206
-287.589	285.643	-0.083	-0.148
-286.574	-67.591	0.210	0.082
-285.559	63.303	0.116	0.115
-284.545	-200.000	-0.056	-0.250
-283.530	-82.689	0.288	-0.093
-282.516	-128.760	-0.258	0.036
-281.501	3.098	-0.124	0.089
-280.486	-106.357	-0.232	-0.052
-279.472	-200.000	-0.021	-0.164
-278.457	-6.160	-0.307	0.208
-277.443	-200.000	-0.038	-0.382
-276.428	-19.253	0.176	-0.108
-275.413	16.895	0.154	-0.121
-274.399	525.957	-0.066	0.153
-273.384	-1.382	0.218	0.153
-272.370	-106.125	-0.124	-0.028
-271.355	-109.348	0.296	0.062
-270.340	149.681	0.114	0.153
-269.326	256.006	0.042	-0.071
-268.311	508.204	-0.145	0.334
-267.297	-59.797	0.242	-0.103
-266.282	-142.719	0.221	-0.021
-265.267	-126.472	0.161	-0.024
-264.253	341.759	-0.086	0.167
-263.238	-200.000	0.002	0.132
-262.224	-200.000	-0.009	-0.054
-261.209	478.917	0.165	-0.370
-260.195	106.871	-0.214	0.251
-259.180	-0.349	-0.084	-0.059
-258.165	321.854	0.072	0.136
-257.151	172.583	-0.116	-0.166
-256.136	36.804	0.168	-0.147
-255.122	-59.121	-0.439	-0.188
-254.107	-200.000	-0.028	0.247
-253.092	-34.245	-0.223	-0.121
-252.078	-139.172	0.218	0.023
-251.063	800.000	0.127	0.420
-250.049	292.337	0.104	-0.187
-249.034	-21.966	-0.105	0.063
-248.019	-200.000	-0.008	-0.050
-247.005	-77.147	-0.190	-0.065
-245.990	-17.842	-0.153	-0.095
-244.976	-138.586	-0.103	0.011
-243.961	-154.048	-0.221	-0.015
-242.946	-200.000	-0.010	0.295
-241.932	-25.759	-0.071	0.041
-240.917	174.503	-0.024	-0.034
-239.903	350.478	-0.145	0.283
-238.888	-161.066	0.165	-0.009
-237.873	-51.936	-0.115	0.053
-236.859	12.412	0.247	0.188
-235.844	265.478	0.127	-0.220
-234.830	234.164	-0.126	-0.206
-233.815	-200.000	-0.047	-0.295
-232.800	161.294	0.310	0.429
-231.786	55.737	0.131	-0.126
-230.771	-200.000	0.006	-0.078
-229.757	800.000	-0.030	0.083
-228.742	221.661	-0.083	0.132
-227.727	-179.923	-0.204	-0.004
-226.713	-189.295	0.082	-0.001
-225.698	95.555	0.199	-0.225
-224.684	-67.213	0.046	0.018
-223.669	18.420	-0.181	-0.143
-222.655	-33.988	-0.242	-0.131
-221.640	-200.000	0.023	-0.242
-220.625	385.902	0.103	0.209
-219.611	152.495	-0.030	-0.040
-218.596	-166.019	0.375	0.016
-217.582	-200.000	0.046	0.226
-216.567	-152.251	-0.236	0.017
-215.552	800.000	0.037	-0.129
-214.538	800.000	-0.040	0.119
-213.523	-12.707	-0.130	-0.084
-212.509	-200.000	-0.035	-0.170
-211.494	-144.042	0.368	-0.034
-210.479	-166.611	0.435	0.018
-209.465	-200.000	-0.030	0.132
-208.450	-200.000	0.026	0.166
-207.436	-72.537	-0.300	0.110
-206.421	173.836	-0.197	-0.282
-205.406	800.000	0.050	0.182
-204.392	800.000	0.053	-0.179
-203.377	-100.157	-0.153	-0.038
-202.363	800.000	-0.133	0.401
-201.348	346.532	0.082	0.159
-200.333	86.584	-0.104	0.113
-199.319	-200.000	-0.051	-0.263
-198.304	-200.000	-0.019	0.122
-197.290	40.959	-0.058	0.052
-196.275	-167.291	0.154	-0.006
-195.260	-200.000	-0.042	-0.213
-194.246	-156.325	0.051	-0.003
-193.231	-200.000	-0.004	0.145
-192.217	-170.055	-0.260	0.009
-191.202	-28.284	-0.148	-0.085
-190.187	713.908	-0.135	-0.355
-189.173	52.378	-0.189	-0.179
-188.158	84.752	0.106	0.115
-187.144	149.393	0.097	-0.129
-186.129	-86.340	0.132	-0.040
-185.114	-70.066	-0.382	0.144
-184.100	800.000	0.004	-0.016
-183.085	431.139	-0.059	-0.126
-182.071	51.699	0.114	0.107
-181.056	291.905	-0.198	0.356
-180.042	145.666	-0.213	0.282
-179.027	129.735	0.048	0.061
-178.012	-152.633	-0.180	0.013
-176.998	-79.571	0.211	0.070
-175.983	18.329	-0.176	-0.138
-174.969	779.612	-0.138	-0.371
-173.954	33.242	0.123	0.105
-172.939	324.273	-0.149	-0.281
-171.925	-200.000	-0.007	0.219
-170.910	-51.673	0.305	-0.141
-169.896	-50.917	0.168	0.078
-168.881	91.489	-0.176	0.195
-167.866	-8.491	0.047	0.031
-166.852	-200.000	0.036	-0.305
-165.837	772.308	0.045	-0.120
-164.823	362.803	0.037	0.072
-163.808	112.382	0.108	0.129
-162.793	800.000	0.021	0.086
-161.779	242.162	0.078	0.129
-160.764	800.000	-0.010	-0.028
-159.750	-66.605	0.325	-0.127
-158.735	130.454	-0.167	0.211
-157.720	-78.539	-0.082	0.028
-156.706	97.460	-0.178	0.202
-155.691	-73.178	0.358	0.130
-154.677	18.705	0.057	-0.045
-153.662	-185.993	-0.240	0.003
-152.647	-137.937	-0.205	-0.023
-151.633	-13.034	0.370	-0.237
-150.618	-152.666	0.138	-0.010
-149.604	-113.430	-0.103	0.020
-148.589	-54.842	-0.155	0.069
-147.574	154.822	0.226	-0.306
-146.560	588.357	0.076	0.185
-145.545	42.505	0.216	-0.194
-144.531	-19.446	0.111	-0.068
-143.516	141.270	0.087	0.114
-142.502	106.381	0.152	0.177
-141.487	-200.000	0.016	-0.187
-140.472	14.742	-0.404	-0.312
-139.458	8.507	0.140	-0.104
-138.443	-28.885	0.363	0.206
-137.429	-66.526	-0.214	0.084
-136.414	-69.481	-0.236	0.089
-135.399	-54.283	-0.117	0.052
-134.385	-70.194	0.457	-0.171
-133.370	-1.919	-0.161	-0.111
-132.356	-105.976	0.221	0.049
-131.341	128.844	-0.086	0.108
-130.326	800.000	0.011	-0.044
-129.312	89.820	0.226	-0.249
-128.297	-200.000	-0.017	-0.165
-127.283	104.078	0.334	0.387
-126.268	154.665	0.168	-0.228
-125.253	-200.000	-0.002	0.113
-124.239	-43.161	-0.349	0.174
-123.224	723.214	-0.070	0.184
-122.210	49.316	0.173	-0.160
