DTS Sentinel unit serial number:	SN413079Multiplexer serial number:	ORYXHardware model number:	OX4-SRSoftware version number:	ORYX F/W v4.00 Oryx Data Collector v3.7.2.0data status	okinstallation	princeton_trtdifferential loss correction	single-endedforward channel	channel 1reverse channel	N/Adate	2019/09/14time	18:54:35forward acquisition time	60.00reverse acquisition time	0.00gamma	496.2192k internal	0.2307k external	0.2307temperature offset calibration	1.0027default loss term (dB/km)	0.3790temperature slope calibration	1.0000multiplexer offset coefficient	1.0000multiplexer slope coefficient	1.0000fibre end	0.00T internal ref (°C)	35.81T ext. ref 1 (°C)	4.87T ext. ref 2 (°C)	29.60length (m)	temperature (°C)	Stokes	anti-Stokes-747.200	-7.541	-0.074	0.051
-746.185	0.636	0.223	0.162
-745.171	-101.382	-0.362	-0.090
-744.156	37.798	-0.206	0.186
-743.142	258.862	0.049	-0.086
-742.127	-200.000	0.004	-0.082
-741.112	-1.677	0.192	-0.138
-740.098	16.184	-0.142	0.114
-739.083	248.705	-0.065	0.111
-738.069	285.447	0.024	0.043
-737.054	-153.481	0.273	0.019
-736.039	76.283	-0.141	-0.151
-735.025	-158.453	0.448	0.026
-734.010	800.000	-0.049	-0.167
-732.996	-116.634	-0.360	0.067
-731.981	-39.285	-0.113	-0.061
-730.966	41.376	0.314	0.289
-729.952	31.459	0.136	-0.119
-728.937	194.625	0.241	-0.372
-727.923	58.947	-0.257	0.257
-726.908	164.712	-0.085	-0.122
-725.894	800.000	-0.061	-0.210
-724.879	-200.000	0.009	0.098
-723.864	-200.000	0.051	-0.263
-722.850	-114.878	0.134	-0.026
-721.835	-200.000	0.002	0.101
-720.821	127.174	-0.087	0.112
-719.806	-157.116	0.232	-0.014
-718.791	-200.000	-0.051	-0.253
-717.777	-26.916	-0.243	0.144
-716.762	-57.069	0.032	-0.014
-715.748	271.750	-0.190	-0.339
-714.733	-26.026	0.064	0.038
-713.718	-162.829	-0.419	-0.021
-712.704	-16.151	0.133	-0.086
-711.689	-200.000	-0.060	-0.355
-710.675	-7.218	-0.108	0.074
-709.660	-7.077	-0.177	-0.122
-708.645	-86.847	-0.060	-0.019
-707.631	630.585	0.036	0.093
-706.616	-200.000	0.025	-0.382
-705.602	-200.000	0.011	-0.388
-704.587	161.597	0.147	0.209
-703.572	-200.000	-0.009	-0.097
-702.558	72.410	-0.088	0.093
-701.543	-200.000	-0.058	0.341
-700.529	664.884	-0.066	0.172
-699.514	-31.608	-0.321	0.183
-698.499	-200.000	-0.003	0.273
-697.485	131.315	-0.082	-0.107
-696.470	224.906	0.130	-0.214
-695.456	261.259	0.018	0.031
-694.441	-157.090	0.065	-0.004
-693.426	15.505	0.192	0.153
-692.412	675.929	-0.088	-0.233
-691.397	627.750	0.063	-0.161
-690.383	800.000	0.114	-0.344
-689.368	800.000	-0.094	0.314
-688.354	-102.672	-0.201	-0.049
-687.339	-36.909	0.320	-0.174
-686.324	40.544	0.195	-0.178
-685.310	355.005	0.058	-0.117
-684.295	-200.000	0.008	-0.090
-683.281	-122.090	0.397	-0.066
-682.266	341.106	-0.114	-0.226
-681.251	695.550	-0.037	-0.098
-680.237	218.562	-0.064	0.104
-679.222	-117.336	0.035	0.006
-678.208	147.704	-0.028	0.038
-677.193	-117.326	-0.279	0.051
-676.178	-0.960	0.090	0.065
-675.164	80.634	0.121	-0.132
-674.149	11.051	0.028	-0.022
-673.135	-81.332	-0.286	-0.096
-672.120	333.894	0.028	0.055
-671.105	23.744	-0.145	0.121
-670.091	-200.000	-0.062	0.455
-669.076	-14.047	-0.167	-0.110
-668.062	-10.971	0.160	-0.107
-667.047	174.451	-0.017	0.025
-666.032	299.022	-0.072	0.134
-665.018	-44.253	-0.342	0.174
-664.003	440.145	-0.054	-0.121
-662.989	128.539	-0.225	-0.290
-661.974	-69.255	0.244	0.095
-660.959	-104.392	-0.163	0.038
-659.945	-128.824	0.484	-0.069
-658.930	-200.000	0.025	-0.164
-657.916	-81.794	-0.258	-0.086
-656.901	800.000	-0.041	0.146
-655.886	162.861	0.071	-0.101
-654.872	-125.587	0.386	-0.059
-653.857	-139.395	0.196	-0.021
-652.843	-14.199	-0.310	-0.202
-651.828	-200.000	-0.003	-0.031
-650.814	350.416	-0.025	-0.050
-649.799	-122.897	-0.176	0.029
-648.784	-81.008	0.284	0.095
-647.770	8.186	0.045	-0.034
-646.755	-8.148	-0.192	0.131
-645.741	-200.000	-0.028	-0.156
-644.726	400.262	-0.120	0.256
-643.711	50.395	-0.220	-0.211
-642.697	-153.127	-0.272	0.019
-641.682	800.000	0.054	-0.169
-640.668	188.497	-0.165	-0.250
-639.653	70.395	-0.184	-0.193
-638.638	369.143	-0.089	-0.182
-637.624	-87.069	0.204	-0.063
-636.609	11.237	-0.183	-0.142
-635.595	188.936	0.159	0.241
-634.580	466.289	0.112	-0.255
-633.565	-115.527	0.342	-0.065
-632.551	-67.520	0.505	-0.201
-631.536	69.474	-0.278	0.290
-630.522	-200.000	-0.018	-0.149
-629.507	249.153	-0.112	-0.192
-628.492	-95.986	0.321	0.087
-627.478	214.187	0.035	-0.055
-626.463	-200.000	0.015	-0.142
-625.449	-157.265	-0.147	0.009
-624.434	49.094	0.187	0.178
-623.419	537.030	0.026	0.062
-622.405	-25.470	0.190	-0.114
-621.390	-185.317	0.140	0.002
-620.376	-200.000	-0.009	0.237
-619.361	-200.000	0.013	-0.218
-618.346	-80.745	-0.075	0.025
-617.332	-200.000	-0.059	-0.273
-616.317	800.000	0.022	0.069
-615.303	-80.696	0.153	-0.052
-614.288	-200.000	-0.017	0.292
-613.273	-117.657	-0.105	-0.019
-612.259	179.036	0.175	-0.260
-611.244	393.628	-0.094	0.199
-610.230	-200.000	0.006	-0.141
-609.215	177.706	-0.175	0.258
-608.201	97.557	-0.025	0.029
-607.186	80.064	-0.038	-0.041
-606.171	-100.079	0.256	0.064
-605.157	187.317	-0.046	-0.069
-604.142	82.844	-0.008	-0.009
-603.128	-200.000	-0.042	-0.371
-602.113	380.553	-0.093	-0.193
-601.098	-160.498	0.238	0.013
-600.084	-200.000	-0.064	0.360
-599.069	-26.039	-0.369	-0.219
-598.055	-200.000	0.015	-0.075
-597.040	800.000	0.074	0.290
-596.025	2.201	-0.132	0.097
-595.011	93.889	0.267	-0.306
-593.996	-200.000	-0.004	-0.189
-592.982	97.472	0.130	0.150
-591.967	-25.151	-0.246	-0.147
-590.952	-56.726	-0.202	0.091
-589.938	312.299	-0.154	0.292
-588.923	14.809	-0.090	0.071
-587.909	-93.592	-0.109	0.030
-586.894	-200.000	-0.014	-0.208
-585.879	-151.013	-0.306	-0.023
-584.865	117.960	-0.167	-0.207
-583.850	-200.000	0.022	-0.171
-582.836	-99.896	-0.348	-0.088
-581.821	-146.002	0.279	-0.025
-580.806	99.421	-0.113	-0.132
-579.792	-0.975	0.145	-0.104
-578.777	-67.986	-0.064	0.025
-577.763	155.448	-0.072	-0.100
-576.748	211.794	0.099	-0.158
-575.733	10.241	0.102	0.079
-574.719	77.166	-0.104	0.112
-573.704	-200.000	0.008	0.472
-572.690	-200.000	-0.058	0.345
-571.675	12.838	0.104	-0.081
-570.661	39.944	-0.092	-0.084
-569.646	-138.428	-0.298	0.033
-568.631	-20.889	-0.107	0.066
-567.617	54.349	0.055	-0.053
-566.602	-200.000	-0.020	-0.220
-565.588	-200.000	-0.006	-0.327
-564.573	37.679	0.180	0.161
-563.558	642.304	-0.086	0.221
-562.544	46.524	0.123	0.115
-561.529	27.644	-0.057	-0.048
-560.515	-200.000	0.041	0.298
-559.500	170.906	-0.208	0.301
-558.485	67.634	-0.183	0.188
-557.471	-200.000	-0.013	-0.210
-556.456	39.362	-0.117	-0.106
-555.442	-200.000	0.006	-0.045
-554.427	-200.000	0.040	-0.185
-553.412	44.577	-0.188	-0.174
-552.398	-200.000	0.060	-0.297
-551.383	200.495	-0.103	-0.160
-550.369	-159.802	-0.181	0.010
-549.354	429.089	-0.147	0.321
-548.339	-90.299	-0.425	-0.125
-547.325	91.064	0.185	-0.210
-546.310	800.000	0.128	-0.364
-545.296	800.000	-0.122	-0.472
-544.281	800.000	0.034	0.102
-543.266	39.996	-0.170	0.154
-542.252	800.000	-0.078	0.304
-541.237	-103.873	0.411	0.097
-540.223	-200.000	0.008	0.363
-539.208	-200.000	0.001	-0.013
-538.193	800.000	-0.144	-0.450
-537.179	622.859	-0.079	-0.200
-536.164	420.077	0.023	-0.049
-535.150	81.106	0.173	-0.188
-534.135	-103.319	-0.136	0.032
-533.121	-200.000	-0.004	0.245
-532.106	-95.965	-0.194	-0.052
-531.091	-200.000	0.001	-0.074
-530.077	-100.537	-0.237	-0.059
-529.062	-130.873	0.162	-0.022
-528.048	-184.673	0.144	0.002
-527.033	83.832	0.051	-0.057
-526.018	61.741	0.049	-0.049
-525.004	154.667	0.029	0.040
-523.989	-200.000	-0.015	-0.175
-522.975	-161.064	0.062	0.003
-521.960	800.000	-0.132	0.403
-520.945	-113.652	0.418	-0.082
-519.931	-200.000	-0.108	-0.671
-518.916	800.000	0.018	-0.055
-517.902	-70.555	0.287	-0.109
-516.887	36.685	-0.047	0.042
-515.872	-200.000	-0.031	-0.309
-514.858	199.660	0.102	-0.158
-513.843	-37.370	-0.088	0.047
-512.829	-98.466	-0.217	0.056
-511.814	-200.000	-0.007	-0.042
-510.799	57.573	0.149	-0.146
-509.785	800.000	0.017	0.050
-508.770	-23.382	-0.453	0.274
-507.756	-55.821	0.164	0.074
-506.741	-71.951	0.166	-0.062
-505.726	-81.723	0.134	0.044
-504.712	-89.755	0.200	0.059
-503.697	800.000	0.053	0.169
-502.683	111.309	-0.144	0.175
-501.668	-40.025	-0.174	0.091
-500.653	-200.000	0.039	0.191
-499.639	-159.572	-0.187	-0.010
-498.624	-200.000	0.074	-0.346
-497.610	-136.509	0.266	-0.031
-496.595	325.599	0.168	0.323
-495.581	548.070	-0.082	-0.198
-494.566	-120.533	-0.060	0.010
-493.551	-16.798	-0.041	0.026
-492.537	-158.868	0.232	-0.013
-491.522	800.000	0.074	0.217
-490.508	-200.000	0.016	0.256
-489.493	800.000	-0.042	-0.129
-488.478	-167.400	0.295	0.012
-487.464	791.980	0.029	0.080
-486.449	-80.251	-0.192	0.065
-485.435	453.967	-0.021	-0.046
-484.420	37.025	-0.227	-0.203
-483.405	25.941	0.200	0.168
-482.391	-76.305	-0.222	0.079
-481.376	325.326	0.122	-0.235
-480.362	-181.937	0.371	-0.007
-479.347	606.456	0.049	-0.123
-478.332	15.228	0.155	0.122
-477.318	124.427	0.061	0.078
-476.303	-139.752	0.202	-0.022
-475.289	-200.000	-0.037	0.296
-474.274	86.556	-0.106	-0.118
-473.259	-103.893	0.275	-0.065
-472.245	-200.000	0.027	-0.132
-471.230	-200.000	0.026	0.316
-470.216	55.723	-0.154	0.150
-469.201	136.990	-0.046	0.060
-468.186	-200.000	-0.039	-0.318
-467.172	-70.338	-0.209	-0.080
-466.157	-118.355	-0.290	-0.052
-465.143	50.769	-0.144	-0.137
-464.128	-7.213	-0.289	-0.197
-463.113	12.762	0.114	0.089
-462.099	-48.006	0.243	0.118
-461.084	39.947	0.083	0.075
-460.070	4.377	-0.100	-0.073
-459.055	-200.000	-0.014	-0.190
-458.040	-19.397	0.066	-0.041
-457.026	-74.122	-0.246	0.089
-456.011	-46.564	0.112	-0.055
-454.997	800.000	0.038	0.164
-453.982	711.665	-0.065	0.174
-452.968	-104.856	-0.019	-0.004
-451.953	-200.000	0.057	-0.259
-450.938	-200.000	-0.034	0.284
-449.924	355.910	0.036	0.072
-448.909	171.376	0.245	0.354
-447.895	90.146	0.194	-0.218
-446.880	-163.462	-0.430	-0.021
-445.865	19.996	-0.312	-0.253
-444.851	212.668	-0.028	-0.044
-443.836	-118.009	0.075	-0.013
-442.822	96.000	-0.022	0.025
-441.807	-200.000	-0.056	0.525
-440.792	-200.000	0.001	0.181
-439.778	-155.048	0.337	-0.022
-438.763	470.664	0.014	-0.032
-437.749	800.000	0.024	-0.081
-436.734	-51.548	0.152	-0.071
-435.719	-15.894	-0.161	0.103
-434.705	-200.000	-0.002	-0.090
-433.690	375.505	0.032	0.065
-432.676	472.656	0.077	0.175
-431.661	-200.000	-0.010	0.194
-430.646	496.347	-0.024	0.055
-429.632	21.561	0.136	0.111
-428.617	-149.678	0.248	-0.020
-427.603	8.629	-0.307	0.232
-426.588	-13.779	0.330	-0.214
-425.573	46.865	0.132	-0.123
-424.559	348.976	0.068	0.134
-423.544	361.358	-0.085	-0.172
-422.530	676.217	-0.111	-0.289
-421.515	337.108	0.103	0.200
-420.500	-108.542	-0.281	0.061
-419.486	-7.245	-0.285	-0.194
-418.471	0.543	-0.157	-0.113
-417.457	34.005	0.190	-0.166
-416.442	-80.479	0.008	0.003
-415.428	-144.431	0.167	-0.016
-414.413	416.917	0.107	0.228
-413.398	-116.022	0.132	0.025
-412.384	-106.238	-0.458	0.103
-411.369	307.849	0.138	-0.259
-410.355	-200.000	-0.000	0.031
-409.340	-118.054	-0.198	-0.035
-408.325	-200.000	0.027	-0.126
-407.311	800.000	0.077	0.290
-406.296	-130.319	0.300	-0.041
-405.282	800.000	0.183	0.536
-404.267	-200.000	0.036	0.173
-403.252	-200.000	-0.004	0.167
-402.238	-66.469	0.451	0.180
-401.223	800.000	-0.011	-0.045
-400.209	157.918	-0.108	-0.150
-399.194	56.607	0.139	-0.135
-398.179	-36.834	-0.078	0.042
-397.165	2.542	-0.083	-0.061
-396.150	-200.000	0.081	-0.439
-395.136	158.341	-0.101	0.140
-394.121	50.123	0.249	-0.236
-393.106	-41.861	-0.141	0.073
-392.092	23.179	0.033	-0.028
-391.077	641.591	0.081	0.207
-390.063	97.998	0.422	0.487
-389.048	100.906	0.207	0.242
-388.033	-50.493	0.151	-0.071
-387.019	800.000	0.047	-0.153
-386.004	-14.829	-0.105	0.068
-384.990	327.935	0.026	-0.049
-383.975	-148.730	-0.229	0.019
-382.960	264.024	-0.157	-0.274
-381.946	-115.937	-0.356	-0.067
-380.931	7.440	-0.172	0.129
-379.917	379.153	-0.088	0.181
-378.902	147.759	-0.099	-0.133
-377.888	-55.719	-0.179	0.080
-376.873	-200.000	-0.015	-0.185
-375.858	321.393	0.072	-0.138
-374.844	34.919	-0.195	-0.171
-373.829	-200.000	0.024	0.264
-372.815	20.388	0.027	-0.022
-371.800	-200.000	0.020	-0.286
-370.785	-200.000	0.056	-0.420
-369.771	472.005	-0.143	-0.323
-368.756	50.443	0.193	-0.183
-367.742	800.000	0.094	0.298
-366.727	52.995	0.144	0.138
-365.712	-172.812	0.365	0.011
-364.698	-25.182	0.027	-0.016
-363.683	-103.119	-0.411	-0.097
-362.669	-151.640	0.429	-0.032
-361.654	-101.504	-0.215	0.052
-360.639	-21.710	0.110	0.067
-359.625	800.000	-0.078	-0.235
-358.610	200.873	-0.042	-0.065
-357.596	174.722	-0.151	0.219
-356.581	13.585	-0.329	0.256
-355.566	311.891	-0.128	-0.240
-354.552	368.908	-0.068	0.137
-353.537	-200.000	0.027	0.238
-352.523	-62.229	-0.083	0.035
-351.508	-165.973	-0.283	0.012
-350.493	800.000	0.026	0.106
-349.479	800.000	0.139	-0.396
-348.464	-129.148	-0.103	0.014
-347.450	8.160	-0.132	0.099
-346.435	-83.568	0.176	-0.056
-345.420	137.628	0.222	0.291
-344.406	-200.000	-0.003	0.060
-343.391	-82.864	0.216	0.070
-342.377	-179.889	0.365	-0.008
-341.362	87.368	0.250	0.276
-340.348	39.996	0.066	0.059
-339.333	-73.215	0.408	0.149
-338.318	-83.845	-0.051	-0.016
-337.304	359.839	-0.145	0.291
-336.289	-88.164	-0.033	0.010
-335.275	-33.267	0.147	-0.082
-334.260	651.775	-0.084	0.215
-333.245	17.140	0.224	0.178
-332.231	-159.909	-0.247	0.014
-331.216	328.412	0.137	0.263
-330.202	-51.172	0.037	-0.017
-329.187	-89.067	-0.290	0.086
-328.172	-17.604	-0.392	-0.246
-327.158	2.662	-0.053	-0.038
-326.143	-200.000	-0.016	0.214
-325.129	-87.694	-0.056	0.017
-324.114	91.126	0.117	-0.132
-323.099	43.480	-0.125	-0.114
-322.085	-77.700	-0.204	0.071
-321.070	-110.563	0.185	0.038
-320.056	-154.505	-0.071	-0.005
-319.041	-107.305	0.213	-0.047
-318.026	0.786	-0.421	-0.301
-317.012	-200.000	-0.035	0.296
-315.997	800.000	0.034	-0.117
-314.983	204.969	-0.100	0.155
-313.968	-93.401	-0.141	-0.039
-312.953	800.000	0.097	0.343
-311.939	800.000	-0.009	-0.037
-310.924	-147.075	0.144	0.012
-309.910	147.602	0.056	-0.076
-308.895	-128.220	0.183	0.026
-307.880	-128.709	0.261	-0.037
-306.866	-53.425	0.147	-0.067
-305.851	-200.000	0.006	-0.172
-304.837	7.856	-0.288	-0.216
-303.822	-6.104	0.105	0.072
-302.807	-200.000	0.051	-0.522
-301.793	-81.260	0.264	0.087
-300.778	-103.794	0.195	-0.046
-299.764	26.869	-0.189	0.159
-298.749	53.633	0.053	-0.051
-297.735	-200.000	0.000	-0.007
-296.720	621.355	-0.052	-0.131
-295.705	414.275	-0.137	0.292
-294.691	-200.000	-0.028	0.280
-293.676	-112.292	-0.431	-0.086
-292.662	117.642	-0.056	-0.068
-291.647	-25.634	0.140	-0.083
-290.632	328.102	0.069	0.132
-289.618	-72.153	-0.061	-0.023
-288.603	-5.563	0.136	0.093
-287.589	314.848	0.052	-0.097
-286.574	-200.000	0.005	-0.087
-285.559	-68.180	0.087	0.034
-284.545	25.831	-0.391	-0.326
-283.530	199.577	0.073	0.113
-282.516	-189.597	0.158	-0.002
-281.501	110.168	-0.134	0.161
-280.486	32.942	-0.042	0.036
-279.472	24.443	-0.087	0.072
-278.457	-74.943	0.443	0.159
-277.443	96.447	0.208	0.238
-276.428	16.629	0.179	-0.141
-275.413	-182.005	-0.548	-0.010
-274.399	215.654	0.148	-0.234
-273.384	-101.376	-0.351	-0.085
-272.370	-200.000	0.013	-0.099
-271.355	-200.000	-0.066	0.443
-270.340	-67.804	-0.178	-0.069
-269.326	800.000	0.099	0.284
-268.311	-200.000	-0.033	0.240
-267.297	-200.000	0.011	0.046
-266.282	67.509	0.146	0.148
-265.267	225.645	0.041	0.066
-264.253	319.142	-0.066	-0.125
-263.238	-56.368	0.353	-0.156
-262.224	-200.000	-0.018	-0.102
-261.209	254.999	0.045	-0.078
-260.195	64.554	-0.214	0.215
-259.180	-153.966	-0.422	0.029
-258.165	-200.000	-0.070	-0.613
-257.151	24.363	0.145	0.120
-256.136	2.909	0.371	0.269
-255.122	-14.083	0.049	-0.031
-254.107	-171.104	0.205	0.007
-253.092	-4.685	-0.182	-0.125
-252.078	63.767	-0.145	-0.146
-251.063	262.922	0.045	0.077
-250.049	-71.448	0.034	0.013
-249.034	62.244	0.167	-0.166
-248.019	-100.847	0.071	-0.017
-247.005	24.153	-0.136	0.112
-245.990	-190.777	-0.172	-0.002
-244.976	8.367	-0.370	0.277
-243.961	-200.000	0.021	-0.218
-242.946	256.434	-0.074	-0.127
-241.932	-75.478	-0.297	0.106
-240.917	357.702	0.038	0.075
-239.903	-113.733	-0.386	0.075
-238.888	13.400	0.369	-0.286
-237.873	254.490	0.147	-0.250
-236.859	-200.000	0.041	-0.289
-235.844	64.890	-0.096	-0.096
-234.830	-96.554	0.134	0.035
-233.815	-187.568	-0.093	-0.001
-232.800	49.462	-0.152	-0.143
-231.786	30.662	-0.236	-0.201
-230.771	187.253	-0.169	-0.252
-229.757	-72.184	0.151	0.056
-228.742	103.174	-0.046	-0.053
-227.727	21.544	0.087	-0.070
-226.713	800.000	0.097	0.291
-225.698	49.102	0.166	0.155
-224.684	800.000	-0.118	0.459
-223.669	-121.532	-0.224	0.037
-222.655	21.548	-0.230	0.187
-221.640	160.695	-0.113	0.157
-220.625	-200.000	0.030	-0.140
-219.611	39.684	0.213	-0.191
-218.596	-106.518	-0.146	0.032
-217.582	-86.759	0.194	-0.059
-216.567	497.277	0.127	-0.291
-215.552	-80.379	0.167	-0.056
-214.538	391.783	-0.156	0.323
-213.523	-175.876	0.133	0.004
-212.509	-115.865	0.404	0.075
-211.494	31.551	0.230	0.197
-210.479	-76.959	-0.259	-0.090
-209.465	11.055	-0.080	0.061
-208.450	449.773	-0.116	0.255
-207.436	316.823	-0.137	-0.257
-206.421	184.777	0.061	0.090
-205.406	122.282	-0.071	0.088
-204.392	-51.467	0.097	0.045
-203.377	-68.325	0.088	-0.034
-202.363	479.256	0.127	0.287
-201.348	494.404	0.087	0.199
-200.333	-59.972	-0.099	0.042
-199.319	165.397	0.113	-0.159
-198.304	82.088	0.141	-0.152
-197.290	-50.507	0.179	0.084
-196.275	-200.000	-0.066	-0.330
-195.260	35.735	0.273	-0.238
-194.246	427.718	-0.049	-0.104
-193.231	-15.484	-0.166	0.106
-192.217	-105.214	-0.203	-0.046
-191.202	800.000	0.128	0.392
-190.187	-200.000	0.075	-0.492
-189.173	182.050	-0.073	-0.108
-188.158	-58.877	0.131	-0.057
-187.144	-200.000	-0.015	0.179
-186.129	-71.164	0.307	0.115
-185.114	-135.332	-0.094	0.011
-184.100	800.000	-0.104	-0.297
-183.085	512.343	0.052	0.121
-182.071	-141.908	0.091	0.009
-181.056	-102.978	0.021	-0.005
-180.042	-103.296	0.038	-0.009
-179.027	-111.466	-0.167	-0.034
-178.012	387.404	-0.113	0.233
-176.998	800.000	-0.033	0.125
-175.983	-46.892	0.385	0.187
-174.969	-73.590	0.277	-0.101
-173.954	-79.099	-0.138	0.046
-172.939	-74.853	0.198	0.071
-171.925	-51.481	0.240	-0.111
-170.910	40.239	-0.126	-0.113
-169.896	800.000	0.009	-0.028
-168.881	-130.239	-0.243	0.033
-167.866	-5.495	-0.115	0.078
-166.852	-44.210	-0.260	-0.130
-165.837	-50.108	0.190	-0.089
-164.823	2.719	-0.182	0.131
-163.808	-96.998	0.157	-0.041
-162.793	-35.632	0.103	0.056
-161.779	-105.550	-0.291	-0.066
-160.764	-48.529	0.035	-0.017
-159.750	325.916	-0.179	0.341
-158.735	112.085	0.051	0.061
-157.720	-200.000	0.008	-0.139
-156.706	-78.238	0.078	-0.027
-155.691	-76.605	0.083	0.029
-154.677	-200.000	-0.031	0.387
-153.662	142.225	0.075	-0.099
-152.647	174.791	0.121	0.173
-151.633	-125.111	0.140	0.021
-150.618	-84.579	0.022	0.007
-149.604	-54.801	-0.246	-0.111
-148.589	-200.000	0.003	-0.075
-147.574	800.000	-0.054	-0.151
-146.560	45.205	0.254	-0.233
-145.545	124.061	-0.283	-0.354
-144.531	382.442	0.091	0.186
-143.516	30.458	0.047	-0.040
-142.502	-119.094	0.125	-0.022
-141.487	632.938	0.078	0.196
-140.472	175.620	0.128	-0.184
-139.458	800.000	0.096	0.376
-138.443	-43.477	-0.156	0.078
-137.429	-200.000	0.005	-0.204
-136.414	-151.293	-0.077	-0.006
-135.399	24.845	0.237	0.195
-134.385	-200.000	-0.079	0.535
-133.370	-110.419	-0.162	-0.033
-132.356	61.630	0.160	-0.158
-131.341	-194.829	-0.227	-0.002
-130.326	-73.098	-0.069	-0.025
-129.312	-5.310	-0.233	-0.159
-128.297	-100.368	-0.165	-0.041
-127.283	800.000	0.091	-0.253
-126.268	324.010	-0.149	0.282
-125.253	85.471	0.301	0.329
-124.239	800.000	0.013	-0.045
-123.224	-139.532	-0.288	-0.031
-122.210	-146.478	0.218	-0.019
-121.195	-94.135	0.133	0.036
