DTS Sentinel unit serial number:	SN413079Multiplexer serial number:	ORYXHardware model number:	OX4-SRSoftware version number:	ORYX F/W v4.00 Oryx Data Collector v3.7.2.0data status	okinstallation	princeton_trtdifferential loss correction	single-endedforward channel	channel 1reverse channel	N/Adate	2019/09/16time	06:26:35forward acquisition time	60.00reverse acquisition time	0.00gamma	496.2192k internal	0.2331k external	0.2331temperature offset calibration	0.9984default loss term (dB/km)	0.3790temperature slope calibration	1.0000multiplexer offset coefficient	1.0000multiplexer slope coefficient	1.0000fibre end	0.00T internal ref (°C)	27.39T ext. ref 1 (°C)	11.35T ext. ref 2 (°C)	21.71length (m)	temperature (°C)	Stokes	anti-Stokes-747.200	-200.000	-0.020	0.114
-746.185	638.222	0.057	0.145
-745.171	67.085	0.220	0.225
-744.156	800.000	-0.094	0.285
-743.142	66.604	-0.179	0.183
-742.127	78.422	0.064	0.069
-741.112	-19.415	-0.331	0.207
-740.098	-200.000	-0.038	-0.541
-739.083	162.965	-0.273	0.386
-738.069	-200.000	-0.023	0.450
-737.054	-156.237	0.185	0.012
-736.039	-200.000	0.004	-0.267
-735.025	-3.115	0.275	0.193
-734.010	-62.361	-0.082	0.034
-732.996	-200.000	-0.021	-0.112
-731.981	56.303	0.070	0.069
-730.966	-200.000	0.016	-0.108
-729.952	-54.912	-0.222	-0.101
-728.937	-55.472	-0.267	0.121
-727.923	-130.119	-0.275	0.038
-726.908	-70.702	-0.156	-0.059
-725.894	-116.219	-0.614	0.115
-724.879	800.000	-0.023	0.088
-723.864	480.287	-0.143	0.327
-722.850	-135.816	-0.296	0.035
-721.835	153.369	-0.163	-0.225
-720.821	195.465	0.175	-0.267
-719.806	-111.918	-0.075	0.015
-718.791	-152.390	0.266	0.019
-717.777	531.989	0.088	-0.209
-716.762	-63.061	0.142	-0.059
-715.748	231.987	-0.061	0.101
-714.733	188.323	0.018	0.027
-713.718	-83.522	-0.187	-0.060
-712.704	-65.836	-0.495	-0.199
-711.689	251.903	-0.160	-0.274
-710.675	-200.000	-0.046	0.368
-709.660	-28.050	0.120	0.070
-708.645	65.820	0.088	0.090
-707.631	-200.000	0.017	0.124
-706.616	635.760	0.079	-0.200
-705.602	11.509	-0.243	0.188
-704.587	499.092	-0.110	0.255
-703.572	-100.714	0.537	0.133
-702.558	10.685	-0.235	0.180
-701.543	800.000	0.054	-0.168
-700.529	-102.124	-0.119	0.029
-699.514	-60.233	0.076	0.032
-698.499	-28.902	-0.254	0.147
-697.485	25.833	0.183	0.153
-696.470	-24.691	0.352	0.210
-695.456	800.000	0.012	-0.045
-694.441	-60.350	0.189	-0.081
-693.426	-80.947	-0.138	0.046
-692.412	-165.580	0.266	-0.012
-691.397	-153.720	-0.394	0.027
-690.383	-121.404	0.356	0.060
-689.368	-43.597	0.205	-0.104
-688.354	250.815	0.057	-0.097
-687.339	-101.025	0.138	0.034
-686.324	800.000	0.104	-0.309
-685.310	-62.486	0.087	-0.036
-684.295	330.256	-0.122	0.236
-683.281	-58.053	-0.252	-0.110
-682.266	629.263	-0.081	0.205
-681.251	430.610	-0.071	-0.154
-680.237	0.670	-0.316	-0.227
-679.222	800.000	0.039	0.120
-678.208	119.038	-0.275	0.341
-677.193	519.397	-0.028	0.067
-676.178	1.905	-0.206	0.149
-675.164	-76.846	-0.289	0.101
-674.149	-104.062	0.265	-0.062
-673.135	277.846	-0.112	-0.200
-672.120	43.969	-0.119	0.110
-671.105	-114.825	-0.314	0.060
-670.091	137.620	-0.063	0.083
-669.076	-52.348	-0.520	-0.242
-668.062	-109.588	0.235	-0.050
-667.047	45.605	-0.110	-0.102
-666.032	-164.332	-0.200	-0.009
-665.018	287.735	-0.091	-0.165
-664.003	43.688	-0.095	0.087
-662.989	-200.000	0.019	-0.241
-661.974	-120.174	-0.366	0.063
-660.959	-200.000	0.001	0.303
-659.945	35.586	-0.076	-0.067
-658.930	-200.000	-0.000	0.078
-657.916	-44.310	-0.112	-0.056
-656.901	-60.658	-0.028	-0.012
-655.886	-59.939	-0.244	0.105
-654.872	184.116	0.050	0.074
-653.857	-129.810	-0.150	0.021
-652.843	482.706	-0.130	-0.296
-651.828	90.992	-0.229	-0.258
-650.814	137.635	-0.081	0.106
-649.799	-48.838	-0.160	-0.077
-648.784	-200.000	-0.048	-0.244
-647.770	493.070	-0.053	-0.123
-646.755	-200.000	-0.026	-0.216
-645.741	-183.468	0.426	0.007
-644.726	82.404	-0.199	0.217
-643.711	241.594	-0.097	-0.162
-642.697	-16.173	0.183	-0.116
-641.682	-149.974	-0.385	-0.030
-640.668	759.333	0.088	0.239
-639.653	110.049	0.022	0.027
-638.638	108.938	0.241	-0.289
-637.624	75.502	-0.091	-0.097
-636.609	82.638	-0.073	-0.079
-635.595	-200.000	0.085	0.458
-634.580	413.725	-0.112	-0.238
-633.565	-200.000	-0.007	-0.056
-632.551	49.111	0.235	0.221
-631.536	-147.993	-0.080	0.007
-630.522	71.752	0.090	0.094
-629.507	-200.000	0.020	0.099
-628.492	95.070	-0.110	-0.126
-627.478	-72.746	0.268	-0.099
-626.463	-93.224	0.291	-0.081
-625.449	800.000	-0.040	-0.171
-624.434	-136.641	0.055	0.006
-623.419	40.040	0.065	0.059
-622.405	-141.114	0.100	0.010
-621.390	-33.580	-0.063	-0.035
-620.376	800.000	0.019	0.067
-619.361	-9.064	0.191	-0.128
-618.346	-64.648	0.190	0.077
-617.332	-18.403	-0.199	0.125
-616.317	336.491	0.239	0.465
-615.303	800.000	-0.053	-0.221
-614.288	-149.045	0.138	-0.011
-613.273	0.651	0.191	-0.137
-612.259	-57.890	-0.286	-0.125
-611.244	48.931	-0.117	-0.110
-610.230	-27.090	0.205	-0.120
-609.215	178.235	-0.139	-0.203
-608.201	158.430	-0.319	-0.443
-607.186	-200.000	0.006	-0.152
-606.171	-167.378	-0.237	0.010
-605.157	-200.000	-0.091	0.452
-604.142	-134.825	0.119	-0.014
-603.128	-200.000	0.024	-0.272
-602.113	-200.000	0.012	0.214
-601.098	-87.742	0.229	0.069
-600.084	-200.000	0.042	0.412
-599.069	-31.288	-0.107	0.060
-598.055	20.659	0.171	0.139
-597.040	-37.350	-0.328	-0.175
-596.025	-103.414	0.201	0.047
-595.011	-200.000	0.015	-0.104
-593.996	-142.297	-0.296	0.029
-592.982	-85.225	-0.131	-0.041
-591.967	564.157	0.071	-0.173
-590.952	301.210	-0.035	0.065
-589.938	-166.288	-0.564	0.024
-588.923	-200.000	-0.005	0.167
-587.909	-84.371	0.274	0.087
-586.894	-200.000	0.002	-0.014
-585.879	-56.004	-0.167	0.074
-584.865	146.254	-0.071	0.096
-583.850	192.159	-0.045	-0.068
-582.836	-57.534	-0.141	0.062
-581.821	273.830	-0.134	-0.238
-580.806	-200.000	-0.010	0.071
-579.792	-5.615	-0.132	0.091
-578.777	800.000	0.033	-0.098
-577.763	-200.000	-0.007	-0.169
-576.748	-67.083	-0.181	-0.071
-575.733	217.931	0.007	-0.011
-574.719	-35.605	-0.154	-0.083
-573.704	792.098	-0.052	-0.142
-572.690	-47.148	-0.238	-0.116
-571.675	186.811	-0.061	-0.091
-570.661	-113.982	0.356	0.069
-569.646	-2.279	-0.172	-0.120
-568.631	-135.907	-0.187	0.022
-567.617	-50.696	-0.145	0.068
-566.602	-200.000	0.007	0.350
-565.588	800.000	-0.075	0.260
-564.573	-164.947	0.232	0.010
-563.558	40.761	0.247	0.223
-562.544	-139.142	0.272	-0.029
-561.529	448.161	0.116	0.256
-560.515	-9.008	-0.203	-0.136
-559.500	-78.006	-0.364	0.125
-558.485	800.000	0.035	-0.130
-557.471	800.000	-0.056	-0.228
-556.456	-200.000	-0.017	0.356
-555.442	77.044	-0.199	0.211
-554.427	800.000	0.041	-0.118
-553.412	-40.845	-0.376	-0.194
-552.398	579.516	0.185	-0.453
-551.383	188.907	0.138	-0.206
-550.369	-3.171	-0.114	-0.079
-549.354	6.317	0.325	-0.241
-548.339	219.875	0.263	-0.421
-547.325	-62.351	-0.152	-0.063
-546.310	68.369	0.235	0.241
-545.296	-77.586	-0.491	0.170
-544.281	-56.473	-0.080	0.036
-543.266	-110.235	0.156	0.033
-542.252	-30.957	-0.285	-0.161
-541.237	800.000	-0.043	0.170
-540.223	-142.617	-0.071	0.007
-539.208	-31.455	-0.364	0.204
-538.193	194.513	-0.113	-0.170
-537.179	-166.185	0.173	0.007
-536.164	-200.000	-0.031	-0.307
-535.150	-200.000	0.003	-0.208
-534.135	243.352	-0.092	-0.153
-533.121	800.000	-0.092	0.307
-532.106	205.028	0.106	0.165
-531.091	245.830	0.083	0.140
-530.077	166.552	0.166	0.234
-529.062	-96.499	0.112	-0.029
-528.048	-130.899	-0.296	0.040
-527.033	148.490	-0.081	0.109
-526.018	-145.807	0.175	0.016
-525.004	-1.304	0.059	0.041
-523.989	-182.612	0.390	0.007
-522.975	-200.000	0.004	0.161
-521.960	609.018	-0.091	0.227
-520.945	201.680	-0.257	0.394
-519.931	353.034	-0.054	-0.106
-518.916	180.012	0.107	-0.157
-517.902	-171.413	-0.120	0.004
-516.887	306.398	-0.114	0.211
-515.872	-176.588	0.296	-0.008
-514.858	-109.868	-0.344	-0.072
-513.843	154.396	-0.058	0.079
-512.829	208.781	-0.198	0.309
-511.814	41.796	0.285	0.257
-510.799	-195.294	-0.292	-0.002
-509.785	262.574	-0.080	0.139
-508.770	-20.102	-0.080	-0.049
-507.756	-110.388	0.163	0.034
-506.741	22.427	-0.111	-0.091
-505.726	92.565	0.183	-0.206
-504.712	49.233	-0.231	-0.216
-503.697	-81.725	0.088	-0.029
-502.683	-165.590	0.169	0.007
-501.668	-149.320	0.106	0.008
-500.653	-174.965	0.151	0.004
-499.639	-200.000	-0.079	-0.428
-498.624	-74.442	-0.410	-0.147
-497.610	-16.575	-0.062	-0.039
-496.595	-111.501	-0.174	0.035
-495.581	21.801	0.062	-0.050
-494.566	-200.000	0.006	-0.285
-493.551	89.973	0.344	0.383
-492.537	-200.000	-0.010	0.308
-491.522	-200.000	-0.005	0.305
-490.508	-89.213	-0.106	0.031
-489.493	11.797	0.152	-0.116
-488.478	38.651	0.270	0.240
-487.464	695.840	0.110	-0.287
-486.449	4.702	0.230	-0.168
-485.435	-49.415	0.159	-0.076
-484.420	534.075	-0.176	-0.415
-483.405	6.769	-0.104	0.077
-482.391	716.626	-0.067	0.176
-481.376	-133.565	0.148	0.019
-480.362	103.770	-0.098	0.115
-479.347	-200.000	-0.019	-0.203
-478.332	-200.000	-0.025	-0.185
-477.318	70.890	0.218	-0.225
-476.303	192.065	-0.131	0.197
-475.289	109.183	0.105	0.125
-474.274	-56.525	0.053	0.023
-473.259	63.044	-0.083	0.082
-472.245	153.270	0.163	-0.222
-471.230	-55.698	-0.222	-0.099
-470.216	-70.661	0.458	-0.172
-469.201	800.000	-0.032	0.116
-468.186	135.495	0.181	-0.234
-467.172	-190.171	0.280	0.003
-466.157	-64.733	0.146	-0.059
-465.143	505.077	-0.073	-0.168
-464.128	158.157	-0.290	0.401
-463.113	30.535	0.146	-0.124
-462.099	-13.283	0.067	-0.043
-461.084	-49.475	-0.104	-0.050
-460.070	-86.778	0.235	0.072
-459.055	49.741	0.302	-0.284
-458.040	-132.360	0.236	-0.030
-457.026	-88.115	-0.082	-0.025
-456.011	-39.661	0.217	-0.113
-454.997	64.557	0.286	0.287
-453.982	800.000	0.038	0.160
-452.968	-200.000	0.039	0.329
-451.953	-30.115	0.161	-0.091
-450.938	-200.000	0.044	0.302
-449.924	302.787	0.080	-0.147
-448.909	-152.818	0.333	-0.023
-447.895	494.766	-0.097	-0.222
-446.880	-150.205	-0.086	0.007
-445.865	800.000	-0.023	0.073
-444.851	-123.246	-0.228	-0.036
-443.836	-81.694	-0.229	0.075
-442.822	43.957	0.138	-0.126
-441.807	-35.175	0.087	0.047
-440.792	800.000	0.039	-0.114
-439.778	800.000	0.075	0.226
-438.763	456.944	-0.102	-0.226
-437.749	117.884	0.050	0.061
-436.734	-200.000	0.010	0.142
-435.719	-129.523	-0.114	0.016
-434.705	-80.712	0.185	-0.061
-433.690	-140.396	-0.420	0.044
-432.676	679.442	-0.049	0.127
-431.661	-200.000	0.001	0.242
-430.646	344.488	0.034	-0.066
-429.632	127.272	-0.080	0.101
-428.617	79.716	0.161	0.172
-427.603	-200.000	-0.043	-0.194
-426.588	-200.000	-0.017	0.101
-425.573	-60.373	-0.154	-0.065
-424.559	33.191	-0.026	-0.022
-423.544	-136.693	-0.310	-0.036
-422.530	-97.536	-0.083	-0.022
-421.515	-200.000	0.004	-0.113
-420.500	378.691	-0.072	-0.146
-419.486	117.514	0.135	0.165
-418.471	-111.126	0.226	0.046
-417.457	-200.000	-0.001	0.150
-416.442	-42.079	0.225	-0.115
-415.428	-156.265	0.156	-0.010
-414.413	249.183	-0.133	0.224
-413.398	446.335	0.066	-0.144
-412.384	-69.410	-0.208	0.079
-411.369	-119.570	-0.079	-0.014
-410.355	124.044	-0.079	0.099
-409.340	-45.066	0.199	-0.098
-408.325	63.734	-0.147	-0.147
-407.311	1.237	-0.212	0.151
-406.296	-83.822	0.278	-0.088
-405.282	-108.276	-0.162	-0.035
-404.267	-200.000	-0.045	0.281
-403.252	283.513	-0.170	-0.304
-402.238	-112.185	-0.188	-0.037
-401.223	800.000	0.080	0.301
-400.209	103.116	-0.197	0.229
-399.194	292.989	-0.035	0.064
-398.179	-200.000	0.031	-0.204
-397.165	800.000	-0.084	0.251
-396.150	94.600	-0.204	-0.230
-395.136	-84.804	0.240	0.075
-394.121	-200.000	-0.010	0.377
-393.106	-122.249	0.279	0.045
-392.092	37.980	0.170	-0.150
-391.077	-200.000	0.008	-0.310
-390.063	-49.644	0.017	-0.008
-389.048	44.165	0.077	0.070
-388.033	54.013	-0.049	-0.047
-387.019	308.003	-0.118	-0.219
-386.004	-200.000	-0.020	-0.396
-384.990	-134.187	-0.108	-0.013
-383.975	162.389	-0.185	0.258
-382.960	-200.000	0.024	-0.263
-381.946	-95.890	0.226	0.060
-380.931	800.000	-0.005	0.019
-379.917	587.342	0.087	0.213
-378.902	800.000	-0.051	0.194
-377.888	-39.745	-0.258	-0.134
-376.873	-90.417	-0.066	0.019
-375.858	12.145	-0.059	0.045
-374.844	75.357	0.077	0.081
-373.829	339.943	-0.113	-0.218
-372.815	196.826	0.096	0.146
-371.800	-200.000	0.053	-0.255
-370.785	155.020	0.054	0.073
-369.771	800.000	0.028	-0.113
-368.756	-20.087	0.196	0.120
-367.742	-200.000	0.013	0.065
-366.727	800.000	-0.171	-0.503
-365.712	-114.877	-0.241	-0.046
-364.698	105.845	0.217	-0.255
-363.683	-15.200	-0.283	0.179
-362.669	254.264	-0.090	0.152
-361.654	-200.000	-0.047	0.236
-360.639	-53.126	-0.223	-0.101
-359.625	-31.981	-0.171	-0.095
-358.610	213.732	-0.142	-0.222
-357.596	653.280	0.023	0.059
-356.581	-188.089	0.230	-0.003
-355.566	130.101	0.130	0.165
-354.552	590.455	0.078	0.192
-353.537	-162.081	0.348	0.017
-352.523	-107.623	-0.338	0.073
-351.508	511.502	-0.090	-0.207
-350.493	800.000	-0.121	-0.340
-349.479	156.219	0.337	-0.461
-348.464	-200.000	0.010	-0.097
-347.450	-200.000	-0.027	0.264
-346.435	203.967	-0.161	-0.247
-345.420	-200.000	-0.045	-0.278
-344.406	-154.253	0.186	-0.012
-343.391	17.573	-0.283	0.223
-342.377	-98.948	0.494	-0.124
-341.362	-200.000	0.028	0.294
-340.348	301.127	-0.151	0.277
-339.333	142.996	-0.161	0.212
-338.318	-18.109	0.317	0.197
-337.304	800.000	-0.080	0.281
-336.289	-148.792	0.450	0.036
-335.275	-200.000	0.028	0.475
-334.260	20.696	-0.135	0.108
-333.245	21.924	0.219	-0.177
-332.231	225.396	-0.160	-0.257
-331.216	97.048	0.255	-0.290
-330.202	800.000	-0.074	-0.314
-329.187	800.000	-0.056	0.229
-328.172	134.220	-0.168	0.215
-327.158	317.377	0.090	0.169
-326.143	-54.850	-0.280	0.125
-325.129	-91.344	-0.161	0.046
-324.114	-200.000	0.028	-0.178
-323.099	-5.663	-0.098	-0.067
-322.085	-11.558	-0.216	0.140
-321.070	-200.000	0.025	0.132
-320.056	-200.000	-0.045	-0.232
-319.041	-113.919	-0.250	-0.048
-318.026	-152.533	-0.130	0.009
-317.012	-104.488	0.191	0.044
-315.997	69.024	0.319	-0.324
-314.983	-167.917	-0.192	-0.007
-313.968	-67.078	-0.127	0.049
-312.953	-155.689	-0.363	-0.023
-311.939	129.897	0.211	0.267
-310.924	-200.000	0.011	-0.094
-309.910	196.674	0.127	-0.191
-308.895	86.033	-0.070	-0.076
-307.880	37.247	-0.190	-0.167
-306.866	-87.442	-0.215	0.065
-305.851	198.581	-0.106	-0.161
-304.837	489.394	-0.076	0.172
-303.822	147.233	0.124	-0.165
-302.807	45.360	-0.157	-0.143
-301.793	-115.260	0.389	-0.073
-300.778	0.445	0.104	-0.073
-299.764	-200.000	-0.102	0.464
-298.749	800.000	0.135	0.418
-297.735	164.092	-0.116	0.161
-296.720	0.930	0.172	-0.122
-295.705	-64.816	0.340	0.136
-294.691	118.493	-0.199	-0.243
-293.676	-95.786	-0.290	0.077
-292.662	-200.000	-0.041	0.232
-291.647	800.000	0.035	0.115
-290.632	-16.661	0.308	0.193
-289.618	-200.000	0.031	0.135
-288.603	-76.379	-0.170	-0.059
-287.589	-41.750	-0.213	-0.108
-286.574	-136.483	-0.313	0.036
-285.559	-101.531	0.088	0.021
-284.545	-122.706	-0.239	0.038
-283.530	363.692	0.249	0.494
-282.516	-128.748	0.504	-0.070
-281.501	-91.117	0.181	-0.051
-280.486	98.783	0.194	0.222
-279.472	-200.000	-0.005	0.027
-278.457	-106.924	-0.040	-0.009
-277.443	-200.000	0.045	-0.394
-276.428	634.248	0.097	-0.244
-275.413	-200.000	-0.027	-0.441
-274.399	-0.197	0.280	0.197
-273.384	-200.000	-0.007	-0.131
-272.370	-200.000	0.037	0.196
-271.355	-124.583	-0.132	-0.020
-270.340	-9.363	-0.197	-0.130
-269.326	-200.000	0.016	-0.317
-268.311	-200.000	0.005	-0.253
-267.297	-129.272	-0.309	-0.043
-266.282	209.245	-0.085	-0.132
-265.267	293.800	0.031	0.055
-264.253	-105.899	0.132	-0.029
-263.238	17.700	0.124	-0.098
-262.224	182.028	0.092	0.134
-261.209	-200.000	0.022	-0.155
-260.195	-98.322	0.373	0.094
-259.180	-200.000	-0.008	-0.123
-258.165	590.569	0.114	-0.277
-257.151	425.750	0.028	-0.059
-256.136	-31.460	-0.061	0.034
-255.122	222.598	-0.111	0.176
-254.107	-200.000	-0.009	0.064
-253.092	52.056	0.184	0.173
-252.078	235.074	-0.214	-0.349
-251.063	800.000	0.015	0.063
-250.049	-200.000	0.017	-0.115
-249.034	-56.880	-0.186	0.081
-248.019	800.000	0.060	0.210
-247.005	-200.000	0.013	0.484
-245.990	31.220	-0.038	0.032
-244.976	-160.093	0.397	-0.021
-243.961	-85.554	0.062	0.019
-242.946	-138.843	-0.206	0.022
-241.932	227.014	0.074	-0.119
-240.917	84.900	-0.180	-0.194
-239.903	671.756	-0.076	0.195
-238.888	-121.877	-0.198	0.032
-237.873	20.281	0.033	0.026
-236.859	-113.856	0.107	-0.021
-235.844	65.582	-0.240	0.239
-234.830	540.488	-0.061	-0.144
-233.815	800.000	0.048	0.197
-232.800	-65.481	0.203	0.081
-231.786	-5.683	0.106	-0.071
-230.771	-200.000	-0.007	0.288
-229.757	136.492	-0.135	-0.173
-228.742	-109.676	0.230	-0.048
-227.727	717.827	-0.078	0.203
-226.713	-118.225	0.217	0.038
-225.698	599.580	-0.056	0.138
-224.684	800.000	0.015	0.056
-223.669	5.192	-0.316	0.230
-222.655	-99.863	0.235	0.058
-221.640	800.000	-0.099	-0.337
-220.625	-67.487	-0.298	-0.115
-219.611	-45.809	0.163	-0.079
-218.596	-200.000	-0.003	0.223
-217.582	97.847	-0.071	0.081
-216.567	-169.653	0.244	-0.009
-215.552	-200.000	0.041	0.328
-214.538	207.507	-0.047	-0.072
-213.523	103.021	0.090	-0.103
-212.509	58.941	0.158	0.153
-211.494	175.769	-0.169	0.242
-210.479	-200.000	-0.035	-0.161
-209.465	800.000	0.017	0.062
-208.450	-185.739	0.284	0.004
-207.436	-21.987	-0.146	0.087
-206.421	-69.394	0.163	0.062
-205.406	156.038	0.196	0.266
-204.392	326.232	0.103	-0.193
-203.377	-145.813	-0.378	-0.033
-202.363	110.766	-0.112	0.133
-201.348	125.590	0.167	0.208
-200.333	-111.664	0.081	0.016
-199.319	486.106	0.115	-0.257
-198.304	-142.141	-0.160	-0.016
-197.290	-2.700	-0.246	0.170
-196.275	90.942	0.185	-0.205
-195.260	323.566	-0.174	-0.327
-194.246	435.049	0.188	-0.403
-193.231	-53.045	-0.057	-0.026
-192.217	22.901	-0.275	0.222
-191.202	-48.100	-0.206	-0.098
-190.187	-116.965	0.251	-0.045
-189.173	800.000	0.118	0.432
-188.158	127.858	-0.113	0.142
-187.144	267.976	0.079	-0.137
-186.129	455.401	-0.032	0.071
-185.114	-54.761	0.133	-0.059
-184.100	-53.896	-0.118	-0.053
-183.085	-112.765	-0.263	-0.052
-182.071	-200.000	0.001	-0.092
-181.056	-183.676	0.239	-0.004
-180.042	28.023	-0.197	-0.164
-179.027	512.681	0.044	0.101
-178.012	-46.025	0.243	0.118
-176.998	131.047	0.122	0.154
-175.983	199.686	0.130	0.196
-174.969	134.745	-0.284	0.363
-173.954	450.889	-0.064	0.140
-172.939	-113.815	-0.446	-0.085
-171.925	100.628	-0.082	0.094
-170.910	-25.769	0.158	0.092
-169.896	-140.908	-0.049	-0.005
-168.881	800.000	0.070	-0.236
-167.866	-58.866	0.400	-0.170
-166.852	-69.077	0.197	-0.075
-165.837	105.629	0.216	0.251
-164.823	-107.462	-0.290	0.063
-163.808	-200.000	0.010	-0.134
-162.793	800.000	-0.128	-0.361
-161.779	-200.000	0.018	-0.168
-160.764	55.136	-0.073	-0.069
-159.750	-125.031	0.259	-0.039
-158.735	40.038	0.220	-0.195
-157.720	-126.100	-0.143	-0.021
-156.706	128.951	0.323	-0.405
-155.691	800.000	-0.092	0.317
-154.677	261.173	-0.067	0.115
-153.662	598.214	-0.070	-0.170
-152.647	-200.000	0.026	-0.188
-151.633	265.172	0.045	0.077
-150.618	-200.000	-0.002	-0.075
-149.604	2.581	0.150	-0.107
-148.589	-13.646	0.309	0.197
-147.574	-54.189	-0.241	-0.108
-146.560	3.508	-0.117	0.084
-145.545	-123.421	-0.235	-0.037
-144.531	248.552	0.168	0.279
-143.516	-14.862	-0.033	-0.021
-142.502	800.000	0.057	0.188
-141.487	39.661	-0.046	-0.040
-140.472	800.000	-0.074	-0.268
-139.458	-71.994	0.125	-0.046
-138.443	216.611	-0.157	0.246
-137.429	-136.109	-0.159	0.018
-136.414	800.000	-0.081	0.341
-135.399	-161.389	0.186	-0.009
-134.385	-110.205	0.483	0.099
-133.370	109.768	-0.338	0.398
-132.356	-1.666	0.250	-0.173
-131.341	-200.000	-0.002	-0.050
-130.326	643.437	-0.067	0.168
-129.312	130.151	0.298	0.375
-128.297	-182.291	0.228	-0.004
-127.283	-126.302	0.294	0.043
-126.268	-200.000	0.024	0.285
-125.253	-135.907	0.196	0.023
-124.239	107.070	-0.142	0.165
-123.224	75.847	0.105	0.110
-122.210	-16.524	-0.197	0.123
