DTS Sentinel unit serial number:	SN413079Multiplexer serial number:	ORYXHardware model number:	OX4-SRSoftware version number:	ORYX F/W v4.00 Oryx Data Collector v3.7.2.0data status	okinstallation	princeton_trtdifferential loss correction	single-endedforward channel	channel 1reverse channel	N/Adate	2019/09/14time	19:30:35forward acquisition time	60.00reverse acquisition time	0.00gamma	496.2192k internal	0.2313k external	0.2313temperature offset calibration	1.0023default loss term (dB/km)	0.3790temperature slope calibration	1.0000multiplexer offset coefficient	1.0000multiplexer slope coefficient	1.0000fibre end	0.00T internal ref (°C)	34.75T ext. ref 1 (°C)	4.86T ext. ref 2 (°C)	28.94length (m)	temperature (°C)	Stokes	anti-Stokes-747.200	36.027	0.095	0.085
-746.185	624.537	0.072	0.183
-745.171	-200.000	-0.070	-0.395
-744.156	10.011	0.191	-0.147
-743.142	54.135	-0.153	-0.149
-742.127	800.000	0.101	0.308
-741.112	50.672	-0.167	0.160
-740.098	-200.000	0.016	-0.160
-739.083	800.000	-0.099	0.317
-738.069	-200.000	-0.017	0.215
-737.054	291.437	-0.241	0.444
-736.039	-28.609	-0.154	-0.090
-735.025	-117.646	0.437	0.080
-734.010	-51.775	0.136	0.064
-732.996	428.873	-0.109	0.238
-731.981	-99.841	-0.059	0.015
-730.966	93.544	-0.149	0.171
-729.952	-93.834	-0.212	0.059
-728.937	-61.260	-0.302	-0.129
-727.923	800.000	0.055	0.184
-726.908	-54.017	-0.105	-0.048
-725.894	21.491	-0.249	-0.206
-724.879	225.252	-0.148	-0.242
-723.864	-200.000	-0.003	-0.134
-722.850	-3.838	0.186	-0.131
-721.835	-46.120	-0.479	0.239
-720.821	283.919	-0.154	-0.280
-719.806	-44.593	0.197	-0.100
-718.791	324.727	0.035	-0.067
-717.777	-167.708	0.069	0.003
-716.762	-154.370	0.343	-0.023
-715.748	-66.819	0.196	0.079
-714.733	-200.000	0.005	0.077
-713.718	448.019	0.184	-0.410
-712.704	-70.349	-0.133	-0.051
-711.689	-200.000	-0.001	-0.026
-710.675	647.056	-0.050	-0.128
-709.660	53.576	0.160	0.156
-708.645	26.812	-0.185	-0.157
-707.631	-0.317	-0.413	-0.297
-706.616	-200.000	0.024	-0.331
-705.602	-138.830	-0.200	-0.022
-704.587	124.151	-0.098	-0.125
-703.572	108.416	0.128	0.155
-702.558	-200.000	-0.002	-0.089
-701.543	-68.325	0.088	-0.035
-700.529	387.123	0.032	0.067
-699.514	-200.000	-0.013	-0.099
-698.499	-200.000	0.038	0.258
-697.485	452.085	-0.045	-0.100
-696.470	118.638	0.079	0.099
-695.456	-56.437	-0.383	-0.172
-694.441	-71.926	0.435	0.164
-693.426	244.359	-0.061	-0.104
-692.412	-200.000	-0.032	0.168
-691.397	52.823	0.205	0.198
-690.383	800.000	0.033	-0.144
-689.368	-200.000	0.039	0.240
-688.354	770.007	0.094	-0.260
-687.339	408.494	0.161	-0.346
-686.324	-200.000	0.014	-0.113
-685.310	171.898	-0.065	0.094
-684.295	-34.677	0.114	0.063
-683.281	-103.743	-0.235	-0.056
-682.266	246.520	0.145	0.248
-681.251	798.155	-0.070	0.194
-680.237	800.000	0.026	-0.099
-679.222	-142.791	-0.118	-0.012
-678.208	37.977	-0.194	-0.174
-677.193	-88.281	-0.243	0.074
-676.178	35.139	-0.102	0.090
-675.164	-78.571	-0.324	0.112
-674.149	-193.000	0.171	-0.002
-673.135	-200.000	-0.045	0.267
-672.120	721.819	-0.128	0.344
-671.105	377.945	-0.139	0.287
-670.091	-142.576	0.474	-0.047
-669.076	800.000	0.022	-0.087
-668.062	-134.867	0.316	0.039
-667.047	-94.326	-0.064	-0.018
-666.032	-105.868	-0.096	-0.022
-665.018	163.446	0.089	0.126
-664.003	-108.491	-0.091	-0.020
-662.989	800.000	-0.078	0.246
-661.974	-200.000	0.063	0.348
-660.959	800.000	-0.037	0.127
-659.945	-140.540	-0.363	0.038
-658.930	800.000	0.055	-0.216
-657.916	137.309	-0.058	-0.077
-656.901	166.359	0.027	0.039
-655.886	406.648	-0.055	0.117
-654.872	-49.181	-0.307	-0.148
-653.857	800.000	0.070	0.219
-652.843	-84.340	-0.278	0.089
-651.828	-56.950	0.198	0.088
-650.814	-200.000	-0.020	-0.198
-649.799	-58.155	0.033	0.015
-648.784	-200.000	-0.014	-0.208
-647.770	436.708	-0.182	-0.401
-646.755	-55.454	0.305	0.138
-645.741	-87.328	-0.199	0.061
-644.726	46.930	0.283	-0.266
-643.711	365.725	-0.077	-0.157
-642.697	299.411	0.078	-0.145
-641.682	-99.891	0.341	-0.086
-640.668	249.048	-0.185	-0.317
-639.653	259.798	-0.163	0.284
-638.638	800.000	-0.088	0.276
-637.624	-84.406	-0.095	0.030
-636.609	-196.890	-0.416	0.003
-635.595	800.000	0.029	-0.127
-634.580	-8.842	0.120	0.081
-633.565	-71.754	0.221	-0.083
-632.551	-127.480	0.303	-0.044
-631.536	800.000	0.065	-0.199
-630.522	734.556	-0.056	-0.151
-629.507	767.811	-0.057	0.157
-628.492	-200.000	0.172	0.001
-627.478	800.000	0.125	-0.385
-626.463	174.092	0.056	0.082
-625.449	728.608	0.069	-0.185
-624.434	-2.562	0.031	0.022
-623.419	800.000	0.043	0.175
-622.405	-117.425	0.095	-0.017
-621.390	175.042	-0.234	0.343
-620.376	-87.515	0.252	-0.077
-619.361	-200.000	0.002	0.245
-618.346	231.293	-0.055	0.090
-617.332	58.170	0.236	-0.234
-616.317	800.000	0.038	0.166
-615.303	89.536	0.199	-0.224
-614.288	-42.619	-0.196	-0.101
-613.273	-200.000	-0.022	-0.201
-612.259	-200.000	-0.018	0.226
-611.244	800.000	-0.078	0.293
-610.230	119.737	-0.169	-0.211
-609.215	-175.428	0.336	-0.009
-608.201	800.000	0.069	-0.299
-607.186	-81.821	0.338	-0.112
-606.171	213.330	-0.027	-0.043
-605.157	-103.536	0.285	-0.067
-604.142	-95.138	-0.179	0.049
-603.128	800.000	-0.093	0.313
-602.113	52.827	-0.054	-0.052
-601.098	800.000	-0.044	-0.194
-600.084	42.206	-0.186	-0.170
-599.069	-200.000	0.015	0.103
-598.055	-125.461	-0.131	-0.020
-597.040	-18.771	-0.185	-0.116
-596.025	800.000	-0.090	0.396
-595.011	168.121	-0.129	-0.185
-593.996	136.666	0.128	-0.169
-592.982	421.293	-0.110	-0.239
-591.967	306.948	-0.149	0.280
-590.952	463.689	-0.037	-0.083
-589.938	800.000	-0.054	-0.204
-588.923	123.455	-0.237	0.300
-587.909	-60.008	-0.191	0.082
-586.894	142.870	0.126	-0.169
-585.879	-27.099	-0.151	0.089
-584.865	138.923	0.108	-0.143
-583.850	166.004	-0.141	0.202
-582.836	294.893	0.187	0.345
-581.821	0.976	0.182	0.132
-580.806	-7.548	-0.165	-0.113
-579.792	87.076	0.120	0.133
-578.777	370.215	0.131	0.267
-577.763	237.706	0.050	0.083
-576.748	-47.855	0.240	0.117
-575.733	800.000	0.057	0.186
-574.719	366.524	-0.126	-0.256
-573.704	-5.135	-0.109	-0.076
-572.690	-137.152	0.272	-0.031
-571.675	118.659	-0.122	-0.151
-570.661	-200.000	-0.016	-0.153
-569.646	-200.000	-0.015	-0.108
-568.631	-200.000	0.055	-0.322
-567.617	64.379	-0.182	0.185
-566.602	-47.745	-0.168	0.082
-565.588	448.879	0.045	0.099
-564.573	-60.337	0.232	0.099
-563.558	31.375	-0.111	-0.096
-562.544	-103.504	-0.246	0.058
-561.529	-7.847	0.239	0.163
-560.515	-200.000	-0.001	0.200
-559.500	552.636	0.133	-0.321
-558.485	276.315	-0.055	0.098
-557.471	562.279	0.174	0.424
-556.456	217.111	-0.040	-0.064
-555.442	-0.729	-0.133	0.095
-554.427	-200.000	0.035	-0.254
-553.412	-46.410	0.374	0.185
-552.398	186.861	0.383	-0.575
-551.383	195.309	0.125	-0.192
-550.369	64.506	-0.063	0.064
-549.354	775.131	0.073	0.201
-548.339	-200.000	0.028	0.220
-547.325	-109.991	0.260	0.055
-546.310	1.642	-0.120	-0.087
-545.296	-151.239	-0.255	0.019
-544.281	206.861	0.038	0.059
-543.266	-65.982	-0.338	-0.136
-542.252	800.000	0.005	0.019
-541.237	-169.841	0.187	0.007
-540.223	122.109	-0.145	0.182
-539.208	425.727	-0.033	-0.073
-538.193	-47.712	-0.200	0.097
-537.179	41.827	0.146	-0.133
-536.164	81.531	-0.096	0.105
-535.150	-53.841	-0.237	-0.109
-534.135	103.738	-0.079	-0.093
-533.121	168.068	-0.054	-0.078
-532.106	-152.686	0.121	0.009
-531.091	-121.540	0.236	0.039
-530.077	230.363	-0.211	-0.346
-529.062	-200.000	-0.030	0.131
-528.048	-200.000	0.061	0.317
-527.033	128.152	0.223	0.286
-526.018	123.006	-0.093	0.117
-525.004	800.000	0.045	0.148
-523.989	47.882	0.260	0.244
-522.975	800.000	-0.035	-0.102
-521.960	142.172	-0.081	0.109
-520.945	-65.417	-0.272	0.110
-519.931	68.687	-0.197	0.203
-518.916	-9.333	0.069	-0.047
-517.902	-181.982	-0.253	-0.005
-516.887	545.781	0.261	0.628
-515.872	38.050	0.170	0.152
-514.858	800.000	-0.044	-0.174
-513.843	421.061	0.172	-0.371
-512.829	262.563	-0.070	-0.122
-511.814	-163.631	-0.089	0.004
-510.799	112.039	0.208	-0.253
-509.785	800.000	-0.022	-0.086
-508.770	-75.640	0.304	-0.108
-507.756	61.497	0.123	-0.123
-506.741	5.461	0.124	-0.092
-505.726	556.875	0.021	-0.052
-504.712	254.803	-0.094	0.162
-503.697	26.319	-0.147	-0.124
-502.683	117.317	-0.191	0.236
-501.668	61.272	0.121	-0.121
-500.653	419.674	-0.078	0.169
-499.639	-33.804	-0.192	0.106
-498.624	800.000	-0.087	0.306
-497.610	-131.708	-0.229	-0.030
-496.595	59.950	-0.055	0.054
-495.581	-54.642	-0.233	-0.106
-494.566	-79.253	-0.137	-0.047
-493.551	-135.897	0.117	0.014
-492.537	151.628	0.186	-0.255
-491.522	171.763	0.099	-0.143
-490.508	-145.860	-0.397	-0.035
-489.493	-200.000	-0.004	-0.028
-488.478	-200.000	-0.111	-0.001
-487.464	-42.156	-0.190	-0.098
-486.449	229.543	-0.111	-0.182
-485.435	265.724	-0.067	-0.117
-484.420	135.123	0.236	-0.309
-483.405	153.017	0.146	0.200
-482.391	-93.626	-0.170	-0.047
-481.376	-200.000	-0.019	-0.158
-480.362	-56.200	-0.215	-0.096
-479.347	37.332	0.154	0.137
-478.332	43.167	0.153	-0.140
-477.318	800.000	0.046	-0.183
-476.303	-55.680	-0.270	0.121
-475.289	93.031	0.064	-0.072
-474.274	-19.986	-0.312	0.193
-473.259	169.712	-0.172	0.246
-472.245	800.000	0.065	0.207
-471.230	800.000	0.118	0.464
-470.216	-144.872	-0.303	-0.028
-469.201	-36.189	-0.135	-0.073
-468.186	109.009	-0.050	-0.060
-467.172	-26.115	0.293	0.173
-466.157	746.491	0.094	0.253
-465.143	-200.000	0.050	0.375
-464.128	-200.000	0.004	0.131
-463.113	-200.000	0.034	0.189
-462.099	785.792	-0.039	0.108
-461.084	-200.000	0.020	0.144
-460.070	-134.212	0.117	-0.014
-459.055	-200.000	0.003	0.173
-458.040	302.890	-0.146	0.271
-457.026	53.398	-0.073	0.070
-456.011	127.534	0.177	0.225
-454.997	-119.944	-0.094	-0.016
-453.982	-141.880	0.187	0.019
-452.968	189.273	-0.108	-0.163
-451.953	-200.000	0.035	-0.296
-450.938	8.419	0.207	-0.156
-449.924	151.990	-0.015	-0.020
-448.909	-88.811	-0.208	-0.062
-447.895	-70.182	0.135	-0.052
-446.880	-200.000	-0.008	-0.182
-445.865	800.000	0.035	0.146
-444.851	85.410	0.064	-0.071
-443.836	-115.777	-0.261	0.049
-442.822	150.953	0.113	-0.154
-441.807	-96.989	-0.196	0.051
-440.792	708.790	0.090	-0.238
-439.778	37.265	-0.253	-0.225
-438.763	-200.000	0.034	0.156
-437.749	58.749	0.286	-0.281
-436.734	800.000	0.060	0.244
-435.719	669.327	-0.072	0.187
-434.705	415.722	-0.113	0.241
-433.690	-64.746	-0.243	0.098
-432.676	58.096	0.083	0.081
-431.661	-200.000	-0.065	0.298
-430.646	55.108	-0.192	-0.185
-429.632	-80.313	-0.192	0.064
-428.617	-89.802	0.125	-0.037
-427.603	42.226	-0.215	0.195
-426.588	331.701	0.115	0.221
-425.573	-195.604	0.213	-0.002
-424.559	25.082	0.101	-0.084
-423.544	-200.000	-0.010	-0.054
-422.530	141.329	-0.442	0.586
-421.515	-200.000	-0.047	-0.395
-420.500	-200.000	0.023	0.134
-419.486	75.732	-0.082	-0.086
-418.471	36.180	0.156	-0.137
-417.457	-152.320	0.155	-0.011
-416.442	-200.000	0.013	-0.103
-415.428	-67.671	-0.130	-0.051
-414.413	-46.681	0.210	-0.103
-413.398	39.186	0.100	-0.090
-412.384	-200.000	-0.040	0.375
-411.369	36.720	-0.144	-0.127
-410.355	-200.000	0.010	-0.222
-409.340	-127.354	0.032	-0.005
-408.325	-200.000	-0.023	-0.121
-407.311	-92.249	-0.239	-0.067
-406.296	800.000	0.002	-0.007
-405.282	164.469	0.149	-0.211
-404.267	-22.187	0.132	-0.080
-403.252	157.277	0.136	-0.188
-402.238	732.700	-0.070	-0.187
-401.223	-43.489	0.262	-0.132
-400.209	800.000	0.029	0.105
-399.194	-200.000	0.003	0.253
-398.179	-166.353	-0.065	0.003
-397.165	-86.623	-0.144	0.044
-396.150	123.246	-0.124	-0.155
-395.136	800.000	-0.035	0.109
-394.121	170.689	-0.206	-0.296
-393.106	-106.424	-0.178	0.040
-392.092	-95.181	0.160	0.043
-391.077	-25.289	0.274	-0.162
-390.063	-45.751	-0.071	0.035
-389.048	-200.000	-0.063	0.311
-388.033	54.853	0.212	0.205
-387.019	17.484	0.198	0.157
-386.004	9.387	-0.227	0.172
-384.990	752.091	0.061	-0.166
-383.975	800.000	0.069	0.242
-382.960	800.000	-0.064	-0.180
-381.946	-5.469	-0.284	-0.195
-380.931	34.256	0.212	-0.185
-379.917	-180.979	-0.336	-0.007
-378.902	15.221	0.205	0.161
-377.888	193.572	0.128	-0.194
-376.873	27.676	0.245	0.206
-375.858	-200.000	-0.003	-0.062
-374.844	-58.010	-0.152	-0.066
-373.829	13.613	0.225	0.175
-372.815	165.923	0.152	-0.215
-371.800	-200.000	0.050	0.273
-370.785	-200.000	-0.042	-0.300
-369.771	15.787	-0.106	0.083
-368.756	144.279	0.105	0.140
-367.742	-62.479	0.203	-0.085
-366.727	-5.523	0.122	0.084
-365.712	-200.000	0.019	-0.227
-364.698	-163.794	-0.356	-0.017
-363.683	-85.822	0.134	0.042
-362.669	117.302	0.060	-0.074
-361.654	-120.511	0.193	-0.033
-360.639	43.727	-0.229	-0.210
-359.625	10.782	0.018	0.013
-358.610	800.000	-0.050	-0.146
-357.596	-119.459	-0.395	0.069
-356.581	-45.330	-0.078	-0.039
-355.566	-141.971	-0.248	0.025
-354.552	-133.207	-0.269	-0.034
-353.537	297.419	-0.077	0.142
-352.523	93.368	0.151	0.171
-351.508	-200.000	-0.010	-0.253
-350.493	-200.000	-0.032	0.316
-349.479	-52.891	0.155	-0.071
-348.464	-33.785	-0.111	-0.061
-347.450	-200.000	0.219	0.001
-346.435	136.474	0.090	0.118
-345.420	800.000	0.139	-0.387
-344.406	90.693	0.143	-0.160
-343.391	721.842	-0.065	-0.172
-342.377	-105.974	0.173	-0.039
-341.362	572.496	0.148	0.361
-340.348	800.000	0.081	0.270
-339.333	-15.739	0.306	0.195
-338.318	130.725	-0.233	0.298
-337.304	10.453	0.255	0.194
-336.289	-62.482	0.356	-0.148
-335.275	184.315	-0.183	-0.271
-334.260	145.318	-0.169	0.225
-333.245	-59.612	0.088	0.037
-332.231	-33.355	0.023	0.013
-331.216	800.000	-0.142	0.477
-330.202	57.255	-0.073	0.071
-329.187	421.772	-0.079	-0.168
-328.172	-42.161	0.168	0.086
-327.158	44.735	-0.478	-0.439
-326.143	-87.202	0.133	0.040
-325.129	-109.166	-0.289	-0.061
-324.114	-200.000	0.044	-0.244
-323.099	-57.062	-0.408	-0.180
-322.085	153.145	-0.109	0.149
-321.070	-83.981	0.222	0.071
-320.056	91.588	0.166	0.186
-319.041	-70.655	0.146	0.055
-318.026	-66.531	0.173	0.069
-317.012	-58.974	0.248	0.107
-315.997	89.703	0.140	0.156
-314.983	-12.262	0.309	-0.202
-313.968	-106.008	-0.222	-0.050
-312.953	-110.881	0.248	-0.051
-311.939	-140.918	-0.221	-0.023
-310.924	575.654	0.065	0.159
-309.910	-56.819	-0.312	0.137
-308.895	-42.101	-0.179	-0.091
-307.880	800.000	0.033	-0.138
-306.866	547.965	-0.039	-0.094
-305.851	-162.419	0.374	-0.018
-304.837	800.000	-0.081	0.225
-303.822	-151.927	0.078	0.006
-302.807	-200.000	-0.020	-0.169
-301.793	-144.960	-0.164	0.015
-300.778	-98.295	0.086	0.022
-299.764	472.268	0.104	0.233
-298.749	107.497	-0.247	0.293
-297.735	-200.000	-0.071	-0.335
-296.720	1.192	-0.146	-0.105
-295.705	-141.959	0.240	-0.024
-294.691	-104.860	-0.259	0.059
-293.676	52.314	0.121	-0.115
-292.662	63.875	0.154	0.154
-291.647	543.893	0.109	0.259
-290.632	17.881	-0.208	-0.165
-289.618	-130.201	0.400	0.054
-288.603	-93.788	0.089	-0.025
-287.589	-44.575	-0.246	-0.123
-286.574	800.000	-0.045	0.168
-285.559	-200.000	-0.008	-0.098
-284.545	333.187	-0.050	-0.097
-283.530	209.534	0.214	-0.335
-282.516	-156.599	0.215	-0.013
-281.501	-70.599	-0.146	-0.055
-280.486	95.756	0.321	-0.365
-279.472	155.596	0.050	0.068
-278.457	-200.000	-0.035	0.173
-277.443	800.000	-0.062	-0.248
-276.428	800.000	-0.080	-0.246
-275.413	-200.000	0.001	-0.146
-274.399	187.411	-0.131	-0.194
-273.384	63.563	0.090	-0.090
-272.370	107.291	0.065	-0.077
-271.355	129.304	0.156	0.198
-270.340	305.057	0.147	0.272
-269.326	167.528	-0.099	-0.140
-268.311	48.557	0.202	-0.189
-267.297	-59.951	0.072	0.031
-266.282	84.686	-0.168	0.183
-265.267	-72.338	0.266	0.098
-264.253	46.558	-0.033	-0.030
-263.238	154.822	-0.163	-0.223
-262.224	-63.842	0.127	-0.052
-261.209	-72.926	0.073	0.027
-260.195	-62.567	-0.152	0.063
-259.180	800.000	-0.101	-0.407
-258.165	105.057	-0.084	0.098
-257.151	-92.443	0.032	0.009
-256.136	-10.244	-0.122	-0.081
-255.122	30.228	0.035	0.029
-254.107	-162.473	-0.137	-0.007
-253.092	-60.707	0.118	-0.050
-252.078	800.000	0.068	-0.279
-251.063	20.569	0.167	0.134
-250.049	455.933	-0.172	0.381
-249.034	-200.000	0.008	-0.315
-248.019	-146.897	-0.136	0.012
-247.005	143.381	0.118	0.156
-245.990	-103.764	-0.232	0.054
-244.976	-200.000	-0.030	0.153
-243.961	-56.410	0.192	-0.085
-242.946	15.563	-0.253	-0.198
-241.932	126.437	-0.109	-0.137
-240.917	-200.000	0.010	0.227
-239.903	-82.059	-0.276	-0.090
-238.888	800.000	-0.056	-0.224
-237.873	367.413	-0.175	-0.352
-236.859	800.000	0.070	0.271
-235.844	-141.272	0.158	0.016
-234.830	-20.512	-0.079	0.048
-233.815	-15.838	-0.113	-0.072
-232.800	-21.708	-0.117	0.071
-231.786	99.318	-0.364	0.419
-230.771	-200.000	0.000	0.035
-229.757	553.601	0.163	0.389
-228.742	-142.708	-0.200	-0.019
-227.727	-106.237	0.146	0.032
-226.713	-63.520	-0.114	0.046
-225.698	612.109	0.020	-0.049
-224.684	800.000	-0.042	-0.130
-223.669	-200.000	-0.001	0.085
-222.655	166.910	0.168	0.237
-221.640	-200.000	0.001	0.173
-220.625	284.325	0.076	0.136
-219.611	18.716	0.305	0.242
-218.596	-44.938	-0.063	0.031
-217.582	288.993	0.125	-0.226
-216.567	-60.631	-0.288	0.121
-215.552	35.530	0.063	0.055
-214.538	-74.408	0.023	0.008
-213.523	8.733	-0.238	-0.178
-212.509	-200.000	-0.017	0.133
-211.494	-41.212	-0.170	-0.087
-210.479	-96.177	0.522	0.138
-209.465	-200.000	0.074	0.411
-208.450	8.503	0.104	0.077
-207.436	23.455	0.097	-0.080
-206.421	571.898	-0.024	-0.057
-205.406	-10.725	0.315	-0.207
-204.392	578.214	-0.048	-0.117
-203.377	-36.321	0.329	-0.176
-202.363	-78.939	-0.159	0.054
-201.348	-48.739	0.092	-0.044
-200.333	800.000	-0.075	-0.224
-199.319	112.603	0.072	-0.086
-198.304	-129.518	-0.063	-0.009
-197.290	-174.632	-0.333	-0.009
-196.275	-125.149	-0.257	0.039
-195.260	26.060	-0.084	0.069
-194.246	-200.000	-0.013	-0.082
-193.231	-200.000	0.029	0.146
-192.217	800.000	0.030	0.126
-191.202	-53.019	-0.110	0.050
-190.187	-151.720	-0.241	-0.018
-189.173	40.469	0.157	-0.140
-188.158	241.972	0.071	0.118
-187.144	215.372	-0.080	0.127
-186.129	-200.000	-0.023	0.116
-185.114	-63.262	-0.079	-0.032
-184.100	800.000	-0.089	-0.314
-183.085	-20.239	-0.107	0.066
-182.071	610.620	-0.036	-0.090
-181.056	265.107	-0.057	-0.098
-180.042	-4.879	-0.164	0.112
-179.027	-129.229	0.380	-0.053
-178.012	800.000	-0.074	-0.250
-176.998	-75.847	0.114	0.040
-175.983	182.053	0.149	-0.217
-174.969	97.096	0.123	-0.140
-173.954	-18.976	0.169	-0.105
-172.939	138.028	-0.296	0.385
-171.925	159.161	0.109	-0.151
-170.910	-160.702	0.207	-0.011
-169.896	800.000	-0.077	-0.239
-168.881	-67.883	-0.228	-0.088
-167.866	217.423	-0.063	-0.099
-166.852	-172.584	-0.135	0.004
-165.837	8.975	0.193	0.145
-164.823	-200.000	-0.024	0.312
-163.808	589.924	0.083	0.203
-162.793	-200.000	0.036	-0.208
-161.779	-200.000	0.017	-0.249
-160.764	-152.871	0.088	0.006
-159.750	141.679	0.038	-0.050
-158.735	-200.000	0.060	0.363
-157.720	800.000	-0.060	-0.203
-156.706	4.875	-0.308	-0.225
-155.691	-83.829	0.177	-0.056
-154.677	-17.116	0.013	-0.008
-153.662	5.381	-0.151	-0.111
-152.647	-60.547	0.272	0.114
-151.633	469.941	-0.068	0.153
-150.618	800.000	-0.051	0.144
-149.604	800.000	0.019	0.075
-148.589	-62.628	0.225	0.093
-147.574	-200.000	-0.016	0.154
-146.560	-200.000	0.019	-0.285
-145.545	-105.712	-0.403	0.090
-144.531	-84.662	0.075	-0.024
-143.516	148.964	0.123	-0.164
-142.502	676.205	0.058	-0.150
-141.487	84.401	-0.282	0.306
-140.472	211.933	0.088	0.137
-139.458	76.290	0.334	0.351
-138.443	300.523	-0.162	-0.296
-137.429	607.670	-0.025	0.061
-136.414	-179.632	0.424	-0.009
-135.399	194.263	-0.177	0.265
-134.385	-41.342	0.311	-0.159
-133.370	674.332	0.095	0.245
-132.356	406.770	-0.095	-0.199
-131.341	-133.675	0.311	-0.039
-130.326	128.926	0.215	-0.272
-129.312	-98.015	0.101	-0.026
-128.297	-65.704	0.176	-0.070
-127.283	-124.487	-0.209	-0.032
-126.268	30.694	0.117	0.099
-125.253	294.553	-0.158	0.286
-124.239	-72.511	0.426	-0.156
-123.224	13.969	-0.459	-0.354
-122.210	-85.429	-0.077	0.024
-121.195	-152.668	0.247	-0.017
