DTS Sentinel unit serial number:	SN413079Multiplexer serial number:	ORYXHardware model number:	OX4-SRSoftware version number:	ORYX F/W v4.00 Oryx Data Collector v3.7.2.0data status	okinstallation	princeton_trtdifferential loss correction	single-endedforward channel	channel 1reverse channel	N/Adate	2019/09/10time	22:08:11forward acquisition time	60.00reverse acquisition time	0.00gamma	496.2192k internal	0.2331k external	0.2331temperature offset calibration	0.9934default loss term (dB/km)	0.3790temperature slope calibration	1.0000multiplexer offset coefficient	1.0000multiplexer slope coefficient	1.0000fibre end	0.00T internal ref (°C)	30.61T ext. ref 1 (°C)	-0.31T ext. ref 2 (°C)	23.92length (m)	temperature (°C)	Stokes	anti-Stokes-747.200	608.745	-0.061	-0.154
-746.185	353.792	-0.189	-0.378
-745.171	319.132	-0.051	0.098
-744.156	25.230	0.058	-0.048
-743.142	-27.029	0.296	0.174
-742.127	-6.005	-0.059	-0.041
-741.112	42.064	-0.070	-0.064
-740.098	636.108	0.081	-0.208
-739.083	229.453	0.099	-0.162
-738.069	-148.665	-0.354	-0.029
-737.054	-130.895	0.134	-0.018
-736.039	373.561	0.086	0.176
-735.025	175.616	-0.053	0.077
-734.010	224.017	0.131	-0.212
-732.996	56.728	-0.069	-0.068
-731.981	257.907	-0.166	-0.287
-730.966	800.000	-0.035	-0.146
-729.952	-27.829	0.055	0.032
-728.937	135.013	0.140	-0.183
-727.923	-47.320	-0.466	0.228
-726.908	-5.671	0.213	-0.147
-725.894	-72.112	0.097	0.036
-724.879	95.142	0.092	-0.106
-723.864	12.407	-0.166	-0.129
-722.850	800.000	0.065	0.283
-721.835	10.006	0.184	-0.141
-720.821	183.138	-0.220	-0.327
-719.806	-195.490	-0.287	-0.002
-718.791	28.989	-0.143	-0.122
-717.777	-200.000	0.031	0.170
-716.762	-200.000	0.055	-0.289
-715.748	297.091	-0.062	0.114
-714.733	800.000	0.023	0.095
-713.718	-80.257	0.043	-0.015
-712.704	106.973	0.131	0.156
-711.689	-66.508	-0.406	0.162
-710.675	-125.633	-0.226	0.034
-709.660	-130.639	0.209	0.028
-708.645	-200.000	-0.010	0.068
-707.631	-200.000	-0.035	-0.162
-706.616	-200.000	0.020	-0.475
-705.602	-200.000	0.004	-0.141
-704.587	-88.205	0.252	0.076
-703.572	14.270	-0.233	0.182
-702.558	268.951	0.093	-0.164
-701.543	-107.103	-0.216	-0.048
-700.529	-109.487	-0.125	-0.027
-699.514	-33.393	0.260	0.145
-698.499	39.584	0.126	0.113
-697.485	-122.760	-0.341	0.055
-696.470	-178.220	0.143	-0.003
-695.456	460.947	0.157	0.352
-694.441	-60.185	-0.181	0.077
-693.426	800.000	-0.085	-0.323
-692.412	13.948	-0.199	-0.156
-691.397	239.929	0.073	0.122
-690.383	800.000	0.052	-0.208
-689.368	-100.700	0.244	0.061
-688.354	-127.159	-0.063	-0.009
-687.339	-45.450	0.196	0.097
-686.324	140.351	0.082	0.108
-685.310	161.730	0.176	-0.247
-684.295	-200.000	-0.038	0.284
-683.281	-200.000	-0.042	-0.314
-682.266	220.629	0.144	-0.232
-681.251	15.216	-0.220	0.173
-680.237	324.985	-0.034	0.066
-679.222	2.867	-0.112	0.081
-678.208	-74.263	-0.235	-0.085
-677.193	154.261	-0.075	0.103
-676.178	-68.136	0.039	-0.015
-675.164	707.054	-0.090	0.239
-674.149	-67.065	-0.179	0.071
-673.135	298.145	0.044	-0.082
-672.120	800.000	0.025	-0.093
-671.105	-200.000	-0.027	0.139
-670.091	243.472	-0.170	0.286
-669.076	-200.000	-0.028	-0.192
-668.062	-109.761	0.151	-0.032
-667.047	156.642	-0.193	0.268
-666.032	55.428	0.157	-0.152
-665.018	-106.102	-0.315	0.071
-664.003	-153.210	0.224	0.016
-662.989	-137.083	0.110	-0.013
-661.974	155.971	-0.190	-0.263
-660.959	-4.783	-0.272	0.188
-659.945	-200.000	-0.037	0.278
-658.930	800.000	0.028	-0.093
-657.916	800.000	0.048	0.141
-656.901	470.511	-0.152	0.342
-655.886	-59.888	0.019	-0.008
-654.872	-200.000	-0.000	0.287
-653.857	-132.459	-0.197	-0.026
-652.843	133.478	0.239	-0.310
-651.828	800.000	-0.038	0.165
-650.814	-103.345	0.204	0.048
-649.799	102.468	-0.241	-0.283
-648.784	33.027	-0.176	0.153
-647.770	135.526	-0.057	0.075
-646.755	-200.000	-0.010	-0.152
-645.741	574.523	-0.044	0.108
-644.726	58.323	0.120	0.118
-643.711	-3.517	-0.117	-0.082
-642.697	-151.199	0.287	-0.022
-641.682	-82.143	-0.315	-0.103
-640.668	91.932	0.090	-0.102
-639.653	-112.979	0.290	-0.057
-638.638	-200.000	0.018	-0.141
-637.624	-15.910	-0.044	0.028
-636.609	-80.185	0.038	0.013
-635.595	93.409	0.155	0.175
-634.580	800.000	0.037	0.120
-633.565	-150.609	0.311	0.024
-632.551	-200.000	-0.001	-0.102
-631.536	-78.412	-0.485	-0.166
-630.522	-200.000	-0.044	-0.223
-629.507	141.604	-0.097	0.128
-628.492	-101.410	-0.151	0.037
-627.478	800.000	0.136	-0.395
-626.463	-38.168	0.129	-0.068
-625.449	-109.853	-0.402	0.084
-624.434	333.529	0.055	-0.107
-623.419	56.507	-0.145	0.142
-622.405	536.575	-0.055	-0.131
-621.390	800.000	-0.082	0.256
-620.376	-200.000	0.048	-0.267
-619.361	466.579	0.043	-0.095
-618.346	-9.391	-0.267	0.178
-617.332	-3.494	-0.213	-0.149
-616.317	-165.462	-0.174	-0.008
-615.303	-124.787	0.275	0.043
-614.288	-59.934	-0.154	0.066
-613.273	-154.175	-0.268	0.018
-612.259	-131.269	0.447	0.059
-611.244	-116.373	-0.217	0.040
-610.230	-152.517	-0.144	0.010
-609.215	-63.206	0.337	-0.139
-608.201	-200.000	-0.028	-0.148
-607.186	117.602	0.135	0.166
-606.171	-104.803	0.140	-0.032
-605.157	37.708	0.082	0.073
-604.142	-108.841	-0.163	0.035
-603.128	754.890	0.020	0.055
-602.113	316.674	-0.075	-0.141
-601.098	240.340	0.205	-0.342
-600.084	-65.686	0.193	-0.078
-599.069	227.231	0.074	-0.120
-598.055	529.215	0.062	-0.147
-597.040	-118.440	-0.140	-0.025
-596.025	-200.000	0.034	0.181
-595.011	-42.787	0.422	0.214
-593.996	-153.102	-0.090	0.006
-592.982	-200.000	0.029	-0.200
-591.967	-83.120	-0.181	-0.058
-590.952	68.209	0.057	-0.058
-589.938	32.422	0.098	-0.085
-588.923	40.614	-0.325	-0.293
-587.909	-126.389	0.109	-0.016
-586.894	-43.421	-0.108	0.054
-585.879	435.740	0.057	-0.124
-584.865	-117.305	0.138	0.025
-583.850	223.936	-0.097	0.156
-582.836	200.267	-0.039	-0.061
-581.821	-200.000	-0.029	0.405
-580.806	-200.000	-0.029	-0.148
-579.792	23.118	-0.126	0.103
-578.777	-120.637	-0.472	-0.080
-577.763	-132.578	0.088	-0.011
-576.748	-94.137	0.116	-0.032
-575.733	159.066	-0.142	0.197
-574.719	-171.563	0.086	0.003
-573.704	113.824	0.093	-0.113
-572.690	239.255	0.139	-0.231
-571.675	-14.888	-0.105	0.068
-570.661	-44.602	0.121	-0.061
-569.646	122.174	-0.083	-0.103
-568.631	-97.376	0.195	-0.051
-567.617	-200.000	-0.025	-0.177
-566.602	-200.000	0.167	-0.001
-565.588	433.184	0.025	0.053
-564.573	-130.326	0.291	-0.039
-563.558	-91.302	-0.092	-0.026
-562.544	-47.172	-0.184	-0.089
-561.529	-141.650	0.330	-0.033
-560.515	282.588	0.060	0.108
-559.500	-43.110	-0.128	-0.065
-558.485	-84.638	0.224	0.071
-557.471	-19.691	0.194	0.120
-556.456	-153.721	-0.302	-0.021
-555.442	-134.368	0.204	0.025
-554.427	46.737	0.248	0.230
-553.412	166.765	0.112	-0.158
-552.398	178.068	-0.062	-0.091
-551.383	648.771	-0.090	-0.230
-550.369	-65.818	0.073	-0.029
-549.354	121.685	0.306	-0.381
-548.339	-95.246	0.190	0.051
-547.325	800.000	-0.018	-0.077
-546.310	-83.882	0.387	0.123
-545.296	89.229	-0.033	0.037
-544.281	800.000	-0.140	-0.401
-543.266	-200.000	-0.014	-0.244
-542.252	-200.000	-0.000	-0.117
-541.237	-200.000	0.031	0.145
-540.223	135.233	0.203	0.264
-539.208	-200.000	-0.058	-0.295
-538.193	800.000	0.008	-0.024
-537.179	190.433	-0.146	0.219
-536.164	800.000	-0.079	0.273
-535.150	474.872	-0.083	-0.186
-534.135	313.636	0.201	0.377
-533.121	338.923	0.062	-0.121
-532.106	77.660	-0.056	0.059
-531.091	55.133	-0.223	-0.215
-530.077	-23.225	0.081	0.049
-529.062	-59.535	-0.351	0.150
-528.048	638.954	0.089	-0.225
-527.033	-200.000	-0.043	-0.236
-526.018	242.289	-0.140	-0.233
-525.004	-57.960	0.186	0.081
-523.989	206.498	-0.073	0.114
-522.975	-200.000	-0.011	-0.190
-521.960	800.000	0.102	0.306
-520.945	-200.000	-0.026	0.365
-519.931	118.238	-0.156	-0.191
-518.916	-200.000	0.004	0.095
-517.902	161.628	0.234	-0.327
-516.887	-180.021	-0.145	0.003
-515.872	-64.803	-0.213	-0.086
-514.858	-200.000	-0.016	-0.140
-513.843	-200.000	-0.018	-0.170
-512.829	617.341	-0.079	0.199
-511.814	47.111	-0.168	0.156
-510.799	-113.017	0.110	-0.022
-509.785	-190.502	-0.030	0.000
-508.770	265.779	-0.192	-0.334
-507.756	-59.153	-0.203	-0.087
-506.741	193.586	-0.155	0.235
-505.726	-200.000	0.040	0.316
-504.712	105.813	-0.182	0.215
-503.697	-177.097	-0.261	-0.007
-502.683	-25.909	0.180	0.106
-501.668	159.043	0.230	-0.319
-500.653	-200.000	-0.007	0.198
-499.639	-128.158	-0.089	0.013
-498.624	186.276	0.055	-0.081
-497.610	800.000	-0.140	-0.396
-496.595	-53.775	-0.062	-0.028
-495.581	-200.000	0.030	-0.134
-494.566	-126.311	-0.273	0.041
-493.551	-200.000	0.018	-0.145
-492.537	-131.300	0.128	-0.017
-491.522	-200.000	-0.041	0.329
-490.508	17.738	0.076	0.060
-489.493	37.787	-0.232	-0.205
-488.478	637.923	0.036	0.090
-487.464	-121.296	0.235	0.039
-486.449	768.512	0.099	0.269
-485.435	241.304	-0.033	0.056
-484.420	426.726	0.049	0.105
-483.405	-52.167	0.035	-0.016
-482.391	70.832	0.193	-0.199
-481.376	800.000	-0.081	-0.278
-480.362	-90.811	0.022	-0.006
-479.347	646.584	-0.030	-0.078
-478.332	-47.062	-0.236	0.115
-477.318	281.135	-0.114	0.203
-476.303	8.986	0.048	-0.036
-475.289	-47.416	0.271	0.131
-474.274	175.720	0.254	0.366
-473.259	686.140	-0.111	-0.289
-472.245	-177.063	0.067	-0.002
-471.230	-6.949	0.272	0.184
-470.216	80.101	-0.319	0.342
-469.201	-109.274	0.174	-0.037
-468.186	532.456	0.092	0.217
-467.172	159.712	0.111	-0.154
-466.157	-184.901	0.342	-0.005
-465.143	328.168	-0.049	-0.093
-464.128	-110.309	-0.162	0.033
-463.113	800.000	-0.062	0.206
-462.099	-19.114	-0.211	-0.130
-461.084	-200.000	0.000	-0.181
-460.070	800.000	-0.063	0.238
-459.055	61.450	0.106	0.105
-458.040	-200.000	-0.022	0.108
-457.026	-200.000	0.020	-0.115
-456.011	-148.871	0.359	0.029
-454.997	339.412	-0.140	-0.272
-453.982	-200.000	0.023	0.219
-452.968	65.359	-0.076	-0.077
-451.953	-116.382	0.055	0.010
-450.938	-200.000	0.029	0.317
-449.924	-31.827	0.197	0.110
-448.909	-161.493	0.069	-0.004
-447.895	45.273	0.139	-0.127
-446.880	218.034	0.113	-0.179
-445.865	-200.000	0.000	0.192
-444.851	800.000	-0.141	-0.433
-443.836	800.000	-0.108	-0.300
-442.822	39.952	-0.228	-0.203
-441.807	-153.737	0.324	-0.022
-440.792	-25.122	0.225	0.133
-439.778	148.613	0.109	0.146
-438.763	80.772	-0.068	-0.073
-437.749	39.380	0.063	0.056
-436.734	27.613	-0.110	-0.092
-435.719	192.885	0.083	-0.125
-434.705	98.300	-0.181	-0.207
-433.690	117.972	-0.091	0.112
-432.676	-35.441	-0.213	-0.115
-431.661	150.540	0.077	0.104
-430.646	-200.000	0.003	-0.106
-429.632	-32.058	0.055	-0.030
-428.617	-97.036	-0.236	0.061
-427.603	800.000	-0.102	0.317
-426.588	85.876	-0.047	-0.051
-425.573	-200.000	-0.014	0.135
-424.559	-104.364	0.100	-0.023
-423.544	-98.471	0.165	-0.042
-422.530	-200.000	0.002	0.259
-421.515	479.604	-0.121	-0.273
-420.500	-92.299	-0.124	0.035
-419.486	-200.000	0.036	0.245
-418.471	-200.000	-0.007	0.145
-417.457	800.000	0.084	-0.341
-416.442	352.336	-0.139	0.273
-415.428	-18.907	-0.162	0.100
-414.413	-69.487	0.348	-0.133
-413.398	-57.616	0.155	-0.067
-412.384	-200.000	-0.082	-0.358
-411.369	800.000	-0.051	0.151
-410.355	6.346	-0.138	-0.102
-409.340	-67.669	-0.358	0.139
-408.325	-200.000	0.026	-0.196
-407.311	-200.000	-0.024	0.117
-406.296	3.103	0.034	0.025
-405.282	551.948	-0.027	-0.065
-404.267	-200.000	0.021	-0.133
-403.252	45.089	-0.360	-0.330
-402.238	61.369	0.158	-0.156
-401.223	800.000	0.083	0.341
-400.209	180.126	0.140	0.204
-399.194	180.693	0.119	-0.173
-398.179	-56.508	-0.086	-0.038
-397.165	307.874	-0.028	-0.052
-396.150	84.652	-0.079	-0.086
-395.136	-73.761	0.128	0.046
-394.121	-36.907	-0.174	0.092
-393.106	296.152	-0.098	-0.179
-392.092	-95.371	0.296	0.079
-391.077	-37.182	0.089	0.047
-390.063	179.877	0.096	-0.139
-389.048	-17.707	0.104	-0.065
-388.033	-200.000	0.020	0.407
-387.019	62.013	0.168	-0.166
-386.004	-155.773	0.499	0.032
-384.990	1.119	0.066	-0.047
-383.975	-56.518	0.051	-0.022
-382.960	34.059	0.241	0.208
-381.946	-4.727	-0.337	-0.230
-380.931	-200.000	-0.036	0.209
-379.917	240.210	0.144	-0.237
-378.902	-29.195	0.065	0.037
-377.888	391.468	0.019	-0.040
-376.873	-107.130	-0.361	-0.079
-375.858	119.447	-0.046	-0.056
-374.844	-68.096	0.194	-0.075
-373.829	800.000	-0.029	-0.098
-372.815	620.698	0.034	0.084
-371.800	-100.268	0.255	-0.063
-370.785	800.000	0.095	0.266
-369.771	800.000	0.187	0.628
-368.756	13.585	0.056	-0.043
-367.742	-149.680	-0.444	-0.035
-366.727	-102.111	-0.382	-0.091
-365.712	528.743	0.095	-0.222
-364.698	2.720	-0.420	0.302
-363.683	80.155	0.053	0.056
-362.669	-77.758	0.371	0.127
-361.654	-200.000	-0.032	-0.206
-360.639	-3.141	-0.048	0.033
-359.625	-103.536	0.024	0.006
-358.610	-200.000	0.031	0.255
-357.596	-21.820	-0.210	-0.126
-356.581	-100.050	0.040	-0.010
-355.566	275.333	-0.106	0.186
-354.552	212.866	0.229	0.359
-353.537	18.915	0.138	0.110
-352.523	1.507	-0.305	-0.217
-351.508	-131.081	0.217	0.029
-350.493	66.425	-0.181	-0.182
-349.479	179.792	0.076	0.110
-348.464	23.153	0.406	0.331
-347.450	57.161	-0.220	-0.213
-346.435	-69.855	-0.136	0.052
-345.420	575.816	0.173	0.419
-344.406	-200.000	0.029	-0.140
-343.391	314.868	0.086	-0.161
-342.377	-102.336	-0.121	-0.029
-341.362	633.785	0.089	0.222
-340.348	426.575	0.137	0.292
-339.333	-200.000	0.009	0.210
-338.318	-95.231	0.350	-0.093
-337.304	800.000	-0.137	-0.399
-336.289	800.000	-0.037	-0.163
-335.275	-168.721	-0.310	0.012
-334.260	800.000	-0.052	0.183
-333.245	20.646	-0.077	0.062
-332.231	35.878	-0.098	0.085
-331.216	-83.822	0.466	0.147
-330.202	-65.307	0.170	-0.068
-329.187	-25.721	0.130	-0.076
-328.172	9.234	-0.064	-0.048
-327.158	-200.000	0.024	0.185
-326.143	93.027	-0.097	-0.109
-325.129	800.000	-0.078	-0.261
-324.114	-1.453	-0.248	-0.173
-323.099	-174.197	0.107	-0.003
-322.085	-37.877	0.308	-0.162
-321.070	-200.000	-0.033	-0.295
-320.056	800.000	0.108	0.442
-319.041	195.309	0.077	0.115
-318.026	25.320	-0.125	0.103
-317.012	-200.000	-0.037	-0.227
-315.997	3.101	0.265	0.191
-314.983	-61.662	-0.327	0.136
-313.968	299.122	0.048	-0.087
-312.953	-41.236	-0.189	-0.096
-311.939	-75.954	-0.287	0.101
-310.924	-2.391	-0.113	0.078
-309.910	800.000	-0.032	0.129
-308.895	800.000	0.085	0.367
-307.880	-44.997	-0.258	-0.127
-306.866	499.575	-0.105	0.240
-305.851	-127.067	-0.267	-0.039
-304.837	49.458	0.190	0.177
-303.822	-200.000	0.026	0.126
-302.807	5.034	-0.161	-0.118
-301.793	800.000	-0.077	-0.299
-300.778	-200.000	0.001	0.058
-299.764	-200.000	-0.022	-0.153
-298.749	1.319	-0.247	0.175
-297.735	182.481	0.104	0.152
-296.720	-200.000	-0.082	0.410
-295.705	21.414	0.055	-0.044
-294.691	-200.000	-0.018	-0.097
-293.676	-200.000	0.031	-0.235
-292.662	-98.157	-0.209	-0.053
-291.647	246.871	-0.027	0.044
-290.632	-200.000	0.027	-0.158
-289.618	-170.180	0.120	-0.004
-288.603	-39.723	-0.167	-0.087
-287.589	305.468	0.048	-0.088
-286.574	-200.000	0.009	0.079
-285.559	161.638	-0.136	-0.188
-284.545	27.558	0.081	-0.067
-283.530	-200.000	0.002	-0.042
-282.516	-57.350	-0.323	-0.141
-281.501	11.051	0.360	0.272
-280.486	399.458	-0.202	0.418
-279.472	-82.674	0.264	0.084
-278.457	567.130	0.066	0.159
-277.443	461.283	-0.053	-0.118
-276.428	-71.206	0.197	0.073
-275.413	-200.000	0.076	-0.351
-274.399	15.950	-0.224	0.174
-273.384	-200.000	0.015	-0.204
-272.370	297.770	-0.142	0.258
-271.355	-13.552	0.091	-0.058
-270.340	-54.251	0.097	0.044
-269.326	800.000	-0.028	-0.090
-268.311	731.220	-0.083	0.220
-267.297	167.254	-0.089	0.125
-266.282	800.000	-0.035	-0.140
-265.267	95.387	0.105	-0.118
-264.253	800.000	-0.025	0.083
-263.238	-2.035	-0.181	-0.125
-262.224	-200.000	-0.099	0.000
-261.209	588.650	0.155	-0.377
-260.195	-26.508	-0.165	0.095
-259.180	-185.455	0.111	-0.002
-258.165	168.509	-0.068	0.096
-257.151	-37.753	-0.264	-0.139
-256.136	22.767	-0.193	-0.156
-255.122	67.672	0.158	0.160
-254.107	800.000	-0.064	0.200
-253.092	504.541	-0.209	-0.477
-252.078	-130.297	0.198	-0.027
-251.063	-200.000	0.024	-0.169
-250.049	-138.474	0.204	0.022
-249.034	-200.000	-0.001	-0.144
-248.019	-151.236	0.272	0.020
-247.005	-23.291	-0.194	-0.115
-245.990	-8.531	0.253	0.167
-244.976	-113.020	0.208	-0.041
-243.961	23.026	0.055	0.044
-242.946	-2.046	-0.422	-0.292
-241.932	107.356	0.206	-0.242
-240.917	-200.000	0.011	0.186
-239.903	-200.000	-0.007	-0.135
-238.888	-51.314	-0.312	-0.144
-237.873	-200.000	-0.049	0.454
-236.859	-157.075	-0.223	-0.013
-235.844	-40.716	-0.078	0.040
-234.830	800.000	-0.035	-0.098
-233.815	381.980	-0.150	-0.303
-232.800	-167.746	0.028	-0.001
-231.786	385.315	0.077	-0.157
-230.771	-133.867	-0.093	0.011
-229.757	79.150	0.140	-0.147
-228.742	800.000	-0.023	0.067
-227.727	-26.530	0.080	0.046
-226.713	-200.000	0.014	-0.166
-225.698	800.000	-0.078	0.336
-224.684	53.696	0.152	0.144
-223.669	-123.639	-0.131	-0.020
-222.655	556.877	-0.036	0.087
-221.640	-200.000	0.023	-0.409
-220.625	-97.035	-0.028	0.007
-219.611	-100.038	-0.060	0.015
-218.596	796.356	0.034	-0.092
-217.582	-73.778	0.241	0.087
-216.567	-146.189	0.172	0.015
-215.552	57.706	0.137	0.132
-214.538	-200.000	0.000	0.404
-213.523	800.000	-0.073	-0.234
-212.509	-200.000	-0.057	0.266
-211.494	36.164	0.132	0.115
-210.479	100.230	-0.103	-0.118
-209.465	-157.428	-0.116	0.007
-208.450	721.175	0.034	-0.089
-207.436	110.206	0.082	-0.097
-206.421	-55.933	-0.126	0.055
-205.406	-46.874	0.073	-0.035
-204.392	31.520	-0.135	-0.114
-203.377	-45.746	0.136	-0.066
-202.363	240.263	-0.122	0.200
-201.348	-200.000	0.046	-0.220
-200.333	800.000	0.088	0.272
-199.319	28.462	0.312	-0.260
-198.304	-79.735	0.244	-0.081
-197.290	-75.665	0.081	-0.028
-196.275	3.430	-0.372	-0.267
-195.260	-3.289	-0.239	0.164
-194.246	2.351	-0.275	0.196
-193.231	85.180	0.230	0.248
-192.217	122.435	0.124	-0.153
-191.202	15.531	-0.226	0.175
-190.187	182.633	0.096	-0.140
-189.173	-117.055	0.085	-0.015
-188.158	503.820	0.072	-0.165
-187.144	60.193	-0.179	-0.174
-186.129	0.260	0.151	0.106
-185.114	800.000	0.089	0.299
-184.100	-91.251	-0.291	-0.082
-183.085	-135.701	-0.110	0.013
-182.071	-200.000	0.025	-0.153
-181.056	-83.968	0.215	0.067
-180.042	160.861	0.098	0.135
-179.027	93.208	-0.254	0.283
-178.012	-200.000	0.025	0.293
-176.998	-59.135	0.201	0.086
-175.983	-200.000	-0.027	0.383
-174.969	800.000	-0.021	0.072
-173.954	66.087	-0.153	-0.153
-172.939	-64.600	-0.125	-0.050
-171.925	-40.483	0.237	-0.121
-170.910	-200.000	0.051	0.374
-169.896	-200.000	0.046	-0.272
-168.881	222.170	0.202	0.320
-167.866	-69.418	0.211	0.080
-166.852	124.268	0.110	0.136
-165.837	174.109	-0.111	-0.158
-164.823	-93.832	0.114	0.031
-163.808	7.927	-0.215	-0.158
-162.793	159.814	-0.148	-0.203
-161.779	4.152	0.193	-0.139
-160.764	-127.567	0.333	-0.047
-159.750	-200.000	-0.078	0.419
-158.735	70.936	0.099	0.101
-157.720	122.751	0.094	0.115
-156.706	-130.581	-0.422	0.056
-155.691	29.198	0.064	-0.053
-154.677	22.596	-0.338	0.272
-153.662	253.288	0.205	0.344
-152.647	800.000	0.029	0.123
-151.633	-9.660	-0.197	-0.129
-150.618	53.121	0.060	-0.057
-149.604	-117.731	0.225	0.040
-148.589	5.174	0.141	-0.102
-147.574	-29.230	0.234	0.132
-146.560	338.698	-0.161	-0.309
-145.545	-172.150	0.336	0.011
-144.531	-11.997	0.258	-0.166
-143.516	108.974	0.214	0.252
-142.502	-161.205	0.244	0.012
-141.487	800.000	0.087	0.279
-140.472	800.000	-0.009	-0.027
-139.458	-200.000	-0.020	-0.105
-138.443	259.926	-0.192	-0.326
-137.429	-52.457	-0.173	-0.079
-136.414	342.797	0.236	0.454
-135.399	-200.000	-0.025	0.126
-134.385	406.127	-0.045	0.092
-133.370	1.663	0.109	0.077
-132.356	392.658	0.213	0.435
-131.341	553.722	-0.198	0.469
-130.326	231.959	-0.059	-0.094
-129.312	-15.885	0.119	-0.074
-128.297	-200.000	-0.002	-0.171
-127.283	-47.460	-0.189	0.090
-126.268	337.903	0.093	0.178
-125.253	-81.858	-0.184	0.059
-124.239	800.000	0.073	-0.239
-123.224	-200.000	0.005	-0.173
-122.210	-200.000	0.019	-0.128
-121.195	-82.311	0.271	0.086
