DTS Sentinel unit serial number:	SN413079Multiplexer serial number:	ORYXHardware model number:	OX4-SRSoftware version number:	ORYX F/W v4.00 Oryx Data Collector v3.7.2.0data status	okinstallation	princeton_trtdifferential loss correction	single-endedforward channel	channel 1reverse channel	N/Adate	2019/09/12time	19:16:34forward acquisition time	15.00reverse acquisition time	0.00gamma	496.2192k internal	0.2321k external	0.2321temperature offset calibration	1.0129default loss term (dB/km)	0.3790temperature slope calibration	1.0000multiplexer offset coefficient	1.0000multiplexer slope coefficient	1.0000fibre end	0.00T internal ref (°C)	32.50T ext. ref 1 (°C)	3.21T ext. ref 2 (°C)	27.02length (m)	temperature (°C)	Stokes	anti-Stokes-747.200	-117.744	0.446	0.081
-746.185	185.464	-0.220	-0.330
-745.171	-200.000	0.095	0.762
-744.156	515.275	-0.127	0.299
-743.142	-200.000	-0.098	-0.739
-742.127	-34.292	-0.771	0.428
-741.112	-28.725	0.714	0.415
-740.098	268.243	-0.195	0.345
-739.083	26.678	0.693	0.586
-738.069	-65.214	-0.663	0.270
-737.054	-132.597	0.620	-0.080
-736.039	-109.727	0.430	-0.091
-735.025	-200.000	-0.087	0.624
-734.010	-48.207	-0.649	0.316
-732.996	-41.416	-0.509	-0.265
-731.981	-115.416	-0.666	-0.127
-730.966	68.376	0.149	0.154
-729.952	-63.281	0.643	0.268
-728.937	-53.231	-0.624	-0.289
-727.923	-46.197	0.303	0.151
-726.908	800.000	-0.122	0.489
-725.894	-200.000	0.063	-0.639
-724.879	-200.000	-0.068	0.396
-723.864	-60.431	-0.636	-0.273
-722.850	-74.460	-0.872	-0.317
-721.835	800.000	0.057	0.195
-720.821	-88.287	0.274	-0.083
-719.806	14.905	-0.304	-0.240
-718.791	-137.327	-1.071	-0.123
-717.777	55.832	-0.413	0.405
-716.762	-67.091	0.320	0.127
-715.748	-53.469	-0.430	0.199
-714.733	-200.000	0.021	-0.430
-713.718	-8.103	0.172	0.117
-712.704	-200.000	0.047	0.963
-711.689	389.655	-0.339	-0.710
-710.675	457.045	-0.040	-0.091
-709.660	-116.823	-0.664	0.123
-708.645	135.858	0.394	0.519
-707.631	-70.737	-0.247	-0.094
-706.616	148.432	-0.569	0.775
-705.602	800.000	0.191	0.785
-704.587	72.237	0.109	0.115
-703.572	105.920	0.337	-0.402
-702.558	-51.450	0.696	0.328
-701.543	-25.539	0.415	0.247
-700.529	-200.000	-0.004	-0.126
-699.514	565.486	0.186	-0.455
-698.499	213.854	0.334	-0.533
-697.485	169.457	-0.246	-0.354
-696.470	132.787	0.611	0.795
-695.456	45.992	0.504	0.470
-694.441	-68.238	-1.042	-0.409
-693.426	-200.000	0.106	0.794
-692.412	800.000	0.018	-0.063
-691.397	800.000	-0.125	0.413
-690.383	-200.000	0.042	-0.512
-689.368	800.000	0.201	-0.765
-688.354	-39.634	-0.464	-0.245
-687.339	-200.000	-0.003	-0.446
-686.324	-28.503	-0.426	0.248
-685.310	30.823	-0.618	-0.534
-684.295	179.541	-0.349	-0.515
-683.281	-154.127	-0.903	-0.062
-682.266	37.393	0.552	0.493
-681.251	-200.000	-0.025	0.506
-680.237	800.000	0.135	-0.392
-679.222	118.072	0.218	-0.270
-678.208	-94.831	-0.080	-0.022
-677.193	-6.805	-0.168	-0.115
-676.178	-200.000	-0.031	-0.488
-675.164	-70.288	0.846	-0.324
-674.149	800.000	0.128	-0.524
-673.135	-200.000	0.026	-0.213
-672.120	571.432	-0.125	0.306
-671.105	800.000	-0.071	-0.261
-670.091	-10.756	0.452	-0.301
-669.076	181.008	0.358	0.530
-668.062	120.120	-0.386	-0.482
-667.047	-43.479	-0.539	0.274
-666.032	53.179	-0.392	0.379
-665.018	-4.816	0.420	-0.292
-664.003	-167.329	0.781	-0.032
-662.989	292.449	-0.312	0.572
-661.974	138.738	0.412	-0.545
-660.959	-200.000	-0.040	-0.342
-659.945	361.166	0.134	-0.271
-658.930	587.301	0.209	0.518
-657.916	-200.000	0.062	-0.400
-656.901	455.198	0.207	0.462
-655.886	-125.222	0.773	-0.119
-654.872	1.215	0.319	0.231
-653.857	409.384	0.266	0.568
-652.843	152.857	-0.259	0.357
-651.828	5.410	-0.457	0.340
-650.814	26.313	0.657	0.553
-649.799	-24.444	0.615	-0.369
-648.784	-62.296	0.622	-0.261
-647.770	-36.106	-0.849	-0.462
-646.755	-200.000	0.030	-0.337
-645.741	325.422	-0.400	0.771
-644.726	-107.234	1.147	-0.254
-643.711	800.000	-0.081	0.237
-642.697	330.665	0.450	0.873
-641.682	442.500	0.342	-0.754
-640.668	166.480	-0.387	0.553
-639.653	-143.956	-0.167	-0.016
-638.638	-83.613	-0.273	0.088
-637.624	-200.000	0.049	-0.447
-636.609	-133.268	0.673	0.086
-635.595	128.364	-0.472	0.604
-634.580	-194.778	-0.694	-0.005
-633.565	32.484	0.416	-0.362
-632.551	249.323	0.192	-0.328
-631.536	-52.496	-0.806	-0.375
-630.522	-200.000	0.007	0.189
-629.507	169.749	-0.358	-0.514
-628.492	366.491	0.099	-0.201
-627.478	10.885	-0.484	0.372
-626.463	6.830	0.354	0.265
-625.449	-153.898	0.403	0.028
-624.434	-200.000	0.108	-0.519
-623.419	279.202	0.210	0.377
-622.405	-200.000	0.174	0.818
-621.390	530.539	0.412	0.980
-620.376	70.227	-0.390	-0.405
-619.361	-85.560	0.990	-0.310
-618.346	-112.553	-0.135	-0.027
-617.332	800.000	0.277	0.861
-616.317	-143.146	0.857	-0.083
-615.303	-14.081	-0.678	-0.440
-614.288	354.463	-0.252	0.503
-613.273	-183.235	-0.309	-0.005
-612.259	-200.000	0.027	-0.544
-611.244	91.397	0.472	-0.533
-610.230	-93.036	0.436	-0.122
-609.215	-9.929	-0.295	-0.197
-608.201	64.687	0.568	0.576
-607.186	63.703	0.645	0.652
-606.171	-200.000	-0.152	-0.869
-605.157	253.668	-0.737	-1.265
-604.142	-96.051	-0.748	-0.200
-603.128	-28.696	-0.333	-0.193
-602.113	345.350	-0.084	-0.166
-601.098	330.257	-0.528	-1.022
-600.084	800.000	-0.343	-0.963
-599.069	-79.371	0.587	-0.200
-598.055	-59.406	0.434	0.187
-597.040	5.224	-0.035	-0.026
-596.025	-200.000	0.014	0.424
-595.011	-50.084	-0.323	-0.154
-593.996	-44.932	-0.445	0.223
-592.982	-68.697	0.525	0.204
-591.967	-118.661	-0.828	-0.147
-590.952	-23.637	0.745	-0.449
-589.938	-115.635	0.323	-0.061
-588.923	-70.385	0.631	0.240
-587.909	72.895	-0.391	0.410
-586.894	-159.530	0.320	-0.018
-585.879	-33.196	0.610	0.340
-584.865	-148.006	-0.170	0.014
-583.850	-200.000	-0.055	0.368
-582.836	148.181	-0.210	0.285
-581.821	-67.445	-0.111	0.044
-580.806	-100.433	-0.754	-0.188
-579.792	8.047	-0.256	0.193
-578.777	800.000	-0.069	-0.236
-577.763	-200.000	0.017	0.140
-576.748	101.682	-0.066	-0.078
-575.733	68.448	-0.615	-0.633
-574.719	207.326	-0.281	0.440
-573.704	-200.000	0.214	0.956
-572.690	23.953	-0.343	-0.284
-571.675	-73.912	1.019	-0.372
-570.661	152.457	-0.728	0.998
-569.646	495.739	-0.122	0.281
-568.631	-87.570	0.209	0.063
-567.617	423.027	-0.305	-0.659
-566.602	800.000	-0.136	0.545
-565.588	-124.144	-0.394	0.062
-564.573	-36.122	0.826	0.448
-563.558	800.000	-0.114	0.447
-562.544	77.598	0.320	0.342
-561.529	-23.922	-0.341	-0.205
-560.515	60.090	0.350	0.347
-559.500	115.419	-0.463	-0.568
-558.485	800.000	-0.170	0.685
-557.471	-171.381	-1.042	0.035
-556.456	414.175	-0.027	0.058
-555.442	800.000	-0.198	-0.821
-554.427	-108.965	0.214	-0.046
-553.412	-88.457	0.582	-0.174
-552.398	504.228	-0.133	-0.309
-551.383	-116.815	-0.803	0.148
-550.369	-72.838	-0.622	-0.230
-549.354	-200.000	0.041	-0.203
-548.339	-200.000	0.069	0.467
-547.325	-23.119	0.677	0.409
-546.310	130.062	0.399	-0.512
-545.296	-30.187	-0.150	-0.085
-544.281	-52.645	0.252	-0.117
-543.266	225.229	-0.324	-0.527
-542.252	291.631	0.233	-0.425
-541.237	800.000	-0.300	1.120
-540.223	214.319	-0.389	0.617
-539.208	-13.979	1.105	0.716
-538.193	89.764	0.644	-0.721
-537.179	-106.843	-0.009	0.002
-536.164	-200.000	0.088	-0.569
-535.150	2.563	-1.078	-0.783
-534.135	-53.649	-0.695	0.318
-533.121	-200.000	0.029	-0.186
-532.106	107.722	0.266	-0.318
-531.091	-184.988	1.366	0.022
-530.077	-0.259	-0.544	0.388
-529.062	-82.407	0.702	0.229
-528.048	40.065	-0.359	-0.324
-527.033	-23.667	0.297	0.179
-526.018	93.568	0.237	0.269
-525.004	473.649	-0.138	0.312
-523.989	-200.000	0.001	0.044
-522.975	-81.531	-0.109	-0.036
-521.960	-35.539	0.523	0.284
-520.945	-86.441	-0.439	0.135
-519.931	-80.952	-0.163	-0.054
-518.916	-173.981	0.454	-0.013
-517.902	-200.000	0.049	-0.417
-516.887	-9.667	0.474	0.316
-515.872	153.515	-0.459	0.630
-514.858	797.480	-0.152	0.419
-513.843	103.519	-0.317	-0.373
-512.829	-22.638	-0.531	0.322
-511.814	800.000	0.301	-0.869
-510.799	-118.049	0.741	0.133
-509.785	-80.142	-1.407	-0.472
-508.770	-200.000	-0.252	1.215
-507.756	-175.553	0.624	-0.017
-506.741	-29.495	0.122	-0.070
-505.726	-61.307	0.277	-0.117
-504.712	-200.000	0.001	0.781
-503.697	100.389	-0.327	-0.380
-502.683	-5.731	-0.704	0.483
-501.668	-77.316	-0.221	0.077
-500.653	150.133	0.574	-0.780
-499.639	800.000	0.167	0.524
-498.624	61.272	-0.253	-0.252
-497.610	22.511	0.436	0.357
-496.595	-128.847	-0.126	0.018
-495.581	57.539	-0.278	0.272
-494.566	-146.842	0.712	0.061
-493.551	-59.185	-0.800	0.345
-492.537	-95.660	-0.215	-0.058
-491.522	-200.000	0.026	-0.794
-490.508	-77.372	-0.719	-0.250
-489.493	136.130	0.227	0.297
-488.478	49.318	-0.294	-0.277
-487.464	-94.626	-0.471	0.128
-486.449	800.000	0.314	-1.123
-485.435	107.533	-0.382	0.455
-484.420	-107.976	0.545	0.118
-483.405	140.083	-0.176	0.232
-482.391	481.368	0.061	-0.138
-481.376	123.993	-0.419	0.526
-480.362	-65.471	0.563	0.226
-479.347	156.478	0.110	-0.152
-478.332	-200.000	0.062	-0.517
-477.318	-200.000	0.071	-0.695
-476.303	800.000	-0.234	-0.836
-475.289	66.516	0.211	0.215
-474.274	52.780	0.318	0.304
-473.259	-200.000	0.072	-0.350
-472.245	655.572	0.145	-0.373
-471.230	-126.760	-0.313	-0.046
-470.216	-85.426	-0.301	-0.094
-469.201	184.575	-0.138	0.204
-468.186	-155.392	0.430	-0.028
-467.172	73.582	-0.174	-0.182
-466.157	-200.000	-0.035	0.632
-465.143	21.896	1.007	0.821
-464.128	85.540	0.176	-0.193
-463.113	800.000	-0.213	-0.600
-462.099	39.318	0.730	0.653
-461.084	150.423	0.213	0.289
-460.070	127.836	0.359	-0.456
-459.055	-92.773	-0.144	0.040
-458.040	16.115	0.960	-0.756
-457.026	800.000	-0.172	0.724
-456.011	128.197	-0.464	0.590
-454.997	800.000	-0.206	0.727
-453.982	-114.867	-0.217	-0.041
-452.968	287.178	-0.208	-0.376
-451.953	748.652	0.317	0.854
-450.938	-62.408	0.379	0.158
-449.924	-200.000	-0.086	-0.380
-448.909	800.000	0.013	-0.041
-447.895	217.254	-0.054	0.086
-446.880	-200.000	-0.040	-0.347
-445.865	-12.154	0.517	-0.338
-444.851	102.300	-0.260	-0.303
-443.836	33.015	0.470	-0.407
-442.822	712.890	-0.219	-0.580
-441.807	-108.675	-0.591	-0.127
-440.792	-31.060	0.425	-0.240
-439.778	800.000	0.174	0.532
-438.763	-200.000	-0.005	-0.260
-437.749	-200.000	-0.069	0.406
-436.734	48.085	0.143	0.134
-435.719	-105.548	0.881	0.200
-434.705	-168.371	-0.430	-0.017
-433.690	-86.131	-0.794	-0.245
-432.676	405.973	-0.013	-0.028
-431.661	155.273	-0.568	-0.780
-430.646	40.065	-0.317	0.284
-429.632	-27.075	-0.758	0.441
-428.617	-23.441	-0.548	0.329
-427.603	466.653	-0.353	-0.789
-426.588	-200.000	0.071	-0.862
-425.573	-200.000	-0.085	0.711
-424.559	458.005	0.326	0.724
-423.544	-105.446	-0.574	-0.130
-422.530	-2.111	0.471	-0.330
-421.515	40.138	-0.348	0.313
-420.500	-125.177	-0.300	-0.046
-419.486	-64.099	0.710	-0.289
-418.471	16.578	0.331	0.261
-417.457	638.208	-0.208	-0.529
-416.442	-20.075	0.721	0.444
-415.428	-75.570	-0.628	0.223
-414.413	267.336	-0.305	-0.533
-413.398	66.636	0.349	-0.354
-412.384	-200.000	0.090	-0.618
-411.369	-200.000	-0.003	0.119
-410.355	-200.000	0.063	-0.378
-409.340	-36.477	0.937	0.503
-408.325	-103.876	0.510	-0.119
-407.311	244.210	-0.249	0.417
-406.296	-93.649	0.252	-0.069
-405.282	-143.781	0.844	-0.080
-404.267	515.612	0.375	0.873
-403.252	82.784	-0.626	0.678
-402.238	-8.471	0.120	-0.080
-401.223	-162.604	-1.633	0.080
-400.209	-15.613	-0.509	-0.324
-399.194	-127.570	-0.778	-0.113
-398.179	800.000	0.216	-0.928
-397.165	29.280	0.479	-0.405
-396.150	-72.030	-0.433	-0.160
-395.136	-3.241	-0.543	0.378
-394.121	-200.000	-0.111	0.597
-393.106	800.000	-0.123	0.397
-392.092	-200.000	0.025	0.162
-391.077	-134.278	-0.659	0.081
-390.063	-200.000	-0.037	0.173
-389.048	-72.111	0.613	-0.227
-388.033	114.263	-0.206	-0.251
-387.019	800.000	-0.166	-0.503
-386.004	-200.000	-0.002	-0.094
-384.990	-89.084	0.904	-0.266
-383.975	-83.294	0.217	0.069
-382.960	356.929	0.472	0.939
-381.946	-87.378	-1.061	-0.320
-380.931	-184.419	-0.314	-0.005
-379.917	-95.465	0.675	0.181
-378.902	-200.000	0.121	-0.553
-377.888	706.473	-0.081	-0.213
-376.873	-44.382	-0.376	-0.187
-375.858	-185.290	-0.297	-0.005
-374.844	-200.000	0.123	-0.727
-373.829	-200.000	-0.038	-0.640
-372.815	-84.060	-0.775	-0.245
-371.800	34.215	0.077	0.067
-370.785	78.451	-0.243	0.258
-369.771	-13.422	0.654	0.423
-368.756	-165.712	-0.388	-0.017
-367.742	800.000	-0.011	0.039
-366.727	4.358	0.566	0.414
-365.712	-88.876	0.479	-0.142
-364.698	382.688	-0.107	-0.220
-363.683	12.956	-0.214	0.165
-362.669	353.836	-0.135	-0.267
-361.654	51.991	-0.371	0.352
-360.639	390.820	0.602	-1.244
-359.625	358.301	-0.394	-0.783
-358.610	-113.789	-0.500	0.097
-357.596	65.961	0.249	0.252
-356.581	-113.364	0.589	-0.115
-355.566	161.046	-0.243	0.338
-354.552	-93.364	-0.684	0.189
-353.537	48.764	-0.614	0.574
-352.523	-70.148	0.491	0.186
-351.508	468.684	0.195	-0.436
-350.493	-49.779	-0.615	0.291
-349.479	20.984	-0.763	0.616
-348.464	194.834	-0.462	-0.698
-347.450	-200.000	-0.088	-0.604
-346.435	-69.529	-0.276	-0.105
-345.420	52.538	0.178	-0.169
-344.406	-200.000	-0.091	0.401
-343.391	-18.096	-0.782	-0.488
-342.377	-155.683	-0.445	0.028
-341.362	550.190	0.321	0.766
-340.348	800.000	0.067	0.229
-339.333	-56.901	-0.378	0.166
-338.318	-58.771	0.521	-0.224
-337.304	-200.000	0.012	-0.210
-336.289	-200.000	0.185	-0.876
-335.275	167.325	-0.150	0.212
-334.260	-9.317	-0.043	-0.028
-333.245	228.197	-0.183	0.297
-332.231	82.248	0.115	-0.124
-331.216	78.222	0.376	0.400
-330.202	31.859	-0.630	0.540
-329.187	-98.674	0.437	0.111
-328.172	-64.760	-0.150	-0.061
-327.158	109.386	-0.370	-0.441
-326.143	100.628	0.181	-0.209
-325.129	-200.000	0.147	0.663
-324.114	-200.000	-0.016	0.328
-323.099	93.677	-0.183	-0.206
-322.085	92.177	0.406	0.455
-321.070	-150.803	0.577	0.044
-320.056	31.094	-0.013	-0.011
-319.041	-86.527	0.513	0.156
-318.026	-59.563	0.570	-0.243
-317.012	-200.000	0.220	-1.150
-315.997	-200.000	0.175	-1.220
-314.983	-18.932	0.318	0.197
-313.968	10.758	-0.609	0.462
-312.953	-44.115	0.395	-0.197
-311.939	-101.174	-0.274	-0.067
-310.924	140.486	0.105	-0.138
-309.910	-60.897	0.422	0.178
-308.895	558.045	-0.311	-0.746
-307.880	800.000	-0.093	-0.275
-306.866	-200.000	-0.025	-0.332
-305.851	-119.972	0.907	0.155
-304.837	-26.146	0.532	0.311
-303.822	626.370	0.338	-0.847
-302.807	69.712	0.359	0.367
-301.793	800.000	-0.101	-0.364
-300.778	-33.783	-0.581	-0.318
-299.764	-200.000	-0.035	0.294
-298.749	-200.000	-0.046	0.543
-297.735	621.768	0.475	1.189
-296.720	34.713	0.737	-0.640
-295.705	330.851	0.151	0.288
-294.691	105.101	0.171	0.200
-293.676	800.000	-0.050	-0.207
-292.662	800.000	0.068	0.296
-291.647	41.946	-0.672	-0.605
-290.632	-200.000	0.001	0.286
-289.618	800.000	0.167	-0.538
-288.603	-84.726	-0.906	-0.283
-287.589	-2.170	0.256	0.178
-286.574	-160.592	0.489	0.026
-285.559	-115.700	-0.218	-0.041
-284.545	-142.939	-0.130	0.013
-283.530	-117.299	0.277	0.050
-282.516	69.976	0.569	0.583
-281.501	47.768	0.416	-0.385
-280.486	71.977	0.194	-0.200
-279.472	-30.856	-0.663	-0.372
-278.457	-200.000	0.077	0.662
-277.443	800.000	0.205	-0.667
-276.428	-12.017	0.179	0.116
-275.413	55.057	-0.666	0.639
-274.399	8.936	-0.695	0.521
-273.384	-100.942	0.490	0.119
-272.370	-200.000	0.063	-1.090
-271.355	-58.118	0.520	0.225
-270.340	247.218	0.299	0.501
-269.326	-57.472	-0.756	0.329
-268.311	-125.818	0.462	0.069
-267.297	-182.452	-0.355	0.006
-266.282	80.338	-0.671	-0.716
-265.267	-138.308	0.823	0.090
-264.253	-131.121	0.669	0.088
-263.238	88.913	-0.450	-0.497
-262.224	-200.000	-0.088	-0.734
-261.209	800.000	-0.112	-0.411
-260.195	-200.000	-0.086	-0.661
-259.180	-200.000	0.036	-0.400
-258.165	-200.000	0.017	-0.277
-257.151	157.765	0.501	0.688
-256.136	-200.000	0.034	-0.487
-255.122	-74.926	-0.501	-0.178
-254.107	156.061	0.494	0.675
-253.092	384.063	0.431	0.879
-252.078	800.000	0.096	0.350
-251.063	196.418	0.134	0.202
-250.049	197.936	0.256	-0.388
-249.034	184.035	0.256	-0.376
-248.019	-126.731	0.785	0.115
-247.005	624.278	0.162	0.405
-245.990	250.561	0.127	0.214
-244.976	12.360	0.384	0.293
-243.961	-63.329	-0.439	0.179
-242.946	-137.458	0.713	-0.080
-241.932	-77.367	-0.010	0.004
-240.917	256.980	0.186	-0.317
-239.903	-40.151	0.631	-0.326
-238.888	68.048	0.165	-0.168
-237.873	-56.962	0.656	0.287
-236.859	-60.880	-0.320	-0.134
-235.844	109.594	-0.308	-0.366
-234.830	-107.448	0.255	0.056
-233.815	800.000	-0.006	-0.021
-232.800	-5.560	-0.374	0.254
-231.786	335.855	0.093	-0.179
-230.771	-119.160	-0.475	0.082
-229.757	-200.000	0.027	0.503
-228.742	-118.190	-0.411	-0.073
-227.727	-118.487	0.333	-0.058
-226.713	-44.536	-0.177	-0.088
-225.698	-200.000	0.074	-0.670
-224.684	-39.354	-0.629	-0.327
-223.669	-190.104	-0.952	0.011
-222.655	-200.000	0.030	0.547
-221.640	432.916	-0.075	0.162
-220.625	-200.000	-0.037	-0.706
-219.611	7.649	0.268	-0.199
-218.596	348.717	-0.333	-0.652
-217.582	85.432	-0.641	0.697
-216.567	-68.119	-0.239	0.092
-215.552	800.000	-0.213	0.769
-214.538	273.268	-0.231	-0.405
-213.523	-46.745	-0.162	-0.078
-212.509	652.628	0.168	0.426
-211.494	122.492	-0.153	0.189
-210.479	508.955	0.275	-0.634
-209.465	-118.209	-0.519	0.092
-208.450	77.814	0.080	0.085
-207.436	-9.952	1.163	0.766
-206.421	365.115	-0.395	0.787
-205.406	-20.272	0.170	0.104
-204.392	-96.912	0.449	0.117
-203.377	79.464	-0.291	0.309
-202.363	92.884	0.594	0.664
-201.348	-200.000	-0.076	0.424
-200.333	0.942	-0.351	-0.249
-199.319	-36.938	0.384	0.204
-198.304	24.579	-0.471	-0.386
-197.290	-200.000	0.015	-0.190
-196.275	-16.379	-0.131	-0.082
-195.260	670.707	0.159	0.407
-194.246	-53.993	0.329	0.148
-193.231	655.145	-0.186	-0.471
-192.217	648.497	-0.103	-0.261
-191.202	800.000	-0.104	0.288
-190.187	-29.929	0.496	0.279
-189.173	-40.645	-0.345	-0.177
-188.158	-62.799	-0.797	-0.326
-187.144	-104.522	0.435	-0.099
-186.129	800.000	-0.060	-0.250
-185.114	-61.146	-0.265	0.111
-184.100	-94.327	-0.426	-0.115
-183.085	-198.641	0.441	-0.002
-182.071	152.255	-0.064	0.087
-181.056	-120.088	-0.382	-0.065
-180.042	19.043	0.570	0.452
-179.027	637.548	-0.179	-0.449
-178.012	175.296	0.615	-0.881
-176.998	637.210	-0.269	-0.676
-175.983	90.131	0.076	0.084
-174.969	-138.967	-0.452	0.048
-173.954	12.300	0.244	0.186
-172.939	-160.697	0.455	-0.024
-171.925	9.768	-0.254	0.190
-170.910	-105.747	0.316	-0.071
-169.896	-50.525	0.251	0.117
-168.881	-11.838	-0.293	-0.190
-167.866	-30.708	-0.178	-0.100
-166.852	-135.278	0.536	-0.064
-165.837	91.759	-0.248	-0.276
-164.823	800.000	0.199	0.639
-163.808	-61.355	0.406	0.169
-162.793	524.796	-0.277	0.644
-161.779	800.000	-0.086	0.324
-160.764	800.000	0.253	0.726
-159.750	593.973	-0.122	0.297
-158.735	800.000	0.034	-0.116
-157.720	32.105	-0.475	0.405
-156.706	-1.869	-0.307	-0.213
-155.691	-111.861	-0.321	-0.064
-154.677	-200.000	-0.012	-0.156
-153.662	-200.000	-0.130	1.254
-152.647	800.000	-0.117	0.321
-151.633	-200.000	-0.003	0.995
-150.618	280.492	0.483	-0.854
-149.604	-200.000	-0.203	0.929
-148.589	361.508	0.262	-0.519
-147.574	153.866	0.395	-0.534
-146.560	188.299	0.256	0.378
-145.545	-24.689	-0.384	-0.225
-144.531	309.795	-0.092	0.170
-143.516	101.876	-0.246	-0.284
-142.502	-123.790	-0.438	0.068
-141.487	298.989	0.208	-0.378
-140.472	-146.835	-0.223	0.019
-139.458	-200.000	-0.008	-0.461
-138.443	-200.000	-0.044	-0.254
-137.429	-79.091	0.014	-0.005
-136.414	-70.996	-0.221	-0.082
-135.399	-29.942	-0.682	-0.383
-134.385	9.527	0.191	-0.143
-133.370	-28.419	0.638	-0.363
-132.356	-14.275	-0.201	0.128
-131.341	119.396	-0.388	0.474
-130.326	408.781	0.298	0.623
-129.312	260.469	-0.180	0.307
-128.297	68.470	-0.398	-0.403
-127.283	-200.000	-0.100	-0.532
-126.268	52.599	-0.369	-0.348
-125.253	800.000	-0.039	-0.138
-124.239	-200.000	0.113	-0.545
-123.224	81.106	-0.336	-0.358
-122.210	800.000	-0.103	0.398
-121.195	38.085	0.207	0.181
