DTS Sentinel unit serial number:	SN413079Multiplexer serial number:	ORYXHardware model number:	OX4-SRSoftware version number:	ORYX F/W v4.00 Oryx Data Collector v3.7.2.0data status	okinstallation	princeton_trtdifferential loss correction	single-endedforward channel	channel 1reverse channel	N/Adate	2019/09/14time	21:46:35forward acquisition time	60.00reverse acquisition time	0.00gamma	496.2192k internal	0.2318k external	0.2318temperature offset calibration	1.0011default loss term (dB/km)	0.3790temperature slope calibration	1.0000multiplexer offset coefficient	1.0000multiplexer slope coefficient	1.0000fibre end	0.00T internal ref (°C)	32.75T ext. ref 1 (°C)	4.74T ext. ref 2 (°C)	27.71length (m)	temperature (°C)	Stokes	anti-Stokes-747.200	-115.826	0.145	-0.027
-746.185	89.529	-0.295	0.333
-745.171	800.000	0.041	-0.145
-744.156	-35.746	-0.162	0.089
-743.142	211.965	0.112	0.178
-742.127	201.015	0.161	0.251
-741.112	800.000	-0.056	0.226
-740.098	-200.000	-0.050	0.337
-739.083	122.157	-0.247	-0.313
-738.069	-22.016	-0.306	0.188
-737.054	479.142	-0.059	0.136
-736.039	800.000	-0.155	-0.439
-735.025	-43.152	-0.079	0.040
-734.010	305.029	-0.170	-0.320
-732.996	-96.093	-0.379	-0.102
-731.981	183.787	0.174	0.261
-730.966	-30.440	-0.204	0.117
-729.952	-120.165	-0.267	0.046
-728.937	74.100	-0.174	-0.185
-727.923	-146.589	-0.337	-0.030
-726.908	209.688	-0.090	0.142
-725.894	-107.237	0.150	0.033
-724.879	-200.000	0.010	-0.069
-723.864	800.000	0.035	-0.109
-722.850	-152.128	-0.015	-0.001
-721.835	12.485	-0.197	0.153
-720.821	83.464	0.095	0.105
-719.806	-31.168	0.191	-0.109
-718.791	-132.482	0.110	0.014
-717.777	-85.336	0.275	-0.087
-716.762	341.747	-0.136	-0.268
-715.748	800.000	-0.040	0.114
-714.733	-103.777	-0.217	-0.051
-713.718	-73.981	0.209	-0.077
-712.704	-200.000	0.004	0.053
-711.689	335.295	-0.174	-0.340
-710.675	344.261	0.121	-0.239
-709.660	800.000	0.067	-0.235
-708.645	-139.858	-0.473	-0.051
-707.631	-173.641	0.159	0.005
-706.616	110.144	0.241	-0.292
-705.602	171.243	0.173	0.251
-704.587	197.742	-0.028	-0.043
-703.572	106.117	-0.055	0.066
-702.558	402.885	-0.089	-0.188
-701.543	141.976	-0.154	0.206
-700.529	-20.609	0.083	-0.051
-699.514	-19.673	0.157	0.098
-698.499	-32.240	-0.030	0.017
-697.485	-11.949	-0.191	0.127
-696.470	261.581	0.097	-0.170
-695.456	-128.420	-0.224	-0.032
-694.441	34.257	0.255	0.225
-693.426	214.864	-0.134	-0.215
-692.412	1.251	0.076	0.055
-691.397	9.476	0.170	0.130
-690.383	-200.000	0.039	0.201
-689.368	-40.456	0.171	0.090
-688.354	-160.121	0.383	-0.021
-687.339	-200.000	0.015	-0.128
-686.324	60.841	0.021	-0.021
-685.310	-200.000	0.098	0.476
-684.295	800.000	0.040	-0.151
-683.281	-166.372	-0.363	-0.015
-682.266	-163.815	0.296	-0.014
-681.251	-57.116	-0.255	0.113
-680.237	800.000	-0.040	0.128
-679.222	800.000	0.027	0.107
-678.208	136.614	-0.084	0.111
-677.193	-108.912	0.065	-0.014
-676.178	146.506	0.122	-0.165
-675.164	334.402	0.125	-0.244
-674.149	-72.602	-0.299	-0.111
-673.135	-19.652	0.132	0.082
-672.120	-170.633	0.048	-0.002
-671.105	44.053	-0.140	0.130
-670.091	157.675	0.186	-0.260
-669.076	405.638	-0.172	-0.367
-668.062	-129.806	0.010	0.001
-667.047	800.000	-0.014	-0.039
-666.032	39.881	0.415	-0.376
-665.018	424.373	-0.058	0.125
-664.003	-110.456	0.123	-0.026
-662.989	53.789	-0.113	0.110
-661.974	-7.117	-0.075	0.051
-660.959	100.881	-0.129	0.151
-659.945	63.544	-0.104	0.105
-658.930	-200.000	-0.015	0.198
-657.916	-188.503	0.090	0.001
-656.901	-40.938	0.397	0.207
-655.886	305.865	-0.073	0.137
-654.872	-159.689	0.273	0.015
-653.857	-92.577	-0.442	-0.125
-652.843	-14.569	-0.286	0.186
-651.828	-18.993	0.403	0.253
-650.814	-111.524	-0.104	0.021
-649.799	800.000	0.054	-0.169
-648.784	16.804	-0.103	-0.082
-647.770	-188.918	-0.126	-0.002
-646.755	-21.193	0.277	0.171
-645.741	-31.234	0.123	0.070
-644.726	-161.791	0.051	-0.003
-643.711	-40.511	-0.380	-0.199
-642.697	179.284	0.064	0.094
-641.682	347.555	0.115	-0.229
-640.668	-31.569	-0.323	-0.183
-639.653	1.512	0.229	-0.166
-638.638	-82.701	0.341	0.111
-637.624	-68.897	-0.265	0.103
-636.609	-92.054	-0.203	-0.058
-635.595	-32.613	-0.185	-0.104
-634.580	-200.000	0.007	-0.037
-633.565	44.131	-0.057	0.053
-632.551	-0.213	-0.287	0.206
-631.536	-21.894	-0.202	0.124
-630.522	24.469	0.200	-0.167
-629.507	800.000	0.098	-0.289
-628.492	-200.000	-0.003	0.272
-627.478	-28.069	0.239	-0.139
-626.463	-104.626	-0.112	-0.026
-625.449	-111.827	-0.217	-0.044
-624.434	800.000	0.068	0.248
-623.419	-64.273	0.031	0.013
-622.405	299.382	0.055	0.102
-621.390	800.000	0.077	-0.221
-620.376	-200.000	-0.017	0.108
-619.361	-142.046	0.115	0.012
-618.346	800.000	0.102	0.396
-617.332	-88.703	0.323	-0.097
-616.317	695.564	0.079	0.208
-615.303	31.230	0.070	-0.060
-614.288	800.000	0.013	0.038
-613.273	-35.874	-0.114	-0.062
-612.259	800.000	-0.035	-0.115
-611.244	-111.222	0.258	0.053
-610.230	800.000	0.066	0.244
-609.215	-200.000	0.022	-0.173
-608.201	800.000	-0.099	0.352
-607.186	14.541	0.250	0.196
-606.171	-140.562	0.113	-0.012
-605.157	-200.000	0.017	-0.099
-604.142	154.852	-0.070	-0.097
-603.128	-68.204	-0.228	-0.089
-602.113	-200.000	-0.004	-0.107
-601.098	183.636	0.186	0.276
-600.084	800.000	0.046	0.148
-599.069	529.542	0.040	0.094
-598.055	800.000	-0.026	-0.094
-597.040	-146.714	0.171	0.015
-596.025	-105.440	-0.272	-0.062
-595.011	48.377	-0.191	-0.180
-593.996	429.746	-0.163	0.354
-592.982	800.000	0.099	0.366
-591.967	-9.499	0.297	-0.200
-590.952	547.080	0.075	0.181
-589.938	-21.948	-0.197	-0.121
-588.923	800.000	-0.046	-0.151
-587.909	-70.811	-0.192	-0.073
-586.894	262.106	0.179	0.313
-585.879	800.000	0.061	0.228
-584.865	-200.000	-0.000	-0.081
-583.850	-118.302	-0.244	0.044
-582.836	-166.110	-0.210	0.009
-581.821	137.025	-0.199	-0.262
-580.806	-24.404	-0.078	-0.047
-579.792	-68.209	-0.164	-0.064
-578.777	121.254	-0.243	-0.304
-577.763	408.696	0.046	-0.098
-576.748	-106.119	0.110	-0.025
-575.733	298.190	-0.088	-0.162
-574.719	-130.325	-0.322	0.044
-573.704	-200.000	-0.008	-0.052
-572.690	83.241	-0.202	0.221
-571.675	800.000	-0.064	0.224
-570.661	799.936	0.093	-0.259
-569.646	800.000	-0.034	0.146
-568.631	-200.000	0.057	0.370
-567.617	-37.889	-0.254	0.136
-566.602	-12.260	-0.031	0.021
-565.588	95.640	-0.025	0.028
-564.573	231.274	0.070	0.115
-563.558	425.107	-0.030	0.066
-562.544	-59.455	0.118	-0.051
-561.529	800.000	0.051	0.166
-560.515	-200.000	-0.003	0.101
-559.500	-41.192	0.472	-0.245
-558.485	210.283	0.180	0.284
-557.471	-200.000	0.001	-0.078
-556.456	-128.955	-0.019	0.003
-555.442	-200.000	-0.020	-0.289
-554.427	96.810	-0.151	0.174
-553.412	-200.000	0.029	0.155
-552.398	375.776	-0.073	0.149
-551.383	209.190	-0.062	-0.098
-550.369	84.688	0.182	0.200
-549.354	-123.151	-0.385	0.062
-548.339	73.543	-0.196	-0.206
-547.325	-200.000	0.031	0.154
-546.310	-200.000	-0.012	-0.136
-545.296	-121.430	0.058	0.010
-544.281	-95.328	0.058	-0.016
-543.266	-59.592	-0.023	-0.010
-542.252	-200.000	-0.031	0.434
-541.237	602.451	0.059	-0.147
-540.223	21.637	0.109	-0.089
-539.208	800.000	0.034	0.125
-538.193	72.805	0.217	0.227
-537.179	47.420	-0.165	-0.154
-536.164	-200.000	-0.022	0.205
-535.150	-153.549	-0.369	-0.026
-534.135	-76.673	0.152	-0.053
-533.121	229.849	0.017	0.028
-532.106	-169.962	-0.127	0.005
-531.091	63.823	0.057	0.058
-530.077	800.000	-0.042	0.126
-529.062	-177.509	-0.063	0.002
-528.048	546.078	-0.102	0.245
-527.033	-20.958	-0.130	-0.080
-526.018	-200.000	-0.010	-0.249
-525.004	56.747	-0.261	-0.255
-523.989	-121.201	0.132	-0.022
-522.975	-200.000	0.036	0.166
-521.960	-150.252	-0.271	0.021
-520.945	31.558	0.223	0.193
-519.931	-135.431	-0.106	0.013
-518.916	-66.149	-0.076	0.030
-517.902	79.485	0.155	0.166
-516.887	118.565	-0.059	0.074
-515.872	-154.586	0.340	-0.023
-514.858	39.397	-0.128	-0.115
-513.843	-18.047	-0.142	0.089
-512.829	-19.231	0.253	-0.158
-511.814	31.860	0.141	0.122
-510.799	-157.107	0.070	-0.004
-509.785	-31.554	0.245	0.138
-508.770	72.679	0.228	0.238
-507.756	376.585	-0.172	-0.351
-506.741	135.062	0.077	0.100
-505.726	-51.322	0.203	-0.095
-504.712	49.259	-0.095	0.090
-503.697	215.254	0.033	-0.052
-502.683	-99.579	-0.149	-0.038
-501.668	-133.356	0.444	0.056
-500.653	72.765	-0.113	0.118
-499.639	330.509	-0.090	0.174
-498.624	-19.253	0.081	0.051
-497.610	-12.203	-0.156	0.102
-496.595	-71.094	0.172	0.065
-495.581	-108.708	-0.170	-0.037
-494.566	800.000	-0.014	-0.038
-493.551	-145.642	-0.324	-0.029
-492.537	47.704	0.102	-0.095
-491.522	-200.000	-0.054	-0.397
-490.508	-200.000	0.018	0.156
-489.493	-71.112	0.413	0.156
-488.478	-22.826	-0.170	0.103
-487.464	412.381	-0.064	0.137
-486.449	-179.155	0.281	0.006
-485.435	141.139	-0.157	0.208
-484.420	800.000	0.036	0.140
-483.405	800.000	-0.014	0.043
-482.391	137.644	-0.130	0.171
-481.376	800.000	-0.034	0.101
-480.362	-97.640	-0.155	-0.040
-479.347	649.438	0.100	0.256
-478.332	-68.336	0.190	0.074
-477.318	387.176	0.013	-0.026
-476.303	-188.607	0.435	0.005
-475.289	-41.494	0.092	0.048
-474.274	240.669	-0.161	-0.268
-473.259	800.000	0.098	-0.334
-472.245	242.985	0.115	-0.193
-471.230	496.033	-0.135	-0.310
-470.216	73.825	0.168	-0.177
-469.201	-200.000	-0.002	0.014
-468.186	-21.455	0.117	-0.072
-467.172	7.412	0.128	-0.096
-466.157	84.852	-0.184	0.202
-465.143	85.641	-0.192	0.211
-464.128	88.266	0.260	0.289
-463.113	-127.556	0.118	0.017
-462.099	-200.000	0.011	-0.391
-461.084	210.779	0.111	-0.174
-460.070	-132.363	-0.079	0.010
-459.055	172.715	0.085	0.122
-458.040	309.163	-0.057	0.106
-457.026	-200.000	0.050	0.278
-456.011	800.000	0.104	0.444
-454.997	-81.849	-0.198	-0.065
-453.982	295.528	0.208	-0.382
-452.968	26.506	-0.115	0.096
-451.953	-51.756	-0.063	-0.029
-450.938	306.536	0.181	0.338
-449.924	-200.000	0.011	0.129
-448.909	-200.000	0.011	0.307
-447.895	-4.723	0.310	0.214
-446.880	-43.261	-0.412	-0.208
-445.865	126.439	0.104	-0.132
-444.851	-52.977	0.075	0.034
-443.836	800.000	0.016	0.055
-442.822	-14.858	-0.112	-0.072
-441.807	4.039	-0.193	-0.141
-440.792	-200.000	-0.030	-0.210
-439.778	-154.090	0.310	-0.021
-438.763	-76.787	-0.078	-0.027
-437.749	-116.748	-0.123	0.023
-436.734	800.000	0.076	-0.234
-435.719	-159.131	-0.202	-0.011
-434.705	-140.074	-0.195	0.021
-433.690	-14.840	-0.200	0.128
-432.676	326.143	-0.040	0.076
-431.661	87.112	0.068	0.075
-430.646	201.512	-0.082	-0.126
-429.632	800.000	-0.075	-0.328
-428.617	800.000	0.058	-0.194
-427.603	-126.983	-0.112	-0.016
-426.588	-96.844	-0.423	-0.111
-425.573	-94.795	-0.389	-0.105
-424.559	-200.000	0.011	0.229
-423.544	174.341	0.184	0.266
-422.530	227.811	-0.127	0.207
-421.515	127.761	0.065	-0.083
-420.500	-130.164	-0.118	-0.016
-419.486	-71.296	0.318	0.119
-418.471	-104.928	0.374	-0.086
-417.457	127.641	0.259	0.329
-416.442	357.539	-0.185	0.370
-415.428	-53.340	0.154	0.071
-414.413	-200.000	0.002	-0.122
-413.398	-27.852	0.381	-0.221
-412.384	-190.522	0.214	0.002
-411.369	119.412	-0.057	-0.070
-410.355	-20.963	0.176	0.108
-409.340	-96.219	0.386	-0.102
-408.325	-112.180	-0.196	0.039
-407.311	-114.253	-0.207	-0.040
-406.296	-45.568	0.415	-0.205
-405.282	-69.979	0.250	-0.095
-404.267	-72.280	0.204	-0.075
-403.252	11.930	0.228	-0.175
-402.238	94.284	-0.196	-0.222
-401.223	-73.729	0.255	-0.093
-400.209	1.421	-0.185	0.133
-399.194	61.941	-0.165	-0.164
-398.179	498.006	-0.098	-0.224
-397.165	-196.751	-0.075	0.000
-396.150	-33.356	0.196	-0.108
-395.136	-104.723	0.183	-0.042
-394.121	-137.320	0.276	0.031
-393.106	166.834	-0.164	-0.232
-392.092	213.327	-0.082	-0.129
-391.077	-186.285	-0.479	-0.007
-390.063	-108.289	0.062	0.013
-389.048	-78.263	0.193	-0.066
-388.033	171.521	0.145	0.208
-387.019	-200.000	-0.015	-0.192
-386.004	163.119	-0.250	-0.351
-384.990	800.000	0.146	-0.459
-383.975	-25.977	0.147	-0.086
-382.960	477.926	0.049	0.111
-381.946	-81.148	-0.094	-0.031
-380.931	-33.455	-0.120	0.066
-379.917	-173.508	-0.155	-0.005
-378.902	1.147	-0.286	-0.205
-377.888	-96.559	0.065	0.017
-376.873	-3.163	-0.179	0.124
-375.858	558.309	-0.200	-0.482
-374.844	279.098	0.236	0.421
-373.829	-200.000	0.042	0.397
-372.815	-200.000	-0.050	0.255
-371.800	118.736	-0.171	-0.211
-370.785	-200.000	0.005	-0.043
-369.771	-200.000	-0.004	0.066
-368.756	-115.437	-0.176	0.033
-367.742	-177.324	0.196	0.005
-366.727	-19.233	-0.107	0.066
-365.712	-200.000	0.015	0.134
-364.698	-117.524	0.312	0.056
-363.683	-80.141	0.324	-0.108
-362.669	-49.394	-0.148	-0.071
-361.654	-200.000	-0.002	-0.014
-360.639	615.848	0.104	-0.261
-359.625	74.972	-0.144	0.151
-358.610	182.666	0.151	0.222
-357.596	-140.636	-0.132	0.014
-356.581	335.151	-0.001	0.003
-355.566	-28.123	-0.074	-0.043
-354.552	-200.000	0.044	0.282
-353.537	-65.365	0.298	-0.119
-352.523	-200.000	0.020	0.161
-351.508	41.590	-0.256	0.231
-350.493	42.223	0.153	0.139
-349.479	-57.678	0.251	0.110
-348.464	-177.013	0.401	-0.010
-347.450	112.775	0.104	0.126
-346.435	140.593	0.086	-0.113
-345.420	41.849	0.072	0.065
-344.406	-93.834	0.217	0.060
-343.391	800.000	-0.182	0.540
-342.377	-110.466	0.251	0.052
-341.362	-95.157	0.064	0.017
-340.348	712.126	-0.026	-0.069
-339.333	-128.744	-0.206	-0.029
-338.318	228.319	-0.115	0.186
-337.304	-154.726	0.212	-0.014
-336.289	-141.159	-0.332	0.034
-335.275	800.000	-0.132	0.455
-334.260	-200.000	-0.046	-0.349
-333.245	-5.467	0.122	-0.083
-332.231	-82.874	0.160	0.051
-331.216	-62.211	-0.151	-0.063
-330.202	-200.000	0.072	-0.419
-329.187	-200.000	0.015	0.123
-328.172	639.288	-0.033	0.084
-327.158	-3.139	-0.205	0.142
-326.143	-200.000	-0.004	0.022
-325.129	-178.208	0.117	-0.003
-324.114	30.917	0.283	-0.242
-323.099	422.211	-0.052	0.111
-322.085	148.136	0.178	-0.238
-321.070	-97.757	-0.528	-0.136
-320.056	-200.000	-0.020	0.204
-319.041	-46.280	0.205	0.100
-318.026	504.833	0.155	-0.357
-317.012	-88.517	0.145	0.043
-315.997	261.463	-0.063	0.109
-314.983	-139.523	-0.138	0.015
-313.968	800.000	0.042	-0.181
-312.953	11.239	-0.231	0.176
-311.939	751.134	-0.051	0.137
-310.924	-200.000	0.018	0.096
-309.910	447.492	-0.117	0.257
-308.895	-200.000	0.002	-0.141
-307.880	317.139	-0.136	-0.257
-306.866	-200.000	-0.032	-0.148
-305.851	1.841	-0.194	0.139
-304.837	61.928	0.170	-0.169
-303.822	-128.536	0.142	0.020
-302.807	106.100	-0.115	-0.135
-301.793	-107.165	-0.343	0.075
-300.778	-200.000	0.027	0.133
-299.764	-15.907	-0.126	-0.080
-298.749	-200.000	0.004	0.147
-297.735	800.000	0.117	-0.344
-296.720	-99.341	0.186	0.047
-295.705	-200.000	0.194	0.001
-294.691	-75.152	-0.127	0.045
-293.676	-94.681	0.188	-0.051
-292.662	-138.649	0.523	-0.057
-291.647	-28.139	0.087	0.050
-290.632	800.000	0.106	-0.326
-289.618	-31.593	-0.184	-0.103
-288.603	122.387	0.186	-0.231
-287.589	800.000	0.027	-0.083
-286.574	-102.691	-0.133	0.032
-285.559	-161.387	-0.288	-0.015
-284.545	-121.938	0.087	0.014
-283.530	84.544	0.010	-0.010
-282.516	-115.258	-0.150	0.028
-281.501	10.270	0.181	0.137
-280.486	-96.240	-0.213	-0.056
-279.472	189.493	0.095	-0.141
-278.457	-33.932	-0.076	-0.041
-277.443	208.198	0.182	0.283
-276.428	-5.552	-0.360	-0.245
-275.413	800.000	-0.088	-0.364
-274.399	-33.652	0.291	0.160
-273.384	-93.051	0.246	0.068
-272.370	-200.000	-0.030	-0.141
-271.355	-200.000	0.034	-0.199
-270.340	-52.153	0.164	-0.076
-269.326	-121.926	-0.296	0.048
-268.311	387.688	-0.024	-0.049
-267.297	-97.935	0.493	0.126
-266.282	-55.910	-0.365	0.162
-265.267	-200.000	-0.028	0.137
-264.253	-113.668	-0.332	0.064
-263.238	-52.809	-0.291	-0.133
-262.224	603.805	-0.120	0.296
-261.209	66.951	0.106	0.107
-260.195	-39.070	0.359	-0.188
-259.180	31.809	-0.155	-0.132
-258.165	-12.162	0.304	0.198
-257.151	-12.116	-0.324	-0.211
-256.136	121.046	-0.172	-0.213
-255.122	-123.706	-0.225	0.035
-254.107	-91.150	-0.218	-0.062
-253.092	13.665	-0.319	-0.246
-252.078	-200.000	-0.005	-0.177
-251.063	-50.161	-0.169	0.079
-250.049	-135.081	0.133	-0.016
-249.034	800.000	-0.026	-0.093
-248.019	-15.070	-0.274	0.174
-247.005	-200.000	-0.068	-0.387
-245.990	-200.000	0.075	-0.443
-244.976	-72.940	-0.084	0.030
-243.961	-45.997	-0.474	0.232
-242.946	-20.128	0.047	0.029
-241.932	267.915	-0.081	-0.141
-240.917	136.699	-0.029	0.037
-239.903	790.030	0.126	-0.344
-238.888	-92.878	0.457	-0.127
-237.873	800.000	0.073	-0.255
-236.859	554.104	-0.059	-0.140
-235.844	-70.799	0.366	-0.137
-234.830	-109.464	0.028	-0.006
-233.815	-140.501	-0.440	0.045
-232.800	54.576	-0.083	-0.079
-231.786	-112.206	0.285	-0.057
-230.771	-125.713	-0.316	-0.047
-229.757	-48.239	0.090	0.043
-228.742	-200.000	0.016	-0.132
-227.727	-112.893	0.121	0.024
-226.713	-200.000	-0.025	0.160
-225.698	249.038	0.030	-0.051
-224.684	-200.000	-0.039	0.278
-223.669	-200.000	0.032	-0.336
-222.655	-56.974	-0.141	-0.062
-221.640	-150.766	-0.015	0.001
-220.625	654.877	-0.063	0.161
-219.611	-144.074	0.315	0.029
-218.596	-32.298	0.036	-0.020
-217.582	74.893	0.270	0.282
-216.567	104.156	-0.101	-0.117
-215.552	-149.952	-0.369	0.029
-214.538	-50.695	-0.247	0.115
-213.523	1.553	-0.153	0.109
-212.509	93.289	-0.152	-0.171
-211.494	-30.224	-0.229	0.129
-210.479	-7.968	0.203	-0.136
-209.465	800.000	-0.071	0.271
-208.450	-200.000	0.035	0.316
-207.436	120.252	-0.088	0.108
-206.421	-0.666	-0.227	0.160
-205.406	85.807	0.098	0.107
-204.392	-54.524	-0.195	-0.088
-203.377	-189.456	0.162	0.002
-202.363	-39.306	-0.235	0.122
-201.348	-200.000	-0.022	-0.367
-200.333	163.734	0.075	0.105
-199.319	88.317	-0.118	0.130
-198.304	800.000	0.015	-0.049
-197.290	-77.350	-0.056	-0.019
-196.275	-132.707	-0.259	-0.033
-195.260	-200.000	-0.026	-0.160
-194.246	779.063	-0.067	-0.183
-193.231	288.523	0.099	-0.177
-192.217	800.000	-0.030	0.084
-191.202	-4.874	0.284	-0.194
-190.187	-123.837	0.269	0.042
-189.173	226.430	-0.169	-0.272
-188.158	800.000	0.029	0.120
-187.144	-200.000	0.004	-0.121
-186.129	800.000	0.086	0.299
-185.114	273.011	-0.260	0.454
-184.100	-200.000	-0.001	-0.005
-183.085	800.000	-0.023	-0.065
-182.071	-32.046	0.137	0.076
-181.056	526.768	0.160	-0.372
-180.042	800.000	0.019	0.054
-179.027	721.210	-0.142	0.374
-178.012	742.539	0.112	0.297
-176.998	-56.081	-0.057	0.025
-175.983	-9.880	0.198	0.130
-174.969	-1.835	0.226	0.158
-173.954	-200.000	-0.020	-0.229
-172.939	800.000	0.043	0.121
-171.925	-120.705	-0.499	-0.084
-170.910	800.000	-0.082	-0.271
-169.896	797.089	-0.073	-0.200
-168.881	740.386	-0.106	-0.281
-167.866	-74.243	0.141	-0.051
-166.852	-190.858	0.276	-0.003
-165.837	25.733	0.244	-0.201
-164.823	41.808	0.114	-0.102
-163.808	-100.917	-0.115	-0.028
-162.793	-7.443	0.328	-0.220
-161.779	-24.093	-0.191	-0.113
-160.764	800.000	0.182	0.616
-159.750	67.288	0.222	-0.224
-158.735	-200.000	-0.007	-0.414
-157.720	800.000	0.076	-0.311
-156.706	-90.308	-0.145	0.042
-155.691	800.000	-0.041	0.139
-154.677	-50.607	-0.305	-0.142
-153.662	800.000	0.083	0.309
-152.647	51.303	0.123	0.115
-151.633	169.280	-0.046	0.064
-150.618	145.129	0.133	-0.176
-149.604	-10.726	-0.093	0.061
-148.589	15.427	-0.110	0.086
-147.574	724.970	-0.036	0.095
-146.560	374.172	-0.089	-0.180
-145.545	89.767	-0.219	0.242
-144.531	-200.000	0.034	0.304
-143.516	-137.721	0.227	-0.025
-142.502	-200.000	0.038	-0.171
-141.487	128.026	0.048	-0.060
-140.472	-58.050	0.387	-0.167
-139.458	563.350	0.064	0.152
-138.443	-162.036	-0.165	-0.008
-137.429	209.491	0.219	0.339
-136.414	29.247	0.190	0.159
-135.399	-93.744	0.217	-0.059
-134.385	800.000	-0.058	-0.170
-133.370	-200.000	-0.031	0.140
-132.356	243.089	-0.055	-0.091
-131.341	-11.019	0.167	-0.109
-130.326	-111.083	0.312	-0.063
-129.312	-35.795	-0.067	0.036
-128.297	-81.938	0.327	0.106
-127.283	800.000	0.047	0.154
-126.268	219.926	0.116	0.183
-125.253	545.384	0.054	0.127
-124.239	230.570	0.072	0.116
-123.224	722.238	0.106	0.279
-122.210	329.354	0.013	0.025
-121.195	-91.359	-0.124	0.035
