DTS Sentinel unit serial number:	SN413079Multiplexer serial number:	ORYXHardware model number:	OX4-SRSoftware version number:	ORYX F/W v4.00 Oryx Data Collector v3.7.2.0data status	okinstallation	princeton_trtdifferential loss correction	single-endedforward channel	channel 1reverse channel	N/Adate	2019/09/18time	21:58:35forward acquisition time	60.00reverse acquisition time	0.00gamma	496.2192k internal	0.2340k external	0.2340temperature offset calibration	1.0020default loss term (dB/km)	0.3790temperature slope calibration	1.0000multiplexer offset coefficient	1.0000multiplexer slope coefficient	1.0000fibre end	0.00T internal ref (°C)	24.61T ext. ref 1 (°C)	0.81T ext. ref 2 (°C)	18.27length (m)	temperature (°C)	Stokes	anti-Stokes-747.200	-164.129	0.101	-0.005
-746.185	339.327	-0.159	0.311
-745.171	-147.733	0.434	0.036
-744.156	-95.881	-0.341	-0.091
-743.142	47.609	0.348	0.325
-742.127	-130.600	-0.266	0.036
-741.112	800.000	-0.021	0.057
-740.098	44.200	0.161	0.148
-739.083	-85.574	-0.082	0.026
-738.069	419.242	-0.047	-0.100
-737.054	-200.000	0.013	-0.078
-736.039	-32.095	-0.258	0.145
-735.025	60.540	-0.113	0.112
-734.010	-104.691	-0.455	-0.105
-732.996	-90.923	-0.211	-0.061
-731.981	-149.693	0.324	-0.026
-730.966	800.000	-0.034	-0.116
-729.952	55.009	-0.100	0.097
-728.937	634.061	-0.115	-0.293
-727.923	158.273	-0.196	0.272
-726.908	-85.225	0.417	-0.131
-725.894	175.034	0.162	-0.236
-724.879	-137.596	-0.370	-0.042
-723.864	-163.270	-0.220	-0.011
-722.850	800.000	0.059	-0.226
-721.835	107.922	-0.242	-0.289
-720.821	86.165	0.111	-0.122
-719.806	-0.773	-0.145	0.103
-718.791	-40.855	-0.114	-0.059
-717.777	124.283	-0.094	-0.118
-716.762	-200.000	0.014	0.073
-715.748	403.175	-0.151	0.318
-714.733	-131.490	0.260	0.034
-713.718	529.357	0.114	0.271
-712.704	-200.000	0.013	0.116
-711.689	-75.088	0.176	-0.063
-710.675	800.000	-0.049	0.213
-709.660	-142.577	0.173	-0.017
-708.645	-51.856	-0.072	0.034
-707.631	-29.782	0.115	-0.066
-706.616	-29.174	0.215	0.124
-705.602	-200.000	-0.009	-0.058
-704.587	28.583	-0.276	-0.233
-703.572	-200.000	0.024	-0.114
-702.558	88.080	0.159	0.176
-701.543	-200.000	-0.034	0.329
-700.529	515.136	0.017	-0.040
-699.514	800.000	0.053	-0.190
-698.499	-79.044	0.022	-0.007
-697.485	199.392	-0.122	-0.187
-696.470	-200.000	0.001	0.277
-695.456	-200.000	0.019	-0.181
-694.441	-36.528	0.096	-0.051
-693.426	42.028	0.284	-0.258
-692.412	800.000	0.013	0.047
-691.397	390.216	0.155	-0.322
-690.383	342.250	0.127	-0.249
-689.368	800.000	-0.094	-0.367
-688.354	-62.030	0.164	0.069
-687.339	-8.947	-0.117	-0.078
-686.324	89.457	-0.288	-0.321
-685.310	-200.000	0.047	-0.230
-684.295	-87.116	0.191	-0.058
-683.281	104.623	-0.300	-0.353
-682.266	29.891	0.134	0.114
-681.251	-144.945	0.151	0.014
-680.237	-200.000	-0.046	0.327
-679.222	110.495	-0.093	-0.112
-678.208	90.157	0.186	0.208
-677.193	-200.000	-0.026	-0.255
-676.178	800.000	0.067	-0.217
-675.164	-73.984	0.063	0.023
-674.149	-10.183	0.206	0.137
-673.135	-22.159	-0.260	-0.158
-672.120	-16.577	0.223	-0.141
-671.105	9.538	-0.282	-0.213
-670.091	80.372	0.291	-0.313
-669.076	-102.799	-0.243	-0.058
-668.062	-140.485	-0.563	0.059
-667.047	-64.304	0.225	-0.091
-666.032	552.122	-0.090	-0.215
-665.018	205.061	0.124	-0.193
-664.003	73.925	-0.189	0.198
-662.989	299.053	0.167	0.307
-661.974	-82.893	0.145	0.047
-660.959	99.851	-0.092	0.106
-659.945	-112.904	0.179	0.035
-658.930	-8.982	-0.235	0.157
-657.916	800.000	0.073	0.219
-656.901	-63.852	0.307	0.126
-655.886	-48.775	-0.401	0.192
-654.872	34.037	-0.243	0.212
-653.857	159.812	0.272	-0.378
-652.843	317.503	-0.029	0.055
-651.828	-200.000	-0.041	0.201
-650.814	125.846	-0.087	0.110
-649.799	-1.534	0.099	0.069
-648.784	-160.052	0.049	0.003
-647.770	800.000	-0.007	-0.024
-646.755	800.000	-0.039	0.135
-645.741	-200.000	0.030	0.389
-644.726	-157.625	0.411	-0.025
-643.711	-33.279	0.169	-0.094
-642.697	-45.259	0.264	-0.131
-641.682	-200.000	-0.033	0.270
-640.668	-190.209	-0.066	0.001
-639.653	-38.979	0.187	-0.098
-638.638	126.340	-0.180	-0.228
-637.624	-108.202	0.319	-0.069
-636.609	-127.213	-0.027	-0.004
-635.595	-46.106	0.142	0.070
-634.580	-28.980	0.220	-0.126
-633.565	129.287	0.127	-0.162
-632.551	-200.000	0.058	-0.412
-631.536	-200.000	-0.003	0.067
-630.522	-200.000	-0.019	-0.254
-629.507	-63.295	-0.175	0.072
-628.492	-148.653	0.307	0.025
-627.478	-200.000	-0.018	-0.329
-626.463	-200.000	-0.012	0.092
-625.449	800.000	-0.114	0.326
-624.434	800.000	-0.047	0.198
-623.419	-196.368	-0.144	-0.001
-622.405	-29.135	-0.221	-0.126
-621.390	174.034	-0.190	-0.274
-620.376	800.000	0.034	-0.095
-619.361	402.836	0.027	0.057
-618.346	363.881	-0.008	0.015
-617.332	144.184	-0.077	-0.103
-616.317	-191.447	-0.087	0.001
-615.303	-67.629	-0.251	-0.098
-614.288	-181.218	-0.157	0.003
-613.273	3.874	-0.219	0.159
-612.259	-134.325	-0.450	-0.055
-611.244	268.632	0.076	-0.133
-610.230	-51.212	-0.297	-0.139
-609.215	-80.577	0.163	-0.054
-608.201	800.000	0.025	0.103
-607.186	34.556	0.136	-0.118
-606.171	-151.657	-0.381	0.028
-605.157	126.173	0.188	-0.237
-604.142	-53.140	0.073	0.033
-603.128	43.714	-0.120	0.109
-602.113	-200.000	-0.021	0.195
-601.098	-200.000	0.032	-0.181
-600.084	10.121	-0.366	-0.277
-599.069	-73.095	0.324	-0.118
-598.055	44.309	-0.066	-0.060
-597.040	-200.000	-0.058	0.428
-596.025	800.000	-0.085	0.341
-595.011	35.198	0.088	0.077
-593.996	-200.000	-0.014	-0.329
-592.982	800.000	-0.080	0.235
-591.967	-113.445	0.585	-0.114
-590.952	-50.687	-0.386	0.181
-589.938	73.693	-0.092	-0.096
-588.923	-85.371	-0.242	-0.075
-587.909	-200.000	0.032	0.212
-586.894	-130.647	0.284	0.038
-585.879	-143.502	-0.080	-0.008
-584.865	-16.054	0.085	-0.054
-583.850	-100.166	-0.194	-0.048
-582.836	-21.855	0.161	-0.097
-581.821	590.369	-0.177	0.434
-580.806	-200.000	-0.008	0.221
-579.792	-113.664	-0.328	-0.064
-578.777	-55.678	-0.264	-0.118
-577.763	-88.368	0.022	-0.007
-576.748	49.267	0.105	-0.099
-575.733	242.721	-0.107	0.178
-574.719	3.525	0.226	0.164
-573.704	39.036	-0.256	-0.228
-572.690	-61.628	-0.220	-0.092
-571.675	3.680	-0.100	-0.072
-570.661	800.000	-0.066	0.232
-569.646	-200.000	0.060	-0.425
-568.631	-14.113	0.168	-0.108
-567.617	74.028	-0.131	-0.137
-566.602	94.745	-0.146	0.166
-565.588	379.599	-0.058	-0.119
-564.573	-82.391	0.064	0.021
-563.558	650.811	-0.056	0.142
-562.544	23.947	0.186	-0.152
-561.529	-160.831	-0.101	0.005
-560.515	-200.000	-0.003	0.280
-559.500	434.143	0.021	0.045
-558.485	-200.000	0.001	-0.020
-557.471	-61.962	-0.225	-0.094
-556.456	-21.371	-0.232	0.141
-555.442	-3.762	-0.161	0.111
-554.427	95.392	-0.057	-0.065
-553.412	-200.000	-0.032	-0.207
-552.398	54.718	0.163	-0.156
-551.383	-123.418	-0.083	0.013
-550.369	729.835	0.004	-0.011
-549.354	491.353	-0.157	0.357
-548.339	-169.324	-0.079	-0.003
-547.325	495.245	0.129	-0.294
-546.310	21.730	-0.286	-0.232
-545.296	-94.052	0.195	-0.053
-544.281	94.140	0.091	-0.103
-543.266	19.134	0.143	-0.114
-542.252	-95.003	-0.349	0.094
-541.237	-104.389	0.280	-0.064
-540.223	18.574	-0.282	-0.224
-539.208	-200.000	0.041	-0.194
-538.193	-200.000	0.008	0.113
-537.179	2.036	-0.284	0.204
-536.164	220.519	0.045	0.072
-535.150	-107.737	-0.186	-0.040
-534.135	265.994	-0.143	0.248
-533.121	45.947	0.191	-0.176
-532.106	-70.162	-0.142	-0.054
-531.091	-84.587	0.094	-0.030
-530.077	27.449	0.123	0.103
-529.062	318.027	0.101	0.189
-528.048	122.155	-0.094	-0.117
-527.033	-148.496	-0.212	-0.017
-526.018	275.926	-0.180	-0.317
-525.004	229.518	-0.165	0.269
-523.989	-9.828	0.071	0.047
-522.975	-17.715	0.239	-0.149
-521.960	98.084	0.181	-0.207
-520.945	-30.144	-0.158	0.089
-519.931	16.473	-0.097	0.076
-518.916	800.000	-0.063	0.244
-517.902	7.610	-0.181	-0.135
-516.887	-48.462	0.147	-0.070
-515.872	19.802	0.204	0.163
-514.858	-117.421	-0.114	-0.020
-513.843	464.330	0.075	-0.167
-512.829	-113.588	0.064	0.012
-511.814	800.000	-0.051	0.155
-510.799	257.378	0.108	0.184
-509.785	24.525	-0.516	0.424
-508.770	-64.154	0.382	-0.155
-507.756	373.259	-0.099	0.200
-506.741	-120.464	-0.260	-0.044
-505.726	-8.246	-0.105	0.070
-504.712	-200.000	-0.044	0.222
-503.697	-50.473	0.353	-0.166
-502.683	-63.064	0.253	-0.104
-501.668	-152.595	0.246	0.017
-500.653	800.000	-0.033	-0.116
-499.639	800.000	-0.034	-0.107
-498.624	-200.000	0.021	-0.203
-497.610	-148.619	0.518	0.042
-496.595	19.098	-0.267	-0.213
-495.581	194.962	0.123	0.186
-494.566	38.863	0.084	-0.074
-493.551	101.186	-0.128	0.148
-492.537	-200.000	0.007	0.315
-491.522	543.588	-0.069	-0.164
-490.508	-59.336	0.121	-0.052
-489.493	147.537	0.251	-0.335
-488.478	800.000	0.058	0.250
-487.464	218.815	-0.082	0.131
-486.449	61.976	0.178	-0.176
-485.435	-140.814	-0.233	-0.024
-484.420	800.000	-0.041	0.134
-483.405	49.949	0.052	0.049
-482.391	-140.066	0.303	-0.032
-481.376	98.219	0.201	-0.229
-480.362	-139.181	0.366	-0.039
-479.347	122.071	-0.076	-0.094
-478.332	773.831	0.030	-0.081
-477.318	20.476	0.040	-0.032
-476.303	-30.228	0.193	-0.109
-475.289	-135.623	-0.095	0.011
-474.274	-200.000	0.007	0.462
-473.259	-36.135	-0.207	-0.111
-472.245	-93.777	0.011	-0.003
-471.230	285.470	-0.205	0.367
-470.216	-70.537	0.293	0.110
-469.201	-94.439	-0.530	0.143
-468.186	-62.331	-0.157	0.065
-467.172	-107.744	0.106	0.023
-466.157	24.328	-0.274	-0.225
-465.143	131.882	0.318	0.405
-464.128	-93.177	0.065	-0.018
-463.113	511.448	0.066	-0.152
-462.099	80.410	0.083	-0.089
-461.084	80.039	-0.010	0.010
-460.070	-190.377	0.026	0.000
-459.055	-70.611	-0.070	-0.026
-458.040	-200.000	0.044	-0.225
-457.026	-7.212	0.011	-0.007
-456.011	249.698	-0.183	-0.307
-454.997	163.385	0.111	0.155
-453.982	-200.000	-0.045	0.285
-452.968	-25.895	-0.385	0.225
-451.953	263.354	-0.066	-0.114
-450.938	-200.000	-0.010	0.339
-449.924	-200.000	-0.024	0.108
-448.909	165.773	0.213	0.299
-447.895	-200.000	0.019	0.220
-446.880	61.612	0.078	0.077
-445.865	86.282	-0.099	-0.109
-444.851	-66.806	-0.196	-0.077
-443.836	-91.601	0.142	-0.040
-442.822	-36.129	-0.371	0.198
-441.807	800.000	0.096	-0.326
-440.792	-200.000	-0.012	-0.184
-439.778	-200.000	0.046	0.420
-438.763	108.745	0.183	0.217
-437.749	-200.000	0.030	0.348
-436.734	-63.558	0.176	0.071
-435.719	800.000	0.069	-0.199
-434.705	-88.544	-0.191	-0.056
-433.690	-73.015	0.329	-0.120
-432.676	-200.000	0.009	0.122
-431.661	-87.537	-0.194	0.058
-430.646	-2.550	-0.209	0.145
-429.632	377.277	0.095	-0.193
-428.617	22.693	-0.081	0.066
-427.603	161.567	0.224	0.310
-426.588	-67.662	-0.351	0.136
-425.573	-35.514	0.266	0.143
-424.559	-200.000	-0.084	0.387
-423.544	-40.178	-0.309	-0.159
-422.530	-167.176	0.216	0.009
-421.515	800.000	-0.086	-0.235
-420.500	503.645	-0.045	0.103
-419.486	-200.000	-0.006	-0.204
-418.471	-112.444	0.316	-0.062
-417.457	-3.948	0.089	0.061
-416.442	-64.045	-0.048	0.020
-415.428	-102.265	-0.229	0.054
-414.413	334.679	0.075	0.144
-413.398	-177.646	-0.155	-0.004
-412.384	-137.003	-0.179	0.020
-411.369	-60.745	0.010	0.004
-410.355	800.000	-0.031	-0.106
-409.340	413.247	0.188	0.396
-408.325	-200.000	-0.015	-0.233
-407.311	-104.048	-0.154	0.035
-406.296	14.846	-0.201	0.156
-405.282	3.677	0.139	0.101
-404.267	46.991	-0.142	0.131
-403.252	-59.969	-0.110	-0.046
-402.238	353.588	-0.048	0.095
-401.223	-29.584	-0.049	0.028
-400.209	233.347	-0.113	0.183
-399.194	-66.053	-0.184	-0.072
-398.179	159.878	0.103	0.142
-397.165	-55.842	0.173	0.077
-396.150	-56.109	0.141	-0.062
-395.136	-96.576	0.059	-0.015
-394.121	-200.000	0.038	-0.226
-393.106	-12.185	-0.270	-0.175
-392.092	131.433	0.288	-0.366
-391.077	-44.990	-0.142	0.070
-390.063	-148.371	0.151	0.012
-389.048	-6.256	0.200	-0.135
-388.033	337.880	-0.104	0.199
-387.019	800.000	0.080	0.311
-386.004	-7.746	0.170	0.113
-384.990	-51.027	-0.150	0.069
-383.975	800.000	-0.060	-0.229
-382.960	398.158	-0.102	-0.211
-381.946	-5.401	-0.035	-0.024
-380.931	-50.376	-0.144	-0.067
-379.917	118.083	0.223	-0.272
-378.902	56.562	-0.153	0.147
-377.888	52.780	-0.176	-0.166
-376.873	-182.993	-0.387	0.007
-375.858	-52.472	-0.191	-0.087
-374.844	800.000	0.109	0.331
-373.829	-62.068	-0.273	0.112
-372.815	-200.000	-0.010	0.151
-371.800	35.831	-0.072	-0.062
-370.785	29.894	0.081	0.068
-369.771	11.707	-0.223	0.169
-368.756	685.910	0.020	0.053
-367.742	-133.206	0.227	-0.028
-366.727	-200.000	-0.009	0.211
-365.712	800.000	-0.097	-0.338
-364.698	-200.000	-0.083	-0.368
-363.683	52.855	-0.159	-0.150
-362.669	-27.230	0.164	0.095
-361.654	70.024	-0.167	-0.170
-360.639	13.252	-0.178	0.136
-359.625	105.534	0.069	0.081
-358.610	201.205	0.204	-0.311
-357.596	-200.000	-0.011	-0.202
-356.581	352.269	0.056	0.110
-355.566	-90.207	0.199	0.057
-354.552	550.691	0.046	0.108
-353.537	-200.000	-0.046	-0.292
-352.523	-89.053	0.180	-0.052
-351.508	-200.000	0.035	0.260
-350.493	22.642	0.133	0.108
-349.479	-8.081	0.447	0.297
-348.464	373.317	-0.072	-0.145
-347.450	-164.897	-0.270	0.012
-346.435	800.000	0.016	-0.059
-345.420	7.049	0.267	-0.196
-344.406	-200.000	0.127	0.574
-343.391	-102.813	0.245	-0.058
-342.377	800.000	0.086	-0.306
-341.362	-43.034	0.187	0.093
-340.348	-38.816	-0.140	0.073
-339.333	-41.394	0.299	-0.152
-338.318	619.065	0.077	0.191
-337.304	124.981	0.108	0.134
-336.289	-137.201	0.478	-0.054
-335.275	191.075	-0.130	0.193
-334.260	-47.105	-0.077	-0.037
-333.245	44.281	0.084	0.076
-332.231	99.239	-0.179	0.204
-331.216	31.342	0.136	0.115
-330.202	648.755	0.081	0.205
-329.187	450.538	-0.083	0.181
-328.172	23.510	-0.141	0.114
-327.158	87.106	-0.085	-0.093
-326.143	-36.037	0.155	-0.083
-325.129	-142.732	-0.098	-0.009
-324.114	-200.000	0.030	0.179
-323.099	-200.000	-0.005	-0.085
-322.085	-180.473	-0.305	0.006
-321.070	800.000	0.148	-0.477
-320.056	95.514	0.110	-0.123
-319.041	170.642	-0.131	0.184
-318.026	-88.342	-0.074	-0.022
-317.012	-157.012	0.267	0.016
-315.997	-200.000	0.042	-0.245
-314.983	-200.000	0.001	0.068
-313.968	100.859	-0.180	0.206
-312.953	-200.000	0.021	0.223
-311.939	-60.065	-0.218	0.092
-310.924	174.538	0.055	0.079
-309.910	-6.136	0.172	-0.116
-308.895	114.138	-0.149	0.178
-307.880	-169.681	0.133	0.005
-306.866	434.665	-0.053	0.115
-305.851	-20.543	0.336	-0.204
-304.837	-135.289	0.493	-0.058
-303.822	36.058	0.040	-0.035
-302.807	-167.369	-0.110	0.004
-301.793	174.114	0.160	0.228
-300.778	-200.000	0.029	0.243
-299.764	-9.804	0.123	-0.081
-298.749	234.120	-0.271	-0.439
-297.735	800.000	-0.100	0.314
-296.720	-62.730	-0.129	0.053
-295.705	800.000	-0.076	0.269
-294.691	-200.000	-0.027	-0.175
-293.676	59.675	-0.140	-0.136
-292.662	-143.992	-0.370	-0.034
-291.647	-58.576	-0.089	-0.038
-290.632	-151.519	0.182	-0.013
-289.618	185.750	0.104	-0.152
-288.603	-196.321	0.211	-0.001
-287.589	17.092	0.011	0.009
-286.574	-133.731	0.327	-0.040
-285.559	-117.325	0.094	0.017
-284.545	128.128	-0.282	-0.353
-283.530	124.871	0.203	0.252
-282.516	46.537	0.250	0.228
-281.501	215.407	-0.156	-0.244
-280.486	-22.230	0.120	0.072
-279.472	7.341	-0.095	0.070
-278.457	138.359	0.058	0.075
-277.443	-156.504	0.223	-0.014
-276.428	316.150	0.034	0.063
-275.413	-176.477	-0.152	-0.004
-274.399	-0.575	0.279	0.195
-273.384	-91.608	-0.176	0.049
-272.370	-57.661	0.129	0.056
-271.355	6.072	-0.491	-0.358
-270.340	-22.371	-0.168	0.100
-269.326	49.102	-0.231	0.214
-268.311	304.787	-0.096	-0.175
-267.297	-50.994	0.139	0.064
-266.282	-76.443	0.118	-0.041
-265.267	159.111	0.085	0.116
-264.253	-29.701	0.274	-0.154
-263.238	-80.822	0.179	0.058
-262.224	19.594	-0.135	-0.107
-261.209	800.000	-0.093	-0.314
-260.195	800.000	-0.064	0.261
-259.180	395.329	0.103	0.211
-258.165	-37.146	-0.293	-0.154
-257.151	-139.650	0.419	0.044
-256.136	-137.611	-0.214	0.024
-255.122	200.782	0.234	-0.353
-254.107	-200.000	-0.010	-0.400
-253.092	-42.932	0.258	-0.129
-252.078	800.000	0.110	-0.325
-251.063	161.408	0.169	-0.232
-250.049	15.756	-0.153	-0.118
-249.034	-200.000	0.022	0.118
-248.019	-200.000	0.016	-0.395
-247.005	-83.088	-0.101	-0.032
-245.990	303.241	-0.105	0.192
-244.976	-77.486	-0.093	-0.032
-243.961	36.446	-0.170	-0.148
-242.946	-70.507	0.211	-0.078
-241.932	-200.000	0.033	-0.371
-240.917	146.819	-0.206	0.272
-239.903	-74.206	0.205	-0.073
-238.888	-104.076	-0.079	0.018
-237.873	-105.406	-0.291	-0.065
-236.859	-200.000	0.055	-0.254
-235.844	-112.573	0.307	0.060
-234.830	138.810	-0.058	0.075
-233.815	159.973	-0.141	-0.194
-232.800	-165.929	-0.360	0.015
-231.786	497.744	0.055	0.125
-230.771	-97.940	-0.059	-0.015
-229.757	-34.874	-0.471	-0.253
-228.742	-174.360	0.315	-0.009
-227.727	-74.849	-0.203	-0.072
-226.713	-29.456	0.371	0.208
-225.698	-200.000	0.024	0.294
-224.684	-99.032	0.270	0.067
-223.669	147.796	-0.087	0.115
-222.655	662.114	-0.083	-0.210
-221.640	380.606	0.113	-0.228
-220.625	-42.729	-0.221	-0.111
-219.611	-200.000	-0.010	-0.124
-218.596	-125.698	-0.528	0.079
-217.582	-200.000	0.003	0.081
-216.567	157.330	0.066	-0.089
-215.552	-137.560	-0.167	-0.018
-214.538	618.293	-0.041	-0.100
-213.523	800.000	-0.083	-0.296
-212.509	-200.000	0.058	-0.265
-211.494	-200.000	0.015	-0.107
-210.479	800.000	-0.079	-0.282
-209.465	300.001	0.083	-0.150
-208.450	165.697	-0.056	0.078
-207.436	170.647	0.143	-0.201
-206.421	-139.766	0.067	0.007
-205.406	-114.027	0.166	0.032
-204.392	284.183	0.088	0.156
-203.377	628.392	0.259	0.643
-202.363	-25.335	-0.210	-0.122
-201.348	-185.943	0.262	-0.004
-200.333	-145.559	-0.266	0.023
-199.319	-14.282	0.209	0.132
-198.304	-40.039	-0.308	0.157
-197.290	-200.000	0.049	0.301
-196.275	-65.126	0.366	0.145
-195.260	52.388	0.087	0.081
-194.246	-76.728	0.349	-0.120
-193.231	-200.000	-0.030	-0.213
-192.217	-127.041	-0.166	-0.024
-191.202	36.587	-0.281	0.243
-190.187	371.592	-0.040	-0.080
-189.173	-51.602	0.142	0.065
-188.158	-200.000	0.025	0.197
-187.144	226.719	0.105	0.167
-186.129	800.000	-0.051	-0.210
-185.114	794.282	0.153	-0.413
-184.100	14.888	0.180	-0.138
-183.085	-200.000	0.018	0.219
-182.071	0.921	-0.148	0.104
-181.056	-200.000	-0.031	-0.246
-180.042	800.000	-0.055	0.170
-179.027	-200.000	-0.006	0.038
-178.012	-101.779	-0.104	-0.025
-176.998	-112.833	0.132	0.026
-175.983	16.483	0.165	0.128
-174.969	-39.188	-0.106	0.055
-173.954	94.850	0.223	0.248
-172.939	-200.000	-0.014	-0.134
-171.925	70.448	-0.157	0.160
-170.910	180.170	0.110	-0.158
-169.896	158.048	-0.022	0.030
-168.881	-184.311	-0.151	0.002
-167.866	34.062	0.144	-0.123
-166.852	67.180	0.209	-0.209
-165.837	-138.168	-0.121	0.013
-164.823	-126.060	-0.283	-0.042
-163.808	64.991	0.147	0.146
-162.793	-28.960	-0.218	0.122
-161.779	5.776	-0.246	0.178
-160.764	-200.000	-0.003	-0.014
-159.750	-44.361	0.421	-0.207
-158.735	190.342	0.185	-0.273
-157.720	20.887	0.113	0.090
-156.706	-46.666	-0.182	0.087
-155.691	-27.417	0.155	0.088
-154.677	306.508	0.092	-0.169
-153.662	32.904	0.245	-0.207
-152.647	-69.368	0.437	-0.164
-151.633	-140.242	-0.407	-0.042
-150.618	336.131	0.072	0.137
-149.604	-79.120	0.223	0.074
-148.589	19.492	0.474	0.373
-147.574	44.441	-0.160	-0.144
-146.560	800.000	0.059	-0.180
-145.545	73.019	0.147	-0.150
-144.531	137.450	0.218	0.280
-143.516	192.912	-0.164	0.242
-142.502	-200.000	-0.010	0.069
-141.487	-116.620	0.336	0.061
-140.472	140.046	-0.116	-0.150
-139.458	-200.000	0.011	0.233
-138.443	43.179	0.289	-0.258
-137.429	800.000	0.043	-0.172
-136.414	-74.232	0.132	-0.047
-135.399	-115.437	0.316	-0.058
-134.385	31.396	0.188	0.158
-133.370	292.005	0.045	0.081
-132.356	544.076	0.102	0.239
-131.341	-15.583	0.183	0.114
-130.326	-32.193	0.162	0.088
-129.312	65.168	0.150	-0.149
-128.297	118.629	0.113	0.137
-127.283	-120.827	-0.265	-0.044
-126.268	-192.468	-0.221	-0.002
-125.253	408.333	0.116	0.240
-124.239	-199.443	-0.221	-0.001
-123.224	124.590	-0.239	-0.294
-122.210	800.000	0.102	0.302
-121.195	509.908	-0.153	0.347
-120.180	800.000	-0.150	0.458
