DTS Sentinel unit serial number:	SN413079Multiplexer serial number:	ORYXHardware model number:	OX4-SRSoftware version number:	ORYX F/W v4.00 Oryx Data Collector v3.7.2.0data status	okinstallation	princeton_trtdifferential loss correction	single-endedforward channel	channel 1reverse channel	N/Adate	2019/09/17time	11:58:35forward acquisition time	60.00reverse acquisition time	0.00gamma	496.2192k internal	0.2321k external	0.2321temperature offset calibration	0.9974default loss term (dB/km)	0.3790temperature slope calibration	1.0000multiplexer offset coefficient	1.0000multiplexer slope coefficient	1.0000fibre end	0.00T internal ref (°C)	31.06T ext. ref 1 (°C)	0.41T ext. ref 2 (°C)	27.17length (m)	temperature (°C)	Stokes	anti-Stokes-747.200	-200.000	0.018	0.264
-746.185	-46.830	-0.277	0.137
-745.171	-18.306	-0.150	-0.095
-744.156	-200.000	-0.020	0.165
-743.142	61.955	-0.068	0.068
-742.127	-200.000	-0.037	0.194
-741.112	-99.879	0.270	0.068
-740.098	-0.817	0.143	0.102
-739.083	-133.970	0.188	-0.024
-738.069	-80.015	-0.266	0.090
-737.054	15.496	-0.042	0.033
-736.039	-21.824	-0.217	0.133
-735.025	-60.605	0.251	0.107
-734.010	-150.652	-0.254	0.020
-732.996	117.263	0.023	-0.029
-731.981	486.576	-0.094	0.216
-730.966	44.115	0.178	0.165
-729.952	114.562	0.256	-0.316
-728.937	557.958	0.069	-0.167
-727.923	-22.816	0.187	0.114
-726.908	533.110	0.021	0.050
-725.894	105.285	0.168	0.200
-724.879	-87.127	-0.082	-0.025
-723.864	-42.850	-0.251	-0.129
-722.850	182.603	-0.200	-0.297
-721.835	-56.958	0.116	-0.052
-720.821	576.722	0.044	0.109
-719.806	-152.610	-0.358	0.026
-718.791	289.483	-0.120	-0.220
-717.777	222.888	0.096	0.156
-716.762	800.000	0.076	0.277
-715.748	-115.029	0.271	0.052
-714.733	108.166	0.062	0.075
-713.718	-104.304	-0.210	-0.049
-712.704	-44.279	-0.209	0.106
-711.689	800.000	-0.094	-0.378
-710.675	800.000	0.034	-0.138
-709.660	194.747	0.090	0.137
-708.645	-54.982	-0.156	0.071
-707.631	-200.000	0.041	0.194
-706.616	101.029	0.255	0.300
-705.602	-200.000	0.006	0.059
-704.587	761.426	0.109	-0.298
-703.572	598.479	-0.041	-0.102
-702.558	-70.064	-0.336	-0.129
-701.543	64.766	0.024	0.025
-700.529	37.707	-0.158	-0.141
-699.514	-10.005	-0.271	0.182
-698.499	-137.925	-0.454	-0.051
-697.485	-152.442	0.143	0.010
-696.470	-52.531	0.310	0.144
-695.456	-42.681	0.246	-0.126
-694.441	-33.118	-0.392	-0.219
-693.426	-150.184	-0.057	0.004
-692.412	-121.863	-0.297	0.049
-691.397	47.627	-0.068	0.064
-690.383	-89.926	-0.318	-0.094
-689.368	-200.000	0.014	-0.345
-688.354	-156.270	-0.292	-0.018
-687.339	-78.844	-0.153	-0.053
-686.324	-133.438	0.337	0.043
-685.310	21.283	-0.221	-0.181
-684.295	-59.341	0.225	0.098
-683.281	-18.532	-0.254	0.160
-682.266	-29.110	-0.298	-0.173
-681.251	114.497	-0.062	-0.077
-680.237	-138.986	-0.248	-0.027
-679.222	239.787	0.113	-0.190
-678.208	16.349	0.073	-0.058
-677.193	0.959	0.201	-0.145
-676.178	-200.000	-0.185	-0.001
-675.164	-38.767	-0.150	-0.080
-674.149	504.718	0.104	0.242
-673.135	-86.055	0.025	-0.008
-672.120	678.960	-0.141	-0.370
-671.105	-43.496	0.167	-0.085
-670.091	-200.000	0.026	0.116
-669.076	-72.268	0.117	0.044
-668.062	-55.742	-0.200	0.090
-667.047	-150.325	-0.090	0.007
-666.032	-37.972	-0.282	-0.151
-665.018	-78.052	-0.120	0.042
-664.003	-107.748	-0.224	-0.049
-662.989	-23.302	0.128	0.077
-661.974	644.979	-0.035	0.089
-660.959	20.829	-0.077	-0.063
-659.945	269.399	-0.102	0.180
-658.930	-25.566	-0.056	-0.034
-657.916	128.418	0.102	0.130
-656.901	173.858	-0.200	0.290
-655.886	-101.839	0.187	0.046
-654.872	800.000	-0.070	0.300
-653.857	800.000	-0.066	-0.262
-652.843	-200.000	0.005	-0.357
-651.828	184.271	0.114	-0.170
-650.814	-21.784	-0.211	-0.129
-649.799	40.177	-0.170	-0.154
-648.784	113.153	-0.069	-0.084
-647.770	-71.818	-0.228	-0.085
-646.755	40.852	-0.206	0.187
-645.741	38.516	0.083	0.075
-644.726	-116.970	0.277	-0.051
-643.711	11.469	0.228	0.176
-642.697	-54.967	0.250	0.113
-641.682	130.297	0.128	0.165
-640.668	-145.800	0.164	-0.015
-639.653	800.000	0.069	0.230
-638.638	86.765	0.124	0.138
-637.624	27.754	-0.046	0.039
-636.609	800.000	-0.038	0.123
-635.595	87.188	0.262	0.291
-634.580	-200.000	0.004	-0.155
-633.565	-200.000	-0.014	-0.257
-632.551	508.473	0.094	0.220
-631.536	119.413	0.067	-0.084
-630.522	-17.782	0.186	-0.117
-629.507	-96.776	0.111	-0.029
-628.492	-86.003	0.272	0.085
-627.478	362.788	0.138	0.279
-626.463	-134.097	-0.104	-0.013
-625.449	-200.000	-0.004	-0.062
-624.434	392.716	0.087	-0.182
-623.419	173.423	0.090	-0.130
-622.405	-36.750	0.168	-0.091
-621.390	122.181	-0.215	-0.269
-620.376	84.655	-0.122	-0.134
-619.361	43.397	0.237	-0.218
-618.346	-200.000	0.023	0.339
-617.332	800.000	0.036	0.139
-616.317	-26.984	-0.102	-0.060
-615.303	630.749	-0.075	0.191
-614.288	97.444	0.323	0.373
-613.273	-200.000	0.003	0.090
-612.259	34.862	-0.312	0.274
-611.244	-98.158	0.163	-0.042
-610.230	-57.808	-0.112	0.049
-609.215	-78.781	0.153	-0.053
-608.201	86.101	0.238	-0.263
-607.186	1.757	-0.167	-0.121
-606.171	631.467	0.051	0.130
-605.157	-30.379	0.236	0.135
-604.142	-152.757	0.125	0.009
-603.128	-200.000	-0.033	0.285
-602.113	-200.000	0.016	0.227
-601.098	-136.863	-0.128	0.015
-600.084	0.269	0.287	-0.206
-599.069	75.091	-0.094	0.099
-598.055	144.060	0.196	-0.262
-597.040	276.301	-0.082	-0.146
-596.025	-200.000	0.067	-0.346
-595.011	469.063	-0.164	-0.369
-593.996	800.000	0.182	0.513
-592.982	-6.681	0.028	0.019
-591.967	182.075	-0.203	0.301
-590.952	-200.000	0.049	-0.342
-589.938	800.000	-0.070	-0.219
-588.923	24.709	0.223	0.185
-587.909	-200.000	-0.002	0.011
-586.894	-200.000	0.029	-0.260
-585.879	800.000	-0.029	-0.116
-584.865	19.679	0.174	0.140
-583.850	245.986	-0.080	0.136
-582.836	-90.435	0.218	0.064
-581.821	397.846	-0.183	-0.385
-580.806	-53.899	0.098	0.045
-579.792	30.194	-0.259	-0.222
-578.777	-200.000	-0.020	-0.228
-577.763	-115.912	-0.276	0.052
-576.748	-125.071	0.376	-0.058
-575.733	800.000	-0.105	-0.307
-574.719	-200.000	-0.029	-0.339
-573.704	-200.000	0.040	0.266
-572.690	0.786	0.344	0.247
-571.675	356.641	-0.024	0.047
-570.661	8.264	0.046	0.035
-569.646	-24.140	-0.127	-0.076
-568.631	210.215	-0.117	0.185
-567.617	-84.560	-0.343	0.109
-566.602	28.308	0.283	-0.240
-565.588	159.222	0.091	0.127
-564.573	-101.111	0.272	0.067
-563.558	144.077	-0.142	0.189
-562.544	56.570	-0.122	-0.120
-561.529	-10.529	-0.165	-0.109
-560.515	-155.270	-0.203	-0.013
-559.500	-73.656	0.080	-0.029
-558.485	-176.604	-0.083	0.002
-557.471	-118.217	0.035	-0.006
-556.456	484.048	-0.102	-0.233
-555.442	-70.016	-0.129	0.049
-554.427	251.547	0.241	0.412
-553.412	321.344	0.055	0.104
-552.398	361.195	-0.061	-0.123
-551.383	-92.699	-0.031	-0.009
-550.369	53.219	0.175	-0.168
-549.354	-26.705	0.267	-0.157
-548.339	-84.256	0.058	-0.018
-547.325	-134.405	-0.286	0.035
-546.310	-131.991	-0.269	-0.035
-545.296	-37.107	0.211	-0.113
-544.281	104.618	0.148	0.175
-543.266	0.943	0.075	-0.054
-542.252	31.250	-0.167	-0.144
-541.237	-164.027	-0.191	0.009
-540.223	-90.320	-0.302	0.088
-539.208	3.678	-0.423	0.310
-538.193	56.448	-0.080	-0.078
-537.179	71.042	-0.305	0.316
-536.164	56.649	-0.035	0.034
-535.150	800.000	0.032	0.096
-534.135	89.130	0.017	0.019
-533.121	-200.000	-0.012	-0.129
-532.106	92.722	0.035	0.039
-531.091	-53.888	-0.143	0.065
-530.077	800.000	0.064	0.203
-529.062	25.961	0.328	0.274
-528.048	2.459	-0.078	0.057
-527.033	754.163	0.146	0.396
-526.018	-177.017	-0.239	-0.006
-525.004	-87.424	-0.068	-0.021
-523.989	432.327	-0.053	-0.116
-522.975	-7.785	-0.040	0.027
-521.960	-200.000	-0.015	0.411
-520.945	-127.500	0.265	0.039
-519.931	-200.000	0.058	0.284
-518.916	-142.778	-0.240	-0.023
-517.902	-167.264	-0.119	-0.005
-516.887	800.000	0.027	0.095
-515.872	-65.495	0.213	0.086
-514.858	-111.995	0.094	0.019
-513.843	800.000	-0.063	0.215
-512.829	128.776	0.199	0.254
-511.814	-30.944	0.130	-0.074
-510.799	-200.000	0.029	-0.232
-509.785	800.000	-0.050	-0.168
-508.770	-200.000	0.050	0.292
-507.756	-104.391	-0.371	0.086
-506.741	-58.240	0.026	0.011
-505.726	-1.277	0.183	-0.129
-504.712	40.571	-0.017	0.015
-503.697	-200.000	0.079	0.368
-502.683	-200.000	-0.025	0.145
-501.668	-200.000	-0.012	0.471
-500.653	-100.444	0.196	-0.049
-499.639	-22.884	0.285	0.172
-498.624	-82.325	0.084	-0.027
-497.610	38.401	0.050	0.045
-496.595	-156.069	-0.291	0.018
-495.581	-149.994	-0.427	0.033
-494.566	205.265	0.157	-0.244
-493.551	25.544	-0.280	0.233
-492.537	800.000	-0.068	0.192
-491.522	800.000	0.093	0.352
-490.508	800.000	-0.165	-0.530
-489.493	-200.000	-0.010	-0.223
-488.478	-121.123	-0.411	0.069
-487.464	-171.640	0.312	0.010
-486.449	-58.815	-0.293	-0.127
-485.435	148.659	-0.117	-0.159
-484.420	-95.367	-0.227	-0.061
-483.405	118.865	0.178	0.220
-482.391	-172.846	-0.162	0.005
-481.376	25.129	-0.050	0.042
-480.362	-200.000	0.016	-0.340
-479.347	257.254	0.075	0.129
-478.332	-200.000	0.003	0.063
-477.318	-74.319	-0.084	0.030
-476.303	-200.000	0.050	-0.466
-475.289	152.969	-0.124	0.170
-474.274	167.511	-0.140	-0.199
-473.259	-200.000	-0.028	-0.207
-472.245	-200.000	-0.010	-0.085
-471.230	74.487	0.219	-0.230
-470.216	-34.531	0.106	-0.058
-469.201	-200.000	-0.006	0.201
-468.186	62.048	0.144	0.143
-467.172	800.000	-0.151	-0.450
-466.157	-200.000	0.002	-0.118
-465.143	-27.184	0.201	-0.117
-464.128	-45.033	-0.440	-0.219
-463.113	100.258	0.133	-0.155
-462.099	-22.701	-0.198	0.119
-461.084	540.811	-0.080	0.190
-460.070	-92.817	0.310	0.087
-459.055	-44.484	-0.221	-0.110
-458.040	281.238	-0.021	-0.038
-457.026	800.000	0.051	-0.173
-456.011	-180.196	0.092	-0.002
-454.997	800.000	-0.049	-0.161
-453.982	349.651	0.096	-0.190
-452.968	397.815	0.145	0.303
-451.953	-121.809	0.257	0.042
-450.938	31.983	0.237	0.204
-449.924	800.000	0.006	0.018
-448.909	260.678	-0.165	-0.284
-447.895	19.402	0.129	-0.103
-446.880	-200.000	0.018	0.114
-445.865	-134.968	0.034	-0.004
-444.851	93.103	0.079	-0.089
-443.836	-71.866	-0.237	-0.088
-442.822	-18.633	-0.219	0.136
-441.807	236.347	0.126	0.208
-440.792	28.080	-0.267	0.225
-439.778	-39.229	-0.172	0.090
-438.763	-22.742	-0.115	-0.069
-437.749	75.306	0.214	0.225
-436.734	-200.000	0.082	-0.397
-435.719	93.524	0.177	0.200
-434.705	-72.384	0.080	0.030
-433.690	800.000	0.029	-0.121
-432.676	-200.000	-0.032	0.407
-431.661	358.823	0.178	-0.356
-430.646	352.724	0.038	-0.075
-429.632	141.562	0.115	-0.152
-428.617	526.961	-0.058	-0.137
-427.603	-65.875	-0.213	0.085
-426.588	-200.000	-0.006	0.261
-425.573	70.431	-0.093	0.096
-424.559	80.468	-0.224	-0.241
-423.544	-200.000	0.031	-0.437
-422.530	-200.000	0.043	-0.232
-421.515	800.000	0.090	0.375
-420.500	-72.778	-0.142	0.052
-419.486	-81.732	0.122	0.040
-418.471	-200.000	-0.007	-0.118
-417.457	757.266	0.103	-0.278
-416.442	100.973	-0.156	-0.181
-415.428	-200.000	0.049	-0.431
-414.413	-200.000	-0.013	-0.134
-413.398	-80.380	0.343	-0.114
-412.384	25.411	-0.262	0.217
-411.369	-148.732	0.154	-0.012
-410.355	-200.000	-0.011	-0.217
-409.340	-148.093	-0.109	-0.009
-408.325	267.680	0.131	-0.229
-407.311	-200.000	-0.019	0.159
-406.296	120.268	-0.114	0.141
-405.282	153.712	-0.113	-0.155
-404.267	269.466	0.164	0.287
-403.252	-71.570	0.203	0.076
-402.238	4.889	0.189	0.139
-401.223	-29.024	-0.143	-0.082
-400.209	145.551	-0.333	0.445
-399.194	-200.000	-0.007	0.136
-398.179	59.324	0.169	-0.166
-397.165	40.265	0.045	-0.040
-396.150	-200.000	-0.073	0.433
-395.136	95.014	-0.154	0.175
-394.121	800.000	-0.057	-0.195
-393.106	93.069	-0.068	-0.077
-392.092	181.935	0.057	-0.083
-391.077	-200.000	0.030	-0.144
-390.063	800.000	0.080	-0.347
-389.048	180.735	0.098	0.143
-388.033	-200.000	-0.096	0.461
-387.019	341.146	-0.288	-0.561
-386.004	-137.803	0.007	0.001
-384.990	-87.799	0.185	-0.056
-383.975	226.883	-0.138	-0.223
-382.960	-2.668	0.134	-0.094
-381.946	800.000	-0.090	0.279
-380.931	-200.000	0.038	-0.208
-379.917	105.706	0.131	-0.155
-378.902	7.324	0.115	-0.086
-377.888	-62.766	0.195	0.080
-376.873	-179.944	0.056	-0.001
-375.858	800.000	0.005	-0.019
-374.844	147.313	-0.046	0.062
-373.829	436.452	-0.176	-0.381
-372.815	197.097	0.245	-0.372
-371.800	-76.541	-0.385	0.135
-370.785	28.331	-0.187	-0.158
-369.771	-20.483	-0.053	0.032
-368.756	69.703	-0.270	-0.277
-367.742	105.467	-0.034	0.040
-366.727	-200.000	0.034	-0.266
-365.712	143.072	0.073	0.097
-364.698	-134.249	-0.483	-0.059
-363.683	-86.856	0.153	0.047
-362.669	-200.000	-0.013	0.317
-361.654	-151.978	-0.056	-0.004
-360.639	-62.187	0.351	-0.146
-359.625	139.736	-0.034	0.045
-358.610	146.250	0.086	0.114
-357.596	-200.000	0.006	0.159
-356.581	-140.774	-0.098	-0.010
-355.566	-107.432	-0.182	-0.040
-354.552	525.874	0.089	0.208
-353.537	800.000	0.095	-0.375
-352.523	-63.805	-0.327	-0.133
-351.508	-53.847	0.287	-0.130
-350.493	86.777	-0.176	-0.194
-349.479	188.155	0.131	0.195
-348.464	-200.000	-0.054	0.256
-347.450	206.345	0.134	0.207
-346.435	47.501	0.197	0.183
-345.420	-152.529	0.076	-0.005
-344.406	800.000	-0.096	-0.272
-343.391	-120.071	-0.157	-0.027
-342.377	276.305	0.028	0.050
-341.362	278.875	-0.145	0.257
-340.348	-79.352	0.313	-0.105
-339.333	148.202	-0.206	-0.276
-338.318	256.779	-0.037	-0.063
-337.304	159.351	-0.137	-0.190
-336.289	-113.029	0.342	-0.067
-335.275	255.701	0.171	-0.291
-334.260	358.296	0.150	0.297
-333.245	72.401	0.185	-0.192
-332.231	35.586	0.213	0.186
-331.216	-132.172	-0.247	-0.032
-330.202	667.240	0.073	0.188
-329.187	-200.000	-0.045	0.208
-328.172	-145.016	-0.047	0.004
-327.158	-183.781	0.216	-0.004
-326.143	204.126	0.162	-0.249
-325.129	-30.574	0.138	0.078
-324.114	-200.000	0.062	0.296
-323.099	-129.733	-0.179	-0.025
-322.085	-119.551	0.268	0.046
-321.070	-151.710	0.345	0.025
-320.056	128.957	-0.153	-0.194
-319.041	80.744	0.159	-0.170
-318.026	-58.207	0.132	-0.057
-317.012	71.067	-0.252	0.260
-315.997	21.414	-0.181	-0.146
-314.983	23.961	-0.249	0.204
-313.968	223.303	-0.081	0.130
-312.953	-30.933	0.217	-0.122
-311.939	630.858	0.074	0.186
-310.924	-200.000	0.017	-0.140
-309.910	-22.055	0.217	0.131
-308.895	-103.907	-0.200	-0.046
-307.880	800.000	-0.076	-0.212
-306.866	297.009	-0.051	0.093
-305.851	-200.000	0.014	0.217
-304.837	347.486	-0.137	0.268
-303.822	134.878	0.219	0.283
-302.807	-105.491	-0.397	0.090
-301.793	-157.986	-0.304	-0.018
-300.778	-98.438	0.152	-0.039
-299.764	-200.000	0.018	-0.140
-298.749	-200.000	0.012	-0.129
-297.735	-200.000	-0.019	0.102
-296.720	381.595	-0.144	0.293
-295.705	-153.575	-0.255	0.018
-294.691	-32.485	-0.250	0.139
-293.676	-0.821	-0.198	0.139
-292.662	81.364	-0.092	-0.099
-291.647	-57.538	0.188	0.082
-290.632	135.043	0.146	0.188
-289.618	-119.790	-0.161	0.028
-288.603	-200.000	-0.043	0.187
-287.589	-52.686	-0.390	-0.178
-286.574	-200.000	-0.006	-0.196
-285.559	-65.311	-0.125	-0.050
-284.545	-166.205	-0.231	0.010
-283.530	-200.000	0.021	-0.451
-282.516	217.952	0.104	0.165
-281.501	-34.805	-0.088	0.048
-280.486	35.023	0.102	-0.089
-279.472	215.461	-0.132	0.207
-278.457	365.571	0.052	-0.104
-277.443	-34.359	-0.310	0.169
-276.428	-200.000	-0.002	0.093
-275.413	214.601	-0.055	-0.086
-274.399	164.988	-0.196	-0.275
-273.384	-88.612	0.214	0.063
-272.370	-146.102	0.142	0.012
-271.355	-167.712	-0.193	-0.008
-270.340	-200.000	0.004	-0.276
-269.326	800.000	-0.027	-0.096
-268.311	-136.000	-0.152	0.018
-267.297	-200.000	0.058	-0.483
-266.282	-18.388	0.186	0.115
-265.267	165.114	0.100	-0.139
-264.253	-114.079	-0.105	-0.020
-263.238	213.340	0.051	-0.080
-262.224	104.784	0.137	-0.161
-261.209	800.000	0.035	0.146
-260.195	-12.063	0.290	0.188
-259.180	800.000	-0.085	0.264
-258.165	-44.016	0.119	-0.059
-257.151	320.827	0.124	0.235
-256.136	351.702	-0.268	-0.527
-255.122	-131.829	-0.224	0.029
-254.107	49.972	-0.079	-0.074
-253.092	-200.000	0.003	0.179
-252.078	-137.387	-0.145	-0.016
-251.063	91.787	-0.152	0.170
-250.049	524.034	-0.048	-0.111
-249.034	21.080	-0.092	-0.074
-248.019	84.407	-0.142	0.153
-247.005	-200.000	-0.009	0.217
-245.990	-200.000	0.021	-0.191
-244.976	97.818	-0.256	-0.292
-243.961	86.001	0.080	-0.087
-242.946	-120.623	-0.065	-0.011
-241.932	-164.347	0.214	0.010
-240.917	-47.881	-0.330	-0.158
-239.903	-200.000	0.050	0.241
-238.888	-128.487	0.150	-0.021
-237.873	501.806	-0.014	0.032
-236.859	546.485	-0.089	-0.210
-235.844	159.835	-0.089	0.122
-234.830	488.992	0.193	-0.438
-233.815	718.644	0.147	-0.387
-232.800	-200.000	0.073	0.341
-231.786	-152.456	0.222	0.016
-230.771	-200.000	0.100	0.508
-229.757	800.000	0.036	-0.116
-228.742	126.521	0.102	0.127
-227.727	100.652	0.139	-0.159
-226.713	800.000	-0.013	0.051
-225.698	-63.778	0.087	0.035
-224.684	-200.000	0.004	-0.146
-223.669	800.000	0.052	0.160
-222.655	-200.000	-0.037	0.279
-221.640	-99.624	0.130	0.032
-220.625	-200.000	0.075	0.341
-219.611	-138.517	-0.159	-0.017
-218.596	-200.000	-0.016	0.074
-217.582	-66.966	0.338	0.132
-216.567	800.000	0.117	0.474
-215.552	16.100	0.277	-0.216
-214.538	-24.451	0.064	-0.038
-213.523	-200.000	-0.020	-0.236
-212.509	1.356	-0.148	0.105
-211.494	-160.098	-0.139	-0.007
-210.479	800.000	-0.070	-0.288
-209.465	190.756	0.041	0.061
-208.450	-161.724	-0.235	0.012
-207.436	368.493	0.105	0.211
-206.421	-133.183	0.250	0.031
-205.406	386.390	0.154	-0.314
-204.392	-151.357	-0.300	-0.022
-203.377	-150.737	-0.104	-0.008
-202.363	800.000	0.087	-0.312
-201.348	-27.853	-0.155	0.089
-200.333	-36.845	-0.170	-0.090
-199.319	-70.746	0.230	0.086
-198.304	-108.248	0.075	0.016
-197.290	66.333	-0.102	-0.102
-196.275	-200.000	-0.018	0.431
-195.260	437.058	-0.086	0.186
-194.246	800.000	-0.029	0.115
-193.231	-0.002	0.210	-0.148
-192.217	-200.000	0.025	-0.234
-191.202	91.426	-0.158	-0.176
-190.187	800.000	-0.036	-0.136
-189.173	-54.786	-0.320	0.143
-188.158	-48.953	0.444	0.210
-187.144	108.386	-0.325	0.384
-186.129	18.210	0.122	0.097
-185.114	-19.050	0.139	0.086
-184.100	-158.851	-0.039	0.002
-183.085	-129.541	0.195	0.027
-182.071	-7.091	0.091	-0.061
-181.056	-200.000	0.007	-0.049
-180.042	-81.745	0.124	-0.040
-179.027	-35.258	-0.514	-0.276
-178.012	28.731	0.132	0.111
-176.998	-1.490	0.065	-0.045
-175.983	15.704	-0.075	0.058
-174.969	-105.846	-0.226	0.051
-173.954	186.154	0.055	0.081
-172.939	659.831	-0.098	-0.249
-171.925	-200.000	0.017	-0.079
-170.910	397.973	0.081	-0.168
-169.896	-78.387	-0.189	0.064
-168.881	131.666	-0.037	0.048
-167.866	602.866	0.151	-0.371
-166.852	-5.287	0.124	-0.084
-165.837	800.000	-0.019	0.064
-164.823	-145.691	0.045	-0.004
-163.808	-38.225	0.110	0.057
-162.793	800.000	-0.071	0.268
-161.779	29.465	0.155	0.130
-160.764	-18.773	-0.184	-0.113
-159.750	55.547	-0.034	0.032
-158.735	-115.448	0.152	-0.028
-157.720	18.965	-0.174	-0.138
-156.706	386.210	0.102	-0.208
-155.691	-104.725	0.218	0.050
-154.677	-73.700	-0.258	-0.093
-153.662	31.791	0.161	-0.137
-152.647	-176.235	0.221	-0.006
-151.633	-6.807	-0.164	0.110
-150.618	39.009	-0.433	0.382
-149.604	-200.000	-0.012	0.080
-148.589	679.329	-0.068	-0.173
-147.574	-200.000	0.002	-0.383
-146.560	-71.064	-0.342	0.127
-145.545	-33.095	0.216	0.118
-144.531	800.000	0.040	0.165
-143.516	500.216	-0.124	0.282
-142.502	97.483	0.150	0.170
-141.487	-90.249	-0.322	-0.092
-140.472	-200.000	-0.212	-0.001
-139.458	82.792	0.112	-0.120
-138.443	370.128	0.058	-0.115
-137.429	94.358	0.259	0.290
-136.414	51.975	0.186	-0.175
-135.399	63.872	0.055	-0.055
-134.385	-111.191	-0.350	0.071
-133.370	800.000	-0.075	0.280
-132.356	9.778	0.080	-0.060
-131.341	7.933	0.095	0.070
-130.326	-200.000	0.013	0.252
-129.312	168.873	0.176	0.248
-128.297	278.349	-0.159	-0.279
-127.283	-18.411	0.328	0.202
-126.268	-174.326	-0.227	-0.006
-125.253	-41.958	-0.084	-0.042
-124.239	-200.000	-0.033	0.157
-123.224	-200.000	0.028	0.149
-122.210	237.415	0.209	0.342
-121.195	192.131	0.228	0.339
-120.180	374.959	0.165	0.331
