DTS Sentinel unit serial number:	SN413079Multiplexer serial number:	ORYXHardware model number:	OX4-SRSoftware version number:	ORYX F/W v4.00 Oryx Data Collector v3.7.2.0data status	okinstallation	princeton_trtdifferential loss correction	single-endedforward channel	channel 1reverse channel	N/Adate	2019/09/13time	04:30:35forward acquisition time	60.00reverse acquisition time	0.00gamma	496.2192k internal	0.2334k external	0.2334temperature offset calibration	1.0164default loss term (dB/km)	0.3790temperature slope calibration	1.0000multiplexer offset coefficient	1.0000multiplexer slope coefficient	1.0000fibre end	0.00T internal ref (°C)	26.69T ext. ref 1 (°C)	4.06T ext. ref 2 (°C)	21.21length (m)	temperature (°C)	Stokes	anti-Stokes-747.200	-86.477	0.324	0.100
-746.185	28.601	-0.196	0.166
-745.171	-200.000	0.034	0.219
-744.156	131.030	-0.193	0.249
-743.142	-159.238	-0.267	-0.015
-742.127	800.000	-0.059	0.222
-741.112	-200.000	-0.030	0.208
-740.098	264.394	-0.206	0.360
-739.083	-146.323	0.147	0.013
-738.069	289.190	0.107	0.196
-737.054	113.249	0.224	-0.273
-736.039	800.000	-0.089	0.336
-735.025	-14.178	-0.069	-0.045
-734.010	193.090	-0.166	-0.251
-732.996	-109.441	-0.098	-0.021
-731.981	800.000	0.037	0.124
-730.966	261.619	-0.139	-0.243
-729.952	-41.710	0.214	0.110
-728.937	33.686	-0.093	0.081
-727.923	270.883	-0.096	0.169
-726.908	-96.328	-0.036	-0.009
-725.894	-92.756	-0.322	0.091
-724.879	74.440	0.235	-0.248
-723.864	-200.000	0.040	0.181
-722.850	453.793	-0.108	0.241
-721.835	800.000	-0.003	-0.008
-720.821	92.544	-0.160	-0.181
-719.806	343.702	0.018	-0.035
-718.791	800.000	0.059	0.224
-717.777	800.000	0.018	0.076
-716.762	21.698	-0.380	0.310
-715.748	197.581	-0.147	-0.226
-714.733	-176.733	-0.303	0.008
-713.718	-89.420	0.173	-0.051
-712.704	-0.454	-0.182	-0.129
-711.689	522.833	0.086	-0.203
-710.675	-153.702	-0.276	0.019
-709.660	98.348	-0.070	0.082
-708.645	84.165	0.299	-0.328
-707.631	197.312	-0.114	-0.175
-706.616	-200.000	0.098	-0.504
-705.602	-117.811	-0.241	-0.043
-704.587	44.651	0.186	-0.172
-703.572	291.252	-0.099	-0.181
-702.558	-200.000	0.037	0.268
-701.543	800.000	0.097	-0.323
-700.529	-133.397	0.332	0.042
-699.514	800.000	-0.019	0.081
-698.499	83.910	-0.107	0.117
-697.485	-39.161	0.127	0.067
-696.470	-200.000	0.012	-0.126
-695.456	187.980	-0.060	-0.090
-694.441	-155.840	0.071	-0.005
-693.426	800.000	-0.089	0.293
-692.412	800.000	0.059	0.252
-691.397	-200.000	0.016	0.249
-690.383	-82.037	0.010	-0.003
-689.368	246.660	-0.181	-0.307
-688.354	81.844	0.036	0.039
-687.339	99.510	0.071	-0.082
-686.324	132.128	-0.117	0.152
-685.310	-5.390	0.115	0.079
-684.295	177.121	0.044	0.064
-683.281	-19.443	-0.345	0.215
-682.266	382.332	-0.068	0.141
-681.251	-200.000	-0.048	0.256
-680.237	-23.870	-0.112	-0.068
-679.222	140.475	0.228	-0.302
-678.208	291.286	0.082	0.150
-677.193	4.279	0.268	-0.197
-676.178	237.273	-0.256	-0.425
-675.164	-81.790	0.231	-0.076
-674.149	800.000	0.055	-0.153
-673.135	-200.000	0.073	-0.348
-672.120	-84.222	0.094	0.030
-671.105	607.890	0.126	-0.316
-670.091	163.876	-0.050	-0.070
-669.076	-40.702	-0.181	0.094
-668.062	-200.000	-0.014	0.081
-667.047	219.327	-0.201	0.322
-666.032	781.147	0.056	0.155
-665.018	-111.263	0.227	0.046
-664.003	307.373	0.140	0.261
-662.989	598.871	-0.078	-0.193
-661.974	-189.058	0.176	0.002
-660.959	-55.703	0.331	-0.148
-659.945	-15.104	0.180	0.116
-658.930	-121.352	0.175	-0.029
-657.916	42.045	0.183	-0.166
-656.901	-98.346	0.254	-0.065
-655.886	800.000	0.065	-0.191
-654.872	84.224	-0.104	0.114
-653.857	-200.000	-0.009	-0.155
-652.843	56.057	0.087	0.085
-651.828	53.506	-0.024	0.023
-650.814	-200.000	0.082	0.512
-649.799	43.599	-0.233	-0.214
-648.784	561.961	0.133	-0.321
-647.770	71.799	0.189	-0.197
-646.755	97.177	0.204	-0.234
-645.741	52.546	-0.028	0.027
-644.726	171.837	-0.068	0.097
-643.711	298.910	-0.107	0.197
-642.697	-166.985	0.294	-0.012
-641.682	-200.000	-0.048	0.326
-640.668	-154.724	0.127	0.008
-639.653	-200.000	-0.020	-0.097
-638.638	176.087	0.171	-0.248
-637.624	-200.000	-0.012	0.080
-636.609	-159.682	-0.274	-0.015
-635.595	14.437	0.327	0.255
-634.580	-46.250	0.100	0.049
-633.565	-17.849	0.266	-0.167
-632.551	-135.282	-0.259	-0.031
-631.536	-32.466	0.270	0.151
-630.522	33.912	0.197	-0.171
-629.507	603.045	-0.104	-0.259
-628.492	-200.000	-0.068	-0.305
-627.478	-200.000	0.006	0.082
-626.463	-77.177	0.136	0.047
-625.449	0.452	0.360	0.258
-624.434	-140.599	-0.332	-0.034
-623.419	-200.000	0.008	0.264
-622.405	-200.000	0.021	0.203
-621.390	-10.905	-0.327	-0.216
-620.376	-57.630	-0.114	-0.050
-619.361	-200.000	0.044	-0.228
-618.346	-200.000	0.065	-0.298
-617.332	224.754	0.111	0.179
-616.317	404.756	-0.035	0.075
-615.303	-47.792	-0.228	-0.111
-614.288	35.649	0.080	0.070
-613.273	-23.201	0.019	0.011
-612.259	800.000	0.079	-0.222
-611.244	310.664	0.129	0.242
-610.230	116.065	0.062	0.076
-609.215	81.568	0.049	0.053
-608.201	-62.708	-0.206	0.086
-607.186	85.482	-0.122	0.134
-606.171	800.000	-0.074	-0.253
-605.157	2.648	-0.261	-0.189
-604.142	-200.000	0.229	-0.001
-603.128	11.372	-0.139	-0.107
-602.113	800.000	-0.047	0.158
-601.098	-200.000	-0.014	-0.202
-600.084	113.466	-0.073	-0.088
-599.069	116.537	0.185	0.227
-598.055	-100.809	-0.277	-0.068
-597.040	-80.043	0.350	-0.117
-596.025	176.871	-0.075	0.110
-595.011	-41.996	0.102	0.052
-593.996	-19.126	-0.287	0.178
-592.982	-153.175	-0.206	0.014
-591.967	-146.573	-0.226	-0.020
-590.952	795.012	-0.059	-0.163
-589.938	-200.000	-0.008	0.083
-588.923	-128.350	-0.259	0.037
-587.909	-176.261	-0.193	-0.005
-586.894	240.262	-0.136	-0.226
-585.879	524.095	-0.074	0.174
-584.865	-200.000	0.028	0.189
-583.850	686.503	0.086	0.225
-582.836	-200.000	0.010	0.135
-581.821	-118.050	0.112	0.020
-580.806	557.069	-0.112	0.269
-579.792	-200.000	0.025	0.138
-578.777	-200.000	0.044	0.244
-577.763	87.616	-0.155	-0.171
-576.748	-200.000	-0.016	0.220
-575.733	52.109	0.103	-0.098
-574.719	-54.071	-0.163	-0.074
-573.704	-53.309	-0.385	-0.176
-572.690	43.241	0.156	-0.142
-571.675	-108.978	0.309	0.066
-570.661	-200.000	0.044	0.225
-569.646	-104.810	-0.190	-0.044
-568.631	-179.079	-0.068	0.002
-567.617	48.129	-0.261	0.243
-566.602	-97.008	0.258	0.067
-565.588	-86.805	0.290	-0.088
-564.573	-46.257	-0.124	0.061
-563.558	102.781	-0.155	0.181
-562.544	-78.627	0.170	-0.058
-561.529	-47.618	0.207	0.100
-560.515	-126.717	0.209	-0.031
-559.500	279.855	0.119	-0.212
-558.485	115.629	-0.249	0.304
-557.471	-200.000	-0.005	0.082
-556.456	183.696	0.255	-0.377
-555.442	-47.897	-0.182	0.088
-554.427	118.531	0.099	0.122
-553.412	238.117	0.291	0.482
-552.398	360.356	-0.170	0.339
-551.383	-67.072	-0.074	-0.029
-550.369	-95.453	0.210	0.056
-549.354	-200.000	0.039	0.256
-548.339	133.874	-0.129	-0.167
-547.325	60.574	-0.196	-0.193
-546.310	-49.752	0.232	-0.110
-545.296	199.417	-0.018	-0.027
-544.281	-44.527	-0.068	-0.034
-543.266	472.193	0.158	-0.356
-542.252	666.380	-0.027	-0.071
-541.237	800.000	0.073	0.249
-540.223	733.940	-0.048	0.129
-539.208	-142.815	0.219	-0.021
-538.193	-8.848	0.116	0.078
-537.179	-49.697	-0.226	-0.107
-536.164	-200.000	0.003	0.048
-535.150	538.249	0.138	-0.327
-534.135	314.371	-0.135	-0.253
-533.121	-24.209	0.038	-0.023
-532.106	92.726	-0.174	-0.196
-531.091	-60.749	-0.178	-0.075
-530.077	800.000	-0.016	0.066
-529.062	381.063	-0.041	-0.084
-528.048	198.600	0.106	0.162
-527.033	241.172	-0.224	0.373
-526.018	56.191	-0.099	0.096
-525.004	392.701	0.035	0.073
-523.989	-200.000	-0.040	-0.265
-522.975	32.044	-0.166	-0.143
-521.960	22.918	-0.218	0.178
-520.945	-113.407	0.223	0.044
-519.931	219.937	-0.139	0.222
-518.916	-158.820	-0.269	-0.015
-517.902	376.734	-0.101	-0.206
-516.887	-14.526	0.068	0.044
-515.872	-200.000	-0.005	-0.068
-514.858	13.364	0.368	-0.284
-513.843	-107.953	0.269	-0.058
-512.829	58.026	-0.253	-0.247
-511.814	-0.861	-0.227	-0.160
-510.799	42.485	-0.219	-0.199
-509.785	800.000	-0.073	0.235
-508.770	208.112	0.229	0.357
-507.756	-43.898	-0.135	-0.068
-506.741	351.822	-0.050	0.099
-505.726	-132.353	-0.379	0.049
-504.712	46.353	0.192	-0.178
-503.697	-61.448	0.180	-0.075
-502.683	-86.709	0.118	-0.036
-501.668	230.542	0.077	-0.126
-500.653	-200.000	0.003	-0.116
-499.639	-33.651	-0.315	-0.173
-498.624	-200.000	-0.017	-0.205
-497.610	180.985	-0.222	0.325
-496.595	-200.000	-0.012	0.088
-495.581	-7.431	0.111	-0.075
-494.566	800.000	-0.108	0.449
-493.551	-85.496	-0.114	0.035
-492.537	-40.257	0.235	0.121
-491.522	-200.000	-0.090	-0.000
-490.508	-84.788	-0.504	0.158
-489.493	-168.513	0.108	-0.004
-488.478	-200.000	0.004	-0.073
-487.464	-200.000	0.014	0.244
-486.449	252.055	-0.165	-0.279
-485.435	-33.854	-0.120	0.066
-484.420	59.093	-0.197	-0.193
-483.405	-200.000	0.010	-0.051
-482.391	800.000	0.073	0.242
-481.376	-200.000	0.001	-0.058
-480.362	147.926	0.040	0.053
-479.347	-200.000	0.330	-0.001
-478.332	-107.281	-0.162	0.035
-477.318	-200.000	0.011	0.114
-476.303	207.176	-0.061	0.095
-475.289	-106.719	0.200	0.044
-474.274	285.150	-0.098	0.176
-473.259	-200.000	-0.004	-0.186
-472.245	-200.000	-0.012	-0.144
-471.230	482.316	-0.077	0.173
-470.216	800.000	-0.058	0.168
-469.201	-200.000	-0.048	0.301
-468.186	150.409	0.198	0.267
-467.172	281.865	-0.058	-0.103
-466.157	800.000	-0.144	0.397
-465.143	218.301	-0.212	0.336
-464.128	800.000	-0.014	0.060
-463.113	-200.000	-0.017	-0.204
-462.099	800.000	0.035	-0.139
-461.084	31.266	0.161	-0.137
-460.070	97.040	0.030	-0.035
-459.055	-3.628	0.096	0.066
-458.040	-200.000	-0.014	0.282
-457.026	-46.361	-0.059	-0.029
-456.011	800.000	0.034	0.098
-454.997	729.128	-0.053	0.141
-453.982	-38.397	0.182	-0.096
-452.968	172.815	0.167	-0.239
-451.953	800.000	-0.029	-0.091
-450.938	800.000	-0.093	-0.370
-449.924	-89.912	0.094	-0.027
-448.909	800.000	-0.044	0.163
-447.895	132.809	-0.127	-0.163
-446.880	43.495	-0.095	-0.087
-445.865	-200.000	0.038	0.377
-444.851	-42.715	-0.178	-0.090
-443.836	11.367	-0.237	-0.180
-442.822	-74.666	-0.329	0.117
-441.807	-73.229	-0.127	-0.046
-440.792	91.018	-0.103	-0.115
-439.778	623.706	-0.121	-0.304
-438.763	284.909	0.108	-0.192
-437.749	-23.826	-0.316	0.188
-436.734	-102.508	0.165	-0.039
-435.719	-75.336	-0.032	0.011
-434.705	4.849	0.115	0.084
-433.690	-49.927	0.040	-0.019
-432.676	-200.000	-0.054	-0.351
-431.661	-87.709	0.209	-0.063
-430.646	-9.790	0.184	-0.122
-429.632	41.381	0.130	-0.117
-428.617	77.518	0.104	0.110
-427.603	-200.000	-0.018	0.107
-426.588	-83.399	-0.070	-0.022
-425.573	60.962	0.113	0.111
-424.559	-98.431	0.374	-0.095
-423.544	239.613	-0.159	0.263
-422.530	-33.078	-0.081	0.044
-421.515	79.737	0.044	0.047
-420.500	254.304	-0.043	-0.074
-419.486	161.494	-0.095	0.131
-418.471	-32.774	-0.142	0.078
-417.457	-91.492	0.489	-0.138
-416.442	39.422	0.090	0.080
-415.428	-137.140	0.122	-0.014
-414.413	-9.599	-0.131	0.087
-413.398	-6.551	0.230	-0.155
-412.384	-200.000	0.042	-0.266
-411.369	79.086	-0.247	0.263
-410.355	-13.234	0.311	-0.201
-409.340	-200.000	0.008	-0.203
-408.325	-200.000	-0.002	-0.062
-407.311	-98.372	0.395	-0.100
-406.296	-17.978	0.103	-0.064
-405.282	-79.159	-0.166	-0.056
-404.267	-180.138	-0.193	0.004
-403.252	-16.547	0.282	0.177
-402.238	800.000	0.089	-0.262
-401.223	-45.371	0.050	-0.025
-400.209	-164.964	0.331	-0.015
-399.194	20.458	-0.055	-0.044
-398.179	800.000	0.033	-0.123
-397.165	-124.865	-0.081	0.012
-396.150	54.136	0.160	-0.153
-395.136	189.484	-0.049	-0.073
-394.121	72.446	0.240	-0.248
-393.106	-200.000	-0.048	0.241
-392.092	134.250	0.155	-0.200
-391.077	21.094	0.116	-0.094
-390.063	9.699	0.159	-0.119
-389.048	-55.004	0.450	-0.201
-388.033	8.267	0.137	0.102
-387.019	800.000	0.066	-0.217
-386.004	260.565	0.082	0.141
-384.990	46.887	0.191	0.176
-383.975	-200.000	-0.055	-0.272
-382.960	671.029	-0.139	0.358
-381.946	-200.000	0.011	-0.345
-380.931	9.232	0.093	-0.070
-379.917	-98.168	0.107	0.027
-378.902	-116.230	-0.071	-0.013
-377.888	-154.522	-0.216	0.014
-376.873	-73.161	0.250	0.091
-375.858	-200.000	-0.027	0.220
-374.844	168.376	0.141	-0.199
-373.829	-200.000	-0.035	-0.192
-372.815	-200.000	-0.014	0.082
-371.800	-36.835	0.066	-0.035
-370.785	800.000	-0.051	0.167
-369.771	-159.385	0.154	0.009
-368.756	338.775	0.102	0.197
-367.742	-84.698	-0.192	-0.060
-366.727	29.615	-0.244	0.206
-365.712	605.993	-0.017	0.043
-364.698	800.000	0.022	-0.075
-363.683	188.279	0.139	-0.207
-362.669	159.374	0.225	0.310
-361.654	-200.000	-0.002	0.031
-360.639	-200.000	0.026	0.130
-359.625	7.554	-0.234	0.174
-358.610	-128.591	0.306	0.043
-357.596	-119.788	0.231	0.039
-356.581	86.982	0.045	-0.050
-355.566	-200.000	-0.015	-0.117
-354.552	93.075	0.141	-0.157
-353.537	-36.228	-0.111	0.059
-352.523	162.072	-0.114	-0.158
-351.508	800.000	0.061	0.225
-350.493	-93.645	-0.284	0.078
-349.479	800.000	-0.192	-0.570
-348.464	59.662	-0.263	-0.257
-347.450	431.898	-0.067	-0.144
-346.435	-15.698	-0.292	-0.185
-345.420	-46.423	0.158	-0.077
-344.406	27.493	-0.175	0.146
-343.391	-13.802	-0.059	-0.038
-342.377	31.650	-0.211	-0.180
-341.362	148.598	-0.090	0.120
-340.348	800.000	0.054	-0.158
-339.333	-200.000	0.021	0.192
-338.318	-172.810	0.303	-0.009
-337.304	18.818	-0.343	0.271
-336.289	527.331	0.064	-0.148
-335.275	-200.000	0.027	0.211
-334.260	-112.126	-0.279	0.056
-333.245	636.029	0.143	0.358
-332.231	134.554	0.078	0.101
-331.216	-27.530	0.232	-0.134
-330.202	287.201	0.142	-0.255
-329.187	52.671	-0.191	-0.181
-328.172	800.000	0.064	-0.253
-327.158	-200.000	-0.008	-0.235
-326.143	-83.222	0.084	0.027
-325.129	-2.320	0.226	-0.156
-324.114	-52.658	0.256	-0.117
-323.099	-200.000	0.080	-0.400
-322.085	-86.502	-0.251	-0.076
-321.070	-200.000	-0.066	-0.290
-320.056	800.000	0.057	-0.169
-319.041	-200.000	0.039	-0.222
-318.026	-3.627	0.225	-0.154
-317.012	-133.538	-0.108	0.013
-315.997	-114.974	0.155	-0.029
-314.983	-22.927	-0.081	0.048
-313.968	-32.487	-0.072	0.040
-312.953	-136.203	0.188	-0.022
-311.939	-200.000	0.018	0.143
-310.924	149.641	-0.242	0.325
-309.910	-72.164	0.161	-0.059
-308.895	85.403	0.016	0.017
-307.880	492.746	-0.120	-0.271
-306.866	-128.335	-0.035	-0.005
-305.851	-96.262	-0.329	0.086
-304.837	-105.464	-0.302	0.068
-303.822	-15.902	-0.156	0.098
-302.807	-133.542	0.160	0.020
-301.793	53.823	-0.299	0.284
-300.778	55.683	-0.145	-0.139
-299.764	358.009	-0.076	0.149
-298.749	-74.471	-0.407	-0.145
-297.735	800.000	0.033	0.128
-296.720	800.000	0.186	0.531
-295.705	394.820	-0.050	-0.102
-294.691	48.328	0.111	-0.103
-293.676	41.643	0.043	-0.038
-292.662	141.397	-0.113	-0.147
-291.647	-55.915	0.428	0.188
-290.632	49.840	0.289	0.269
-289.618	117.389	-0.211	0.256
-288.603	153.246	-0.046	-0.062
-287.589	800.000	0.089	-0.256
-286.574	-111.094	0.255	0.052
-285.559	-62.850	0.337	-0.138
-284.545	448.003	0.070	0.151
-283.530	-200.000	0.030	0.192
-282.516	-50.981	-0.383	-0.177
-281.501	800.000	-0.070	-0.285
-280.486	-112.926	0.150	0.029
-279.472	616.044	-0.046	0.113
-278.457	71.746	0.222	0.228
-277.443	195.187	-0.079	-0.118
-276.428	-83.893	0.265	-0.083
-275.413	-200.000	0.032	0.257
-274.399	-3.317	-0.177	0.122
-273.384	110.125	-0.107	-0.127
-272.370	455.103	0.131	-0.286
-271.355	752.473	-0.045	-0.121
-270.340	-81.061	0.150	0.049
-269.326	800.000	-0.074	-0.233
-268.311	51.283	-0.263	0.247
-267.297	-110.766	-0.220	-0.045
-266.282	100.081	0.168	-0.192
-265.267	279.330	0.064	0.113
-264.253	-5.009	-0.067	-0.045
-263.238	-147.584	-0.234	-0.019
-262.224	12.065	-0.169	-0.128
-261.209	800.000	0.143	0.436
-260.195	94.223	-0.191	0.214
-259.180	439.297	-0.083	-0.178
-258.165	167.753	-0.042	-0.059
-257.151	800.000	0.030	-0.087
-256.136	-104.373	-0.211	-0.048
-255.122	-32.588	-0.198	0.109
-254.107	-117.419	-0.310	-0.055
-253.092	639.310	0.064	-0.161
-252.078	123.860	0.050	-0.061
-251.063	-100.042	-0.335	-0.082
-250.049	-200.000	0.007	0.254
-249.034	-200.000	0.046	0.231
-248.019	-112.919	0.242	0.047
-247.005	-200.000	0.079	-0.000
-245.990	348.857	-0.028	-0.055
-244.976	-13.735	0.270	0.172
-243.961	1.350	-0.139	0.099
-242.946	335.691	0.094	-0.179
-241.932	0.159	0.399	-0.280
-240.917	-75.711	-0.295	0.103
-239.903	800.000	0.064	-0.275
-238.888	-161.004	-0.431	-0.022
-237.873	800.000	0.025	0.072
-236.859	-108.476	-0.111	0.024
-235.844	84.017	-0.268	0.289
-234.830	-59.098	-0.225	-0.095
-233.815	-40.852	0.098	0.050
-232.800	-134.177	-0.242	-0.029
-231.786	267.941	0.140	0.242
-230.771	-200.000	-0.018	0.128
-229.757	32.661	0.229	-0.196
-228.742	446.392	0.090	-0.194
-227.727	800.000	0.063	0.221
-226.713	58.282	0.145	0.140
-225.698	182.721	0.178	0.258
-224.684	628.381	-0.056	-0.140
-223.669	-61.058	-0.279	0.116
-222.655	598.043	0.090	0.219
-221.640	-59.784	-0.073	-0.031
-220.625	1.989	0.034	0.024
-219.611	-66.267	0.183	-0.072
-218.596	-120.496	0.207	-0.035
-217.582	-97.792	-0.295	-0.075
-216.567	-68.961	-0.070	-0.026
-215.552	-200.000	0.009	0.135
-214.538	549.732	0.094	-0.221
-213.523	-145.347	0.462	0.041
-212.509	118.400	0.105	0.127
-211.494	335.394	0.061	0.116
-210.479	-34.233	0.214	0.116
-209.465	6.457	-0.142	0.104
-208.450	-29.680	-0.189	-0.106
-207.436	800.000	0.050	0.139
-206.421	-75.410	-0.354	-0.124
-205.406	396.649	-0.084	-0.172
-204.392	114.158	-0.087	-0.104
-203.377	800.000	-0.053	-0.161
-202.363	-43.651	0.322	-0.160
-201.348	-8.472	0.174	-0.115
-200.333	32.431	0.171	-0.145
-199.319	18.131	-0.124	0.097
-198.304	-200.000	-0.044	0.202
-197.290	-200.000	0.031	0.133
-196.275	-200.000	0.028	-0.418
-195.260	83.785	-0.168	-0.180
-194.246	137.739	0.028	-0.036
-193.231	-114.084	-0.155	-0.030
-192.217	264.548	-0.162	0.277
-191.202	106.683	0.140	0.164
-190.187	-16.474	0.130	-0.081
-189.173	116.361	-0.195	0.235
-188.158	-45.212	0.218	0.106
-187.144	139.050	0.148	0.192
-186.129	140.858	-0.098	0.128
-185.114	-96.459	-0.069	-0.018
-184.100	334.388	0.052	-0.099
-183.085	-72.363	0.101	-0.037
-182.071	-14.916	-0.081	0.051
-181.056	800.000	-0.053	-0.186
-180.042	-65.944	-0.126	0.049
-179.027	800.000	-0.073	-0.270
-178.012	-54.653	-0.227	-0.101
-176.998	7.173	0.273	0.200
-175.983	61.801	0.173	0.170
-174.969	-200.000	-0.033	0.224
-173.954	-200.000	0.000	-0.160
-172.939	36.415	-0.290	-0.252
-171.925	-115.630	0.286	0.053
-170.910	-198.050	-0.364	0.002
-169.896	-120.414	0.378	0.063
-168.881	-45.326	0.302	0.147
-167.866	-81.059	-0.157	-0.051
-166.852	-200.000	-0.016	0.146
-165.837	736.992	0.024	0.064
-164.823	-58.600	0.163	0.069
-163.808	-200.000	-0.009	-0.102
-162.793	-175.206	-0.111	0.003
-161.779	-113.813	0.274	0.052
-160.764	-70.603	0.206	-0.076
-159.750	45.586	0.041	-0.037
-158.735	-200.000	-0.020	0.248
-157.720	-119.388	0.186	0.032
-156.706	-122.811	-0.414	0.066
-155.691	-200.000	0.022	0.357
-154.677	-17.805	-0.080	0.049
-153.662	800.000	-0.071	-0.206
-152.647	-186.755	-0.019	-0.000
-151.633	7.713	0.311	0.228
-150.618	-113.169	-0.093	0.018
-149.604	-18.922	0.359	0.219
-148.589	-200.000	-0.004	0.150
-147.574	-200.000	0.018	-0.204
-146.560	-50.903	-0.268	-0.124
-145.545	-63.031	-0.258	-0.105
-144.531	110.663	-0.137	-0.162
-143.516	-26.506	0.029	-0.017
-142.502	-53.074	0.314	-0.142
-141.487	276.148	0.084	-0.147
-140.472	210.589	-0.156	0.241
-139.458	28.428	0.246	-0.204
-138.443	77.469	0.114	-0.119
-137.429	85.501	0.229	0.247
-136.414	-60.779	-0.091	0.038
-135.399	363.572	0.026	-0.051
-134.385	115.732	0.242	-0.290
-133.370	-116.029	0.168	-0.031
-132.356	-111.158	0.220	-0.044
-131.341	47.807	-0.166	0.152
-130.326	56.383	0.229	0.218
-129.312	785.397	-0.074	0.199
-128.297	-44.975	0.078	-0.038
-127.283	-19.012	0.149	0.091
-126.268	-5.319	-0.132	-0.089
-125.253	-200.000	0.074	0.432
-124.239	-29.674	-0.202	-0.113
-123.224	257.483	0.125	0.211
-122.210	23.718	0.350	-0.283
-121.195	-200.000	-0.024	0.199
-120.180	33.341	-0.241	-0.205
