DTS Sentinel unit serial number:	SN413079Multiplexer serial number:	ORYXHardware model number:	OX4-SRSoftware version number:	ORYX F/W v4.00 Oryx Data Collector v3.7.2.0data status	okinstallation	princeton_trtdifferential loss correction	single-endedforward channel	channel 1reverse channel	N/Adate	2019/09/13time	19:02:35forward acquisition time	60.00reverse acquisition time	0.00gamma	496.2192k internal	0.2324k external	0.2324temperature offset calibration	1.0119default loss term (dB/km)	0.3790temperature slope calibration	1.0000multiplexer offset coefficient	1.0000multiplexer slope coefficient	1.0000fibre end	0.00T internal ref (°C)	31.86T ext. ref 1 (°C)	3.91T ext. ref 2 (°C)	25.11length (m)	temperature (°C)	Stokes	anti-Stokes-747.200	-68.455	0.200	0.078
-746.185	-200.000	-0.005	0.084
-745.171	363.520	-0.033	-0.068
-744.156	-68.669	-0.424	-0.166
-743.142	76.033	0.114	-0.121
-742.127	800.000	-0.039	0.116
-741.112	450.097	0.135	0.300
-740.098	-18.614	0.188	0.118
-739.083	105.705	-0.277	0.331
-738.069	-57.574	0.189	0.084
-737.054	-111.230	-0.273	0.056
-736.039	-95.833	-0.322	0.087
-735.025	-200.000	0.009	0.247
-734.010	-12.090	0.263	0.174
-732.996	-200.000	-0.012	0.053
-731.981	49.056	-0.084	-0.079
-730.966	800.000	-0.052	-0.175
-729.952	-147.503	0.108	0.009
-728.937	-141.087	-0.311	-0.032
-727.923	-109.210	-0.367	-0.079
-726.908	-120.696	0.256	0.044
-725.894	42.580	-0.130	0.119
-724.879	-77.186	-0.218	-0.077
-723.864	388.705	0.111	-0.232
-722.850	123.032	0.200	-0.253
-721.835	-21.402	-0.144	0.089
-720.821	93.215	-0.182	0.208
-719.806	-200.000	-0.062	0.276
-718.791	93.917	-0.030	-0.034
-717.777	-63.385	0.407	-0.169
-716.762	800.000	-0.062	0.237
-715.748	-167.683	-0.255	0.010
-714.733	139.758	0.032	0.043
-713.718	800.000	-0.111	0.340
-712.704	231.462	-0.104	-0.171
-711.689	181.424	-0.216	-0.321
-710.675	-19.296	0.132	0.083
-709.660	68.816	-0.094	0.097
-708.645	93.679	-0.153	-0.175
-707.631	483.881	-0.108	-0.248
-706.616	800.000	-0.046	0.165
-705.602	713.963	0.088	-0.234
-704.587	-200.000	-0.010	0.136
-703.572	215.720	-0.132	-0.211
-702.558	800.000	-0.075	0.284
-701.543	147.313	-0.091	0.124
-700.529	74.149	0.144	0.152
-699.514	-140.100	0.080	-0.008
-698.499	-143.483	-0.076	0.007
-697.485	277.483	-0.148	-0.265
-696.470	-148.553	0.103	-0.008
-695.456	-43.556	-0.313	0.159
-694.441	-83.444	-0.346	-0.112
-693.426	-119.075	0.117	-0.021
-692.412	-164.346	0.132	-0.006
-691.397	2.382	-0.208	0.152
-690.383	37.253	0.121	-0.108
-689.368	-30.235	-0.283	-0.162
-688.354	-200.000	0.006	-0.269
-687.339	-102.293	0.429	0.104
-686.324	-40.154	-0.501	-0.263
-685.310	495.483	-0.057	-0.132
-684.295	-38.174	-0.019	-0.010
-683.281	313.129	0.098	0.185
-682.266	-200.000	-0.033	-0.156
-681.251	20.463	-0.306	0.249
-680.237	-67.480	-0.206	-0.081
-679.222	83.356	-0.242	0.266
-678.208	-200.000	-0.018	-0.144
-677.193	130.411	0.188	0.242
-676.178	-108.998	-0.298	-0.064
-675.164	800.000	0.034	0.099
-674.149	-55.180	0.156	-0.071
-673.135	-200.000	0.007	0.056
-672.120	-4.372	-0.204	-0.142
-671.105	-9.453	-0.297	-0.199
-670.091	-94.900	0.390	-0.106
-669.076	228.339	0.218	0.358
-668.062	283.550	0.030	0.054
-667.047	800.000	-0.068	-0.213
-666.032	58.295	-0.104	0.102
-665.018	-16.388	-0.284	-0.181
-664.003	198.817	0.093	-0.143
-662.989	-138.779	0.579	-0.064
-661.974	-200.000	0.035	0.229
-660.959	361.175	0.090	-0.181
-659.945	124.687	0.163	-0.207
-658.930	-61.191	0.113	0.048
-657.916	800.000	0.051	0.151
-656.901	58.585	0.163	-0.161
-655.886	-40.070	-0.114	-0.060
-654.872	800.000	0.024	-0.070
-653.857	-200.000	-0.021	-0.181
-652.843	-200.000	-0.020	-0.110
-651.828	-23.068	0.212	-0.129
-650.814	-93.711	0.115	-0.032
-649.799	-200.000	0.073	0.400
-648.784	679.031	-0.022	0.057
-647.770	-33.016	-0.176	-0.098
-646.755	-200.000	-0.017	0.205
-645.741	22.734	-0.322	0.265
-644.726	-132.475	-0.195	0.025
-643.711	175.095	-0.095	-0.139
-642.697	-105.097	-0.237	-0.055
-641.682	-26.005	-0.200	-0.118
-640.668	143.513	-0.148	0.198
-639.653	325.717	0.169	0.325
-638.638	73.063	0.228	0.240
-637.624	580.031	-0.010	0.023
-636.609	-200.000	0.057	-0.320
-635.595	-200.000	-0.028	0.220
-634.580	-40.528	0.149	-0.078
-633.565	54.933	-0.056	0.055
-632.551	64.795	-0.240	0.243
-631.536	-48.458	-0.527	0.255
-630.522	-200.000	-0.037	-0.221
-629.507	-41.552	-0.075	0.039
-628.492	11.369	0.133	-0.102
-627.478	800.000	-0.010	0.044
-626.463	460.769	-0.176	0.395
-625.449	200.585	-0.056	0.086
-624.434	-157.468	0.527	-0.032
-623.419	800.000	0.103	-0.289
-622.405	800.000	0.054	-0.152
-621.390	-149.147	0.173	-0.014
-620.376	132.405	-0.094	-0.122
-619.361	-159.404	-0.246	-0.014
-618.346	106.849	-0.082	-0.098
-617.332	-179.248	-0.233	0.005
-616.317	168.867	-0.112	0.160
-615.303	-55.747	0.051	0.023
-614.288	-33.988	0.037	0.020
-613.273	800.000	-0.092	0.329
-612.259	313.206	0.067	-0.127
-611.244	-42.104	-0.165	-0.085
-610.230	570.519	-0.080	-0.195
-609.215	-101.961	0.284	0.069
-608.201	441.128	0.052	0.114
-607.186	118.550	-0.285	-0.353
-606.171	800.000	-0.028	-0.112
-605.157	555.553	0.149	-0.360
-604.142	-94.371	0.295	0.081
-603.128	63.841	-0.145	0.147
-602.113	243.086	-0.150	0.253
-601.098	-61.688	0.034	0.014
-600.084	-149.181	0.173	0.014
-599.069	232.623	-0.138	0.227
-598.055	110.404	-0.080	-0.096
-597.040	-149.901	0.337	0.026
-596.025	27.626	0.164	-0.139
-595.011	-200.000	-0.058	-0.329
-593.996	739.720	-0.056	0.150
-592.982	33.476	-0.092	-0.080
-591.967	-65.149	-0.258	-0.104
-590.952	60.647	0.024	-0.024
-589.938	237.581	-0.104	-0.173
-588.923	88.854	-0.213	0.237
-587.909	-85.954	0.149	0.046
-586.894	24.994	0.407	0.339
-585.879	-49.532	0.293	0.140
-584.865	-125.522	-0.306	0.047
-583.850	-85.677	0.307	0.096
-582.836	129.567	-0.199	0.255
-581.821	37.537	0.052	-0.046
-580.806	800.000	-0.107	-0.343
-579.792	-104.108	-0.262	-0.061
-578.777	491.513	-0.091	-0.208
-577.763	128.064	0.089	0.114
-576.748	15.009	0.178	-0.140
-575.733	-200.000	-0.024	0.134
-574.719	-39.106	-0.225	0.118
-573.704	-200.000	-0.020	-0.200
-572.690	475.171	0.108	-0.245
-571.675	40.333	-0.322	-0.290
-570.661	-61.489	-0.376	-0.159
-569.646	-200.000	-0.062	0.437
-568.631	197.300	-0.111	-0.170
-567.617	800.000	-0.062	0.186
-566.602	-84.393	-0.121	0.038
-565.588	-66.839	-0.312	-0.124
-564.573	-200.000	0.028	0.165
-563.558	516.101	0.048	-0.113
-562.544	-200.000	0.020	-0.122
-561.529	-11.205	-0.278	0.184
-560.515	-159.032	0.076	0.004
-559.500	-156.994	0.341	0.021
-558.485	480.507	0.013	-0.030
-557.471	-6.886	0.366	-0.249
-556.456	237.697	0.087	-0.145
-555.442	-41.972	-0.261	-0.134
-554.427	-78.356	-0.266	0.091
-553.412	-200.000	0.036	-0.254
-552.398	-61.597	0.223	-0.094
-551.383	53.423	-0.297	-0.285
-550.369	-129.046	0.242	-0.034
-549.354	237.443	-0.145	-0.242
-548.339	-64.313	0.153	0.062
-547.325	-23.492	0.106	0.064
-546.310	17.437	-0.065	-0.052
-545.296	-130.195	-0.248	-0.034
-544.281	-21.288	0.145	0.089
-543.266	10.385	0.072	0.055
-542.252	220.416	0.033	0.054
-541.237	-25.544	-0.220	-0.130
-540.223	601.568	0.054	-0.135
-539.208	-134.497	0.162	0.020
-538.193	800.000	-0.018	0.077
-537.179	-200.000	0.025	0.139
-536.164	-200.000	-0.048	0.260
-535.150	-75.037	-0.285	-0.102
-534.135	800.000	-0.087	0.262
-533.121	-118.238	0.263	0.047
-532.106	-200.000	0.004	-0.093
-531.091	-23.002	0.165	0.100
-530.077	-78.719	0.311	0.106
-529.062	800.000	0.078	0.303
-528.048	-138.729	0.090	-0.010
-527.033	-200.000	0.067	0.308
-526.018	-200.000	-0.051	0.227
-525.004	-81.698	0.364	-0.119
-523.989	-107.561	-0.279	-0.061
-522.975	-162.832	-0.221	0.011
-521.960	22.339	-0.332	0.272
-520.945	-36.545	-0.224	0.121
-519.931	-39.872	-0.350	-0.183
-518.916	465.890	-0.135	-0.302
-517.902	482.779	0.079	0.179
-516.887	-131.524	0.048	0.006
-515.872	800.000	-0.028	-0.080
-514.858	76.276	-0.140	0.148
-513.843	31.393	-0.260	-0.224
-512.829	-22.446	-0.090	-0.055
-511.814	-200.000	0.028	-0.142
-510.799	98.465	0.043	-0.050
-509.785	-104.873	-0.126	0.029
-508.770	-13.164	-0.111	0.072
-507.756	800.000	0.069	0.298
-506.741	8.203	0.148	-0.111
-505.726	391.136	-0.191	-0.397
-504.712	473.673	-0.106	0.239
-503.697	349.518	-0.158	0.312
-502.683	140.205	-0.126	0.166
-501.668	314.523	-0.120	-0.227
-500.653	124.724	-0.182	-0.229
-499.639	-200.000	-0.015	0.400
-498.624	-200.000	0.031	0.194
-497.610	-112.324	0.199	-0.040
-496.595	91.484	-0.076	0.085
-495.581	800.000	0.084	0.300
-494.566	86.259	-0.251	-0.277
-493.551	-107.519	0.307	0.067
-492.537	-200.000	-0.053	-0.304
-491.522	-64.257	0.154	0.063
-490.508	800.000	0.050	0.185
-489.493	439.384	0.111	0.242
-488.478	-145.518	-0.122	0.011
-487.464	91.099	-0.044	-0.049
-486.449	-89.250	0.174	0.051
-485.435	182.315	0.085	-0.125
-484.420	68.649	-0.255	-0.262
-483.405	-200.000	0.027	-0.371
-482.391	51.772	0.080	-0.076
-481.376	22.689	-0.101	-0.082
-480.362	-200.000	0.029	-0.202
-479.347	33.936	0.300	-0.261
-478.332	233.332	-0.110	0.180
-477.318	-132.965	-0.157	0.020
-476.303	257.089	0.090	0.154
-475.289	-114.359	-0.340	-0.065
-474.274	180.389	0.078	0.114
-473.259	-108.546	0.406	-0.087
-472.245	31.062	-0.025	-0.022
-471.230	-150.237	-0.202	0.016
-470.216	800.000	0.075	0.265
-469.201	30.296	-0.208	0.178
-468.186	110.554	-0.110	0.133
-467.172	175.704	0.157	-0.228
-466.157	93.974	0.107	-0.121
-465.143	800.000	-0.106	0.326
-464.128	4.864	-0.191	-0.140
-463.113	-105.614	0.068	0.015
-462.099	163.823	0.099	0.139
-461.084	105.724	0.127	0.150
-460.070	395.140	0.111	-0.230
-459.055	-47.426	0.178	0.087
-458.040	630.226	0.132	-0.333
-457.026	-200.000	0.050	-0.361
-456.011	-200.000	-0.103	0.000
-454.997	312.157	-0.033	-0.063
-453.982	-102.148	0.081	0.019
-452.968	-64.310	-0.339	0.138
-451.953	-165.284	-0.303	0.013
-450.938	-200.000	0.004	-0.383
-449.924	-115.236	0.196	0.037
-448.909	-145.892	0.337	0.030
-447.895	567.444	0.122	-0.296
-446.880	160.268	0.091	0.126
-445.865	161.980	0.094	-0.131
-444.851	70.642	-0.154	-0.159
-443.836	800.000	0.062	-0.198
-442.822	-200.000	-0.384	-0.000
-441.807	-83.388	-0.070	-0.022
-440.792	-200.000	-0.024	-0.191
-439.778	-123.916	0.193	0.030
-438.763	61.402	0.069	0.068
-437.749	63.583	-0.281	-0.281
-436.734	-179.832	0.311	-0.007
-435.719	-200.000	0.012	-0.370
-434.705	-49.822	0.334	-0.158
-433.690	-200.000	0.027	-0.227
-432.676	-137.963	0.180	0.020
-431.661	-163.906	-0.239	0.011
-430.646	-86.632	-0.287	0.088
-429.632	-200.000	0.005	0.247
-428.617	-96.850	-0.379	0.099
-427.603	-200.000	0.077	-0.394
-426.588	-200.000	0.021	0.250
-425.573	194.414	0.175	-0.265
-424.559	-52.235	0.176	0.082
-423.544	800.000	0.174	0.534
-422.530	-124.675	-0.294	0.045
-421.515	800.000	-0.055	0.207
-420.500	-164.961	0.363	-0.016
-419.486	520.258	0.077	0.180
-418.471	79.636	-0.177	-0.190
-417.457	118.101	0.137	-0.169
-416.442	-167.107	0.279	0.011
-415.428	-200.000	-0.015	0.163
-414.413	1.240	0.114	0.082
-413.398	72.758	0.067	0.070
-412.384	-89.005	0.093	-0.027
-411.369	337.530	-0.143	0.277
-410.355	-104.495	-0.193	-0.045
-409.340	39.280	0.055	0.049
-408.325	-94.586	-0.080	-0.022
-407.311	-176.530	-0.456	0.012
-406.296	17.829	0.209	0.166
-405.282	371.842	-0.097	0.196
-404.267	-200.000	0.004	0.508
-403.252	-200.000	0.051	0.410
-402.238	-27.864	-0.071	0.041
-401.223	-200.000	-0.097	-0.527
-400.209	303.784	-0.056	0.103
-399.194	-200.000	-0.015	0.281
-398.179	-73.431	-0.070	0.025
-397.165	256.910	-0.078	-0.133
-396.150	8.673	-0.235	0.176
-395.136	-104.048	-0.215	0.050
-394.121	186.142	-0.122	-0.181
-393.106	-28.933	-0.416	0.238
-392.092	440.900	0.055	-0.121
-391.077	104.866	-0.038	0.044
-390.063	-129.502	-0.136	0.019
-389.048	-56.791	-0.199	-0.088
-388.033	147.640	0.137	0.184
-387.019	82.260	0.066	-0.072
-386.004	38.802	0.156	0.139
-384.990	136.778	-0.065	0.084
-383.975	-200.000	0.014	-0.168
-382.960	91.591	0.338	-0.378
-381.946	-26.829	-0.313	-0.182
-380.931	-200.000	0.009	0.067
-379.917	-42.919	0.223	-0.113
-378.902	645.543	0.067	0.170
-377.888	-200.000	0.252	-0.001
-376.873	-91.220	-0.368	0.105
-375.858	-63.117	0.192	-0.079
-374.844	61.435	0.038	0.038
-373.829	-80.291	0.382	0.127
-372.815	187.889	-0.080	0.119
-371.800	228.267	0.146	0.237
-370.785	613.208	0.104	0.259
-369.771	1.096	-0.077	-0.055
-368.756	800.000	-0.098	0.412
-367.742	-200.000	-0.013	0.281
-366.727	-103.926	0.479	0.111
-365.712	297.913	-0.088	-0.160
-364.698	-157.193	-0.465	-0.028
-363.683	-200.000	-0.067	-0.302
-362.669	-200.000	0.024	0.305
-361.654	245.750	0.180	0.301
-360.639	166.999	0.079	0.111
-359.625	-84.140	-0.048	-0.015
-358.610	29.125	-0.041	-0.035
-357.596	9.083	-0.287	-0.216
-356.581	-30.438	-0.117	-0.066
-355.566	-200.000	0.026	-0.209
-354.552	-185.956	0.204	-0.003
-353.537	91.209	-0.381	0.425
-352.523	-200.000	0.016	0.081
-351.508	800.000	-0.020	-0.074
-350.493	-70.350	0.201	0.076
-349.479	800.000	0.108	-0.302
-348.464	-200.000	-0.085	0.470
-347.450	87.988	0.208	-0.229
-346.435	-200.000	-0.010	-0.345
-345.420	-200.000	0.047	0.309
-344.406	85.456	0.150	0.163
-343.391	-123.565	-0.123	0.019
-342.377	0.460	-0.266	0.189
-341.362	-48.031	-0.089	-0.043
-340.348	278.044	-0.017	-0.031
-339.333	418.941	0.110	0.234
-338.318	-116.558	0.293	0.054
-337.304	-118.600	-0.304	-0.053
-336.289	-200.000	-0.060	0.300
-335.275	800.000	-0.011	0.040
-334.260	-124.727	0.078	0.012
-333.245	-35.226	-0.294	-0.159
-332.231	-105.135	0.025	0.006
-331.216	4.232	-0.149	0.109
-330.202	-48.230	0.222	0.107
-329.187	-200.000	-0.083	0.376
-328.172	-112.069	-0.192	0.038
-327.158	-171.799	-0.082	0.003
-326.143	-130.655	0.186	0.025
-325.129	69.244	-0.328	-0.335
-324.114	124.679	0.046	-0.057
-323.099	800.000	0.042	-0.130
-322.085	47.136	0.159	-0.147
-321.070	-135.773	-0.157	0.018
-320.056	-200.000	-0.002	-0.029
-319.041	-200.000	-0.090	-0.399
-318.026	239.582	-0.151	-0.250
-317.012	252.300	0.194	-0.329
-315.997	-200.000	0.083	-0.361
-314.983	129.351	0.034	-0.044
-313.968	-200.000	0.007	-0.251
-312.953	-29.256	0.326	0.185
-311.939	-200.000	-0.031	0.263
-310.924	-119.484	-0.095	0.016
-309.910	-45.218	-0.217	-0.107
-308.895	800.000	0.048	-0.173
-307.880	84.469	0.216	-0.234
-306.866	-66.759	-0.368	-0.145
-305.851	800.000	0.098	-0.300
-304.837	-39.386	0.207	0.108
-303.822	-200.000	-0.034	-0.328
-302.807	390.583	0.102	0.210
-301.793	-200.000	-0.028	0.367
-300.778	55.529	0.135	0.130
-299.764	180.985	-0.078	-0.113
-298.749	124.106	-0.126	-0.157
-297.735	44.384	0.081	0.074
-296.720	509.732	0.175	-0.403
-295.705	415.767	0.090	-0.191
-294.691	176.393	-0.113	0.163
-293.676	103.426	0.136	0.159
-292.662	88.455	0.147	0.162
-291.647	-200.000	-0.036	-0.232
-290.632	-151.964	-0.301	-0.022
-289.618	-196.012	0.408	-0.003
-288.603	-158.504	-0.140	0.008
-287.589	-37.242	0.059	0.031
-286.574	140.671	-0.100	-0.130
-285.559	-200.000	-0.033	0.336
-284.545	318.479	0.099	0.187
-283.530	-106.340	-0.191	-0.042
-282.516	288.428	-0.043	0.077
-281.501	-149.151	0.264	-0.021
-280.486	-103.398	-0.211	-0.049
-279.472	70.270	-0.155	0.159
-278.457	23.064	0.332	0.270
-277.443	-72.216	0.028	-0.010
-276.428	-124.446	0.176	-0.027
-275.413	-11.032	-0.160	0.105
-274.399	-61.205	0.343	-0.143
-273.384	73.626	-0.256	0.266
-272.370	61.238	0.028	-0.028
-271.355	125.342	-0.149	0.186
-270.340	607.183	0.055	0.135
-269.326	800.000	-0.084	-0.344
-268.311	-57.862	0.028	-0.012
-267.297	751.176	0.097	0.260
-266.282	20.413	0.324	0.259
-265.267	-12.711	0.035	-0.022
-264.253	195.765	0.123	-0.186
-263.238	-200.000	-0.022	-0.199
-262.224	-119.889	-0.056	-0.009
-261.209	288.357	0.115	0.207
-260.195	-101.620	0.260	-0.063
-259.180	800.000	-0.100	-0.352
-258.165	-200.000	-0.001	-0.141
-257.151	-52.622	0.284	-0.130
-256.136	30.283	-0.199	0.168
-255.122	-200.000	-0.008	0.049
-254.107	271.113	-0.012	0.022
-253.092	-2.190	0.211	-0.146
-252.078	800.000	0.028	-0.111
-251.063	800.000	0.051	-0.170
-250.049	574.058	0.085	-0.205
-249.034	752.694	-0.010	-0.026
-248.019	-25.940	-0.230	-0.134
-247.005	-69.850	-0.176	-0.066
-245.990	74.477	0.164	0.171
-244.976	273.145	0.086	-0.151
-243.961	800.000	0.029	0.080
-242.946	-200.000	0.017	-0.242
-241.932	-16.782	0.235	0.147
-240.917	221.617	0.077	0.122
-239.903	-21.737	0.290	0.174
-238.888	610.017	-0.058	-0.143
-237.873	-200.000	-0.051	0.366
-236.859	272.901	-0.058	0.102
-235.844	-69.020	0.276	0.105
-234.830	4.561	0.165	0.120
-233.815	-14.551	0.114	0.072
-232.800	-23.384	0.188	-0.112
-231.786	60.730	-0.142	-0.140
-230.771	122.191	-0.095	0.118
-229.757	410.566	-0.055	0.116
-228.742	-132.133	0.320	0.041
-227.727	205.331	0.045	-0.069
-226.713	-200.000	-0.001	-0.181
-225.698	547.132	0.106	-0.251
-224.684	16.230	0.089	0.069
-223.669	-200.000	-0.000	-0.169
-222.655	7.807	-0.131	0.097
-221.640	256.280	0.035	0.060
-220.625	266.651	0.078	-0.134
-219.611	118.440	0.066	-0.081
-218.596	41.275	-0.197	-0.176
-217.582	-200.000	-0.004	0.064
-216.567	-200.000	-0.314	-0.001
-215.552	-94.103	0.476	0.129
-214.538	-200.000	-0.031	0.176
-213.523	546.269	0.062	0.147
-212.509	-200.000	0.053	0.357
-211.494	-200.000	-0.079	-0.408
-210.479	-92.717	0.194	0.054
-209.465	37.263	0.330	-0.289
-208.450	-28.607	0.208	0.118
-207.436	-140.667	0.062	0.006
-206.421	159.945	0.119	0.164
-205.406	244.774	-0.122	-0.202
-204.392	800.000	-0.033	-0.124
-203.377	127.017	0.149	-0.187
-202.363	-57.632	-0.276	-0.119
-201.348	-118.160	-0.272	-0.048
-200.333	-12.240	-0.087	-0.056
-199.319	-57.900	0.282	-0.122
-198.304	-78.535	0.244	-0.082
-197.290	75.931	0.109	-0.114
-196.275	168.737	-0.105	0.148
-195.260	72.738	-0.212	0.219
-194.246	-200.000	-0.001	-0.302
-193.231	800.000	0.070	-0.199
-192.217	61.352	0.172	0.169
-191.202	203.560	-0.083	-0.127
-190.187	23.846	-0.210	-0.171
-189.173	260.867	0.074	0.127
-188.158	-56.074	-0.149	0.065
-187.144	-98.656	-0.210	0.053
-186.129	-11.755	0.230	0.149
-185.114	69.934	-0.187	0.190
-184.100	-89.116	0.295	0.086
-183.085	-152.134	0.044	0.003
-182.071	778.827	0.127	-0.344
-181.056	11.128	0.206	0.155
-180.042	176.986	0.218	-0.314
-179.027	26.215	0.143	-0.118
-178.012	-80.242	-0.137	0.045
-176.998	-175.543	-0.366	0.010
-175.983	223.324	0.148	-0.235
-174.969	800.000	0.067	-0.213
-173.954	-52.859	0.159	0.072
-172.939	-136.368	0.393	0.045
-171.925	-151.233	-0.243	0.018
-170.910	-200.000	0.061	-0.411
-169.896	588.923	0.127	0.308
-168.881	-200.000	-0.023	-0.203
-167.866	25.272	0.233	0.191
-166.852	-200.000	-0.002	0.238
-165.837	-139.727	0.165	0.017
-164.823	69.724	-0.119	0.121
-163.808	-95.300	0.156	0.042
-162.793	-133.648	0.183	-0.023
-161.779	-200.000	0.011	-0.167
-160.764	800.000	0.091	-0.287
-159.750	-65.984	-0.207	0.081
-158.735	-99.429	-0.123	0.030
-157.720	-171.984	-0.358	-0.011
-156.706	-200.000	-0.002	0.133
-155.691	-33.202	-0.177	-0.097
-154.677	149.375	0.235	0.314
-153.662	-69.075	0.052	0.020
-152.647	800.000	-0.116	-0.376
-151.633	-101.444	0.113	-0.027
-150.618	800.000	0.005	0.019
-149.604	-113.075	0.138	0.027
-148.589	800.000	-0.105	-0.337
-147.574	720.888	0.222	-0.582
-146.560	-128.413	-0.332	0.046
-145.545	-200.000	0.024	-0.229
-144.531	-101.854	-0.160	-0.038
-143.516	-8.695	0.217	-0.143
-142.502	-109.130	-0.370	-0.078
-141.487	163.464	-0.079	-0.110
-140.472	800.000	0.083	-0.262
-139.458	308.234	0.013	-0.024
-138.443	520.030	0.029	-0.067
-137.429	-200.000	0.020	-0.356
-136.414	-7.094	0.187	-0.125
-135.399	800.000	0.078	0.240
-134.385	-156.396	0.195	0.012
-133.370	-3.204	0.230	-0.158
-132.356	-200.000	-0.039	0.205
-131.341	800.000	0.136	-0.401
-130.326	-176.395	-0.047	0.001
-129.312	800.000	-0.063	0.180
-128.297	-183.234	-0.429	0.007
-127.283	51.940	-0.102	-0.096
-126.268	-115.365	0.022	-0.004
-125.253	-160.368	0.156	0.008
-124.239	-29.655	0.241	-0.135
-123.224	162.361	0.082	0.114
-122.210	800.000	-0.114	-0.413
-121.195	-94.167	0.250	0.067
