DTS Sentinel unit serial number:	SN413079Multiplexer serial number:	ORYXHardware model number:	OX4-SRSoftware version number:	ORYX F/W v4.00 Oryx Data Collector v3.7.2.0data status	okinstallation	princeton_trtdifferential loss correction	single-endedforward channel	channel 1reverse channel	N/Adate	2019/09/13time	21:34:35forward acquisition time	60.00reverse acquisition time	0.00gamma	496.2192k internal	0.2332k external	0.2332temperature offset calibration	1.0088default loss term (dB/km)	0.3790temperature slope calibration	1.0000multiplexer offset coefficient	1.0000multiplexer slope coefficient	1.0000fibre end	0.00T internal ref (°C)	28.25T ext. ref 1 (°C)	3.22T ext. ref 2 (°C)	22.82length (m)	temperature (°C)	Stokes	anti-Stokes-747.200	-200.000	0.371	0.000
-746.185	-34.204	-0.150	0.083
-745.171	72.136	-0.267	0.280
-744.156	95.229	0.206	0.236
-743.142	24.104	-0.165	-0.137
-742.127	-200.000	0.008	0.179
-741.112	-200.000	0.009	-0.181
-740.098	-16.051	-0.338	0.216
-739.083	-165.644	0.054	-0.002
-738.069	-54.450	0.277	0.126
-737.054	-8.574	0.144	0.097
-736.039	69.977	0.132	-0.137
-735.025	99.816	-0.144	0.167
-734.010	573.906	-0.171	0.420
-732.996	240.300	-0.080	-0.135
-731.981	447.979	-0.206	-0.457
-730.966	9.324	0.202	-0.154
-729.952	-120.662	0.292	0.050
-728.937	30.529	-0.222	0.191
-727.923	-52.364	-0.359	-0.167
-726.908	-43.972	0.251	0.127
-725.894	46.389	0.028	0.026
-724.879	-58.777	-0.081	0.035
-723.864	273.958	-0.158	0.282
-722.850	-200.000	-0.008	-0.038
-721.835	16.740	-0.125	-0.100
-720.821	-11.373	-0.099	-0.066
-719.806	-17.972	0.077	0.049
-718.791	386.638	-0.141	0.293
-717.777	358.512	0.077	0.154
-716.762	326.989	-0.052	0.100
-715.748	-91.442	-0.142	-0.041
-714.733	-35.553	0.412	-0.225
-713.718	-107.753	-0.150	-0.033
-712.704	-200.000	-0.065	0.331
-711.689	-200.000	-0.325	-0.001
-710.675	15.375	0.242	0.191
-709.660	-104.900	-0.178	0.041
-708.645	-23.961	0.228	-0.137
-707.631	-200.000	0.001	-0.034
-706.616	208.846	-0.159	-0.250
-705.602	-93.907	-0.177	0.049
-704.587	101.241	0.062	-0.072
-703.572	800.000	0.089	0.314
-702.558	800.000	0.059	0.212
-701.543	-71.966	-0.401	0.150
-700.529	-19.771	0.222	-0.138
-699.514	-200.000	0.057	-0.308
-698.499	45.640	-0.312	-0.290
-697.485	218.864	0.176	-0.282
-696.470	-63.849	0.158	-0.065
-695.456	-200.000	0.012	-0.619
-694.441	-71.573	0.405	0.152
-693.426	-139.472	-0.272	-0.029
-692.412	-73.885	0.037	-0.013
-691.397	-200.000	0.022	-0.390
-690.383	60.998	-0.187	-0.186
-689.368	800.000	0.012	0.052
-688.354	-200.000	-0.013	-0.182
-687.339	-39.958	0.263	0.138
-686.324	11.634	0.309	0.238
-685.310	37.060	-0.271	0.241
-684.295	800.000	0.066	-0.275
-683.281	-137.552	0.196	-0.022
-682.266	800.000	-0.046	-0.128
-681.251	-200.000	0.013	-0.236
-680.237	-167.678	-0.115	-0.005
-679.222	258.520	0.129	-0.224
-678.208	1.666	0.110	0.080
-677.193	-121.646	-0.349	0.058
-676.178	61.394	-0.212	0.212
-675.164	-68.186	0.152	0.060
-674.149	-200.000	0.063	-0.338
-673.135	50.165	0.069	-0.065
-672.120	800.000	0.032	-0.099
-671.105	-12.807	0.243	0.159
-670.091	86.479	0.276	0.306
-669.076	25.687	0.120	-0.101
-668.062	-4.018	-0.457	-0.318
-667.047	-200.000	0.066	-0.553
-666.032	-75.169	-0.223	-0.080
-665.018	-50.062	-0.061	-0.029
-664.003	12.124	0.050	0.038
-662.989	-5.748	-0.131	-0.090
-661.974	-99.811	-0.293	0.074
-660.959	-59.095	0.240	0.104
-659.945	-200.000	0.018	-0.119
-658.930	-200.000	-0.064	-0.390
-657.916	-129.337	0.144	0.020
-656.901	-31.185	0.168	0.095
-655.886	63.337	0.199	-0.200
-654.872	-61.884	-0.075	-0.032
-653.857	83.515	-0.167	0.183
-652.843	207.233	-0.152	-0.238
-651.828	-98.181	0.216	0.056
-650.814	566.272	-0.096	-0.233
-649.799	735.411	0.117	-0.315
-648.784	-135.627	-0.109	-0.013
-647.770	-106.269	0.229	-0.051
-646.755	800.000	0.064	-0.236
-645.741	-159.373	-0.313	0.018
-644.726	3.239	0.212	-0.155
-643.711	323.915	0.128	0.245
-642.697	353.532	-0.293	-0.583
-641.682	49.493	-0.166	0.156
-640.668	-200.000	-0.009	0.078
-639.653	-200.000	0.058	-0.259
-638.638	-200.000	-0.021	-0.358
-637.624	153.481	0.098	-0.134
-636.609	-36.194	0.216	0.117
-635.595	800.000	0.111	-0.441
-634.580	355.012	0.155	-0.308
-633.565	181.116	-0.065	-0.096
-632.551	191.115	0.124	0.187
-631.536	29.626	-0.040	0.034
-630.522	-57.380	-0.218	-0.096
-629.507	-115.430	0.188	-0.035
-628.492	-200.000	-0.010	0.208
-627.478	-200.000	-0.032	-0.194
-626.463	-16.335	-0.259	-0.165
-625.449	-138.114	0.091	-0.010
-624.434	-96.208	-0.221	0.059
-623.419	725.805	-0.031	0.083
-622.405	-113.519	0.393	-0.077
-621.390	-45.914	-0.158	-0.078
-620.376	-56.655	0.145	-0.064
-619.361	-78.488	0.122	0.042
-618.346	221.466	-0.031	-0.050
-617.332	-200.000	-0.002	-0.195
-616.317	40.256	-0.165	0.149
-615.303	-54.396	-0.463	-0.210
-614.288	-131.061	-0.269	-0.036
-613.273	-200.000	0.018	-0.157
-612.259	380.521	0.118	-0.242
-611.244	800.000	-0.053	-0.156
-610.230	717.957	0.136	0.362
-609.215	315.793	0.124	-0.235
-608.201	-78.370	0.356	0.122
-607.186	-200.000	-0.006	0.172
-606.171	-200.000	0.034	0.157
-605.157	-25.433	-0.256	0.152
-604.142	-156.371	0.035	0.002
-603.128	800.000	-0.100	-0.393
-602.113	39.660	-0.419	-0.376
-601.098	21.660	-0.065	0.053
-600.084	-4.978	0.075	0.052
-599.069	-112.645	0.118	0.023
-598.055	-7.374	0.212	0.143
-597.040	95.756	0.080	-0.091
-596.025	800.000	0.119	0.358
-595.011	-200.000	-0.007	0.152
-593.996	-109.381	0.250	0.053
-592.982	16.378	-0.235	0.186
-591.967	362.611	-0.202	0.406
-590.952	-40.720	-0.230	-0.119
-589.938	800.000	-0.034	0.140
-588.923	800.000	0.085	-0.335
-587.909	800.000	0.050	-0.204
-586.894	-14.801	0.250	0.161
-585.879	-124.913	-0.426	0.066
-584.865	-105.894	0.032	-0.007
-583.850	-59.415	-0.048	0.021
-582.836	22.398	0.196	0.161
-581.821	150.547	-0.121	0.165
-580.806	-185.219	-0.181	-0.003
-579.792	-100.992	-0.216	-0.053
-578.777	-200.000	-0.014	0.077
-577.763	-116.725	0.199	-0.037
-576.748	-200.000	0.025	0.235
-575.733	800.000	-0.048	0.161
-574.719	5.465	-0.181	-0.134
-573.704	-200.000	-0.031	0.199
-572.690	7.014	-0.127	0.095
-571.675	-200.000	-0.000	0.531
-570.661	435.212	-0.145	0.315
-569.646	-200.000	0.001	-0.083
-568.631	160.605	0.078	-0.108
-567.617	208.056	-0.090	-0.141
-566.602	16.157	0.329	0.259
-565.588	-200.000	0.006	0.193
-564.573	59.382	0.082	0.081
-563.558	-28.670	-0.163	-0.094
-562.544	-105.366	-0.241	-0.055
-561.529	-143.169	0.164	-0.016
-560.515	-200.000	0.013	0.272
-559.500	-44.278	-0.065	-0.032
-558.485	-99.649	0.319	0.080
-557.471	-17.730	0.210	0.132
-556.456	-13.940	0.141	0.091
-555.442	636.234	-0.118	0.300
-554.427	716.723	0.040	0.107
-553.412	-62.870	-0.178	-0.073
-552.398	177.984	0.147	-0.215
-551.383	-100.322	-0.132	0.033
-550.369	134.701	0.124	0.161
-549.354	-56.450	0.082	0.036
-548.339	-200.000	-0.025	-0.301
-547.325	174.557	0.030	-0.043
-546.310	96.832	-0.175	-0.200
-545.296	-146.607	0.194	-0.017
-544.281	180.314	0.018	0.027
-543.266	206.375	0.046	-0.072
-542.252	177.087	-0.186	-0.271
-541.237	127.264	0.113	-0.144
-540.223	-200.000	-0.008	0.042
-539.208	-200.000	-0.023	0.247
-538.193	495.202	0.059	0.135
-537.179	800.000	0.063	-0.200
-536.164	4.277	0.416	0.304
-535.150	-53.261	0.049	0.022
-534.135	-200.000	-0.018	0.194
-533.121	397.204	-0.035	-0.072
-532.106	57.226	0.151	-0.147
-531.091	-92.142	0.175	-0.049
-530.077	87.399	-0.221	-0.244
-529.062	-63.413	0.472	-0.194
-528.048	-200.000	-0.018	0.112
-527.033	59.730	-0.129	-0.127
-526.018	-200.000	-0.021	-0.094
-525.004	24.631	-0.189	-0.156
-523.989	78.616	0.222	-0.237
-522.975	43.789	0.121	0.110
-521.960	187.104	0.234	-0.348
-520.945	-1.016	-0.193	-0.136
-519.931	229.119	-0.164	0.267
-518.916	-153.971	-0.066	-0.004
-517.902	-128.403	0.203	0.029
-516.887	-45.148	0.093	-0.046
-515.872	151.877	0.093	-0.127
-514.858	-142.181	0.144	0.014
-513.843	-8.839	0.053	0.036
-512.829	-110.209	-0.079	-0.016
-511.814	-95.472	-0.115	-0.031
-510.799	-9.722	-0.194	-0.129
-509.785	-104.112	0.434	0.101
-508.770	-200.000	0.046	0.205
-507.756	-11.642	-0.063	-0.041
-506.741	33.629	-0.111	0.096
-505.726	-124.020	-0.055	0.009
-504.712	-65.819	-0.089	0.036
-503.697	10.471	-0.167	-0.127
-502.683	55.671	-0.145	-0.140
-501.668	47.844	0.205	-0.191
-500.653	174.105	0.104	-0.150
-499.639	-200.000	-0.065	-0.289
-498.624	116.378	-0.216	-0.263
-497.610	147.307	0.154	-0.207
-496.595	180.364	0.182	0.267
-495.581	800.000	-0.058	0.227
-494.566	800.000	-0.050	-0.198
-493.551	800.000	-0.083	0.239
-492.537	131.979	0.109	0.139
-491.522	-39.544	0.294	-0.153
-490.508	-147.229	0.497	-0.042
-489.493	-72.882	-0.169	0.062
-488.478	91.739	-0.122	-0.136
-487.464	88.037	0.042	-0.046
-486.449	26.272	-0.277	-0.231
-485.435	-200.000	0.020	-0.248
-484.420	137.635	0.118	0.154
-483.405	686.478	-0.064	0.167
-482.391	24.078	-0.055	-0.045
-481.376	69.217	-0.145	0.149
-480.362	800.000	0.045	0.126
-479.347	155.840	-0.200	-0.274
-478.332	79.534	0.201	0.214
-477.318	-200.000	-0.008	-0.412
-476.303	433.756	-0.036	0.077
-475.289	578.152	0.084	-0.206
-474.274	355.707	-0.066	0.131
-473.259	-111.411	-0.055	-0.011
-472.245	-74.798	-0.251	0.090
-471.230	800.000	0.103	0.303
-470.216	47.763	-0.335	0.311
-469.201	-81.960	-0.428	0.139
-468.186	800.000	0.066	0.206
-467.172	524.699	0.101	0.236
-466.157	-200.000	-0.016	0.070
-465.143	78.969	-0.219	-0.233
-464.128	-11.990	-0.128	0.083
-463.113	404.943	0.106	-0.222
-462.099	-160.425	-0.139	0.007
-461.084	39.359	-0.178	0.158
-460.070	-200.000	0.018	0.174
-459.055	-77.663	0.108	-0.037
-458.040	-17.144	-0.195	-0.122
-457.026	-200.000	0.019	0.170
-456.011	-93.707	0.263	-0.072
-454.997	-89.429	-0.341	-0.100
-453.982	800.000	0.062	0.257
-452.968	-111.873	0.157	-0.031
-451.953	17.570	0.056	0.044
-450.938	635.854	-0.057	0.145
-449.924	800.000	-0.096	0.353
-448.909	96.102	-0.074	-0.085
-447.895	800.000	-0.062	-0.175
-446.880	-105.104	-0.338	-0.077
-445.865	-133.459	0.146	-0.018
-444.851	655.222	0.087	-0.223
-443.836	-200.000	-0.030	0.321
-442.822	252.046	0.226	0.383
-441.807	139.764	0.015	0.020
-440.792	260.731	-0.084	-0.144
-439.778	110.926	0.147	-0.176
-438.763	302.682	0.166	0.305
-437.749	800.000	-0.035	0.149
-436.734	-81.997	0.227	-0.074
-435.719	-9.365	-0.184	0.122
-434.705	-41.458	0.336	0.172
-433.690	-17.421	-0.169	-0.106
-432.676	442.265	-0.099	-0.214
-431.661	274.112	0.124	0.218
-430.646	-124.295	-0.146	0.023
-429.632	-92.328	-0.173	-0.048
-428.617	-46.990	-0.160	-0.078
-427.603	-7.288	0.183	-0.123
-426.588	-44.310	0.136	-0.068
-425.573	257.188	0.043	-0.073
-424.559	-23.997	0.342	0.203
-423.544	112.509	-0.291	-0.350
-422.530	85.935	-0.242	0.264
-421.515	800.000	-0.017	0.058
-420.500	800.000	-0.036	-0.124
-419.486	291.060	0.128	-0.231
-418.471	-130.468	-0.261	0.035
-417.457	24.220	0.121	-0.099
-416.442	-15.330	0.220	0.140
-415.428	-200.000	-0.031	0.244
-414.413	800.000	0.037	0.112
-413.398	800.000	0.091	-0.328
-412.384	-86.717	0.097	-0.030
-411.369	220.541	-0.084	0.134
-410.355	-41.842	0.244	0.124
-409.340	-49.263	-0.395	0.187
-408.325	-124.882	0.142	0.022
-407.311	-200.000	0.012	0.192
-406.296	458.729	0.060	0.132
-405.282	37.577	-0.107	-0.094
-404.267	329.563	0.081	-0.155
-403.252	800.000	0.119	-0.347
-402.238	-50.274	0.123	0.058
-401.223	19.982	0.055	0.044
-400.209	-200.000	0.013	0.086
-399.194	326.520	0.080	-0.152
-398.179	82.940	-0.324	0.350
-397.165	-4.347	0.093	-0.064
-396.150	800.000	0.059	0.165
-395.136	-40.564	0.259	0.133
-394.121	44.291	0.250	-0.227
-393.106	800.000	0.107	0.312
-392.092	-179.959	-0.372	0.008
-391.077	-14.830	0.296	-0.188
-390.063	-96.573	0.072	0.019
-389.048	115.643	-0.277	0.336
-388.033	-95.283	-0.368	-0.098
-387.019	55.894	0.199	-0.191
-386.004	-200.000	-0.005	-0.140
-384.990	712.044	-0.066	0.172
-383.975	247.709	-0.173	-0.290
-382.960	609.741	0.065	-0.160
-381.946	-54.552	-0.153	0.069
-380.931	800.000	-0.061	0.259
-379.917	-72.706	0.180	0.066
-378.902	292.538	-0.064	0.116
-377.888	93.826	-0.206	-0.232
-376.873	88.782	-0.039	0.044
-375.858	-54.416	0.231	0.104
-374.844	-2.004	0.135	0.094
-373.829	-34.960	0.396	-0.214
-372.815	-161.683	0.170	0.009
-371.800	-186.601	-0.190	-0.003
-370.785	321.219	-0.055	0.103
-369.771	-200.000	-0.078	0.410
-368.756	226.361	-0.244	0.392
-367.742	176.201	0.133	0.192
-366.727	4.782	-0.173	-0.126
-365.712	458.061	0.090	0.197
-364.698	45.367	0.286	-0.262
-363.683	-77.401	0.161	0.055
-362.669	4.229	0.148	0.107
-361.654	-4.514	-0.087	-0.060
-360.639	-123.105	-0.371	-0.059
-359.625	-37.027	0.008	-0.004
-358.610	380.854	-0.124	-0.252
-357.596	-72.577	-0.324	0.119
-356.581	56.601	-0.065	0.063
-355.566	-76.869	-0.133	-0.046
-354.552	-108.016	0.213	0.046
-353.537	-200.000	0.011	0.196
-352.523	15.947	-0.222	-0.173
-351.508	-98.426	-0.405	0.103
-350.493	-62.028	0.095	-0.039
-349.479	81.660	0.093	-0.100
-348.464	125.012	0.198	0.247
-347.450	-151.617	-0.136	0.010
-346.435	-35.499	0.121	-0.065
-345.420	-200.000	-0.058	0.424
-344.406	-126.953	-0.254	-0.037
-343.391	338.834	-0.123	0.237
-342.377	204.082	0.070	0.108
-341.362	-29.332	0.052	-0.030
-340.348	-164.717	-0.343	-0.015
-339.333	-2.746	-0.408	0.283
-338.318	800.000	0.062	-0.231
-337.304	-38.744	-0.155	0.081
-336.289	260.044	-0.141	-0.241
-335.275	-64.779	-0.390	-0.157
-334.260	242.361	0.090	0.149
-333.245	170.288	0.184	0.261
-332.231	-71.747	0.225	0.083
-331.216	-166.419	0.232	-0.010
-330.202	-200.000	0.010	0.366
-329.187	-91.196	-0.234	-0.066
-328.172	-74.531	0.176	-0.063
-327.158	-94.100	-0.233	-0.063
-326.143	108.114	0.219	-0.258
-325.129	378.825	-0.156	0.315
-324.114	79.701	-0.150	0.160
-323.099	-139.786	-0.211	-0.022
-322.085	325.374	0.114	0.215
-321.070	-62.231	-0.292	0.120
-320.056	-113.685	0.240	-0.046
-319.041	-186.828	0.075	-0.001
-318.026	-110.719	-0.301	-0.062
-317.012	-93.706	-0.133	-0.036
-315.997	172.340	0.065	-0.093
-314.983	36.034	-0.140	0.122
-313.968	-133.123	0.357	0.045
-312.953	356.602	0.090	0.176
-311.939	-200.000	-0.058	-0.319
-310.924	-127.347	0.161	-0.023
-309.910	-146.530	0.057	0.005
-308.895	9.055	0.230	-0.172
-307.880	-200.000	-0.049	-0.254
-306.866	-80.449	-0.228	0.075
-305.851	-38.297	0.166	0.087
-304.837	-200.000	-0.014	-0.146
-303.822	760.461	0.102	0.273
-302.807	30.509	0.119	-0.101
-301.793	800.000	-0.045	0.177
-300.778	-12.411	-0.242	-0.157
-299.764	-185.058	0.336	-0.005
-298.749	16.523	-0.247	-0.193
-297.735	-28.460	-0.331	0.188
-296.720	-102.590	0.158	-0.037
-295.705	-134.334	0.341	0.041
-294.691	-77.909	0.118	0.040
-293.676	-200.000	0.039	0.369
-292.662	-200.000	0.014	0.263
-291.647	-107.480	0.291	0.063
-290.632	733.374	0.057	-0.150
-289.618	-165.650	-0.243	-0.010
-288.603	-155.046	0.133	-0.009
-287.589	145.749	-0.273	-0.362
-286.574	-130.086	-0.107	-0.014
-285.559	-165.262	-0.402	0.018
-284.545	17.964	0.099	-0.078
-283.530	618.226	-0.187	-0.465
-282.516	800.000	0.030	-0.093
-281.501	-3.125	0.172	-0.118
-280.486	-174.878	-0.150	0.004
-279.472	537.139	0.133	-0.312
-278.457	40.941	0.109	-0.098
-277.443	-200.000	-0.016	0.302
-276.428	680.535	0.144	0.370
-275.413	-39.335	0.163	0.085
-274.399	1.781	0.238	-0.169
-273.384	210.219	0.111	-0.173
-272.370	175.213	-0.085	-0.122
-271.355	-200.000	-0.029	-0.139
-270.340	-41.203	0.066	0.034
-269.326	61.119	-0.281	-0.275
-268.311	88.042	-0.167	-0.183
-267.297	800.000	-0.056	-0.215
-266.282	-180.485	0.167	0.003
-265.267	-111.214	0.106	0.021
-264.253	-80.746	0.330	0.108
-263.238	-200.000	0.054	-0.250
-262.224	800.000	0.037	0.159
-261.209	44.596	0.200	0.182
-260.195	46.696	0.096	0.088
-259.180	-128.560	-0.091	-0.013
-258.165	800.000	-0.032	-0.123
-257.151	-9.824	0.260	0.171
-256.136	-20.859	0.086	-0.052
-255.122	629.802	-0.082	0.204
-254.107	800.000	-0.050	0.154
-253.092	12.099	0.142	-0.108
-252.078	-200.000	0.054	0.250
-251.063	-140.452	-0.119	-0.012
-250.049	-154.477	-0.513	-0.034
-249.034	-40.888	-0.094	0.048
-248.019	505.767	-0.099	-0.225
-247.005	-4.407	0.190	0.129
-245.990	-153.759	0.178	0.012
-244.976	142.011	-0.189	0.248
-243.961	-200.000	0.079	-0.424
-242.946	-68.737	-0.088	0.033
-241.932	255.422	0.124	0.209
-240.917	215.858	0.061	-0.095
-239.903	-104.694	0.186	-0.042
-238.888	800.000	0.049	0.208
-237.873	456.250	-0.131	-0.288
-236.859	800.000	-0.055	-0.226
-235.844	-200.000	0.002	-0.299
-234.830	11.199	0.105	0.079
-233.815	28.664	-0.355	-0.296
-232.800	294.421	-0.061	-0.110
-231.786	800.000	-0.033	0.134
-230.771	627.818	-0.082	0.205
-229.757	-38.989	0.196	0.102
-228.742	800.000	-0.056	-0.170
-227.727	800.000	-0.092	-0.344
-226.713	622.391	-0.020	0.050
-225.698	-111.963	-0.080	0.016
-224.684	-109.146	-0.191	-0.040
-223.669	183.902	-0.146	0.212
-222.655	33.834	-0.336	-0.288
-221.640	-200.000	-0.064	0.315
-220.625	-144.124	0.013	-0.001
-219.611	-76.007	0.207	0.072
-218.596	-87.845	-0.220	-0.065
-217.582	-104.098	0.376	0.086
-216.567	-154.580	-0.199	0.013
-215.552	-153.295	0.188	-0.013
-214.538	-200.000	0.019	-0.216
-213.523	800.000	-0.049	-0.147
-212.509	432.265	0.134	-0.286
-211.494	-200.000	-0.003	-0.264
-210.479	-200.000	0.028	-0.128
-209.465	286.067	-0.107	-0.191
-208.450	-182.774	-0.150	0.003
-207.436	9.629	0.364	-0.272
-206.421	-200.000	0.001	-0.228
-205.406	-49.432	0.254	0.119
-204.392	98.942	-0.187	0.213
-203.377	357.734	-0.142	0.279
-202.363	-76.773	-0.234	-0.081
-201.348	-137.802	-0.242	-0.027
-200.333	-163.568	-0.028	0.001
-199.319	-200.000	0.085	0.000
-198.304	-58.743	-0.247	-0.105
-197.290	800.000	0.046	0.127
-196.275	-59.384	-0.210	0.089
-195.260	800.000	0.103	-0.289
-194.246	-76.199	0.232	-0.081
-193.231	-53.393	0.101	0.046
-192.217	144.541	-0.102	0.134
-191.202	800.000	0.090	0.245
-190.187	232.497	0.129	0.209
-189.173	23.494	-0.039	0.031
-188.158	-200.000	-0.067	-0.302
-187.144	-11.338	0.180	0.117
-186.129	-200.000	0.022	0.175
-185.114	-184.537	-0.186	-0.003
-184.100	610.259	0.041	-0.100
-183.085	-45.701	-0.309	0.151
-182.071	-200.000	-0.000	0.072
-181.056	-94.281	0.084	-0.023
-180.042	515.481	0.066	-0.151
-179.027	384.326	0.074	-0.150
-178.012	-138.656	-0.138	0.015
-176.998	55.281	0.103	0.098
-175.983	-200.000	-0.004	0.047
-174.969	-200.000	0.041	0.189
-173.954	-62.392	0.180	0.074
-172.939	-98.640	-0.235	-0.059
-171.925	258.773	0.077	-0.131
-170.910	-119.928	0.350	-0.059
-169.896	-91.636	0.175	-0.049
-168.881	-200.000	0.138	0.641
-167.866	-192.366	0.338	-0.003
-166.852	800.000	0.048	-0.151
-165.837	83.737	0.278	-0.298
-164.823	-67.340	-0.093	0.036
-163.808	35.971	-0.270	0.234
-162.793	-200.000	0.331	0.000
-161.779	800.000	0.011	0.044
-160.764	-60.912	-0.203	0.084
-159.750	-200.000	-0.116	-0.000
-158.735	117.881	-0.117	-0.142
-157.720	-200.000	-0.032	-0.282
-156.706	-87.352	0.197	-0.059
-155.691	-26.330	0.401	-0.231
-154.677	-200.000	-0.006	0.055
-153.662	800.000	0.097	0.274
-152.647	-30.131	-0.134	-0.075
-151.633	-7.622	0.080	0.053
-150.618	42.103	0.110	-0.098
-149.604	800.000	0.071	0.219
-148.589	260.259	-0.083	-0.141
-147.574	-3.119	-0.214	-0.147
-146.560	-200.000	0.036	-0.218
-145.545	-7.604	0.347	0.230
-144.531	446.335	-0.027	0.059
-143.516	-141.296	-0.257	0.026
-142.502	-177.441	-0.400	-0.010
-141.487	85.353	-0.112	0.121
-140.472	-130.339	0.175	0.023
-139.458	-200.000	0.037	-0.322
-138.443	-120.727	0.267	-0.044
-137.429	-94.118	-0.252	0.068
-136.414	-24.470	0.382	0.223
-135.399	5.685	0.142	0.103
-134.385	-131.373	0.148	-0.019
-133.370	-91.414	0.227	0.064
-132.356	571.417	-0.067	0.161
-131.341	131.342	0.201	-0.254
-130.326	239.544	0.107	-0.175
-129.312	307.271	0.068	0.124
-128.297	-93.923	-0.174	0.047
-127.283	413.929	-0.133	-0.279
-126.268	-200.000	0.019	0.317
-125.253	28.867	-0.024	0.020
-124.239	310.898	-0.093	-0.170
-123.224	-176.601	-0.024	-0.001
-122.210	-126.745	0.084	-0.012
-121.195	-200.000	0.019	0.126
-120.180	-200.000	0.081	0.471
