DTS Sentinel unit serial number:	SN413079Multiplexer serial number:	ORYXHardware model number:	OX4-SRSoftware version number:	ORYX F/W v4.00 Oryx Data Collector v3.7.2.0data status	okinstallation	princeton_trtdifferential loss correction	single-endedforward channel	channel 1reverse channel	N/Adate	2019/09/18time	14:18:35forward acquisition time	60.00reverse acquisition time	0.00gamma	496.2192k internal	0.2313k external	0.2313temperature offset calibration	0.9988default loss term (dB/km)	0.3790temperature slope calibration	1.0000multiplexer offset coefficient	1.0000multiplexer slope coefficient	1.0000fibre end	0.00T internal ref (°C)	34.31T ext. ref 1 (°C)	0.69T ext. ref 2 (°C)	29.38length (m)	temperature (°C)	Stokes	anti-Stokes-747.200	-118.830	0.312	0.056
-746.185	800.000	-0.163	0.529
-745.171	356.118	-0.078	0.157
-744.156	-166.219	-0.234	0.010
-743.142	800.000	-0.047	0.166
-742.127	800.000	0.064	0.284
-741.112	-18.283	-0.055	0.035
-740.098	111.075	-0.033	-0.041
-739.083	-200.000	-0.011	-0.249
-738.069	-51.645	0.162	-0.076
-737.054	-200.000	-0.013	-0.301
-736.039	-14.383	-0.225	0.147
-735.025	800.000	-0.107	0.445
-734.010	-88.594	-0.061	0.018
-732.996	-89.267	-0.182	-0.054
-731.981	221.095	-0.184	0.299
-730.966	-56.513	-0.208	-0.094
-729.952	-200.000	0.001	0.027
-728.937	-67.451	0.067	-0.027
-727.923	-53.228	0.167	0.078
-726.908	800.000	-0.056	-0.170
-725.894	800.000	0.042	-0.186
-724.879	27.259	-0.316	0.269
-723.864	181.884	-0.063	0.094
-722.850	-200.000	0.005	-0.102
-721.835	265.927	0.067	-0.118
-720.821	-119.435	0.117	0.021
-719.806	93.355	0.029	0.033
-718.791	-200.000	0.084	-0.389
-717.777	-182.131	-0.286	0.005
-716.762	71.161	0.151	0.159
-715.748	30.296	0.111	0.096
-714.733	-200.000	-0.035	0.166
-713.718	239.567	0.108	-0.182
-712.704	263.920	0.188	-0.331
-711.689	-172.487	0.331	0.011
-710.675	-11.427	0.160	-0.106
-709.660	-0.725	-0.273	0.196
-708.645	259.016	0.200	-0.350
-707.631	125.121	0.140	0.179
-706.616	-200.000	-0.004	0.091
-705.602	385.010	0.086	-0.180
-704.587	1.650	-0.272	-0.198
-703.572	-24.887	0.307	0.184
-702.558	245.007	-0.074	-0.127
-701.543	-43.080	-0.072	-0.037
-700.529	314.268	-0.086	0.165
-699.514	134.977	0.235	0.309
-698.499	475.597	0.076	0.173
-697.485	11.404	-0.307	-0.238
-696.470	301.284	-0.164	0.307
-695.456	-121.192	0.113	-0.019
-694.441	-46.649	-0.280	0.139
-693.426	11.624	-0.257	0.200
-692.412	-200.000	-0.012	-0.085
-691.397	800.000	-0.124	-0.428
-690.383	-34.139	0.108	-0.060
-689.368	-1.332	-0.369	0.263
-688.354	800.000	-0.013	-0.045
-687.339	-200.000	-0.026	0.191
-686.324	-139.304	0.275	0.030
-685.310	-142.166	-0.144	-0.014
-684.295	-104.772	-0.400	-0.093
-683.281	94.628	0.115	0.132
-682.266	-181.357	0.095	0.002
-681.251	196.539	0.369	0.569
-680.237	-115.471	-0.196	-0.037
-679.222	697.735	0.087	0.231
-678.208	-200.000	0.022	0.287
-677.193	-159.234	0.367	0.021
-676.178	-54.153	-0.202	-0.093
-675.164	756.737	-0.043	-0.118
-674.149	76.423	0.203	-0.217
-673.135	216.210	-0.126	-0.203
-672.120	9.742	0.205	0.158
-671.105	-170.456	-0.300	-0.011
-670.091	203.408	0.259	0.405
-669.076	234.967	0.198	-0.331
-668.062	33.986	-0.203	-0.179
-667.047	679.360	-0.054	-0.142
-666.032	-5.756	0.116	0.080
-665.018	284.477	0.177	0.323
-664.003	-117.062	-0.152	0.028
-662.989	-66.096	-0.349	-0.141
-661.974	22.675	-0.074	-0.061
-660.959	-200.000	-0.012	-0.196
-659.945	-69.848	0.278	-0.107
-658.930	-197.914	0.286	0.002
-657.916	-200.000	0.018	-0.196
-656.901	346.770	-0.154	-0.306
-655.886	-120.708	0.458	0.078
-654.872	-200.000	0.001	-0.105
-653.857	-98.048	-0.188	0.049
-652.843	-65.736	0.309	-0.125
-651.828	466.992	-0.272	0.615
-650.814	-118.443	0.258	0.046
-649.799	-35.701	-0.296	0.162
-648.784	-44.138	-0.256	-0.130
-647.770	12.732	0.135	-0.105
-646.755	-173.464	0.071	0.002
-645.741	387.013	-0.112	-0.233
-644.726	299.549	-0.126	0.234
-643.711	283.039	0.188	0.341
-642.697	800.000	-0.081	-0.251
-641.682	120.804	-0.256	0.321
-640.668	192.044	-0.037	0.056
-639.653	-154.352	-0.202	-0.014
-638.638	11.561	0.078	-0.060
-637.624	110.098	0.198	-0.240
-636.609	-51.217	0.287	-0.136
-635.595	-200.000	-0.051	-0.301
-634.580	11.914	-0.152	0.118
-633.565	-98.994	-0.202	0.052
-632.551	594.956	-0.025	0.061
-631.536	800.000	-0.061	-0.229
-630.522	445.887	0.016	0.036
-629.507	800.000	0.084	-0.288
-628.492	-200.000	-0.001	-0.021
-627.478	13.790	0.092	-0.072
-626.463	-200.000	-0.002	-0.071
-625.449	-200.000	-0.002	-0.196
-624.434	291.584	-0.198	-0.364
-623.419	-64.350	0.143	-0.059
-622.405	106.465	0.183	-0.219
-621.390	183.954	0.041	-0.061
-620.376	-175.715	0.297	-0.008
-619.361	107.465	0.047	-0.056
-618.346	-200.000	-0.035	0.206
-617.332	-120.968	0.229	-0.039
-616.317	256.239	-0.131	-0.227
-615.303	-200.000	0.015	-0.086
-614.288	12.931	-0.208	0.162
-613.273	30.283	-0.219	0.189
-612.259	-200.000	0.007	0.094
-611.244	19.882	0.136	0.111
-610.230	417.940	0.068	0.147
-609.215	-90.492	-0.218	-0.064
-608.201	-200.000	-0.028	-0.183
-607.186	-15.912	-0.342	-0.220
-606.171	-200.000	-0.052	0.295
-605.157	-200.000	0.038	-0.185
-604.142	-123.185	0.355	-0.057
-603.128	506.964	-0.116	-0.272
-602.113	-200.000	0.013	0.204
-601.098	256.573	0.096	-0.166
-600.084	-46.586	0.107	-0.053
-599.069	-171.870	0.141	-0.005
-598.055	-200.000	-0.079	-0.412
-597.040	-200.000	0.045	-0.247
-596.025	-95.594	-0.380	-0.103
-595.011	800.000	0.065	0.254
-593.996	56.278	0.175	0.171
-592.982	-136.842	0.333	-0.039
-591.967	72.830	0.145	-0.153
-590.952	388.818	0.043	-0.089
-589.938	-149.817	0.132	-0.010
-588.923	-41.295	0.142	-0.074
-587.909	-27.374	-0.232	0.136
-586.894	32.263	0.246	0.214
-585.879	800.000	-0.084	-0.258
-584.865	19.959	-0.268	-0.217
-583.850	-124.421	-0.302	-0.047
-582.836	-49.180	0.162	0.078
-581.821	-161.337	0.118	0.006
-580.806	800.000	0.062	-0.248
-579.792	-4.309	-0.272	-0.190
-578.777	-100.679	-0.468	0.116
-577.763	800.000	-0.087	0.314
-576.748	533.056	0.131	-0.312
-575.733	-125.263	0.192	-0.030
-574.719	367.201	-0.106	0.216
-573.704	128.269	-0.071	0.092
-572.690	-200.000	0.023	0.155
-571.675	800.000	0.035	0.149
-570.661	589.118	-0.109	0.270
-569.646	485.270	0.099	-0.228
-568.631	209.733	-0.123	0.194
-567.617	50.241	0.043	-0.041
-566.602	-54.665	0.161	-0.073
-565.588	800.000	0.040	-0.135
-564.573	601.727	-0.197	-0.494
-563.558	696.653	0.114	0.301
-562.544	575.275	-0.053	-0.131
-561.529	425.092	0.131	-0.284
-560.515	-68.059	-0.184	0.072
-559.500	217.276	0.019	0.031
-558.485	-200.000	0.049	0.379
-557.471	-37.516	0.092	0.049
-556.456	100.370	0.304	-0.356
-555.442	-156.818	0.199	-0.012
-554.427	1.836	0.070	0.051
-553.412	11.521	-0.193	-0.149
-552.398	-32.022	0.199	-0.112
-551.383	-200.000	0.040	0.390
-550.369	8.154	0.214	-0.162
-549.354	372.732	0.130	-0.267
-548.339	-92.228	0.189	-0.054
-547.325	800.000	-0.069	0.213
-546.310	-17.279	0.209	-0.133
-545.296	64.879	-0.099	-0.100
-544.281	-200.000	0.049	-0.240
-543.266	-89.818	-0.355	-0.105
-542.252	57.399	-0.283	-0.278
-541.237	121.507	0.075	0.094
-540.223	-200.000	0.016	0.182
-539.208	-200.000	-0.005	0.129
-538.193	-89.056	0.312	-0.093
-537.179	37.719	0.198	-0.177
-536.164	716.339	0.015	0.041
-535.150	20.161	0.341	0.277
-534.135	-200.000	0.028	-0.357
-533.121	-73.292	-0.106	-0.039
-532.106	143.317	-0.034	0.046
-531.091	-148.896	-0.249	-0.020
-530.077	-83.947	-0.201	-0.064
-529.062	-139.179	-0.430	-0.047
-528.048	333.412	0.130	0.253
-527.033	-200.000	-0.003	-0.162
-526.018	-3.001	-0.042	-0.029
-525.004	-200.000	0.009	-0.102
-523.989	53.541	-0.158	0.152
-522.975	217.426	-0.125	0.200
-521.960	34.713	-0.169	0.148
-520.945	800.000	-0.044	0.183
-519.931	800.000	0.063	0.263
-518.916	-200.000	-0.011	0.196
-517.902	157.266	-0.025	-0.034
-516.887	-200.000	-0.019	0.307
-515.872	94.523	-0.147	0.169
-514.858	800.000	0.020	-0.068
-513.843	-200.000	0.021	0.096
-512.829	-84.152	0.135	0.043
-511.814	-51.933	0.270	-0.126
-510.799	800.000	0.028	-0.106
-509.785	2.242	0.176	-0.128
-508.770	797.105	-0.067	0.186
-507.756	498.459	-0.071	-0.164
-506.741	-92.766	0.286	-0.080
-505.726	-167.561	0.238	-0.010
-504.712	-68.958	-0.358	-0.139
-503.697	6.951	0.452	-0.338
-502.683	479.975	-0.054	-0.123
-501.668	-124.148	-0.024	0.004
-500.653	2.476	0.143	0.104
-499.639	-119.443	-0.296	0.052
-498.624	401.460	0.155	-0.326
-497.610	6.355	0.303	-0.226
-496.595	-200.000	0.042	-0.220
-495.581	-94.621	-0.119	-0.032
-494.566	-6.881	-0.254	-0.174
-493.551	-82.734	0.237	-0.077
-492.537	12.772	0.170	0.132
-491.522	800.000	-0.068	0.233
-490.508	-162.691	0.215	-0.011
-489.493	78.129	-0.057	-0.061
-488.478	-121.291	0.111	-0.019
-487.464	62.850	0.100	-0.101
-486.449	58.012	0.195	0.192
-485.435	-200.000	0.032	-0.222
-484.420	-147.700	-0.043	-0.004
-483.405	-177.926	-0.330	-0.008
-482.391	669.767	0.013	-0.034
-481.376	-29.745	-0.212	-0.122
-480.362	-147.093	-0.096	0.008
-479.347	44.175	0.038	0.035
-478.332	-200.000	0.053	0.298
-477.318	171.149	-0.150	-0.215
-476.303	-42.201	0.164	0.084
-475.289	-58.593	0.331	0.144
-474.274	29.180	-0.119	0.102
-473.259	179.039	-0.293	0.430
-472.245	-90.901	-0.276	0.080
-471.230	10.556	0.162	-0.124
-470.216	800.000	0.091	-0.253
-469.201	470.227	0.043	0.098
-468.186	156.607	-0.205	0.284
-467.172	30.576	-0.077	-0.066
-466.157	523.858	0.067	0.158
-465.143	10.522	-0.242	-0.185
-464.128	641.583	0.106	-0.270
-463.113	-84.729	0.267	0.084
-462.099	9.980	0.035	0.027
-461.084	-88.755	0.115	-0.034
-460.070	280.697	0.057	0.103
-459.055	-102.344	0.325	0.078
-458.040	800.000	-0.082	-0.232
-457.026	37.682	0.279	-0.248
-456.011	268.334	0.111	0.195
-454.997	-59.338	0.211	0.091
-453.982	6.916	-0.053	0.039
-452.968	-200.000	-0.006	-0.119
-451.953	26.757	0.197	0.165
-450.938	-200.000	0.036	-0.179
-449.924	338.491	-0.127	-0.248
-448.909	78.553	0.134	0.143
-447.895	-81.672	-0.207	-0.068
-446.880	385.061	0.079	0.163
-445.865	800.000	0.044	-0.133
-444.851	-42.962	-0.070	0.036
-443.836	-166.116	0.301	-0.013
-442.822	265.342	0.023	0.040
-441.807	-47.845	-0.349	-0.169
-440.792	-200.000	-0.011	-0.377
-439.778	800.000	-0.051	-0.195
-438.763	-200.000	-0.016	-0.205
-437.749	800.000	0.075	-0.238
-436.734	-200.000	0.005	0.175
-435.719	-200.000	-0.045	0.332
-434.705	147.140	-0.049	0.066
-433.690	800.000	0.007	0.021
-432.676	-200.000	0.020	-0.302
-431.661	-84.159	-0.223	0.071
-430.646	-64.056	0.326	0.133
-429.632	800.000	0.117	-0.400
-428.617	-180.019	-0.221	0.005
-427.603	490.410	0.084	-0.194
-426.588	282.888	0.108	0.195
-425.573	22.048	0.027	-0.022
-424.559	-15.502	-0.197	0.126
-423.544	800.000	-0.031	0.127
-422.530	-200.000	-0.048	-0.444
-421.515	-200.000	-0.066	0.477
-420.500	-71.158	0.156	0.059
-419.486	14.883	0.296	-0.232
-418.471	-200.000	0.020	-0.233
-417.457	-200.000	-0.083	-0.578
-416.442	-126.375	-0.098	0.015
-415.428	800.000	-0.059	0.245
-414.413	-133.282	0.161	-0.020
-413.398	58.998	-0.180	-0.178
-412.384	-200.000	-0.015	0.311
-411.369	800.000	-0.008	-0.025
-410.355	-34.254	0.342	0.188
-409.340	72.412	0.139	-0.145
-408.325	457.891	-0.118	-0.263
-407.311	-169.908	0.160	0.006
-406.296	-63.179	-0.322	0.133
-405.282	800.000	-0.048	0.159
-404.267	128.122	0.142	0.181
-403.252	800.000	-0.025	0.096
-402.238	798.984	0.052	-0.143
-401.223	116.526	0.094	-0.115
-400.209	-28.400	0.052	0.030
-399.194	-113.384	0.198	0.039
-398.179	-17.444	-0.306	-0.193
-397.165	-106.196	-0.103	0.023
-396.150	-78.816	-0.257	-0.088
-395.136	800.000	-0.128	0.435
-394.121	-24.629	0.105	-0.062
-393.106	14.246	-0.232	0.181
-392.092	-150.013	-0.144	0.011
-391.077	-2.560	-0.026	0.018
-390.063	-200.000	0.036	-0.202
-389.048	-56.240	-0.116	-0.052
-388.033	-46.550	0.291	0.143
-387.019	-92.007	0.314	0.089
-386.004	38.897	0.224	-0.200
-384.990	-54.364	0.077	-0.035
-383.975	-110.203	-0.296	0.062
-382.960	-200.000	0.008	-0.056
-381.946	58.602	0.102	0.100
-380.931	-200.000	-0.029	0.155
-379.917	800.000	0.038	-0.111
-378.902	-163.491	-0.102	0.005
-377.888	800.000	-0.069	0.304
-376.873	-200.000	0.009	0.257
-375.858	-200.000	0.026	0.376
-374.844	326.419	-0.029	-0.056
-373.829	410.474	0.046	-0.098
-372.815	32.500	-0.095	0.082
-371.800	-66.665	-0.358	-0.142
-370.785	402.395	0.055	0.116
-369.771	19.655	0.043	0.034
-368.756	69.356	-0.174	-0.179
-367.742	42.951	-0.083	-0.076
-366.727	-41.309	0.343	0.177
-365.712	-200.000	0.051	0.291
-364.698	482.310	0.113	-0.257
-363.683	-78.549	0.058	0.020
-362.669	-135.253	0.338	0.040
-361.654	-1.068	0.163	0.115
-360.639	-200.000	-0.050	0.285
-359.625	-74.077	-0.074	-0.027
-358.610	-200.000	0.030	0.226
-357.596	-200.000	0.061	-0.314
-356.581	670.361	0.139	-0.358
-355.566	678.832	0.165	0.429
-354.552	800.000	0.051	0.159
-353.537	-63.576	0.212	0.087
-352.523	-165.677	-0.269	-0.012
-351.508	29.996	0.071	0.061
-350.493	-200.000	0.057	-0.282
-349.479	800.000	0.026	0.103
-348.464	112.891	-0.115	0.139
-347.450	599.125	0.098	-0.243
-346.435	-200.000	-0.001	0.017
-345.420	800.000	-0.051	0.179
-344.406	-200.000	0.004	-0.241
-343.391	-200.000	-0.027	-0.130
-342.377	11.495	-0.296	-0.226
-341.362	-200.000	-0.030	0.132
-340.348	218.362	0.047	-0.074
-339.333	-200.000	0.014	0.218
-338.318	72.500	-0.060	-0.063
-337.304	74.525	-0.120	-0.126
-336.289	287.803	-0.127	-0.229
-335.275	81.007	0.038	0.041
-334.260	800.000	-0.058	0.228
-333.245	1.040	0.211	-0.151
-332.231	-200.000	0.055	-0.284
-331.216	137.839	-0.019	-0.025
-330.202	-200.000	-0.098	-0.449
-329.187	-197.230	-0.078	-0.000
-328.172	-159.333	-0.360	0.020
-327.158	320.034	0.050	-0.095
-326.143	32.194	-0.339	0.292
-325.129	800.000	-0.038	-0.138
-324.114	214.110	-0.034	0.054
-323.099	-136.209	-0.267	0.031
-322.085	-167.586	0.106	-0.004
-321.070	-72.613	-0.126	0.047
-320.056	800.000	0.083	0.322
-319.041	-7.191	0.025	-0.017
-318.026	464.939	-0.119	0.265
-317.012	9.451	-0.156	0.118
-315.997	800.000	-0.093	0.322
-314.983	-200.000	0.045	0.228
-313.968	286.877	-0.142	-0.256
-312.953	-63.021	-0.338	0.139
-311.939	-200.000	0.006	-0.412
-310.924	-87.958	-0.283	-0.085
-309.910	-85.733	0.271	-0.084
-308.895	800.000	-0.024	-0.073
-307.880	-74.479	0.362	0.130
-306.866	-2.693	-0.321	0.224
-305.851	-130.265	0.158	-0.021
-304.837	-117.500	0.184	0.033
-303.822	-200.000	-0.020	-0.202
-302.807	-163.225	0.323	-0.015
-301.793	-169.311	0.248	-0.009
-300.778	121.494	0.123	0.153
-299.764	-160.374	0.232	0.012
-298.749	-137.813	0.376	-0.042
-297.735	-10.559	0.030	-0.020
-296.720	-40.090	-0.245	0.127
-295.705	-118.213	0.099	0.018
-294.691	-69.259	-0.206	-0.079
-293.676	62.610	0.284	-0.283
-292.662	-200.000	-0.003	-0.364
-291.647	-165.359	0.155	0.007
-290.632	47.651	-0.183	0.170
-289.618	-73.939	0.051	-0.019
-288.603	-200.000	0.028	-0.134
-287.589	-54.862	-0.097	-0.044
-286.574	-130.091	-0.150	0.020
-285.559	35.108	0.086	0.075
-284.545	-200.000	0.017	0.250
-283.530	-200.000	0.062	0.429
-282.516	-67.278	0.205	0.080
-281.501	-200.000	-0.018	0.099
-280.486	521.973	-0.065	0.152
-279.472	152.078	-0.062	0.084
-278.457	-113.418	-0.297	0.058
-277.443	250.113	0.084	0.141
-276.428	28.702	0.072	0.061
-275.413	-200.000	-0.010	-0.075
-274.399	14.977	-0.305	0.238
-273.384	-96.676	0.207	0.054
-272.370	130.469	-0.260	0.332
-271.355	-129.741	-0.217	0.030
-270.340	-33.171	0.062	-0.034
-269.326	-117.637	0.153	-0.027
-268.311	-7.629	0.212	0.143
-267.297	-200.000	0.017	0.549
-266.282	-60.462	0.056	0.024
-265.267	89.521	-0.184	-0.204
-264.253	-94.108	-0.221	0.060
-263.238	-94.926	0.223	0.060
-262.224	-41.067	-0.212	-0.109
-261.209	477.158	0.114	-0.257
-260.195	322.934	-0.235	-0.446
-259.180	800.000	0.029	0.083
-258.165	-181.154	0.556	-0.011
-257.151	800.000	-0.125	-0.379
-256.136	87.765	0.210	0.232
-255.122	45.315	0.007	-0.007
-254.107	78.802	-0.108	-0.115
-253.092	117.128	0.037	0.046
-252.078	-200.000	0.040	-0.226
-251.063	-200.000	-0.012	0.107
-250.049	-45.134	-0.135	0.067
-249.034	572.112	-0.110	0.268
-248.019	-26.308	0.190	-0.111
-247.005	168.607	-0.197	0.279
-245.990	198.626	-0.093	-0.142
-244.976	779.533	0.061	0.166
-243.961	26.227	-0.172	-0.143
-242.946	-113.138	-0.131	0.026
-241.932	212.172	0.059	0.093
-240.917	-3.547	-0.024	0.016
-239.903	172.290	0.212	0.304
-238.888	-191.885	-0.188	-0.002
-237.873	112.948	-0.158	-0.191
-236.859	-6.617	0.123	0.083
-235.844	-42.213	0.042	-0.021
-234.830	800.000	0.041	-0.169
-233.815	-112.584	-0.104	-0.021
-232.800	221.913	-0.133	0.213
-231.786	-131.335	-0.420	0.055
-230.771	725.886	0.091	-0.242
-229.757	454.588	0.136	0.299
-228.742	-58.094	0.183	-0.079
-227.727	800.000	-0.064	-0.271
-226.713	-8.964	0.401	-0.267
-225.698	81.330	-0.035	-0.037
-224.684	174.731	-0.186	0.267
-223.669	-200.000	-0.031	0.151
-222.655	418.142	-0.082	-0.175
-221.640	-200.000	-0.077	0.474
-220.625	389.682	0.140	-0.288
-219.611	105.723	0.169	0.199
-218.596	-200.000	0.026	0.275
-217.582	-14.674	0.116	-0.074
-216.567	-8.529	-0.255	-0.171
-215.552	35.932	-0.144	0.126
-214.538	-37.406	-0.289	0.153
-213.523	-40.793	-0.411	0.212
-212.509	171.798	-0.206	0.294
-211.494	-22.776	-0.222	0.133
-210.479	228.037	0.111	0.179
-209.465	-68.956	0.403	-0.154
-208.450	-47.651	-0.186	-0.090
-207.436	41.871	0.206	0.185
-206.421	-200.000	0.025	-0.333
-205.406	-43.942	-0.364	0.182
-204.392	28.407	-0.210	-0.176
-203.377	162.697	0.178	0.248
-202.363	-101.745	0.330	-0.079
-201.348	325.644	0.208	0.396
-200.333	41.320	0.118	-0.106
-199.319	-90.612	0.198	0.057
-198.304	-152.428	0.325	-0.023
-197.290	-141.302	-0.222	-0.022
-196.275	252.722	-0.093	-0.157
-195.260	-200.000	0.000	-0.247
-194.246	800.000	-0.059	0.190
-193.231	-200.000	0.031	0.258
-192.217	7.930	-0.303	0.225
-191.202	77.022	0.104	-0.110
-190.187	-123.051	0.239	-0.038
-189.173	-119.422	-0.120	-0.021
-188.158	-200.000	0.014	0.238
-187.144	-200.000	0.016	0.083
-186.129	-56.227	0.134	-0.059
-185.114	-0.370	-0.051	-0.036
-184.100	-54.764	0.193	-0.087
-183.085	-116.404	0.330	-0.061
-182.071	-23.366	0.215	0.128
-181.056	189.525	-0.083	0.123
-180.042	70.570	-0.299	0.307
-179.027	-200.000	0.015	-0.133
-178.012	112.201	-0.183	0.220
-176.998	284.050	0.169	0.302
-175.983	62.986	-0.197	0.196
-174.969	800.000	0.045	-0.175
-173.954	311.922	-0.054	-0.101
-172.939	-41.128	-0.280	-0.143
-171.925	146.773	0.199	-0.265
-170.910	-30.664	-0.151	0.085
-169.896	-17.131	-0.340	0.213
-168.881	148.433	-0.106	0.142
-167.866	-110.182	0.177	0.037
-166.852	41.495	-0.054	0.049
-165.837	-200.000	0.012	-0.162
-164.823	-200.000	-0.058	0.315
-163.808	214.151	-0.201	-0.315
-162.793	25.961	0.160	0.132
-161.779	12.215	-0.130	0.099
-160.764	623.516	-0.016	-0.041
-159.750	-200.000	-0.036	0.193
-158.735	-200.000	0.030	-0.243
-157.720	-200.000	-0.028	-0.196
-156.706	296.934	-0.199	0.362
-155.691	30.878	0.140	0.119
-154.677	11.833	-0.204	-0.156
-153.662	-3.290	0.103	-0.071
-152.647	364.492	-0.101	-0.202
-151.633	66.251	-0.175	-0.176
-150.618	-111.611	0.106	0.021
-149.604	-200.000	-0.017	0.193
-148.589	214.561	0.110	-0.173
-147.574	326.555	0.098	0.186
-146.560	-20.558	-0.115	0.070
-145.545	-200.000	-0.013	-0.231
-144.531	-26.073	0.138	0.081
-143.516	800.000	-0.088	0.356
-142.502	-200.000	0.057	0.265
-141.487	-197.591	0.236	0.001
-140.472	348.876	-0.087	0.170
-139.458	800.000	0.153	0.623
-138.443	-45.440	-0.270	-0.133
-137.429	-39.020	-0.187	0.098
-136.414	-14.789	-0.246	0.157
-135.399	-181.021	0.092	-0.002
-134.385	91.282	-0.220	0.245
-133.370	-92.905	-0.100	-0.028
-132.356	398.637	-0.050	0.103
-131.341	-24.834	-0.261	-0.154
-130.326	267.113	0.186	0.323
-129.312	-24.376	0.136	-0.080
-128.297	270.880	0.030	-0.052
-127.283	267.766	0.161	0.278
-126.268	-200.000	0.104	0.563
-125.253	306.542	0.015	-0.027
-124.239	-96.811	0.133	-0.034
-123.224	-62.678	-0.175	-0.072
-122.210	-200.000	0.010	0.261
-121.195	-200.000	0.002	0.106
-120.180	88.163	-0.126	0.138
