DTS Sentinel unit serial number:	SN413079Multiplexer serial number:	ORYXHardware model number:	OX4-SRSoftware version number:	ORYX F/W v4.00 Oryx Data Collector v3.7.2.0data status	okinstallation	princeton_trtdifferential loss correction	single-endedforward channel	channel 1reverse channel	N/Adate	2019/09/15time	09:46:35forward acquisition time	60.00reverse acquisition time	0.00gamma	496.2192k internal	0.2310k external	0.2310temperature offset calibration	0.9986default loss term (dB/km)	0.3790temperature slope calibration	1.0000multiplexer offset coefficient	1.0000multiplexer slope coefficient	1.0000fibre end	0.00T internal ref (°C)	34.00T ext. ref 1 (°C)	4.96T ext. ref 2 (°C)	29.70length (m)	temperature (°C)	Stokes	anti-Stokes-747.200	-200.000	-0.024	-0.212
-746.185	451.271	-0.157	0.352
-745.171	339.662	-0.069	-0.137
-744.156	-85.408	-0.334	0.106
-743.142	-200.000	0.017	-0.094
-742.127	142.441	-0.135	0.182
-741.112	257.039	0.054	0.094
-740.098	-155.108	0.199	-0.013
-739.083	-200.000	0.025	-0.146
-738.069	126.936	-0.088	0.113
-737.054	-74.364	0.047	0.017
-736.039	-20.575	-0.131	0.082
-735.025	4.576	0.522	0.389
-734.010	-200.000	-0.020	0.144
-732.996	-200.000	-0.025	-0.196
-731.981	-200.000	0.106	-0.705
-730.966	800.000	-0.031	-0.107
-729.952	397.789	-0.112	-0.238
-728.937	0.495	-0.228	-0.165
-727.923	194.440	-0.167	-0.257
-726.908	192.690	-0.095	0.146
-725.894	800.000	-0.101	-0.317
-724.879	-200.000	0.022	-0.212
-723.864	-200.000	0.012	-0.213
-722.850	224.966	0.126	-0.207
-721.835	9.644	-0.066	-0.051
-720.821	-77.446	0.235	-0.083
-719.806	191.760	-0.109	-0.167
-718.791	-116.085	-0.223	0.042
-717.777	-200.000	0.015	-0.234
-716.762	-97.678	0.242	-0.064
-715.748	-89.331	0.141	0.042
-714.733	-100.247	0.221	0.056
-713.718	438.768	-0.018	-0.040
-712.704	-200.000	-0.010	0.089
-711.689	-40.733	-0.338	0.177
-710.675	-66.526	-0.193	-0.078
-709.660	-99.169	0.437	-0.112
-708.645	343.804	-0.129	-0.256
-707.631	-34.502	-0.225	0.125
-706.616	484.723	-0.133	-0.306
-705.602	-71.769	-0.176	0.067
-704.587	-147.350	-0.497	0.043
-703.572	-44.539	-0.223	0.113
-702.558	-72.851	0.127	0.047
-701.543	-200.000	0.010	-0.136
-700.529	-66.470	0.247	0.099
-699.514	137.918	-0.082	0.109
-698.499	-56.009	-0.018	-0.008
-697.485	-108.402	-0.105	-0.023
-696.470	51.792	-0.193	-0.186
-695.456	-200.000	-0.009	0.080
-694.441	136.684	-0.161	-0.213
-693.426	-200.000	-0.179	-0.000
-692.412	-200.000	0.038	-0.221
-691.397	-109.647	-0.227	0.048
-690.383	97.662	-0.172	-0.200
-689.368	-200.000	-0.088	-0.518
-688.354	-200.000	0.017	0.130
-687.339	189.685	0.134	-0.204
-686.324	800.000	-0.066	-0.288
-685.310	800.000	0.110	-0.349
-684.295	714.258	0.051	-0.136
-683.281	-137.039	0.085	0.010
-682.266	800.000	0.045	0.158
-681.251	-47.136	0.049	0.024
-680.237	800.000	0.115	0.367
-679.222	79.198	-0.104	-0.113
-678.208	800.000	0.098	0.290
-677.193	-19.857	-0.053	0.033
-676.178	196.105	-0.201	-0.310
-675.164	-66.054	0.111	-0.045
-674.149	-24.028	-0.136	0.082
-673.135	-51.277	-0.227	-0.108
-672.120	-126.309	0.050	0.008
-671.105	-101.128	0.177	0.044
-670.091	-200.000	-0.028	-0.286
-669.076	48.578	0.090	-0.086
-668.062	800.000	-0.020	-0.072
-667.047	-1.781	0.021	0.015
-666.032	800.000	-0.030	0.107
-665.018	-73.066	-0.499	0.186
-664.003	124.730	0.081	-0.103
-662.989	8.101	-0.105	0.080
-661.974	-100.736	-0.466	-0.116
-660.959	9.402	0.040	0.031
-659.945	-200.000	-0.041	-0.450
-658.930	459.531	-0.018	-0.040
-657.916	368.154	0.031	-0.063
-656.901	159.758	0.112	0.159
-655.886	109.065	-0.187	0.227
-654.872	800.000	-0.012	0.036
-653.857	-200.000	-0.017	0.308
-652.843	-200.000	0.023	-0.164
-651.828	-200.000	-0.028	-0.162
-650.814	300.188	0.107	-0.199
-649.799	-37.538	0.263	-0.142
-648.784	-33.139	-0.320	0.179
-647.770	-200.000	-0.017	0.077
-646.755	-63.724	-0.152	0.063
-645.741	-65.696	0.050	0.020
-644.726	-114.908	0.180	-0.035
-643.711	182.039	-0.060	0.090
-642.697	240.628	-0.186	0.314
-641.682	355.083	-0.080	0.161
-640.668	256.981	0.159	-0.276
-639.653	220.679	0.116	0.188
-638.638	-33.915	0.019	-0.011
-637.624	-44.925	-0.391	0.197
-636.609	-117.349	-0.393	0.072
-635.595	800.000	-0.017	-0.065
-634.580	-200.000	-0.039	-0.332
-633.565	-198.693	-0.441	0.002
-632.551	-200.000	-0.031	0.331
-631.536	-89.414	0.166	-0.050
-630.522	53.056	-0.213	-0.206
-629.507	-200.000	0.013	-0.338
-628.492	-200.000	0.006	-0.058
-627.478	-63.130	0.190	-0.079
-626.463	-114.043	-0.743	0.146
-625.449	498.826	-0.103	-0.241
-624.434	242.495	-0.075	-0.127
-623.419	178.194	0.081	0.119
-622.405	-21.237	0.285	-0.176
-621.390	106.893	0.296	-0.356
-620.376	-200.000	0.039	0.264
-619.361	-34.954	0.370	-0.204
-618.346	481.020	0.092	-0.211
-617.332	-24.171	0.225	-0.136
-616.317	-140.560	-0.164	-0.017
-615.303	102.263	0.042	0.049
-614.288	-200.000	-0.263	-0.001
-613.273	92.882	0.128	-0.146
-612.259	137.473	0.238	-0.315
-611.244	-139.610	0.156	0.017
-610.230	69.833	-0.107	0.111
-609.215	90.836	-0.135	-0.152
-608.201	-138.611	-0.286	-0.032
-607.186	-200.000	0.036	0.251
-606.171	62.088	-0.099	-0.099
-605.157	342.643	-0.030	0.059
-604.142	-200.000	0.009	0.277
-603.128	430.758	0.032	-0.070
-602.113	-200.000	0.017	-0.230
-601.098	35.079	0.101	-0.090
-600.084	35.892	0.150	-0.134
-599.069	143.475	-0.134	-0.180
-598.055	41.417	0.193	-0.176
-597.040	-51.260	-0.354	-0.167
-596.025	310.852	-0.018	0.034
-595.011	-78.143	-0.253	-0.088
-593.996	-147.163	-0.104	0.009
-592.982	-95.199	0.025	-0.007
-591.967	139.103	-0.240	0.319
-590.952	584.654	-0.013	-0.032
-589.938	198.167	0.235	-0.363
-588.923	541.810	-0.068	-0.164
-587.909	-130.033	-0.323	0.045
-586.894	800.000	-0.039	0.155
-585.879	-105.006	0.133	-0.031
-584.865	9.129	-0.188	-0.144
-583.850	-82.758	-0.443	0.145
-582.836	642.313	-0.073	0.188
-581.821	85.540	-0.123	0.136
-580.806	79.042	0.453	0.489
-579.792	800.000	0.030	-0.104
-578.777	405.146	-0.185	-0.394
-577.763	-85.952	0.156	0.049
-576.748	30.669	0.093	0.080
-575.733	-37.929	0.285	-0.153
-574.719	-26.846	-0.176	0.104
-573.704	-55.969	0.242	-0.109
-572.690	-74.740	-0.145	0.052
-571.675	-36.142	-0.186	-0.101
-570.661	800.000	-0.158	0.526
-569.646	-200.000	0.013	0.065
-568.631	163.995	0.086	-0.122
-567.617	166.421	-0.177	-0.253
-566.602	89.136	-0.170	-0.191
-565.588	-49.328	0.264	-0.127
-564.573	-142.243	0.290	0.029
-563.558	247.427	-0.055	0.094
-562.544	182.573	-0.095	-0.141
-561.529	-166.422	-0.186	0.008
-560.515	105.089	-0.132	-0.157
-559.500	-200.000	-0.012	-0.121
-558.485	-114.940	0.278	-0.053
-557.471	295.882	0.079	-0.145
-556.456	568.922	0.018	0.043
-555.442	-98.920	-0.245	-0.063
-554.427	-112.839	-0.028	-0.006
-553.412	173.398	-0.070	-0.101
-552.398	-125.912	0.376	-0.057
-551.383	52.052	-0.094	0.090
-550.369	-200.000	-0.038	0.204
-549.354	118.047	-0.205	0.254
-548.339	-200.000	-0.029	0.184
-547.325	31.129	-0.121	0.104
-546.310	772.084	0.038	0.104
-545.296	77.002	-0.118	-0.126
-544.281	288.589	-0.075	0.138
-543.266	-38.944	-0.419	0.222
-542.252	341.229	0.038	0.074
-541.237	12.855	0.228	0.178
-540.223	386.848	-0.145	0.301
-539.208	-115.480	0.215	-0.041
-538.193	-200.000	-0.038	-0.183
-537.179	775.689	0.038	0.105
-536.164	331.389	0.154	-0.299
-535.150	48.468	0.187	-0.176
-534.135	-6.655	-0.118	-0.081
-533.121	-10.999	-0.117	-0.078
-532.106	800.000	-0.045	-0.131
-531.091	165.121	-0.086	-0.123
-530.077	-29.778	0.127	-0.073
-529.062	60.856	0.004	-0.004
-528.048	-90.235	0.242	0.071
-527.033	-53.865	0.043	0.020
-526.018	371.494	-0.097	0.198
-525.004	367.618	0.062	0.125
-523.989	-1.310	-0.335	0.238
-522.975	-33.872	0.199	0.110
-521.960	-55.865	0.307	-0.138
-520.945	31.664	0.263	-0.228
-519.931	800.000	-0.101	0.310
-518.916	-32.812	0.328	-0.183
-517.902	-19.588	0.457	0.285
-516.887	256.249	0.098	-0.170
-515.872	-200.000	-0.070	0.318
-514.858	-112.145	0.190	-0.038
-513.843	-36.011	-0.189	0.103
-512.829	-24.645	-0.153	-0.092
-511.814	-118.166	0.355	-0.064
-510.799	111.872	0.061	0.074
-509.785	-85.308	-0.133	-0.042
-508.770	-24.025	0.229	-0.138
-507.756	800.000	0.074	-0.282
-506.741	-107.202	0.320	0.071
-505.726	-9.926	0.224	-0.150
-504.712	45.102	0.151	-0.140
-503.697	-78.980	-0.139	0.048
-502.683	-146.607	-0.109	-0.009
-501.668	-200.000	-0.024	-0.127
-500.653	800.000	0.040	-0.135
-499.639	73.199	0.033	-0.034
-498.624	-200.000	0.006	0.044
-497.610	72.918	-0.126	-0.133
-496.595	194.747	0.142	-0.216
-495.581	96.096	-0.320	-0.368
-494.566	-64.334	-0.143	0.059
-493.551	-126.028	-0.145	-0.022
-492.537	-200.000	-0.015	0.139
-491.522	-200.000	-0.025	-0.134
-490.508	450.286	0.016	0.036
-489.493	44.456	-0.326	0.301
-488.478	33.266	0.148	-0.129
-487.464	800.000	0.080	-0.287
-486.449	-61.574	0.255	-0.108
-485.435	215.557	-0.053	-0.085
-484.420	103.125	0.383	-0.452
-483.405	55.595	0.071	-0.069
-482.391	20.252	-0.173	-0.140
-481.376	-58.980	0.173	0.075
-480.362	800.000	-0.081	0.244
-479.347	800.000	0.055	0.210
-478.332	175.653	-0.113	0.164
-477.318	-42.355	-0.094	0.048
-476.303	448.568	0.111	0.246
-475.289	166.312	-0.266	-0.379
-474.274	-200.000	0.012	-0.174
-473.259	-200.000	0.006	0.047
-472.245	-200.000	-0.014	0.089
-471.230	387.027	0.019	-0.039
-470.216	23.313	-0.144	-0.119
-469.201	106.911	0.147	-0.176
-468.186	-63.124	-0.231	-0.096
-467.172	153.870	0.160	-0.221
-466.157	208.679	0.045	-0.071
-465.143	-200.000	-0.031	0.242
-464.128	-157.405	0.292	0.018
-463.113	562.374	0.048	-0.116
-462.099	-83.344	0.323	-0.104
-461.084	800.000	0.091	0.290
-460.070	-200.000	0.003	0.018
-459.055	-20.848	-0.254	0.156
-458.040	-82.178	0.390	0.128
-457.026	-46.297	-0.103	0.051
-456.011	31.328	0.244	0.210
-454.997	-103.733	0.447	-0.105
-453.982	-200.000	0.011	-0.080
-452.968	-95.176	0.197	0.053
-451.953	158.295	-0.101	0.140
-450.938	-131.456	0.212	0.028
-449.924	800.000	0.097	0.303
-448.909	-124.997	-0.285	0.044
-447.895	410.767	0.063	-0.134
-446.880	85.866	0.085	0.094
-445.865	-195.021	0.098	0.001
-444.851	43.379	0.055	-0.050
-443.836	-118.587	-0.201	0.036
-442.822	100.895	-0.111	-0.130
-441.807	54.264	-0.149	0.144
-440.792	229.606	-0.164	0.269
-439.778	-200.000	0.036	0.320
-438.763	-36.693	0.340	0.183
-437.749	123.767	0.021	0.026
-436.734	118.300	-0.239	0.296
-435.719	316.825	-0.066	-0.125
-434.705	350.266	-0.055	-0.110
-433.690	-200.000	-0.006	-0.030
-432.676	-5.555	0.015	0.011
-431.661	-10.160	0.381	-0.254
-430.646	-121.662	-0.463	-0.077
-429.632	37.818	0.215	0.191
-428.617	-200.000	0.012	0.183
-427.603	-146.865	-0.167	-0.014
-426.588	-105.247	0.271	0.062
-425.573	-79.406	-0.327	-0.111
-424.559	-22.283	0.172	0.104
-423.544	193.760	0.137	-0.208
-422.530	-23.542	-0.174	0.105
-421.515	60.765	-0.054	-0.054
-420.500	543.237	0.008	-0.019
-419.486	610.302	-0.036	-0.089
-418.471	-200.000	0.031	0.314
-417.457	-51.424	-0.223	-0.105
-416.442	391.911	0.125	0.260
-415.428	-162.208	-0.234	-0.012
-414.413	-20.086	-0.072	-0.045
-413.398	-15.872	0.093	-0.060
-412.384	346.788	0.069	-0.135
-411.369	-11.360	0.023	-0.015
-410.355	800.000	0.065	-0.240
-409.340	70.661	0.144	0.149
-408.325	83.264	0.200	-0.219
-407.311	-165.441	0.149	0.007
-406.296	-132.226	0.115	-0.015
-405.282	176.177	-0.169	0.245
-404.267	104.470	0.187	-0.220
-403.252	-22.207	-0.295	0.179
-402.238	-200.000	0.010	0.199
-401.223	178.005	0.152	-0.222
-400.209	363.123	-0.147	-0.296
-399.194	167.556	-0.226	0.322
-398.179	-24.344	-0.115	0.069
-397.165	-108.746	0.231	-0.050
-396.150	-60.284	0.134	0.057
-395.136	800.000	0.052	0.187
-394.121	-45.318	0.305	-0.152
-393.106	-78.649	-0.098	-0.034
-392.092	-79.207	0.065	0.022
-391.077	-152.989	-0.233	-0.016
-390.063	-200.000	-0.058	-0.283
-389.048	-200.000	-0.004	0.160
-388.033	32.890	0.022	-0.019
-387.019	-149.105	0.375	0.030
-386.004	175.577	0.030	-0.043
-384.990	-52.589	-0.252	0.117
-383.975	71.301	-0.206	-0.214
-382.960	60.901	-0.157	0.156
-381.946	160.630	-0.083	0.116
-380.931	800.000	0.022	0.081
-379.917	297.932	0.111	0.205
-378.902	243.995	0.111	0.187
-377.888	-141.778	0.492	-0.049
-376.873	-34.325	0.185	-0.102
-375.858	-89.821	-0.188	0.055
-374.844	-200.000	0.023	-0.361
-373.829	195.157	0.165	0.251
-372.815	-200.000	0.042	0.339
-371.800	184.665	0.123	-0.183
-370.785	494.931	-0.079	-0.182
-369.771	-79.781	0.158	0.053
-368.756	44.402	0.141	0.130
-367.742	-155.729	0.258	-0.017
-366.727	39.262	0.098	-0.088
-365.712	52.460	-0.033	-0.032
-364.698	-200.000	-0.029	0.198
-363.683	148.483	0.135	-0.182
-362.669	44.503	-0.157	-0.144
-361.654	-112.913	-0.212	0.042
-360.639	-112.512	0.336	0.067
-359.625	-200.000	-0.002	0.037
-358.610	85.662	0.081	0.089
-357.596	-65.859	0.096	-0.039
-356.581	585.357	0.091	-0.224
-355.566	-200.000	0.046	-0.260
-354.552	500.037	-0.034	0.078
-353.537	-60.402	0.168	0.071
-352.523	365.470	0.187	-0.378
-351.508	270.871	-0.064	-0.112
-350.493	-200.000	0.013	0.135
-349.479	-73.786	0.069	0.025
-348.464	-200.000	0.041	0.272
-347.450	49.563	0.082	0.077
-346.435	228.420	0.083	-0.136
-345.420	165.394	0.106	-0.150
-344.406	611.284	-0.048	0.119
-343.391	-16.550	-0.373	0.236
-342.377	529.638	0.161	0.380
-341.362	-120.069	0.224	0.038
-340.348	-200.000	-0.061	0.303
-339.333	-82.142	0.334	-0.109
-338.318	77.420	0.107	-0.114
-337.304	13.521	-0.461	0.357
-336.289	681.656	-0.116	-0.303
-335.275	-200.000	0.011	-0.244
-334.260	102.363	0.071	0.083
-333.245	-75.301	0.216	0.077
-332.231	-200.000	0.005	0.213
-331.216	18.331	-0.149	0.119
-330.202	586.405	-0.074	-0.181
-329.187	-200.000	-0.051	0.289
-328.172	-52.646	0.107	0.049
-327.158	-90.895	0.174	-0.050
-326.143	95.795	-0.117	0.134
-325.129	800.000	-0.102	-0.291
-324.114	19.387	0.333	-0.267
-323.099	-200.000	-0.014	0.256
-322.085	-43.640	0.062	0.031
-321.070	430.153	-0.017	0.037
-320.056	-103.217	0.025	-0.006
-319.041	518.556	-0.098	-0.229
-318.026	-113.029	0.368	0.073
-317.012	-106.464	-0.102	-0.023
-315.997	-85.259	-0.773	-0.241
-314.983	-45.624	0.300	0.148
-313.968	-200.000	0.006	0.036
-312.953	-200.000	-0.004	-0.050
-311.939	69.282	0.217	-0.223
-310.924	582.067	-0.157	-0.385
-309.910	469.099	-0.055	-0.122
-308.895	263.164	-0.120	-0.209
-307.880	-27.242	-0.266	0.155
-306.866	-12.777	-0.154	0.100
-305.851	43.475	0.282	0.258
-304.837	56.194	-0.202	0.196
-303.822	107.260	0.095	-0.113
-302.807	-36.294	-0.313	0.168
-301.793	800.000	-0.017	0.068
-300.778	396.884	-0.102	-0.213
-299.764	800.000	0.051	-0.184
-298.749	-96.441	-0.309	-0.081
-297.735	-200.000	0.010	-0.180
-296.720	269.090	0.116	-0.203
-295.705	-101.840	0.153	-0.037
-294.691	-55.322	-0.176	0.079
-293.676	800.000	-0.033	0.106
-292.662	38.955	-0.307	0.273
-291.647	800.000	-0.134	0.435
-290.632	389.504	-0.044	-0.090
-289.618	-200.000	-0.002	0.038
-288.603	68.561	0.210	0.215
-287.589	-200.000	-0.029	0.372
-286.574	44.984	0.131	-0.120
-285.559	800.000	0.057	-0.228
-284.545	70.659	0.205	-0.211
-283.530	189.020	0.202	-0.302
-282.516	58.245	0.034	0.033
-281.501	-76.087	-0.101	-0.036
-280.486	-200.000	-0.011	0.094
-279.472	81.578	-0.203	-0.219
-278.457	291.223	-0.118	0.214
-277.443	800.000	0.034	0.137
-276.428	-169.420	-0.182	0.007
-275.413	800.000	-0.095	0.362
-274.399	110.951	-0.124	0.149
-273.384	-23.490	0.196	0.117
-272.370	-137.127	0.125	0.014
-271.355	267.314	0.078	-0.137
-270.340	423.357	-0.071	0.153
-269.326	593.696	0.081	0.200
-268.311	-83.791	-0.310	0.098
-267.297	169.105	0.028	-0.040
-266.282	-200.000	-0.025	0.192
-265.267	-12.232	-0.205	-0.133
-264.253	39.913	0.331	0.297
-263.238	-200.000	0.029	0.148
-262.224	-13.642	0.145	0.093
-261.209	368.022	0.202	0.406
-260.195	17.180	-0.080	0.064
-259.180	-175.115	0.285	0.008
-258.165	800.000	-0.060	-0.239
-257.151	240.082	-0.098	-0.162
-256.136	-2.710	0.142	-0.099
-255.122	176.493	-0.149	-0.216
-254.107	86.395	0.058	-0.064
-253.092	519.682	0.072	-0.168
-252.078	74.805	0.049	0.051
-251.063	-200.000	0.022	0.118
-250.049	-136.218	-0.012	-0.001
-249.034	15.941	-0.254	-0.199
-248.019	-200.000	0.015	-0.188
-247.005	-200.000	-0.014	-0.079
-245.990	800.000	-0.041	0.113
-244.976	-105.855	0.049	-0.011
-243.961	165.319	0.078	-0.110
-242.946	800.000	0.037	0.131
-241.932	16.726	-0.128	-0.101
-240.917	-200.000	0.015	-0.096
-239.903	-200.000	0.042	0.201
-238.888	-200.000	0.008	-0.283
-237.873	305.750	0.107	0.198
-236.859	-182.039	-0.206	0.004
-235.844	-135.241	-0.145	-0.017
-234.830	800.000	-0.119	0.343
-233.815	-200.000	-0.194	0.000
-232.800	1.750	-0.133	-0.095
-231.786	-125.469	-0.237	-0.036
-230.771	54.950	0.142	-0.137
-229.757	240.804	-0.064	0.107
-228.742	118.447	0.135	0.166
-227.727	11.470	0.022	0.017
-226.713	-75.042	-0.280	-0.100
-225.698	243.636	0.062	-0.103
-224.684	800.000	-0.019	-0.055
-223.669	-200.000	-0.014	0.375
-222.655	270.421	0.113	0.198
-221.640	-20.783	0.208	-0.127
-220.625	60.252	0.095	-0.093
-219.611	615.773	-0.033	0.081
-218.596	243.891	-0.224	0.373
-217.582	-0.841	-0.248	0.175
-216.567	-200.000	-0.073	0.321
-215.552	-45.571	0.234	-0.115
-214.538	800.000	-0.042	-0.116
-213.523	-75.694	-0.194	-0.068
-212.509	126.091	-0.015	0.019
-211.494	102.217	0.175	-0.203
-210.479	21.245	-0.121	-0.097
-209.465	-51.013	-0.093	0.043
-208.450	17.187	-0.119	-0.094
-207.436	-84.738	0.397	0.124
-206.421	106.721	0.074	0.088
-205.406	-200.000	-0.004	-0.199
-204.392	331.838	-0.071	-0.137
-203.377	392.724	-0.197	0.408
-202.363	347.215	-0.177	0.346
-201.348	800.000	0.093	-0.394
-200.333	283.456	0.029	-0.051
-199.319	-76.173	-0.307	0.108
-198.304	283.996	-0.078	0.139
-197.290	57.630	-0.084	-0.082
-196.275	-128.320	-0.215	0.030
-195.260	26.891	-0.323	0.269
-194.246	416.003	-0.045	0.094
-193.231	800.000	-0.076	-0.213
-192.217	179.100	0.231	-0.336
-191.202	292.427	0.195	-0.354
-190.187	800.000	0.023	0.063
-189.173	800.000	-0.045	0.179
-188.158	-154.118	0.210	0.014
-187.144	49.387	-0.219	-0.205
-186.129	71.843	0.156	0.161
-185.114	-121.557	-0.206	0.034
-184.100	232.973	-0.023	-0.037
-183.085	121.296	0.216	-0.267
-182.071	110.614	-0.213	-0.254
-181.056	50.717	0.018	0.017
-180.042	-29.228	0.120	-0.068
-179.027	53.023	-0.078	-0.074
-178.012	-160.388	0.061	0.003
-176.998	800.000	0.030	0.084
-175.983	-56.305	-0.260	0.115
-174.969	283.516	0.034	0.061
-173.954	-200.000	-0.012	0.125
-172.939	-115.097	0.373	0.070
-171.925	133.023	0.078	0.100
-170.910	41.515	0.105	0.094
-169.896	65.155	-0.160	0.161
-168.881	179.096	-0.091	-0.132
-167.866	777.950	-0.035	-0.096
-166.852	-137.220	-0.025	0.003
-165.837	70.983	-0.103	0.106
-164.823	800.000	0.057	0.226
-163.808	800.000	-0.073	0.209
-162.793	40.100	0.068	0.060
-161.779	-106.922	-0.066	-0.014
-160.764	369.185	-0.041	0.082
-159.750	800.000	-0.088	-0.257
-158.735	427.796	-0.125	-0.267
-157.720	-81.563	0.064	-0.021
-156.706	-144.520	-0.295	-0.027
-155.691	-200.000	-0.014	-0.321
-154.677	342.194	-0.092	-0.178
-153.662	-99.297	0.215	-0.054
-152.647	-9.592	0.023	0.015
-151.633	-108.811	-0.069	-0.015
-150.618	8.227	0.272	0.203
-149.604	142.847	-0.103	0.136
-148.589	150.129	-0.106	0.142
-147.574	-200.000	-0.019	0.103
-146.560	-200.000	-0.006	0.081
-145.545	-200.000	0.016	-0.187
-144.531	21.592	0.181	0.146
-143.516	122.662	0.173	0.215
-142.502	800.000	-0.072	0.206
-141.487	382.657	0.177	0.361
-140.472	-57.421	-0.290	-0.126
-139.458	559.811	-0.182	-0.436
-138.443	-127.162	-0.441	0.064
-137.429	317.605	0.089	-0.167
-136.414	-200.000	0.001	0.182
-135.399	-36.568	0.120	0.064
-134.385	-187.467	0.294	-0.004
-133.370	531.700	-0.063	-0.148
-132.356	-14.934	-0.144	-0.092
-131.341	-25.953	0.304	0.177
-130.326	-107.764	-0.243	-0.053
-129.312	133.860	0.065	-0.083
-128.297	-92.163	-0.070	0.020
-127.283	242.427	-0.147	0.245
-126.268	-111.525	0.203	0.041
-125.253	-146.776	-0.274	0.023
-124.239	-36.986	0.085	-0.045
-123.224	16.356	0.165	0.129
-122.210	-30.641	0.297	-0.166
-121.195	-37.097	-0.208	-0.110
