DTS Sentinel unit serial number:	SN413079Multiplexer serial number:	ORYXHardware model number:	OX4-SRSoftware version number:	ORYX F/W v4.00 Oryx Data Collector v3.7.2.0data status	okinstallation	princeton_trtdifferential loss correction	single-endedforward channel	channel 1reverse channel	N/Adate	2019/09/12time	07:52:11forward acquisition time	60.00reverse acquisition time	0.00gamma	496.2192k internal	0.2315k external	0.2315temperature offset calibration	1.0045default loss term (dB/km)	0.3790temperature slope calibration	1.0000multiplexer offset coefficient	1.0000multiplexer slope coefficient	1.0000fibre end	0.00T internal ref (°C)	32.92T ext. ref 1 (°C)	1.65T ext. ref 2 (°C)	29.06length (m)	temperature (°C)	Stokes	anti-Stokes-747.200	-200.000	0.027	0.223
-746.185	-200.000	-0.023	0.308
-745.171	-25.278	0.168	0.101
-744.156	-117.112	-0.232	0.043
-743.142	107.215	-0.094	0.113
-742.127	110.329	0.191	0.233
-741.112	-77.817	0.418	0.146
-740.098	-29.649	-0.205	-0.119
-739.083	524.727	0.106	-0.253
-738.069	354.482	0.185	0.372
-737.054	26.185	-0.145	-0.123
-736.039	-12.436	0.139	-0.092
-735.025	-33.199	-0.162	0.091
-734.010	278.976	0.082	0.149
-732.996	357.520	-0.290	-0.586
-731.981	-22.576	-0.187	-0.115
-730.966	-119.826	0.216	0.038
-729.952	800.000	-0.106	0.464
-728.937	-82.793	-0.537	-0.176
-727.923	460.175	0.068	0.154
-726.908	-124.555	-0.362	-0.057
-725.894	800.000	0.035	-0.106
-724.879	-72.194	-0.256	-0.096
-723.864	85.613	0.193	-0.215
-722.850	-126.096	-0.118	0.018
-721.835	39.727	0.089	-0.081
-720.821	272.967	-0.113	0.202
-719.806	-178.087	-0.293	-0.007
-718.791	173.734	0.069	-0.101
-717.777	-83.280	-0.093	0.030
-716.762	-140.378	-0.233	-0.025
-715.748	-148.390	0.385	0.032
-714.733	546.816	0.034	0.082
-713.718	66.630	-0.147	0.151
-712.704	47.543	0.124	-0.117
-711.689	54.280	-0.301	-0.293
-710.675	516.179	-0.088	-0.208
-709.660	104.537	0.103	-0.123
-708.645	395.304	-0.073	-0.154
-707.631	188.452	0.197	-0.298
-706.616	800.000	-0.047	-0.156
-705.602	-154.754	0.181	0.012
-704.587	58.992	-0.090	0.089
-703.572	800.000	0.065	0.214
-702.558	-200.000	-0.005	-0.070
-701.543	-28.462	0.222	0.129
-700.529	-200.000	-0.008	0.159
-699.514	-200.000	0.055	-0.375
-698.499	333.304	0.050	-0.097
-697.485	-2.708	-0.245	-0.173
-696.470	-150.692	0.192	-0.015
-695.456	800.000	0.132	0.447
-694.441	225.421	-0.053	-0.086
-693.426	63.411	0.177	0.179
-692.412	57.186	-0.198	0.196
-691.397	-56.619	-0.390	0.175
-690.383	-200.000	0.012	-0.115
-689.368	-142.876	-0.126	-0.012
-688.354	-25.094	0.208	-0.125
-687.339	586.813	-0.050	0.125
-686.324	-86.645	0.049	-0.015
-685.310	137.386	0.097	-0.129
-684.295	-200.000	0.024	-0.148
-683.281	-128.903	-0.231	-0.033
-682.266	56.966	-0.009	0.009
-681.251	42.508	-0.061	-0.056
-680.237	-106.451	0.139	-0.031
-679.222	-84.405	-0.321	0.103
-678.208	197.365	0.068	0.105
-677.193	75.999	-0.251	-0.268
-676.178	-200.000	-0.018	-0.228
-675.164	-38.458	0.116	-0.062
-674.149	3.224	-0.238	-0.175
-673.135	-200.000	0.025	-0.153
-672.120	82.350	-0.092	-0.101
-671.105	800.000	-0.147	0.425
-670.091	-47.726	0.113	0.055
-669.076	604.212	0.120	0.302
-668.062	-200.000	-0.044	-0.292
-667.047	89.563	-0.176	-0.199
-666.032	-200.000	-0.029	0.267
-665.018	-4.479	0.143	-0.100
-664.003	-150.591	0.244	-0.019
-662.989	-33.661	-0.176	-0.098
-661.974	-99.100	-0.141	0.036
-660.959	-200.000	0.007	-0.095
-659.945	-136.646	-0.243	0.028
-658.930	59.536	0.218	-0.217
-657.916	12.086	0.032	0.025
-656.901	396.036	0.082	-0.172
-655.886	643.527	-0.041	-0.106
-654.872	-200.000	0.004	-0.081
-653.857	105.542	0.120	0.143
-652.843	78.912	0.211	-0.228
-651.828	-95.746	0.489	0.132
-650.814	-82.912	-0.089	0.029
-649.799	155.530	0.126	0.175
-648.784	61.047	-0.150	0.150
-647.770	258.414	-0.165	0.287
-646.755	96.584	-0.189	-0.219
-645.741	-123.694	-0.130	0.021
-644.726	53.073	-0.303	0.293
-643.711	-104.854	-0.305	-0.071
-642.697	-200.000	0.043	-0.273
-641.682	-200.000	0.011	0.059
-640.668	-90.506	0.063	-0.018
-639.653	-34.086	0.395	-0.219
-638.638	-71.113	-0.162	-0.062
-637.624	800.000	-0.108	-0.313
-636.609	60.000	0.190	0.189
-635.595	230.466	-0.125	-0.206
-634.580	232.216	0.106	-0.175
-633.565	-108.903	0.236	0.051
-632.551	-126.610	-0.130	0.019
-631.536	236.590	0.054	0.090
-630.522	310.701	0.041	-0.078
-629.507	-7.530	0.384	0.262
-628.492	-200.000	0.004	0.076
-627.478	-200.000	-0.063	0.290
-626.463	-108.293	0.200	-0.044
-625.449	-4.079	-0.066	-0.046
-624.434	-121.657	-0.164	0.027
-623.419	-138.064	0.181	-0.020
-622.405	116.771	-0.209	0.258
-621.390	-74.726	0.175	0.063
-620.376	757.075	0.149	0.407
-619.361	79.102	-0.233	-0.251
-618.346	219.587	0.048	-0.078
-617.332	800.000	0.015	-0.063
-616.317	-200.000	-0.005	0.256
-615.303	212.790	0.082	0.131
-614.288	41.329	0.246	-0.224
-613.273	800.000	-0.106	-0.446
-612.259	-95.992	0.324	0.087
-611.244	460.175	0.042	-0.094
-610.230	-155.322	0.087	-0.006
-609.215	177.336	-0.097	0.143
-608.201	800.000	0.018	0.068
-607.186	360.126	0.190	-0.384
-606.171	358.457	-0.244	-0.490
-605.157	-121.564	0.286	-0.048
-604.142	-200.000	-0.010	-0.062
-603.128	-101.388	-0.284	0.070
-602.113	-200.000	0.029	0.207
-601.098	187.328	-0.049	-0.074
-600.084	-87.789	-0.301	0.091
-599.069	-49.755	0.075	-0.036
-598.055	77.884	0.238	-0.256
-597.040	800.000	0.048	-0.144
-596.025	-1.665	0.139	-0.099
-595.011	272.049	-0.158	0.280
-593.996	-99.427	-0.212	0.054
-592.982	-33.486	0.068	-0.038
-591.967	70.558	0.245	0.256
-590.952	-200.000	-0.006	0.092
-589.938	-200.000	-0.009	-0.127
-588.923	762.666	-0.047	-0.127
-587.909	86.286	0.120	-0.133
-586.894	-93.710	0.231	-0.064
-585.879	105.124	0.065	-0.078
-584.865	138.837	0.087	-0.115
-583.850	800.000	-0.099	0.394
-582.836	159.469	-0.231	-0.323
-581.821	340.132	-0.111	-0.219
-580.806	470.946	0.037	-0.084
-579.792	21.229	-0.130	-0.106
-578.777	-70.290	-0.138	0.053
-577.763	-200.000	0.028	0.295
-576.748	800.000	0.078	-0.230
-575.733	587.457	0.067	-0.166
-574.719	225.966	0.111	0.181
-573.704	800.000	0.106	-0.374
-572.690	-22.195	-0.375	0.229
-571.675	800.000	0.101	-0.297
-570.661	-115.506	-0.336	0.064
-569.646	-159.750	-0.339	0.019
-568.631	-162.919	-0.186	0.009
-567.617	-77.272	0.102	-0.036
-566.602	-11.253	-0.230	-0.153
-565.588	38.610	0.089	-0.080
-564.573	684.194	0.111	-0.292
-563.558	-55.281	-0.265	0.120
-562.544	143.252	0.247	-0.330
-561.529	170.559	0.232	0.334
-560.515	126.756	0.184	-0.234
-559.500	444.627	-0.151	-0.334
-558.485	-8.755	-0.063	0.043
-557.471	412.577	0.197	0.421
-556.456	-117.405	0.149	0.027
-555.442	181.400	0.132	-0.196
-554.427	-200.000	-0.002	-0.186
-553.412	-16.456	-0.109	0.070
-552.398	-29.258	-0.129	-0.074
-551.383	-200.000	-0.043	-0.227
-550.369	-200.000	-0.011	0.221
-549.354	-153.251	0.360	-0.025
-548.339	318.618	0.032	0.061
-547.325	-31.643	-0.085	-0.048
-546.310	90.974	0.234	-0.263
-545.296	-3.597	0.206	0.144
-544.281	27.228	-0.064	0.054
-543.266	-200.000	-0.007	0.085
-542.252	183.326	0.035	-0.053
-541.237	-200.000	-0.037	0.253
-540.223	468.214	0.045	-0.101
-539.208	-200.000	-0.050	-0.296
-538.193	-101.414	-0.089	0.022
-537.179	164.370	-0.216	-0.306
-536.164	-200.000	0.028	0.290
-535.150	36.334	0.204	0.181
-534.135	-200.000	-0.044	0.233
-533.121	182.813	-0.113	-0.168
-532.106	800.000	-0.067	0.225
-531.091	-200.000	-0.068	0.309
-530.077	772.075	0.090	-0.247
-529.062	800.000	-0.022	-0.071
-528.048	3.471	0.124	-0.091
-527.033	-126.514	-0.234	0.035
-526.018	-43.328	0.171	-0.087
-525.004	66.503	0.140	0.143
-523.989	800.000	-0.136	-0.395
-522.975	-115.979	0.290	0.054
-521.960	-57.957	-0.415	0.182
-520.945	108.412	0.161	0.193
-519.931	184.107	0.034	0.051
-518.916	173.133	0.140	-0.203
-517.902	-66.938	-0.330	-0.131
-516.887	-85.210	0.333	0.105
-515.872	26.052	0.135	-0.113
-514.858	385.735	-0.040	0.084
-513.843	78.621	0.077	0.083
-512.829	-96.290	-0.141	-0.037
-511.814	-43.321	-0.229	-0.116
-510.799	559.852	0.107	0.260
-509.785	114.527	0.207	0.253
-508.770	11.185	0.223	0.171
-507.756	-200.000	0.007	0.380
-506.741	86.858	-0.108	-0.120
-505.726	-16.095	0.192	-0.123
-504.712	-141.761	0.286	-0.029
-503.697	4.738	0.186	0.137
-502.683	-200.000	-0.011	0.093
-501.668	-157.243	0.159	0.010
-500.653	-200.000	-0.019	0.230
-499.639	578.273	-0.026	-0.063
-498.624	-96.284	0.427	0.114
-497.610	608.676	0.093	0.234
-496.595	171.024	0.092	-0.132
-495.581	-102.863	-0.163	-0.039
-494.566	92.163	-0.140	0.158
-493.551	197.322	0.047	-0.073
-492.537	9.323	-0.071	0.054
-491.522	38.123	0.047	-0.042
-490.508	-48.138	-0.158	-0.076
-489.493	-109.004	-0.188	0.040
-488.478	-200.000	0.000	-0.295
-487.464	598.381	0.057	0.142
-486.449	193.896	0.090	-0.137
-485.435	-200.000	0.013	-0.369
-484.420	-72.719	0.187	0.069
-483.405	227.562	-0.132	0.216
-482.391	-200.000	-0.013	0.168
-481.376	88.489	0.147	-0.163
-480.362	800.000	-0.094	0.352
-479.347	-150.673	-0.126	-0.010
-478.332	17.310	0.114	-0.091
-477.318	134.304	-0.097	0.125
-476.303	382.249	-0.106	-0.218
-475.289	301.211	-0.131	0.243
-474.274	-200.000	0.015	0.148
-473.259	54.715	0.240	-0.232
-472.245	-84.328	0.143	0.046
-471.230	345.619	-0.077	-0.152
-470.216	800.000	0.056	-0.236
-469.201	345.157	-0.055	-0.108
-468.186	-200.000	0.066	0.312
-467.172	-57.540	-0.247	-0.109
-466.157	27.592	0.220	0.185
-465.143	548.036	-0.080	0.193
-464.128	254.263	-0.127	0.217
-463.113	454.658	0.067	-0.148
-462.099	194.405	-0.026	0.040
-461.084	-54.165	0.119	-0.054
-460.070	147.377	-0.189	-0.256
-459.055	-125.425	-0.072	-0.011
-458.040	-45.759	-0.174	0.086
-457.026	79.328	-0.070	0.075
-456.011	125.659	-0.147	-0.186
-454.997	181.868	-0.084	-0.124
-453.982	-4.328	-0.071	-0.049
-452.968	-68.981	-0.165	0.064
-451.953	763.944	0.104	-0.283
-450.938	-5.872	-0.135	-0.093
-449.924	54.578	-0.125	0.120
-448.909	800.000	-0.095	0.374
-447.895	-141.447	0.191	0.019
-446.880	118.898	-0.012	0.015
-445.865	-157.234	-0.231	0.014
-444.851	109.353	0.081	-0.097
-443.836	-200.000	0.015	-0.067
-442.822	-200.000	0.000	-0.059
-441.807	-200.000	0.021	0.249
-440.792	295.803	-0.070	-0.129
-439.778	-200.000	0.013	-0.214
-438.763	-50.609	-0.189	0.089
-437.749	235.753	0.167	-0.276
-436.734	-25.956	0.133	-0.078
-435.719	-103.212	-0.390	0.092
-434.705	-36.687	0.156	0.084
-433.690	16.652	-0.078	-0.062
-432.676	800.000	0.034	-0.126
-431.661	-89.206	0.366	-0.108
-430.646	-44.508	-0.153	0.077
-429.632	4.530	-0.102	0.075
-428.617	-163.125	0.256	0.012
-427.603	12.348	0.302	-0.233
-426.588	4.456	-0.173	0.127
-425.573	24.837	0.167	-0.139
-424.559	-123.267	-0.359	-0.057
-423.544	-10.123	-0.174	-0.116
-422.530	800.000	-0.083	-0.239
-421.515	-9.279	0.225	-0.150
-420.500	-72.106	-0.067	0.025
-419.486	-2.125	-0.198	0.139
-418.471	-3.849	-0.231	0.160
-417.457	115.027	0.078	-0.095
-416.442	118.286	0.143	0.177
-415.428	-200.000	-0.043	0.285
-414.413	-188.947	0.089	0.001
-413.398	800.000	0.047	-0.190
-412.384	534.013	-0.050	0.120
-411.369	-120.783	0.133	0.023
-410.355	249.166	0.122	-0.206
-409.340	-53.589	-0.068	0.031
-408.325	-200.000	-0.002	0.184
-407.311	-200.000	0.017	-0.137
-406.296	-151.985	0.094	0.007
-405.282	-37.282	0.249	0.133
-404.267	90.478	0.064	0.072
-403.252	-97.986	0.304	-0.078
-402.238	209.710	0.159	-0.249
-401.223	324.320	0.096	-0.183
-400.209	-85.227	-0.006	0.002
-399.194	-63.950	-0.365	-0.149
-398.179	-200.000	0.180	-0.000
-397.165	800.000	0.072	-0.223
-396.150	108.271	-0.184	-0.219
-395.136	-6.292	-0.268	-0.183
-394.121	-200.000	-0.052	-0.249
-393.106	-88.388	0.174	0.052
-392.092	-37.155	-0.158	0.085
-391.077	-200.000	-0.049	-0.280
-390.063	-88.787	0.065	0.019
-389.048	56.420	0.083	0.080
-388.033	-200.000	0.006	0.072
-387.019	96.945	0.059	0.068
-386.004	121.769	-0.088	-0.109
-384.990	-71.656	0.163	0.061
-383.975	-142.972	-0.021	-0.002
-382.960	-200.000	-0.045	0.233
-381.946	52.832	0.178	0.170
-380.931	-63.723	0.076	0.031
-379.917	123.833	-0.091	0.114
-378.902	-200.000	0.032	0.266
-377.888	259.886	-0.205	0.353
-376.873	71.441	0.013	0.013
-375.858	6.157	-0.061	-0.045
-374.844	-27.779	0.122	0.070
-373.829	-131.319	-0.341	0.045
-372.815	800.000	-0.045	0.174
-371.800	-24.230	0.153	0.091
-370.785	-74.253	-0.092	0.033
-369.771	-10.304	0.163	0.108
-368.756	241.709	-0.054	0.090
-367.742	800.000	0.017	-0.069
-366.727	-20.200	0.323	-0.199
-365.712	201.565	-0.123	-0.189
-364.698	-15.326	-0.222	-0.142
-363.683	69.654	0.132	0.135
-362.669	-28.517	-0.194	-0.112
-361.654	-24.023	0.165	-0.099
-360.639	-67.028	-0.205	-0.081
-359.625	800.000	-0.028	-0.087
-358.610	183.471	-0.123	-0.181
-357.596	214.551	0.123	0.194
-356.581	-123.666	0.249	0.039
-355.566	-200.000	-0.005	-0.159
-354.552	-10.556	-0.119	0.079
-353.537	-180.034	-0.187	-0.004
-352.523	-200.000	-0.148	-0.648
-351.508	-89.013	0.208	-0.061
-350.493	-200.000	-0.001	-0.190
-349.479	-97.383	0.050	0.013
-348.464	44.948	0.075	0.069
-347.450	716.091	-0.048	0.126
-346.435	105.932	0.117	-0.139
-345.420	-200.000	0.004	0.123
-344.406	-73.498	-0.207	-0.075
-343.391	-11.202	0.266	-0.175
-342.377	-24.531	-0.217	0.129
-341.362	266.805	0.108	0.188
-340.348	157.218	-0.189	0.261
-339.333	-75.735	0.211	0.075
-338.318	25.763	-0.367	0.305
-337.304	-59.712	0.188	0.080
-336.289	45.835	-0.049	0.046
-335.275	91.378	0.059	0.066
-334.260	-118.018	0.162	0.029
-333.245	211.844	0.110	0.173
-332.231	71.648	-0.203	0.210
-331.216	-171.819	0.254	-0.008
-330.202	-200.000	0.002	0.104
-329.187	-200.000	0.002	-0.240
-328.172	-200.000	0.056	-0.432
-327.158	-27.057	0.326	-0.190
-326.143	800.000	-0.114	0.398
-325.129	800.000	0.117	0.470
-324.114	679.029	-0.103	-0.267
-323.099	-66.098	-0.202	-0.080
-322.085	90.004	0.230	0.256
-321.070	26.946	-0.057	0.048
-320.056	-123.715	-0.335	-0.053
-319.041	-94.488	-0.220	-0.060
-318.026	-109.559	0.373	-0.078
-317.012	-53.394	0.153	0.070
-315.997	-38.668	-0.079	0.042
-314.983	-200.000	0.022	0.143
-313.968	-71.018	-0.146	-0.055
-312.953	-75.959	0.415	0.146
-311.939	0.848	-0.181	0.129
-310.924	92.899	0.033	-0.037
-309.910	-18.219	0.236	0.147
-308.895	-29.527	0.058	0.033
-307.880	-82.464	-0.478	-0.155
-306.866	175.435	0.083	0.120
-305.851	-147.853	-0.278	0.023
-304.837	145.321	-0.085	0.113
-303.822	-200.000	0.009	0.310
-302.807	-119.787	-0.461	0.079
-301.793	-200.000	0.028	0.242
-300.778	164.539	-0.271	0.380
-299.764	-114.531	-0.516	0.099
-298.749	188.129	-0.118	-0.176
-297.735	-33.025	-0.073	0.040
-296.720	429.785	0.073	-0.158
-295.705	-54.292	0.165	-0.075
-294.691	-153.807	-0.205	0.014
-293.676	-63.613	0.240	0.098
-292.662	-200.000	0.036	0.220
-291.647	-58.039	-0.077	0.033
-290.632	-128.229	0.146	0.021
-289.618	-138.938	-0.263	-0.028
-288.603	-154.862	-0.091	0.006
-287.589	123.513	0.042	0.052
-286.574	-128.379	0.259	-0.037
-285.559	89.418	-0.023	-0.025
-284.545	-118.621	-0.161	-0.028
-283.530	-200.000	-0.026	-0.143
-282.516	273.709	0.137	-0.241
-281.501	-118.568	0.193	0.034
-280.486	-70.467	-0.139	0.052
-279.472	-65.707	0.309	0.123
-278.457	-200.000	-0.053	0.308
-277.443	83.865	-0.076	0.083
-276.428	31.729	0.168	0.144
-275.413	-200.000	0.055	-0.359
-274.399	-59.542	-0.261	-0.112
-273.384	-113.851	-0.158	-0.030
-272.370	-89.440	-0.221	-0.065
-271.355	-200.000	-0.035	0.236
-270.340	39.003	-0.057	0.051
-269.326	238.990	0.064	-0.106
-268.311	-200.000	-0.046	0.336
-267.297	800.000	-0.065	-0.234
-266.282	128.829	-0.207	0.263
-265.267	800.000	0.024	0.075
-264.253	161.463	0.091	-0.126
-263.238	-170.934	-0.238	-0.008
-262.224	-200.000	0.024	0.173
-261.209	-71.400	-0.187	0.070
-260.195	198.296	0.161	-0.245
-259.180	272.316	0.100	0.175
-258.165	-65.735	0.265	-0.106
-257.151	72.320	-0.030	0.031
-256.136	406.926	-0.032	-0.067
-255.122	800.000	0.026	0.113
-254.107	800.000	0.017	0.064
-253.092	-75.567	-0.166	-0.059
-252.078	-79.157	0.267	0.090
-251.063	-200.000	-0.006	0.165
-250.049	135.289	0.149	0.193
-249.034	-106.107	-0.139	0.031
-248.019	522.225	0.137	-0.319
-247.005	-200.000	0.004	-0.074
-245.990	800.000	-0.079	-0.219
-244.976	-81.457	0.020	-0.006
-243.961	-59.773	-0.168	-0.072
-242.946	-200.000	-0.000	-0.041
-241.932	100.041	-0.106	-0.122
-240.917	-26.458	0.132	-0.077
-239.903	-11.590	0.347	0.226
-238.888	800.000	-0.124	0.347
-237.873	288.688	-0.046	0.083
-236.859	81.337	0.169	-0.182
-235.844	800.000	0.164	0.453
-234.830	-28.783	-0.083	-0.048
-233.815	145.062	0.170	-0.226
-232.800	18.780	-0.172	0.137
-231.786	-129.866	-0.306	-0.042
-230.771	714.990	0.027	0.071
-229.757	800.000	0.061	0.170
-228.742	-127.481	-0.299	0.043
-227.727	-90.182	-0.185	-0.053
-226.713	-200.000	-0.005	-0.169
-225.698	175.524	-0.167	-0.241
-224.684	-182.092	0.347	0.006
-223.669	-43.339	0.164	0.082
-222.655	-12.097	0.090	0.058
-221.640	63.175	0.131	0.131
-220.625	-28.227	-0.222	0.127
-219.611	-0.534	0.140	-0.099
-218.596	800.000	-0.021	0.062
-217.582	800.000	0.080	0.296
-216.567	-200.000	0.019	-0.112
-215.552	-195.346	0.085	0.001
-214.538	47.351	0.318	-0.294
-213.523	339.096	-0.279	-0.539
-212.509	105.349	0.079	0.092
-211.494	-179.907	0.089	-0.002
-210.479	-12.199	0.166	-0.108
-209.465	276.570	0.074	0.131
-208.450	50.637	-0.297	0.279
-207.436	-115.404	0.160	0.030
-206.421	20.226	-0.237	-0.190
-205.406	-200.000	0.008	0.230
-204.392	467.863	0.107	-0.238
-203.377	246.842	-0.198	-0.331
-202.363	635.695	-0.009	-0.023
-201.348	93.201	-0.096	-0.107
-200.333	769.039	-0.068	0.184
-199.319	17.174	0.189	-0.149
-198.304	307.046	0.186	-0.344
-197.290	-98.923	0.162	0.041
-196.275	65.686	0.213	-0.214
-195.260	-57.159	0.133	-0.058
-194.246	387.223	-0.055	-0.112
-193.231	182.454	-0.124	-0.181
-192.217	4.779	0.200	-0.146
-191.202	-54.268	0.305	-0.137
-190.187	-160.516	-0.113	-0.006
-189.173	658.582	-0.133	0.338
-188.158	-89.258	-0.147	0.043
-187.144	-2.841	-0.239	-0.166
-186.129	1.535	-0.122	0.087
-185.114	800.000	-0.052	0.158
-184.100	-85.802	0.136	-0.042
-183.085	-25.343	-0.546	-0.320
-182.071	800.000	-0.083	-0.279
-181.056	-68.926	-0.205	0.078
-180.042	-200.000	0.006	0.040
-179.027	311.518	-0.063	0.117
-178.012	-29.332	-0.223	0.127
-176.998	-73.244	0.250	0.091
-175.983	-200.000	0.025	-0.193
-174.969	-90.341	-0.098	-0.028
-173.954	-78.289	0.090	-0.031
-172.939	58.191	0.093	-0.090
-171.925	-200.000	-0.018	-0.183
-170.910	649.230	-0.079	-0.201
-169.896	800.000	0.063	0.205
-168.881	53.874	-0.130	0.123
-167.866	-200.000	-0.017	0.261
-166.852	-76.846	0.299	0.104
-165.837	-23.775	0.085	-0.051
-164.823	-80.224	-0.285	0.095
-163.808	66.145	0.104	-0.105
-162.793	427.403	-0.215	-0.460
-161.779	136.043	0.136	0.175
-160.764	-157.486	-0.281	-0.017
-159.750	800.000	0.074	0.309
-158.735	-59.885	0.195	0.082
-157.720	165.215	-0.111	-0.155
-156.706	-117.973	0.246	0.044
-155.691	-68.962	-0.279	0.106
-154.677	208.309	-0.057	0.089
-153.662	13.215	0.336	0.258
-152.647	800.000	0.128	0.402
-151.633	163.352	0.095	-0.132
-150.618	-0.898	0.182	0.127
-149.604	108.787	-0.043	-0.051
-148.589	491.303	0.174	0.395
-147.574	211.874	-0.035	0.054
-146.560	-39.380	0.099	0.051
-145.545	73.822	-0.185	0.192
-144.531	-40.275	-0.126	-0.065
-143.516	223.041	-0.124	-0.198
-142.502	-50.866	0.133	-0.062
-141.487	69.987	0.202	-0.206
-140.472	229.103	-0.173	0.279
-139.458	-57.024	0.270	-0.118
-138.443	24.223	-0.257	-0.210
-137.429	-114.566	0.220	0.042
-136.414	-57.684	-0.298	-0.129
-135.399	-104.369	0.109	0.025
-134.385	152.504	0.324	0.438
-133.370	800.000	0.056	0.173
-132.356	-101.007	-0.026	-0.006
-131.341	-168.015	0.339	-0.013
-130.326	25.911	-0.140	-0.116
-129.312	-67.863	0.102	-0.039
-128.297	-129.095	0.073	-0.010
-127.283	-77.764	-0.187	-0.064
-126.268	38.761	0.244	-0.215
-125.253	143.357	0.225	-0.296
-124.239	71.045	-0.199	-0.204
-123.224	15.805	-0.184	0.143
-122.210	800.000	0.067	-0.252
-121.195	311.087	0.274	-0.507
-120.180	-57.187	0.125	0.054
