DTS Sentinel unit serial number:	SN413079Multiplexer serial number:	ORYXHardware model number:	OX4-SRSoftware version number:	ORYX F/W v4.00 Oryx Data Collector v3.7.2.0data status	okinstallation	princeton_trtdifferential loss correction	single-endedforward channel	channel 1reverse channel	N/Adate	2019/09/14time	22:10:35forward acquisition time	60.00reverse acquisition time	0.00gamma	496.2192k internal	0.2319k external	0.2319temperature offset calibration	1.0010default loss term (dB/km)	0.3790temperature slope calibration	1.0000multiplexer offset coefficient	1.0000multiplexer slope coefficient	1.0000fibre end	0.00T internal ref (°C)	32.62T ext. ref 1 (°C)	4.72T ext. ref 2 (°C)	27.62length (m)	temperature (°C)	Stokes	anti-Stokes-747.200	-122.712	-0.266	-0.044
-746.185	-200.000	0.062	0.297
-745.171	-200.000	0.018	-0.366
-744.156	-67.607	-0.119	-0.047
-743.142	-3.161	-0.034	0.024
-742.127	-108.374	-0.184	0.040
-741.112	136.719	0.121	0.159
-740.098	64.795	-0.142	0.145
-739.083	54.992	-0.111	-0.108
-738.069	-7.473	-0.426	0.292
-737.054	61.499	-0.238	-0.239
-736.039	168.347	-0.056	-0.081
-735.025	-200.000	-0.014	-0.238
-734.010	800.000	-0.018	0.054
-732.996	-155.985	0.165	-0.011
-731.981	-200.000	0.014	-0.455
-730.966	-186.184	-0.310	0.005
-729.952	385.443	-0.102	0.212
-728.937	-200.000	-0.316	0.000
-727.923	-91.250	-0.334	-0.097
-726.908	-200.000	-0.013	-0.199
-725.894	137.195	-0.144	-0.191
-724.879	3.518	0.217	-0.160
-723.864	-104.341	-0.422	-0.099
-722.850	-200.000	0.027	0.135
-721.835	-56.054	-0.134	0.061
-720.821	60.436	-0.263	0.263
-719.806	27.216	0.150	-0.128
-718.791	133.666	-0.180	0.235
-717.777	-104.371	0.364	-0.085
-716.762	20.055	0.397	-0.324
-715.748	-200.000	-0.019	-0.243
-714.733	-200.000	-0.006	0.140
-713.718	800.000	-0.095	0.333
-712.704	588.814	-0.027	0.066
-711.689	-178.712	0.152	-0.004
-710.675	323.236	-0.052	-0.100
-709.660	800.000	-0.049	0.162
-708.645	37.534	-0.153	-0.138
-707.631	509.222	-0.139	0.327
-706.616	-173.647	-0.087	0.003
-705.602	800.000	-0.057	0.245
-704.587	-200.000	0.002	-0.156
-703.572	72.813	0.233	-0.246
-702.558	-189.851	0.249	-0.003
-701.543	-158.706	-0.203	0.012
-700.529	-147.007	-0.292	0.025
-699.514	-136.816	0.025	-0.003
-698.499	-71.612	-0.095	0.036
-697.485	-183.943	-0.487	-0.008
-696.470	-88.635	0.144	0.043
-695.456	-62.412	0.164	-0.069
-694.441	116.143	-0.127	0.158
-693.426	-200.000	-0.022	0.132
-692.412	166.383	-0.156	0.223
-691.397	-111.375	0.183	0.038
-690.383	0.145	-0.115	-0.083
-689.368	-19.678	0.183	-0.114
-688.354	800.000	0.058	0.219
-687.339	168.924	-0.067	0.096
-686.324	-157.319	-0.310	-0.019
-685.310	-200.000	0.009	-0.259
-684.295	99.908	-0.145	-0.170
-683.281	32.578	0.135	-0.118
-682.266	400.334	0.034	-0.073
-681.251	688.223	-0.120	-0.316
-680.237	526.565	-0.098	-0.232
-679.222	-116.438	-0.251	0.047
-678.208	-200.000	-0.018	-0.082
-677.193	-15.050	0.230	-0.149
-676.178	-10.138	0.105	-0.071
-675.164	166.819	-0.260	-0.372
-674.149	15.267	-0.147	0.116
-673.135	-124.629	-0.287	-0.045
-672.120	800.000	0.073	0.304
-671.105	218.948	0.106	-0.171
-670.091	-200.000	-0.016	-0.328
-669.076	-59.559	-0.183	-0.079
-668.062	-114.832	0.134	-0.026
-667.047	-145.014	-0.344	0.032
-666.032	232.291	0.077	0.127
-665.018	800.000	-0.090	0.327
-664.003	317.148	0.177	0.338
-662.989	-67.366	-0.067	0.027
-661.974	800.000	-0.052	-0.196
-660.959	334.626	0.171	-0.333
-659.945	680.651	0.097	-0.255
-658.930	44.124	0.056	0.052
-657.916	91.717	0.183	-0.208
-656.901	202.442	0.129	0.201
-655.886	-200.000	-0.038	-0.209
-654.872	81.358	-0.213	0.232
-653.857	-26.222	-0.198	-0.117
-652.843	-200.000	-0.023	-0.176
-651.828	526.262	-0.105	0.248
-650.814	167.053	-0.159	0.228
-649.799	215.753	-0.135	-0.216
-648.784	-69.510	-0.212	0.082
-647.770	160.271	-0.033	-0.046
-646.755	-200.000	0.010	-0.296
-645.741	62.219	0.082	0.082
-644.726	-9.313	-0.049	-0.033
-643.711	39.007	0.122	0.110
-642.697	-200.000	-0.036	-0.161
-641.682	-135.555	-0.187	0.022
-640.668	-28.323	0.055	0.032
-639.653	-80.419	0.150	-0.050
-638.638	-12.367	-0.087	-0.057
-637.624	93.005	0.147	0.167
-636.609	-148.759	0.066	0.005
-635.595	35.317	-0.327	-0.289
-634.580	-44.395	0.264	0.133
-633.565	-90.020	-0.273	0.080
-632.551	800.000	0.050	0.181
-631.536	-200.000	0.014	-0.163
-630.522	786.852	0.053	0.148
-629.507	-30.250	-0.041	0.024
-628.492	84.925	-0.147	0.162
-627.478	55.077	-0.092	0.090
-626.463	-91.743	0.250	-0.071
-625.449	-178.797	-0.412	0.009
-624.434	201.895	0.044	-0.068
-623.419	-21.544	0.145	-0.089
-622.405	298.646	-0.096	0.178
-621.390	800.000	0.082	0.301
-620.376	241.985	0.082	-0.138
-619.361	-36.781	-0.115	0.062
-618.346	208.473	0.006	-0.010
-617.332	-61.911	0.262	-0.110
-616.317	-125.291	0.074	-0.011
-615.303	-8.926	-0.200	0.135
-614.288	406.000	0.166	-0.353
-613.273	26.407	0.316	0.266
-612.259	-9.381	-0.164	0.110
-611.244	-55.283	-0.129	-0.058
-610.230	800.000	0.062	-0.198
-609.215	-200.000	-0.051	-0.273
-608.201	-200.000	-0.023	0.128
-607.186	324.143	0.046	0.089
-606.171	213.236	0.117	-0.186
-605.157	85.748	-0.127	-0.140
-604.142	-200.000	0.017	-0.492
-603.128	738.538	-0.074	-0.199
-602.113	800.000	-0.027	0.105
-601.098	800.000	0.070	-0.216
-600.084	-103.797	-0.227	-0.053
-599.069	-139.961	-0.157	0.017
-598.055	25.399	-0.195	0.163
-597.040	-81.557	0.251	0.083
-596.025	20.599	0.101	0.082
-595.011	-146.415	0.212	-0.019
-593.996	-200.000	-0.003	0.105
-592.982	407.055	-0.171	-0.364
-591.967	252.311	-0.134	0.230
-590.952	-157.382	-0.106	-0.006
-589.938	-200.000	0.021	0.165
-588.923	192.603	0.019	-0.029
-587.909	62.348	-0.221	0.222
-586.894	79.847	-0.039	0.043
-585.879	588.499	0.108	-0.267
-584.865	3.733	0.118	-0.087
-583.850	165.559	-0.189	-0.268
-582.836	-62.830	-0.181	0.075
-581.821	800.000	-0.024	0.103
-580.806	-172.869	0.191	-0.006
-579.792	-44.902	-0.174	-0.087
-578.777	-200.000	-0.037	-0.244
-577.763	-71.674	-0.454	0.170
-576.748	72.565	0.125	-0.131
-575.733	800.000	0.099	-0.388
-574.719	227.820	0.100	0.163
-573.704	-44.431	0.114	-0.057
-572.690	404.403	-0.106	-0.223
-571.675	59.116	0.095	-0.094
-570.661	-200.000	0.052	0.439
-569.646	-7.814	-0.169	-0.115
-568.631	-158.500	-0.264	-0.015
-567.617	-18.217	0.063	0.040
-566.602	715.389	0.097	-0.259
-565.588	132.603	0.119	-0.154
-564.573	-34.659	-0.197	-0.108
-563.558	206.075	0.079	-0.124
-562.544	800.000	-0.091	0.276
-561.529	-149.463	0.331	-0.026
-560.515	117.745	0.194	0.240
-559.500	-45.938	0.054	0.027
-558.485	800.000	0.039	0.129
-557.471	-146.615	-0.345	-0.030
-556.456	54.301	-0.268	0.259
-555.442	252.938	-0.245	0.420
-554.427	61.174	-0.070	-0.070
-553.412	-51.632	0.356	-0.167
-552.398	-29.272	-0.297	-0.171
-551.383	8.753	-0.175	0.133
-550.369	-94.712	0.180	-0.049
-549.354	47.089	-0.117	0.110
-548.339	157.489	0.055	-0.077
-547.325	22.682	0.265	-0.218
-546.310	-200.000	-0.003	0.324
-545.296	-106.766	-0.236	0.053
-544.281	-10.337	0.112	0.074
-543.266	33.235	-0.075	0.065
-542.252	-200.000	-0.016	0.095
-541.237	87.377	-0.252	0.280
-540.223	6.422	0.417	0.311
-539.208	167.984	0.134	-0.191
-538.193	668.115	-0.020	0.051
-537.179	47.261	0.119	0.111
-536.164	-56.822	0.112	0.050
-535.150	-200.000	-0.010	-0.188
-534.135	-74.305	0.140	0.051
-533.121	157.311	-0.117	0.162
-532.106	91.188	0.084	0.094
-531.091	-131.227	0.182	-0.024
-530.077	273.970	-0.089	-0.158
-529.062	60.781	0.156	0.155
-528.048	-200.000	0.026	0.152
-527.033	-109.786	0.217	-0.046
-526.018	-46.362	0.390	-0.192
-525.004	183.483	0.137	0.203
-523.989	399.194	-0.020	0.043
-522.975	-80.584	-0.126	-0.042
-521.960	-68.078	0.220	0.086
-520.945	-200.000	0.004	-0.333
-519.931	800.000	-0.063	-0.197
-518.916	66.765	-0.153	-0.157
-517.902	-16.635	-0.076	0.048
-516.887	491.802	0.074	-0.169
-515.872	-29.634	0.292	0.167
-514.858	44.861	0.048	-0.044
-513.843	-7.987	0.215	-0.145
-512.829	-101.582	0.056	0.014
-511.814	-0.062	0.221	0.158
-510.799	-80.436	0.135	-0.045
-509.785	-114.919	0.435	-0.083
-508.770	40.304	-0.401	0.362
-507.756	-21.563	-0.190	0.116
-506.741	740.441	0.035	0.093
-505.726	7.205	-0.149	-0.111
-504.712	800.000	-0.063	0.206
-503.697	-76.056	-0.074	-0.026
-502.683	64.135	-0.268	-0.270
-501.668	609.149	-0.101	-0.253
-500.653	-88.507	-0.260	0.078
-499.639	-200.000	-0.015	0.117
-498.624	24.246	0.023	0.019
-497.610	800.000	0.058	0.211
-496.595	-55.522	-0.202	0.091
-495.581	-94.789	-0.560	0.152
-494.566	252.176	-0.090	0.153
-493.551	800.000	-0.085	-0.352
-492.537	-36.559	0.089	-0.048
-491.522	391.746	-0.052	-0.108
-490.508	10.405	-0.166	0.126
-489.493	800.000	-0.102	0.365
-488.478	-183.667	-0.089	0.002
-487.464	-200.000	0.001	0.035
-486.449	-200.000	-0.006	0.160
-485.435	800.000	0.020	-0.068
-484.420	-59.338	-0.379	-0.163
-483.405	57.025	-0.290	-0.283
-482.391	-132.646	-0.349	-0.045
-481.376	-70.070	-0.171	-0.065
-480.362	-127.081	-0.253	-0.037
-479.347	128.448	-0.123	-0.157
-478.332	-75.422	0.197	0.070
-477.318	15.500	-0.265	0.208
-476.303	-28.936	0.168	-0.096
-475.289	-9.043	-0.209	-0.140
-474.274	-76.344	0.138	-0.049
-473.259	-200.000	-0.025	0.502
-472.245	-53.838	-0.146	-0.067
-471.230	61.763	0.063	-0.063
-470.216	-52.902	0.130	-0.060
-469.201	37.203	-0.275	0.244
-468.186	-14.370	-0.097	-0.063
-467.172	-71.340	-0.107	-0.040
-466.157	204.457	-0.068	-0.106
-465.143	66.000	-0.183	-0.186
-464.128	-85.864	0.143	-0.044
-463.113	95.024	-0.251	0.286
-462.099	-200.000	0.052	-0.235
-461.084	90.596	-0.072	0.080
-460.070	-6.404	0.135	-0.092
-459.055	-200.000	-0.026	-0.139
-458.040	267.696	0.210	0.368
-457.026	3.307	0.370	0.269
-456.011	-95.581	0.078	-0.021
-454.997	-200.000	0.114	-0.600
-453.982	520.665	-0.091	-0.213
-452.968	197.685	-0.147	-0.225
-451.953	800.000	0.079	-0.260
-450.938	70.713	0.045	-0.046
-449.924	14.629	0.362	0.283
-448.909	-200.000	-0.046	-0.214
-447.895	-33.157	-0.301	0.167
-446.880	-55.785	0.362	-0.162
-445.865	455.334	0.101	-0.224
-444.851	34.816	-0.154	0.134
-443.836	406.140	0.046	-0.097
-442.822	-144.052	-0.240	0.023
-441.807	800.000	-0.126	0.394
-440.792	-104.549	0.201	0.046
-439.778	-159.702	-0.263	-0.014
-438.763	-30.753	0.153	0.086
-437.749	-40.096	0.225	0.117
-436.734	-100.415	0.219	-0.054
-435.719	-58.150	-0.129	0.056
-434.705	0.494	0.298	-0.213
-433.690	234.059	-0.275	0.452
-432.676	-200.000	-0.006	0.179
-431.661	60.653	-0.117	-0.116
-430.646	331.948	-0.078	-0.151
-429.632	-200.000	0.011	0.206
-428.617	-96.124	-0.049	-0.013
-427.603	-200.000	-0.060	-0.297
-426.588	-18.606	0.299	-0.187
-425.573	121.069	-0.198	-0.247
-424.559	273.343	0.084	-0.148
-423.544	274.904	0.088	-0.156
-422.530	800.000	-0.031	0.087
-421.515	-111.445	-0.213	0.043
-420.500	800.000	0.068	-0.229
-419.486	-200.000	0.001	0.097
-418.471	159.635	-0.022	-0.030
-417.457	105.504	0.290	-0.343
-416.442	-91.712	0.089	0.025
-415.428	238.024	0.096	0.159
-414.413	-171.587	0.324	-0.011
-413.398	80.047	0.102	-0.110
-412.384	-16.218	0.121	0.077
-411.369	-200.000	-0.021	0.109
-410.355	-200.000	-0.015	0.462
-409.340	99.001	-0.185	0.213
-408.325	800.000	-0.053	-0.206
-407.311	800.000	-0.044	-0.125
-406.296	-127.114	-0.222	-0.033
-405.282	-58.323	-0.225	0.098
-404.267	375.131	0.141	-0.286
-403.252	-129.169	0.114	-0.016
-402.238	-14.944	-0.348	-0.223
-401.223	383.847	0.030	-0.062
-400.209	800.000	0.043	-0.122
-399.194	-175.484	-0.348	-0.009
-398.179	-200.000	0.029	-0.575
-397.165	-32.203	0.201	-0.112
-396.150	34.115	0.040	-0.035
-395.136	102.191	0.114	0.133
-394.121	252.604	-0.162	0.276
-393.106	-200.000	0.003	0.071
-392.092	788.513	0.032	-0.087
-391.077	-196.140	0.411	0.003
-390.063	157.762	-0.122	-0.169
-389.048	-200.000	-0.004	-0.143
-388.033	414.565	0.125	-0.265
-387.019	235.884	-0.164	0.271
-386.004	800.000	0.108	0.322
-384.990	-2.553	-0.247	0.172
-383.975	-74.447	-0.089	0.032
-382.960	800.000	-0.043	-0.169
-381.946	-109.766	-0.341	0.071
-380.931	-200.000	-0.058	-0.263
-379.917	-102.260	-0.255	-0.061
-378.902	-200.000	0.002	0.256
-377.888	187.079	0.120	0.178
-376.873	-200.000	0.017	-0.127
-375.858	-200.000	0.011	0.328
-374.844	105.433	0.108	0.127
-373.829	624.719	0.121	-0.305
-372.815	800.000	0.051	0.186
-371.800	582.793	0.160	-0.392
-370.785	-144.491	0.125	-0.012
-369.771	-200.000	0.059	-0.298
-368.756	527.810	0.059	0.140
-367.742	6.490	-0.190	0.141
-366.727	1.360	0.185	0.132
-365.712	-200.000	0.003	-0.165
-364.698	-175.948	0.377	0.010
-363.683	-200.000	-0.057	-0.311
-362.669	-200.000	-0.033	0.321
-361.654	650.372	-0.045	-0.114
-360.639	-25.711	-0.072	0.042
-359.625	62.829	-0.195	0.195
-358.610	114.318	0.102	-0.124
-357.596	800.000	0.078	-0.300
-356.581	10.779	-0.211	0.161
-355.566	94.339	0.027	0.031
-354.552	195.147	-0.077	0.116
-353.537	-144.962	-0.253	-0.023
-352.523	-38.526	0.296	-0.156
-351.508	-136.813	0.096	-0.011
-350.493	39.688	0.133	-0.119
-349.479	-186.992	-0.170	0.002
-348.464	3.470	-0.164	-0.119
-347.450	415.615	-0.113	0.239
-346.435	190.142	-0.176	-0.263
-345.420	-28.101	0.193	0.111
-344.406	-14.948	0.101	-0.065
-343.391	-200.000	0.011	-0.192
-342.377	-200.000	-0.068	-0.313
-341.362	-20.540	-0.350	-0.214
-340.348	-7.425	0.079	0.054
-339.333	-101.383	0.101	0.024
-338.318	-178.918	-0.163	-0.004
-337.304	360.871	-0.091	0.181
-336.289	212.348	-0.269	-0.423
-335.275	25.431	0.137	-0.113
-334.260	-144.696	-0.179	-0.016
-333.245	-200.000	0.003	0.167
-332.231	-130.788	0.107	-0.014
-331.216	-200.000	-0.059	-0.357
-330.202	-111.323	0.201	-0.041
-329.187	-74.050	0.240	0.087
-328.172	-42.706	-0.165	0.084
-327.158	-200.000	-0.004	0.078
-326.143	-200.000	0.003	-0.055
-325.129	800.000	-0.113	-0.437
-324.114	765.583	-0.018	0.048
-323.099	-65.378	0.216	-0.086
-322.085	65.723	0.080	0.081
-321.070	-96.625	0.159	-0.042
-320.056	-200.000	0.025	-0.414
-319.041	-79.213	0.320	-0.108
-318.026	167.356	-0.053	-0.074
-317.012	275.200	0.064	0.112
-315.997	-200.000	0.002	0.181
-314.983	-34.186	-0.282	0.154
-313.968	-162.982	0.302	0.015
-312.953	-200.000	-0.029	-0.213
-311.939	-44.608	-0.121	0.060
-310.924	673.900	-0.077	0.199
-309.910	-129.402	0.128	-0.018
-308.895	100.763	-0.249	0.288
-307.880	116.738	0.135	0.165
-306.866	-200.000	0.023	-0.175
-305.851	800.000	-0.054	0.165
-304.837	317.571	-0.184	0.346
-303.822	-16.965	-0.118	0.074
-302.807	257.289	-0.098	-0.168
-301.793	-38.733	-0.148	-0.078
-300.778	-177.873	0.207	-0.005
-299.764	-43.533	-0.240	0.121
-298.749	-82.273	-0.073	0.024
-297.735	-200.000	-0.060	-0.434
-296.720	-158.502	0.267	-0.015
-295.705	793.695	0.202	0.554
-294.691	51.194	0.343	0.323
-293.676	-62.266	0.136	0.056
-292.662	72.651	-0.173	0.179
-291.647	-120.346	0.127	-0.021
-290.632	-200.000	-0.022	0.271
-289.618	159.223	-0.118	0.163
-288.603	570.869	-0.024	-0.057
-287.589	-60.137	0.329	-0.139
-286.574	-82.921	-0.259	0.083
-285.559	-6.228	-0.123	-0.084
-284.545	-200.000	-0.004	0.194
-283.530	39.767	0.056	-0.050
-282.516	-200.000	-0.022	0.097
-281.501	-160.787	0.119	0.006
-280.486	800.000	-0.114	0.413
-279.472	-200.000	0.001	0.399
-278.457	-24.807	-0.162	-0.096
-277.443	194.128	0.073	-0.110
-276.428	57.179	0.324	-0.314
-275.413	115.271	0.071	0.087
-274.399	203.141	-0.121	0.186
-273.384	-156.382	-0.157	-0.010
-272.370	-49.302	0.412	-0.195
-271.355	-63.169	0.150	0.062
-270.340	165.124	0.137	0.192
-269.326	329.190	-0.027	0.051
-268.311	-94.574	-0.257	0.069
-267.297	-11.862	-0.371	-0.242
-266.282	-200.000	-0.040	-0.192
-265.267	-45.273	-0.189	0.093
-264.253	197.783	0.187	0.283
-263.238	86.668	-0.037	0.041
-262.224	-82.101	0.224	0.073
-261.209	119.299	0.071	-0.087
-260.195	-98.434	-0.319	0.081
-259.180	-132.492	0.122	-0.016
-258.165	270.487	-0.095	-0.166
-257.151	-160.498	0.297	0.016
-256.136	68.642	-0.091	0.093
-255.122	-58.703	0.314	0.135
-254.107	-141.123	0.364	0.037
-253.092	155.343	0.162	0.221
-252.078	800.000	0.018	-0.058
-251.063	800.000	0.026	-0.074
-250.049	800.000	-0.069	-0.243
-249.034	287.332	0.066	0.119
-248.019	35.869	-0.059	0.052
-247.005	125.472	-0.044	-0.056
-245.990	51.674	0.222	-0.210
-244.976	-81.800	0.276	0.090
-243.961	-89.135	0.222	0.065
-242.946	-127.508	0.324	-0.047
-241.932	77.676	-0.206	-0.218
-240.917	415.688	-0.247	0.523
-239.903	-200.000	0.071	0.425
-238.888	-40.344	-0.306	-0.158
-237.873	142.502	0.097	-0.128
-236.859	491.708	-0.049	-0.111
-235.844	-106.512	0.149	-0.033
-234.830	130.574	-0.143	-0.182
-233.815	-92.794	0.237	-0.066
-232.800	-74.443	-0.302	-0.108
-231.786	440.794	-0.164	0.355
-230.771	-73.386	0.167	-0.061
-229.757	-200.000	-0.001	0.007
-228.742	-200.000	-0.025	-0.117
-227.727	-13.726	-0.028	-0.018
-226.713	-200.000	0.027	-0.214
-225.698	-105.020	-0.248	0.056
-224.684	326.936	-0.070	0.133
-223.669	210.315	-0.033	0.052
-222.655	-200.000	-0.133	0.000
-221.640	-92.359	0.051	0.014
-220.625	-80.658	-0.015	-0.005
-219.611	527.987	-0.122	0.284
-218.596	202.337	0.123	-0.189
-217.582	76.966	-0.097	0.102
-216.567	230.900	-0.036	-0.059
-215.552	388.699	0.119	0.244
-214.538	182.463	-0.123	0.180
-213.523	-18.225	0.095	0.059
-212.509	-200.000	0.069	0.307
-211.494	541.504	-0.098	0.231
-210.479	800.000	0.061	-0.197
-209.465	57.899	-0.018	0.017
-208.450	-200.000	-0.002	-0.058
-207.436	147.700	-0.185	-0.247
-206.421	304.467	0.120	-0.221
-205.406	-47.233	0.086	-0.042
-204.392	-1.743	-0.246	-0.172
-203.377	-94.113	0.266	-0.072
-202.363	-200.000	-0.065	0.293
-201.348	800.000	-0.044	0.130
-200.333	800.000	0.024	-0.070
-199.319	429.563	-0.095	0.204
-198.304	-94.781	0.068	-0.018
-197.290	427.356	-0.078	-0.168
-196.275	800.000	0.038	-0.109
-195.260	20.741	-0.055	-0.044
-194.246	800.000	-0.065	0.222
-193.231	-200.000	-0.055	-0.262
-192.217	-52.143	-0.150	-0.069
-191.202	-200.000	0.005	-0.051
-190.187	800.000	0.107	-0.367
-189.173	-147.831	-0.275	-0.023
-188.158	241.330	-0.061	-0.100
-187.144	-200.000	-0.081	0.548
-186.129	-120.306	0.304	0.051
-185.114	-43.724	0.128	-0.064
-184.100	58.359	0.117	-0.114
-183.085	-79.993	0.134	-0.045
-182.071	462.213	0.070	-0.154
-181.056	-144.968	-0.294	0.027
-180.042	-200.000	0.043	0.204
-179.027	-51.362	0.456	-0.211
-178.012	151.046	-0.074	-0.100
-176.998	-90.413	0.296	0.085
-175.983	173.296	0.152	-0.217
-174.969	57.301	-0.079	-0.076
-173.954	-200.000	0.267	-0.000
-172.939	-172.936	0.091	0.003
-171.925	19.366	0.223	0.177
-170.910	-109.142	0.142	-0.030
-169.896	246.933	0.185	0.309
-168.881	-88.280	-0.184	-0.054
-167.866	800.000	0.094	0.292
-166.852	78.232	0.266	0.281
-165.837	86.986	0.287	0.314
-164.823	163.488	0.129	-0.179
-163.808	675.622	-0.112	-0.288
-162.793	-52.358	-0.390	0.178
-161.779	-26.488	0.392	0.227
-160.764	210.570	0.116	0.180
-159.750	-117.863	0.131	0.023
-158.735	16.021	0.169	0.132
-157.720	-86.858	-0.045	0.014
-156.706	-36.362	0.054	0.029
-155.691	-112.036	-0.443	0.088
-154.677	35.160	0.037	-0.032
-153.662	-150.571	-0.164	-0.012
-152.647	-35.830	0.065	-0.035
-151.633	-91.101	0.100	-0.028
-150.618	13.321	-0.065	-0.050
-149.604	-200.000	0.006	0.175
-148.589	713.256	0.142	0.371
-147.574	-38.559	0.228	-0.119
-146.560	800.000	0.061	0.198
-145.545	48.318	-0.086	-0.080
-144.531	-94.494	0.231	-0.062
-143.516	-140.685	-0.366	0.037
-142.502	-28.462	0.145	-0.083
-141.487	86.626	-0.058	-0.064
-140.472	291.865	-0.019	-0.034
-139.458	411.086	0.071	-0.149
-138.443	37.820	0.121	0.106
-137.429	-200.000	0.026	0.472
-136.414	-21.193	-0.142	0.086
-135.399	57.339	-0.159	0.153
-134.385	50.829	-0.029	0.027
-133.370	-25.364	0.247	-0.144
-132.356	-84.760	0.212	-0.066
-131.341	322.549	-0.067	0.126
-130.326	-173.402	-0.133	0.004
-129.312	57.892	0.089	-0.086
-128.297	322.410	-0.171	-0.321
-127.283	52.518	-0.232	0.219
-126.268	-85.636	0.275	0.085
-125.253	-46.425	-0.033	0.016
-124.239	-200.000	0.052	0.364
-123.224	192.945	-0.126	0.188
-122.210	45.477	0.259	-0.236
-121.195	-200.000	-0.004	-0.120
