DTS Sentinel unit serial number:	SN413079Multiplexer serial number:	ORYXHardware model number:	OX4-SRSoftware version number:	ORYX F/W v4.00 Oryx Data Collector v3.7.2.0data status	okinstallation	princeton_trtdifferential loss correction	single-endedforward channel	channel 1reverse channel	N/Adate	2019/09/17time	09:02:35forward acquisition time	60.00reverse acquisition time	0.00gamma	496.2192k internal	0.2326k external	0.2326temperature offset calibration	0.9961default loss term (dB/km)	0.3790temperature slope calibration	1.0000multiplexer offset coefficient	1.0000multiplexer slope coefficient	1.0000fibre end	0.00T internal ref (°C)	28.06T ext. ref 1 (°C)	0.14T ext. ref 2 (°C)	24.53length (m)	temperature (°C)	Stokes	anti-Stokes-747.200	-132.252	-0.329	-0.043
-746.185	-36.768	0.108	-0.059
-745.171	800.000	0.034	-0.110
-744.156	800.000	0.106	0.408
-743.142	-21.706	-0.178	-0.110
-742.127	-95.241	-0.440	0.120
-741.112	253.231	0.118	0.203
-740.098	-43.549	0.180	-0.091
-739.083	-200.000	0.028	0.132
-738.069	-44.321	0.139	0.070
-737.054	582.290	-0.120	-0.298
-736.039	-200.000	-0.074	-0.392
-735.025	-152.808	0.434	-0.031
-734.010	-167.798	-0.068	0.003
-732.996	118.121	-0.161	-0.200
-731.981	-172.869	-0.221	-0.007
-730.966	-36.538	0.164	0.089
-729.952	-104.582	-0.197	-0.046
-728.937	-98.242	0.341	0.088
-727.923	-78.659	-0.318	-0.110
-726.908	-10.164	0.057	-0.038
-725.894	147.675	0.200	-0.271
-724.879	332.150	-0.070	-0.137
-723.864	-72.529	-0.110	0.041
-722.850	800.000	-0.060	0.259
-721.835	118.112	0.174	0.216
-720.821	-80.750	-0.231	0.077
-719.806	394.763	0.041	0.086
-718.791	85.396	-0.197	-0.218
-717.777	-0.706	0.106	-0.076
-716.762	800.000	-0.052	-0.207
-715.748	-200.000	-0.008	-0.407
-714.733	-5.934	-0.246	0.169
-713.718	297.140	-0.295	-0.546
-712.704	800.000	0.061	-0.205
-711.689	-200.000	0.002	0.309
-710.675	-80.198	-0.417	-0.141
-709.660	-200.000	-0.021	-0.121
-708.645	800.000	-0.030	-0.091
-707.631	-200.000	0.024	-0.344
-706.616	-200.000	-0.070	0.317
-705.602	211.597	0.174	0.276
-704.587	56.262	-0.354	-0.346
-703.572	-109.487	-0.312	0.066
-702.558	101.120	0.143	-0.167
-701.543	-200.000	0.024	-0.117
-700.529	800.000	-0.116	0.358
-699.514	100.834	-0.041	0.048
-698.499	-86.761	-0.187	-0.058
-697.485	-68.796	-0.081	0.032
-696.470	199.719	-0.170	0.263
-695.456	38.711	0.252	0.226
-694.441	-200.000	-0.013	0.228
-693.426	-200.000	0.007	-0.268
-692.412	149.082	-0.212	-0.288
-691.397	41.604	0.017	-0.015
-690.383	4.277	-0.190	0.140
-689.368	-39.144	0.173	-0.091
-688.354	-80.746	0.128	-0.043
-687.339	35.053	0.109	-0.096
-686.324	800.000	0.055	0.186
-685.310	-90.214	-0.312	-0.091
-684.295	-200.000	-0.008	0.073
-683.281	-156.459	-0.340	-0.021
-682.266	132.922	-0.332	-0.431
-681.251	800.000	0.044	-0.172
-680.237	-200.000	-0.089	-0.434
-679.222	148.829	-0.148	0.202
-678.208	-42.354	0.236	-0.121
-677.193	156.663	0.226	0.315
-676.178	-200.000	-0.010	-0.273
-675.164	-115.745	0.087	-0.016
-674.149	737.504	-0.064	0.171
-673.135	-200.000	-0.012	0.220
-672.120	-200.000	-0.016	-0.350
-671.105	-200.000	-0.028	-0.305
-670.091	238.692	0.144	-0.240
-669.076	-119.640	0.184	-0.032
-668.062	78.212	-0.154	-0.165
-667.047	-200.000	0.059	-0.534
-666.032	-76.418	0.283	0.100
-665.018	-86.851	0.103	-0.032
-664.003	800.000	0.027	0.088
-662.989	440.129	0.055	0.120
-661.974	-94.879	-0.453	-0.123
-660.959	-99.035	-0.183	-0.047
-659.945	-37.082	0.096	0.052
-658.930	-114.928	0.066	-0.013
-657.916	-200.000	-0.019	0.280
-656.901	-107.755	-0.528	0.116
-655.886	119.962	0.085	-0.106
-654.872	-200.000	-0.025	0.129
-653.857	-15.537	-0.181	0.116
-652.843	-119.036	0.366	-0.064
-651.828	106.474	-0.129	0.154
-650.814	-200.000	-0.004	-0.167
-649.799	-19.905	0.271	-0.168
-648.784	-6.372	0.236	0.162
-647.770	-27.837	-0.194	-0.113
-646.755	141.354	-0.125	0.166
-645.741	-64.726	0.190	-0.077
-644.726	514.151	0.118	0.278
-643.711	-112.557	-0.205	-0.041
-642.697	603.063	0.165	0.413
-641.682	291.419	0.027	0.049
-640.668	-200.000	-0.002	-0.247
-639.653	190.435	0.147	-0.221
-638.638	-28.007	0.091	0.053
-637.624	-25.655	-0.262	-0.155
-636.609	-200.000	-0.002	0.011
-635.595	276.844	-0.098	0.176
-634.580	-109.157	0.174	-0.037
-633.565	-200.000	0.007	0.124
-632.551	-104.824	-0.029	-0.007
-631.536	703.334	-0.084	0.223
-630.522	483.507	-0.085	-0.195
-629.507	-200.000	0.004	-0.076
-628.492	-30.435	-0.192	-0.110
-627.478	104.556	-0.165	-0.195
-626.463	800.000	-0.029	-0.099
-625.449	47.899	-0.138	-0.129
-624.434	-39.149	-0.304	0.160
-623.419	-200.000	-0.017	-0.322
-622.405	-140.109	-0.156	-0.016
-621.390	-5.099	-0.197	-0.136
-620.376	800.000	0.038	0.118
-619.361	316.905	-0.084	0.159
-618.346	-200.000	0.028	0.493
-617.332	800.000	0.026	0.104
-616.317	140.912	0.094	-0.125
-615.303	-117.412	0.068	0.012
-614.288	166.340	-0.024	-0.034
-613.273	-112.601	0.481	-0.096
-612.259	-113.276	0.148	0.029
-611.244	-149.935	-0.276	0.022
-610.230	-138.167	0.320	-0.036
-609.215	240.095	0.087	0.145
-608.201	66.885	0.196	0.200
-607.186	-51.400	-0.222	0.104
-606.171	-121.470	0.139	0.023
-605.157	276.899	-0.093	-0.166
-604.142	-13.946	-0.263	0.171
-603.128	-165.556	-0.077	0.003
-602.113	-64.560	0.232	-0.094
-601.098	131.543	0.199	-0.257
-600.084	-2.944	-0.309	-0.217
-599.069	-91.277	0.372	0.107
-598.055	-2.351	-0.223	0.157
-597.040	538.115	0.091	0.217
-596.025	341.871	0.079	-0.155
-595.011	55.391	0.399	0.387
-593.996	-68.522	-0.152	-0.059
-592.982	-200.000	-0.032	0.173
-591.967	-98.642	-0.160	0.041
-590.952	-53.232	-0.165	-0.076
-589.938	-83.517	-0.317	-0.102
-588.923	301.382	-0.126	0.233
-587.909	781.316	-0.058	0.159
-586.894	38.820	0.159	-0.143
-585.879	-23.491	0.169	-0.102
-584.865	67.952	-0.159	-0.163
-583.850	-110.297	0.227	-0.047
-582.836	-74.344	0.198	0.072
-581.821	-95.778	0.403	-0.108
-580.806	-52.443	-0.103	-0.048
-579.792	-133.344	-0.076	0.010
-578.777	-109.422	0.015	0.003
-577.763	-79.158	0.302	-0.103
-576.748	-68.289	0.184	0.072
-575.733	-141.223	-0.266	0.027
-574.719	800.000	-0.101	0.324
-573.704	345.552	-0.125	-0.247
-572.690	-75.281	0.145	-0.052
-571.675	-38.522	-0.161	0.085
-570.661	-107.345	0.105	-0.023
-569.646	-92.570	0.218	0.061
-568.631	43.884	-0.382	0.350
-567.617	-80.020	-0.196	-0.066
-566.602	28.513	-0.077	0.065
-565.588	59.197	-0.031	0.031
-564.573	451.676	-0.026	0.058
-563.558	674.765	0.121	0.314
-562.544	413.301	0.088	-0.186
-561.529	-94.081	0.230	-0.063
-560.515	-127.983	0.297	-0.043
-559.500	-200.000	-0.014	0.167
-558.485	-35.118	-0.173	-0.095
-557.471	-47.583	-0.009	0.004
-556.456	470.540	-0.033	0.075
-555.442	800.000	-0.096	0.304
-554.427	-124.699	-0.154	-0.024
-553.412	364.858	0.050	-0.101
-552.398	186.600	0.048	0.072
-551.383	800.000	-0.023	-0.081
-550.369	-20.005	-0.105	0.065
-549.354	446.096	-0.155	-0.342
-548.339	-17.916	0.062	-0.039
-547.325	718.444	-0.076	-0.203
-546.310	-200.000	0.027	0.262
-545.296	-115.476	-0.286	-0.054
-544.281	50.845	0.083	0.079
-543.266	-114.929	-0.318	0.061
-542.252	392.085	-0.129	-0.268
-541.237	-125.151	-0.243	0.037
-540.223	14.556	-0.190	0.149
-539.208	9.379	-0.199	0.151
-538.193	800.000	0.074	-0.209
-537.179	76.697	-0.125	-0.132
-536.164	89.053	-0.085	-0.095
-535.150	800.000	-0.120	0.399
-534.135	-46.224	0.230	-0.113
-533.121	-148.610	0.282	-0.023
-532.106	-98.122	-0.329	-0.085
-531.091	800.000	0.004	0.018
-530.077	124.800	0.089	0.112
-529.062	-47.515	0.239	0.116
-528.048	-113.040	-0.199	0.039
-527.033	800.000	-0.043	0.123
-526.018	29.587	0.308	-0.262
-525.004	495.278	-0.074	0.171
-523.989	154.212	0.161	0.221
-522.975	-8.462	-0.228	-0.153
-521.960	-200.000	0.062	0.317
-520.945	121.964	0.098	0.122
-519.931	-200.000	0.045	0.314
-518.916	-16.724	-0.150	0.095
-517.902	-43.604	0.289	0.145
-516.887	225.700	-0.200	-0.325
-515.872	-93.802	0.391	0.108
-514.858	-146.143	0.074	-0.006
-513.843	-148.908	0.056	-0.004
-512.829	-200.000	0.038	-0.168
-511.814	30.159	-0.218	-0.186
-510.799	-174.465	0.190	-0.005
-509.785	800.000	-0.053	0.149
-508.770	-200.000	0.037	-0.215
-507.756	-192.783	-0.085	-0.001
-506.741	258.764	0.102	-0.176
-505.726	-187.704	0.302	0.004
-504.712	-107.428	-0.378	0.083
-503.697	800.000	0.052	0.206
-502.683	426.574	0.125	-0.270
-501.668	-2.115	0.278	0.195
-500.653	-200.000	-0.013	0.258
-499.639	284.043	-0.212	0.382
-498.624	-151.802	-0.084	-0.006
-497.610	800.000	-0.004	0.017
-496.595	9.011	-0.088	0.066
-495.581	800.000	-0.010	-0.033
-494.566	-188.912	0.181	-0.002
-493.551	152.905	0.197	0.269
-492.537	17.273	-0.054	0.042
-491.522	-15.853	0.055	-0.035
-490.508	-81.806	-0.192	-0.063
-489.493	-112.446	-0.466	0.093
-488.478	-200.000	0.081	-0.386
-487.464	-200.000	-0.016	-0.073
-486.449	-56.536	0.163	-0.072
-485.435	800.000	-0.090	0.366
-484.420	-200.000	-0.052	-0.319
-483.405	-62.820	-0.099	0.041
-482.391	181.570	0.140	0.206
-481.376	-59.789	0.051	-0.022
-480.362	114.028	-0.113	-0.137
-479.347	-91.209	-0.300	0.086
-478.332	154.518	-0.042	0.058
-477.318	-113.447	-0.138	0.027
-476.303	-46.297	-0.173	0.085
-475.289	-93.822	-0.184	-0.050
-474.274	800.000	-0.070	0.301
-473.259	12.003	-0.361	-0.277
-472.245	-200.000	0.037	0.168
-471.230	-200.000	-0.014	0.108
-470.216	-200.000	-0.022	-0.140
-469.201	-200.000	0.066	-0.347
-468.186	-0.761	0.020	-0.014
-467.172	117.053	0.201	0.247
-466.157	55.448	0.201	0.194
-465.143	-48.529	0.268	0.128
-464.128	800.000	0.042	-0.141
-463.113	-39.575	-0.207	-0.108
-462.099	-200.000	-0.005	-0.464
-461.084	529.058	-0.097	0.228
-460.070	-200.000	-0.020	-0.168
-459.055	-200.000	0.005	0.120
-458.040	-28.245	-0.131	0.075
-457.026	157.757	0.325	-0.449
-456.011	-132.216	0.093	-0.012
-454.997	213.883	-0.055	-0.086
-453.982	800.000	-0.049	-0.211
-452.968	800.000	0.070	0.210
-451.953	-169.511	-0.105	-0.004
-450.938	-200.000	-0.010	-0.060
-449.924	800.000	-0.063	-0.215
-448.909	-80.664	0.109	0.036
-447.895	800.000	0.044	0.154
-446.880	-20.549	-0.144	-0.088
-445.865	-161.221	0.325	-0.017
-444.851	-157.665	0.103	-0.006
-443.836	-109.698	0.350	0.073
-442.822	180.173	0.101	-0.147
-441.807	66.182	0.187	-0.189
-440.792	-137.264	0.341	-0.039
-439.778	2.927	-0.169	-0.122
-438.763	518.331	-0.053	0.123
-437.749	-72.357	0.309	0.114
-436.734	300.222	-0.116	0.212
-435.719	265.812	0.154	0.268
-434.705	-200.000	0.029	-0.178
-433.690	222.844	-0.082	0.131
-432.676	800.000	-0.050	-0.157
-431.661	53.100	-0.278	-0.265
-430.646	200.733	0.162	-0.248
-429.632	45.072	-0.041	0.038
-428.617	126.268	-0.118	-0.149
-427.603	-182.910	-0.023	-0.000
-426.588	-79.980	-0.118	-0.039
-425.573	375.611	0.234	-0.475
-424.559	-157.588	-0.251	0.015
-423.544	265.681	0.101	-0.175
-422.530	-90.169	0.292	0.085
-421.515	-120.389	0.172	-0.029
-420.500	-79.966	-0.096	0.032
-419.486	239.796	-0.058	-0.097
-418.471	-39.591	0.082	0.043
-417.457	46.537	0.428	-0.395
-416.442	-200.000	-0.031	0.148
-415.428	139.732	0.151	0.198
-414.413	-7.939	-0.173	-0.116
-413.398	370.499	0.088	0.178
-412.384	-200.000	0.004	-0.109
-411.369	424.403	0.152	-0.326
-410.355	-200.000	0.008	-0.066
-409.340	-113.972	-0.460	0.089
-408.325	63.606	0.130	-0.130
-407.311	800.000	-0.106	-0.375
-406.296	-159.303	0.022	-0.001
-405.282	229.424	0.106	-0.172
-404.267	800.000	0.055	-0.201
-403.252	25.528	0.228	0.189
-402.238	165.485	0.202	-0.284
-401.223	-81.150	-0.184	0.060
-400.209	-154.234	0.305	-0.021
-399.194	89.416	0.064	0.071
-398.179	-52.526	-0.334	0.154
-397.165	32.736	-0.402	-0.346
-396.150	37.342	-0.105	0.092
-395.136	-141.838	0.053	-0.005
-394.121	154.713	0.201	-0.275
-393.106	12.725	0.301	0.231
-392.092	-13.875	-0.168	-0.108
-391.077	-1.271	0.248	0.174
-390.063	-108.214	-0.249	-0.054
-389.048	-200.000	-0.009	-0.081
-388.033	-129.233	0.104	0.014
-387.019	-200.000	-0.020	-0.209
-386.004	215.584	0.093	-0.147
-384.990	-29.829	-0.161	0.091
-383.975	119.651	-0.122	-0.151
-382.960	167.582	-0.085	0.120
-381.946	-32.045	0.068	0.038
-380.931	-76.767	-0.342	0.119
-379.917	263.467	-0.044	-0.075
-378.902	-10.533	0.298	-0.196
-377.888	-35.164	-0.278	-0.150
-376.873	-58.019	0.234	0.101
-375.858	71.366	-0.146	-0.150
-374.844	-200.000	-0.012	-0.060
-373.829	-106.963	-0.126	0.028
-372.815	80.238	-0.092	0.098
-371.800	36.590	-0.186	0.163
-370.785	20.936	0.111	-0.089
-369.771	-31.035	0.121	0.068
-368.756	787.369	-0.089	0.242
-367.742	-129.841	-0.055	-0.007
-366.727	-39.185	-0.168	0.088
-365.712	331.518	-0.055	-0.106
-364.698	-200.000	-0.015	0.363
-363.683	-115.003	-0.253	-0.048
-362.669	68.071	-0.176	0.179
-361.654	420.863	-0.126	-0.268
-360.639	461.579	0.118	0.262
-359.625	800.000	-0.083	0.236
-358.610	800.000	0.123	0.342
-357.596	-200.000	0.074	0.372
-356.581	156.093	-0.041	-0.056
-355.566	-73.734	-0.076	0.027
-354.552	-68.665	0.093	-0.036
-353.537	-52.637	0.237	0.109
-352.523	279.379	-0.035	0.063
-351.508	800.000	-0.063	0.237
-350.493	-200.000	-0.006	0.313
-349.479	-142.000	0.246	-0.024
-348.464	-60.612	0.265	-0.112
-347.450	-107.652	0.274	0.059
-346.435	46.758	0.234	0.216
-345.420	800.000	0.018	0.075
-344.406	487.871	-0.059	-0.133
-343.391	5.230	-0.374	0.273
-342.377	-200.000	0.183	-0.001
-341.362	44.940	-0.074	-0.068
-340.348	800.000	-0.047	-0.152
-339.333	-64.759	0.064	-0.026
-338.318	800.000	0.083	-0.260
-337.304	800.000	0.118	0.345
-336.289	-125.351	-0.249	-0.038
-335.275	434.294	0.103	-0.222
-334.260	290.760	-0.060	-0.109
-333.245	548.624	-0.081	-0.192
-332.231	34.084	0.112	-0.097
-331.216	-200.000	0.012	-0.145
-330.202	133.339	0.008	-0.010
-329.187	475.985	-0.023	-0.052
-328.172	800.000	0.111	0.383
-327.158	-128.737	0.398	0.056
-326.143	143.386	-0.008	0.010
-325.129	800.000	-0.032	-0.107
-324.114	416.500	0.098	0.208
-323.099	66.789	0.165	0.166
-322.085	243.165	-0.099	0.164
-321.070	-72.197	0.156	-0.057
-320.056	74.447	0.026	0.027
-319.041	-200.000	0.004	-0.068
-318.026	-5.052	-0.138	-0.094
-317.012	-200.000	0.224	0.000
-315.997	-200.000	0.046	-0.376
-314.983	-123.880	-0.402	-0.063
-313.968	-20.289	0.344	0.210
-312.953	-114.179	-0.121	0.023
-311.939	434.495	0.266	-0.573
-310.924	-129.569	0.347	-0.048
-309.910	-2.076	-0.177	-0.123
-308.895	-75.994	-0.082	-0.029
-307.880	82.863	-0.210	-0.227
-306.866	440.553	-0.089	-0.192
-305.851	179.306	-0.136	0.197
-304.837	297.589	0.028	0.051
-303.822	184.477	-0.095	-0.140
-302.807	4.534	0.226	-0.164
-301.793	2.209	0.184	0.132
-300.778	383.451	-0.084	0.171
-299.764	210.134	0.195	-0.304
-298.749	75.584	-0.266	0.278
-297.735	83.151	0.089	0.096
-296.720	124.905	0.099	-0.124
-295.705	-200.000	0.017	-0.119
-294.691	800.000	0.070	-0.218
-293.676	220.546	-0.189	-0.300
-292.662	800.000	0.122	0.482
-291.647	-200.000	-0.041	0.288
-290.632	253.039	0.084	0.142
-289.618	63.798	0.116	0.116
-288.603	-200.000	0.040	-0.354
-287.589	171.911	-0.087	-0.124
-286.574	120.878	0.251	0.309
-285.559	-96.562	-0.042	0.011
-284.545	-29.442	-0.289	0.164
-283.530	-143.570	-0.087	0.008
-282.516	800.000	0.037	-0.126
-281.501	-37.807	0.074	0.039
-280.486	-124.136	0.138	0.021
-279.472	-103.266	0.213	0.050
-278.457	800.000	-0.039	0.164
-277.443	-200.000	0.009	0.208
-276.428	-135.617	0.514	0.060
-275.413	-101.260	-0.248	0.060
-274.399	-200.000	-0.004	0.402
-273.384	97.183	0.101	-0.115
-272.370	-200.000	0.006	-0.176
-271.355	-200.000	-0.043	0.254
-270.340	-200.000	0.014	0.203
-269.326	-200.000	-0.019	-0.086
-268.311	23.017	-0.060	0.048
-267.297	-163.127	-0.198	-0.009
-266.282	259.704	-0.090	-0.153
-265.267	21.664	-0.184	-0.149
-264.253	-200.000	0.014	-0.126
-263.238	211.208	0.028	0.043
-262.224	-48.078	-0.445	-0.213
-261.209	-200.000	0.037	-0.209
-260.195	-16.144	-0.092	0.058
-259.180	-60.625	-0.157	0.066
-258.165	689.913	0.132	-0.342
-257.151	152.303	0.090	0.122
-256.136	800.000	-0.080	-0.301
-255.122	-15.198	-0.184	0.117
-254.107	534.178	-0.098	0.230
-253.092	197.248	0.163	0.246
-252.078	-37.801	0.131	-0.069
-251.063	18.311	-0.039	0.031
-250.049	-33.005	-0.125	0.068
-249.034	-81.771	-0.209	0.068
-248.019	800.000	-0.040	0.114
-247.005	438.587	-0.021	-0.045
-245.990	800.000	-0.086	-0.259
-244.976	162.349	0.162	0.225
-243.961	-200.000	0.006	0.047
-242.946	-53.985	-0.406	0.183
-241.932	-101.149	0.176	0.043
-240.917	-65.787	0.007	-0.003
-239.903	800.000	-0.141	0.485
-238.888	800.000	-0.062	-0.223
-237.873	-200.000	-0.006	-0.592
-236.859	-67.625	0.370	0.143
-235.844	800.000	0.113	-0.309
-234.830	-53.660	0.123	0.056
-233.815	-188.948	-0.376	-0.004
-232.800	-112.189	-0.270	-0.054
-231.786	239.184	0.241	-0.396
-230.771	-29.544	-0.336	-0.190
-229.757	-12.385	-0.193	0.125
-228.742	195.073	-0.178	-0.267
-227.727	-200.000	0.059	-0.324
-226.713	-200.000	-0.015	-0.082
-225.698	-200.000	0.013	0.085
-224.684	-76.647	-0.295	-0.102
-223.669	202.319	-0.024	0.037
-222.655	151.506	0.130	-0.175
-221.640	-92.236	-0.205	0.057
-220.625	-200.000	0.025	0.214
-219.611	253.533	0.105	-0.177
-218.596	-44.689	-0.296	-0.146
-217.582	237.833	-0.066	0.108
-216.567	-88.525	0.336	-0.099
-215.552	-200.000	0.028	-0.154
-214.538	-142.351	-0.138	-0.013
-213.523	-133.877	-0.296	0.036
-212.509	443.132	0.057	-0.123
-211.494	256.227	0.122	-0.207
-210.479	514.108	0.102	0.234
-209.465	-200.000	0.016	0.330
-208.450	333.280	0.073	0.138
-207.436	-200.000	-0.039	-0.321
-206.421	122.623	0.194	-0.239
-205.406	100.587	0.191	0.219
-204.392	-200.000	-0.104	0.511
-203.377	800.000	0.030	-0.097
-202.363	-21.163	-0.107	0.064
-201.348	-96.632	-0.036	-0.009
-200.333	-70.982	0.250	0.093
-199.319	800.000	0.129	-0.396
-198.304	-58.826	-0.245	0.105
-197.290	-200.000	-0.016	-0.241
-196.275	217.063	0.197	0.310
-195.260	-105.477	0.333	0.075
-194.246	-70.829	-0.369	-0.137
-193.231	-200.000	0.018	0.404
-192.217	800.000	0.133	0.386
-191.202	43.759	-0.044	-0.040
-190.187	217.539	0.057	-0.090
-189.173	-200.000	0.000	-0.137
-188.158	-53.453	0.179	0.081
-187.144	-200.000	0.000	0.189
-186.129	88.234	-0.011	0.012
-185.114	-87.875	0.243	-0.072
-184.100	-200.000	-0.011	-0.250
-183.085	45.145	-0.167	-0.152
-182.071	68.876	0.129	0.130
-181.056	434.849	-0.037	0.080
-180.042	-137.441	-0.263	0.029
-179.027	-200.000	-0.005	0.318
-178.012	-120.193	0.112	-0.019
-176.998	-200.000	-0.017	-0.172
-175.983	19.884	0.226	-0.179
-174.969	-190.480	-0.309	-0.003
-173.954	-111.653	0.291	-0.058
-172.939	377.401	-0.149	0.301
-171.925	-82.767	-0.135	0.043
-170.910	-200.000	0.018	0.161
-169.896	800.000	-0.093	-0.297
-168.881	-35.885	0.316	-0.169
-167.866	73.987	-0.116	0.120
-166.852	183.030	-0.148	0.215
-165.837	234.591	-0.126	0.205
-164.823	-91.091	0.199	0.056
-163.808	-200.000	-0.014	-0.372
-162.793	57.894	0.074	-0.072
-161.779	-173.405	0.133	-0.004
-160.764	800.000	-0.092	-0.358
-159.750	800.000	-0.074	-0.297
-158.735	-200.000	0.027	-0.287
-157.720	-98.446	-0.080	0.020
-156.706	-135.611	-0.131	0.015
-155.691	-200.000	-0.035	0.246
-154.677	125.951	-0.071	0.089
-153.662	469.168	0.066	-0.145
-152.647	309.016	-0.135	0.249
-151.633	800.000	0.114	0.326
-150.618	-160.405	0.109	0.006
-149.604	245.035	-0.190	-0.315
-148.589	-46.784	0.447	0.215
-147.574	-158.067	0.302	-0.017
-146.560	92.459	-0.203	0.225
-145.545	228.742	-0.280	0.449
-144.531	-110.037	-0.268	0.055
-143.516	-200.000	0.002	-0.018
-142.502	-200.000	0.016	0.152
-141.487	-75.488	-0.126	-0.044
-140.472	-76.511	-0.035	0.012
-139.458	704.662	0.051	0.133
-138.443	140.173	0.150	-0.195
-137.429	89.965	0.180	-0.198
-136.414	-131.654	0.085	0.011
-135.399	800.000	-0.136	-0.379
-134.385	800.000	-0.083	0.227
-133.370	-88.116	0.281	0.083
-132.356	739.648	0.041	-0.108
-131.341	-200.000	-0.002	0.291
-130.326	-131.181	0.189	0.025
-129.312	-85.096	-0.074	0.023
-128.297	-191.832	0.472	0.005
-127.283	37.418	-0.307	0.268
-126.268	-200.000	-0.018	-0.137
-125.253	-200.000	0.018	0.128
-124.239	-26.120	0.304	0.176
-123.224	800.000	0.099	0.357
