DTS Sentinel unit serial number:	SN413079Multiplexer serial number:	ORYXHardware model number:	OX4-SRSoftware version number:	ORYX F/W v4.00 Oryx Data Collector v3.7.2.0data status	okinstallation	princeton_trtdifferential loss correction	single-endedforward channel	channel 1reverse channel	N/Adate	2019/09/18time	01:10:35forward acquisition time	60.00reverse acquisition time	0.00gamma	496.2192k internal	0.2341k external	0.2341temperature offset calibration	0.9978default loss term (dB/km)	0.3790temperature slope calibration	1.0000multiplexer offset coefficient	1.0000multiplexer slope coefficient	1.0000fibre end	0.00T internal ref (°C)	23.23T ext. ref 1 (°C)	0.17T ext. ref 2 (°C)	16.87length (m)	temperature (°C)	Stokes	anti-Stokes-747.200	24.982	0.172	-0.143
-746.185	-200.000	-0.006	0.118
-745.171	17.859	0.203	0.162
-744.156	289.139	-0.119	0.215
-743.142	-84.651	-0.208	-0.066
-742.127	-105.994	-0.179	-0.040
-741.112	31.419	0.138	-0.118
-740.098	-200.000	-0.013	0.297
-739.083	-79.761	0.256	0.086
-738.069	74.946	0.179	-0.189
-737.054	-187.867	0.095	-0.001
-736.039	-126.129	0.235	-0.035
-735.025	-163.766	0.255	0.012
-734.010	107.855	0.132	-0.157
-732.996	-200.000	-0.226	0.000
-731.981	-81.762	-0.145	0.048
-730.966	6.977	0.279	-0.208
-729.952	-200.000	0.007	-0.111
-728.937	-200.000	0.004	-0.119
-727.923	33.576	-0.313	-0.272
-726.908	-115.783	-0.194	-0.036
-725.894	346.563	0.107	0.211
-724.879	-131.754	-0.183	0.024
-723.864	-102.339	-0.136	-0.033
-722.850	-200.000	-0.005	0.222
-721.835	-139.452	-0.243	-0.026
-720.821	-69.702	0.408	-0.156
-719.806	-52.176	-0.073	0.034
-718.791	800.000	-0.053	0.187
-717.777	341.771	-0.058	-0.113
-716.762	-134.859	-0.365	-0.044
-715.748	102.233	0.021	-0.024
-714.733	-126.291	0.390	-0.058
-713.718	74.981	0.109	-0.115
-712.704	182.056	-0.125	0.185
-711.689	-118.062	-0.303	-0.054
-710.675	555.817	0.032	-0.076
-709.660	-60.118	-0.195	0.083
-708.645	-99.678	0.246	0.062
-707.631	-167.251	0.075	-0.003
-706.616	28.926	-0.277	0.235
-705.602	800.000	-0.038	0.133
-704.587	176.219	-0.101	-0.147
-703.572	1.167	-0.312	-0.224
-702.558	423.285	-0.118	-0.255
-701.543	-115.586	-0.265	0.050
-700.529	-200.000	-0.037	-0.468
-699.514	156.952	-0.012	0.017
-698.499	-99.041	-0.151	-0.038
-697.485	-200.000	0.032	-0.201
-696.470	-59.551	-0.324	0.139
-695.456	-200.000	0.008	-0.150
-694.441	-106.519	-0.069	0.015
-693.426	-22.917	-0.252	-0.152
-692.412	326.330	-0.084	0.161
-691.397	54.723	-0.244	-0.236
-690.383	295.392	-0.132	0.241
-689.368	-200.000	0.029	0.196
-688.354	-71.620	-0.074	0.028
-687.339	800.000	0.035	-0.101
-686.324	256.200	-0.124	-0.212
-685.310	736.597	0.117	-0.314
-684.295	-65.231	-0.095	-0.038
-683.281	338.323	-0.174	-0.339
-682.266	-168.060	0.338	0.013
-681.251	-164.108	0.284	-0.013
-680.237	394.110	-0.105	0.218
-679.222	310.342	-0.073	-0.137
-678.208	57.636	-0.183	0.179
-677.193	-200.000	0.024	0.241
-676.178	-20.563	0.169	0.104
-675.164	32.945	0.205	-0.177
-674.149	-200.000	0.014	0.094
-673.135	-141.641	-0.272	-0.027
-672.120	-160.247	0.224	-0.012
-671.105	800.000	0.030	0.108
-670.091	798.012	0.082	0.225
-669.076	650.349	0.103	-0.264
-668.062	41.012	-0.163	0.147
-667.047	54.275	-0.279	0.268
-666.032	-35.125	0.482	-0.262
-665.018	355.571	0.059	-0.118
-664.003	800.000	0.052	0.164
-662.989	800.000	0.088	0.344
-661.974	-200.000	0.038	0.380
-660.959	-30.673	-0.268	0.151
-659.945	-200.000	-0.016	-0.134
-658.930	-186.673	-0.341	-0.005
-657.916	93.150	0.128	0.145
-656.901	590.238	-0.126	-0.310
-655.886	368.021	-0.090	0.181
-654.872	-200.000	-0.002	0.020
-653.857	135.475	-0.152	0.198
-652.843	158.133	0.158	0.219
-651.828	800.000	0.118	0.363
-650.814	-200.000	-0.015	0.272
-649.799	-200.000	0.012	-0.395
-648.784	-115.372	0.459	0.087
-647.770	-142.453	-0.016	0.002
-646.755	-200.000	-0.018	0.229
-645.741	-77.789	0.054	-0.019
-644.726	-188.253	0.195	0.002
-643.711	15.667	-0.248	-0.195
-642.697	312.713	-0.220	-0.413
-641.682	1.889	-0.256	-0.184
-640.668	-200.000	0.019	-0.225
-639.653	-200.000	-0.037	-0.171
-638.638	-100.045	-0.215	-0.053
-637.624	-22.444	-0.092	0.055
-636.609	82.587	0.280	-0.303
-635.595	-65.105	0.335	-0.135
-634.580	686.335	0.069	-0.179
-633.565	5.938	0.181	0.134
-632.551	105.337	-0.161	-0.189
-631.536	-55.742	-0.126	-0.056
-630.522	95.010	-0.192	0.218
-629.507	588.693	0.136	-0.335
-628.492	-40.673	0.079	-0.041
-627.478	-200.000	0.027	0.138
-626.463	-71.367	0.156	0.058
-625.449	-48.656	-0.066	0.032
-624.434	96.341	-0.106	0.120
-623.419	127.033	-0.033	-0.041
-622.405	363.596	-0.140	-0.281
-621.390	-146.136	-0.245	0.021
-620.376	-166.617	0.195	-0.008
-619.361	321.954	0.048	0.090
-618.346	-24.318	-0.117	-0.070
-617.332	-188.533	0.100	-0.001
-616.317	-97.704	0.426	-0.110
-615.303	-74.322	-0.151	-0.055
-614.288	-200.000	0.027	-0.180
-613.273	-200.000	0.014	0.093
-612.259	83.679	0.102	-0.111
-611.244	-3.938	0.065	0.045
-610.230	77.870	-0.060	0.064
-609.215	448.562	0.057	0.125
-608.201	-86.693	0.156	0.047
-607.186	346.524	-0.084	0.164
-606.171	-200.000	-0.040	-0.354
-605.157	-63.879	-0.408	0.166
-604.142	-200.000	-0.031	-0.226
-603.128	-47.581	-0.488	0.236
-602.113	673.162	-0.131	-0.338
-601.098	-93.490	-0.101	0.028
-600.084	-194.211	-0.139	0.001
-599.069	-200.000	0.037	-0.261
-598.055	133.788	-0.091	0.117
-597.040	-137.453	-0.269	-0.030
-596.025	76.968	0.051	0.054
-595.011	-95.677	-0.215	0.057
-593.996	-130.893	-0.116	-0.015
-592.982	800.000	-0.063	0.197
-591.967	-200.000	-0.051	0.247
-590.952	800.000	-0.025	-0.076
-589.938	-200.000	0.049	-0.214
-588.923	687.945	-0.106	-0.275
-587.909	-41.945	-0.157	0.080
-586.894	-60.632	0.202	0.085
-585.879	800.000	-0.101	0.277
-584.865	-153.748	0.135	-0.009
-583.850	-200.000	0.015	-0.183
-582.836	-33.696	-0.210	0.115
-581.821	-200.000	0.046	0.235
-580.806	800.000	-0.055	0.183
-579.792	-95.422	0.170	0.046
-578.777	113.560	0.105	0.128
-577.763	29.041	-0.296	0.250
-576.748	-151.826	-0.225	0.016
-575.733	-173.697	-0.137	-0.004
-574.719	369.239	0.135	0.272
-573.704	-200.000	0.030	0.373
-572.690	-175.473	-0.237	-0.006
-571.675	374.527	-0.188	-0.381
-570.661	-136.715	-0.035	-0.004
-569.646	-43.156	-0.058	-0.029
-568.631	-157.588	-0.331	0.020
-567.617	24.404	-0.261	0.214
-566.602	87.183	0.028	-0.031
-565.588	-200.000	0.013	0.148
-564.573	-200.000	0.023	0.145
-563.558	149.836	-0.057	0.077
-562.544	-8.896	-0.150	-0.100
-561.529	-18.845	0.340	-0.211
-560.515	207.177	0.155	0.241
-559.500	180.734	-0.014	-0.021
-558.485	-67.893	0.067	-0.026
-557.471	62.558	-0.250	0.248
-556.456	141.991	-0.248	0.327
-555.442	800.000	-0.045	-0.142
-554.427	661.433	-0.090	0.230
-553.412	201.680	-0.185	-0.283
-552.398	-18.562	-0.173	0.107
-551.383	59.016	-0.207	-0.202
-550.369	-96.483	0.196	-0.052
-549.354	800.000	-0.076	0.263
-548.339	-84.922	0.290	-0.090
-547.325	800.000	0.127	-0.369
-546.310	336.897	-0.092	-0.178
-545.296	-25.261	0.344	-0.202
-544.281	-73.735	-0.037	-0.013
-543.266	231.782	-0.116	-0.189
-542.252	-92.590	0.067	-0.019
-541.237	-108.841	-0.228	0.049
-540.223	22.026	-0.092	0.075
-539.208	4.710	-0.051	0.037
-538.193	800.000	-0.066	-0.269
-537.179	-200.000	-0.018	-0.362
-536.164	103.212	0.040	-0.046
-535.150	78.829	-0.300	0.319
-534.135	111.052	0.054	0.065
-533.121	-200.000	0.065	-0.360
-532.106	800.000	-0.047	-0.189
-531.091	204.159	-0.167	-0.257
-530.077	-46.488	-0.219	-0.107
-529.062	192.398	-0.024	0.037
-528.048	-200.000	-0.012	-0.138
-527.033	-45.728	0.168	-0.082
-526.018	57.663	-0.190	-0.185
-525.004	-200.000	-0.021	-0.341
-523.989	-200.000	-0.022	-0.240
-522.975	-200.000	0.046	-0.295
-521.960	-56.100	-0.078	0.035
-520.945	224.446	0.194	0.312
-519.931	-200.000	0.007	0.121
-518.916	-21.447	-0.150	0.091
-517.902	716.107	0.090	-0.236
-516.887	-200.000	-0.042	0.288
-515.872	-49.438	0.084	0.040
-514.858	800.000	-0.014	0.049
-513.843	800.000	-0.005	-0.017
-512.829	-200.000	-0.055	-0.267
-511.814	-51.784	-0.046	0.021
-510.799	11.774	0.181	0.138
-509.785	800.000	-0.093	0.327
-508.770	-116.448	0.286	0.053
-507.756	509.557	-0.080	0.184
-506.741	-16.656	0.221	-0.139
-505.726	-200.000	0.022	0.322
-504.712	-46.033	-0.396	-0.194
-503.697	57.721	0.099	0.096
-502.683	-200.000	0.015	-0.073
-501.668	-13.793	-0.342	0.220
-500.653	800.000	-0.012	-0.036
-499.639	-200.000	-0.036	0.223
-498.624	195.498	-0.095	0.143
-497.610	-100.442	0.269	0.066
-496.595	-37.297	-0.257	-0.136
-495.581	800.000	0.083	-0.332
-494.566	-200.000	-0.048	-0.360
-493.551	-149.713	-0.233	-0.018
-492.537	-200.000	-0.032	0.363
-491.522	71.812	-0.194	-0.200
-490.508	-200.000	0.061	-0.361
-489.493	337.155	0.041	-0.080
-488.478	78.901	-0.257	0.273
-487.464	-149.698	-0.327	0.025
-486.449	-148.567	0.131	0.011
-485.435	-200.000	-0.023	-0.620
-484.420	-12.343	-0.073	-0.047
-483.405	-50.734	-0.171	-0.080
-482.391	-156.377	-0.265	0.016
-481.376	-157.835	-0.117	-0.007
-480.362	-74.179	-0.174	-0.062
-479.347	800.000	0.032	-0.115
-478.332	-200.000	0.023	0.348
-477.318	108.767	0.211	0.250
-476.303	-68.099	0.186	-0.072
-475.289	-200.000	0.011	0.051
-474.274	-125.793	0.458	-0.069
-473.259	-89.745	0.145	-0.042
-472.245	-109.946	-0.186	-0.039
-471.230	-100.434	0.100	-0.025
-470.216	487.594	-0.118	0.267
-469.201	-73.687	0.238	0.086
-468.186	156.119	0.178	0.243
-467.172	-200.000	-0.024	0.171
-466.157	800.000	0.085	-0.291
-465.143	68.197	-0.074	-0.075
-464.128	-164.112	0.242	0.011
-463.113	-200.000	-0.039	0.177
-462.099	202.839	-0.183	0.280
-461.084	-200.000	0.009	-0.239
-460.070	167.830	0.036	0.050
-459.055	-51.431	0.293	-0.136
-458.040	-67.789	-0.121	0.047
-457.026	33.439	-0.160	0.138
-456.011	-134.938	-0.162	0.019
-454.997	-26.803	-0.159	0.092
-453.982	-160.053	0.324	0.017
-452.968	-121.642	0.098	0.016
-451.953	16.643	-0.153	0.120
-450.938	96.249	0.169	0.192
-449.924	-26.966	-0.207	0.120
-448.909	-119.755	-0.143	0.024
-447.895	-117.969	-0.114	0.020
-446.880	-200.000	0.015	-0.076
-445.865	116.622	-0.142	-0.173
-444.851	-121.898	0.171	0.028
-443.836	169.948	-0.050	0.070
-442.822	23.871	0.134	0.109
-441.807	-5.573	-0.221	-0.150
-440.792	-23.295	-0.483	-0.288
-439.778	-200.000	0.012	0.078
-438.763	-104.357	-0.056	0.013
-437.749	412.443	-0.193	0.405
-436.734	12.602	-0.192	0.147
-435.719	-200.000	0.016	0.138
-434.705	320.802	-0.116	-0.218
-433.690	800.000	0.179	0.510
-432.676	-88.289	-0.299	0.089
-431.661	-121.770	-0.077	0.013
-430.646	-75.351	0.635	-0.224
-429.632	-200.000	0.055	0.000
-428.617	90.094	0.091	-0.101
-427.603	100.549	-0.175	0.201
-426.588	-135.249	-0.080	-0.010
-425.573	800.000	0.020	0.059
-424.559	-132.324	-0.357	0.046
-423.544	-111.918	0.173	0.035
-422.530	-200.000	-0.022	0.140
-421.515	800.000	-0.083	-0.307
-420.500	35.869	0.149	0.130
-419.486	-113.689	0.151	0.029
-418.471	-127.388	-0.350	0.050
-417.457	-200.000	0.113	-0.000
-416.442	800.000	-0.095	-0.298
-415.428	-149.591	-0.319	0.025
-414.413	-200.000	0.048	0.301
-413.398	-27.697	0.245	-0.141
-412.384	266.583	0.100	-0.172
-411.369	34.328	-0.280	-0.242
-410.355	169.406	-0.240	-0.338
-409.340	-200.000	-0.010	-0.212
-408.325	26.590	0.048	-0.040
-407.311	800.000	0.118	0.332
-406.296	-12.389	0.272	0.176
-405.282	-200.000	0.034	0.414
-404.267	91.309	0.180	0.199
-403.252	26.714	0.066	0.055
-402.238	-200.000	-0.002	0.232
-401.223	-29.118	0.213	0.121
-400.209	395.649	0.111	-0.229
-399.194	-181.706	0.299	-0.006
-398.179	-200.000	0.026	-0.165
-397.165	-163.153	0.492	0.023
-396.150	800.000	0.020	-0.075
-395.136	800.000	0.046	-0.198
-394.121	568.352	0.098	-0.234
-393.106	-88.009	0.283	0.084
-392.092	800.000	-0.039	0.154
-391.077	-109.549	-0.186	0.039
-390.063	549.352	-0.192	0.456
-389.048	800.000	0.109	0.420
-388.033	-94.091	0.054	0.015
-387.019	-76.561	-0.239	-0.083
-386.004	-100.597	-0.230	-0.056
-384.990	800.000	0.020	0.084
-383.975	-159.839	0.414	-0.022
-382.960	50.731	0.104	-0.097
-381.946	-20.807	0.021	-0.013
-380.931	87.157	-0.147	0.160
-379.917	486.066	-0.138	-0.310
-378.902	-62.812	-0.056	0.023
-377.888	-200.000	0.007	0.292
-376.873	-51.331	0.348	0.161
-375.858	-200.000	-0.009	0.130
-374.844	724.304	-0.024	0.062
-373.829	-200.000	0.002	-0.035
-372.815	112.070	-0.150	-0.179
-371.800	-200.000	-0.006	-0.098
-370.785	-91.809	-0.339	0.095
-369.771	-182.308	0.175	0.003
-368.756	800.000	-0.019	-0.053
-367.742	129.306	0.105	0.132
-366.727	800.000	-0.030	0.116
-365.712	425.965	0.078	0.167
-364.698	-122.908	-0.112	-0.018
-363.683	-59.691	-0.225	-0.095
-362.669	800.000	-0.065	0.233
-361.654	-16.425	-0.434	0.272
-360.639	-140.832	-0.259	0.026
-359.625	83.899	-0.087	-0.094
-358.610	-200.000	0.001	0.099
-357.596	-126.484	0.464	0.068
-356.581	267.604	-0.089	-0.154
-355.566	374.374	0.136	-0.274
-354.552	99.234	0.053	0.060
-353.537	800.000	-0.019	-0.066
-352.523	-21.414	-0.099	0.060
-351.508	468.334	-0.126	0.279
-350.493	800.000	0.078	0.223
-349.479	-26.577	0.246	0.142
-348.464	-200.000	0.012	-0.395
-347.450	-200.000	0.011	0.124
-346.435	-3.307	-0.246	0.169
-345.420	296.410	0.207	-0.374
-344.406	-174.589	0.151	0.004
-343.391	-200.000	-0.046	0.260
-342.377	10.100	-0.120	0.090
-341.362	39.271	0.108	0.096
-340.348	-120.594	0.117	0.020
-339.333	-200.000	-0.051	0.310
-338.318	436.172	0.031	0.066
-337.304	101.486	0.073	-0.084
-336.289	-107.317	0.048	-0.010
-335.275	-200.000	0.047	0.301
-334.260	-35.523	-0.184	0.099
-333.245	-99.231	0.261	-0.065
-332.231	-200.000	0.030	0.190
-331.216	171.712	0.228	-0.323
-330.202	-200.000	-0.012	-0.107
-329.187	-126.169	0.302	0.045
-328.172	800.000	0.051	0.186
-327.158	26.955	0.135	-0.112
-326.143	-200.000	0.000	-0.061
-325.129	-200.000	0.067	-0.588
-324.114	2.433	-0.315	-0.225
-323.099	-85.004	-0.295	0.091
-322.085	-53.600	0.206	-0.093
-321.070	-180.380	-0.121	0.002
-320.056	705.957	-0.104	-0.271
-319.041	111.247	0.088	0.105
-318.026	54.938	0.108	-0.103
-317.012	485.351	0.034	0.075
-315.997	506.582	0.013	0.030
-314.983	-63.107	-0.292	-0.119
-313.968	-47.366	-0.160	0.077
-312.953	-125.343	-0.052	-0.008
-311.939	-118.234	-0.351	0.062
-310.924	-124.879	0.039	0.006
-309.910	67.282	0.152	0.152
-308.895	-116.340	-0.125	-0.023
-307.880	9.626	-0.148	0.111
-306.866	800.000	0.050	0.177
-305.851	-39.261	-0.143	-0.074
-304.837	-200.000	-0.040	-0.248
-303.822	-79.094	-0.209	0.070
-302.807	-161.563	0.260	0.013
-301.793	-180.500	0.374	-0.008
-300.778	97.523	0.261	-0.295
-299.764	-95.289	-0.158	0.042
-298.749	800.000	0.013	-0.053
-297.735	70.535	-0.074	0.075
-296.720	-54.207	-0.510	-0.228
-295.705	-200.000	0.042	-0.199
-294.691	35.542	0.094	0.081
-293.676	-104.101	0.153	-0.035
-292.662	-200.000	0.020	-0.468
-291.647	-96.320	0.159	-0.041
-290.632	-200.000	-0.004	0.085
-289.618	-200.000	-0.026	-0.128
-288.603	800.000	0.032	0.128
-287.589	770.441	-0.112	-0.300
-286.574	49.986	-0.201	-0.187
-285.559	-154.112	0.137	-0.009
-284.545	-200.000	-0.050	0.228
-283.530	-109.964	-0.152	-0.031
-282.516	-200.000	0.002	-0.056
-281.501	800.000	-0.123	0.444
-280.486	344.189	0.040	-0.078
-279.472	-86.446	-0.143	0.043
-278.457	37.264	0.303	0.264
-277.443	-60.503	0.235	-0.098
-276.428	800.000	0.044	-0.127
-275.413	73.726	0.110	0.113
-274.399	2.103	0.064	0.045
-273.384	-200.000	0.015	-0.113
-272.370	139.600	0.121	-0.157
-271.355	-1.675	0.175	-0.121
-270.340	50.104	0.113	0.105
-269.326	417.126	0.123	-0.259
-268.311	2.290	0.199	-0.142
-267.297	-53.249	0.181	-0.082
-266.282	-105.826	-0.169	0.038
-265.267	-23.640	0.093	-0.055
-264.253	-54.027	0.313	0.140
-263.238	1.815	0.270	0.191
-262.224	318.219	-0.026	0.048
-261.209	563.329	0.097	-0.231
-260.195	-78.050	-0.140	-0.048
-259.180	-68.806	0.223	0.085
-258.165	-200.000	-0.022	0.174
-257.151	800.000	-0.039	0.158
-256.136	115.712	0.018	0.022
-255.122	-156.035	-0.200	0.012
-254.107	-200.000	-0.009	-0.108
-253.092	622.473	-0.094	-0.233
-252.078	-27.409	-0.103	-0.059
-251.063	254.669	0.127	0.214
-250.049	303.361	-0.074	0.135
-249.034	526.449	0.124	-0.287
-248.019	-115.158	0.071	0.013
-247.005	435.023	0.021	0.045
-245.990	-70.015	0.129	-0.048
-244.976	37.264	-0.311	0.271
-243.961	800.000	-0.011	0.032
-242.946	-200.000	0.016	0.221
-241.932	800.000	0.021	0.073
-240.917	-200.000	-0.007	0.249
-239.903	73.370	0.224	0.230
-238.888	-123.993	0.467	0.072
-237.873	83.070	-0.165	-0.176
-236.859	51.678	-0.170	-0.159
-235.844	-69.241	0.142	-0.054
-234.830	199.193	0.233	-0.351
-233.815	800.000	0.022	-0.067
-232.800	-200.000	0.006	0.415
-231.786	202.811	-0.089	0.135
-230.771	531.423	-0.037	-0.087
-229.757	-54.947	-0.125	-0.055
-228.742	-134.632	-0.242	-0.029
-227.727	336.485	0.125	0.239
-226.713	-114.154	-0.329	-0.062
-225.698	-163.946	0.274	-0.013
-224.684	1.816	-0.349	-0.247
-223.669	-104.446	0.102	-0.023
-222.655	-137.416	-0.230	-0.026
-221.640	-200.000	-0.004	0.416
-220.625	-148.003	0.178	0.014
-219.611	-200.000	-0.007	0.130
-218.596	66.361	-0.179	-0.178
-217.582	-148.691	0.197	0.016
-216.567	-48.033	0.071	0.034
-215.552	313.951	-0.082	0.151
-214.538	507.203	0.121	0.275
-213.523	800.000	0.017	-0.053
-212.509	-99.197	0.159	-0.040
-211.494	1.858	0.044	-0.031
-210.479	-61.166	0.135	0.056
-209.465	476.912	0.064	-0.141
-208.450	-200.000	-0.029	-0.225
-207.436	94.400	-0.271	-0.303
-206.421	-200.000	0.055	0.266
-205.406	800.000	-0.082	0.270
-204.392	44.536	0.088	-0.079
-203.377	-200.000	-0.006	0.296
-202.363	-151.448	-0.152	-0.011
-201.348	410.128	-0.065	-0.135
-200.333	-73.171	0.375	0.135
-199.319	220.937	0.149	-0.234
-198.304	-25.001	-0.117	0.068
-197.290	520.868	-0.173	0.398
-196.275	-148.794	0.212	0.017
-195.260	-200.000	0.012	0.337
-194.246	-129.099	0.271	-0.037
-193.231	9.905	0.280	0.209
-192.217	-119.504	-0.276	-0.047
-191.202	-200.000	0.003	-0.229
-190.187	-122.441	0.249	-0.040
-189.173	107.338	-0.037	0.043
-188.158	164.623	-0.143	-0.197
-187.144	-27.069	0.214	0.122
-186.129	800.000	-0.020	0.061
-185.114	327.306	-0.014	-0.026
-184.100	800.000	0.051	-0.177
-183.085	103.297	0.109	-0.126
-182.071	-47.367	0.352	-0.168
-181.056	-54.512	0.147	0.065
-180.042	-65.721	0.208	-0.082
-179.027	23.062	-0.201	-0.161
-178.012	-16.031	-0.087	-0.054
-176.998	332.473	0.194	-0.367
-175.983	-200.000	-0.093	-0.424
-174.969	203.376	0.076	-0.115
-173.954	159.579	0.096	0.131
-172.939	-32.344	-0.400	0.219
-171.925	800.000	-0.119	0.468
-170.910	1.518	0.323	-0.228
-169.896	-141.929	0.613	0.060
-168.881	-160.051	-0.202	0.011
-167.866	60.490	-0.124	0.120
-166.852	-53.958	0.240	-0.107
-165.837	394.853	0.047	0.097
-164.823	-102.814	0.223	0.052
-163.808	2.894	-0.103	0.073
-162.793	13.332	0.202	-0.153
-161.779	800.000	-0.087	0.278
-160.764	443.756	-0.124	-0.266
-159.750	243.445	0.032	-0.052
-158.735	-200.000	0.010	-0.171
-157.720	-152.493	0.400	-0.028
-156.706	-200.000	0.171	-0.000
-155.691	28.909	-0.122	-0.101
-154.677	68.213	0.183	0.183
-153.662	-2.671	0.217	-0.149
-152.647	-82.374	0.202	-0.064
-151.633	-200.000	-0.013	0.244
-150.618	800.000	0.076	-0.237
-149.604	63.297	0.072	0.071
-148.589	-95.313	0.071	0.019
-147.574	57.541	0.131	-0.125
-146.560	-200.000	-0.073	-0.542
-145.545	-66.270	0.299	0.117
-144.531	-80.232	-0.231	-0.076
-143.516	-84.017	-0.170	-0.053
-142.502	-47.131	0.226	0.108
-141.487	-200.000	0.020	0.164
-140.472	-200.000	0.037	0.199
-139.458	69.835	0.195	0.197
-138.443	-200.000	0.038	-0.256
-137.429	319.427	-0.103	0.192
-136.414	149.561	0.049	0.064
-135.399	149.518	0.158	0.210
-134.385	-3.238	-0.243	-0.166
-133.370	338.846	0.014	-0.026
-132.356	-122.166	0.421	0.068
-131.341	602.773	0.055	-0.135
-130.326	-114.003	0.284	0.054
-129.312	-200.000	0.039	-0.189
-128.297	800.000	-0.118	0.337
-127.283	197.854	0.214	0.320
-126.268	-60.627	0.339	-0.141
-125.253	-71.914	0.098	-0.036
-124.239	-153.550	-0.244	-0.017
-123.224	-139.480	-0.389	-0.041
-122.210	-105.279	0.144	-0.032
