DTS Sentinel unit serial number:	SN413079Multiplexer serial number:	ORYXHardware model number:	OX4-SRSoftware version number:	ORYX F/W v4.00 Oryx Data Collector v3.7.2.0data status	okinstallation	princeton_trtdifferential loss correction	single-endedforward channel	channel 1reverse channel	N/Adate	2019/09/15time	23:06:35forward acquisition time	60.00reverse acquisition time	0.00gamma	496.2192k internal	0.2331k external	0.2331temperature offset calibration	0.9969default loss term (dB/km)	0.3790temperature slope calibration	1.0000multiplexer offset coefficient	1.0000multiplexer slope coefficient	1.0000fibre end	0.00T internal ref (°C)	28.48T ext. ref 1 (°C)	8.99T ext. ref 2 (°C)	22.21length (m)	temperature (°C)	Stokes	anti-Stokes-747.200	424.415	-0.078	0.170
-746.185	245.918	0.189	0.320
-745.171	48.781	0.077	0.073
-744.156	91.279	0.160	0.181
-743.142	-132.318	-0.139	0.018
-742.127	64.488	-0.074	-0.075
-741.112	164.867	0.123	-0.175
-740.098	240.697	-0.276	0.463
-739.083	-200.000	0.022	0.491
-738.069	800.000	-0.088	0.275
-737.054	-200.000	0.190	0.000
-736.039	111.570	-0.427	-0.518
-735.025	-86.663	0.287	-0.088
-734.010	54.039	0.051	-0.049
-732.996	285.665	-0.070	-0.127
-731.981	800.000	-0.043	0.168
-730.966	-80.734	0.259	0.087
-729.952	-115.901	-0.210	-0.039
-728.937	323.548	-0.216	0.415
-727.923	-200.000	-0.070	0.398
-726.908	176.162	-0.062	0.091
-725.894	-138.510	-0.292	0.032
-724.879	-91.365	0.280	0.081
-723.864	127.502	-0.265	-0.338
-722.850	-190.833	0.219	0.002
-721.835	-73.110	-0.207	-0.076
-720.821	17.291	-0.072	-0.057
-719.806	70.346	0.141	0.147
-718.791	62.419	0.134	-0.134
-717.777	-1.548	-0.134	0.095
-716.762	57.173	-0.188	0.185
-715.748	800.000	-0.029	-0.095
-714.733	-38.944	0.162	-0.086
-713.718	296.157	-0.101	-0.185
-712.704	16.215	0.449	0.356
-711.689	35.406	-0.196	0.173
-710.675	-0.647	0.165	0.117
-709.660	-90.460	-0.162	-0.047
-708.645	17.332	-0.066	-0.053
-707.631	357.596	0.055	-0.110
-706.616	547.135	-0.063	-0.152
-705.602	-175.486	-0.108	-0.003
-704.587	3.563	0.303	0.222
-703.572	-196.073	-0.125	-0.001
-702.558	800.000	-0.063	-0.203
-701.543	800.000	0.030	0.116
-700.529	-34.375	0.137	-0.076
-699.514	-58.876	0.159	-0.069
-698.499	11.153	0.334	0.256
-697.485	65.143	0.136	-0.138
-696.470	-119.685	0.212	-0.037
-695.456	74.573	0.005	-0.005
-694.441	800.000	0.080	0.239
-693.426	227.195	-0.211	0.344
-692.412	-1.906	-0.192	-0.136
-691.397	30.580	0.144	0.124
-690.383	166.312	-0.059	0.084
-689.368	54.715	0.176	-0.170
-688.354	2.680	0.185	-0.135
-687.339	-178.187	-0.150	-0.004
-686.324	-58.674	-0.052	-0.023
-685.310	800.000	-0.127	0.527
-684.295	-40.271	-0.063	0.033
-683.281	250.693	0.087	0.148
-682.266	346.358	-0.128	-0.253
-681.251	-99.405	-0.055	0.014
-680.237	431.857	0.104	-0.226
-679.222	-124.562	0.108	0.017
-678.208	317.421	-0.156	-0.296
-677.193	612.654	0.056	0.141
-676.178	44.075	0.258	-0.237
-675.164	87.084	-0.135	-0.150
-674.149	276.537	0.109	0.195
-673.135	-77.463	-0.446	0.155
-672.120	-16.902	0.168	-0.106
-671.105	-47.822	0.299	0.145
-670.091	233.083	-0.058	-0.096
-669.076	-77.269	-0.362	-0.126
-668.062	357.027	0.019	0.039
-667.047	-22.580	0.049	0.030
-666.032	72.983	0.147	-0.154
-665.018	800.000	0.037	0.131
-664.003	-66.987	0.248	0.098
-662.989	168.936	0.185	0.265
-661.974	-13.679	-0.201	0.130
-660.959	145.087	-0.183	-0.245
-659.945	-130.471	0.110	-0.015
-658.930	95.423	-0.217	0.248
-657.916	83.736	0.359	-0.393
-656.901	-136.417	0.181	0.021
-655.886	-28.157	0.303	-0.175
-654.872	122.261	0.159	-0.199
-653.857	304.354	-0.139	-0.258
-652.843	668.327	0.102	0.265
-651.828	140.934	0.170	-0.225
-650.814	149.490	-0.086	0.116
-649.799	254.956	-0.010	-0.017
-648.784	-200.000	0.087	0.431
-647.770	2.574	0.163	0.118
-646.755	269.378	0.057	-0.100
-645.741	800.000	0.039	-0.119
-644.726	17.401	-0.102	0.081
-643.711	-200.000	-0.014	-0.076
-642.697	-200.000	0.007	-0.052
-641.682	-121.505	-0.274	0.046
-640.668	511.839	-0.037	-0.087
-639.653	-78.571	0.112	-0.038
-638.638	30.499	0.157	-0.134
-637.624	134.085	0.120	0.156
-636.609	574.610	0.033	0.081
-635.595	800.000	-0.038	-0.157
-634.580	-114.448	0.157	-0.030
-633.565	-5.458	0.468	-0.322
-632.551	462.734	0.090	-0.200
-631.536	-15.846	0.181	-0.116
-630.522	-65.155	-0.074	-0.030
-629.507	116.005	0.188	0.231
-628.492	-171.055	-0.219	0.007
-627.478	30.956	-0.243	-0.209
-626.463	353.877	0.113	-0.224
-625.449	-19.119	-0.442	-0.275
-624.434	-115.755	-0.188	0.035
-623.419	-134.495	-0.222	-0.027
-622.405	-140.525	0.187	-0.019
-621.390	-200.000	0.019	0.290
-620.376	-200.000	-0.018	-0.200
-619.361	-3.635	0.063	-0.044
-618.346	91.821	-0.027	-0.030
-617.332	-200.000	0.012	0.147
-616.317	-76.705	-0.321	-0.113
-615.303	-129.631	-0.241	-0.033
-614.288	157.571	0.165	-0.229
-613.273	144.609	0.140	0.188
-612.259	-94.532	0.340	-0.093
-611.244	-99.498	0.259	0.065
-610.230	-5.628	0.181	0.124
-609.215	-142.585	-0.337	0.033
-608.201	147.024	-0.263	-0.354
-607.186	309.772	0.038	0.072
-606.171	53.260	0.210	-0.202
-605.157	246.673	-0.082	0.139
-604.142	-78.313	-0.040	0.014
-603.128	132.005	-0.045	-0.058
-602.113	-25.980	-0.149	0.088
-601.098	432.391	-0.079	0.171
-600.084	71.707	0.230	-0.239
-599.069	-121.823	0.241	0.040
-598.055	-131.913	0.397	0.052
-597.040	46.578	0.186	-0.173
-596.025	74.966	0.071	-0.075
-595.011	62.660	-0.127	-0.127
-593.996	108.296	-0.078	-0.093
-592.982	-59.599	0.311	0.133
-591.967	176.271	-0.165	0.240
-590.952	-24.577	-0.088	-0.053
-589.938	-14.383	-0.193	-0.124
-588.923	127.044	-0.165	0.210
-587.909	800.000	-0.097	0.287
-586.894	-99.855	-0.106	0.026
-585.879	-80.406	0.281	0.094
-584.865	-200.000	-0.025	0.329
-583.850	373.181	-0.058	-0.119
-582.836	-69.711	-0.196	-0.075
-581.821	800.000	0.054	0.216
-580.806	-97.624	-0.069	-0.018
-579.792	56.450	-0.063	0.062
-578.777	-145.069	0.054	-0.005
-577.763	474.101	-0.019	-0.042
-576.748	-66.709	-0.274	-0.108
-575.733	-83.170	-0.262	0.084
-574.719	800.000	0.031	0.118
-573.704	6.148	-0.394	0.292
-572.690	145.067	0.184	-0.247
-571.675	450.966	0.035	0.077
-570.661	644.223	-0.135	-0.345
-569.646	-116.893	0.263	-0.048
-568.631	139.045	-0.285	-0.374
-567.617	-87.077	0.497	-0.151
-566.602	536.448	-0.108	-0.256
-565.588	-88.704	-0.167	-0.050
-564.573	800.000	0.053	-0.194
-563.558	-13.489	-0.302	-0.196
-562.544	-118.449	-0.219	0.039
-561.529	-106.439	0.168	0.038
-560.515	454.331	0.059	-0.131
-559.500	468.303	0.018	-0.040
-558.485	-200.000	-0.004	0.040
-557.471	-23.252	-0.081	0.049
-556.456	-126.569	0.223	0.033
-555.442	-150.643	0.215	0.016
-554.427	49.280	-0.243	0.229
-553.412	-200.000	-0.007	-0.271
-552.398	-137.680	0.248	-0.028
-551.383	407.712	0.053	-0.112
-550.369	-88.776	0.513	0.152
-549.354	-24.957	0.255	-0.151
-548.339	-33.997	-0.063	0.035
-547.325	-200.000	-0.126	-0.000
-546.310	-8.020	0.177	-0.119
-545.296	230.647	-0.147	0.241
-544.281	-200.000	-0.066	-0.288
-543.266	-91.415	-0.211	-0.060
-542.252	197.659	0.066	0.100
-541.237	73.699	0.154	-0.161
-540.223	-200.000	0.008	-0.369
-539.208	71.193	-0.245	-0.253
-538.193	-139.336	-0.464	0.050
-537.179	18.215	-0.106	0.085
-536.164	76.735	0.052	-0.055
-535.150	47.136	-0.313	-0.291
-534.135	-118.420	-0.193	0.034
-533.121	-114.939	0.056	0.011
-532.106	-32.520	-0.220	0.122
-531.091	-200.000	0.013	-0.242
-530.077	-200.000	0.022	-0.278
-529.062	596.932	-0.057	-0.142
-528.048	-90.983	0.290	0.083
-527.033	-164.624	0.339	0.015
-526.018	366.028	0.115	-0.230
-525.004	-81.112	0.164	-0.054
-523.989	-200.000	-0.015	0.170
-522.975	52.243	-0.140	-0.133
-521.960	800.000	-0.020	0.073
-520.945	800.000	0.064	0.200
-519.931	9.196	0.126	-0.095
-518.916	-71.299	-0.138	0.052
-517.902	-46.221	-0.188	-0.092
-516.887	-200.000	-0.085	0.423
-515.872	8.923	0.078	0.058
-514.858	-200.000	0.002	0.217
-513.843	-97.715	-0.177	-0.046
-512.829	365.358	-0.055	0.110
-511.814	225.961	0.241	0.390
-510.799	-83.655	-0.096	0.031
-509.785	-111.364	0.501	0.102
-508.770	-61.671	0.421	0.176
-507.756	60.542	0.049	0.049
-506.741	490.262	-0.078	-0.179
-505.726	-200.000	-0.025	-0.241
-504.712	425.759	-0.107	-0.229
-503.697	459.488	0.115	-0.256
-502.683	96.582	0.189	-0.216
-501.668	-64.976	0.168	0.068
-500.653	-46.528	-0.180	0.088
-499.639	139.130	-0.159	0.209
-498.624	34.916	-0.224	0.196
-497.610	797.000	-0.063	0.174
-496.595	59.783	0.065	-0.064
-495.581	-52.182	-0.158	-0.073
-494.566	4.019	-0.285	-0.208
-493.551	184.625	0.140	-0.207
-492.537	800.000	-0.013	-0.054
-491.522	-66.876	0.090	-0.036
-490.508	231.860	-0.168	-0.274
-489.493	-200.000	-0.009	0.435
-488.478	22.260	0.087	-0.071
-487.464	-123.170	0.157	-0.025
-486.449	-142.492	-0.170	-0.017
-485.435	-200.000	0.009	-0.119
-484.420	800.000	0.026	-0.090
-483.405	-161.663	0.183	0.009
-482.391	800.000	0.053	0.223
-481.376	130.890	0.062	-0.079
-480.362	-98.773	-0.256	0.065
-479.347	-136.350	-0.015	0.002
-478.332	320.454	0.185	-0.350
-477.318	21.353	-0.201	0.162
-476.303	126.930	-0.081	0.102
-475.289	659.307	0.048	0.122
-474.274	-140.374	0.077	-0.008
-473.259	-167.471	0.229	-0.009
-472.245	-200.000	0.025	-0.258
-471.230	-200.000	-0.002	0.286
-470.216	95.469	0.067	-0.076
-469.201	-99.466	-0.153	-0.038
-468.186	-97.195	0.126	-0.033
-467.172	-200.000	-0.047	0.333
-466.157	57.878	0.058	-0.057
-465.143	-16.123	-0.119	0.075
-464.128	324.627	-0.120	0.229
-463.113	-157.396	-0.158	0.009
-462.099	147.787	0.310	-0.417
-461.084	659.430	0.077	-0.198
-460.070	-49.762	-0.400	0.189
-459.055	800.000	0.071	0.268
-458.040	125.433	0.214	0.269
-457.026	131.433	-0.178	0.228
-456.011	-160.207	0.157	0.008
-454.997	-176.338	0.197	-0.005
-453.982	-22.564	-0.076	0.046
-452.968	80.138	0.048	0.052
-451.953	15.367	-0.161	-0.126
-450.938	352.436	-0.127	-0.251
-449.924	-200.000	0.014	-0.070
-448.909	-200.000	0.001	0.275
-447.895	76.569	0.114	-0.120
-446.880	-200.000	0.041	-0.192
-445.865	-78.354	0.253	0.086
-444.851	-54.397	-0.154	0.070
-443.836	330.884	-0.112	0.214
-442.822	-200.000	-0.022	-0.123
-441.807	74.601	-0.194	-0.203
-440.792	475.520	0.101	-0.228
-439.778	-42.257	0.297	-0.151
-438.763	-200.000	-0.032	0.343
-437.749	-200.000	0.032	-0.192
-436.734	292.910	-0.131	-0.238
-435.719	-200.000	-0.006	0.684
-434.705	102.625	-0.267	0.311
-433.690	-200.000	-0.001	-0.013
-432.676	-68.808	-0.152	0.058
-431.661	288.226	-0.038	-0.068
-430.646	-200.000	0.005	-0.098
-429.632	-173.902	0.375	0.011
-428.617	-80.176	-0.136	0.045
-427.603	-59.516	0.223	-0.095
-426.588	-200.000	0.025	0.266
-425.573	-1.771	-0.208	0.146
-424.559	800.000	-0.080	-0.284
-423.544	800.000	-0.158	0.455
-422.530	-51.957	-0.333	-0.154
-421.515	-83.067	0.211	0.068
-420.500	-160.947	-0.319	-0.017
-419.486	800.000	-0.083	-0.280
-418.471	-14.768	0.055	0.035
-417.457	75.658	-0.223	0.234
-416.442	295.423	-0.148	-0.268
-415.428	207.091	0.094	0.145
-414.413	-200.000	0.005	-0.039
-413.398	191.063	-0.107	-0.160
-412.384	800.000	0.098	-0.358
-411.369	-156.906	-0.142	0.009
-410.355	277.805	-0.077	0.137
-409.340	-200.000	-0.029	-0.542
-408.325	800.000	-0.014	-0.046
-407.311	56.144	-0.041	0.040
-406.296	-82.466	0.289	-0.093
-405.282	800.000	0.045	0.193
-404.267	-133.864	0.209	-0.026
-403.252	-200.000	0.022	-0.346
-402.238	21.849	-0.063	0.051
-401.223	627.384	-0.105	0.264
-400.209	77.369	-0.128	0.135
-399.194	800.000	0.104	0.337
-398.179	800.000	0.100	0.325
-397.165	295.571	0.033	0.059
-396.150	67.152	0.268	-0.271
-395.136	6.023	-0.082	0.061
-394.121	176.120	-0.073	0.105
-393.106	-200.000	0.073	-0.327
-392.092	-74.426	-0.449	-0.161
-391.077	-182.422	-0.316	-0.006
-390.063	800.000	-0.010	0.041
-389.048	-164.776	0.346	-0.015
-388.033	186.136	-0.100	0.148
-387.019	165.918	0.076	-0.107
-386.004	1.297	0.161	-0.115
-384.990	41.940	0.085	0.076
-383.975	-200.000	-0.001	-0.124
-382.960	-78.257	-0.232	-0.079
-381.946	-48.581	0.113	-0.054
-380.931	178.395	-0.099	0.144
-379.917	428.962	0.048	-0.103
-378.902	-156.662	-0.133	-0.008
-377.888	161.509	0.134	-0.185
-376.873	-46.492	0.050	0.025
-375.858	102.521	-0.117	0.136
-374.844	49.000	-0.071	0.066
-373.829	-126.333	0.037	-0.005
-372.815	-108.821	-0.297	0.063
-371.800	-200.000	0.033	0.412
-370.785	-39.016	-0.353	-0.184
-369.771	15.267	-0.142	0.110
-368.756	-200.000	-0.043	0.208
-367.742	-200.000	-0.038	-0.335
-366.727	577.702	0.127	-0.308
-365.712	381.950	0.065	0.132
-364.698	-200.000	0.000	-0.011
-363.683	-95.620	0.103	-0.027
-362.669	-125.041	-0.203	-0.031
-361.654	615.345	-0.152	0.377
-360.639	133.432	0.081	-0.104
-359.625	353.234	-0.156	0.307
-358.610	-33.353	-0.315	0.173
-357.596	-22.509	-0.062	0.037
-356.581	-72.527	-0.146	-0.054
-355.566	-200.000	0.032	-0.397
-354.552	-190.672	-0.364	-0.004
-353.537	-200.000	-0.057	0.262
-352.523	504.936	0.063	0.146
-351.508	-200.000	-0.017	0.078
-350.493	-52.242	-0.149	0.069
-349.479	-200.000	0.021	0.112
-348.464	800.000	-0.040	-0.136
-347.450	330.096	0.272	-0.519
-346.435	72.109	0.208	0.215
-345.420	162.472	-0.127	-0.177
-344.406	329.738	-0.065	-0.123
-343.391	7.589	-0.455	0.337
-342.377	-110.752	-0.100	-0.020
-341.362	-200.000	0.038	0.188
-340.348	-54.566	-0.272	-0.122
-339.333	-118.416	0.176	0.031
-338.318	75.824	-0.032	0.034
-337.304	-59.746	0.245	0.104
-336.289	39.218	0.202	0.179
-335.275	-22.078	-0.192	-0.115
-334.260	-94.192	-0.145	0.039
-333.245	800.000	0.018	0.073
-332.231	-46.799	0.215	0.104
-331.216	-34.322	0.108	-0.059
-330.202	-75.049	0.239	-0.085
-329.187	-149.912	-0.367	-0.028
-328.172	224.332	-0.031	0.049
-327.158	12.877	0.063	0.049
-326.143	-182.745	-0.381	-0.007
-325.129	-200.000	-0.040	-0.198
-324.114	2.248	-0.434	-0.310
-323.099	-88.349	0.027	-0.008
-322.085	20.907	0.091	0.073
-321.070	-73.093	-0.226	0.082
-320.056	255.258	0.044	-0.074
-319.041	-149.675	0.079	-0.006
-318.026	188.632	0.132	-0.195
-317.012	800.000	-0.066	-0.197
-315.997	-200.000	0.004	0.134
-314.983	800.000	0.033	0.128
-313.968	351.593	0.150	-0.295
-312.953	-200.000	-0.000	-0.200
-311.939	-93.711	-0.351	0.096
-310.924	246.607	-0.094	0.157
-309.910	-151.734	0.037	0.003
-308.895	173.839	-0.259	-0.370
-307.880	116.561	-0.079	-0.096
-306.866	109.692	-0.139	-0.165
-305.851	-54.529	0.111	0.050
-304.837	197.186	-0.202	0.305
-303.822	298.968	0.166	0.302
-302.807	44.912	0.260	-0.237
-301.793	104.613	-0.060	-0.070
-300.778	-114.093	-0.156	0.030
-299.764	-132.654	0.218	-0.028
-298.749	-200.000	0.038	-0.306
-297.735	397.796	-0.011	-0.023
-296.720	-44.941	0.179	-0.088
-295.705	-138.513	0.119	-0.013
-294.691	-84.094	0.124	-0.039
-293.676	-67.850	0.149	-0.058
-292.662	800.000	0.093	-0.262
-291.647	800.000	0.040	-0.170
-290.632	603.167	0.095	0.234
-289.618	9.159	0.085	0.063
-288.603	-112.505	-0.103	-0.020
-287.589	-34.586	0.123	0.067
-286.574	4.606	0.036	0.026
-285.559	-9.001	-0.108	0.072
-284.545	148.894	-0.118	-0.158
-283.530	175.322	0.021	0.030
-282.516	-200.000	0.037	0.188
-281.501	-177.241	-0.133	-0.003
-280.486	-110.096	0.203	-0.042
-279.472	-200.000	-0.015	0.282
-278.457	262.680	-0.065	-0.111
-277.443	-200.000	0.001	0.295
-276.428	-200.000	0.020	0.221
-275.413	112.715	0.107	-0.128
-274.399	-23.550	0.256	0.152
-273.384	800.000	0.016	0.061
-272.370	-200.000	-0.017	-0.087
-271.355	-200.000	0.015	0.196
-270.340	116.594	-0.219	0.266
-269.326	-194.241	-0.239	-0.002
-268.311	213.800	0.195	0.304
-267.297	60.159	0.184	0.180
-266.282	-200.000	-0.040	0.294
-265.267	-200.000	-0.046	0.246
-264.253	-36.901	-0.188	0.099
-263.238	-88.951	-0.122	0.036
-262.224	-200.000	-0.049	0.329
-261.209	16.215	0.200	0.156
-260.195	-129.036	-0.254	0.035
-259.180	-49.547	-0.087	-0.041
-258.165	-200.000	-0.007	0.124
-257.151	-11.499	-0.194	-0.126
-256.136	314.380	-0.078	0.144
-255.122	-2.059	-0.210	0.146
-254.107	-200.000	-0.056	0.482
-253.092	-200.000	0.014	-0.167
-252.078	-200.000	-0.069	-0.316
-251.063	-200.000	0.032	-0.206
-250.049	-200.000	-0.012	-0.074
-249.034	-4.750	0.368	0.250
-248.019	175.941	-0.196	0.281
-247.005	-85.556	-0.220	-0.068
-245.990	-61.032	0.230	-0.096
-244.976	-156.002	0.297	0.019
-243.961	120.240	0.207	-0.253
-242.946	-60.480	0.136	-0.057
-241.932	66.889	-0.130	-0.131
-240.917	-27.848	0.305	0.174
-239.903	-200.000	0.036	-0.207
-238.888	-118.281	-0.113	0.020
-237.873	-22.798	-0.051	0.030
-236.859	-54.073	0.145	0.065
-235.844	-41.096	0.079	-0.040
-234.830	-200.000	0.042	0.545
-233.815	-21.431	0.145	-0.087
-232.800	800.000	0.102	0.384
-231.786	29.911	0.203	-0.171
-230.771	-151.872	0.282	-0.020
-229.757	-118.942	-0.142	0.025
-228.742	-200.000	0.071	0.373
-227.727	-62.719	-0.168	0.069
-226.713	-200.000	0.017	-0.238
-225.698	160.228	-0.096	-0.131
-224.684	-200.000	0.009	0.130
-223.669	536.292	-0.052	0.123
-222.655	46.292	-0.205	-0.187
-221.640	-43.373	-0.092	0.046
-220.625	-189.712	0.251	0.003
-219.611	-51.768	0.139	0.064
-218.596	-200.000	-0.014	-0.388
-217.582	-37.813	-0.067	0.035
-216.567	800.000	-0.048	-0.198
-215.552	26.116	0.289	-0.238
-214.538	181.252	-0.157	-0.228
-213.523	-200.000	0.023	-0.125
-212.509	15.699	-0.045	0.035
-211.494	-85.985	0.050	0.015
-210.479	-200.000	0.045	-0.202
-209.465	-168.640	0.324	0.012
-208.450	617.184	-0.073	0.180
-207.436	-182.797	0.406	0.007
-206.421	-200.000	0.015	0.172
-205.406	278.186	-0.050	0.088
-204.392	292.327	0.112	0.201
-203.377	-200.000	0.010	-0.053
-202.363	-39.413	0.120	-0.062
-201.348	-200.000	0.015	-0.069
-200.333	-200.000	-0.027	-0.422
-199.319	-29.455	0.325	-0.183
-198.304	-200.000	0.002	-0.163
-197.290	657.222	0.085	0.214
-196.275	108.619	0.111	0.131
-195.260	265.481	0.007	-0.012
-194.246	296.841	0.110	0.199
-193.231	70.822	0.125	-0.127
-192.217	42.146	-0.226	-0.202
-191.202	-200.000	0.024	-0.232
-190.187	198.050	0.084	0.126
-189.173	107.976	-0.182	0.213
-188.158	-200.000	0.023	0.233
-187.144	-113.261	0.228	0.044
-186.129	-200.000	0.026	0.124
-185.114	-98.936	0.212	-0.053
-184.100	74.557	0.034	0.035
-183.085	800.000	-0.112	0.450
-182.071	-200.000	0.020	0.181
-181.056	375.557	0.016	-0.033
-180.042	31.795	0.134	-0.114
-179.027	-166.501	-0.172	0.007
-178.012	800.000	0.035	0.133
-176.998	47.966	-0.039	-0.035
-175.983	-35.804	0.232	0.124
-174.969	-200.000	0.069	-0.437
-173.954	-200.000	0.074	0.366
-172.939	20.102	0.113	0.089
-171.925	-144.897	0.223	-0.020
-170.910	162.974	0.030	0.042
-169.896	71.077	0.074	-0.075
-168.881	800.000	0.073	-0.246
-167.866	56.670	0.165	0.158
-166.852	83.022	-0.195	0.209
-165.837	-136.630	-0.166	-0.019
-164.823	-200.000	0.009	0.228
-163.808	148.101	-0.087	-0.115
-162.793	31.412	0.125	-0.106
-161.779	-200.000	-0.012	-0.262
-160.764	-200.000	-0.008	0.123
-159.750	297.651	0.065	0.117
-158.735	-139.417	-0.214	0.023
-157.720	-200.000	-0.031	0.245
-156.706	44.941	0.282	0.255
-155.691	343.930	-0.045	0.087
-154.677	7.518	0.139	-0.103
-153.662	686.289	0.061	-0.157
-152.647	-200.000	0.104	-0.464
-151.633	-41.083	-0.363	-0.184
-150.618	800.000	0.063	-0.253
-149.604	51.115	-0.207	-0.193
-148.589	307.444	-0.082	0.151
-147.574	800.000	0.050	-0.181
-146.560	-129.156	0.088	-0.012
-145.545	-113.026	-0.068	-0.013
-144.531	63.105	0.178	-0.175
-143.516	72.358	-0.104	-0.107
-142.502	-86.714	0.300	-0.090
-141.487	-118.589	-0.062	-0.011
-140.472	251.152	0.168	0.280
-139.458	-200.000	-0.039	0.206
-138.443	106.220	0.146	0.169
-137.429	246.309	0.037	-0.061
-136.414	-26.096	0.173	-0.100
-135.399	96.500	0.118	-0.132
-134.385	-29.656	0.123	-0.069
-133.370	-81.161	-0.247	-0.080
-132.356	-62.672	0.376	-0.153
-131.341	-200.000	0.029	-0.202
-130.326	47.591	0.139	-0.128
-129.312	125.730	-0.173	-0.215
-128.297	800.000	-0.103	-0.357
-127.283	-78.667	0.171	-0.057
-126.268	30.668	0.174	-0.146
-125.253	292.265	-0.024	-0.043
-124.239	227.478	0.172	0.274
-123.224	180.048	0.210	0.302
-122.210	85.010	0.248	0.267
-121.195	800.000	-0.102	-0.282
-120.180	-165.980	0.108	0.005
