DTS Sentinel unit serial number:	SN413079Multiplexer serial number:	ORYXHardware model number:	OX4-SRSoftware version number:	ORYX F/W v4.00 Oryx Data Collector v3.7.2.0data status	okinstallation	princeton_trtdifferential loss correction	single-endedforward channel	channel 1reverse channel	N/Adate	2019/09/10time	21:32:11forward acquisition time	60.00reverse acquisition time	0.00gamma	496.2192k internal	0.2330k external	0.2330temperature offset calibration	0.9934default loss term (dB/km)	0.3790temperature slope calibration	1.0000multiplexer offset coefficient	1.0000multiplexer slope coefficient	1.0000fibre end	0.00T internal ref (°C)	31.12T ext. ref 1 (°C)	-0.31T ext. ref 2 (°C)	24.44length (m)	temperature (°C)	Stokes	anti-Stokes-747.200	-200.000	-0.040	0.333
-746.185	-200.000	-0.041	0.225
-745.171	-200.000	-0.065	0.319
-744.156	57.093	-0.246	0.242
-743.142	0.770	-0.343	-0.248
-742.127	-91.851	-0.081	-0.023
-741.112	270.408	-0.039	0.070
-740.098	195.776	0.180	0.275
-739.083	-21.689	0.128	-0.078
-738.069	-117.836	-0.335	-0.061
-737.054	53.276	-0.162	0.156
-736.039	504.631	0.124	-0.289
-735.025	10.277	0.274	0.210
-734.010	176.388	-0.090	-0.132
-732.996	128.437	-0.187	-0.240
-731.981	28.576	-0.099	-0.084
-730.966	105.837	-0.030	-0.035
-729.952	-109.970	-0.122	-0.026
-728.937	87.748	-0.233	-0.259
-727.923	32.122	0.048	0.041
-726.908	49.096	-0.252	-0.238
-725.894	283.883	-0.075	-0.135
-724.879	-200.000	0.022	-0.171
-723.864	19.295	-0.201	-0.163
-722.850	-104.778	-0.113	0.026
-721.835	-103.433	-0.140	-0.033
-720.821	366.425	-0.098	0.198
-719.806	328.800	-0.133	0.258
-718.791	294.678	-0.117	0.216
-717.777	233.835	0.099	-0.164
-716.762	101.524	0.062	-0.072
-715.748	-68.898	-0.045	0.017
-714.733	-70.213	0.471	0.180
-713.718	268.319	-0.061	0.107
-712.704	-200.000	0.004	-0.096
-711.689	-194.255	-0.242	0.002
-710.675	-200.000	0.004	0.140
-709.660	765.714	-0.138	0.377
-708.645	38.151	-0.038	0.034
-707.631	-200.000	0.032	-0.181
-706.616	19.513	0.298	0.241
-705.602	-200.000	0.005	0.227
-704.587	-140.530	-0.039	-0.004
-703.572	800.000	0.057	0.219
-702.558	477.051	-0.097	0.221
-701.543	800.000	0.067	0.262
-700.529	-182.765	0.305	-0.006
-699.514	-200.000	0.058	0.324
-698.499	-39.187	0.277	-0.146
-697.485	-15.549	0.090	-0.058
-696.470	-60.735	0.183	0.078
-695.456	205.199	-0.072	-0.112
-694.441	577.472	0.054	-0.133
-693.426	157.282	0.078	0.109
-692.412	-158.687	-0.259	0.015
-691.397	2.779	0.141	-0.103
-690.383	-128.418	-0.193	-0.028
-689.368	-21.204	0.231	-0.142
-688.354	269.167	-0.087	-0.153
-687.339	171.713	0.075	-0.109
-686.324	800.000	-0.037	-0.106
-685.310	-200.000	-0.056	-0.305
-684.295	-200.000	0.010	0.150
-683.281	162.961	-0.020	-0.029
-682.266	192.340	-0.078	0.118
-681.251	-200.000	-0.002	0.252
-680.237	186.551	-0.122	0.182
-679.222	-200.000	-0.001	-0.003
-678.208	-138.783	-0.263	-0.029
-677.193	-200.000	0.039	-0.182
-676.178	88.398	-0.147	-0.164
-675.164	2.369	0.302	-0.220
-674.149	-31.190	-0.374	-0.212
-673.135	800.000	0.068	0.261
-672.120	117.080	-0.015	-0.018
-671.105	-200.000	-0.021	0.109
-670.091	-23.925	0.223	0.134
-669.076	43.141	0.160	0.147
-668.062	-200.000	-0.016	0.186
-667.047	-142.143	0.365	0.036
-666.032	65.228	0.167	0.169
-665.018	288.037	0.103	0.187
-664.003	-51.443	-0.176	-0.083
-662.989	177.371	-0.125	0.183
-661.974	135.059	0.056	0.074
-660.959	3.285	-0.218	-0.159
-659.945	185.383	-0.180	-0.268
-658.930	487.076	0.055	-0.127
-657.916	-79.593	0.102	0.035
-656.901	7.546	-0.095	0.071
-655.886	170.000	-0.170	-0.244
-654.872	13.582	0.209	-0.163
-653.857	-116.563	0.331	-0.061
-652.843	70.754	0.037	0.038
-651.828	126.761	-0.090	0.114
-650.814	-200.000	0.017	-0.197
-649.799	800.000	0.060	-0.172
-648.784	55.500	-0.147	-0.143
-647.770	202.309	-0.138	-0.213
-646.755	2.411	0.125	-0.090
-645.741	61.193	0.212	0.211
-644.726	-200.000	-0.015	-0.122
-643.711	-61.175	-0.364	0.154
-642.697	173.877	-0.029	0.042
-641.682	685.754	0.021	0.056
-640.668	108.830	0.179	0.214
-639.653	120.807	0.102	-0.127
-638.638	24.038	-0.309	0.256
-637.624	-165.600	-0.295	0.013
-636.609	-47.122	-0.231	-0.113
-635.595	-47.190	-0.200	-0.098
-634.580	560.001	-0.125	0.302
-633.565	-200.000	-0.003	-0.064
-632.551	-3.186	0.131	0.091
-631.536	303.519	-0.181	-0.336
-630.522	-200.000	-0.015	0.177
-629.507	81.666	-0.107	0.117
-628.492	-164.634	0.185	-0.008
-627.478	102.745	-0.156	0.183
-626.463	49.887	-0.194	-0.183
-625.449	25.062	-0.057	-0.048
-624.434	-200.000	-0.006	0.122
-623.419	-24.222	0.191	0.114
-622.405	800.000	-0.177	-0.557
-621.390	24.043	-0.133	-0.110
-620.376	-200.000	0.006	0.221
-619.361	110.688	0.063	-0.076
-618.346	154.865	-0.162	0.223
-617.332	-35.220	0.055	0.030
-616.317	-200.000	0.000	-0.151
-615.303	800.000	0.084	-0.234
-614.288	-200.000	0.016	-0.277
-613.273	-200.000	0.029	-0.347
-612.259	-137.463	0.085	-0.010
-611.244	184.616	0.186	-0.277
-610.230	-63.809	0.141	0.058
-609.215	-75.456	-0.058	0.021
-608.201	-200.000	-0.057	0.306
-607.186	-58.877	-0.176	0.076
-606.171	800.000	0.019	-0.052
-605.157	-90.203	-0.246	0.072
-604.142	-178.639	-0.262	-0.006
-603.128	-200.000	0.019	0.092
-602.113	537.312	0.082	-0.194
-601.098	58.617	-0.085	0.084
-600.084	-200.000	0.024	-0.244
-599.069	-113.389	-0.161	-0.032
-598.055	164.283	-0.005	0.007
-597.040	168.018	-0.287	0.409
-596.025	-200.000	-0.000	0.123
-595.011	-67.597	-0.336	0.132
-593.996	-110.379	0.192	0.040
-592.982	800.000	0.008	0.035
-591.967	335.414	-0.095	-0.184
-590.952	-200.000	0.041	0.189
-589.938	-200.000	0.011	0.059
-588.923	149.690	-0.071	0.096
-587.909	35.937	0.208	0.183
-586.894	800.000	-0.098	0.350
-585.879	-196.044	0.077	-0.001
-584.865	-175.974	0.209	-0.006
-583.850	64.558	0.061	0.062
-582.836	-102.078	-0.536	-0.129
-581.821	11.935	0.269	-0.207
-580.806	-100.988	0.228	0.056
-579.792	-200.000	0.015	-0.163
-578.777	149.243	-0.265	-0.359
-577.763	-85.741	-0.184	0.057
-576.748	395.696	0.233	0.486
-575.733	68.176	0.120	0.123
-574.719	-200.000	0.083	-0.396
-573.704	-191.866	-0.253	-0.002
-572.690	-72.629	0.300	-0.111
-571.675	-200.000	-0.003	-0.171
-570.661	7.269	0.288	0.215
-569.646	570.696	-0.163	-0.396
-568.631	-200.000	0.004	-0.047
-567.617	-83.867	-0.201	0.064
-566.602	359.505	-0.044	-0.088
-565.588	243.026	0.137	-0.230
-564.573	348.817	-0.048	0.095
-563.558	-97.811	0.112	0.029
-562.544	-200.000	0.000	-0.110
-561.529	-72.349	-0.351	-0.130
-560.515	-72.704	0.146	0.054
-559.500	390.351	-0.121	-0.251
-558.485	-154.044	-0.239	0.016
-557.471	56.509	0.141	0.137
-556.456	-138.310	0.262	-0.029
-555.442	0.401	-0.210	-0.150
-554.427	-95.263	0.430	0.116
-553.412	-62.316	0.191	-0.079
-552.398	-159.130	0.175	0.010
-551.383	49.158	-0.229	0.215
-550.369	62.903	-0.143	-0.143
-549.354	-42.821	0.227	0.115
-548.339	256.866	-0.122	0.209
-547.325	539.618	0.083	-0.198
-546.310	269.543	0.176	-0.309
-545.296	703.484	-0.043	-0.112
-544.281	800.000	0.111	0.322
-543.266	-11.171	0.040	-0.026
-542.252	437.646	0.038	0.084
-541.237	674.866	-0.183	-0.475
-540.223	-200.000	0.010	-0.093
-539.208	-200.000	0.003	-0.045
-538.193	339.075	-0.245	-0.476
-537.179	800.000	-0.041	-0.174
-536.164	349.025	0.094	-0.185
-535.150	800.000	0.040	-0.122
-534.135	54.834	0.124	0.120
-533.121	-105.868	-0.227	0.051
-532.106	-130.654	0.115	0.016
-531.091	127.539	-0.210	0.266
-530.077	-93.704	-0.054	0.015
-529.062	149.440	0.184	-0.248
-528.048	158.647	-0.191	-0.265
-527.033	-111.337	0.279	-0.057
-526.018	45.475	-0.451	-0.415
-525.004	-200.000	0.002	0.224
-523.989	-19.644	-0.333	0.206
-522.975	-67.212	0.101	0.040
-521.960	800.000	0.070	0.236
-520.945	438.929	0.188	0.410
-519.931	-178.462	-0.169	-0.004
-518.916	-80.937	-0.105	0.035
-517.902	-185.035	0.100	0.002
-516.887	-5.794	0.284	-0.194
-515.872	-14.697	-0.175	-0.112
-514.858	-200.000	-0.064	0.286
-513.843	491.829	0.124	-0.283
-512.829	4.643	-0.101	-0.074
-511.814	-42.986	0.094	-0.048
-510.799	-18.676	-0.095	-0.059
-509.785	231.615	-0.183	-0.299
-508.770	-86.077	-0.071	-0.022
-507.756	800.000	-0.066	0.206
-506.741	-200.000	-0.007	0.044
-505.726	-67.162	0.291	-0.114
-504.712	297.602	0.100	0.183
-503.697	103.135	0.294	-0.343
-502.683	-200.000	-0.043	-0.259
-501.668	-7.769	-0.143	0.096
-500.653	1.319	-0.018	0.013
-499.639	-55.598	0.057	-0.025
-498.624	563.334	-0.021	0.052
-497.610	-200.000	-0.010	-0.473
-496.595	-132.879	-0.387	0.049
-495.581	-93.905	-0.362	-0.099
-494.566	468.873	0.086	0.192
-493.551	-158.530	-0.220	-0.013
-492.537	-57.561	0.205	-0.090
-491.522	-101.697	0.163	-0.040
-490.508	251.303	-0.064	0.108
-489.493	-8.322	-0.041	0.027
-488.478	33.909	0.034	-0.029
-487.464	8.195	0.137	-0.103
-486.449	181.270	-0.079	-0.116
-485.435	-147.007	0.234	0.020
-484.420	-4.967	-0.178	0.122
-483.405	-200.000	0.026	-0.384
-482.391	57.029	-0.183	0.178
-481.376	79.505	0.269	0.288
-480.362	-87.460	-0.152	0.046
-479.347	-28.629	-0.034	-0.019
-478.332	128.028	-0.059	0.075
-477.318	-20.254	-0.232	0.143
-476.303	-200.000	-0.368	0.001
-475.289	-115.888	0.215	0.040
-474.274	123.383	0.258	0.323
-473.259	-189.173	-0.343	-0.004
-472.245	148.345	-0.076	0.102
-471.230	331.396	-0.060	0.115
-470.216	214.591	-0.087	-0.137
-469.201	-72.101	0.153	-0.057
-468.186	800.000	0.056	0.170
-467.172	473.488	-0.176	-0.396
-466.157	426.943	-0.110	-0.237
-465.143	-200.000	0.022	-0.177
-464.128	-27.080	0.281	0.163
-463.113	-136.869	-0.329	0.038
-462.099	-91.488	0.053	-0.015
-461.084	-6.223	-0.144	-0.098
-460.070	272.271	0.067	0.118
-459.055	-120.484	-0.125	0.021
-458.040	-89.091	-0.085	-0.025
-457.026	118.236	0.224	0.275
-456.011	-173.581	-0.103	-0.003
-454.997	-200.000	0.201	0.000
-453.982	-36.936	-0.124	0.066
-452.968	182.046	-0.093	-0.136
-451.953	-200.000	0.024	-0.160
-450.938	658.712	-0.071	-0.183
-449.924	9.723	-0.277	0.209
-448.909	-17.916	0.127	-0.079
-447.895	-49.743	-0.144	-0.068
-446.880	-99.596	0.255	-0.064
-445.865	-72.573	-0.268	-0.098
-444.851	-200.000	-0.033	-0.273
-443.836	130.064	-0.067	0.086
-442.822	-160.916	-0.234	0.012
-441.807	67.660	0.121	0.123
-440.792	74.366	0.158	-0.165
-439.778	310.143	-0.182	-0.339
-438.763	-200.000	0.005	0.167
-437.749	152.704	0.110	0.149
-436.734	40.555	-0.157	0.141
-435.719	800.000	-0.049	0.162
-434.705	-200.000	0.005	0.208
-433.690	88.104	-0.165	0.182
-432.676	363.796	-0.130	-0.261
-431.661	800.000	-0.129	-0.410
-430.646	103.361	-0.151	0.176
-429.632	-62.363	-0.145	0.060
-428.617	-124.604	0.141	0.022
-427.603	-123.315	0.189	-0.030
-426.588	-86.596	-0.216	0.066
-425.573	-56.756	0.152	-0.067
-424.559	-165.144	-0.338	-0.015
-423.544	153.123	0.057	-0.077
-422.530	-113.753	-0.186	-0.036
-421.515	-6.078	-0.269	-0.183
-420.500	53.661	0.163	0.156
-419.486	-34.093	-0.139	-0.076
-418.471	-200.000	0.038	0.235
-417.457	-200.000	0.058	0.336
-416.442	-200.000	-0.057	-0.271
-415.428	604.602	-0.153	-0.380
-414.413	254.981	0.074	0.125
-413.398	489.043	0.147	0.334
-412.384	-21.383	-0.089	0.054
-411.369	14.618	0.215	-0.167
-410.355	114.866	0.219	0.266
-409.340	800.000	0.132	0.488
-408.325	237.391	-0.202	0.333
-407.311	800.000	0.037	0.152
-406.296	800.000	0.011	0.045
-405.282	-52.923	0.047	0.022
-404.267	-109.597	-0.252	0.053
-403.252	-121.787	0.160	0.026
-402.238	-64.697	-0.386	-0.156
-401.223	-76.168	0.365	0.128
-400.209	-11.252	0.187	0.122
-399.194	-20.568	0.119	0.073
-398.179	32.901	0.184	-0.158
-397.165	-124.781	-0.080	0.012
-396.150	-56.818	-0.248	-0.109
-395.136	686.663	0.040	-0.104
-394.121	-179.358	0.023	-0.001
-393.106	172.773	-0.240	-0.343
-392.092	119.823	0.136	0.167
-391.077	368.139	0.202	0.405
-390.063	-74.868	0.247	-0.088
-389.048	-52.619	-0.274	-0.126
-388.033	-92.898	0.190	-0.053
-387.019	-80.125	0.152	-0.051
-386.004	-200.000	0.011	0.190
-384.990	1.021	0.068	-0.048
-383.975	800.000	-0.043	0.151
-382.960	565.925	0.188	-0.452
-381.946	-200.000	0.088	-0.550
-380.931	574.410	-0.107	-0.259
-379.917	800.000	0.060	-0.167
-378.902	-73.618	0.406	0.147
-377.888	-200.000	0.010	0.090
-376.873	217.716	0.105	0.165
-375.858	175.760	0.024	-0.035
-374.844	366.661	-0.008	-0.016
-373.829	-200.000	0.033	0.276
-372.815	-27.402	0.131	0.076
-371.800	7.061	0.200	-0.148
-370.785	-144.924	-0.138	-0.013
-369.771	-200.000	-0.011	0.077
-368.756	1.866	-0.134	-0.096
-367.742	704.579	0.112	0.292
-366.727	-45.785	0.243	0.119
-365.712	-28.914	-0.455	-0.260
-364.698	-104.537	0.187	-0.043
-363.683	-8.981	-0.121	0.080
-362.669	59.899	0.176	-0.173
-361.654	800.000	-0.042	-0.156
-360.639	788.014	0.108	-0.294
-359.625	440.488	0.006	0.013
-358.610	-142.447	-0.133	0.013
-357.596	285.399	-0.076	0.136
-356.581	800.000	0.025	0.108
-355.566	338.915	0.156	0.302
-354.552	-200.000	-0.005	0.058
-353.537	-15.935	0.406	-0.257
-352.523	800.000	-0.169	0.530
-351.508	-169.082	0.138	-0.005
-350.493	-200.000	0.009	0.163
-349.479	92.799	0.110	0.123
-348.464	58.236	0.212	-0.206
-347.450	14.690	0.220	0.170
-346.435	-35.884	-0.271	0.145
-345.420	-200.000	-0.015	0.149
-344.406	-176.650	-0.238	-0.006
-343.391	-111.638	0.262	0.053
-342.377	30.411	-0.227	0.192
-341.362	-177.091	0.405	0.010
-340.348	-22.828	0.253	-0.151
-339.333	-129.574	0.020	0.003
-338.318	-68.760	-0.108	-0.041
-337.304	553.068	0.058	-0.138
-336.289	-61.587	0.065	0.027
-335.275	1.143	0.089	0.063
-334.260	396.103	-0.131	0.272
-333.245	224.673	-0.077	0.124
-332.231	110.914	-0.109	0.130
-331.216	164.458	-0.198	0.277
-330.202	-65.079	-0.344	0.138
-329.187	6.033	0.201	-0.148
-328.172	800.000	-0.068	-0.199
-327.158	267.084	-0.161	0.278
-326.143	-69.685	-0.093	0.035
-325.129	-22.320	0.261	-0.157
-324.114	500.742	-0.185	0.423
-323.099	800.000	0.037	0.154
-322.085	800.000	0.109	-0.362
-321.070	34.817	-0.029	-0.025
-320.056	38.894	0.251	-0.222
-319.041	-156.306	0.391	0.024
-318.026	-200.000	0.024	0.156
-317.012	-107.672	0.257	0.056
-315.997	-200.000	0.018	0.486
-314.983	-86.998	-0.061	-0.018
-313.968	-200.000	0.039	-0.357
-312.953	248.311	0.063	0.106
-311.939	64.056	-0.131	-0.130
-310.924	-16.391	0.030	0.019
-309.910	-200.000	0.092	0.432
-308.895	-101.411	0.323	0.078
-307.880	368.623	-0.141	0.283
-306.866	-4.403	0.010	-0.007
-305.851	-200.000	0.004	-0.430
-304.837	-34.588	-0.316	0.171
-303.822	800.000	0.016	-0.056
-302.807	800.000	-0.074	-0.280
-301.793	-22.953	0.087	0.052
-300.778	-10.483	-0.369	-0.242
-299.764	222.708	-0.113	-0.181
-298.749	-200.000	0.021	-0.262
-297.735	-8.229	-0.155	0.103
-296.720	549.456	-0.086	-0.203
-295.705	128.995	-0.067	0.084
-294.691	-200.000	-0.001	0.208
-293.676	17.336	0.242	-0.190
-292.662	-200.000	0.000	-0.061
-291.647	800.000	0.028	0.110
-290.632	-194.365	0.193	-0.002
-289.618	-106.316	0.601	-0.133
-288.603	-84.626	0.211	0.066
-287.589	-49.438	-0.282	-0.133
-286.574	-89.445	-0.058	-0.017
-285.559	-54.160	0.271	-0.122
-284.545	337.506	0.237	-0.455
-283.530	-123.099	-0.131	0.021
-282.516	-51.571	0.152	0.070
-281.501	-101.012	-0.268	-0.065
-280.486	-148.402	0.460	0.037
-279.472	-79.897	-0.066	-0.022
-278.457	268.469	0.102	0.176
-277.443	1.698	-0.176	0.126
-276.428	-21.268	-0.240	0.145
-275.413	-200.000	-0.027	0.253
-274.399	-170.627	-0.124	0.004
-273.384	-137.269	-0.324	0.036
-272.370	106.935	-0.068	-0.079
-271.355	-66.138	0.061	-0.024
-270.340	-37.590	-0.161	-0.085
-269.326	312.335	0.073	-0.135
-268.311	-104.253	0.144	-0.033
-267.297	-200.000	0.155	0.001
-266.282	-192.998	-0.241	-0.002
-265.267	296.315	-0.115	0.209
-264.253	415.080	-0.073	0.154
-263.238	-73.777	-0.290	0.104
-262.224	800.000	0.058	-0.173
-261.209	-45.400	0.045	0.022
-260.195	213.441	-0.112	-0.175
-259.180	42.149	0.158	-0.141
-258.165	800.000	0.100	0.274
-257.151	-200.000	-0.012	0.198
-256.136	-152.390	0.318	-0.023
-255.122	-200.000	0.070	-0.446
-254.107	35.047	0.110	0.095
-253.092	571.742	0.249	0.600
-252.078	-200.000	0.011	0.162
-251.063	126.471	0.099	0.123
-250.049	-200.000	-0.055	0.240
-249.034	800.000	-0.144	-0.468
-248.019	-12.001	0.396	-0.256
-247.005	-103.740	-0.108	-0.025
-245.990	-41.635	-0.146	-0.074
-244.976	-200.000	-0.034	-0.201
-243.961	-55.510	-0.309	0.137
-242.946	800.000	0.018	-0.052
-241.932	513.730	-0.070	-0.161
-240.917	-152.828	-0.187	0.013
-239.903	-200.000	-0.007	-0.089
-238.888	800.000	0.050	-0.186
-237.873	800.000	-0.003	-0.009
-236.859	800.000	0.007	0.023
-235.844	237.265	0.157	0.257
-234.830	-104.094	0.553	-0.127
-233.815	-200.000	-0.017	-0.223
-232.800	-48.257	0.421	-0.200
-231.786	-129.343	0.146	-0.020
-230.771	-67.377	0.181	-0.070
-229.757	86.917	-0.164	0.179
-228.742	558.189	0.048	-0.114
-227.727	-200.000	-0.037	-0.243
-226.713	-72.362	-0.456	0.166
-225.698	67.207	0.164	0.165
-224.684	-22.189	0.225	-0.135
-223.669	-159.751	0.299	0.016
-222.655	-66.456	-0.250	-0.098
-221.640	58.039	-0.179	-0.173
-220.625	434.060	-0.051	0.109
-219.611	448.016	-0.104	-0.226
-218.596	-65.876	0.162	-0.064
-217.582	406.691	-0.118	0.246
-216.567	351.096	-0.095	-0.186
-215.552	21.028	-0.119	-0.095
-214.538	800.000	0.056	0.220
-213.523	235.115	-0.146	0.237
-212.509	-100.216	0.118	0.029
-211.494	109.394	-0.108	-0.128
-210.479	469.685	-0.135	0.300
-209.465	-49.946	0.206	0.097
-208.450	-73.242	-0.089	0.032
-207.436	-37.459	-0.246	0.129
-206.421	-131.329	0.108	-0.014
-205.406	-51.557	0.283	-0.130
-204.392	-182.914	-0.207	-0.004
-203.377	-113.749	0.352	-0.068
-202.363	800.000	0.040	0.153
-201.348	-51.127	0.115	0.053
-200.333	-200.000	-0.014	-0.128
-199.319	-84.734	0.177	0.055
-198.304	-68.943	0.337	-0.128
-197.290	-159.672	-0.301	-0.016
-196.275	-9.038	0.318	-0.210
-195.260	97.660	0.248	-0.280
-194.246	-200.000	-0.003	-0.402
-193.231	-133.157	-0.278	0.035
-192.217	-17.190	0.030	0.019
-191.202	126.662	-0.032	0.040
-190.187	134.547	-0.140	-0.179
-189.173	34.152	-0.132	0.113
-188.158	800.000	0.079	0.234
-187.144	800.000	0.005	0.017
-186.129	-92.967	0.088	-0.024
-185.114	-100.234	-0.163	0.040
-184.100	-200.000	0.006	0.129
-183.085	-199.387	0.132	0.001
-182.071	73.029	-0.143	-0.148
-181.056	402.472	-0.250	0.518
-180.042	-115.438	0.299	0.056
-179.027	-79.243	-0.293	0.098
-178.012	800.000	-0.028	-0.112
-176.998	-71.977	-0.319	0.117
-175.983	-83.391	0.140	-0.044
-174.969	-78.312	0.047	-0.016
-173.954	800.000	-0.067	-0.183
-172.939	180.803	0.185	0.267
-171.925	800.000	0.076	0.236
-170.910	507.876	-0.138	0.316
-169.896	54.995	0.289	0.274
-168.881	-149.432	0.500	0.039
-167.866	-200.000	-0.037	0.324
-166.852	-22.685	0.262	0.156
-165.837	29.309	0.192	0.161
-164.823	-43.510	-0.060	-0.030
-163.808	111.766	0.294	-0.349
-162.793	86.580	-0.142	-0.155
-161.779	229.583	-0.058	-0.093
-160.764	-200.000	-0.056	-0.266
-159.750	-200.000	-0.034	0.272
-158.735	-30.509	0.238	0.133
-157.720	13.902	0.197	-0.151
-156.706	229.429	-0.313	0.503
-155.691	430.173	-0.147	0.312
-154.677	-70.869	0.060	-0.022
-153.662	403.747	-0.081	0.167
-152.647	-200.000	-0.008	-0.095
-151.633	272.545	0.059	-0.102
-150.618	-38.643	-0.129	0.067
-149.604	-119.092	-0.196	0.034
-148.589	-75.537	-0.288	0.101
-147.574	61.530	0.409	-0.401
-146.560	-66.460	-0.203	-0.079
-145.545	247.061	-0.106	-0.175
-144.531	-104.017	-0.252	0.058
-143.516	-200.000	0.035	0.331
-142.502	-200.000	0.033	-0.191
-141.487	264.159	-0.083	-0.141
-140.472	121.038	0.108	-0.132
-139.458	-156.272	-0.215	-0.013
-138.443	-86.767	-0.071	-0.021
-137.429	-200.000	-0.008	0.068
-136.414	37.296	-0.056	-0.049
-135.399	90.976	0.215	-0.237
-134.385	-62.038	-0.191	0.078
-133.370	19.327	-0.496	-0.392
-132.356	93.189	0.047	-0.053
-131.341	58.170	0.083	0.080
-130.326	103.044	0.196	-0.226
-129.312	800.000	0.057	0.185
-128.297	-187.191	-0.095	0.001
-127.283	-41.078	0.368	0.187
-126.268	143.930	-0.182	-0.238
-125.253	-200.000	-0.028	-0.285
-124.239	65.318	0.135	-0.134
-123.224	29.253	0.166	-0.139
-122.210	-150.473	-0.166	-0.013
-121.195	-62.428	-0.222	-0.091
