DTS Sentinel unit serial number:	SN413079Multiplexer serial number:	ORYXHardware model number:	OX4-SRSoftware version number:	ORYX F/W v4.00 Oryx Data Collector v3.7.2.0data status	okinstallation	princeton_trtdifferential loss correction	single-endedforward channel	channel 1reverse channel	N/Adate	2019/09/19time	09:22:35forward acquisition time	60.00reverse acquisition time	0.00gamma	496.2192k internal	0.2342k external	0.2342temperature offset calibration	0.9999default loss term (dB/km)	0.3790temperature slope calibration	1.0000multiplexer offset coefficient	1.0000multiplexer slope coefficient	1.0000fibre end	0.00T internal ref (°C)	22.48T ext. ref 1 (°C)	0.62T ext. ref 2 (°C)	19.46length (m)	temperature (°C)	Stokes	anti-Stokes-747.200	2.100	-0.388	0.281
-746.185	288.451	0.172	0.312
-745.171	-200.000	0.022	-0.181
-744.156	-134.275	-0.426	-0.052
-743.142	-200.000	-0.021	0.154
-742.127	-200.000	-0.004	0.088
-741.112	-4.409	0.074	-0.051
-740.098	-74.269	-0.585	0.212
-739.083	-104.105	-0.261	0.061
-738.069	-86.147	-0.325	0.101
-737.054	-60.714	0.140	-0.060
-736.039	311.918	-0.066	0.124
-735.025	-79.806	0.223	0.075
-734.010	800.000	0.048	0.156
-732.996	-92.343	-0.445	0.126
-731.981	47.733	-0.332	0.310
-730.966	37.912	0.107	0.095
-729.952	158.923	-0.097	-0.135
-728.937	4.935	-0.043	0.031
-727.923	-0.194	0.355	-0.253
-726.908	496.226	0.062	0.142
-725.894	-45.045	0.332	-0.165
-724.879	160.920	-0.100	0.140
-723.864	3.172	-0.085	0.062
-722.850	800.000	0.064	0.181
-721.835	121.777	0.066	-0.083
-720.821	342.674	-0.097	-0.191
-719.806	-200.000	0.021	0.097
-718.791	-99.236	-0.128	0.032
-717.777	608.487	-0.068	0.171
-716.762	0.803	-0.114	0.082
-715.748	168.195	0.026	0.037
-714.733	204.008	-0.151	0.234
-713.718	800.000	-0.097	-0.283
-712.704	447.419	-0.089	0.196
-711.689	71.685	0.037	0.039
-710.675	58.164	-0.141	-0.138
-709.660	-200.000	-0.038	-0.281
-708.645	52.922	-0.178	0.171
-707.631	234.397	0.019	0.031
-706.616	146.939	-0.154	-0.207
-705.602	-57.540	0.387	0.170
-704.587	-66.239	-0.261	0.104
-703.572	-40.442	-0.247	0.128
-702.558	37.855	-0.209	-0.186
-701.543	-111.970	-0.117	0.024
-700.529	79.500	-0.082	0.088
-699.514	-113.932	-0.156	-0.030
-698.499	760.431	-0.174	-0.472
-697.485	-200.000	0.009	0.181
-696.470	-171.062	-0.374	0.013
-695.456	711.587	-0.072	0.190
-694.441	-31.704	-0.310	0.174
-693.426	-92.981	0.251	-0.070
-692.412	79.730	-0.118	-0.126
-691.397	-200.000	-0.006	-0.119
-690.383	-150.744	-0.120	-0.009
-689.368	-200.000	-0.044	0.345
-688.354	-67.590	-0.490	0.192
-687.339	-75.186	-0.130	0.047
-686.324	19.937	0.199	0.160
-685.310	-163.343	-0.583	0.028
-684.295	398.964	0.103	0.216
-683.281	35.597	0.084	-0.073
-682.266	-162.484	0.179	-0.009
-681.251	58.562	0.117	0.115
-680.237	-127.852	-0.504	-0.072
-679.222	-152.729	-0.074	0.005
-678.208	129.527	0.206	-0.263
-677.193	-161.096	-0.086	0.005
-676.178	396.575	-0.091	-0.190
-675.164	256.764	0.056	0.096
-674.149	166.487	-0.211	-0.299
-673.135	152.221	0.248	-0.338
-672.120	-57.398	0.201	-0.088
-671.105	-200.000	-0.053	0.355
-670.091	6.705	0.386	0.287
-669.076	-200.000	-0.022	0.463
-668.062	-59.130	0.087	0.037
-667.047	-200.000	-0.103	0.000
-666.032	48.028	0.115	0.107
-665.018	-200.000	0.018	-0.142
-664.003	-200.000	-0.030	-0.458
-662.989	115.627	-0.134	-0.164
-661.974	-200.000	-0.011	-0.164
-660.959	800.000	-0.084	-0.253
-659.945	304.188	0.216	-0.401
-658.930	-192.139	0.179	-0.002
-657.916	-116.202	0.124	-0.023
-656.901	-166.419	0.162	-0.007
-655.886	119.309	0.128	0.159
-654.872	-32.134	0.018	0.010
-653.857	-73.061	-0.287	0.105
-652.843	2.607	0.160	-0.116
-651.828	-200.000	0.019	-0.299
-650.814	116.786	0.049	-0.060
-649.799	-157.457	-0.310	-0.019
-648.784	-200.000	-0.006	-0.072
-647.770	310.579	-0.080	0.150
-646.755	-113.011	-0.366	-0.072
-645.741	105.242	-0.105	-0.124
-644.726	5.056	0.144	0.106
-643.711	-200.000	0.038	-0.597
-642.697	800.000	-0.051	0.151
-641.682	-10.363	-0.400	-0.265
-640.668	-200.000	0.005	-0.104
-639.653	196.137	-0.250	-0.380
-638.638	-166.300	-0.111	-0.005
-637.624	78.190	-0.216	-0.230
-636.609	454.236	-0.160	-0.354
-635.595	97.608	-0.087	0.099
-634.580	-47.541	-0.032	0.016
-633.565	-200.000	-0.032	-0.292
-632.551	-50.078	0.231	0.109
-631.536	-15.197	0.156	0.100
-630.522	106.900	-0.105	0.124
-629.507	-165.542	0.227	0.010
-628.492	256.694	-0.202	-0.346
-627.478	-31.363	0.096	0.054
-626.463	-28.848	0.125	0.072
-625.449	-24.267	0.114	0.068
-624.434	800.000	0.118	0.348
-623.419	-42.559	0.291	0.148
-622.405	-136.338	0.349	-0.041
-621.390	-114.652	0.209	0.040
-620.376	176.850	-0.150	-0.217
-619.361	255.872	-0.095	0.162
-618.346	-200.000	-0.060	-0.345
-617.332	178.164	0.155	-0.225
-616.317	-92.166	-0.128	-0.036
-615.303	174.487	0.077	-0.111
-614.288	266.170	0.183	-0.319
-613.273	-52.871	-0.104	0.048
-612.259	-200.000	-0.104	-0.477
-611.244	800.000	-0.033	-0.145
-610.230	-129.515	-0.250	-0.035
-609.215	218.044	-0.159	-0.253
-608.201	561.738	0.126	-0.303
-607.186	605.388	-0.077	-0.190
-606.171	-114.777	-0.341	-0.065
-605.157	229.925	-0.061	0.099
-604.142	-200.000	0.005	-0.192
-603.128	-91.598	-0.153	0.044
-602.113	62.091	-0.161	-0.160
-601.098	4.930	0.084	-0.061
-600.084	271.262	-0.055	0.097
-599.069	-200.000	-0.063	0.337
-598.055	-200.000	0.003	0.081
-597.040	311.531	-0.059	-0.111
-596.025	392.685	-0.044	-0.092
-595.011	-200.000	0.015	0.077
-593.996	800.000	-0.048	0.166
-592.982	-200.000	-0.061	0.349
-591.967	800.000	0.112	0.339
-590.952	800.000	0.055	-0.205
-589.938	800.000	0.071	0.197
-588.923	-83.032	0.045	0.014
-587.909	174.201	-0.113	-0.162
-586.894	-63.185	-0.290	-0.119
-585.879	230.576	0.257	-0.418
-584.865	-13.810	-0.226	-0.146
-583.850	-68.886	-0.340	0.131
-582.836	6.849	0.191	-0.142
-581.821	-107.548	0.250	0.054
-580.806	83.424	0.075	-0.081
-579.792	-149.122	-0.101	-0.008
-578.777	-13.954	0.134	-0.086
-577.763	-126.230	-0.291	-0.043
-576.748	-12.233	0.254	-0.166
-575.733	376.984	0.089	-0.182
-574.719	13.829	-0.187	0.144
-573.704	210.803	-0.107	-0.167
-572.690	800.000	0.074	-0.296
-571.675	289.298	0.101	-0.182
-570.661	469.192	0.107	0.240
-569.646	-66.098	0.280	0.111
-568.631	585.191	-0.069	0.169
-567.617	210.245	0.115	-0.180
-566.602	294.133	-0.089	0.162
-565.588	-25.358	0.154	0.091
-564.573	-7.591	-0.108	-0.072
-563.558	-38.849	0.282	0.148
-562.544	730.565	0.027	0.073
-561.529	187.120	0.188	0.279
-560.515	452.389	0.091	0.199
-559.500	-115.367	-0.247	0.046
-558.485	-11.451	-0.231	-0.151
-557.471	147.462	0.112	0.151
-556.456	-200.000	0.011	-0.483
-555.442	-173.691	0.158	-0.005
-554.427	-21.403	-0.171	0.104
-553.412	274.239	-0.079	-0.139
-552.398	270.252	0.124	-0.217
-551.383	259.454	0.073	-0.125
-550.369	-138.558	-0.338	-0.037
-549.354	-82.105	0.148	-0.048
-548.339	161.013	-0.064	0.089
-547.325	314.667	-0.075	0.141
-546.310	800.000	-0.069	-0.266
-545.296	-0.737	0.079	0.056
-544.281	-100.644	0.222	-0.054
-543.266	-200.000	0.043	0.318
-542.252	123.875	-0.212	0.265
-541.237	-200.000	-0.012	-0.214
-540.223	-87.733	0.137	0.041
-539.208	1.327	-0.156	0.112
-538.193	-200.000	0.006	0.062
-537.179	-13.545	0.247	-0.159
-536.164	64.523	-0.503	-0.504
-535.150	-122.394	-0.063	0.010
-534.135	93.834	0.151	0.170
-533.121	-40.406	0.231	-0.119
-532.106	272.210	0.042	0.073
-531.091	20.669	0.196	0.158
-530.077	-24.409	0.276	0.163
-529.062	-200.000	0.049	-0.494
-528.048	-200.000	0.000	-0.067
-527.033	-136.000	-0.407	-0.048
-526.018	-146.729	0.284	-0.024
-525.004	48.331	-0.066	-0.061
-523.989	-20.399	0.323	0.197
-522.975	-88.774	-0.113	-0.033
-521.960	-14.817	0.181	-0.116
-520.945	27.094	0.084	-0.070
-519.931	665.107	0.136	-0.349
-518.916	36.470	-0.152	-0.133
-517.902	15.397	0.162	0.127
-516.887	-200.000	-0.048	-0.228
-515.872	255.794	-0.078	-0.133
-514.858	411.307	-0.021	-0.045
-513.843	-175.109	0.067	-0.002
-512.829	-58.488	-0.112	0.048
-511.814	38.927	-0.049	0.044
-510.799	-200.000	-0.041	0.239
-509.785	44.795	-0.073	0.067
-508.770	401.938	-0.124	0.258
-507.756	-200.000	-0.061	-0.269
-506.741	169.715	0.139	-0.197
-505.726	-103.343	0.104	0.024
-504.712	-140.194	-0.213	-0.022
-503.697	-200.000	-0.002	-0.150
-502.683	800.000	0.106	-0.302
-501.668	20.555	-0.099	-0.079
-500.653	-68.536	0.085	-0.033
-499.639	53.576	-0.123	-0.117
-498.624	113.352	-0.119	0.143
-497.610	800.000	-0.080	-0.273
-496.595	-137.609	-0.346	-0.039
-495.581	142.427	-0.095	-0.125
-494.566	-44.133	-0.171	0.085
-493.551	114.376	0.197	0.238
-492.537	800.000	0.157	0.538
-491.522	-108.881	-0.152	0.032
-490.508	-27.844	-0.394	0.226
-489.493	369.984	-0.117	0.235
-488.478	-153.029	-0.301	0.021
-487.464	199.094	-0.158	-0.240
-486.449	-42.174	-0.185	-0.094
-485.435	-24.797	0.161	0.095
-484.420	38.400	0.121	-0.107
-483.405	-26.965	-0.193	-0.112
-482.391	-200.000	0.014	0.301
-481.376	-200.000	0.062	0.310
-480.362	454.614	-0.116	-0.254
-479.347	-200.000	-0.014	-0.182
-478.332	-23.642	-0.270	0.161
-477.318	-200.000	-0.031	0.223
-476.303	-11.930	-0.078	-0.051
-475.289	255.041	0.211	0.358
-474.274	-200.000	0.005	-0.041
-473.259	-161.918	-0.096	-0.005
-472.245	1.558	-0.115	0.082
-471.230	-200.000	0.029	0.140
-470.216	286.556	0.093	-0.167
-469.201	800.000	0.080	-0.238
-468.186	165.387	0.159	0.223
-467.172	-127.903	-0.039	-0.006
-466.157	23.376	0.167	-0.136
-465.143	551.078	-0.028	-0.067
-464.128	29.101	0.254	-0.214
-463.113	21.445	0.100	0.081
-462.099	537.955	0.064	-0.151
-461.084	-127.345	0.092	-0.013
-460.070	-155.023	-0.147	0.010
-459.055	-66.512	0.441	0.174
-458.040	800.000	0.020	-0.079
-457.026	800.000	0.045	-0.192
-456.011	11.519	0.039	-0.030
-454.997	96.565	-0.109	-0.124
-453.982	96.963	0.094	0.107
-452.968	-116.654	-0.046	0.008
-451.953	-82.682	-0.067	0.022
-450.938	-200.000	-0.008	0.086
-449.924	-107.998	0.220	0.047
-448.909	23.702	-0.054	-0.044
-447.895	-46.934	-0.154	-0.075
-446.880	-132.867	0.532	-0.067
-445.865	-200.000	-0.008	-0.280
-444.851	-100.060	0.182	-0.045
-443.836	-200.000	0.088	0.470
-442.822	43.960	0.095	-0.086
-441.807	-200.000	-0.049	-0.350
-440.792	-67.918	0.146	0.057
-439.778	-71.991	0.080	0.029
-438.763	-41.003	0.135	0.069
-437.749	-200.000	-0.001	0.166
-436.734	-24.031	-0.287	-0.170
-435.719	-137.911	0.073	-0.008
-434.705	31.840	0.103	-0.088
-433.690	-16.246	0.300	0.189
-432.676	-2.814	-0.095	-0.066
-431.661	233.341	-0.170	-0.277
-430.646	187.557	-0.020	-0.030
-429.632	-25.584	-0.267	-0.156
-428.617	13.212	0.068	0.052
-427.603	-200.000	-0.022	0.214
-426.588	-29.859	-0.224	-0.126
-425.573	125.715	0.054	-0.067
-424.559	-29.245	-0.230	0.130
-423.544	-200.000	0.013	0.229
-422.530	70.790	0.053	0.054
-421.515	38.486	0.031	0.028
-420.500	800.000	-0.107	-0.294
-419.486	-26.874	-0.136	0.079
-418.471	1.968	-0.133	-0.095
-417.457	329.055	-0.091	0.173
-416.442	-200.000	-0.055	0.244
-415.428	-200.000	0.093	0.415
-414.413	800.000	-0.072	0.231
-413.398	-200.000	-0.005	-0.289
-412.384	800.000	0.075	0.211
-411.369	38.111	0.205	0.180
-410.355	146.297	-0.247	0.328
-409.340	76.968	0.181	-0.190
-408.325	-115.180	0.150	-0.028
-407.311	563.878	-0.055	0.132
-406.296	208.768	-0.086	0.133
-405.282	-111.511	-0.124	0.025
-404.267	-47.505	0.026	0.013
-403.252	800.000	0.013	0.053
-402.238	-139.948	-0.137	0.014
-401.223	142.988	0.022	0.029
-400.209	800.000	-0.073	-0.224
-399.194	-178.012	0.288	-0.007
-398.179	-115.915	-0.223	0.041
-397.165	41.208	0.186	0.166
-396.150	-185.598	0.481	-0.007
-395.136	-110.618	-0.222	-0.045
-394.121	-200.000	0.027	0.121
-393.106	48.639	0.141	0.131
-392.092	68.983	0.152	0.155
-391.077	-200.000	-0.033	0.219
-390.063	-200.000	0.011	0.088
-389.048	74.532	0.218	-0.227
-388.033	0.337	0.137	-0.096
-387.019	-200.000	0.008	0.153
-386.004	-63.298	0.238	0.097
-384.990	-28.727	-0.301	0.171
-383.975	-200.000	-0.040	0.241
-382.960	-82.259	0.083	-0.027
-381.946	182.038	-0.101	-0.147
-380.931	482.905	0.022	0.048
-379.917	222.016	-0.163	-0.259
-378.902	349.080	0.209	-0.407
-377.888	167.814	-0.166	0.233
-376.873	-138.169	-0.218	-0.024
-375.858	334.210	-0.147	-0.281
-374.844	800.000	-0.065	0.272
-373.829	-141.452	-0.359	0.036
-372.815	-21.332	-0.280	0.169
-371.800	9.446	0.176	0.131
-370.785	-9.142	0.088	-0.058
-369.771	-102.020	-0.262	-0.062
-368.756	0.915	0.128	-0.091
-367.742	-88.539	0.154	0.045
-366.727	-175.102	-0.165	-0.005
-365.712	-41.263	0.035	-0.018
-364.698	-21.353	0.258	-0.155
-363.683	63.906	-0.145	0.144
-362.669	61.372	-0.324	0.318
-361.654	-1.709	0.326	0.226
-360.639	156.606	-0.263	0.358
-359.625	-200.000	0.004	-0.022
-358.610	800.000	0.071	-0.206
-357.596	69.564	0.214	0.218
-356.581	-96.962	0.227	-0.059
-355.566	319.773	-0.040	0.076
-354.552	9.587	0.227	0.170
-353.537	-99.955	0.382	0.094
-352.523	-141.551	-0.221	0.022
-351.508	800.000	-0.035	0.136
-350.493	78.164	-0.126	0.133
-349.479	-129.057	-0.163	0.022
-348.464	-149.981	0.412	-0.032
-347.450	-69.291	-0.291	-0.110
-346.435	-103.162	0.210	0.049
-345.420	-22.165	-0.075	0.045
-344.406	463.146	-0.063	0.139
-343.391	71.444	0.122	0.125
-342.377	800.000	0.075	0.261
-341.362	-200.000	0.007	-0.045
-340.348	-12.157	-0.253	-0.163
-339.333	61.403	0.124	0.121
-338.318	-72.903	-0.197	-0.071
-337.304	240.245	0.125	0.206
-336.289	-147.288	-0.254	0.021
-335.275	-200.000	-0.007	-0.440
-334.260	26.731	0.079	0.065
-333.245	71.045	0.107	-0.109
-332.231	398.359	0.119	0.246
-331.216	-116.200	-0.085	0.016
-330.202	-200.000	-0.082	-0.393
-329.187	51.777	0.175	0.164
-328.172	64.913	0.275	0.273
-327.158	84.988	0.108	-0.117
-326.143	86.962	-0.299	0.326
-325.129	-102.078	0.535	-0.127
-324.114	-200.000	-0.013	-0.174
-323.099	90.754	0.273	0.301
-322.085	800.000	0.045	0.134
-321.070	-200.000	-0.056	-0.260
-320.056	241.665	0.145	0.240
-319.041	-50.641	0.178	0.083
-318.026	-200.000	-0.025	-0.258
-317.012	-40.471	0.096	-0.049
-315.997	-200.000	-0.044	-0.309
-314.983	800.000	0.023	-0.081
-313.968	192.706	0.031	-0.046
-312.953	11.889	-0.191	0.144
-311.939	234.005	-0.009	0.014
-310.924	772.619	-0.070	0.189
-309.910	-166.245	0.094	0.004
-308.895	-181.947	-0.305	-0.006
-307.880	-63.913	0.432	0.174
-306.866	-96.091	-0.018	0.005
-305.851	-200.000	-0.216	-0.000
-304.837	260.878	0.059	0.100
-303.822	-9.087	0.122	-0.081
-302.807	800.000	0.063	0.218
-301.793	-120.564	0.177	-0.030
-300.778	17.215	-0.023	-0.018
-299.764	-63.152	0.113	0.046
-298.749	389.203	-0.069	0.140
-297.735	49.185	0.075	-0.070
-296.720	-169.526	0.246	0.009
-295.705	-141.495	0.241	-0.024
-294.691	-200.000	-0.007	-0.183
-293.676	-155.778	-0.169	-0.011
-292.662	67.230	0.143	0.144
-291.647	330.417	-0.069	-0.131
-290.632	-32.013	0.216	0.119
-289.618	-34.141	-0.239	-0.129
-288.603	10.691	-0.314	0.236
-287.589	800.000	-0.018	-0.059
-286.574	96.054	0.099	-0.111
-285.559	-3.568	0.128	0.087
-284.545	36.054	-0.048	-0.042
-283.530	106.614	-0.074	0.087
-282.516	31.100	0.208	-0.176
-281.501	-200.000	-0.009	-0.162
-280.486	800.000	0.036	-0.143
-279.472	308.299	-0.019	0.034
-278.457	-179.782	-0.130	-0.003
-277.443	291.471	-0.031	-0.055
-276.428	-105.714	-0.382	0.085
-275.413	800.000	-0.029	0.090
-274.399	800.000	-0.070	-0.299
-273.384	-150.111	0.467	0.036
-272.370	5.673	0.056	-0.040
-271.355	-66.148	-0.078	0.031
-270.340	-39.828	-0.302	0.155
-269.326	-76.557	0.331	0.114
-268.311	178.454	0.177	0.254
-267.297	800.000	0.117	0.355
-266.282	38.376	-0.245	0.215
-265.267	-132.887	-0.061	-0.008
-264.253	258.180	-0.097	0.164
-263.238	-19.142	-0.133	-0.081
-262.224	-143.070	0.326	-0.031
-261.209	800.000	-0.063	-0.225
-260.195	7.680	-0.125	-0.092
-259.180	7.240	0.141	0.104
-258.165	-30.330	-0.098	0.055
-257.151	-30.428	0.099	0.055
-256.136	-83.997	0.442	-0.138
-255.122	800.000	-0.148	-0.450
-254.107	10.380	-0.234	-0.175
-253.092	-178.882	-0.169	0.004
-252.078	-131.597	-0.253	0.033
-251.063	-200.000	-0.023	-0.123
-250.049	266.267	-0.110	0.189
-249.034	189.741	-0.101	-0.149
-248.019	-131.893	-0.260	0.033
-247.005	232.874	0.215	-0.347
-245.990	-25.805	0.132	-0.076
-244.976	-80.263	0.144	-0.047
-243.961	153.078	0.147	0.198
-242.946	-200.000	0.024	-0.139
-241.932	43.567	-0.341	0.307
-240.917	-63.246	-0.281	0.114
-239.903	-168.580	0.196	0.007
-238.888	535.637	-0.076	0.176
-237.873	-200.000	-0.006	-0.125
-236.859	311.870	-0.070	0.128
-235.844	81.435	-0.054	0.057
-234.830	-18.399	-0.125	-0.077
-233.815	800.000	0.016	-0.044
-232.800	4.942	-0.164	0.119
-231.786	-200.000	0.043	-0.358
-230.771	169.023	-0.215	-0.301
-229.757	-75.345	0.211	-0.074
-228.742	52.749	-0.297	0.279
-227.727	245.252	0.155	-0.256
-226.713	14.493	0.219	0.168
-225.698	274.093	-0.109	0.189
-224.684	-200.000	-0.004	-0.044
-223.669	538.651	-0.038	0.088
-222.655	62.969	0.111	0.109
-221.640	-200.000	-0.063	0.424
-220.625	-58.541	0.422	-0.180
-219.611	-200.000	-0.015	-0.067
-218.596	-200.000	0.008	0.088
-217.582	277.460	0.088	-0.153
-216.567	-91.777	-0.447	0.125
-215.552	800.000	-0.057	0.199
-214.538	43.890	0.029	0.026
-213.523	-200.000	0.036	0.218
-212.509	-107.762	0.150	-0.032
-211.494	231.179	-0.085	-0.136
-210.479	-200.000	0.045	-0.355
-209.465	-83.346	-0.055	0.017
-208.450	98.861	0.084	0.095
-207.436	106.690	0.185	-0.216
-206.421	269.678	-0.058	0.100
-205.406	-25.546	-0.363	0.210
-204.392	-107.693	-0.259	0.055
-203.377	36.455	0.232	-0.201
-202.363	-200.000	0.014	-0.327
-201.348	7.599	-0.244	-0.179
-200.333	189.130	0.180	0.265
-199.319	-200.000	-0.010	0.221
-198.304	-200.000	0.061	0.366
-197.290	-35.536	0.101	-0.054
-196.275	-200.000	0.019	0.411
-195.260	-200.000	-0.038	0.306
-194.246	26.355	0.156	0.128
-193.231	-200.000	-0.012	-0.131
-192.217	150.475	-0.188	0.250
-191.202	-179.711	0.353	-0.007
-190.187	63.924	-0.154	-0.152
-189.173	-41.120	-0.182	-0.092
-188.158	-198.320	0.120	-0.001
-187.144	-51.005	-0.287	-0.132
-186.129	-200.000	0.007	-0.297
-185.114	769.219	0.058	-0.155
-184.100	-46.517	0.056	0.027
-183.085	-200.000	-0.018	0.098
-182.071	-53.543	-0.252	-0.113
-181.056	-112.443	-0.410	0.080
-180.042	-75.860	0.125	0.043
-179.027	-26.907	0.072	-0.041
-178.012	-140.963	-0.251	0.025
-176.998	800.000	0.059	-0.166
-175.983	173.326	0.088	-0.124
-174.969	-184.513	0.285	-0.005
-173.954	152.640	0.045	0.060
-172.939	-5.374	-0.289	0.195
-171.925	20.394	0.199	-0.158
-170.910	103.694	-0.263	-0.303
-169.896	-66.413	0.193	0.075
-168.881	1.505	0.148	-0.104
-167.866	-76.783	-0.107	0.037
-166.852	33.807	0.042	-0.035
-165.837	-110.365	0.305	0.062
-164.823	-96.275	0.285	-0.074
-163.808	-200.000	0.043	-0.322
-162.793	-118.375	-0.130	0.023
-161.779	-200.000	0.002	0.099
-160.764	-99.726	0.314	0.077
-159.750	-11.730	0.481	-0.309
-158.735	88.713	-0.146	0.159
-157.720	794.784	-0.132	0.357
-156.706	27.810	0.352	0.290
-155.691	-65.928	-0.405	-0.158
-154.677	456.223	-0.109	0.236
-153.662	800.000	0.045	0.138
-152.647	199.475	-0.111	0.166
-151.633	-200.000	0.065	0.353
-150.618	-200.000	-0.066	0.339
-149.604	147.968	-0.155	-0.204
-148.589	-114.090	0.391	0.074
-147.574	9.527	0.086	0.064
-146.560	-116.811	-0.211	0.038
-145.545	11.126	0.181	0.135
-144.531	103.821	0.286	-0.329
-143.516	295.179	-0.020	0.035
-142.502	99.285	0.189	0.214
-141.487	202.432	-0.131	0.198
-140.472	29.422	0.281	0.233
-139.458	-45.364	0.280	-0.136
-138.443	-87.766	0.237	0.070
-137.429	531.117	-0.148	0.341
-136.414	-12.200	0.012	0.007
-135.399	-200.000	-0.032	-0.240
-134.385	-106.135	-0.127	0.028
-133.370	561.893	-0.024	-0.056
-132.356	387.335	-0.056	-0.113
-131.341	-82.258	-0.073	-0.023
-130.326	-15.215	0.221	0.138
-129.312	158.134	-0.077	-0.104
-128.297	-189.442	-0.358	-0.004
-127.283	15.747	0.215	0.165
-126.268	-60.322	0.330	-0.138
-125.253	800.000	0.147	-0.462
-124.239	353.850	-0.058	-0.112
-123.224	-160.896	0.263	0.014
-122.210	800.000	0.108	-0.314
-121.195	122.774	-0.267	0.327
-120.180	-200.000	0.047	0.262
