DTS Sentinel unit serial number:	SN413079Multiplexer serial number:	ORYXHardware model number:	OX4-SRSoftware version number:	ORYX F/W v4.00 Oryx Data Collector v3.7.2.0data status	okinstallation	princeton_trtdifferential loss correction	single-endedforward channel	channel 1reverse channel	N/Adate	2019/09/10time	23:00:11forward acquisition time	60.00reverse acquisition time	0.00gamma	496.2192k internal	0.2331k external	0.2331temperature offset calibration	0.9936default loss term (dB/km)	0.3790temperature slope calibration	1.0000multiplexer offset coefficient	1.0000multiplexer slope coefficient	1.0000fibre end	0.00T internal ref (°C)	30.02T ext. ref 1 (°C)	-0.31T ext. ref 2 (°C)	23.48length (m)	temperature (°C)	Stokes	anti-Stokes-747.200	-69.973	-0.139	0.053
-746.185	-190.736	0.268	0.003
-745.171	-13.502	0.093	0.060
-744.156	158.871	-0.235	0.328
-743.142	107.566	0.220	-0.264
-742.127	209.848	-0.013	-0.020
-741.112	61.774	0.061	0.061
-740.098	-170.648	0.168	0.006
-739.083	-83.120	-0.358	-0.116
-738.069	800.000	0.147	-0.550
-737.054	295.265	-0.062	0.115
-736.039	36.395	-0.281	-0.249
-735.025	-122.091	-0.452	0.075
-734.010	-178.427	-0.503	0.012
-732.996	55.723	-0.222	-0.216
-731.981	-200.000	-0.006	-0.041
-730.966	-104.205	0.051	-0.012
-729.952	-73.222	-0.297	-0.109
-728.937	263.047	-0.060	0.105
-727.923	-106.406	0.291	0.065
-726.908	-171.139	0.178	-0.006
-725.894	132.585	-0.140	-0.181
-724.879	125.002	-0.104	0.132
-723.864	92.751	-0.107	0.121
-722.850	800.000	-0.080	-0.284
-721.835	419.466	0.090	-0.194
-720.821	-153.394	0.148	-0.010
-719.806	-0.855	0.122	-0.087
-718.791	800.000	0.024	-0.079
-717.777	-171.249	-0.244	-0.008
-716.762	800.000	-0.073	-0.301
-715.748	-83.952	-0.187	0.060
-714.733	297.548	-0.252	-0.465
-713.718	-42.486	0.334	-0.171
-712.704	240.976	-0.057	-0.096
-711.689	-116.582	0.140	0.026
-710.675	-60.513	0.193	-0.082
-709.660	-123.437	-0.050	0.008
-708.645	800.000	-0.089	0.308
-707.631	-35.674	-0.126	-0.069
-706.616	4.891	0.025	-0.019
-705.602	-200.000	0.003	-0.264
-704.587	332.164	-0.182	-0.353
-703.572	-103.437	0.131	0.031
-702.558	105.723	-0.104	0.124
-701.543	43.541	0.116	0.106
-700.529	-46.453	0.250	-0.123
-699.514	-51.911	0.276	0.129
-698.499	40.795	-0.112	-0.101
-697.485	-125.882	-0.116	0.018
-696.470	491.246	-0.112	0.258
-695.456	-120.551	-0.274	0.047
-694.441	-200.000	0.055	0.280
-693.426	15.983	0.438	0.346
-692.412	-200.000	0.028	-0.141
-691.397	240.632	-0.082	-0.138
-690.383	349.693	0.114	0.227
-689.368	-200.000	0.018	0.210
-688.354	-200.000	-0.003	0.129
-687.339	106.959	0.074	0.089
-686.324	-200.000	-0.061	-0.277
-685.310	-164.485	-0.051	-0.002
-684.295	84.438	0.189	-0.208
-683.281	81.448	0.121	0.131
-682.266	-200.000	0.010	-0.241
-681.251	403.299	-0.043	-0.090
-680.237	120.202	-0.030	0.037
-679.222	28.258	0.222	-0.188
-678.208	92.106	0.093	0.105
-677.193	596.587	0.151	0.374
-676.178	800.000	-0.040	-0.115
-675.164	182.161	0.040	0.060
-674.149	-200.000	0.012	0.120
-673.135	13.909	-0.132	-0.103
-672.120	22.293	-0.179	0.147
-671.105	800.000	0.039	-0.165
-670.091	-37.548	0.097	-0.052
-669.076	140.117	-0.147	0.194
-668.062	12.541	0.121	-0.094
-667.047	372.459	0.145	-0.295
-666.032	-35.671	0.197	-0.107
-665.018	99.802	-0.253	-0.294
-664.003	115.824	0.059	0.073
-662.989	790.957	0.143	-0.395
-661.974	593.607	-0.058	-0.144
-660.959	104.879	0.072	0.085
-659.945	24.448	0.105	0.087
-658.930	-89.287	0.152	-0.045
-657.916	-35.135	0.456	-0.249
-656.901	-121.946	-0.190	0.031
-655.886	2.744	0.196	-0.142
-654.872	434.534	0.077	-0.168
-653.857	114.979	0.154	0.188
-652.843	-163.979	0.198	0.009
-651.828	-64.922	-0.035	0.014
-650.814	170.873	-0.087	-0.126
-649.799	800.000	0.117	0.425
-648.784	72.662	-0.266	-0.278
-647.770	800.000	0.072	-0.250
-646.755	61.966	-0.164	0.164
-645.741	-112.884	0.148	-0.029
-644.726	-200.000	-0.023	-0.249
-643.711	223.517	-0.108	0.174
-642.697	471.749	0.072	0.162
-641.682	-109.418	-0.069	0.015
-640.668	-200.000	-0.003	-0.167
-639.653	94.325	0.129	-0.147
-638.638	-200.000	-0.001	-0.015
-637.624	284.700	-0.118	-0.212
-636.609	323.365	-0.079	0.150
-635.595	41.866	0.177	0.161
-634.580	1.495	0.231	0.167
-633.565	-176.540	0.237	0.006
-632.551	-200.000	0.009	0.166
-631.536	800.000	0.074	0.244
-630.522	-24.314	0.106	0.063
-629.507	53.524	0.064	-0.061
-628.492	140.534	0.042	0.056
-627.478	87.781	-0.066	0.073
-626.463	42.555	-0.256	-0.233
-625.449	-32.752	-0.142	-0.079
-624.434	323.696	0.077	0.147
-623.419	41.438	0.292	0.264
-622.405	603.028	0.177	0.442
-621.390	88.880	-0.094	-0.104
-620.376	-114.041	0.095	-0.019
-619.361	-22.325	0.127	-0.077
-618.346	-200.000	0.055	0.298
-617.332	75.619	-0.087	0.092
-616.317	1.407	-0.105	0.076
-615.303	272.938	-0.133	-0.235
-614.288	395.410	0.069	0.143
-613.273	41.697	-0.151	0.137
-612.259	140.031	-0.118	-0.155
-611.244	-111.430	0.218	0.044
-610.230	-153.751	-0.293	-0.020
-609.215	-200.000	-0.002	-0.122
-608.201	-94.888	0.140	0.038
-607.186	146.121	-0.160	0.214
-606.171	-136.195	-0.332	-0.039
-605.157	376.109	0.137	-0.279
-604.142	-104.459	0.246	-0.057
-603.128	-69.286	0.051	0.019
-602.113	59.481	-0.236	-0.233
-601.098	-74.161	-0.188	-0.068
-600.084	70.124	-0.045	0.047
-599.069	494.646	0.107	-0.246
-598.055	-103.618	-0.103	0.024
-597.040	-85.266	-0.298	0.093
-596.025	-88.475	0.408	0.122
-595.011	-166.256	0.444	0.019
-593.996	-106.012	0.104	0.023
-592.982	87.440	-0.187	0.207
-591.967	-200.000	0.010	-0.150
-590.952	16.616	-0.146	-0.115
-589.938	800.000	0.051	-0.203
-588.923	-134.132	0.159	0.020
-587.909	-77.451	-0.214	0.074
-586.894	800.000	0.067	-0.286
-585.879	63.035	0.056	0.056
-584.865	123.103	-0.091	-0.113
-583.850	-83.664	0.464	-0.148
-582.836	-16.978	0.178	-0.113
-581.821	-200.000	0.019	-0.147
-580.806	-149.026	0.157	0.013
-579.792	14.918	-0.106	0.083
-578.777	-98.549	0.244	0.062
-577.763	-185.655	-0.273	-0.004
-576.748	13.890	-0.372	0.290
-575.733	429.927	-0.204	0.442
-574.719	212.943	-0.096	-0.151
-573.704	-200.000	-0.045	-0.254
-572.690	-52.094	0.089	-0.041
-571.675	-119.747	-0.269	0.046
-570.661	570.566	0.197	-0.478
-569.646	-79.951	0.112	-0.038
-568.631	145.738	0.018	-0.025
-567.617	544.033	-0.077	-0.183
-566.602	211.507	-0.077	0.122
-565.588	-154.274	-0.059	-0.004
-564.573	165.813	-0.032	0.045
-563.558	800.000	0.070	0.244
-562.544	-70.473	-0.182	0.069
-561.529	-138.231	-0.216	-0.024
-560.515	-104.489	-0.048	-0.011
-559.500	-141.384	0.037	0.004
-558.485	92.176	-0.187	-0.211
-557.471	-200.000	-0.022	0.141
-556.456	-53.403	-0.187	-0.086
-555.442	-120.379	0.229	0.039
-554.427	800.000	0.028	0.112
-553.412	-200.000	-0.022	0.183
-552.398	-200.000	-0.024	-0.223
-551.383	-200.000	0.038	-0.193
-550.369	-200.000	0.050	0.383
-549.354	791.265	0.118	0.323
-548.339	-43.925	-0.169	0.085
-547.325	-4.175	0.140	-0.097
-546.310	135.876	-0.063	-0.082
-545.296	-200.000	0.046	-0.236
-544.281	541.137	-0.141	-0.334
-543.266	800.000	-0.043	0.183
-542.252	-44.363	-0.317	0.159
-541.237	-88.993	0.203	-0.060
-540.223	-180.719	-0.216	-0.004
-539.208	161.603	-0.119	0.166
-538.193	303.118	0.191	0.353
-537.179	21.342	0.068	-0.055
-536.164	-36.411	-0.049	-0.026
-535.150	17.512	0.277	0.219
-534.135	-49.025	-0.258	-0.123
-533.121	634.058	-0.080	-0.203
-532.106	-102.908	0.085	-0.020
-531.091	-174.793	-0.328	0.009
-530.077	-200.000	-0.015	-0.134
-529.062	65.162	0.287	0.290
-528.048	407.959	-0.126	0.265
-527.033	128.367	-0.150	-0.191
-526.018	-200.000	-0.018	-0.507
-525.004	-200.000	0.089	-0.406
-523.989	399.753	-0.137	0.287
-522.975	261.268	0.141	-0.243
-521.960	-144.184	0.031	-0.003
-520.945	54.615	-0.171	0.164
-519.931	-28.161	-0.122	-0.070
-518.916	-27.765	0.138	-0.080
-517.902	-108.953	-0.164	-0.035
-516.887	-200.000	0.075	0.500
-515.872	-200.000	-0.014	-0.118
-514.858	-200.000	0.068	0.370
-513.843	800.000	0.032	-0.124
-512.829	-23.093	0.203	0.122
-511.814	100.496	0.104	-0.120
-510.799	581.573	-0.027	-0.065
-509.785	-160.870	0.253	-0.013
-508.770	-200.000	0.026	-0.313
-507.756	331.944	0.034	-0.065
-506.741	177.692	-0.151	-0.220
-505.726	-110.776	0.274	0.056
-504.712	-101.692	0.115	0.028
-503.697	57.508	0.104	0.101
-502.683	-5.575	-0.060	-0.041
-501.668	66.330	-0.108	-0.110
-500.653	428.817	0.013	0.029
-499.639	158.552	0.079	-0.109
-498.624	-72.586	-0.190	-0.070
-497.610	25.620	-0.112	0.093
-496.595	800.000	0.102	0.427
-495.581	38.357	-0.119	-0.105
-494.566	257.962	0.097	-0.166
-493.551	800.000	0.043	0.158
-492.537	235.727	-0.121	-0.200
-491.522	12.840	-0.152	-0.117
-490.508	-200.000	-0.017	-0.100
-489.493	-84.784	0.211	-0.066
-488.478	355.573	0.224	0.444
-487.464	800.000	0.018	-0.056
-486.449	118.730	0.130	0.160
-485.435	-130.881	0.174	0.023
-484.420	-141.068	-0.129	0.013
-483.405	549.187	-0.107	-0.256
-482.391	-59.476	0.295	-0.126
-481.376	800.000	0.007	0.019
-480.362	-141.568	-0.208	-0.021
-479.347	-56.523	0.450	0.199
-478.332	104.811	-0.204	-0.240
-477.318	1.461	0.159	-0.114
-476.303	86.911	-0.197	0.216
-475.289	800.000	0.067	0.191
-474.274	5.103	0.164	0.121
-473.259	800.000	0.036	-0.124
-472.245	180.404	-0.074	0.108
-471.230	800.000	-0.045	0.167
-470.216	230.188	-0.102	-0.165
-469.201	-33.146	-0.236	-0.130
-468.186	54.848	-0.269	0.258
-467.172	-115.787	-0.160	0.030
-466.157	-200.000	-0.014	0.078
-465.143	-147.623	-0.061	0.005
-464.128	-141.571	-0.102	0.010
-463.113	-200.000	0.014	0.069
-462.099	-200.000	-0.000	-0.046
-461.084	165.470	-0.012	0.017
-460.070	-200.000	-0.025	-0.301
-459.055	-20.033	0.143	-0.088
-458.040	-161.216	-0.314	-0.016
-457.026	224.982	-0.101	-0.163
-456.011	-141.707	-0.262	-0.026
-454.997	665.808	-0.182	-0.468
-453.982	800.000	0.066	-0.208
-452.968	-91.124	-0.003	-0.001
-451.953	58.943	0.062	-0.061
-450.938	-200.000	0.002	0.049
-449.924	-140.633	-0.212	0.022
-448.909	-163.944	0.196	0.009
-447.895	-14.966	-0.175	0.112
-446.880	210.256	0.196	-0.306
-445.865	-200.000	0.017	0.096
-444.851	239.741	0.073	0.121
-443.836	-161.811	-0.213	-0.011
-442.822	153.628	-0.059	0.081
-441.807	13.332	0.383	-0.296
-440.792	3.154	-0.327	-0.237
-439.778	800.000	-0.067	-0.256
-438.763	218.336	-0.186	0.295
-437.749	-200.000	-0.009	-0.086
-436.734	8.182	-0.027	0.020
-435.719	38.026	0.091	-0.081
-434.705	-200.000	-0.095	-0.413
-433.690	22.114	-0.098	-0.079
-432.676	9.701	-0.156	-0.117
-431.661	-200.000	0.027	0.232
-430.646	-200.000	0.088	0.387
-429.632	-200.000	-0.055	0.397
-428.617	54.665	-0.165	0.159
-427.603	367.978	0.209	0.420
-426.588	189.911	0.195	0.291
-425.573	-5.150	0.307	0.210
-424.559	-78.253	0.027	0.009
-423.544	-100.698	-0.236	-0.058
-422.530	-9.892	0.152	0.101
-421.515	-32.946	0.188	0.104
-420.500	43.342	-0.304	-0.276
-419.486	231.985	-0.073	0.120
-418.471	-48.718	-0.282	-0.135
-417.457	-200.000	-0.082	-0.383
-416.442	-200.000	0.007	0.129
-415.428	-159.240	-0.127	-0.007
-414.413	-200.000	-0.014	0.114
-413.398	-200.000	0.008	-0.220
-412.384	-94.324	-0.271	-0.074
-411.369	-6.623	0.239	0.161
-410.355	-131.884	0.048	-0.006
-409.340	43.984	0.250	-0.227
-408.325	251.326	0.055	0.093
-407.311	-200.000	-0.017	-0.238
-406.296	461.271	-0.014	-0.032
-405.282	-129.529	-0.142	-0.020
-404.267	362.224	0.132	0.263
-403.252	-200.000	-0.019	0.121
-402.238	-0.710	-0.337	0.237
-401.223	-71.028	-0.053	-0.020
-400.209	-80.225	0.199	-0.066
-399.194	29.737	-0.176	-0.149
-398.179	-200.000	-0.047	-0.244
-397.165	364.582	0.143	0.286
-396.150	-124.710	0.163	0.025
-395.136	-26.005	-0.062	-0.036
-394.121	207.154	0.073	-0.113
-393.106	-200.000	-0.010	0.141
-392.092	344.645	0.075	-0.145
-391.077	26.680	-0.153	0.127
-390.063	-75.660	0.166	0.059
-389.048	312.696	-0.121	0.226
-388.033	800.000	-0.029	0.095
-387.019	45.323	0.218	0.200
-386.004	-110.063	-0.467	0.097
-384.990	-200.000	-0.053	-0.402
-383.975	-0.767	0.144	0.101
-382.960	-200.000	0.036	-0.353
-381.946	-10.127	-0.102	-0.067
-380.931	202.714	0.153	0.234
-379.917	-11.321	0.085	0.056
-378.902	25.584	0.053	-0.044
-377.888	216.757	-0.211	-0.333
-376.873	-144.861	0.212	-0.019
-375.858	16.367	0.093	-0.073
-374.844	-57.042	-0.075	0.033
-373.829	551.981	0.164	0.391
-372.815	-200.000	0.014	-0.091
-371.800	-53.940	-0.291	0.131
-370.785	-62.205	0.210	0.087
-369.771	-29.103	0.071	0.041
-368.756	17.049	-0.056	-0.044
-367.742	327.814	-0.105	0.199
-366.727	269.591	0.098	0.171
-365.712	8.365	0.075	0.056
-364.698	-65.433	-0.256	-0.102
-363.683	293.487	0.045	-0.081
-362.669	-18.902	0.224	0.139
-361.654	491.015	0.105	0.238
-360.639	123.655	-0.036	0.045
-359.625	-200.000	-0.006	-0.043
-358.610	-83.306	0.220	-0.070
-357.596	41.279	-0.143	-0.128
-356.581	-144.602	-0.145	0.013
-355.566	-167.934	0.127	0.005
-354.552	42.912	0.088	-0.079
-353.537	673.030	-0.074	0.190
-352.523	16.261	-0.102	-0.079
-351.508	-51.929	0.221	0.102
-350.493	-200.000	0.068	0.322
-349.479	-38.909	0.318	-0.166
-348.464	-87.877	0.035	-0.010
-347.450	117.026	-0.133	0.162
-346.435	19.238	-0.194	0.154
-345.420	-142.068	0.194	-0.019
-344.406	-34.863	0.036	-0.019
-343.391	-24.939	-0.219	-0.128
-342.377	162.545	0.117	0.162
-341.362	146.834	0.080	-0.106
-340.348	800.000	0.098	0.361
-339.333	800.000	-0.082	-0.329
-338.318	-13.096	-0.159	-0.102
-337.304	27.552	-0.240	0.200
-336.289	410.216	-0.148	-0.311
-335.275	-109.600	-0.135	0.028
-334.260	-200.000	0.019	-0.125
-333.245	-148.590	0.255	-0.021
-332.231	-90.262	-0.267	0.077
-331.216	386.366	-0.078	0.159
-330.202	100.737	-0.013	-0.015
-329.187	-200.000	-0.088	0.453
-328.172	352.446	-0.048	0.095
-327.158	-29.046	0.229	-0.130
-326.143	-200.000	0.024	0.208
-325.129	-200.000	-0.006	-0.271
-324.114	-59.001	0.102	-0.043
-323.099	-121.802	0.402	0.066
-322.085	321.747	-0.157	-0.297
-321.070	90.576	-0.153	0.170
-320.056	-107.855	0.251	0.054
-319.041	465.647	0.045	0.100
-318.026	-200.000	0.039	0.198
-317.012	800.000	0.051	0.180
-315.997	205.650	0.094	-0.144
-314.983	-118.054	-0.270	0.048
-313.968	127.376	0.136	-0.171
-312.953	-200.000	0.015	-0.135
-311.939	95.646	0.070	-0.079
-310.924	-87.267	0.226	0.068
-309.910	63.116	-0.099	0.098
-308.895	-82.992	0.297	0.095
-307.880	-200.000	0.044	0.340
-306.866	524.537	0.064	0.149
-305.851	-75.306	0.054	0.019
-304.837	-39.221	-0.178	0.093
-303.822	-106.401	0.115	-0.025
-302.807	-73.713	0.081	0.029
-301.793	-137.555	0.184	0.021
-300.778	-100.212	0.131	-0.032
-299.764	-124.580	0.097	-0.015
-298.749	-38.356	0.180	0.094
-297.735	-165.881	0.141	0.006
-296.720	582.572	-0.113	0.273
-295.705	23.348	0.264	0.215
-294.691	414.303	0.078	0.165
-293.676	58.938	0.422	-0.410
-292.662	156.881	0.051	0.070
-291.647	46.404	0.105	-0.097
-290.632	-6.522	0.257	0.173
-289.618	-200.000	0.023	0.168
-288.603	800.000	-0.088	-0.276
-287.589	-12.141	0.362	-0.234
-286.574	106.127	-0.036	-0.042
-285.559	-59.139	-0.270	0.115
-284.545	-61.489	-0.102	-0.042
-283.530	-5.310	0.014	0.009
-282.516	112.999	-0.096	0.115
-281.501	-130.815	-0.322	-0.043
-280.486	-148.381	0.135	-0.011
-279.472	482.391	0.150	-0.336
-278.457	-200.000	0.043	-0.267
-277.443	800.000	-0.030	0.112
-276.428	2.074	-0.151	-0.108
-275.413	-104.935	0.105	-0.024
-274.399	-151.356	-0.211	-0.016
-273.384	-129.860	-0.112	0.015
-272.370	-141.890	0.264	-0.026
-271.355	800.000	0.021	0.076
-270.340	8.190	0.242	0.180
-269.326	-104.267	-0.071	0.016
-268.311	-200.000	-0.016	-0.219
-267.297	-138.275	-0.120	0.013
-266.282	-45.258	-0.062	0.030
-265.267	-78.296	0.114	0.039
-264.253	-115.130	-0.486	-0.091
-263.238	800.000	-0.095	0.327
-262.224	-159.793	-0.137	0.007
-261.209	-86.428	-0.005	-0.002
-260.195	-54.578	0.107	0.048
-259.180	-87.500	0.334	-0.100
-258.165	190.199	0.186	-0.276
-257.151	-200.000	0.001	-0.100
-256.136	-28.824	-0.171	0.097
-255.122	2.880	-0.121	-0.087
-254.107	-57.067	0.267	0.116
-253.092	-71.560	0.100	-0.037
-252.078	-200.000	0.004	0.151
-251.063	228.214	0.217	0.349
-250.049	-72.320	0.253	-0.093
-249.034	-75.412	-0.229	0.080
-248.019	-200.000	-0.037	0.267
-247.005	-200.000	-0.008	-0.167
-245.990	800.000	0.033	0.137
-244.976	380.442	0.089	-0.180
-243.961	39.351	-0.042	0.037
-242.946	222.228	-0.155	-0.246
-241.932	-200.000	-0.048	0.329
-240.917	800.000	0.035	-0.117
-239.903	-45.996	0.297	-0.144
-238.888	800.000	0.045	-0.134
-237.873	-37.919	-0.110	0.058
-236.859	177.587	0.240	-0.345
-235.844	101.667	-0.147	-0.170
-234.830	-41.763	-0.136	0.069
-233.815	-88.250	0.085	-0.025
-232.800	-89.600	-0.361	0.105
-231.786	31.078	-0.250	0.211
-230.771	-200.000	-0.068	0.344
-229.757	83.945	-0.217	-0.234
-228.742	57.991	-0.043	0.041
-227.727	-20.952	-0.204	0.123
-226.713	800.000	0.066	-0.283
-225.698	152.269	-0.135	-0.182
-224.684	30.956	-0.346	0.292
-223.669	-200.000	-0.003	0.388
-222.655	-119.258	0.050	-0.009
-221.640	-200.000	-0.018	-0.143
-220.625	-200.000	0.040	0.211
-219.611	74.615	-0.149	-0.155
-218.596	600.986	-0.069	-0.169
-217.582	-200.000	0.027	-0.134
-216.567	398.746	0.049	-0.102
-215.552	86.114	-0.253	-0.274
-214.538	383.921	0.095	0.192
-213.523	62.174	0.166	-0.163
-212.509	-112.338	-0.175	0.035
-211.494	139.532	0.160	0.208
-210.479	-92.501	-0.055	-0.015
-209.465	-88.933	0.457	-0.133
-208.450	800.000	-0.094	-0.292
-207.436	126.184	0.169	-0.211
-206.421	-113.007	0.381	0.074
-205.406	-16.819	-0.250	0.156
-204.392	179.907	-0.240	-0.346
-203.377	-128.606	0.205	0.029
-202.363	-155.685	-0.178	-0.011
-201.348	205.262	-0.141	-0.216
-200.333	-119.822	0.094	-0.016
-199.319	403.565	0.098	0.203
-198.304	14.883	0.253	0.195
-197.290	242.547	0.043	0.071
-196.275	800.000	-0.045	0.143
-195.260	800.000	-0.017	0.068
-194.246	-17.082	-0.141	0.087
-193.231	-31.608	-0.114	-0.063
-192.217	-200.000	-0.013	-0.081
-191.202	-102.474	-0.319	0.075
-190.187	-97.075	-0.139	-0.036
-189.173	355.522	-0.052	-0.103
-188.158	11.072	-0.279	-0.210
-187.144	-200.000	0.023	0.107
-186.129	-200.000	-0.052	-0.316
-185.114	317.810	-0.089	-0.166
-184.100	-200.000	0.036	-0.266
-183.085	-200.000	-0.003	-0.230
-182.071	211.679	-0.240	-0.372
-181.056	-102.173	-0.387	-0.092
-180.042	-75.272	-0.335	-0.118
-179.027	-43.809	0.448	0.222
-178.012	-37.491	-0.155	0.081
-176.998	-40.641	-0.215	-0.110
-175.983	-123.305	0.167	0.026
-174.969	-114.967	0.215	-0.040
-173.954	-81.341	0.233	0.075
-172.939	-172.614	-0.145	0.004
-171.925	724.032	0.036	-0.094
-170.910	-200.000	0.042	0.244
-169.896	-99.922	-0.224	-0.055
-168.881	427.009	-0.144	0.305
-167.866	-33.634	0.095	0.051
-166.852	251.499	0.110	0.183
-165.837	2.673	0.368	-0.263
-164.823	-200.000	0.002	-0.372
-163.808	-143.392	-0.101	0.010
-162.793	-62.390	0.427	-0.175
-161.779	223.899	0.134	-0.213
-160.764	-114.140	0.184	-0.035
-159.750	-149.844	-0.272	0.021
-158.735	778.436	0.086	-0.230
-157.720	800.000	0.043	0.124
-156.706	78.165	0.053	0.056
-155.691	549.198	0.063	-0.149
-154.677	-6.839	-0.288	0.193
-153.662	800.000	-0.078	0.274
-152.647	-154.654	0.348	0.023
-151.633	-147.060	0.147	0.012
-150.618	578.118	0.118	0.283
-149.604	217.600	-0.168	0.263
-148.589	-95.631	0.440	-0.116
-147.574	-200.000	0.022	-0.094
-146.560	-87.253	-0.302	0.090
-145.545	-143.653	-0.214	-0.020
-144.531	-128.289	0.213	-0.030
-143.516	800.000	-0.019	-0.079
-142.502	116.613	0.103	0.124
-141.487	-200.000	0.063	-0.367
-140.472	-200.000	0.000	0.261
-139.458	-82.928	-0.320	-0.101
-138.443	200.038	-0.219	0.331
-137.429	-137.335	-0.273	0.030
-136.414	86.221	0.155	0.167
-135.399	-200.000	0.040	-0.219
-134.385	-31.049	0.173	0.096
-133.370	56.192	-0.160	-0.153
-132.356	-74.133	-0.273	-0.097
-131.341	-74.972	-0.294	-0.104
-130.326	65.208	0.146	-0.145
-129.312	-46.065	0.108	0.052
-128.297	-62.199	-0.222	-0.091
-127.283	10.612	-0.084	0.063
-126.268	463.771	-0.031	0.069
-125.253	189.564	0.132	-0.195
-124.239	661.402	0.144	0.363
-123.224	72.033	0.134	-0.137
-122.210	-83.579	0.260	-0.082
-121.195	-88.574	0.283	-0.083
