DTS Sentinel unit serial number:	SN413079Multiplexer serial number:	ORYXHardware model number:	OX4-SRSoftware version number:	ORYX F/W v4.00 Oryx Data Collector v3.7.2.0data status	okinstallation	princeton_trtdifferential loss correction	single-endedforward channel	channel 1reverse channel	N/Adate	2019/09/11time	12:12:11forward acquisition time	60.00reverse acquisition time	0.00gamma	496.2192k internal	0.2292k external	0.2292temperature offset calibration	0.9937default loss term (dB/km)	0.3790temperature slope calibration	1.0000multiplexer offset coefficient	1.0000multiplexer slope coefficient	1.0000fibre end	0.00T internal ref (°C)	39.78T ext. ref 1 (°C)	0.21T ext. ref 2 (°C)	38.00length (m)	temperature (°C)	Stokes	anti-Stokes-747.200	32.986	0.166	-0.147
-746.185	93.165	0.263	0.304
-745.171	-165.284	0.101	0.005
-744.156	77.112	0.104	0.113
-743.142	-36.899	0.118	0.065
-742.127	-200.000	-0.005	0.581
-741.112	-111.599	0.399	-0.083
-740.098	17.227	-0.205	0.167
-739.083	2.510	-0.346	0.257
-738.069	206.673	-0.136	-0.217
-737.054	32.420	-0.243	0.215
-736.039	102.385	-0.172	-0.205
-735.025	-95.381	0.084	0.023
-734.010	24.580	-0.286	-0.242
-732.996	-65.742	-0.171	0.070
-731.981	-49.405	-0.111	0.054
-730.966	-200.000	0.004	0.259
-729.952	706.553	-0.035	-0.095
-728.937	-200.000	0.021	0.110
-727.923	44.773	0.099	-0.093
-726.908	-27.962	-0.196	-0.116
-725.894	-64.086	-0.501	0.209
-724.879	800.000	-0.089	-0.330
-723.864	-26.214	-0.042	-0.025
-722.850	-200.000	0.030	-0.248
-721.835	-52.803	0.137	0.064
-720.821	135.977	0.086	-0.115
-719.806	94.083	0.051	0.060
-718.791	50.960	0.259	0.251
-717.777	-200.000	-0.061	-0.488
-716.762	-200.000	-0.008	-0.398
-715.748	47.523	0.102	-0.097
-714.733	11.732	0.257	0.202
-713.718	-148.889	-0.205	-0.017
-712.704	12.294	-0.198	-0.156
-711.689	-152.271	0.111	-0.008
-710.675	-104.171	0.131	0.031
-709.660	-3.993	-0.125	0.089
-708.645	596.594	-0.118	-0.299
-707.631	-103.353	0.130	-0.031
-706.616	133.575	-0.111	0.146
-705.602	-45.531	0.243	0.123
-704.587	-200.000	0.194	-0.000
-703.572	34.904	0.193	0.173
-702.558	98.835	-0.143	-0.169
-701.543	-152.252	-0.274	-0.020
-700.529	800.000	-0.026	-0.099
-699.514	-200.000	0.024	-0.237
-698.499	81.700	0.118	0.131
-697.485	80.724	0.217	0.239
-696.470	-200.000	-0.023	0.135
-695.456	-154.412	0.210	0.014
-694.441	-200.000	-0.098	-0.561
-693.426	-38.048	0.188	-0.102
-692.412	-102.029	-0.362	0.089
-691.397	159.637	0.133	-0.189
-690.383	-119.341	-0.396	-0.070
-689.368	-52.767	-0.057	-0.027
-688.354	-166.432	-0.150	-0.006
-687.339	713.973	0.010	-0.026
-686.324	-200.000	-0.019	0.109
-685.310	-200.000	0.073	-0.361
-684.295	-60.507	-0.076	-0.033
-683.281	-98.928	-0.122	0.032
-682.266	-9.627	-0.028	-0.019
-681.251	275.813	-0.064	0.115
-680.237	-130.014	-0.152	0.021
-679.222	800.000	0.127	-0.434
-678.208	18.488	0.124	-0.102
-677.193	800.000	-0.015	-0.060
-676.178	-7.980	-0.166	-0.114
-675.164	508.658	0.120	-0.284
-674.149	75.661	0.222	-0.239
-673.135	-51.648	0.216	0.103
-672.120	-97.471	0.314	-0.083
-671.105	-57.636	-0.272	-0.122
-670.091	-110.046	0.322	-0.069
-669.076	-157.197	-0.225	0.014
-668.062	-47.744	0.171	0.085
-667.047	-200.000	-0.055	-0.256
-666.032	-200.000	-0.063	0.309
-665.018	-200.000	-0.035	0.360
-664.003	-146.613	-0.074	-0.007
-662.989	96.175	-0.069	0.080
-661.974	800.000	0.060	-0.211
-660.959	800.000	-0.040	0.154
-659.945	110.747	-0.383	0.470
-658.930	35.613	0.245	0.220
-657.916	300.499	0.118	-0.222
-656.901	20.639	-0.177	-0.146
-655.886	-200.000	-0.028	-0.253
-654.872	-200.000	-0.019	-0.091
-653.857	62.779	-0.030	0.031
-652.843	-200.000	0.003	-0.098
-651.828	342.468	-0.309	-0.616
-650.814	619.396	0.022	-0.056
-649.799	5.924	0.112	-0.085
-648.784	-157.673	-0.332	0.020
-647.770	800.000	0.030	-0.133
-646.755	56.385	-0.198	0.196
-645.741	-88.240	0.172	0.052
-644.726	0.621	-0.401	-0.293
-643.711	34.803	-0.223	0.199
-642.697	145.164	-0.072	-0.099
-641.682	4.975	0.231	-0.174
-640.668	-146.246	0.241	-0.022
-639.653	-200.000	-0.013	-0.057
-638.638	13.897	-0.127	0.101
-637.624	-140.952	-0.185	0.019
-636.609	-87.470	0.179	0.055
-635.595	-200.000	-0.039	-0.189
-634.580	2.915	-0.219	0.162
-633.565	778.193	0.119	-0.332
-632.551	5.286	0.153	-0.115
-631.536	72.823	0.336	-0.358
-630.522	363.244	-0.146	0.299
-629.507	77.139	-0.163	0.177
-628.492	800.000	0.017	0.052
-627.478	800.000	-0.085	-0.278
-626.463	567.401	-0.127	-0.314
-625.449	-105.860	-0.297	0.068
-624.434	668.669	-0.110	-0.289
-623.419	41.192	-0.193	-0.178
-622.405	-101.038	0.191	0.048
-621.390	502.204	-0.072	-0.168
-620.376	-101.137	0.064	0.016
-619.361	800.000	-0.064	0.238
-618.346	-183.972	-0.146	0.002
-617.332	68.784	0.098	-0.102
-616.317	-200.000	-0.054	0.260
-615.303	-58.083	0.311	-0.138
-614.288	-184.507	-0.286	0.005
-613.273	161.788	-0.155	0.221
-612.259	114.806	0.130	-0.161
-611.244	111.387	0.074	0.091
-610.230	179.672	0.099	-0.148
-609.215	-86.191	-0.213	-0.067
-608.201	-200.000	0.058	-0.511
-607.186	-200.000	-0.027	-0.423
-606.171	800.000	0.107	0.307
-605.157	-147.431	0.210	0.018
-604.142	242.782	0.203	-0.345
-603.128	-1.446	-0.161	0.115
-602.113	-200.000	0.002	0.031
-601.098	-101.055	0.231	-0.058
-600.084	521.260	-0.130	0.310
-599.069	-63.354	-0.278	-0.117
-598.055	800.000	0.096	-0.270
-597.040	-18.942	-0.086	0.054
-596.025	164.786	0.207	-0.297
-595.011	-172.231	-0.097	-0.003
-593.996	93.170	-0.032	0.037
-592.982	-200.000	-0.005	-0.085
-591.967	51.672	0.062	0.060
-590.952	-200.000	0.052	0.287
-589.938	291.030	0.184	0.340
-588.923	-66.229	-0.266	0.108
-587.909	-56.825	-0.252	0.113
-586.894	-54.848	-0.116	-0.053
-585.879	-103.369	-0.068	-0.016
-584.865	-22.149	-0.149	0.092
-583.850	-88.091	-0.408	-0.124
-582.836	764.872	-0.073	0.201
-581.821	-200.000	-0.002	0.319
-580.806	-143.560	-0.249	-0.024
-579.792	595.261	0.135	0.339
-578.777	800.000	0.045	0.181
-577.763	-54.779	0.276	0.127
-576.748	-70.488	0.089	0.034
-575.733	27.246	-0.127	-0.108
-574.719	-16.608	-0.229	-0.147
-573.704	-103.934	-0.367	0.087
-572.690	310.889	-0.094	0.180
-571.675	30.264	0.024	-0.021
-570.661	-160.944	-0.284	-0.015
-569.646	-91.481	-0.400	0.116
-568.631	250.472	-0.058	-0.100
-567.617	-132.404	-0.133	0.017
-566.602	51.421	-0.120	0.116
-565.588	-52.996	-0.319	-0.149
-564.573	-47.437	0.245	0.121
-563.558	-36.468	-0.048	-0.026
-562.544	-11.327	0.333	-0.223
-561.529	-154.737	0.410	-0.028
-560.515	-200.000	0.030	-0.221
-559.500	-200.000	0.027	0.132
-558.485	-200.000	0.015	0.095
-557.471	233.073	0.074	-0.124
-556.456	0.135	0.076	0.055
-555.442	-118.977	0.358	0.064
-554.427	-161.816	-0.110	-0.006
-553.412	-177.552	-0.269	0.007
-552.398	-200.000	0.033	0.195
-551.383	-45.132	0.253	0.128
-550.369	497.118	0.091	0.213
-549.354	3.549	-0.220	0.163
-548.339	6.535	0.131	0.099
-547.325	800.000	0.070	0.203
-546.310	-200.000	-0.018	0.173
-545.296	-200.000	-0.034	0.223
-544.281	800.000	0.039	0.128
-543.266	-200.000	-0.022	0.117
-542.252	-137.616	0.110	-0.013
-541.237	800.000	0.048	0.213
-540.223	-148.347	0.422	-0.035
-539.208	176.845	0.127	0.187
-538.193	-143.406	-0.401	-0.039
-537.179	-200.000	-0.028	-0.268
-536.164	-99.725	-0.317	-0.081
-535.150	47.122	-0.185	0.175
-534.135	143.944	0.066	0.090
-533.121	-44.229	-0.301	-0.153
-532.106	-145.072	0.224	-0.021
-531.091	-200.000	0.039	-0.264
-530.077	234.707	0.173	0.290
-529.062	47.809	0.037	-0.035
-528.048	6.094	-0.113	-0.085
-527.033	-137.594	-0.072	-0.008
-526.018	-137.196	-0.142	-0.016
-525.004	-128.264	-0.191	0.028
-523.989	-33.971	-0.275	0.154
-522.975	-25.181	-0.173	-0.104
-521.960	27.113	0.078	-0.067
-520.945	-60.924	0.241	-0.103
-519.931	143.928	0.174	0.235
-518.916	-97.192	0.153	-0.040
-517.902	800.000	0.056	0.222
-516.887	-25.404	-0.156	-0.094
-515.872	-83.028	0.240	0.079
-514.858	25.292	-0.127	0.107
-513.843	800.000	0.039	0.148
-512.829	-36.455	0.056	-0.031
-511.814	621.371	-0.087	0.221
-510.799	-58.408	-0.387	-0.170
-509.785	-50.144	-0.164	-0.079
-508.770	-60.647	0.075	0.032
-507.756	6.901	0.191	-0.144
-506.741	143.562	-0.049	-0.066
-505.726	95.871	0.143	-0.165
-504.712	800.000	0.021	0.078
-503.697	-77.177	-0.188	0.066
-502.683	-200.000	-0.044	-0.278
-501.668	-47.846	0.034	0.017
-500.653	-114.718	-0.204	0.040
-499.639	429.495	0.108	-0.236
-498.624	670.001	-0.058	-0.153
-497.610	40.013	0.157	-0.143
-496.595	-41.321	-0.235	-0.123
-495.581	-65.545	0.124	-0.051
-494.566	224.304	-0.075	-0.123
-493.551	-59.265	0.125	0.055
-492.537	36.627	-0.029	-0.026
-491.522	-20.741	0.052	0.032
-490.508	66.152	0.294	-0.303
-489.493	713.295	0.104	0.278
-488.478	278.042	-0.201	0.363
-487.464	-113.455	-0.253	0.050
-486.449	-200.000	-0.003	0.078
-485.435	350.400	0.172	0.345
-484.420	-172.804	-0.114	-0.004
-483.405	311.986	-0.094	0.178
-482.391	-4.577	0.109	-0.077
-481.376	-103.971	0.189	0.045
-480.362	-26.081	-0.392	-0.233
-479.347	-130.010	-0.155	-0.021
-478.332	264.818	0.075	-0.132
-477.318	800.000	-0.057	0.237
-476.303	118.848	-0.198	0.248
-475.289	770.174	0.034	-0.093
-474.274	-147.672	0.187	-0.016
-473.259	47.445	-0.273	-0.258
-472.245	-175.709	-0.195	0.005
-471.230	-15.634	-0.365	-0.236
-470.216	-14.099	0.080	0.052
-469.201	254.709	0.155	-0.269
-468.186	12.259	-0.133	-0.104
-467.172	-43.540	-0.153	0.078
-466.157	-55.573	0.207	-0.094
-465.143	131.225	0.034	0.045
-464.128	-200.000	-0.063	0.427
-463.113	800.000	0.057	-0.158
-462.099	-103.141	-0.173	-0.041
-461.084	-146.701	0.264	0.023
-460.070	800.000	0.017	-0.055
-459.055	92.708	0.135	-0.155
-458.040	-88.053	0.261	0.079
-457.026	126.239	-0.120	0.154
-456.011	392.365	-0.024	-0.051
-454.997	-62.374	0.164	0.069
-453.982	-34.913	0.254	-0.140
-452.968	-200.000	0.008	-0.154
-451.953	304.759	0.095	-0.178
-450.938	-200.000	-0.013	-0.113
-449.924	147.478	0.108	0.147
-448.909	56.833	0.233	0.230
-447.895	-67.037	0.199	0.080
-446.880	-200.000	-0.017	-0.371
-445.865	-200.000	0.006	0.126
-444.851	-200.000	0.021	0.203
-443.836	800.000	0.096	0.350
-442.822	23.580	0.118	-0.098
-441.807	60.308	-0.225	0.225
-440.792	800.000	-0.076	0.270
-439.778	-14.078	-0.298	0.195
-438.763	-195.263	0.163	-0.001
-437.749	800.000	0.118	0.378
-436.734	-200.000	0.025	0.117
-435.719	-200.000	0.045	0.236
-434.705	244.148	-0.228	0.387
-433.690	-128.548	-0.260	0.037
-432.676	186.478	-0.053	0.080
-431.661	-130.249	-0.227	0.031
-430.646	-83.333	-0.363	0.118
-429.632	-9.432	-0.146	0.098
-428.617	-81.821	0.305	0.101
-427.603	800.000	0.055	-0.186
-426.588	-111.989	-0.038	0.008
-425.573	-200.000	-0.044	0.290
-424.559	263.059	-0.070	-0.123
-423.544	-78.858	0.241	0.083
-422.530	-98.491	-0.104	-0.027
-421.515	-11.078	-0.101	0.067
-420.500	134.668	-0.087	-0.114
-419.486	46.794	-0.103	-0.097
-418.471	-94.750	-0.118	0.032
-417.457	-87.294	0.399	0.122
-416.442	-38.341	0.188	0.101
-415.428	190.106	0.199	-0.302
-414.413	-200.000	0.024	-0.312
-413.398	-50.506	0.375	-0.179
-412.384	-95.499	0.236	-0.064
-411.369	-200.000	0.074	0.368
-410.355	372.577	-0.097	0.200
-409.340	-75.730	0.229	0.082
-408.325	800.000	-0.100	-0.307
-407.311	-200.000	-0.018	-0.415
-406.296	-100.353	-0.150	0.038
-405.282	-103.679	0.622	-0.147
-404.267	42.078	-0.106	-0.097
-403.252	800.000	0.070	0.247
-402.238	-200.000	-0.022	0.134
-401.223	-12.021	-0.107	0.071
-400.209	367.997	-0.013	0.027
-399.194	-200.000	-0.056	0.308
-398.179	-200.000	-0.054	0.455
-397.165	-36.642	-0.102	0.056
-396.150	247.650	-0.177	-0.302
-395.136	-200.000	-0.005	-0.358
-394.121	800.000	-0.094	-0.393
-393.106	-57.775	-0.146	-0.064
-392.092	-200.000	0.001	0.208
-391.077	670.707	-0.040	-0.104
-390.063	-115.434	-0.037	0.007
-389.048	800.000	-0.054	-0.150
-388.033	32.155	0.164	0.143
-387.019	-100.746	-0.510	-0.127
-386.004	-72.887	0.174	0.064
-384.990	439.164	-0.043	0.094
-383.975	340.835	-0.070	-0.138
-382.960	252.620	0.076	-0.130
-381.946	800.000	-0.077	-0.217
-380.931	298.843	-0.103	0.192
-379.917	135.524	0.007	0.009
-378.902	158.639	0.195	0.274
-377.888	88.754	0.287	-0.322
-376.873	89.501	0.091	0.102
-375.858	22.266	0.076	0.062
-374.844	-200.000	-0.176	0.000
-373.829	-106.010	-0.058	0.013
-372.815	316.076	0.160	-0.305
-371.800	212.038	0.074	0.117
-370.785	242.024	-0.138	-0.233
-369.771	-149.336	-0.507	-0.041
-368.756	206.867	0.024	-0.038
-367.742	78.292	-0.046	-0.050
-366.727	90.508	-0.139	0.157
-365.712	203.392	0.087	-0.136
-364.698	-79.516	0.203	0.069
-363.683	800.000	-0.059	0.171
-362.669	-80.790	0.408	0.137
-361.654	-32.297	0.231	0.130
-360.639	-63.811	0.163	-0.067
-359.625	-200.000	-0.034	-0.366
-358.610	-12.555	0.201	0.132
-357.596	-9.137	0.328	-0.221
-356.581	-37.025	-0.207	0.112
-355.566	74.018	-0.215	-0.228
-354.552	84.336	-0.104	-0.115
-353.537	-200.000	-0.030	-0.164
-352.523	91.076	0.128	0.144
-351.508	127.238	0.185	-0.237
-350.493	-111.610	0.312	-0.064
-349.479	800.000	-0.036	-0.143
-348.464	99.766	0.121	0.142
-347.450	85.365	-0.186	0.206
-346.435	8.403	-0.044	0.033
-345.420	455.421	-0.039	0.087
-344.406	473.981	-0.019	0.043
-343.391	50.039	0.103	-0.098
-342.377	-145.096	-0.256	-0.023
-341.362	-119.834	0.154	-0.027
-340.348	112.437	-0.027	-0.033
-339.333	311.001	0.152	0.288
-338.318	25.687	-0.035	-0.030
-337.304	-200.000	-0.030	0.146
-336.289	-90.488	0.396	-0.116
-335.275	-82.841	0.152	0.050
-334.260	96.164	-0.163	-0.188
-333.245	800.000	-0.065	-0.244
-332.231	306.177	0.098	-0.184
-331.216	-200.000	-0.045	-0.214
-330.202	-200.000	-0.027	-0.138
-329.187	72.110	0.127	0.133
-328.172	61.712	-0.183	0.184
-327.158	26.067	-0.036	-0.031
-326.143	14.720	-0.098	-0.077
-325.129	12.649	-0.128	0.099
-324.114	174.739	0.143	-0.208
-323.099	12.030	0.185	0.144
-322.085	202.101	0.088	0.137
-321.070	-137.215	-0.068	0.008
-320.056	12.087	-0.148	-0.115
-319.041	800.000	-0.034	-0.112
-318.026	-3.755	-0.092	-0.064
-317.012	800.000	0.094	0.363
-315.997	-200.000	-0.010	0.114
-314.983	-200.000	-0.054	0.450
-313.968	800.000	0.082	0.326
-312.953	-180.876	-0.163	-0.003
-311.939	-132.360	0.275	0.036
-310.924	800.000	-0.049	0.173
-309.910	205.226	-0.050	-0.079
-308.895	-154.577	-0.316	0.021
-307.880	800.000	-0.090	-0.291
-306.866	600.439	-0.017	0.044
-305.851	296.519	-0.049	-0.090
-304.837	202.780	0.080	-0.125
-303.822	-97.279	-0.215	0.056
-302.807	800.000	-0.040	-0.135
-301.793	42.804	0.293	0.268
-300.778	-71.791	0.286	0.107
-299.764	800.000	0.052	0.146
-298.749	-200.000	0.041	-0.208
-297.735	-106.847	0.279	-0.062
-296.720	-168.256	-0.238	-0.009
-295.705	524.581	-0.127	0.299
-294.691	-43.495	0.230	-0.117
-293.676	610.860	0.096	-0.241
-292.662	-24.337	0.300	0.180
-291.647	-51.009	-0.101	-0.048
-290.632	-112.397	-0.074	0.015
-289.618	-52.601	-0.154	0.072
-288.603	98.304	-0.163	-0.189
-287.589	276.517	-0.135	-0.241
-286.574	351.770	0.139	0.276
-285.559	7.230	0.172	0.129
-284.545	233.324	0.152	-0.252
-283.530	800.000	-0.014	-0.041
-282.516	-129.645	0.343	0.048
-281.501	-41.311	-0.078	0.041
-280.486	-67.688	-0.389	0.153
-279.472	-63.914	0.130	0.053
-278.457	319.897	0.022	-0.041
-277.443	532.265	0.034	-0.082
-276.428	-28.726	0.102	0.059
-275.413	72.767	-0.161	0.169
-274.399	-200.000	0.045	-0.208
-273.384	-36.412	0.380	-0.205
-272.370	800.000	0.047	-0.159
-271.355	32.730	0.084	-0.073
-270.340	800.000	0.068	-0.264
-269.326	43.420	0.144	-0.132
-268.311	18.842	0.240	0.193
-267.297	-38.953	-0.128	0.068
-266.282	-43.440	0.377	-0.191
-265.267	154.864	0.070	0.097
-264.253	-46.925	-0.203	-0.099
-263.238	104.230	-0.073	0.086
-262.224	-160.367	-0.347	-0.019
-261.209	-48.135	-0.315	-0.153
-260.195	8.967	-0.078	-0.059
-259.180	-144.503	-0.266	-0.025
-258.165	232.560	-0.080	0.132
-257.151	-137.683	0.325	0.037
-256.136	-200.000	-0.008	0.258
-255.122	261.633	0.070	-0.123
-254.107	-200.000	-0.004	-0.096
-253.092	87.120	0.196	0.217
-252.078	-200.000	-0.011	0.092
-251.063	159.408	-0.118	-0.166
-250.049	72.221	0.244	-0.255
-249.034	119.877	0.075	-0.093
-248.019	60.197	0.199	0.198
-247.005	174.299	-0.084	-0.122
-245.990	-63.490	0.240	-0.099
-244.976	26.907	0.179	0.151
-243.961	196.739	0.162	0.248
-242.946	-95.176	-0.217	0.059
-241.932	-200.000	-0.011	-0.126
-240.917	314.458	0.069	0.130
-239.903	317.443	0.127	0.241
-238.888	-14.570	-0.143	0.092
-237.873	-49.153	0.298	0.143
-236.859	-79.700	-0.368	0.124
-235.844	-200.000	-0.028	-0.188
-234.830	531.593	0.111	-0.264
-233.815	242.592	-0.241	-0.406
-232.800	800.000	-0.032	-0.094
-231.786	426.067	-0.088	-0.191
-230.771	-44.746	-0.244	0.122
-229.757	800.000	-0.093	-0.262
-228.742	19.835	-0.090	-0.073
-227.727	800.000	0.099	0.344
-226.713	-105.131	0.155	-0.036
-225.698	-48.434	-0.088	0.043
-224.684	150.511	0.136	0.185
-223.669	265.373	0.215	0.377
-222.655	800.000	-0.053	0.186
-221.640	-37.387	-0.295	-0.158
-220.625	-200.000	-0.092	-0.566
-219.611	60.697	0.099	-0.098
-218.596	-200.000	-0.014	-0.085
-217.582	7.315	-0.197	0.147
-216.567	-23.303	0.144	-0.087
-215.552	214.926	0.112	0.178
-214.538	513.147	-0.121	-0.283
-213.523	33.966	-0.123	-0.107
-212.509	231.545	0.162	0.265
-211.494	728.226	0.061	0.163
-210.479	331.341	0.242	-0.467
-209.465	-108.982	0.218	-0.047
-208.450	800.000	0.032	0.107
-207.436	-145.626	-0.329	-0.029
-206.421	-63.354	0.222	-0.092
-205.406	-119.372	0.410	0.071
-204.392	-39.634	-0.143	0.075
-203.377	-115.777	-0.268	0.050
-202.363	49.845	0.190	0.179
-201.348	662.115	-0.077	-0.199
-200.333	459.536	-0.060	0.133
-199.319	41.885	0.295	-0.268
-198.304	209.301	0.165	-0.259
-197.290	129.042	0.113	-0.145
-196.275	-159.254	0.174	0.010
-195.260	-127.800	-0.293	0.042
-194.246	-200.000	-0.027	-0.127
-193.231	195.181	-0.048	0.072
-192.217	30.030	-0.080	0.069
-191.202	-200.000	-0.064	0.426
-190.187	-79.002	0.217	0.074
-189.173	-16.100	-0.154	-0.098
-188.158	-200.000	0.039	-0.337
-187.144	-200.000	0.022	0.125
-186.129	162.474	-0.132	-0.185
-185.114	-184.847	-0.087	-0.001
-184.100	512.642	0.111	0.259
-183.085	-83.220	0.118	0.038
-182.071	109.076	0.068	0.081
-181.056	59.202	0.050	0.049
-180.042	-200.000	0.033	0.296
-179.027	-200.000	-0.007	-0.162
-178.012	106.635	-0.132	-0.157
-176.998	21.161	0.098	0.080
-175.983	6.153	-0.184	0.136
-174.969	118.377	0.075	0.093
-173.954	-137.946	-0.112	-0.013
-172.939	-11.302	-0.220	0.145
-171.925	25.623	0.200	-0.166
-170.910	-200.000	0.014	-0.190
-169.896	800.000	0.011	0.033
-168.881	15.828	0.189	-0.149
-167.866	-200.000	-0.004	-0.128
-166.852	100.981	-0.133	-0.155
-165.837	796.087	-0.066	-0.183
-164.823	-143.208	0.230	-0.022
-163.808	424.781	0.151	-0.324
-162.793	-129.727	-0.163	0.023
-161.779	-34.037	0.387	-0.213
-160.764	51.357	-0.226	-0.215
-159.750	-158.550	0.195	0.011
-158.735	-200.000	-0.062	-0.361
-157.720	-168.675	0.113	0.004
-156.706	19.704	-0.277	0.223
-155.691	31.032	-0.190	0.163
-154.677	23.963	-0.114	0.094
-153.662	527.220	0.049	0.116
-152.647	-200.000	-0.008	0.263
-151.633	-200.000	0.028	0.201
-150.618	66.768	0.202	0.206
-149.604	93.947	0.115	-0.131
-148.589	35.845	0.315	-0.277
-147.574	800.000	0.031	-0.089
-146.560	-21.056	-0.251	-0.153
-145.545	559.372	0.171	-0.413
-144.531	207.719	0.094	0.146
-143.516	800.000	-0.034	0.124
-142.502	19.153	-0.117	-0.094
-141.487	-160.270	0.063	0.003
-140.472	-54.769	0.078	-0.035
-139.458	127.572	-0.204	-0.259
-138.443	-18.991	0.209	0.130
-137.429	167.569	0.076	0.108
-136.414	-158.774	0.171	0.010
-135.399	254.726	-0.083	-0.141
-134.385	-40.310	-0.421	-0.219
-133.370	800.000	-0.128	0.366
-132.356	-2.328	-0.088	0.062
-131.341	132.756	-0.164	0.211
-130.326	172.766	0.284	-0.409
-129.312	23.662	-0.191	-0.157
-128.297	2.972	0.075	0.054
-127.283	-24.584	-0.139	-0.082
-126.268	134.190	0.034	0.045
-125.253	327.922	-0.088	-0.169
-124.239	-40.702	-0.204	0.106
-123.224	-33.563	0.193	-0.106
-122.210	104.060	0.164	0.192
-121.195	-56.634	-0.153	-0.067
-120.180	105.510	0.213	-0.252
