DTS Sentinel unit serial number:	SN413079Multiplexer serial number:	ORYXHardware model number:	OX4-SRSoftware version number:	ORYX F/W v4.00 Oryx Data Collector v3.7.2.0data status	okinstallation	princeton_trtdifferential loss correction	single-endedforward channel	channel 1reverse channel	N/Adate	2019/09/12time	20:58:35forward acquisition time	60.00reverse acquisition time	0.00gamma	496.2192k internal	0.2325k external	0.2325temperature offset calibration	1.0145default loss term (dB/km)	0.3790temperature slope calibration	1.0000multiplexer offset coefficient	1.0000multiplexer slope coefficient	1.0000fibre end	0.00T internal ref (°C)	30.87T ext. ref 1 (°C)	3.58T ext. ref 2 (°C)	25.44length (m)	temperature (°C)	Stokes	anti-Stokes-747.200	-200.000	-0.063	0.294
-746.185	800.000	-0.091	0.295
-745.171	-200.000	-0.099	0.481
-744.156	256.259	0.130	0.224
-743.142	-200.000	0.190	-0.000
-742.127	-14.547	-0.176	0.115
-741.112	126.037	0.117	-0.149
-740.098	473.814	0.123	0.281
-739.083	-119.508	0.378	-0.066
-738.069	800.000	0.089	-0.251
-737.054	-132.252	0.120	-0.016
-736.039	173.153	0.081	-0.118
-735.025	88.782	0.143	0.161
-734.010	-125.638	-0.121	-0.019
-732.996	-60.617	-0.180	0.077
-731.981	75.509	0.186	0.198
-730.966	-84.260	-0.261	0.083
-729.952	-55.126	-0.341	-0.155
-728.937	-36.996	-0.251	0.136
-727.923	-121.077	-0.148	0.025
-726.908	-200.000	-0.061	0.332
-725.894	3.340	0.050	0.037
-724.879	-109.719	0.166	0.035
-723.864	-98.361	-0.195	-0.050
-722.850	-118.146	-0.106	-0.019
-721.835	403.963	0.037	-0.080
-720.821	348.295	0.061	-0.121
-719.806	170.724	0.166	-0.239
-718.791	-14.010	-0.188	-0.122
-717.777	395.505	0.105	0.220
-716.762	154.243	-0.081	0.112
-715.748	128.957	0.037	-0.048
-714.733	30.157	-0.168	-0.144
-713.718	116.052	-0.139	-0.171
-712.704	-64.072	0.098	0.040
-711.689	-18.224	0.131	-0.082
-710.675	-200.000	0.018	-0.274
-709.660	-200.000	0.026	0.156
-708.645	-41.091	-0.218	0.114
-707.631	-78.412	0.127	-0.044
-706.616	21.578	0.338	0.277
-705.602	158.767	0.341	-0.477
-704.587	-147.235	-0.159	0.014
-703.572	-200.000	-0.039	-0.279
-702.558	42.176	0.078	-0.072
-701.543	515.147	0.078	0.183
-700.529	800.000	-0.044	0.144
-699.514	-200.000	-0.078	0.365
-698.499	-200.000	0.012	0.333
-697.485	800.000	-0.092	-0.293
-696.470	-152.673	0.254	0.018
-695.456	110.635	-0.094	0.114
-694.441	246.811	0.071	0.121
-693.426	-200.000	-0.029	0.387
-692.412	-42.968	0.175	-0.090
-691.397	-158.955	-0.151	-0.009
-690.383	-200.000	0.039	-0.381
-689.368	157.115	-0.224	-0.312
-688.354	129.961	0.129	0.166
-687.339	-104.417	-0.150	-0.035
-686.324	193.380	0.016	0.024
-685.310	-52.322	-0.255	0.119
-684.295	-6.393	0.092	-0.063
-683.281	800.000	0.056	0.175
-682.266	-200.000	-0.015	-0.125
-681.251	-50.440	0.488	-0.232
-680.237	262.365	0.115	0.200
-679.222	39.073	-0.318	-0.286
-678.208	39.074	0.190	-0.171
-677.193	-200.000	-0.025	-0.332
-676.178	57.391	0.172	0.169
-675.164	-200.000	0.027	0.247
-674.149	-200.000	0.005	0.098
-673.135	95.209	-0.307	-0.352
-672.120	-200.000	0.006	-0.124
-671.105	-21.316	-0.135	-0.083
-670.091	220.842	-0.198	-0.320
-669.076	71.636	-0.172	0.179
-668.062	147.387	-0.069	0.094
-667.047	-166.922	-0.256	-0.011
-666.032	-141.766	0.106	0.011
-665.018	12.887	0.281	-0.219
-664.003	-43.974	-0.106	-0.054
-662.989	12.817	0.148	0.115
-661.974	59.707	0.080	0.080
-660.959	-200.000	0.007	0.252
-659.945	26.792	-0.274	-0.231
-658.930	800.000	0.155	-0.449
-657.916	71.347	0.143	0.149
-656.901	-200.000	-0.018	-0.204
-655.886	-37.059	0.223	-0.120
-654.872	5.574	-0.055	-0.041
-653.857	-26.447	-0.139	0.082
-652.843	-154.711	-0.332	-0.022
-651.828	800.000	-0.069	-0.258
-650.814	-200.000	0.066	0.435
-649.799	-107.725	0.039	-0.008
-648.784	800.000	0.071	-0.248
-647.770	-36.341	-0.283	0.154
-646.755	151.169	0.239	0.326
-645.741	-153.739	-0.475	0.033
-644.726	111.304	-0.134	-0.163
-643.711	507.678	0.097	0.226
-642.697	-131.160	-0.375	-0.050
-641.682	-96.643	0.271	0.072
-640.668	-79.985	0.157	-0.053
-639.653	-56.634	0.185	-0.082
-638.638	108.916	0.207	-0.248
-637.624	-136.084	-0.171	-0.020
-636.609	-200.000	0.020	-0.250
-635.595	-63.641	-0.148	0.061
-634.580	-63.480	0.273	0.113
-633.565	-130.393	-0.210	0.029
-632.551	-61.031	-0.092	0.039
-631.536	-134.091	0.423	-0.053
-630.522	-24.169	0.296	-0.178
-629.507	-119.856	-0.305	0.053
-628.492	230.515	-0.173	0.284
-627.478	-200.000	0.018	-0.092
-626.463	-200.000	-0.001	-0.139
-625.449	-71.816	-0.189	-0.071
-624.434	800.000	0.064	-0.187
-623.419	-56.876	0.057	-0.025
-622.405	-16.537	0.146	-0.093
-621.390	800.000	-0.037	-0.153
-620.376	-6.966	-0.207	-0.141
-619.361	-4.131	-0.299	-0.208
-618.346	24.676	-0.160	-0.133
-617.332	-200.000	-0.021	-0.285
-616.317	170.087	-0.143	-0.205
-615.303	95.025	0.197	-0.225
-614.288	-22.831	-0.342	-0.207
-613.273	-200.000	0.003	-0.082
-612.259	66.575	0.054	-0.055
-611.244	-156.369	0.241	-0.015
-610.230	-80.311	-0.293	0.098
-609.215	-200.000	0.044	-0.245
-608.201	-44.390	0.206	0.103
-607.186	800.000	-0.015	0.043
-606.171	707.266	-0.117	0.309
-605.157	31.814	-0.160	-0.139
-604.142	26.890	-0.111	-0.094
-603.128	-38.335	-0.057	-0.030
-602.113	-77.002	0.323	0.113
-601.098	-46.828	-0.073	0.036
-600.084	442.940	0.023	0.050
-599.069	556.344	-0.021	-0.052
-598.055	-200.000	-0.068	0.522
-597.040	56.803	-0.311	0.304
-596.025	-112.818	0.164	0.033
-595.011	-93.303	-0.197	0.055
-593.996	800.000	-0.081	-0.307
-592.982	52.623	0.153	-0.146
-591.967	101.774	-0.060	0.070
-590.952	-39.460	-0.208	-0.109
-589.938	149.401	0.136	-0.185
-588.923	-63.817	-0.066	0.027
-587.909	659.458	-0.104	0.267
-586.894	189.940	-0.103	0.156
-585.879	-98.151	-0.235	0.061
-584.865	-200.000	0.018	-0.204
-583.850	14.025	-0.156	-0.122
-582.836	800.000	-0.044	-0.142
-581.821	-1.495	-0.099	0.070
-580.806	277.784	-0.061	0.110
-579.792	285.483	0.094	-0.170
-578.777	800.000	0.034	-0.121
-577.763	-72.445	0.253	0.094
-576.748	69.527	0.192	0.199
-575.733	421.151	0.229	0.493
-574.719	-41.451	-0.251	0.130
-573.704	472.977	0.084	-0.191
-572.690	5.791	-0.051	-0.038
-571.675	-52.436	0.189	-0.087
-570.661	-200.000	0.006	0.565
-569.646	133.492	0.053	0.068
-568.631	189.734	-0.045	0.068
-567.617	-200.000	0.008	0.143
-566.602	33.912	0.124	0.109
-565.588	-85.783	0.370	-0.115
-564.573	-140.522	0.145	0.015
-563.558	-18.156	-0.162	0.101
-562.544	160.694	-0.052	0.073
-561.529	432.026	0.049	-0.107
-560.515	-69.992	-0.464	-0.177
-559.500	-108.836	-0.091	0.020
-558.485	32.640	-0.275	0.238
-557.471	-86.589	-0.181	0.055
-556.456	-54.500	-0.228	0.103
-555.442	-94.459	-0.071	0.019
-554.427	298.243	0.170	0.314
-553.412	-200.000	-0.003	0.220
-552.398	391.969	-0.141	-0.293
-551.383	25.354	0.105	-0.087
-550.369	-87.789	-0.174	-0.052
-549.354	21.415	0.102	-0.083
-548.339	65.557	0.320	0.325
-547.325	-31.881	0.197	-0.110
-546.310	-200.000	0.036	-0.188
-545.296	-52.000	0.087	0.041
-544.281	-88.498	-0.258	0.077
-543.266	12.358	0.183	-0.141
-542.252	644.692	0.015	-0.038
-541.237	-18.055	-0.248	0.155
-540.223	-118.832	0.395	0.070
-539.208	800.000	-0.084	-0.272
-538.193	800.000	-0.051	-0.187
-537.179	-142.632	-0.185	-0.018
-536.164	35.991	-0.102	-0.090
-535.150	-200.000	-0.110	-0.653
-534.135	-185.039	0.161	-0.003
-533.121	-140.094	-0.048	-0.005
-532.106	456.260	0.088	0.195
-531.091	-185.299	0.126	-0.002
-530.077	800.000	-0.093	-0.392
-529.062	-59.117	0.158	0.068
-528.048	800.000	-0.161	-0.487
-527.033	372.066	0.131	-0.266
-526.018	173.768	-0.161	-0.233
-525.004	-21.876	-0.102	0.062
-523.989	378.653	0.062	0.128
-522.975	189.308	0.105	-0.157
-521.960	800.000	-0.052	0.160
-520.945	149.655	-0.186	0.251
-519.931	800.000	0.190	0.529
-518.916	-200.000	-0.001	0.297
-517.902	-64.508	-0.256	-0.104
-516.887	-200.000	-0.006	0.123
-515.872	154.574	-0.234	0.321
-514.858	187.172	-0.197	0.293
-513.843	-193.357	-0.118	0.001
-512.829	-98.043	-0.063	0.016
-511.814	-138.622	0.229	0.025
-510.799	-74.396	-0.218	-0.079
-509.785	401.222	-0.021	-0.044
-508.770	33.736	0.027	-0.023
-507.756	155.474	0.121	0.167
-506.741	-36.609	-0.173	-0.093
-505.726	139.370	-0.050	0.066
-504.712	-200.000	0.030	-0.140
-503.697	117.553	0.282	0.347
-502.683	158.751	-0.246	0.342
-501.668	-100.470	0.285	-0.071
-500.653	161.320	-0.144	-0.202
-499.639	-200.000	0.011	-0.307
-498.624	255.247	0.049	0.083
-497.610	-13.265	0.206	0.134
-496.595	800.000	-0.083	0.250
-495.581	-200.000	0.003	-0.159
-494.566	-89.837	-0.059	0.017
-493.551	-200.000	0.125	0.000
-492.537	-200.000	-0.017	0.418
-491.522	-107.214	-0.331	0.073
-490.508	6.847	0.138	0.103
-489.493	-200.000	0.050	0.328
-488.478	-57.526	-0.167	-0.073
-487.464	-77.795	-0.054	0.019
-486.449	298.188	0.124	0.227
-485.435	564.247	-0.066	-0.159
-484.420	-54.361	-0.172	0.078
-483.405	331.018	0.083	0.160
-482.391	800.000	-0.026	0.106
-481.376	800.000	0.027	-0.096
-480.362	13.752	0.244	0.189
-479.347	-99.770	-0.077	-0.019
-478.332	800.000	0.092	0.352
-477.318	-21.166	-0.086	0.052
-476.303	104.098	0.085	-0.100
-475.289	-20.716	0.184	-0.113
-474.274	190.994	-0.088	0.132
-473.259	-116.902	-0.380	-0.069
-472.245	-200.000	-0.027	0.153
-471.230	-132.859	-0.248	0.032
-470.216	-53.585	0.183	-0.083
-469.201	61.827	-0.051	-0.051
-468.186	800.000	-0.064	0.268
-467.172	-105.249	0.246	0.056
-466.157	437.282	0.092	0.200
-465.143	14.639	-0.175	0.137
-464.128	376.342	0.072	-0.147
-463.113	-132.927	0.523	-0.066
-462.099	-200.000	0.033	-0.246
-461.084	800.000	-0.032	-0.133
-460.070	15.674	-0.362	-0.284
-459.055	-89.574	0.260	0.076
-458.040	-200.000	-0.032	-0.348
-457.026	-48.111	-0.178	0.086
-456.011	-200.000	-0.053	0.366
-454.997	45.756	0.252	-0.233
-453.982	-25.876	0.175	-0.103
-452.968	83.974	0.075	-0.081
-451.953	-107.042	-0.131	-0.029
-450.938	800.000	-0.043	-0.182
-449.924	-200.000	-0.066	-0.345
-448.909	-18.807	-0.302	-0.188
-447.895	-118.962	-0.062	0.011
-446.880	101.327	-0.198	0.230
-445.865	411.016	-0.031	-0.066
-444.851	-144.432	0.172	0.016
-443.836	-51.287	-0.136	0.063
-442.822	52.449	-0.105	0.100
-441.807	536.517	-0.033	0.077
-440.792	-73.083	0.196	0.072
-439.778	335.768	-0.261	0.505
-438.763	-34.675	0.090	0.049
-437.749	-102.463	0.268	-0.064
-436.734	65.246	0.201	0.203
-435.719	-23.487	-0.320	0.192
-434.705	-35.100	0.096	0.052
-433.690	-44.528	0.259	-0.129
-432.676	-200.000	-0.003	-0.319
-431.661	243.076	-0.046	0.077
-430.646	-200.000	-0.032	-0.303
-429.632	108.789	0.166	0.197
-428.617	-200.000	-0.055	0.387
-427.603	480.360	-0.070	0.157
-426.588	-200.000	0.060	0.293
-425.573	161.010	-0.184	0.256
-424.559	675.750	0.107	-0.276
-423.544	-106.108	0.304	-0.068
-422.530	86.776	-0.205	-0.226
-421.515	-200.000	-0.028	-0.373
-420.500	126.898	-0.145	-0.183
-419.486	-25.572	-0.472	0.277
-418.471	109.687	0.192	-0.229
-417.457	212.679	-0.099	-0.156
-416.442	-142.157	-0.245	-0.024
-415.428	-38.216	0.204	0.108
-414.413	-46.562	-0.310	0.152
-413.398	-37.359	-0.345	0.184
-412.384	-113.996	0.109	0.021
-411.369	-124.318	-0.206	0.032
-410.355	-200.000	0.040	-0.208
-409.340	-200.000	-0.019	-0.111
-408.325	-200.000	-0.004	-0.146
-407.311	-102.556	0.300	0.071
-406.296	-83.623	-0.232	-0.074
-405.282	-57.089	-0.207	-0.091
-404.267	800.000	-0.064	0.220
-403.252	168.420	0.112	0.158
-402.238	800.000	-0.116	0.448
-401.223	58.414	-0.263	-0.257
-400.209	124.520	0.185	0.232
-399.194	-108.949	-0.216	0.046
-398.179	29.938	-0.173	-0.147
-397.165	50.143	-0.132	0.124
-396.150	-2.973	0.043	0.030
-395.136	-85.059	0.138	-0.043
-394.121	-200.000	-0.027	0.205
-393.106	800.000	-0.071	0.288
-392.092	1.455	0.184	-0.132
-391.077	800.000	0.130	-0.428
-390.063	-94.612	-0.463	-0.125
-389.048	800.000	-0.090	-0.270
-388.033	-21.295	-0.196	-0.119
-387.019	-77.205	0.358	0.124
-386.004	286.209	0.187	-0.336
-384.990	130.136	0.089	-0.113
-383.975	-192.040	0.325	-0.003
-382.960	-80.516	0.210	-0.070
-381.946	-200.000	0.033	-0.201
-380.931	800.000	-0.082	-0.268
-379.917	459.424	-0.188	-0.416
-378.902	208.599	0.017	-0.026
-377.888	-61.943	-0.201	0.084
-376.873	-65.193	-0.179	0.072
-375.858	418.802	-0.097	0.205
-374.844	-142.285	-0.139	0.014
-373.829	114.620	0.097	-0.117
-372.815	0.823	0.242	-0.172
-371.800	-200.000	0.030	0.220
-370.785	218.367	0.176	-0.279
-369.771	-200.000	0.032	-0.212
-368.756	-200.000	0.042	-0.235
-367.742	-123.027	0.243	0.039
-366.727	-200.000	0.044	0.391
-365.712	-151.222	0.311	-0.023
-364.698	197.206	0.095	-0.144
-363.683	-168.048	-0.268	-0.010
-362.669	303.465	-0.126	-0.232
-361.654	-21.991	-0.188	-0.114
-360.639	-200.000	-0.002	0.072
-359.625	800.000	-0.017	-0.064
-358.610	-121.849	0.241	-0.039
-357.596	-79.339	-0.064	-0.021
-356.581	270.999	-0.130	-0.227
-355.566	-98.579	-0.116	0.029
-354.552	5.130	-0.049	-0.036
-353.537	523.118	-0.148	0.346
-352.523	181.613	-0.155	0.226
-351.508	-58.417	0.120	-0.052
-350.493	193.137	-0.190	0.285
-349.479	37.997	0.126	-0.111
-348.464	-185.267	-0.059	-0.001
-347.450	-150.914	0.283	-0.021
-346.435	800.000	0.018	0.059
-345.420	-200.000	-0.002	0.166
-344.406	-7.262	0.201	-0.136
-343.391	-68.737	0.250	-0.096
-342.377	-23.539	0.066	0.039
-341.362	-200.000	0.081	0.500
-340.348	131.626	0.119	0.152
-339.333	27.783	0.256	0.214
-338.318	800.000	0.034	-0.110
-337.304	800.000	-0.027	-0.080
-336.289	-11.065	-0.165	0.108
-335.275	90.250	0.103	-0.115
-334.260	-142.512	0.101	-0.010
-333.245	-5.449	0.241	0.164
-332.231	-94.155	0.340	-0.093
-331.216	696.721	-0.077	-0.200
-330.202	-130.494	0.083	0.011
-329.187	-121.463	0.371	0.061
-328.172	19.244	0.119	0.095
-327.158	474.366	-0.060	-0.135
-326.143	-146.562	-0.302	0.026
-325.129	164.554	0.066	0.092
-324.114	-200.000	0.007	0.059
-323.099	800.000	0.108	0.339
-322.085	-163.335	0.100	0.005
-321.070	-1.649	-0.260	-0.182
-320.056	-123.815	0.254	0.040
-319.041	800.000	-0.016	0.044
-318.026	-21.444	0.252	-0.153
-317.012	-4.994	-0.272	0.186
-315.997	-144.590	-0.358	0.033
-314.983	-76.982	0.063	0.022
-313.968	677.283	-0.052	-0.133
-312.953	-152.520	-0.079	0.006
-311.939	478.216	0.098	0.220
-310.924	168.943	-0.153	0.216
-309.910	92.993	0.163	0.183
-308.895	163.841	-0.067	0.094
-307.880	16.889	0.389	-0.306
-306.866	-200.000	0.068	0.367
-305.851	-200.000	-0.030	-0.142
-304.837	-97.470	-0.108	0.028
-303.822	-200.000	-0.045	-0.212
-302.807	87.943	0.390	0.429
-301.793	-115.960	-0.127	0.023
-300.778	-110.062	0.127	-0.026
-299.764	-20.069	-0.311	0.190
-298.749	105.951	0.278	-0.326
-297.735	-128.077	-0.200	0.028
-296.720	-140.393	0.214	-0.022
-295.705	800.000	-0.070	0.234
-294.691	47.618	0.211	0.196
-293.676	7.354	0.100	-0.074
-292.662	-43.803	0.098	0.049
-291.647	-127.325	0.054	0.008
-290.632	792.302	0.151	0.413
-289.618	-124.905	0.165	-0.025
-288.603	-99.570	0.046	0.012
-287.589	-169.028	-0.253	-0.009
-286.574	-105.137	0.190	0.043
-285.559	-14.466	-0.165	-0.105
-284.545	2.914	0.151	-0.109
-283.530	-3.517	-0.091	0.062
-282.516	-184.124	0.171	0.003
-281.501	-72.079	-0.237	0.087
-280.486	-200.000	-0.006	-0.185
-279.472	8.977	0.057	0.043
-278.457	106.679	0.178	0.209
-277.443	632.038	0.031	0.077
-276.428	-88.184	-0.321	-0.095
-275.413	-200.000	-0.017	-0.182
-274.399	-88.546	0.148	0.044
-273.384	76.893	0.187	0.197
-272.370	-200.000	0.093	-0.000
-271.355	-54.167	0.176	0.079
-270.340	-200.000	-0.036	-0.275
-269.326	209.551	0.052	-0.080
-268.311	470.783	-0.092	0.205
-267.297	-117.855	-0.343	-0.061
-266.282	403.738	0.103	-0.215
-265.267	800.000	-0.054	0.156
-264.253	-200.000	-0.027	0.483
-263.238	800.000	-0.133	-0.412
-262.224	-1.872	0.132	-0.092
-261.209	-200.000	-0.009	-0.219
-260.195	-121.150	0.273	-0.045
-259.180	624.852	-0.096	0.240
-258.165	-69.310	0.093	-0.035
-257.151	800.000	-0.061	-0.173
-256.136	568.098	-0.172	-0.412
-255.122	-200.000	-0.001	0.404
-254.107	800.000	-0.043	-0.171
-253.092	-2.726	-0.287	0.198
-252.078	103.070	0.215	-0.250
-251.063	403.012	-0.115	-0.239
-250.049	800.000	0.096	0.358
-249.034	-200.000	0.017	0.251
-248.019	70.675	-0.234	0.239
-247.005	-91.635	0.363	-0.102
-245.990	-60.129	0.353	0.149
-244.976	-200.000	-0.008	0.117
-243.961	800.000	-0.056	-0.157
-242.946	67.941	0.040	0.041
-241.932	-46.704	0.024	0.012
-240.917	388.773	-0.064	0.131
-239.903	186.345	0.158	-0.232
-238.888	274.436	0.058	0.102
-237.873	-200.000	0.005	-0.196
-236.859	354.688	-0.030	-0.058
-235.844	92.057	-0.236	-0.263
-234.830	-200.000	0.065	-0.283
-233.815	-76.695	-0.123	-0.043
-232.800	-54.250	-0.248	-0.111
-231.786	-136.900	-0.145	-0.016
-230.771	800.000	-0.038	0.113
-229.757	69.512	0.185	0.189
-228.742	800.000	-0.109	0.304
-227.727	47.658	0.069	0.064
-226.713	-160.926	0.157	-0.008
-225.698	553.189	0.141	-0.334
-224.684	-122.474	0.126	-0.020
-223.669	-200.000	-0.038	-0.288
-222.655	629.999	-0.046	0.114
-221.640	-38.000	-0.139	-0.073
-220.625	-94.929	0.274	0.073
-219.611	57.044	-0.131	0.127
-218.596	-108.107	0.158	0.034
-217.582	-156.856	0.146	0.009
-216.567	171.728	0.142	-0.201
-215.552	-6.814	-0.163	0.109
-214.538	7.391	-0.168	-0.124
-213.523	42.846	-0.082	0.074
-212.509	-20.353	0.044	-0.027
-211.494	-2.800	0.074	-0.051
-210.479	-45.009	-0.249	-0.122
-209.465	388.174	-0.060	0.122
-208.450	132.250	-0.141	0.180
-207.436	-72.710	0.196	-0.071
-206.421	-200.000	-0.001	-0.192
-205.406	-200.000	-0.007	0.066
-204.392	283.530	0.110	-0.195
-203.377	800.000	-0.059	0.190
-202.363	800.000	0.071	-0.281
-201.348	-200.000	0.019	-0.394
-200.333	22.144	0.245	-0.198
-199.319	-200.000	-0.010	-0.069
-198.304	-57.999	0.412	-0.178
-197.290	-75.602	0.332	0.116
-196.275	-200.000	0.008	-0.113
-195.260	-7.770	-0.108	0.072
-194.246	-167.283	0.152	0.006
-193.231	-18.435	-0.144	-0.089
-192.217	800.000	0.050	0.195
-191.202	-200.000	-0.016	0.229
-190.187	-77.412	0.207	0.071
-189.173	800.000	-0.117	-0.485
-188.158	6.909	-0.074	-0.054
-187.144	-200.000	-0.029	0.192
-186.129	-3.301	-0.142	-0.098
-185.114	-200.000	0.005	0.369
-184.100	-29.351	0.164	-0.093
-183.085	-200.000	0.000	0.001
-182.071	-195.916	0.081	0.001
-181.056	-200.000	0.014	-0.288
-180.042	-124.611	-0.213	-0.033
-179.027	301.000	-0.045	0.082
-178.012	363.913	0.182	-0.362
-176.998	800.000	-0.100	-0.384
-175.983	-82.521	-0.173	0.055
-174.969	75.301	-0.065	-0.068
-173.954	69.132	-0.157	0.160
-172.939	800.000	0.046	0.145
-171.925	81.873	-0.115	0.123
-170.910	-200.000	0.051	0.227
-169.896	272.774	0.145	-0.253
-168.881	-85.214	-0.242	-0.074
-167.866	800.000	0.105	-0.325
-166.852	781.182	-0.049	0.132
-165.837	-64.819	0.334	0.134
-164.823	-118.053	-0.301	-0.053
-163.808	-200.000	0.309	-0.001
-162.793	240.268	0.070	-0.115
-161.779	800.000	-0.057	0.190
-160.764	-90.626	0.155	-0.044
-159.750	-200.000	-0.030	0.254
-158.735	527.705	-0.132	-0.306
-157.720	48.308	-0.162	-0.150
-156.706	49.028	0.091	0.084
-155.691	254.267	0.090	0.151
-154.677	-86.435	0.073	0.022
-153.662	-23.306	0.148	0.088
-152.647	800.000	-0.056	-0.188
-151.633	-39.220	-0.099	-0.051
-150.618	-35.000	0.320	0.172
-149.604	-96.116	0.212	-0.056
-148.589	-127.587	-0.443	-0.063
-147.574	55.477	-0.121	-0.115
-146.560	23.806	0.015	-0.012
-145.545	-200.000	0.008	-0.039
-144.531	-24.329	-0.185	-0.109
-143.516	46.403	-0.107	-0.098
-142.502	-125.798	-0.146	-0.022
-141.487	-14.299	-0.093	-0.059
-140.472	-120.628	-0.094	0.016
-139.458	-200.000	0.003	-0.022
-138.443	-100.063	-0.200	-0.049
-137.429	218.819	-0.104	0.163
-136.414	-125.112	0.315	0.048
-135.399	37.165	-0.115	-0.101
-134.385	46.554	-0.191	-0.174
-133.370	24.216	-0.237	0.193
-132.356	99.021	0.055	-0.062
-131.341	-200.000	0.003	-0.237
-130.326	-200.000	-0.010	-0.077
-129.312	800.000	-0.022	0.077
-128.297	-200.000	-0.015	0.118
-127.283	243.408	-0.169	-0.279
-126.268	81.146	0.114	0.121
-125.253	800.000	-0.097	0.321
-124.239	37.479	-0.053	0.046
-123.224	755.010	0.130	-0.347
-122.210	-20.874	-0.386	0.233
