DTS Sentinel unit serial number:	SN413079Multiplexer serial number:	ORYXHardware model number:	OX4-SRSoftware version number:	ORYX F/W v4.00 Oryx Data Collector v3.7.2.0data status	okinstallation	princeton_trtdifferential loss correction	single-endedforward channel	channel 1reverse channel	N/Adate	2019/09/15time	10:02:35forward acquisition time	60.00reverse acquisition time	0.00gamma	496.2192k internal	0.2309k external	0.2309temperature offset calibration	0.9986default loss term (dB/km)	0.3790temperature slope calibration	1.0000multiplexer offset coefficient	1.0000multiplexer slope coefficient	1.0000fibre end	0.00T internal ref (°C)	34.16T ext. ref 1 (°C)	4.99T ext. ref 2 (°C)	30.04length (m)	temperature (°C)	Stokes	anti-Stokes-747.200	-88.575	0.087	-0.026
-746.185	-65.932	-0.220	0.089
-745.171	-141.234	0.186	0.019
-744.156	-162.826	0.186	-0.009
-743.142	-161.354	0.386	0.020
-742.127	-60.923	-0.236	0.101
-741.112	-105.779	0.509	-0.117
-740.098	63.823	-0.077	-0.079
-739.083	-200.000	0.000	0.180
-738.069	528.234	0.252	0.604
-737.054	-74.686	0.058	0.021
-736.039	-56.129	-0.123	-0.056
-735.025	386.041	0.214	0.449
-734.010	-146.465	-0.343	0.030
-732.996	-200.000	-0.022	0.292
-731.981	145.248	-0.047	0.064
-730.966	-41.192	-0.063	0.033
-729.952	-107.092	-0.066	-0.015
-728.937	-200.000	-0.008	0.236
-727.923	-46.410	0.134	-0.067
-726.908	-149.937	-0.321	0.025
-725.894	-36.341	-0.188	0.103
-724.879	-111.751	-0.273	0.056
-723.864	178.235	-0.217	-0.321
-722.850	-200.000	-0.037	-0.261
-721.835	-112.055	0.333	-0.068
-720.821	-80.760	0.390	0.132
-719.806	-143.527	0.340	0.033
-718.791	302.918	0.078	0.146
-717.777	295.330	0.102	0.189
-716.762	247.282	0.142	0.244
-715.748	33.860	-0.137	0.121
-714.733	-192.566	0.073	0.001
-713.718	22.572	-0.218	0.181
-712.704	12.156	0.334	-0.261
-711.689	-139.719	-0.117	-0.013
-710.675	-200.000	-0.016	-0.229
-709.660	-82.547	-0.161	-0.053
-708.645	-17.452	0.262	0.167
-707.631	-9.692	0.267	0.181
-706.616	69.621	0.080	-0.084
-705.602	182.257	0.043	-0.064
-704.587	-144.816	-0.297	-0.028
-703.572	101.377	0.067	0.079
-702.558	-49.459	-0.123	-0.060
-701.543	97.425	-0.123	-0.143
-700.529	69.353	-0.189	0.197
-699.514	-200.000	0.012	-0.276
-698.499	800.000	-0.031	0.104
-697.485	800.000	0.060	0.208
-696.470	57.228	0.290	-0.287
-695.456	-90.667	0.161	-0.047
-694.441	81.318	-0.114	0.125
-693.426	658.762	0.029	-0.076
-692.412	-163.724	-0.248	0.012
-691.397	175.198	-0.054	-0.079
-690.383	33.164	-0.176	0.155
-689.368	81.394	0.224	-0.245
-688.354	291.533	-0.132	-0.243
-687.339	-109.138	-0.246	-0.053
-686.324	-116.778	0.293	0.054
-685.310	-87.348	0.073	-0.022
-684.295	-200.000	-0.001	0.054
-683.281	31.609	-0.218	-0.190
-682.266	-132.837	0.399	0.052
-681.251	-71.249	0.515	-0.196
-680.237	120.758	-0.347	-0.437
-679.222	599.697	-0.066	0.166
-678.208	-61.363	-0.217	-0.093
-677.193	40.637	-0.196	0.179
-676.178	-36.536	0.242	0.132
-675.164	800.000	0.075	-0.308
-674.149	269.711	0.032	0.056
-673.135	533.244	0.121	0.289
-672.120	-200.000	-0.004	-0.170
-671.105	-81.218	0.239	0.080
-670.091	-2.633	0.139	-0.099
-669.076	-116.936	0.313	-0.058
-668.062	-200.000	-0.036	-0.381
-667.047	-76.479	-0.256	-0.091
-666.032	-103.714	-0.229	0.054
-665.018	-162.204	0.299	-0.015
-664.003	48.053	-0.154	0.146
-662.989	14.466	-0.123	0.098
-661.974	-12.596	-0.177	-0.117
-660.959	800.000	-0.039	-0.170
-659.945	179.497	0.042	-0.063
-658.930	620.651	-0.073	-0.186
-657.916	-86.693	-0.199	-0.062
-656.901	-200.000	0.027	0.148
-655.886	800.000	0.081	0.248
-654.872	-70.341	-0.326	-0.125
-653.857	39.491	-0.055	0.050
-652.843	-10.707	-0.316	-0.212
-651.828	-200.000	-0.037	0.244
-650.814	800.000	-0.033	0.120
-649.799	46.321	-0.191	0.179
-648.784	95.732	0.084	0.097
-647.770	-200.000	-0.070	-0.393
-646.755	-200.000	0.051	0.228
-645.741	-10.770	0.166	0.111
-644.726	-104.619	-0.212	-0.049
-643.711	800.000	0.033	-0.138
-642.697	-200.000	-0.009	-0.074
-641.682	196.460	0.109	0.168
-640.668	167.191	-0.212	0.305
-639.653	-92.403	-0.274	0.078
-638.638	109.794	0.107	0.130
-637.624	-39.674	0.141	-0.075
-636.609	323.965	-0.057	0.111
-635.595	-88.387	-0.075	-0.023
-634.580	496.020	-0.052	0.121
-633.565	-117.633	-0.203	0.037
-632.551	800.000	0.025	0.081
-631.536	-101.751	-0.299	-0.073
-630.522	215.998	0.085	-0.136
-629.507	-200.000	0.032	0.220
-628.492	131.968	-0.102	-0.133
-627.478	-99.898	-0.061	0.016
-626.463	-138.940	0.111	-0.012
-625.449	-120.952	0.221	-0.038
-624.434	14.855	0.297	-0.235
-623.419	-159.877	-0.269	0.015
-622.405	446.198	-0.053	-0.118
-621.390	800.000	0.082	0.279
-620.376	4.647	0.125	-0.093
-619.361	-200.000	-0.000	-0.122
-618.346	318.134	0.199	0.381
-617.332	25.356	0.212	0.178
-616.317	-128.124	-0.335	-0.049
-615.303	127.421	-0.174	-0.224
-614.288	800.000	-0.058	-0.208
-613.273	800.000	0.022	-0.061
-612.259	217.776	-0.101	0.162
-611.244	800.000	-0.030	0.088
-610.230	-121.851	0.208	-0.035
-609.215	-159.574	0.126	0.007
-608.201	-101.263	0.310	0.077
-607.186	-145.789	0.103	-0.009
-606.171	224.577	-0.241	-0.393
-605.157	-126.010	0.147	0.022
-604.142	48.389	-0.111	0.105
-603.128	-77.684	0.240	0.084
-602.113	0.815	-0.208	-0.151
-601.098	-128.505	-0.162	-0.023
-600.084	-89.306	0.188	0.056
-599.069	121.635	-0.133	-0.167
-598.055	-7.381	0.136	-0.093
-597.040	213.485	-0.181	-0.289
-596.025	1.182	-0.025	0.018
-595.011	-167.002	-0.117	0.005
-593.996	-55.542	0.339	0.153
-592.982	17.108	-0.291	-0.233
-591.967	89.185	-0.203	-0.228
-590.952	110.203	0.107	0.130
-589.938	38.313	-0.169	0.152
-588.923	656.841	0.035	-0.092
-587.909	82.479	0.148	0.163
-586.894	348.387	0.126	-0.250
-585.879	420.681	-0.053	-0.115
-584.865	-200.000	-0.024	-0.133
-583.850	-34.010	0.099	0.055
-582.836	-57.644	-0.234	-0.103
-581.821	-200.000	-0.034	0.302
-580.806	-200.000	-0.026	-0.136
-579.792	172.294	0.060	-0.087
-578.777	-104.465	-0.319	0.074
-577.763	88.030	-0.069	-0.078
-576.748	501.202	0.323	-0.754
-575.733	-88.530	0.352	0.106
-574.719	522.239	0.051	0.122
-573.704	-89.510	0.101	0.030
-572.690	-174.900	-0.347	-0.010
-571.675	634.244	0.143	-0.365
-570.661	800.000	0.019	-0.067
-569.646	-155.266	-0.174	0.011
-568.631	-200.000	-0.037	-0.245
-567.617	-200.000	-0.024	-0.220
-566.602	498.437	0.053	-0.123
-565.588	-35.343	0.253	-0.139
-564.573	-107.683	0.355	0.078
-563.558	-200.000	0.015	-0.202
-562.544	81.001	-0.159	-0.173
-561.529	-20.799	-0.179	0.111
-560.515	-200.000	-0.011	0.077
-559.500	800.000	-0.034	0.133
-558.485	-7.039	0.187	-0.128
-557.471	-152.194	-0.238	-0.017
-556.456	-104.016	-0.118	0.028
-555.442	-109.709	-0.280	-0.060
-554.427	-63.245	0.158	-0.066
-553.412	0.420	-0.171	0.123
-552.398	513.078	0.089	-0.209
-551.383	439.845	0.060	-0.133
-550.369	-105.023	0.154	-0.036
-549.354	-33.679	0.166	0.092
-548.339	-200.000	0.000	-0.183
-547.325	-126.581	-0.148	0.022
-546.310	6.955	-0.089	-0.067
-545.296	730.461	0.045	-0.120
-544.281	140.461	-0.046	-0.062
-543.266	-200.000	-0.026	-0.155
-542.252	400.713	0.089	-0.187
-541.237	-91.657	-0.231	0.066
-540.223	10.208	-0.057	0.044
-539.208	-12.244	0.306	0.201
-538.193	-200.000	-0.020	0.211
-537.179	-75.014	0.215	0.078
-536.164	403.916	0.130	0.276
-535.150	-114.430	-0.028	0.005
-534.135	432.976	-0.073	0.159
-533.121	183.806	0.190	0.283
-532.106	-200.000	0.009	-0.184
-531.091	-125.120	0.191	0.030
-530.077	479.229	-0.081	-0.185
-529.062	76.508	-0.145	0.155
-528.048	215.595	-0.204	-0.326
-527.033	-167.956	-0.195	0.008
-526.018	-92.046	0.102	-0.029
-525.004	373.298	-0.234	-0.480
-523.989	-81.158	0.098	-0.033
-522.975	5.823	-0.188	0.140
-521.960	-200.000	0.016	0.236
-520.945	-200.000	0.005	-0.141
-519.931	107.424	-0.176	-0.210
-518.916	-88.076	-0.230	0.069
-517.902	-200.000	0.017	-0.129
-516.887	-49.857	0.303	-0.145
-515.872	272.325	0.014	-0.025
-514.858	-54.629	-0.319	0.145
-513.843	800.000	0.007	0.030
-512.829	424.782	0.138	-0.298
-511.814	398.993	0.120	0.254
-510.799	-200.000	-0.008	-0.049
-509.785	230.126	-0.088	-0.145
-508.770	34.619	0.168	-0.148
-507.756	370.696	0.082	-0.168
-506.741	372.298	0.076	-0.155
-505.726	-65.515	0.220	-0.089
-504.712	-88.679	-0.393	-0.118
-503.697	364.191	0.036	0.072
-502.683	-200.000	0.009	0.172
-501.668	129.888	-0.121	-0.156
-500.653	-26.689	0.107	-0.063
-499.639	10.200	-0.108	0.082
-498.624	-200.000	0.004	-0.347
-497.610	800.000	-0.081	-0.238
-496.595	-48.415	-0.347	-0.168
-495.581	-150.834	-0.170	0.013
-494.566	137.999	-0.052	0.069
-493.551	-200.000	-0.029	0.145
-492.537	-6.374	0.160	0.110
-491.522	-79.171	0.074	-0.025
-490.508	-14.131	0.315	0.204
-489.493	435.644	-0.005	0.011
-488.478	307.663	0.106	0.198
-487.464	-51.570	0.335	-0.157
-486.449	-19.947	0.097	-0.060
-485.435	321.692	-0.161	0.307
-484.420	-88.904	0.173	0.052
-483.405	-124.222	-0.193	-0.030
-482.391	-200.000	0.027	0.244
-481.376	178.839	0.124	0.182
-480.362	800.000	-0.117	-0.349
-479.347	-59.594	-0.135	-0.058
-478.332	141.430	-0.167	-0.222
-477.318	-200.000	0.042	0.235
-476.303	800.000	0.047	-0.157
-475.289	-32.530	-0.258	-0.145
-474.274	163.855	0.173	0.245
-473.259	800.000	-0.011	0.040
-472.245	-80.907	-0.388	-0.129
-471.230	50.560	-0.205	-0.195
-470.216	-200.000	0.082	0.422
-469.201	-200.000	-0.005	0.071
-468.186	51.349	0.217	0.207
-467.172	95.855	-0.070	0.080
-466.157	376.520	0.059	0.121
-465.143	-200.000	0.001	-0.073
-464.128	-200.000	-0.050	-0.283
-463.113	-200.000	-0.008	0.157
-462.099	-116.991	0.262	0.048
-461.084	-200.000	-0.039	-0.229
-460.070	800.000	0.017	-0.055
-459.055	-123.755	0.060	0.010
-458.040	-58.304	0.114	-0.050
-457.026	-148.150	-0.171	0.014
-456.011	-78.514	-0.236	0.081
-454.997	-43.650	-0.253	0.128
-453.982	-149.225	-0.129	0.010
-452.968	335.945	-0.074	0.144
-451.953	-140.858	-0.093	0.010
-450.938	497.846	0.127	0.293
-449.924	-38.448	0.075	-0.040
-448.909	135.852	-0.186	0.244
-447.895	-78.915	0.252	0.086
-446.880	38.398	0.110	0.099
-445.865	66.693	0.165	0.169
-444.851	-200.000	0.014	0.223
-443.836	54.283	-0.224	0.217
-442.822	352.378	-0.024	0.047
-441.807	800.000	0.055	-0.170
-440.792	-115.908	0.156	-0.029
-439.778	-33.652	0.251	-0.139
-438.763	-200.000	0.047	0.247
-437.749	-136.781	-0.164	-0.019
-436.734	-200.000	0.166	0.000
-435.719	-141.998	-0.210	0.021
-434.705	-104.274	0.306	0.071
-433.690	-142.743	0.031	-0.003
-432.676	-200.000	0.017	0.151
-431.661	116.178	-0.162	-0.199
-430.646	408.180	0.084	-0.179
-429.632	-8.367	0.055	0.037
-428.617	53.728	0.039	-0.037
-427.603	-200.000	0.025	-0.222
-426.588	800.000	0.052	-0.222
-425.573	-51.117	0.356	0.168
-424.559	-117.423	-0.233	0.042
-423.544	-200.000	0.023	-0.228
-422.530	-6.510	0.152	0.104
-421.515	-129.269	0.147	-0.020
-420.500	-34.592	-0.277	-0.152
-419.486	-29.772	0.146	-0.083
-418.471	113.303	-0.133	-0.162
-417.457	35.679	-0.239	-0.211
-416.442	-200.000	-0.007	0.197
-415.428	110.637	-0.094	0.113
-414.413	101.571	0.211	0.246
-413.398	38.295	-0.231	0.207
-412.384	541.533	-0.086	-0.206
-411.369	43.870	0.078	0.072
-410.355	-69.061	0.049	0.019
-409.340	-75.498	-0.398	0.142
-408.325	-120.829	0.417	0.070
-407.311	153.872	-0.076	0.105
-406.296	-200.000	-0.048	-0.269
-405.282	112.406	0.127	0.154
-404.267	-21.296	-0.207	0.127
-403.252	-47.847	0.100	-0.048
-402.238	270.585	0.045	0.080
-401.223	-100.223	-0.341	-0.085
-400.209	-200.000	-0.028	0.226
-399.194	-200.000	-0.009	0.172
-398.179	388.479	-0.080	-0.166
-397.165	-44.301	0.150	-0.075
-396.150	92.330	0.128	0.144
-395.136	25.676	-0.361	0.301
-394.121	800.000	-0.015	0.055
-393.106	-79.246	0.283	-0.096
-392.092	78.574	0.319	0.341
-391.077	-46.884	0.025	-0.012
-390.063	800.000	0.022	0.086
-389.048	6.473	-0.036	0.027
-388.033	654.520	0.153	-0.394
-387.019	-200.000	0.067	0.297
-386.004	-132.239	-0.171	-0.022
-384.990	-200.000	-0.006	-0.465
-383.975	-200.000	-0.034	-0.157
-382.960	-74.874	0.182	0.066
-381.946	-200.000	-0.014	-0.271
-380.931	58.397	0.177	0.174
-379.917	33.942	-0.144	0.126
-378.902	800.000	0.072	0.228
-377.888	-69.210	0.046	-0.018
-376.873	800.000	0.034	0.114
-375.858	130.540	-0.205	-0.263
-374.844	157.523	0.321	-0.445
-373.829	-200.000	0.012	0.224
-372.815	-16.162	0.057	-0.036
-371.800	-187.907	-0.407	0.005
-370.785	-200.000	-0.024	-0.177
-369.771	-200.000	-0.040	0.210
-368.756	526.283	0.115	0.271
-367.742	515.471	0.009	-0.020
-366.727	800.000	0.030	-0.119
-365.712	274.123	0.299	0.530
-364.698	29.958	-0.157	0.134
-363.683	-200.000	-0.016	0.245
-362.669	-200.000	-0.165	-0.000
-361.654	290.474	0.123	-0.223
-360.639	-70.542	-0.218	0.083
-359.625	109.409	0.166	0.199
-358.610	-68.889	0.103	-0.040
-357.596	-66.149	0.192	-0.076
-356.581	-60.992	0.229	-0.097
-355.566	-200.000	-0.062	-0.401
-354.552	130.534	-0.083	-0.107
-353.537	-161.084	-0.180	-0.009
-352.523	173.561	-0.133	0.192
-351.508	56.805	-0.165	0.160
-350.493	-10.404	0.213	-0.141
-349.479	60.041	-0.292	0.289
-348.464	-22.815	-0.276	-0.166
-347.450	-134.949	-0.359	-0.043
-346.435	178.085	-0.172	0.251
-345.420	-13.235	0.135	0.088
-344.406	-200.000	0.030	-0.189
-343.391	229.578	0.154	-0.252
-342.377	-38.671	-0.026	-0.014
-341.362	559.964	0.109	-0.264
-340.348	15.380	0.182	-0.143
-339.333	-29.574	0.201	0.115
-338.318	239.996	-0.125	0.208
-337.304	391.700	-0.078	0.162
-336.289	596.069	-0.120	0.298
-335.275	236.020	0.079	0.130
-334.260	380.897	0.224	-0.460
-333.245	-151.160	0.385	-0.029
-332.231	-19.667	-0.078	-0.048
-331.216	702.946	0.113	0.297
-330.202	218.267	0.041	-0.066
-329.187	-147.517	-0.460	-0.039
-328.172	144.416	-0.094	0.126
-327.158	-58.440	0.048	-0.021
-326.143	-68.394	0.339	0.131
-325.129	79.929	-0.189	0.203
-324.114	-43.255	-0.230	-0.116
-323.099	-6.366	0.225	0.153
-322.085	-81.039	0.393	0.130
-321.070	450.634	-0.128	-0.283
-320.056	-105.072	0.205	-0.047
-319.041	-51.857	0.030	-0.014
-318.026	49.726	-0.016	-0.015
-317.012	105.105	0.151	0.179
-315.997	370.845	0.163	0.331
-314.983	24.343	-0.051	0.042
-313.968	-21.751	-0.233	-0.142
-312.953	244.298	0.173	0.290
-311.939	180.477	-0.096	0.141
-310.924	800.000	0.095	0.305
-309.910	335.484	-0.049	0.094
-308.895	113.108	-0.088	-0.107
-307.880	153.335	0.272	0.372
-306.866	28.533	0.036	-0.030
-305.851	-200.000	-0.008	-0.106
-304.837	800.000	0.041	0.155
-303.822	180.604	-0.107	0.157
-302.807	742.774	0.071	0.191
-301.793	348.496	-0.070	-0.138
-300.778	-71.313	0.194	-0.073
-299.764	-78.550	-0.432	0.147
-298.749	-51.388	0.097	0.045
-297.735	165.713	-0.028	-0.040
-296.720	421.089	-0.027	0.058
-295.705	-167.883	0.212	-0.008
-294.691	96.246	0.138	-0.157
-293.676	339.214	0.185	-0.359
-292.662	75.132	0.235	-0.247
-291.647	-127.387	-0.306	0.044
-290.632	214.806	0.064	-0.102
-289.618	-124.333	0.329	-0.051
-288.603	-3.096	-0.120	0.083
-287.589	66.372	0.256	0.260
-286.574	425.767	0.165	0.355
-285.559	-21.578	-0.228	0.139
-284.545	-200.000	0.008	0.099
-283.530	168.532	-0.097	-0.138
-282.516	-200.000	-0.020	0.114
-281.501	240.185	-0.116	-0.193
-280.486	21.581	0.092	0.075
-279.472	-91.119	0.263	-0.075
-278.457	17.661	0.068	-0.054
-277.443	-200.000	-0.003	-0.214
-276.428	487.239	0.051	0.116
-275.413	-188.288	-0.084	-0.001
-274.399	394.463	-0.100	-0.209
-273.384	-85.761	0.292	-0.090
-272.370	800.000	-0.052	-0.142
-271.355	37.663	0.152	-0.135
-270.340	-36.274	-0.163	0.088
-269.326	24.095	-0.162	0.134
-268.311	75.570	0.091	-0.096
-267.297	-109.654	0.167	0.035
-266.282	-137.618	-0.294	-0.033
-265.267	23.582	-0.112	-0.092
-264.253	-121.613	0.017	0.003
-263.238	-200.000	-0.052	-0.300
-262.224	347.450	-0.126	-0.248
-261.209	221.706	-0.141	-0.226
-260.195	406.425	0.213	-0.449
-259.180	245.855	-0.160	-0.269
-258.165	123.468	0.159	-0.199
-257.151	202.953	0.051	0.078
-256.136	-128.580	-0.227	-0.032
-255.122	-200.000	-0.009	0.433
-254.107	54.076	-0.066	0.063
-253.092	-82.614	-0.170	0.055
-252.078	-54.554	-0.060	0.027
-251.063	11.528	-0.136	0.104
-250.049	-101.982	0.208	0.050
-249.034	-182.545	-0.464	-0.008
-248.019	-70.530	-0.229	-0.086
-247.005	-55.066	-0.274	0.123
-245.990	-191.146	0.226	0.002
-244.976	194.987	-0.080	-0.120
-243.961	-101.357	0.341	-0.083
-242.946	-200.000	0.025	0.154
-241.932	-146.202	0.146	-0.013
-240.917	464.183	-0.085	0.190
-239.903	21.850	-0.150	-0.121
-238.888	45.770	-0.025	-0.023
-237.873	-200.000	-0.008	-0.243
-236.859	-200.000	0.017	0.327
-235.844	230.967	-0.163	0.266
-234.830	0.358	-0.303	0.215
-233.815	141.786	-0.147	-0.194
-232.800	-200.000	0.031	0.222
-231.786	-200.000	-0.011	0.153
-230.771	-63.255	0.330	-0.135
-229.757	-43.542	0.272	0.137
-228.742	618.278	0.037	0.092
-227.727	-2.440	0.094	0.066
-226.713	14.452	0.098	-0.076
-225.698	-200.000	-0.038	0.238
-224.684	-200.000	0.031	-0.188
-223.669	153.695	-0.245	0.334
-222.655	-200.000	0.025	0.220
-221.640	-200.000	0.015	0.152
-220.625	-183.142	0.263	-0.005
-219.611	800.000	-0.043	0.142
-218.596	21.412	0.057	0.046
-217.582	800.000	-0.011	0.048
-216.567	-15.426	-0.153	-0.097
-215.552	-91.782	0.029	0.008
-214.538	800.000	-0.052	-0.206
-213.523	800.000	0.106	0.434
-212.509	-17.625	0.253	0.158
-211.494	55.862	0.184	-0.177
-210.479	28.920	-0.103	0.087
-209.465	-31.524	0.240	-0.134
-208.450	620.841	-0.087	-0.217
-207.436	103.249	-0.176	-0.205
-206.421	30.717	0.057	0.048
-205.406	265.788	0.138	-0.239
-204.392	117.349	-0.072	-0.088
-203.377	-91.578	0.087	-0.025
-202.363	-145.947	0.448	-0.039
-201.348	-200.000	-0.027	0.434
-200.333	-200.000	-0.010	0.096
-199.319	21.070	-0.311	0.251
-198.304	350.506	0.192	-0.377
-197.290	13.640	-0.198	-0.153
-196.275	-73.214	-0.081	0.029
-195.260	-59.950	0.173	-0.074
-194.246	92.326	-0.139	-0.155
-193.231	-88.013	0.249	0.074
-192.217	-74.237	0.149	-0.053
-191.202	-8.011	-0.303	0.203
-190.187	23.047	-0.088	-0.072
-189.173	764.583	-0.057	-0.155
-188.158	-200.000	0.035	-0.216
-187.144	-48.555	-0.398	-0.190
-186.129	289.339	0.071	-0.128
-185.114	800.000	0.069	-0.263
-184.100	800.000	0.012	-0.034
-183.085	240.047	0.108	-0.180
-182.071	-200.000	-0.026	0.158
-181.056	-131.984	-0.265	-0.034
-180.042	22.816	-0.220	0.179
-179.027	800.000	-0.030	0.122
-178.012	53.856	0.127	0.121
-176.998	306.760	0.179	0.331
-175.983	48.956	0.143	0.134
-174.969	-155.542	-0.327	-0.021
-173.954	-127.285	-0.164	-0.024
-172.939	-74.978	0.213	-0.076
-171.925	88.526	-0.121	-0.134
-170.910	-54.946	-0.142	0.064
-169.896	72.761	0.178	-0.185
-168.881	-200.000	0.056	-0.260
-167.866	-200.000	0.021	-0.182
-166.852	-200.000	0.008	-0.361
-165.837	-200.000	-0.007	0.168
-164.823	-51.236	0.224	0.104
-163.808	26.483	-0.090	-0.074
-162.793	-28.149	-0.256	-0.147
-161.779	800.000	-0.061	0.230
-160.764	-14.175	0.163	0.105
-159.750	22.932	-0.027	0.022
-158.735	-56.417	0.125	0.055
-157.720	-110.009	-0.189	-0.039
-156.706	-76.838	0.071	-0.025
-155.691	-200.000	0.020	-0.112
-154.677	-200.000	0.002	0.022
-153.662	128.575	-0.192	0.243
-152.647	189.065	0.236	0.351
-151.633	-29.944	-0.078	0.044
-150.618	416.791	0.078	-0.166
-149.604	138.200	0.199	-0.260
-148.589	-102.474	-0.112	0.027
-147.574	115.969	0.275	-0.334
-146.560	800.000	0.060	0.168
-145.545	410.386	0.099	-0.209
-144.531	115.912	-0.147	-0.178
-143.516	-106.594	0.085	-0.019
-142.502	657.313	-0.061	-0.157
-141.487	-0.089	0.136	0.096
-140.472	800.000	-0.007	-0.030
-139.458	-36.662	-0.390	-0.208
-138.443	39.934	-0.254	-0.227
-137.429	570.940	-0.104	-0.251
-136.414	53.694	-0.102	-0.097
-135.399	-64.535	0.221	-0.089
-134.385	-166.657	-0.053	0.002
-133.370	363.930	0.071	0.141
-132.356	800.000	-0.019	-0.058
-131.341	-95.700	0.089	0.024
-130.326	-163.112	0.150	-0.007
-129.312	51.332	-0.261	0.246
-128.297	51.180	-0.153	-0.144
-127.283	86.868	-0.311	0.341
-126.268	177.071	0.037	0.054
-125.253	-134.467	-0.292	0.035
-124.239	48.359	-0.131	0.122
-123.224	800.000	-0.073	0.231
-122.210	-200.000	0.020	0.117
-121.195	-16.579	-0.022	-0.014
