DTS Sentinel unit serial number:	SN413079Multiplexer serial number:	ORYXHardware model number:	OX4-SRSoftware version number:	ORYX F/W v4.00 Oryx Data Collector v3.7.2.0data status	okinstallation	princeton_trtdifferential loss correction	single-endedforward channel	channel 1reverse channel	N/Adate	2019/09/11time	12:04:12forward acquisition time	60.00reverse acquisition time	0.00gamma	496.2192k internal	0.2291k external	0.2291temperature offset calibration	0.9943default loss term (dB/km)	0.3790temperature slope calibration	1.0000multiplexer offset coefficient	1.0000multiplexer slope coefficient	1.0000fibre end	0.00T internal ref (°C)	39.44T ext. ref 1 (°C)	0.20T ext. ref 2 (°C)	37.53length (m)	temperature (°C)	Stokes	anti-Stokes-747.200	-46.023	0.173	-0.087
-746.185	347.994	-0.122	0.247
-745.171	381.858	0.074	-0.156
-744.156	-113.062	-0.526	0.106
-743.142	136.170	-0.043	0.058
-742.127	800.000	0.020	0.074
-741.112	-23.628	0.414	-0.254
-740.098	-200.000	0.012	0.101
-739.083	119.241	0.227	0.288
-738.069	-67.163	0.259	0.104
-737.054	-105.983	-0.309	-0.071
-736.039	-127.436	-0.279	0.042
-735.025	-68.737	-0.133	0.053
-734.010	242.803	0.218	-0.373
-732.996	13.739	-0.503	-0.400
-731.981	117.733	0.073	-0.092
-730.966	744.338	-0.082	0.225
-729.952	-130.336	0.111	-0.015
-728.937	800.000	-0.096	-0.279
-727.923	-106.743	-0.133	-0.030
-726.908	459.961	-0.057	-0.130
-725.894	800.000	0.037	-0.156
-724.879	500.002	-0.164	0.386
-723.864	173.259	-0.157	0.232
-722.850	-116.010	0.108	-0.021
-721.835	-15.712	-0.223	0.146
-720.821	106.683	-0.078	0.094
-719.806	541.511	0.052	-0.127
-718.791	237.586	-0.124	-0.210
-717.777	-20.243	-0.079	0.050
-716.762	-106.590	0.242	0.055
-715.748	-95.228	-0.414	0.114
-714.733	-200.000	0.013	0.400
-713.718	3.414	-0.165	0.123
-712.704	-200.000	0.128	-0.000
-711.689	-200.000	-0.014	-0.064
-710.675	-94.691	-0.456	-0.127
-709.660	241.883	0.201	-0.343
-708.645	-57.665	-0.095	0.043
-707.631	800.000	-0.029	0.124
-706.616	-200.000	0.001	-0.185
-705.602	-190.425	0.238	0.003
-704.587	-41.403	-0.358	0.188
-703.572	-111.414	-0.208	0.043
-702.558	303.427	-0.120	-0.228
-701.543	50.891	0.263	-0.255
-700.529	-147.697	-0.133	-0.011
-699.514	-58.272	-0.162	-0.072
-698.499	800.000	-0.018	-0.066
-697.485	-200.000	0.001	-0.166
-696.470	-73.241	-0.127	0.048
-695.456	-19.538	-0.042	-0.026
-694.441	-126.780	-0.144	-0.022
-693.426	46.727	-0.145	-0.138
-692.412	-169.190	0.501	-0.019
-691.397	-50.992	-0.246	-0.118
-690.383	-52.688	-0.033	-0.015
-689.368	596.191	-0.102	-0.258
-688.354	-5.229	-0.212	-0.149
-687.339	-79.771	-0.413	0.142
-686.324	197.775	-0.059	0.092
-685.310	-20.409	0.181	0.114
-684.295	63.661	0.055	0.056
-683.281	-200.000	-0.033	0.321
-682.266	-200.000	-0.041	-0.232
-681.251	-200.000	0.020	-0.245
-680.237	-200.000	0.005	0.152
-679.222	-170.856	-0.247	-0.009
-678.208	52.460	-0.150	-0.146
-677.193	7.074	-0.189	0.144
-676.178	72.063	0.052	-0.056
-675.164	-68.702	0.178	0.070
-674.149	-130.316	-0.383	-0.053
-673.135	248.173	-0.107	0.184
-672.120	800.000	0.048	0.154
-671.105	33.753	0.223	0.198
-670.091	-200.000	0.019	-0.119
-669.076	-108.637	0.230	-0.050
-668.062	-29.339	0.356	-0.208
-667.047	18.768	0.121	0.099
-666.032	-117.691	-0.179	-0.033
-665.018	800.000	0.014	-0.042
-664.003	17.298	-0.089	-0.072
-662.989	37.971	0.082	0.074
-661.974	-91.602	0.242	0.070
-660.959	-126.545	0.172	-0.026
-659.945	-36.151	-0.286	-0.158
-658.930	-108.375	-0.140	-0.031
-657.916	-200.000	0.036	-0.249
-656.901	-113.574	-0.234	-0.047
-655.886	-200.000	0.039	-0.207
-654.872	398.989	0.124	0.264
-653.857	-27.813	0.265	0.157
-652.843	159.450	0.088	0.125
-651.828	-30.012	-0.284	-0.165
-650.814	-200.000	0.008	0.082
-649.799	-126.404	-0.433	0.066
-648.784	436.680	-0.033	0.073
-647.770	226.997	0.108	0.179
-646.755	-71.501	-0.182	0.070
-645.741	-63.860	0.443	-0.185
-644.726	-200.000	-0.019	-0.510
-643.711	149.963	-0.162	0.223
-642.697	800.000	-0.076	0.230
-641.682	-82.256	0.125	0.042
-640.668	-108.773	0.373	-0.081
-639.653	137.684	-0.118	-0.158
-638.638	150.119	0.076	-0.105
-637.624	-125.595	0.188	0.029
-636.609	311.178	0.080	0.153
-635.595	56.518	-0.284	0.281
-634.580	127.062	-0.270	-0.349
-633.565	-200.000	-0.013	-0.214
-632.551	36.845	-0.038	0.034
-631.536	-200.000	-0.095	-0.439
-630.522	163.516	-0.087	0.125
-629.507	439.753	-0.034	0.075
-628.492	65.211	-0.136	0.141
-627.478	-200.000	0.009	-0.415
-626.463	81.825	-0.095	-0.105
-625.449	-137.451	-0.431	0.050
-624.434	-45.773	-0.204	0.103
-623.419	489.775	-0.198	0.462
-622.405	-19.758	-0.107	-0.067
-621.390	63.538	0.113	-0.116
-620.376	-200.000	0.060	-0.310
-619.361	188.419	-0.154	-0.235
-618.346	699.574	-0.054	0.146
-617.332	431.995	-0.208	0.460
-616.317	-38.565	-0.105	-0.057
-615.303	236.817	0.077	-0.129
-614.288	210.158	-0.119	0.191
-613.273	-43.575	-0.343	-0.176
-612.259	-42.830	0.189	0.098
-611.244	16.050	0.036	0.029
-610.230	-158.104	0.039	0.002
-609.215	-200.000	0.024	-0.362
-608.201	-200.000	0.037	-0.203
-607.186	-94.865	0.273	0.075
-606.171	-188.094	-0.377	-0.005
-605.157	-200.000	0.026	-0.342
-604.142	-22.069	-0.220	0.136
-603.128	-75.587	-0.246	0.089
-602.113	110.527	0.145	-0.177
-601.098	5.910	0.381	0.287
-600.084	-20.728	-0.177	0.111
-599.069	-30.125	-0.061	0.035
-598.055	364.580	-0.041	-0.083
-597.040	40.743	-0.158	-0.145
-596.025	83.215	-0.123	0.137
-595.011	302.530	-0.155	0.292
-593.996	32.776	0.138	-0.122
-592.982	-78.532	-0.126	0.044
-591.967	20.264	-0.456	-0.375
-590.952	-121.253	-0.314	0.053
-589.938	67.241	-0.090	0.093
-588.923	390.545	0.069	-0.145
-587.909	-103.512	0.032	-0.008
-586.894	-103.125	-0.205	0.049
-585.879	-200.000	0.009	0.079
-584.865	-84.138	-0.088	-0.028
-583.850	88.556	-0.176	-0.199
-582.836	-126.422	-0.147	-0.022
-581.821	-94.912	-0.322	0.089
-580.806	-56.582	-0.051	-0.023
-579.792	-121.267	0.391	-0.066
-578.777	-200.000	0.004	0.174
-577.763	-150.069	0.216	0.017
-576.748	-200.000	-0.023	0.194
-575.733	530.553	-0.028	-0.067
-574.719	-126.239	-0.213	0.032
-573.704	360.601	0.145	0.295
-572.690	-200.000	-0.062	-0.385
-571.675	-90.237	-0.232	-0.068
-570.661	351.011	-0.166	0.335
-569.646	-76.415	0.212	0.076
-568.631	-71.962	-0.221	-0.084
-567.617	35.181	0.047	0.042
-566.602	-136.377	-0.088	-0.010
-565.588	-200.000	-0.008	-0.144
-564.573	-132.122	-0.028	0.004
-563.558	-68.364	-0.079	0.031
-562.544	143.922	0.060	0.081
-561.529	241.957	-0.091	-0.154
-560.515	211.936	0.022	-0.035
-559.500	800.000	-0.047	0.135
-558.485	4.420	0.020	0.015
-557.471	-139.189	-0.286	-0.031
-556.456	800.000	-0.019	0.068
-555.442	228.267	-0.049	0.081
-554.427	544.515	0.048	0.116
-553.412	-141.557	0.159	0.016
-552.398	34.727	0.274	-0.243
-551.383	-200.000	-0.045	-0.279
-550.369	31.585	0.243	-0.212
-549.354	-114.144	0.285	-0.056
-548.339	-83.636	-0.159	0.052
-547.325	-73.536	0.275	0.102
-546.310	-129.033	0.321	0.046
-545.296	-200.000	0.033	-0.164
-544.281	522.827	0.073	-0.174
-543.266	-80.922	0.336	-0.113
-542.252	-39.584	-0.146	-0.077
-541.237	-119.936	-0.148	-0.026
-540.223	-20.442	-0.126	-0.079
-539.208	-107.838	0.119	0.026
-538.193	20.814	0.094	-0.077
-537.179	-82.866	0.179	0.059
-536.164	800.000	0.003	-0.011
-535.150	-70.424	0.303	0.117
-534.135	-59.197	-0.295	-0.129
-533.121	-200.000	-0.012	0.205
-532.106	84.204	0.098	0.109
-531.091	-200.000	0.012	-0.240
-530.077	-109.837	0.072	-0.015
-529.062	-56.517	0.253	-0.114
-528.048	42.956	0.113	-0.105
-527.033	-139.750	0.373	-0.040
-526.018	-200.000	0.002	-0.144
-525.004	571.726	-0.052	-0.128
-523.989	-90.062	-0.145	0.043
-522.975	800.000	0.059	-0.169
-521.960	800.000	-0.037	-0.118
-520.945	800.000	0.140	0.410
-519.931	528.563	0.048	-0.116
-518.916	-200.000	-0.088	0.000
-517.902	-127.587	-0.497	0.073
-516.887	-200.000	0.051	0.271
-515.872	-200.000	-0.008	-0.141
-514.858	-22.307	-0.169	-0.104
-513.843	747.245	0.075	-0.204
-512.829	167.299	0.127	-0.182
-511.814	3.087	0.168	0.124
-510.799	49.753	-0.161	-0.154
-509.785	-200.000	0.006	0.090
-508.770	800.000	0.027	-0.079
-507.756	-171.913	0.148	-0.005
-506.741	800.000	-0.069	0.215
-505.726	-200.000	0.039	0.207
-504.712	491.271	-0.075	0.174
-503.697	-134.403	-0.253	0.031
-502.683	31.895	0.240	-0.210
-501.668	163.701	0.089	-0.127
-500.653	800.000	-0.031	0.096
-499.639	-23.958	-0.309	-0.187
-498.624	180.409	-0.094	-0.140
-497.610	-99.966	-0.277	0.070
-496.595	244.353	-0.106	-0.180
-495.581	-71.567	0.241	0.091
-494.566	206.580	-0.023	0.037
-493.551	30.579	0.100	-0.087
-492.537	-80.747	-0.285	-0.096
-491.522	140.620	-0.075	-0.100
-490.508	167.750	-0.084	0.121
-489.493	-170.676	-0.101	-0.004
-488.478	-77.286	-0.272	-0.096
-487.464	-38.709	0.316	0.169
-486.449	-47.465	0.187	0.092
-485.435	184.460	0.136	-0.204
-484.420	-12.722	-0.028	-0.018
-483.405	5.501	0.095	-0.071
-482.391	157.943	0.059	0.083
-481.376	800.000	-0.063	0.186
-480.362	64.056	-0.133	-0.135
-479.347	2.597	0.232	-0.170
-478.332	230.705	0.138	0.228
-477.318	-30.356	0.078	-0.045
-476.303	-45.275	-0.107	-0.054
-475.289	203.652	-0.028	0.043
-474.274	175.407	0.044	-0.065
-473.259	249.587	-0.037	-0.063
-472.245	-200.000	0.018	-0.154
-471.230	-99.860	0.382	-0.097
-470.216	-22.200	-0.543	-0.333
-469.201	146.787	0.072	0.098
-468.186	203.462	-0.112	0.176
-467.172	-63.968	0.288	-0.119
-466.157	-32.107	-0.183	0.104
-465.143	-200.000	-0.021	0.254
-464.128	624.440	-0.101	0.258
-463.113	-150.567	-0.201	0.016
-462.099	83.391	0.256	-0.283
-461.084	-40.505	0.467	0.246
-460.070	65.764	0.210	0.215
-459.055	-26.897	0.316	-0.187
-458.040	209.836	0.235	-0.373
-457.026	-91.206	0.119	0.035
-456.011	130.666	0.032	0.041
-454.997	273.381	-0.086	-0.153
-453.982	177.431	-0.121	-0.178
-452.968	12.704	0.207	0.162
-451.953	-90.889	-0.389	-0.113
-450.938	356.013	-0.186	-0.375
-449.924	-138.673	0.201	0.022
-448.909	100.953	-0.126	0.148
-447.895	800.000	-0.056	-0.229
-446.880	58.659	-0.180	-0.179
-445.865	93.776	0.081	-0.093
-444.851	-82.763	-0.095	-0.031
-443.836	-26.823	0.152	0.090
-442.822	-111.268	-0.110	-0.023
-441.807	-13.892	0.022	0.014
-440.792	-128.976	0.278	0.039
-439.778	-17.594	-0.136	0.086
-438.763	-149.535	-0.308	-0.025
-437.749	267.152	-0.206	-0.365
-436.734	-145.124	0.173	0.016
-435.719	133.912	0.165	0.216
-434.705	-200.000	-0.000	-0.150
-433.690	800.000	-0.058	-0.191
-432.676	779.599	-0.174	0.480
-431.661	-139.509	0.252	0.027
-430.646	-126.782	0.243	-0.036
-429.632	-24.836	0.135	0.081
-428.617	83.139	-0.101	-0.111
-427.603	37.031	0.091	0.081
-426.588	-200.000	0.063	-0.453
-425.573	94.877	0.141	0.162
-424.559	-200.000	-0.007	-0.095
-423.544	-104.158	0.306	-0.072
-422.530	-200.000	0.006	0.291
-421.515	-103.396	-0.337	0.080
-420.500	8.367	-0.009	0.007
-419.486	-200.000	-0.011	-0.168
-418.471	-95.662	0.128	-0.035
-417.457	-167.647	0.041	-0.002
-416.442	-141.102	0.105	0.011
-415.428	-17.556	0.133	-0.084
-414.413	568.041	0.090	-0.221
-413.398	-18.359	-0.326	-0.206
-412.384	51.346	-0.280	0.269
-411.369	-200.000	0.015	0.102
-410.355	-66.649	0.267	0.107
-409.340	-64.481	0.208	0.085
-408.325	6.316	-0.227	-0.170
-407.311	69.781	-0.214	0.222
-406.296	-45.740	-0.074	-0.037
-405.282	-177.368	-0.053	0.001
-404.267	-41.118	0.040	0.021
-403.252	446.229	0.026	-0.058
-402.238	-89.686	0.437	0.129
-401.223	-200.000	0.001	-0.097
-400.209	-28.577	0.184	0.107
-399.194	-200.000	0.017	-0.260
-398.179	-200.000	-0.016	0.227
-397.165	-83.449	-0.331	-0.107
-396.150	-149.489	-0.022	-0.002
-395.136	155.939	-0.117	-0.162
-394.121	144.124	-0.178	0.240
-393.106	800.000	-0.102	-0.385
-392.092	6.552	0.032	0.024
-391.077	259.829	-0.093	0.162
-390.063	-91.947	0.299	0.086
-389.048	43.102	0.338	0.311
-388.033	45.405	0.182	-0.170
-387.019	-200.000	0.001	-0.224
-386.004	-105.385	0.280	-0.064
-384.990	-148.145	-0.267	-0.022
-383.975	800.000	0.048	0.204
-382.960	-130.275	-0.405	0.056
-381.946	-97.128	-0.196	0.052
-380.931	-90.325	-0.029	0.008
-379.917	411.713	-0.103	0.221
-378.902	-114.467	-0.295	0.057
-377.888	128.310	0.112	-0.144
-376.873	-200.000	0.014	0.192
-375.858	-16.399	0.195	-0.125
-374.844	-20.724	0.327	-0.202
-373.829	659.953	0.069	0.179
-372.815	800.000	-0.057	0.222
-371.800	-56.772	0.290	0.130
-370.785	305.024	-0.076	-0.143
-369.771	-89.028	0.370	0.111
-368.756	-51.993	-0.140	-0.065
-367.742	64.044	-0.099	0.100
-366.727	-16.114	0.396	0.254
-365.712	5.416	0.308	-0.229
-364.698	99.729	-0.079	0.092
-363.683	77.712	-0.115	-0.123
-362.669	-24.243	0.117	-0.070
-361.654	-71.755	0.154	0.058
-360.639	-65.291	0.178	0.072
-359.625	-135.611	0.320	0.038
-358.610	-118.827	-0.167	-0.030
-357.596	800.000	0.020	-0.076
-356.581	448.112	0.057	-0.126
-355.566	8.382	-0.252	0.191
-354.552	-23.210	0.188	-0.114
-353.537	-32.854	0.124	-0.070
-352.523	237.317	0.167	-0.279
-351.508	800.000	0.038	0.113
-350.493	-129.796	0.191	0.027
-349.479	-200.000	0.043	0.216
-348.464	-135.070	0.384	0.047
-347.450	-64.408	0.386	-0.158
-346.435	-200.000	0.073	0.371
-345.420	-200.000	-0.011	0.097
-344.406	5.576	0.148	0.110
-343.391	534.477	0.052	0.125
-342.377	102.216	-0.200	0.235
-341.362	-71.614	0.090	0.034
-340.348	800.000	0.016	-0.064
-339.333	368.538	0.187	-0.382
-338.318	-200.000	-0.031	-0.223
-337.304	-173.096	-0.020	0.001
-336.289	-146.605	0.143	-0.012
-335.275	-56.522	-0.351	-0.157
-334.260	170.117	-0.090	-0.130
-333.245	-170.628	-0.422	0.015
-332.231	-58.075	0.103	0.045
-331.216	-200.000	0.008	0.216
-330.202	-158.206	0.196	0.012
-329.187	499.076	-0.143	0.333
-328.172	800.000	-0.115	0.348
-327.158	800.000	-0.068	-0.268
-326.143	-0.651	-0.037	0.026
-325.129	151.902	-0.127	0.174
-324.114	457.519	0.072	0.160
-323.099	-20.516	-0.128	0.079
-322.085	800.000	0.083	0.284
-321.070	-157.462	0.321	-0.019
-320.056	53.647	0.301	-0.291
-319.041	-130.138	-0.277	-0.038
-318.026	4.754	-0.090	0.066
-317.012	68.510	-0.067	-0.069
-315.997	-39.443	0.130	0.069
-314.983	-90.143	0.169	0.049
-313.968	-80.539	-0.196	0.066
-312.953	-200.000	0.071	0.438
-311.939	-53.159	0.258	0.119
-310.924	165.418	-0.152	0.217
-309.910	-139.704	-0.176	0.019
-308.895	800.000	0.109	-0.384
-307.880	181.340	0.057	0.085
-306.866	-6.448	0.036	-0.025
-305.851	271.848	-0.148	-0.262
-304.837	-63.108	-0.075	-0.031
-303.822	293.526	-0.109	0.201
-302.807	-200.000	0.011	-0.349
-301.793	-32.442	-0.079	-0.045
-300.778	-75.020	-0.164	0.059
-299.764	-98.905	-0.318	-0.081
-298.749	-79.733	-0.240	0.081
-297.735	-142.970	0.446	-0.044
-296.720	800.000	-0.060	-0.241
-295.705	307.264	0.091	-0.171
-294.691	800.000	-0.054	-0.170
-293.676	88.905	0.114	0.128
-292.662	616.559	0.102	0.257
-291.647	-168.538	0.271	-0.010
-290.632	159.058	0.099	-0.138
-289.618	800.000	-0.044	-0.185
-288.603	-30.153	-0.202	0.116
-287.589	-200.000	-0.013	0.114
-286.574	-42.049	0.174	0.090
-285.559	285.804	0.088	0.159
-284.545	-158.288	0.147	-0.009
-283.530	-151.388	0.038	-0.003
-282.516	-53.798	0.266	-0.122
-281.501	-87.908	-0.297	0.090
-280.486	-62.226	0.225	-0.094
-279.472	57.805	-0.091	0.090
-278.457	-140.834	0.179	-0.019
-277.443	-21.741	0.138	-0.084
-276.428	767.341	-0.095	0.259
-275.413	-33.718	0.195	0.108
-274.399	-200.000	-0.012	0.088
-273.384	330.615	-0.141	-0.273
-272.370	94.023	-0.228	0.260
-271.355	-104.481	0.432	0.100
-270.340	50.158	-0.053	0.050
-269.326	-155.307	-0.311	0.020
-268.311	19.162	-0.197	-0.158
-267.297	0.726	-0.284	-0.204
-266.282	-98.498	-0.028	0.007
-265.267	-8.162	-0.340	-0.230
-264.253	-200.000	-0.023	-0.253
-263.238	-146.952	0.400	0.035
-262.224	167.342	0.079	0.113
-261.209	153.678	0.064	-0.087
-260.195	-49.716	-0.092	-0.044
-259.180	-200.000	-0.001	-0.087
-258.165	800.000	-0.052	0.166
-257.151	-88.207	0.022	0.007
-256.136	-63.101	0.310	-0.129
-255.122	800.000	-0.009	-0.034
-254.107	-200.000	-0.002	-0.082
-253.092	-123.138	0.396	-0.064
-252.078	-108.447	-0.321	0.069
-251.063	-46.219	0.160	-0.079
-250.049	-70.749	-0.132	-0.050
-249.034	800.000	-0.118	-0.333
-248.019	60.445	-0.155	0.154
-247.005	-94.878	0.097	-0.026
-245.990	35.837	-0.118	-0.105
-244.976	-200.000	-0.021	0.275
-243.961	800.000	0.092	0.386
-242.946	-58.676	-0.344	0.150
-241.932	-200.000	-0.006	-0.378
-240.917	-26.956	-0.254	-0.149
-239.903	-200.000	-0.036	0.299
-238.888	-17.723	-0.258	0.162
-237.873	-49.402	0.366	-0.175
-236.859	392.848	-0.142	0.297
-235.844	324.761	0.154	0.295
-234.830	-1.273	-0.361	0.256
-233.815	-200.000	-0.003	-0.141
-232.800	267.773	-0.100	0.175
-231.786	-28.659	0.099	-0.057
-230.771	49.534	0.242	0.229
-229.757	81.959	0.106	-0.115
-228.742	480.363	0.142	0.323
-227.727	-103.243	-0.467	0.111
-226.713	188.762	-0.093	0.139
-225.698	206.904	-0.051	0.079
-224.684	-20.907	0.258	-0.158
-223.669	61.017	-0.118	-0.117
-222.655	14.574	-0.073	0.057
-221.640	-74.906	-0.057	-0.020
-220.625	-40.750	-0.063	0.033
-219.611	-95.905	-0.141	-0.038
-218.596	-200.000	-0.021	-0.276
-217.582	-107.935	0.199	-0.043
-216.567	800.000	-0.083	0.235
-215.552	124.385	-0.083	-0.104
-214.538	240.413	-0.185	0.309
-213.523	800.000	0.035	-0.108
-212.509	232.913	-0.123	-0.203
-211.494	458.273	0.048	-0.106
-210.479	-38.618	0.177	0.094
-209.465	-105.423	0.159	-0.036
-208.450	-101.591	-0.251	0.061
-207.436	-119.196	-0.382	-0.067
-206.421	-80.625	-0.076	0.025
-205.406	-172.182	0.133	-0.004
-204.392	41.294	-0.185	-0.168
-203.377	-93.103	0.218	-0.061
-202.363	-61.744	0.077	-0.032
-201.348	800.000	-0.034	-0.111
-200.333	800.000	0.064	0.269
-199.319	800.000	-0.033	0.102
-198.304	129.366	-0.035	-0.044
-197.290	-200.000	-0.012	-0.129
-196.275	-200.000	-0.003	-0.151
-195.260	-200.000	0.026	-0.136
-194.246	26.296	0.152	0.128
-193.231	800.000	-0.105	0.449
-192.217	-200.000	-0.023	0.240
-191.202	119.433	0.030	0.037
-190.187	-81.473	-0.252	-0.083
-189.173	225.486	-0.090	-0.146
-188.158	16.006	0.149	0.118
-187.144	-200.000	0.031	0.150
-186.129	-74.662	-0.096	-0.035
-185.114	112.331	0.095	0.115
-184.100	-100.818	0.177	0.044
-183.085	219.645	-0.137	0.219
-182.071	-40.705	0.178	0.092
-181.056	800.000	-0.048	-0.144
-180.042	71.684	-0.054	0.057
-179.027	-35.212	-0.118	0.064
-178.012	107.608	-0.281	0.335
-176.998	800.000	-0.079	0.252
-175.983	-101.951	-0.233	0.056
-174.969	117.898	0.073	-0.090
-173.954	-43.629	0.100	0.050
-172.939	-152.749	-0.125	-0.009
-171.925	-200.000	-0.038	0.183
-170.910	-200.000	-0.020	0.385
-169.896	63.010	-0.183	0.183
-168.881	-200.000	-0.015	-0.290
-167.866	394.716	-0.062	-0.130
-166.852	275.209	-0.089	-0.157
-165.837	-19.548	0.445	-0.276
-164.823	92.487	-0.064	0.073
-163.808	-101.742	0.111	-0.027
-162.793	-56.785	0.284	-0.126
-161.779	255.642	0.091	-0.157
-160.764	-127.460	-0.194	-0.028
-159.750	14.908	0.313	0.245
-158.735	-44.350	-0.211	-0.106
-157.720	41.599	0.182	-0.165
-156.706	-22.750	-0.205	-0.124
-155.691	-61.865	-0.039	0.016
-154.677	48.139	0.213	0.199
-153.662	-39.656	0.148	0.077
-152.647	-51.134	0.331	0.155
-151.633	-81.084	0.259	-0.086
-150.618	206.609	0.099	0.154
-149.604	-97.319	0.206	0.054
-148.589	-89.684	0.101	0.030
-147.574	-162.188	-0.195	0.010
-146.560	-170.537	-0.294	-0.010
-145.545	-32.653	-0.277	-0.154
-144.531	-0.279	0.159	-0.113
-143.516	-26.766	0.215	-0.126
-142.502	-113.176	0.090	0.018
-141.487	-78.820	0.121	0.041
-140.472	-128.945	-0.145	-0.020
-139.458	-96.053	0.085	-0.023
-138.443	-101.415	0.135	-0.033
-137.429	114.842	0.152	-0.185
-136.414	-82.366	0.078	-0.025
-135.399	-200.000	-0.026	-0.170
-134.385	-4.953	0.228	0.157
-133.370	-200.000	-0.015	0.216
-132.356	57.002	-0.263	-0.256
-131.341	800.000	-0.039	0.141
-130.326	38.595	0.192	0.171
-129.312	375.222	0.088	-0.180
-128.297	800.000	-0.030	-0.095
-127.283	-146.091	0.320	-0.028
-126.268	-200.000	-0.015	-0.079
-125.253	-116.047	-0.161	0.030
-124.239	132.332	0.287	0.370
-123.224	38.786	0.198	0.177
-122.210	-62.425	0.151	-0.063
