DTS Sentinel unit serial number:	SN413079Multiplexer serial number:	ORYXHardware model number:	OX4-SRSoftware version number:	ORYX F/W v4.00 Oryx Data Collector v3.7.2.0data status	okinstallation	princeton_trtdifferential loss correction	single-endedforward channel	channel 1reverse channel	N/Adate	2019/09/19time	12:06:35forward acquisition time	60.00reverse acquisition time	0.00gamma	496.2192k internal	0.2336k external	0.2336temperature offset calibration	1.0009default loss term (dB/km)	0.3790temperature slope calibration	1.0000multiplexer offset coefficient	1.0000multiplexer slope coefficient	1.0000fibre end	0.00T internal ref (°C)	26.19T ext. ref 1 (°C)	0.85T ext. ref 2 (°C)	22.55length (m)	temperature (°C)	Stokes	anti-Stokes-747.200	800.000	-0.057	0.222
-746.185	-94.233	-0.216	0.059
-745.171	499.169	0.102	0.237
-744.156	47.235	-0.169	0.158
-743.142	-200.000	0.059	0.410
-742.127	218.845	-0.319	0.512
-741.112	-66.947	-0.309	-0.123
-740.098	93.834	0.219	0.249
-739.083	-200.000	-0.026	-0.149
-738.069	-37.895	-0.450	-0.240
-737.054	-200.000	-0.030	0.212
-736.039	23.127	-0.195	-0.161
-735.025	418.726	-0.058	0.124
-734.010	568.986	-0.157	-0.384
-732.996	-200.000	0.034	-0.180
-731.981	800.000	0.042	-0.127
-730.966	153.371	-0.081	-0.112
-729.952	-200.000	-0.043	-0.287
-728.937	56.903	-0.285	0.279
-727.923	11.693	-0.100	-0.077
-726.908	-200.000	0.002	0.112
-725.894	-144.545	-0.399	0.037
-724.879	800.000	0.077	0.222
-723.864	87.372	-0.222	-0.246
-722.850	4.522	0.084	0.062
-721.835	-200.000	0.002	0.199
-720.821	100.123	0.148	-0.172
-719.806	-200.000	-0.007	-0.044
-718.791	220.100	-0.136	-0.219
-717.777	47.442	-0.111	-0.103
-716.762	-12.006	0.167	0.109
-715.748	-0.402	-0.122	0.087
-714.733	-46.638	-0.069	-0.034
-713.718	-71.833	0.177	0.066
-712.704	800.000	0.036	0.130
-711.689	-26.659	-0.296	-0.174
-710.675	-200.000	-0.004	-0.073
-709.660	380.875	-0.153	-0.315
-708.645	-41.372	0.276	-0.143
-707.631	294.871	-0.087	0.159
-706.616	2.898	0.171	0.124
-705.602	-58.117	0.103	-0.045
-704.587	10.947	-0.148	0.113
-703.572	800.000	0.064	0.212
-702.558	-68.853	-0.206	-0.080
-701.543	40.962	0.166	0.151
-700.529	800.000	-0.179	-0.554
-699.514	-200.000	-0.005	0.103
-698.499	-91.460	-0.037	0.010
-697.485	-200.000	-0.003	-0.222
-696.470	-200.000	-0.017	0.077
-695.456	-200.000	0.024	-0.118
-694.441	171.411	0.175	-0.252
-693.426	276.712	-0.053	-0.095
-692.412	-169.216	-0.118	0.004
-691.397	366.570	-0.179	0.362
-690.383	-200.000	-0.073	-0.591
-689.368	18.993	-0.071	-0.057
-688.354	-200.000	0.009	-0.081
-687.339	800.000	0.039	-0.125
-686.324	691.691	-0.134	-0.353
-685.310	36.422	0.269	0.237
-684.295	271.953	-0.077	-0.136
-683.281	-43.392	-0.497	0.252
-682.266	36.692	-0.033	-0.029
-681.251	34.416	-0.230	0.201
-680.237	147.321	0.201	-0.270
-679.222	246.659	0.130	-0.220
-678.208	-197.565	-0.298	0.002
-677.193	-88.161	0.156	0.047
-676.178	-5.259	-0.208	0.143
-675.164	-200.000	0.058	-0.291
-674.149	-50.479	-0.330	0.156
-673.135	-98.230	-0.195	-0.050
-672.120	360.794	0.040	0.079
-671.105	-77.572	-0.079	-0.028
-670.091	372.544	0.098	-0.200
-669.076	245.242	-0.151	0.254
-668.062	19.879	0.125	-0.101
-667.047	-200.000	0.002	-0.120
-666.032	-81.541	-0.117	0.038
-665.018	-113.382	-0.331	-0.065
-664.003	-40.423	-0.359	-0.187
-662.989	240.433	0.084	0.139
-661.974	-200.000	-0.063	-0.442
-660.959	-200.000	0.007	0.228
-659.945	26.011	0.184	0.154
-658.930	108.037	0.268	0.320
-657.916	-92.050	0.370	0.105
-656.901	243.089	-0.140	0.235
-655.886	-78.655	0.247	-0.085
-654.872	800.000	0.012	0.042
-653.857	-2.809	0.065	0.046
-652.843	-17.978	0.147	-0.092
-651.828	-92.006	-0.313	0.089
-650.814	-27.285	-0.157	-0.091
-649.799	-12.442	0.124	-0.081
-648.784	451.509	0.159	0.352
-647.770	-64.220	0.248	0.101
-646.755	477.329	-0.050	-0.113
-645.741	800.000	-0.043	0.166
-644.726	-126.079	-0.210	0.032
-643.711	-200.000	0.026	0.354
-642.697	800.000	0.052	-0.176
-641.682	800.000	-0.112	-0.393
-640.668	27.185	-0.298	0.250
-639.653	228.975	-0.065	0.107
-638.638	-88.359	-0.148	0.044
-637.624	-129.651	0.262	0.036
-636.609	68.669	-0.106	-0.108
-635.595	224.879	-0.225	0.364
-634.580	-124.022	0.114	-0.018
-633.565	-187.683	-0.185	0.002
-632.551	251.906	-0.104	-0.177
-631.536	800.000	0.064	0.248
-630.522	11.122	0.205	-0.157
-629.507	800.000	-0.093	0.257
-628.492	-200.000	0.013	0.085
-627.478	800.000	-0.093	-0.291
-626.463	-200.000	0.054	0.248
-625.449	-22.025	-0.154	-0.093
-624.434	1.028	0.212	0.152
-623.419	800.000	0.068	0.225
-622.405	-95.663	0.165	0.044
-621.390	-46.984	0.144	0.070
-620.376	-32.987	-0.059	0.033
-619.361	800.000	-0.078	-0.218
-618.346	67.782	0.177	0.181
-617.332	800.000	0.019	-0.053
-616.317	-117.197	0.119	-0.022
-615.303	-119.798	0.146	0.025
-614.288	288.673	0.127	-0.230
-613.273	800.000	-0.045	-0.153
-612.259	685.748	0.020	0.053
-611.244	-18.556	0.249	0.155
-610.230	-69.359	-0.181	-0.069
-609.215	330.631	-0.144	-0.277
-608.201	-82.184	0.184	0.060
-607.186	-87.396	-0.430	0.130
-606.171	800.000	0.067	0.280
-605.157	500.913	0.010	-0.023
-604.142	-200.000	0.003	-0.255
-603.128	60.701	0.150	-0.148
-602.113	-200.000	0.020	0.372
-601.098	-47.648	-0.153	-0.074
-600.084	337.931	0.116	-0.225
-599.069	-200.000	0.039	-0.232
-598.055	647.431	-0.117	-0.298
-597.040	-46.017	0.226	-0.111
-596.025	800.000	-0.146	0.442
-595.011	431.232	-0.114	0.248
-593.996	-147.445	-0.093	-0.008
-592.982	-30.303	0.118	-0.067
-591.967	-64.686	0.095	0.039
-590.952	339.988	-0.103	0.200
-589.938	-104.352	-0.214	0.049
-588.923	26.740	-0.284	0.237
-587.909	103.645	0.147	0.172
-586.894	73.376	-0.279	-0.292
-585.879	800.000	-0.066	-0.242
-584.865	-42.521	0.185	-0.094
-583.850	-200.000	0.039	-0.414
-582.836	14.615	-0.126	-0.098
-581.821	117.162	0.301	-0.369
-580.806	-52.177	0.297	-0.137
-579.792	-62.601	-0.089	0.037
-578.777	-46.411	-0.180	0.088
-577.763	800.000	-0.060	-0.215
-576.748	-200.000	0.007	0.106
-575.733	544.326	0.061	-0.146
-574.719	256.086	0.203	0.347
-573.704	-26.912	-0.145	-0.084
-572.690	-60.746	0.128	0.054
-571.675	42.993	0.177	0.161
-570.661	-120.160	0.207	0.035
-569.646	-200.000	0.052	0.486
-568.631	-70.983	0.190	-0.072
-567.617	-200.000	0.010	0.091
-566.602	-61.611	-0.333	0.139
-565.588	-40.346	-0.058	0.030
-564.573	718.673	-0.154	-0.409
-563.558	-134.174	0.374	0.046
-562.544	-116.095	0.346	-0.064
-561.529	-73.400	0.275	-0.100
-560.515	0.634	-0.065	0.046
-559.500	-59.260	-0.283	0.122
-558.485	-200.000	-0.005	0.051
-557.471	-40.167	-0.172	0.089
-556.456	422.415	-0.050	-0.108
-555.442	800.000	0.041	-0.128
-554.427	-91.609	0.346	0.098
-553.412	-16.741	-0.195	0.123
-552.398	-65.819	0.145	0.058
-551.383	-150.783	0.046	0.003
-550.369	-3.517	-0.173	-0.120
-549.354	157.009	-0.206	0.283
-548.339	100.782	-0.108	0.125
-547.325	182.703	0.104	-0.153
-546.310	74.848	0.219	0.230
-545.296	-200.000	0.042	0.285
-544.281	90.846	-0.170	-0.190
-543.266	-97.034	0.298	-0.078
-542.252	-6.587	0.240	0.163
-541.237	-27.148	-0.056	0.032
-540.223	-134.332	0.151	0.018
-539.208	-200.000	0.013	0.282
-538.193	580.796	0.063	0.153
-537.179	189.655	-0.106	0.159
-536.164	-86.970	-0.105	0.032
-535.150	-53.771	0.268	0.122
-534.135	33.936	0.204	0.177
-533.121	384.341	-0.131	-0.268
-532.106	800.000	-0.035	0.149
-531.091	-200.000	0.013	-0.211
-530.077	-88.997	0.320	-0.094
-529.062	-67.359	-0.048	-0.019
-528.048	-200.000	0.069	0.313
-527.033	-156.787	-0.211	0.013
-526.018	-170.457	0.335	0.012
-525.004	-171.879	-0.294	0.010
-523.989	242.487	0.122	-0.204
-522.975	131.424	-0.106	0.136
-521.960	105.896	-0.115	-0.135
-520.945	-113.103	-0.220	-0.043
-519.931	89.298	-0.090	0.100
-518.916	-36.084	-0.316	0.170
-517.902	-26.018	0.193	-0.113
-516.887	-154.042	0.230	-0.016
-515.872	162.567	-0.145	-0.203
-514.858	-200.000	-0.217	0.000
-513.843	-92.028	0.234	0.066
-512.829	-24.002	-0.156	-0.093
-511.814	15.379	-0.044	0.034
-510.799	-0.342	-0.250	-0.177
-509.785	-113.926	-0.196	-0.038
-508.770	-200.000	0.002	0.269
-507.756	51.382	-0.093	-0.088
-506.741	-111.662	-0.286	0.058
-505.726	64.425	0.108	-0.108
-504.712	58.047	0.090	0.087
-503.697	800.000	-0.117	0.396
-502.683	-92.988	-0.198	-0.055
-501.668	800.000	-0.056	0.180
-500.653	9.662	0.081	-0.061
-499.639	166.878	0.144	0.204
-498.624	-200.000	0.045	-0.262
-497.610	-98.284	-0.334	0.085
-496.595	-19.079	-0.316	-0.195
-495.581	51.919	0.255	-0.241
-494.566	-149.577	0.120	-0.009
-493.551	-200.000	-0.033	-0.151
-492.537	800.000	-0.019	-0.055
-491.522	-31.480	-0.064	0.036
-490.508	123.072	-0.228	0.284
-489.493	-35.654	0.229	0.124
-488.478	-71.915	-0.197	0.073
-487.464	516.541	-0.057	0.134
-486.449	-9.278	-0.151	-0.100
-485.435	-7.895	0.172	0.115
-484.420	122.168	0.103	-0.128
-483.405	-95.124	0.431	0.116
-482.391	280.145	-0.099	0.176
-481.376	155.438	-0.168	-0.230
-480.362	28.268	0.147	-0.123
-479.347	-200.000	-0.043	-0.215
-478.332	-200.000	-0.018	0.132
-477.318	205.237	-0.086	-0.133
-476.303	-7.307	-0.115	0.077
-475.289	55.070	0.225	0.216
-474.274	114.672	-0.143	-0.173
-473.259	-200.000	0.015	0.155
-472.245	-200.000	0.031	-0.347
-471.230	-155.566	0.136	-0.009
-470.216	-190.516	0.037	-0.000
-469.201	-200.000	0.027	0.134
-468.186	109.944	0.099	-0.118
-467.172	-126.105	-0.332	-0.050
-466.157	-129.067	0.361	0.050
-465.143	800.000	-0.092	-0.389
-464.128	800.000	-0.054	-0.209
-463.113	-47.921	0.106	-0.051
-462.099	-200.000	-0.027	0.159
-461.084	119.209	-0.169	0.207
-460.070	199.101	0.079	-0.121
-459.055	404.080	0.215	-0.449
-458.040	-171.789	-0.094	-0.003
-457.026	800.000	0.027	-0.082
-456.011	133.262	0.224	0.288
-454.997	-13.782	0.191	0.123
-453.982	83.476	0.226	0.244
-452.968	-200.000	0.045	0.252
-451.953	800.000	0.108	0.362
-450.938	5.537	0.271	0.198
-449.924	-200.000	-0.024	0.115
-448.909	-124.478	0.257	0.040
-447.895	63.355	-0.144	-0.143
-446.880	-150.881	-0.104	-0.008
-445.865	800.000	-0.019	-0.059
-444.851	-40.098	0.139	-0.072
-443.836	800.000	0.083	-0.237
-442.822	-40.494	-0.130	0.067
-441.807	-166.683	-0.291	-0.012
-440.792	800.000	-0.074	0.220
-439.778	-37.168	0.189	-0.100
-438.763	220.237	0.020	0.031
-437.749	141.334	-0.122	0.160
-436.734	-35.373	-0.208	-0.112
-435.719	47.207	0.181	-0.167
-434.705	673.231	0.124	0.319
-433.690	120.436	-0.349	-0.430
-432.676	237.180	-0.120	-0.198
-431.661	-93.941	0.418	-0.114
-430.646	424.908	-0.142	0.304
-429.632	-200.000	0.017	-0.157
-428.617	-73.732	-0.212	0.077
-427.603	30.264	-0.220	0.186
-426.588	800.000	0.078	0.327
-425.573	-146.646	0.063	-0.005
-424.559	67.176	-0.139	0.141
-423.544	-65.535	0.158	0.063
-422.530	800.000	0.026	-0.097
-421.515	-100.271	-0.262	-0.064
-420.500	53.136	0.074	-0.071
-419.486	17.144	0.172	0.135
-418.471	-200.000	0.025	-0.178
-417.457	-118.505	-0.060	0.011
-416.442	-200.000	0.033	-0.367
-415.428	55.104	-0.203	-0.194
-414.413	-200.000	0.035	0.165
-413.398	-82.781	0.080	-0.025
-412.384	424.321	-0.124	-0.265
-411.369	800.000	0.129	0.378
-410.355	-122.428	0.224	0.036
-409.340	10.990	0.138	-0.105
-408.325	-23.703	0.163	-0.097
-407.311	18.498	-0.103	0.081
-406.296	-49.285	0.139	0.066
-405.282	-98.149	0.180	0.046
-404.267	-200.000	-0.046	-0.305
-403.252	17.315	0.070	0.055
-402.238	-123.378	0.165	0.026
-401.223	663.876	0.109	0.278
-400.209	-85.435	-0.237	0.073
-399.194	-122.579	-0.158	0.025
-398.179	-76.995	-0.238	0.082
-397.165	-127.419	0.152	-0.022
-396.150	57.868	-0.293	-0.284
-395.136	-200.000	-0.016	-0.280
-394.121	-20.504	0.351	0.213
-393.106	21.005	0.140	0.112
-392.092	-200.000	-0.008	-0.053
-391.077	83.994	-0.080	0.087
-390.063	43.083	0.179	-0.162
-389.048	571.882	-0.042	0.102
-388.033	424.093	-0.045	0.096
-387.019	-92.536	0.096	-0.027
-386.004	-133.541	0.197	0.024
-384.990	247.206	-0.183	0.306
-383.975	-38.873	-0.214	0.112
-382.960	-121.194	-0.280	-0.046
-381.946	176.488	0.086	0.124
-380.931	-158.714	0.313	-0.018
-379.917	222.464	0.026	0.042
-378.902	-71.417	-0.201	0.075
-377.888	-130.786	-0.045	0.006
-376.873	44.258	-0.311	0.282
-375.858	-58.609	0.110	-0.047
-374.844	31.691	-0.104	-0.088
-373.829	-200.000	-0.035	-0.405
-372.815	-200.000	-0.026	-0.210
-371.800	102.718	-0.185	0.215
-370.785	-56.072	0.077	0.034
-369.771	32.487	-0.141	-0.120
-368.756	-71.320	0.466	0.173
-367.742	-34.668	0.065	0.035
-366.727	141.381	-0.266	-0.349
-365.712	-19.967	-0.163	0.100
-364.698	492.998	0.085	0.193
-363.683	-200.000	0.051	-0.326
-362.669	-2.760	-0.248	-0.172
-361.654	-200.000	0.009	0.178
-360.639	-200.000	-0.011	-0.065
-359.625	-200.000	0.058	0.276
-358.610	194.089	0.089	0.133
-357.596	800.000	-0.031	-0.127
-356.581	141.477	0.092	0.120
-355.566	343.181	-0.014	0.026
-354.552	-200.000	0.009	0.110
-353.537	800.000	-0.068	-0.264
-352.523	559.839	-0.077	-0.185
-351.508	-115.234	-0.134	0.025
-350.493	-143.595	0.241	-0.023
-349.479	65.894	0.203	0.203
-348.464	800.000	-0.049	0.185
-347.450	-23.561	-0.129	0.076
-346.435	-200.000	0.025	-0.277
-345.420	-200.000	0.002	-0.114
-344.406	-136.107	-0.062	-0.007
-343.391	-200.000	0.006	0.054
-342.377	-86.597	0.372	0.113
-341.362	800.000	0.047	0.169
-340.348	171.313	-0.200	-0.284
-339.333	-200.000	-0.034	0.346
-338.318	-11.638	0.116	0.075
-337.304	156.434	-0.120	0.164
-336.289	62.717	0.120	0.119
-335.275	-143.001	0.361	0.035
-334.260	-67.321	-0.150	0.058
-333.245	92.593	0.175	-0.195
-332.231	77.968	0.204	0.215
-331.216	49.549	0.058	-0.054
-330.202	-200.000	-0.013	-0.130
-329.187	29.498	0.099	-0.083
-328.172	-98.616	0.122	-0.031
-327.158	-31.535	-0.028	0.016
-326.143	-91.292	-0.073	-0.021
-325.129	564.644	-0.070	0.168
-324.114	-163.484	-0.211	-0.010
-323.099	100.675	0.070	-0.080
-322.085	220.423	0.110	-0.174
-321.070	573.366	0.198	-0.477
-320.056	-32.638	-0.299	0.164
-319.041	-120.100	-0.095	0.016
-318.026	-147.047	-0.282	-0.024
-317.012	-121.574	0.344	-0.056
-315.997	800.000	0.090	-0.309
-314.983	-9.838	-0.326	-0.214
-313.968	49.673	-0.269	-0.250
-312.953	-7.053	-0.480	-0.322
-311.939	20.683	0.139	-0.111
-310.924	-19.729	0.258	0.157
-309.910	-126.118	0.337	-0.050
-308.895	-51.611	0.177	0.082
-307.880	230.529	0.072	-0.116
-306.866	90.078	-0.060	-0.066
-305.851	-107.234	0.111	0.024
-304.837	718.602	0.040	-0.104
-303.822	343.613	0.107	0.207
-302.807	-58.066	-0.220	-0.095
-301.793	551.934	0.028	-0.066
-300.778	122.971	0.141	0.175
-299.764	-143.837	0.130	-0.012
-298.749	473.981	-0.165	0.367
-297.735	-134.987	-0.402	0.048
-296.720	179.313	-0.096	0.138
-295.705	-130.103	-0.156	0.021
-294.691	133.111	-0.059	-0.076
-293.676	-185.723	-0.167	-0.002
-292.662	27.927	-0.288	-0.240
-291.647	800.000	0.054	0.235
-290.632	24.704	-0.253	-0.207
-289.618	120.992	0.214	-0.263
-288.603	800.000	-0.026	-0.083
-287.589	-200.000	-0.002	-0.106
-286.574	-200.000	-0.011	-0.156
-285.559	2.339	0.133	-0.095
-284.545	80.671	-0.149	0.159
-283.530	182.725	0.104	-0.151
-282.516	-108.666	0.268	0.057
-281.501	-110.373	0.124	0.025
-280.486	-43.075	0.096	0.048
-279.472	-65.756	-0.380	0.150
-278.457	-190.159	0.076	-0.001
-277.443	-200.000	0.046	-0.304
-276.428	-101.044	-0.347	0.084
-275.413	400.487	-0.098	0.203
-274.399	297.732	-0.161	0.292
-273.384	3.736	0.443	-0.319
-272.370	194.670	-0.097	-0.145
-271.355	-15.612	0.045	-0.028
-270.340	70.965	-0.128	0.131
-269.326	-31.529	-0.185	0.102
-268.311	800.000	0.031	-0.126
-267.297	-200.000	-0.021	0.162
-266.282	66.500	0.036	0.036
-265.267	46.952	-0.368	-0.337
-264.253	156.499	-0.122	0.166
-263.238	146.711	0.297	0.394
-262.224	-165.392	-0.140	-0.006
-261.209	-57.078	0.079	0.034
-260.195	-177.516	0.219	-0.005
-259.180	800.000	-0.076	-0.289
-258.165	-114.893	-0.364	-0.068
-257.151	-200.000	0.028	0.206
-256.136	368.260	0.129	0.256
-255.122	234.762	-0.168	-0.273
-254.107	-85.614	0.215	0.066
-253.092	108.058	0.100	-0.117
-252.078	800.000	0.083	-0.285
-251.063	800.000	-0.116	0.370
-250.049	-24.695	-0.295	-0.173
-249.034	-30.498	-0.115	-0.064
-248.019	30.329	-0.171	0.144
-247.005	279.162	-0.096	-0.169
-245.990	-95.913	-0.419	0.110
-244.976	800.000	0.062	0.176
-243.961	-160.065	0.117	0.006
-242.946	-14.412	0.551	0.349
-241.932	-200.000	-0.016	-0.104
-240.917	-200.000	-0.029	-0.174
-239.903	114.829	0.017	-0.020
-238.888	-200.000	-0.007	0.271
-237.873	66.651	-0.160	-0.160
-236.859	-76.316	-0.136	0.047
-235.844	89.681	0.067	0.074
-234.830	-200.000	0.033	0.148
-233.815	-68.541	0.051	-0.020
-232.800	-200.000	-0.056	-0.385
-231.786	201.958	-0.037	0.055
-230.771	9.122	-0.200	0.149
-229.757	-69.893	-0.324	0.122
-228.742	-110.248	-0.156	-0.032
-227.727	-113.683	-0.133	-0.026
-226.713	191.699	-0.091	-0.134
-225.698	-200.000	0.019	0.091
-224.684	-97.631	0.245	-0.063
-223.669	-200.000	-0.004	-0.365
-222.655	-63.143	-0.380	0.154
-221.640	800.000	-0.055	-0.187
-220.625	-131.521	0.232	0.030
-219.611	-68.255	0.336	0.128
-218.596	-200.000	-0.023	0.263
-217.582	800.000	0.029	-0.085
-216.567	-121.768	-0.274	-0.045
-215.552	-7.635	0.032	-0.021
-214.538	-149.461	0.191	0.015
-213.523	-57.193	-0.315	-0.136
-212.509	-200.000	-0.009	-0.099
-211.494	75.692	-0.184	0.191
-210.479	-33.567	0.006	-0.003
-209.465	280.763	-0.135	-0.237
-208.450	-200.000	-0.044	-0.325
-207.436	-66.201	0.179	-0.070
-206.421	469.295	0.064	-0.142
-205.406	-81.171	0.198	0.064
-204.392	-200.000	-0.013	-0.088
-203.377	800.000	-0.068	-0.208
-202.363	297.390	0.158	-0.286
-201.348	-200.000	-0.002	-0.169
-200.333	-200.000	0.018	-0.204
-199.319	800.000	0.062	0.207
-198.304	266.557	-0.116	0.199
-197.290	-63.886	0.101	-0.041
-196.275	-128.086	0.283	0.040
-195.260	-130.774	0.261	-0.034
-194.246	24.255	-0.102	-0.083
-193.231	29.217	-0.224	0.187
-192.217	-44.109	0.270	0.133
-191.202	198.883	0.092	0.138
-190.187	-55.375	-0.204	-0.090
-189.173	365.358	0.059	-0.117
-188.158	456.561	-0.204	0.445
-187.144	-42.280	0.094	-0.047
-186.129	54.867	0.108	0.102
-185.114	-91.324	0.104	0.029
-184.100	421.159	0.113	0.237
-183.085	-12.284	-0.198	-0.127
-182.071	230.888	0.139	0.223
-181.056	160.641	-0.140	0.192
-180.042	288.934	0.082	-0.145
-179.027	-200.000	0.011	-0.052
-178.012	-200.000	0.015	-0.078
-176.998	800.000	0.129	-0.384
-175.983	161.776	-0.129	-0.177
-174.969	-200.000	0.003	0.048
-173.954	-200.000	0.005	-0.057
-172.939	-200.000	0.053	-0.306
-171.925	-56.014	0.080	0.035
-170.910	256.461	0.117	-0.198
-169.896	-62.699	0.155	0.063
-168.881	800.000	0.087	0.262
-167.866	-19.373	-0.196	0.119
-166.852	36.746	-0.016	-0.014
-165.837	800.000	0.076	0.311
-164.823	-63.605	-0.207	-0.083
-163.808	212.456	0.266	-0.411
-162.793	-45.259	-0.223	-0.109
-161.779	-102.557	0.183	-0.043
-160.764	-188.441	-0.077	0.001
-159.750	-200.000	-0.031	-0.150
-158.735	-115.724	0.245	0.045
-157.720	-74.441	-0.093	-0.033
-156.706	-170.582	-0.202	0.007
-155.691	-76.243	0.087	0.030
-154.677	-200.000	-0.025	-0.116
-153.662	-141.111	0.164	-0.016
-152.647	-170.706	-0.028	0.001
-151.633	800.000	0.078	-0.211
-150.618	-141.065	0.146	-0.015
-149.604	-200.000	-0.032	0.289
-148.589	-134.050	-0.233	0.028
-147.574	-78.651	0.328	-0.110
-146.560	-57.956	0.222	0.095
-145.545	-200.000	-0.057	-0.335
-144.531	-200.000	0.022	-0.199
-143.516	-200.000	0.008	0.119
-142.502	800.000	-0.007	-0.021
-141.487	-127.972	0.262	0.037
-140.472	-200.000	0.026	-0.131
-139.458	294.461	-0.226	-0.405
-138.443	-200.000	0.075	0.377
-137.429	-159.451	0.298	-0.016
-136.414	-14.656	0.046	0.029
-135.399	4.305	-0.118	-0.085
-134.385	-200.000	0.063	-0.285
-133.370	41.262	-0.138	0.123
-132.356	-139.202	-0.112	0.012
-131.341	-200.000	-0.027	0.211
-130.326	252.673	-0.127	0.212
-129.312	128.960	0.202	0.253
-128.297	-200.000	0.032	-0.140
-127.283	-13.078	-0.142	-0.090
-126.268	-139.071	-0.274	0.029
-125.253	-148.864	-0.141	0.011
-124.239	408.659	-0.125	0.259
-123.224	-60.548	-0.101	0.042
-122.210	337.548	0.103	0.196
-121.195	-128.573	0.325	0.045
