DTS Sentinel unit serial number:	SN413079Multiplexer serial number:	ORYXHardware model number:	OX4-SRSoftware version number:	ORYX F/W v4.00 Oryx Data Collector v3.7.2.0data status	okinstallation	princeton_trtdifferential loss correction	single-endedforward channel	channel 1reverse channel	N/Adate	2019/09/13time	22:10:35forward acquisition time	60.00reverse acquisition time	0.00gamma	496.2192k internal	0.2332k external	0.2332temperature offset calibration	1.0091default loss term (dB/km)	0.3790temperature slope calibration	1.0000multiplexer offset coefficient	1.0000multiplexer slope coefficient	1.0000fibre end	0.00T internal ref (°C)	27.94T ext. ref 1 (°C)	3.24T ext. ref 2 (°C)	22.67length (m)	temperature (°C)	Stokes	anti-Stokes-747.200	-140.498	-0.199	0.021
-746.185	-70.488	-0.414	-0.158
-745.171	-200.000	0.047	0.218
-744.156	40.607	-0.224	0.203
-743.142	-40.012	0.130	-0.068
-742.127	-35.386	-0.127	-0.070
-741.112	605.258	-0.088	0.220
-740.098	800.000	-0.042	0.176
-739.083	46.647	-0.305	0.285
-738.069	63.673	-0.162	0.164
-737.054	68.112	-0.168	-0.173
-736.039	-69.804	-0.131	0.050
-735.025	-97.084	0.261	-0.069
-734.010	-126.159	-0.465	-0.070
-732.996	33.671	0.232	-0.203
-731.981	20.801	-0.183	0.149
-730.966	552.061	0.038	-0.092
-729.952	-58.249	-0.451	-0.197
-728.937	114.425	0.094	-0.115
-727.923	-200.000	-0.049	-0.226
-726.908	-200.000	0.029	-0.415
-725.894	-200.000	0.030	-0.373
-724.879	47.151	-0.324	-0.303
-723.864	113.479	0.104	0.127
-722.850	64.526	-0.254	-0.257
-721.835	-191.713	-0.419	-0.004
-720.821	-200.000	0.006	-0.060
-719.806	-156.688	-0.225	-0.014
-718.791	-200.000	-0.047	0.231
-717.777	645.106	0.114	-0.292
-716.762	292.312	0.059	-0.108
-715.748	485.508	0.076	-0.175
-714.733	-87.202	0.300	-0.092
-713.718	-200.000	0.031	-0.150
-712.704	-200.000	-0.006	-0.283
-711.689	154.749	-0.110	-0.152
-710.675	800.000	-0.019	0.055
-709.660	68.390	0.359	-0.370
-708.645	236.821	-0.239	0.398
-707.631	364.972	0.043	-0.087
-706.616	-113.882	-0.307	-0.060
-705.602	-200.000	0.069	-0.311
-704.587	800.000	0.072	-0.275
-703.572	-200.000	-0.031	-0.464
-702.558	-29.152	-0.072	0.041
-701.543	-174.128	-0.157	-0.005
-700.529	-200.000	0.008	0.061
-699.514	-86.674	0.139	-0.043
-698.499	-64.843	0.257	0.104
-697.485	-169.454	-0.037	-0.001
-696.470	365.686	-0.145	-0.294
-695.456	-200.000	0.051	-0.315
-694.441	273.482	0.156	-0.276
-693.426	2.750	0.272	-0.198
-692.412	309.785	0.123	-0.230
-691.397	-54.116	0.226	-0.103
-690.383	-12.861	0.264	-0.172
-689.368	-89.934	0.183	0.054
-688.354	531.861	0.015	-0.035
-687.339	-200.000	0.024	0.163
-686.324	-200.000	0.007	0.195
-685.310	319.021	-0.087	0.166
-684.295	103.412	-0.276	-0.325
-683.281	-146.732	-0.354	-0.031
-682.266	-200.000	-0.010	-0.139
-681.251	-200.000	-0.024	0.156
-680.237	123.065	-0.183	-0.230
-679.222	32.257	0.255	-0.221
-678.208	-107.784	0.092	0.020
-677.193	-169.116	-0.322	0.012
-676.178	19.326	0.140	-0.113
-675.164	-200.000	-0.051	-0.227
-674.149	16.228	-0.153	-0.121
-673.135	274.132	-0.095	-0.169
-672.120	-12.184	-0.252	0.165
-671.105	-73.137	-0.115	0.042
-670.091	767.150	0.049	-0.135
-669.076	-200.000	0.012	-0.245
-668.062	-72.884	-0.194	-0.071
-667.047	-87.531	0.180	0.054
-666.032	-142.303	-0.189	-0.019
-665.018	-38.848	0.133	0.070
-664.003	463.103	0.166	-0.372
-662.989	40.156	-0.315	-0.284
-661.974	84.880	0.192	-0.211
-660.959	77.102	0.107	-0.114
-659.945	-122.509	0.155	-0.025
-658.930	324.100	-0.087	0.166
-657.916	-39.108	0.268	-0.141
-656.901	369.909	-0.126	-0.256
-655.886	-38.140	0.197	-0.105
-654.872	-195.759	0.307	0.002
-653.857	-121.470	-0.336	0.056
-652.843	800.000	-0.039	-0.144
-651.828	-132.932	0.222	-0.028
-650.814	360.792	0.069	-0.138
-649.799	270.996	-0.158	-0.279
-648.784	65.436	0.098	-0.099
-647.770	-88.698	-0.316	0.094
-646.755	132.352	-0.159	0.206
-645.741	-200.000	0.009	0.084
-644.726	-91.027	-0.160	-0.046
-643.711	412.618	-0.096	-0.205
-642.697	45.134	-0.291	0.269
-641.682	-84.984	-0.255	0.080
-640.668	800.000	-0.070	-0.296
-639.653	194.060	-0.152	-0.230
-638.638	631.309	-0.030	-0.075
-637.624	-200.000	-0.040	-0.530
-636.609	-200.000	0.065	0.454
-635.595	-200.000	-0.025	-0.302
-634.580	-135.066	-0.127	-0.015
-633.565	23.915	0.065	-0.053
-632.551	-111.156	0.237	-0.049
-631.536	-119.776	-0.149	-0.026
-630.522	-200.000	-0.003	-0.232
-629.507	-140.884	0.103	-0.011
-628.492	-72.127	-0.202	0.075
-627.478	6.757	-0.322	0.240
-626.463	-188.140	0.279	-0.004
-625.449	-200.000	0.009	0.071
-624.434	565.738	-0.054	-0.132
-623.419	-139.633	0.356	-0.038
-622.405	-181.952	-0.202	0.004
-621.390	185.367	-0.200	-0.297
-620.376	-23.607	-0.205	0.123
-619.361	516.424	0.037	0.087
-618.346	199.485	0.197	-0.303
-617.332	239.789	-0.011	0.018
-616.317	800.000	0.077	0.226
-615.303	78.627	-0.070	-0.075
-614.288	-0.407	0.117	-0.083
-613.273	-200.000	-0.042	0.199
-612.259	-200.000	-0.001	0.090
-611.244	311.828	0.036	0.067
-610.230	447.069	0.061	0.134
-609.215	147.854	-0.068	0.092
-608.201	-131.950	0.040	-0.005
-607.186	136.111	0.260	0.339
-606.171	-192.175	0.265	-0.003
-605.157	-63.143	0.284	0.117
-604.142	-200.000	-0.036	-0.249
-603.128	111.154	0.118	-0.142
-602.113	-200.000	-0.043	0.234
-601.098	-200.000	-0.012	-0.265
-600.084	-200.000	0.009	0.046
-599.069	70.858	0.016	0.016
-598.055	373.396	-0.042	0.085
-597.040	251.048	0.132	-0.224
-596.025	-0.409	0.265	-0.189
-595.011	-200.000	0.028	0.416
-593.996	467.595	-0.151	-0.338
-592.982	72.294	0.165	-0.172
-591.967	78.605	0.160	0.171
-590.952	90.842	-0.153	-0.171
-589.938	461.355	0.158	0.353
-588.923	-200.000	-0.018	0.174
-587.909	-152.547	-0.430	-0.031
-586.894	-161.837	-0.340	0.017
-585.879	-200.000	0.011	0.093
-584.865	-200.000	0.015	-0.155
-583.850	-200.000	0.003	-0.204
-582.836	-36.633	0.133	0.072
-581.821	-79.418	0.161	-0.054
-580.806	96.484	0.131	0.150
-579.792	-187.956	0.058	-0.001
-578.777	-163.908	-0.058	0.003
-577.763	800.000	0.119	0.352
-576.748	-160.796	-0.019	-0.001
-575.733	-85.292	-0.482	-0.150
-574.719	-127.270	-0.261	0.038
-573.704	-33.608	-0.263	-0.145
-572.690	132.295	0.107	0.138
-571.675	-40.229	0.223	0.116
-570.661	192.039	-0.067	0.101
-569.646	-49.606	0.209	0.099
-568.631	349.459	0.142	-0.280
-567.617	6.636	0.095	-0.070
-566.602	187.798	0.200	-0.298
-565.588	135.130	-0.151	-0.196
-564.573	235.475	-0.037	-0.060
-563.558	-144.958	0.191	-0.017
-562.544	342.604	-0.029	0.057
-561.529	15.267	-0.206	-0.161
-560.515	51.887	-0.126	-0.120
-559.500	-94.492	-0.194	0.053
-558.485	420.289	-0.091	-0.196
-557.471	56.043	-0.044	-0.042
-556.456	-18.961	-0.094	-0.059
-555.442	-30.698	0.216	-0.122
-554.427	-200.000	-0.036	-0.187
-553.412	-200.000	0.027	-0.200
-552.398	-62.489	0.133	-0.055
-551.383	-160.387	-0.130	-0.007
-550.369	-56.849	-0.146	-0.065
-549.354	181.929	-0.153	0.224
-548.339	-47.175	0.183	0.089
-547.325	800.000	0.073	-0.202
-546.310	-6.159	-0.177	-0.121
-545.296	-20.847	0.198	0.121
-544.281	-200.000	0.016	-0.170
-543.266	-53.420	-0.284	0.130
-542.252	277.667	-0.047	0.083
-541.237	-153.421	0.195	0.013
-540.223	-200.000	-0.010	0.197
-539.208	-200.000	0.012	-0.132
-538.193	-190.907	0.103	0.001
-537.179	230.240	-0.108	0.176
-536.164	-200.000	0.002	-0.367
-535.150	180.425	0.057	0.083
-534.135	-21.485	0.008	-0.005
-533.121	800.000	0.083	-0.276
-532.106	-93.105	-0.176	0.049
-531.091	-200.000	0.017	0.086
-530.077	-200.000	-0.053	0.257
-529.062	30.001	0.190	-0.162
-528.048	-30.831	0.313	0.176
-527.033	800.000	-0.057	-0.232
-526.018	49.284	-0.101	0.095
-525.004	607.774	-0.134	0.334
-523.989	706.459	0.170	0.447
-522.975	276.114	0.073	0.129
-521.960	-48.668	0.262	-0.126
-520.945	-200.000	-0.021	0.105
-519.931	800.000	0.051	0.150
-518.916	-34.436	-0.067	0.036
-517.902	-69.227	-0.173	-0.066
-516.887	32.952	0.178	-0.154
-515.872	-155.373	0.119	-0.008
-514.858	-72.475	-0.087	-0.032
-513.843	-20.330	0.099	-0.061
-512.829	55.430	0.168	0.162
-511.814	800.000	0.073	-0.263
-510.799	400.337	-0.052	0.108
-509.785	-24.135	0.347	-0.207
-508.770	51.952	-0.187	0.178
-507.756	1.296	-0.154	-0.110
-506.741	800.000	0.047	0.155
-505.726	-6.098	0.082	0.056
-504.712	378.995	0.023	0.048
-503.697	-78.839	-0.167	0.057
-502.683	-66.300	-0.093	-0.037
-501.668	-96.294	-0.110	0.029
-500.653	800.000	-0.032	-0.125
-499.639	-46.061	0.172	0.084
-498.624	-200.000	0.001	0.268
-497.610	633.166	0.133	-0.336
-496.595	-36.033	-0.232	-0.125
-495.581	-84.036	0.327	-0.104
-494.566	519.667	0.073	0.170
-493.551	800.000	-0.038	0.134
-492.537	-11.748	-0.128	-0.084
-491.522	-200.000	-0.033	0.193
-490.508	-14.734	-0.391	0.250
-489.493	-89.005	-0.227	-0.067
-488.478	770.252	-0.092	0.250
-487.464	-38.295	0.246	0.130
-486.449	-139.448	-0.164	-0.018
-485.435	556.081	0.152	0.365
-484.420	-106.985	0.175	0.038
-483.405	-200.000	0.000	0.128
-482.391	800.000	0.040	0.136
-481.376	800.000	-0.056	-0.189
-480.362	-200.000	-0.026	0.235
-479.347	206.015	-0.127	-0.196
-478.332	-158.433	-0.152	-0.009
-477.318	-130.310	-0.325	0.044
-476.303	-3.081	-0.202	0.140
-475.289	-200.000	0.045	0.274
-474.274	117.999	0.102	-0.125
-473.259	39.540	-0.187	-0.167
-472.245	-73.494	-0.181	0.066
-471.230	75.203	-0.108	0.113
-470.216	1.188	0.327	-0.234
-469.201	-29.273	-0.258	-0.147
-468.186	-200.000	0.014	-0.118
-467.172	800.000	0.025	-0.079
-466.157	-136.843	0.148	0.017
-465.143	-107.311	-0.287	-0.063
-464.128	91.122	0.129	0.144
-463.113	-200.000	-0.081	0.520
-462.099	-200.000	-0.033	-0.203
-461.084	43.444	-0.081	-0.074
-460.070	537.815	0.091	0.215
-459.055	196.394	0.106	-0.160
-458.040	-94.011	0.054	-0.015
-457.026	-67.561	0.257	0.100
-456.011	60.662	0.143	0.141
-454.997	39.362	0.292	0.260
-453.982	5.592	0.269	0.197
-452.968	-96.128	-0.243	-0.064
-451.953	-114.298	-0.277	-0.053
-450.938	-48.288	-0.036	-0.017
-449.924	-120.689	0.197	0.033
-448.909	-90.497	-0.240	-0.069
-447.895	24.127	-0.138	-0.114
-446.880	-200.000	-0.029	-0.187
-445.865	304.968	-0.150	0.277
-444.851	24.635	-0.165	0.136
-443.836	-48.085	0.181	0.087
-442.822	127.541	0.163	-0.206
-441.807	119.473	0.155	0.190
-440.792	74.685	-0.304	0.318
-439.778	-112.402	-0.499	0.099
-438.763	104.637	-0.229	-0.268
-437.749	-27.826	-0.098	0.057
-436.734	-18.688	-0.191	0.119
-435.719	-94.420	-0.216	-0.059
-434.705	-88.552	0.256	0.076
-433.690	-127.952	0.367	-0.052
-432.676	13.242	-0.323	0.248
-431.661	78.319	-0.126	-0.134
-430.646	800.000	0.073	-0.290
-429.632	476.239	-0.149	-0.334
-428.617	94.457	0.146	-0.164
-427.603	-200.000	-0.042	0.284
-426.588	-133.597	0.146	0.018
-425.573	142.205	0.136	-0.179
-424.559	140.518	-0.167	0.219
-423.544	130.866	0.067	-0.086
-422.530	-200.000	-0.027	-0.124
-421.515	118.887	-0.229	-0.281
-420.500	-173.986	0.151	-0.004
-419.486	-200.000	0.053	0.395
-418.471	46.129	-0.157	-0.144
-417.457	800.000	0.028	-0.080
-416.442	461.184	0.130	0.288
-415.428	-127.356	-0.292	0.042
-414.413	-107.919	0.111	-0.024
-413.398	493.785	-0.108	-0.247
-412.384	-92.562	-0.309	-0.086
-411.369	-161.366	0.260	-0.013
-410.355	205.800	-0.253	-0.391
-409.340	-65.139	-0.183	0.073
-408.325	-121.177	0.086	0.014
-407.311	-102.229	0.247	0.059
-406.296	-39.104	-0.203	0.106
-405.282	-200.000	0.085	-0.468
-404.267	187.527	-0.016	0.024
-403.252	39.094	0.257	-0.228
-402.238	-100.372	-0.260	0.064
-401.223	-200.000	0.011	-0.135
-400.209	-22.061	0.271	0.164
-399.194	-42.566	-0.108	-0.055
-398.179	800.000	-0.018	-0.058
-397.165	-126.156	-0.166	-0.025
-396.150	-71.118	0.161	-0.060
-395.136	180.154	-0.117	-0.171
-394.121	-119.816	0.234	0.040
-393.106	123.071	0.153	-0.190
-392.092	-127.089	-0.250	-0.036
-391.077	-107.712	-0.281	-0.061
-390.063	75.655	-0.167	0.175
-389.048	-45.136	-0.156	0.077
-388.033	176.875	-0.048	-0.070
-387.019	800.000	0.031	0.101
-386.004	-71.716	-0.148	-0.055
-384.990	-6.893	0.055	0.037
-383.975	-65.730	-0.210	-0.083
-382.960	800.000	-0.052	0.150
-381.946	-126.020	-0.229	-0.034
-380.931	-200.000	0.001	0.020
-379.917	-11.767	-0.235	-0.153
-378.902	800.000	-0.052	-0.218
-377.888	305.557	0.100	0.184
-376.873	-73.537	0.209	-0.075
-375.858	800.000	0.059	0.229
-374.844	24.615	0.362	0.297
-373.829	-142.562	0.042	0.004
-372.815	169.740	0.096	-0.135
-371.800	64.612	-0.096	0.096
-370.785	16.042	-0.220	-0.172
-369.771	-140.889	0.388	0.040
-368.756	-67.071	0.177	-0.069
-367.742	-200.000	-0.031	-0.274
-366.727	-97.682	0.189	-0.048
-365.712	328.817	-0.056	0.106
-364.698	-108.428	0.155	-0.033
-363.683	86.756	0.172	0.188
-362.669	-61.762	0.123	0.051
-361.654	-139.096	-0.234	-0.025
-360.639	-18.715	0.125	-0.077
-359.625	-3.926	-0.109	0.075
-358.610	3.929	0.067	0.049
-357.596	103.931	0.169	-0.197
-356.581	-80.996	-0.362	-0.119
-355.566	-169.356	0.323	0.012
-354.552	60.521	-0.182	0.179
-353.537	344.162	-0.105	-0.204
-352.523	221.435	-0.024	0.038
-351.508	375.860	-0.114	-0.230
-350.493	800.000	-0.014	0.047
-349.479	-140.160	0.331	-0.034
-348.464	-124.645	0.382	-0.059
-347.450	47.946	0.146	-0.136
-346.435	-146.984	-0.096	-0.008
-345.420	-10.938	0.305	-0.200
-344.406	-95.329	-0.283	0.075
-343.391	-94.789	-0.041	-0.011
-342.377	800.000	0.060	0.222
-341.362	259.043	-0.141	-0.240
-340.348	5.011	0.249	0.181
-339.333	-40.745	0.075	-0.039
-338.318	-70.842	0.323	-0.120
-337.304	623.840	0.093	0.232
-336.289	800.000	0.097	-0.298
-335.275	-133.228	-0.203	-0.025
-334.260	-77.326	0.163	-0.056
-333.245	367.734	-0.108	-0.216
-332.231	800.000	0.095	0.382
-331.216	292.434	-0.040	-0.073
-330.202	-139.312	-0.180	-0.019
-329.187	-200.000	-0.003	-0.040
-328.172	76.942	-0.174	0.183
-327.158	-35.262	0.091	0.049
-326.143	386.732	-0.242	-0.494
-325.129	84.789	-0.184	0.199
-324.114	11.418	0.042	0.032
-323.099	-200.000	0.008	-0.257
-322.085	27.782	-0.143	-0.119
-321.070	400.725	0.035	-0.073
-320.056	136.080	-0.320	-0.412
-319.041	-93.084	0.104	0.029
-318.026	-67.999	-0.351	0.135
-317.012	71.805	0.132	-0.136
-315.997	471.555	-0.036	-0.080
-314.983	215.232	0.225	0.353
-313.968	-133.084	0.217	0.027
-312.953	430.616	-0.040	0.086
-311.939	233.923	0.090	0.147
-310.924	-50.418	0.074	-0.035
-309.910	-200.000	0.041	-0.378
-308.895	228.395	-0.033	-0.054
-307.880	-37.801	-0.085	-0.045
-306.866	-136.672	0.260	0.030
-305.851	91.063	-0.167	-0.185
-304.837	-200.000	0.016	-0.266
-303.822	-114.758	-0.178	-0.034
-302.807	602.985	0.088	0.215
-301.793	-200.000	0.049	-0.278
-300.778	-8.371	-0.325	-0.216
-299.764	-200.000	0.010	-0.167
-298.749	56.609	-0.085	-0.081
-297.735	33.923	-0.214	-0.184
-296.720	-200.000	-0.034	0.273
-295.705	705.398	-0.125	-0.327
-294.691	162.258	0.135	-0.187
-293.676	37.183	0.201	0.176
-292.662	-102.537	-0.361	-0.085
-291.647	-200.000	0.033	-0.338
-290.632	-60.545	0.249	0.105
-289.618	643.350	0.125	0.315
-288.603	77.342	-0.276	0.290
-287.589	115.094	0.148	0.178
-286.574	-5.984	-0.214	-0.145
-285.559	255.443	0.103	-0.175
-284.545	375.797	0.028	-0.057
-283.530	-66.384	0.099	-0.039
-282.516	-16.270	0.048	-0.030
-281.501	-200.000	0.007	-0.052
-280.486	-96.012	0.331	0.087
-279.472	-200.000	-0.028	-0.143
-278.457	800.000	-0.107	0.295
-277.443	-200.000	-0.012	0.267
-276.428	746.345	0.013	0.035
-275.413	27.908	-0.070	0.058
-274.399	27.113	-0.100	-0.083
-273.384	-200.000	0.008	0.145
-272.370	12.159	-0.272	0.207
-271.355	800.000	-0.064	0.277
-270.340	800.000	0.073	-0.213
-269.326	131.094	0.054	0.068
-268.311	74.079	-0.021	-0.022
-267.297	-53.716	-0.186	0.084
-266.282	-24.266	-0.065	-0.038
-265.267	-68.716	-0.114	-0.044
-264.253	-144.976	-0.400	-0.036
-263.238	-5.135	-0.181	0.123
-262.224	-167.478	0.226	0.009
-261.209	-112.216	-0.243	0.048
-260.195	-45.584	0.585	-0.286
-259.180	-101.715	-0.185	0.044
-258.165	-200.000	0.012	0.430
-257.151	-58.545	0.059	-0.025
-256.136	7.328	-0.157	0.116
-255.122	19.441	0.098	-0.078
-254.107	-93.655	0.261	-0.071
-253.092	-85.263	-0.141	0.043
-252.078	-0.447	0.229	-0.160
-251.063	-50.506	0.268	-0.125
-250.049	-200.000	0.022	0.236
-249.034	496.409	-0.155	-0.351
-248.019	-24.658	-0.298	0.175
-247.005	-200.000	-0.000	-0.382
-245.990	-15.990	-0.145	0.091
-244.976	-86.452	0.227	-0.069
-243.961	800.000	0.028	0.098
-242.946	394.362	0.079	0.163
-241.932	717.511	-0.150	0.394
-240.917	48.601	-0.153	-0.142
-239.903	781.363	0.049	0.132
-238.888	-200.000	-0.002	0.084
-237.873	146.799	-0.032	-0.042
-236.859	-107.550	-0.364	0.079
-235.844	-103.188	-0.307	-0.072
-234.830	-67.780	0.306	-0.118
-233.815	217.768	0.114	-0.180
-232.800	-15.102	-0.047	0.030
-231.786	115.683	-0.144	-0.173
-230.771	529.997	-0.113	0.264
-229.757	-200.000	-0.068	0.311
-228.742	-200.000	0.009	0.236
-227.727	308.106	0.141	0.259
-226.713	-125.683	0.121	-0.018
-225.698	-200.000	0.009	0.060
-224.684	800.000	-0.034	-0.135
-223.669	207.182	0.067	0.102
-222.655	-200.000	0.037	0.217
-221.640	-130.405	-0.208	-0.028
-220.625	193.266	-0.164	0.244
-219.611	-41.619	-0.011	0.006
-218.596	58.746	-0.132	0.127
-217.582	-98.043	-0.121	-0.031
-216.567	-69.851	0.188	0.071
-215.552	800.000	0.082	0.266
-214.538	-178.351	0.283	0.007
-213.523	-79.553	0.234	-0.078
-212.509	618.446	0.133	0.329
-211.494	501.952	0.036	0.083
-210.479	-200.000	-0.017	-0.106
-209.465	21.378	0.268	-0.214
-208.450	21.970	0.270	0.217
-207.436	139.000	0.082	0.106
-206.421	-176.347	-0.185	0.005
-205.406	-200.000	0.030	0.169
-204.392	-9.308	0.090	0.059
-203.377	-143.507	0.436	-0.041
-202.363	800.000	0.103	-0.296
-201.348	-78.068	0.220	0.074
-200.333	800.000	-0.042	-0.148
-199.319	230.252	0.126	-0.202
-198.304	48.748	-0.089	-0.083
-197.290	-157.376	0.081	0.005
-196.275	92.978	0.202	-0.225
-195.260	30.333	-0.183	-0.154
-194.246	-200.000	0.004	-0.167
-193.231	800.000	0.075	-0.230
-192.217	-200.000	-0.033	-0.151
-191.202	-200.000	-0.066	0.300
-190.187	-74.379	-0.390	-0.139
-189.173	-134.135	-0.171	0.021
-188.158	614.831	-0.086	0.212
-187.144	-157.706	0.113	-0.007
-186.129	-159.416	0.111	0.006
-185.114	286.846	0.087	0.155
-184.100	-46.188	0.131	-0.063
-183.085	37.239	0.116	-0.102
-182.071	3.637	-0.094	-0.067
-181.056	190.728	-0.125	0.185
-180.042	-200.000	-0.006	0.075
-179.027	254.806	-0.047	-0.079
-178.012	97.023	-0.022	0.024
-176.998	-200.000	-0.020	-0.188
-175.983	-117.533	0.343	-0.061
-174.969	-88.895	-0.298	0.087
-173.954	-122.621	0.202	-0.032
-172.939	88.229	0.249	0.272
-171.925	442.419	0.186	-0.401
-170.910	-134.872	0.278	0.033
-169.896	-40.386	0.246	0.126
-168.881	800.000	-0.064	-0.180
-167.866	-31.574	-0.322	0.178
-166.852	600.180	-0.195	0.475
-165.837	-200.000	-0.039	-0.292
-164.823	-200.000	0.020	-0.097
-163.808	-35.385	0.019	0.010
-162.793	152.919	-0.075	0.101
-161.779	275.167	0.144	0.251
-160.764	497.404	0.083	0.189
-159.750	800.000	0.138	0.547
-158.735	-174.794	0.421	-0.012
-157.720	168.495	-0.105	0.147
-156.706	-65.794	0.341	-0.134
-155.691	12.038	0.138	0.104
-154.677	800.000	0.061	-0.234
-153.662	27.589	0.283	0.234
-152.647	-107.265	0.215	0.047
-151.633	-200.000	0.183	-0.000
-150.618	375.597	-0.061	-0.123
-149.604	-60.717	0.212	0.088
-148.589	800.000	-0.053	0.215
-147.574	-101.008	0.179	0.043
-146.560	77.272	0.071	-0.074
-145.545	-17.892	0.090	-0.055
-144.531	-73.944	-0.157	-0.056
-143.516	-46.508	-0.170	-0.082
-142.502	800.000	0.029	-0.087
-141.487	-200.000	0.017	-0.212
-140.472	-113.637	0.315	-0.060
-139.458	786.647	0.176	-0.475
-138.443	800.000	-0.149	-0.406
-137.429	170.743	-0.025	-0.035
-136.414	-76.569	0.413	-0.143
-135.399	109.222	0.196	0.230
-134.385	800.000	-0.069	0.218
-133.370	663.497	-0.029	-0.075
-132.356	800.000	0.018	-0.068
-131.341	-200.000	-0.014	0.254
-130.326	-94.281	0.278	0.075
-129.312	610.985	0.049	0.121
-128.297	447.690	0.101	0.217
-127.283	-32.353	0.263	0.144
-126.268	-72.196	0.164	0.060
-125.253	-150.392	0.163	0.012
-124.239	26.511	0.071	-0.058
-123.224	-151.530	0.304	0.022
-122.210	800.000	-0.125	-0.341
