DTS Sentinel unit serial number:	SN413079Multiplexer serial number:	ORYXHardware model number:	OX4-SRSoftware version number:	ORYX F/W v4.00 Oryx Data Collector v3.7.2.0data status	okinstallation	princeton_trtdifferential loss correction	single-endedforward channel	channel 1reverse channel	N/Adate	2019/09/17time	17:06:35forward acquisition time	60.00reverse acquisition time	0.00gamma	496.2192k internal	0.2292k external	0.2292temperature offset calibration	0.9955default loss term (dB/km)	0.3790temperature slope calibration	1.0000multiplexer offset coefficient	1.0000multiplexer slope coefficient	1.0000fibre end	0.00T internal ref (°C)	42.69T ext. ref 1 (°C)	0.35T ext. ref 2 (°C)	38.99length (m)	temperature (°C)	Stokes	anti-Stokes-747.200	-200.000	-0.009	0.210
-746.185	16.634	-0.252	0.204
-745.171	105.628	-0.171	0.206
-744.156	126.637	-0.096	0.125
-743.142	204.786	0.058	0.092
-742.127	-200.000	0.034	0.311
-741.112	-30.970	0.070	-0.040
-740.098	-200.000	-0.016	0.111
-739.083	-33.717	0.126	0.071
-738.069	13.919	0.335	0.266
-737.054	389.600	-0.012	0.025
-736.039	-200.000	0.006	-0.197
-735.025	-200.000	0.019	-0.087
-734.010	116.067	0.034	-0.042
-732.996	-200.000	0.005	0.099
-731.981	-149.496	-0.141	0.011
-730.966	141.845	0.211	0.287
-729.952	-126.269	-0.383	0.059
-728.937	-1.006	-0.379	0.275
-727.923	201.322	-0.162	-0.254
-726.908	-179.567	0.076	-0.002
-725.894	7.008	-0.058	0.044
-724.879	3.868	-0.197	0.147
-723.864	800.000	-0.042	0.152
-722.850	-35.809	-0.033	-0.018
-721.835	-76.386	0.113	-0.041
-720.821	545.945	0.158	-0.386
-719.806	-139.208	0.322	0.036
-718.791	-156.088	-0.077	0.005
-717.777	-200.000	0.012	-0.214
-716.762	-200.000	0.040	0.319
-715.748	-9.025	0.247	-0.169
-714.733	-134.443	-0.593	-0.074
-713.718	-200.000	0.026	0.245
-712.704	-200.000	-0.053	0.314
-711.689	234.580	0.059	0.100
-710.675	-116.770	-0.346	-0.065
-709.660	800.000	0.064	0.222
-708.645	-10.098	0.251	0.170
-707.631	-61.275	0.184	0.079
-706.616	151.852	0.170	-0.237
-705.602	-200.000	0.004	0.242
-704.587	800.000	0.093	0.288
-703.572	-180.763	0.163	-0.003
-702.558	-200.000	-0.013	-0.238
-701.543	-71.902	-0.185	-0.071
-700.529	462.047	0.103	0.234
-699.514	-200.000	0.015	0.288
-698.499	237.501	0.111	-0.189
-697.485	800.000	-0.085	-0.259
-696.470	335.663	0.206	-0.409
-695.456	-4.425	-0.275	-0.194
-694.441	167.554	-0.198	-0.287
-693.426	95.741	0.213	0.248
-692.412	332.421	0.172	-0.340
-691.397	108.724	-0.029	-0.035
-690.383	367.755	0.081	-0.168
-689.368	800.000	-0.032	-0.113
-688.354	169.718	0.115	-0.168
-687.339	-32.258	-0.165	-0.094
-686.324	-200.000	-0.036	0.691
-685.310	16.218	-0.252	-0.203
-684.295	85.931	-0.167	-0.188
-683.281	-167.482	0.517	0.021
-682.266	172.219	-0.098	-0.143
-681.251	800.000	-0.059	0.233
-680.237	61.040	0.235	-0.238
-679.222	41.061	0.152	0.141
-678.208	-62.663	-0.143	-0.061
-677.193	-121.034	-0.269	-0.046
-676.178	57.517	-0.118	-0.118
-675.164	-120.748	-0.037	-0.006
-674.149	595.445	-0.040	-0.101
-673.135	113.709	-0.138	0.171
-672.120	324.216	0.059	-0.115
-671.105	-61.157	-0.139	-0.060
-670.091	275.211	-0.133	0.241
-669.076	-77.318	-0.339	0.120
-668.062	73.986	0.118	-0.126
-667.047	-73.953	-0.146	0.054
-666.032	548.953	-0.036	-0.089
-665.018	-200.000	0.083	0.411
-664.003	745.308	0.075	-0.205
-662.989	800.000	0.031	-0.132
-661.974	356.805	-0.037	-0.074
-660.959	-90.095	-0.167	0.050
-659.945	217.058	-0.221	0.359
-658.930	-200.000	-0.059	0.341
-657.916	-200.000	-0.011	-0.166
-656.901	33.876	-0.410	-0.364
-655.886	-200.000	-0.020	0.162
-654.872	78.750	0.132	-0.144
-653.857	-115.176	-0.346	0.067
-652.843	-200.000	0.002	-0.235
-651.828	10.836	0.011	-0.008
-650.814	-15.846	-0.264	-0.171
-649.799	102.541	0.036	0.043
-648.784	-161.421	-0.361	-0.019
-647.770	-121.970	-0.158	-0.026
-646.755	-72.639	0.166	0.062
-645.741	800.000	0.097	0.301
-644.726	213.993	-0.290	-0.467
-643.711	800.000	-0.041	-0.158
-642.697	555.372	-0.076	0.188
-641.682	467.473	0.057	0.129
-640.668	-200.000	-0.022	0.205
-639.653	-82.891	-0.339	0.112
-638.638	-6.973	0.184	0.127
-637.624	42.311	-0.174	-0.161
-636.609	6.790	0.133	-0.101
-635.595	57.215	0.175	0.174
-634.580	146.989	-0.079	-0.109
-633.565	-68.245	-0.246	-0.097
-632.551	135.463	-0.103	-0.137
-631.536	-112.997	-0.240	0.048
-630.522	295.288	0.223	0.416
-629.507	-28.422	-0.139	0.081
-628.492	-24.144	0.315	-0.191
-627.478	-200.000	-0.020	0.225
-626.463	362.649	-0.055	0.112
-625.449	326.723	-0.085	0.165
-624.434	800.000	-0.088	0.382
-623.419	-131.036	0.188	-0.026
-622.405	-200.000	0.006	0.299
-621.390	-91.040	0.185	0.054
-620.376	28.028	-0.095	-0.081
-619.361	-173.898	-0.433	0.013
-618.346	-139.646	-0.117	0.013
-617.332	168.474	0.106	-0.153
-616.317	-200.000	-0.051	0.236
-615.303	-57.235	0.134	-0.060
-614.288	88.540	-0.231	0.261
-613.273	-35.647	-0.200	0.111
-612.259	17.509	0.146	0.118
-611.244	-56.176	0.121	0.055
-610.230	-59.414	-0.117	-0.051
-609.215	-67.256	-0.186	-0.074
-608.201	35.092	-0.271	0.242
-607.186	-85.309	-0.122	-0.039
-606.171	31.055	-0.120	0.105
-605.157	-73.395	-0.421	0.157
-604.142	-113.685	-0.294	-0.058
-603.128	-15.963	0.257	0.167
-602.113	100.456	0.147	0.174
-601.098	506.281	-0.073	0.171
-600.084	94.747	0.186	-0.215
-599.069	-200.000	-0.034	-0.231
-598.055	110.697	0.160	-0.196
-597.040	800.000	0.106	-0.300
-596.025	3.666	-0.267	-0.199
-595.011	178.121	0.112	-0.167
-593.996	-42.153	-0.140	-0.073
-592.982	140.572	-0.042	0.056
-591.967	428.774	0.031	0.069
-590.952	-105.475	-0.309	-0.071
-589.938	-200.000	0.041	-0.382
-588.923	-168.491	-0.314	-0.012
-587.909	-64.825	-0.112	0.046
-586.894	-62.269	-0.145	-0.061
-585.879	216.996	-0.157	-0.254
-584.865	38.363	0.365	-0.331
-583.850	800.000	-0.029	-0.100
-582.836	-200.000	-0.007	-0.051
-581.821	274.651	0.040	-0.072
-580.806	284.954	-0.148	-0.270
-579.792	-113.559	-0.138	-0.027
-578.777	59.861	0.337	-0.338
-577.763	-138.282	0.330	-0.037
-576.748	34.574	0.221	0.197
-575.733	-149.140	-0.374	0.030
-574.719	-200.000	-0.016	-0.400
-573.704	132.579	-0.077	0.101
-572.690	-147.377	-0.201	-0.017
-571.675	-167.984	0.030	0.001
-570.661	-83.971	0.278	0.090
-569.646	153.052	-0.099	0.137
-568.631	64.483	0.214	-0.219
-567.617	-184.892	0.241	0.004
-566.602	12.684	-0.130	0.102
-565.588	-128.508	-0.125	-0.018
-564.573	-89.076	-0.191	0.057
-563.558	-84.559	0.122	-0.039
-562.544	37.628	-0.088	0.079
-561.529	494.692	-0.204	-0.476
-560.515	450.043	-0.074	0.166
-559.500	-113.770	-0.030	0.006
-558.485	-165.093	0.140	0.006
-557.471	-149.926	-0.088	0.007
-556.456	-51.369	-0.177	0.084
-555.442	-64.320	-0.088	-0.036
-554.427	-93.833	-0.297	-0.083
-553.412	-125.384	0.099	-0.015
-552.398	800.000	-0.032	0.100
-551.383	-200.000	0.021	0.211
-550.369	-38.362	0.303	0.163
-549.354	188.142	-0.176	0.267
-548.339	520.900	0.097	0.230
-547.325	13.633	-0.074	0.059
-546.310	-116.146	-0.258	0.049
-545.296	45.954	-0.095	0.089
-544.281	-200.000	-0.018	0.174
-543.266	800.000	0.103	0.424
-542.252	-23.779	0.091	0.055
-541.237	136.527	-0.020	-0.027
-540.223	-98.353	0.233	-0.061
-539.208	-31.378	-0.227	-0.130
-538.193	-200.000	0.026	0.120
-537.179	97.115	0.077	0.089
-536.164	350.183	0.066	0.133
-535.150	86.888	0.238	-0.267
-534.135	-107.086	0.124	0.028
-533.121	87.486	0.168	0.189
-532.106	800.000	0.056	-0.166
-531.091	211.981	-0.178	0.284
-530.077	-2.763	0.215	0.152
-529.062	-200.000	0.000	-0.160
-528.048	-67.283	0.036	-0.014
-527.033	607.928	-0.115	-0.292
-526.018	-31.126	0.080	0.046
-525.004	-19.972	-0.048	-0.030
-523.989	-70.443	-0.093	0.036
-522.975	-200.000	-0.024	-0.145
-521.960	-200.000	-0.010	-0.284
-520.945	-167.385	-0.390	0.016
-519.931	54.072	0.181	0.177
-518.916	430.028	0.105	0.231
-517.902	541.499	0.062	0.149
-516.887	-200.000	0.032	-0.512
-515.872	-129.768	0.270	-0.038
-514.858	-200.000	-0.026	-0.295
-513.843	208.902	0.105	-0.167
-512.829	155.750	0.119	0.166
-511.814	239.694	-0.073	-0.123
-510.799	800.000	-0.043	-0.133
-509.785	-34.500	0.266	0.148
-508.770	161.032	0.041	0.057
-507.756	-103.379	0.114	0.027
-506.741	-62.894	-0.222	0.093
-505.726	-114.487	-0.176	0.034
-504.712	-110.645	0.368	-0.077
-503.697	584.636	0.063	0.157
-502.683	-89.815	0.165	0.049
-501.668	-106.408	0.161	0.036
-500.653	800.000	0.091	0.261
-499.639	40.277	0.126	0.115
-498.624	24.714	0.158	-0.133
-497.610	-74.028	-0.268	-0.098
-496.595	-117.679	0.119	-0.022
-495.581	-200.000	-0.001	-0.021
-494.566	-99.828	0.171	0.043
-493.551	507.703	-0.130	-0.307
-492.537	-200.000	-0.032	-0.205
-491.522	148.930	-0.185	0.253
-490.508	424.374	0.091	0.198
-489.493	-39.011	0.081	-0.043
-488.478	100.487	0.142	-0.167
-487.464	19.090	-0.320	0.260
-486.449	-49.839	-0.063	-0.030
-485.435	-29.613	-0.142	0.082
-484.420	193.648	-0.241	-0.369
-483.405	-200.000	0.006	-0.126
-482.391	-12.641	0.272	0.180
-481.376	-159.280	0.362	-0.021
-480.362	167.621	-0.193	-0.277
-479.347	-105.592	0.184	-0.042
-478.332	52.554	0.317	0.306
-477.318	800.000	-0.044	-0.163
-476.303	-130.133	0.230	0.032
-475.289	81.332	-0.102	-0.112
-474.274	-200.000	0.039	0.224
-473.259	29.970	-0.154	0.133
-472.245	-134.482	-0.192	0.024
-471.230	140.311	0.232	-0.310
-470.216	-200.000	0.045	0.220
-469.201	-139.327	0.058	-0.006
-468.186	-88.742	-0.201	-0.061
-467.172	49.538	0.236	0.225
-466.157	-200.000	-0.006	-0.127
-465.143	-4.772	0.170	0.119
-464.128	800.000	-0.088	-0.300
-463.113	-176.573	0.048	-0.001
-462.099	104.278	-0.158	-0.188
-461.084	-200.000	-0.009	0.217
-460.070	225.372	0.088	-0.145
-459.055	-43.405	-0.147	0.075
-458.040	-200.000	0.016	-0.236
-457.026	487.514	0.150	-0.345
-456.011	307.288	0.084	0.158
-454.997	646.511	-0.106	0.275
-453.982	800.000	-0.026	0.081
-452.968	782.878	0.048	0.132
-451.953	-200.000	0.033	0.175
-450.938	-200.000	0.030	-0.187
-449.924	-200.000	-0.025	0.246
-448.909	228.777	-0.060	0.099
-447.895	100.635	0.249	0.293
-446.880	21.867	0.073	0.060
-445.865	92.912	0.127	-0.145
-444.851	-59.450	0.158	0.069
-443.836	800.000	0.025	0.074
-442.822	-117.760	0.189	-0.034
-441.807	-126.115	-0.167	-0.025
-440.792	336.669	0.075	0.147
-439.778	-72.496	0.301	0.112
-438.763	-83.000	0.069	-0.022
-437.749	-28.942	0.255	0.148
-436.734	329.069	-0.099	-0.193
-435.719	51.277	0.134	-0.129
-434.705	-200.000	-0.002	0.234
-433.690	800.000	0.036	0.141
-432.676	-65.057	0.125	-0.051
-431.661	800.000	-0.081	0.337
-430.646	-69.072	0.067	-0.026
-429.632	362.440	-0.099	-0.202
-428.617	-108.651	-0.160	-0.035
-427.603	-200.000	0.057	-0.328
-426.588	-100.719	0.213	0.053
-425.573	-56.703	-0.271	0.121
-424.559	52.580	-0.364	-0.351
-423.544	-141.172	0.281	0.029
-422.530	-33.487	0.052	-0.029
-421.515	181.431	0.135	-0.201
-420.500	-51.593	0.135	-0.063
-419.486	-60.954	-0.050	0.022
-418.471	800.000	-0.081	-0.266
-417.457	-165.884	0.233	0.010
-416.442	210.270	0.032	0.051
-415.428	-68.267	-0.245	0.096
-414.413	-81.879	-0.289	0.095
-413.398	-200.000	-0.040	-0.196
-412.384	-200.000	-0.012	0.074
-411.369	-122.776	-0.087	0.014
-410.355	-72.925	0.224	0.083
-409.340	1.915	-0.285	-0.207
-408.325	-2.708	-0.039	0.028
-407.311	-200.000	0.012	0.371
-406.296	-200.000	0.016	-0.117
-405.282	423.846	-0.138	0.300
-404.267	525.073	0.103	0.244
-403.252	-25.586	-0.129	0.077
-402.238	-37.834	-0.144	-0.078
-401.223	301.189	0.180	-0.335
-400.209	-31.667	0.291	0.165
-399.194	47.733	0.155	0.146
-398.179	705.490	-0.075	-0.200
-397.165	163.566	0.035	-0.050
-396.150	35.692	-0.169	-0.150
-395.136	-78.012	0.120	0.042
-394.121	77.668	-0.206	0.221
-393.106	800.000	-0.013	-0.037
-392.092	264.311	0.048	0.084
-391.077	-123.355	0.197	0.032
-390.063	60.646	-0.097	0.097
-389.048	231.362	-0.085	-0.141
-388.033	-200.000	-0.068	0.328
-387.019	28.368	-0.274	0.234
-386.004	-0.891	0.113	0.081
-384.990	211.619	-0.137	0.217
-383.975	192.540	-0.193	0.294
-382.960	-136.819	-0.322	-0.037
-381.946	34.778	-0.130	-0.115
-380.931	17.117	-0.293	-0.234
-379.917	-200.000	-0.013	0.208
-378.902	-82.094	0.308	-0.101
-377.888	800.000	0.035	0.115
-376.873	395.902	-0.090	0.189
-375.858	216.282	0.082	0.132
-374.844	94.200	-0.129	-0.148
-373.829	148.222	0.175	-0.238
-372.815	-200.000	-0.040	-0.385
-371.800	-36.087	-0.278	-0.152
-370.785	65.996	0.094	-0.097
-369.771	-68.232	0.100	-0.039
-368.756	-200.000	-0.029	0.134
-367.742	-106.952	-0.134	0.030
-366.727	-200.000	0.019	0.199
-365.712	177.574	0.112	-0.165
-364.698	-32.325	0.184	-0.103
-363.683	-200.000	-0.008	-0.094
-362.669	-68.367	0.063	0.025
-361.654	800.000	0.144	0.424
-360.639	-46.404	-0.092	-0.045
-359.625	-82.011	0.118	0.039
-358.610	76.528	0.094	-0.101
-357.596	-200.000	-0.007	0.256
-356.581	351.401	-0.109	0.218
-355.566	-38.231	-0.193	0.103
-354.552	-31.604	-0.181	-0.102
-353.537	-200.000	0.001	0.033
-352.523	-200.000	-0.010	-0.109
-351.508	89.493	-0.126	-0.141
-350.493	24.348	-0.331	0.276
-349.479	-200.000	-0.008	0.251
-348.464	-146.275	-0.435	0.038
-347.450	-107.683	-0.227	-0.050
-346.435	-200.000	0.006	-0.057
-345.420	-200.000	0.042	-0.292
-344.406	63.789	-0.330	-0.334
-343.391	800.000	-0.088	-0.311
-342.377	-1.229	0.044	0.031
-341.362	201.888	0.047	-0.073
-340.348	-200.000	0.026	-0.117
-339.333	74.889	-0.122	0.130
-338.318	11.144	-0.133	0.102
-337.304	29.232	-0.217	0.186
-336.289	-200.000	-0.037	0.382
-335.275	118.675	-0.038	-0.048
-334.260	-200.000	0.025	-0.420
-333.245	53.641	-0.250	-0.241
-332.231	37.408	-0.098	0.087
-331.216	17.687	0.127	0.102
-330.202	800.000	0.021	-0.082
-329.187	-63.886	0.025	-0.010
-328.172	800.000	-0.033	-0.129
-327.158	-200.000	0.007	0.464
-326.143	-200.000	-0.017	0.076
-325.129	-24.775	-0.203	-0.121
-324.114	70.838	-0.193	-0.201
-323.099	-200.000	0.099	-0.460
-322.085	-37.936	0.316	-0.169
-321.070	587.370	0.172	0.426
-320.056	-200.000	0.025	0.159
-319.041	-181.405	0.153	-0.003
-318.026	86.121	-0.037	-0.041
-317.012	116.883	-0.081	-0.100
-315.997	-91.758	-0.214	-0.061
-314.983	-110.737	0.425	-0.088
-313.968	96.584	0.157	-0.181
-312.953	-144.447	0.026	-0.002
-311.939	271.592	0.016	0.028
-310.924	-134.076	-0.223	0.028
-309.910	-96.168	0.105	-0.028
-308.895	126.888	-0.206	-0.263
-307.880	-119.348	0.220	-0.038
-306.866	-42.229	-0.181	-0.093
-305.851	597.089	-0.148	0.368
-304.837	594.440	0.114	0.282
-303.822	-122.031	-0.244	0.040
-302.807	-58.901	0.083	-0.036
-301.793	244.276	-0.136	-0.230
-300.778	147.831	0.082	0.111
-299.764	-24.048	0.255	0.154
-298.749	577.381	0.026	-0.063
-297.735	-125.598	-0.246	0.038
-296.720	743.079	0.058	0.157
-295.705	109.702	0.214	0.258
-294.691	49.193	-0.098	-0.093
-293.676	-109.938	0.235	0.049
-292.662	71.219	0.150	0.156
-291.647	448.894	-0.132	-0.293
-290.632	5.712	-0.178	0.132
-289.618	-200.000	-0.016	-0.143
-288.603	87.101	-0.034	0.037
-287.589	-200.000	-0.013	0.300
-286.574	317.857	0.048	-0.091
-285.559	65.211	0.245	-0.249
-284.545	-27.024	0.190	-0.111
-283.530	176.367	-0.183	0.267
-282.516	-14.245	0.264	-0.171
-281.501	75.996	0.289	0.308
-280.486	-13.463	0.074	-0.048
-279.472	-122.120	0.273	-0.045
-278.457	151.656	-0.246	-0.336
-277.443	36.757	-0.101	-0.089
-276.428	258.481	-0.181	-0.314
-275.413	-200.000	0.046	-0.254
-274.399	101.733	0.069	0.080
-273.384	-104.501	0.143	-0.033
-272.370	-200.000	0.029	0.216
-271.355	-81.071	0.152	0.051
-270.340	410.699	0.119	0.254
-269.326	3.560	0.174	-0.127
-268.311	800.000	0.057	-0.187
-267.297	-151.250	0.180	0.014
-266.282	-66.191	-0.109	-0.044
-265.267	-42.533	-0.025	-0.013
-264.253	-170.074	0.139	-0.005
-263.238	-102.591	0.321	0.077
-262.224	-122.479	0.290	0.047
-261.209	-71.694	0.046	-0.017
-260.195	-200.000	-0.002	-0.284
-259.180	667.275	0.094	0.244
-258.165	26.147	-0.122	-0.103
-257.151	-200.000	-0.006	0.137
-256.136	800.000	0.085	0.350
-255.122	-200.000	-0.019	0.239
-254.107	439.346	-0.048	-0.105
-253.092	800.000	0.019	-0.057
-252.078	-90.838	0.161	0.047
-251.063	-84.424	0.301	0.096
-250.049	67.193	-0.100	-0.102
-249.034	155.373	0.064	0.089
-248.019	-51.753	-0.048	-0.022
-247.005	-200.000	0.025	0.132
-245.990	-89.780	-0.062	-0.018
-244.976	-200.000	0.010	-0.096
-243.961	117.129	-0.139	0.171
-242.946	589.337	-0.031	-0.076
-241.932	56.290	-0.132	-0.128
-240.917	800.000	-0.117	0.412
-239.903	-95.318	-0.052	0.014
-238.888	-200.000	-0.025	-0.298
-237.873	-200.000	-0.027	0.132
-236.859	-98.868	-0.192	0.049
-235.844	33.416	0.151	0.131
-234.830	-37.989	0.132	-0.071
-233.815	128.130	-0.143	-0.183
-232.800	-58.331	-0.219	0.095
-231.786	138.169	0.125	0.165
-230.771	538.943	-0.022	-0.053
-229.757	-91.158	-0.377	-0.108
-228.742	-144.676	-0.192	0.018
-227.727	626.106	0.101	-0.255
-226.713	-56.793	-0.159	0.071
-225.698	-141.716	0.105	-0.011
-224.684	-90.669	-0.050	0.015
-223.669	143.766	-0.210	-0.281
-222.655	-52.682	0.136	-0.063
-221.640	-45.117	-0.224	0.111
-220.625	-35.899	-0.343	0.186
-219.611	-154.277	0.346	0.023
-218.596	318.222	-0.084	-0.159
-217.582	-148.920	0.245	-0.020
-216.567	-113.962	0.150	-0.029
-215.552	161.638	0.209	0.293
-214.538	216.112	-0.124	0.197
-213.523	-34.669	-0.103	-0.057
-212.509	75.159	0.256	-0.271
-211.494	-200.000	0.037	-0.339
-210.479	83.924	0.087	0.095
-209.465	89.419	0.046	-0.051
-208.450	-26.887	-0.240	-0.140
-207.436	-160.889	-0.218	0.012
-206.421	-150.369	0.212	-0.016
-205.406	-71.466	0.536	-0.201
-204.392	-103.979	0.209	0.049
-203.377	-93.850	-0.121	-0.033
-202.363	55.358	-0.111	-0.107
-201.348	800.000	0.065	0.244
-200.333	-87.205	0.258	0.079
-199.319	234.199	-0.073	-0.121
-198.304	-105.210	0.286	-0.065
-197.290	-42.289	0.321	0.164
-196.275	463.930	0.178	-0.398
-195.260	-131.332	0.122	-0.016
-194.246	481.986	-0.097	-0.221
-193.231	-138.986	0.185	0.020
-192.217	1.117	-0.224	-0.161
-191.202	800.000	-0.067	-0.210
-190.187	77.956	0.048	0.051
-189.173	-200.000	0.048	-0.238
-188.158	-117.397	0.330	-0.060
-187.144	800.000	0.074	-0.256
-186.129	-86.638	-0.054	-0.017
-185.114	461.534	-0.030	0.066
-184.100	-200.000	-0.005	0.053
-183.085	29.300	-0.091	-0.077
-182.071	-200.000	0.014	0.128
-181.056	-200.000	0.005	0.066
-180.042	275.354	-0.216	-0.384
-179.027	-132.725	-0.069	-0.009
-178.012	-138.326	0.404	-0.045
-176.998	91.243	0.116	-0.131
-175.983	-51.423	0.204	-0.095
-174.969	85.227	-0.078	-0.086
-173.954	-29.548	0.182	0.104
-172.939	800.000	-0.086	-0.328
-171.925	-95.822	0.307	0.082
-170.910	311.737	0.147	-0.275
-169.896	289.362	-0.076	0.139
-168.881	-76.941	-0.531	0.186
-167.866	152.369	-0.184	0.252
-166.852	78.874	-0.273	0.293
-165.837	-200.000	-0.025	0.111
-164.823	-200.000	-0.038	-0.266
-163.808	532.725	-0.073	-0.173
-162.793	-104.483	0.202	-0.047
-161.779	-147.631	0.194	0.016
-160.764	26.853	-0.273	0.229
-159.750	-7.989	0.214	0.144
-158.735	800.000	0.056	0.235
-157.720	-200.000	0.036	0.325
-156.706	612.342	0.166	-0.414
-155.691	-115.351	-0.157	-0.030
-154.677	-200.000	-0.047	0.429
-153.662	-84.592	-0.203	-0.064
-152.647	800.000	0.013	-0.055
-151.633	281.605	-0.202	-0.363
-150.618	9.022	-0.106	-0.080
-149.604	-90.170	-0.269	0.078
-148.589	700.039	-0.074	-0.195
-147.574	-155.665	-0.333	-0.021
-146.560	-200.000	0.010	0.086
-145.545	800.000	0.047	-0.170
-144.531	459.810	0.090	0.200
-143.516	-141.050	-0.120	-0.012
-142.502	-200.000	-0.013	-0.250
-141.487	800.000	-0.073	0.274
-140.472	624.196	-0.017	0.042
-139.458	-28.841	-0.070	-0.040
-138.443	178.892	-0.134	0.196
-137.429	-136.918	0.031	-0.004
-136.414	352.413	0.025	0.049
-135.399	-200.000	-0.045	-0.211
-134.385	129.077	0.113	-0.145
-133.370	233.196	-0.077	0.126
-132.356	257.513	0.103	-0.177
-131.341	-200.000	-0.015	0.231
-130.326	-200.000	0.010	0.107
-129.312	-19.585	0.043	-0.027
-128.297	-200.000	-0.045	0.199
-127.283	-104.111	0.390	-0.091
-126.268	-200.000	-0.059	0.264
-125.253	-48.035	0.145	-0.070
-124.239	-200.000	0.013	0.235
-123.224	-81.287	-0.317	0.104
-122.210	-7.667	-0.187	0.126
