DTS Sentinel unit serial number:	SN413079Multiplexer serial number:	ORYXHardware model number:	OX4-SRSoftware version number:	ORYX F/W v4.00 Oryx Data Collector v3.7.2.0data status	okinstallation	princeton_trtdifferential loss correction	single-endedforward channel	channel 1reverse channel	N/Adate	2019/09/17time	14:38:35forward acquisition time	60.00reverse acquisition time	0.00gamma	496.2192k internal	0.2297k external	0.2297temperature offset calibration	0.9963default loss term (dB/km)	0.3790temperature slope calibration	1.0000multiplexer offset coefficient	1.0000multiplexer slope coefficient	1.0000fibre end	0.00T internal ref (°C)	36.72T ext. ref 1 (°C)	0.38T ext. ref 2 (°C)	33.83length (m)	temperature (°C)	Stokes	anti-Stokes-747.200	-161.466	0.452	-0.024
-746.185	75.965	-0.076	-0.082
-745.171	800.000	-0.090	0.256
-744.156	-91.976	-0.357	0.103
-743.142	-54.617	0.227	0.105
-742.127	106.177	0.138	0.167
-741.112	149.582	-0.089	-0.123
-740.098	-130.686	-0.110	0.015
-739.083	-105.643	-0.364	-0.084
-738.069	168.465	0.049	-0.071
-737.054	560.183	-0.028	0.070
-736.039	332.583	-0.077	0.151
-735.025	61.237	-0.083	-0.084
-734.010	147.216	0.243	0.334
-732.996	-162.395	-0.416	0.021
-731.981	800.000	0.084	0.300
-730.966	800.000	0.031	0.110
-729.952	-200.000	0.014	-0.146
-728.937	-9.271	0.146	-0.099
-727.923	-65.709	0.199	0.082
-726.908	-171.806	-0.174	-0.006
-725.894	293.412	-0.161	-0.300
-724.879	84.147	-0.092	0.103
-723.864	137.233	-0.062	-0.083
-722.850	24.110	-0.175	-0.148
-721.835	14.394	0.321	0.256
-720.821	55.298	-0.187	0.184
-719.806	473.644	0.048	-0.111
-718.791	170.830	0.126	0.185
-717.777	322.940	-0.184	-0.359
-716.762	112.149	-0.058	-0.072
-715.748	636.447	0.133	-0.343
-714.733	-85.189	0.527	-0.168
-713.718	703.877	-0.028	-0.075
-712.704	134.924	0.128	-0.169
-711.689	14.355	0.146	-0.116
-710.675	263.276	-0.024	-0.042
-709.660	21.387	0.138	-0.114
-708.645	31.567	-0.257	-0.225
-707.631	-200.000	-0.006	0.284
-706.616	43.124	0.256	-0.238
-705.602	800.000	0.057	0.196
-704.587	265.602	0.080	0.143
-703.572	-44.068	-0.156	-0.080
-702.558	-106.243	-0.318	0.073
-701.543	116.773	-0.301	-0.377
-700.529	205.100	-0.321	-0.508
-699.514	-200.000	0.051	0.277
-698.499	-59.254	0.209	-0.092
-697.485	-200.000	0.006	0.063
-696.470	-200.000	-0.007	-0.062
-695.456	-89.944	-0.239	0.071
-694.441	1.656	-0.172	0.126
-693.426	13.248	0.331	0.261
-692.412	68.050	-0.218	-0.227
-691.397	479.616	-0.074	0.170
-690.383	148.238	-0.167	0.230
-689.368	69.566	-0.165	-0.173
-688.354	-15.917	0.225	-0.146
-687.339	45.119	-0.095	-0.089
-686.324	-22.066	0.111	-0.069
-685.310	10.972	-0.410	-0.319
-684.295	-160.465	0.090	-0.005
-683.281	-139.808	-0.179	-0.019
-682.266	83.957	-0.237	0.264
-681.251	38.930	-0.309	0.281
-680.237	365.281	0.060	-0.122
-679.222	386.682	0.134	-0.281
-678.208	613.403	0.101	0.256
-677.193	103.154	0.167	-0.200
-676.178	-78.015	-0.190	-0.067
-675.164	-67.081	0.069	0.028
-674.149	272.917	-0.058	0.105
-673.135	-151.106	-0.232	-0.018
-672.120	114.331	0.219	0.271
-671.105	-27.387	-0.157	0.093
-670.091	-20.510	-0.076	0.047
-669.076	-13.867	-0.018	0.012
-668.062	267.330	-0.123	-0.220
-667.047	-76.877	0.153	-0.054
-666.032	170.527	-0.117	0.171
-665.018	53.160	-0.011	-0.011
-664.003	-96.320	-0.350	0.094
-662.989	-28.365	0.224	0.131
-661.974	409.734	-0.095	0.205
-660.959	96.229	-0.019	-0.022
-659.945	152.674	-0.028	-0.039
-658.930	19.634	-0.384	0.314
-657.916	105.346	0.235	0.282
-656.901	-1.205	0.073	-0.052
-655.886	800.000	-0.152	-0.459
-654.872	305.099	0.030	-0.058
-653.857	-200.000	-0.013	0.129
-652.843	62.335	0.191	-0.194
-651.828	282.477	0.051	0.093
-650.814	-200.000	-0.033	-0.277
-649.799	28.984	-0.279	-0.241
-648.784	543.351	0.047	-0.114
-647.770	337.506	-0.144	-0.285
-646.755	-10.880	0.296	0.199
-645.741	800.000	0.026	0.113
-644.726	738.066	0.100	-0.274
-643.711	447.080	0.032	-0.072
-642.697	-38.401	-0.141	-0.076
-641.682	-200.000	-0.025	0.466
-640.668	-138.231	-0.249	0.028
-639.653	-46.614	0.315	-0.157
-638.638	-2.171	0.166	-0.118
-637.624	-67.816	-0.120	0.048
-636.609	299.037	0.096	0.181
-635.595	522.892	-0.072	0.171
-634.580	-55.168	0.212	0.097
-633.565	-116.241	-0.160	0.030
-632.551	-74.326	-0.261	0.096
-631.536	-200.000	-0.000	0.059
-630.522	2.655	-0.348	0.256
-629.507	347.939	0.092	0.184
-628.492	-20.784	-0.080	-0.050
-627.478	-4.388	-0.182	-0.128
-626.463	215.541	-0.080	0.129
-625.449	-52.781	-0.153	0.072
-624.434	-97.625	0.068	0.018
-623.419	531.447	-0.120	-0.287
-622.405	-73.858	0.088	-0.033
-621.390	-147.736	0.291	0.025
-620.376	-112.099	-0.358	-0.073
-619.361	-10.026	-0.189	0.128
-618.346	-135.560	-0.129	-0.016
-617.332	800.000	0.079	0.338
-616.317	126.505	0.096	0.124
-615.303	59.126	0.218	0.218
-614.288	-162.588	-0.449	-0.022
-613.273	-158.311	0.243	0.014
-612.259	215.818	0.156	-0.252
-611.244	125.453	-0.167	-0.214
-610.230	6.838	0.198	-0.150
-609.215	515.062	0.050	-0.118
-608.201	-200.000	0.041	-0.272
-607.186	184.722	-0.250	-0.376
-606.171	-56.086	-0.259	-0.117
-605.157	242.248	-0.071	0.121
-604.142	-76.121	0.325	-0.117
-603.128	70.863	-0.140	-0.148
-602.113	-200.000	0.007	-0.242
-601.098	-200.000	0.026	0.159
-600.084	-93.752	-0.397	-0.111
-599.069	13.759	0.167	-0.132
-598.055	265.407	0.158	-0.280
-597.040	60.777	-0.066	-0.066
-596.025	-200.000	-0.007	0.150
-595.011	-153.189	0.221	0.016
-593.996	-91.003	0.291	-0.085
-592.982	68.678	0.321	0.334
-591.967	147.500	0.078	-0.106
-590.952	368.590	-0.173	-0.356
-589.938	505.849	-0.099	0.234
-588.923	39.074	0.082	0.074
-587.909	532.367	-0.101	-0.242
-586.894	14.195	0.038	-0.030
-585.879	-122.403	-0.076	0.013
-584.865	-130.615	0.356	0.049
-583.850	-73.152	-0.029	0.011
-582.836	65.686	-0.209	0.215
-581.821	-12.613	-0.118	0.078
-580.806	-200.000	0.005	-0.208
-579.792	-18.851	-0.165	-0.104
-578.777	-132.254	0.159	-0.021
-577.763	-148.576	-0.381	-0.032
-576.748	-130.311	0.063	-0.009
-575.733	94.176	0.074	0.086
-574.719	-143.017	-0.231	-0.023
-573.704	79.243	-0.328	0.357
-572.690	-70.136	0.243	-0.094
-571.675	649.180	0.094	-0.243
-570.661	-200.000	-0.017	0.350
-569.646	-79.976	-0.061	0.021
-568.631	-200.000	0.005	-0.316
-567.617	-177.918	0.329	0.008
-566.602	-200.000	0.022	0.105
-565.588	44.135	-0.123	-0.114
-564.573	-74.427	0.215	-0.079
-563.558	6.394	-0.135	-0.101
-562.544	-132.968	-0.221	0.028
-561.529	78.443	-0.495	0.537
-560.515	-124.825	-0.262	-0.041
-559.500	-25.276	-0.343	-0.206
-558.485	657.692	0.033	0.085
-557.471	800.000	-0.062	0.201
-556.456	395.929	-0.095	0.201
-555.442	-93.948	0.232	0.065
-554.427	-54.839	-0.173	0.079
-553.412	-51.516	0.121	-0.057
-552.398	800.000	0.096	-0.278
-551.383	-141.031	-0.162	-0.017
-550.369	-142.570	0.119	-0.012
-549.354	-200.000	-0.028	-0.176
-548.339	-40.298	0.336	0.177
-547.325	91.793	0.075	0.086
-546.310	423.555	0.100	0.217
-545.296	14.646	0.111	0.088
-544.281	89.588	-0.140	-0.158
-543.266	-177.646	-0.074	-0.002
-542.252	-67.881	-0.568	-0.225
-541.237	438.629	0.110	-0.242
-540.223	-21.128	-0.054	0.034
-539.208	-112.363	0.136	0.028
-538.193	-38.107	0.205	-0.110
-537.179	800.000	-0.042	-0.170
-536.164	69.518	-0.110	-0.115
-535.150	-6.529	-0.212	-0.147
-534.135	96.153	0.125	0.145
-533.121	-129.306	0.118	-0.017
-532.106	-41.896	-0.079	-0.041
-531.091	-200.000	-0.048	0.256
-530.077	-200.000	-0.021	-0.138
-529.062	-16.429	-0.102	0.065
-528.048	77.237	0.078	0.084
-527.033	800.000	-0.059	0.247
-526.018	-36.103	-0.100	-0.055
-525.004	30.091	-0.149	0.128
-523.989	-120.291	-0.195	0.034
-522.975	-200.000	-0.039	0.192
-521.960	-200.000	0.046	-0.349
-520.945	800.000	-0.024	-0.094
-519.931	34.913	-0.085	-0.075
-518.916	-200.000	0.010	-0.186
-517.902	-131.689	0.093	0.012
-516.887	-4.770	0.119	0.083
-515.872	800.000	-0.108	0.474
-514.858	-77.007	0.092	-0.032
-513.843	-71.078	-0.468	0.178
-512.829	-49.033	0.226	-0.110
-511.814	-45.090	-0.204	-0.103
-510.799	-153.533	-0.122	0.009
-509.785	-92.447	0.170	0.048
-508.770	-160.713	-0.442	0.024
-507.756	-11.039	-0.205	-0.137
-506.741	-137.624	-0.174	-0.020
-505.726	9.975	-0.231	0.178
-504.712	-90.734	0.232	0.068
-503.697	-200.000	-0.070	-0.370
-502.683	124.880	-0.096	-0.122
-501.668	148.789	-0.218	0.298
-500.653	2.007	0.157	0.115
-499.639	800.000	0.046	0.156
-498.624	-200.000	0.001	0.207
-497.610	-200.000	-0.012	-0.074
-496.595	-117.221	0.152	0.028
-495.581	-86.109	-0.226	-0.070
-494.566	-76.016	-0.082	0.029
-493.551	40.187	0.024	-0.022
-492.537	-97.310	-0.158	0.042
-491.522	-108.998	0.271	0.058
-490.508	35.850	-0.097	0.086
-489.493	-151.562	0.516	0.039
-488.478	393.826	-0.132	0.278
-487.464	-71.989	-0.345	0.130
-486.449	163.592	0.262	0.372
-485.435	17.680	-0.117	0.094
-484.420	-49.436	0.101	0.049
-483.405	398.051	-0.116	-0.246
-482.391	800.000	-0.084	-0.312
-481.376	221.091	-0.117	0.189
-480.362	13.496	-0.250	0.196
-479.347	55.675	-0.136	-0.133
-478.332	13.052	0.181	-0.142
-477.318	800.000	-0.084	0.255
-476.303	-200.000	-0.014	0.118
-475.289	800.000	-0.048	0.197
-474.274	-153.803	0.270	0.019
-473.259	95.393	0.281	-0.324
-472.245	800.000	-0.005	0.017
-471.230	-61.962	-0.240	-0.101
-470.216	-12.937	-0.236	-0.155
-469.201	291.627	0.044	0.081
-468.186	-94.430	-0.219	0.060
-467.172	-30.648	-0.157	0.090
-466.157	48.165	0.281	0.265
-465.143	-200.000	-0.058	0.304
-464.128	800.000	-0.044	0.126
-463.113	-200.000	-0.013	0.173
-462.099	-33.967	0.389	-0.216
-461.084	-200.000	-0.038	0.471
-460.070	26.429	-0.199	0.168
-459.055	183.399	-0.141	0.210
-458.040	-200.000	-0.012	0.362
-457.026	543.244	0.135	0.326
-456.011	-153.616	-0.180	-0.013
-454.997	494.318	-0.094	0.218
-453.982	-88.626	0.272	0.082
-452.968	-119.125	0.088	-0.015
-451.953	-104.640	0.089	0.021
-450.938	1.423	-0.130	-0.094
-449.924	20.562	-0.194	-0.159
-448.909	-200.000	0.017	0.152
-447.895	-3.567	-0.150	-0.105
-446.880	569.309	0.075	-0.184
-445.865	71.533	-0.102	-0.107
-444.851	-59.403	0.156	-0.068
-443.836	-46.027	-0.383	0.191
-442.822	-53.810	0.135	0.062
-441.807	-200.000	0.048	0.234
-440.792	-34.615	-0.150	0.083
-439.778	-146.692	-0.255	0.022
-438.763	270.847	-0.238	-0.422
-437.749	-98.770	-0.330	-0.085
-436.734	800.000	-0.014	-0.053
-435.719	-107.060	-0.382	-0.085
-434.705	375.384	0.139	0.286
-433.690	48.657	-0.114	0.108
-432.676	-200.000	0.031	-0.330
-431.661	15.418	0.069	0.055
-430.646	120.194	0.048	0.060
-429.632	233.551	-0.109	0.180
-428.617	-137.462	0.302	0.034
-427.603	-2.489	0.079	0.056
-426.588	800.000	-0.079	0.240
-425.573	21.772	0.058	-0.048
-424.559	85.766	-0.012	-0.014
-423.544	-66.425	0.235	0.094
-422.530	-154.682	0.278	-0.019
-421.515	-119.089	0.255	-0.045
-420.500	-200.000	0.001	-0.036
-419.486	104.406	0.054	-0.065
-418.471	800.000	-0.070	0.213
-417.457	150.280	-0.119	-0.162
-416.442	-200.000	0.028	0.165
-415.428	-63.152	-0.206	0.086
-414.413	131.332	-0.042	0.054
-413.398	800.000	-0.080	-0.306
-412.384	-82.411	0.621	0.204
-411.369	-96.459	0.309	0.082
-410.355	417.211	0.066	-0.142
-409.340	-200.000	-0.033	0.259
-408.325	-119.563	-0.117	-0.020
-407.311	65.368	0.109	-0.111
-406.296	121.299	-0.237	0.297
-405.282	-112.820	0.159	-0.032
-404.267	-95.798	-0.455	-0.122
-403.252	-82.168	0.101	0.033
-402.238	-31.913	0.160	0.090
-401.223	35.172	0.026	-0.023
-400.209	-144.709	-0.177	-0.016
-399.194	-200.000	0.012	-0.076
-398.179	-39.242	-0.360	-0.191
-397.165	-200.000	0.054	0.271
-396.150	116.383	-0.256	-0.316
-395.136	800.000	-0.107	0.321
-394.121	54.104	0.208	-0.202
-393.106	-200.000	-0.048	-0.290
-392.092	-94.336	0.250	0.069
-391.077	800.000	0.066	-0.282
-390.063	189.851	0.189	-0.286
-389.048	540.412	-0.060	0.144
-388.033	372.416	0.067	-0.138
-387.019	-200.000	0.020	0.396
-386.004	-106.631	-0.282	-0.063
-384.990	-200.000	0.038	-0.216
-383.975	90.959	0.059	-0.067
-382.960	800.000	-0.021	0.087
-381.946	96.058	-0.144	-0.166
-380.931	43.152	0.171	-0.158
-379.917	800.000	-0.091	-0.300
-378.902	-159.146	0.146	0.008
-377.888	24.296	-0.244	-0.203
-376.873	-7.304	0.148	-0.101
-375.858	325.223	0.164	-0.316
-374.844	-200.000	0.064	0.358
-373.829	-80.062	0.093	-0.032
-372.815	-134.405	0.222	-0.027
-371.800	800.000	0.056	0.214
-370.785	-107.433	-0.122	-0.027
-369.771	-200.000	0.028	-0.191
-368.756	-185.405	0.138	-0.002
-367.742	-200.000	0.027	0.339
-366.727	321.456	0.079	0.152
-365.712	-28.029	0.148	-0.086
-364.698	-50.896	0.184	0.087
-363.683	70.751	-0.114	-0.119
-362.669	658.430	0.103	0.267
-361.654	-65.013	0.154	-0.063
-360.639	-200.000	0.005	-0.065
-359.625	-39.732	0.085	-0.045
-358.610	100.923	-0.026	0.030
-357.596	800.000	-0.027	0.096
-356.581	-91.329	0.292	0.084
-355.566	-200.000	0.034	0.204
-354.552	-165.860	-0.029	-0.001
-353.537	-73.140	0.271	0.100
-352.523	238.259	0.055	0.093
-351.508	212.957	0.137	-0.217
-350.493	302.515	0.139	0.259
-349.479	611.775	0.074	0.186
-348.464	216.127	0.068	0.109
-347.450	-122.181	0.407	-0.067
-346.435	-140.972	0.150	-0.015
-345.420	-38.362	0.262	0.139
-344.406	800.000	-0.067	-0.190
-343.391	-26.569	-0.050	-0.029
-342.377	661.370	-0.040	0.104
-341.362	800.000	0.047	0.179
-340.348	27.207	-0.110	-0.093
-339.333	800.000	-0.040	0.137
-338.318	-26.519	0.261	-0.154
-337.304	685.590	-0.056	-0.147
-336.289	-153.411	0.184	-0.013
-335.275	-78.860	0.268	0.092
-334.260	800.000	0.022	0.064
-333.245	-174.763	0.161	0.005
-332.231	-138.252	-0.299	0.033
-331.216	358.251	-0.050	0.101
-330.202	800.000	-0.051	-0.191
-329.187	136.497	-0.115	-0.150
-328.172	-200.000	-0.014	-0.210
-327.158	32.075	-0.248	-0.215
-326.143	19.884	-0.034	-0.028
-325.129	195.013	-0.161	0.246
-324.114	219.655	-0.082	0.131
-323.099	194.645	0.098	-0.149
-322.085	180.067	-0.097	-0.143
-321.070	-91.581	-0.180	-0.052
-320.056	607.200	-0.105	0.263
-319.041	-200.000	-0.010	-0.076
-318.026	-88.526	0.090	-0.027
-317.012	476.774	0.100	0.227
-315.997	-58.678	-0.284	0.124
-314.983	245.823	-0.177	0.299
-313.968	-122.623	0.169	-0.028
-312.953	346.794	-0.145	-0.287
-311.939	-161.133	-0.302	0.016
-310.924	-149.651	0.170	0.013
-309.910	-200.000	0.038	-0.391
-308.895	45.208	0.072	0.067
-307.880	247.537	-0.047	-0.080
-306.866	-200.000	-0.005	0.030
-305.851	-9.242	-0.124	0.083
-304.837	75.851	-0.243	-0.257
-303.822	800.000	-0.010	-0.043
-302.807	378.247	0.230	0.472
-301.793	281.751	-0.105	-0.190
-300.778	361.370	0.073	-0.146
-299.764	-200.000	-0.014	0.160
-298.749	-146.603	-0.133	0.012
-297.735	-200.000	-0.006	0.098
-296.720	134.149	-0.082	0.107
-295.705	-40.243	0.359	0.188
-294.691	207.870	-0.133	0.209
-293.676	718.833	0.166	-0.443
-292.662	-125.502	0.132	0.020
-291.647	-200.000	0.007	0.125
-290.632	-53.567	-0.153	-0.070
-289.618	-200.000	-0.119	-0.542
-288.603	41.395	0.317	0.288
-287.589	-183.282	0.150	0.003
-286.574	-26.145	-0.140	0.082
-285.559	675.663	-0.039	0.101
-284.545	-10.051	0.107	0.071
-283.530	-200.000	-0.022	-0.136
-282.516	-35.660	0.133	-0.073
-281.501	20.412	-0.280	0.227
-280.486	-74.977	-0.234	-0.084
-279.472	14.838	-0.185	-0.145
-278.457	-55.586	-0.341	0.153
-277.443	156.995	0.144	-0.199
-276.428	-94.273	0.134	-0.037
-275.413	-200.000	-0.002	0.154
-274.399	-106.013	0.176	0.040
-273.384	158.503	-0.150	0.209
-272.370	59.129	0.061	-0.060
-271.355	-93.423	0.413	-0.115
-270.340	-1.549	0.118	-0.083
-269.326	309.349	0.137	0.256
-268.311	800.000	-0.042	0.146
-267.297	493.480	-0.067	-0.153
-266.282	45.867	0.193	-0.179
-265.267	22.757	0.205	0.168
-264.253	108.167	-0.068	0.081
-263.238	-200.000	-0.114	0.000
-262.224	-115.653	0.271	0.051
-261.209	158.014	-0.214	-0.298
-260.195	152.372	0.184	-0.252
-259.180	228.666	0.127	-0.207
-258.165	53.412	-0.119	0.115
-257.151	800.000	0.040	0.169
-256.136	-163.011	0.417	-0.020
-255.122	-12.187	0.294	0.193
-254.107	-110.968	0.068	-0.014
-253.092	73.774	-0.146	-0.153
-252.078	-43.994	0.188	0.095
-251.063	23.953	0.122	-0.101
-250.049	48.676	0.162	-0.152
-249.034	40.371	-0.114	0.103
-248.019	-50.025	-0.185	0.088
-247.005	-148.844	0.362	-0.029
-245.990	482.541	-0.090	0.205
-244.976	-200.000	0.035	-0.203
-243.961	-4.786	0.286	-0.198
-242.946	-10.047	-0.015	-0.010
-241.932	680.386	-0.091	0.238
-240.917	-27.875	0.201	0.117
-239.903	-105.402	-0.174	-0.040
-238.888	-119.555	-0.193	-0.033
-237.873	-147.920	-0.089	-0.007
-236.859	131.997	0.074	-0.096
-235.844	418.395	-0.075	-0.160
-234.830	-157.436	0.403	-0.024
-233.815	-40.925	0.259	-0.134
-232.800	-3.326	-0.281	0.196
-231.786	-31.954	0.378	0.212
-230.771	108.354	-0.215	0.257
-229.757	-200.000	0.017	-0.166
-228.742	270.972	0.084	0.148
-227.727	-187.361	0.141	0.002
-226.713	-108.690	0.236	-0.051
-225.698	253.263	-0.160	-0.273
-224.684	-114.428	-0.077	-0.015
-223.669	39.241	-0.212	-0.190
-222.655	-112.643	0.159	-0.032
-221.640	-155.718	-0.344	-0.022
-220.625	264.787	-0.237	-0.414
-219.611	293.520	0.152	-0.277
-218.596	-200.000	-0.004	0.058
-217.582	-45.606	0.248	-0.123
-216.567	-167.589	-0.094	-0.004
-215.552	-200.000	-0.012	0.148
-214.538	-99.596	-0.326	0.082
-213.523	-21.546	-0.070	-0.043
-212.509	-200.000	0.039	-0.435
-211.494	344.925	-0.203	0.399
-210.479	-22.200	0.209	0.127
-209.465	298.235	-0.062	0.113
-208.450	-21.046	0.147	0.090
-207.436	38.703	0.259	-0.231
-206.421	225.994	-0.027	-0.044
-205.406	-155.242	-0.091	0.006
-204.392	-78.863	0.134	-0.046
-203.377	16.080	0.148	0.116
-202.363	-200.000	0.048	-0.218
-201.348	-200.000	0.033	-0.236
-200.333	-131.603	0.315	0.041
-199.319	-42.612	-0.258	-0.131
-198.304	29.449	-0.435	-0.370
-197.290	-200.000	0.000	-0.193
-196.275	-64.104	0.304	-0.124
-195.260	-174.521	0.105	-0.003
-194.246	-154.950	0.243	0.016
-193.231	-200.000	0.036	-0.223
-192.217	-200.000	-0.002	0.301
-191.202	-10.944	-0.248	-0.163
-190.187	800.000	-0.052	-0.185
-189.173	-147.557	-0.067	0.006
-188.158	-85.693	0.150	-0.047
-187.144	-41.718	-0.121	0.062
-186.129	-92.602	0.169	0.047
-185.114	18.269	0.155	-0.123
-184.100	403.336	0.077	0.162
-183.085	126.861	0.137	-0.173
-182.071	-200.000	0.213	-0.001
-181.056	-200.000	0.152	0.000
-180.042	320.788	0.104	0.197
-179.027	462.797	0.033	-0.073
-178.012	-200.000	-0.052	-0.370
-176.998	216.017	0.052	-0.082
-175.983	470.673	-0.108	-0.243
-174.969	-200.000	0.036	0.272
-173.954	118.798	0.101	-0.125
-172.939	22.540	-0.140	-0.114
-171.925	199.067	-0.224	-0.342
-170.910	215.980	0.087	-0.138
-169.896	63.331	-0.139	-0.139
-168.881	-200.000	-0.041	0.342
-167.866	-147.837	-0.345	0.029
-166.852	17.695	0.040	-0.032
-165.837	-38.277	0.220	0.116
-164.823	35.220	0.144	0.126
-163.808	186.739	-0.063	0.093
-162.793	29.165	0.108	0.092
-161.779	39.274	-0.153	-0.137
-160.764	-60.136	-0.125	0.053
-159.750	-44.372	0.149	-0.074
-158.735	800.000	0.046	-0.134
-157.720	44.640	-0.064	0.059
-156.706	-200.000	0.001	0.200
-155.691	50.376	0.213	0.201
-154.677	-100.802	-0.354	-0.087
-153.662	-200.000	0.058	0.340
-152.647	-200.000	-0.086	-0.418
-151.633	-109.668	0.289	-0.061
-150.618	-39.544	-0.323	0.169
-149.604	214.718	-0.182	0.289
-148.589	493.878	0.029	0.066
-147.574	-28.355	-0.133	0.076
-146.560	800.000	-0.057	-0.166
-145.545	-200.000	-0.003	-0.369
-144.531	-21.156	-0.069	-0.042
-143.516	-11.626	0.083	-0.054
-142.502	554.460	0.037	-0.089
-141.487	-200.000	-0.000	0.012
-140.472	-80.909	-0.125	-0.041
-139.458	-135.565	-0.107	-0.013
-138.443	397.409	0.061	-0.127
-137.429	131.525	-0.154	0.198
-136.414	28.699	-0.418	0.353
-135.399	-200.000	-0.000	-0.032
-134.385	62.054	-0.208	-0.207
-133.370	254.193	-0.097	-0.166
-132.356	-142.612	-0.240	0.023
-131.341	674.170	0.023	-0.060
-130.326	136.540	-0.012	0.016
-129.312	389.487	-0.151	-0.313
-128.297	580.372	0.045	-0.111
-127.283	-29.248	-0.091	-0.052
-126.268	-200.000	0.008	0.080
-125.253	369.651	0.016	0.032
-124.239	-140.134	-0.359	0.038
-123.224	-122.648	0.092	-0.015
-122.210	-94.678	0.099	0.027
-121.195	800.000	-0.069	0.206
