DTS Sentinel unit serial number:	SN413079Multiplexer serial number:	ORYXHardware model number:	OX4-SRSoftware version number:	ORYX F/W v4.00 Oryx Data Collector v3.7.2.0data status	okinstallation	princeton_trtdifferential loss correction	single-endedforward channel	channel 1reverse channel	N/Adate	2019/09/13time	17:10:35forward acquisition time	60.00reverse acquisition time	0.00gamma	496.2192k internal	0.2296k external	0.2296temperature offset calibration	1.0137default loss term (dB/km)	0.3790temperature slope calibration	1.0000multiplexer offset coefficient	1.0000multiplexer slope coefficient	1.0000fibre end	0.00T internal ref (°C)	35.39T ext. ref 1 (°C)	4.80T ext. ref 2 (°C)	34.12length (m)	temperature (°C)	Stokes	anti-Stokes-747.200	223.546	0.066	0.109
-746.185	80.338	-0.039	0.043
-745.171	92.346	-0.155	-0.179
-744.156	-200.000	0.028	0.318
-743.142	222.810	-0.185	-0.304
-742.127	-101.787	0.196	0.048
-741.112	313.507	0.048	0.093
-740.098	800.000	-0.052	0.188
-739.083	6.859	-0.121	0.092
-738.069	-40.877	0.198	-0.105
-737.054	-10.451	0.085	-0.057
-736.039	-85.420	-0.100	0.032
-735.025	800.000	-0.118	0.352
-734.010	43.557	0.220	0.206
-732.996	-92.154	-0.282	-0.081
-731.981	-13.766	-0.149	0.099
-730.966	800.000	0.121	-0.411
-729.952	-200.000	-0.035	-0.286
-728.937	-200.000	0.005	0.195
-727.923	55.536	0.108	-0.107
-726.908	-200.000	-0.018	0.092
-725.894	644.722	-0.121	-0.315
-724.879	-126.217	-0.223	0.034
-723.864	-200.000	0.022	-0.265
-722.850	800.000	-0.114	0.380
-721.835	-163.083	-0.140	-0.007
-720.821	-109.116	-0.296	-0.064
-719.806	103.209	-0.088	0.105
-718.791	466.796	-0.185	-0.423
-717.777	-84.055	-0.272	0.088
-716.762	-82.062	0.224	-0.075
-715.748	-113.354	0.243	-0.049
-714.733	364.198	0.030	-0.062
-713.718	-14.711	0.178	-0.117
-712.704	-62.545	0.160	0.068
-711.689	-64.846	-0.066	0.027
-710.675	-161.098	-0.312	0.017
-709.660	-34.280	0.126	0.070
-708.645	11.288	-0.177	-0.138
-707.631	-84.723	0.051	0.016
-706.616	800.000	0.061	0.208
-705.602	-200.000	-0.012	-0.084
-704.587	-37.548	-0.210	-0.114
-703.572	-108.649	-0.057	-0.013
-702.558	6.071	-0.224	0.169
-701.543	-164.256	0.489	-0.023
-700.529	369.173	-0.099	-0.205
-699.514	-44.854	-0.204	0.104
-698.499	381.205	0.051	-0.106
-697.485	-103.451	-0.047	0.011
-696.470	252.677	0.163	-0.284
-695.456	168.995	-0.307	-0.446
-694.441	83.031	0.197	-0.218
-693.426	-200.000	0.020	0.157
-692.412	-200.000	-0.010	0.066
-691.397	-82.202	0.164	-0.055
-690.383	221.390	0.047	0.076
-689.368	-60.698	0.323	-0.139
-688.354	162.212	0.158	0.226
-687.339	800.000	-0.043	0.151
-686.324	681.699	0.064	-0.170
-685.310	-47.469	0.202	0.100
-684.295	-200.000	-0.004	0.052
-683.281	29.861	0.054	0.047
-682.266	-88.463	-0.413	-0.125
-681.251	39.221	0.137	-0.125
-680.237	-98.192	-0.185	-0.048
-679.222	-200.000	-0.004	0.021
-678.208	-29.850	-0.198	0.115
-677.193	795.185	-0.109	-0.306
-676.178	486.182	-0.104	-0.241
-675.164	-174.070	-0.186	-0.006
-674.149	-200.000	-0.025	-0.356
-673.135	-85.140	0.345	0.110
-672.120	800.000	-0.052	0.203
-671.105	119.874	-0.155	-0.196
-670.091	-200.000	-0.026	-0.296
-669.076	800.000	-0.015	-0.050
-668.062	-50.008	0.124	-0.060
-667.047	-200.000	-0.018	-0.226
-666.032	179.344	0.051	0.076
-665.018	623.163	-0.044	0.113
-664.003	-49.185	-0.396	0.193
-662.989	89.479	-0.097	0.110
-661.974	26.202	-0.137	-0.117
-660.959	-140.489	0.133	0.014
-659.945	313.953	0.200	-0.384
-658.930	27.175	-0.201	-0.171
-657.916	-200.000	-0.002	-0.123
-656.901	-200.000	-0.007	-0.140
-655.886	19.491	0.121	0.099
-654.872	-35.426	-0.087	0.048
-653.857	800.000	-0.052	-0.163
-652.843	-121.572	-0.329	-0.056
-651.828	269.117	0.099	-0.178
-650.814	-106.858	0.163	0.037
-649.799	-73.506	0.150	-0.056
-648.784	-200.000	-0.006	0.103
-647.770	54.532	0.173	-0.169
-646.755	93.714	0.263	0.303
-645.741	172.246	-0.074	-0.109
-644.726	264.292	0.231	-0.409
-643.711	-200.000	0.014	0.446
-642.697	118.146	0.060	0.075
-641.682	73.461	-0.057	0.061
-640.668	-144.327	0.339	-0.032
-639.653	-173.604	-0.028	-0.001
-638.638	-7.590	0.103	0.071
-637.624	27.098	0.067	-0.057
-636.609	800.000	-0.048	0.140
-635.595	687.719	0.071	0.188
-634.580	36.490	0.126	0.113
-633.565	325.540	-0.107	-0.209
-632.551	-162.910	-0.454	-0.022
-631.536	743.195	0.050	0.136
-630.522	86.099	0.270	-0.302
-629.507	-97.086	-0.072	0.019
-628.492	800.000	-0.030	-0.101
-627.478	-200.000	0.011	-0.178
-626.463	-20.228	-0.279	-0.175
-625.449	-92.398	-0.212	0.061
-624.434	220.465	0.162	0.264
-623.419	5.251	0.386	-0.289
-622.405	-200.000	-0.143	0.000
-621.390	-128.275	-0.296	0.043
-620.376	159.501	-0.097	-0.137
-619.361	-122.576	-0.158	-0.026
-618.346	-200.000	-0.016	-0.081
-617.332	-82.749	-0.335	-0.110
-616.317	765.958	0.035	0.096
-615.303	115.201	-0.183	-0.228
-614.288	395.942	-0.080	-0.171
-613.273	20.383	-0.354	0.291
-612.259	77.357	-0.107	0.116
-611.244	93.891	0.040	0.046
-610.230	-136.113	-0.094	-0.011
-609.215	-200.000	0.023	-0.307
-608.201	-200.000	-0.050	-0.405
-607.186	-22.136	-0.238	-0.147
-606.171	-200.000	0.006	0.233
-605.157	75.507	-0.214	-0.230
-604.142	-87.180	-0.265	0.082
-603.128	800.000	0.013	0.043
-602.113	156.183	-0.244	0.341
-601.098	-182.823	-0.128	-0.002
-600.084	-29.155	-0.123	0.071
-599.069	-155.207	-0.328	0.022
-598.055	10.907	0.143	0.111
-597.040	611.244	-0.065	-0.165
-596.025	-79.447	0.271	0.093
-595.011	-65.168	0.095	0.039
-593.996	800.000	-0.156	0.450
-592.982	-200.000	0.031	0.149
-591.967	122.662	-0.127	0.162
-590.952	-86.468	-0.289	-0.090
-589.938	633.620	0.086	0.221
-588.923	182.934	-0.166	-0.249
-587.909	-129.741	-0.317	0.044
-586.894	-200.000	0.007	0.194
-585.879	205.483	-0.226	-0.356
-584.865	-101.169	0.186	0.046
-583.850	88.328	-0.278	0.314
-582.836	-70.615	-0.204	0.078
-581.821	-200.000	0.004	-0.138
-580.806	391.819	-0.090	0.190
-579.792	800.000	0.005	0.016
-578.777	118.376	-0.166	-0.208
-577.763	-200.000	0.006	-0.247
-576.748	-40.467	-0.103	0.054
-575.733	225.684	-0.106	-0.175
-574.719	180.391	0.037	-0.055
-573.704	800.000	0.017	0.065
-572.690	7.844	-0.078	0.059
-571.675	419.825	-0.025	0.054
-570.661	-70.641	-0.167	0.064
-569.646	-122.280	0.132	-0.022
-568.631	-188.407	-0.137	-0.002
-567.617	101.582	0.148	0.175
-566.602	-113.449	0.324	0.064
-565.588	-58.893	-0.184	0.081
-564.573	130.153	0.112	0.145
-563.558	-200.000	0.008	0.184
-562.544	698.752	-0.042	0.112
-561.529	800.000	0.111	0.466
-560.515	28.589	-0.093	0.080
-559.500	-11.451	0.131	-0.088
-558.485	16.046	0.131	-0.105
-557.471	10.276	0.093	-0.072
-556.456	800.000	0.069	0.292
-555.442	-119.349	-0.474	0.084
-554.427	-68.562	0.258	-0.101
-553.412	-200.000	0.004	-0.025
-552.398	-8.580	0.296	-0.201
-551.383	-200.000	0.028	0.125
-550.369	-159.707	0.135	-0.008
-549.354	-23.520	0.122	0.074
-548.339	88.107	-0.134	-0.151
-547.325	82.112	0.157	-0.173
-546.310	79.833	-0.117	0.128
-545.296	-200.000	0.034	-0.179
-544.281	89.959	0.129	0.146
-543.266	-154.515	0.093	-0.006
-542.252	59.178	-0.116	0.116
-541.237	800.000	0.057	-0.167
-540.223	-200.000	0.005	0.254
-539.208	-159.394	0.219	-0.012
-538.193	212.835	0.182	-0.291
-537.179	-22.692	-0.361	0.221
-536.164	165.101	0.064	-0.092
-535.150	154.015	0.057	-0.080
-534.135	-200.000	0.028	0.433
-533.121	-33.005	-0.272	0.153
-532.106	-182.266	-0.253	0.005
-531.091	-81.297	-0.039	-0.013
-530.077	-38.752	0.051	0.027
-529.062	305.813	-0.052	0.099
-528.048	633.914	-0.096	-0.247
-527.033	-49.605	-0.050	0.024
-526.018	-56.891	-0.207	0.093
-525.004	800.000	-0.076	0.245
-523.989	-200.000	0.007	0.144
-522.975	-117.209	0.415	0.076
-521.960	800.000	-0.084	-0.356
-520.945	57.507	0.089	-0.088
-519.931	695.154	0.121	0.322
-518.916	-13.181	-0.340	0.224
-517.902	-53.570	0.114	0.053
-516.887	234.267	0.116	-0.194
-515.872	-64.626	0.042	0.017
-514.858	361.512	-0.123	-0.250
-513.843	-173.762	-0.157	-0.005
-512.829	158.963	0.191	0.269
-511.814	-86.668	-0.185	0.057
-510.799	48.599	0.210	-0.199
-509.785	-87.566	-0.175	-0.054
-508.770	211.396	0.099	-0.157
-507.756	144.536	0.248	-0.336
-506.741	-22.084	0.349	0.214
-505.726	-139.658	0.098	0.011
-504.712	-94.862	0.138	0.038
-503.697	154.902	0.067	0.093
-502.683	-200.000	-0.022	-0.116
-501.668	72.987	-0.310	-0.328
-500.653	-2.974	0.268	0.189
-499.639	12.413	0.281	-0.219
-498.624	-172.669	-0.270	0.009
-497.610	-71.191	-0.232	-0.088
-496.595	224.613	-0.213	-0.349
-495.581	-80.283	0.087	0.029
-494.566	800.000	-0.024	0.089
-493.551	383.587	-0.131	0.272
-492.537	-86.002	-0.178	-0.056
-491.522	351.439	-0.242	0.486
-490.508	2.883	-0.186	-0.137
-489.493	-106.978	-0.097	-0.022
-488.478	112.038	0.076	-0.093
-487.464	55.002	0.117	-0.114
-486.449	-200.000	-0.006	-0.235
-485.435	-121.492	-0.129	0.022
-484.420	25.457	-0.108	0.091
-483.405	800.000	-0.073	-0.282
-482.391	800.000	0.004	-0.011
-481.376	97.428	0.084	-0.097
-480.362	143.562	-0.029	0.039
-479.347	-147.194	-0.207	0.018
-478.332	-13.180	-0.400	0.262
-477.318	-17.167	0.164	-0.105
-476.303	253.905	0.205	-0.353
-475.289	79.124	-0.177	-0.192
-474.274	-169.373	0.369	-0.014
-473.259	336.322	0.091	-0.179
-472.245	-200.000	-0.075	0.408
-471.230	-200.000	-0.067	-0.347
-470.216	-17.694	0.151	-0.096
-469.201	-60.617	-0.209	-0.090
-468.186	-127.850	-0.235	-0.034
-467.172	800.000	0.070	-0.213
-466.157	-118.810	-0.362	0.064
-465.143	-200.000	-0.066	0.304
-464.128	425.184	0.087	0.188
-463.113	305.852	0.056	-0.104
-462.099	-72.459	0.448	0.167
-461.084	-5.541	-0.139	-0.096
-460.070	320.042	0.123	-0.236
-459.055	-200.000	-0.141	-0.001
-458.040	800.000	0.077	0.238
-457.026	102.080	0.180	0.212
-456.011	-33.208	-0.043	-0.024
-454.997	-180.341	0.262	0.006
-453.982	-89.172	-0.157	0.047
-452.968	-200.000	0.012	0.150
-451.953	-21.048	0.074	0.046
-450.938	-1.578	0.171	-0.122
-449.924	-200.000	0.020	0.169
-448.909	-142.204	0.165	0.017
-447.895	184.518	-0.084	-0.126
-446.880	-31.054	-0.338	0.192
-445.865	-15.876	0.107	-0.069
-444.851	48.971	0.044	-0.041
-443.836	-68.704	0.170	-0.066
-442.822	-53.298	0.276	-0.128
-441.807	32.480	0.304	-0.265
-440.792	-17.669	-0.191	0.121
-439.778	-29.301	0.209	-0.121
-438.763	-200.000	-0.005	-0.217
-437.749	19.992	-0.016	-0.013
-436.734	-99.024	0.133	-0.034
-435.719	301.852	-0.159	0.297
-434.705	125.079	-0.108	0.137
-433.690	576.135	0.064	-0.158
-432.676	-96.346	0.052	-0.014
-431.661	-200.000	0.034	-0.288
-430.646	-16.980	-0.138	-0.088
-429.632	800.000	0.060	-0.180
-428.617	-200.000	-0.033	-0.182
-427.603	-93.264	-0.176	-0.049
-426.588	287.900	0.034	0.062
-425.573	-50.585	0.222	-0.106
-424.559	-200.000	0.024	0.280
-423.544	-200.000	-0.001	-0.263
-422.530	-200.000	-0.095	-0.544
-421.515	-44.734	-0.302	0.152
-420.500	21.137	0.090	-0.074
-419.486	50.672	-0.121	-0.116
-418.471	-200.000	-0.038	-0.364
-417.457	-200.000	0.013	-0.348
-416.442	-200.000	0.029	0.232
-415.428	-200.000	-0.084	-0.432
-414.413	-90.300	-0.158	0.046
-413.398	-31.494	-0.117	-0.066
-412.384	768.430	0.042	-0.117
-411.369	-105.019	0.081	-0.019
-410.355	250.593	-0.059	0.102
-409.340	-75.794	-0.239	0.085
-408.325	-84.660	0.084	-0.027
-407.311	-200.000	0.002	0.325
-406.296	-200.000	0.028	-0.184
-405.282	-200.000	0.013	-0.182
-404.267	-200.000	-0.086	0.000
-403.252	241.013	0.095	-0.159
-402.238	50.122	0.151	-0.144
-401.223	304.444	0.139	-0.260
-400.209	103.806	0.075	-0.089
-399.194	43.434	-0.175	-0.161
-398.179	-187.447	0.343	0.005
-397.165	-148.649	0.344	-0.028
-396.150	-200.000	0.017	0.188
-395.136	431.980	0.106	0.232
-394.121	70.342	-0.114	-0.119
-393.106	800.000	-0.074	-0.211
-392.092	278.809	0.113	-0.203
-391.077	-172.491	0.138	0.004
-390.063	-65.000	0.248	0.101
-389.048	-80.342	0.094	-0.032
-388.033	800.000	-0.142	0.406
-387.019	-156.085	-0.510	0.032
-386.004	-128.600	-0.093	0.013
-384.990	27.349	0.240	-0.203
-383.975	203.278	-0.176	0.274
-382.960	-200.000	-0.018	-0.104
-381.946	379.987	0.051	0.106
-380.931	-200.000	-0.033	-0.351
-379.917	-3.707	0.165	-0.116
-378.902	-23.043	0.177	-0.107
-377.888	-136.142	0.193	0.023
-376.873	10.391	-0.160	0.122
-375.858	66.214	0.154	0.157
-374.844	139.216	0.110	0.146
-373.829	800.000	0.040	-0.136
-372.815	-130.571	-0.208	0.028
-371.800	108.623	0.114	-0.137
-370.785	-178.925	-0.159	-0.004
-369.771	-24.509	-0.055	0.033
-368.756	118.015	0.191	0.237
-367.742	-119.219	-0.440	-0.077
-366.727	142.258	0.148	0.197
-365.712	-34.520	0.059	-0.032
-364.698	-28.330	0.145	0.084
-363.683	-144.019	-0.378	-0.036
-362.669	0.849	0.461	0.332
-361.654	-152.870	-0.581	-0.041
-360.639	-200.000	-0.018	-0.164
-359.625	129.941	-0.074	-0.096
-358.610	677.561	-0.105	0.274
-357.596	0.121	0.279	-0.200
-356.581	800.000	-0.113	0.410
-355.566	800.000	0.097	-0.300
-354.552	138.115	-0.119	0.157
-353.537	800.000	0.038	0.130
-352.523	1.263	-0.079	0.057
-351.508	800.000	0.046	-0.137
-350.493	61.376	-0.101	-0.101
-349.479	-200.000	-0.059	0.269
-348.464	126.331	0.184	-0.235
-347.450	83.656	0.062	0.068
-346.435	515.601	0.034	-0.081
-345.420	-56.547	0.152	0.068
-344.406	-122.399	-0.066	-0.011
-343.391	-200.000	-0.004	-0.117
-342.377	-130.206	0.129	0.018
-341.362	-200.000	-0.065	0.321
-340.348	-169.238	0.362	0.013
-339.333	-82.180	-0.207	0.068
-338.318	53.843	-0.208	0.201
-337.304	291.476	-0.086	-0.158
-336.289	-139.627	-0.197	-0.021
-335.275	412.629	-0.077	-0.164
-334.260	631.154	0.154	0.392
-333.245	9.269	0.136	-0.104
-332.231	800.000	-0.054	0.165
-331.216	66.091	0.360	-0.367
-330.202	187.326	0.178	0.267
-329.187	227.604	0.089	0.146
-328.172	158.372	-0.085	-0.118
-327.158	-99.835	-0.263	-0.066
-326.143	-124.457	-0.271	-0.042
-325.129	305.700	-0.098	0.183
-324.114	5.207	0.282	0.209
-323.099	-17.355	-0.047	0.030
-322.085	439.570	-0.101	0.221
-321.070	74.548	0.179	0.189
-320.056	-109.354	-0.134	0.029
-319.041	-200.000	-0.015	0.140
-318.026	50.754	-0.104	-0.099
-317.012	-103.468	-0.387	-0.091
-315.997	132.513	-0.088	0.114
-314.983	294.224	0.058	0.106
-313.968	184.256	0.342	-0.508
-312.953	-100.591	0.181	0.045
-311.939	26.507	-0.088	0.074
-310.924	-141.688	-0.206	-0.021
-309.910	90.363	0.315	0.354
-308.895	-10.997	0.234	-0.155
-307.880	-200.000	-0.015	-0.119
-306.866	-104.430	0.192	-0.045
-305.851	197.645	0.065	0.099
-304.837	-60.610	0.182	0.078
-303.822	-62.497	-0.137	0.057
-302.807	84.681	0.059	-0.065
-301.793	114.849	0.066	-0.081
-300.778	-33.201	-0.192	-0.107
-299.764	483.903	-0.146	-0.333
-298.749	-170.642	0.191	-0.007
-297.735	-128.589	-0.167	-0.024
-296.720	800.000	0.037	-0.128
-295.705	274.605	0.045	0.080
-294.691	-200.000	-0.029	0.237
-293.676	-8.834	-0.266	-0.179
-292.662	-6.114	-0.041	0.028
-291.647	87.356	0.083	-0.092
-290.632	-5.915	0.154	-0.106
-289.618	-200.000	0.012	-0.209
-288.603	-200.000	0.042	-0.399
-287.589	324.638	-0.081	0.154
-286.574	800.000	-0.120	0.457
-285.559	-46.358	-0.138	0.068
-284.545	-12.794	0.184	0.120
-283.530	800.000	-0.088	-0.364
-282.516	-200.000	-0.006	0.187
-281.501	292.151	0.070	-0.127
-280.486	-108.600	0.105	-0.023
-279.472	176.521	-0.052	0.076
-278.457	800.000	0.055	-0.196
-277.443	-200.000	-0.024	0.203
-276.428	35.113	0.158	-0.139
-275.413	800.000	-0.043	-0.176
-274.399	-200.000	-0.214	-0.000
-273.384	-200.000	-0.050	-0.225
-272.370	58.876	0.061	0.060
-271.355	-200.000	-0.041	0.232
-270.340	-92.893	0.233	-0.065
-269.326	800.000	0.012	0.043
-268.311	-200.000	0.027	0.245
-267.297	621.244	-0.081	0.205
-266.282	-200.000	0.015	0.158
-265.267	-59.669	-0.249	0.107
-264.253	69.270	0.181	0.187
-263.238	-200.000	0.026	-0.113
-262.224	156.310	-0.053	0.074
-261.209	-156.811	-0.088	0.005
-260.195	-78.895	0.133	0.045
-259.180	-198.598	-0.035	-0.000
-258.165	-122.463	0.262	0.043
-257.151	-200.000	-0.046	0.207
-256.136	-103.493	-0.312	0.074
-255.122	237.704	0.100	0.167
-254.107	-200.000	-0.016	0.216
-253.092	-61.050	0.050	-0.021
-252.078	143.821	-0.150	-0.200
-251.063	-200.000	-0.024	0.129
-250.049	781.943	-0.044	-0.121
-249.034	-24.871	-0.104	0.062
-248.019	-135.206	0.023	-0.003
-247.005	628.408	-0.082	-0.208
-245.990	174.449	-0.101	0.146
-244.976	472.248	-0.111	-0.250
-243.961	-48.783	-0.175	-0.084
-242.946	52.167	0.234	0.223
-241.932	62.355	-0.278	0.278
-240.917	38.982	0.407	0.364
-239.903	-200.000	0.011	0.128
-238.888	800.000	0.087	-0.299
-237.873	12.060	0.078	-0.060
-236.859	-158.093	0.067	0.004
-235.844	128.969	-0.138	0.176
-234.830	800.000	0.072	-0.300
-233.815	-42.247	0.125	-0.064
-232.800	-127.826	0.277	0.040
-231.786	-147.897	0.325	-0.027
-230.771	159.205	-0.073	0.101
-229.757	800.000	0.049	0.156
-228.742	23.682	-0.392	-0.323
-227.727	-131.499	-0.082	-0.011
-226.713	-95.064	0.374	-0.101
-225.698	-150.533	0.214	0.016
-224.684	43.599	-0.160	0.146
-223.669	7.366	0.034	-0.025
-222.655	-83.847	0.218	0.070
-221.640	63.757	-0.168	0.169
-220.625	800.000	0.060	0.192
-219.611	800.000	-0.047	0.149
-218.596	204.463	0.103	-0.160
-217.582	-69.400	-0.259	-0.100
-216.567	11.830	-0.076	-0.059
-215.552	-57.195	0.137	-0.060
-214.538	-200.000	0.008	-0.096
-213.523	-200.000	-0.036	-0.239
-212.509	435.169	0.166	-0.362
-211.494	800.000	0.039	0.116
-210.479	732.184	-0.109	0.292
-209.465	-31.915	0.170	-0.095
-208.450	-43.103	-0.141	-0.072
-207.436	62.473	-0.372	0.371
-206.421	43.257	-0.116	0.106
-205.406	-59.108	0.241	0.104
-204.392	-116.818	-0.060	0.011
-203.377	96.668	0.134	0.153
-202.363	78.795	-0.267	-0.286
-201.348	-70.793	0.414	0.156
-200.333	3.386	-0.083	0.060
-199.319	-200.000	0.020	-0.110
-198.304	-19.222	0.132	-0.082
-197.290	49.160	-0.204	0.192
-196.275	236.789	-0.147	0.244
-195.260	186.495	-0.145	0.216
-194.246	19.561	-0.175	-0.141
-193.231	-71.074	0.259	0.097
-192.217	761.317	-0.072	-0.196
-191.202	-134.134	-0.334	-0.041
-190.187	-100.839	-0.311	-0.076
-189.173	-173.383	-0.163	0.005
-188.158	-200.000	-0.010	0.160
-187.144	-200.000	0.005	-0.073
-186.129	800.000	0.052	0.183
-185.114	-200.000	0.020	0.172
-184.100	44.206	-0.030	-0.028
-183.085	38.962	0.171	-0.153
-182.071	-100.519	0.334	-0.082
-181.056	-119.971	-0.048	-0.008
-180.042	-9.340	0.342	-0.228
-179.027	-142.913	0.324	-0.031
-178.012	617.882	-0.173	-0.435
-176.998	74.426	0.217	0.228
-175.983	-115.056	0.364	-0.069
-174.969	-14.872	-0.036	-0.023
-173.954	144.154	0.216	0.288
-172.939	47.179	0.304	-0.282
-171.925	-64.386	-0.162	0.066
-170.910	93.474	0.220	-0.249
-169.896	39.772	-0.079	-0.071
-168.881	-174.033	0.278	-0.008
-167.866	468.295	0.107	0.241
-166.852	-200.000	-0.019	-0.175
-165.837	218.025	0.033	0.052
-164.823	602.962	0.057	0.141
-163.808	-200.000	-0.022	0.133
-162.793	208.215	0.139	-0.216
-161.779	-71.989	-0.292	-0.108
-160.764	224.516	0.069	0.112
-159.750	-87.342	0.022	-0.007
-158.735	800.000	0.101	0.365
-157.720	-186.906	0.318	0.004
-156.706	-200.000	-0.002	-0.180
-155.691	-200.000	-0.003	-0.122
-154.677	-125.336	0.133	0.020
-153.662	290.273	-0.050	-0.091
-152.647	-117.172	0.110	0.020
-151.633	272.085	-0.009	0.016
-150.618	800.000	-0.072	-0.211
-149.604	-200.000	0.002	0.231
-148.589	-200.000	0.005	-0.149
-147.574	-28.545	0.207	0.119
-146.560	140.130	-0.234	0.309
-145.545	800.000	0.091	-0.342
-144.531	-41.708	0.303	0.155
-143.516	-200.000	0.010	0.143
-142.502	-98.424	-0.191	-0.049
-141.487	-90.530	-0.186	0.054
-140.472	-150.361	-0.124	0.010
-139.458	-200.000	0.003	0.047
-138.443	169.427	0.076	0.109
-137.429	-200.000	-0.011	-0.113
-136.414	-154.768	0.025	0.002
-135.399	-6.657	0.154	-0.105
-134.385	129.619	-0.147	-0.188
-133.370	-200.000	0.012	-0.172
-132.356	-200.000	0.000	-0.111
-131.341	200.076	-0.121	0.186
-130.326	56.417	0.189	0.183
-129.312	-66.935	-0.024	-0.010
-128.297	10.442	-0.148	-0.113
-127.283	-150.624	-0.255	0.019
-126.268	8.304	0.068	0.051
-125.253	725.881	-0.160	0.425
-124.239	74.236	-0.081	-0.085
-123.224	243.061	-0.179	-0.299
-122.210	302.983	0.121	0.224
-121.195	-12.901	0.324	0.210
