DTS Sentinel unit serial number:	SN413079Multiplexer serial number:	ORYXHardware model number:	OX4-SRSoftware version number:	ORYX F/W v4.00 Oryx Data Collector v3.7.2.0data status	okinstallation	princeton_trtdifferential loss correction	single-endedforward channel	channel 1reverse channel	N/Adate	2019/09/13time	23:50:35forward acquisition time	60.00reverse acquisition time	0.00gamma	496.2192k internal	0.2337k external	0.2337temperature offset calibration	1.0079default loss term (dB/km)	0.3790temperature slope calibration	1.0000multiplexer offset coefficient	1.0000multiplexer slope coefficient	1.0000fibre end	0.00T internal ref (°C)	26.58T ext. ref 1 (°C)	3.16T ext. ref 2 (°C)	20.97length (m)	temperature (°C)	Stokes	anti-Stokes-747.200	-11.241	-0.130	-0.086
-746.185	-116.117	0.234	0.044
-745.171	-123.118	-0.131	0.021
-744.156	-84.618	0.092	-0.029
-743.142	-100.625	-0.227	-0.056
-742.127	169.067	-0.073	0.104
-741.112	800.000	-0.047	-0.179
-740.098	-89.849	-0.146	0.043
-739.083	86.441	-0.068	-0.075
-738.069	102.352	0.128	0.150
-737.054	-148.015	-0.249	0.021
-736.039	800.000	-0.006	-0.019
-735.025	-162.891	0.295	-0.014
-734.010	800.000	-0.074	-0.216
-732.996	-150.611	-0.130	0.010
-731.981	11.917	-0.078	0.060
-730.966	-116.385	-0.146	-0.027
-729.952	-46.167	0.053	-0.026
-728.937	157.440	0.143	0.198
-727.923	-19.251	-0.259	-0.161
-726.908	-50.074	-0.287	0.137
-725.894	-17.291	0.051	-0.032
-724.879	52.919	0.106	0.102
-723.864	103.477	0.083	-0.097
-722.850	-200.000	0.023	-0.118
-721.835	-119.071	-0.240	-0.042
-720.821	-59.296	0.087	-0.037
-719.806	-85.257	0.179	-0.056
-718.791	403.028	0.091	-0.193
-717.777	485.765	0.155	-0.354
-716.762	-200.000	0.006	-0.225
-715.748	206.611	0.079	-0.124
-714.733	-103.982	-0.207	-0.048
-713.718	-48.628	-0.370	0.178
-712.704	-200.000	0.037	0.189
-711.689	147.117	0.059	-0.080
-710.675	-105.584	-0.100	-0.023
-709.660	133.002	0.149	-0.193
-708.645	-33.065	-0.254	-0.141
-707.631	-31.045	0.298	0.169
-706.616	53.921	-0.155	-0.150
-705.602	656.260	0.077	-0.197
-704.587	-90.839	-0.048	-0.014
-703.572	-73.367	-0.099	-0.036
-702.558	304.806	-0.086	-0.160
-701.543	-27.234	0.202	0.118
-700.529	451.819	-0.103	0.229
-699.514	-200.000	0.006	0.128
-698.499	-200.000	-0.013	-0.064
-697.485	-200.000	0.009	0.150
-696.470	-200.000	-0.011	0.257
-695.456	97.522	-0.079	0.091
-694.441	-103.384	-0.163	-0.038
-693.426	-95.629	0.227	-0.061
-692.412	-200.000	-0.011	-0.153
-691.397	-200.000	0.077	-0.344
-690.383	800.000	0.087	-0.278
-689.368	-121.983	-0.370	0.061
-688.354	-200.000	0.023	-0.182
-687.339	162.309	0.056	0.079
-686.324	368.631	-0.130	-0.263
-685.310	255.439	0.098	-0.168
-684.295	-194.038	-0.286	0.002
-683.281	-123.596	-0.071	-0.011
-682.266	6.516	0.180	0.134
-681.251	-200.000	0.005	-0.253
-680.237	-200.000	-0.029	-0.326
-679.222	313.161	-0.083	-0.156
-678.208	-80.888	0.170	0.056
-677.193	12.465	0.218	-0.168
-676.178	-105.076	0.268	0.061
-675.164	-190.153	-0.267	-0.003
-674.149	79.304	0.089	0.096
-673.135	33.820	0.276	-0.240
-672.120	-200.000	-0.013	-0.166
-671.105	-13.728	0.130	-0.084
-670.091	42.240	-0.311	-0.283
-669.076	-6.057	0.481	-0.329
-668.062	-200.000	0.195	0.000
-667.047	264.034	-0.175	-0.305
-666.032	-200.000	-0.016	-0.080
-665.018	800.000	0.035	0.119
-664.003	-186.802	-0.254	0.004
-662.989	800.000	0.037	-0.161
-661.974	-148.547	-0.460	0.038
-660.959	-200.000	-0.016	-0.147
-659.945	800.000	-0.029	-0.100
-658.930	-161.022	0.051	-0.003
-657.916	24.864	-0.182	-0.151
-656.901	103.286	-0.275	0.323
-655.886	-170.405	0.255	-0.009
-654.872	49.617	-0.246	0.232
-653.857	-88.469	0.264	-0.079
-652.843	37.947	-0.266	-0.236
-651.828	-94.706	-0.214	-0.058
-650.814	800.000	0.036	0.137
-649.799	10.911	-0.212	0.162
-648.784	146.659	-0.106	0.143
-647.770	-150.792	-0.094	0.007
-646.755	-200.000	0.024	-0.332
-645.741	-129.652	-0.209	0.029
-644.726	31.051	0.068	-0.058
-643.711	-200.000	-0.010	-0.433
-642.697	-128.282	-0.158	-0.023
-641.682	-200.000	0.058	0.280
-640.668	-98.086	-0.057	0.015
-639.653	10.627	0.179	-0.137
-638.638	361.815	0.099	0.199
-637.624	-25.428	-0.270	-0.160
-636.609	37.894	-0.342	0.304
-635.595	-106.872	-0.050	0.011
-634.580	-200.000	-0.016	-0.113
-633.565	-51.261	0.251	0.117
-632.551	-38.105	0.110	0.058
-631.536	-131.093	0.292	-0.039
-630.522	-200.000	-0.023	0.198
-629.507	-172.095	-0.198	0.006
-628.492	-174.614	0.277	0.008
-627.478	429.765	0.085	-0.184
-626.463	-87.781	-0.039	0.012
-625.449	354.148	0.096	-0.190
-624.434	-125.231	0.244	-0.037
-623.419	-200.000	0.003	-0.352
-622.405	-76.984	0.054	0.019
-621.390	715.152	-0.076	-0.201
-620.376	-74.065	0.186	0.067
-619.361	129.246	0.139	0.177
-618.346	-132.236	-0.243	0.031
-617.332	-176.085	-0.265	-0.007
-616.317	800.000	-0.030	-0.130
-615.303	-71.204	0.176	0.066
-614.288	27.125	-0.120	-0.101
-613.273	1.898	0.319	0.230
-612.259	78.579	0.204	-0.217
-611.244	-17.355	-0.259	-0.163
-610.230	-42.703	-0.203	-0.103
-609.215	-200.000	0.024	-0.537
-608.201	-200.000	-0.051	0.333
-607.186	537.678	0.132	-0.314
-606.171	-200.000	-0.030	0.172
-605.157	278.633	-0.125	-0.223
-604.142	-69.393	0.521	-0.199
-603.128	-57.293	-0.154	0.068
-602.113	-200.000	0.025	0.146
-601.098	-200.000	0.005	0.335
-600.084	89.820	-0.218	-0.243
-599.069	36.277	-0.113	-0.099
-598.055	249.421	0.151	-0.256
-597.040	-200.000	-0.015	0.108
-596.025	-170.522	0.372	-0.013
-595.011	-37.960	0.037	0.020
-593.996	-200.000	0.017	0.087
-592.982	-78.372	0.256	-0.088
-591.967	800.000	0.138	0.433
-590.952	-200.000	0.030	-0.143
-589.938	800.000	0.054	0.236
-588.923	243.042	0.103	-0.173
-587.909	800.000	-0.029	0.082
-586.894	-5.282	0.382	-0.262
-585.879	17.273	0.079	0.063
-584.865	-200.000	0.002	0.167
-583.850	800.000	0.103	-0.317
-582.836	11.587	0.252	0.193
-581.821	-9.257	0.273	0.182
-580.806	-174.069	-0.219	-0.006
-579.792	-55.549	-0.124	-0.056
-578.777	237.556	0.144	0.238
-577.763	13.872	-0.136	-0.106
-576.748	-69.419	-0.210	0.080
-575.733	-93.383	0.042	0.012
-574.719	-200.000	0.033	-0.148
-573.704	-64.621	-0.376	-0.152
-572.690	-200.000	0.030	0.189
-571.675	800.000	0.056	0.211
-570.661	-100.538	0.081	-0.020
-569.646	91.986	0.059	0.066
-568.631	-200.000	-0.495	0.002
-567.617	-200.000	-0.007	-0.100
-566.602	100.742	-0.131	0.151
-565.588	-130.381	0.280	-0.038
-564.573	226.790	-0.036	0.058
-563.558	-18.764	0.051	0.032
-562.544	-84.227	-0.357	0.113
-561.529	-200.000	0.004	0.180
-560.515	92.264	-0.371	-0.417
-559.500	31.274	0.144	-0.124
-558.485	-78.517	-0.404	-0.138
-557.471	-144.771	-0.146	0.013
-556.456	-175.943	0.123	0.003
-555.442	800.000	0.070	0.232
-554.427	287.368	-0.082	0.148
-553.412	-45.316	-0.518	0.256
-552.398	-200.000	0.031	-0.142
-551.383	213.526	-0.265	-0.417
-550.369	51.306	-0.072	-0.068
-549.354	800.000	-0.061	0.203
-548.339	-89.430	0.149	0.044
-547.325	-30.440	0.059	0.033
-546.310	3.793	0.051	0.037
-545.296	346.692	0.032	0.062
-544.281	-41.024	-0.322	-0.166
-543.266	28.735	-0.131	-0.110
-542.252	-128.593	0.150	0.021
-541.237	-124.854	0.172	0.026
-540.223	-33.242	0.252	-0.139
-539.208	-200.000	0.003	0.356
-538.193	-83.375	0.159	0.051
-537.179	113.569	-0.209	0.252
-536.164	-200.000	-0.036	0.198
-535.150	225.341	0.123	-0.198
-534.135	79.970	-0.278	-0.298
-533.121	800.000	0.075	0.220
-532.106	-21.745	-0.135	0.082
-531.091	800.000	0.132	-0.402
-530.077	-30.264	-0.185	0.105
-529.062	-130.436	0.291	-0.039
-528.048	50.065	-0.099	0.093
-527.033	75.214	0.053	0.056
-526.018	-200.000	0.002	-0.066
-525.004	57.844	-0.090	-0.088
-523.989	800.000	-0.050	0.169
-522.975	-200.000	-0.017	0.080
-521.960	800.000	-0.041	-0.161
-520.945	56.636	-0.079	0.077
-519.931	-137.230	0.121	0.014
-518.916	-200.000	0.004	-0.048
-517.902	-102.175	0.147	0.035
-516.887	243.261	0.062	-0.103
-515.872	-200.000	-0.001	-0.077
-514.858	-58.260	-0.093	0.040
-513.843	-118.581	-0.323	-0.057
-512.829	-38.754	0.355	-0.186
-511.814	76.723	-0.058	-0.062
-510.799	579.389	-0.046	-0.112
-509.785	-26.996	0.081	-0.047
-508.770	7.538	-0.182	0.135
-507.756	-66.710	0.339	0.134
-506.741	42.885	0.204	-0.185
-505.726	15.197	0.075	0.059
-504.712	19.921	-0.275	0.220
-503.697	159.211	-0.183	-0.254
-502.683	154.966	0.075	-0.103
-501.668	701.884	0.058	0.153
-500.653	345.594	0.079	0.154
-499.639	13.132	0.168	0.130
-498.624	507.431	-0.066	-0.152
-497.610	-86.979	0.190	0.058
-496.595	65.795	0.111	0.112
-495.581	-103.979	-0.053	-0.012
-494.566	199.032	0.139	-0.211
-493.551	-152.768	0.341	-0.024
-492.537	-77.307	-0.397	-0.137
-491.522	115.275	-0.200	0.243
-490.508	62.985	-0.117	0.117
-489.493	-200.000	0.006	0.165
-488.478	-200.000	0.012	-0.227
-487.464	-59.389	-0.318	-0.136
-486.449	132.892	-0.107	-0.137
-485.435	197.879	-0.165	-0.250
-484.420	-200.000	0.061	-0.275
-483.405	800.000	0.084	-0.302
-482.391	656.431	-0.052	-0.132
-481.376	367.263	0.102	0.205
-480.362	160.963	-0.099	0.138
-479.347	-200.000	-0.064	-0.446
-478.332	493.953	0.059	-0.135
-477.318	-55.763	0.450	0.200
-476.303	83.862	-0.109	-0.119
-475.289	-200.000	-0.044	0.216
-474.274	189.775	-0.139	0.207
-473.259	-89.679	-0.171	0.050
-472.245	52.323	-0.062	0.058
-471.230	28.879	-0.241	0.203
-470.216	52.293	0.122	0.116
-469.201	52.865	0.326	0.309
-468.186	80.738	0.220	-0.235
-467.172	-138.900	-0.487	0.053
-466.157	-10.345	0.058	0.038
-465.143	-120.724	-0.182	0.031
-464.128	-75.936	0.390	-0.137
-463.113	-15.195	-0.152	-0.096
-462.099	59.485	-0.167	0.163
-461.084	103.138	0.160	0.186
-460.070	-86.314	0.320	-0.098
-459.055	-87.952	-0.145	-0.043
-458.040	-74.086	0.193	0.070
-457.026	-200.000	0.013	-0.112
-456.011	112.513	0.155	-0.187
-454.997	308.885	-0.080	0.149
-453.982	94.912	0.041	0.046
-452.968	-169.069	-0.378	-0.014
-451.953	800.000	-0.065	-0.214
-450.938	800.000	-0.020	0.062
-449.924	-136.311	0.275	0.032
-448.909	42.288	0.265	0.239
-447.895	279.814	0.011	0.019
-446.880	265.672	-0.126	-0.218
-445.865	-98.412	-0.094	0.024
-444.851	-39.589	0.230	-0.119
-443.836	437.757	0.078	-0.168
-442.822	305.557	-0.156	0.288
-441.807	42.620	0.148	-0.133
-440.792	78.369	0.215	-0.228
-439.778	-100.368	0.094	0.023
-438.763	179.516	0.071	-0.103
-437.749	-200.000	-0.039	-0.239
-436.734	-52.510	0.235	0.108
-435.719	6.385	0.065	0.048
-434.705	-133.705	0.311	0.038
-433.690	10.170	-0.362	-0.273
-432.676	-200.000	-0.026	0.155
-431.661	311.804	0.118	0.219
-430.646	128.316	0.128	-0.162
-429.632	794.207	0.061	0.168
-428.617	-200.000	0.025	0.149
-427.603	-102.647	0.064	0.015
-426.588	-149.759	-0.130	0.010
-425.573	-200.000	0.013	-0.408
-424.559	-51.136	-0.199	0.093
-423.544	169.371	0.190	0.269
-422.530	-129.589	-0.286	-0.039
-421.515	-184.607	-0.112	0.002
-420.500	-28.155	0.255	0.146
-419.486	-53.113	0.224	0.102
-418.471	83.722	-0.133	-0.144
-417.457	-200.000	0.015	0.183
-416.442	105.663	-0.178	0.208
-415.428	-179.671	-0.076	-0.002
-414.413	137.348	0.093	-0.120
-413.398	71.391	0.134	0.138
-412.384	-90.868	0.217	0.062
-411.369	-137.904	-0.062	0.007
-410.355	-4.025	0.082	-0.056
-409.340	-200.000	-0.033	0.174
-408.325	-3.019	0.157	0.109
-407.311	-86.369	-0.251	-0.076
-406.296	301.695	0.071	0.130
-405.282	-31.949	-0.095	-0.053
-404.267	14.607	0.251	-0.195
-403.252	-200.000	-0.014	0.066
-402.238	-42.075	0.047	-0.024
-401.223	-130.964	0.096	-0.013
-400.209	-20.916	-0.069	0.042
-399.194	-12.110	0.307	0.199
-398.179	-76.148	0.052	0.018
-397.165	1.580	0.173	0.123
-396.150	-200.000	-0.007	-0.232
-395.136	296.407	-0.292	-0.531
-394.121	800.000	-0.048	-0.167
-393.106	-127.555	0.287	-0.041
-392.092	-200.000	-0.001	-0.036
-391.077	36.632	-0.284	0.248
-390.063	-82.982	0.304	-0.097
-389.048	-49.818	-0.304	0.143
-388.033	-8.856	0.143	0.095
-387.019	800.000	0.092	-0.251
-386.004	-200.000	0.041	0.202
-384.990	-126.810	-0.301	-0.044
-383.975	141.890	0.175	0.229
-382.960	-91.827	0.172	0.048
-381.946	83.026	0.325	0.350
-380.931	48.697	-0.188	0.174
-379.917	-175.177	-0.260	0.007
-378.902	-115.995	-0.410	0.076
-377.888	800.000	-0.038	-0.145
-376.873	-128.596	-0.327	-0.046
-375.858	24.613	0.146	-0.120
-374.844	-179.054	-0.087	0.002
-373.829	-105.716	-0.122	-0.027
-372.815	-29.618	0.244	-0.138
-371.800	800.000	-0.077	0.229
-370.785	800.000	0.113	-0.332
-369.771	-137.693	0.379	-0.042
-368.756	-103.220	0.113	-0.026
-367.742	109.928	0.159	0.189
-366.727	-176.220	-0.052	0.001
-365.712	-42.463	-0.096	0.048
-364.698	797.561	0.110	0.299
-363.683	-200.000	-0.045	-0.196
-362.669	800.000	-0.045	0.165
-361.654	-30.293	-0.232	-0.130
-360.639	21.957	0.052	0.042
-359.625	31.417	0.189	0.160
-358.610	-69.210	-0.196	0.075
-357.596	-200.000	-0.001	0.118
-356.581	157.961	0.060	0.082
-355.566	143.813	-0.246	0.325
-354.552	-133.570	-0.080	-0.010
-353.537	-142.542	0.037	0.004
-352.523	337.433	0.073	0.141
-351.508	-9.840	-0.050	0.033
-350.493	-142.778	0.228	-0.022
-349.479	-117.605	0.373	-0.067
-348.464	325.588	-0.119	0.226
-347.450	-10.037	-0.152	0.100
-346.435	-181.430	-0.322	-0.006
-345.420	800.000	0.037	-0.133
-344.406	-36.726	0.153	-0.081
-343.391	-160.582	0.254	-0.013
-342.377	-47.953	0.372	0.178
-341.362	-200.000	0.031	-0.334
-340.348	164.748	0.108	0.151
-339.333	-139.578	0.223	-0.023
-338.318	-141.967	-0.097	0.010
-337.304	249.593	0.056	-0.094
-336.289	800.000	-0.028	0.082
-335.275	50.464	-0.209	0.195
-334.260	-131.980	-0.302	0.039
-333.245	-200.000	0.024	0.137
-332.231	-44.796	0.104	0.051
-331.216	-109.339	-0.370	-0.078
-330.202	-200.000	-0.053	-0.464
-329.187	-200.000	-0.001	-0.024
-328.172	623.002	-0.073	-0.182
-327.158	127.035	-0.076	-0.096
-326.143	-26.801	0.336	-0.194
-325.129	-92.293	-0.224	-0.062
-324.114	437.716	-0.054	-0.116
-323.099	-200.000	-0.005	0.068
-322.085	-120.120	-0.299	0.051
-321.070	104.165	-0.059	-0.068
-320.056	-200.000	-0.001	-0.171
-319.041	-122.653	0.098	-0.016
-318.026	25.010	0.387	0.317
-317.012	-145.464	0.293	-0.026
-315.997	135.640	0.289	0.371
-314.983	-200.000	-0.009	0.648
-313.968	-115.335	0.211	-0.039
-312.953	-16.165	-0.109	0.068
-311.939	-11.894	0.132	-0.086
-310.924	-200.000	-0.026	-0.227
-309.910	-200.000	0.034	-0.194
-308.895	-156.251	-0.043	0.003
-307.880	-117.553	0.030	0.005
-306.866	-200.000	-0.018	-0.143
-305.851	227.696	-0.200	0.321
-304.837	-200.000	-0.032	0.162
-303.822	783.695	-0.106	0.288
-302.807	515.333	-0.065	0.149
-301.793	120.756	0.141	0.173
-300.778	43.572	0.271	-0.244
-299.764	-159.193	-0.190	0.011
-298.749	1.441	0.087	-0.062
-297.735	-123.569	0.088	-0.014
-296.720	630.105	0.134	-0.334
-295.705	26.040	0.012	0.010
-294.691	2.492	0.175	-0.125
-293.676	-200.000	-0.022	-0.216
-292.662	371.106	-0.091	0.182
-291.647	54.587	-0.087	-0.083
-290.632	-92.029	0.020	-0.006
-289.618	-200.000	0.044	0.242
-288.603	668.927	-0.120	0.305
-287.589	68.111	0.215	0.217
-286.574	-200.000	-0.036	-0.285
-285.559	-13.961	-0.091	-0.058
-284.545	-16.356	-0.065	0.041
-283.530	120.721	-0.159	-0.195
-282.516	214.231	0.344	-0.537
-281.501	-169.584	-0.224	0.008
-280.486	9.111	-0.236	-0.176
-279.472	623.127	0.113	-0.280
-278.457	-200.000	0.005	0.256
-277.443	-93.466	-0.193	-0.053
-276.428	270.241	-0.215	-0.372
-275.413	-200.000	0.037	-0.205
-274.399	-24.821	-0.079	-0.046
-273.384	-40.646	-0.175	-0.090
-272.370	-65.914	-0.304	0.120
-271.355	99.323	0.248	0.282
-270.340	420.083	0.092	0.193
-269.326	-65.179	0.068	0.027
-268.311	-200.000	0.010	0.101
-267.297	15.686	-0.136	0.106
-266.282	-200.000	0.037	0.223
-265.267	-101.077	0.105	0.025
-264.253	255.555	0.044	0.075
-263.238	406.108	0.175	-0.364
-262.224	791.531	0.063	-0.172
-261.209	-126.884	0.079	-0.011
-260.195	379.241	-0.149	-0.301
-259.180	109.411	0.145	-0.171
-258.165	800.000	-0.087	-0.261
-257.151	-39.910	-0.080	0.041
-256.136	61.998	-0.198	-0.195
-255.122	-47.146	0.194	-0.093
-254.107	-72.679	0.408	-0.148
-253.092	800.000	0.041	0.173
-252.078	91.299	-0.172	0.190
-251.063	800.000	0.048	-0.154
-250.049	-200.000	-0.020	-0.214
-249.034	800.000	-0.034	0.098
-248.019	-177.214	-0.145	0.004
-247.005	216.441	-0.081	0.127
-245.990	-56.246	0.108	0.047
-244.976	-200.000	-0.028	-0.245
-243.961	182.879	-0.153	-0.222
-242.946	800.000	-0.063	0.204
-241.932	-200.000	-0.018	-0.193
-240.917	7.119	-0.329	-0.241
-239.903	184.899	0.056	-0.082
-238.888	-200.000	0.041	-0.210
-237.873	-85.154	0.099	0.031
-236.859	-151.020	0.280	0.021
-235.844	-200.000	-0.100	0.546
-234.830	180.406	0.097	-0.139
-233.815	774.667	0.080	0.215
-232.800	11.141	-0.224	-0.169
-231.786	-200.000	0.013	-0.241
-230.771	-200.000	-0.015	-0.071
-229.757	367.231	0.040	0.080
-228.742	800.000	0.131	0.396
-227.727	-200.000	-0.031	0.179
-226.713	-128.380	-0.084	0.012
-225.698	139.933	0.189	0.245
-224.684	372.610	-0.093	-0.185
-223.669	142.939	0.034	0.044
-222.655	-89.917	-0.154	0.044
-221.640	5.052	0.179	-0.129
-220.625	800.000	-0.060	0.223
-219.611	-200.000	0.030	-0.144
-218.596	661.510	0.108	0.273
-217.582	-200.000	0.046	0.250
-216.567	-200.000	0.015	0.117
-215.552	321.894	0.079	0.149
-214.538	-200.000	0.045	0.200
-213.523	139.475	0.205	0.266
-212.509	79.291	-0.047	-0.050
-211.494	800.000	-0.071	0.297
-210.479	106.012	-0.175	0.204
-209.465	-68.979	-0.008	0.003
-208.450	1.120	0.138	0.098
-207.436	-200.000	-0.022	0.269
-206.421	532.730	-0.050	0.117
-205.406	-89.687	0.476	0.137
-204.392	187.003	-0.194	0.285
-203.377	-34.479	0.130	-0.070
-202.363	61.455	0.028	0.027
-201.348	-85.003	-0.290	0.089
-200.333	-200.000	-0.006	-0.416
-199.319	-173.637	-0.354	-0.010
-198.304	800.000	0.037	-0.125
-197.290	-200.000	0.073	-0.326
-196.275	152.608	-0.125	0.168
-195.260	-200.000	0.009	0.059
-194.246	-200.000	0.100	-0.442
-193.231	-16.066	-0.155	-0.097
-192.217	85.783	-0.143	0.154
-191.202	-26.549	-0.065	-0.037
-190.187	-36.011	-0.316	0.168
-189.173	-79.734	-0.062	-0.021
-188.158	287.914	-0.079	0.141
-187.144	716.890	0.114	-0.297
-186.129	-200.000	0.052	-0.278
-185.114	-156.191	-0.144	-0.009
-184.100	800.000	0.035	-0.114
-183.085	103.050	-0.184	0.212
-182.071	19.318	-0.051	-0.040
-181.056	-15.017	0.153	-0.097
-180.042	-90.510	0.182	-0.052
-179.027	132.048	-0.144	-0.182
-178.012	-82.923	0.202	-0.064
-176.998	-63.785	0.147	-0.059
-175.983	233.059	-0.119	-0.192
-174.969	-52.506	0.295	-0.134
-173.954	-75.724	-0.095	-0.033
-172.939	470.902	0.075	-0.166
-171.925	800.000	-0.018	0.059
-170.910	-96.145	0.264	0.069
-169.896	-200.000	-0.020	0.205
-168.881	-78.308	-0.302	-0.102
-167.866	-200.000	0.030	0.141
-166.852	163.930	-0.175	0.242
-165.837	-200.000	-0.008	0.120
-164.823	800.000	-0.014	0.051
-163.808	7.431	-0.196	-0.143
-162.793	486.499	-0.173	0.388
-161.779	-91.616	-0.164	0.046
-160.764	393.489	-0.186	0.381
-159.750	-6.134	-0.136	-0.091
-158.735	724.831	-0.055	0.143
-157.720	-131.076	-0.233	0.030
-156.706	-200.000	0.031	-0.268
-155.691	180.689	-0.260	-0.375
-154.677	-87.660	0.158	-0.047
-153.662	-38.883	-0.176	-0.091
-152.647	-113.960	-0.073	0.014
-151.633	57.005	-0.047	0.045
-150.618	124.695	0.141	-0.174
-149.604	-119.534	-0.370	0.063
-148.589	-8.003	0.174	-0.115
-147.574	-133.646	0.343	-0.042
-146.560	29.629	0.134	0.112
-145.545	800.000	-0.080	0.312
-144.531	115.234	-0.025	-0.030
-143.516	-10.590	0.291	-0.189
-142.502	-200.000	-0.012	-0.268
-141.487	214.660	-0.167	-0.259
-140.472	800.000	0.110	-0.332
-139.458	-200.000	-0.005	-0.221
-138.443	-115.172	0.124	-0.023
-137.429	-4.658	0.298	0.202
-136.414	-65.272	-0.187	0.074
-135.399	25.264	-0.182	-0.149
-134.385	94.733	0.215	-0.240
-133.370	-118.060	0.268	0.047
-132.356	194.898	-0.089	-0.132
-131.341	376.836	0.133	0.266
-130.326	-200.000	0.009	0.254
-129.312	-134.537	0.366	0.044
-128.297	68.009	0.120	-0.120
-127.283	118.146	-0.015	-0.018
-126.268	523.166	0.180	-0.415
-125.253	-173.100	-0.251	-0.008
-124.239	-33.790	-0.050	-0.027
-123.224	108.533	-0.050	0.059
-122.210	-51.501	-0.162	0.074
