DTS Sentinel unit serial number:	SN413079Multiplexer serial number:	ORYXHardware model number:	OX4-SRSoftware version number:	ORYX F/W v4.00 Oryx Data Collector v3.7.2.0data status	okinstallation	princeton_trtdifferential loss correction	single-endedforward channel	channel 1reverse channel	N/Adate	2019/09/18time	00:34:35forward acquisition time	60.00reverse acquisition time	0.00gamma	496.2192k internal	0.2341k external	0.2341temperature offset calibration	0.9973default loss term (dB/km)	0.3790temperature slope calibration	1.0000multiplexer offset coefficient	1.0000multiplexer slope coefficient	1.0000fibre end	0.00T internal ref (°C)	23.50T ext. ref 1 (°C)	0.16T ext. ref 2 (°C)	17.14length (m)	temperature (°C)	Stokes	anti-Stokes-747.200	800.000	-0.071	0.227
-746.185	93.903	0.084	0.095
-745.171	31.774	0.100	0.086
-744.156	119.262	0.142	0.176
-743.142	-28.172	0.455	0.263
-742.127	800.000	0.035	-0.100
-741.112	24.250	0.222	-0.184
-740.098	-19.431	-0.194	-0.121
-739.083	-51.838	0.100	0.047
-738.069	-126.244	0.021	-0.003
-737.054	583.642	-0.116	0.286
-736.039	-49.926	-0.196	-0.093
-735.025	800.000	-0.052	0.144
-734.010	-68.019	-0.131	0.051
-732.996	-113.128	-0.329	-0.065
-731.981	-21.652	-0.122	-0.074
-730.966	-178.572	0.190	-0.004
-729.952	172.754	0.011	-0.016
-728.937	-11.991	0.148	-0.097
-727.923	103.232	0.073	-0.086
-726.908	559.880	-0.054	0.131
-725.894	3.349	0.158	-0.115
-724.879	-50.762	-0.141	0.066
-723.864	-35.168	-0.323	0.176
-722.850	-68.837	0.514	-0.199
-721.835	800.000	-0.015	-0.047
-720.821	-200.000	0.012	-0.104
-719.806	-45.975	-0.118	-0.058
-718.791	-51.388	0.122	0.057
-717.777	-200.000	-0.078	0.425
-716.762	-41.332	0.180	-0.093
-715.748	-200.000	-0.006	-0.100
-714.733	-125.268	-0.101	-0.015
-713.718	102.390	-0.117	-0.137
-712.704	-91.316	0.258	-0.074
-711.689	735.855	-0.144	-0.385
-710.675	8.074	-0.091	0.068
-709.660	165.245	0.030	-0.043
-708.645	218.691	-0.083	0.132
-707.631	800.000	0.041	-0.115
-706.616	63.861	0.268	0.269
-705.602	115.817	-0.033	0.041
-704.587	-200.000	0.025	-0.168
-703.572	243.362	0.155	0.260
-702.558	-90.015	-0.208	-0.061
-701.543	-66.457	0.287	0.114
-700.529	-200.000	-0.013	0.072
-699.514	166.091	-0.078	0.111
-698.499	-121.221	0.430	0.072
-697.485	800.000	-0.055	0.205
-696.470	22.766	0.129	-0.106
-695.456	-200.000	-0.272	0.000
-694.441	-63.255	-0.244	-0.101
-693.426	-12.970	0.172	0.112
-692.412	596.007	-0.026	0.063
-691.397	-125.952	-0.209	-0.032
-690.383	-200.000	0.028	-0.336
-689.368	-85.037	-0.324	0.102
-688.354	6.313	-0.311	0.231
-687.339	-17.822	0.068	-0.043
-686.324	-200.000	-0.026	-0.184
-685.310	17.303	-0.157	-0.125
-684.295	800.000	0.068	-0.228
-683.281	20.961	-0.134	0.109
-682.266	-171.003	0.220	0.007
-681.251	-66.368	-0.189	0.075
-680.237	-100.277	0.332	0.082
-679.222	189.570	0.058	-0.086
-678.208	3.408	-0.138	-0.100
-677.193	373.855	-0.033	0.068
-676.178	4.084	-0.309	0.226
-675.164	-80.458	-0.161	0.054
-674.149	-200.000	0.024	-0.213
-673.135	-183.696	-0.125	-0.002
-672.120	-24.071	-0.129	0.077
-671.105	-168.175	-0.194	0.008
-670.091	103.923	0.055	0.064
-669.076	-50.848	0.295	-0.138
-668.062	231.244	-0.288	-0.471
-667.047	800.000	-0.020	0.069
-666.032	-95.795	0.361	0.096
-665.018	318.805	0.103	-0.194
-664.003	4.820	-0.282	-0.207
-662.989	-157.932	-0.228	0.013
-661.974	-124.417	0.214	-0.033
-660.959	208.638	0.057	-0.089
-659.945	374.297	-0.132	-0.269
-658.930	-150.012	0.255	0.020
-657.916	77.021	-0.078	0.083
-656.901	800.000	0.114	-0.361
-655.886	800.000	-0.125	-0.347
-654.872	-24.020	-0.589	-0.352
-653.857	72.171	0.121	0.126
-652.843	800.000	-0.035	0.107
-651.828	-47.811	0.186	-0.090
-650.814	800.000	0.071	0.210
-649.799	-85.049	-0.225	-0.070
-648.784	54.275	0.027	-0.026
-647.770	-32.204	-0.313	-0.175
-646.755	800.000	0.041	-0.137
-645.741	-98.733	-0.226	0.057
-644.726	-137.688	0.320	0.036
-643.711	116.550	-0.147	0.180
-642.697	-128.961	0.378	0.053
-641.682	254.392	-0.223	-0.380
-640.668	361.130	-0.154	-0.308
-639.653	-200.000	-0.013	-0.203
-638.638	339.746	0.112	-0.219
-637.624	800.000	-0.052	-0.170
-636.609	800.000	0.060	-0.207
-635.595	-21.689	-0.206	0.125
-634.580	800.000	0.040	-0.148
-633.565	-120.526	-0.046	0.008
-632.551	-183.459	0.194	0.003
-631.536	800.000	-0.061	0.197
-630.522	800.000	0.023	0.076
-629.507	800.000	-0.054	-0.172
-628.492	-160.344	-0.438	0.024
-627.478	-102.594	-0.243	0.058
-626.463	-66.170	-0.429	0.170
-625.449	329.447	-0.140	-0.268
-624.434	-102.742	-0.174	0.041
-623.419	800.000	-0.131	-0.390
-622.405	-58.515	0.296	0.128
-621.390	-70.678	0.054	0.020
-620.376	-127.848	0.184	0.026
-619.361	-6.686	-0.239	0.162
-618.346	-200.000	0.014	0.238
-617.332	28.012	0.013	0.011
-616.317	26.017	0.065	0.054
-615.303	800.000	-0.042	-0.145
-614.288	76.924	0.123	-0.131
-613.273	41.201	0.214	-0.193
-612.259	12.638	-0.089	0.068
-611.244	-3.801	-0.046	-0.032
-610.230	-200.000	-0.042	0.232
-609.215	36.488	-0.118	-0.104
-608.201	800.000	0.098	0.300
-607.186	123.644	-0.222	-0.278
-606.171	28.179	-0.235	0.198
-605.157	126.165	-0.076	-0.096
-604.142	-148.564	-0.118	0.010
-603.128	-66.778	-0.091	-0.036
-602.113	26.513	0.087	-0.072
-601.098	281.603	0.343	-0.613
-600.084	-86.429	0.289	0.089
-599.069	60.249	-0.029	0.029
-598.055	-164.040	-0.333	0.015
-597.040	-154.671	0.084	0.006
-596.025	-114.311	-0.336	0.065
-595.011	800.000	-0.040	0.148
-593.996	-200.000	-0.002	-0.091
-592.982	800.000	0.029	0.103
-591.967	800.000	0.038	-0.145
-590.952	-200.000	-0.006	-0.060
-589.938	-146.249	-0.142	0.012
-588.923	-200.000	-0.003	-0.098
-587.909	101.148	0.035	-0.041
-586.894	-200.000	-0.022	-0.402
-585.879	31.163	-0.172	-0.147
-584.865	800.000	0.055	-0.173
-583.850	-85.281	-0.605	-0.188
-582.836	-158.594	0.113	-0.006
-581.821	-87.176	-0.054	-0.016
-580.806	458.120	0.163	-0.361
-579.792	-199.472	-0.162	0.001
-578.777	800.000	-0.074	0.215
-577.763	-200.000	0.021	0.404
-576.748	84.703	0.144	0.157
-575.733	800.000	-0.039	-0.151
-574.719	-141.950	-0.289	0.029
-573.704	40.044	0.086	0.077
-572.690	-92.618	-0.245	-0.069
-571.675	113.802	-0.346	-0.418
-570.661	-110.852	0.662	-0.136
-569.646	238.542	0.099	0.163
-568.631	77.038	0.191	-0.202
-567.617	-200.000	0.031	-0.184
-566.602	-200.000	-0.052	-0.466
-565.588	-116.131	-0.132	-0.024
-564.573	-98.373	0.206	-0.053
-563.558	800.000	0.091	-0.386
-562.544	800.000	0.071	-0.224
-561.529	800.000	0.026	0.100
-560.515	-119.529	0.342	-0.059
-559.500	-57.066	-0.318	-0.140
-558.485	-200.000	-0.020	-0.209
-557.471	-89.289	0.291	-0.085
-556.456	-50.814	-0.331	-0.155
-555.442	-71.614	-0.125	-0.046
-554.427	-32.631	0.223	0.124
-553.412	-21.981	0.098	0.059
-552.398	-121.725	-0.198	-0.033
-551.383	6.940	0.270	0.200
-550.369	-131.892	0.030	0.004
-549.354	-12.084	0.062	0.040
-548.339	800.000	0.082	-0.246
-547.325	87.246	0.296	0.326
-546.310	-49.929	-0.140	-0.066
-545.296	78.364	-0.261	0.277
-544.281	13.819	0.199	-0.154
-543.266	205.444	0.164	-0.253
-542.252	-14.706	-0.139	0.089
-541.237	212.672	0.076	-0.119
-540.223	2.117	0.308	-0.221
-539.208	250.743	0.087	-0.148
-538.193	-91.360	0.201	-0.057
-537.179	34.358	0.164	-0.142
-536.164	-97.469	0.231	-0.060
-535.150	-24.553	-0.081	0.048
-534.135	301.578	0.104	0.191
-533.121	800.000	0.042	-0.139
-532.106	-3.899	0.199	-0.137
-531.091	-142.885	-0.026	0.002
-530.077	-200.000	-0.020	-0.319
-529.062	-200.000	-0.002	0.242
-528.048	-123.463	-0.249	0.039
-527.033	44.750	0.246	-0.225
-526.018	-100.734	-0.179	-0.044
-525.004	72.490	-0.032	-0.033
-523.989	42.850	-0.303	0.274
-522.975	-200.000	-0.063	-0.287
-521.960	-98.022	-0.175	-0.045
-520.945	-48.933	0.322	-0.153
-519.931	115.475	-0.303	0.368
-518.916	148.940	-0.268	0.360
-517.902	-62.751	0.051	0.021
-516.887	46.703	0.238	-0.220
-515.872	-4.582	0.219	0.150
-514.858	776.313	-0.086	-0.234
-513.843	128.050	-0.197	0.249
-512.829	-11.567	-0.086	-0.056
-511.814	244.500	0.023	0.039
-510.799	149.656	-0.084	-0.113
-509.785	114.752	-0.336	-0.406
-508.770	309.922	-0.059	0.109
-507.756	-63.166	-0.380	0.156
-506.741	207.719	0.090	0.139
-505.726	-71.672	-0.118	0.044
-504.712	-60.624	-0.055	0.023
-503.697	-105.401	0.098	0.022
-502.683	-200.000	0.050	0.313
-501.668	-39.864	-0.340	0.176
-500.653	664.678	-0.110	-0.283
-499.639	-106.935	0.323	0.071
-498.624	-11.613	-0.207	0.135
-497.610	800.000	-0.073	0.250
-496.595	164.261	-0.146	0.204
-495.581	286.651	0.229	0.411
-494.566	-75.471	-0.323	0.114
-493.551	458.024	-0.091	0.202
-492.537	-200.000	-0.030	-0.286
-491.522	501.357	0.103	0.237
-490.508	461.947	-0.086	-0.191
-489.493	-34.551	0.237	-0.129
-488.478	399.167	-0.039	-0.080
-487.464	33.559	-0.152	0.131
-486.449	-123.893	0.256	0.040
-485.435	-200.000	0.019	0.184
-484.420	352.563	0.079	-0.156
-483.405	188.969	-0.101	0.150
-482.391	-26.744	-0.088	-0.051
-481.376	-77.131	0.196	0.068
-480.362	-31.111	0.223	-0.124
-479.347	-46.009	-0.207	0.101
-478.332	23.118	-0.061	0.050
-477.318	29.371	0.224	-0.189
-476.303	-114.552	0.341	0.065
-475.289	-5.174	0.344	0.235
-474.274	-200.000	0.008	-0.055
-473.259	616.215	0.069	-0.171
-472.245	148.769	-0.056	0.075
-471.230	-200.000	-0.039	0.255
-470.216	800.000	0.088	0.290
-469.201	171.445	0.196	-0.279
-468.186	192.098	-0.225	0.336
-467.172	-150.621	0.114	0.009
-466.157	-42.629	0.296	0.150
-465.143	102.833	0.044	0.051
-464.128	-200.000	0.020	-0.117
-463.113	89.086	-0.140	0.155
-462.099	-200.000	0.020	0.173
-461.084	800.000	-0.060	0.193
-460.070	-29.047	0.028	0.016
-459.055	34.551	0.217	0.188
-458.040	-121.727	-0.255	0.042
-457.026	-22.091	-0.226	-0.136
-456.011	-200.000	0.021	0.204
-454.997	-145.049	0.160	0.014
-453.982	-200.000	-0.033	-0.258
-452.968	225.830	0.080	-0.129
-451.953	1.599	-0.197	0.141
-450.938	-112.952	-0.343	0.067
-449.924	-137.444	0.039	0.004
-448.909	-162.651	0.145	-0.007
-447.895	-109.970	-0.256	-0.053
-446.880	-200.000	-0.059	-0.435
-445.865	418.554	-0.076	0.161
-444.851	-104.200	0.128	-0.029
-443.836	140.805	-0.110	0.144
-442.822	-193.713	0.112	0.001
-441.807	-9.987	0.037	0.024
-440.792	800.000	-0.132	-0.541
-439.778	-200.000	0.028	0.207
-438.763	-67.592	0.356	-0.138
-437.749	315.338	-0.021	-0.039
-436.734	-186.601	-0.113	-0.002
-435.719	800.000	-0.051	0.203
-434.705	13.255	-0.030	-0.023
-433.690	-200.000	0.002	-0.313
-432.676	204.959	0.187	0.287
-431.661	280.985	0.160	0.284
-430.646	-103.590	-0.380	-0.088
-429.632	-200.000	-0.005	0.073
-428.617	-27.780	0.393	0.225
-427.603	31.926	0.208	-0.177
-426.588	-200.000	0.037	0.330
-425.573	98.974	0.199	-0.228
-424.559	-149.156	-0.327	0.026
-423.544	20.122	0.082	0.065
-422.530	800.000	-0.064	0.247
-421.515	-99.446	0.094	-0.024
-420.500	17.064	-0.131	-0.102
-419.486	-110.672	-0.287	0.059
-418.471	-123.493	0.139	-0.022
-417.457	-200.000	-0.007	0.215
-416.442	254.626	0.050	-0.084
-415.428	800.000	-0.116	-0.329
-414.413	-200.000	-0.028	-0.436
-413.398	-200.000	-0.029	-0.192
-412.384	800.000	-0.096	-0.287
-411.369	107.085	0.069	-0.081
-410.355	128.215	0.113	0.142
-409.340	-14.701	0.051	0.032
-408.325	-47.562	-0.040	0.019
-407.311	503.874	0.148	0.338
-406.296	-47.566	-0.151	-0.072
-405.282	363.831	0.096	0.190
-404.267	-60.884	0.283	-0.119
-403.252	382.818	-0.082	0.167
-402.238	-200.000	-0.007	0.168
-401.223	6.136	-0.141	-0.103
-400.209	-40.266	0.248	-0.127
-399.194	-37.034	0.069	0.037
-398.179	-121.089	0.158	0.026
-397.165	124.854	-0.062	0.077
-396.150	-72.119	0.419	0.154
-395.136	22.436	-0.079	0.064
-394.121	-200.000	0.015	-0.175
-393.106	-91.500	0.371	-0.105
-392.092	377.433	-0.164	-0.331
-391.077	-123.462	-0.193	-0.030
-390.063	158.453	0.141	0.194
-389.048	-200.000	0.017	0.302
-388.033	800.000	0.090	0.259
-387.019	8.249	-0.090	-0.067
-386.004	-25.388	-0.226	0.132
-384.990	-66.813	-0.277	0.108
-383.975	-15.388	-0.068	-0.043
-382.960	93.703	-0.127	0.142
-381.946	800.000	0.084	0.265
-380.931	213.287	-0.057	-0.090
-379.917	-48.344	-0.164	0.078
-378.902	771.344	-0.052	0.141
-377.888	27.532	-0.315	0.262
-376.873	75.717	-0.253	-0.264
-375.858	800.000	-0.012	-0.048
-374.844	-200.000	-0.015	0.131
-373.829	30.952	-0.224	-0.190
-372.815	-67.141	0.183	-0.071
-371.800	-93.836	-0.369	0.100
-370.785	-53.035	-0.168	-0.076
-369.771	-97.497	-0.036	-0.009
-368.756	368.043	-0.049	0.098
-367.742	122.095	0.146	-0.180
-366.727	-200.000	0.019	0.171
-365.712	56.961	0.203	0.196
-364.698	8.893	-0.262	-0.195
-363.683	154.471	-0.098	0.132
-362.669	34.308	0.117	0.100
-361.654	-200.000	0.021	0.218
-360.639	-172.426	0.126	0.004
-359.625	-200.000	-0.048	0.219
-358.610	182.613	0.095	-0.138
-357.596	-200.000	-0.049	0.470
-356.581	436.617	0.091	-0.195
-355.566	457.098	0.024	0.054
-354.552	-49.765	0.041	0.019
-353.537	-200.000	0.003	0.410
-352.523	52.334	-0.066	0.062
-351.508	800.000	0.023	-0.074
-350.493	473.924	-0.072	-0.160
-349.479	800.000	0.087	0.249
-348.464	-173.343	0.175	-0.005
-347.450	456.352	-0.154	0.337
-346.435	14.376	-0.188	-0.145
-345.420	-79.257	-0.332	-0.111
-344.406	-67.043	0.140	0.055
-343.391	323.701	-0.114	0.214
-342.377	-169.996	0.045	0.002
-341.362	278.076	0.101	0.178
-340.348	-200.000	0.028	-0.261
-339.333	-16.350	0.148	0.093
-338.318	-142.163	0.123	-0.012
-337.304	83.706	0.073	0.079
-336.289	197.876	-0.173	0.261
-335.275	-31.368	0.067	0.037
-334.260	-98.337	0.209	0.053
-333.245	-200.000	0.003	-0.234
-332.231	35.387	-0.132	0.114
-331.216	66.707	-0.106	-0.106
-330.202	3.564	-0.264	-0.190
-329.187	180.424	-0.230	-0.332
-328.172	421.446	-0.115	-0.244
-327.158	-12.213	0.250	-0.161
-326.143	142.134	-0.142	0.186
-325.129	-47.129	0.334	0.161
-324.114	124.774	0.221	-0.274
-323.099	136.699	-0.056	-0.072
-322.085	800.000	-0.027	-0.075
-321.070	800.000	-0.067	0.224
-320.056	-200.000	0.007	0.267
-319.041	-149.009	0.122	0.010
-318.026	-200.000	0.014	-0.241
-317.012	800.000	-0.059	0.225
-315.997	800.000	-0.131	0.402
-314.983	67.914	-0.114	0.115
-313.968	-127.978	-0.238	0.034
-312.953	3.000	0.105	-0.075
-311.939	-115.827	-0.276	0.051
-310.924	87.603	0.110	0.120
-309.910	-200.000	-0.033	0.246
-308.895	400.808	0.050	0.103
-307.880	3.721	-0.117	0.084
-306.866	-55.016	0.183	-0.081
-305.851	-200.000	0.052	0.239
-304.837	-200.000	-0.008	-0.213
-303.822	4.706	-0.247	0.178
-302.807	800.000	-0.034	-0.139
-301.793	-200.000	-0.015	-0.084
-300.778	-188.672	0.424	-0.005
-299.764	56.849	-0.176	-0.169
-298.749	225.441	-0.091	0.146
-297.735	-105.122	0.490	-0.110
-296.720	81.516	0.136	-0.145
-295.705	-56.021	-0.276	-0.121
-294.691	-35.558	-0.160	0.086
-293.676	-70.997	0.103	0.038
-292.662	728.467	0.147	-0.386
-291.647	-105.824	0.175	-0.039
-290.632	-49.472	-0.084	-0.040
-289.618	-175.988	-0.152	0.004
-288.603	-128.007	-0.279	-0.039
-287.589	-200.000	-0.038	-0.244
-286.574	479.654	0.084	0.187
-285.559	-18.728	0.301	0.185
-284.545	15.359	0.159	0.123
-283.530	64.437	0.257	-0.254
-282.516	-200.000	-0.042	-0.185
-281.501	85.208	-0.128	-0.138
-280.486	376.868	0.133	-0.267
-279.472	-200.000	0.027	0.332
-278.457	327.124	-0.096	0.180
-277.443	25.471	0.066	0.054
-276.428	-16.940	0.251	0.156
-275.413	578.608	-0.065	0.156
-274.399	-131.067	0.631	-0.083
-273.384	-107.490	0.091	0.020
-272.370	-90.940	-0.151	0.043
-271.355	-200.000	-0.030	-0.143
-270.340	596.415	0.023	-0.056
-269.326	304.149	0.111	-0.202
-268.311	-21.681	0.152	-0.091
-267.297	795.119	-0.141	-0.382
-266.282	-200.000	0.226	-0.001
-265.267	305.549	0.048	-0.088
-264.253	-80.188	0.232	0.077
-263.238	-102.577	-0.168	-0.040
-262.224	-17.813	0.132	0.081
-261.209	-152.146	0.353	0.025
-260.195	108.435	-0.279	-0.327
-259.180	-200.000	-0.036	0.213
-258.165	800.000	0.047	-0.193
-257.151	343.460	-0.182	-0.351
-256.136	-200.000	0.007	-0.063
-255.122	119.097	0.167	0.202
-254.107	230.373	0.139	-0.223
-253.092	217.586	0.051	-0.080
-252.078	510.178	0.075	-0.171
-251.063	-120.429	0.270	0.045
-250.049	-22.527	-0.070	-0.042
-249.034	-36.083	0.076	0.040
-248.019	-139.849	0.497	0.052
-247.005	127.213	0.127	0.158
-245.990	-45.952	0.248	-0.120
-244.976	354.614	-0.216	0.422
-243.961	800.000	0.020	-0.063
-242.946	-200.000	0.040	0.203
-241.932	-113.486	0.136	-0.026
-240.917	410.947	-0.145	0.302
-239.903	425.542	-0.040	0.084
-238.888	-98.880	0.137	-0.034
-237.873	44.284	0.065	-0.059
-236.859	81.301	0.293	-0.311
-235.844	-68.216	0.298	0.114
-234.830	244.107	-0.246	-0.405
-233.815	800.000	-0.057	0.238
-232.800	111.137	-0.333	0.394
-231.786	336.719	-0.209	-0.399
-230.771	-200.000	0.051	-0.278
-229.757	-169.177	-0.328	0.012
-228.742	800.000	0.041	-0.128
-227.727	100.088	-0.204	0.233
-226.713	168.764	0.051	-0.072
-225.698	313.892	-0.130	0.240
-224.684	-61.174	0.248	0.103
-223.669	-200.000	-0.030	0.222
-222.655	495.457	0.054	0.122
-221.640	-2.499	-0.177	0.122
-220.625	800.000	-0.093	0.313
-219.611	527.412	-0.089	0.205
-218.596	-49.945	-0.098	0.046
-217.582	-113.013	0.352	-0.068
-216.567	125.336	-0.300	-0.372
-215.552	800.000	0.084	0.280
-214.538	84.239	0.185	0.199
-213.523	-139.388	-0.054	0.006
-212.509	238.128	-0.128	0.208
-211.494	-137.856	-0.300	-0.033
-210.479	-101.350	0.320	-0.077
-209.465	-200.000	-0.015	-0.288
-208.450	94.552	0.381	-0.425
-207.436	-13.456	-0.263	0.167
-206.421	-23.063	-0.140	0.083
-205.406	117.165	0.059	0.071
-204.392	45.396	0.184	0.166
-203.377	257.086	-0.132	-0.223
-202.363	63.010	-0.152	0.149
-201.348	192.288	-0.105	0.156
-200.333	-200.000	0.076	-0.327
-199.319	-200.000	0.014	0.092
-198.304	54.794	0.250	0.237
-197.290	179.644	-0.181	0.259
-196.275	800.000	0.081	-0.229
-195.260	-69.912	0.300	-0.112
-194.246	-93.580	0.241	-0.065
-193.231	19.610	0.025	-0.020
-192.217	-89.760	0.168	-0.048
-191.202	-48.782	0.217	-0.102
-190.187	-200.000	0.026	0.370
-189.173	6.235	0.087	-0.063
-188.158	-31.403	0.135	-0.075
-187.144	-200.000	-0.002	0.314
-186.129	574.177	0.078	-0.186
-185.114	800.000	-0.031	-0.096
-184.100	-200.000	0.051	0.318
-183.085	-9.216	-0.037	-0.024
-182.071	15.210	0.050	0.038
-181.056	-200.000	0.008	-0.231
-180.042	75.465	0.073	0.076
-179.027	-200.000	0.036	0.334
-178.012	-200.000	0.013	-0.209
-176.998	-200.000	0.013	-0.066
-175.983	58.739	0.029	-0.028
-174.969	800.000	0.030	-0.125
-173.954	-99.329	0.120	0.030
-172.939	561.399	0.057	-0.136
-171.925	387.118	0.068	0.138
-170.910	39.513	0.302	0.265
-169.896	-116.019	-0.221	-0.040
-168.881	363.720	-0.109	0.214
-167.866	173.468	-0.214	-0.302
-166.852	355.849	-0.196	0.382
-165.837	407.159	0.060	-0.124
-164.823	-142.822	-0.320	0.030
-163.808	-55.513	-0.280	-0.123
-162.793	-37.779	0.031	0.016
-161.779	497.286	0.085	-0.193
-160.764	-200.000	0.005	0.070
-159.750	-56.027	-0.210	0.092
-158.735	-81.331	0.114	-0.037
-157.720	0.966	0.027	-0.019
-156.706	-122.688	-0.348	0.055
-155.691	34.737	0.186	-0.160
-154.677	-12.613	-0.158	-0.101
-153.662	-72.572	0.225	0.081
-152.647	-94.012	-0.455	0.122
-151.633	-72.909	-0.079	-0.028
-150.618	167.188	0.105	0.146
-149.604	57.266	-0.161	-0.154
-148.589	185.397	0.067	0.098
-147.574	-200.000	-0.053	0.346
-146.560	102.109	0.248	-0.284
-145.545	21.886	0.312	0.249
-144.531	128.441	-0.204	0.254
-143.516	641.137	0.160	0.398
-142.502	373.765	0.208	0.413
-141.487	564.307	-0.081	-0.192
-140.472	-158.356	0.139	0.008
-139.458	121.198	-0.048	0.059
-138.443	-35.426	-0.094	0.050
-137.429	800.000	-0.004	0.012
-136.414	-53.843	-0.138	0.061
-135.399	800.000	0.004	0.011
-134.385	-87.044	0.106	0.032
-133.370	-68.665	0.031	-0.012
-132.356	135.033	-0.074	0.094
-131.341	-17.656	0.279	0.171
-130.326	-200.000	-0.019	-0.186
-129.312	-93.204	-0.560	0.152
-128.297	565.092	-0.054	0.128
-127.283	800.000	-0.066	0.217
-126.268	497.747	-0.163	0.366
-125.253	-108.657	-0.151	-0.032
-124.239	686.735	-0.096	0.246
-123.224	800.000	-0.112	0.334
-122.210	-85.626	-0.041	-0.012
-121.195	-82.041	0.123	0.039
-120.180	-7.974	0.055	-0.036
