DTS Sentinel unit serial number:	SN413079Multiplexer serial number:	ORYXHardware model number:	OX4-SRSoftware version number:	ORYX F/W v4.00 Oryx Data Collector v3.7.2.0data status	okinstallation	princeton_trtdifferential loss correction	single-endedforward channel	channel 1reverse channel	N/Adate	2019/09/14time	12:14:35forward acquisition time	60.00reverse acquisition time	0.00gamma	496.2192k internal	0.2296k external	0.2296temperature offset calibration	1.0087default loss term (dB/km)	0.3790temperature slope calibration	1.0000multiplexer offset coefficient	1.0000multiplexer slope coefficient	1.0000fibre end	0.00T internal ref (°C)	37.62T ext. ref 1 (°C)	4.72T ext. ref 2 (°C)	33.73length (m)	temperature (°C)	Stokes	anti-Stokes-747.200	-75.469	-0.111	-0.040
-746.185	165.089	0.047	-0.068
-745.171	222.354	0.132	-0.217
-744.156	733.281	0.016	0.043
-743.142	744.432	0.069	-0.190
-742.127	-200.000	0.030	0.488
-741.112	-133.652	-0.135	-0.017
-740.098	198.059	-0.134	0.209
-739.083	-32.022	-0.250	0.143
-738.069	-200.000	-0.028	-0.162
-737.054	244.292	0.097	0.167
-736.039	-49.184	-0.358	-0.175
-735.025	44.428	0.185	0.173
-734.010	-200.000	-0.029	-0.250
-732.996	347.929	-0.082	-0.165
-731.981	-104.709	-0.101	0.024
-730.966	-47.760	0.258	0.128
-729.952	-60.669	0.296	-0.128
-728.937	-200.000	-0.013	-0.164
-727.923	-102.327	-0.468	-0.115
-726.908	-90.375	-0.179	0.053
-725.894	800.000	0.053	-0.163
-724.879	80.148	-0.098	-0.107
-723.864	-76.969	0.113	-0.040
-722.850	-143.336	-0.215	0.021
-721.835	312.161	0.061	-0.117
-720.821	800.000	-0.182	-0.537
-719.806	265.654	-0.030	-0.053
-718.791	-82.234	0.143	0.047
-717.777	-111.572	0.168	0.035
-716.762	12.967	-0.141	-0.112
-715.748	-5.808	-0.076	0.053
-714.733	800.000	0.132	0.446
-713.718	-17.431	-0.274	-0.176
-712.704	-6.196	0.237	0.165
-711.689	229.562	0.115	-0.191
-710.675	111.754	0.331	-0.407
-709.660	-194.424	-0.486	-0.004
-708.645	69.187	-0.154	0.162
-707.631	119.256	-0.188	-0.238
-706.616	334.283	-0.170	0.336
-705.602	-200.000	-0.025	0.356
-704.587	93.040	0.108	-0.125
-703.572	-85.178	0.043	0.014
-702.558	243.582	-0.040	-0.069
-701.543	-135.277	-0.132	-0.016
-700.529	800.000	0.022	-0.078
-699.514	-128.304	-0.216	-0.031
-698.499	162.981	0.151	-0.217
-697.485	-200.000	0.001	-0.178
-696.470	-128.418	-0.345	-0.050
-695.456	32.739	0.222	0.196
-694.441	-57.493	-0.196	0.088
-693.426	181.229	-0.132	-0.198
-692.412	-200.000	0.052	-0.346
-691.397	94.714	0.046	-0.054
-690.383	-150.370	0.070	-0.006
-689.368	81.995	-0.080	0.088
-688.354	462.732	0.146	-0.333
-687.339	305.862	-0.112	-0.212
-686.324	-200.000	0.005	0.078
-685.310	72.626	0.301	0.320
-684.295	-40.633	-0.256	-0.135
-683.281	-27.807	-0.315	-0.186
-682.266	800.000	0.100	0.310
-681.251	-134.378	-0.367	0.046
-680.237	557.819	0.072	0.176
-679.222	-131.105	0.056	-0.008
-678.208	-27.590	-0.293	0.173
-677.193	-127.525	0.052	-0.008
-676.178	79.476	-0.069	0.075
-675.164	-26.695	-0.206	0.123
-674.149	-200.000	-0.076	0.378
-673.135	-21.484	0.283	-0.176
-672.120	2.138	0.214	0.158
-671.105	-8.436	-0.231	-0.158
-670.091	-46.164	0.227	-0.114
-669.076	800.000	0.075	-0.318
-668.062	-113.040	-0.089	-0.018
-667.047	-74.491	0.357	-0.131
-666.032	-63.877	0.176	0.073
-665.018	-147.316	-0.228	-0.020
-664.003	-51.870	-0.229	0.108
-662.989	800.000	0.060	0.224
-661.974	128.818	0.203	0.264
-660.959	-76.915	-0.235	-0.084
-659.945	384.001	0.109	0.229
-658.930	-135.762	0.300	0.036
-657.916	-120.735	-0.124	0.021
-656.901	-99.311	-0.161	-0.041
-655.886	-151.558	0.097	-0.007
-654.872	604.881	-0.050	-0.127
-653.857	413.572	-0.037	-0.080
-652.843	-200.000	0.004	0.055
-651.828	-9.180	-0.274	-0.186
-650.814	5.393	0.191	0.143
-649.799	194.605	0.129	0.199
-648.784	-74.735	-0.254	0.093
-647.770	30.008	-0.089	-0.077
-646.755	342.935	-0.036	0.071
-645.741	800.000	-0.125	-0.511
-644.726	49.793	-0.397	-0.381
-643.711	137.408	-0.070	-0.093
-642.697	-200.000	0.032	-0.184
-641.682	-86.546	-0.419	-0.131
-640.668	-73.186	-0.176	0.066
-639.653	341.554	0.032	0.064
-638.638	-82.280	-0.103	0.034
-637.624	-73.142	0.081	-0.030
-636.609	-86.531	0.222	-0.069
-635.595	151.849	-0.066	0.092
-634.580	-111.184	0.179	0.037
-633.565	-41.711	-0.255	0.133
-632.551	800.000	0.089	0.390
-631.536	800.000	-0.081	0.323
-630.522	75.970	0.087	-0.094
-629.507	122.298	-0.164	-0.208
-628.492	-131.039	0.344	0.047
-627.478	-7.694	0.194	-0.134
-626.463	107.791	-0.050	-0.061
-625.449	-136.838	-0.163	-0.019
-624.434	800.000	-0.026	-0.088
-623.419	253.191	0.045	0.077
-622.405	73.129	0.347	0.369
-621.390	125.590	0.131	0.168
-620.376	-200.000	-0.040	0.391
-619.361	-200.000	-0.013	0.187
-618.346	-95.448	-0.326	-0.089
-617.332	-131.742	-0.139	-0.019
-616.317	410.361	0.153	0.329
-615.303	452.833	-0.059	0.132
-614.288	-167.011	0.246	-0.010
-613.273	-46.874	-0.127	-0.063
-612.259	-173.489	0.440	-0.013
-611.244	-200.000	0.011	-0.283
-610.230	358.524	0.071	-0.144
-609.215	-81.496	0.368	-0.123
-608.201	-200.000	-0.026	0.132
-607.186	536.799	0.166	-0.401
-606.171	43.066	0.174	-0.162
-605.157	-169.493	-0.277	-0.010
-604.142	-47.060	-0.158	0.078
-603.128	800.000	-0.021	0.061
-602.113	-77.954	-0.097	-0.034
-601.098	-200.000	-0.017	-0.275
-600.084	638.925	-0.041	0.105
-599.069	-12.465	-0.132	-0.088
-598.055	110.808	-0.125	-0.153
-597.040	-200.000	-0.027	-0.263
-596.025	127.000	-0.251	0.323
-595.011	146.904	-0.099	0.135
-593.996	-74.434	0.202	-0.074
-592.982	325.586	-0.142	0.276
-591.967	-30.742	-0.231	0.133
-590.952	-200.000	0.003	0.022
-589.938	800.000	0.042	-0.174
-588.923	193.398	-0.206	0.317
-587.909	-16.522	-0.295	-0.190
-586.894	-154.507	-0.486	-0.033
-585.879	-89.820	-0.136	-0.040
-584.865	-169.379	0.314	0.012
-583.850	-200.000	0.011	0.122
-582.836	329.530	0.131	0.256
-581.821	-17.214	0.211	-0.135
-580.806	268.053	-0.071	-0.126
-579.792	800.000	0.065	-0.240
-578.777	-20.661	0.131	0.082
-577.763	104.455	0.134	-0.160
-576.748	-76.338	0.421	-0.150
-575.733	-89.809	0.275	-0.082
-574.719	-200.000	0.038	0.367
-573.704	-48.034	-0.076	0.037
-572.690	-200.000	-0.278	0.000
-571.675	588.445	0.158	0.396
-570.661	800.000	0.055	0.169
-569.646	98.242	-0.037	-0.043
-568.631	46.483	-0.150	-0.142
-567.617	-67.804	-0.249	0.099
-566.602	-22.833	-0.161	-0.099
-565.588	-200.000	0.081	0.376
-564.573	79.072	-0.151	0.164
-563.558	588.972	-0.024	-0.059
-562.544	106.859	0.210	-0.253
-561.529	800.000	-0.026	0.115
-560.515	800.000	-0.035	-0.107
-559.500	-128.021	-0.218	0.032
-558.485	-32.039	0.220	0.125
-557.471	-200.000	-0.017	-0.185
-556.456	-200.000	0.009	-0.106
-555.442	304.329	-0.064	-0.121
-554.427	120.153	-0.170	-0.214
-553.412	298.082	0.110	-0.205
-552.398	-16.338	-0.353	-0.227
-551.383	-78.260	0.116	-0.041
-550.369	-66.925	-0.126	0.051
-549.354	-126.168	0.156	0.024
-548.339	-130.047	0.072	0.010
-547.325	-89.398	0.178	0.053
-546.310	17.268	-0.097	-0.078
-545.296	68.635	0.332	0.345
-544.281	-121.141	0.212	0.036
-543.266	-78.450	-0.083	-0.029
-542.252	158.438	0.231	-0.325
-541.237	-82.823	-0.304	0.100
-540.223	66.791	-0.304	0.313
-539.208	-200.000	-0.005	0.029
-538.193	-200.000	0.039	0.354
-537.179	-114.374	-0.393	0.077
-536.164	-166.058	-0.281	0.012
-535.150	-200.000	0.064	0.305
-534.135	-81.038	0.151	0.051
-533.121	-200.000	0.017	0.135
-532.106	-128.123	-0.149	-0.022
-531.091	-200.000	-0.066	-0.350
-530.077	-119.104	-0.155	-0.028
-529.062	-37.937	0.117	-0.063
-528.048	-200.000	-0.004	-0.103
-527.033	-14.681	-0.068	-0.044
-526.018	-121.732	-0.087	-0.015
-525.004	800.000	0.124	0.377
-523.989	689.444	0.075	-0.199
-522.975	-103.398	-0.179	-0.043
-521.960	266.570	-0.077	0.136
-520.945	-118.279	-0.484	-0.087
-519.931	112.243	0.082	0.100
-518.916	18.085	0.202	-0.163
-517.902	-109.026	-0.311	0.067
-516.887	-71.381	-0.196	-0.074
-515.872	223.454	0.161	0.263
-514.858	-37.801	0.098	-0.053
-513.843	-200.000	-0.022	-0.320
-512.829	191.556	0.211	0.321
-511.814	-200.000	0.054	0.243
-510.799	-167.465	-0.281	-0.011
-509.785	800.000	0.037	-0.117
-508.770	-13.593	0.245	0.160
-507.756	-90.124	0.130	-0.038
-506.741	-200.000	0.025	-0.197
-505.726	143.827	0.066	-0.089
-504.712	-200.000	-0.034	0.326
-503.697	-108.720	0.505	0.110
-502.683	285.163	0.039	0.071
-501.668	-69.232	0.248	-0.097
-500.653	-107.410	-0.422	-0.094
-499.639	-16.110	-0.191	0.123
-498.624	-29.862	0.156	-0.090
-497.610	-34.106	0.161	-0.089
-496.595	-200.000	-0.025	0.117
-495.581	126.231	-0.098	0.126
-494.566	371.742	0.130	-0.268
-493.551	-179.451	-0.095	-0.002
-492.537	-200.000	-0.015	0.110
-491.522	-135.750	0.104	-0.013
-490.508	-140.587	-0.102	0.011
-489.493	-200.000	-0.053	0.269
-488.478	-200.000	-0.010	-0.326
-487.464	-3.831	-0.229	-0.161
-486.449	-55.865	0.172	-0.077
-485.435	278.633	-0.202	0.364
-484.420	-105.695	0.383	0.088
-483.405	-124.143	0.222	0.035
-482.391	-200.000	-0.033	-0.207
-481.376	-200.000	0.019	0.138
-480.362	126.744	0.154	0.198
-479.347	6.883	0.160	-0.121
-478.332	-81.181	0.152	0.051
-477.318	6.525	0.481	0.362
-476.303	674.642	-0.026	0.067
-475.289	-200.000	-0.044	0.246
-474.274	695.131	0.091	0.243
-473.259	22.015	-0.075	-0.062
-472.245	-200.000	-0.092	0.470
-471.230	800.000	0.053	-0.187
-470.216	800.000	-0.067	0.201
-469.201	488.329	-0.160	-0.370
-468.186	792.748	-0.052	-0.145
-467.172	200.053	0.112	-0.174
-466.157	183.149	0.103	-0.154
-465.143	180.750	-0.123	-0.182
-464.128	-67.797	0.270	0.107
-463.113	-57.796	0.057	-0.025
-462.099	-37.826	-0.165	-0.089
-461.084	114.564	-0.103	0.127
-460.070	800.000	-0.057	-0.186
-459.055	68.731	-0.061	0.063
-458.040	-200.000	0.020	0.193
-457.026	-50.783	-0.193	0.092
-456.011	-82.270	0.122	-0.040
-454.997	-118.339	0.341	-0.061
-453.982	-167.513	0.091	-0.004
-452.968	363.480	0.045	-0.091
-451.953	-63.228	-0.086	-0.036
-450.938	-50.841	-0.279	-0.132
-449.924	-96.302	0.200	0.053
-448.909	-200.000	0.021	0.102
-447.895	-200.000	0.025	-0.342
-446.880	-200.000	-0.006	0.029
-445.865	397.623	-0.238	-0.504
-444.851	17.304	0.107	-0.086
-443.836	128.251	-0.055	0.070
-442.822	183.617	0.177	0.265
-441.807	-159.692	0.312	0.017
-440.792	57.212	0.175	-0.172
-439.778	-91.993	-0.426	0.122
-438.763	523.289	0.090	-0.214
-437.749	800.000	-0.153	-0.537
-436.734	800.000	0.020	0.080
-435.719	329.886	0.109	0.212
-434.705	207.266	0.135	0.212
-433.690	2.198	0.106	-0.077
-432.676	-200.000	-0.001	-0.011
-431.661	-121.332	0.060	0.010
-430.646	598.768	0.038	-0.095
-429.632	-20.487	0.117	0.072
-428.617	-200.000	0.012	0.182
-427.603	-116.190	-0.228	0.043
-426.588	300.158	0.147	0.273
-425.573	97.847	0.121	0.140
-424.559	122.827	0.067	0.084
-423.544	-66.694	0.147	-0.059
-422.530	-200.000	-0.005	0.084
-421.515	800.000	0.094	-0.277
-420.500	-169.676	0.220	-0.008
-419.486	-46.513	0.326	0.162
-418.471	75.559	0.137	0.146
-417.457	800.000	-0.027	0.088
-416.442	-52.775	-0.172	-0.080
-415.428	800.000	-0.073	0.203
-414.413	-73.996	-0.125	-0.046
-413.398	324.349	-0.015	0.029
-412.384	-200.000	-0.006	0.498
-411.369	-23.280	-0.131	0.080
-410.355	145.228	-0.228	0.308
-409.340	176.970	-0.135	-0.198
-408.325	800.000	0.041	0.164
-407.311	163.938	0.135	0.192
-406.296	-104.325	-0.200	-0.047
-405.282	423.990	-0.093	-0.203
-404.267	-200.000	-0.008	-0.137
-403.252	126.213	0.069	0.088
-402.238	118.341	-0.099	-0.123
-401.223	519.651	-0.039	0.093
-400.209	-200.000	0.052	-0.423
-399.194	-179.429	-0.162	0.004
-398.179	-91.330	0.307	0.089
-397.165	-200.000	-0.003	0.133
-396.150	541.002	0.044	-0.105
-395.136	-200.000	0.024	0.296
-394.121	54.440	-0.181	-0.176
-393.106	-200.000	-0.012	0.192
-392.092	-122.186	-0.302	0.050
-391.077	22.025	0.131	-0.107
-390.063	-93.535	0.115	0.032
-389.048	675.351	-0.136	0.357
-388.033	315.822	0.118	0.225
-387.019	-200.000	0.002	-0.180
-386.004	53.184	0.129	-0.124
-384.990	-15.159	-0.118	-0.076
-383.975	-14.008	-0.305	0.198
-382.960	-115.870	0.104	-0.020
-381.946	-121.277	-0.442	-0.074
-380.931	-89.473	0.366	-0.109
-379.917	-200.000	-0.006	-0.251
-378.902	800.000	-0.060	-0.226
-377.888	-25.571	-0.073	0.043
-376.873	-200.000	-0.001	0.090
-375.858	98.811	-0.114	0.133
-374.844	-200.000	-0.045	0.305
-373.829	83.794	0.254	-0.280
-372.815	569.906	-0.088	-0.217
-371.800	-114.190	0.086	0.017
-370.785	800.000	0.078	0.218
-369.771	18.361	-0.301	0.242
-368.756	-60.343	-0.236	0.101
-367.742	-2.958	0.345	-0.243
-366.727	701.276	0.066	0.175
-365.712	-200.000	-0.013	-0.281
-364.698	-141.446	0.330	0.034
-363.683	800.000	-0.104	-0.291
-362.669	40.180	-0.180	0.163
-361.654	592.087	0.075	0.186
-360.639	-3.603	-0.170	0.119
-359.625	-200.000	-0.010	-0.079
-358.610	-61.823	0.104	-0.044
-357.596	38.838	-0.255	-0.229
-356.581	14.519	-0.031	-0.024
-355.566	233.480	-0.092	-0.152
-354.552	-65.633	0.312	0.126
-353.537	265.172	-0.128	0.224
-352.523	30.488	-0.121	0.104
-351.508	-200.000	-0.023	0.232
-350.493	-39.098	-0.098	0.052
-349.479	-200.000	0.018	0.126
-348.464	76.277	-0.172	-0.183
-347.450	348.049	-0.127	0.251
-346.435	71.875	0.236	-0.247
-345.420	-198.064	0.193	0.001
-344.406	182.785	0.138	-0.205
-343.391	786.287	0.063	0.174
-342.377	-35.159	0.137	-0.075
-341.362	800.000	0.093	0.325
-340.348	-64.564	0.149	0.061
-339.333	-174.416	0.271	0.008
-338.318	25.428	-0.215	-0.180
-337.304	120.342	-0.158	-0.197
-336.289	-200.000	0.015	0.292
-335.275	-59.698	0.314	-0.135
-334.260	158.540	-0.127	0.178
-333.245	-61.123	0.163	-0.069
-332.231	-41.203	0.199	0.103
-331.216	129.232	-0.149	0.192
-330.202	800.000	0.107	-0.338
-329.187	-15.840	-0.161	-0.103
-328.172	-200.000	0.042	0.525
-327.158	70.583	-0.131	0.136
-326.143	-200.000	0.032	-0.155
-325.129	-200.000	0.005	0.148
-324.114	17.082	-0.224	0.179
-323.099	-99.815	-0.109	-0.028
-322.085	87.795	0.288	-0.321
-321.070	800.000	-0.134	-0.494
-320.056	-145.231	-0.334	-0.030
-319.041	-174.356	-0.395	-0.011
-318.026	14.120	0.185	0.145
-317.012	517.198	-0.042	-0.099
-315.997	-200.000	-0.005	-0.080
-314.983	487.341	0.069	-0.157
-313.968	-200.000	0.022	0.181
-312.953	-200.000	0.020	0.141
-311.939	97.480	0.076	0.088
-310.924	-200.000	0.020	-0.153
-309.910	-67.094	-0.067	-0.027
-308.895	493.164	-0.093	-0.214
-307.880	-147.592	0.172	0.015
-306.866	800.000	-0.017	0.050
-305.851	-111.126	-0.356	-0.073
-304.837	16.583	0.174	0.138
-303.822	360.765	0.161	0.324
-302.807	170.938	-0.079	0.113
-301.793	-168.595	-0.252	-0.010
-300.778	-37.988	-0.237	0.127
-299.764	-98.966	-0.314	0.080
-298.749	-200.000	-0.002	-0.128
-297.735	-11.566	-0.124	-0.082
-296.720	-49.918	0.357	-0.170
-295.705	800.000	0.079	-0.243
-294.691	12.088	-0.041	-0.031
-293.676	800.000	0.048	-0.176
-292.662	-96.102	0.295	-0.079
-291.647	800.000	-0.021	0.062
-290.632	-200.000	0.061	0.283
-289.618	-80.626	0.208	0.069
-288.603	-97.405	0.308	0.080
-287.589	-63.863	-0.067	0.028
-286.574	-200.000	0.008	-0.262
-285.559	764.290	-0.079	-0.214
-284.545	74.862	-0.087	0.092
-283.530	35.643	-0.194	0.171
-282.516	-107.832	0.340	-0.074
-281.501	59.479	0.309	-0.306
-280.486	800.000	0.031	0.127
-279.472	753.580	-0.170	-0.461
-278.457	-149.978	-0.264	-0.021
-277.443	-200.000	-0.033	0.247
-276.428	193.894	-0.080	0.122
-275.413	-107.357	-0.070	-0.015
-274.399	-10.291	0.276	0.183
-273.384	-151.020	-0.100	-0.008
-272.370	53.312	-0.138	0.132
-271.355	51.892	-0.066	-0.063
-270.340	-126.504	0.087	0.013
-269.326	-42.944	-0.191	0.097
-268.311	800.000	-0.056	-0.164
-267.297	-135.944	-0.372	0.044
-266.282	-200.000	0.044	0.359
-265.267	-82.637	0.163	-0.053
-264.253	597.490	0.031	0.077
-263.238	-114.259	-0.253	0.049
-262.224	800.000	0.030	-0.091
-261.209	-36.452	0.227	-0.123
-260.195	82.746	-0.188	-0.205
-259.180	202.367	-0.072	-0.111
-258.165	197.407	0.066	0.100
-257.151	152.595	-0.252	0.346
-256.136	-62.258	-0.242	-0.101
-255.122	138.109	-0.173	-0.228
-254.107	-126.714	-0.230	0.034
-253.092	-111.777	-0.032	0.007
-252.078	-90.570	0.190	0.055
-251.063	-6.261	-0.101	0.069
-250.049	-200.000	0.026	-0.131
-249.034	544.666	0.122	-0.292
-248.019	-200.000	0.024	-0.236
-247.005	212.465	-0.015	0.024
-245.990	-200.000	0.006	0.500
-244.976	688.599	-0.075	-0.196
-243.961	-200.000	-0.003	-0.155
-242.946	150.541	0.098	-0.133
-241.932	341.666	0.160	0.313
-240.917	-43.509	0.157	-0.079
-239.903	85.698	-0.184	-0.203
-238.888	230.117	0.077	0.126
-237.873	112.173	0.193	-0.234
-236.859	-106.327	-0.445	0.100
-235.844	-100.964	0.325	-0.080
-234.830	-119.583	-0.363	-0.063
-233.815	-197.092	0.167	-0.001
-232.800	-200.000	-0.166	-0.001
-231.786	-200.000	0.036	0.160
-230.771	-25.539	-0.009	-0.006
-229.757	443.573	-0.171	-0.376
-228.742	-147.815	-0.270	0.023
-227.727	-128.478	-0.095	0.013
-226.713	597.962	-0.059	0.147
-225.698	15.519	0.184	-0.145
-224.684	-200.000	-0.013	0.163
-223.669	-200.000	0.002	-0.038
-222.655	479.149	-0.075	-0.169
-221.640	-70.577	0.101	0.038
-220.625	-200.000	0.004	0.133
-219.611	-200.000	0.027	-0.164
-218.596	22.045	0.228	-0.186
-217.582	-188.613	0.177	0.002
-216.567	204.400	-0.019	-0.029
-215.552	-200.000	0.067	0.305
-214.538	800.000	-0.068	0.256
-213.523	-200.000	-0.005	-0.067
-212.509	-200.000	0.021	0.203
-211.494	182.028	0.107	-0.157
-210.479	-143.668	0.397	-0.038
-209.465	-104.337	-0.139	0.032
-208.450	252.415	0.171	0.292
-207.436	-81.072	0.274	0.091
-206.421	99.441	0.030	-0.035
-205.406	800.000	-0.096	-0.323
-204.392	320.947	-0.157	-0.299
-203.377	-200.000	0.039	-0.363
-202.363	267.582	0.182	-0.318
-201.348	-200.000	0.012	0.170
-200.333	800.000	-0.047	-0.205
-199.319	0.771	0.321	0.230
-198.304	-200.000	-0.018	0.264
-197.290	573.288	0.093	-0.228
-196.275	-37.128	-0.253	-0.136
-195.260	-200.000	0.050	-0.247
-194.246	-200.000	-0.032	-0.238
-193.231	800.000	0.026	0.092
-192.217	12.538	0.213	0.164
-191.202	86.470	0.154	0.170
-190.187	-4.845	0.186	0.128
-189.173	284.465	0.089	-0.160
-188.158	-200.000	-0.010	-0.133
-187.144	-99.540	0.150	0.038
-186.129	-7.955	0.200	0.135
-185.114	-200.000	-0.055	0.248
-184.100	800.000	-0.071	-0.201
-183.085	-200.000	0.030	-0.424
-182.071	51.031	-0.342	-0.324
-181.056	77.767	-0.146	-0.155
-180.042	-148.303	0.161	0.013
-179.027	-0.366	-0.224	0.159
-178.012	-116.908	0.264	-0.048
-176.998	-4.799	-0.287	-0.198
-175.983	-22.366	0.156	-0.094
-174.969	-53.133	-0.049	-0.022
-173.954	13.728	-0.058	0.045
-172.939	566.833	0.060	0.145
-171.925	639.167	0.155	-0.394
-170.910	-138.395	0.174	0.019
-169.896	-200.000	0.015	0.077
-168.881	-200.000	0.031	0.231
-167.866	42.556	-0.120	-0.109
-166.852	-80.991	0.140	-0.046
-165.837	124.282	-0.079	-0.099
-164.823	800.000	0.040	0.176
-163.808	-200.000	0.062	-0.338
-162.793	359.507	-0.112	-0.225
-161.779	-200.000	-0.033	-0.159
-160.764	800.000	0.109	0.430
-159.750	-99.824	0.114	0.029
-158.735	-28.083	-0.320	0.185
-157.720	241.123	-0.192	-0.320
-156.706	-166.143	-0.232	-0.010
-155.691	-200.000	-0.023	0.226
-154.677	34.315	0.195	-0.170
-153.662	28.824	0.042	0.036
-152.647	-200.000	0.008	0.075
-151.633	-82.686	0.420	-0.136
-150.618	305.020	0.038	0.071
-149.604	121.583	0.114	0.141
-148.589	322.874	-0.096	0.183
-147.574	102.471	-0.152	0.177
-146.560	461.399	-0.039	-0.087
-145.545	800.000	0.027	-0.077
-144.531	134.388	0.229	-0.297
-143.516	-200.000	0.012	0.053
-142.502	-82.945	-0.045	0.014
-141.487	-58.984	0.296	0.128
-140.472	-200.000	0.087	0.467
-139.458	319.957	0.158	-0.299
-138.443	-99.052	-0.110	-0.028
-137.429	800.000	0.075	0.283
-136.414	-99.776	0.164	0.041
-135.399	-99.991	0.301	0.075
-134.385	767.191	0.072	-0.196
-133.370	-111.851	0.158	-0.032
-132.356	-122.829	0.213	0.034
-131.341	-113.922	0.147	0.029
-130.326	-200.000	0.028	-0.250
-129.312	0.735	0.126	-0.090
-128.297	-0.854	-0.147	-0.104
-127.283	-58.776	0.086	0.037
-126.268	800.000	-0.076	0.285
-125.253	-155.267	-0.090	0.006
-124.239	-121.542	-0.488	0.081
-123.224	-115.059	0.179	-0.034
