DTS Sentinel unit serial number:	SN413079Multiplexer serial number:	ORYXHardware model number:	OX4-SRSoftware version number:	ORYX F/W v4.00 Oryx Data Collector v3.7.2.0data status	okinstallation	princeton_trtdifferential loss correction	single-endedforward channel	channel 1reverse channel	N/Adate	2019/09/14time	12:42:35forward acquisition time	60.00reverse acquisition time	0.00gamma	496.2192k internal	0.2294k external	0.2294temperature offset calibration	1.0090default loss term (dB/km)	0.3790temperature slope calibration	1.0000multiplexer offset coefficient	1.0000multiplexer slope coefficient	1.0000fibre end	0.00T internal ref (°C)	38.00T ext. ref 1 (°C)	4.79T ext. ref 2 (°C)	32.85length (m)	temperature (°C)	Stokes	anti-Stokes-747.200	48.340	-0.056	0.054
-746.185	800.000	-0.073	0.258
-745.171	472.567	0.095	0.218
-744.156	439.328	0.184	0.412
-743.142	-20.855	0.244	-0.153
-742.127	541.764	0.203	0.496
-741.112	88.741	0.125	0.143
-740.098	-200.000	-0.074	0.458
-739.083	-38.895	-0.218	-0.117
-738.069	21.967	-0.107	-0.089
-737.054	-17.625	-0.335	0.215
-736.039	-48.223	-0.280	0.138
-735.025	-200.000	0.250	0.001
-734.010	597.111	-0.063	-0.161
-732.996	-67.900	-0.174	0.070
-731.981	136.390	-0.145	0.194
-730.966	-44.054	-0.375	0.193
-729.952	-120.343	-0.179	0.031
-728.937	-90.873	-0.136	0.040
-727.923	-115.677	0.314	-0.060
-726.908	-5.852	0.121	-0.084
-725.894	110.307	-0.189	0.232
-724.879	-69.722	-0.175	0.068
-723.864	-72.971	-0.207	-0.078
-722.850	-75.111	0.494	-0.181
-721.835	800.000	-0.028	-0.099
-720.821	-188.856	-0.193	-0.002
-719.806	25.331	-0.011	0.009
-718.791	-200.000	0.007	0.050
-717.777	159.270	0.119	-0.169
-716.762	22.365	0.166	0.138
-715.748	-54.878	-0.154	0.071
-714.733	25.186	-0.123	-0.104
-713.718	-8.511	-0.107	-0.074
-712.704	471.376	-0.150	-0.344
-711.689	78.453	0.082	0.089
-710.675	-200.000	0.030	-0.137
-709.660	77.322	0.228	0.248
-708.645	800.000	-0.106	0.316
-707.631	411.093	-0.123	0.266
-706.616	27.730	-0.033	-0.028
-705.602	-200.000	0.009	0.126
-704.587	118.698	0.061	0.077
-703.572	-200.000	0.027	0.273
-702.558	800.000	-0.106	-0.300
-701.543	70.629	0.177	-0.187
-700.529	-108.478	0.127	-0.028
-699.514	87.543	0.198	0.223
-698.499	800.000	0.113	0.345
-697.485	143.301	0.049	-0.066
-696.470	103.075	0.135	-0.161
-695.456	-118.254	-0.107	0.019
-694.441	-200.000	0.027	-0.180
-693.426	-17.488	-0.084	-0.054
-692.412	-200.000	0.009	0.094
-691.397	644.381	0.107	-0.280
-690.383	-200.000	0.008	-0.106
-689.368	225.994	0.168	0.278
-688.354	-20.719	0.133	0.083
-687.339	-56.153	-0.174	0.079
-686.324	800.000	0.115	-0.358
-685.310	11.027	-0.159	-0.124
-684.295	-47.702	0.314	-0.155
-683.281	575.466	0.083	-0.208
-682.266	-13.986	-0.269	-0.177
-681.251	-77.872	-0.183	-0.065
-680.237	-200.000	-0.011	-0.297
-679.222	-200.000	-0.020	-0.205
-678.208	210.729	-0.055	-0.089
-677.193	-150.295	-0.260	0.021
-676.178	53.866	0.046	0.045
-675.164	563.380	0.063	0.155
-674.149	-200.000	-0.015	-0.362
-673.135	106.954	-0.177	-0.215
-672.120	-49.330	0.181	0.088
-671.105	-98.265	0.266	-0.070
-670.091	-15.973	0.116	0.075
-669.076	-116.007	0.106	-0.020
-668.062	509.533	-0.105	-0.250
-667.047	-200.000	-0.020	-0.107
-666.032	713.722	0.032	-0.086
-665.018	-200.000	-0.076	0.349
-664.003	49.125	-0.225	-0.216
-662.989	800.000	-0.054	0.240
-661.974	-200.000	0.023	-0.175
-660.959	380.483	-0.157	-0.328
-659.945	61.075	0.308	0.312
-658.930	52.084	-0.269	0.262
-657.916	-200.000	0.080	0.530
-656.901	-34.645	-0.185	0.103
-655.886	-200.000	-0.006	0.068
-654.872	130.489	0.084	0.109
-653.857	800.000	-0.042	0.134
-652.843	-200.000	0.064	-0.578
-651.828	800.000	-0.087	-0.313
-650.814	90.021	0.082	0.093
-649.799	-77.768	-0.172	0.061
-648.784	75.808	0.209	0.225
-647.770	-200.000	-0.004	0.275
-646.755	-33.023	-0.096	-0.055
-645.741	-101.571	-0.143	-0.036
-644.726	239.345	-0.075	-0.127
-643.711	-44.942	0.052	-0.026
-642.697	-107.781	0.177	-0.039
-641.682	800.000	-0.068	-0.192
-640.668	73.222	-0.091	0.097
-639.653	781.897	-0.077	-0.215
-638.638	-163.081	0.063	-0.003
-637.624	71.759	0.225	0.238
-636.609	-71.456	-0.144	0.055
-635.595	-134.765	0.459	-0.057
-634.580	-200.000	0.006	0.247
-633.565	800.000	0.050	0.186
-632.551	-114.649	-0.177	-0.034
-631.536	800.000	-0.105	0.321
-630.522	210.932	-0.234	-0.375
-629.507	-57.778	-0.348	-0.155
-628.492	168.582	0.061	-0.088
-627.478	-87.344	-0.264	0.082
-626.463	-78.193	-0.089	-0.031
-625.449	-57.263	-0.027	-0.012
-624.434	224.195	-0.054	0.088
-623.419	-9.669	0.125	-0.085
-622.405	800.000	-0.049	-0.198
-621.390	-200.000	-0.076	-0.345
-620.376	86.090	0.301	-0.338
-619.361	-200.000	-0.044	0.305
-618.346	-146.309	-0.327	0.029
-617.332	30.481	-0.150	-0.131
-616.317	489.619	-0.081	0.189
-615.303	-91.419	-0.151	-0.044
-614.288	-200.000	-0.040	0.435
-613.273	-55.433	0.261	0.119
-612.259	800.000	0.038	0.119
-611.244	-119.588	0.257	-0.045
-610.230	12.760	-0.027	-0.021
-609.215	400.779	-0.140	0.299
-608.201	347.072	-0.031	-0.062
-607.186	-77.876	-0.180	0.063
-606.171	800.000	0.097	-0.380
-605.157	-137.332	0.198	0.023
-604.142	-22.439	0.161	-0.099
-603.128	53.584	0.283	-0.276
-602.113	63.419	-0.212	0.217
-601.098	-200.000	0.006	-0.373
-600.084	592.572	0.082	0.206
-599.069	-66.353	0.132	-0.053
-598.055	17.296	-0.223	0.180
-597.040	182.853	0.116	-0.174
-596.025	216.469	-0.139	0.224
-595.011	29.045	-0.156	0.134
-593.996	249.343	0.133	0.229
-592.982	-26.547	-0.408	-0.243
-591.967	-124.201	-0.233	-0.037
-590.952	118.030	0.178	-0.222
-589.938	-62.171	0.171	0.072
-588.923	14.240	-0.159	0.126
-587.909	-114.261	-0.273	0.053
-586.894	800.000	-0.098	0.404
-585.879	-60.819	-0.241	-0.104
-584.865	183.725	0.098	-0.147
-583.850	-153.854	0.199	0.014
-582.836	115.232	-0.091	-0.113
-581.821	232.686	0.090	0.150
-580.806	204.414	0.147	0.231
-579.792	136.821	0.161	0.214
-578.777	-80.324	0.454	-0.154
-577.763	320.738	0.108	0.209
-576.748	360.884	-0.085	-0.174
-575.733	800.000	-0.084	0.312
-574.719	127.642	-0.145	-0.187
-573.704	-200.000	-0.000	0.083
-572.690	11.818	-0.113	-0.088
-571.675	800.000	-0.075	0.324
-570.661	-134.817	-0.255	0.031
-569.646	-9.384	-0.230	0.156
-568.631	188.689	-0.007	0.011
-567.617	-119.745	-0.281	0.049
-566.602	-78.957	0.067	0.023
-565.588	-3.390	-0.148	-0.104
-564.573	244.872	-0.064	-0.110
-563.558	-0.157	-0.043	-0.031
-562.544	-76.011	-0.138	0.050
-561.529	41.960	-0.215	-0.198
-560.515	-4.261	0.102	-0.072
-559.500	-200.000	-0.013	-0.097
-558.485	233.030	0.041	-0.069
-557.471	-200.000	-0.023	0.179
-556.456	-99.611	0.163	-0.041
-555.442	-51.920	0.530	-0.250
-554.427	217.955	0.115	0.186
-553.412	800.000	0.053	-0.226
-552.398	800.000	-0.037	0.121
-551.383	-200.000	0.062	-0.540
-550.369	-29.384	0.185	-0.107
-549.354	-123.962	0.218	0.035
-548.339	245.789	0.094	0.160
-547.325	310.171	0.138	0.262
-546.310	-61.206	-0.071	0.030
-545.296	23.302	0.110	-0.092
-544.281	45.933	-0.056	0.053
-543.266	-0.637	0.195	-0.141
-542.252	-46.538	-0.167	0.083
-541.237	-168.769	-0.221	0.008
-540.223	14.280	-0.253	-0.200
-539.208	40.692	-0.188	-0.172
-538.193	17.689	-0.160	-0.129
-537.179	227.695	0.100	-0.165
-536.164	31.834	-0.303	0.265
-535.150	113.108	0.105	0.130
-534.135	-83.983	0.375	-0.121
-533.121	-200.000	-0.025	-0.296
-532.106	-1.597	0.245	0.175
-531.091	36.575	0.085	0.076
-530.077	-33.131	-0.321	-0.180
-529.062	-72.554	0.187	-0.070
-528.048	383.975	0.108	-0.225
-527.033	9.467	0.162	0.124
-526.018	218.091	-0.111	-0.180
-525.004	800.000	-0.007	0.022
-523.989	-200.000	0.049	-0.257
-522.975	463.593	0.071	0.160
-521.960	-187.854	0.313	0.004
-520.945	45.605	0.123	0.116
-519.931	129.139	-0.128	0.165
-518.916	123.374	-0.297	-0.377
-517.902	-200.000	0.007	0.030
-516.887	-33.401	0.180	-0.101
-515.872	-75.004	-0.065	0.023
-514.858	-19.820	-0.125	-0.078
-513.843	12.234	-0.040	0.031
-512.829	782.907	-0.061	-0.170
-511.814	-40.503	-0.082	0.043
-510.799	216.618	0.004	0.007
-509.785	-116.924	-0.071	-0.013
-508.770	-200.000	-0.022	-0.238
-507.756	-121.595	0.238	0.040
-506.741	711.950	0.076	-0.204
-505.726	-174.342	0.187	0.005
-504.712	-124.148	-0.137	0.022
-503.697	-200.000	0.004	0.079
-502.683	-200.000	0.001	0.111
-501.668	212.283	-0.167	-0.267
-500.653	208.275	-0.139	0.220
-499.639	-200.000	0.075	0.497
-498.624	-99.665	0.364	-0.093
-497.610	-152.104	0.190	-0.014
-496.595	-39.196	-0.207	-0.110
-495.581	320.434	-0.095	-0.182
-494.566	-104.337	0.225	0.053
-493.551	105.931	0.112	-0.135
-492.537	-78.288	-0.206	-0.072
-491.522	-5.314	0.150	0.105
-490.508	34.154	-0.348	0.308
-489.493	-32.990	-0.163	0.091
-488.478	418.333	-0.047	-0.101
-487.464	107.108	-0.213	0.256
-486.449	-31.072	0.269	-0.154
-485.435	15.932	-0.298	0.238
-484.420	-132.574	0.145	-0.019
-483.405	-200.000	-0.032	0.144
-482.391	-101.298	-0.249	-0.061
-481.376	8.369	0.328	-0.249
-480.362	-100.927	0.325	-0.081
-479.347	-12.928	-0.202	0.133
-478.332	-98.704	-0.313	0.081
-477.318	-74.381	0.255	0.093
-476.303	-200.000	-0.001	0.095
-475.289	-98.558	0.329	-0.085
-474.274	167.965	-0.184	-0.265
-473.259	800.000	-0.038	-0.125
-472.245	-55.375	-0.256	0.116
-471.230	34.247	0.224	0.198
-470.216	-69.181	-0.103	0.040
-469.201	138.432	-0.071	0.094
-468.186	-87.506	0.116	-0.036
-467.172	-80.423	-0.097	-0.033
-466.157	-200.000	0.029	0.168
-465.143	61.961	-0.203	-0.205
-464.128	193.847	0.091	0.139
-463.113	800.000	-0.061	0.229
-462.099	-187.071	-0.117	-0.002
-461.084	-102.894	-0.216	-0.052
-460.070	50.224	0.039	-0.037
-459.055	3.600	-0.409	0.302
-458.040	800.000	0.056	0.177
-457.026	-200.000	-0.004	0.048
-456.011	800.000	0.096	-0.326
-454.997	162.160	-0.025	-0.035
-453.982	-37.096	0.207	0.112
-452.968	800.000	0.044	-0.141
-451.953	226.445	-0.165	-0.270
-450.938	-80.749	0.141	0.047
-449.924	-58.988	-0.209	-0.091
-448.909	27.201	0.153	0.130
-447.895	-160.895	-0.243	0.013
-446.880	91.953	-0.127	0.145
-445.865	-67.200	-0.050	0.020
-444.851	-200.000	-0.047	-0.362
-443.836	63.017	0.188	0.190
-442.822	-200.000	0.000	-0.006
-441.807	-57.202	-0.250	0.111
-440.792	-200.000	0.049	-0.282
-439.778	126.164	0.031	-0.039
-438.763	17.666	0.172	0.138
-437.749	-131.559	0.237	-0.031
-436.734	754.597	-0.145	-0.396
-435.719	239.488	-0.099	0.166
-434.705	800.000	0.023	-0.091
-433.690	-38.492	-0.184	0.098
-432.676	-200.000	0.034	0.342
-431.661	800.000	-0.062	-0.197
-430.646	3.732	0.165	-0.121
-429.632	-14.216	-0.281	0.183
-428.617	-122.785	-0.250	0.041
-427.603	-68.690	0.258	-0.101
-426.588	-24.981	-0.317	-0.190
-425.573	146.265	0.235	0.319
-424.559	147.813	0.073	0.099
-423.544	100.132	0.092	0.108
-422.530	46.420	0.279	0.262
-421.515	800.000	-0.015	-0.058
-420.500	22.587	-0.058	0.048
-419.486	-67.788	0.230	-0.091
-418.471	-130.307	-0.126	0.017
-417.457	464.729	-0.046	0.103
-416.442	684.142	0.111	-0.292
-415.428	31.242	0.045	-0.039
-414.413	20.520	0.136	-0.111
-413.398	142.646	-0.243	-0.326
-412.384	145.734	-0.086	0.116
-411.369	35.098	-0.113	0.100
-410.355	391.208	0.087	-0.182
-409.340	-200.000	0.043	0.211
-408.325	-128.034	0.447	-0.065
-407.311	486.622	0.018	-0.041
-406.296	253.689	0.118	-0.203
-405.282	-200.000	-0.005	0.199
-404.267	47.686	0.122	-0.115
-403.252	25.348	0.037	-0.031
-402.238	-200.000	0.000	-0.105
-401.223	-43.631	0.086	0.044
-400.209	149.614	-0.149	-0.204
-399.194	-126.243	-0.209	-0.031
-398.179	219.526	0.077	-0.125
-397.165	-160.765	-0.461	0.025
-396.150	17.591	0.131	-0.105
-395.136	245.475	-0.089	0.151
-394.121	121.862	-0.104	-0.131
-393.106	203.600	-0.233	-0.364
-392.092	67.587	-0.128	0.131
-391.077	-200.000	-0.034	-0.172
-390.063	-200.000	-0.017	0.251
-389.048	-91.402	-0.207	0.060
-388.033	274.117	-0.189	0.337
-387.019	800.000	0.091	-0.262
-386.004	-200.000	-0.011	0.196
-384.990	-81.248	0.293	0.097
-383.975	219.773	-0.183	0.296
-382.960	-96.282	0.130	-0.035
-381.946	-56.236	0.208	0.093
-380.931	-92.281	0.242	-0.069
-379.917	621.641	0.071	0.179
-378.902	-8.340	0.092	-0.062
-377.888	-120.552	-0.065	0.011
-376.873	800.000	-0.096	0.388
-375.858	-200.000	0.038	0.177
-374.844	800.000	-0.124	0.381
-373.829	-127.378	0.474	0.070
-372.815	-34.481	0.222	0.123
-371.800	518.481	-0.038	-0.089
-370.785	-28.600	0.084	0.049
-369.771	-1.878	-0.448	-0.318
-368.756	-140.551	0.145	0.015
-367.742	28.551	-0.216	-0.184
-366.727	-134.007	0.313	0.039
-365.712	-51.283	-0.122	-0.058
-364.698	-101.321	-0.065	0.016
-363.683	159.204	0.022	0.031
-362.669	-148.681	0.080	-0.007
-361.654	597.984	-0.140	0.351
-360.639	29.431	0.119	0.102
-359.625	625.424	-0.044	0.111
-358.610	205.814	0.110	0.173
-357.596	-142.408	-0.159	-0.016
-356.581	675.057	0.077	-0.202
-355.566	-82.351	0.158	0.052
-354.552	49.780	0.307	-0.292
-353.537	800.000	0.035	-0.128
-352.523	-200.000	-0.005	0.157
-351.508	800.000	0.054	-0.174
-350.493	-92.803	-0.339	-0.095
-349.479	-200.000	-0.046	-0.252
-348.464	-122.828	-0.242	0.039
-347.450	521.285	-0.051	0.121
-346.435	-29.265	0.103	-0.059
-345.420	800.000	0.030	0.107
-344.406	-17.394	0.221	-0.140
-343.391	-20.157	0.208	-0.129
-342.377	52.941	-0.037	-0.036
-341.362	-70.395	0.229	-0.087
-340.348	20.740	-0.187	-0.152
-339.333	800.000	-0.047	0.200
-338.318	-200.000	0.006	0.076
-337.304	-178.276	0.112	0.003
-336.289	-147.833	-0.244	0.021
-335.275	-200.000	0.021	-0.117
-334.260	-200.000	-0.024	-0.186
-333.245	56.948	0.254	-0.249
-332.231	-30.579	-0.076	0.043
-331.216	312.317	0.156	0.294
-330.202	-175.798	-0.149	0.004
-329.187	423.143	0.088	-0.190
-328.172	800.000	-0.090	-0.276
-327.158	11.034	-0.169	-0.130
-326.143	106.020	-0.281	0.335
-325.129	-110.213	-0.070	-0.015
-324.114	800.000	-0.144	-0.406
-323.099	43.562	0.119	-0.109
-322.085	282.261	0.039	0.070
-321.070	-28.319	-0.218	0.127
-320.056	-30.293	-0.094	-0.053
-319.041	-144.354	0.421	0.039
-318.026	103.309	0.052	0.061
-317.012	-62.439	0.311	0.130
-315.997	-29.384	0.323	-0.186
-314.983	-79.789	-0.074	0.025
-313.968	330.377	-0.094	0.183
-312.953	-2.815	-0.209	0.147
-311.939	-153.779	-0.022	0.001
-310.924	-200.000	-0.041	0.241
-309.910	130.310	0.139	-0.180
-308.895	87.194	-0.036	-0.040
-307.880	180.078	0.092	-0.136
-306.866	-45.728	-0.189	-0.094
-305.851	-43.995	0.117	0.059
-304.837	-200.000	-0.016	0.107
-303.822	-200.000	-0.043	-0.249
-302.807	800.000	0.034	-0.101
-301.793	-200.000	-0.004	0.134
-300.778	206.661	0.077	-0.120
-299.764	404.629	-0.134	-0.285
-298.749	-12.956	0.240	0.157
-297.735	12.518	-0.036	-0.028
-296.720	-68.522	0.301	-0.117
-295.705	-19.390	0.170	-0.106
-294.691	59.814	-0.242	0.240
-293.676	76.883	-0.256	-0.273
-292.662	-30.328	-0.267	0.152
-291.647	-48.560	-0.164	0.079
-290.632	-68.041	-0.286	0.112
-289.618	-2.282	0.258	0.182
-288.603	-71.534	0.232	0.087
-287.589	-127.353	-0.173	-0.025
-286.574	-108.056	-0.132	-0.029
-285.559	23.135	0.175	-0.144
-284.545	12.772	-0.313	-0.243
-283.530	151.075	0.121	-0.166
-282.516	97.271	-0.113	0.130
-281.501	-28.851	0.130	-0.075
-280.486	800.000	0.063	-0.269
-279.472	-77.124	-0.281	-0.098
-278.457	-112.916	-0.298	0.059
-277.443	-132.670	-0.336	0.043
-276.428	-59.282	0.445	0.192
-275.413	-200.000	-0.019	0.322
-274.399	-24.532	-0.074	0.044
-273.384	-155.158	-0.247	-0.016
-272.370	185.878	-0.176	0.262
-271.355	-26.516	-0.140	0.083
-270.340	-7.570	0.158	0.108
-269.326	-72.527	0.284	-0.105
-268.311	-200.000	0.008	0.254
-267.297	-100.087	0.111	-0.028
-266.282	4.295	-0.029	0.021
-265.267	-200.000	0.016	-0.217
-264.253	-31.495	0.089	0.050
-263.238	-169.638	0.233	0.008
-262.224	66.920	-0.264	-0.270
-261.209	-77.751	0.368	0.128
-260.195	56.741	-0.083	-0.081
-259.180	-59.350	0.086	-0.037
-258.165	-57.729	0.170	0.075
-257.151	-147.144	0.347	0.030
-256.136	-200.000	-0.034	-0.270
-255.122	-17.836	-0.119	-0.075
-254.107	32.529	0.183	0.159
-253.092	346.286	0.025	-0.050
-252.078	-130.753	0.095	-0.013
-251.063	800.000	0.090	0.267
-250.049	-200.000	0.033	-0.190
-249.034	70.172	-0.170	0.176
-248.019	800.000	-0.076	0.320
-247.005	-200.000	0.012	-0.061
-245.990	396.399	0.137	-0.287
-244.976	-44.994	0.077	0.038
-243.961	-200.000	0.010	0.133
-242.946	-177.318	-0.216	-0.005
-241.932	192.791	-0.235	-0.356
-240.917	20.527	0.246	-0.199
-239.903	-200.000	-0.003	-0.091
-238.888	-200.000	0.027	-0.132
-237.873	-59.966	-0.258	0.110
-236.859	-42.830	0.081	0.041
-235.844	-43.650	-0.342	-0.173
-234.830	724.588	0.093	0.249
-233.815	-133.257	-0.074	-0.009
-232.800	800.000	-0.044	-0.172
-231.786	68.685	0.250	-0.257
-230.771	-19.859	0.067	-0.042
-229.757	-120.455	-0.046	-0.008
-228.742	111.013	0.132	-0.159
-227.727	182.260	0.155	-0.229
-226.713	800.000	0.065	0.195
-225.698	377.884	-0.064	0.131
-224.684	378.031	0.113	0.231
-223.669	83.165	0.098	0.107
-222.655	-200.000	0.000	-0.132
-221.640	800.000	0.046	0.152
-220.625	-61.934	0.275	-0.115
-219.611	2.683	0.217	0.157
-218.596	-20.043	-0.335	0.207
-217.582	639.765	-0.091	0.232
-216.567	-74.299	-0.271	0.098
-215.552	-200.000	-0.018	0.095
-214.538	-63.859	0.121	-0.050
-213.523	-154.370	-0.344	0.023
-212.509	369.164	-0.047	-0.096
-211.494	-143.568	-0.139	-0.013
-210.479	800.000	-0.013	0.057
-209.465	222.305	0.127	0.205
-208.450	-12.313	0.309	0.202
-207.436	800.000	-0.049	0.166
-206.421	-153.665	0.258	-0.018
-205.406	-43.702	-0.253	0.128
-204.392	-200.000	0.043	0.267
-203.377	176.104	0.165	0.239
-202.363	-200.000	0.269	0.000
-201.348	231.702	-0.030	-0.049
-200.333	159.121	0.137	-0.191
-199.319	469.887	-0.133	0.299
-198.304	94.623	0.105	0.119
-197.290	-200.000	-0.105	-0.582
-196.275	-87.231	0.213	0.065
-195.260	800.000	-0.063	0.184
-194.246	103.256	0.186	0.218
-193.231	-124.831	-0.180	-0.028
-192.217	-200.000	0.040	-0.178
-191.202	-60.088	0.318	-0.136
-190.187	-127.112	-0.071	-0.010
-189.173	416.488	-0.150	0.321
-188.158	-200.000	0.051	0.251
-187.144	-160.325	-0.196	-0.011
-186.129	-51.688	-0.054	0.025
-185.114	126.470	0.023	0.029
-184.100	-28.425	0.456	0.263
-183.085	-0.096	0.389	0.277
-182.071	-82.723	-0.196	0.063
-181.056	80.674	0.241	-0.260
-180.042	-27.067	-0.163	-0.095
-179.027	234.870	0.211	0.349
-178.012	-118.464	-0.102	-0.018
-176.998	68.863	0.190	0.196
-175.983	800.000	-0.008	-0.023
-174.969	-101.807	-0.053	-0.013
-173.954	212.199	-0.123	0.194
-172.939	123.533	-0.060	-0.075
-171.925	12.098	-0.142	0.110
-170.910	-55.200	0.205	0.092
-169.896	-136.889	-0.146	0.017
-168.881	16.366	-0.223	0.176
-167.866	171.207	0.034	-0.049
-166.852	115.913	0.246	-0.302
-165.837	55.124	-0.199	-0.192
-164.823	180.111	0.135	-0.197
-163.808	-142.618	-0.331	0.032
-162.793	-200.000	-0.039	-0.188
-161.779	-26.610	0.180	-0.106
-160.764	800.000	0.208	-0.600
-159.750	-50.127	-0.112	-0.053
-158.735	-161.356	0.143	0.007
-157.720	517.843	0.079	-0.185
-156.706	-200.000	-0.039	-0.443
-155.691	-124.509	0.059	-0.009
-154.677	-144.895	-0.226	0.021
-153.662	-200.000	0.023	-0.218
-152.647	800.000	-0.044	-0.124
-151.633	800.000	-0.078	0.231
-150.618	-200.000	-0.010	-0.235
-149.604	-200.000	0.051	0.285
-148.589	17.373	0.148	0.117
-147.574	137.854	-0.083	0.108
-146.560	-132.240	-0.132	-0.017
-145.545	-174.452	0.274	-0.008
-144.531	-176.198	-0.101	0.003
-143.516	54.995	0.227	0.219
-142.502	-200.000	-0.018	-0.101
-141.487	-126.454	-0.323	-0.048
-140.472	-80.584	0.252	0.084
-139.458	391.530	0.057	0.118
-138.443	-184.776	0.281	-0.004
-137.429	-200.000	-0.011	0.073
-136.414	505.860	-0.111	0.257
-135.399	234.886	0.114	0.187
-134.385	39.658	-0.058	0.052
-133.370	-65.097	0.170	0.069
-132.356	800.000	0.094	0.394
-131.341	7.624	-0.167	-0.125
-130.326	-60.115	0.212	-0.090
-129.312	800.000	0.057	-0.156
-128.297	-200.000	-0.025	0.219
-127.283	84.935	-0.238	0.260
-126.268	86.940	0.090	-0.099
-125.253	-146.341	-0.354	-0.031
-124.239	-2.537	0.327	0.228
-123.224	-200.000	0.028	0.232
-122.210	-197.083	0.205	0.001
-121.195	-34.101	-0.233	0.128
