DTS Sentinel unit serial number:	SN413079Multiplexer serial number:	ORYXHardware model number:	OX4-SRSoftware version number:	ORYX F/W v4.00 Oryx Data Collector v3.7.2.0data status	okinstallation	princeton_trtdifferential loss correction	single-endedforward channel	channel 1reverse channel	N/Adate	2019/09/14time	21:18:35forward acquisition time	60.00reverse acquisition time	0.00gamma	496.2192k internal	0.2318k external	0.2318temperature offset calibration	1.0014default loss term (dB/km)	0.3790temperature slope calibration	1.0000multiplexer offset coefficient	1.0000multiplexer slope coefficient	1.0000fibre end	0.00T internal ref (°C)	32.98T ext. ref 1 (°C)	4.79T ext. ref 2 (°C)	27.75length (m)	temperature (°C)	Stokes	anti-Stokes-747.200	-131.029	-0.120	0.016
-746.185	150.873	-0.020	0.027
-745.171	-200.000	0.027	-0.203
-744.156	-200.000	-0.014	0.234
-743.142	733.022	-0.085	0.230
-742.127	44.436	-0.244	0.227
-741.112	800.000	-0.077	-0.319
-740.098	800.000	0.050	0.189
-739.083	-32.858	-0.056	-0.032
-738.069	-28.056	-0.183	-0.107
-737.054	577.458	-0.062	-0.153
-736.039	-59.520	-0.432	-0.188
-735.025	-200.000	0.032	-0.191
-734.010	-155.806	0.285	-0.018
-732.996	32.240	-0.120	-0.104
-731.981	800.000	-0.047	0.131
-730.966	-200.000	0.000	0.151
-729.952	-41.889	-0.092	-0.048
-728.937	-129.549	0.273	-0.038
-727.923	481.253	-0.125	0.287
-726.908	14.449	0.078	0.062
-725.894	594.718	-0.090	0.224
-724.879	112.714	0.038	-0.047
-723.864	800.000	-0.048	-0.176
-722.850	357.939	-0.112	-0.226
-721.835	800.000	-0.013	-0.042
-720.821	545.299	-0.105	0.253
-719.806	32.865	-0.140	-0.123
-718.791	-200.000	-0.003	-0.132
-717.777	-200.000	-0.290	0.001
-716.762	35.997	-0.178	0.158
-715.748	-18.602	-0.073	0.046
-714.733	-109.337	0.244	0.052
-713.718	-15.225	0.147	-0.095
-712.704	-200.000	-0.014	-0.591
-711.689	-106.884	0.093	0.021
-710.675	220.530	0.092	0.148
-709.660	-158.214	-0.289	0.017
-708.645	7.368	-0.054	0.041
-707.631	56.271	0.246	0.241
-706.616	-200.000	-0.045	-0.318
-705.602	-76.522	-0.028	-0.010
-704.587	-141.341	-0.323	-0.033
-703.572	800.000	-0.080	-0.246
-702.558	401.444	0.153	-0.325
-701.543	258.826	0.163	-0.283
-700.529	298.469	-0.153	-0.284
-699.514	192.372	-0.124	-0.188
-698.499	800.000	0.009	-0.031
-697.485	83.710	-0.215	0.237
-696.470	41.429	0.466	-0.426
-695.456	613.152	-0.099	-0.250
-694.441	-172.418	0.373	0.012
-693.426	-200.000	0.034	0.266
-692.412	2.565	0.320	-0.234
-691.397	588.944	0.088	0.218
-690.383	-200.000	0.040	-0.201
-689.368	800.000	-0.042	-0.150
-688.354	126.228	-0.050	0.064
-687.339	-80.152	-0.450	-0.152
-686.324	800.000	-0.073	0.209
-685.310	89.600	0.131	0.148
-684.295	800.000	-0.091	-0.384
-683.281	-47.438	-0.156	-0.076
-682.266	65.020	-0.112	0.114
-681.251	118.688	-0.080	-0.100
-680.237	68.364	-0.244	0.253
-679.222	-41.034	-0.491	-0.256
-678.208	800.000	-0.083	0.235
-677.193	174.594	-0.158	-0.231
-676.178	-117.691	-0.069	0.013
-675.164	0.066	0.302	-0.217
-674.149	4.959	-0.179	0.133
-673.135	684.380	0.059	-0.156
-672.120	-102.762	-0.312	0.075
-671.105	-200.000	0.008	0.171
-670.091	-64.699	0.264	0.108
-669.076	42.982	0.162	-0.149
-668.062	57.306	0.088	-0.087
-667.047	-61.504	-0.321	-0.136
-666.032	190.520	0.036	-0.054
-665.018	800.000	-0.078	-0.228
-664.003	-43.395	0.145	-0.074
-662.989	-169.670	-0.515	0.019
-661.974	-28.577	0.161	-0.094
-660.959	-200.000	0.014	-0.235
-659.945	-200.000	0.021	0.181
-658.930	-37.580	0.057	0.031
-657.916	55.173	0.035	-0.034
-656.901	800.000	-0.045	-0.147
-655.886	800.000	-0.036	-0.143
-654.872	-129.085	-0.383	0.054
-653.857	123.486	-0.153	-0.194
-652.843	71.575	-0.334	-0.350
-651.828	285.167	0.170	0.309
-650.814	133.794	-0.136	-0.177
-649.799	-146.951	0.196	-0.017
-648.784	199.526	-0.208	-0.322
-647.770	-97.680	-0.266	-0.069
-646.755	-77.702	-0.128	-0.045
-645.741	246.034	0.132	-0.224
-644.726	-131.245	-0.260	0.035
-643.711	-200.000	0.019	0.232
-642.697	-63.694	0.114	-0.047
-641.682	-6.407	0.122	0.084
-640.668	-150.555	-0.067	-0.005
-639.653	-89.897	0.125	-0.037
-638.638	-146.450	-0.123	0.011
-637.624	-200.000	-0.013	0.185
-636.609	-200.000	-0.011	0.111
-635.595	265.155	0.058	0.102
-634.580	414.490	-0.190	0.408
-633.565	-59.131	0.108	-0.047
-632.551	62.773	0.148	0.149
-631.536	-51.300	-0.391	-0.185
-630.522	-99.360	-0.110	0.028
-629.507	-111.650	-0.256	-0.052
-628.492	-14.474	0.030	0.019
-627.478	119.349	0.048	0.059
-626.463	-32.447	-0.101	0.057
-625.449	351.132	-0.071	-0.141
-624.434	-70.258	0.145	0.055
-623.419	-124.534	-0.281	-0.044
-622.405	-85.611	-0.271	-0.085
-621.390	-18.506	-0.190	-0.119
-620.376	22.400	-0.312	-0.257
-619.361	-130.480	0.041	0.006
-618.346	795.220	-0.081	0.225
-617.332	-200.000	-0.021	-0.397
-616.317	36.218	0.271	-0.241
-615.303	-41.459	-0.092	0.048
-614.288	-126.500	-0.186	0.028
-613.273	202.004	0.194	-0.301
-612.259	-200.000	-0.003	0.067
-611.244	-48.501	-0.211	-0.102
-610.230	50.972	0.114	-0.109
-609.215	-64.654	0.106	0.043
-608.201	-107.915	-0.215	-0.047
-607.186	800.000	0.065	0.205
-606.171	-200.000	-0.002	0.278
-605.157	85.930	0.164	-0.182
-604.142	-110.481	-0.328	-0.069
-603.128	466.572	0.118	0.265
-602.113	-106.106	0.110	-0.025
-601.098	-107.172	-0.179	-0.040
-600.084	-6.685	0.283	0.194
-599.069	800.000	-0.102	-0.332
-598.055	800.000	-0.076	0.291
-597.040	800.000	0.057	0.244
-596.025	-81.667	-0.228	0.075
-595.011	115.368	-0.182	0.224
-593.996	-74.283	-0.065	0.024
-592.982	-200.000	-0.045	0.245
-591.967	800.000	0.093	0.270
-590.952	-82.850	-0.111	0.036
-589.938	42.186	-0.125	-0.115
-588.923	372.448	0.019	-0.040
-587.909	800.000	-0.034	0.115
-586.894	-133.648	0.099	0.012
-585.879	54.012	0.167	-0.161
-584.865	485.294	0.167	-0.383
-583.850	-200.000	0.020	0.097
-582.836	-55.269	0.084	-0.038
-581.821	800.000	0.127	0.367
-580.806	-200.000	-0.016	0.079
-579.792	692.581	-0.062	0.164
-578.777	70.902	-0.099	-0.103
-577.763	-9.657	-0.271	0.181
-576.748	-72.287	0.147	0.055
-575.733	-200.000	-0.070	-0.320
-574.719	226.199	0.129	-0.211
-573.704	18.157	0.102	-0.082
-572.690	-95.508	-0.167	-0.045
-571.675	351.420	0.047	0.093
-570.661	-121.484	0.085	0.014
-569.646	-40.597	0.090	-0.047
-568.631	800.000	-0.061	0.194
-567.617	-200.000	0.127	0.642
-566.602	-2.721	0.199	0.140
-565.588	287.449	0.115	0.208
-564.573	-46.403	0.309	-0.153
-563.558	-47.094	-0.299	0.146
-562.544	358.851	-0.109	-0.219
-561.529	4.855	-0.140	-0.103
-560.515	-200.000	0.008	0.088
-559.500	-200.000	-0.028	-0.163
-558.485	-55.329	0.214	0.097
-557.471	-15.210	-0.113	-0.072
-556.456	160.492	0.073	-0.102
-555.442	800.000	0.038	0.122
-554.427	-200.000	0.013	0.191
-553.412	800.000	-0.023	-0.094
-552.398	-119.684	-0.074	-0.013
-551.383	-0.695	-0.411	0.293
-550.369	225.411	-0.096	0.156
-549.354	-70.869	-0.139	0.053
-548.339	-200.000	-0.077	-0.415
-547.325	121.319	0.125	-0.157
-546.310	-200.000	0.027	0.344
-545.296	-200.000	-0.023	-0.190
-544.281	431.341	-0.101	-0.219
-543.266	425.957	0.080	0.172
-542.252	-200.000	0.001	-0.093
-541.237	-52.911	0.130	0.060
-540.223	250.871	0.042	0.072
-539.208	274.859	-0.146	0.259
-538.193	312.306	0.085	-0.161
-537.179	-50.328	0.198	0.094
-536.164	78.886	0.030	-0.032
-535.150	20.212	-0.140	-0.113
-534.135	-200.000	-0.027	-0.156
-533.121	11.018	0.099	0.076
-532.106	-200.000	0.019	0.132
-531.091	-57.994	-0.078	-0.034
-530.077	-142.364	-0.072	-0.007
-529.062	189.423	-0.106	-0.159
-528.048	-163.962	0.399	0.019
-527.033	-159.555	-0.282	0.016
-526.018	-108.448	0.173	0.037
-525.004	-101.012	0.223	0.055
-523.989	-164.372	-0.296	0.014
-522.975	60.948	-0.200	-0.199
-521.960	-200.000	0.083	0.458
-520.945	-48.675	0.272	0.131
-519.931	-200.000	0.081	0.434
-518.916	-21.568	0.079	0.048
-517.902	-1.320	-0.270	0.191
-516.887	162.070	0.079	0.111
-515.872	252.928	0.030	-0.052
-514.858	-100.066	-0.036	0.009
-513.843	43.373	-0.270	0.247
-512.829	800.000	0.035	0.138
-511.814	-45.117	0.118	0.059
-510.799	-200.000	-0.034	0.278
-509.785	-58.976	-0.094	0.041
-508.770	61.879	-0.164	-0.164
-507.756	375.075	0.054	0.111
-506.741	-200.000	0.029	-0.173
-505.726	-145.478	0.315	0.028
-504.712	26.643	0.257	0.216
-503.697	66.742	-0.165	-0.169
-502.683	45.986	-0.165	0.153
-501.668	-200.000	-0.020	-0.173
-500.653	-200.000	-0.198	-0.001
-499.639	239.829	-0.044	-0.074
-498.624	-95.174	-0.322	0.087
-497.610	-6.143	0.129	-0.089
-496.595	-200.000	-0.086	-0.465
-495.581	59.718	-0.357	-0.353
-494.566	800.000	-0.050	-0.179
-493.551	376.770	-0.116	0.236
-492.537	-200.000	0.011	-0.242
-491.522	-200.000	-0.027	-0.234
-490.508	-200.000	-0.024	0.116
-489.493	-191.543	-0.197	-0.002
-488.478	33.208	0.118	0.103
-487.464	64.563	0.045	-0.045
-486.449	-106.005	-0.180	0.041
-485.435	17.135	0.161	0.128
-484.420	668.144	-0.100	-0.259
-483.405	145.740	0.020	-0.027
-482.391	153.434	0.041	0.056
-481.376	-55.873	0.319	0.143
-480.362	-122.261	-0.193	-0.032
-479.347	-200.000	-0.190	0.000
-478.332	800.000	-0.058	0.179
-477.318	-200.000	0.008	-0.225
-476.303	-200.000	-0.021	-0.441
-475.289	-200.000	0.020	-0.178
-474.274	-48.989	-0.218	0.105
-473.259	-200.000	-0.038	0.300
-472.245	-200.000	-0.035	0.438
-471.230	800.000	-0.017	-0.064
-470.216	28.133	0.080	-0.067
-469.201	11.261	0.173	-0.132
-468.186	-76.917	0.232	0.081
-467.172	-164.490	-0.168	0.008
-466.157	47.281	-0.118	-0.110
-465.143	9.377	0.237	-0.179
-464.128	-51.859	0.215	0.100
-463.113	-175.383	0.246	-0.007
-462.099	600.694	0.063	-0.157
-461.084	48.731	0.065	0.061
-460.070	-170.631	-0.069	-0.002
-459.055	-58.172	-0.043	0.019
-458.040	-115.303	0.035	-0.007
-457.026	-144.766	0.223	-0.021
-456.011	346.544	0.067	-0.132
-454.997	64.717	-0.151	-0.152
-453.982	-118.869	0.273	-0.048
-452.968	800.000	-0.033	-0.095
-451.953	-129.981	0.170	0.023
-450.938	-163.821	0.008	0.000
-449.924	23.230	0.171	0.141
-448.909	-96.083	-0.274	-0.073
-447.895	720.706	0.126	-0.336
-446.880	31.317	0.187	0.161
-445.865	-200.000	0.007	0.036
-444.851	-114.103	0.269	-0.052
-443.836	242.780	-0.030	0.050
-442.822	640.696	0.076	0.194
-441.807	568.664	0.135	-0.328
-440.792	800.000	-0.094	-0.300
-439.778	800.000	-0.010	-0.027
-438.763	-19.789	0.050	-0.031
-437.749	-46.813	-0.317	-0.155
-436.734	14.402	-0.352	-0.274
-435.719	-27.664	-0.162	0.094
-434.705	52.484	0.133	0.127
-433.690	-138.004	-0.047	0.005
-432.676	-23.825	0.249	0.149
-431.661	-8.714	0.059	-0.040
-430.646	21.336	-0.107	0.087
-429.632	469.212	-0.080	-0.179
-428.617	800.000	-0.062	-0.189
-427.603	-47.699	0.044	-0.021
-426.588	-200.000	-0.004	0.083
-425.573	-185.089	0.313	0.005
-424.559	602.778	0.165	0.409
-423.544	-91.659	-0.114	-0.032
-422.530	-122.921	0.115	-0.018
-421.515	-200.000	-0.036	-0.398
-420.500	-200.000	-0.025	-0.111
-419.486	213.862	0.091	-0.144
-418.471	-44.754	0.110	0.055
-417.457	467.972	0.211	0.472
-416.442	139.528	0.095	0.125
-415.428	-21.641	-0.268	0.163
-414.413	61.328	0.057	0.056
-413.398	-200.000	-0.004	-0.297
-412.384	800.000	0.040	-0.125
-411.369	-65.308	0.267	-0.108
-410.355	72.767	-0.117	-0.122
-409.340	-26.318	0.160	-0.094
-408.325	-96.054	-0.337	0.089
-407.311	-32.234	0.224	-0.125
-406.296	-91.680	-0.108	0.031
-405.282	-34.512	0.033	-0.018
-404.267	48.705	-0.101	-0.095
-403.252	101.671	-0.077	0.089
-402.238	-59.078	0.188	-0.081
-401.223	-200.000	0.055	-0.320
-400.209	6.255	-0.108	-0.080
-399.194	800.000	0.027	0.089
-398.179	-133.783	0.041	-0.005
-397.165	-200.000	0.010	-0.103
-396.150	192.514	0.097	0.146
-395.136	214.832	-0.113	0.178
-394.121	-107.169	-0.203	0.045
-393.106	-132.386	-0.370	0.048
-392.092	45.536	-0.435	0.401
-391.077	22.453	-0.208	-0.170
-390.063	37.595	0.264	-0.234
-389.048	321.629	0.038	0.073
-388.033	-112.415	0.168	-0.033
-387.019	655.097	-0.055	0.141
-386.004	-200.000	-0.027	0.288
-384.990	118.637	0.013	-0.016
-383.975	-91.068	0.023	-0.007
-382.960	-149.333	-0.355	-0.028
-381.946	-45.031	-0.140	0.070
-380.931	75.885	0.194	-0.205
-379.917	317.532	-0.057	-0.107
-378.902	800.000	-0.039	-0.164
-377.888	-200.000	-0.024	0.210
-376.873	-200.000	0.071	-0.317
-375.858	-141.509	0.314	-0.032
-374.844	800.000	0.053	-0.183
-373.829	800.000	-0.048	-0.184
-372.815	-73.457	0.197	0.072
-371.800	-200.000	0.021	-0.201
-370.785	-86.534	0.309	-0.095
-369.771	86.640	-0.127	-0.139
-368.756	428.330	0.125	-0.269
-367.742	319.051	0.162	0.307
-366.727	366.864	0.047	-0.094
-365.712	800.000	-0.018	-0.050
-364.698	800.000	0.116	-0.324
-363.683	-200.000	-0.077	0.616
-362.669	6.353	-0.155	-0.115
-361.654	5.787	-0.305	0.225
-360.639	-47.357	0.221	0.107
-359.625	-200.000	0.010	-0.209
-358.610	-57.227	0.126	0.055
-357.596	-200.000	-0.014	-0.112
-356.581	-82.225	-0.115	-0.037
-355.566	-87.143	-0.241	0.073
-354.552	670.338	0.059	-0.153
-353.537	101.494	0.187	0.217
-352.523	-62.604	0.212	0.088
-351.508	-200.000	-0.020	-0.124
-350.493	335.398	0.123	0.237
-349.479	-148.470	-0.495	-0.040
-348.464	49.955	-0.351	-0.330
-347.450	800.000	-0.061	0.179
-346.435	-200.000	0.060	0.419
-345.420	164.474	-0.117	0.164
-344.406	-200.000	-0.026	0.250
-343.391	-84.290	-0.127	0.040
-342.377	-15.945	0.182	0.116
-341.362	-200.000	-0.009	0.264
-340.348	485.643	0.098	0.223
-339.333	-98.449	-0.059	0.015
-338.318	112.212	-0.070	-0.085
-337.304	-43.414	-0.132	-0.067
-336.289	-76.314	-0.489	-0.172
-335.275	-200.000	0.011	-0.330
-334.260	-36.782	0.107	0.057
-333.245	-90.625	-0.296	-0.085
-332.231	291.456	-0.062	-0.113
-331.216	16.635	0.036	-0.029
-330.202	-151.111	0.347	0.026
-329.187	800.000	-0.160	-0.459
-328.172	-154.703	0.078	0.005
-327.158	155.041	0.053	-0.073
-326.143	-22.699	-0.078	-0.047
-325.129	-44.810	-0.502	0.249
-324.114	-17.703	0.227	0.142
-323.099	-164.828	-0.360	-0.016
-322.085	23.290	-0.192	-0.157
-321.070	-60.781	0.187	-0.079
-320.056	-74.406	0.161	-0.058
-319.041	-169.715	0.364	-0.013
-318.026	-200.000	0.057	-0.306
-317.012	13.129	-0.053	0.041
-315.997	-139.199	0.281	0.030
-314.983	177.461	0.270	0.392
-313.968	-113.311	0.281	-0.055
-312.953	-108.943	0.162	-0.034
-311.939	-75.645	-0.061	0.022
-310.924	417.197	0.026	0.056
-309.910	154.769	-0.021	-0.028
-308.895	-110.697	-0.169	0.035
-307.880	-61.109	-0.073	0.031
-306.866	-200.000	-0.011	0.109
-305.851	-200.000	0.060	-0.339
-304.837	800.000	-0.041	-0.147
-303.822	192.407	0.212	-0.319
-302.807	800.000	0.020	-0.064
-301.793	19.797	0.155	-0.124
-300.778	-60.580	0.131	-0.055
-299.764	-178.869	0.296	0.007
-298.749	-107.742	0.162	-0.035
-297.735	0.040	-0.196	0.139
-296.720	-70.140	-0.244	0.092
-295.705	43.784	-0.126	0.115
-294.691	-46.086	0.247	-0.121
-293.676	-200.000	-0.005	0.089
-292.662	-5.080	-0.100	-0.068
-291.647	79.730	-0.232	-0.248
-290.632	-48.249	0.226	0.109
-289.618	72.479	0.158	0.163
-288.603	211.499	0.160	-0.250
-287.589	800.000	-0.058	-0.200
-286.574	-200.000	0.026	-0.156
-285.559	-49.269	-0.050	0.024
-284.545	-200.000	0.054	-0.388
-283.530	55.555	-0.047	0.046
-282.516	792.397	-0.039	-0.108
-281.501	-74.777	0.217	0.078
-280.486	450.719	0.093	0.205
-279.472	-200.000	-0.015	0.113
-278.457	247.864	-0.072	0.121
-277.443	-200.000	-0.032	0.168
-276.428	88.194	-0.119	-0.131
-275.413	-37.607	-0.180	-0.096
-274.399	-200.000	-0.012	0.161
-273.384	2.637	0.092	0.066
-272.370	800.000	-0.067	0.246
-271.355	-25.258	0.058	0.034
-270.340	-97.840	0.084	0.021
-269.326	74.521	0.183	-0.191
-268.311	80.854	-0.122	0.131
-267.297	-47.454	0.170	-0.082
-266.282	372.970	-0.130	-0.263
-265.267	-65.267	0.120	-0.048
-264.253	800.000	-0.044	-0.140
-263.238	386.152	-0.056	-0.115
-262.224	-0.065	0.284	0.201
-261.209	104.912	0.113	-0.133
-260.195	-41.369	-0.122	-0.063
-259.180	33.023	0.225	-0.194
-258.165	-53.563	-0.186	-0.084
-257.151	-200.000	0.069	-0.412
-256.136	-200.000	0.000	-0.141
-255.122	-111.663	-0.300	-0.060
-254.107	-115.100	0.126	-0.024
-253.092	-151.131	-0.209	-0.016
-252.078	-57.611	-0.172	-0.075
-251.063	-200.000	0.015	0.096
-250.049	-26.759	0.073	0.042
-249.034	156.389	-0.152	-0.209
-248.019	-85.767	0.296	-0.091
-247.005	-200.000	0.031	-0.155
-245.990	-200.000	-0.013	-0.118
-244.976	800.000	0.039	0.110
-243.961	503.161	0.020	0.045
-242.946	-130.318	-0.245	-0.033
-241.932	40.216	-0.116	-0.104
-240.917	-200.000	-0.012	-0.074
-239.903	-123.895	0.316	0.049
-238.888	800.000	0.044	0.150
-237.873	138.399	0.185	0.241
-236.859	656.229	-0.136	0.348
-235.844	800.000	0.065	0.244
-234.830	86.853	0.064	0.070
-233.815	233.709	0.123	-0.201
-232.800	-78.169	0.203	-0.069
-231.786	-59.372	-0.261	-0.111
-230.771	225.415	-0.187	0.300
-229.757	800.000	0.052	-0.196
-228.742	116.775	0.162	0.197
-227.727	-200.000	0.033	-0.194
-226.713	-17.267	0.066	-0.042
-225.698	-90.810	-0.279	0.080
-224.684	-161.849	0.165	-0.008
-223.669	-73.156	0.017	0.006
-222.655	18.155	-0.341	-0.270
-221.640	37.604	-0.162	-0.143
-220.625	-4.088	0.259	-0.178
-219.611	-200.000	0.036	-0.163
-218.596	612.562	-0.027	-0.066
-217.582	-25.831	-0.285	0.167
-216.567	-14.605	0.110	-0.070
-215.552	-129.802	0.106	0.014
-214.538	-11.910	0.051	0.033
-213.523	235.820	0.060	-0.099
-212.509	143.112	0.115	-0.151
-211.494	150.918	-0.076	-0.103
-210.479	-22.943	0.171	0.102
-209.465	221.789	0.164	-0.261
-208.450	29.208	0.186	-0.157
-207.436	-200.000	0.009	0.169
-206.421	-70.147	0.173	-0.065
-205.406	-12.030	0.022	0.014
-204.392	325.026	-0.104	0.196
-203.377	249.362	-0.237	-0.398
-202.363	-200.000	-0.020	0.098
-201.348	-93.121	-0.158	0.044
-200.333	-159.159	-0.266	0.015
-199.319	28.896	0.110	0.092
-198.304	353.153	0.031	0.060
-197.290	-123.537	0.407	0.064
-196.275	220.114	-0.074	-0.117
-195.260	30.764	0.167	-0.142
-194.246	-200.000	0.010	0.264
-193.231	40.482	-0.046	-0.041
-192.217	59.458	0.125	-0.122
-191.202	-141.859	0.306	-0.030
-190.187	136.170	0.094	-0.121
-189.173	-200.000	0.203	-0.000
-188.158	800.000	-0.122	0.358
-187.144	-159.501	-0.349	0.019
-186.129	-72.774	-0.118	0.043
-185.114	433.288	0.035	-0.076
-184.100	61.188	0.225	0.222
-183.085	126.540	0.093	0.117
-182.071	-200.000	0.016	0.114
-181.056	-135.707	0.227	0.027
-180.042	30.370	-0.171	-0.145
-179.027	-8.372	-0.076	-0.050
-178.012	-200.000	-0.005	0.107
-176.998	-172.160	-0.157	0.005
-175.983	111.559	-0.175	0.209
-174.969	32.558	-0.117	0.100
-173.954	100.942	0.149	-0.172
-172.939	106.370	0.031	-0.036
-171.925	143.237	-0.088	0.115
-170.910	800.000	-0.085	0.364
-169.896	25.781	-0.218	0.180
-168.881	48.477	0.154	-0.143
-167.866	-76.815	0.225	0.078
-166.852	-31.843	-0.237	0.132
-165.837	-200.000	0.009	0.119
-164.823	142.556	0.111	0.146
-163.808	155.357	0.061	0.083
-162.793	119.108	0.217	0.265
-161.779	-1.724	0.224	-0.156
-160.764	380.697	-0.082	0.167
-159.750	65.469	-0.127	0.128
-158.735	-132.305	0.236	0.030
-157.720	-13.776	-0.166	0.106
-156.706	-151.464	-0.176	-0.013
-155.691	-49.733	0.324	0.152
-154.677	631.540	0.105	0.263
-153.662	151.679	0.093	0.125
-152.647	45.486	0.223	0.203
-151.633	28.489	-0.370	0.309
-150.618	-200.000	0.022	0.240
-149.604	-200.000	-0.013	0.199
-148.589	-107.554	-0.083	-0.018
-147.574	-89.864	0.218	-0.063
-146.560	-17.928	0.152	-0.094
-145.545	-109.647	0.086	-0.018
-144.531	800.000	-0.158	-0.463
-143.516	800.000	-0.014	-0.039
-142.502	-152.418	0.036	-0.003
-141.487	49.139	-0.219	0.203
-140.472	800.000	0.045	0.142
-139.458	11.771	-0.178	-0.135
-138.443	31.763	-0.134	-0.114
-137.429	-200.000	-0.024	0.287
-136.414	-200.000	-0.030	0.222
-135.399	-98.016	-0.388	-0.099
-134.385	800.000	-0.055	0.207
-133.370	-85.286	0.066	-0.020
-132.356	800.000	-0.048	-0.150
-131.341	-200.000	0.010	-0.330
-130.326	-101.121	-0.369	-0.089
-129.312	-125.949	-0.336	-0.050
-128.297	-35.940	0.177	-0.095
-127.283	-56.284	-0.185	0.081
-126.268	192.659	0.075	-0.111
-125.253	-135.304	0.183	0.022
-124.239	-73.947	-0.168	-0.060
-123.224	482.830	0.018	0.041
-122.210	-200.000	-0.028	-0.370
-121.195	8.712	0.302	-0.225
