DTS Sentinel unit serial number:	SN413079Multiplexer serial number:	ORYXHardware model number:	OX4-SRSoftware version number:	ORYX F/W v4.00 Oryx Data Collector v3.7.2.0data status	okinstallation	princeton_trtdifferential loss correction	single-endedforward channel	channel 1reverse channel	N/Adate	2019/09/15time	15:38:35forward acquisition time	60.00reverse acquisition time	0.00gamma	496.2192k internal	0.2292k external	0.2292temperature offset calibration	0.9946default loss term (dB/km)	0.3790temperature slope calibration	1.0000multiplexer offset coefficient	1.0000multiplexer slope coefficient	1.0000fibre end	0.00T internal ref (°C)	41.56T ext. ref 1 (°C)	5.15T ext. ref 2 (°C)	39.55length (m)	temperature (°C)	Stokes	anti-Stokes-747.200	800.000	0.105	-0.326
-746.185	-150.190	-0.093	-0.007
-745.171	57.097	0.306	0.305
-744.156	-200.000	0.099	0.557
-743.142	331.703	-0.139	-0.274
-742.127	513.154	0.105	0.251
-741.112	31.154	-0.039	0.035
-740.098	88.983	0.181	0.206
-739.083	-69.586	0.290	0.113
-738.069	-200.000	-0.048	0.473
-737.054	132.179	-0.154	0.204
-736.039	14.573	-0.025	0.020
-735.025	-200.000	0.004	0.260
-734.010	-76.801	0.247	-0.088
-732.996	772.718	-0.014	0.040
-731.981	180.324	-0.200	-0.300
-730.966	-90.517	-0.245	-0.073
-729.952	36.298	-0.119	0.108
-728.937	800.000	0.063	0.241
-727.923	-0.840	-0.274	-0.198
-726.908	-19.483	-0.250	-0.159
-725.894	55.190	-0.281	-0.278
-724.879	108.936	0.152	-0.186
-723.864	141.822	-0.124	-0.168
-722.850	800.000	-0.017	0.051
-721.835	1.632	-0.070	-0.051
-720.821	800.000	-0.108	-0.317
-719.806	800.000	-0.063	-0.178
-718.791	250.677	-0.071	-0.123
-717.777	47.148	-0.154	-0.147
-716.762	239.357	0.140	-0.238
-715.748	52.867	-0.303	-0.296
-714.733	106.050	0.112	0.135
-713.718	-200.000	0.007	0.333
-712.704	188.302	-0.078	-0.119
-711.689	-48.879	0.210	-0.103
-710.675	3.350	-0.196	0.146
-709.660	-200.000	0.018	0.085
-708.645	44.374	-0.257	0.242
-707.631	492.649	-0.077	0.179
-706.616	470.795	-0.051	0.117
-705.602	-149.667	0.095	-0.008
-704.587	-58.064	-0.061	-0.027
-703.572	-54.024	0.341	0.158
-702.558	-60.753	-0.238	-0.103
-701.543	-200.000	0.026	-0.263
-700.529	-200.000	-0.041	-0.302
-699.514	800.000	-0.126	-0.383
-698.499	-77.338	-0.252	-0.089
-697.485	17.166	0.135	0.109
-696.470	709.877	-0.097	0.262
-695.456	-200.000	-0.021	0.208
-694.441	-65.422	0.175	0.072
-693.426	22.548	0.110	-0.092
-692.412	-13.762	-0.153	0.101
-691.397	-102.600	0.119	0.029
-690.383	-54.866	0.051	0.023
-689.368	82.678	-0.100	-0.111
-688.354	318.844	0.039	-0.075
-687.339	-126.766	-0.144	0.022
-686.324	45.513	-0.211	-0.199
-685.310	-129.566	-0.331	0.047
-684.295	-159.110	0.364	-0.021
-683.281	-74.143	0.136	-0.050
-682.266	171.050	0.145	0.213
-681.251	-109.017	-0.230	0.050
-680.237	-200.000	-0.006	-0.036
-679.222	-53.954	-0.084	-0.039
-678.208	-128.999	-0.271	-0.039
-677.193	152.966	-0.084	0.117
-676.178	-200.000	-0.010	-0.176
-675.164	-113.624	0.290	0.058
-674.149	-51.586	0.111	-0.053
-673.135	-148.758	0.327	-0.027
-672.120	-27.299	0.288	0.171
-671.105	-74.656	0.312	0.114
-670.091	-200.000	0.002	0.099
-669.076	169.186	0.108	-0.157
-668.062	-184.814	0.323	-0.005
-667.047	232.619	0.138	0.232
-666.032	-165.085	-0.114	0.005
-665.018	-86.132	0.240	-0.076
-664.003	-105.512	-0.141	-0.033
-662.989	-16.257	-0.228	0.148
-661.974	4.113	-0.196	0.146
-660.959	-72.255	-0.160	-0.061
-659.945	-9.780	-0.199	-0.135
-658.930	144.202	0.086	-0.117
-657.916	148.119	-0.178	0.245
-656.901	-115.555	-0.103	0.020
-655.886	800.000	-0.081	0.280
-654.872	284.939	-0.137	-0.252
-653.857	47.365	-0.130	0.123
-652.843	-80.933	0.171	-0.058
-651.828	272.924	0.025	-0.044
-650.814	-200.000	0.035	0.231
-649.799	800.000	0.098	0.321
-648.784	581.130	-0.086	-0.214
-647.770	38.975	0.118	0.108
-646.755	198.502	0.081	-0.127
-645.741	-200.000	0.057	-0.276
-644.726	-182.796	-0.108	-0.002
-643.711	-200.000	-0.003	0.062
-642.697	115.340	0.298	-0.371
-641.682	61.220	0.118	-0.120
-640.668	-22.535	0.067	0.041
-639.653	-200.000	0.021	0.145
-638.638	-200.000	0.011	-0.061
-637.624	-135.245	0.363	-0.044
-636.609	-48.995	-0.077	0.038
-635.595	-2.335	0.128	0.092
-634.580	-200.000	0.018	-0.148
-633.565	-63.617	-0.072	0.030
-632.551	800.000	0.068	0.239
-631.536	157.622	-0.165	-0.233
-630.522	-80.023	-0.131	-0.045
-629.507	-93.395	-0.102	-0.029
-628.492	-177.971	-0.241	-0.006
-627.478	188.419	-0.126	0.192
-626.463	-149.413	-0.245	-0.020
-625.449	-119.986	-0.190	-0.033
-624.434	571.287	-0.065	0.160
-623.419	800.000	-0.115	0.340
-622.405	-200.000	-0.095	0.446
-621.390	800.000	0.051	0.168
-620.376	64.763	0.170	0.175
-619.361	-129.653	0.090	-0.013
-618.346	800.000	-0.041	0.183
-617.332	800.000	0.144	0.416
-616.317	-200.000	0.028	0.473
-615.303	214.078	0.093	-0.150
-614.288	800.000	0.053	-0.211
-613.273	182.746	0.121	-0.181
-612.259	-118.829	-0.150	-0.027
-611.244	56.390	0.139	0.137
-610.230	-30.013	0.222	0.129
-609.215	-200.000	0.009	-0.158
-608.201	354.169	0.216	0.437
-607.186	-107.222	-0.165	0.037
-606.171	800.000	-0.036	-0.117
-605.157	-22.483	-0.271	-0.167
-604.142	-90.835	-0.151	0.044
-603.128	591.819	-0.110	-0.276
-602.113	43.172	-0.115	0.107
-601.098	83.635	0.211	-0.234
-600.084	200.302	-0.140	-0.220
-599.069	71.075	0.057	-0.061
-598.055	0.187	0.034	-0.025
-597.040	-134.766	0.271	-0.033
-596.025	800.000	-0.049	0.139
-595.011	-107.561	0.119	0.027
-593.996	148.442	0.072	-0.099
-592.982	-25.090	-0.454	0.274
-591.967	-200.000	0.040	-0.235
-590.952	188.419	0.142	-0.216
-589.938	-110.323	0.126	-0.027
-588.923	800.000	-0.069	0.256
-587.909	-52.160	-0.346	0.163
-586.894	431.156	-0.136	-0.300
-585.879	-122.375	-0.125	0.021
-584.865	269.943	-0.021	-0.038
-583.850	142.773	0.090	-0.121
-582.836	88.512	0.205	0.231
-581.821	-189.789	0.251	0.003
-580.806	197.644	0.014	0.022
-579.792	270.848	0.044	0.079
-578.777	261.342	0.117	0.205
-577.763	332.961	-0.126	-0.247
-576.748	-89.801	-0.303	-0.090
-575.733	-112.852	-0.159	-0.032
-574.719	18.612	0.138	-0.113
-573.704	-30.371	-0.181	0.104
-572.690	410.461	0.016	0.034
-571.675	-82.744	-0.130	0.043
-570.661	13.817	-0.147	-0.116
-569.646	13.150	0.115	-0.091
-568.631	-200.000	-0.054	-0.288
-567.617	-200.000	0.098	0.524
-566.602	-200.000	-0.039	-0.251
-565.588	-88.887	0.171	0.051
-564.573	5.943	-0.137	0.103
-563.558	-124.418	0.048	-0.008
-562.544	124.646	-0.117	-0.150
-561.529	800.000	-0.065	-0.242
-560.515	800.000	-0.024	-0.103
-559.500	263.579	-0.115	0.203
-558.485	-72.232	0.100	-0.038
-557.471	-200.000	-0.054	-0.259
-556.456	167.225	0.054	-0.078
-555.442	-105.949	0.140	0.032
-554.427	363.398	0.048	0.098
-553.412	50.024	0.185	-0.177
-552.398	-163.750	-0.219	-0.010
-551.383	-200.000	0.002	0.038
-550.369	383.269	-0.052	-0.108
-549.354	-106.030	0.219	0.050
-548.339	-200.000	0.001	0.066
-547.325	322.340	0.020	0.038
-546.310	-172.498	0.491	-0.016
-545.296	-200.000	-0.039	-0.278
-544.281	-10.652	-0.282	0.190
-543.266	-45.853	-0.170	-0.085
-542.252	390.887	0.171	-0.361
-541.237	189.419	-0.190	0.290
-540.223	175.266	0.059	-0.086
-539.208	800.000	-0.104	-0.315
-538.193	493.951	0.069	-0.161
-537.179	34.641	0.078	0.069
-536.164	34.864	0.164	0.146
-535.150	-6.781	0.148	0.102
-534.135	-183.577	-0.360	-0.006
-533.121	-195.258	-0.184	-0.001
-532.106	67.014	-0.092	-0.096
-531.091	800.000	-0.054	-0.190
-530.077	88.309	0.141	-0.158
-529.062	91.648	-0.112	0.127
-528.048	-6.371	-0.127	-0.088
-527.033	449.442	-0.041	0.092
-526.018	-200.000	0.018	0.170
-525.004	800.000	-0.022	-0.091
-523.989	-144.588	-0.190	0.018
-522.975	42.834	-0.186	-0.172
-521.960	-90.203	0.086	-0.025
-520.945	-132.794	-0.266	-0.035
-519.931	132.336	-0.034	-0.045
-518.916	244.529	-0.128	0.218
-517.902	-12.601	-0.169	-0.112
-516.887	59.188	-0.124	-0.124
-515.872	-200.000	-0.001	0.033
-514.858	229.606	0.113	0.187
-513.843	-93.292	0.159	0.045
-512.829	185.873	-0.176	0.266
-511.814	-200.000	0.019	0.106
-510.799	135.931	0.337	0.445
-509.785	-200.000	-0.041	0.224
-508.770	95.370	-0.169	0.195
-507.756	-81.281	-0.262	-0.088
-506.741	348.127	-0.048	0.097
-505.726	-91.621	0.379	-0.110
-504.712	-81.518	-0.076	0.025
-503.697	35.341	0.092	0.082
-502.683	800.000	0.033	-0.137
-501.668	-200.000	-0.019	-0.152
-500.653	-200.000	-0.031	-0.328
-499.639	282.818	0.178	-0.324
-498.624	69.824	0.219	0.229
-497.610	-4.496	-0.127	0.089
-496.595	199.467	0.126	-0.196
-495.581	-200.000	-0.015	0.181
-494.566	-116.373	0.063	-0.012
-493.551	-48.010	-0.123	-0.060
-492.537	-200.000	0.091	-0.410
-491.522	91.105	0.192	0.219
-490.508	-94.252	0.061	0.017
-489.493	-200.000	0.003	0.076
-488.478	-200.000	-0.012	-0.393
-487.464	-30.700	-0.236	0.135
-486.449	141.172	0.144	0.194
-485.435	800.000	-0.029	-0.127
-484.420	81.826	-0.187	0.205
-483.405	-200.000	0.015	0.127
-482.391	-200.000	0.007	-0.134
-481.376	37.305	0.304	-0.273
-480.362	-157.140	-0.255	0.016
-479.347	269.669	0.085	0.150
-478.332	82.115	0.243	-0.267
-477.318	-138.846	-0.146	-0.016
-476.303	259.938	0.032	0.056
-475.289	-200.000	0.022	0.131
-474.274	-184.254	0.210	0.004
-473.259	586.241	-0.125	0.312
-472.245	-23.038	-0.146	0.089
-471.230	-34.274	0.206	0.115
-470.216	-18.967	0.136	0.086
-469.201	33.089	0.008	-0.007
-468.186	135.125	-0.215	0.283
-467.172	-131.410	0.035	-0.005
-466.157	71.790	0.298	-0.314
-465.143	-53.125	0.136	0.063
-464.128	-85.060	-0.218	-0.069
-463.113	-44.213	-0.282	-0.143
-462.099	-108.906	0.284	0.061
-461.084	219.071	-0.002	-0.003
-460.070	564.843	-0.046	0.113
-459.055	170.108	-0.103	-0.150
-458.040	55.893	0.238	-0.234
-457.026	113.963	0.378	-0.466
-456.011	-85.605	-0.431	0.136
-454.997	486.691	-0.136	-0.313
-453.982	195.048	0.214	-0.329
-452.968	-200.000	-0.009	0.218
-451.953	-200.000	0.003	0.040
-450.938	261.755	0.123	0.216
-449.924	-200.000	0.002	-0.118
-448.909	424.246	-0.081	-0.177
-447.895	71.905	-0.178	-0.188
-446.880	170.999	0.089	0.128
-445.865	145.997	-0.151	0.205
-444.851	-75.665	-0.107	-0.038
-443.836	800.000	-0.109	-0.307
-442.822	800.000	-0.093	0.303
-441.807	-200.000	0.024	-0.380
-440.792	101.954	-0.036	0.042
-439.778	-200.000	-0.032	0.200
-438.763	-65.615	-0.298	0.121
-437.749	-10.090	0.065	-0.044
-436.734	-200.000	0.003	-0.194
-435.719	91.169	0.157	-0.178
-434.705	-120.538	0.333	-0.057
-433.690	-13.330	0.265	0.174
-432.676	-134.496	-0.246	0.030
-431.661	-200.000	-0.005	-0.286
-430.646	74.873	0.042	-0.045
-429.632	-200.000	-0.020	0.173
-428.617	-95.423	-0.182	0.049
-427.603	-200.000	-0.041	-0.195
-426.588	-200.000	0.030	-0.199
-425.573	-42.654	0.144	-0.074
-424.559	80.896	-0.276	-0.301
-423.544	-200.000	0.099	0.534
-422.530	-91.116	0.213	0.062
-421.515	-36.036	0.204	0.112
-420.500	-200.000	0.024	-0.142
-419.486	-200.000	-0.017	0.233
-418.471	87.009	0.084	-0.094
-417.457	-36.952	-0.219	-0.119
-416.442	245.210	0.087	-0.147
-415.428	-200.000	-0.035	-0.300
-414.413	-200.000	-0.002	-0.146
-413.398	125.406	-0.156	-0.199
-412.384	-74.603	0.319	0.116
-411.369	-110.589	-0.209	0.044
-410.355	-91.024	-0.154	-0.045
-409.340	-192.851	0.042	0.000
-408.325	-96.984	0.293	-0.078
-407.311	-45.453	0.146	0.073
-406.296	800.000	-0.040	0.139
-405.282	-106.976	-0.095	-0.021
-404.267	226.935	-0.053	0.088
-403.252	-20.652	0.293	0.182
-402.238	573.888	0.097	-0.240
-401.223	-71.401	0.156	-0.059
-400.209	-89.322	0.423	-0.126
-399.194	800.000	0.033	0.098
-398.179	-103.372	-0.063	0.015
-397.165	-159.730	0.399	-0.022
-396.150	337.982	0.241	0.474
-395.136	-133.653	-0.423	-0.053
-394.121	-200.000	0.000	-0.135
-393.106	675.165	0.151	-0.396
-392.092	226.784	0.087	-0.143
-391.077	701.270	0.116	-0.307
-390.063	-11.182	0.092	0.061
-389.048	-100.265	-0.211	-0.053
-388.033	16.872	-0.102	0.082
-387.019	446.931	-0.120	-0.266
-386.004	-92.280	0.277	0.079
-384.990	-127.165	0.149	-0.022
-383.975	379.251	0.065	-0.134
-382.960	692.361	0.025	-0.066
-381.946	182.599	0.032	0.047
-380.931	-61.127	-0.147	0.063
-379.917	43.124	-0.152	-0.140
-378.902	119.831	-0.098	0.122
-377.888	-164.470	0.109	0.005
-376.873	-14.906	-0.136	-0.088
-375.858	-106.750	-0.229	0.051
-374.844	-200.000	-0.012	-0.171
-373.829	800.000	-0.044	-0.147
-372.815	-36.436	0.179	0.097
-371.800	-36.951	-0.319	-0.173
-370.785	800.000	-0.093	-0.360
-369.771	177.671	-0.054	0.079
-368.756	269.078	0.210	0.373
-367.742	25.225	-0.172	-0.144
-366.727	-200.000	-0.048	0.247
-365.712	800.000	0.095	0.304
-364.698	160.801	-0.106	0.149
-363.683	38.624	-0.119	0.107
-362.669	-42.422	-0.076	0.039
-361.654	-52.543	-0.043	0.020
-360.639	-0.751	-0.093	-0.067
-359.625	-93.450	-0.205	0.057
-358.610	800.000	-0.092	-0.368
-357.596	282.365	-0.183	-0.330
-356.581	800.000	-0.070	-0.250
-355.566	93.459	-0.131	0.150
-354.552	106.397	-0.140	-0.168
-353.537	800.000	-0.020	0.058
-352.523	24.075	-0.190	0.158
-351.508	-6.323	0.100	-0.069
-350.493	-146.214	-0.338	0.030
-349.479	-200.000	0.004	-0.037
-348.464	-165.909	0.415	0.018
-347.450	800.000	-0.021	0.081
-346.435	-19.541	-0.168	-0.105
-345.420	-163.172	0.364	0.018
-344.406	-23.947	-0.386	0.233
-343.391	-200.000	0.001	-0.166
-342.377	178.853	-0.105	0.154
-341.362	-200.000	-0.020	-0.356
-340.348	663.891	-0.018	0.047
-339.333	30.398	-0.094	0.081
-338.318	315.616	-0.075	-0.143
-337.304	-9.606	0.352	0.236
-336.289	-200.000	0.034	-0.247
-335.275	-37.138	-0.208	-0.112
-334.260	-200.000	0.045	0.323
-333.245	800.000	0.038	0.112
-332.231	-79.831	0.072	0.024
-331.216	434.717	0.100	-0.218
-330.202	-119.535	-0.183	0.032
-329.187	-200.000	-0.010	-0.079
-328.172	733.117	0.070	-0.188
-327.158	-200.000	-0.025	0.267
-326.143	-55.077	0.172	-0.078
-325.129	-200.000	0.000	-0.100
-324.114	77.298	0.163	-0.175
-323.099	-200.000	-0.042	-0.380
-322.085	273.361	-0.108	-0.192
-321.070	800.000	0.095	0.414
-320.056	-77.892	0.253	0.088
-319.041	349.736	-0.097	0.193
-318.026	194.925	-0.084	0.129
-317.012	-200.000	0.003	0.283
-315.997	800.000	0.043	0.173
-314.983	98.855	-0.201	-0.234
-313.968	284.871	0.120	0.218
-312.953	122.909	-0.148	0.187
-311.939	484.720	0.062	0.143
-310.924	-96.241	-0.265	-0.071
-309.910	-109.691	0.239	-0.051
-308.895	-35.386	-0.075	-0.041
-307.880	-200.000	-0.054	-0.301
-306.866	125.169	0.117	-0.149
-305.851	242.673	0.044	-0.074
-304.837	439.858	0.117	0.258
-303.822	485.142	0.072	0.165
-302.807	800.000	-0.106	-0.351
-301.793	-200.000	0.001	0.214
-300.778	-200.000	0.001	0.056
-299.764	-69.420	0.209	-0.081
-298.749	-35.164	0.199	-0.109
-297.735	-101.036	-0.354	-0.087
-296.720	74.941	-0.033	-0.035
-295.705	800.000	0.043	-0.144
-294.691	-63.526	-0.148	0.061
-293.676	185.324	0.073	0.110
-292.662	-112.965	0.195	0.039
-291.647	14.959	0.176	-0.139
-290.632	800.000	0.116	-0.499
-289.618	-200.000	0.001	-0.222
-288.603	-200.000	-0.005	0.160
-287.589	279.641	-0.098	0.176
-286.574	800.000	0.042	0.147
-285.559	607.676	-0.192	0.482
-284.545	-126.067	-0.195	-0.029
-283.530	-40.050	-0.233	0.122
-282.516	189.119	0.095	-0.143
-281.501	-200.000	-0.032	0.148
-280.486	-200.000	-0.066	0.311
-279.472	198.580	0.091	0.140
-278.457	-114.323	-0.194	-0.037
-277.443	-85.285	0.216	0.068
-276.428	174.941	0.074	-0.107
-275.413	30.865	0.095	-0.082
-274.399	-1.221	0.273	0.194
-273.384	45.548	0.178	0.165
-272.370	377.807	-0.075	-0.153
-271.355	800.000	-0.034	-0.121
-270.340	-200.000	0.016	0.196
-269.326	-12.005	0.250	0.165
-268.311	-103.089	-0.255	-0.061
-267.297	-59.313	0.507	-0.219
-266.282	-39.512	-0.125	0.066
-265.267	-12.411	-0.371	0.244
-264.253	57.463	0.117	-0.115
-263.238	25.038	0.049	-0.041
-262.224	800.000	0.008	0.022
-261.209	118.240	-0.073	-0.091
-260.195	-52.739	-0.196	0.091
-259.180	-182.731	0.233	0.004
-258.165	674.922	0.131	-0.343
-257.151	-115.296	0.144	-0.027
-256.136	261.753	-0.034	0.060
-255.122	-200.000	-0.025	-0.318
-254.107	-124.393	0.268	0.042
-253.092	-200.000	0.065	0.314
-252.078	-200.000	0.088	0.506
-251.063	-200.000	0.004	0.247
-250.049	-91.175	0.333	0.096
-249.034	-62.884	0.211	0.088
-248.019	-52.495	0.095	0.044
-247.005	-200.000	0.008	0.247
-245.990	-92.607	0.119	-0.033
-244.976	-52.686	-0.233	0.108
-243.961	299.604	0.167	0.309
-242.946	800.000	-0.080	-0.346
-241.932	-88.957	0.163	-0.048
-240.917	-48.003	0.074	0.036
-239.903	800.000	-0.114	0.323
-238.888	350.365	-0.049	0.097
-237.873	32.265	-0.204	-0.177
-236.859	154.984	0.021	-0.029
-235.844	4.668	-0.158	0.116
-234.830	334.133	0.064	-0.124
-233.815	-85.684	0.050	-0.016
-232.800	-113.804	-0.343	-0.067
-231.786	-56.943	-0.308	-0.136
-230.771	-200.000	0.027	-0.220
-229.757	-185.288	0.026	0.000
-228.742	-126.854	-0.339	-0.050
-227.727	-200.000	-0.006	0.360
-226.713	478.405	-0.078	0.178
-225.698	122.878	0.040	-0.051
-224.684	-200.000	0.035	-0.456
-223.669	-97.681	-0.269	0.070
-222.655	-127.630	-0.329	-0.048
-221.640	33.429	0.116	0.101
-220.625	-41.364	0.122	-0.063
-219.611	-137.446	-0.007	0.001
-218.596	-22.226	0.098	0.060
-217.582	800.000	0.018	-0.057
-216.567	-31.554	-0.153	-0.086
-215.552	800.000	-0.061	-0.211
-214.538	-74.597	0.136	0.049
-213.523	-132.580	-0.172	-0.022
-212.509	-121.732	0.170	-0.028
-211.494	388.909	0.073	0.152
-210.479	-200.000	-0.019	-0.266
-209.465	-200.000	-0.038	-0.258
-208.450	315.729	0.024	0.046
-207.436	106.188	-0.127	-0.151
-206.421	249.349	0.260	0.442
-205.406	4.414	0.058	0.043
-204.392	-172.498	-0.213	-0.007
-203.377	800.000	-0.036	-0.109
-202.363	94.661	0.244	0.278
-201.348	-72.232	-0.131	0.049
-200.333	-31.546	0.183	-0.103
-199.319	-28.376	-0.129	-0.074
-198.304	85.684	-0.103	-0.113
-197.290	29.855	-0.375	0.320
-196.275	35.134	0.191	0.168
-195.260	95.836	-0.127	0.145
-194.246	-200.000	0.028	-0.173
-193.231	-200.000	0.040	-0.225
-192.217	453.783	-0.154	0.341
-191.202	58.144	-0.107	0.105
-190.187	-200.000	0.028	0.181
-189.173	142.986	0.085	0.114
-188.158	521.788	-0.172	-0.404
-187.144	-167.834	-0.246	-0.010
-186.129	41.357	-0.092	-0.083
-185.114	374.972	-0.025	0.050
-184.100	-89.046	0.246	0.073
-183.085	-94.737	-0.152	0.041
-182.071	-158.417	0.109	-0.006
-181.056	-20.033	-0.103	-0.064
-180.042	-121.859	0.179	0.030
-179.027	42.433	0.130	0.119
-178.012	-127.931	-0.227	0.033
-176.998	40.405	-0.058	0.052
-175.983	-125.841	0.032	-0.005
-174.969	-88.575	-0.128	0.038
-173.954	395.090	0.068	0.143
-172.939	137.173	0.102	0.133
-171.925	-73.642	0.179	0.065
-170.910	-92.639	0.420	0.118
-169.896	-200.000	-0.007	0.111
-168.881	108.020	-0.056	-0.066
-167.866	-97.081	0.234	0.061
-166.852	-136.189	0.091	0.011
-165.837	197.297	-0.068	0.104
-164.823	-89.958	0.534	0.156
-163.808	-149.097	-0.108	0.009
-162.793	800.000	-0.041	-0.170
-161.779	28.010	0.034	-0.028
-160.764	122.009	0.092	0.115
-159.750	-28.575	0.168	0.097
-158.735	346.652	-0.041	-0.080
-157.720	-150.791	0.359	0.027
-156.706	87.308	0.118	0.131
-155.691	-109.661	-0.110	0.023
-154.677	-200.000	0.019	0.201
-153.662	-168.963	-0.276	-0.010
-152.647	-87.102	-0.151	-0.046
-151.633	-84.058	-0.429	-0.136
-150.618	256.159	-0.170	-0.292
-149.604	-92.238	-0.112	0.032
-148.589	380.398	0.129	-0.265
-147.574	-200.000	-0.019	-0.553
-146.560	-8.832	-0.200	-0.134
-145.545	800.000	0.022	0.078
-144.531	-200.000	-0.030	-0.238
-143.516	-84.862	-0.227	-0.071
-142.502	-200.000	0.097	0.436
-141.487	-200.000	-0.032	0.268
-140.472	800.000	0.094	0.361
-139.458	-200.000	-0.034	0.209
-138.443	-78.125	0.233	0.080
-137.429	90.361	0.079	-0.088
-136.414	585.752	0.046	0.113
-135.399	800.000	0.015	-0.053
-134.385	800.000	0.103	-0.388
-133.370	222.925	-0.074	0.120
-132.356	695.996	-0.063	0.165
-131.341	8.326	0.174	-0.131
-130.326	-51.352	0.117	-0.055
-129.312	-117.854	0.250	0.045
-128.297	82.915	-0.127	-0.139
-127.283	-95.855	-0.120	-0.032
-126.268	-200.000	0.065	0.297
-125.253	139.886	0.133	-0.175
-124.239	103.723	0.112	0.131
-123.224	-77.995	0.176	0.061
-122.210	-113.158	-0.128	-0.025
