DTS Sentinel unit serial number:	SN413079Multiplexer serial number:	ORYXHardware model number:	OX4-SRSoftware version number:	ORYX F/W v4.00 Oryx Data Collector v3.7.2.0data status	okinstallation	princeton_trtdifferential loss correction	single-endedforward channel	channel 1reverse channel	N/Adate	2019/09/13time	10:02:35forward acquisition time	60.00reverse acquisition time	0.00gamma	496.2192k internal	0.2325k external	0.2325temperature offset calibration	1.0157default loss term (dB/km)	0.3790temperature slope calibration	1.0000multiplexer offset coefficient	1.0000multiplexer slope coefficient	1.0000fibre end	0.00T internal ref (°C)	30.31T ext. ref 1 (°C)	4.47T ext. ref 2 (°C)	27.72length (m)	temperature (°C)	Stokes	anti-Stokes-747.200	-130.384	0.175	-0.024
-746.185	-22.360	-0.311	0.190
-745.171	-144.849	-0.233	-0.022
-744.156	-12.558	-0.040	-0.027
-743.142	261.953	0.042	0.073
-742.127	547.198	-0.102	0.246
-741.112	-88.038	-0.286	-0.087
-740.098	-200.000	0.032	-0.143
-739.083	-3.072	-0.172	0.121
-738.069	800.000	0.041	0.124
-737.054	35.728	-0.236	0.209
-736.039	800.000	-0.091	-0.342
-735.025	-32.306	0.104	0.059
-734.010	280.564	-0.086	-0.155
-732.996	-200.000	0.013	0.278
-731.981	250.680	0.108	-0.186
-730.966	-124.900	-0.166	0.026
-729.952	142.655	-0.177	0.237
-728.937	-80.345	-0.141	-0.048
-727.923	-61.915	0.295	-0.124
-726.908	-200.000	-0.003	0.118
-725.894	242.159	-0.122	0.206
-724.879	-200.000	0.072	0.334
-723.864	-200.000	0.009	0.256
-722.850	41.213	-0.218	0.199
-721.835	54.107	-0.233	0.226
-720.821	10.325	0.158	0.121
-719.806	-200.000	-0.000	0.267
-718.791	71.881	-0.190	-0.199
-717.777	800.000	0.048	-0.153
-716.762	266.716	-0.124	-0.218
-715.748	67.661	0.098	0.101
-714.733	-200.000	0.035	0.201
-713.718	-20.341	0.210	0.130
-712.704	-56.450	-0.319	0.142
-711.689	242.599	-0.086	0.145
-710.675	266.296	-0.052	-0.091
-709.660	185.443	-0.146	-0.219
-708.645	16.996	0.194	0.155
-707.631	431.742	0.081	0.177
-706.616	13.503	0.245	-0.192
-705.602	-64.316	0.065	-0.027
-704.587	138.650	0.107	-0.141
-703.572	-42.020	0.194	-0.100
-702.558	-200.000	0.031	-0.140
-701.543	-67.583	-0.212	0.084
-700.529	-200.000	0.069	-0.326
-699.514	215.278	-0.148	0.237
-698.499	789.082	0.084	0.234
-697.485	113.034	-0.096	0.118
-696.470	31.740	-0.255	-0.221
-695.456	66.346	-0.055	0.056
-694.441	-200.000	0.006	0.315
-693.426	-16.609	-0.123	0.078
-692.412	151.411	0.023	-0.032
-691.397	-34.592	0.200	0.110
-690.383	-41.854	0.203	0.105
-689.368	9.410	-0.277	-0.211
-688.354	-10.049	0.253	0.169
-687.339	-44.802	0.133	0.067
-686.324	800.000	0.050	-0.206
-685.310	-83.587	0.242	-0.078
-684.295	42.775	-0.111	-0.102
-683.281	-53.121	-0.332	-0.154
-682.266	800.000	0.110	-0.468
-681.251	61.408	-0.109	0.109
-680.237	-160.229	-0.111	0.006
-679.222	-85.659	0.153	0.048
-678.208	-45.889	0.260	0.129
-677.193	-200.000	0.022	-0.468
-676.178	42.498	0.153	0.140
-675.164	-75.117	0.216	0.078
-674.149	1.490	0.067	-0.049
-673.135	39.231	0.166	0.149
-672.120	-200.000	-0.002	0.447
-671.105	-200.000	0.042	0.294
-670.091	-141.329	-0.312	-0.032
-669.076	71.389	-0.155	-0.162
-668.062	-22.960	-0.220	0.133
-667.047	11.677	0.108	0.084
-666.032	-154.238	0.205	0.014
-665.018	-200.000	0.051	0.289
-664.003	-200.000	-0.001	0.098
-662.989	-52.507	0.433	0.201
-661.974	620.859	-0.158	-0.400
-660.959	89.945	0.115	-0.129
-659.945	6.949	0.287	-0.215
-658.930	421.294	0.047	0.101
-657.916	179.054	0.095	-0.140
-656.901	-200.000	-0.026	0.309
-655.886	-149.817	0.102	-0.008
-654.872	-54.132	-0.158	0.072
-653.857	-200.000	0.050	-0.317
-652.843	107.688	-0.079	0.094
-651.828	80.083	0.070	-0.076
-650.814	800.000	0.065	-0.200
-649.799	7.218	0.158	-0.119
-648.784	-200.000	-0.035	-0.273
-647.770	-31.332	-0.228	-0.129
-646.755	-200.000	-0.306	0.001
-645.741	-23.665	-0.083	-0.050
-644.726	136.906	0.160	-0.211
-643.711	-109.438	0.441	-0.094
-642.697	-13.889	-0.332	-0.215
-641.682	78.123	-0.125	-0.134
-640.668	7.456	0.066	0.050
-639.653	86.701	0.050	0.056
-638.638	-20.026	0.189	0.117
-637.624	800.000	-0.061	-0.253
-636.609	-106.475	-0.300	0.067
-635.595	-17.702	0.176	-0.111
-634.580	-105.372	0.226	0.052
-633.565	372.380	0.088	-0.180
-632.551	-147.425	-0.025	0.002
-631.536	451.347	0.154	-0.342
-630.522	-200.000	-0.017	0.181
-629.507	-74.241	-0.304	0.110
-628.492	354.589	0.046	-0.092
-627.478	-200.000	-0.011	-0.122
-626.463	36.386	0.167	-0.148
-625.449	-200.000	0.005	0.036
-624.434	48.538	0.211	-0.198
-623.419	408.942	0.013	-0.028
-622.405	-126.503	-0.312	-0.047
-621.390	308.098	0.029	0.055
-620.376	-200.000	0.026	0.148
-619.361	4.121	0.011	0.008
-618.346	-24.144	-0.304	-0.182
-617.332	292.886	0.054	-0.099
-616.317	800.000	-0.043	0.135
-615.303	800.000	0.035	0.103
-614.288	530.989	-0.039	0.092
-613.273	800.000	-0.048	-0.140
-612.259	-77.539	0.205	-0.072
-611.244	800.000	0.029	0.124
-610.230	305.624	0.154	0.287
-609.215	167.023	0.214	0.304
-608.201	225.842	0.225	-0.366
-607.186	347.115	0.035	-0.069
-606.171	28.322	0.158	0.134
-605.157	5.924	0.324	-0.241
-604.142	-132.514	-0.218	0.028
-603.128	800.000	0.015	0.049
-602.113	-156.464	-0.169	0.011
-601.098	265.795	0.125	-0.219
-600.084	-79.639	0.068	0.023
-599.069	131.294	0.140	-0.180
-598.055	-113.264	-0.373	-0.074
-597.040	285.588	0.123	0.222
-596.025	79.808	-0.199	-0.215
-595.011	-115.408	-0.179	-0.034
-593.996	-153.329	0.070	0.005
-592.982	-200.000	-0.022	0.193
-591.967	-200.000	0.016	-0.138
-590.952	-200.000	-0.039	0.350
-589.938	-1.518	-0.292	0.206
-588.923	102.476	0.153	0.179
-587.909	-148.265	-0.357	-0.030
-586.894	-169.659	0.089	0.003
-585.879	86.372	0.259	-0.286
-584.865	266.769	-0.091	0.159
-583.850	-167.771	0.158	0.006
-582.836	-13.550	-0.046	-0.030
-581.821	95.358	0.159	-0.182
-580.806	458.135	-0.048	-0.107
-579.792	-200.000	0.015	-0.079
-578.777	800.000	-0.087	-0.259
-577.763	-49.235	-0.359	-0.172
-576.748	336.640	-0.071	0.138
-575.733	97.958	-0.245	0.283
-574.719	-200.000	-0.018	0.135
-573.704	-200.000	0.024	-0.127
-572.690	1.394	0.075	0.054
-571.675	-126.300	-0.120	0.018
-570.661	-127.112	-0.333	-0.049
-569.646	653.696	0.045	-0.117
-568.631	-104.733	-0.274	-0.063
-567.617	800.000	-0.132	0.403
-566.602	355.451	0.189	-0.377
-565.588	-52.947	0.281	-0.129
-564.573	35.437	-0.028	-0.025
-563.558	93.240	-0.189	-0.214
-562.544	-147.082	0.303	0.026
-561.529	122.105	-0.073	0.091
-560.515	-110.250	0.324	-0.068
-559.500	-22.431	-0.151	-0.092
-558.485	20.413	0.100	0.081
-557.471	-96.972	0.051	0.013
-556.456	-151.986	0.163	-0.012
-555.442	-200.000	0.043	-0.319
-554.427	-69.880	-0.345	0.132
-553.412	-159.602	0.522	0.029
-552.398	-200.000	0.057	0.296
-551.383	186.126	0.107	0.159
-550.369	-58.647	0.170	-0.074
-549.354	216.939	0.141	0.225
-548.339	800.000	0.062	-0.172
-547.325	102.630	0.020	-0.024
-546.310	-93.545	-0.364	-0.101
-545.296	-91.899	0.139	0.040
-544.281	-174.033	-0.304	-0.009
-543.266	-182.238	-0.239	0.004
-542.252	428.008	-0.050	-0.109
-541.237	-200.000	-0.012	-0.182
-540.223	16.240	-0.139	-0.110
-539.208	130.888	-0.268	-0.344
-538.193	172.966	-0.119	-0.172
-537.179	175.373	-0.127	0.184
-536.164	-24.637	-0.403	-0.240
-535.150	-52.060	0.078	0.036
-534.135	12.857	0.181	-0.140
-533.121	317.037	0.108	-0.205
-532.106	104.275	0.106	0.125
-531.091	172.279	0.156	0.225
-530.077	-48.935	0.071	-0.034
-529.062	116.798	-0.054	-0.066
-528.048	-40.190	-0.064	-0.034
-527.033	-200.000	-0.004	-0.145
-526.018	-135.440	-0.168	-0.020
-525.004	120.325	0.084	-0.104
-523.989	292.174	-0.124	-0.225
-522.975	-153.623	-0.340	-0.023
-521.960	182.878	0.038	0.056
-520.945	118.105	-0.097	0.119
-519.931	140.988	-0.145	-0.192
-518.916	-138.206	-0.065	-0.007
-517.902	13.228	0.206	0.159
-516.887	800.000	0.030	-0.115
-515.872	-200.000	0.007	-0.213
-514.858	-58.043	-0.164	-0.072
-513.843	193.771	0.175	0.265
-512.829	161.743	0.105	0.147
-511.814	800.000	-0.055	0.193
-510.799	-51.075	-0.213	-0.100
-509.785	135.258	-0.140	0.183
-508.770	401.763	0.165	0.346
-507.756	-11.066	0.548	-0.362
-506.741	74.564	-0.088	0.093
-505.726	-200.000	0.021	0.349
-504.712	476.525	-0.075	0.171
-503.697	10.882	-0.264	-0.202
-502.683	-2.022	0.257	0.180
-501.668	-20.363	0.088	0.054
-500.653	26.092	-0.295	-0.246
-499.639	-108.737	-0.136	-0.029
-498.624	-200.000	-0.010	0.061
-497.610	30.633	0.044	-0.037
-496.595	91.033	0.258	-0.289
-495.581	475.925	0.022	-0.049
-494.566	-91.629	0.013	0.004
-493.551	51.387	-0.059	0.056
-492.537	24.956	-0.063	0.052
-491.522	-200.000	-0.042	0.472
-490.508	-167.461	-0.163	-0.007
-489.493	-31.349	0.262	-0.148
-488.478	-30.816	-0.116	0.066
-487.464	116.072	-0.146	-0.178
-486.449	140.687	0.188	-0.248
-485.435	-140.840	0.039	-0.004
-484.420	-200.000	-0.030	-0.395
-483.405	0.220	0.188	-0.134
-482.391	691.819	-0.028	-0.073
-481.376	-200.000	0.053	0.259
-480.362	-21.694	0.237	0.144
-479.347	101.645	-0.112	0.130
-478.332	-106.190	0.226	-0.051
-477.318	-67.165	-0.107	0.042
-476.303	800.000	0.042	-0.153
-475.289	-0.234	-0.147	0.104
-474.274	428.920	-0.097	-0.208
-473.259	-197.928	0.195	0.001
-472.245	42.554	-0.090	0.082
-471.230	800.000	0.067	-0.261
-470.216	276.189	-0.232	-0.411
-469.201	190.737	-0.092	-0.137
-468.186	-88.404	-0.127	0.038
-467.172	-25.728	-0.196	0.116
-466.157	800.000	0.035	-0.107
-465.143	179.775	-0.180	0.263
-464.128	-130.624	0.247	0.033
-463.113	-200.000	0.028	-0.129
-462.099	-200.000	0.009	-0.126
-461.084	-38.376	0.178	0.094
-460.070	-138.376	0.161	0.018
-459.055	-39.876	0.101	0.053
-458.040	4.748	-0.281	-0.206
-457.026	110.361	0.070	-0.083
-456.011	-200.000	0.227	0.001
-454.997	120.155	-0.170	-0.210
-453.982	-103.503	-0.094	0.022
-452.968	-87.959	-0.320	0.096
-451.953	-96.140	0.343	-0.091
-450.938	-116.937	0.090	-0.016
-449.924	-0.526	0.135	-0.095
-448.909	-81.138	-0.257	0.085
-447.895	-51.779	-0.105	0.049
-446.880	-200.000	-0.000	-0.292
-445.865	30.689	0.186	0.159
-444.851	800.000	-0.015	0.058
-443.836	438.728	-0.075	-0.164
-442.822	582.332	0.037	0.091
-441.807	-105.553	0.437	0.099
-440.792	-70.351	0.198	-0.075
-439.778	-130.527	0.236	-0.032
-438.763	-200.000	-0.046	-0.252
-437.749	-200.000	0.001	-0.176
-436.734	433.489	-0.110	-0.238
-435.719	-200.000	0.010	0.199
-434.705	238.098	0.097	0.161
-433.690	37.954	0.058	0.051
-432.676	218.933	0.122	0.195
-431.661	95.429	-0.278	0.316
-430.646	253.608	-0.128	0.218
-429.632	-119.306	0.142	0.025
-428.617	142.367	0.169	-0.223
-427.603	-200.000	0.039	-0.242
-426.588	-76.799	-0.222	0.077
-425.573	765.469	0.039	-0.107
-424.559	-77.987	0.193	0.066
-423.544	800.000	-0.010	-0.034
-422.530	-103.285	-0.147	-0.034
-421.515	170.012	0.038	-0.054
-420.500	61.031	-0.121	-0.119
-419.486	166.425	-0.218	-0.308
-418.471	601.430	0.088	-0.217
-417.457	-200.000	-0.003	-0.099
-416.442	-196.409	0.375	-0.003
-415.428	-33.117	-0.633	-0.350
-414.413	-96.574	0.264	-0.069
-413.398	800.000	-0.089	-0.262
-412.384	-35.530	-0.370	-0.200
-411.369	-57.194	0.283	0.124
-410.355	-22.402	0.028	-0.017
-409.340	-21.843	-0.128	0.078
-408.325	282.210	0.157	-0.280
-407.311	-162.745	-0.226	0.011
-406.296	59.617	-0.161	0.158
-405.282	-41.454	-0.066	-0.034
-404.267	800.000	-0.095	0.382
-403.252	-200.000	0.003	-0.055
-402.238	-161.949	0.325	-0.016
-401.223	177.266	-0.163	0.236
-400.209	-0.785	-0.148	0.105
-399.194	-129.707	0.360	0.049
-398.179	454.714	0.040	0.089
-397.165	-162.874	0.110	-0.005
-396.150	357.011	0.074	-0.147
-395.136	-200.000	-0.032	-0.169
-394.121	-96.633	-0.497	0.130
-393.106	-200.000	-0.069	0.440
-392.092	-200.000	-0.028	0.190
-391.077	-133.117	0.465	0.059
-390.063	-24.148	0.119	0.071
-389.048	437.726	0.111	0.242
-388.033	-121.226	-0.243	-0.040
-387.019	-122.851	-0.039	-0.006
-386.004	98.049	0.102	-0.117
-384.990	484.816	-0.131	0.298
-383.975	-45.650	0.298	0.147
-382.960	150.867	0.132	0.179
-381.946	430.158	-0.016	0.035
-380.931	378.943	0.167	0.341
-379.917	111.337	-0.099	-0.119
-378.902	-94.209	-0.168	-0.046
-377.888	195.966	-0.080	0.121
-376.873	631.310	0.050	0.126
-375.858	-200.000	0.012	-0.272
-374.844	-200.000	-0.036	-0.244
-373.829	437.813	-0.106	0.230
-372.815	-200.000	-0.018	0.541
-371.800	-80.591	0.078	0.026
-370.785	-109.011	0.227	-0.048
-369.771	246.288	0.160	-0.269
-368.756	283.671	-0.078	-0.140
-367.742	125.846	0.132	-0.166
-366.727	-200.000	-0.064	0.359
-365.712	-110.651	0.338	0.069
-364.698	-41.933	0.081	-0.041
-363.683	35.564	-0.230	-0.201
-362.669	674.354	0.096	0.246
-361.654	800.000	-0.023	-0.063
-360.639	-119.869	-0.161	0.027
-359.625	523.159	-0.039	-0.092
-358.610	-200.000	-0.037	0.380
-357.596	-54.278	0.012	-0.005
-356.581	-200.000	0.028	0.387
-355.566	201.207	0.199	0.304
-354.552	800.000	0.081	0.307
-353.537	134.019	0.220	0.283
-352.523	-44.063	-0.159	-0.079
-351.508	-85.533	-0.178	0.055
-350.493	800.000	-0.119	0.364
-349.479	52.017	-0.128	0.121
-348.464	135.131	-0.173	0.223
-347.450	-104.166	-0.168	-0.039
-346.435	800.000	-0.011	-0.042
-345.420	3.756	-0.166	-0.121
-344.406	491.003	-0.075	-0.171
-343.391	146.274	-0.186	-0.248
-342.377	800.000	-0.102	-0.284
-341.362	402.071	-0.114	-0.238
-340.348	-200.000	-0.090	-0.420
-339.333	-133.792	0.366	0.045
-338.318	-63.308	0.232	0.095
-337.304	89.744	0.295	0.327
-336.289	767.854	0.062	0.168
-335.275	800.000	0.099	0.273
-334.260	196.443	0.190	0.288
-333.245	-200.000	-0.046	0.484
-332.231	609.322	0.134	0.331
-331.216	-200.000	-0.084	-0.444
-330.202	3.973	0.380	-0.276
-329.187	281.934	-0.090	-0.159
-328.172	67.386	0.106	-0.108
-327.158	-200.000	-0.038	-0.168
-326.143	201.923	-0.153	-0.234
-325.129	81.120	-0.163	-0.175
-324.114	67.299	-0.196	0.198
-323.099	-128.374	-0.234	0.033
-322.085	-150.958	-0.079	-0.006
-321.070	-97.224	-0.432	-0.112
-320.056	800.000	-0.023	0.085
-319.041	-74.131	-0.151	0.054
-318.026	-200.000	0.043	-0.265
-317.012	126.879	0.090	0.114
-315.997	12.676	-0.236	0.181
-314.983	-200.000	0.017	0.204
-313.968	-24.064	-0.093	0.055
-312.953	800.000	-0.022	-0.071
-311.939	-78.147	-0.206	-0.070
-310.924	164.924	0.155	-0.217
-309.910	34.180	-0.248	0.214
-308.895	-100.562	-0.191	0.047
-307.880	-200.000	-0.026	-0.118
-306.866	-200.000	0.010	0.069
-305.851	-136.127	-0.248	-0.029
-304.837	92.797	0.155	-0.174
-303.822	64.915	-0.166	0.166
-302.807	34.256	-0.087	0.075
-301.793	-111.029	-0.302	-0.062
-300.778	-200.000	0.002	0.466
-299.764	110.553	0.117	-0.139
-298.749	-200.000	-0.006	0.028
-297.735	328.863	-0.096	-0.183
-296.720	171.455	-0.043	0.061
-295.705	346.519	0.054	-0.106
-294.691	-43.850	0.265	-0.132
-293.676	22.289	0.199	0.162
-292.662	-96.454	0.076	0.020
-291.647	144.721	0.060	-0.079
-290.632	-171.207	-0.146	0.005
-289.618	-200.000	0.040	-0.263
-288.603	317.251	0.136	0.254
-287.589	240.626	0.073	0.121
-286.574	195.612	-0.185	-0.279
-285.559	-136.810	0.196	-0.022
-284.545	-153.423	-0.217	0.015
-283.530	89.655	-0.058	0.064
-282.516	401.333	0.121	0.253
-281.501	321.461	0.077	-0.146
-280.486	-117.322	-0.138	0.025
-279.472	146.337	0.133	0.177
-278.457	422.959	-0.115	-0.246
-277.443	-3.519	-0.218	-0.150
-276.428	41.352	0.252	0.226
-275.413	192.777	0.085	0.126
-274.399	-200.000	0.034	-0.233
-273.384	-48.693	0.269	-0.128
-272.370	48.951	-0.212	-0.197
-271.355	-67.596	0.184	-0.071
-270.340	725.923	0.140	0.369
-269.326	35.705	0.214	-0.186
-268.311	37.865	0.130	0.115
-267.297	-75.795	-0.108	-0.038
-266.282	-27.685	0.098	-0.056
-265.267	92.718	-0.101	0.113
-264.253	-83.952	0.131	-0.041
-263.238	-200.000	0.007	-0.143
-262.224	380.239	0.129	-0.262
-261.209	251.462	0.069	0.116
-260.195	765.306	0.109	-0.292
-259.180	-59.405	-0.129	0.055
-258.165	239.851	0.129	0.213
-257.151	-93.967	0.190	-0.052
-256.136	-62.255	-0.117	0.048
-255.122	-200.000	0.024	-0.114
-254.107	-95.146	-0.197	0.053
-253.092	-39.245	0.120	-0.063
-252.078	149.510	-0.182	-0.244
-251.063	-143.719	0.270	-0.025
-250.049	-95.619	-0.070	0.019
-249.034	-200.000	-0.037	0.375
-248.019	52.764	-0.074	-0.070
-247.005	-77.598	0.214	-0.073
-245.990	-54.373	-0.272	-0.122
-244.976	-153.783	0.428	-0.029
-243.961	-57.760	-0.217	-0.094
-242.946	-148.159	-0.201	-0.016
-241.932	21.893	0.162	0.131
-240.917	-121.042	0.136	-0.023
-239.903	119.031	-0.044	0.054
-238.888	800.000	-0.038	0.104
-237.873	-200.000	-0.056	0.264
-236.859	210.228	-0.177	0.274
-235.844	-200.000	-0.019	0.177
-234.830	15.009	-0.293	-0.227
-233.815	-11.480	0.195	0.127
-232.800	49.972	0.165	0.154
-231.786	23.559	-0.291	0.237
-230.771	-69.885	0.036	-0.014
-229.757	-200.000	-0.025	-0.110
-228.742	-200.000	-0.374	0.002
-227.727	220.249	-0.179	0.283
-226.713	-169.897	-0.263	-0.009
-225.698	800.000	0.104	0.318
-224.684	-139.615	0.315	-0.033
-223.669	-112.755	-0.110	-0.022
-222.655	-80.731	-0.074	-0.024
-221.640	-200.000	0.065	0.412
-220.625	84.894	-0.230	-0.249
-219.611	-7.219	0.213	0.143
-218.596	-78.789	0.168	0.057
-217.582	-42.628	0.133	0.067
-216.567	-200.000	0.006	0.152
-215.552	-83.764	0.171	-0.054
-214.538	-200.000	-0.051	-0.285
-213.523	159.518	0.078	-0.108
-212.509	189.943	0.078	-0.115
-211.494	-101.723	-0.216	0.052
-210.479	800.000	0.058	-0.199
-209.465	-122.140	0.272	0.044
-208.450	39.007	0.111	-0.098
-207.436	-45.139	0.324	0.159
-206.421	257.249	0.095	-0.161
-205.406	-163.572	0.333	0.016
-204.392	-39.099	-0.151	0.078
-203.377	-14.735	-0.241	0.153
-202.363	764.362	-0.066	-0.177
-201.348	-163.399	-0.211	0.010
-200.333	86.457	0.076	0.083
-199.319	194.891	-0.191	-0.286
-198.304	102.799	-0.143	-0.165
-197.290	-138.343	0.243	0.027
-196.275	-39.120	0.292	0.152
-195.260	-140.982	0.220	0.022
-194.246	-51.007	-0.240	-0.111
-193.231	800.000	-0.053	-0.162
-192.217	45.508	0.226	0.206
-191.202	-116.291	0.409	-0.075
-190.187	324.709	-0.119	0.225
-189.173	77.712	-0.080	0.084
-188.158	69.020	-0.067	0.068
-187.144	104.995	-0.083	-0.097
-186.129	-42.817	-0.264	-0.132
-185.114	577.192	-0.170	0.411
-184.100	65.964	-0.301	0.301
-183.085	579.527	-0.091	-0.221
-182.071	-127.803	-0.070	-0.010
-181.056	-17.059	-0.233	-0.145
-180.042	45.675	0.087	0.079
-179.027	-79.140	-0.209	0.070
-178.012	354.700	-0.048	-0.094
-176.998	65.284	0.159	0.158
-175.983	55.118	0.541	-0.516
-174.969	-121.060	0.352	0.058
-173.954	219.813	-0.106	0.168
-172.939	193.728	0.100	-0.149
-171.925	-70.588	0.155	0.058
-170.910	-81.360	-0.095	0.031
-169.896	-200.000	-0.093	0.462
-168.881	-89.027	-0.061	-0.018
-167.866	40.829	0.200	0.178
-166.852	294.588	-0.162	0.292
-165.837	431.852	-0.075	0.161
-164.823	142.913	0.306	0.401
-163.808	-73.942	0.233	0.083
-162.793	-58.613	-0.034	0.015
-161.779	211.214	0.133	0.206
-160.764	49.120	0.226	-0.210
-159.750	-200.000	0.007	0.257
-158.735	224.954	-0.070	-0.111
-157.720	-169.299	0.126	-0.005
-156.706	460.755	-0.162	-0.357
-155.691	-138.086	-0.169	-0.019
-154.677	-200.000	0.046	0.211
-153.662	558.888	0.055	0.130
-152.647	198.555	-0.151	-0.228
-151.633	98.146	-0.057	0.064
-150.618	-200.000	0.117	0.000
-149.604	91.864	0.166	-0.184
-148.589	294.982	0.030	-0.054
-147.574	-51.344	0.422	0.195
-146.560	-66.555	-0.450	0.176
-145.545	26.411	0.038	0.031
-144.531	-184.861	0.191	-0.003
-143.516	-176.945	-0.124	-0.003
-142.502	89.431	0.136	0.150
-141.487	-64.242	0.056	0.022
-140.472	-117.007	-0.129	0.023
-139.458	800.000	-0.087	-0.333
-138.443	800.000	0.126	0.354
-137.429	-200.000	0.016	0.109
-136.414	-144.824	-0.208	0.019
-135.399	-60.079	0.486	0.204
-134.385	-200.000	0.005	0.198
-133.370	-200.000	0.020	0.214
-132.356	40.546	0.194	-0.172
-131.341	-14.595	-0.193	-0.122
-130.326	-98.580	-0.368	-0.093
-129.312	-61.011	0.366	0.152
-128.297	146.386	-0.027	-0.036
-127.283	-20.305	-0.079	0.048
-126.268	800.000	-0.084	-0.359
-125.253	-200.000	-0.011	0.319
-124.239	24.281	0.194	0.158
-123.224	-16.083	0.239	0.149
-122.210	-154.088	-0.014	-0.001
-121.195	339.427	0.057	0.109
-120.180	-12.742	0.223	0.143
