DTS Sentinel unit serial number:	SN413079Multiplexer serial number:	ORYXHardware model number:	OX4-SRSoftware version number:	ORYX F/W v4.00 Oryx Data Collector v3.7.2.0data status	okinstallation	princeton_trtdifferential loss correction	single-endedforward channel	channel 1reverse channel	N/Adate	2019/09/18time	09:54:35forward acquisition time	60.00reverse acquisition time	0.00gamma	496.2192k internal	0.2331k external	0.2331temperature offset calibration	0.9974default loss term (dB/km)	0.3790temperature slope calibration	1.0000multiplexer offset coefficient	1.0000multiplexer slope coefficient	1.0000fibre end	0.00T internal ref (°C)	27.25T ext. ref 1 (°C)	0.31T ext. ref 2 (°C)	24.01length (m)	temperature (°C)	Stokes	anti-Stokes-747.200	-93.109	-0.189	0.053
-746.185	-200.000	-0.036	0.255
-745.171	-10.348	-0.249	0.166
-744.156	-69.178	-0.228	0.088
-743.142	-184.336	-0.283	-0.005
-742.127	800.000	0.076	0.245
-741.112	800.000	-0.057	0.220
-740.098	32.363	-0.115	-0.100
-739.083	-200.000	-0.038	0.189
-738.069	254.365	0.164	0.282
-737.054	-40.035	0.100	-0.052
-736.039	-200.000	0.076	0.430
-735.025	-200.000	0.005	0.234
-734.010	-200.000	0.020	0.183
-732.996	334.130	-0.070	0.135
-731.981	-75.994	-0.122	0.044
-730.966	-157.265	0.035	-0.002
-729.952	-200.000	0.001	-0.027
-728.937	62.907	-0.249	0.251
-727.923	379.907	-0.077	-0.158
-726.908	-30.389	-0.188	0.107
-725.894	-27.279	-0.211	0.124
-724.879	-63.594	-0.281	0.116
-723.864	-139.979	0.104	0.011
-722.850	-158.866	0.224	0.013
-721.835	-73.139	0.081	-0.030
-720.821	-114.602	-0.064	-0.012
-719.806	-13.945	-0.096	0.062
-718.791	-52.288	0.078	-0.036
-717.777	157.901	0.091	-0.127
-716.762	-79.565	-0.254	-0.086
-715.748	-126.643	0.176	-0.026
-714.733	208.325	0.107	0.168
-713.718	-124.703	0.346	0.054
-712.704	-200.000	0.086	-0.416
-711.689	-40.296	0.161	0.084
-710.675	-200.000	0.005	0.061
-709.660	497.696	0.175	0.404
-708.645	-94.095	-0.056	-0.016
-707.631	225.983	0.044	-0.073
-706.616	-7.206	-0.151	-0.103
-705.602	-117.907	0.159	0.029
-704.587	-200.000	-0.006	0.131
-703.572	-41.430	-0.165	-0.085
-702.558	104.566	0.042	-0.049
-701.543	118.577	0.142	0.176
-700.529	800.000	-0.066	0.220
-699.514	-200.000	-0.009	-0.131
-698.499	-14.839	0.207	-0.133
-697.485	-200.000	-0.034	-0.323
-696.470	-102.316	-0.355	0.086
-695.456	-200.000	0.027	-0.149
-694.441	-88.712	-0.228	-0.068
-693.426	415.207	-0.042	0.090
-692.412	0.916	-0.325	0.234
-691.397	-200.000	0.049	0.237
-690.383	39.648	0.291	-0.262
-689.368	-200.000	0.068	-0.325
-688.354	182.620	0.175	0.260
-687.339	86.592	0.100	0.111
-686.324	-45.759	-0.265	-0.132
-685.310	613.055	-0.061	0.153
-684.295	22.330	-0.088	0.072
-683.281	-109.635	-0.230	0.049
-682.266	115.987	0.096	-0.118
-681.251	52.442	-0.159	0.152
-680.237	-27.956	0.187	0.109
-679.222	72.485	-0.160	0.168
-678.208	-0.543	0.248	-0.177
-677.193	800.000	-0.043	-0.131
-676.178	38.489	-0.089	-0.079
-675.164	-79.533	0.231	0.078
-674.149	-1.700	0.070	-0.049
-673.135	-28.903	0.300	0.173
-672.120	-137.229	-0.209	-0.024
-671.105	-72.358	0.415	0.154
-670.091	61.791	0.131	0.131
-669.076	800.000	-0.038	0.118
-668.062	78.525	-0.103	-0.111
-667.047	-191.991	-0.092	0.001
-666.032	9.552	0.012	-0.009
-665.018	-1.951	-0.302	-0.213
-664.003	466.423	0.065	-0.147
-662.989	-52.996	0.117	-0.054
-661.974	215.609	-0.179	-0.285
-660.959	-69.174	-0.080	0.031
-659.945	-90.023	-0.249	0.073
-658.930	-190.325	-0.338	0.004
-657.916	-85.632	0.187	-0.058
-656.901	-125.936	0.201	-0.030
-655.886	-200.000	0.037	-0.245
-654.872	-88.956	0.209	0.062
-653.857	-200.000	-0.009	0.159
-652.843	-200.000	-0.018	-0.230
-651.828	118.673	0.089	0.110
-650.814	61.014	-0.212	-0.211
-649.799	-200.000	-0.042	-0.344
-648.784	294.032	0.132	0.241
-647.770	555.892	-0.124	0.300
-646.755	800.000	-0.017	0.060
-645.741	-20.256	0.227	0.140
-644.726	-2.683	0.130	-0.091
-643.711	-46.204	-0.293	0.144
-642.697	198.528	0.189	0.290
-641.682	-39.302	0.116	0.061
-640.668	82.044	-0.057	-0.062
-639.653	655.157	0.040	-0.102
-638.638	245.446	0.177	0.299
-637.624	228.100	0.080	0.131
-636.609	-200.000	-0.008	-0.307
-635.595	-82.977	0.465	0.150
-634.580	-43.037	-0.183	-0.093
-633.565	800.000	-0.105	0.313
-632.551	61.597	0.294	-0.293
-631.536	-149.512	-0.246	-0.020
-630.522	-119.760	-0.383	-0.066
-629.507	-26.023	0.236	-0.139
-628.492	-49.997	0.207	0.098
-627.478	800.000	0.054	-0.219
-626.463	800.000	0.063	0.274
-625.449	-99.920	0.140	-0.035
-624.434	-110.183	0.311	0.065
-623.419	-52.612	0.085	0.039
-622.405	5.777	0.132	0.098
-621.390	-147.926	0.026	0.002
-620.376	-200.000	-0.022	-0.275
-619.361	67.796	-0.251	-0.257
-618.346	-200.000	-0.037	-0.215
-617.332	15.840	0.128	0.101
-616.317	800.000	0.097	0.349
-615.303	-85.060	0.067	0.021
-614.288	800.000	-0.043	0.175
-613.273	-3.858	0.373	-0.259
-612.259	-200.000	0.017	-0.241
-611.244	230.257	0.147	-0.240
-610.230	-117.537	-0.090	-0.016
-609.215	306.983	0.101	0.188
-608.201	-103.377	0.173	0.041
-607.186	-13.981	-0.165	-0.106
-606.171	800.000	0.014	-0.042
-605.157	19.916	-0.384	-0.310
-604.142	28.786	-0.129	0.110
-603.128	39.404	0.104	0.093
-602.113	27.499	-0.104	-0.088
-601.098	147.583	-0.233	0.314
-600.084	-19.932	0.138	-0.085
-599.069	-189.594	0.096	-0.001
-598.055	261.379	0.027	-0.046
-597.040	691.281	0.050	0.131
-596.025	19.218	-0.299	0.240
-595.011	302.952	0.103	-0.192
-593.996	-57.778	0.066	0.029
-592.982	-68.085	0.161	-0.063
-591.967	15.711	-0.055	-0.043
-590.952	624.268	-0.144	0.363
-589.938	-111.498	0.297	0.060
-588.923	-200.000	0.014	-0.168
-587.909	117.202	-0.214	0.263
-586.894	-69.972	-0.320	-0.122
-585.879	268.927	0.147	0.257
-584.865	61.462	-0.387	0.385
-583.850	-158.566	0.350	0.020
-582.836	800.000	-0.086	0.244
-581.821	-200.000	-0.001	0.011
-580.806	-200.000	-0.017	0.283
-579.792	111.229	0.113	0.137
-578.777	-200.000	0.013	0.176
-577.763	139.010	0.163	0.214
-576.748	-200.000	0.010	0.127
-575.733	-146.501	0.210	0.018
-574.719	-200.000	-0.013	0.095
-573.704	-118.044	-0.298	-0.053
-572.690	-79.179	-0.386	-0.131
-571.675	-52.633	-0.201	-0.093
-570.661	142.441	0.224	-0.297
-569.646	95.822	0.225	0.257
-568.631	800.000	-0.033	-0.093
-567.617	133.286	0.089	0.115
-566.602	800.000	0.098	-0.277
-565.588	82.769	-0.219	0.238
-564.573	-186.434	-0.389	-0.006
-563.558	133.993	-0.118	-0.152
-562.544	-97.614	-0.454	0.118
-561.529	238.774	0.046	0.076
-560.515	-79.771	0.137	0.046
-559.500	69.334	-0.102	0.105
-558.485	-6.860	0.227	-0.154
-557.471	-200.000	-0.051	-0.470
-556.456	800.000	-0.031	0.117
-555.442	99.291	0.123	-0.142
-554.427	131.077	0.215	0.276
-553.412	-200.000	0.081	-0.361
-552.398	-200.000	0.058	-0.360
-551.383	268.816	-0.190	-0.332
-550.369	227.524	-0.125	-0.203
-549.354	387.380	-0.098	-0.202
-548.339	93.896	0.067	-0.076
-547.325	-24.700	-0.112	-0.066
-546.310	25.655	0.216	0.179
-545.296	415.448	-0.085	0.181
-544.281	160.304	-0.134	-0.187
-543.266	-52.698	-0.348	-0.160
-542.252	255.872	-0.062	0.107
-541.237	67.811	0.039	-0.040
-540.223	-200.000	-0.007	0.336
-539.208	800.000	-0.064	0.280
-538.193	-9.274	-0.197	0.132
-537.179	303.854	0.270	0.499
-536.164	-134.277	0.208	0.025
-535.150	-200.000	0.012	-0.189
-534.135	-100.481	0.075	-0.019
-533.121	348.417	-0.119	0.235
-532.106	118.331	0.232	0.286
-531.091	800.000	-0.098	-0.325
-530.077	679.588	0.047	0.123
-529.062	9.103	0.130	-0.098
-528.048	800.000	-0.102	0.294
-527.033	-106.712	0.227	0.050
-526.018	17.773	0.231	0.184
-525.004	-89.692	-0.145	0.042
-523.989	-51.556	0.128	-0.060
-522.975	345.884	-0.074	0.145
-521.960	47.591	-0.179	0.167
-520.945	800.000	0.093	0.277
-519.931	143.286	-0.099	0.132
-518.916	518.867	0.096	0.225
-517.902	387.083	0.052	0.108
-516.887	207.013	-0.041	0.063
-515.872	-117.146	-0.260	0.047
-514.858	-111.118	0.446	0.091
-513.843	230.554	-0.073	-0.119
-512.829	-161.994	0.207	0.010
-511.814	-25.684	-0.179	0.105
-510.799	-200.000	-0.002	0.197
-509.785	23.385	0.345	0.283
-508.770	70.982	0.074	0.076
-507.756	106.396	0.030	-0.035
-506.741	25.803	-0.132	0.110
-505.726	22.459	-0.290	0.237
-504.712	-200.000	-0.001	-0.371
-503.697	211.570	0.041	-0.064
-502.683	58.951	-0.264	0.259
-501.668	-127.567	0.391	-0.057
-500.653	-31.533	0.068	-0.038
-499.639	-200.000	-0.060	-0.378
-498.624	678.303	-0.096	-0.249
-497.610	-67.335	0.053	-0.021
-496.595	-129.202	0.275	0.038
-495.581	-82.403	-0.388	0.126
-494.566	287.927	-0.055	-0.100
-493.551	-51.599	0.244	0.114
-492.537	251.606	0.101	-0.172
-491.522	-45.575	-0.035	0.017
-490.508	32.456	0.279	0.241
-489.493	536.606	0.114	-0.270
-488.478	40.724	-0.100	0.090
-487.464	279.605	-0.055	0.098
-486.449	-200.000	-0.164	0.001
-485.435	-112.063	-0.070	-0.014
-484.420	339.545	-0.034	0.066
-483.405	201.434	-0.202	-0.310
-482.391	38.463	0.075	-0.067
-481.376	-140.453	0.230	-0.024
-480.362	720.193	-0.207	-0.548
-479.347	-72.410	-0.178	-0.066
-478.332	-200.000	0.006	-0.188
-477.318	-188.559	-0.030	0.000
-476.303	-27.374	0.061	0.036
-475.289	-68.091	-0.247	-0.096
-474.274	-49.312	0.086	-0.041
-473.259	131.016	-0.065	0.083
-472.245	800.000	0.017	-0.072
-471.230	800.000	0.069	0.192
-470.216	-37.777	0.190	-0.101
-469.201	-200.000	-0.039	0.183
-468.186	65.541	0.047	-0.047
-467.172	660.302	0.098	-0.252
-466.157	800.000	-0.040	0.158
-465.143	116.579	-0.153	-0.187
-464.128	483.075	-0.195	-0.440
-463.113	-200.000	-0.015	0.083
-462.099	106.704	0.182	0.215
-461.084	-200.000	-0.005	0.075
-460.070	-118.526	0.275	-0.048
-459.055	88.897	-0.202	-0.224
-458.040	-86.278	0.135	0.041
-457.026	88.116	0.095	0.105
-456.011	-73.247	-0.213	-0.078
-454.997	158.595	0.161	-0.222
-453.982	172.884	-0.184	0.264
-452.968	314.753	0.069	-0.130
-451.953	122.896	0.162	-0.202
-450.938	-39.826	0.128	-0.066
-449.924	430.998	0.061	-0.130
-448.909	19.410	-0.063	-0.051
-447.895	800.000	0.046	0.151
-446.880	-200.000	0.026	-0.123
-445.865	103.250	-0.098	0.114
-444.851	42.649	0.089	0.080
-443.836	152.589	-0.149	0.202
-442.822	-146.373	-0.105	0.009
-441.807	-68.251	0.381	-0.147
-440.792	485.456	-0.068	-0.154
-439.778	-69.395	-0.136	0.052
-438.763	226.707	0.082	0.133
-437.749	42.596	0.134	-0.121
-436.734	-200.000	0.008	0.197
-435.719	-128.206	0.016	-0.002
-434.705	173.475	0.206	0.296
-433.690	28.569	0.081	0.068
-432.676	-200.000	0.041	-0.316
-431.661	-104.198	-0.171	0.040
-430.646	-4.761	0.082	-0.056
-429.632	-111.057	-0.315	-0.064
-428.617	336.811	-0.077	0.149
-427.603	51.628	-0.170	-0.161
-426.588	153.235	0.178	0.242
-425.573	177.055	0.143	0.206
-424.559	93.932	0.192	0.217
-423.544	-96.323	0.221	-0.058
-422.530	-13.449	-0.238	-0.153
-421.515	39.641	0.338	-0.301
-420.500	-140.142	-0.142	0.015
-419.486	-113.795	-0.038	0.007
-418.471	-200.000	0.002	-0.048
-417.457	-200.000	0.011	0.159
-416.442	47.678	0.156	0.145
-415.428	136.768	0.133	-0.173
-414.413	-142.842	-0.251	-0.024
-413.398	-200.000	-0.002	0.132
-412.384	273.764	0.223	0.392
-411.369	26.968	0.210	0.175
-410.355	-200.000	0.037	-0.240
-409.340	-89.130	-0.241	0.071
-408.325	511.637	0.031	-0.072
-407.311	-200.000	0.009	-0.099
-406.296	800.000	-0.051	0.153
-405.282	-110.948	0.350	0.071
-404.267	800.000	0.016	0.068
-403.252	-141.080	0.211	0.021
-402.238	-72.450	0.144	0.053
-401.223	-200.000	0.029	0.273
-400.209	-77.644	0.107	-0.037
-399.194	800.000	0.043	0.163
-398.179	-63.233	-0.152	0.062
-397.165	-24.769	0.241	0.142
-396.150	-200.000	0.003	-0.042
-395.136	486.116	-0.099	0.223
-394.121	335.771	0.109	0.209
-393.106	-96.035	0.194	0.051
-392.092	77.006	0.111	-0.117
-391.077	-200.000	0.012	-0.304
-390.063	167.206	0.200	-0.282
-389.048	-200.000	0.035	-0.482
-388.033	-0.050	0.205	-0.145
-387.019	-200.000	-0.049	-0.268
-386.004	800.000	-0.072	-0.243
-384.990	75.412	0.212	-0.222
-383.975	-200.000	0.014	-0.146
-382.960	-18.602	0.176	-0.109
-381.946	132.233	0.120	-0.154
-380.931	13.281	-0.218	0.167
-379.917	387.556	-0.214	0.438
-378.902	205.735	0.055	-0.085
-377.888	-140.728	-0.047	0.005
-376.873	-120.121	-0.395	-0.067
-375.858	-102.218	-0.252	-0.060
-374.844	94.890	-0.077	0.086
-373.829	-6.227	0.137	-0.093
-372.815	800.000	0.023	-0.073
-371.800	-10.691	0.234	0.153
-370.785	120.312	-0.220	0.271
-369.771	-140.372	-0.306	-0.032
-368.756	-48.584	-0.288	0.137
-367.742	380.220	0.136	-0.277
-366.727	594.407	-0.020	-0.050
-365.712	177.677	0.316	-0.457
-364.698	553.031	-0.071	-0.170
-363.683	55.474	-0.258	0.248
-362.669	91.366	0.150	0.167
-361.654	-200.000	0.035	-0.443
-360.639	-157.400	0.194	0.012
-359.625	-26.522	-0.127	0.074
-358.610	17.733	-0.109	-0.086
-357.596	162.845	-0.138	-0.192
-356.581	-200.000	-0.023	0.323
-355.566	-200.000	-0.036	0.472
-354.552	-200.000	-0.042	-0.219
-353.537	-115.504	-0.169	0.032
-352.523	-94.751	-0.104	0.028
-351.508	373.087	-0.149	-0.300
-350.493	800.000	0.023	0.089
-349.479	243.621	-0.223	0.371
-348.464	-90.531	0.357	0.103
-347.450	-97.762	0.099	0.025
-346.435	-79.087	-0.315	-0.106
-345.420	732.392	-0.051	0.135
-344.406	-200.000	0.030	-0.156
-343.391	-200.000	0.024	0.187
-342.377	-156.373	-0.496	0.031
-341.362	-200.000	0.000	-0.123
-340.348	-181.733	0.047	-0.001
-339.333	237.463	0.134	0.220
-338.318	-106.029	-0.142	-0.032
-337.304	120.756	-0.177	-0.218
-336.289	18.277	-0.195	-0.154
-335.275	303.341	0.065	0.120
-334.260	-97.308	-0.369	0.095
-333.245	-200.000	-0.029	-0.182
-332.231	-200.000	-0.022	-0.285
-331.216	800.000	0.051	-0.195
-330.202	34.456	0.106	0.092
-329.187	642.358	0.071	-0.178
-328.172	5.713	-0.110	0.080
-327.158	800.000	0.081	-0.309
-326.143	-72.269	0.263	-0.097
-325.129	-9.480	-0.206	0.136
-324.114	-111.706	-0.281	-0.056
-323.099	262.773	0.133	0.229
-322.085	-67.422	-0.109	0.042
-321.070	43.879	-0.044	0.040
-320.056	-200.000	-0.021	0.214
-319.041	-200.000	0.001	0.109
-318.026	-151.744	-0.363	-0.026
-317.012	800.000	-0.106	0.299
-315.997	800.000	-0.070	0.209
-314.983	-81.837	-0.284	-0.092
-313.968	405.439	0.084	-0.174
-312.953	800.000	-0.076	-0.292
-311.939	-23.635	-0.114	-0.068
-310.924	0.576	-0.156	0.111
-309.910	-108.386	-0.306	0.065
-308.895	123.483	-0.141	-0.176
-307.880	-30.125	0.227	-0.128
-306.866	800.000	0.039	-0.108
-305.851	109.286	-0.068	-0.081
-304.837	-123.245	-0.207	-0.033
-303.822	-21.706	-0.283	0.171
-302.807	115.378	0.086	-0.104
-301.793	-33.061	-0.284	0.156
-300.778	-68.080	-0.227	0.088
-299.764	-126.586	-0.308	-0.045
-298.749	800.000	-0.137	-0.443
-297.735	-5.972	0.237	0.160
-296.720	-165.043	-0.245	0.011
-295.705	-56.702	0.140	-0.061
-294.691	-11.307	0.363	0.236
-293.676	594.264	0.123	-0.301
-292.662	662.528	-0.034	-0.086
-291.647	-162.238	-0.226	0.011
-290.632	-131.481	0.122	0.016
-289.618	122.594	0.025	-0.031
-288.603	14.246	0.268	-0.206
-287.589	429.189	0.068	-0.146
-286.574	281.562	0.007	0.012
-285.559	-200.000	-0.014	-0.105
-284.545	-42.713	0.235	0.118
-283.530	-156.118	-0.419	0.026
-282.516	63.116	-0.101	-0.100
-281.501	-100.424	0.345	-0.084
-280.486	-104.241	-0.085	0.020
-279.472	73.277	-0.212	-0.219
-278.457	37.892	-0.277	0.243
-277.443	-63.195	0.065	0.026
-276.428	157.449	-0.050	-0.069
-275.413	-7.820	-0.231	-0.154
-274.399	-16.198	-0.165	0.104
-273.384	800.000	0.077	0.237
-272.370	121.054	0.121	-0.149
-271.355	-46.211	-0.310	-0.151
-270.340	75.351	0.405	-0.422
-269.326	-150.980	-0.096	-0.007
-268.311	1.484	0.178	-0.127
-267.297	800.000	-0.066	-0.211
-266.282	-102.816	0.047	-0.011
-265.267	141.051	0.025	0.033
-264.253	-167.201	0.091	-0.004
-263.238	6.803	-0.266	0.196
-262.224	-113.461	0.176	0.034
-261.209	-121.869	-0.183	0.030
-260.195	-200.000	-0.008	0.048
-259.180	800.000	0.107	0.300
-258.165	-21.688	0.342	0.206
-257.151	195.102	0.218	0.328
-256.136	70.055	-0.127	0.129
-255.122	-24.478	-0.254	0.149
-254.107	-0.193	0.094	-0.066
-253.092	-200.000	0.025	0.350
-252.078	32.794	0.040	-0.034
-251.063	800.000	-0.049	0.190
-250.049	-67.819	-0.067	-0.026
-249.034	-200.000	-0.014	0.319
-248.019	-63.491	0.135	-0.055
-247.005	-63.951	0.227	-0.092
-245.990	-200.000	-0.019	0.465
-244.976	-31.798	0.302	-0.167
-243.961	-89.731	-0.216	0.062
-242.946	-140.168	-0.145	-0.015
-241.932	117.065	0.298	0.362
-240.917	-164.431	0.350	0.016
-239.903	-10.678	0.131	-0.085
-238.888	-200.000	-0.017	-0.353
-237.873	265.704	-0.119	-0.205
-236.859	-200.000	-0.030	-0.217
-235.844	253.546	0.072	0.121
-234.830	-87.875	0.097	0.029
-233.815	-79.897	-0.194	-0.064
-232.800	259.626	-0.068	-0.115
-231.786	800.000	-0.078	-0.248
-230.771	-138.063	-0.273	0.030
-229.757	46.472	0.251	-0.230
-228.742	-142.531	-0.275	0.027
-227.727	474.570	-0.086	0.191
-226.713	-1.442	-0.290	-0.201
-225.698	800.000	0.166	-0.494
-224.684	343.015	0.006	0.012
-223.669	-66.250	-0.084	0.033
-222.655	-114.257	0.133	-0.025
-221.640	0.567	-0.134	0.095
-220.625	30.419	0.124	0.105
-219.611	55.775	-0.160	-0.153
-218.596	188.630	0.238	0.351
-217.582	23.159	-0.047	0.038
-216.567	-120.786	-0.211	0.035
-215.552	81.778	-0.155	0.166
-214.538	260.828	-0.043	0.074
-213.523	630.521	0.129	-0.321
-212.509	-200.000	0.010	-0.157
-211.494	-122.407	-0.275	-0.044
-210.479	226.898	-0.235	-0.377
-209.465	-129.795	-0.092	0.012
-208.450	128.573	0.114	-0.143
-207.436	-121.304	-0.272	0.045
-206.421	-151.695	-0.223	0.016
-205.406	18.852	0.337	-0.266
-204.392	-22.272	-0.193	0.115
-203.377	-27.245	0.056	-0.032
-202.363	-109.447	0.414	0.086
-201.348	544.028	-0.092	0.217
-200.333	52.428	0.305	0.287
-199.319	-20.325	0.227	-0.138
-198.304	657.424	-0.052	0.133
-197.290	-140.266	0.142	-0.015
-196.275	40.113	0.451	0.400
-195.260	-14.146	0.010	0.006
-194.246	459.105	-0.064	-0.141
-193.231	-70.176	0.119	0.045
-192.217	-8.799	0.095	0.063
-191.202	-200.000	-0.054	0.407
-190.187	267.924	-0.185	-0.320
-189.173	102.170	-0.061	-0.070
-188.158	-105.212	-0.219	0.049
-187.144	-200.000	0.002	0.445
-186.129	-60.686	-0.064	0.027
-185.114	51.159	-0.257	0.240
-184.100	164.886	-0.127	-0.176
-183.085	-200.000	0.044	-0.413
-182.071	-64.070	0.140	0.056
-181.056	-200.000	0.032	0.272
-180.042	-104.962	0.293	-0.066
-179.027	-49.830	-0.124	-0.058
-178.012	109.922	0.194	0.229
-176.998	130.414	0.083	-0.105
-175.983	15.555	0.257	-0.199
-174.969	123.880	-0.078	-0.097
-173.954	-58.849	0.193	-0.082
-172.939	-37.937	-0.199	-0.104
-171.925	-200.000	-0.010	-0.111
-170.910	-25.976	0.261	0.151
-169.896	-160.761	-0.339	-0.018
-168.881	-119.068	0.134	-0.023
-167.866	-200.000	-0.026	-0.164
-166.852	93.547	-0.293	-0.327
-165.837	-200.000	0.008	-0.248
-164.823	140.659	-0.287	-0.373
-163.808	800.000	0.011	-0.041
-162.793	-39.556	0.180	-0.093
-161.779	39.376	0.076	-0.067
-160.764	-136.904	0.332	0.038
-159.750	-121.990	0.164	-0.027
-158.735	104.945	-0.207	0.240
-157.720	-172.225	0.070	-0.002
-156.706	-142.864	0.141	0.013
-155.691	800.000	-0.053	0.149
-154.677	-102.829	0.141	-0.033
-153.662	-200.000	0.018	-0.288
-152.647	-56.513	0.223	0.097
-151.633	-40.963	-0.082	-0.042
-150.618	105.402	0.097	-0.113
-149.604	-89.187	-0.416	-0.121
-148.589	-161.139	0.314	0.016
-147.574	-61.598	0.178	0.074
-146.560	-200.000	-0.042	0.386
-145.545	103.173	-0.170	-0.196
-144.531	242.983	-0.104	0.172
-143.516	84.883	-0.277	0.299
-142.502	618.843	0.068	-0.167
-141.487	375.936	0.139	0.280
-140.472	-39.805	0.256	-0.132
-139.458	27.798	0.120	0.099
-138.443	11.456	0.116	0.087
-137.429	-165.533	-0.305	-0.013
-136.414	-17.120	-0.129	0.080
-135.399	243.003	-0.059	0.097
-134.385	-14.813	-0.298	0.188
-133.370	-129.952	-0.200	0.027
-132.356	232.309	-0.042	0.067
-131.341	71.531	0.214	0.218
-130.326	-40.782	0.210	-0.107
-129.312	132.292	0.155	-0.197
-128.297	88.709	0.108	-0.118
-127.283	-200.000	-0.021	-0.367
-126.268	-137.998	0.044	0.005
-125.253	-200.000	0.024	0.104
-124.239	386.567	-0.058	0.118
-123.224	-58.937	0.118	-0.050
-122.210	-200.000	0.006	-0.210
-121.195	800.000	-0.077	0.279
-120.180	-88.705	0.163	-0.047
