DTS Sentinel unit serial number:	SN413079Multiplexer serial number:	ORYXHardware model number:	OX4-SRSoftware version number:	ORYX F/W v4.00 Oryx Data Collector v3.7.2.0data status	okinstallation	princeton_trtdifferential loss correction	single-endedforward channel	channel 1reverse channel	N/Adate	2019/09/12time	07:48:11forward acquisition time	60.00reverse acquisition time	0.00gamma	496.2192k internal	0.2315k external	0.2315temperature offset calibration	1.0039default loss term (dB/km)	0.3790temperature slope calibration	1.0000multiplexer offset coefficient	1.0000multiplexer slope coefficient	1.0000fibre end	0.00T internal ref (°C)	32.83T ext. ref 1 (°C)	1.63T ext. ref 2 (°C)	28.86length (m)	temperature (°C)	Stokes	anti-Stokes-747.200	-114.381	-0.420	0.082
-746.185	-135.065	0.133	0.016
-745.171	-132.388	0.411	0.054
-744.156	-141.439	-0.337	-0.035
-743.142	-200.000	0.031	-0.512
-742.127	-24.212	-0.043	-0.026
-741.112	-200.000	-0.019	-0.201
-740.098	-200.000	-0.025	0.383
-739.083	10.229	0.066	0.051
-738.069	-30.286	-0.275	-0.158
-737.054	-86.101	-0.517	0.162
-736.039	89.716	0.196	-0.222
-735.025	767.769	0.050	-0.138
-734.010	-200.000	0.010	0.159
-732.996	-30.828	0.194	0.111
-731.981	289.933	-0.115	0.211
-730.966	800.000	-0.055	-0.172
-729.952	-23.881	-0.321	-0.194
-728.937	267.778	-0.105	0.186
-727.923	-163.880	-0.281	0.013
-726.908	536.296	0.030	0.071
-725.894	-200.000	-0.058	-0.358
-724.879	-123.892	-0.408	-0.065
-723.864	-23.445	-0.142	-0.086
-722.850	586.910	-0.102	-0.254
-721.835	491.094	-0.044	0.101
-720.821	-140.106	-0.320	-0.034
-719.806	800.000	-0.059	-0.250
-718.791	-200.000	0.001	-0.050
-717.777	276.768	0.194	0.350
-716.762	163.585	-0.100	-0.142
-715.748	-60.813	0.186	-0.080
-714.733	-40.964	-0.372	-0.195
-713.718	21.241	0.122	-0.101
-712.704	204.505	-0.167	-0.261
-711.689	800.000	-0.047	-0.134
-710.675	419.934	0.157	-0.339
-709.660	-140.646	0.083	-0.009
-708.645	-200.000	-0.036	0.249
-707.631	-169.344	-0.214	0.008
-706.616	137.380	0.257	-0.340
-705.602	800.000	-0.074	-0.241
-704.587	-66.406	-0.092	0.037
-703.572	-117.171	-0.224	0.041
-702.558	100.056	0.171	-0.201
-701.543	-200.000	-0.013	-0.297
-700.529	5.187	-0.158	-0.118
-699.514	-200.000	-0.001	-0.276
-698.499	-200.000	0.001	0.007
-697.485	800.000	-0.068	0.300
-696.470	-200.000	0.071	0.323
-695.456	-62.910	0.207	0.087
-694.441	-200.000	-0.007	0.183
-693.426	-200.000	-0.001	0.263
-692.412	800.000	0.065	-0.184
-691.397	-53.648	-0.178	-0.082
-690.383	-103.436	-0.139	0.033
-689.368	41.713	0.028	-0.026
-688.354	62.277	0.250	-0.252
-687.339	60.593	-0.260	0.261
-686.324	-31.451	-0.078	0.044
-685.310	-200.000	-0.029	-0.253
-684.295	21.175	0.206	0.169
-683.281	800.000	0.020	-0.080
-682.266	5.247	0.074	0.055
-681.251	85.128	0.104	-0.115
-680.237	-112.796	-0.128	0.026
-679.222	187.052	0.134	0.202
-678.208	-200.000	-0.015	0.248
-677.193	252.243	-0.109	-0.188
-676.178	-64.924	-0.075	0.030
-675.164	-90.948	-0.237	0.069
-674.149	-24.744	-0.188	0.113
-673.135	41.304	0.144	0.132
-672.120	137.215	-0.273	-0.361
-671.105	-41.789	0.462	0.239
-670.091	22.100	0.134	0.110
-669.076	-98.722	0.420	0.108
-668.062	17.600	-0.163	0.131
-667.047	-178.455	0.181	0.004
-666.032	-124.440	-0.280	-0.044
-665.018	-200.000	-0.039	-0.244
-664.003	-75.112	0.072	0.026
-662.989	26.479	0.029	0.025
-661.974	368.220	0.063	0.128
-660.959	-25.248	-0.203	-0.121
-659.945	190.316	-0.056	0.085
-658.930	627.959	0.026	-0.066
-657.916	-200.000	0.034	-0.232
-656.901	-122.680	-0.569	0.093
-655.886	26.463	-0.108	-0.092
-654.872	-35.933	-0.028	-0.015
-653.857	-200.000	-0.031	0.221
-652.843	-15.971	-0.362	0.233
-651.828	256.987	0.073	0.127
-650.814	91.304	0.056	-0.063
-649.799	351.819	0.283	-0.566
-648.784	-143.438	-0.388	-0.037
-647.770	65.522	-0.037	0.038
-646.755	-80.699	0.331	-0.111
-645.741	133.975	-0.041	0.054
-644.726	-200.000	0.006	0.365
-643.711	40.480	-0.123	0.112
-642.697	800.000	0.176	0.499
-641.682	-10.583	0.123	0.082
-640.668	-200.000	0.025	-0.122
-639.653	95.471	0.246	-0.284
-638.638	208.245	0.064	0.101
-637.624	-63.512	-0.232	-0.096
-636.609	12.757	-0.063	0.049
-635.595	-200.000	-0.043	-0.315
-634.580	86.814	0.263	-0.293
-633.565	21.222	0.162	-0.133
-632.551	-32.950	-0.414	0.232
-631.536	7.338	-0.188	-0.141
-630.522	-129.757	-0.353	0.049
-629.507	33.413	0.229	-0.201
-628.492	115.897	0.066	0.081
-627.478	555.734	-0.115	0.280
-626.463	-37.562	0.093	-0.050
-625.449	-38.156	-0.494	0.264
-624.434	4.132	0.197	0.145
-623.419	495.478	-0.068	0.156
-622.405	-44.914	-0.314	0.158
-621.390	107.147	0.198	0.237
-620.376	-200.000	-0.025	-0.293
-619.361	25.747	0.151	0.126
-618.346	-128.734	-0.162	-0.023
-617.332	-138.418	-0.313	0.035
-616.317	-120.690	-0.348	-0.059
-615.303	512.002	-0.059	-0.138
-614.288	-15.272	-0.195	0.126
-613.273	800.000	0.077	-0.225
-612.259	288.355	-0.030	0.055
-611.244	-64.736	-0.165	-0.068
-610.230	67.075	0.065	-0.067
-609.215	194.873	-0.245	-0.374
-608.201	-64.216	-0.263	-0.108
-607.186	171.552	-0.013	0.018
-606.171	-50.489	-0.250	0.119
-605.157	-1.776	0.130	0.093
-604.142	229.724	0.092	0.151
-603.128	-53.860	-0.040	0.018
-602.113	-55.341	0.137	-0.062
-601.098	-5.170	0.157	0.109
-600.084	372.856	0.027	0.056
-599.069	46.792	0.136	0.127
-598.055	30.778	-0.222	0.191
-597.040	-200.000	-0.003	-0.064
-596.025	-200.000	-0.017	0.180
-595.011	-97.186	-0.209	0.055
-593.996	-200.000	0.013	0.216
-592.982	-151.942	0.460	-0.034
-591.967	56.355	0.083	0.082
-590.952	92.785	0.090	0.103
-589.938	722.513	0.153	-0.411
-588.923	-153.832	0.063	-0.004
-587.909	66.997	0.182	-0.187
-586.894	331.149	-0.141	-0.274
-585.879	448.475	0.129	-0.287
-584.865	524.601	0.068	0.162
-583.850	-125.721	-0.365	-0.056
-582.836	-200.000	-0.024	-0.109
-581.821	-69.464	-0.315	0.122
-580.806	800.000	-0.086	-0.244
-579.792	173.431	0.073	0.106
-578.777	-200.000	-0.010	-0.222
-577.763	-89.022	0.087	-0.026
-576.748	-175.516	-0.062	-0.002
-575.733	23.425	-0.247	0.205
-574.719	-69.075	0.223	0.086
-573.704	12.045	0.166	-0.129
-572.690	800.000	-0.058	0.186
-571.675	-136.567	0.138	0.016
-570.661	-200.000	-0.021	0.352
-569.646	-62.041	-0.240	-0.101
-568.631	291.097	0.067	-0.122
-567.617	-53.579	0.164	0.076
-566.602	-200.000	0.003	-0.223
-565.588	-30.889	-0.141	-0.080
-564.573	-200.000	-0.037	0.302
-563.558	-32.178	0.034	-0.019
-562.544	-49.576	-0.234	0.112
-561.529	-105.941	0.119	0.027
-560.515	249.853	-0.117	0.199
-559.500	-200.000	-0.053	-0.241
-558.485	-200.000	0.013	-0.150
-557.471	-155.473	-0.263	-0.017
-556.456	429.491	0.085	-0.185
-555.442	-200.000	0.062	0.349
-554.427	-200.000	0.106	0.608
-553.412	-45.086	-0.285	-0.142
-552.398	356.185	0.121	-0.242
-551.383	-200.000	0.011	-0.083
-550.369	-12.195	-0.333	-0.219
-549.354	279.278	-0.178	-0.320
-548.339	-88.564	-0.146	0.044
-547.325	42.228	0.259	-0.237
-546.310	-200.000	0.005	0.142
-545.296	42.847	0.102	0.094
-544.281	800.000	0.069	0.277
-543.266	800.000	-0.108	-0.344
-542.252	26.071	-0.062	-0.052
-541.237	183.297	0.168	-0.250
-540.223	-200.000	-0.028	0.179
-539.208	-200.000	-0.031	0.312
-538.193	-200.000	0.062	-0.286
-537.179	-38.314	0.339	0.180
-536.164	-1.046	-0.263	0.187
-535.150	-45.184	-0.070	0.035
-534.135	151.598	-0.142	-0.194
-533.121	52.936	-0.116	0.111
-532.106	360.821	0.031	0.061
-531.091	-165.880	-0.284	0.012
-530.077	-200.000	0.061	-0.383
-529.062	-123.836	0.493	0.078
-528.048	8.267	-0.108	-0.081
-527.033	130.393	0.312	-0.401
-526.018	-47.985	-0.037	0.018
-525.004	-200.000	0.000	0.032
-523.989	-56.133	0.241	-0.108
-522.975	-187.185	0.060	0.001
-521.960	-50.488	0.177	-0.084
-520.945	-80.274	-0.058	0.020
-519.931	-200.000	0.013	-0.302
-518.916	-123.734	0.214	0.034
-517.902	321.533	-0.082	0.157
-516.887	-114.800	0.080	0.015
-515.872	736.131	-0.047	-0.127
-514.858	67.633	-0.217	0.222
-513.843	800.000	-0.067	-0.278
-512.829	-111.946	0.269	0.055
-511.814	-84.686	-0.274	-0.087
-510.799	113.824	0.055	0.067
-509.785	264.566	-0.089	-0.156
-508.770	-60.001	-0.127	-0.055
-507.756	505.570	0.084	-0.196
-506.741	-200.000	-0.061	0.418
-505.726	-94.231	-0.181	-0.050
-504.712	800.000	-0.017	0.066
-503.697	68.519	0.104	0.107
-502.683	-200.000	-0.001	-0.181
-501.668	58.887	-0.119	0.117
-500.653	-68.847	0.273	-0.106
-499.639	-200.000	0.000	0.140
-498.624	-50.863	-0.296	0.140
-497.610	52.226	0.188	-0.180
-496.595	-200.000	-0.005	-0.367
-495.581	800.000	-0.074	-0.210
-494.566	-200.000	0.007	-0.267
-493.551	36.242	0.034	0.030
-492.537	-200.000	0.002	0.225
-491.522	144.111	0.129	-0.172
-490.508	-182.841	0.144	0.003
-489.493	58.003	-0.183	-0.180
-488.478	2.387	-0.314	-0.228
-487.464	-100.870	0.165	0.041
-486.449	109.853	-0.136	0.164
-485.435	-177.238	-0.330	-0.008
-484.420	106.020	-0.237	-0.282
-483.405	800.000	0.021	-0.064
-482.391	-200.000	-0.008	-0.229
-481.376	164.272	0.180	0.254
-480.362	-197.418	-0.199	-0.001
-479.347	-200.000	0.006	-0.227
-478.332	-86.591	0.119	0.037
-477.318	10.784	-0.199	-0.152
-476.303	-200.000	0.040	-0.225
-475.289	800.000	-0.072	0.217
-474.274	115.301	0.163	-0.200
-473.259	-200.000	-0.012	0.148
-472.245	-103.293	0.249	-0.059
-471.230	41.226	0.127	-0.115
-470.216	800.000	0.059	-0.188
-469.201	64.500	0.222	-0.224
-468.186	47.462	-0.064	-0.060
-467.172	-38.226	-0.400	-0.212
-466.157	-96.602	0.243	-0.064
-465.143	110.177	-0.089	-0.107
-464.128	602.782	0.074	0.185
-463.113	800.000	0.095	0.297
-462.099	-44.805	0.098	0.049
-461.084	-16.748	-0.290	0.184
-460.070	-200.000	0.012	-0.202
-459.055	-200.000	-0.034	0.149
-458.040	-11.006	0.408	-0.270
-457.026	800.000	0.125	0.541
-456.011	-108.194	-0.117	-0.025
-454.997	-200.000	0.012	0.246
-453.982	-10.915	-0.226	0.149
-452.968	-37.483	-0.293	-0.157
-451.953	-136.293	0.030	-0.003
-450.938	800.000	0.024	-0.088
-449.924	98.524	-0.280	0.324
-448.909	-82.775	-0.114	-0.037
-447.895	-200.000	0.031	-0.188
-446.880	715.802	0.036	0.095
-445.865	471.441	-0.024	0.054
-444.851	-200.000	-0.054	0.291
-443.836	800.000	0.028	0.122
-442.822	-170.715	0.243	0.008
-441.807	-200.000	-0.008	-0.035
-440.792	-122.577	-0.161	0.026
-439.778	181.067	0.100	-0.147
-438.763	58.728	-0.160	0.157
-437.749	89.039	-0.115	0.128
-436.734	45.829	-0.125	0.116
-435.719	-131.766	0.088	0.012
-434.705	-200.000	0.026	-0.135
-433.690	-8.807	-0.048	0.032
-432.676	-106.517	-0.140	0.031
-431.661	112.322	-0.147	0.178
-430.646	2.939	0.102	0.074
-429.632	-48.611	-0.145	-0.070
-428.617	38.248	-0.354	0.315
-427.603	-112.722	0.202	-0.040
-426.588	-200.000	0.026	0.309
-425.573	50.670	0.149	0.141
-424.559	274.322	-0.140	-0.248
-423.544	-89.828	-0.021	0.006
-422.530	800.000	0.067	-0.259
-421.515	135.851	-0.237	-0.309
-420.500	-73.143	0.278	-0.102
-419.486	518.218	-0.067	-0.158
-418.471	-200.000	0.000	0.008
-417.457	-7.687	-0.109	-0.074
-416.442	-159.283	0.115	0.006
-415.428	65.059	0.084	-0.085
-414.413	128.392	-0.158	0.202
-413.398	194.741	0.087	-0.132
-412.384	187.539	0.109	0.163
-411.369	683.434	0.147	0.383
-410.355	40.819	0.209	0.188
-409.340	-200.000	-0.027	-0.450
-408.325	800.000	-0.107	-0.298
-407.311	390.220	-0.112	-0.233
-406.296	-24.187	-0.340	-0.203
-405.282	2.988	-0.164	-0.119
-404.267	-115.727	0.190	0.036
-403.252	800.000	0.065	0.278
-402.238	27.065	0.134	0.112
-401.223	-200.000	-0.024	-0.116
-400.209	194.054	0.230	0.349
-399.194	91.364	-0.142	0.160
-398.179	-200.000	-0.028	0.230
-397.165	-200.000	0.024	-0.222
-396.150	136.425	0.251	-0.328
-395.136	800.000	-0.095	0.323
-394.121	800.000	0.047	-0.162
-393.106	-99.479	-0.295	-0.074
-392.092	-40.914	0.110	0.057
-391.077	-200.000	-0.025	0.126
-390.063	167.612	-0.041	-0.059
-389.048	543.617	-0.064	-0.152
-388.033	-200.000	-0.008	-0.127
-387.019	-200.000	-0.026	-0.196
-386.004	173.072	-0.257	0.371
-384.990	800.000	-0.055	0.172
-383.975	86.239	0.194	0.214
-382.960	299.172	-0.178	0.328
-381.946	464.686	0.028	-0.062
-380.931	-29.307	0.186	0.106
-379.917	-10.307	-0.193	0.128
-378.902	800.000	-0.087	0.275
-377.888	791.444	-0.082	-0.226
-376.873	38.104	0.153	-0.136
-375.858	100.432	0.171	0.198
-374.844	-180.571	0.329	0.007
-373.829	800.000	-0.053	0.191
-372.815	-200.000	-0.013	0.064
-371.800	-104.195	0.108	-0.025
-370.785	520.441	-0.022	-0.052
-369.771	-47.266	0.060	-0.029
-368.756	-83.534	-0.193	0.062
-367.742	-200.000	-0.049	-0.218
-366.727	-200.000	0.011	0.197
-365.712	-78.299	-0.381	0.131
-364.698	-146.390	-0.256	-0.022
-363.683	256.386	-0.091	-0.156
-362.669	11.247	-0.398	-0.304
-361.654	-136.301	0.411	0.048
-360.639	82.088	0.111	0.120
-359.625	800.000	0.042	0.119
-358.610	-200.000	-0.022	0.288
-357.596	248.100	0.180	0.304
-356.581	16.773	0.071	0.056
-355.566	-53.748	-0.165	0.075
-354.552	-107.638	-0.121	0.026
-353.537	6.797	-0.100	0.074
-352.523	-120.169	0.394	-0.067
-351.508	-167.120	0.207	0.008
-350.493	-200.000	0.018	0.192
-349.479	-115.548	-0.062	-0.012
-348.464	-200.000	-0.034	-0.195
-347.450	-64.122	0.188	0.077
-346.435	62.409	-0.173	-0.173
-345.420	-156.970	0.178	-0.011
-344.406	-14.883	-0.055	0.035
-343.391	169.194	-0.064	-0.090
-342.377	44.611	-0.165	-0.151
-341.362	-133.173	0.104	-0.013
-340.348	-99.262	-0.189	0.048
-339.333	-31.604	-0.119	-0.067
-338.318	-74.453	0.221	-0.080
-337.304	-16.501	-0.232	-0.146
-336.289	-200.000	0.019	0.297
-335.275	143.855	-0.211	0.281
-334.260	114.129	-0.180	0.218
-333.245	64.098	-0.203	0.204
-332.231	186.419	-0.116	0.172
-331.216	-120.058	-0.265	0.045
-330.202	-61.242	0.239	0.100
-329.187	26.075	0.230	-0.191
-328.172	-68.065	0.315	0.122
-327.158	-39.815	-0.088	-0.046
-326.143	251.174	-0.249	-0.422
-325.129	256.553	-0.153	0.261
-324.114	-200.000	-0.002	0.086
-323.099	93.285	-0.114	-0.129
-322.085	-112.720	0.337	-0.067
-321.070	-200.000	-0.018	0.125
-320.056	800.000	0.030	-0.111
-319.041	-108.202	-0.310	-0.067
-318.026	218.486	0.203	-0.323
-317.012	-200.000	0.031	0.379
-315.997	105.554	0.169	0.199
-314.983	544.278	-0.017	-0.040
-313.968	-200.000	-0.005	0.129
-312.953	-84.782	-0.271	-0.085
-311.939	-200.000	-0.044	-0.308
-310.924	-200.000	-0.044	-0.240
-309.910	13.404	-0.201	-0.155
-308.895	52.076	0.086	-0.082
-307.880	748.595	-0.081	0.219
-306.866	5.246	0.326	-0.240
-305.851	-200.000	-0.002	-0.124
-304.837	-200.000	-0.015	-0.247
-303.822	51.698	-0.203	0.192
-302.807	-102.673	0.111	-0.026
-301.793	109.209	0.126	-0.150
-300.778	-134.355	-0.164	-0.020
-299.764	321.526	0.080	-0.152
-298.749	-192.855	-0.057	-0.001
-297.735	578.825	0.033	0.079
-296.720	-147.763	-0.149	0.012
-295.705	-200.000	-0.015	0.084
-294.691	-133.619	0.173	-0.022
-293.676	-59.147	0.087	-0.037
-292.662	800.000	0.197	-0.560
-291.647	80.805	0.121	-0.130
-290.632	-75.380	-0.341	-0.121
-289.618	-177.314	-0.088	0.002
-288.603	-149.987	-0.261	-0.020
-287.589	-200.000	-0.018	0.164
-286.574	-200.000	0.015	-0.090
-285.559	-76.426	-0.212	-0.074
-284.545	1.292	0.168	0.120
-283.530	246.388	0.140	0.235
-282.516	800.000	-0.023	0.093
-281.501	-148.841	-0.082	0.007
-280.486	27.571	-0.240	0.201
-279.472	-200.000	-0.018	0.254
-278.457	774.966	0.094	0.255
-277.443	-82.712	-0.144	0.046
-276.428	-157.237	0.176	-0.011
-275.413	20.781	0.210	0.169
-274.399	-200.000	0.016	-0.169
-273.384	-97.597	0.169	0.044
-272.370	-200.000	-0.025	0.472
-271.355	-118.549	0.277	-0.049
-270.340	-23.027	0.220	0.132
-269.326	-34.167	0.033	-0.018
-268.311	-73.358	0.319	-0.116
-267.297	-71.404	-0.174	-0.065
-266.282	-200.000	0.022	0.310
-265.267	-200.000	-0.023	0.341
-264.253	18.181	0.107	-0.085
-263.238	-98.341	0.240	0.061
-262.224	129.169	0.094	-0.120
-261.209	-200.000	0.036	0.323
-260.195	-62.788	0.431	0.177
-259.180	800.000	-0.181	0.680
-258.165	-57.809	0.144	0.063
-257.151	-200.000	-0.008	-0.238
-256.136	520.911	-0.152	-0.354
-255.122	-200.000	0.052	0.277
-254.107	-52.008	-0.257	0.119
-253.092	-200.000	0.019	-0.361
-252.078	502.584	-0.197	0.452
-251.063	-200.000	-0.016	-0.140
-250.049	64.463	0.234	-0.234
-249.034	-200.000	-0.009	-0.269
-248.019	-22.572	0.404	0.243
-247.005	-200.000	0.006	0.238
-245.990	254.209	0.055	-0.094
-244.976	800.000	-0.113	-0.482
-243.961	-200.000	-0.014	-0.202
-242.946	268.446	0.099	0.173
-241.932	-200.000	0.008	-0.271
-240.917	-200.000	0.058	0.323
-239.903	599.147	-0.050	-0.122
-238.888	-56.294	-0.034	-0.015
-237.873	-131.934	-0.114	-0.015
-236.859	-79.140	0.268	0.090
-235.844	-24.977	-0.208	0.123
-234.830	7.299	0.145	0.107
-233.815	800.000	0.100	0.296
-232.800	-80.343	0.124	0.041
-231.786	180.055	-0.066	-0.097
-230.771	16.629	0.435	0.342
-229.757	-200.000	-0.042	0.189
-228.742	203.968	0.015	-0.023
-227.727	-46.732	0.150	0.073
-226.713	-200.000	-0.002	0.063
-225.698	473.490	0.092	-0.207
-224.684	-112.579	0.089	-0.018
-223.669	-100.134	0.166	0.041
-222.655	-99.460	0.320	-0.080
-221.640	800.000	0.044	0.148
-220.625	-84.130	0.163	-0.051
-219.611	107.879	0.137	-0.162
-218.596	-200.000	-0.024	-0.522
-217.582	-121.932	0.170	-0.028
-216.567	-129.954	-0.091	0.012
-215.552	-200.000	0.005	0.308
-214.538	4.808	0.177	-0.129
-213.523	527.066	-0.034	0.080
-212.509	-53.087	-0.191	-0.087
-211.494	484.586	0.093	0.209
-210.479	-110.829	0.043	0.009
-209.465	770.422	0.108	-0.292
-208.450	466.787	0.050	0.112
-207.436	67.132	0.188	0.191
-206.421	-82.355	-0.236	0.076
-205.406	373.928	-0.094	-0.190
-204.392	304.639	-0.146	0.269
-203.377	-61.446	-0.243	-0.101
-202.363	150.060	0.023	-0.031
-201.348	-53.808	0.196	-0.088
-200.333	-200.000	0.025	0.134
-199.319	-92.578	0.095	-0.026
-198.304	-111.070	-0.224	0.046
-197.290	800.000	-0.052	0.153
-196.275	12.094	-0.237	-0.181
-195.260	800.000	0.078	0.286
-194.246	-12.266	-0.307	-0.199
-193.231	-200.000	-0.012	0.151
-192.217	800.000	0.150	-0.561
-191.202	-68.133	0.306	0.118
-190.187	545.141	0.116	0.274
-189.173	629.025	-0.061	-0.152
-188.158	-40.884	-0.252	-0.129
-187.144	143.515	-0.069	-0.091
-186.129	-195.112	0.248	0.002
-185.114	-126.056	-0.299	-0.045
-184.100	143.796	0.176	0.233
-183.085	50.002	0.293	-0.274
-182.071	195.419	-0.057	-0.086
-181.056	-144.770	0.133	0.012
-180.042	-146.881	0.060	-0.005
-179.027	-132.336	0.204	-0.026
-178.012	-200.000	0.011	-0.553
-176.998	45.643	0.196	-0.180
-175.983	-200.000	-0.008	-0.094
-174.969	-144.323	-0.173	0.016
-173.954	800.000	-0.056	-0.161
-172.939	640.101	0.109	-0.276
-171.925	60.584	-0.073	0.072
-170.910	-200.000	0.039	0.206
-169.896	800.000	-0.054	-0.185
-168.881	-33.003	0.149	0.082
-167.866	-158.055	0.286	-0.017
-166.852	43.336	-0.209	0.189
-165.837	-151.234	0.373	0.028
-164.823	-200.000	0.008	-0.146
-163.808	159.614	-0.131	0.181
-162.793	-45.291	0.180	-0.089
-161.779	15.542	0.152	0.118
-160.764	89.267	0.331	-0.365
-159.750	151.638	-0.172	0.233
-158.735	296.852	-0.110	-0.200
-157.720	800.000	0.083	-0.258
-156.706	-200.000	-0.016	0.183
-155.691	-200.000	-0.031	0.263
-154.677	120.885	0.109	-0.134
-153.662	800.000	-0.010	0.040
-152.647	-66.968	-0.399	0.156
-151.633	-20.360	0.125	-0.076
-150.618	-128.582	0.150	0.021
-149.604	-72.221	0.236	-0.087
-148.589	115.492	-0.191	0.231
-147.574	-66.942	0.401	-0.157
-146.560	35.553	-0.191	0.166
-145.545	13.765	-0.188	0.145
-144.531	-84.825	-0.399	0.124
-143.516	-87.456	-0.100	0.030
-142.502	41.517	-0.414	0.371
-141.487	23.865	0.027	0.022
-140.472	-74.559	-0.227	-0.081
-139.458	-70.535	-0.385	0.144
-138.443	-200.000	0.033	0.359
-137.429	-164.759	-0.148	0.007
-136.414	-200.000	-0.028	0.286
-135.399	-4.072	0.185	-0.127
-134.385	127.093	0.186	0.233
-133.370	57.403	-0.225	-0.217
-132.356	-34.200	0.275	-0.149
-131.341	-200.000	0.119	0.558
-130.326	-141.803	-0.114	-0.011
-129.312	-200.000	0.035	-0.380
-128.297	-200.000	0.022	0.352
-127.283	-200.000	0.064	0.300
-126.268	227.709	0.145	0.233
-125.253	-86.965	0.203	0.061
-124.239	13.613	0.168	0.129
-123.224	800.000	0.075	-0.256
-122.210	197.303	0.169	-0.256
