DTS Sentinel unit serial number:	SN413079Multiplexer serial number:	ORYXHardware model number:	OX4-SRSoftware version number:	ORYX F/W v4.00 Oryx Data Collector v3.7.2.0data status	okinstallation	princeton_trtdifferential loss correction	single-endedforward channel	channel 1reverse channel	N/Adate	2019/09/19time	00:26:35forward acquisition time	60.00reverse acquisition time	0.00gamma	496.2192k internal	0.2342k external	0.2342temperature offset calibration	1.0022default loss term (dB/km)	0.3790temperature slope calibration	1.0000multiplexer offset coefficient	1.0000multiplexer slope coefficient	1.0000fibre end	0.00T internal ref (°C)	22.53T ext. ref 1 (°C)	0.73T ext. ref 2 (°C)	15.48length (m)	temperature (°C)	Stokes	anti-Stokes-747.200	-81.877	-0.368	0.121
-746.185	-200.000	-0.051	0.258
-745.171	-89.626	-0.339	0.100
-744.156	-76.044	0.104	-0.037
-743.142	-53.233	0.204	-0.094
-742.127	800.000	-0.084	-0.233
-741.112	-200.000	0.080	-0.461
-740.098	-86.547	-0.395	-0.121
-739.083	-112.686	-0.226	-0.045
-738.069	-107.964	-0.509	-0.111
-737.054	800.000	-0.072	-0.269
-736.039	-118.957	-0.251	-0.044
-735.025	-187.093	0.336	-0.005
-734.010	768.981	0.183	-0.499
-732.996	604.396	0.045	0.111
-731.981	-58.461	-0.330	-0.144
-730.966	-8.057	0.063	0.043
-729.952	-110.260	0.179	-0.037
-728.937	61.606	-0.050	-0.049
-727.923	-200.000	0.017	-0.096
-726.908	-158.852	0.294	-0.017
-725.894	-125.553	-0.178	-0.027
-724.879	0.641	-0.088	0.063
-723.864	34.834	0.190	0.166
-722.850	-137.570	-0.086	-0.010
-721.835	-142.892	0.141	-0.014
-720.821	-95.391	-0.212	-0.057
-719.806	-179.011	-0.354	0.008
-718.791	-62.772	-0.070	0.029
-717.777	800.000	0.043	0.129
-716.762	-103.783	-0.198	0.046
-715.748	100.682	0.143	-0.167
-714.733	256.766	0.148	-0.254
-713.718	-74.198	-0.369	0.134
-712.704	-159.099	0.084	-0.005
-711.689	-109.782	0.374	0.079
-710.675	-200.000	0.006	-0.269
-709.660	-77.976	-0.475	0.164
-708.645	-200.000	0.014	0.153
-707.631	71.621	0.140	-0.145
-706.616	-37.073	0.205	-0.110
-705.602	47.461	-0.151	0.141
-704.587	750.545	0.086	0.233
-703.572	-200.000	-0.038	-0.336
-702.558	115.359	0.079	-0.097
-701.543	-200.000	0.018	-0.087
-700.529	-63.994	-0.265	-0.108
-699.514	-85.670	-0.129	0.040
-698.499	-41.006	0.347	0.179
-697.485	-200.000	-0.019	0.223
-696.470	-64.078	-0.119	-0.049
-695.456	-114.805	-0.089	-0.017
-694.441	-200.000	-0.024	0.217
-693.426	-160.816	0.122	-0.006
-692.412	-18.538	-0.178	0.111
-691.397	515.296	0.051	0.120
-690.383	-200.000	0.022	0.117
-689.368	93.453	-0.117	0.132
-688.354	-116.452	-0.093	-0.017
-687.339	-200.000	-0.009	-0.234
-686.324	-119.516	0.382	-0.066
-685.310	-200.000	0.057	-0.258
-684.295	427.608	-0.250	-0.540
-683.281	114.786	0.277	0.338
-682.266	-135.710	-0.304	-0.036
-681.251	-122.067	0.157	0.026
-680.237	800.000	-0.021	-0.081
-679.222	-200.000	0.090	-0.430
-678.208	-200.000	0.006	-0.278
-677.193	-155.436	0.132	-0.009
-676.178	250.700	0.134	-0.227
-675.164	175.800	0.244	-0.353
-674.149	-4.286	-0.190	0.131
-673.135	1.428	-0.096	0.069
-672.120	-96.131	0.336	-0.089
-671.105	-45.352	-0.163	-0.081
-670.091	-200.000	-0.019	0.082
-669.076	-43.974	0.098	0.049
-668.062	-124.391	0.206	0.032
-667.047	29.232	0.168	-0.143
-666.032	-179.829	-0.422	-0.009
-665.018	-81.436	-0.288	-0.095
-664.003	-135.649	0.297	0.035
-662.989	115.111	-0.125	-0.152
-661.974	800.000	0.078	-0.291
-660.959	-103.776	0.191	0.045
-659.945	64.768	0.147	-0.148
-658.930	-200.000	0.028	-0.303
-657.916	218.587	-0.181	0.288
-656.901	-178.223	0.161	-0.004
-655.886	-200.000	0.002	0.166
-654.872	443.064	0.148	0.325
-653.857	576.466	0.108	-0.262
-652.843	-122.489	-0.216	0.035
-651.828	-10.681	0.166	-0.109
-650.814	-111.376	-0.171	-0.035
-649.799	-7.183	0.154	-0.104
-648.784	-138.518	0.071	-0.008
-647.770	9.554	0.125	0.095
-646.755	-131.367	-0.244	0.032
-645.741	-105.466	0.223	-0.051
-644.726	12.369	-0.267	0.205
-643.711	69.105	-0.265	-0.271
-642.697	157.489	0.079	-0.109
-641.682	632.719	0.052	0.131
-640.668	489.685	0.028	-0.064
-639.653	-200.000	-0.001	0.124
-638.638	-200.000	0.001	-0.037
-637.624	-200.000	0.091	-0.447
-636.609	-44.374	-0.111	-0.055
-635.595	-131.159	0.317	0.042
-634.580	800.000	-0.042	-0.116
-633.565	800.000	-0.081	0.245
-632.551	-79.340	-0.121	-0.041
-631.536	-66.144	0.349	0.139
-630.522	385.584	0.076	-0.156
-629.507	-126.131	-0.053	0.008
-628.492	-5.272	-0.252	0.172
-627.478	603.935	0.137	-0.340
-626.463	98.262	-0.268	0.308
-625.449	-61.076	-0.161	0.068
-624.434	22.840	0.245	0.200
-623.419	800.000	0.098	0.308
-622.405	-29.568	0.208	0.118
-621.390	751.943	-0.062	-0.167
-620.376	222.868	0.118	0.189
-619.361	-200.000	0.023	-0.275
-618.346	73.190	-0.231	-0.241
-617.332	-200.000	-0.063	0.353
-616.317	-200.000	-0.025	-0.316
-615.303	-56.888	-0.167	0.074
-614.288	445.443	-0.139	0.304
-613.273	-200.000	-0.342	0.000
-612.259	-200.000	0.018	-0.167
-611.244	130.731	0.327	0.417
-610.230	800.000	-0.050	0.205
-609.215	203.188	0.081	-0.124
-608.201	147.740	0.061	-0.083
-607.186	-122.940	-0.090	0.014
-606.171	-133.279	-0.230	-0.029
-605.157	-23.879	0.276	0.165
-604.142	541.427	-0.127	0.302
-603.128	-84.199	-0.199	-0.063
-602.113	-77.523	0.177	0.061
-601.098	-200.000	0.019	0.270
-600.084	-56.476	-0.137	0.061
-599.069	-200.000	0.006	0.232
-598.055	-82.526	-0.299	0.097
-597.040	0.822	0.082	0.059
-596.025	-80.804	-0.048	0.016
-595.011	454.618	-0.022	-0.048
-593.996	-200.000	-0.010	-0.043
-592.982	-27.938	0.120	0.069
-591.967	379.641	0.068	-0.138
-590.952	-179.494	-0.232	-0.005
-589.938	800.000	-0.078	0.311
-588.923	-15.069	-0.085	-0.054
-587.909	-52.898	0.429	-0.196
-586.894	-67.854	-0.215	-0.084
-585.879	98.020	0.207	0.237
-584.865	-200.000	0.040	-0.372
-583.850	81.046	-0.182	0.195
-582.836	-74.019	0.115	0.042
-581.821	487.276	0.102	-0.231
-580.806	409.348	0.020	-0.042
-579.792	34.407	0.160	-0.139
-578.777	245.155	0.137	-0.230
-577.763	66.795	-0.116	0.118
-576.748	-23.541	-0.131	0.078
-575.733	-88.255	-0.185	0.055
-574.719	21.685	0.247	-0.200
-573.704	-17.826	0.284	0.177
-572.690	-12.924	0.248	-0.160
-571.675	-100.331	0.107	0.026
-570.661	800.000	-0.069	-0.289
-569.646	-160.712	0.145	0.008
-568.631	-0.908	-0.365	0.257
-567.617	-200.000	0.057	0.269
-566.602	169.496	-0.133	0.189
-565.588	-200.000	-0.022	0.262
-564.573	225.305	0.169	0.272
-563.558	-200.000	-0.077	-0.394
-562.544	-85.535	-0.123	-0.038
-561.529	43.908	0.443	0.403
-560.515	-145.803	0.265	0.023
-559.500	-200.000	0.043	0.433
-558.485	-101.738	0.181	0.044
-557.471	-67.504	-0.285	-0.111
-556.456	-200.000	-0.055	-0.258
-555.442	-166.022	-0.097	0.004
-554.427	-110.838	-0.054	-0.011
-553.412	-200.000	0.027	-0.174
-552.398	-200.000	-0.029	-0.388
-551.383	-162.324	-0.325	-0.016
-550.369	-200.000	0.009	-0.049
-549.354	800.000	0.072	-0.279
-548.339	-200.000	-0.007	0.141
-547.325	-112.506	0.100	0.020
-546.310	-16.156	-0.199	-0.125
-545.296	-200.000	0.000	0.060
-544.281	113.038	0.158	-0.190
-543.266	13.305	-0.026	-0.020
-542.252	-107.197	0.253	-0.055
-541.237	-33.687	0.139	-0.076
-540.223	-200.000	-0.054	0.547
-539.208	-126.027	-0.256	0.038
-538.193	-50.145	0.240	-0.113
-537.179	26.020	0.236	0.196
-536.164	-117.114	-0.118	0.021
-535.150	-45.905	-0.082	-0.040
-534.135	800.000	0.097	0.281
-533.121	407.687	0.042	0.089
-532.106	-165.060	0.128	0.006
-531.091	800.000	-0.041	-0.146
-530.077	-46.687	-0.079	0.039
-529.062	-200.000	0.034	0.216
-528.048	177.148	0.054	0.078
-527.033	173.710	-0.098	-0.140
-526.018	553.050	0.044	0.106
-525.004	716.412	0.108	0.284
-523.989	-200.000	0.009	0.052
-522.975	-200.000	0.020	0.186
-521.960	-70.893	0.287	0.108
-520.945	349.312	-0.080	0.157
-519.931	794.793	0.075	-0.205
-518.916	234.966	-0.190	0.311
-517.902	27.079	-0.190	-0.158
-516.887	15.784	0.224	0.175
-515.872	165.614	0.060	0.085
-514.858	-55.550	-0.215	0.096
-513.843	-200.000	-0.001	0.238
-512.829	-36.659	0.306	-0.163
-511.814	-200.000	-0.017	-0.267
-510.799	-101.861	-0.257	-0.062
-509.785	-16.312	0.113	0.071
-508.770	-48.455	0.311	-0.149
-507.756	-176.859	-0.088	0.002
-506.741	26.516	-0.170	0.142
-505.726	-137.725	-0.175	0.019
-504.712	-36.179	-0.229	0.123
-503.697	11.723	-0.101	0.077
-502.683	48.500	0.300	-0.279
-501.668	-107.672	0.093	0.020
-500.653	-77.433	0.073	0.025
-499.639	537.107	0.097	0.227
-498.624	800.000	-0.039	0.126
-497.610	-49.629	-0.297	0.140
-496.595	-200.000	-0.009	-0.264
-495.581	-10.093	0.374	0.247
-494.566	-125.522	0.188	-0.028
-493.551	52.743	0.134	-0.127
-492.537	-64.750	-0.280	-0.113
-491.522	-200.000	0.010	-0.108
-490.508	16.955	-0.207	-0.162
-489.493	800.000	0.049	-0.148
-488.478	-118.181	-0.147	-0.026
-487.464	-200.000	0.002	-0.110
-486.449	-15.438	0.133	-0.084
-485.435	-46.911	-0.273	0.132
-484.420	3.898	0.094	0.068
-483.405	224.460	0.114	-0.183
-482.391	248.266	0.168	-0.282
-481.376	300.120	-0.066	-0.121
-480.362	331.568	0.116	-0.222
-479.347	251.957	-0.167	0.282
-478.332	-184.858	0.022	-0.000
-477.318	667.284	-0.067	0.171
-476.303	207.327	-0.037	0.057
-475.289	-15.585	-0.056	-0.035
-474.274	800.000	0.079	-0.266
-473.259	-200.000	-0.004	0.053
-472.245	-142.881	-0.231	0.022
-471.230	-200.000	0.011	0.145
-470.216	-61.108	0.095	0.040
-469.201	-200.000	0.035	0.232
-468.186	-50.306	0.271	0.127
-467.172	-200.000	-0.004	-0.120
-466.157	-200.000	0.087	-0.383
-465.143	70.218	-0.202	-0.207
-464.128	-77.674	0.173	0.059
-463.113	800.000	0.063	-0.219
-462.099	757.581	-0.072	-0.192
-461.084	132.128	-0.264	0.337
-460.070	-39.282	0.040	0.021
-459.055	-58.950	0.234	0.100
-458.040	-113.317	-0.186	-0.036
-457.026	-98.983	0.063	0.016
-456.011	-200.000	0.030	-0.185
-454.997	37.779	-0.112	0.098
-453.982	578.568	-0.049	-0.119
-452.968	-97.018	0.128	0.033
-451.953	269.906	0.088	0.153
-450.938	247.412	-0.127	0.212
-449.924	46.972	-0.364	-0.335
-448.909	-48.906	0.233	-0.111
-447.895	-200.000	0.069	-0.337
-446.880	-200.000	-0.035	-0.194
-445.865	57.360	0.102	0.099
-444.851	-144.395	-0.278	0.026
-443.836	375.964	0.168	-0.340
-442.822	-200.000	-0.009	-0.079
-441.807	636.185	0.053	0.133
-440.792	800.000	0.089	-0.283
-439.778	149.082	-0.132	-0.177
-438.763	-200.000	0.057	-0.329
-437.749	-140.920	-0.020	-0.002
-436.734	-24.682	-0.177	0.104
-435.719	74.559	-0.084	-0.087
-434.705	800.000	0.057	0.209
-433.690	3.163	0.228	0.164
-432.676	-200.000	-0.015	0.194
-431.661	118.295	-0.251	-0.307
-430.646	25.692	0.250	-0.206
-429.632	800.000	0.085	-0.237
-428.617	-200.000	-0.027	0.195
-427.603	705.999	-0.078	0.203
-426.588	-137.911	-0.366	-0.040
-425.573	800.000	-0.020	0.067
-424.559	-74.458	0.075	-0.027
-423.544	18.287	0.180	-0.142
-422.530	-104.113	-0.267	0.061
-421.515	-50.592	0.251	0.117
-420.500	-43.930	0.108	0.054
-419.486	-200.000	0.013	0.220
-418.471	800.000	0.038	0.137
-417.457	-36.499	0.147	-0.078
-416.442	8.281	0.081	-0.060
-415.428	-6.715	0.261	0.175
-414.413	-130.760	-0.256	-0.034
-413.398	477.954	-0.180	-0.402
-412.384	-200.000	-0.005	-0.045
-411.369	-102.386	-0.251	-0.059
-410.355	-50.432	-0.146	0.068
-409.340	485.665	-0.135	-0.304
-408.325	578.847	-0.016	-0.039
-407.311	124.361	0.034	-0.042
-406.296	-200.000	0.034	-0.373
-405.282	306.155	-0.128	0.235
-404.267	-85.396	-0.150	0.046
-403.252	158.557	-0.238	-0.326
-402.238	-51.806	-0.327	-0.150
-401.223	314.659	-0.131	0.245
-400.209	-200.000	0.029	-0.250
-399.194	351.471	0.146	-0.286
-398.179	-86.678	0.252	-0.076
-397.165	530.657	0.074	-0.173
-396.150	97.609	0.056	-0.064
-395.136	800.000	-0.059	-0.206
-394.121	-200.000	-0.076	-0.340
-393.106	69.066	-0.117	0.119
-392.092	218.434	-0.046	0.072
-391.077	12.847	-0.159	-0.121
-390.063	225.050	0.084	-0.135
-389.048	-113.492	-0.142	0.027
-388.033	-200.000	-0.014	-0.084
-387.019	-200.000	0.033	-0.153
-386.004	451.859	-0.099	0.215
-384.990	254.893	0.175	-0.297
-383.975	267.664	0.060	0.104
-382.960	-200.000	0.016	0.086
-381.946	-100.020	-0.406	0.100
-380.931	-8.203	-0.200	-0.133
-379.917	-154.721	-0.227	0.015
-378.902	-9.043	-0.042	-0.028
-377.888	150.086	0.175	0.235
-376.873	-90.454	-0.347	-0.099
-375.858	-56.638	-0.297	0.130
-374.844	-0.656	0.248	-0.174
-373.829	-38.236	0.212	-0.111
-372.815	-200.000	-0.021	0.374
-371.800	-35.174	-0.077	-0.041
-370.785	66.123	-0.091	0.092
-369.771	133.859	0.084	0.107
-368.756	-64.563	-0.166	-0.066
-367.742	225.875	0.198	0.317
-366.727	-200.000	0.054	0.267
-365.712	800.000	0.048	-0.193
-364.698	-200.000	-0.047	-0.469
-363.683	323.882	-0.121	-0.227
-362.669	-176.777	-0.063	0.002
-361.654	128.724	0.205	0.258
-360.639	800.000	0.063	-0.201
-359.625	445.005	-0.114	-0.246
-358.610	145.537	-0.104	-0.138
-357.596	-162.977	-0.292	0.014
-356.581	-35.243	0.351	0.188
-355.566	240.111	0.023	-0.037
-354.552	-7.265	-0.194	0.130
-353.537	6.594	0.301	0.221
-352.523	-192.380	-0.486	-0.005
-351.508	292.061	-0.190	-0.342
-350.493	-94.295	0.024	-0.007
-349.479	800.000	-0.017	0.051
-348.464	11.046	-0.095	-0.072
-347.450	-200.000	0.023	-0.110
-346.435	800.000	0.030	0.113
-345.420	-60.175	-0.304	0.128
-344.406	65.817	0.065	-0.065
-343.391	-101.690	-0.042	-0.010
-342.377	-81.442	0.282	-0.092
-341.362	-200.000	-0.005	0.137
-340.348	212.521	-0.264	0.410
-339.333	800.000	-0.041	0.135
-338.318	-200.000	0.013	-0.074
-337.304	-200.000	-0.021	-0.094
-336.289	-57.616	0.204	-0.088
-335.275	-200.000	-0.011	-0.278
-334.260	-108.808	-0.190	0.040
-333.245	-35.351	-0.090	0.048
-332.231	66.890	-0.287	0.288
-331.216	183.642	0.176	0.257
-330.202	-16.805	-0.056	-0.035
-329.187	-200.000	-0.025	0.134
-328.172	-72.703	0.178	0.065
-327.158	-77.312	0.156	-0.053
-326.143	-154.733	0.153	-0.010
-325.129	114.676	0.134	-0.161
-324.114	736.526	-0.110	-0.290
-323.099	-163.142	0.247	-0.012
-322.085	29.617	0.272	0.228
-321.070	-200.000	-0.035	-0.288
-320.056	402.288	-0.051	-0.107
-319.041	-115.218	0.122	-0.023
-318.026	19.531	0.091	0.072
-317.012	149.143	-0.150	0.200
-315.997	126.330	-0.109	0.135
-314.983	208.138	-0.119	0.183
-313.968	-167.632	-0.033	0.001
-312.953	59.168	-0.011	-0.011
-311.939	-36.387	0.352	-0.187
-310.924	800.000	-0.121	0.450
-309.910	-200.000	-0.004	0.025
-308.895	63.876	-0.077	-0.076
-307.880	-114.234	0.157	-0.030
-306.866	-127.149	0.274	0.040
-305.851	25.150	0.254	-0.208
-304.837	64.249	-0.074	0.073
-303.822	-25.368	0.248	-0.145
-302.807	166.348	0.039	-0.054
-301.793	690.427	-0.078	0.200
-300.778	-60.387	0.161	0.067
-299.764	-200.000	-0.044	0.197
-298.749	-134.523	0.282	-0.034
-297.735	138.291	-0.087	-0.112
-296.720	-85.224	0.208	0.064
-295.705	-200.000	0.010	0.186
-294.691	48.936	-0.129	-0.120
-293.676	-38.685	0.416	-0.216
-292.662	-200.000	0.049	0.295
-291.647	13.320	-0.085	-0.065
-290.632	16.987	0.272	0.212
-289.618	245.199	-0.094	0.155
-288.603	384.257	-0.124	0.251
-287.589	133.006	-0.130	-0.165
-286.574	800.000	-0.105	0.290
-285.559	-92.210	0.274	-0.076
-284.545	371.649	-0.168	-0.336
-283.530	60.518	-0.156	-0.152
-282.516	800.000	-0.106	0.328
-281.501	-89.008	-0.292	0.085
-280.486	80.573	-0.262	-0.278
-279.472	562.787	-0.135	-0.322
-278.457	-81.368	0.242	0.078
-277.443	394.962	0.030	-0.062
-276.428	-200.000	0.002	-0.030
-275.413	-64.127	-0.095	-0.038
-274.399	-128.157	-0.330	0.046
-273.384	-31.719	0.136	0.075
-272.370	160.906	0.073	-0.100
-271.355	-200.000	0.017	-0.150
-270.340	-86.759	-0.160	-0.048
-269.326	-200.000	0.012	-0.230
-268.311	544.527	-0.069	0.163
-267.297	-143.743	0.489	0.046
-266.282	-105.176	-0.307	0.069
-265.267	-9.846	-0.164	0.107
-264.253	-200.000	-0.033	-0.204
-263.238	461.671	0.158	-0.347
-262.224	-200.000	-0.022	-0.167
-261.209	90.695	-0.165	0.181
-260.195	120.350	0.134	0.163
-259.180	-65.899	-0.345	-0.135
-258.165	-7.441	0.201	-0.134
-257.151	635.598	-0.019	-0.048
-256.136	93.966	-0.140	-0.156
-255.122	-105.663	-0.135	-0.030
-254.107	800.000	-0.037	0.139
-253.092	83.616	0.381	0.408
-252.078	-200.000	0.012	0.072
-251.063	467.228	-0.035	-0.077
-250.049	-55.209	-0.113	0.050
-249.034	67.094	0.231	0.231
-248.019	800.000	-0.051	0.185
-247.005	104.543	-0.097	-0.113
-245.990	-56.187	-0.278	-0.122
-244.976	-155.419	-0.235	0.015
-243.961	-177.575	0.049	0.001
-242.946	77.556	0.046	0.048
-241.932	-3.774	0.404	0.275
-240.917	-76.140	-0.154	-0.054
-239.903	800.000	-0.030	-0.117
-238.888	-200.000	-0.003	0.241
-237.873	81.494	0.142	-0.151
-236.859	-200.000	0.037	0.228
-235.844	-172.819	-0.097	0.003
-234.830	-12.393	0.150	-0.096
-233.815	-200.000	-0.031	-0.310
-232.800	-200.000	-0.023	-0.216
-231.786	66.596	0.067	-0.066
-230.771	48.944	-0.085	-0.079
-229.757	154.455	-0.189	0.255
-228.742	340.771	0.188	0.361
-227.727	-118.307	0.186	0.033
-226.713	175.907	-0.058	0.083
-225.698	-134.048	0.199	-0.024
-224.684	169.406	0.084	0.118
-223.669	800.000	-0.104	0.388
-222.655	214.321	0.196	-0.304
-221.640	35.461	0.136	-0.117
-220.625	119.890	0.183	0.223
-219.611	-200.000	-0.071	-0.372
-218.596	-200.000	-0.040	0.336
-217.582	52.392	0.153	-0.144
-216.567	477.611	0.042	0.092
-215.552	-115.216	-0.118	0.022
-214.538	10.727	-0.176	0.132
-213.523	207.488	0.076	0.117
-212.509	226.280	0.051	0.081
-211.494	-117.041	0.019	-0.003
-210.479	-200.000	-0.079	0.424
-209.465	-200.000	0.044	-0.248
-208.450	800.000	-0.094	-0.353
-207.436	-5.576	-0.116	0.078
-206.421	-140.397	-0.369	-0.038
-205.406	125.064	0.214	-0.265
-204.392	-29.103	-0.242	0.136
-203.377	-200.000	0.086	-0.458
-202.363	173.826	0.030	0.043
-201.348	800.000	-0.040	-0.131
-200.333	-91.772	0.500	-0.139
-199.319	-200.000	-0.034	-0.232
-198.304	453.478	-0.055	0.119
-197.290	-200.000	0.011	-0.083
-196.275	240.827	0.103	-0.168
-195.260	192.205	0.067	-0.099
-194.246	-46.455	-0.235	0.113
-193.231	93.548	-0.248	-0.275
-192.217	57.495	-0.032	-0.031
-191.202	-61.497	0.179	0.074
-190.187	800.000	-0.074	0.244
-189.173	280.583	-0.112	0.196
-188.158	-192.769	0.176	0.002
-187.144	-117.075	-0.062	-0.011
-186.129	33.988	-0.067	0.057
-185.114	33.600	-0.175	0.149
-184.100	-200.000	0.009	0.157
-183.085	344.119	0.037	-0.071
-182.071	413.444	-0.209	0.436
-181.056	411.528	0.036	0.076
-180.042	213.849	0.210	-0.326
-179.027	7.977	0.071	-0.052
-178.012	-68.888	0.270	0.102
-176.998	-200.000	-0.017	-0.178
-175.983	-109.297	0.243	-0.051
-174.969	-22.839	0.045	0.027
-173.954	331.603	0.154	0.291
-172.939	-121.193	0.264	0.043
-171.925	-57.254	-0.248	-0.107
-170.910	-69.918	0.041	0.015
-169.896	-191.180	-0.083	0.001
-168.881	180.834	-0.035	-0.050
-167.866	-200.000	-0.001	-0.018
-166.852	-104.807	-0.055	-0.012
-165.837	-134.915	0.189	0.022
-164.823	-65.182	0.189	0.075
-163.808	-200.000	0.028	0.166
-162.793	-138.088	-0.336	0.037
-161.779	-126.531	0.438	-0.064
-160.764	123.392	-0.187	-0.229
-159.750	-200.000	0.011	0.191
-158.735	-74.807	0.208	0.073
-157.720	242.949	-0.086	-0.140
-156.706	800.000	-0.071	0.206
-155.691	-47.669	0.152	0.072
-154.677	282.248	0.120	0.210
-153.662	-106.152	-0.228	-0.050
-152.647	-200.000	-0.037	-0.299
-151.633	-196.413	-0.075	-0.001
-150.618	-108.637	0.318	-0.067
-149.604	-45.299	0.125	-0.061
-148.589	-200.000	0.048	0.516
-147.574	602.370	0.144	-0.349
-146.560	-200.000	-0.027	0.283
-145.545	-110.490	-0.259	-0.052
-144.531	143.768	0.163	-0.213
-143.516	258.193	-0.160	-0.269
-142.502	800.000	-0.113	-0.325
-141.487	580.540	0.103	-0.246
-140.472	800.000	-0.075	-0.238
-139.458	69.326	0.109	-0.110
-138.443	-78.164	0.327	0.110
-137.429	-200.000	0.018	-0.208
-136.414	139.044	-0.138	-0.178
-135.399	-97.863	-0.139	0.035
-134.385	-200.000	-0.008	-0.122
-133.370	-43.385	0.149	0.074
-132.356	-14.835	0.171	0.107
-131.341	-17.056	0.165	0.102
-130.326	-74.833	0.377	0.132
-129.312	-5.539	0.162	0.109
-128.297	85.675	-0.079	0.085
-127.283	-160.335	0.077	-0.004
-126.268	-93.205	0.186	-0.051
-125.253	30.771	0.375	0.314
-124.239	-97.034	-0.316	-0.081
-123.224	-23.713	0.173	-0.101
