DTS Sentinel unit serial number:	SN413079Multiplexer serial number:	ORYXHardware model number:	OX4-SRSoftware version number:	ORYX F/W v4.00 Oryx Data Collector v3.7.2.0data status	okinstallation	princeton_trtdifferential loss correction	single-endedforward channel	channel 1reverse channel	N/Adate	2019/09/13time	13:34:35forward acquisition time	60.00reverse acquisition time	0.00gamma	496.2192k internal	0.2304k external	0.2304temperature offset calibration	1.0161default loss term (dB/km)	0.3790temperature slope calibration	1.0000multiplexer offset coefficient	1.0000multiplexer slope coefficient	1.0000fibre end	0.00T internal ref (°C)	35.06T ext. ref 1 (°C)	4.57T ext. ref 2 (°C)	31.23length (m)	temperature (°C)	Stokes	anti-Stokes-747.200	98.048	0.195	-0.229
-746.185	337.448	-0.145	0.286
-745.171	16.761	-0.144	0.116
-744.156	78.191	-0.063	0.068
-743.142	-200.000	0.009	-0.132
-742.127	0.382	0.249	-0.181
-741.112	-200.000	0.025	-0.157
-740.098	800.000	0.053	-0.150
-739.083	285.909	0.168	-0.309
-738.069	3.024	-0.073	-0.054
-737.054	14.278	0.262	-0.208
-736.039	-200.000	-0.004	0.194
-735.025	-104.284	0.493	0.116
-734.010	381.929	-0.123	0.257
-732.996	-152.904	-0.540	-0.039
-731.981	-135.764	-0.265	0.032
-730.966	800.000	-0.017	0.051
-729.952	800.000	-0.042	-0.173
-728.937	-150.739	0.251	0.019
-727.923	800.000	-0.072	-0.248
-726.908	25.051	-0.038	-0.032
-725.894	800.000	-0.047	-0.167
-724.879	800.000	0.057	-0.213
-723.864	-68.789	-0.483	-0.190
-722.850	-121.275	-0.169	-0.029
-721.835	1.590	0.048	0.035
-720.821	-8.480	-0.150	-0.102
-719.806	-129.161	-0.076	0.011
-718.791	-141.282	-0.159	0.016
-717.777	800.000	0.094	-0.361
-716.762	285.148	0.103	-0.189
-715.748	-200.000	-0.025	-0.345
-714.733	751.159	0.036	-0.100
-713.718	800.000	-0.092	-0.287
-712.704	-200.000	-0.036	-0.285
-711.689	-136.564	-0.236	0.028
-710.675	-200.000	0.014	-0.095
-709.660	-83.148	-0.189	-0.062
-708.645	-102.266	0.319	-0.078
-707.631	-200.000	-0.012	0.341
-706.616	-124.817	0.067	0.011
-705.602	-61.185	0.178	0.076
-704.587	800.000	-0.041	0.139
-703.572	-200.000	0.168	0.000
-702.558	-200.000	-0.012	-0.136
-701.543	104.372	-0.135	0.162
-700.529	-181.872	-0.375	-0.007
-699.514	238.081	0.125	-0.211
-698.499	-37.136	-0.251	-0.136
-697.485	-200.000	0.005	0.049
-696.470	-77.596	0.264	-0.093
-695.456	112.287	0.308	-0.379
-694.441	26.227	-0.038	-0.033
-693.426	-57.677	-0.034	-0.015
-692.412	-129.893	-0.246	-0.034
-691.397	-1.145	0.218	-0.157
-690.383	-200.000	-0.034	0.246
-689.368	-200.000	0.000	-0.151
-688.354	-121.846	-0.279	0.047
-687.339	48.396	0.177	-0.168
-686.324	42.930	0.094	-0.087
-685.310	-94.508	-0.216	-0.060
-684.295	-83.553	0.282	-0.092
-683.281	493.105	0.044	-0.101
-682.266	-200.000	-0.033	-0.162
-681.251	-63.708	0.321	-0.134
-680.237	66.796	0.076	-0.078
-679.222	-200.000	-0.009	-0.093
-678.208	-200.000	0.020	0.246
-677.193	201.332	-0.113	-0.177
-676.178	-200.000	0.016	-0.107
-675.164	-200.000	0.002	0.205
-674.149	775.068	-0.079	0.219
-673.135	703.427	-0.075	-0.200
-672.120	-35.537	0.170	0.093
-671.105	65.571	-0.078	0.081
-670.091	-58.038	0.124	0.055
-669.076	-40.253	-0.059	-0.031
-668.062	-26.747	0.098	0.058
-667.047	15.387	-0.121	0.097
-666.032	-64.078	0.034	-0.014
-665.018	-140.389	0.330	0.035
-664.003	-200.000	-0.007	-0.083
-662.989	-0.788	0.310	0.223
-661.974	-128.367	-0.167	0.024
-660.959	-142.684	0.145	-0.014
-659.945	800.000	-0.140	-0.429
-658.930	457.885	-0.076	0.172
-657.916	-74.551	0.400	0.146
-656.901	291.029	0.096	-0.178
-655.886	-2.702	-0.201	-0.143
-654.872	1.405	0.054	0.040
-653.857	189.177	-0.138	-0.210
-652.843	-22.684	-0.175	0.107
-651.828	-72.144	0.323	-0.122
-650.814	-54.746	0.165	0.076
-649.799	166.840	-0.134	0.193
-648.784	-159.058	-0.291	-0.017
-647.770	-200.000	-0.001	-0.105
-646.755	84.158	-0.175	-0.194
-645.741	646.783	0.183	-0.474
-644.726	-200.000	0.001	-0.133
-643.711	-22.487	-0.070	-0.043
-642.697	-170.417	0.283	-0.010
-641.682	81.005	0.058	-0.064
-640.668	365.463	-0.036	-0.074
-639.653	-200.000	-0.068	-0.307
-638.638	94.822	0.135	0.156
-637.624	20.577	-0.075	0.062
-636.609	-34.308	-0.226	-0.126
-635.595	-135.511	0.119	0.014
-634.580	800.000	0.128	0.457
-633.565	157.009	0.127	0.178
-632.551	111.215	0.196	-0.240
-631.536	46.718	-0.308	-0.290
-630.522	-200.000	-0.084	0.428
-629.507	-200.000	0.001	-0.232
-628.492	17.238	-0.165	-0.132
-627.478	-56.699	0.138	-0.062
-626.463	244.580	-0.122	0.208
-625.449	164.151	0.175	-0.250
-624.434	-145.746	0.287	-0.026
-623.419	74.968	0.200	-0.214
-622.405	87.608	0.069	-0.078
-621.390	-110.967	0.140	0.029
-620.376	422.588	-0.089	-0.194
-619.361	-200.000	-0.039	0.199
-618.346	-21.088	-0.313	0.194
-617.332	207.431	-0.075	-0.118
-616.317	-200.000	0.006	0.118
-615.303	19.623	-0.182	-0.149
-614.288	80.646	0.094	-0.103
-613.273	86.653	0.185	0.207
-612.259	-3.568	-0.081	-0.057
-611.244	800.000	-0.031	0.099
-610.230	99.344	-0.146	-0.172
-609.215	-194.847	-0.472	0.004
-608.201	-188.595	-0.208	-0.003
-607.186	-112.392	-0.297	-0.060
-606.171	154.374	0.120	-0.167
-605.157	50.205	-0.055	-0.053
-604.142	-197.941	-0.236	-0.001
-603.128	-200.000	-0.021	0.274
-602.113	-56.929	0.231	0.103
-601.098	222.402	0.128	-0.209
-600.084	47.525	-0.120	0.113
-599.069	-159.612	-0.286	0.016
-598.055	-200.000	0.024	0.170
-597.040	-77.468	0.248	0.087
-596.025	81.308	-0.041	-0.045
-595.011	256.117	0.049	-0.086
-593.996	-70.065	-0.430	-0.166
-592.982	-200.000	0.020	0.123
-591.967	-130.129	-0.272	-0.037
-590.952	-165.720	0.227	-0.010
-589.938	1.990	-0.111	0.081
-588.923	-127.971	0.193	0.028
-587.909	-200.000	0.007	0.139
-586.894	800.000	0.061	-0.190
-585.879	137.525	-0.017	0.022
-584.865	-45.703	-0.158	-0.079
-583.850	411.526	-0.063	-0.135
-582.836	-200.000	0.043	0.205
-581.821	-200.000	-0.090	-0.475
-580.806	108.815	-0.300	0.362
-579.792	644.566	0.054	0.139
-578.777	-57.707	0.157	0.070
-577.763	203.019	0.123	0.192
-576.748	800.000	0.080	-0.342
-575.733	-151.828	0.291	0.022
-574.719	26.715	0.411	0.348
-573.704	-50.181	0.299	0.143
-572.690	182.468	-0.258	-0.385
-571.675	-119.311	-0.096	0.017
-570.661	-99.332	0.138	0.035
-569.646	114.089	-0.078	0.096
-568.631	-200.000	-0.022	0.230
-567.617	-65.243	-0.338	0.138
-566.602	-200.000	-0.014	0.366
-565.588	85.538	0.108	0.120
-564.573	527.568	-0.043	0.103
-563.558	-12.937	0.064	-0.042
-562.544	-179.248	0.442	0.010
-561.529	-106.974	-0.225	-0.050
-560.515	34.080	0.274	0.241
-559.500	-157.937	-0.332	0.020
-558.485	-74.760	-0.096	-0.035
-557.471	-200.000	0.001	0.140
-556.456	-200.000	0.013	0.095
-555.442	357.835	0.081	0.163
-554.427	-10.878	0.164	-0.109
-553.412	-53.664	-0.045	-0.021
-552.398	-94.965	-0.135	-0.037
-551.383	-58.027	0.219	-0.097
-550.369	307.582	-0.130	-0.245
-549.354	-200.000	-0.029	-0.300
-548.339	-200.000	0.008	-0.059
-547.325	-200.000	0.006	-0.394
-546.310	-10.667	0.146	-0.098
-545.296	-70.673	-0.050	-0.019
-544.281	-181.057	0.404	-0.008
-543.266	470.654	0.087	0.198
-542.252	279.130	-0.107	-0.193
-541.237	800.000	0.057	-0.219
-540.223	24.025	0.088	-0.073
-539.208	-27.527	0.161	-0.094
-538.193	800.000	-0.079	0.310
-537.179	50.689	-0.112	0.107
-536.164	243.411	-0.012	0.021
-535.150	128.099	-0.153	-0.196
-534.135	-9.172	0.240	-0.162
-533.121	800.000	-0.044	-0.157
-532.106	-65.301	-0.145	-0.059
-531.091	-135.923	-0.094	0.011
-530.077	-200.000	0.011	0.262
-529.062	-0.183	0.211	0.152
-528.048	117.603	-0.156	-0.194
-527.033	32.399	0.146	-0.127
-526.018	-35.748	0.238	0.130
-525.004	33.432	-0.099	0.087
-523.989	-200.000	0.074	0.348
-522.975	800.000	-0.068	0.216
-521.960	91.023	-0.165	-0.186
-520.945	-14.985	-0.140	-0.090
-519.931	-200.000	-0.000	-0.089
-518.916	-107.020	0.258	-0.058
-517.902	-92.244	-0.125	0.035
-516.887	-200.000	-0.002	0.074
-515.872	-113.227	0.066	0.013
-514.858	-172.960	0.130	0.004
-513.843	-22.369	-0.246	0.151
-512.829	-200.000	-0.001	0.202
-511.814	178.851	0.060	-0.089
-510.799	52.711	-0.170	-0.164
-509.785	-8.017	-0.216	-0.147
-508.770	-41.023	0.378	-0.197
-507.756	-163.708	0.222	0.011
-506.741	-124.188	-0.378	-0.060
-505.726	763.103	-0.062	-0.170
-504.712	-95.034	0.184	-0.050
-503.697	104.214	-0.138	0.164
-502.683	800.000	0.156	0.448
-501.668	-86.276	0.013	0.004
-500.653	266.759	-0.125	-0.221
-499.639	-200.000	0.014	0.062
-498.624	98.361	-0.163	0.189
-497.610	-48.829	-0.133	-0.064
-496.595	-200.000	0.017	0.080
-495.581	-136.167	-0.338	0.040
-494.566	-67.136	0.205	0.082
-493.551	-62.624	-0.327	-0.137
-492.537	-48.538	-0.150	-0.073
-491.522	-78.202	-0.189	0.066
-490.508	-200.000	0.017	0.249
-489.493	73.968	-0.180	-0.190
-488.478	8.162	0.280	-0.212
-487.464	-101.496	0.189	0.046
-486.449	151.084	-0.256	0.351
-485.435	-179.954	-0.165	0.004
-484.420	-200.000	-0.024	0.164
-483.405	10.060	0.277	0.212
-482.391	-200.000	-0.050	0.228
-481.376	-133.391	0.112	0.014
-480.362	-86.603	-0.094	-0.029
-479.347	-71.099	-0.431	0.163
-478.332	0.746	0.108	0.078
-477.318	-200.000	0.002	-0.015
-476.303	-10.151	0.193	-0.129
-475.289	-60.469	-0.313	0.134
-474.274	-49.905	-0.386	-0.184
-473.259	-42.998	-0.179	-0.091
-472.245	-148.467	-0.119	0.010
-471.230	-200.000	0.070	0.436
-470.216	-60.568	-0.101	-0.043
-469.201	220.142	0.061	0.099
-468.186	-168.492	-0.217	0.008
-467.172	800.000	-0.063	0.252
-466.157	-54.055	-0.136	-0.062
-465.143	-19.549	0.140	-0.087
-464.128	144.277	-0.203	0.273
-463.113	-200.000	0.083	0.391
-462.099	34.215	0.102	0.090
-461.084	730.433	-0.069	-0.185
-460.070	76.563	0.265	-0.283
-459.055	-200.000	0.006	0.031
-458.040	604.815	0.065	0.163
-457.026	-179.320	0.180	0.004
-456.011	89.013	0.065	0.073
-454.997	-152.367	0.127	-0.009
-453.982	-60.982	-0.309	-0.131
-452.968	-200.000	0.006	-0.208
-451.953	105.659	-0.139	0.165
-450.938	-169.876	-0.160	0.006
-449.924	-200.000	-0.027	0.226
-448.909	-200.000	-0.014	0.157
-447.895	-30.479	-0.085	-0.048
-446.880	30.854	0.135	0.117
-445.865	49.683	0.278	0.264
-444.851	91.939	-0.184	0.209
-443.836	-53.388	-0.110	0.051
-442.822	-4.035	-0.106	0.074
-441.807	136.258	-0.068	0.089
-440.792	-41.791	0.119	0.061
-439.778	-110.282	-0.286	0.060
-438.763	50.249	-0.208	-0.197
-437.749	222.391	0.231	-0.374
-436.734	198.215	-0.116	0.178
-435.719	-73.013	-0.105	-0.039
-434.705	339.573	-0.094	-0.184
-433.690	-154.542	0.282	-0.019
-432.676	50.818	-0.155	-0.148
-431.661	-200.000	0.025	-0.160
-430.646	800.000	0.063	0.185
-429.632	287.782	0.089	0.161
-428.617	-129.735	0.372	0.051
-427.603	688.520	-0.113	0.296
-426.588	-74.088	-0.236	-0.086
-425.573	732.654	0.065	0.174
-424.559	202.681	0.075	0.116
-423.544	62.637	0.166	0.167
-422.530	370.509	-0.200	-0.408
-421.515	157.462	-0.118	-0.165
-420.500	690.720	0.047	-0.124
-419.486	88.072	-0.071	0.079
-418.471	800.000	-0.024	0.093
-417.457	800.000	0.023	-0.068
-416.442	800.000	0.095	-0.268
-415.428	-200.000	0.001	0.092
-414.413	92.235	0.167	-0.189
-413.398	-50.407	0.232	-0.110
-412.384	46.954	0.313	-0.292
-411.369	-200.000	-0.022	-0.102
-410.355	800.000	0.048	0.206
-409.340	91.523	-0.075	0.085
-408.325	41.857	-0.102	-0.093
-407.311	118.032	-0.213	0.264
-406.296	-70.418	-0.160	-0.061
-405.282	-28.089	-0.264	0.154
-404.267	216.188	0.120	0.191
-403.252	800.000	-0.055	0.155
-402.238	-200.000	-0.075	0.385
-401.223	36.362	0.184	0.163
-400.209	-150.863	0.127	-0.010
-399.194	67.956	0.171	0.175
-398.179	-26.897	-0.236	0.139
-397.165	800.000	-0.030	0.107
-396.150	-111.865	0.170	0.034
-395.136	-94.342	-0.192	0.053
-394.121	788.492	-0.020	0.055
-393.106	35.961	-0.438	-0.387
-392.092	-87.280	0.159	-0.049
-391.077	619.084	0.058	0.147
-390.063	-200.000	0.022	-0.145
-389.048	800.000	0.072	0.218
-388.033	800.000	-0.125	0.350
-387.019	-200.000	0.042	0.278
-386.004	-200.000	0.001	-0.130
-384.990	-200.000	-0.011	-0.191
-383.975	-188.096	0.311	0.004
-382.960	-200.000	0.010	-0.378
-381.946	67.470	-0.059	-0.060
-380.931	233.958	0.166	-0.275
-379.917	800.000	0.053	-0.226
-378.902	442.114	-0.069	-0.153
-377.888	-30.590	0.194	0.110
-376.873	800.000	-0.036	0.149
-375.858	-200.000	-0.002	0.255
-374.844	86.599	-0.020	-0.022
-373.829	-200.000	0.006	-0.061
-372.815	-30.816	0.200	-0.113
-371.800	124.610	-0.068	0.085
-370.785	-151.862	0.149	-0.011
-369.771	-91.498	0.361	-0.103
-368.756	-105.827	0.139	-0.032
-367.742	-145.632	0.180	-0.016
-366.727	-55.235	0.084	0.038
-365.712	287.177	0.051	0.092
-364.698	800.000	-0.007	0.028
-363.683	66.040	-0.239	-0.243
-362.669	302.186	-0.047	-0.087
-361.654	201.372	-0.113	0.175
-360.639	-200.000	0.003	0.397
-359.625	-200.000	-0.005	0.095
-358.610	-1.995	0.298	-0.210
-357.596	-56.038	0.161	0.072
-356.581	-63.598	0.135	-0.056
-355.566	41.548	-0.144	0.131
-354.552	-200.000	0.013	0.295
-353.537	654.018	-0.092	-0.238
-352.523	226.016	0.255	-0.415
-351.508	800.000	-0.102	-0.363
-350.493	703.544	0.079	-0.209
-349.479	-102.506	-0.267	-0.064
-348.464	-134.508	-0.226	0.028
-347.450	158.930	0.007	0.010
-346.435	287.878	-0.077	-0.140
-345.420	596.262	-0.043	0.107
-344.406	-200.000	0.016	0.208
-343.391	282.922	0.081	0.146
-342.377	148.739	-0.117	-0.158
-341.362	-200.000	0.017	0.229
-340.348	106.506	0.272	-0.324
-339.333	-200.000	-0.031	-0.452
-338.318	-74.096	0.322	0.117
-337.304	-44.157	0.160	-0.080
-336.289	-85.437	-0.149	0.047
-335.275	53.643	-0.059	-0.057
-334.260	-23.219	0.166	-0.100
-333.245	-200.000	-0.025	0.212
-332.231	-164.856	0.177	-0.008
-331.216	34.199	0.326	0.285
-330.202	-133.503	0.231	-0.029
-329.187	-138.924	-0.323	-0.035
-328.172	48.410	0.228	0.214
-327.158	-200.000	0.047	0.306
-326.143	800.000	-0.085	0.277
-325.129	-146.758	-0.204	-0.018
-324.114	49.733	-0.079	-0.075
-323.099	800.000	0.013	0.051
-322.085	-3.388	0.111	0.078
-321.070	-200.000	0.074	-0.333
-320.056	-200.000	-0.010	-0.094
-319.041	-36.026	-0.118	0.064
-318.026	-200.000	-0.012	-0.243
-317.012	-17.065	-0.146	-0.092
-315.997	785.799	0.047	-0.128
-314.983	-200.000	-0.006	0.119
-313.968	-73.203	0.139	0.051
-312.953	-97.098	0.061	-0.016
-311.939	-86.610	0.223	-0.069
-310.924	-74.146	-0.266	0.096
-309.910	130.609	0.288	-0.370
-308.895	-32.655	-0.337	-0.188
-307.880	-146.384	-0.192	0.017
-306.866	-15.235	-0.110	-0.071
-305.851	285.269	0.031	-0.056
-304.837	800.000	0.033	-0.131
-303.822	176.350	0.220	0.319
-302.807	711.260	-0.027	-0.072
-301.793	489.101	0.088	-0.202
-300.778	-174.735	0.246	-0.007
-299.764	51.070	-0.207	-0.196
-298.749	-17.502	-0.043	0.027
-297.735	13.854	-0.129	-0.100
-296.720	-200.000	0.019	-0.438
-295.705	274.358	-0.092	0.163
-294.691	-165.209	0.235	0.010
-293.676	-93.580	-0.271	0.075
-292.662	-137.952	-0.194	0.022
-291.647	-200.000	-0.005	-0.209
-290.632	2.730	-0.214	0.155
-289.618	451.441	-0.075	-0.166
-288.603	-12.804	-0.367	-0.239
-287.589	-66.763	0.189	0.075
-286.574	800.000	-0.079	-0.294
-285.559	800.000	0.065	-0.189
-284.545	-200.000	-0.028	-0.264
-283.530	-200.000	-0.051	0.266
-282.516	-16.237	-0.327	0.208
-281.501	-89.729	0.013	-0.004
-280.486	-200.000	-0.004	-0.045
-279.472	352.609	0.097	-0.192
-278.457	-200.000	-0.056	-0.263
-277.443	-37.408	-0.240	-0.128
-276.428	-200.000	-0.027	0.150
-275.413	-12.703	0.129	0.084
-274.399	-127.206	0.133	0.019
-273.384	110.611	-0.106	0.127
-272.370	201.500	-0.080	0.124
-271.355	-200.000	-0.030	-0.236
-270.340	485.834	-0.052	0.117
-269.326	353.751	0.071	-0.141
-268.311	-96.215	0.406	-0.108
-267.297	440.763	0.187	-0.409
-266.282	104.846	-0.107	-0.126
-265.267	800.000	0.166	0.556
-264.253	413.459	0.113	-0.240
-263.238	800.000	-0.082	-0.279
-262.224	800.000	-0.095	-0.290
-261.209	-95.949	-0.255	-0.068
-260.195	-47.107	-0.085	0.041
-259.180	730.190	-0.101	-0.270
-258.165	-196.085	0.084	0.001
-257.151	800.000	-0.048	0.151
-256.136	-78.877	0.101	-0.034
-255.122	-90.772	-0.120	0.034
-254.107	-171.175	0.202	0.007
-253.092	-42.879	-0.139	-0.070
-252.078	127.499	0.064	0.081
-251.063	-124.596	0.228	0.035
-250.049	39.854	-0.140	0.125
-249.034	0.570	0.280	0.200
-248.019	167.142	-0.150	0.212
-247.005	-200.000	-0.039	-0.217
-245.990	232.701	0.070	-0.115
-244.976	10.002	0.210	-0.159
-243.961	-123.889	-0.070	-0.011
-242.946	-200.000	-0.042	0.299
-241.932	800.000	0.100	0.304
-240.917	-56.860	0.103	0.045
-239.903	-35.170	-0.157	0.085
-238.888	-200.000	-0.046	0.328
-237.873	-4.268	-0.080	0.056
-236.859	-111.345	-0.131	0.027
-235.844	144.413	0.130	0.174
-234.830	-72.119	0.152	0.056
-233.815	800.000	0.068	0.193
-232.800	154.271	0.110	-0.151
-231.786	121.827	-0.056	0.069
-230.771	-200.000	0.052	-0.303
-229.757	93.238	0.126	-0.142
-228.742	-78.050	0.217	-0.074
-227.727	-89.918	-0.331	0.097
-226.713	800.000	0.021	-0.072
-225.698	-34.007	0.252	-0.138
-224.684	13.499	-0.240	-0.186
-223.669	-200.000	-0.052	-0.351
-222.655	-70.789	-0.184	-0.069
-221.640	36.379	-0.198	-0.174
-220.625	-200.000	-0.075	0.566
-219.611	-111.097	0.278	-0.057
-218.596	634.103	0.044	0.110
-217.582	-145.930	0.154	0.014
-216.567	-26.996	-0.123	-0.071
-215.552	-2.150	0.045	-0.031
-214.538	416.463	-0.063	0.134
-213.523	731.548	-0.062	-0.165
-212.509	-62.374	-0.113	-0.047
-211.494	-39.911	0.080	-0.042
-210.479	86.589	0.048	-0.052
-209.465	218.481	0.065	0.104
-208.450	-200.000	0.003	0.301
-207.436	289.998	-0.036	-0.064
-206.421	747.875	0.125	-0.335
-205.406	-43.373	0.222	0.112
-204.392	-119.526	0.102	-0.018
-203.377	140.946	0.088	0.116
-202.363	-200.000	-0.055	0.317
-201.348	517.934	0.055	0.128
-200.333	-165.348	0.436	-0.019
-199.319	45.734	-0.140	0.129
-198.304	-79.498	-0.147	-0.049
-197.290	-200.000	-0.038	0.276
-196.275	-40.370	-0.212	-0.110
-195.260	-51.124	-0.323	0.151
-194.246	-163.645	0.446	0.021
-193.231	-167.874	0.099	-0.004
-192.217	-200.000	0.087	-0.000
-191.202	52.962	-0.122	0.116
-190.187	-57.811	-0.224	-0.097
-189.173	-114.576	0.169	0.032
-188.158	9.923	0.052	-0.040
-187.144	43.212	0.096	-0.088
-186.129	-106.600	0.158	-0.035
-185.114	-200.000	-0.030	0.331
-184.100	5.162	-0.132	-0.097
-183.085	6.213	0.287	-0.212
-182.071	-34.963	-0.159	0.086
-181.056	800.000	-0.149	0.628
-180.042	-48.617	0.330	-0.158
-179.027	71.026	0.323	0.334
-178.012	701.489	-0.074	-0.194
-176.998	-159.732	-0.146	0.008
-175.983	64.530	-0.033	0.033
-174.969	39.545	0.037	0.033
-173.954	-80.268	0.065	0.022
-172.939	738.905	0.106	-0.282
-171.925	-97.006	-0.062	0.016
-170.910	800.000	0.102	-0.410
-169.896	-114.634	-0.383	0.073
-168.881	-200.000	0.003	-0.120
-167.866	800.000	0.018	-0.077
-166.852	-115.171	0.057	0.011
-165.837	-46.541	-0.313	-0.153
-164.823	188.768	0.096	-0.144
-163.808	-109.972	0.269	0.056
-162.793	-200.000	0.005	-0.196
-161.779	128.893	-0.084	-0.106
-160.764	-34.540	0.310	-0.169
-159.750	359.852	0.057	-0.113
-158.735	512.095	-0.050	-0.116
-157.720	202.044	-0.254	0.390
-156.706	629.766	-0.060	0.152
-155.691	493.643	-0.169	0.386
-154.677	-95.143	0.204	-0.055
-153.662	-85.373	0.447	-0.139
-152.647	-200.000	0.039	0.211
-151.633	463.358	0.058	-0.128
-150.618	40.480	0.272	0.244
-149.604	-120.454	-0.049	0.008
-148.589	93.450	0.118	0.133
-147.574	-16.228	0.181	0.115
-146.560	200.743	-0.243	-0.372
-145.545	13.443	0.131	0.101
-144.531	-63.852	0.053	-0.022
-143.516	-200.000	0.034	-0.155
-142.502	-157.958	-0.498	-0.029
-141.487	67.973	-0.270	0.275
-140.472	800.000	-0.070	0.244
-139.458	800.000	0.081	0.341
-138.443	467.399	0.058	0.130
-137.429	281.089	0.142	0.253
-136.414	-106.188	0.172	-0.038
-135.399	-84.374	-0.311	-0.098
-134.385	-82.931	0.164	-0.053
-133.370	-200.000	0.003	-0.107
-132.356	10.710	0.149	-0.113
-131.341	-135.062	0.273	0.033
-130.326	-133.935	0.238	-0.029
-129.312	800.000	-0.136	0.390
-128.297	-200.000	-0.015	-0.343
-127.283	-200.000	0.022	0.265
-126.268	-133.152	-0.258	-0.033
-125.253	-200.000	0.045	0.273
-124.239	315.890	-0.104	0.196
-123.224	176.011	-0.126	-0.182
-122.210	157.637	0.106	0.146
