DTS Sentinel unit serial number:	SN413079Multiplexer serial number:	ORYXHardware model number:	OX4-SRSoftware version number:	ORYX F/W v4.00 Oryx Data Collector v3.7.2.0data status	okinstallation	princeton_trtdifferential loss correction	single-endedforward channel	channel 1reverse channel	N/Adate	2019/09/12time	13:20:11forward acquisition time	60.00reverse acquisition time	0.00gamma	496.2192k internal	0.2291k external	0.2291temperature offset calibration	1.0047default loss term (dB/km)	0.3790temperature slope calibration	1.0000multiplexer offset coefficient	1.0000multiplexer slope coefficient	1.0000fibre end	0.00T internal ref (°C)	41.02T ext. ref 1 (°C)	2.13T ext. ref 2 (°C)	37.31length (m)	temperature (°C)	Stokes	anti-Stokes-747.200	121.660	0.054	-0.069
-746.185	138.101	-0.255	0.343
-745.171	583.743	-0.076	0.191
-744.156	275.298	-0.141	0.255
-743.142	-133.483	0.328	0.042
-742.127	152.376	0.163	-0.227
-741.112	178.030	-0.198	-0.296
-740.098	331.276	-0.063	0.124
-739.083	50.386	-0.083	0.081
-738.069	-200.000	-0.005	-0.184
-737.054	-49.641	0.196	0.096
-736.039	-200.000	0.006	0.342
-735.025	197.515	0.095	0.148
-734.010	49.548	-0.334	-0.322
-732.996	187.887	-0.197	-0.300
-731.981	-200.000	-0.002	-0.068
-730.966	59.308	0.054	0.054
-729.952	73.455	0.098	-0.105
-728.937	-129.644	-0.320	-0.045
-727.923	-34.845	-0.224	-0.125
-726.908	-34.794	0.303	-0.170
-725.894	-95.054	-0.264	-0.073
-724.879	-109.891	-0.477	-0.102
-723.864	-168.537	0.163	-0.006
-722.850	593.804	-0.103	-0.261
-721.835	-200.000	-0.005	0.311
-720.821	199.212	0.117	-0.183
-719.806	800.000	0.039	-0.124
-718.791	-200.000	-0.024	-0.268
-717.777	-200.000	-0.101	-0.496
-716.762	-36.353	0.174	-0.096
-715.748	-24.770	-0.366	0.223
-714.733	447.487	0.010	-0.022
-713.718	159.415	0.108	0.154
-712.704	-3.166	-0.252	-0.180
-711.689	-109.778	-0.396	-0.085
-710.675	503.502	-0.149	-0.353
-709.660	-119.791	-0.230	-0.040
-708.645	-51.483	0.108	-0.052
-707.631	-129.267	-0.176	0.025
-706.616	800.000	-0.036	0.142
-705.602	-200.000	0.017	0.241
-704.587	-7.922	-0.171	-0.118
-703.572	99.858	0.162	-0.192
-702.558	-84.438	-0.303	-0.098
-701.543	21.088	-0.070	0.058
-700.529	-29.433	0.380	-0.222
-699.514	86.740	-0.114	0.128
-698.499	-200.000	0.021	0.133
-697.485	-168.179	0.150	0.006
-696.470	-93.445	-0.137	0.039
-695.456	-126.331	-0.258	0.039
-694.441	3.678	0.184	0.137
-693.426	-36.075	0.224	-0.124
-692.412	-54.104	-0.201	-0.093
-691.397	800.000	0.062	0.258
-690.383	-200.000	0.051	-0.437
-689.368	-200.000	0.003	-0.020
-688.354	800.000	0.044	-0.188
-687.339	-200.000	-0.033	-0.347
-686.324	800.000	0.137	-0.396
-685.310	-151.218	-0.390	0.030
-684.295	478.729	-0.194	-0.448
-683.281	-200.000	-0.031	-0.285
-682.266	-56.116	0.201	-0.092
-681.251	-200.000	-0.014	-0.145
-680.237	-200.000	0.026	0.122
-679.222	-186.390	-0.344	0.005
-678.208	-11.000	-0.158	-0.106
-677.193	-200.000	0.001	-0.019
-676.178	-8.249	-0.149	-0.103
-675.164	-200.000	-0.048	-0.235
-674.149	328.039	-0.118	-0.231
-673.135	113.980	0.271	-0.336
-672.120	39.678	-0.128	-0.117
-671.105	796.962	0.128	-0.359
-670.091	-103.189	0.322	-0.078
-669.076	168.776	0.321	0.467
-668.062	12.575	0.122	-0.096
-667.047	-111.160	0.192	0.040
-666.032	800.000	-0.037	0.162
-665.018	-77.497	-0.253	0.090
-664.003	-33.629	-0.286	0.161
-662.989	-111.803	0.190	0.039
-661.974	526.745	-0.028	-0.067
-660.959	121.153	-0.162	0.206
-659.945	-200.000	-0.029	0.207
-658.930	-200.000	-0.004	0.314
-657.916	800.000	-0.008	0.026
-656.901	-12.555	0.170	0.113
-655.886	216.568	0.079	-0.129
-654.872	324.850	0.129	-0.252
-653.857	-78.172	-0.293	0.103
-652.843	281.776	-0.025	-0.046
-651.828	-200.000	-0.033	-0.309
-650.814	-200.000	0.226	-0.000
-649.799	79.897	0.130	0.142
-648.784	75.416	-0.155	-0.167
-647.770	102.335	-0.169	-0.201
-646.755	-142.263	-0.244	0.025
-645.741	-3.099	0.147	-0.105
-644.726	800.000	-0.070	-0.246
-643.711	252.937	0.190	-0.330
-642.697	391.740	-0.046	-0.097
-641.682	-200.000	0.171	-0.000
-640.668	1.887	-0.208	-0.153
-639.653	-39.803	-0.293	-0.156
-638.638	-0.294	0.085	-0.062
-637.624	-68.401	-0.435	0.172
-636.609	-200.000	-0.004	0.326
-635.595	-159.691	-0.181	0.010
-634.580	22.088	0.156	0.130
-633.565	-107.372	0.037	-0.008
-632.551	-77.573	0.358	0.127
-631.536	131.627	-0.061	-0.080
-630.522	-69.564	0.298	0.116
-629.507	325.585	-0.062	-0.120
-628.492	10.814	-0.146	-0.114
-627.478	-200.000	-0.002	0.115
-626.463	15.794	0.218	0.175
-625.449	82.308	0.048	0.053
-624.434	38.371	0.232	0.210
-623.419	-183.275	-0.264	0.005
-622.405	800.000	-0.097	-0.347
-621.390	509.101	0.026	0.061
-620.376	331.386	0.045	0.088
-619.361	-103.766	-0.085	-0.020
-618.346	30.397	0.223	-0.194
-617.332	40.355	-0.225	0.206
-616.317	476.613	-0.087	0.201
-615.303	-151.172	-0.276	0.021
-614.288	-200.000	-0.077	-0.394
-613.273	-109.547	-0.143	0.031
-612.259	63.697	-0.090	-0.092
-611.244	-200.000	-0.027	0.163
-610.230	-36.705	-0.132	-0.072
-609.215	-71.664	-0.223	-0.085
-608.201	20.313	-0.239	-0.197
-607.186	-18.968	-0.148	-0.094
-606.171	-55.622	-0.126	-0.058
-605.157	328.582	0.137	-0.268
-604.142	-179.379	-0.185	0.004
-603.128	-94.157	0.192	-0.054
-602.113	71.298	-0.221	0.234
-601.098	-15.031	-0.169	0.110
-600.084	166.501	0.183	0.263
-599.069	-28.594	0.120	-0.070
-598.055	-74.909	0.216	0.079
-597.040	-30.682	0.096	-0.055
-596.025	800.000	-0.049	0.208
-595.011	479.334	-0.053	-0.122
-593.996	-105.107	0.140	-0.032
-592.982	800.000	0.020	-0.076
-591.967	800.000	-0.070	0.229
-590.952	782.773	0.091	0.253
-589.938	-120.956	0.167	-0.029
-588.923	15.622	0.076	0.061
-587.909	800.000	-0.081	-0.257
-586.894	-200.000	-0.023	0.110
-585.879	-81.572	0.240	0.080
-584.865	167.244	-0.229	0.331
-583.850	651.554	-0.050	-0.131
-582.836	142.620	0.046	0.062
-581.821	230.820	0.121	-0.202
-580.806	51.142	0.245	-0.237
-579.792	-200.000	0.029	-0.215
-578.777	86.075	-0.024	0.027
-577.763	-161.081	-0.284	0.015
-576.748	-200.000	0.031	0.202
-575.733	-69.027	-0.074	0.029
-574.719	15.352	-0.179	0.143
-573.704	287.174	-0.157	0.288
-572.690	-174.024	-0.188	0.006
-571.675	355.716	0.143	-0.289
-570.661	-70.782	0.176	0.068
-569.646	220.030	-0.146	0.239
-568.631	31.079	0.259	-0.226
-567.617	-200.000	-0.054	0.327
-566.602	800.000	-0.061	0.271
-565.588	-76.310	-0.301	-0.108
-564.573	-48.262	0.195	0.096
-563.558	-23.475	0.212	0.129
-562.544	-99.998	0.363	0.092
-561.529	50.140	0.217	-0.208
-560.515	147.517	-0.281	-0.385
-559.500	-115.644	-0.174	-0.033
-558.485	-72.724	0.050	0.019
-557.471	6.330	0.123	0.092
-556.456	110.875	-0.134	0.164
-555.442	341.297	-0.034	0.067
-554.427	380.083	0.047	-0.098
-553.412	-77.670	0.216	-0.076
-552.398	61.621	-0.213	-0.215
-551.383	-200.000	-0.036	0.359
-550.369	-179.372	-0.226	-0.005
-549.354	-121.650	0.152	-0.026
-548.339	-140.713	0.245	-0.026
-547.325	-113.181	-0.207	0.041
-546.310	645.237	-0.077	0.199
-545.296	800.000	-0.124	-0.368
-544.281	-200.000	0.064	-0.318
-543.266	186.881	-0.092	0.139
-542.252	731.204	0.130	0.354
-541.237	25.281	0.275	-0.232
-540.223	-197.206	0.211	-0.001
-539.208	527.461	-0.099	-0.237
-538.193	4.147	-0.036	-0.027
-537.179	165.474	0.064	-0.092
-536.164	-131.382	0.156	-0.021
-535.150	-129.251	-0.153	0.022
-534.135	115.567	-0.201	0.249
-533.121	789.611	0.070	-0.196
-532.106	-5.423	-0.202	0.141
-531.091	-119.610	0.215	-0.038
-530.077	67.153	-0.363	0.376
-529.062	340.528	-0.164	-0.325
-528.048	-200.000	-0.002	-0.091
-527.033	-79.496	0.256	0.088
-526.018	800.000	-0.097	-0.322
-525.004	111.673	-0.099	-0.121
-523.989	-200.000	0.009	0.478
-522.975	-200.000	-0.027	0.236
-521.960	800.000	-0.038	0.111
-520.945	-118.393	0.067	0.012
-519.931	41.202	-0.110	0.101
-518.916	81.503	-0.186	0.204
-517.902	-200.000	0.024	0.242
-516.887	-200.000	0.005	0.113
-515.872	800.000	-0.036	-0.109
-514.858	374.023	-0.084	-0.173
-513.843	-144.154	-0.263	-0.025
-512.829	292.888	0.073	0.135
-511.814	93.372	0.181	-0.207
-510.799	57.994	-0.181	0.179
-509.785	533.111	-0.065	0.156
-508.770	54.132	-0.246	0.240
-507.756	226.722	0.119	-0.196
-506.741	-85.000	-0.204	-0.065
-505.726	137.344	0.063	-0.083
-504.712	-200.000	-0.033	0.606
-503.697	515.533	0.195	0.462
-502.683	-110.384	-0.036	0.008
-501.668	800.000	-0.072	-0.250
-500.653	-200.000	0.002	-0.014
-499.639	409.281	0.117	-0.251
-498.624	1.180	0.141	0.102
-497.610	19.171	-0.034	-0.028
-496.595	-105.471	0.122	0.028
-495.581	387.756	0.101	0.212
-494.566	-75.815	-0.108	0.039
-493.551	800.000	-0.028	-0.100
-492.537	155.489	-0.077	-0.108
-491.522	47.864	-0.259	-0.245
-490.508	800.000	-0.062	-0.233
-489.493	76.684	0.073	0.078
-488.478	617.119	0.066	0.167
-487.464	-83.923	-0.072	0.023
-486.449	-128.777	-0.158	-0.023
-485.435	-64.704	-0.143	0.059
-484.420	-28.566	0.322	-0.188
-483.405	-187.128	-0.169	0.002
-482.391	-43.162	0.285	-0.146
-481.376	139.594	-0.013	0.017
-480.362	-152.226	0.301	-0.022
-479.347	-66.452	0.229	0.092
-478.332	32.324	-0.191	-0.167
-477.318	381.049	0.107	-0.223
-476.303	-85.037	0.221	-0.070
-475.289	204.038	0.171	-0.268
-474.274	391.593	0.186	0.390
-473.259	-200.000	0.023	0.550
-472.245	-41.481	-0.084	0.044
-471.230	96.692	0.273	-0.316
-470.216	158.119	0.092	-0.129
-469.201	-200.000	0.042	-0.459
-468.186	800.000	0.073	-0.264
-467.172	141.058	-0.170	-0.227
-466.157	-50.356	0.323	0.155
-465.143	173.199	0.176	-0.257
-464.128	-187.212	-0.236	-0.003
-463.113	800.000	-0.075	0.248
-462.099	591.655	0.057	0.143
-461.084	-152.525	-0.149	0.011
-460.070	-70.701	0.408	-0.156
-459.055	168.188	0.079	-0.114
-458.040	-200.000	0.009	0.109
-457.026	96.157	-0.109	-0.126
-456.011	203.088	0.123	-0.192
-454.997	-200.000	-0.008	0.051
-453.982	-119.185	0.149	0.026
-452.968	-163.255	0.143	0.007
-451.953	-200.000	0.030	-0.386
-450.938	69.364	0.010	0.011
-449.924	-92.296	-0.339	0.097
-448.909	-103.550	-0.090	0.021
-447.895	800.000	0.011	0.035
-446.880	-93.519	0.034	0.009
-445.865	86.729	0.051	0.057
-444.851	-81.123	0.182	-0.061
-443.836	509.519	-0.153	-0.359
-442.822	-99.931	0.251	0.063
-441.807	551.143	-0.066	-0.160
-440.792	-179.485	0.226	0.005
-439.778	215.646	0.148	-0.238
-438.763	-83.455	0.173	0.056
-437.749	-18.090	-0.082	0.052
-436.734	-200.000	0.002	0.015
-435.719	-105.340	-0.166	0.038
-434.705	-104.018	0.381	0.090
-433.690	-50.723	0.099	0.047
-432.676	800.000	0.034	-0.108
-431.661	49.658	-0.116	0.111
-430.646	246.431	-0.030	0.051
-429.632	258.094	0.111	-0.192
-428.617	258.687	-0.208	-0.363
-427.603	39.070	-0.022	0.020
-426.588	-78.204	0.187	-0.065
-425.573	87.762	-0.043	0.048
-424.559	250.419	-0.224	-0.385
-423.544	-11.752	0.178	0.118
-422.530	-200.000	0.017	-0.528
-421.515	-69.485	0.241	-0.093
-420.500	436.388	-0.129	0.284
-419.486	120.762	0.125	0.157
-418.471	-84.744	-0.261	0.083
-417.457	465.627	-0.115	0.261
-416.442	-73.021	0.129	-0.048
-415.428	-136.019	0.137	-0.016
-414.413	156.474	-0.187	0.261
-413.398	93.922	0.064	0.074
-412.384	-86.280	-0.209	0.065
-411.369	-200.000	0.056	0.263
-410.355	-134.177	-0.294	0.037
-409.340	473.300	0.072	0.163
-408.325	800.000	0.042	-0.147
-407.311	80.054	-0.295	-0.321
-406.296	-85.418	0.116	-0.037
-405.282	457.308	0.103	-0.231
-404.267	-129.281	-0.455	0.064
-403.252	362.924	0.161	0.326
-402.238	800.000	0.038	-0.106
-401.223	-53.329	-0.255	0.118
-400.209	68.558	0.276	0.286
-399.194	318.443	0.117	0.224
-398.179	453.178	-0.052	0.117
-397.165	-200.000	-0.010	0.111
-396.150	75.319	0.073	-0.078
-395.136	85.147	0.119	-0.131
-394.121	-133.519	0.440	0.056
-393.106	-55.632	-0.350	-0.158
-392.092	203.481	-0.119	0.185
-391.077	123.811	0.130	0.165
-390.063	-100.842	-0.146	-0.036
-389.048	-105.160	-0.179	-0.041
-388.033	118.154	-0.063	0.078
-387.019	-28.547	0.266	0.155
-386.004	-200.000	-0.028	0.171
-384.990	-153.849	0.249	-0.017
-383.975	-80.689	0.136	-0.046
-382.960	800.000	-0.119	0.468
-381.946	-56.558	0.132	-0.059
-380.931	-26.552	0.124	0.073
-379.917	510.333	-0.126	-0.297
-378.902	800.000	-0.099	-0.412
-377.888	-42.258	-0.203	0.105
-376.873	217.752	0.247	-0.398
-375.858	-99.676	0.219	0.055
-374.844	-48.036	-0.287	-0.140
-373.829	-142.202	-0.082	-0.008
-372.815	162.384	-0.175	-0.247
-371.800	-23.014	0.092	0.056
-370.785	547.402	-0.094	0.226
-369.771	-136.401	-0.393	0.046
-368.756	221.804	-0.119	-0.194
-367.742	800.000	0.040	0.146
-366.727	800.000	0.060	-0.227
-365.712	-72.167	0.159	-0.060
-364.698	-53.435	0.312	-0.144
-363.683	-26.797	0.241	-0.142
-362.669	800.000	0.011	0.044
-361.654	34.215	0.103	-0.091
-360.639	-200.000	0.039	-0.234
-359.625	-200.000	-0.015	0.189
-358.610	-83.354	-0.226	0.073
-357.596	30.741	0.087	0.075
-356.581	800.000	0.053	0.180
-355.566	-200.000	-0.029	-0.261
-354.552	132.557	-0.052	-0.067
-353.537	414.638	-0.067	0.144
-352.523	-156.485	0.168	0.011
-351.508	161.453	-0.080	0.113
-350.493	-24.300	-0.080	0.048
-349.479	4.460	0.180	0.133
-348.464	-91.630	0.050	-0.014
-347.450	489.977	-0.084	-0.194
-346.435	-57.990	-0.152	-0.067
-345.420	-31.057	0.224	-0.127
-344.406	481.154	0.073	0.168
-343.391	266.725	-0.076	-0.134
-342.377	48.598	-0.164	-0.155
-341.362	-91.118	-0.103	0.030
-340.348	-0.955	0.131	0.093
-339.333	-153.831	-0.325	-0.022
-338.318	-47.259	-0.139	-0.068
-337.304	18.650	-0.037	-0.030
-336.289	-200.000	-0.019	-0.135
-335.275	-150.876	-0.119	-0.009
-334.260	-200.000	0.036	-0.176
-333.245	800.000	-0.054	0.184
-332.231	-125.422	-0.247	0.038
-331.216	-31.274	0.321	-0.182
-330.202	-200.000	0.041	-0.283
-329.187	-200.000	0.013	-0.089
-328.172	-97.304	0.066	0.017
-327.158	384.528	0.170	-0.353
-326.143	-72.948	0.328	-0.122
-325.129	206.308	-0.050	0.078
-324.114	-107.152	0.204	-0.045
-323.099	-135.356	-0.225	0.027
-322.085	-159.120	0.339	0.019
-321.070	91.194	-0.184	-0.207
-320.056	-104.900	-0.033	0.008
-319.041	-173.937	0.304	0.009
-318.026	235.543	-0.113	-0.188
-317.012	184.030	0.084	0.125
-315.997	-200.000	-0.028	-0.268
-314.983	24.716	-0.150	-0.125
-313.968	85.649	-0.163	-0.180
-312.953	-27.409	-0.142	0.083
-311.939	341.427	0.130	-0.256
-310.924	-32.967	-0.069	-0.038
-309.910	-133.456	-0.219	-0.028
-308.895	272.680	-0.141	0.251
-307.880	343.284	-0.096	0.188
-306.866	394.841	-0.140	0.294
-305.851	144.599	-0.207	-0.278
-304.837	-200.000	-0.001	0.231
-303.822	-38.646	0.168	0.089
-302.807	-200.000	0.022	-0.224
-301.793	-2.807	0.219	-0.154
-300.778	-200.000	0.023	-0.111
-299.764	-80.610	0.181	-0.061
-298.749	800.000	0.048	0.207
-297.735	-39.968	-0.467	0.245
-296.720	-151.996	0.277	0.020
-295.705	-174.002	-0.291	0.009
-294.691	800.000	0.027	0.079
-293.676	-200.000	-0.000	-0.197
-292.662	-14.280	0.135	0.088
-291.647	73.061	-0.234	0.246
-290.632	-200.000	0.006	0.182
-289.618	206.070	0.036	0.056
-288.603	-138.209	0.180	-0.020
-287.589	-82.871	0.183	0.059
-286.574	35.923	-0.257	-0.228
-285.559	-115.725	-0.113	-0.021
-284.545	-153.019	-0.287	0.020
-283.530	13.937	-0.414	0.324
-282.516	-200.000	0.017	-0.217
-281.501	-8.165	-0.186	-0.126
-280.486	78.225	-0.073	-0.079
-279.472	61.952	-0.139	-0.140
-278.457	-28.533	0.171	0.099
-277.443	-114.305	-0.338	-0.065
-276.428	-77.565	0.147	-0.051
-275.413	-32.614	0.286	0.160
-274.399	76.865	0.259	0.276
-273.384	-200.000	-0.005	0.098
-272.370	-125.760	0.388	-0.059
-271.355	212.748	0.117	-0.185
-270.340	295.354	-0.104	-0.192
-269.326	16.751	-0.238	0.189
-268.311	-86.315	0.114	-0.035
-267.297	272.121	-0.062	0.110
-266.282	97.412	-0.119	-0.137
-265.267	800.000	-0.091	0.262
-264.253	-85.732	-0.205	0.064
-263.238	12.593	0.087	0.068
-262.224	87.730	-0.233	0.260
-261.209	-67.510	0.198	-0.078
-260.195	-200.000	0.045	-0.252
-259.180	-9.846	0.239	-0.159
-258.165	625.384	0.125	-0.316
-257.151	12.825	0.304	-0.236
-256.136	-36.543	-0.162	-0.088
-255.122	-76.213	0.173	0.061
-254.107	-200.000	0.048	-0.300
-253.092	-11.978	0.127	0.083
-252.078	25.280	-0.091	-0.076
-251.063	86.624	-0.319	-0.353
-250.049	-99.065	0.297	0.076
-249.034	102.984	-0.184	0.217
-248.019	-200.000	-0.032	-0.343
-247.005	-139.836	0.395	-0.042
-245.990	800.000	0.040	0.129
-244.976	-55.301	0.184	0.083
-243.961	-200.000	-0.037	0.179
-242.946	22.961	-0.265	0.218
-241.932	-200.000	-0.037	-0.242
-240.917	800.000	-0.119	-0.341
-239.903	-112.097	0.249	0.050
-238.888	50.992	-0.156	0.149
-237.873	100.870	0.333	0.389
-236.859	35.307	-0.212	0.186
-235.844	800.000	0.031	0.137
-234.830	-87.103	0.267	-0.082
-233.815	-146.631	0.172	0.015
-232.800	57.046	0.136	0.133
-231.786	-101.376	0.345	0.084
-230.771	51.917	0.285	0.273
-229.757	-38.688	0.265	0.140
-228.742	-120.063	0.150	-0.026
-227.727	546.747	-0.077	-0.185
-226.713	-1.844	-0.206	-0.146
-225.698	-126.475	-0.072	0.011
-224.684	-70.598	-0.412	-0.156
-223.669	16.467	-0.229	-0.182
-222.655	20.396	0.212	-0.172
-221.640	188.027	0.116	0.174
-220.625	-103.186	0.222	-0.053
-219.611	-90.649	-0.247	0.072
-218.596	128.017	0.218	0.278
-217.582	-171.035	0.295	0.010
-216.567	800.000	0.173	-0.490
-215.552	81.371	-0.182	-0.198
-214.538	800.000	-0.080	0.237
-213.523	17.083	-0.198	0.158
-212.509	-162.977	-0.223	-0.011
-211.494	-200.000	0.005	0.092
-210.479	206.347	-0.139	-0.216
-209.465	46.563	0.189	-0.176
-208.450	-200.000	0.015	0.208
-207.436	429.234	-0.141	-0.306
-206.421	582.841	0.045	0.111
-205.406	-176.579	-0.200	0.005
-204.392	78.329	-0.139	0.149
-203.377	-54.574	-0.317	0.144
-202.363	800.000	-0.009	0.026
-201.348	175.892	0.048	0.069
-200.333	800.000	0.032	0.091
-199.319	506.932	0.057	-0.132
-198.304	-200.000	0.010	0.366
-197.290	-200.000	-0.008	0.227
-196.275	-16.619	-0.236	0.150
-195.260	-149.483	-0.108	0.009
-194.246	34.646	0.242	0.212
-193.231	667.749	0.128	0.332
-192.217	724.442	-0.051	0.137
-191.202	-16.421	0.255	0.162
-190.187	184.861	0.101	0.150
-189.173	607.477	-0.088	0.221
-188.158	449.722	0.073	-0.162
-187.144	154.514	-0.235	-0.323
-186.129	-56.207	-0.378	0.169
-185.114	-114.201	0.172	-0.033
-184.100	-200.000	-0.023	0.127
-183.085	-200.000	-0.028	-0.137
-182.071	107.705	-0.075	-0.089
-181.056	-74.680	-0.243	-0.087
-180.042	-61.422	-0.215	0.090
-179.027	-28.424	0.196	-0.113
-178.012	-22.017	-0.436	0.265
-176.998	296.758	-0.213	0.391
-175.983	-1.861	-0.261	0.184
-174.969	-140.264	0.307	-0.032
-173.954	169.194	0.127	0.181
-172.939	103.329	-0.147	0.173
-171.925	-200.000	0.015	-0.136
-170.910	214.552	-0.165	-0.262
-169.896	-152.657	-0.162	0.012
-168.881	-200.000	-0.013	0.401
-167.866	-200.000	0.014	0.302
-166.852	-129.023	0.350	-0.049
-165.837	598.197	-0.011	-0.027
-164.823	-200.000	-0.032	-0.305
-163.808	-32.770	-0.089	-0.050
-162.793	53.946	-0.048	0.046
-161.779	-58.867	0.023	0.010
-160.764	284.950	0.184	0.331
-159.750	-37.708	0.210	-0.112
-158.735	-46.485	0.163	-0.080
-157.720	-105.741	0.237	-0.054
-156.706	-94.430	-0.125	0.034
-155.691	-91.620	0.102	-0.029
-154.677	-200.000	0.011	0.072
-153.662	800.000	0.028	0.089
-152.647	-19.360	0.137	0.085
-151.633	504.989	0.098	-0.226
-150.618	61.053	0.101	-0.100
-149.604	-31.314	0.303	0.171
-148.589	-115.057	-0.183	-0.035
-147.574	800.000	-0.071	-0.302
-146.560	800.000	0.039	0.130
-145.545	-148.306	0.141	0.012
-144.531	-23.342	-0.308	0.185
-143.516	157.295	-0.147	0.204
-142.502	191.951	0.096	0.144
-141.487	-92.634	0.283	-0.079
-140.472	609.852	0.036	0.089
-139.458	800.000	0.043	0.121
-138.443	-200.000	-0.053	0.462
-137.429	92.301	0.148	0.166
-136.414	87.711	-0.123	0.136
-135.399	-5.546	-0.059	-0.040
-134.385	299.222	0.164	-0.301
-133.370	-159.309	-0.405	-0.023
-132.356	17.866	0.080	0.064
-131.341	-200.000	0.100	-0.450
-130.326	9.630	-0.191	0.145
-129.312	-59.065	0.228	-0.098
-128.297	665.810	0.140	0.362
-127.283	132.270	0.078	0.101
-126.268	-112.366	0.154	-0.031
-125.253	742.227	0.131	0.352
-124.239	3.767	0.338	0.246
-123.224	-47.696	-0.141	0.068
-122.210	-114.111	-0.097	0.019
-121.195	175.142	0.258	0.374
