DTS Sentinel unit serial number:	SN413079Multiplexer serial number:	ORYXHardware model number:	OX4-SRSoftware version number:	ORYX F/W v4.00 Oryx Data Collector v3.7.2.0data status	okinstallation	princeton_trtdifferential loss correction	single-endedforward channel	channel 1reverse channel	N/Adate	2019/09/16time	15:02:35forward acquisition time	60.00reverse acquisition time	0.00gamma	496.2192k internal	0.2293k external	0.2293temperature offset calibration	0.9949default loss term (dB/km)	0.3790temperature slope calibration	1.0000multiplexer offset coefficient	1.0000multiplexer slope coefficient	1.0000fibre end	0.00T internal ref (°C)	41.19T ext. ref 1 (°C)	14.47T ext. ref 2 (°C)	36.35length (m)	temperature (°C)	Stokes	anti-Stokes-747.200	-15.011	-0.130	0.085
-746.185	34.938	0.359	0.322
-745.171	-200.000	-0.002	0.152
-744.156	313.495	0.039	0.076
-743.142	800.000	0.122	0.501
-742.127	34.199	-0.128	0.114
-741.112	-200.000	-0.036	0.183
-740.098	313.189	0.143	0.275
-739.083	-61.886	0.116	-0.050
-738.069	230.421	0.090	-0.151
-737.054	-55.323	-0.147	-0.068
-736.039	-47.591	-0.116	0.057
-735.025	-64.761	-0.093	0.039
-734.010	-58.523	-0.228	0.101
-732.996	84.460	0.212	-0.238
-731.981	19.659	0.101	-0.083
-730.966	-200.000	-0.008	-0.089
-729.952	800.000	0.063	-0.235
-728.937	-162.087	-0.273	-0.014
-727.923	-200.000	-0.065	-0.517
-726.908	-200.000	-0.025	-0.171
-725.894	-200.000	0.019	0.198
-724.879	-200.000	0.016	0.358
-723.864	-77.533	0.151	0.054
-722.850	-200.000	0.048	-0.424
-721.835	249.872	0.036	0.062
-720.821	-158.466	-0.076	-0.005
-719.806	-32.202	-0.161	-0.092
-718.791	405.879	-0.038	-0.082
-717.777	506.769	-0.108	-0.257
-716.762	-200.000	-0.165	-0.001
-715.748	-200.000	0.020	-0.095
-714.733	-145.244	-0.423	-0.039
-713.718	126.378	0.261	-0.337
-712.704	308.502	-0.222	0.423
-711.689	-73.099	0.286	0.107
-710.675	-200.000	0.043	-0.000
-709.660	298.197	-0.146	0.275
-708.645	278.252	-0.276	-0.503
-707.631	-133.315	-0.089	0.011
-706.616	800.000	-0.002	-0.008
-705.602	800.000	0.036	0.113
-704.587	14.975	-0.116	-0.093
-703.572	227.871	0.117	0.195
-702.558	-94.779	-0.010	-0.003
-701.543	-109.995	-0.290	0.062
-700.529	-81.143	-0.124	-0.042
-699.514	87.862	-0.131	-0.148
-698.499	-29.989	0.213	-0.124
-697.485	800.000	0.014	0.055
-696.470	-200.000	-0.007	0.079
-695.456	-80.412	0.348	-0.119
-694.441	-152.601	0.441	0.032
-693.426	-124.600	-0.170	0.027
-692.412	137.720	0.139	0.186
-691.397	-62.610	-0.267	0.113
-690.383	113.046	0.105	-0.130
-689.368	305.837	-0.110	-0.208
-688.354	-102.468	0.449	0.110
-687.339	-114.755	-0.423	0.083
-686.324	203.497	-0.104	0.165
-685.310	16.110	-0.226	0.182
-684.295	92.364	0.179	-0.206
-683.281	24.030	0.099	0.084
-682.266	543.662	0.083	-0.202
-681.251	205.907	0.239	-0.379
-680.237	-200.000	0.047	-0.324
-679.222	800.000	0.067	-0.268
-678.208	65.201	-0.126	-0.130
-677.193	347.327	-0.127	0.255
-676.178	800.000	-0.123	-0.352
-675.164	-200.000	-0.056	-0.327
-674.149	-200.000	-0.037	0.386
-673.135	-66.903	-0.149	-0.060
-672.120	586.967	-0.209	0.526
-671.105	-200.000	0.002	-0.038
-670.091	-141.894	-0.098	0.010
-669.076	-46.486	-0.283	-0.142
-668.062	164.818	0.030	-0.043
-667.047	356.873	0.066	-0.133
-666.032	-7.189	0.082	0.057
-665.018	-200.000	-0.328	-0.001
-664.003	-101.568	-0.320	0.079
-662.989	83.433	-0.044	0.048
-661.974	13.111	-0.037	-0.029
-660.959	-164.432	0.195	0.009
-659.945	-148.762	-0.065	-0.005
-658.930	48.105	0.212	0.202
-657.916	90.809	0.208	0.238
-656.901	-15.570	0.253	0.164
-655.886	177.766	0.090	-0.134
-654.872	352.501	0.089	-0.180
-653.857	-155.548	0.376	-0.025
-652.843	-33.852	-0.156	-0.088
-651.828	-200.000	-0.001	0.100
-650.814	-101.580	0.167	0.041
-649.799	-67.211	0.094	-0.038
-648.784	-161.533	-0.232	0.012
-647.770	703.255	-0.020	-0.052
-646.755	140.553	-0.115	-0.155
-645.741	-200.000	0.018	0.302
-644.726	-136.174	0.276	-0.033
-643.711	800.000	0.063	-0.209
-642.697	115.316	-0.070	0.087
-641.682	-46.992	-0.269	0.134
-640.668	83.218	0.318	0.353
-639.653	-108.096	-0.172	0.038
-638.638	-200.000	-0.011	-0.193
-637.624	185.924	-0.143	0.217
-636.609	-200.000	0.017	0.141
-635.595	186.867	-0.046	-0.070
-634.580	-69.007	0.315	-0.124
-633.565	25.183	-0.068	-0.058
-632.551	-56.816	-0.031	-0.014
-631.536	-200.000	0.036	0.337
-630.522	-42.420	-0.158	0.082
-629.507	56.529	-0.226	-0.224
-628.492	73.887	-0.099	-0.106
-627.478	309.497	-0.018	0.034
-626.463	-92.772	-0.183	-0.052
-625.449	-46.062	0.187	0.094
-624.434	2.866	-0.136	-0.100
-623.419	-16.426	-0.202	0.131
-622.405	-200.000	-0.016	0.478
-621.390	-8.109	0.134	0.092
-620.376	-69.512	-0.122	0.047
-619.361	-176.109	-0.457	0.012
-618.346	64.886	0.327	-0.336
-617.332	693.149	-0.091	-0.242
-616.317	-200.000	0.006	0.132
-615.303	-200.000	-0.079	-0.451
-614.288	244.000	0.033	-0.056
-613.273	-161.996	0.238	-0.012
-612.259	-86.209	-0.175	-0.055
-611.244	-120.135	0.331	-0.058
-610.230	-71.036	-0.185	0.071
-609.215	116.790	-0.227	-0.284
-608.201	800.000	0.049	0.217
-607.186	174.134	0.106	0.156
-606.171	81.832	-0.064	0.070
-605.157	-200.000	-0.014	-0.198
-604.142	800.000	0.054	0.230
-603.128	-96.934	-0.072	0.019
-602.113	-70.596	-0.082	-0.032
-601.098	108.147	-0.107	-0.130
-600.084	71.470	-0.049	0.052
-599.069	28.379	0.128	0.110
-598.055	-10.584	0.026	-0.018
-597.040	123.863	-0.202	0.258
-596.025	-200.000	0.047	0.261
-595.011	800.000	-0.074	0.217
-593.996	99.096	0.108	0.127
-592.982	104.750	0.096	0.116
-591.967	-65.837	0.108	0.044
-590.952	-54.186	0.048	0.022
-589.938	49.245	-0.133	0.127
-588.923	204.337	0.072	-0.113
-587.909	-101.628	-0.103	-0.025
-586.894	-14.006	0.190	-0.125
-585.879	-64.605	0.156	0.064
-584.865	-122.832	-0.420	-0.069
-583.850	40.402	-0.185	0.169
-582.836	206.059	-0.090	0.143
-581.821	285.231	0.021	0.039
-580.806	65.490	-0.302	0.311
-579.792	251.466	-0.117	0.202
-578.777	-101.956	-0.209	-0.051
-577.763	800.000	0.046	-0.194
-576.748	-189.399	-0.130	-0.002
-575.733	-6.055	0.220	0.153
-574.719	-76.023	-0.259	0.093
-573.704	-22.351	0.150	0.092
-572.690	22.649	0.182	0.151
-571.675	271.567	-0.098	-0.176
-570.661	800.000	0.080	-0.345
-569.646	-200.000	0.036	-0.159
-568.631	800.000	0.056	0.171
-567.617	270.697	-0.148	-0.265
-566.602	800.000	0.070	-0.297
-565.588	197.228	-0.087	-0.134
-564.573	-80.463	0.302	0.102
-563.558	209.296	-0.214	0.340
-562.544	-120.757	0.187	0.032
-561.529	-66.848	0.268	0.108
-560.515	231.629	0.187	0.311
-559.500	29.569	0.193	-0.167
-558.485	-156.455	0.027	0.002
-557.471	45.270	0.133	-0.125
-556.456	152.761	-0.156	-0.216
-555.442	2.171	-0.049	-0.036
-554.427	-150.594	-0.227	0.018
-553.412	-45.497	-0.252	0.127
-552.398	19.317	0.199	-0.162
-551.383	-200.000	0.013	0.099
-550.369	-154.695	-0.061	0.004
-549.354	34.292	0.285	-0.253
-548.339	-43.160	-0.293	0.151
-547.325	-200.000	-0.075	-0.344
-546.310	145.602	-0.182	0.247
-545.296	-200.000	0.010	-0.161
-544.281	515.231	0.009	0.021
-543.266	70.213	-0.109	0.115
-542.252	530.123	-0.100	-0.239
-541.237	-29.879	0.218	-0.126
-540.223	-71.924	0.262	-0.099
-539.208	712.475	-0.089	-0.240
-538.193	800.000	0.055	0.205
-537.179	800.000	0.024	-0.086
-536.164	-69.899	0.371	0.144
-535.150	-200.000	0.003	-0.028
-534.135	-161.441	-0.160	0.008
-533.121	-14.420	-0.257	-0.168
-532.106	99.744	0.046	-0.054
-531.091	142.504	-0.157	0.212
-530.077	-57.970	-0.049	0.022
-529.062	-200.000	0.021	-0.213
-528.048	38.892	-0.060	0.055
-527.033	30.726	0.089	-0.077
-526.018	9.466	0.200	0.154
-525.004	447.821	-0.026	-0.058
-523.989	201.880	-0.177	-0.277
-522.975	-78.345	-0.103	-0.036
-521.960	-91.879	0.343	-0.099
-520.945	129.095	0.180	0.233
-519.931	-105.964	-0.241	0.055
-518.916	-129.695	-0.172	-0.024
-517.902	-120.338	0.226	0.039
-516.887	-84.332	-0.459	0.147
-515.872	-163.137	0.369	-0.018
-514.858	-200.000	-0.021	0.284
-513.843	19.016	0.132	-0.107
-512.829	-24.221	-0.114	0.069
-511.814	-200.000	0.006	0.101
-510.799	-200.000	0.022	0.275
-509.785	-200.000	0.002	0.273
-508.770	-53.054	-0.178	0.083
-507.756	-26.430	0.160	-0.095
-506.741	51.033	0.220	-0.212
-505.726	200.639	0.231	0.360
-504.712	167.755	0.105	-0.151
-503.697	-30.850	0.044	0.025
-502.683	-63.477	-0.030	0.012
-501.668	557.482	0.087	0.212
-500.653	-33.765	-0.388	0.217
-499.639	-94.269	-0.265	0.073
-498.624	76.190	-0.193	0.207
-497.610	759.761	0.053	-0.144
-496.595	68.102	0.253	-0.262
-495.581	-44.584	-0.050	-0.025
-494.566	176.328	0.084	-0.124
-493.551	15.714	0.027	0.021
-492.537	-149.239	0.213	-0.017
-491.522	57.998	0.165	0.163
-490.508	-200.000	-0.016	0.109
-489.493	-111.467	0.170	-0.035
-488.478	147.577	-0.114	-0.156
-487.464	54.429	-0.153	0.149
-486.449	164.423	-0.114	0.163
-485.435	-200.000	0.006	-0.190
-484.420	-89.042	-0.165	-0.050
-483.405	-33.140	-0.023	-0.013
-482.391	-167.116	0.371	-0.015
-481.376	-168.636	0.036	-0.001
-480.362	304.265	-0.141	-0.264
-479.347	-89.824	-0.156	-0.046
-478.332	58.711	0.238	0.237
-477.318	293.549	0.067	0.124
-476.303	-200.000	0.020	0.242
-475.289	59.552	-0.186	-0.186
-474.274	-56.835	0.434	-0.194
-473.259	23.343	0.255	-0.212
-472.245	-200.000	-0.624	-0.002
-471.230	73.457	0.171	-0.182
-470.216	-126.795	-0.201	-0.030
-469.201	149.119	0.079	0.108
-468.186	-142.578	0.163	0.016
-467.172	-200.000	0.043	-0.206
-466.157	800.000	-0.077	0.282
-465.143	-49.035	0.308	-0.149
-464.128	222.777	0.023	0.037
-463.113	-200.000	0.004	-0.346
-462.099	800.000	-0.066	-0.274
-461.084	184.239	0.065	-0.098
-460.070	-200.000	-0.020	-0.121
-459.055	736.497	-0.070	0.190
-458.040	800.000	0.062	-0.221
-457.026	148.822	0.080	-0.109
-456.011	-84.859	-0.220	0.070
-454.997	-171.793	-0.248	-0.008
-453.982	800.000	0.040	0.141
-452.968	-30.372	0.377	0.217
-451.953	-79.715	-0.124	0.042
-450.938	-184.547	-0.294	-0.005
-449.924	-83.062	0.218	0.071
-448.909	74.006	0.090	0.096
-447.895	46.787	-0.183	-0.172
-446.880	-51.270	0.178	-0.084
-445.865	-105.380	-0.035	-0.008
-444.851	142.981	-0.219	-0.294
-443.836	-175.578	0.216	-0.006
-442.822	-15.899	-0.129	-0.083
-441.807	-200.000	-0.005	0.180
-440.792	-40.439	0.307	-0.161
-439.778	157.908	-0.327	-0.458
-438.763	-106.305	-0.204	0.046
-437.749	50.561	-0.165	-0.158
-436.734	-68.903	-0.320	0.125
-435.719	-72.269	0.147	0.055
-434.705	-61.724	-0.215	0.091
-433.690	-74.306	-0.094	-0.034
-432.676	-46.351	0.120	0.059
-431.661	-200.000	0.022	0.202
-430.646	-27.196	-0.128	0.075
-429.632	-132.121	0.097	0.013
-428.617	762.570	-0.026	-0.071
-427.603	-50.865	0.097	-0.046
-426.588	39.694	0.114	-0.104
-425.573	-200.000	-0.096	-0.000
-424.559	20.483	-0.341	0.279
-423.544	10.450	-0.269	0.207
-422.530	-61.897	-0.103	0.044
-421.515	7.632	-0.073	0.055
-420.500	-106.609	0.407	-0.091
-419.486	-23.670	-0.165	-0.100
-418.471	-6.171	0.308	-0.213
-417.457	13.751	0.114	-0.090
-416.442	71.841	0.324	-0.340
-415.428	-49.568	-0.213	-0.102
-414.413	176.765	-0.221	-0.325
-413.398	-43.090	-0.234	0.120
-412.384	115.612	-0.205	-0.254
-411.369	800.000	0.015	0.061
-410.355	-84.176	-0.436	-0.140
-409.340	-200.000	0.133	0.589
-408.325	-200.000	-0.023	-0.157
-407.311	60.985	-0.120	0.120
-406.296	376.929	-0.137	0.283
-405.282	9.255	0.375	-0.287
-404.267	-200.000	0.030	0.253
-403.252	27.008	-0.134	0.114
-402.238	-121.621	-0.228	-0.038
-401.223	459.812	-0.021	0.047
-400.209	-56.991	-0.287	0.128
-399.194	-200.000	-0.043	0.279
-398.179	13.319	0.067	0.053
-397.165	800.000	0.104	-0.432
-396.150	800.000	0.076	-0.230
-395.136	32.361	-0.075	0.066
-394.121	373.587	-0.163	0.335
-393.106	32.400	0.053	-0.046
-392.092	-109.167	-0.371	0.080
-391.077	-34.150	0.223	0.123
-390.063	-10.115	0.202	0.135
-389.048	-90.159	0.257	-0.075
-388.033	-14.807	0.094	0.061
-387.019	-25.273	0.227	0.136
-386.004	493.554	0.027	0.063
-384.990	-73.637	0.093	-0.034
-383.975	136.795	-0.115	0.151
-382.960	-100.775	0.259	-0.064
-381.946	-114.775	0.353	0.068
-380.931	-92.258	0.547	-0.156
-379.917	-200.000	0.010	-0.337
-378.902	-80.155	0.483	-0.163
-377.888	-117.631	-0.124	0.022
-376.873	-108.645	-0.468	0.101
-375.858	-85.740	0.246	0.077
-374.844	800.000	0.058	-0.195
-373.829	-105.015	-0.149	0.034
-372.815	-100.471	0.036	0.009
-371.800	168.616	-0.055	-0.079
-370.785	-74.552	0.109	0.039
-369.771	-120.468	-0.357	0.061
-368.756	-200.000	-0.035	-0.193
-367.742	171.582	-0.059	-0.085
-366.727	333.510	0.113	-0.219
-365.712	-158.297	0.168	0.010
-364.698	94.830	0.095	-0.109
-363.683	-38.009	-0.217	0.116
-362.669	43.224	0.170	0.157
-361.654	-129.592	0.121	-0.017
-360.639	-129.602	-0.046	-0.006
-359.625	-113.359	-0.297	-0.059
-358.610	348.391	-0.105	-0.208
-357.596	17.071	-0.163	0.130
-356.581	291.563	0.217	-0.399
-355.566	29.630	-0.101	0.087
-354.552	-154.414	0.101	-0.007
-353.537	13.601	-0.102	0.079
-352.523	81.668	-0.055	-0.060
-351.508	-173.217	-0.287	-0.009
-350.493	74.814	-0.029	0.030
-349.479	-200.000	-0.033	0.255
-348.464	161.638	0.218	0.308
-347.450	176.203	0.163	-0.239
-346.435	66.575	0.063	-0.064
-345.420	-50.167	0.244	0.116
-344.406	-28.298	0.156	0.091
-343.391	182.090	0.112	-0.167
-342.377	-11.912	0.066	-0.044
-341.362	197.393	0.139	0.214
-340.348	-102.388	-0.242	0.058
-339.333	-84.039	-0.207	0.066
-338.318	477.218	-0.073	-0.166
-337.304	-200.000	-0.045	-0.260
-336.289	-38.968	0.159	0.084
-335.275	-200.000	-0.024	0.217
-334.260	-151.697	0.246	-0.018
-333.245	8.401	0.228	0.173
-332.231	-200.000	0.034	0.297
-331.216	800.000	-0.033	0.125
-330.202	634.357	0.092	0.236
-329.187	-200.000	-0.007	-0.032
-328.172	13.222	0.166	0.130
-327.158	107.909	0.137	0.164
-326.143	132.795	-0.157	-0.203
-325.129	38.024	-0.128	-0.114
-324.114	-106.135	0.246	-0.055
-323.099	15.274	0.107	-0.085
-322.085	38.349	-0.212	-0.190
-321.070	237.110	-0.060	0.100
-320.056	37.845	0.155	0.139
-319.041	615.830	-0.039	-0.098
-318.026	110.990	-0.211	0.256
-317.012	2.728	-0.251	0.184
-315.997	-46.968	-0.255	0.125
-314.983	42.656	-0.286	-0.262
-313.968	-108.556	-0.224	0.049
-312.953	-79.444	0.201	-0.068
-311.939	308.721	0.062	-0.116
-310.924	-200.000	0.018	0.085
-309.910	-200.000	-0.029	0.263
-308.895	-53.692	0.166	-0.076
-307.880	-115.707	-0.150	0.028
-306.866	-200.000	0.013	0.068
-305.851	-180.076	0.321	0.007
-304.837	-23.346	0.022	0.014
-303.822	-68.306	-0.137	-0.054
-302.807	-200.000	-0.044	0.329
-301.793	99.632	-0.038	-0.045
-300.778	-39.509	0.151	-0.079
-299.764	-22.060	-0.116	-0.071
-298.749	133.357	0.101	-0.131
-297.735	3.069	-0.215	-0.157
-296.720	800.000	-0.070	-0.243
-295.705	-18.785	0.158	0.099
-294.691	6.461	0.304	0.227
-293.676	-60.116	-0.369	0.158
-292.662	-200.000	0.005	-0.060
-291.647	800.000	-0.125	-0.454
-290.632	800.000	0.112	0.373
-289.618	405.914	-0.049	-0.105
-288.603	-108.365	-0.064	0.014
-287.589	-79.481	0.189	-0.064
-286.574	-200.000	-0.003	-0.219
-285.559	638.724	0.136	-0.349
-284.545	85.437	-0.195	-0.215
-283.530	-200.000	-0.040	-0.273
-282.516	800.000	0.079	-0.337
-281.501	-98.734	-0.333	-0.085
-280.486	551.745	-0.123	0.296
-279.472	800.000	-0.058	-0.235
-278.457	800.000	0.061	-0.190
-277.443	-62.223	-0.159	0.067
-276.428	70.404	-0.143	0.149
-275.413	-49.483	0.093	-0.045
-274.399	190.287	0.048	-0.072
-273.384	-26.054	-0.127	-0.075
-272.370	-200.000	0.036	-0.268
-271.355	-200.000	-0.022	-0.100
-270.340	800.000	-0.075	-0.251
-269.326	-121.989	-0.179	0.030
-268.311	381.428	0.028	-0.057
-267.297	722.736	-0.113	-0.303
-266.282	186.360	-0.233	0.348
-265.267	-30.248	-0.198	-0.113
-264.253	-200.000	-0.003	-0.288
-263.238	-60.130	0.108	0.046
-262.224	571.680	-0.069	-0.168
-261.209	7.845	0.139	-0.105
-260.195	27.587	-0.209	-0.176
-259.180	-39.546	0.257	-0.135
-258.165	-44.446	-0.166	-0.084
-257.151	-152.463	-0.058	0.004
-256.136	194.702	-0.044	0.067
-255.122	-57.312	-0.237	0.105
-254.107	49.009	-0.111	-0.105
-253.092	-87.036	-0.377	-0.115
-252.078	-115.556	0.279	-0.053
-251.063	800.000	0.051	-0.172
-250.049	119.544	0.134	0.166
-249.034	137.615	0.184	-0.241
-248.019	52.474	0.222	0.212
-247.005	-200.000	-0.009	0.042
-245.990	-25.946	0.144	-0.085
-244.976	144.844	-0.070	-0.094
-243.961	283.075	0.053	0.096
-242.946	-60.280	-0.302	0.129
-241.932	-66.579	0.081	-0.032
-240.917	-10.445	-0.319	-0.212
-239.903	-28.782	-0.316	-0.182
-238.888	800.000	0.085	0.344
-237.873	-70.651	0.403	0.153
-236.859	108.561	0.207	0.248
-235.844	28.030	-0.039	-0.033
-234.830	-59.335	-0.253	-0.109
-233.815	6.680	-0.287	0.214
-232.800	253.204	-0.106	0.182
-231.786	-132.190	0.151	0.020
-230.771	-50.295	0.116	0.055
-229.757	-15.515	0.104	0.066
-228.742	249.797	0.112	-0.190
-227.727	-82.164	0.129	0.042
-226.713	-149.561	0.215	0.017
-225.698	-111.245	0.267	-0.055
-224.684	-200.000	0.019	-0.253
-223.669	-15.740	0.205	-0.131
-222.655	126.278	0.205	-0.261
-221.640	206.699	-0.176	-0.275
-220.625	-33.329	-0.147	0.082
-219.611	-34.257	0.293	0.161
-218.596	198.912	-0.063	-0.096
-217.582	-132.665	0.543	0.070
-216.567	-200.000	0.009	0.200
-215.552	800.000	0.105	0.316
-214.538	230.680	-0.230	-0.378
-213.523	-200.000	-0.020	0.189
-212.509	-200.000	0.036	0.245
-211.494	29.193	-0.053	-0.045
-210.479	-97.116	0.274	0.072
-209.465	220.533	0.098	-0.158
-208.450	-200.000	-0.003	-0.084
-207.436	-96.271	-0.304	-0.081
-206.421	124.608	0.100	0.127
-205.406	-63.552	0.443	0.182
-204.392	-88.960	0.212	-0.063
-203.377	136.371	0.118	-0.154
-202.363	32.452	0.188	0.163
-201.348	-101.878	-0.112	-0.027
-200.333	624.035	0.061	0.155
-199.319	-87.221	-0.230	0.070
-198.304	-125.045	0.012	-0.002
-197.290	52.394	-0.047	0.045
-196.275	800.000	-0.125	0.347
-195.260	-112.855	0.328	-0.065
-194.246	800.000	-0.019	-0.073
-193.231	130.711	0.106	-0.136
-192.217	-18.261	0.101	-0.063
-191.202	-200.000	-0.002	-0.305
-190.187	-1.777	0.241	-0.170
-189.173	399.424	-0.075	0.158
-188.158	118.343	0.163	0.201
-187.144	-51.974	-0.166	0.077
-186.129	20.762	-0.120	-0.097
-185.114	338.846	-0.134	0.261
-184.100	-200.000	0.065	0.304
-183.085	254.708	0.095	-0.163
-182.071	-46.354	0.243	-0.119
-181.056	-101.171	0.142	-0.035
-180.042	265.220	-0.211	0.368
-179.027	74.964	-0.110	0.116
-178.012	-24.885	-0.091	0.054
-176.998	-14.759	0.174	-0.112
-175.983	-200.000	-0.097	0.000
-174.969	-104.814	-0.027	-0.006
-173.954	-99.068	0.375	-0.095
-172.939	42.968	-0.295	0.269
-171.925	127.768	0.235	0.298
-170.910	-200.000	0.011	0.114
-169.896	48.223	-0.094	-0.088
-168.881	69.795	-0.179	-0.185
-167.866	-200.000	0.021	0.231
-166.852	37.120	0.032	0.029
-165.837	-8.088	0.200	0.135
-164.823	-68.747	-0.298	0.115
-163.808	-27.809	-0.183	-0.106
-162.793	632.202	0.162	-0.411
-161.779	-26.503	0.213	-0.125
-160.764	319.477	0.088	0.167
-159.750	43.879	-0.334	0.306
-158.735	115.086	0.135	-0.165
-157.720	30.076	-0.095	0.081
-156.706	800.000	0.033	-0.095
-155.691	11.316	-0.097	-0.074
-154.677	281.508	0.076	-0.136
-153.662	-200.000	0.051	0.234
-152.647	-200.000	0.017	0.312
-151.633	-35.131	0.195	0.106
-150.618	18.025	-0.088	0.070
-149.604	17.783	-0.146	0.116
-148.589	145.852	0.138	0.185
-147.574	80.151	-0.268	0.288
-146.560	-138.580	-0.141	-0.015
-145.545	800.000	-0.044	0.138
-144.531	-90.388	0.086	0.025
-143.516	-61.463	-0.234	0.098
-142.502	-55.795	-0.171	0.077
-141.487	-200.000	0.015	0.340
-140.472	-48.374	-0.071	-0.034
-139.458	54.824	-0.130	0.126
-138.443	-50.845	-0.198	-0.093
-137.429	503.304	0.070	0.161
-136.414	147.095	-0.138	-0.185
-135.399	-63.306	0.219	0.090
-134.385	800.000	-0.058	-0.180
-133.370	-55.923	-0.135	0.060
-132.356	63.921	0.284	0.285
-131.341	-185.911	-0.161	0.002
-130.326	-138.440	0.480	-0.053
-129.312	-30.378	0.096	-0.054
-128.297	-200.000	-0.013	-0.231
-127.283	570.679	-0.018	0.044
-126.268	420.941	-0.142	-0.303
-125.253	-200.000	0.033	0.202
-124.239	607.961	-0.110	0.275
-123.224	314.014	-0.071	0.133
-122.210	-85.640	-0.114	-0.035
-121.195	189.924	-0.103	-0.155
