DTS Sentinel unit serial number:	SN413079Multiplexer serial number:	ORYXHardware model number:	OX4-SRSoftware version number:	ORYX F/W v4.00 Oryx Data Collector v3.7.2.0data status	okinstallation	princeton_trtdifferential loss correction	single-endedforward channel	channel 1reverse channel	N/Adate	2019/09/11time	07:52:11forward acquisition time	60.00reverse acquisition time	0.00gamma	496.2192k internal	0.2322k external	0.2322temperature offset calibration	0.9905default loss term (dB/km)	0.3790temperature slope calibration	1.0000multiplexer offset coefficient	1.0000multiplexer slope coefficient	1.0000fibre end	0.00T internal ref (°C)	31.84T ext. ref 1 (°C)	0.09T ext. ref 2 (°C)	27.94length (m)	temperature (°C)	Stokes	anti-Stokes-747.200	-200.000	-0.023	-0.150
-746.185	256.591	0.084	-0.146
-745.171	800.000	0.061	-0.182
-744.156	229.785	-0.088	-0.145
-743.142	370.934	-0.112	-0.229
-742.127	-91.062	-0.136	0.039
-741.112	0.663	0.112	0.081
-740.098	-200.000	-0.010	0.054
-739.083	154.826	0.045	-0.063
-738.069	-132.801	-0.150	0.019
-737.054	651.868	0.020	-0.051
-736.039	4.228	-0.149	-0.110
-735.025	-39.756	0.396	0.209
-734.010	200.173	-0.162	-0.251
-732.996	101.323	-0.191	-0.224
-731.981	184.480	0.161	0.240
-730.966	-91.158	-0.290	-0.084
-729.952	-99.508	-0.122	0.031
-728.937	73.699	-0.119	0.126
-727.923	-110.553	-0.433	-0.091
-726.908	-200.000	0.016	-0.101
-725.894	647.788	0.037	0.096
-724.879	-200.000	0.012	0.131
-723.864	800.000	-0.017	0.048
-722.850	91.038	0.071	0.080
-721.835	-200.000	-0.003	0.158
-720.821	180.085	-0.129	0.191
-719.806	288.458	0.166	-0.303
-718.791	155.671	-0.121	-0.169
-717.777	602.111	0.057	0.142
-716.762	-200.000	0.024	0.233
-715.748	68.325	0.101	-0.105
-714.733	3.453	-0.213	0.157
-713.718	-200.000	-0.046	-0.317
-712.704	18.982	0.220	-0.178
-711.689	115.671	-0.092	0.113
-710.675	692.691	0.031	0.081
-709.660	630.020	0.115	0.294
-708.645	44.108	0.120	-0.111
-707.631	-169.504	0.161	0.006
-706.616	-200.000	0.026	-0.175
-705.602	266.596	0.115	0.202
-704.587	120.265	-0.078	-0.098
-703.572	16.033	-0.083	0.066
-702.558	-200.000	0.003	0.177
-701.543	40.264	0.073	-0.067
-700.529	115.688	0.087	0.107
-699.514	206.004	0.205	0.321
-698.499	800.000	-0.028	0.098
-697.485	-200.000	-0.045	-0.420
-696.470	147.125	0.092	-0.124
-695.456	800.000	0.062	-0.172
-694.441	286.739	-0.076	0.139
-693.426	341.956	-0.215	-0.423
-692.412	504.973	0.081	0.189
-691.397	47.961	-0.059	0.055
-690.383	-118.746	-0.115	-0.021
-689.368	125.990	-0.213	-0.271
-688.354	330.523	-0.193	-0.375
-687.339	146.822	-0.150	0.204
-686.324	-51.455	-0.194	-0.091
-685.310	668.803	-0.051	0.134
-684.295	-67.030	-0.196	-0.078
-683.281	800.000	0.060	-0.217
-682.266	800.000	-0.022	0.069
-681.251	-200.000	0.013	-0.078
-680.237	800.000	0.039	0.129
-679.222	-33.987	0.128	0.071
-678.208	800.000	0.031	-0.112
-677.193	-105.690	0.361	-0.082
-676.178	800.000	0.107	-0.367
-675.164	-4.146	0.342	-0.238
-674.149	-21.544	-0.127	-0.078
-673.135	-133.204	0.487	0.062
-672.120	103.496	0.247	-0.292
-671.105	130.109	-0.159	0.205
-670.091	-200.000	-0.040	-0.360
-669.076	16.645	-0.091	-0.073
-668.062	-137.480	0.135	0.015
-667.047	36.844	0.089	-0.079
-666.032	-58.858	-0.272	-0.118
-665.018	-200.000	0.020	-0.109
-664.003	-63.032	0.269	0.112
-662.989	-200.000	0.000	-0.154
-661.974	-59.625	-0.066	0.029
-660.959	-180.683	-0.115	0.002
-659.945	800.000	-0.126	0.355
-658.930	-16.644	-0.137	-0.087
-657.916	484.570	0.069	0.158
-656.901	-200.000	-0.003	0.152
-655.886	-200.000	-0.068	0.303
-654.872	-96.726	0.118	-0.031
-653.857	202.214	0.074	-0.114
-652.843	-98.551	-0.088	0.023
-651.828	179.755	0.042	0.061
-650.814	-35.356	0.009	0.005
-649.799	531.845	-0.007	0.017
-648.784	-200.000	-0.034	-0.171
-647.770	270.292	-0.077	-0.136
-646.755	-136.882	0.155	-0.018
-645.741	-48.969	0.091	-0.044
-644.726	-112.980	-0.241	0.048
-643.711	-200.000	-0.031	-0.340
-642.697	-200.000	0.023	-0.151
-641.682	800.000	0.044	-0.142
-640.668	-127.333	0.062	-0.009
-639.653	-21.031	0.216	-0.133
-638.638	97.077	0.086	-0.099
-637.624	215.115	-0.115	0.183
-636.609	301.324	0.082	0.153
-635.595	-136.540	0.124	0.015
-634.580	-125.387	-0.071	-0.011
-633.565	603.118	-0.075	-0.188
-632.551	-10.586	-0.184	0.123
-631.536	-200.000	0.013	-0.149
-630.522	-200.000	0.021	-0.307
-629.507	396.392	-0.002	0.003
-628.492	-200.000	-0.159	0.000
-627.478	-79.642	0.202	0.068
-626.463	26.490	-0.246	-0.207
-625.449	-200.000	0.043	0.217
-624.434	316.771	-0.151	0.287
-623.419	396.397	-0.169	0.354
-622.405	-200.000	-0.447	-0.001
-621.390	70.513	0.126	-0.131
-620.376	-149.956	0.104	0.008
-619.361	-200.000	0.030	-0.257
-618.346	-11.777	-0.051	0.034
-617.332	-72.408	0.432	-0.161
-616.317	42.351	0.333	-0.305
-615.303	-100.543	0.018	-0.004
-614.288	-4.986	-0.173	0.119
-613.273	-154.728	-0.215	0.014
-612.259	423.577	-0.059	-0.128
-611.244	-82.223	0.223	-0.073
-610.230	168.220	-0.169	0.241
-609.215	-200.000	0.030	-0.197
-608.201	-200.000	-0.022	-0.139
-607.186	172.188	-0.182	0.263
-606.171	-145.091	0.265	-0.024
-605.157	69.455	-0.103	-0.107
-604.142	-109.316	0.039	0.008
-603.128	87.121	0.049	-0.055
-602.113	-200.000	-0.086	-0.405
-601.098	53.764	0.397	-0.383
-600.084	-161.138	-0.076	-0.004
-599.069	-49.361	-0.472	0.226
-598.055	-137.625	0.518	0.059
-597.040	-200.000	0.003	0.183
-596.025	-138.009	-0.208	-0.023
-595.011	-200.000	0.005	-0.095
-593.996	100.633	-0.198	0.232
-592.982	-158.075	-0.155	0.009
-591.967	-88.575	-0.107	0.032
-590.952	-200.000	0.037	0.176
-589.938	1.996	0.114	0.083
-588.923	-36.725	-0.236	0.127
-587.909	-87.223	-0.365	0.111
-586.894	-175.093	-0.222	0.006
-585.879	-64.921	-0.206	-0.084
-584.865	-185.409	-0.118	-0.002
-583.850	800.000	-0.122	-0.340
-582.836	112.130	0.128	0.155
-581.821	800.000	-0.056	0.206
-580.806	105.344	0.128	0.152
-579.792	30.473	-0.149	0.128
-578.777	-25.140	0.245	0.146
-577.763	800.000	-0.119	0.411
-576.748	728.158	0.037	0.100
-575.733	174.134	-0.192	0.278
-574.719	138.180	-0.162	0.213
-573.704	-85.385	-0.346	0.108
-572.690	-94.577	-0.390	-0.106
-571.675	153.574	-0.143	-0.197
-570.661	-131.091	0.457	-0.061
-569.646	381.982	0.092	0.190
-568.631	246.143	-0.233	-0.394
-567.617	16.601	0.177	0.140
-566.602	141.237	-0.218	-0.289
-565.588	-200.000	0.032	-0.275
-564.573	718.823	0.057	0.152
-563.558	238.576	-0.144	-0.240
-562.544	-74.038	0.306	-0.111
-561.529	-200.000	0.017	0.240
-560.515	-107.277	0.399	-0.088
-559.500	-111.136	-0.543	0.112
-558.485	202.184	0.067	0.104
-557.471	-200.000	0.028	-0.305
-556.456	-200.000	-0.017	0.091
-555.442	509.502	-0.079	-0.185
-554.427	-85.794	0.138	-0.043
-553.412	498.085	0.057	-0.132
-552.398	-25.219	-0.222	0.132
-551.383	-157.594	-0.037	0.002
-550.369	143.401	-0.068	0.090
-549.354	-2.099	-0.340	0.240
-548.339	-200.000	0.032	-0.159
-547.325	399.956	0.126	-0.265
-546.310	-200.000	-0.050	-0.297
-545.296	-200.000	0.071	0.386
-544.281	-65.677	0.097	0.039
-543.266	6.102	-0.202	-0.150
-542.252	291.477	-0.090	-0.165
-541.237	-103.453	-0.233	-0.055
-540.223	35.395	-0.099	0.087
-539.208	105.865	-0.230	0.273
-538.193	473.870	-0.048	-0.109
-537.179	-200.000	0.022	0.204
-536.164	800.000	0.006	-0.023
-535.150	518.250	0.111	0.259
-534.135	225.090	0.072	-0.116
-533.121	-200.000	0.017	-0.096
-532.106	32.859	-0.099	-0.085
-531.091	-133.658	0.224	0.028
-530.077	-155.586	-0.237	0.015
-529.062	-8.863	0.423	-0.284
-528.048	-200.000	-0.000	-0.239
-527.033	-200.000	0.034	-0.299
-526.018	-200.000	-0.009	0.231
-525.004	-200.000	-0.039	0.320
-523.989	-24.852	-0.291	0.173
-522.975	-200.000	0.002	-0.166
-521.960	-200.000	-0.031	-0.375
-520.945	-200.000	-0.026	-0.125
-519.931	-15.264	-0.029	-0.018
-518.916	28.353	-0.224	0.189
-517.902	74.474	0.198	0.208
-516.887	800.000	0.076	-0.306
-515.872	-120.754	-0.034	0.006
-514.858	-92.026	-0.207	0.059
-513.843	14.686	-0.091	-0.072
-512.829	-99.125	0.431	-0.109
-511.814	-200.000	-0.012	0.230
-510.799	-200.000	0.015	0.096
-509.785	144.079	-0.060	-0.080
-508.770	-200.000	-0.042	-0.210
-507.756	154.280	0.295	-0.405
-506.741	-55.975	0.192	-0.086
-505.726	18.688	-0.240	-0.192
-504.712	-0.414	0.172	-0.123
-503.697	-75.192	-0.364	0.130
-502.683	-200.000	-0.077	-0.355
-501.668	-169.195	-0.179	0.007
-500.653	-80.057	0.263	0.088
-499.639	140.491	-0.099	-0.131
-498.624	-70.969	-0.322	-0.121
-497.610	800.000	0.061	0.246
-496.595	-200.000	-0.039	0.293
-495.581	-200.000	-0.072	-0.527
-494.566	-20.350	-0.214	0.132
-493.551	765.277	-0.142	-0.387
-492.537	-200.000	0.027	-0.286
-491.522	-27.042	0.218	0.127
-490.508	63.350	0.103	-0.104
-489.493	176.801	0.092	0.134
-488.478	-200.000	0.030	0.204
-487.464	-132.159	0.193	0.025
-486.449	197.457	0.165	0.252
-485.435	-74.445	-0.185	0.067
-484.420	-131.647	0.174	-0.023
-483.405	138.261	-0.049	-0.065
-482.391	-59.132	-0.088	0.038
-481.376	637.160	0.064	0.162
-480.362	-34.144	0.146	-0.080
-479.347	255.725	0.020	0.034
-478.332	-200.000	-0.000	-0.051
-477.318	-86.321	0.088	-0.027
-476.303	800.000	0.082	-0.322
-475.289	128.817	-0.041	0.053
-474.274	800.000	0.039	-0.129
-473.259	0.884	0.095	-0.068
-472.245	-165.801	0.283	0.012
-471.230	-98.891	0.097	-0.025
-470.216	800.000	-0.024	-0.084
-469.201	-200.000	0.059	0.363
-468.186	-83.275	0.178	-0.057
-467.172	397.157	0.136	-0.284
-466.157	564.000	0.039	0.094
-465.143	-112.950	-0.459	-0.091
-464.128	-54.510	-0.139	-0.063
-463.113	80.793	0.118	-0.127
-462.099	-200.000	-0.003	-0.262
-461.084	800.000	0.095	0.395
-460.070	49.418	-0.220	-0.207
-459.055	580.750	-0.112	0.273
-458.040	-67.824	-0.122	0.048
-457.026	-79.955	0.139	-0.047
-456.011	800.000	0.139	-0.463
-454.997	-14.342	0.186	0.120
-453.982	-87.740	0.313	-0.094
-452.968	-200.000	-0.035	-0.180
-451.953	-133.670	0.357	0.044
-450.938	-200.000	-0.072	0.454
-449.924	-111.014	-0.293	0.060
-448.909	57.443	-0.046	0.044
-447.895	-149.920	0.323	0.025
-446.880	-1.079	0.326	-0.230
-445.865	-200.000	-0.002	-0.228
-444.851	800.000	0.026	0.105
-443.836	47.765	0.259	0.242
-442.822	-85.298	-0.093	-0.029
-441.807	-147.947	-0.173	0.014
-440.792	-51.042	0.230	-0.108
-439.778	257.653	-0.057	0.098
-438.763	-50.853	0.111	-0.052
-437.749	319.221	-0.047	-0.089
-436.734	332.086	-0.152	-0.293
-435.719	-107.487	-0.204	0.045
-434.705	482.441	-0.046	0.104
-433.690	203.441	-0.110	0.170
-432.676	-200.000	-0.042	0.290
-431.661	-200.000	-0.003	-0.095
-430.646	-121.139	0.373	-0.062
-429.632	-129.779	-0.008	-0.001
-428.617	10.937	0.106	-0.081
-427.603	-62.607	-0.316	-0.131
-426.588	-200.000	-0.078	0.369
-425.573	-92.584	0.177	0.050
-424.559	320.298	-0.069	0.130
-423.544	0.502	0.138	-0.098
-422.530	-59.689	-0.239	-0.102
-421.515	130.688	-0.187	-0.239
-420.500	-63.000	0.242	-0.100
-419.486	115.561	0.204	0.248
-418.471	208.167	-0.116	0.180
-417.457	-107.944	-0.085	-0.018
-416.442	-200.000	-0.098	-0.507
-415.428	-200.000	-0.026	0.175
-414.413	31.339	0.144	-0.123
-413.398	172.030	0.075	-0.108
-412.384	-122.365	-0.084	0.014
-411.369	-42.952	-0.268	0.136
-410.355	189.058	0.112	0.167
-409.340	-200.000	0.055	-0.406
-408.325	-32.708	-0.034	-0.019
-407.311	-81.674	-0.089	-0.029
-406.296	-159.239	-0.099	-0.006
-405.282	-45.980	0.282	0.139
-404.267	-73.480	0.112	-0.041
-403.252	65.513	0.149	-0.151
-402.238	-49.934	-0.158	-0.075
-401.223	295.584	-0.065	-0.118
-400.209	-122.711	-0.411	-0.066
-399.194	-7.505	-0.121	0.081
-398.179	269.427	0.154	0.269
-397.165	18.028	-0.222	0.177
-396.150	129.068	0.305	-0.387
-395.136	-54.118	0.335	0.152
-394.121	286.580	0.027	0.048
-393.106	7.959	-0.068	-0.051
-392.092	-127.432	-0.299	0.043
-391.077	-136.337	-0.211	0.024
-390.063	-74.334	0.123	-0.044
-389.048	-62.356	-0.213	0.088
-388.033	-51.719	0.154	0.071
-387.019	32.723	0.088	0.076
-386.004	-3.104	-0.234	0.163
-384.990	-200.000	-0.001	0.154
-383.975	167.646	0.189	-0.267
-382.960	800.000	0.018	0.057
-381.946	-78.944	0.198	0.067
-380.931	-157.048	0.327	0.020
-379.917	-31.933	0.090	-0.050
-378.902	-200.000	0.022	0.159
-377.888	-121.003	-0.210	-0.035
-376.873	215.505	-0.081	0.128
-375.858	109.558	-0.184	-0.220
-374.844	597.710	-0.125	0.307
-373.829	-35.430	-0.246	0.133
-372.815	12.498	-0.212	0.162
-371.800	139.373	-0.046	-0.061
-370.785	-200.000	-0.004	0.102
-369.771	137.156	-0.131	0.170
-368.756	-200.000	0.027	0.226
-367.742	365.975	0.080	0.161
-366.727	-1.803	-0.045	0.032
-365.712	33.117	-0.212	-0.183
-364.698	-200.000	0.018	-0.232
-363.683	-84.992	0.261	0.081
-362.669	66.889	-0.165	0.168
-361.654	-72.960	0.095	-0.035
-360.639	46.883	0.065	-0.060
-359.625	-20.273	-0.090	0.055
-358.610	217.765	0.075	-0.118
-357.596	-14.253	-0.314	-0.201
-356.581	67.708	-0.168	-0.171
-355.566	-200.000	0.021	-0.395
-354.552	-59.402	-0.183	-0.078
-353.537	-200.000	0.045	-0.280
-352.523	-143.614	0.278	-0.026
-351.508	228.252	0.120	-0.194
-350.493	-37.016	0.232	0.124
-349.479	35.496	-0.260	-0.227
-348.464	800.000	0.024	-0.105
-347.450	-98.282	-0.174	-0.045
-346.435	353.323	0.005	0.010
-345.420	-52.973	0.175	0.080
-344.406	209.709	-0.041	-0.064
-343.391	-7.616	-0.060	-0.040
-342.377	-158.974	-0.163	0.009
-341.362	-86.982	0.018	0.006
-340.348	-13.868	-0.347	-0.223
-339.333	-110.941	0.590	-0.121
-338.318	-58.394	-0.235	0.102
-337.304	401.913	-0.135	-0.281
-336.289	23.079	0.135	0.110
-335.275	-200.000	-0.035	-0.221
-334.260	-98.109	0.186	-0.048
-333.245	-8.372	0.080	0.054
-332.231	-200.000	0.398	-0.000
-331.216	210.806	-0.251	-0.392
-330.202	51.125	-0.081	0.076
-329.187	-16.243	0.367	-0.232
-328.172	-200.000	0.021	-0.192
-327.158	-74.590	0.267	0.095
-326.143	367.049	-0.123	0.248
-325.129	261.855	-0.149	-0.257
-324.114	102.901	-0.076	-0.089
-323.099	800.000	0.047	-0.145
-322.085	-142.506	-0.116	-0.011
-321.070	-71.894	-0.267	0.099
-320.056	-200.000	0.030	0.220
-319.041	-154.372	0.357	0.024
-318.026	350.644	-0.156	-0.307
-317.012	260.300	-0.154	-0.264
-315.997	800.000	-0.065	0.214
-314.983	-200.000	0.005	0.401
-313.968	-71.453	-0.269	-0.100
-312.953	143.767	0.114	0.151
-311.939	800.000	0.051	-0.165
-310.924	32.137	-0.384	-0.329
-309.910	36.070	0.364	-0.318
-308.895	82.262	-0.036	-0.039
-307.880	-85.516	0.116	0.036
-306.866	-18.459	0.245	0.152
-305.851	-119.853	-0.058	-0.010
-304.837	170.372	0.031	0.045
-303.822	15.988	-0.076	0.060
-302.807	-23.966	-0.135	-0.080
-301.793	-91.394	-0.147	0.042
-300.778	-5.559	-0.085	0.058
-299.764	540.218	0.025	0.060
-298.749	134.840	0.232	0.299
-297.735	-200.000	-0.005	0.196
-296.720	-106.873	0.075	-0.016
-295.705	-188.127	0.350	0.004
-294.691	-113.798	0.107	-0.021
-293.676	-27.776	0.267	0.154
-292.662	-200.000	0.014	0.128
-291.647	-200.000	-0.020	-0.148
-290.632	-32.881	0.198	0.109
-289.618	75.041	0.251	0.262
-288.603	281.931	-0.147	0.261
-287.589	20.807	-0.092	0.074
-286.574	143.714	-0.080	0.106
-285.559	-8.158	-0.087	-0.058
-284.545	800.000	-0.088	0.253
-283.530	800.000	-0.012	0.046
-282.516	-5.559	-0.166	0.113
-281.501	-23.051	0.231	0.138
-280.486	-57.418	0.082	-0.036
-279.472	711.748	-0.014	-0.037
-278.457	-200.000	0.005	-0.076
-277.443	73.917	0.070	-0.073
-276.428	-118.497	0.215	0.038
-275.413	800.000	0.071	-0.268
-274.399	-16.470	-0.219	-0.138
-273.384	-143.453	0.132	-0.012
-272.370	-200.000	0.000	-0.049
-271.355	-200.000	0.011	-0.090
-270.340	99.839	-0.090	-0.103
-269.326	-95.650	-0.084	-0.022
-268.311	-135.833	0.334	0.039
-267.297	426.980	0.143	-0.305
-266.282	342.798	0.089	0.173
-265.267	-155.856	-0.096	-0.006
-264.253	-143.885	0.409	0.038
-263.238	520.356	-0.121	-0.281
-262.224	-125.476	-0.253	0.038
-261.209	-200.000	0.068	0.322
-260.195	-6.322	0.221	0.149
-259.180	-200.000	-0.004	0.089
-258.165	120.578	-0.036	0.044
-257.151	120.964	0.121	-0.149
-256.136	-102.417	0.287	0.068
-255.122	800.000	-0.059	0.228
-254.107	-200.000	0.016	0.151
-253.092	-104.948	-0.474	0.108
-252.078	18.570	0.041	0.033
-251.063	800.000	0.054	0.158
-250.049	-140.988	-0.131	0.013
-249.034	258.824	0.093	0.160
-248.019	524.362	0.088	-0.204
-247.005	-41.698	-0.152	0.078
-245.990	526.180	-0.103	0.241
-244.976	398.185	0.141	-0.292
-243.961	61.879	-0.256	0.253
-242.946	-162.357	0.422	-0.021
-241.932	643.448	-0.037	0.093
-240.917	-26.684	0.045	0.026
-239.903	-22.935	-0.220	0.132
-238.888	108.421	-0.158	-0.187
-237.873	800.000	0.027	-0.093
-236.859	217.735	0.077	-0.122
-235.844	115.507	-0.278	-0.337
-234.830	292.162	-0.076	0.138
-233.815	-70.064	-0.224	-0.084
-232.800	-118.212	0.341	0.060
-231.786	1.894	0.113	0.080
-230.771	-68.716	0.073	-0.028
-229.757	-20.126	-0.054	0.033
-228.742	-72.365	-0.238	0.087
-227.727	-102.996	0.150	0.035
-226.713	44.184	0.047	0.042
-225.698	-79.722	-0.310	0.103
-224.684	24.612	0.139	-0.114
-223.669	-169.633	0.170	-0.006
-222.655	-125.764	0.323	-0.048
-221.640	-82.363	-0.176	0.057
-220.625	56.045	-0.229	0.220
-219.611	244.839	0.190	-0.316
-218.596	-95.454	0.183	-0.049
-217.582	82.687	0.073	0.079
-216.567	378.605	-0.130	0.264
-215.552	-200.000	-0.018	0.355
-214.538	230.986	0.070	0.113
-213.523	-75.933	-0.039	-0.014
-212.509	800.000	-0.030	-0.100
-211.494	-200.000	-0.015	0.129
-210.479	-31.760	-0.153	0.085
-209.465	280.649	0.107	0.189
-208.450	86.183	0.118	-0.128
-207.436	182.131	0.133	0.193
-206.421	-200.000	0.040	-0.249
-205.406	-37.409	0.118	-0.062
-204.392	52.076	-0.167	0.158
-203.377	-76.511	-0.134	-0.047
-202.363	-200.000	-0.007	0.043
-201.348	-200.000	0.008	0.181
-200.333	-200.000	0.033	-0.217
-199.319	-141.332	-0.115	0.012
-198.304	120.906	0.178	-0.219
-197.290	-200.000	0.010	-0.159
-196.275	2.805	0.144	-0.104
-195.260	-40.841	0.056	0.029
-194.246	-97.211	0.151	0.039
-193.231	800.000	0.028	-0.096
-192.217	-200.000	-0.031	-0.275
-191.202	-134.503	0.246	-0.030
-190.187	60.364	-0.232	-0.227
-189.173	-200.000	-0.086	0.378
-188.158	-200.000	0.076	0.435
-187.144	800.000	0.054	0.189
-186.129	-176.529	0.314	-0.008
-185.114	37.870	0.172	-0.151
-184.100	-93.674	0.054	0.015
-183.085	800.000	0.095	-0.359
-182.071	-26.531	0.272	-0.157
-181.056	512.566	0.114	0.261
-180.042	39.616	-0.160	0.142
-179.027	-10.467	0.086	0.056
-178.012	-35.429	0.197	0.106
-176.998	-18.493	-0.083	0.051
-175.983	800.000	0.112	0.326
-174.969	340.045	-0.059	0.114
-173.954	-64.134	-0.029	-0.012
-172.939	195.556	-0.168	0.252
-171.925	800.000	0.071	0.259
-170.910	48.452	-0.055	0.051
-169.896	-19.941	0.404	0.246
-168.881	-200.000	0.037	0.324
-167.866	-200.000	-0.056	0.256
-166.852	121.883	-0.112	-0.138
-165.837	-89.660	-0.331	0.096
-164.823	-200.000	-0.006	0.121
-163.808	24.227	0.154	0.126
-162.793	-200.000	0.000	0.218
-161.779	592.750	-0.058	0.141
-160.764	-200.000	-0.034	0.327
-159.750	-82.919	0.020	0.006
-158.735	605.800	0.066	-0.162
-157.720	183.439	-0.165	-0.241
-156.706	-200.000	-0.024	0.111
-155.691	434.832	0.026	0.055
-154.677	215.105	-0.210	0.329
-153.662	-109.800	0.125	0.026
-152.647	-116.493	-0.221	-0.040
-151.633	-200.000	-0.021	0.101
-150.618	-21.077	0.255	0.154
-149.604	53.929	0.135	0.128
-148.589	774.218	0.072	-0.194
-147.574	413.762	0.036	-0.075
-146.560	209.945	-0.116	-0.180
-145.545	-20.322	-0.396	-0.241
-144.531	-200.000	0.038	-0.462
-143.516	242.706	-0.045	-0.075
-142.502	63.462	-0.090	-0.089
-141.487	504.485	0.013	0.029
-140.472	-48.829	-0.163	0.077
-139.458	332.048	0.120	-0.229
-138.443	-25.628	-0.157	0.091
-137.429	-135.212	0.172	0.020
-136.414	203.320	0.235	0.358
-135.399	800.000	-0.092	-0.397
-134.385	202.882	-0.172	-0.262
-133.370	669.023	0.097	0.248
-132.356	800.000	-0.038	0.114
-131.341	-99.671	0.494	0.122
-130.326	189.858	0.165	-0.245
-129.312	64.694	0.194	-0.193
-128.297	47.944	0.165	-0.152
-127.283	1.757	0.188	0.134
-126.268	-62.581	-0.125	-0.051
-125.253	-40.450	0.104	0.053
-124.239	-19.067	-0.102	-0.062
-123.224	-60.152	0.302	0.127
-122.210	171.983	0.262	0.371
-121.195	-160.756	0.062	0.003
