DTS Sentinel unit serial number:	SN413079Multiplexer serial number:	ORYXHardware model number:	OX4-SRSoftware version number:	ORYX F/W v4.00 Oryx Data Collector v3.7.2.0data status	okinstallation	princeton_trtdifferential loss correction	single-endedforward channel	channel 1reverse channel	N/Adate	2019/09/18time	14:30:35forward acquisition time	60.00reverse acquisition time	0.00gamma	496.2192k internal	0.2311k external	0.2311temperature offset calibration	0.9990default loss term (dB/km)	0.3790temperature slope calibration	1.0000multiplexer offset coefficient	1.0000multiplexer slope coefficient	1.0000fibre end	0.00T internal ref (°C)	34.41T ext. ref 1 (°C)	0.69T ext. ref 2 (°C)	31.52length (m)	temperature (°C)	Stokes	anti-Stokes-747.200	14.605	-0.041	0.032
-746.185	-200.000	0.002	0.412
-745.171	205.948	-0.127	0.200
-744.156	-200.000	-0.026	-0.233
-743.142	-102.509	-0.206	0.050
-742.127	-126.029	-0.309	0.047
-741.112	-200.000	0.025	-0.115
-740.098	99.815	-0.154	-0.181
-739.083	92.519	0.216	-0.247
-738.069	-200.000	-0.001	-0.082
-737.054	-200.000	0.014	-0.214
-736.039	479.365	-0.119	0.275
-735.025	-10.944	0.149	0.100
-734.010	389.875	-0.064	-0.135
-732.996	131.414	-0.149	0.194
-731.981	-200.000	0.010	-0.072
-730.966	-145.237	-0.443	-0.041
-729.952	-80.621	0.175	0.059
-728.937	-189.500	0.357	-0.004
-727.923	-136.954	0.356	-0.041
-726.908	-155.470	-0.216	0.014
-725.894	155.888	-0.076	-0.107
-724.879	-103.937	-0.302	-0.072
-723.864	-128.506	-0.337	0.048
-722.850	-102.280	0.070	0.017
-721.835	-150.212	0.394	0.031
-720.821	800.000	-0.057	-0.231
-719.806	58.536	-0.236	0.235
-718.791	800.000	-0.052	0.160
-717.777	121.610	0.174	0.220
-716.762	173.194	0.154	-0.226
-715.748	-111.902	-0.323	-0.066
-714.733	136.770	-0.073	-0.097
-713.718	-152.598	0.062	-0.004
-712.704	-200.000	0.003	0.097
-711.689	-131.130	-0.145	0.020
-710.675	800.000	-0.033	0.120
-709.660	-58.553	0.248	-0.109
-708.645	755.161	0.044	0.120
-707.631	-200.000	0.046	-0.260
-706.616	-138.783	0.323	0.036
-705.602	222.895	0.064	-0.104
-704.587	144.893	0.127	-0.172
-703.572	-16.815	-0.293	-0.188
-702.558	670.370	0.118	0.309
-701.543	-40.501	-0.200	0.105
-700.529	-71.191	-0.067	-0.025
-699.514	206.026	0.157	-0.248
-698.499	3.735	0.231	-0.171
-697.485	616.846	0.149	-0.380
-696.470	-156.530	-0.086	-0.005
-695.456	729.058	0.124	-0.336
-694.441	571.334	0.183	0.451
-693.426	-24.438	-0.161	-0.097
-692.412	-90.813	-0.086	0.025
-691.397	-200.000	-0.002	0.322
-690.383	25.499	0.261	0.220
-689.368	-22.178	0.023	-0.014
-688.354	-93.219	0.278	-0.078
-687.339	-151.128	-0.497	0.038
-686.324	45.679	-0.327	0.306
-685.310	13.393	0.231	0.181
-684.295	-27.303	-0.202	0.119
-683.281	15.057	-0.126	0.100
-682.266	-71.925	-0.028	0.010
-681.251	-200.000	-0.014	0.239
-680.237	258.289	-0.053	0.092
-679.222	373.986	0.060	-0.123
-678.208	136.107	0.172	0.227
-677.193	800.000	0.075	0.244
-676.178	-68.944	-0.223	0.087
-675.164	298.337	-0.089	0.165
-674.149	45.481	-0.190	0.178
-673.135	-160.971	-0.376	0.020
-672.120	-74.852	0.344	-0.125
-671.105	-200.000	-0.029	-0.134
-670.091	372.636	-0.119	0.245
-669.076	655.505	0.038	-0.099
-668.062	-105.815	-0.111	0.025
-667.047	-200.000	-0.085	-0.390
-666.032	-200.000	-0.010	0.312
-665.018	641.254	-0.051	0.131
-664.003	629.011	0.182	-0.466
-662.989	-190.723	0.266	-0.003
-661.974	-200.000	-0.010	0.074
-660.959	53.907	-0.291	0.283
-659.945	-28.169	-0.160	0.093
-658.930	96.397	-0.227	0.262
-657.916	-122.884	0.169	0.028
-656.901	41.628	0.015	0.014
-655.886	-200.000	0.087	-0.388
-654.872	800.000	0.026	0.080
-653.857	-130.367	0.316	0.043
-652.843	170.358	0.226	-0.327
-651.828	-165.197	0.001	0.000
-650.814	455.730	0.030	0.068
-649.799	81.454	0.112	0.123
-648.784	144.966	-0.088	0.119
-647.770	189.881	-0.146	-0.221
-646.755	800.000	-0.045	-0.155
-645.741	-66.488	-0.195	0.078
-644.726	-100.119	-0.135	-0.034
-643.711	-133.998	-0.110	0.014
-642.697	-200.000	0.040	-0.308
-641.682	-34.772	-0.064	-0.035
-640.668	-122.159	-0.191	-0.032
-639.653	-71.654	-0.154	0.058
-638.638	12.428	-0.386	-0.301
-637.624	-87.802	0.098	0.030
-636.609	-75.407	-0.199	-0.072
-635.595	-31.023	-0.249	-0.142
-634.580	-200.000	-0.070	0.352
-633.565	800.000	0.093	0.272
-632.551	16.579	0.192	0.153
-631.536	-10.223	-0.059	0.040
-630.522	-61.312	0.417	-0.178
-629.507	-200.000	0.213	0.000
-628.492	-103.361	0.240	-0.057
-627.478	800.000	-0.027	0.083
-626.463	544.955	0.123	-0.297
-625.449	-32.725	-0.012	0.007
-624.434	-200.000	-0.019	0.279
-623.419	-200.000	-0.008	0.101
-622.405	544.738	-0.077	-0.186
-621.390	-62.535	-0.207	0.087
-620.376	-7.256	0.055	0.038
-619.361	-54.187	-0.206	-0.095
-618.346	-123.816	-0.232	0.037
-617.332	-56.758	0.218	0.098
-616.317	-97.269	-0.297	0.078
-615.303	800.000	-0.042	-0.141
-614.288	560.419	-0.111	-0.270
-613.273	-75.085	0.267	0.096
-612.259	800.000	0.018	0.070
-611.244	-200.000	-0.040	-0.488
-610.230	-200.000	0.042	-0.280
-609.215	-200.000	-0.005	-0.351
-608.201	70.633	0.302	0.316
-607.186	77.100	0.211	-0.226
-606.171	-200.000	-0.006	-0.224
-605.157	-114.114	0.233	0.045
-604.142	-126.093	-0.128	0.019
-603.128	-200.000	0.006	-0.179
-602.113	93.376	-0.144	0.164
-601.098	173.668	0.165	-0.240
-600.084	-114.910	0.187	-0.036
-599.069	800.000	0.051	-0.147
-598.055	-72.217	-0.147	0.055
-597.040	284.809	-0.065	-0.119
-596.025	120.876	-0.109	-0.137
-595.011	-5.217	0.049	-0.034
-593.996	-200.000	-0.052	0.252
-592.982	-77.469	-0.154	0.054
-591.967	-106.706	-0.328	0.074
-590.952	258.317	-0.124	0.216
-589.938	-200.000	-0.030	0.291
-588.923	241.505	-0.018	0.030
-587.909	-66.255	-0.273	0.110
-586.894	106.248	-0.106	-0.127
-585.879	-200.000	0.024	-0.136
-584.865	68.194	-0.054	-0.056
-583.850	376.507	-0.085	-0.174
-582.836	-200.000	0.002	-0.624
-581.821	-200.000	-0.070	0.526
-580.806	453.030	-0.082	-0.182
-579.792	-83.573	0.305	0.098
-578.777	230.132	-0.137	0.226
-577.763	-67.559	0.101	0.040
-576.748	275.838	0.087	0.156
-575.733	-149.273	0.291	0.023
-574.719	-200.000	0.021	0.242
-573.704	435.726	0.134	0.293
-572.690	652.080	0.018	-0.047
-571.675	116.009	-0.069	0.085
-570.661	429.934	-0.072	-0.158
-569.646	800.000	0.067	-0.274
-568.631	-10.468	0.089	0.059
-567.617	-192.859	0.216	-0.002
-566.602	-98.341	-0.097	0.025
-565.588	800.000	0.067	-0.225
-564.573	-80.284	0.159	0.054
-563.558	160.343	-0.052	0.073
-562.544	-22.238	-0.179	0.109
-561.529	34.419	0.072	0.064
-560.515	800.000	0.029	-0.088
-559.500	665.228	-0.071	0.186
-558.485	-82.225	-0.293	0.096
-557.471	-104.591	-0.382	-0.089
-556.456	-124.873	-0.220	0.034
-555.442	-187.201	0.267	0.004
-554.427	287.996	0.125	-0.229
-553.412	163.615	-0.188	-0.266
-552.398	-49.671	-0.142	-0.068
-551.383	34.105	0.155	0.136
-550.369	-80.679	-0.264	-0.089
-549.354	-89.848	-0.233	-0.069
-548.339	11.177	0.185	-0.142
-547.325	-36.207	-0.251	-0.137
-546.310	711.719	0.073	0.195
-545.296	-17.243	0.187	-0.118
-544.281	179.565	-0.217	0.319
-543.266	-7.118	-0.410	-0.280
-542.252	800.000	0.116	-0.329
-541.237	653.145	0.048	-0.125
-540.223	39.487	0.244	-0.220
-539.208	800.000	0.157	0.478
-538.193	4.865	-0.128	-0.095
-537.179	-200.000	-0.004	0.052
-536.164	15.283	0.133	0.105
-535.150	100.089	0.126	-0.147
-534.135	-168.200	-0.006	0.000
-533.121	800.000	0.027	0.102
-532.106	-92.261	-0.066	0.019
-531.091	100.152	-0.262	0.306
-530.077	182.070	-0.017	0.025
-529.062	800.000	0.117	-0.443
-528.048	561.264	-0.087	-0.213
-527.033	-200.000	0.003	-0.078
-526.018	238.217	0.248	-0.415
-525.004	-140.717	-0.360	0.037
-523.989	-63.541	-0.317	-0.131
-522.975	-80.561	-0.080	-0.027
-521.960	-51.197	-0.390	-0.184
-520.945	-124.344	0.078	0.012
-519.931	-200.000	-0.032	0.218
-518.916	-36.968	0.113	-0.061
-517.902	-128.025	-0.269	0.039
-516.887	-77.777	-0.480	0.167
-515.872	50.618	0.109	-0.104
-514.858	800.000	0.023	-0.093
-513.843	-99.113	0.148	0.038
-512.829	325.479	-0.137	0.263
-511.814	131.591	0.092	0.119
-510.799	-200.000	-0.080	-0.568
-509.785	552.197	0.052	-0.125
-508.770	-97.731	-0.153	0.040
-507.756	119.260	-0.277	0.344
-506.741	-80.492	-0.056	0.019
-505.726	-145.024	-0.097	0.009
-504.712	-141.690	-0.204	-0.021
-503.697	-1.176	0.091	0.065
-502.683	94.799	0.139	-0.159
-501.668	312.292	-0.103	0.195
-500.653	-66.460	-0.250	-0.100
-499.639	800.000	-0.044	0.157
-498.624	-63.089	-0.225	-0.093
-497.610	-14.148	0.247	-0.160
-496.595	667.350	0.088	-0.229
-495.581	-200.000	-0.029	0.159
-494.566	331.467	-0.140	0.272
-493.551	3.042	-0.191	-0.139
-492.537	34.719	0.340	-0.298
-491.522	146.383	-0.197	0.266
-490.508	-77.640	0.073	-0.025
-489.493	183.521	0.109	0.162
-488.478	98.324	0.030	-0.035
-487.464	-95.486	-0.277	0.075
-486.449	20.563	0.148	0.120
-485.435	198.460	-0.232	-0.356
-484.420	-52.328	-0.174	-0.081
-483.405	122.746	-0.014	-0.017
-482.391	-119.295	0.097	0.017
-481.376	113.634	0.319	-0.390
-480.362	-200.000	-0.058	0.262
-479.347	-169.537	-0.188	-0.007
-478.332	1.823	0.478	0.347
-477.318	-200.000	-0.003	-0.290
-476.303	-12.735	0.212	-0.139
-475.289	-32.139	0.197	-0.111
-474.274	-17.946	0.166	-0.105
-473.259	-121.517	-0.113	-0.019
-472.245	314.790	-0.105	0.198
-471.230	181.791	-0.066	0.097
-470.216	-200.000	0.005	0.036
-469.201	184.127	-0.152	0.226
-468.186	-200.000	-0.066	-0.332
-467.172	-200.000	0.021	-0.108
-466.157	-200.000	0.008	0.217
-465.143	-123.456	-0.227	-0.036
-464.128	-118.267	0.562	0.100
-463.113	19.698	0.174	-0.140
-462.099	-200.000	0.019	-0.322
-461.084	-119.252	-0.130	-0.023
-460.070	-127.755	-0.208	-0.030
-459.055	-105.222	0.103	0.024
-458.040	-15.940	-0.319	-0.204
-457.026	345.369	-0.087	-0.171
-456.011	102.143	-0.094	-0.111
-454.997	-100.693	-0.378	-0.094
-453.982	-129.125	0.215	-0.030
-452.968	-28.772	-0.328	-0.189
-451.953	-8.012	0.163	0.111
-450.938	-32.638	0.419	-0.234
-449.924	-76.235	-0.328	-0.116
-448.909	70.060	0.215	0.223
-447.895	33.632	-0.116	0.101
-446.880	308.760	-0.039	0.073
-445.865	-118.532	0.090	-0.016
-444.851	-200.000	0.013	0.283
-443.836	182.958	0.148	-0.219
-442.822	-25.426	-0.420	0.249
-441.807	-200.000	-0.002	0.246
-440.792	-88.726	0.226	-0.067
-439.778	-3.088	0.055	-0.039
-438.763	103.167	-0.056	-0.065
-437.749	-80.269	-0.231	-0.078
-436.734	-34.141	-0.032	0.017
-435.719	-104.984	-0.292	-0.067
-434.705	122.894	0.129	0.163
-433.690	66.516	0.113	-0.115
-432.676	110.704	0.139	-0.167
-431.661	800.000	-0.047	-0.203
-430.646	-108.933	0.079	-0.017
-429.632	347.774	-0.100	-0.197
-428.617	-149.319	0.097	-0.008
-427.603	66.403	0.148	-0.151
-426.588	-200.000	-0.007	0.429
-425.573	197.695	0.138	-0.212
-424.559	-72.748	-0.049	-0.018
-423.544	4.787	0.241	0.178
-422.530	95.187	0.232	0.265
-421.515	-70.681	-0.234	-0.089
-420.500	-43.085	0.328	-0.167
-419.486	121.816	-0.140	-0.175
-418.471	-169.415	0.172	0.006
-417.457	548.085	0.189	-0.454
-416.442	37.621	-0.306	-0.273
-415.428	-42.408	-0.169	0.086
-414.413	-145.788	0.149	-0.013
-413.398	-94.437	-0.289	0.079
-412.384	-39.683	-0.349	0.183
-411.369	-130.972	0.233	0.031
-410.355	-200.000	-0.011	-0.049
-409.340	63.027	0.059	0.059
-408.325	-200.000	0.006	0.114
-407.311	-61.060	0.515	-0.218
-406.296	-70.020	-0.197	0.075
-405.282	26.254	-0.271	-0.227
-404.267	126.740	0.118	-0.150
-403.252	279.946	0.056	0.101
-402.238	248.654	-0.063	0.106
-401.223	-47.203	-0.246	-0.120
-400.209	-145.337	0.303	0.027
-399.194	-172.067	0.260	0.008
-398.179	269.748	-0.226	-0.398
-397.165	-86.846	-0.254	-0.078
-396.150	252.389	0.200	0.342
-395.136	-141.419	-0.327	-0.033
-394.121	345.540	-0.080	-0.157
-393.106	74.722	0.207	-0.218
-392.092	-5.721	0.147	-0.101
-391.077	340.884	-0.049	0.096
-390.063	-80.173	0.228	0.077
-389.048	263.893	-0.161	0.280
-388.033	136.889	-0.228	0.298
-387.019	-133.684	0.345	-0.043
-386.004	149.771	-0.160	0.217
-384.990	-86.604	0.239	0.073
-383.975	-139.357	-0.109	0.012
-382.960	-200.000	-0.039	-0.308
-381.946	392.398	0.039	-0.080
-380.931	-164.771	0.106	-0.005
-379.917	-39.323	-0.130	-0.068
-378.902	-137.615	0.231	-0.026
-377.888	0.113	0.430	0.307
-376.873	207.840	-0.259	0.404
-375.858	203.597	-0.183	0.284
-374.844	-168.121	0.148	0.006
-373.829	800.000	-0.115	0.340
-372.815	-93.795	0.349	0.096
-371.800	-200.000	0.055	0.324
-370.785	754.042	-0.102	0.275
-369.771	-152.988	-0.272	-0.019
-368.756	-154.822	-0.376	0.025
-367.742	-38.254	0.254	-0.135
-366.727	263.106	-0.166	-0.288
-365.712	126.808	-0.079	0.101
-364.698	800.000	0.025	-0.088
-363.683	-200.000	-0.068	-0.301
-362.669	-43.938	0.101	0.051
-361.654	-4.870	0.061	-0.042
-360.639	800.000	-0.048	0.161
-359.625	217.497	0.191	-0.305
-358.610	-200.000	0.008	-0.316
-357.596	11.940	0.329	-0.253
-356.581	45.910	-0.149	-0.138
-355.566	-200.000	-0.119	0.673
-354.552	-200.000	0.019	0.115
-353.537	183.526	-0.098	0.144
-352.523	582.638	-0.062	0.152
-351.508	325.568	-0.077	-0.147
-350.493	-98.510	0.288	0.074
-349.479	-127.380	0.404	-0.059
-348.464	800.000	0.027	-0.085
-347.450	-6.079	0.076	0.052
-346.435	8.705	-0.062	-0.046
-345.420	5.395	-0.124	0.091
-344.406	-200.000	0.008	0.037
-343.391	-123.077	0.271	0.044
-342.377	-93.945	0.120	-0.033
-341.362	-38.498	-0.103	-0.054
-340.348	-93.034	-0.349	-0.097
-339.333	320.014	-0.102	0.194
-338.318	-200.000	-0.057	0.260
-337.304	800.000	-0.025	0.086
-336.289	-200.000	0.022	0.269
-335.275	-126.749	0.056	0.008
-334.260	123.149	-0.066	-0.082
-333.245	40.500	-0.173	0.156
-332.231	800.000	0.037	-0.119
-331.216	35.406	-0.138	-0.121
-330.202	113.916	-0.137	-0.167
-329.187	-106.917	-0.068	-0.015
-328.172	138.601	0.118	0.155
-327.158	296.719	0.073	0.134
-326.143	800.000	0.050	0.145
-325.129	144.788	-0.235	-0.314
-324.114	-200.000	-0.024	-0.220
-323.099	135.771	0.233	-0.303
-322.085	430.413	-0.057	-0.123
-321.070	72.526	0.047	0.048
-320.056	-10.591	0.138	-0.091
-319.041	34.797	0.130	0.114
-318.026	98.858	0.035	0.041
-317.012	-200.000	-0.013	0.094
-315.997	123.947	-0.109	0.137
-314.983	-200.000	-0.075	0.438
-313.968	-47.340	-0.081	0.039
-312.953	-152.518	-0.237	-0.017
-311.939	361.019	0.055	0.110
-310.924	800.000	-0.078	0.257
-309.910	-154.126	0.235	-0.016
-308.895	-157.905	0.235	0.014
-307.880	25.089	-0.051	0.042
-306.866	-85.403	-0.045	-0.014
-305.851	-146.986	-0.328	-0.028
-304.837	-18.533	-0.374	-0.233
-303.822	-19.533	0.440	0.272
-302.807	-166.067	0.186	-0.008
-301.793	-68.370	-0.119	-0.046
-300.778	-105.511	0.165	0.037
-299.764	444.989	0.051	0.113
-298.749	-80.247	0.161	-0.054
-297.735	-85.186	0.167	0.052
-296.720	745.917	0.095	0.256
-295.705	800.000	-0.104	-0.433
-294.691	-155.888	0.308	0.020
-293.676	196.080	-0.231	0.351
-292.662	134.731	-0.085	-0.110
-291.647	93.781	0.209	-0.237
-290.632	-199.881	-0.219	-0.001
-289.618	5.059	0.101	-0.074
-288.603	442.384	0.030	0.066
-287.589	-99.928	-0.100	-0.025
-286.574	-108.081	0.304	0.066
-285.559	1.939	0.042	0.030
-284.545	-42.880	0.174	-0.088
-283.530	241.837	-0.264	0.439
-282.516	25.227	0.151	0.125
-281.501	-88.615	0.080	0.024
-280.486	3.217	-0.126	-0.091
-279.472	431.727	-0.098	0.212
-278.457	-86.556	-0.274	0.084
-277.443	212.349	-0.085	-0.134
-276.428	-185.138	0.118	-0.002
-275.413	320.575	-0.202	0.382
-274.399	82.071	0.223	0.241
-273.384	-21.001	-0.370	-0.226
-272.370	800.000	-0.121	0.350
-271.355	-200.000	0.016	0.291
-270.340	117.122	0.032	0.039
-269.326	-1.002	0.378	0.267
-268.311	26.300	0.180	-0.150
-267.297	65.353	0.247	0.249
-266.282	-86.515	-0.374	-0.114
-265.267	-25.183	0.089	-0.053
-264.253	354.501	0.074	-0.147
-263.238	195.141	0.139	0.210
-262.224	537.543	0.093	-0.221
-261.209	-183.259	0.125	0.002
-260.195	800.000	-0.082	-0.254
-259.180	159.439	0.046	-0.064
-258.165	-45.543	0.366	-0.180
-257.151	103.151	-0.063	-0.073
-256.136	236.654	0.099	0.163
-255.122	7.158	0.366	0.272
-254.107	-200.000	0.031	0.252
-253.092	-153.473	0.263	-0.018
-252.078	-97.295	0.184	0.048
-251.063	-200.000	0.043	0.289
-250.049	-200.000	0.015	0.114
-249.034	-200.000	0.013	0.060
-248.019	-140.342	0.326	-0.034
-247.005	318.945	-0.146	0.275
-245.990	-148.617	0.152	-0.012
-244.976	34.714	0.158	0.137
-243.961	66.482	-0.213	0.215
-242.946	-190.162	0.461	-0.005
-241.932	-103.370	-0.157	0.037
-240.917	-76.910	-0.140	0.049
-239.903	-118.586	-0.310	0.055
-238.888	-70.095	0.127	-0.048
-237.873	-15.039	0.021	0.014
-236.859	800.000	0.067	-0.196
-235.844	-200.000	0.024	-0.372
-234.830	-39.517	0.161	-0.084
-233.815	800.000	0.116	-0.403
-232.800	530.701	0.200	-0.471
-231.786	-157.241	-0.250	0.015
-230.771	92.521	0.140	0.157
-229.757	32.600	0.178	0.154
-228.742	181.788	0.152	-0.223
-227.727	248.797	0.277	-0.467
-226.713	800.000	0.101	-0.436
-225.698	-185.285	0.100	-0.002
-224.684	142.789	-0.259	0.343
-223.669	-156.601	0.309	-0.019
-222.655	-190.196	0.220	-0.002
-221.640	-112.241	-0.225	-0.045
-220.625	-81.577	0.134	-0.044
-219.611	329.797	0.246	0.470
-218.596	-200.000	-0.030	-0.147
-217.582	42.520	0.117	0.106
-216.567	286.040	-0.106	0.190
-215.552	-200.000	0.057	0.348
-214.538	-150.515	0.225	0.017
-213.523	514.957	0.051	-0.119
-212.509	-81.972	-0.159	0.052
-211.494	-164.847	-0.204	-0.009
-210.479	397.676	0.046	-0.096
-209.465	291.425	0.140	0.254
-208.450	-200.000	0.002	0.174
-207.436	33.240	-0.076	0.066
-206.421	-136.701	0.168	0.019
-205.406	6.632	-0.085	0.063
-204.392	-46.014	0.179	0.088
-203.377	-162.379	0.094	-0.005
-202.363	-94.916	0.265	0.071
-201.348	130.044	-0.037	-0.047
-200.333	378.116	-0.056	0.114
-199.319	-172.555	-0.329	0.010
-198.304	-200.000	-0.061	-0.443
-197.290	-80.891	0.220	-0.072
-196.275	-109.708	-0.097	0.020
-195.260	-200.000	-0.003	0.032
-194.246	11.897	-0.096	-0.073
-193.231	-120.090	0.358	-0.061
-192.217	337.906	0.064	0.123
-191.202	755.532	-0.069	0.186
-190.187	800.000	0.022	0.064
-189.173	-200.000	-0.006	-0.058
-188.158	-31.487	-0.311	-0.174
-187.144	-115.744	-0.124	0.023
-186.129	-126.662	-0.521	0.077
-185.114	25.163	-0.062	-0.051
-184.100	-200.000	-0.009	0.259
-183.085	-27.232	0.098	-0.057
-182.071	-22.110	0.068	-0.041
-181.056	-77.292	0.160	0.055
-180.042	166.563	0.066	0.092
-179.027	-135.636	0.443	0.052
-178.012	285.521	0.102	0.183
-176.998	-200.000	-0.005	0.055
-175.983	-10.504	-0.108	-0.071
-174.969	800.000	-0.069	-0.259
-173.954	431.775	-0.047	-0.101
-172.939	-200.000	-0.039	-0.260
-171.925	-200.000	0.041	0.230
-170.910	800.000	0.031	-0.124
-169.896	5.176	-0.470	0.344
-168.881	-30.060	0.041	-0.023
-167.866	28.025	-0.154	0.129
-166.852	800.000	0.009	-0.030
-165.837	212.149	-0.041	0.064
-164.823	-15.263	-0.138	0.088
-163.808	51.602	0.155	-0.146
-162.793	-200.000	0.010	-0.208
-161.779	101.283	0.144	0.167
-160.764	-119.928	-0.194	0.033
-159.750	-100.306	-0.120	0.029
-158.735	458.243	0.136	0.301
-157.720	-200.000	0.004	-0.097
-156.706	-59.026	-0.259	0.111
-155.691	6.038	0.332	-0.244
-154.677	-200.000	-0.047	-0.233
-153.662	598.774	-0.088	0.217
-152.647	220.004	-0.060	0.095
-151.633	800.000	0.050	-0.161
-150.618	-21.201	0.305	0.185
-149.604	401.985	-0.166	0.347
-148.589	134.655	-0.240	0.309
-147.574	-200.000	0.014	-0.178
-146.560	152.616	-0.054	0.073
-145.545	800.000	-0.109	-0.378
-144.531	56.628	0.073	-0.071
-143.516	-78.476	0.163	0.055
-142.502	21.471	-0.119	0.096
-141.487	-17.390	0.309	0.193
-140.472	-50.227	-0.301	-0.141
-139.458	320.277	-0.139	-0.262
-138.443	-68.422	0.478	0.184
-137.429	101.686	-0.282	-0.326
-136.414	-45.165	-0.303	-0.149
-135.399	192.757	0.101	0.152
-134.385	35.022	0.073	-0.064
-133.370	759.956	0.099	0.266
-132.356	800.000	0.094	0.273
-131.341	-15.179	0.129	-0.082
-130.326	95.200	-0.021	0.024
-129.312	-15.053	0.292	0.185
-128.297	16.307	0.269	-0.210
-127.283	-200.000	-0.010	-0.134
-126.268	-123.433	0.084	0.013
-125.253	-83.994	0.106	0.033
-124.239	-200.000	0.001	-0.180
-123.224	68.855	0.088	0.089
-122.210	800.000	0.096	-0.295
-121.195	-200.000	0.019	-0.202
