DTS Sentinel unit serial number:	SN413079Multiplexer serial number:	ORYXHardware model number:	OX4-SRSoftware version number:	ORYX F/W v4.00 Oryx Data Collector v3.7.2.0data status	okinstallation	princeton_trtdifferential loss correction	single-endedforward channel	channel 1reverse channel	N/Adate	2019/09/14time	04:10:35forward acquisition time	60.00reverse acquisition time	0.00gamma	496.2192k internal	0.2335k external	0.2335temperature offset calibration	1.0079default loss term (dB/km)	0.3790temperature slope calibration	1.0000multiplexer offset coefficient	1.0000multiplexer slope coefficient	1.0000fibre end	0.00T internal ref (°C)	26.69T ext. ref 1 (°C)	3.32T ext. ref 2 (°C)	21.85length (m)	temperature (°C)	Stokes	anti-Stokes-747.200	312.734	-0.154	-0.291
-746.185	19.065	0.146	0.118
-745.171	46.708	-0.298	-0.278
-744.156	800.000	0.044	0.134
-743.142	-200.000	-0.011	-0.123
-742.127	-200.000	-0.069	0.532
-741.112	-162.159	0.220	-0.011
-740.098	10.284	-0.235	0.179
-739.083	94.547	-0.087	0.099
-738.069	800.000	0.071	0.302
-737.054	377.182	0.122	-0.250
-736.039	-27.941	-0.188	-0.109
-735.025	-83.717	0.102	-0.033
-734.010	-90.647	-0.175	-0.051
-732.996	799.969	-0.075	0.208
-731.981	-131.182	0.209	-0.028
-730.966	104.845	-0.245	0.290
-729.952	-161.989	0.071	-0.004
-728.937	-105.396	0.205	-0.047
-727.923	766.678	0.065	0.177
-726.908	-33.352	-0.145	-0.081
-725.894	800.000	-0.168	-0.478
-724.879	-200.000	-0.046	-0.464
-723.864	235.467	0.190	-0.315
-722.850	774.441	-0.055	-0.152
-721.835	-129.200	-0.279	-0.039
-720.821	443.987	-0.099	0.217
-719.806	-102.070	-0.481	-0.116
-718.791	-135.952	-0.223	-0.026
-717.777	-26.328	0.141	-0.083
-716.762	-8.911	0.144	0.097
-715.748	-105.290	-0.196	-0.045
-714.733	-129.211	0.107	-0.015
-713.718	214.204	0.150	0.238
-712.704	-85.112	0.096	-0.030
-711.689	-24.479	-0.259	0.155
-710.675	65.334	-0.159	-0.161
-709.660	-200.000	-0.023	-0.276
-708.645	-28.588	0.348	0.201
-707.631	-200.000	-0.005	0.077
-706.616	287.715	0.027	-0.050
-705.602	-107.651	0.115	0.025
-704.587	-136.397	-0.137	-0.016
-703.572	-200.000	0.007	-0.119
-702.558	800.000	-0.060	0.200
-701.543	27.406	-0.079	0.066
-700.529	-102.400	0.299	-0.072
-699.514	-200.000	-0.009	0.128
-698.499	47.079	0.370	0.345
-697.485	800.000	-0.053	-0.169
-696.470	-200.000	-0.022	-0.200
-695.456	-200.000	0.029	-0.313
-694.441	-200.000	-0.034	-0.259
-693.426	16.092	-0.379	-0.299
-692.412	-41.845	-0.119	-0.061
-691.397	-200.000	0.002	0.052
-690.383	33.456	0.073	-0.064
-689.368	266.601	0.080	-0.139
-688.354	188.949	-0.303	0.454
-687.339	61.738	0.122	0.121
-686.324	-200.000	-0.050	-0.247
-685.310	800.000	-0.043	0.162
-684.295	-128.528	-0.160	-0.023
-683.281	800.000	-0.092	0.314
-682.266	13.517	0.051	-0.040
-681.251	-161.453	0.249	0.013
-680.237	502.098	-0.076	0.177
-679.222	658.827	0.140	-0.360
-678.208	-200.000	0.043	0.319
-677.193	-16.430	-0.251	-0.160
-676.178	-75.153	-0.174	-0.062
-675.164	800.000	0.079	-0.292
-674.149	20.112	-0.105	0.085
-673.135	-94.089	0.090	-0.025
-672.120	-82.011	-0.079	-0.026
-671.105	-27.247	0.119	-0.070
-670.091	-200.000	-0.054	0.452
-669.076	-200.000	-0.003	-0.136
-668.062	800.000	-0.098	0.340
-667.047	-200.000	0.007	0.387
-666.032	-109.261	-0.031	-0.006
-665.018	-200.000	0.024	-0.161
-664.003	57.186	0.089	-0.087
-662.989	-200.000	-0.038	-0.254
-661.974	63.984	-0.188	-0.189
-660.959	-80.063	-0.172	-0.058
-659.945	800.000	0.136	0.473
-658.930	800.000	-0.041	0.148
-657.916	-200.000	-0.007	0.103
-656.901	316.624	0.097	-0.184
-655.886	-64.092	0.139	0.057
-654.872	362.972	0.087	0.174
-653.857	-170.005	0.026	0.001
-652.843	-95.070	0.398	-0.108
-651.828	668.903	0.089	-0.230
-650.814	141.482	0.080	-0.107
-649.799	-12.104	-0.050	0.033
-648.784	-174.458	-0.373	-0.011
-647.770	43.563	0.226	-0.207
-646.755	-69.159	-0.227	0.087
-645.741	9.476	0.226	-0.171
-644.726	15.953	0.133	0.105
-643.711	-200.000	0.002	-0.107
-642.697	142.962	0.261	0.347
-641.682	173.549	-0.070	0.102
-640.668	151.187	0.086	-0.117
-639.653	509.284	-0.181	0.421
-638.638	-111.472	-0.237	0.048
-637.624	800.000	-0.015	-0.057
-636.609	-150.812	0.302	-0.023
-635.595	24.018	-0.202	0.167
-634.580	800.000	0.061	0.223
-633.565	217.588	-0.192	-0.305
-632.551	-165.809	0.278	0.012
-631.536	424.209	0.163	-0.351
-630.522	800.000	0.075	-0.293
-629.507	232.226	0.113	0.185
-628.492	3.342	0.187	-0.137
-627.478	-200.000	-0.008	-0.119
-626.463	53.781	-0.123	-0.118
-625.449	-156.191	-0.220	0.014
-624.434	-200.000	0.046	0.394
-623.419	-62.349	0.176	-0.073
-622.405	290.087	0.061	-0.111
-621.390	-200.000	0.036	0.187
-620.376	-97.275	0.110	-0.029
-619.361	165.957	0.093	0.131
-618.346	-157.764	0.134	0.008
-617.332	32.377	-0.133	-0.114
-616.317	800.000	0.066	0.208
-615.303	-133.263	-0.312	0.039
-614.288	122.441	-0.145	0.181
-613.273	217.013	-0.069	0.109
-612.259	-19.374	0.108	0.067
-611.244	481.109	-0.127	0.289
-610.230	-94.232	0.357	-0.098
-609.215	-104.816	0.169	0.039
-608.201	-70.703	0.203	0.077
-607.186	-134.231	-0.442	0.054
-606.171	403.633	-0.041	-0.086
-605.157	-200.000	0.033	0.158
-604.142	45.923	-0.319	0.295
-603.128	-190.412	-0.242	-0.003
-602.113	10.927	-0.143	0.109
-601.098	27.019	-0.370	-0.310
-600.084	108.656	-0.056	-0.066
-599.069	-125.376	0.155	0.024
-598.055	-40.460	0.147	-0.076
-597.040	-146.379	0.213	0.019
-596.025	2.842	0.166	0.120
-595.011	53.318	-0.123	0.118
-593.996	-200.000	-0.006	0.069
-592.982	-35.715	0.140	-0.076
-591.967	-173.510	-0.290	0.009
-590.952	800.000	0.058	0.196
-589.938	111.859	-0.142	-0.171
-588.923	321.768	-0.119	0.227
-587.909	-200.000	-0.007	0.116
-586.894	-58.575	0.312	0.135
-585.879	-93.902	-0.233	0.064
-584.865	-200.000	0.053	0.273
-583.850	800.000	0.083	0.241
-582.836	-33.691	0.213	-0.117
-581.821	-163.259	0.175	-0.008
-580.806	25.916	0.123	0.103
-579.792	166.476	-0.187	0.265
-578.777	-58.766	0.232	0.100
-577.763	-173.016	0.331	0.010
-576.748	-200.000	0.030	-0.137
-575.733	399.694	-0.026	0.054
-574.719	800.000	-0.051	0.173
-573.704	683.693	-0.145	0.378
-572.690	-15.547	-0.161	-0.103
-571.675	481.767	-0.070	0.158
-570.661	-98.575	0.239	-0.061
-569.646	-200.000	-0.025	0.199
-568.631	-107.892	-0.121	0.026
-567.617	7.681	-0.248	-0.185
-566.602	57.773	-0.372	-0.363
-565.588	-103.780	0.050	0.012
-564.573	50.404	0.164	-0.155
-563.558	800.000	0.092	-0.266
-562.544	-200.000	-0.019	0.108
-561.529	-128.627	0.217	0.031
-560.515	97.970	-0.200	0.230
-559.500	178.517	0.067	-0.098
-558.485	-94.374	0.327	0.089
-557.471	-123.317	-0.319	0.051
-556.456	18.057	-0.150	0.119
-555.442	-46.476	-0.259	-0.127
-554.427	97.617	0.173	-0.198
-553.412	-54.429	0.171	-0.077
-552.398	-200.000	-0.015	0.138
-551.383	57.772	-0.149	-0.146
-550.369	27.148	-0.180	0.151
-549.354	555.481	0.085	0.203
-548.339	111.264	-0.274	0.329
-547.325	-40.058	-0.178	0.093
-546.310	-200.000	-0.070	0.381
-545.296	46.795	-0.119	0.111
-544.281	-10.156	-0.315	-0.208
-543.266	65.096	-0.188	-0.190
-542.252	-200.000	0.006	-0.133
-541.237	800.000	-0.131	-0.420
-540.223	-102.132	-0.177	-0.042
-539.208	-138.923	0.318	0.034
-538.193	99.333	0.122	0.140
-537.179	-0.407	0.224	-0.159
-536.164	-200.000	0.017	-0.123
-535.150	8.279	-0.088	-0.066
-534.135	27.757	-0.263	0.221
-533.121	800.000	-0.032	-0.119
-532.106	192.355	0.023	-0.034
-531.091	337.927	-0.085	0.164
-530.077	-158.459	-0.391	-0.023
-529.062	-200.000	-0.067	-0.299
-528.048	-200.000	0.042	0.228
-527.033	800.000	-0.047	-0.173
-526.018	-16.624	-0.109	-0.069
-525.004	24.084	0.181	0.149
-523.989	385.121	-0.031	0.063
-522.975	-143.300	0.104	0.010
-521.960	-164.969	-0.181	0.008
-520.945	-107.076	-0.350	0.077
-519.931	-136.254	0.304	0.035
-518.916	800.000	-0.024	-0.094
-517.902	-200.000	-0.034	0.173
-516.887	-149.018	-0.566	-0.045
-515.872	-56.884	-0.163	0.072
-514.858	237.700	-0.143	-0.236
-513.843	64.784	0.161	-0.162
-512.829	-7.968	-0.219	-0.147
-511.814	-134.814	-0.339	0.041
-510.799	337.430	0.129	-0.250
-509.785	-200.000	-0.027	0.209
-508.770	76.431	0.150	0.158
-507.756	-200.000	0.042	0.285
-506.741	-78.536	0.220	-0.075
-505.726	-124.742	0.267	0.041
-504.712	162.343	0.186	-0.259
-503.697	-200.000	0.020	-0.254
-502.683	27.055	-0.218	-0.182
-501.668	800.000	-0.141	0.405
-500.653	-80.699	-0.395	0.131
-499.639	-133.738	-0.062	-0.008
-498.624	-200.000	0.055	-0.330
-497.610	466.722	0.099	-0.222
-496.595	196.012	0.136	0.206
-495.581	658.227	0.133	-0.340
-494.566	-52.401	-0.076	-0.035
-493.551	800.000	-0.084	-0.247
-492.537	-200.000	-0.023	0.202
-491.522	800.000	0.023	0.087
-490.508	72.503	-0.244	-0.253
-489.493	582.625	-0.103	-0.251
-488.478	-16.700	-0.256	0.161
-487.464	-115.188	0.215	-0.040
-486.449	78.285	0.090	0.096
-485.435	197.113	0.147	0.223
-484.420	-133.261	-0.305	0.038
-483.405	752.580	-0.050	0.134
-482.391	245.418	-0.051	-0.085
-481.376	202.068	0.165	0.253
-480.362	-200.000	0.056	-0.334
-479.347	-117.463	-0.123	-0.022
-478.332	20.049	-0.230	0.184
-477.318	-48.793	0.143	-0.068
-476.303	45.986	-0.144	0.132
-475.289	-26.031	0.167	-0.098
-474.274	-200.000	-0.027	-0.208
-473.259	-100.984	-0.327	-0.080
-472.245	-26.236	-0.360	-0.210
-471.230	-200.000	0.031	-0.138
-470.216	160.417	0.039	-0.054
-469.201	236.160	-0.055	0.090
-468.186	-134.482	0.177	0.021
-467.172	-3.932	0.113	-0.078
-466.157	507.028	-0.129	-0.299
-465.143	-88.401	-0.234	-0.069
-464.128	744.475	0.065	-0.173
-463.113	-200.000	-0.014	-0.076
-462.099	-61.032	0.116	-0.049
-461.084	190.789	0.204	-0.305
-460.070	71.037	-0.226	-0.232
-459.055	-76.068	0.445	0.156
-458.040	-115.469	0.380	0.071
-457.026	-115.223	-0.187	0.035
-456.011	-200.000	-0.033	0.220
-454.997	206.811	-0.206	-0.319
-453.982	7.091	-0.126	-0.093
-452.968	-78.469	0.196	0.067
-451.953	-200.000	0.001	-0.202
-450.938	661.996	-0.099	0.254
-449.924	22.135	0.247	-0.200
-448.909	-200.000	-0.130	-0.601
-447.895	325.350	-0.050	0.096
-446.880	67.746	0.254	0.258
-445.865	-122.971	0.386	-0.062
-444.851	328.568	0.109	0.207
-443.836	-200.000	-0.001	0.131
-442.822	-44.626	0.173	-0.086
-441.807	-101.231	0.264	-0.064
-440.792	-190.909	-0.224	-0.002
-439.778	-108.626	-0.139	-0.030
-438.763	-61.392	-0.165	0.069
-437.749	180.504	-0.182	0.265
-436.734	29.404	0.215	0.181
-435.719	13.001	-0.176	-0.135
-434.705	800.000	0.062	-0.182
-433.690	800.000	0.028	0.107
-432.676	800.000	-0.028	0.093
-431.661	378.786	0.113	-0.229
-430.646	800.000	-0.059	-0.251
-429.632	116.303	-0.182	-0.222
-428.617	693.058	0.029	0.077
-427.603	-96.321	-0.243	0.064
-426.588	-200.000	0.067	-0.306
-425.573	-12.442	-0.091	-0.059
-424.559	-112.507	0.121	0.024
-423.544	-200.000	0.009	-0.317
-422.530	307.461	-0.157	-0.290
-421.515	-200.000	0.008	-0.038
-420.500	127.406	-0.187	0.235
-419.486	800.000	0.149	-0.503
-418.471	143.630	-0.052	-0.069
-417.457	159.904	0.089	-0.123
-416.442	-44.776	0.131	-0.065
-415.428	-26.607	0.326	0.190
-414.413	-200.000	0.000	0.113
-413.398	321.564	0.078	0.147
-412.384	800.000	-0.041	0.122
-411.369	-200.000	-0.064	0.337
-410.355	-200.000	0.058	-0.474
-409.340	-127.804	0.123	-0.018
-408.325	-48.378	-0.181	-0.087
-407.311	-35.264	-0.196	0.106
-406.296	248.295	0.189	-0.316
-405.282	-61.314	-0.161	-0.067
-404.267	-146.196	-0.132	0.011
-403.252	-61.337	0.192	-0.080
-402.238	-26.612	-0.147	0.085
-401.223	800.000	-0.048	0.133
-400.209	4.070	-0.174	0.126
-399.194	-76.912	-0.061	0.021
-398.179	2.339	0.157	0.113
-397.165	53.794	0.141	0.134
-396.150	-24.801	-0.049	-0.029
-395.136	18.111	-0.191	0.151
-394.121	-200.000	0.049	0.320
-393.106	28.945	-0.125	0.105
-392.092	259.336	-0.010	0.017
-391.077	-200.000	0.011	-0.277
-390.063	215.113	-0.238	-0.374
-389.048	-25.850	0.222	-0.130
-388.033	-26.204	-0.178	0.104
-387.019	-196.300	0.268	-0.002
-386.004	-27.572	-0.401	-0.231
-384.990	371.120	-0.029	0.059
-383.975	800.000	0.044	0.185
-382.960	800.000	0.044	0.129
-381.946	-200.000	0.057	-0.336
-380.931	-200.000	-0.066	0.393
-379.917	606.222	0.094	-0.233
-378.902	501.889	-0.023	-0.054
-377.888	800.000	-0.117	-0.345
-376.873	-111.926	0.155	0.031
-375.858	461.561	0.111	-0.245
-374.844	243.476	-0.003	0.004
-373.829	284.745	-0.056	-0.099
-372.815	800.000	0.012	-0.043
-371.800	-123.350	0.256	-0.040
-370.785	579.107	-0.043	-0.104
-369.771	86.926	-0.099	0.109
-368.756	380.517	0.101	-0.206
-367.742	800.000	0.075	-0.302
-366.727	126.060	0.079	-0.098
-365.712	-59.213	0.088	-0.038
-364.698	-6.480	-0.222	0.150
-363.683	514.742	-0.064	0.148
-362.669	-200.000	0.024	0.128
-361.654	800.000	-0.081	-0.291
-360.639	38.262	-0.181	-0.160
-359.625	106.451	0.117	-0.137
-358.610	800.000	-0.060	-0.205
-357.596	50.817	0.221	0.207
-356.581	-200.000	0.002	0.088
-355.566	549.598	0.053	-0.127
-354.552	-200.000	-0.006	0.153
-353.537	-29.441	-0.099	0.056
-352.523	-8.025	-0.036	0.024
-351.508	800.000	-0.086	0.279
-350.493	-40.332	0.073	0.038
-349.479	-200.000	0.021	0.136
-348.464	267.887	0.081	0.140
-347.450	800.000	-0.023	-0.070
-346.435	-200.000	0.045	-0.000
-345.420	-200.000	-0.011	0.147
-344.406	19.804	-0.173	0.138
-343.391	287.653	0.135	0.241
-342.377	768.964	0.095	0.257
-341.362	-108.628	-0.152	-0.032
-340.348	-30.944	0.253	-0.141
-339.333	-200.000	0.028	0.153
-338.318	800.000	0.079	0.231
-337.304	-160.431	0.040	0.002
-336.289	-93.943	0.153	0.042
-335.275	792.791	-0.232	0.630
-334.260	-200.000	0.011	0.086
-333.245	752.007	-0.090	-0.239
-332.231	619.721	0.045	-0.113
-331.216	698.429	0.072	-0.187
-330.202	652.232	-0.131	-0.331
-329.187	-74.094	0.288	0.103
-328.172	234.020	0.049	-0.079
-327.158	-84.104	-0.223	0.070
-326.143	132.198	-0.211	0.269
-325.129	-200.000	-0.012	0.298
-324.114	-55.439	-0.031	-0.014
-323.099	-185.513	-0.171	0.003
-322.085	38.136	0.165	-0.145
-321.070	800.000	-0.057	0.159
-320.056	-113.951	0.296	-0.057
-319.041	82.695	0.215	0.231
-318.026	-77.036	-0.335	-0.116
-317.012	-54.597	0.136	0.061
-315.997	-148.768	-0.300	0.024
-314.983	230.665	-0.040	0.064
-313.968	64.420	0.210	0.209
-312.953	70.976	0.215	-0.220
-311.939	4.756	0.283	-0.206
-310.924	37.153	-0.195	0.170
-309.910	-113.588	0.166	-0.032
-308.895	-12.443	-0.162	-0.105
-307.880	253.581	0.106	-0.179
-306.866	-61.405	0.391	0.162
-305.851	800.000	0.011	-0.046
-304.837	376.061	-0.122	-0.246
-303.822	800.000	0.104	-0.406
-302.807	182.665	-0.183	0.267
-301.793	800.000	0.048	-0.174
-300.778	-200.000	0.008	-0.129
-299.764	800.000	-0.042	-0.119
-298.749	217.854	0.129	-0.203
-297.735	-153.490	-0.327	0.022
-296.720	271.776	-0.163	0.284
-295.705	-200.000	0.006	0.137
-294.691	-131.662	0.047	0.006
-293.676	63.699	-0.240	-0.237
-292.662	279.000	-0.101	0.178
-291.647	-140.580	-0.109	-0.011
-290.632	0.364	0.186	-0.131
-289.618	-200.000	0.050	0.237
-288.603	44.854	0.197	0.179
-287.589	215.158	0.133	0.208
-286.574	800.000	0.026	0.114
-285.559	-200.000	-0.002	-0.031
-284.545	13.982	-0.163	0.126
-283.530	33.576	-0.272	0.234
-282.516	38.605	0.048	-0.042
-281.501	45.112	-0.189	-0.172
-280.486	800.000	-0.051	0.197
-279.472	150.884	0.111	-0.148
-278.457	-86.137	0.379	-0.115
-277.443	-154.936	-0.200	0.013
-276.428	368.936	0.079	-0.157
-275.413	264.454	0.121	-0.208
-274.399	72.417	0.125	0.129
-273.384	-200.000	0.026	0.123
-272.370	800.000	0.070	-0.277
-271.355	251.145	-0.222	0.372
-270.340	800.000	-0.040	0.166
-269.326	444.716	0.186	0.402
-268.311	-200.000	-0.026	-0.219
-267.297	-200.000	0.021	0.150
-266.282	-127.402	0.235	0.034
-265.267	21.384	0.314	0.252
-264.253	310.435	-0.131	-0.242
-263.238	-200.000	0.011	0.051
-262.224	-200.000	0.015	0.204
-261.209	-132.609	0.229	0.029
-260.195	507.339	0.069	0.159
-259.180	90.768	0.208	-0.230
-258.165	-138.549	-0.138	0.015
-257.151	-200.000	-0.007	-0.055
-256.136	708.873	0.035	0.090
-255.122	20.832	0.109	0.087
-254.107	-82.356	-0.234	-0.075
-253.092	-31.403	0.067	0.037
-252.078	-109.256	0.354	0.074
-251.063	623.117	0.077	0.192
-250.049	-86.761	0.083	0.025
-249.034	161.803	0.106	-0.146
-248.019	280.055	-0.077	-0.135
-247.005	800.000	0.030	-0.094
-245.990	-200.000	-0.038	-0.220
-244.976	-61.902	0.171	0.071
-243.961	106.522	-0.210	0.246
-242.946	-200.000	-0.028	0.159
-241.932	-61.295	0.069	-0.029
-240.917	-20.986	0.258	-0.156
-239.903	-64.185	0.119	-0.048
-238.888	10.211	0.059	-0.044
-237.873	484.261	-0.084	-0.189
-236.859	23.289	-0.098	-0.079
-235.844	-84.080	0.375	0.117
-234.830	786.786	-0.022	-0.059
-233.815	-124.490	-0.215	-0.033
-232.800	-26.646	-0.098	-0.056
-231.786	17.293	0.182	-0.142
-230.771	87.840	-0.030	-0.033
-229.757	-200.000	0.006	-0.054
-228.742	800.000	0.086	0.301
-227.727	-200.000	0.015	-0.130
-226.713	692.773	-0.008	-0.021
-225.698	253.708	-0.070	-0.118
-224.684	-200.000	0.028	-0.180
-223.669	32.809	-0.054	-0.046
-222.655	-22.683	0.039	0.023
-221.640	-200.000	-0.038	0.195
-220.625	524.298	0.224	0.517
-219.611	-19.537	-0.193	-0.118
-218.596	-129.829	-0.131	-0.018
-217.582	209.937	-0.139	-0.215
-216.567	173.915	0.194	0.275
-215.552	-112.414	0.185	-0.036
-214.538	468.730	-0.091	-0.201
-213.523	-96.482	-0.165	-0.043
-212.509	-63.566	-0.267	-0.108
-211.494	-200.000	-0.014	-0.204
-210.479	76.835	-0.193	0.201
-209.465	-52.515	0.540	-0.246
-208.450	234.345	-0.118	-0.191
-207.436	-200.000	-0.016	0.265
-206.421	255.110	-0.143	0.242
-205.406	-200.000	-0.043	0.297
-204.392	-200.000	-0.020	0.299
-203.377	-200.000	-0.014	0.262
-202.363	37.886	-0.329	-0.288
-201.348	-200.000	0.009	-0.203
-200.333	-200.000	-0.009	-0.123
-199.319	306.403	0.206	-0.378
-198.304	-200.000	-0.011	-0.212
-197.290	-61.023	0.242	-0.100
-196.275	211.491	0.061	-0.094
-195.260	-200.000	0.031	-0.200
-194.246	295.461	0.027	-0.048
-193.231	-200.000	0.002	0.172
-192.217	800.000	0.098	0.279
-191.202	-200.000	0.043	-0.361
-190.187	-89.853	-0.434	-0.125
-189.173	-128.518	-0.201	-0.028
-188.158	-200.000	0.058	0.263
-187.144	273.169	-0.094	0.164
-186.129	-129.949	0.219	-0.029
-185.114	200.349	-0.068	-0.103
-184.100	800.000	0.070	-0.262
-183.085	800.000	-0.084	-0.272
-182.071	800.000	-0.099	-0.345
-181.056	621.585	0.069	0.169
-180.042	-200.000	-0.032	0.329
-179.027	-131.697	0.287	0.037
-178.012	-200.000	0.013	0.185
-176.998	20.849	0.268	0.213
-175.983	8.984	0.258	0.191
-174.969	18.235	-0.132	-0.104
-173.954	0.804	0.128	-0.090
-172.939	-61.170	-0.230	0.095
-171.925	-126.893	-0.024	0.004
-170.910	-200.000	0.008	0.117
-169.896	403.179	-0.117	0.242
-168.881	-9.881	0.217	-0.142
-167.866	-41.158	0.332	0.168
-166.852	-200.000	-0.005	-0.170
-165.837	-120.225	0.149	-0.025
-164.823	-200.000	0.000	0.044
-163.808	800.000	-0.110	-0.361
-162.793	-43.891	0.023	0.011
-161.779	-200.000	-0.075	0.393
-160.764	-96.101	0.243	0.063
-159.750	-16.131	-0.064	0.040
-158.735	138.121	-0.097	0.125
-157.720	-82.444	0.307	-0.098
-156.706	-34.666	0.150	0.081
-155.691	-200.000	0.005	-0.092
-154.677	310.293	-0.035	-0.065
-153.662	194.938	0.091	-0.136
-152.647	-200.000	-0.007	0.033
-151.633	783.709	0.073	0.195
-150.618	-200.000	-0.039	-0.269
-149.604	193.583	0.071	-0.105
-148.589	71.669	-0.190	0.194
-147.574	800.000	-0.057	0.164
-146.560	-35.981	0.167	0.089
-145.545	-200.000	0.004	0.124
-144.531	359.393	0.098	0.192
-143.516	215.720	0.156	0.244
-142.502	800.000	-0.084	0.327
-141.487	40.600	0.129	0.114
-140.472	46.629	0.211	0.192
-139.458	120.971	-0.088	-0.108
-138.443	-200.000	0.001	-0.180
-137.429	89.290	-0.140	-0.153
-136.414	800.000	0.055	0.164
-135.399	151.960	0.153	-0.205
-134.385	200.419	-0.220	0.332
-133.370	-77.433	-0.292	-0.100
-132.356	99.593	0.168	0.190
-131.341	-130.087	0.153	0.020
-130.326	633.361	0.063	0.156
-129.312	-60.570	0.245	0.102
-128.297	-74.437	0.117	0.041
-127.283	-108.629	-0.229	-0.048
-126.268	800.000	0.070	-0.245
-125.253	-7.884	-0.048	0.032
-124.239	-7.925	-0.202	0.134
-123.224	660.609	-0.023	-0.059
-122.210	-200.000	0.029	-0.334
