DTS Sentinel unit serial number:	SN413079Multiplexer serial number:	ORYXHardware model number:	OX4-SRSoftware version number:	ORYX F/W v4.00 Oryx Data Collector v3.7.2.0data status	okinstallation	princeton_trtdifferential loss correction	single-endedforward channel	channel 1reverse channel	N/Adate	2019/09/13time	17:34:35forward acquisition time	60.00reverse acquisition time	0.00gamma	496.2192k internal	0.2299k external	0.2299temperature offset calibration	1.0149default loss term (dB/km)	0.3790temperature slope calibration	1.0000multiplexer offset coefficient	1.0000multiplexer slope coefficient	1.0000fibre end	0.00T internal ref (°C)	36.00T ext. ref 1 (°C)	5.37T ext. ref 2 (°C)	29.17length (m)	temperature (°C)	Stokes	anti-Stokes-747.200	536.798	0.091	-0.220
-746.185	-34.789	-0.230	-0.128
-745.171	-200.000	0.030	0.250
-744.156	552.185	-0.076	0.186
-743.142	89.097	-0.194	0.220
-742.127	15.080	0.132	0.105
-741.112	-30.969	-0.022	0.013
-740.098	-57.625	-0.076	-0.034
-739.083	-34.453	0.194	0.109
-738.069	-103.254	0.055	0.013
-737.054	22.534	0.144	-0.121
-736.039	-100.237	-0.242	-0.061
-735.025	613.770	0.112	0.286
-734.010	-146.389	-0.310	-0.028
-732.996	296.462	-0.142	-0.266
-731.981	-45.569	-0.176	-0.089
-730.966	66.120	-0.083	-0.086
-729.952	-48.244	0.166	-0.082
-728.937	-200.000	0.035	-0.270
-727.923	215.981	0.120	0.195
-726.908	-69.555	-0.259	0.101
-725.894	-83.170	-0.167	0.055
-724.879	-53.417	-0.229	0.107
-723.864	-95.505	-0.236	0.065
-722.850	295.464	0.140	-0.261
-721.835	5.014	0.125	-0.093
-720.821	-49.486	-0.160	-0.078
-719.806	-88.442	-0.176	0.054
-718.791	-67.157	-0.334	0.134
-717.777	46.147	0.020	-0.019
-716.762	800.000	0.075	-0.274
-715.748	-169.430	0.289	0.011
-714.733	106.369	-0.133	-0.161
-713.718	-17.928	-0.085	0.054
-712.704	521.612	-0.055	0.130
-711.689	-34.515	0.334	-0.187
-710.675	-56.921	-0.274	0.123
-709.660	-2.848	0.117	-0.083
-708.645	-34.814	0.203	0.113
-707.631	37.740	0.089	0.081
-706.616	-84.093	0.056	0.018
-705.602	-200.000	-0.027	-0.388
-704.587	40.354	0.045	-0.041
-703.572	-25.890	0.259	-0.155
-702.558	-29.456	-0.028	0.016
-701.543	120.554	-0.061	0.077
-700.529	663.066	-0.041	0.108
-699.514	-200.000	-0.033	-0.439
-698.499	93.673	-0.239	0.276
-697.485	88.819	0.233	0.264
-696.470	-154.417	0.262	-0.018
-695.456	-143.199	0.237	0.023
-694.441	-9.431	-0.181	-0.123
-693.426	26.181	-0.169	0.144
-692.412	500.887	-0.141	-0.332
-691.397	-200.000	-0.041	0.284
-690.383	44.507	-0.282	-0.264
-689.368	-200.000	0.035	0.325
-688.354	336.181	0.020	0.040
-687.339	-106.736	-0.188	0.043
-686.324	-132.425	-0.178	0.023
-685.310	-169.480	-0.205	-0.008
-684.295	-41.638	-0.343	0.179
-683.281	0.137	0.194	-0.141
-682.266	59.152	0.079	-0.080
-681.251	90.499	0.234	0.267
-680.237	-17.954	0.066	-0.042
-679.222	-200.000	-0.039	-0.198
-678.208	410.006	-0.098	-0.211
-677.193	28.939	0.118	0.102
-676.178	90.541	0.274	-0.312
-675.164	800.000	-0.043	0.170
-674.149	-142.980	0.205	-0.020
-673.135	3.119	-0.265	-0.196
-672.120	260.197	-0.082	0.145
-671.105	27.962	-0.202	0.173
-670.091	-17.483	-0.121	-0.077
-669.076	209.486	0.257	0.410
-668.062	173.277	-0.123	-0.180
-667.047	-66.627	-0.243	0.098
-666.032	27.485	0.145	-0.124
-665.018	-51.350	0.239	-0.114
-664.003	16.103	-0.060	0.048
-662.989	-140.062	-0.024	0.003
-661.974	800.000	-0.041	-0.118
-660.959	383.398	-0.075	-0.158
-659.945	-110.865	0.222	0.046
-658.930	-52.187	-0.063	0.030
-657.916	134.716	0.101	0.133
-656.901	-78.037	-0.166	0.058
-655.886	-33.461	-0.330	0.186
-654.872	83.931	-0.255	-0.283
-653.857	302.266	0.158	-0.297
-652.843	-107.254	-0.246	0.055
-651.828	591.329	-0.110	-0.275
-650.814	301.040	0.143	-0.268
-649.799	408.198	0.040	0.086
-648.784	101.189	0.103	-0.121
-647.770	-168.384	-0.142	0.006
-646.755	45.185	0.227	-0.213
-645.741	800.000	-0.176	0.568
-644.726	800.000	-0.084	0.261
-643.711	-83.246	0.066	0.021
-642.697	589.787	0.038	0.095
-641.682	86.691	-0.070	-0.079
-640.668	103.851	0.088	-0.106
-639.653	65.125	0.160	-0.164
-638.638	-150.650	-0.104	-0.008
-637.624	-200.000	0.027	-0.175
-636.609	48.915	-0.082	0.078
-635.595	91.124	-0.306	-0.349
-634.580	189.596	0.166	-0.253
-633.565	-76.386	-0.211	-0.076
-632.551	714.407	-0.049	-0.132
-631.536	-164.738	-0.204	-0.009
-630.522	441.369	0.113	-0.252
-629.507	-155.246	-0.428	-0.028
-628.492	-200.000	-0.014	0.369
-627.478	42.442	-0.191	0.176
-626.463	100.033	0.185	-0.217
-625.449	279.853	0.139	-0.252
-624.434	-200.000	0.012	0.137
-623.419	307.906	-0.053	-0.100
-622.405	400.240	0.111	-0.236
-621.390	800.000	0.112	-0.354
-620.376	143.718	-0.146	0.198
-619.361	553.261	0.164	0.400
-618.346	124.785	0.200	-0.256
-617.332	-146.620	-0.158	-0.014
-616.317	-93.168	-0.186	0.052
-615.303	-167.320	-0.326	-0.013
-614.288	-200.000	-0.003	0.175
-613.273	-146.953	0.281	-0.024
-612.259	800.000	0.043	-0.190
-611.244	31.593	-0.238	-0.207
-610.230	591.454	-0.134	0.337
-609.215	-200.000	0.007	0.190
-608.201	-103.269	0.177	0.042
-607.186	575.786	0.029	-0.072
-606.171	-158.659	-0.192	0.011
-605.157	-200.000	0.015	0.257
-604.142	-64.248	0.027	-0.011
-603.128	37.319	0.141	0.127
-602.113	-200.000	-0.007	0.144
-601.098	-200.000	-0.053	-0.357
-600.084	800.000	0.058	0.212
-599.069	-8.064	-0.167	-0.114
-598.055	490.623	0.026	0.060
-597.040	-129.533	-0.194	0.027
-596.025	-200.000	-0.010	0.135
-595.011	-167.320	0.230	0.009
-593.996	-96.849	0.065	-0.017
-592.982	-106.304	-0.107	-0.024
-591.967	800.000	-0.060	-0.197
-590.952	-173.524	-0.050	0.002
-589.938	-83.716	0.080	-0.026
-588.923	436.926	0.008	0.018
-587.909	-122.482	0.339	-0.056
-586.894	-191.416	0.185	-0.002
-585.879	4.418	-0.067	-0.050
-584.865	213.444	0.084	0.135
-583.850	6.093	0.182	-0.137
-582.836	-72.591	-0.176	-0.066
-581.821	245.273	0.138	-0.235
-580.806	16.873	0.413	0.331
-579.792	43.775	-0.173	0.160
-578.777	4.097	-0.192	-0.142
-577.763	-10.201	0.205	0.138
-576.748	253.194	0.156	-0.270
-575.733	-100.864	-0.242	0.060
-574.719	800.000	0.091	0.343
-573.704	-12.948	-0.139	-0.092
-572.690	-89.339	0.124	0.037
-571.675	173.501	0.077	0.113
-570.661	800.000	-0.027	-0.079
-569.646	19.914	-0.042	-0.034
-568.631	-44.798	0.311	0.157
-567.617	-200.000	-0.020	0.229
-566.602	-137.153	0.172	-0.020
-565.588	-200.000	-0.021	0.103
-564.573	406.972	-0.159	0.339
-563.558	185.769	0.087	0.131
-562.544	-47.262	0.117	0.058
-561.529	237.660	0.136	0.229
-560.515	-25.006	0.265	0.159
-559.500	80.845	0.137	0.150
-558.485	-45.475	-0.163	-0.082
-557.471	170.654	-0.093	-0.135
-556.456	-200.000	-0.018	0.177
-555.442	-89.839	0.195	-0.058
-554.427	248.445	0.094	0.161
-553.412	-44.908	-0.303	-0.153
-552.398	-200.000	-0.055	-0.319
-551.383	-64.115	-0.247	-0.102
-550.369	96.694	0.123	0.143
-549.354	81.566	-0.142	-0.156
-548.339	401.655	-0.036	0.077
-547.325	800.000	0.113	0.384
-546.310	-60.672	0.210	0.090
-545.296	-41.754	-0.313	-0.163
-544.281	800.000	0.056	0.218
-543.266	241.212	0.132	0.224
-542.252	-116.152	-0.431	-0.081
-541.237	71.738	-0.200	-0.211
-540.223	800.000	0.023	0.067
-539.208	-175.668	-0.345	-0.009
-538.193	-200.000	-0.044	-0.299
-537.179	-139.773	-0.223	0.024
-536.164	263.335	0.164	0.288
-535.150	150.707	0.160	0.220
-534.135	18.943	0.198	0.160
-533.121	-74.588	-0.138	0.050
-532.106	8.899	-0.517	-0.395
-531.091	31.637	-0.126	-0.109
-530.077	-200.000	-0.003	0.047
-529.062	-60.932	-0.065	0.028
-528.048	-200.000	0.028	-0.280
-527.033	-200.000	0.005	-0.154
-526.018	800.000	0.043	0.171
-525.004	-27.347	0.220	0.130
-523.989	752.845	-0.082	0.225
-522.975	-200.000	0.016	0.127
-521.960	60.016	0.145	0.145
-520.945	-33.567	-0.197	-0.110
-519.931	-75.430	0.306	-0.110
-518.916	800.000	-0.089	-0.363
-517.902	800.000	0.036	-0.123
-516.887	-94.079	-0.326	0.090
-515.872	23.390	-0.226	-0.188
-514.858	398.682	-0.120	-0.253
-513.843	-27.018	-0.134	-0.079
-512.829	-56.608	-0.293	-0.131
-511.814	800.000	0.037	-0.121
-510.799	800.000	0.030	-0.104
-509.785	167.681	0.023	-0.034
-508.770	-200.000	-0.004	-0.174
-507.756	-200.000	0.015	-0.193
-506.741	357.662	0.086	0.174
-505.726	-58.059	-0.222	-0.098
-504.712	-137.101	-0.094	-0.011
-503.697	-145.996	0.448	-0.040
-502.683	-200.000	0.021	-0.398
-501.668	-119.482	-0.173	-0.030
-500.653	-97.188	0.276	-0.073
-499.639	166.533	-0.177	0.254
-498.624	28.493	-0.199	0.170
-497.610	-59.747	-0.049	0.021
-496.595	-85.260	-0.254	-0.080
-495.581	-104.503	-0.351	-0.082
-494.566	-62.717	0.038	0.016
-493.551	-11.561	0.176	0.117
-492.537	-66.369	-0.254	0.102
-491.522	-20.119	-0.311	-0.194
-490.508	-18.004	0.149	0.094
-489.493	120.312	0.091	0.114
-488.478	-200.000	-0.012	-0.056
-487.464	-0.886	0.200	-0.143
-486.449	84.043	-0.256	-0.283
-485.435	79.401	-0.308	-0.334
-484.420	-57.634	0.354	-0.157
-483.405	-200.000	0.004	-0.219
-482.391	-66.254	0.134	-0.054
-481.376	132.403	0.190	0.247
-480.362	-105.166	-0.235	-0.054
-479.347	-200.000	0.030	0.243
-478.332	-200.000	-0.012	-0.426
-477.318	-200.000	0.046	-0.241
-476.303	-21.836	0.081	-0.049
-475.289	-200.000	-0.038	0.334
-474.274	-200.000	-0.066	-0.348
-473.259	800.000	-0.055	-0.170
-472.245	-156.928	0.364	0.023
-471.230	-63.094	-0.262	-0.109
-470.216	551.569	-0.095	-0.230
-469.201	359.731	0.121	0.244
-468.186	304.184	0.154	0.288
-467.172	86.654	0.297	-0.330
-466.157	-45.672	-0.309	-0.154
-465.143	192.906	0.194	0.296
-464.128	112.005	0.406	-0.495
-463.113	800.000	0.024	-0.090
-462.099	-200.000	0.017	0.076
-461.084	800.000	-0.074	-0.222
-460.070	-200.000	-0.077	-0.366
-459.055	-42.089	0.117	0.061
-458.040	800.000	-0.069	-0.210
-457.026	228.791	-0.095	-0.157
-456.011	-200.000	0.057	-0.282
-454.997	13.066	-0.185	-0.145
-453.982	-96.278	-0.048	0.013
-452.968	-34.714	-0.120	0.066
-451.953	110.609	-0.250	-0.304
-450.938	800.000	-0.045	-0.158
-449.924	80.771	-0.079	0.086
-448.909	-79.176	-0.084	-0.029
-447.895	-55.582	0.324	0.146
-446.880	276.934	0.055	-0.099
-445.865	-200.000	-0.019	0.115
-444.851	69.659	-0.105	-0.109
-443.836	-200.000	-0.035	-0.274
-442.822	-35.334	0.208	0.114
-441.807	800.000	0.059	0.195
-440.792	800.000	0.051	-0.171
-439.778	-200.000	-0.010	-0.165
-438.763	-200.000	0.004	0.400
-437.749	-189.671	0.007	0.000
-436.734	-113.564	0.196	-0.039
-435.719	113.418	-0.172	0.211
-434.705	-200.000	-0.065	0.367
-433.690	103.684	0.064	-0.075
-432.676	174.248	-0.024	0.036
-431.661	-200.000	0.011	-0.167
-430.646	-111.311	-0.392	-0.081
-429.632	-54.860	0.311	0.142
-428.617	404.714	-0.080	-0.169
-427.603	287.743	0.188	-0.343
-426.588	-200.000	-0.036	-0.165
-425.573	-112.321	0.130	0.026
-424.559	755.071	-0.086	-0.235
-423.544	-200.000	0.005	-0.104
-422.530	-200.000	-0.005	-0.049
-421.515	235.465	0.290	-0.483
-420.500	-133.208	0.354	-0.045
-419.486	-166.521	-0.129	-0.005
-418.471	800.000	0.102	0.357
-417.457	207.306	-0.186	0.292
-416.442	-4.466	0.227	0.158
-415.428	366.825	0.122	-0.247
-414.413	-57.487	0.287	-0.127
-413.398	800.000	-0.027	-0.115
-412.384	329.036	-0.140	-0.272
-411.369	-32.012	-0.100	-0.056
-410.355	175.359	0.179	0.262
-409.340	-200.000	-0.241	-0.000
-408.325	258.865	0.074	0.128
-407.311	-140.222	-0.355	0.037
-406.296	26.293	0.123	-0.104
-405.282	136.235	0.067	0.088
-404.267	-68.332	0.339	0.133
-403.252	29.079	0.240	0.205
-402.238	-86.780	-0.162	0.050
-401.223	56.564	0.125	-0.123
-400.209	56.484	-0.116	-0.114
-399.194	186.839	0.111	0.166
-398.179	-147.516	0.284	0.024
-397.165	-19.182	0.028	-0.017
-396.150	-122.322	0.180	-0.030
-395.136	-7.640	0.070	-0.048
-394.121	-150.509	-0.154	0.012
-393.106	-33.101	0.311	-0.173
-392.092	-200.000	0.209	0.000
-391.077	14.824	-0.112	0.088
-390.063	108.620	-0.201	0.242
-389.048	-83.557	0.376	0.121
-388.033	-62.657	-0.091	-0.038
-387.019	-44.611	0.090	0.045
-386.004	240.602	-0.085	0.143
-384.990	54.002	-0.129	0.125
-383.975	-138.442	0.191	-0.021
-382.960	-128.500	0.232	0.033
-381.946	800.000	-0.073	-0.221
-380.931	-200.000	-0.004	0.185
-379.917	-62.742	-0.128	0.053
-378.902	-58.873	-0.092	-0.040
-377.888	33.175	0.118	0.103
-376.873	-112.342	0.131	0.026
-375.858	184.949	-0.243	0.363
-374.844	800.000	-0.125	0.373
-373.829	-113.850	0.266	-0.052
-372.815	-200.000	-0.017	0.218
-371.800	63.035	-0.214	0.215
-370.785	137.397	0.205	0.270
-369.771	198.884	0.038	0.058
-368.756	-200.000	-0.050	-0.326
-367.742	21.584	-0.051	0.042
-366.727	-41.435	-0.208	0.108
-365.712	721.436	-0.112	0.298
-364.698	529.157	0.056	0.132
-363.683	800.000	0.084	-0.359
-362.669	-70.845	-0.228	0.086
-361.654	-200.000	0.000	-0.228
-360.639	-118.169	0.268	-0.048
-359.625	412.221	-0.067	-0.144
-358.610	-193.311	0.128	0.001
-357.596	39.582	-0.210	0.189
-356.581	-27.140	0.118	-0.069
-355.566	36.925	-0.169	-0.150
-354.552	45.939	0.301	0.280
-353.537	-200.000	-0.005	-0.234
-352.523	49.021	-0.173	0.163
-351.508	-113.510	0.366	-0.072
-350.493	-63.642	0.184	-0.076
-349.479	147.718	0.068	-0.091
-348.464	29.884	0.042	-0.036
-347.450	-71.042	0.320	0.121
-346.435	-18.122	0.162	-0.102
-345.420	310.255	-0.073	0.138
-344.406	210.271	0.077	0.121
-343.391	-89.553	-0.186	-0.055
-342.377	273.156	-0.319	0.566
-341.362	306.326	0.080	-0.150
-340.348	304.014	-0.094	0.175
-339.333	267.845	0.112	-0.197
-338.318	366.599	0.057	0.115
-337.304	800.000	0.044	0.162
-336.289	-12.349	-0.091	-0.060
-335.275	-127.003	-0.493	0.073
-334.260	106.657	0.078	-0.093
-333.245	-156.889	-0.217	0.013
-332.231	753.612	-0.054	-0.147
-331.216	39.427	0.050	-0.045
-330.202	-200.000	-0.032	-0.239
-329.187	21.163	0.055	-0.045
-328.172	349.954	-0.134	-0.266
-327.158	136.875	-0.068	0.089
-326.143	515.507	0.078	-0.183
-325.129	-162.917	-0.320	0.016
-324.114	-104.952	0.180	0.042
-323.099	-200.000	-0.045	-0.214
-322.085	-127.831	0.495	-0.072
-321.070	34.720	0.158	0.139
-320.056	69.481	-0.091	0.094
-319.041	126.721	0.047	0.060
-318.026	663.945	0.080	-0.206
-317.012	379.927	0.287	-0.590
-315.997	-5.600	0.199	0.137
-314.983	123.995	-0.036	-0.046
-313.968	800.000	0.147	0.435
-312.953	-200.000	-0.034	0.518
-311.939	73.772	0.140	0.147
-310.924	253.793	0.116	-0.199
-309.910	-200.000	-0.016	0.222
-308.895	-95.093	-0.114	-0.031
-307.880	800.000	0.094	0.309
-306.866	-32.224	0.276	0.155
-305.851	164.787	-0.109	0.154
-304.837	-50.921	-0.143	-0.068
-303.822	277.204	0.043	0.077
-302.807	-200.000	-0.021	-0.127
-301.793	-200.000	0.062	0.452
-300.778	-200.000	-0.005	0.113
-299.764	122.778	-0.189	0.237
-298.749	-102.218	-0.402	0.097
-297.735	-25.344	0.480	-0.285
-296.720	800.000	-0.041	0.146
-295.705	-200.000	0.013	0.523
-294.691	405.048	0.081	-0.172
-293.676	-165.137	-0.148	-0.007
-292.662	711.739	-0.144	0.382
-291.647	684.770	-0.072	0.189
-290.632	-158.129	-0.275	-0.016
-289.618	800.000	0.031	0.103
-288.603	55.665	-0.069	-0.067
-287.589	-119.202	-0.067	-0.012
-286.574	473.454	0.114	-0.256
-285.559	-96.403	-0.298	-0.079
-284.545	-121.763	-0.065	0.011
-283.530	-91.570	0.099	0.028
-282.516	250.645	0.088	0.150
-281.501	800.000	-0.035	0.106
-280.486	170.519	-0.064	0.092
-279.472	72.167	0.256	0.267
-278.457	-200.000	-0.021	0.341
-277.443	-151.806	0.042	0.003
-276.428	30.733	-0.232	0.199
-275.413	229.797	-0.094	-0.154
-274.399	-200.000	0.017	0.163
-273.384	-114.753	-0.344	0.066
-272.370	-77.755	0.350	-0.121
-271.355	-17.569	-0.153	0.097
-270.340	-112.614	-0.061	0.012
-269.326	800.000	0.032	0.108
-268.311	-131.267	0.294	-0.039
-267.297	-95.238	0.414	0.112
-266.282	-44.105	0.074	-0.037
-265.267	14.570	0.404	0.316
-264.253	-41.487	0.150	-0.077
-263.238	84.602	-0.116	-0.128
-262.224	55.056	-0.104	0.101
-261.209	800.000	-0.018	0.059
-260.195	-9.192	0.199	0.133
-259.180	-143.937	-0.341	-0.032
-258.165	-200.000	-0.026	-0.326
-257.151	-200.000	0.056	0.000
-256.136	-81.346	0.244	-0.081
-255.122	-156.236	0.197	-0.012
-254.107	-124.322	-0.334	0.052
-253.092	161.316	-0.214	-0.300
-252.078	410.588	-0.063	0.133
-251.063	80.183	-0.222	0.239
-250.049	-94.466	-0.096	-0.026
-249.034	-22.025	0.255	-0.155
-248.019	78.311	-0.027	-0.029
-247.005	799.341	-0.071	-0.197
-245.990	-68.671	-0.217	0.084
-244.976	-112.168	0.209	0.042
-243.961	-99.709	0.236	0.059
-242.946	-200.000	0.006	0.081
-241.932	-200.000	-0.036	-0.265
-240.917	157.516	-0.116	-0.160
-239.903	106.397	0.171	-0.203
-238.888	249.786	-0.018	0.031
-237.873	-48.434	-0.096	0.046
-236.859	-177.023	0.269	-0.007
-235.844	216.201	-0.211	0.336
-234.830	212.853	-0.066	0.104
-233.815	-35.245	-0.272	-0.148
-232.800	-200.000	0.020	-0.141
-231.786	-2.415	0.166	-0.116
-230.771	-200.000	-0.071	-0.322
-229.757	799.357	0.096	0.265
-228.742	800.000	0.045	0.195
-227.727	-68.049	0.346	-0.135
-226.713	-200.000	-0.029	-0.607
-225.698	800.000	-0.049	0.209
-224.684	-200.000	-0.019	0.244
-223.669	-12.659	0.104	0.068
-222.655	345.897	0.082	-0.161
-221.640	-112.647	0.251	0.050
-220.625	59.287	0.089	0.088
-219.611	-200.000	-0.008	-0.278
-218.596	504.302	-0.069	-0.159
-217.582	-143.907	0.065	0.006
-216.567	-64.744	-0.551	-0.223
-215.552	-149.680	0.136	0.011
-214.538	-200.000	0.060	-0.428
-213.523	-200.000	-0.003	0.089
-212.509	466.617	-0.100	0.223
-211.494	-121.122	-0.245	-0.041
-210.479	-113.048	0.289	-0.057
-209.465	-13.023	-0.232	0.151
-208.450	41.637	0.176	-0.159
-207.436	-107.715	0.272	0.059
-206.421	-179.000	0.201	-0.005
-205.406	-109.614	0.161	0.034
-204.392	-98.060	0.183	-0.047
-203.377	526.659	0.074	0.174
-202.363	-2.888	-0.255	-0.178
-201.348	87.653	-0.079	-0.087
-200.333	-24.574	-0.202	-0.120
-199.319	-153.515	0.395	-0.027
-198.304	-62.731	-0.215	-0.089
-197.290	-112.004	0.127	0.026
-196.275	-42.129	-0.090	0.046
-195.260	-200.000	-0.023	-0.145
-194.246	319.160	-0.045	0.086
-193.231	-103.398	0.132	-0.031
-192.217	-0.452	-0.097	0.069
-191.202	16.738	-0.100	-0.079
-190.187	228.437	-0.060	-0.098
-189.173	800.000	-0.060	0.214
-188.158	-72.633	-0.165	0.061
-187.144	-84.348	-0.331	-0.104
-186.129	484.906	0.043	0.097
-185.114	800.000	0.050	-0.170
-184.100	8.248	0.129	0.097
-183.085	-200.000	0.031	0.411
-182.071	339.430	0.019	0.038
-181.056	-117.986	0.194	-0.035
-180.042	-115.793	-0.365	-0.068
-179.027	-121.836	0.225	0.037
-178.012	187.761	-0.123	-0.183
-176.998	800.000	0.089	-0.371
-175.983	493.721	0.049	-0.112
-174.969	220.011	-0.032	0.050
-173.954	218.371	0.098	-0.155
-172.939	102.171	0.153	-0.179
-171.925	119.663	-0.166	0.205
-170.910	136.332	0.094	-0.122
-169.896	175.228	-0.184	0.266
-168.881	98.757	0.105	-0.121
-167.866	264.995	-0.056	0.097
-166.852	606.251	-0.147	0.364
-165.837	16.592	-0.151	0.119
-164.823	-115.327	-0.179	0.034
-163.808	138.699	-0.057	0.074
-162.793	-200.000	-0.008	-0.244
-161.779	-200.000	0.014	0.255
-160.764	104.055	-0.180	0.211
-159.750	138.460	-0.135	0.176
-158.735	508.504	0.242	-0.560
-157.720	-9.658	-0.339	0.225
-156.706	-99.605	-0.180	-0.045
-155.691	3.557	-0.154	0.112
-154.677	127.713	-0.241	0.305
-153.662	259.824	-0.108	0.185
-152.647	-125.160	-0.244	-0.037
-151.633	-94.380	0.280	-0.076
-150.618	-43.567	0.187	0.094
-149.604	-94.122	0.275	-0.075
-148.589	-14.262	-0.338	0.217
-147.574	-89.976	0.264	0.077
-146.560	318.499	-0.094	-0.177
-145.545	439.747	0.132	-0.288
-144.531	246.180	-0.071	0.119
-143.516	-64.837	-0.149	0.060
-142.502	-200.000	-0.035	0.190
-141.487	-73.911	0.117	-0.042
-140.472	522.013	-0.067	0.157
-139.458	451.293	0.080	-0.177
-138.443	-143.637	0.140	0.013
-137.429	106.841	-0.033	0.039
-136.414	200.255	-0.170	0.260
-135.399	-200.000	0.048	0.241
-134.385	800.000	-0.030	0.129
-133.370	385.477	-0.171	0.352
-132.356	-200.000	0.014	-0.106
-131.341	800.000	0.094	0.376
-130.326	-200.000	0.026	-0.215
-129.312	-150.663	-0.288	-0.022
-128.297	-88.760	-0.136	0.040
-127.283	259.347	0.101	0.174
-126.268	42.848	-0.239	0.217
-125.253	-72.873	0.066	0.024
-124.239	-200.000	-0.016	0.316
-123.224	-200.000	0.005	-0.058
-122.210	210.673	-0.144	0.225
-121.195	121.983	0.106	-0.131
