DTS Sentinel unit serial number:	SN413079Multiplexer serial number:	ORYXHardware model number:	OX4-SRSoftware version number:	ORYX F/W v4.00 Oryx Data Collector v3.7.2.0data status	okinstallation	princeton_trtdifferential loss correction	single-endedforward channel	channel 1reverse channel	N/Adate	2019/09/14time	13:30:35forward acquisition time	60.00reverse acquisition time	0.00gamma	496.2192k internal	0.2294k external	0.2294temperature offset calibration	1.0088default loss term (dB/km)	0.3790temperature slope calibration	1.0000multiplexer offset coefficient	1.0000multiplexer slope coefficient	1.0000fibre end	0.00T internal ref (°C)	37.94T ext. ref 1 (°C)	4.93T ext. ref 2 (°C)	33.30length (m)	temperature (°C)	Stokes	anti-Stokes-747.200	272.682	0.168	-0.303
-746.185	130.138	-0.164	0.215
-745.171	800.000	0.006	0.023
-744.156	-104.808	-0.097	0.023
-743.142	-200.000	-0.120	-0.546
-742.127	-68.258	-0.305	0.121
-741.112	-60.759	0.198	0.086
-740.098	800.000	-0.157	0.516
-739.083	176.591	0.261	0.388
-738.069	253.191	0.119	-0.208
-737.054	-73.645	-0.160	-0.060
-736.039	148.471	-0.143	-0.197
-735.025	559.688	0.113	0.280
-734.010	757.937	0.064	0.177
-732.996	325.762	-0.180	-0.352
-731.981	-10.320	-0.360	-0.244
-730.966	143.441	-0.147	-0.200
-729.952	-30.263	0.092	-0.054
-728.937	482.081	-0.086	-0.199
-727.923	583.987	-0.028	-0.070
-726.908	-135.881	-0.276	0.033
-725.894	220.409	0.177	0.290
-724.879	-200.000	-0.023	-0.196
-723.864	-119.316	-0.211	-0.038
-722.850	800.000	-0.019	-0.058
-721.835	-110.021	-0.293	-0.063
-720.821	-59.461	0.268	-0.118
-719.806	187.264	-0.073	0.111
-718.791	-200.000	0.000	-0.122
-717.777	94.514	-0.139	-0.161
-716.762	197.526	0.155	-0.242
-715.748	3.824	-0.147	0.110
-714.733	-200.000	-0.001	0.061
-713.718	156.614	-0.065	-0.091
-712.704	-10.069	-0.154	0.104
-711.689	87.900	-0.193	0.219
-710.675	-25.283	-0.404	-0.244
-709.660	-200.000	0.007	0.050
-708.645	399.405	-0.082	0.175
-707.631	-12.337	0.334	0.223
-706.616	800.000	-0.026	-0.090
-705.602	19.077	-0.233	-0.190
-704.587	-200.000	0.048	-0.284
-703.572	54.310	-0.171	-0.168
-702.558	800.000	-0.076	0.249
-701.543	800.000	0.048	-0.170
-700.529	487.643	0.086	-0.199
-699.514	-200.000	-0.035	-0.165
-698.499	283.587	-0.174	0.319
-697.485	184.361	-0.151	0.228
-696.470	361.681	0.090	0.185
-695.456	6.354	-0.316	0.239
-694.441	800.000	-0.125	-0.462
-693.426	-200.000	-0.038	-0.427
-692.412	-37.654	0.246	-0.134
-691.397	-98.507	-0.076	0.020
-690.383	-200.000	-0.023	-0.225
-689.368	780.405	-0.094	0.262
-688.354	-87.197	0.301	0.093
-687.339	272.167	-0.168	-0.302
-686.324	-50.623	0.310	-0.149
-685.310	428.094	-0.191	0.421
-684.295	-27.140	-0.094	-0.056
-683.281	57.105	-0.307	-0.306
-682.266	237.240	-0.071	-0.121
-681.251	-3.694	0.164	-0.116
-680.237	-172.711	-0.143	-0.005
-679.222	752.499	-0.135	-0.371
-678.208	-200.000	-0.011	0.222
-677.193	48.679	-0.051	0.049
-676.178	361.708	-0.013	0.026
-675.164	-200.000	-0.001	0.059
-674.149	122.869	-0.056	0.072
-673.135	-85.092	0.184	0.059
-672.120	800.000	-0.034	0.102
-671.105	-122.939	-0.245	-0.040
-670.091	-47.155	-0.094	-0.047
-669.076	319.808	-0.111	0.215
-668.062	-200.000	0.030	-0.136
-667.047	780.693	-0.027	-0.075
-666.032	89.019	-0.050	-0.057
-665.018	-128.869	0.331	-0.047
-664.003	-99.214	0.374	0.096
-662.989	-121.541	0.404	0.068
-661.974	322.971	-0.019	-0.038
-660.959	192.825	-0.086	-0.133
-659.945	210.727	0.130	0.208
-658.930	800.000	-0.119	-0.339
-657.916	-8.483	-0.163	-0.112
-656.901	-200.000	0.074	0.333
-655.886	71.785	-0.095	0.101
-654.872	-167.648	-0.335	-0.014
-653.857	282.869	0.076	-0.138
-652.843	31.233	0.036	0.032
-651.828	-200.000	-0.008	0.082
-650.814	177.032	-0.020	-0.030
-649.799	800.000	0.071	-0.304
-648.784	-77.182	0.128	-0.045
-647.770	800.000	0.036	-0.105
-646.755	126.036	0.138	-0.178
-645.741	233.742	-0.046	-0.077
-644.726	236.688	0.196	-0.331
-643.711	800.000	-0.132	0.382
-642.697	769.334	0.072	-0.200
-641.682	110.203	0.102	-0.125
-640.668	645.427	-0.087	-0.227
-639.653	-29.836	-0.139	-0.080
-638.638	-155.892	0.168	-0.011
-637.624	-200.000	-0.001	-0.178
-636.609	-200.000	-0.073	0.490
-635.595	-200.000	-0.072	0.498
-634.580	127.528	-0.138	0.178
-633.565	-132.870	0.236	0.031
-632.551	344.245	-0.066	-0.131
-631.536	800.000	-0.095	0.309
-630.522	-79.063	0.074	0.026
-629.507	-200.000	-0.010	-0.166
-628.492	-169.049	-0.146	-0.006
-627.478	-200.000	-0.010	0.449
-626.463	-31.105	0.156	-0.089
-625.449	-1.269	-0.090	-0.065
-624.434	-200.000	-0.013	-0.123
-623.419	-74.907	-0.254	0.093
-622.405	69.832	-0.057	0.060
-621.390	58.838	0.157	0.157
-620.376	63.946	-0.179	0.183
-619.361	204.106	0.192	-0.303
-618.346	-200.000	-0.009	-0.271
-617.332	800.000	-0.072	-0.305
-616.317	158.015	-0.191	0.269
-615.303	-42.017	-0.296	-0.154
-614.288	-200.000	0.006	0.176
-613.273	-200.000	0.065	-0.333
-612.259	800.000	0.089	-0.271
-611.244	-141.443	-0.251	-0.026
-610.230	800.000	-0.064	-0.195
-609.215	-150.518	-0.080	-0.006
-608.201	800.000	-0.049	0.143
-607.186	-49.835	0.076	-0.037
-606.171	-26.432	-0.461	-0.275
-605.157	-97.309	-0.397	0.105
-604.142	-200.000	0.044	0.327
-603.128	133.902	-0.070	-0.092
-602.113	415.363	-0.054	-0.117
-601.098	406.454	-0.146	-0.313
-600.084	96.623	-0.119	-0.138
-599.069	-200.000	-0.037	-0.282
-598.055	-200.000	0.017	-0.314
-597.040	424.219	0.081	-0.177
-596.025	-115.606	-0.270	0.051
-595.011	251.087	-0.112	0.194
-593.996	-37.342	0.241	0.131
-592.982	92.056	-0.197	0.226
-591.967	689.453	-0.127	0.339
-590.952	262.412	0.074	0.130
-589.938	539.682	-0.079	-0.191
-588.923	-173.845	-0.117	-0.004
-587.909	19.749	0.375	0.307
-586.894	800.000	-0.046	0.133
-585.879	151.218	0.097	-0.135
-584.865	-120.851	-0.251	-0.043
-583.850	97.677	-0.170	0.199
-582.836	-103.213	0.294	0.071
-581.821	673.215	-0.115	-0.304
-580.806	-200.000	0.015	0.147
-579.792	-35.245	0.251	-0.139
-578.777	-24.178	-0.242	0.147
-577.763	75.900	0.267	0.287
-576.748	38.946	0.044	-0.040
-575.733	746.914	-0.026	0.072
-574.719	113.659	0.158	0.194
-573.704	-114.023	0.066	-0.013
-572.690	-154.265	0.323	-0.022
-571.675	800.000	-0.060	-0.231
-570.661	-105.809	0.115	0.026
-569.646	522.779	0.110	-0.263
-568.631	-200.000	0.005	-0.103
-567.617	116.964	0.137	-0.171
-566.602	28.259	0.047	0.040
-565.588	273.564	0.054	0.097
-564.573	132.033	-0.127	-0.166
-563.558	-44.325	0.231	0.118
-562.544	-200.000	0.033	0.153
-561.529	703.324	-0.092	0.245
-560.515	197.389	-0.112	-0.174
-559.500	116.225	0.062	0.077
-558.485	-87.312	-0.131	-0.040
-557.471	-120.329	0.377	0.065
-556.456	800.000	-0.070	-0.251
-555.442	800.000	0.047	-0.198
-554.427	-180.876	0.197	0.004
-553.412	-84.487	-0.189	-0.061
-552.398	-103.857	-0.314	-0.074
-551.383	-200.000	-0.012	0.301
-550.369	294.871	-0.124	0.231
-549.354	331.902	0.229	-0.448
-548.339	-200.000	0.071	-0.392
-547.325	-200.000	0.054	-0.309
-546.310	-10.804	0.035	0.024
-545.296	-200.000	-0.007	0.040
-544.281	-100.703	-0.192	-0.048
-543.266	-47.288	-0.041	-0.020
-542.252	-15.317	-0.052	0.033
-541.237	-102.963	-0.257	-0.062
-540.223	376.397	-0.104	-0.215
-539.208	89.306	-0.086	0.098
-538.193	800.000	0.074	-0.307
-537.179	526.785	-0.053	0.127
-536.164	800.000	0.115	0.350
-535.150	-114.466	-0.052	0.010
-534.135	-200.000	-0.014	0.156
-533.121	15.966	0.061	-0.049
-532.106	-7.388	-0.116	0.080
-531.091	-200.000	-0.058	0.267
-530.077	4.736	-0.163	0.122
-529.062	-63.237	0.201	-0.084
-528.048	-200.000	0.017	-0.288
-527.033	-133.810	-0.113	-0.014
-526.018	116.809	0.234	-0.292
-525.004	800.000	-0.014	-0.058
-523.989	115.791	-0.129	-0.160
-522.975	186.234	-0.074	-0.111
-521.960	-200.000	0.003	-0.109
-520.945	-135.396	-0.260	-0.032
-519.931	104.067	-0.268	0.319
-518.916	-146.433	-0.209	0.019
-517.902	-200.000	0.067	0.334
-516.887	-157.265	-0.151	-0.009
-515.872	324.227	0.063	0.122
-514.858	-97.308	-0.100	-0.026
-513.843	-52.747	0.244	-0.114
-512.829	-2.105	-0.355	-0.253
-511.814	-125.588	-0.138	0.021
-510.799	-200.000	0.004	-0.051
-509.785	-200.000	-0.055	-0.313
-508.770	322.731	0.071	-0.137
-507.756	203.341	0.125	0.196
-506.741	-200.000	0.035	0.261
-505.726	410.111	-0.063	0.136
-504.712	181.259	-0.105	0.156
-503.697	-96.315	-0.160	-0.043
-502.683	-200.000	-0.027	-0.236
-501.668	-120.667	-0.395	0.068
-500.653	-62.620	-0.371	0.156
-499.639	33.982	-0.113	-0.099
-498.624	399.459	0.068	0.145
-497.610	294.826	0.035	-0.065
-496.595	-200.000	0.024	-0.108
-495.581	-127.768	-0.434	0.063
-494.566	-200.000	0.040	0.193
-493.551	-200.000	0.027	0.183
-492.537	142.233	0.158	-0.212
-491.522	60.931	0.126	-0.127
-490.508	-200.000	-0.010	-0.067
-489.493	14.897	0.240	0.190
-488.478	-52.223	-0.035	-0.016
-487.464	461.902	0.144	0.326
-486.449	-91.098	-0.374	-0.109
-485.435	-93.827	0.220	0.061
-484.420	-170.651	0.152	0.005
-483.405	205.351	-0.134	-0.210
-482.391	-26.078	0.046	-0.028
-481.376	285.435	0.052	-0.094
-480.362	9.544	-0.199	-0.152
-479.347	145.632	0.164	0.223
-478.332	-29.395	-0.204	-0.118
-477.318	16.486	0.275	0.220
-476.303	-200.000	0.009	-0.150
-475.289	-69.240	-0.192	-0.075
-474.274	-1.497	-0.147	0.105
-473.259	-135.326	-0.299	-0.036
-472.245	-200.000	-0.106	-0.000
-471.230	-32.111	-0.181	0.102
-470.216	150.495	0.156	-0.215
-469.201	22.079	0.132	-0.109
-468.186	-17.057	0.272	-0.174
-467.172	-200.000	-0.024	-0.196
-466.157	-170.712	0.222	-0.008
-465.143	-90.782	-0.352	0.103
-464.128	-161.905	-0.302	-0.015
-463.113	-83.712	-0.461	-0.149
-462.099	-200.000	0.004	0.073
-461.084	-135.987	-0.183	0.022
-460.070	305.730	0.220	-0.414
-459.055	-200.000	-0.025	0.234
-458.040	639.731	-0.147	0.379
-457.026	88.487	0.093	-0.104
-456.011	266.028	0.126	-0.222
-454.997	-30.391	0.275	0.158
-453.982	25.582	0.241	0.203
-452.968	40.083	-0.265	0.241
-451.953	281.285	0.075	0.136
-450.938	-4.071	-0.053	0.037
-449.924	135.063	-0.083	-0.109
-448.909	474.862	-0.014	0.031
-447.895	215.616	0.142	0.227
-446.880	-19.366	-0.173	0.109
-445.865	393.500	0.104	-0.219
-444.851	31.294	-0.199	0.172
-443.836	-35.626	-0.147	-0.081
-442.822	-32.690	0.302	-0.170
-441.807	-28.872	-0.369	-0.214
-440.792	-25.157	0.153	-0.092
-439.778	-95.038	0.431	0.118
-438.763	41.414	-0.167	-0.153
-437.749	31.289	-0.130	0.113
-436.734	-200.000	0.093	0.485
-435.719	-86.471	-0.118	-0.037
-434.705	-72.782	0.111	0.041
-433.690	-6.626	-0.267	-0.183
-432.676	-58.207	-0.173	-0.076
-431.661	-200.000	-0.013	0.236
-430.646	-200.000	0.026	-0.143
-429.632	122.898	0.064	-0.081
-428.617	-3.813	0.192	0.134
-427.603	285.103	0.054	0.098
-426.588	55.616	-0.171	0.167
-425.573	-54.076	-0.154	-0.071
-424.559	800.000	-0.085	-0.301
-423.544	-46.229	-0.172	0.085
-422.530	-113.195	0.262	0.052
-421.515	37.030	-0.070	0.062
-420.500	-68.296	-0.136	0.053
-419.486	303.102	0.041	0.076
-418.471	-149.783	0.449	-0.036
-417.457	-102.955	-0.121	0.029
-416.442	-200.000	-0.002	-0.061
-415.428	-200.000	-0.007	0.219
-414.413	476.620	-0.062	-0.142
-413.398	49.178	-0.233	-0.221
-412.384	-67.619	0.044	0.018
-411.369	114.050	-0.065	-0.080
-410.355	476.705	0.219	0.500
-409.340	-35.262	0.201	-0.110
-408.325	-173.199	-0.355	-0.011
-407.311	35.615	0.189	0.168
-406.296	800.000	-0.032	0.127
-405.282	-105.989	-0.175	-0.040
-404.267	-46.900	0.137	0.068
-403.252	67.829	0.075	-0.077
-402.238	459.313	0.073	-0.164
-401.223	-200.000	0.016	0.144
-400.209	80.949	0.184	-0.200
-399.194	4.194	-0.165	-0.122
-398.179	466.575	0.143	-0.323
-397.165	800.000	0.074	0.293
-396.150	-91.511	-0.055	0.016
-395.136	800.000	0.091	-0.391
-394.121	800.000	0.038	0.150
-393.106	524.547	0.189	-0.448
-392.092	86.034	0.209	0.232
-391.077	-200.000	0.020	0.097
-390.063	29.923	0.038	0.032
-389.048	106.441	-0.156	0.186
-388.033	-200.000	0.010	-0.392
-387.019	113.967	0.176	-0.216
-386.004	-200.000	-0.058	-0.502
-384.990	-93.916	0.079	0.022
-383.975	8.854	-0.155	0.118
-382.960	418.618	0.251	0.542
-381.946	-140.626	0.199	-0.021
-380.931	-200.000	0.025	-0.150
-379.917	-103.430	0.325	-0.077
-378.902	-23.287	-0.158	0.096
-377.888	435.642	-0.069	-0.151
-376.873	-47.016	-0.344	-0.169
-375.858	800.000	0.055	-0.167
-374.844	74.863	-0.133	0.141
-373.829	800.000	-0.007	-0.029
-372.815	80.954	-0.198	0.216
-371.800	4.042	0.358	-0.264
-370.785	-102.637	0.103	-0.025
-369.771	-4.432	0.166	-0.116
-368.756	-140.638	0.247	0.026
-367.742	-200.000	-0.046	-0.227
-366.727	-200.000	0.029	0.263
-365.712	27.533	-0.202	0.171
-364.698	-71.337	0.306	-0.115
-363.683	-130.169	-0.270	0.037
-362.669	-16.046	-0.132	0.085
-361.654	224.427	-0.242	0.394
-360.639	122.341	-0.226	-0.284
-359.625	16.925	-0.183	0.146
-358.610	721.288	0.084	0.225
-357.596	-120.357	0.441	-0.076
-356.581	-92.082	0.136	-0.039
-355.566	-200.000	-0.016	-0.094
-354.552	-128.707	-0.320	0.046
-353.537	40.810	0.179	-0.162
-352.523	172.890	0.103	0.149
-351.508	117.298	0.425	0.526
-350.493	-200.000	-0.046	0.485
-349.479	-200.000	0.021	-0.208
-348.464	-200.000	-0.071	0.477
-347.450	800.000	0.016	0.062
-346.435	325.354	0.112	-0.216
-345.420	-172.423	-0.154	0.005
-344.406	-200.000	0.001	-0.066
-343.391	-200.000	0.010	-0.235
-342.377	-72.484	0.111	-0.041
-341.362	-70.442	0.040	-0.015
-340.348	155.511	-0.116	0.161
-339.333	-106.316	-0.293	0.066
-338.318	-169.030	-0.193	0.007
-337.304	800.000	-0.056	-0.177
-336.289	239.600	0.031	-0.052
-335.275	800.000	0.081	-0.258
-334.260	-106.311	0.266	0.060
-333.245	-200.000	0.002	0.069
-332.231	201.612	-0.071	-0.110
-331.216	800.000	0.058	0.239
-330.202	116.339	0.040	-0.049
-329.187	-171.745	-0.149	0.005
-328.172	-12.639	0.314	0.206
-327.158	392.454	-0.071	0.149
-326.143	7.287	0.210	0.158
-325.129	-22.245	-0.085	-0.052
-324.114	369.893	-0.005	0.010
-323.099	352.679	-0.041	-0.082
-322.085	-15.387	-0.207	0.133
-321.070	146.637	0.263	0.355
-320.056	800.000	0.011	-0.036
-319.041	334.403	0.107	-0.208
-318.026	564.317	-0.051	0.124
-317.012	800.000	0.060	-0.235
-315.997	59.117	-0.281	-0.278
-314.983	-200.000	-0.036	-0.234
-313.968	48.908	0.136	0.129
-312.953	-35.338	0.114	-0.062
-311.939	-200.000	-0.039	0.333
-310.924	-135.504	0.052	-0.006
-309.910	-200.000	0.059	-0.373
-308.895	-181.188	0.150	0.003
-307.880	-69.677	0.052	-0.020
-306.866	213.628	0.103	-0.164
-305.851	-139.281	0.295	0.032
-304.837	-29.446	0.110	0.063
-303.822	-89.730	-0.257	-0.076
-302.807	-64.112	0.168	0.069
-301.793	-198.258	0.159	-0.001
-300.778	319.802	0.094	-0.180
-299.764	-200.000	-0.012	-0.231
-298.749	223.139	-0.100	0.162
-297.735	241.910	-0.069	-0.116
-296.720	180.202	0.108	0.159
-295.705	-200.000	-0.027	0.302
-294.691	-157.686	0.161	-0.010
-293.676	-200.000	-0.017	-0.239
-292.662	-200.000	0.029	-0.331
-291.647	33.753	-0.091	-0.080
-290.632	785.988	0.087	-0.239
-289.618	800.000	-0.021	-0.090
-288.603	42.101	0.303	0.277
-287.589	-200.000	-0.019	-0.106
-286.574	-37.300	0.193	0.103
-285.559	800.000	-0.054	-0.161
-284.545	138.960	-0.120	0.158
-283.530	-120.538	-0.079	-0.013
-282.516	-49.173	0.221	-0.106
-281.501	90.500	-0.372	0.418
-280.486	-149.519	0.146	0.012
-279.472	4.605	0.188	0.139
-278.457	-200.000	0.078	0.427
-277.443	3.111	0.174	-0.127
-276.428	-33.823	-0.244	-0.135
-275.413	-200.000	-0.005	0.331
-274.399	503.888	0.065	-0.152
-273.384	-104.256	0.071	0.016
-272.370	120.095	0.053	0.066
-271.355	-110.854	0.268	-0.055
-270.340	-200.000	-0.055	0.260
-269.326	-128.579	-0.170	-0.024
-268.311	-54.708	0.342	-0.155
-267.297	-67.962	0.166	-0.065
-266.282	-21.188	-0.369	0.226
-265.267	333.034	-0.087	-0.168
-264.253	-67.126	-0.361	0.143
-263.238	-111.726	0.251	-0.051
-262.224	-89.065	-0.272	0.081
-261.209	-105.793	-0.298	-0.067
-260.195	16.212	-0.078	-0.062
-259.180	79.253	0.115	0.124
-258.165	-158.616	0.301	0.017
-257.151	-200.000	0.085	0.000
-256.136	268.713	0.055	0.096
-255.122	-111.161	-0.123	-0.025
-254.107	-58.103	0.079	0.034
-253.092	-200.000	-0.030	0.167
-252.078	-21.351	-0.295	0.181
-251.063	800.000	0.186	0.620
-250.049	800.000	0.081	0.313
-249.034	-103.934	0.120	0.028
-248.019	93.600	0.026	0.029
-247.005	102.014	0.076	0.089
-245.990	800.000	-0.083	-0.274
-244.976	205.230	0.090	-0.141
-243.961	688.741	0.154	0.404
-242.946	-140.098	-0.246	0.026
-241.932	-17.570	-0.300	-0.189
-240.917	348.039	-0.159	-0.315
-239.903	-200.000	0.005	0.233
-238.888	-49.525	0.119	0.057
-237.873	171.823	-0.094	0.136
-236.859	18.554	-0.234	0.188
-235.844	420.990	0.073	-0.156
-234.830	-132.233	0.029	0.004
-233.815	-182.799	0.203	-0.004
-232.800	-200.000	0.027	0.204
-231.786	-121.358	-0.034	-0.006
-230.771	18.475	-0.348	-0.279
-229.757	-200.000	-0.004	-0.028
-228.742	-98.801	0.213	0.054
-227.727	-107.671	0.168	-0.037
-226.713	25.262	0.329	0.274
-225.698	-76.173	0.361	0.128
-224.684	800.000	0.096	0.412
-223.669	-200.000	-0.004	0.175
-222.655	69.738	-0.188	-0.194
-221.640	800.000	0.013	0.036
-220.625	25.569	0.427	0.356
-219.611	-101.671	0.207	-0.050
-218.596	138.450	-0.061	0.080
-217.582	18.904	-0.162	-0.130
-216.567	143.239	0.125	0.166
-215.552	-61.204	0.142	-0.060
-214.538	-84.646	-0.414	0.131
-213.523	-200.000	0.007	0.099
-212.509	-142.387	0.166	-0.016
-211.494	-137.945	-0.145	-0.016
-210.479	-23.969	-0.199	0.119
-209.465	-12.105	-0.179	0.118
-208.450	395.679	-0.022	0.046
-207.436	692.394	-0.116	0.303
-206.421	-200.000	0.014	-0.110
-205.406	-181.958	-0.025	0.000
-204.392	-34.794	0.212	0.116
-203.377	-43.115	0.247	0.125
-202.363	800.000	0.034	0.137
-201.348	-41.810	-0.133	0.068
-200.333	-4.368	0.214	-0.148
-199.319	182.515	0.084	-0.125
-198.304	-142.235	-0.150	0.015
-197.290	800.000	0.134	-0.383
-196.275	-140.426	-0.185	0.019
-195.260	800.000	-0.029	0.100
-194.246	-38.641	-0.130	-0.069
-193.231	-149.333	-0.477	-0.038
-192.217	-200.000	0.008	-0.116
-191.202	67.811	-0.013	0.014
-190.187	193.843	-0.108	0.164
-189.173	-200.000	0.024	-0.250
-188.158	244.834	0.091	-0.153
-187.144	-44.263	0.033	-0.016
-186.129	-99.519	0.088	-0.022
-185.114	-21.020	0.179	-0.109
-184.100	-46.050	-0.099	0.049
-183.085	-34.076	-0.333	0.183
-182.071	-200.000	0.014	-0.122
-181.056	-87.482	-0.020	0.006
-180.042	249.234	-0.008	0.013
-179.027	-200.000	0.038	-0.206
-178.012	-118.739	0.446	-0.079
-176.998	63.008	0.136	0.136
-175.983	-88.358	0.215	-0.064
-174.969	291.151	-0.082	-0.148
-173.954	-200.000	0.036	-0.233
-172.939	-200.000	-0.017	0.212
-171.925	49.045	0.169	-0.158
-170.910	800.000	-0.080	0.226
-169.896	800.000	-0.046	-0.152
-168.881	108.367	0.234	-0.279
-167.866	-88.388	0.268	-0.080
-166.852	153.031	-0.063	0.086
-165.837	3.239	0.258	-0.188
-164.823	-85.689	-0.151	-0.047
-163.808	-200.000	0.021	-0.125
-162.793	-200.000	0.016	-0.078
-161.779	393.405	0.038	-0.080
-160.764	72.929	0.156	0.163
-159.750	-101.795	0.246	-0.060
-158.735	800.000	0.035	-0.135
-157.720	-15.011	-0.208	-0.133
-156.706	-73.105	0.234	0.086
-155.691	-184.243	-0.079	0.001
-154.677	800.000	-0.088	-0.329
-153.662	-34.715	-0.315	0.172
-152.647	161.143	0.250	-0.349
-151.633	470.727	0.075	0.169
-150.618	-116.972	0.107	-0.020
-149.604	21.202	-0.197	-0.160
-148.589	-94.790	0.316	0.086
-147.574	310.676	0.094	0.176
-146.560	-200.000	-0.044	-0.210
-145.545	800.000	0.056	0.193
-144.531	415.600	0.115	0.245
-143.516	260.157	-0.117	0.202
-142.502	162.757	0.162	0.227
-141.487	69.467	0.129	0.132
-140.472	-200.000	-0.047	-0.284
-139.458	117.207	-0.204	-0.250
-138.443	-200.000	0.054	-0.607
-137.429	-108.333	-0.162	0.035
-136.414	682.879	-0.094	-0.244
-135.399	-58.056	-0.188	-0.082
-134.385	-108.345	0.275	0.059
-133.370	-148.879	0.189	0.015
-132.356	184.424	0.153	0.227
-131.341	-200.000	0.021	0.106
-130.326	84.732	0.231	0.253
-129.312	-133.235	-0.177	-0.022
-128.297	371.790	-0.173	0.351
-127.283	800.000	-0.094	0.268
-126.268	118.123	-0.171	-0.210
-125.253	-200.000	-0.017	-0.272
-124.239	281.466	0.157	0.281
-123.224	45.908	-0.013	-0.012
