DTS Sentinel unit serial number:	SN413079Multiplexer serial number:	ORYXHardware model number:	OX4-SRSoftware version number:	ORYX F/W v4.00 Oryx Data Collector v3.7.2.0data status	okinstallation	princeton_trtdifferential loss correction	single-endedforward channel	channel 1reverse channel	N/Adate	2019/09/18time	13:42:35forward acquisition time	60.00reverse acquisition time	0.00gamma	496.2192k internal	0.2311k external	0.2311temperature offset calibration	0.9987default loss term (dB/km)	0.3790temperature slope calibration	1.0000multiplexer offset coefficient	1.0000multiplexer slope coefficient	1.0000fibre end	0.00T internal ref (°C)	34.44T ext. ref 1 (°C)	0.64T ext. ref 2 (°C)	30.12length (m)	temperature (°C)	Stokes	anti-Stokes-747.200	132.505	0.208	-0.273
-746.185	-200.000	-0.014	-0.243
-745.171	-200.000	-0.028	0.261
-744.156	-42.116	0.303	0.157
-743.142	1.784	0.207	-0.151
-742.127	5.368	-0.391	0.292
-741.112	-52.206	-0.319	-0.150
-740.098	319.827	-0.093	0.179
-739.083	187.914	0.231	0.350
-738.069	-200.000	0.035	-0.276
-737.054	800.000	-0.037	0.128
-736.039	-58.874	-0.217	0.095
-735.025	800.000	0.093	0.298
-734.010	-73.291	-0.434	-0.161
-732.996	-200.000	0.031	0.249
-731.981	-124.337	-0.219	0.035
-730.966	54.011	-0.101	-0.098
-729.952	68.896	-0.059	-0.062
-728.937	-62.696	0.175	-0.074
-727.923	-200.000	-0.018	-0.118
-726.908	699.461	0.061	-0.163
-725.894	231.113	0.044	-0.072
-724.879	-120.454	-0.163	-0.028
-723.864	15.682	0.250	-0.199
-722.850	800.000	-0.066	0.243
-721.835	726.852	-0.052	-0.141
-720.821	-200.000	0.053	-0.333
-719.806	68.097	0.459	-0.476
-718.791	799.663	-0.094	-0.262
-717.777	-130.752	0.311	-0.042
-716.762	-126.094	-0.159	0.024
-715.748	-133.421	-0.283	0.036
-714.733	-200.000	0.030	-0.183
-713.718	-74.772	-0.096	0.035
-712.704	800.000	-0.023	-0.094
-711.689	542.324	-0.038	0.092
-710.675	800.000	-0.077	0.237
-709.660	133.613	0.250	-0.328
-708.645	800.000	-0.051	0.186
-707.631	-200.000	-0.024	0.196
-706.616	-52.421	-0.211	0.099
-705.602	298.324	-0.096	-0.178
-704.587	439.825	0.050	-0.111
-703.572	27.245	0.120	-0.102
-702.558	-54.763	-0.308	-0.141
-701.543	-68.189	0.180	0.071
-700.529	414.324	0.073	-0.158
-699.514	-57.723	0.184	-0.082
-698.499	-36.098	-0.079	-0.043
-697.485	-98.968	-0.201	0.052
-696.470	-200.000	0.011	-0.135
-695.456	436.518	0.079	-0.174
-694.441	-154.895	0.162	0.011
-693.426	283.471	-0.134	-0.243
-692.412	-23.378	0.093	-0.057
-691.397	800.000	-0.085	-0.275
-690.383	-200.000	0.008	-0.138
-689.368	-200.000	0.036	-0.306
-688.354	67.125	0.275	0.284
-687.339	147.269	-0.087	-0.119
-686.324	254.931	0.186	-0.322
-685.310	800.000	-0.050	-0.183
-684.295	-115.921	0.553	0.105
-683.281	655.925	0.040	-0.105
-682.266	791.688	0.029	-0.080
-681.251	-200.000	-0.037	-0.229
-680.237	-56.209	0.109	-0.049
-679.222	800.000	-0.053	0.223
-678.208	369.288	-0.206	0.422
-677.193	487.237	0.188	-0.435
-676.178	9.239	-0.264	0.202
-675.164	-200.000	-0.006	0.064
-674.149	-159.350	0.209	0.012
-673.135	588.403	0.057	0.141
-672.120	-145.557	0.227	0.021
-671.105	278.745	-0.302	-0.544
-670.091	-150.311	-0.098	0.008
-669.076	-4.471	0.148	0.103
-668.062	626.032	0.049	-0.126
-667.047	-23.317	-0.292	-0.178
-666.032	-200.000	-0.032	-0.294
-665.018	-21.096	-0.258	0.160
-664.003	2.490	-0.034	-0.025
-662.989	800.000	-0.055	0.163
-661.974	-132.146	0.144	-0.019
-660.959	-110.118	0.154	0.032
-659.945	-104.679	-0.300	-0.070
-658.930	82.362	0.173	-0.190
-657.916	-200.000	0.010	0.220
-656.901	-93.121	-0.067	0.019
-655.886	30.895	0.153	-0.133
-654.872	-117.719	-0.213	-0.039
-653.857	-83.373	-0.152	0.049
-652.843	155.409	-0.105	0.146
-651.828	25.917	0.175	-0.147
-650.814	-90.388	-0.228	0.067
-649.799	-77.994	0.208	-0.073
-648.784	-200.000	-0.004	-0.274
-647.770	-43.165	0.229	0.117
-646.755	-147.037	-0.109	0.009
-645.741	-123.638	-0.217	-0.035
-644.726	698.319	-0.025	-0.067
-643.711	-183.740	0.274	0.005
-642.697	800.000	0.067	0.266
-641.682	-24.858	0.168	0.101
-640.668	800.000	0.115	0.477
-639.653	77.781	-0.150	0.162
-638.638	-20.456	-0.101	-0.063
-637.624	-92.920	-0.309	-0.087
-636.609	-200.000	-0.042	0.313
-635.595	38.316	-0.125	0.113
-634.580	42.737	-0.290	-0.267
-633.565	800.000	0.089	-0.265
-632.551	210.467	-0.106	0.169
-631.536	-128.117	-0.123	0.018
-630.522	-200.000	-0.039	0.366
-629.507	800.000	0.006	0.022
-628.492	112.049	-0.311	0.379
-627.478	-200.000	0.002	-0.152
-626.463	7.057	0.280	-0.211
-625.449	60.758	-0.219	-0.220
-624.434	-200.000	-0.013	-0.107
-623.419	-200.000	0.014	0.112
-622.405	-47.972	-0.307	-0.150
-621.390	274.931	0.089	-0.159
-620.376	-200.000	-0.026	0.231
-619.361	-101.951	-0.236	0.058
-618.346	-167.617	0.413	0.017
-617.332	-36.553	0.123	-0.067
-616.317	150.855	-0.217	0.298
-615.303	-0.815	0.100	0.071
-614.288	800.000	0.071	0.206
-613.273	-39.385	0.137	-0.072
-612.259	-133.143	0.154	0.020
-611.244	-106.967	-0.141	0.031
-610.230	22.702	-0.077	-0.064
-609.215	614.240	0.027	0.069
-608.201	185.477	-0.040	-0.060
-607.186	33.952	0.148	0.130
-606.171	800.000	0.053	-0.215
-605.157	549.535	0.177	-0.428
-604.142	395.154	0.096	-0.201
-603.128	-4.410	0.253	0.176
-602.113	-22.260	-0.231	0.141
-601.098	428.043	-0.083	0.182
-600.084	258.735	-0.031	0.054
-599.069	200.142	-0.175	-0.271
-598.055	-23.533	-0.446	-0.270
-597.040	141.615	0.088	-0.118
-596.025	-119.710	-0.501	0.087
-595.011	-107.373	-0.272	0.060
-593.996	-24.200	0.305	-0.184
-592.982	800.000	-0.033	0.126
-591.967	207.164	0.058	-0.092
-590.952	-84.559	-0.383	0.122
-589.938	65.761	0.073	-0.074
-588.923	246.752	-0.105	-0.179
-587.909	-67.140	0.039	-0.015
-586.894	-22.749	0.070	0.043
-585.879	-200.000	0.001	-0.262
-584.865	-88.334	-0.102	-0.031
-583.850	-121.724	0.065	-0.011
-582.836	800.000	-0.045	-0.184
-581.821	-51.399	-0.149	-0.070
-580.806	99.684	-0.259	-0.302
-579.792	295.341	0.104	-0.193
-578.777	109.859	-0.090	0.109
-577.763	-62.751	-0.229	-0.096
-576.748	654.149	0.123	0.318
-575.733	246.347	0.112	-0.191
-574.719	-135.972	0.373	-0.044
-573.704	-140.060	-0.167	-0.018
-572.690	-15.278	0.334	-0.215
-571.675	-186.434	-0.162	0.002
-570.661	94.722	0.222	0.254
-569.646	412.228	0.112	-0.240
-568.631	137.599	-0.168	0.222
-567.617	-181.678	0.227	0.004
-566.602	77.290	-0.100	-0.107
-565.588	171.593	0.051	-0.074
-564.573	-124.576	0.077	0.012
-563.558	11.432	-0.187	0.144
-562.544	-170.890	-0.158	0.005
-561.529	40.456	0.239	-0.217
-560.515	120.066	-0.087	-0.109
-559.500	-126.859	0.017	-0.003
-558.485	-51.680	-0.094	0.044
-557.471	55.199	-0.362	-0.353
-556.456	-89.630	-0.211	-0.062
-555.442	-150.206	0.240	-0.019
-554.427	124.186	-0.156	-0.198
-553.412	-121.719	0.308	-0.051
-552.398	-95.282	-0.195	0.053
-551.383	-200.000	-0.039	0.185
-550.369	-200.000	0.032	0.222
-549.354	-200.000	0.013	-0.349
-548.339	-200.000	-0.003	0.045
-547.325	-200.000	-0.085	-0.566
-546.310	126.918	-0.121	-0.155
-545.296	-135.119	-0.298	-0.036
-544.281	276.555	-0.243	-0.434
-543.266	-54.296	-0.241	0.110
-542.252	594.834	-0.087	-0.216
-541.237	376.303	-0.043	-0.089
-540.223	-107.944	0.060	0.013
-539.208	-113.519	0.060	-0.012
-538.193	-114.997	0.253	0.048
-537.179	478.197	0.105	0.239
-536.164	43.589	-0.045	-0.041
-535.150	-200.000	-0.055	-0.345
-534.135	21.268	0.279	-0.228
-533.121	794.216	0.010	-0.026
-532.106	295.608	0.190	-0.350
-531.091	-200.000	-0.039	-0.269
-530.077	-30.864	0.168	0.095
-529.062	-33.751	0.108	-0.060
-528.048	-157.078	-0.104	0.006
-527.033	800.000	-0.098	0.356
-526.018	-114.298	0.223	0.043
-525.004	270.858	0.155	0.274
-523.989	-150.554	-0.121	0.009
-522.975	-45.193	-0.210	-0.105
-521.960	-75.956	-0.172	-0.061
-520.945	138.200	-0.110	-0.145
-519.931	800.000	0.057	0.183
-518.916	-200.000	-0.040	0.265
-517.902	88.836	-0.207	0.231
-516.887	800.000	0.045	0.173
-515.872	-200.000	0.055	0.245
-514.858	508.729	0.039	-0.090
-513.843	-78.581	0.340	0.117
-512.829	-200.000	-0.041	-0.354
-511.814	78.521	-0.093	0.100
-510.799	-124.708	0.041	0.006
-509.785	469.110	0.159	-0.360
-508.770	-144.734	0.296	-0.027
-507.756	-53.763	-0.223	-0.103
-506.741	-38.348	-0.250	-0.133
-505.726	-200.000	-0.008	-0.479
-504.712	-40.512	-0.182	0.095
-503.697	-8.521	-0.142	0.096
-502.683	32.387	-0.027	0.023
-501.668	-42.906	0.245	-0.125
-500.653	-94.211	0.078	-0.021
-499.639	-2.937	-0.161	0.113
-498.624	800.000	0.014	-0.045
-497.610	-85.477	0.369	-0.115
-496.595	-143.803	-0.291	-0.028
-495.581	800.000	-0.063	0.216
-494.566	-200.000	0.043	0.270
-493.551	9.260	-0.154	-0.117
-492.537	380.619	0.212	-0.437
-491.522	-29.720	-0.170	0.098
-490.508	764.724	0.112	0.305
-489.493	74.224	0.091	0.096
-488.478	800.000	0.104	-0.307
-487.464	-105.340	0.028	-0.006
-486.449	-80.218	-0.037	-0.012
-485.435	189.786	-0.088	-0.132
-484.420	-21.509	0.155	-0.095
-483.405	-200.000	-0.075	-0.418
-482.391	800.000	0.077	-0.224
-481.376	-200.000	0.007	0.207
-480.362	81.919	0.157	-0.171
-479.347	457.225	-0.018	0.040
-478.332	-200.000	0.070	0.437
-477.318	-200.000	0.000	-0.278
-476.303	-200.000	0.027	0.393
-475.289	-94.330	0.207	0.057
-474.274	-109.055	-0.162	-0.035
-473.259	-200.000	0.014	0.171
-472.245	463.984	0.079	-0.178
-471.230	-0.462	-0.224	0.160
-470.216	49.850	-0.101	-0.096
-469.201	-8.971	-0.062	0.042
-468.186	-200.000	-0.024	-0.192
-467.172	-13.578	0.163	0.106
-466.157	118.128	0.044	-0.054
-465.143	800.000	0.099	-0.298
-464.128	139.182	0.118	0.156
-463.113	-114.586	-0.298	0.057
-462.099	30.971	-0.133	-0.115
-461.084	-60.737	-0.210	-0.089
-460.070	800.000	0.057	-0.204
-459.055	-200.000	-0.013	-0.164
-458.040	158.481	0.025	-0.035
-457.026	109.264	-0.129	0.155
-456.011	-150.065	-0.337	-0.026
-454.997	-200.000	-0.012	-0.077
-453.982	282.495	-0.207	0.373
-452.968	-127.959	-0.249	0.036
-451.953	-18.538	0.267	0.167
-450.938	800.000	-0.018	-0.058
-449.924	-140.188	0.358	0.038
-448.909	-78.921	-0.238	-0.081
-447.895	751.657	0.096	0.260
-446.880	-51.465	0.162	0.076
-445.865	800.000	0.025	0.080
-444.851	465.325	0.049	-0.109
-443.836	2.158	-0.125	0.091
-442.822	-200.000	-0.052	-0.523
-441.807	-180.467	0.241	0.005
-440.792	-75.505	-0.112	0.040
-439.778	-179.587	0.406	0.009
-438.763	237.786	0.080	0.134
-437.749	-145.379	-0.313	-0.028
-436.734	-6.952	0.147	0.100
-435.719	-200.000	-0.076	0.406
-434.705	643.959	0.065	0.167
-433.690	206.235	-0.109	0.170
-432.676	-112.229	-0.347	0.070
-431.661	-60.364	0.435	-0.185
-430.646	-42.401	-0.198	-0.101
-429.632	296.135	-0.066	-0.121
-428.617	19.061	0.150	0.121
-427.603	-7.799	-0.176	-0.119
-426.588	-200.000	0.007	0.142
-425.573	2.647	0.296	-0.215
-424.559	19.832	0.212	0.171
-423.544	-104.710	0.206	0.047
-422.530	-81.326	-0.239	0.079
-421.515	-60.564	-0.368	0.156
-420.500	40.002	0.265	-0.238
-419.486	-88.633	0.105	-0.031
-418.471	16.036	-0.214	-0.169
-417.457	-170.383	-0.158	-0.006
-416.442	107.648	0.034	0.040
-415.428	108.362	-0.209	0.250
-414.413	61.384	0.065	-0.065
-413.398	-200.000	0.109	0.542
-412.384	40.959	0.161	-0.146
-411.369	-96.858	0.359	-0.094
-410.355	188.865	-0.083	0.125
-409.340	-162.782	0.184	0.009
-408.325	-157.773	0.118	-0.007
-407.311	55.896	-0.260	0.252
-406.296	-132.411	-0.103	-0.013
-405.282	10.146	-0.339	-0.258
-404.267	800.000	-0.022	-0.093
-403.252	510.039	-0.080	0.186
-402.238	-200.000	0.009	0.107
-401.223	-200.000	-0.032	0.247
-400.209	-15.021	0.277	0.178
-399.194	73.242	-0.099	-0.104
-398.179	-62.015	-0.067	-0.028
-397.165	-200.000	0.003	-0.028
-396.150	94.889	0.202	0.231
-395.136	-127.339	0.121	-0.018
-394.121	-44.556	-0.074	-0.037
-393.106	-200.000	0.012	-0.354
-392.092	-91.851	0.209	-0.059
-391.077	-3.095	-0.120	0.084
-390.063	145.248	-0.029	-0.039
-389.048	777.815	0.059	-0.162
-388.033	800.000	0.114	0.339
-387.019	-200.000	0.033	-0.164
-386.004	800.000	0.030	-0.125
-384.990	-25.009	0.137	-0.082
-383.975	800.000	-0.037	0.117
-382.960	25.376	0.183	-0.152
-381.946	-200.000	0.006	-0.214
-380.931	-101.498	0.098	-0.024
-379.917	89.027	-0.071	-0.079
-378.902	337.200	0.163	0.317
-377.888	-200.000	-0.031	0.155
-376.873	367.471	0.143	-0.288
-375.858	210.990	0.102	-0.161
-374.844	652.560	-0.097	-0.249
-373.829	-200.000	-0.003	-0.169
-372.815	-142.193	0.389	0.039
-371.800	182.925	-0.144	-0.212
-370.785	106.402	-0.152	-0.180
-369.771	-200.000	0.031	-0.157
-368.756	800.000	0.164	0.529
-367.742	-128.595	0.395	0.056
-366.727	-200.000	0.031	-0.219
-365.712	800.000	-0.035	0.152
-364.698	218.599	0.155	0.248
-363.683	-200.000	0.014	-0.127
-362.669	-200.000	0.010	-0.239
-361.654	-200.000	-0.048	0.313
-360.639	-83.788	-0.152	-0.049
-359.625	-133.797	0.313	0.039
-358.610	34.248	0.141	0.123
-357.596	-63.360	0.186	-0.076
-356.581	123.272	-0.062	0.078
-355.566	-200.000	0.014	-0.138
-354.552	102.927	0.249	0.292
-353.537	-200.000	-0.000	0.064
-352.523	-200.000	0.009	0.053
-351.508	143.900	-0.105	0.140
-350.493	-102.261	-0.259	-0.062
-349.479	-147.266	0.253	0.021
-348.464	142.266	0.139	0.184
-347.450	800.000	-0.019	0.069
-346.435	88.610	-0.291	-0.323
-345.420	151.830	-0.204	-0.278
-344.406	-7.472	0.152	0.103
-343.391	380.642	-0.175	-0.358
-342.377	272.046	0.200	-0.352
-341.362	-101.231	0.293	0.072
-340.348	-35.633	0.121	0.065
-339.333	-15.399	0.204	-0.130
-338.318	121.801	-0.085	-0.107
-337.304	37.757	0.055	-0.049
-336.289	-58.950	-0.347	0.150
-335.275	16.739	-0.163	-0.128
-334.260	459.628	-0.105	0.233
-333.245	-95.586	-0.497	-0.133
-332.231	-67.870	-0.226	0.088
-331.216	93.973	0.018	0.020
-330.202	624.583	-0.153	-0.386
-329.187	-90.898	0.302	-0.087
-328.172	-72.334	-0.223	-0.083
-327.158	116.718	-0.162	0.199
-326.143	338.545	0.016	0.031
-325.129	657.864	-0.051	0.132
-324.114	-57.352	0.232	0.102
-323.099	-200.000	0.029	0.244
-322.085	-150.148	0.207	0.016
-321.070	800.000	-0.048	-0.149
-320.056	-200.000	0.004	-0.236
-319.041	374.475	0.069	-0.141
-318.026	163.063	-0.053	-0.074
-317.012	86.725	-0.202	-0.223
-315.997	800.000	0.044	-0.174
-314.983	-50.621	0.211	-0.099
-313.968	31.766	0.375	-0.322
-312.953	-118.491	0.171	-0.030
-311.939	-200.000	-0.060	-0.394
-310.924	-6.581	-0.113	-0.077
-309.910	-200.000	-0.032	-0.230
-308.895	558.882	-0.039	0.094
-307.880	25.142	-0.212	0.175
-306.866	-13.149	0.126	0.082
-305.851	-23.112	-0.274	-0.165
-304.837	-90.423	0.093	0.027
-303.822	18.112	0.113	0.090
-302.807	287.746	0.108	-0.194
-301.793	340.178	0.056	-0.110
-300.778	-200.000	0.003	-0.174
-299.764	540.657	0.049	-0.116
-298.749	-73.492	-0.426	0.155
-297.735	-149.643	0.207	0.016
-296.720	-112.496	-0.203	0.040
-295.705	112.627	-0.144	-0.173
-294.691	40.142	0.292	-0.262
-293.676	-88.659	0.188	0.056
-292.662	61.535	0.282	0.279
-291.647	369.142	-0.121	0.244
-290.632	800.000	0.056	0.185
-289.618	672.890	-0.103	0.265
-288.603	-83.094	-0.087	0.028
-287.589	-47.699	-0.059	-0.029
-286.574	-165.051	-0.116	0.005
-285.559	-200.000	-0.030	-0.146
-284.545	-200.000	0.061	0.369
-283.530	124.325	-0.054	-0.068
-282.516	800.000	0.090	-0.368
-281.501	53.276	-0.216	-0.206
-280.486	517.557	-0.094	-0.218
-279.472	82.227	-0.304	-0.329
-278.457	197.156	-0.192	0.291
-277.443	-45.841	0.451	0.222
-276.428	-173.737	-0.206	-0.006
-275.413	-23.683	0.154	-0.092
-274.399	-161.872	0.417	0.021
-273.384	430.391	-0.076	0.164
-272.370	-200.000	-0.035	0.164
-271.355	1.986	-0.145	0.105
-270.340	-123.771	-0.177	-0.028
-269.326	800.000	0.065	0.249
-268.311	149.964	-0.087	0.118
-267.297	71.362	0.388	0.402
-266.282	326.998	-0.082	0.157
-265.267	98.270	-0.190	0.219
-264.253	139.341	0.151	-0.198
-263.238	151.615	-0.106	0.144
-262.224	-142.614	-0.204	-0.020
-261.209	800.000	0.186	0.565
-260.195	-132.174	0.249	0.032
-259.180	-10.984	-0.113	0.074
-258.165	-200.000	0.052	0.258
-257.151	126.094	-0.297	0.373
-256.136	-200.000	-0.004	0.146
-255.122	800.000	0.113	0.343
-254.107	-33.535	0.249	-0.137
-253.092	78.719	0.131	0.140
-252.078	-200.000	0.018	0.502
-251.063	189.452	0.081	-0.121
-250.049	-200.000	0.048	0.232
-249.034	-200.000	0.014	-0.291
-248.019	-200.000	0.034	0.298
-247.005	33.460	0.144	0.125
-245.990	-43.849	-0.199	-0.100
-244.976	-77.803	0.159	0.055
-243.961	-25.263	-0.316	-0.186
-242.946	483.613	-0.055	0.124
-241.932	-140.277	-0.131	0.014
-240.917	-90.053	-0.265	-0.077
-239.903	340.863	0.048	0.093
-238.888	168.508	0.080	0.113
-237.873	800.000	0.060	0.227
-236.859	-200.000	0.034	0.273
-235.844	303.685	-0.159	0.293
-234.830	-69.037	0.022	0.008
-233.815	-12.881	-0.354	-0.229
-232.800	-200.000	0.012	-0.199
-231.786	-200.000	0.011	-0.162
-230.771	-200.000	-0.018	-0.188
-229.757	90.028	0.080	-0.089
-228.742	-13.039	0.252	-0.163
-227.727	-200.000	-0.076	-0.339
-226.713	-12.679	-0.115	0.075
-225.698	-200.000	0.100	0.468
-224.684	-9.135	0.239	-0.159
-223.669	120.866	0.050	-0.062
-222.655	15.755	0.114	0.089
-221.640	-168.503	0.333	-0.013
-220.625	287.783	-0.137	-0.247
-219.611	-105.335	-0.301	-0.068
-218.596	67.336	-0.186	0.189
-217.582	-37.969	0.157	0.083
-216.567	73.368	0.079	0.082
-215.552	113.408	-0.132	0.159
-214.538	-151.498	0.266	-0.020
-213.523	576.376	0.067	0.163
-212.509	-104.723	-0.080	0.018
-211.494	800.000	0.086	0.313
-210.479	205.785	-0.042	0.064
-209.465	-200.000	0.003	-0.137
-208.450	-145.797	0.102	0.009
-207.436	114.983	0.203	-0.247
-206.421	-29.694	-0.068	0.039
-205.406	183.835	0.026	-0.038
-204.392	-38.137	0.203	-0.107
-203.377	61.241	0.142	0.140
-202.363	800.000	0.055	0.218
-201.348	-200.000	0.033	-0.331
-200.333	-30.600	-0.124	0.070
-199.319	-200.000	-0.032	0.209
-198.304	-0.151	-0.148	0.105
-197.290	-58.497	-0.241	0.104
-196.275	-87.762	0.181	0.054
-195.260	-75.965	0.218	-0.077
-194.246	-178.365	-0.252	-0.006
-193.231	-200.000	-0.019	-0.224
-192.217	241.164	-0.163	-0.271
-191.202	800.000	-0.128	0.422
-190.187	81.597	0.092	-0.098
-189.173	-182.938	-0.148	0.003
-188.158	-86.846	-0.100	0.030
-187.144	556.641	0.117	-0.281
-186.129	-59.943	0.277	0.118
-185.114	11.956	-0.480	0.366
-184.100	-71.897	-0.396	0.147
-183.085	-125.251	0.108	-0.016
-182.071	125.603	0.060	-0.075
-181.056	116.739	-0.197	0.240
-180.042	-2.617	-0.016	0.011
-179.027	33.204	0.190	-0.164
-178.012	22.661	0.140	-0.114
-176.998	156.896	-0.066	-0.091
-175.983	99.174	0.161	0.185
-174.969	-200.000	0.033	0.168
-173.954	-63.951	0.191	0.078
-172.939	428.844	-0.102	0.219
-171.925	-200.000	-0.017	-0.138
-170.910	98.523	0.162	0.186
-169.896	-200.000	-0.047	-0.314
-168.881	303.216	0.064	-0.118
-167.866	-52.980	-0.074	-0.034
-166.852	-200.000	0.003	-0.261
-165.837	-170.319	0.180	-0.006
-164.823	800.000	-0.093	0.305
-163.808	-200.000	0.060	0.308
-162.793	185.163	-0.026	-0.038
-161.779	-33.833	-0.060	-0.033
-160.764	-200.000	-0.030	0.314
-159.750	14.532	-0.082	0.063
-158.735	-123.889	0.269	0.042
-157.720	494.147	-0.128	-0.292
-156.706	65.512	0.304	-0.306
-155.691	-200.000	0.035	0.173
-154.677	67.776	0.181	0.183
-153.662	323.384	-0.209	0.395
-152.647	148.388	0.046	0.062
-151.633	-76.499	-0.181	-0.063
-150.618	19.707	0.194	-0.155
-149.604	123.167	0.065	-0.081
-148.589	-200.000	0.001	0.326
-147.574	-200.000	-0.015	-0.351
-146.560	-89.340	0.276	-0.081
-145.545	800.000	0.102	-0.372
-144.531	-82.997	-0.368	-0.118
-143.516	61.183	-0.381	-0.375
-142.502	50.066	0.108	-0.101
-141.487	754.044	-0.166	-0.445
-140.472	235.009	0.186	-0.305
-139.458	-89.227	-0.247	-0.072
-138.443	163.513	0.094	0.131
-137.429	112.549	-0.104	-0.125
-136.414	-200.000	0.024	0.229
-135.399	-200.000	-0.019	-0.175
-134.385	800.000	0.019	-0.062
-133.370	-7.022	-0.199	0.134
-132.356	-118.416	-0.320	-0.056
-131.341	-11.905	0.084	-0.055
-130.326	-143.179	0.040	0.004
-129.312	-137.807	0.133	0.015
-128.297	400.543	0.089	0.184
-127.283	239.198	0.215	-0.354
-126.268	-119.639	-0.259	-0.044
-125.253	-106.323	0.290	-0.064
-124.239	23.899	0.247	0.202
-123.224	419.527	0.106	-0.224
-122.210	-82.893	-0.232	0.074
