DTS Sentinel unit serial number:	SN413079Multiplexer serial number:	ORYXHardware model number:	OX4-SRSoftware version number:	ORYX F/W v4.00 Oryx Data Collector v3.7.2.0data status	okinstallation	princeton_trtdifferential loss correction	single-endedforward channel	channel 1reverse channel	N/Adate	2019/09/17time	22:34:35forward acquisition time	60.00reverse acquisition time	0.00gamma	496.2192k internal	0.2340k external	0.2340temperature offset calibration	0.9973default loss term (dB/km)	0.3790temperature slope calibration	1.0000multiplexer offset coefficient	1.0000multiplexer slope coefficient	1.0000fibre end	0.00T internal ref (°C)	25.25T ext. ref 1 (°C)	0.18T ext. ref 2 (°C)	18.55length (m)	temperature (°C)	Stokes	anti-Stokes-747.200	105.818	-0.232	-0.276
-746.185	91.121	-0.342	0.384
-745.171	248.374	-0.103	-0.175
-744.156	52.300	-0.193	0.185
-743.142	247.058	-0.130	0.219
-742.127	380.079	-0.119	-0.245
-741.112	262.145	-0.053	-0.092
-740.098	-71.138	-0.206	0.078
-739.083	-90.587	-0.169	0.049
-738.069	42.729	-0.298	0.272
-737.054	58.379	-0.328	-0.323
-736.039	-3.695	-0.210	-0.146
-735.025	-200.000	0.001	0.345
-734.010	-56.922	-0.102	-0.045
-732.996	-102.838	-0.191	-0.045
-731.981	79.941	0.055	0.059
-730.966	219.705	0.226	-0.362
-729.952	-200.000	0.007	0.117
-728.937	-200.000	-0.023	-0.315
-727.923	7.029	-0.142	-0.106
-726.908	470.701	-0.116	0.262
-725.894	222.247	0.133	0.214
-724.879	800.000	-0.067	-0.277
-723.864	537.201	-0.073	-0.174
-722.850	-103.228	0.224	-0.053
-721.835	-77.083	0.201	-0.070
-720.821	759.650	0.057	-0.155
-719.806	68.006	-0.219	-0.224
-718.791	-1.296	-0.090	-0.064
-717.777	55.996	0.222	0.216
-716.762	47.702	0.130	-0.121
-715.748	284.452	0.037	-0.067
-714.733	-91.605	-0.520	-0.148
-713.718	73.490	0.125	0.131
-712.704	-115.950	0.097	0.018
-711.689	-100.020	-0.254	-0.063
-710.675	10.594	0.092	-0.070
-709.660	-200.000	0.034	-0.289
-708.645	-43.462	-0.379	-0.192
-707.631	10.934	-0.106	-0.081
-706.616	-200.000	-0.007	0.201
-705.602	-122.031	-0.150	-0.025
-704.587	502.601	-0.039	0.090
-703.572	800.000	-0.034	-0.119
-702.558	366.453	-0.160	0.323
-701.543	-200.000	-0.031	0.422
-700.529	220.019	-0.095	-0.153
-699.514	489.248	-0.083	0.191
-698.499	243.477	0.207	-0.347
-697.485	-75.539	-0.219	0.078
-696.470	-23.244	-0.262	-0.158
-695.456	331.973	-0.137	-0.265
-694.441	-68.969	-0.463	0.178
-693.426	-200.000	-0.008	0.043
-692.412	-200.000	0.001	-0.254
-691.397	-101.767	0.101	0.024
-690.383	101.853	-0.145	0.169
-689.368	254.789	0.012	0.021
-688.354	357.797	0.007	0.014
-687.339	-138.252	-0.193	0.021
-686.324	-20.904	-0.087	0.053
-685.310	-114.770	-0.225	-0.043
-684.295	800.000	-0.116	-0.343
-683.281	763.834	-0.061	-0.166
-682.266	505.223	0.105	-0.243
-681.251	-200.000	0.025	-0.120
-680.237	236.172	-0.090	-0.149
-679.222	44.827	0.067	-0.061
-678.208	800.000	-0.024	0.080
-677.193	800.000	0.026	-0.075
-676.178	-9.984	-0.149	-0.099
-675.164	-49.292	-0.068	-0.032
-674.149	800.000	-0.110	-0.360
-673.135	143.893	-0.093	-0.124
-672.120	355.579	-0.067	-0.134
-671.105	293.530	-0.159	0.289
-670.091	95.373	0.134	-0.152
-669.076	-200.000	0.029	0.142
-668.062	18.228	-0.192	0.153
-667.047	407.619	-0.122	0.257
-666.032	-99.503	-0.240	-0.060
-665.018	-103.689	0.328	-0.077
-664.003	-97.055	0.077	0.020
-662.989	800.000	0.068	-0.214
-661.974	150.863	-0.149	-0.203
-660.959	-154.485	0.224	-0.015
-659.945	-83.876	-0.244	0.078
-658.930	200.083	-0.103	-0.158
-657.916	204.732	0.095	-0.147
-656.901	328.797	0.063	0.121
-655.886	-200.000	-0.036	-0.262
-654.872	-45.415	0.206	-0.102
-653.857	76.875	-0.182	-0.193
-652.843	223.069	0.097	-0.156
-651.828	-85.206	-0.126	-0.039
-650.814	-93.698	0.125	0.034
-649.799	-152.370	-0.176	-0.013
-648.784	-77.854	0.404	0.139
-647.770	198.924	0.087	-0.133
-646.755	78.346	-0.086	-0.091
-645.741	800.000	-0.050	0.139
-644.726	40.344	-0.254	-0.228
-643.711	-41.689	0.198	0.102
-642.697	800.000	0.078	0.244
-641.682	-94.359	-0.149	-0.041
-640.668	165.893	0.244	0.344
-639.653	92.127	-0.097	0.109
-638.638	-54.703	0.236	-0.106
-637.624	-200.000	-0.018	-0.177
-636.609	-200.000	0.074	0.453
-635.595	800.000	0.063	-0.182
-634.580	800.000	0.078	0.304
-633.565	-70.152	0.237	-0.090
-632.551	-184.516	0.163	-0.003
-631.536	-200.000	-0.007	0.111
-630.522	283.995	-0.041	0.073
-629.507	554.214	-0.025	0.061
-628.492	48.156	-0.123	0.115
-627.478	-200.000	-0.031	0.199
-626.463	21.552	-0.114	0.093
-625.449	800.000	-0.062	0.211
-624.434	186.263	-0.080	0.119
-623.419	81.060	0.049	0.053
-622.405	-121.582	0.074	0.012
-621.390	-127.451	0.192	-0.028
-620.376	248.119	0.140	0.237
-619.361	59.333	0.234	0.230
-618.346	-48.465	-0.184	0.088
-617.332	-129.900	-0.326	0.045
-616.317	2.306	0.167	0.121
-615.303	800.000	-0.087	-0.286
-614.288	164.167	-0.101	-0.142
-613.273	-200.000	-0.011	-0.209
-612.259	596.758	0.078	-0.194
-611.244	-96.716	-0.137	-0.036
-610.230	-42.732	-0.052	0.026
-609.215	-46.818	0.084	0.041
-608.201	-55.538	-0.058	0.026
-607.186	37.033	-0.190	0.168
-606.171	800.000	0.039	0.135
-605.157	635.642	-0.022	0.056
-604.142	-43.038	-0.282	-0.142
-603.128	37.897	-0.182	0.161
-602.113	-30.531	-0.154	-0.087
-601.098	-98.548	0.357	0.091
-600.084	567.445	-0.124	0.301
-599.069	800.000	-0.134	-0.441
-598.055	-200.000	-0.021	-0.192
-597.040	800.000	-0.068	-0.266
-596.025	-82.263	0.079	0.026
-595.011	211.857	0.087	0.136
-593.996	5.578	-0.358	0.263
-592.982	255.981	0.064	0.109
-591.967	-119.340	-0.183	0.032
-590.952	52.747	-0.071	-0.067
-589.938	-156.219	0.179	-0.011
-588.923	98.282	0.201	-0.231
-587.909	91.762	-0.120	-0.134
-586.894	-4.758	0.168	0.115
-585.879	-60.927	0.248	0.104
-584.865	800.000	0.088	0.298
-583.850	-31.885	0.321	0.179
-582.836	800.000	-0.120	-0.379
-581.821	-200.000	0.002	-0.227
-580.806	-157.079	-0.065	0.004
-579.792	-88.585	0.159	-0.047
-578.777	-12.727	-0.421	-0.273
-577.763	-34.405	0.288	0.157
-576.748	-102.020	0.218	-0.052
-575.733	236.247	0.068	-0.113
-574.719	64.572	0.099	0.100
-573.704	800.000	-0.031	-0.094
-572.690	-158.531	-0.321	0.018
-571.675	-26.551	0.198	0.116
-570.661	-200.000	-0.056	0.247
-569.646	-200.000	-0.010	0.099
-568.631	-21.754	-0.300	0.182
-567.617	-200.000	0.002	0.097
-566.602	-97.701	-0.244	0.063
-565.588	-200.000	-0.022	0.108
-564.573	-86.935	0.144	0.044
-563.558	3.808	-0.233	-0.170
-562.544	-77.193	0.132	0.046
-561.529	-141.860	0.236	0.023
-560.515	31.067	-0.210	-0.179
-559.500	800.000	-0.130	-0.457
-558.485	140.496	0.254	0.334
-557.471	366.418	-0.084	-0.169
-556.456	-39.476	0.087	-0.045
-555.442	-200.000	-0.046	0.411
-554.427	228.549	-0.167	-0.271
-553.412	-78.967	-0.085	-0.029
-552.398	132.936	0.126	-0.162
-551.383	-123.680	-0.256	-0.040
-550.369	35.129	0.139	0.121
-549.354	363.216	0.120	0.240
-548.339	-27.935	-0.148	-0.085
-547.325	-67.893	-0.377	0.147
-546.310	134.610	0.152	0.196
-545.296	-23.294	0.175	0.105
-544.281	-21.607	-0.261	-0.158
-543.266	800.000	0.061	-0.183
-542.252	-200.000	-0.011	0.243
-541.237	-105.519	-0.072	-0.016
-540.223	800.000	-0.080	-0.299
-539.208	-133.244	-0.235	0.030
-538.193	-97.645	-0.374	0.096
-537.179	-23.957	0.193	-0.115
-536.164	-80.263	0.483	-0.161
-535.150	800.000	-0.066	-0.227
-534.135	161.921	-0.113	-0.158
-533.121	17.504	-0.247	0.195
-532.106	-65.738	0.311	-0.124
-531.091	-95.092	-0.202	0.054
-530.077	-200.000	0.012	0.111
-529.062	67.061	-0.142	-0.144
-528.048	-5.079	0.405	0.277
-527.033	-200.000	-0.239	0.001
-526.018	-53.293	0.112	-0.051
-525.004	-139.293	0.233	-0.025
-523.989	800.000	-0.080	-0.256
-522.975	162.025	0.121	-0.168
-521.960	39.826	0.154	-0.138
-520.945	-120.591	-0.227	0.038
-519.931	-16.000	-0.274	0.173
-518.916	64.465	-0.165	-0.165
-517.902	-81.808	0.343	-0.112
-516.887	800.000	0.040	0.155
-515.872	800.000	0.063	-0.254
-514.858	39.772	-0.096	-0.086
-513.843	-198.416	-0.221	0.001
-512.829	800.000	0.056	0.185
-511.814	66.901	-0.234	0.237
-510.799	36.524	0.113	-0.099
-509.785	800.000	0.055	-0.233
-508.770	92.666	-0.156	-0.175
-507.756	-200.000	-0.030	-0.145
-506.741	265.370	-0.075	0.130
-505.726	113.321	0.130	0.157
-504.712	72.850	-0.131	0.136
-503.697	-200.000	-0.012	0.238
-502.683	-30.045	0.499	-0.282
-501.668	587.944	0.045	0.110
-500.653	755.085	-0.118	-0.318
-499.639	-200.000	-0.043	-0.383
-498.624	-200.000	-0.014	0.279
-497.610	-200.000	0.043	0.443
-496.595	-31.351	-0.163	0.091
-495.581	-102.816	0.225	-0.053
-494.566	800.000	0.075	-0.323
-493.551	-111.117	0.065	0.013
-492.537	800.000	0.074	0.264
-491.522	-40.745	0.100	0.051
-490.508	93.100	-0.134	-0.151
-489.493	-76.358	-0.371	0.130
-488.478	-152.334	-0.201	0.014
-487.464	-200.000	0.083	0.546
-486.449	135.727	0.117	0.151
-485.435	55.103	0.160	-0.153
-484.420	-200.000	0.001	-0.014
-483.405	800.000	-0.019	0.064
-482.391	386.994	-0.108	0.221
-481.376	45.057	0.163	-0.149
-480.362	-200.000	-0.052	-0.239
-479.347	-200.000	-0.010	-0.250
-478.332	-16.639	0.068	0.042
-477.318	-38.400	-0.169	0.088
-476.303	199.928	-0.185	-0.281
-475.289	800.000	-0.079	-0.251
-474.274	-119.729	0.144	-0.025
-473.259	313.415	0.109	-0.203
-472.245	800.000	-0.046	-0.140
-471.230	-26.862	-0.343	0.199
-470.216	-121.338	0.163	0.027
-469.201	-200.000	0.004	0.126
-468.186	239.519	-0.066	-0.109
-467.172	-47.630	-0.175	-0.084
-466.157	-151.466	0.231	-0.017
-465.143	-31.966	-0.095	-0.053
-464.128	25.069	-0.031	-0.025
-463.113	527.484	-0.180	-0.421
-462.099	800.000	-0.030	-0.113
-461.084	-48.412	-0.485	-0.232
-460.070	800.000	-0.029	-0.086
-459.055	-143.639	0.182	-0.017
-458.040	800.000	-0.053	-0.153
-457.026	-200.000	0.037	-0.232
-456.011	-200.000	0.034	0.208
-454.997	800.000	-0.076	0.287
-453.982	52.410	0.198	0.188
-452.968	-200.000	-0.004	0.029
-451.953	753.709	0.141	-0.378
-450.938	485.936	0.120	-0.272
-449.924	317.950	0.148	0.277
-448.909	82.361	0.269	-0.290
-447.895	195.227	-0.168	-0.253
-446.880	-83.692	-0.209	0.066
-445.865	14.805	-0.008	-0.006
-444.851	51.745	-0.229	0.216
-443.836	435.202	0.167	-0.359
-442.822	89.116	0.268	-0.296
-441.807	800.000	0.098	0.380
-440.792	800.000	-0.024	0.102
-439.778	414.759	0.168	-0.355
-438.763	44.002	-0.358	-0.325
-437.749	-200.000	-0.050	-0.258
-436.734	-53.154	-0.140	0.064
-435.719	-22.898	-0.049	0.029
-434.705	-82.800	-0.200	-0.064
-433.690	-15.669	0.245	0.155
-432.676	-10.917	-0.282	0.184
-431.661	-107.547	0.137	-0.030
-430.646	137.645	0.028	-0.036
-429.632	131.642	-0.055	0.070
-428.617	341.474	-0.016	-0.030
-427.603	-161.175	0.268	0.014
-426.588	-19.878	0.126	0.077
-425.573	-49.939	-0.139	-0.065
-424.559	195.369	-0.062	-0.094
-423.544	-33.759	-0.112	0.061
-422.530	154.137	0.237	0.322
-421.515	-71.903	0.077	0.029
-420.500	-97.152	0.318	-0.082
-419.486	-200.000	-0.011	-0.137
-418.471	-37.212	0.099	0.052
-417.457	7.483	-0.203	-0.151
-416.442	306.321	0.073	-0.135
-415.428	-200.000	-0.014	-0.098
-414.413	-200.000	-0.025	-0.195
-413.398	-27.775	-0.319	0.183
-412.384	-83.326	0.188	-0.060
-411.369	207.041	-0.211	-0.326
-410.355	-200.000	0.005	0.073
-409.340	-200.000	-0.020	0.151
-408.325	-59.782	0.035	0.015
-407.311	-38.558	0.218	-0.114
-406.296	-38.171	-0.090	0.047
-405.282	188.890	-0.095	-0.141
-404.267	800.000	0.066	0.196
-403.252	-41.110	0.145	-0.074
-402.238	708.592	0.073	0.191
-401.223	800.000	0.119	-0.343
-400.209	-74.189	-0.192	0.069
-399.194	-78.892	-0.338	0.114
-398.179	-179.468	0.072	-0.002
-397.165	800.000	0.049	0.139
-396.150	-140.178	-0.222	0.023
-395.136	-200.000	0.067	-0.407
-394.121	-200.000	0.003	0.017
-393.106	-22.651	-0.227	-0.135
-392.092	21.537	-0.019	0.015
-391.077	800.000	-0.024	0.090
-390.063	-200.000	-0.086	0.453
-389.048	418.035	-0.116	0.245
-388.033	3.165	0.106	-0.076
-387.019	-159.154	0.080	0.004
-386.004	800.000	-0.079	-0.331
-384.990	-200.000	0.021	-0.422
-383.975	30.326	0.186	-0.157
-382.960	64.128	-0.086	0.086
-381.946	-200.000	-0.053	0.306
-380.931	-167.335	0.282	-0.011
-379.917	5.547	0.189	0.138
-378.902	192.172	-0.075	-0.112
-377.888	-41.941	-0.198	0.100
-376.873	-200.000	-0.006	0.029
-375.858	206.048	0.195	-0.299
-374.844	24.507	0.214	-0.175
-373.829	-200.000	0.036	-0.338
-372.815	31.867	0.217	0.185
-371.800	-49.099	0.113	0.054
-370.785	-140.783	0.434	0.044
-369.771	-139.151	-0.102	-0.011
-368.756	154.886	-0.109	-0.148
-367.742	192.735	0.142	0.212
-366.727	-79.716	0.393	-0.131
-365.712	28.323	-0.027	-0.022
-364.698	-100.536	-0.315	-0.077
-363.683	367.619	-0.025	0.050
-362.669	800.000	-0.092	0.308
-361.654	-200.000	-0.007	0.071
-360.639	366.387	-0.141	-0.281
-359.625	145.691	0.078	0.103
-358.610	800.000	0.045	-0.127
-357.596	-188.652	-0.115	0.001
-356.581	-200.000	-0.013	-0.177
-355.566	159.374	-0.104	0.143
-354.552	-2.508	-0.145	0.100
-353.537	-33.024	-0.138	-0.076
-352.523	-200.000	0.011	-0.195
-351.508	90.055	-0.049	0.054
-350.493	-103.541	-0.167	-0.039
-349.479	279.057	-0.108	-0.191
-348.464	-103.229	0.408	0.095
-347.450	674.360	-0.072	-0.185
-346.435	-200.000	0.036	-0.268
-345.420	344.861	0.135	-0.262
-344.406	-200.000	0.021	-0.174
-343.391	-52.267	0.041	-0.019
-342.377	-200.000	0.049	0.387
-341.362	800.000	-0.055	0.204
-340.348	-29.706	0.137	-0.077
-339.333	101.510	0.137	-0.158
-338.318	26.678	0.124	-0.103
-337.304	146.917	-0.008	-0.011
-336.289	-200.000	-0.061	0.355
-335.275	173.789	-0.136	-0.194
-334.260	32.133	0.258	0.219
-333.245	-200.000	-0.012	0.195
-332.231	613.480	-0.180	0.444
-331.216	-20.158	0.142	0.086
-330.202	-200.000	0.002	-0.055
-329.187	438.649	0.142	0.306
-328.172	339.480	0.217	-0.417
-327.158	800.000	0.099	0.297
-326.143	-166.646	0.051	0.002
-325.129	97.285	0.023	-0.026
-324.114	-66.150	0.370	0.145
-323.099	492.056	0.056	-0.127
-322.085	298.430	-0.083	0.151
-321.070	-48.290	-0.414	-0.197
-320.056	-158.515	0.175	0.010
-319.041	800.000	-0.052	0.145
-318.026	209.719	0.299	-0.462
-317.012	-200.000	0.001	0.290
-315.997	255.177	-0.168	0.284
-314.983	800.000	-0.066	0.243
-313.968	31.187	-0.261	-0.221
-312.953	104.414	0.047	0.054
-311.939	22.062	-0.202	0.162
-310.924	-58.165	0.427	0.183
-309.910	122.624	0.035	0.043
-308.895	-16.673	0.334	0.208
-307.880	-140.005	-0.165	-0.017
-306.866	-22.824	-0.331	-0.197
-305.851	318.511	-0.204	-0.381
-304.837	40.694	0.234	-0.208
-303.822	-41.549	-0.292	-0.148
-302.807	30.760	-0.100	-0.084
-301.793	-75.019	0.285	0.100
-300.778	29.894	-0.045	-0.038
-299.764	-40.958	0.135	-0.069
-298.749	94.573	-0.131	0.146
-297.735	211.300	0.079	-0.122
-296.720	800.000	0.044	0.168
-295.705	-200.000	-0.039	0.235
-294.691	-117.255	-0.054	-0.010
-293.676	214.254	0.217	0.339
-292.662	0.816	0.116	0.082
-291.647	296.359	-0.084	-0.151
-290.632	338.005	0.030	-0.058
-289.618	104.592	0.192	-0.223
-288.603	13.091	-0.186	0.142
-287.589	178.068	-0.078	0.112
-286.574	-149.695	-0.179	0.014
-285.559	-76.911	-0.454	0.156
-284.545	35.098	0.025	0.022
-283.530	-16.603	0.121	-0.076
-282.516	-149.950	-0.140	0.011
-281.501	-200.000	-0.002	-0.293
-280.486	800.000	0.037	0.120
-279.472	-151.837	-0.374	0.027
-278.457	17.356	-0.031	0.024
-277.443	-62.811	0.105	0.043
-276.428	-33.205	0.163	-0.089
-275.413	-118.128	0.192	0.034
-274.399	-0.056	-0.241	-0.169
-273.384	105.910	-0.105	-0.122
-272.370	-158.914	0.163	0.009
-271.355	12.351	0.160	0.122
-270.340	-128.665	0.091	0.013
-269.326	-65.415	-0.206	-0.081
-268.311	-139.229	-0.190	-0.020
-267.297	-137.825	-0.082	0.009
-266.282	-111.915	0.218	-0.043
-265.267	222.548	-0.087	0.137
-264.253	-200.000	-0.050	0.412
-263.238	-181.192	0.267	0.005
-262.224	-35.944	-0.150	-0.080
-261.209	-36.184	-0.104	-0.055
-260.195	130.841	-0.085	-0.107
-259.180	227.251	-0.126	0.201
-258.165	462.670	-0.118	-0.260
-257.151	8.574	-0.061	-0.046
-256.136	-103.592	-0.146	0.034
-255.122	800.000	0.140	-0.445
-254.107	18.929	-0.350	-0.276
-253.092	-101.483	-0.092	0.022
-252.078	318.450	0.104	0.193
-251.063	258.505	0.105	-0.177
-250.049	-82.360	-0.050	0.016
-249.034	3.322	0.333	0.239
-248.019	-43.150	0.261	-0.130
-247.005	-48.608	-0.232	-0.110
-245.990	-2.393	0.064	-0.044
-244.976	-200.000	-0.001	-0.050
-243.961	800.000	-0.023	0.069
-242.946	-37.549	0.211	0.111
-241.932	800.000	-0.035	-0.135
-240.917	135.820	0.116	0.148
-239.903	27.437	-0.142	-0.117
-238.888	349.832	0.148	0.287
-237.873	-138.247	0.281	0.031
-236.859	-200.000	0.020	0.122
-235.844	123.756	-0.187	-0.231
-234.830	-26.073	-0.135	-0.078
-233.815	800.000	-0.061	0.176
-232.800	-200.000	0.000	0.123
-231.786	-76.559	-0.290	-0.100
-230.771	-200.000	-0.019	-0.099
-229.757	81.447	0.290	-0.308
-228.742	-156.284	0.192	-0.012
-227.727	491.881	-0.078	-0.175
-226.713	82.739	0.234	0.250
-225.698	800.000	0.051	0.196
-224.684	-104.724	0.308	-0.070
-223.669	27.058	0.215	-0.177
-222.655	-86.440	0.233	-0.070
-221.640	16.416	-0.014	0.011
-220.625	800.000	0.044	-0.124
-219.611	-52.249	-0.179	-0.082
-218.596	472.369	0.105	0.232
-217.582	-20.755	0.206	0.124
-216.567	-36.012	-0.039	-0.021
-215.552	122.037	0.157	-0.193
-214.538	-200.000	-0.030	-0.174
-213.523	-200.000	0.009	-0.160
-212.509	375.415	-0.040	0.080
-211.494	-200.000	0.009	-0.311
-210.479	-132.403	-0.140	0.018
-209.465	-200.000	0.033	0.292
-208.450	-200.000	-0.005	0.207
-207.436	-121.778	0.054	0.009
-206.421	-143.648	-0.320	-0.030
-205.406	552.035	-0.077	0.182
-204.392	594.030	0.106	0.257
-203.377	72.416	-0.118	-0.121
-202.363	800.000	0.114	0.415
-201.348	800.000	0.048	-0.143
-200.333	-99.783	-0.148	-0.036
-199.319	483.413	0.027	-0.060
-198.304	-90.485	-0.034	0.010
-197.290	-200.000	-0.012	0.310
-196.275	-21.850	0.156	-0.093
-195.260	38.604	0.215	-0.189
-194.246	393.351	-0.078	-0.160
-193.231	203.324	0.148	0.225
-192.217	-147.079	-0.316	-0.027
-191.202	-185.713	0.146	-0.002
-190.187	-162.871	-0.176	-0.008
-189.173	101.264	0.107	-0.122
-188.158	-200.000	0.001	-0.211
-187.144	800.000	-0.033	0.101
-186.129	-200.000	-0.001	-0.110
-185.114	-200.000	0.016	0.085
-184.100	-154.201	-0.163	-0.011
-183.085	-200.000	0.001	0.239
-182.071	-37.314	-0.123	0.065
-181.056	790.366	-0.092	-0.249
-180.042	-179.952	-0.268	-0.006
-179.027	163.551	-0.272	0.375
-178.012	130.915	0.253	0.318
-176.998	-64.920	0.150	0.060
-175.983	-126.814	-0.222	0.032
-174.969	-200.000	0.023	-0.172
-173.954	-200.000	-0.003	0.182
-172.939	-104.268	-0.091	0.021
-171.925	427.160	0.164	0.347
-170.910	544.043	-0.139	0.326
-169.896	-156.160	-0.056	0.003
-168.881	2.931	0.226	0.161
-167.866	-72.208	-0.041	-0.015
-166.852	127.697	0.173	-0.216
-165.837	512.275	-0.087	-0.198
-164.823	263.692	0.165	0.282
-163.808	-12.095	-0.208	-0.134
-162.793	-122.333	-0.419	0.067
-161.779	-57.357	-0.245	0.105
-160.764	-101.855	0.114	0.027
-159.750	420.195	0.095	0.198
-158.735	-113.444	0.198	-0.038
-157.720	-200.000	-0.041	0.236
-156.706	-200.000	0.002	-0.091
-155.691	178.753	0.148	0.212
-154.677	-25.001	0.124	-0.072
-153.662	-143.755	-0.272	-0.025
-152.647	-0.895	0.349	0.242
-151.633	-200.000	-0.025	-0.149
-150.618	-200.000	0.025	-0.489
-149.604	-200.000	0.001	0.203
-148.589	-159.147	0.219	-0.012
-147.574	-200.000	-0.058	0.288
-146.560	-20.819	0.121	0.073
-145.545	-200.000	-0.054	-0.549
-144.531	-126.079	-0.156	0.023
-143.516	-200.000	0.010	0.224
-142.502	90.257	-0.055	0.060
-141.487	-156.949	0.185	-0.011
-140.472	13.632	-0.376	0.286
-139.458	-58.222	0.078	-0.033
-138.443	1.533	-0.117	-0.082
-137.429	-90.493	-0.250	-0.071
-136.414	84.776	0.410	0.440
-135.399	-42.533	-0.343	-0.171
-134.385	104.368	-0.147	0.169
-133.370	17.350	-0.218	0.170
-132.356	-101.652	-0.354	0.084
-131.341	-5.788	-0.190	0.127
-130.326	800.000	0.103	0.362
-129.312	8.676	0.154	0.113
-128.297	-93.134	-0.142	0.039
-127.283	228.827	-0.153	-0.243
-126.268	800.000	0.077	-0.258
-125.253	98.861	-0.153	-0.173
-124.239	-186.778	0.330	-0.005
-123.224	-52.884	-0.102	-0.046
-122.210	-30.495	0.136	-0.075
