DTS Sentinel unit serial number:	SN413079Multiplexer serial number:	ORYXHardware model number:	OX4-SRSoftware version number:	ORYX F/W v4.00 Oryx Data Collector v3.7.2.0data status	okinstallation	princeton_trtdifferential loss correction	single-endedforward channel	channel 1reverse channel	N/Adate	2019/09/17time	17:58:35forward acquisition time	60.00reverse acquisition time	0.00gamma	496.2192k internal	0.2291k external	0.2291temperature offset calibration	0.9953default loss term (dB/km)	0.3790temperature slope calibration	1.0000multiplexer offset coefficient	1.0000multiplexer slope coefficient	1.0000fibre end	0.00T internal ref (°C)	43.50T ext. ref 1 (°C)	0.33T ext. ref 2 (°C)	38.19length (m)	temperature (°C)	Stokes	anti-Stokes-747.200	-200.000	0.033	-0.273
-746.185	-143.894	0.397	0.038
-745.171	-38.224	-0.086	0.047
-744.156	65.206	-0.133	0.138
-743.142	-174.052	0.212	0.006
-742.127	800.000	0.079	0.303
-741.112	126.969	0.005	-0.007
-740.098	184.235	-0.102	0.154
-739.083	379.461	0.163	-0.342
-738.069	129.121	0.229	0.300
-737.054	-79.143	0.274	0.095
-736.039	56.844	0.125	-0.125
-735.025	9.229	0.177	0.137
-734.010	-43.824	-0.380	-0.196
-732.996	69.784	-0.146	-0.154
-731.981	-73.062	0.256	0.096
-730.966	277.077	-0.082	0.149
-729.952	-166.141	-0.249	0.011
-728.937	-54.413	-0.359	-0.167
-727.923	63.826	-0.104	-0.107
-726.908	-66.773	-0.161	0.065
-725.894	-46.479	-0.064	-0.032
-724.879	-200.000	0.030	0.166
-723.864	-200.000	0.021	0.137
-722.850	343.482	-0.187	-0.374
-721.835	594.065	0.089	-0.224
-720.821	-86.136	0.129	-0.041
-719.806	-27.279	0.065	0.038
-718.791	99.146	0.125	-0.148
-717.777	-96.071	0.213	-0.058
-716.762	-200.000	-0.045	0.279
-715.748	-38.356	-0.278	0.151
-714.733	-47.293	-0.282	0.140
-713.718	-97.696	-0.289	0.077
-712.704	-200.000	0.096	0.474
-711.689	800.000	0.079	-0.225
-710.675	800.000	0.136	-0.400
-709.660	542.508	0.155	0.377
-708.645	-200.000	-0.000	-0.035
-707.631	71.750	-0.304	0.323
-706.616	-200.000	0.008	-0.205
-705.602	-200.000	0.030	-0.168
-704.587	683.414	0.012	-0.031
-703.572	-60.346	0.329	-0.143
-702.558	-9.646	-0.089	-0.061
-701.543	-200.000	0.034	0.302
-700.529	182.825	0.140	-0.211
-699.514	-158.050	-0.039	0.002
-698.499	-14.643	-0.091	0.060
-697.485	-53.554	-0.086	0.040
-696.470	800.000	0.031	0.103
-695.456	-200.000	0.000	0.216
-694.441	-140.466	0.031	-0.003
-693.426	-37.314	-0.146	0.080
-692.412	25.096	-0.142	-0.120
-691.397	216.774	-0.152	0.248
-690.383	21.061	-0.343	-0.284
-689.368	290.907	-0.039	0.073
-688.354	121.194	-0.243	0.309
-687.339	-66.179	0.051	-0.021
-686.324	-78.574	0.212	-0.074
-685.310	185.925	0.035	0.054
-684.295	-200.000	0.011	-0.126
-683.281	-125.646	-0.126	0.019
-682.266	-200.000	-0.017	0.237
-681.251	619.319	0.075	0.194
-680.237	-151.024	0.169	0.013
-679.222	97.282	-0.071	-0.084
-678.208	372.347	0.037	-0.077
-677.193	21.926	-0.069	-0.058
-676.178	167.323	-0.058	0.084
-675.164	-65.590	0.124	-0.051
-674.149	-14.158	0.153	-0.101
-673.135	-200.000	-0.006	0.231
-672.120	-145.302	0.214	-0.020
-671.105	-200.000	-0.025	-0.364
-670.091	-96.434	0.169	0.046
-669.076	20.785	0.099	0.082
-668.062	82.730	-0.106	-0.118
-667.047	800.000	-0.134	0.401
-666.032	-75.867	-0.151	0.055
-665.018	170.692	0.025	-0.036
-664.003	10.380	0.182	-0.141
-662.989	275.053	0.261	-0.473
-661.974	-200.000	0.037	-0.280
-660.959	49.621	0.030	0.029
-659.945	176.206	0.146	-0.216
-658.930	-200.000	-0.011	0.145
-657.916	646.860	0.074	-0.194
-656.901	-130.699	-0.494	0.068
-655.886	-48.272	0.343	-0.169
-654.872	-1.914	0.245	-0.176
-653.857	-200.000	0.037	0.224
-652.843	-10.712	0.088	0.059
-651.828	800.000	0.068	-0.249
-650.814	377.057	-0.123	-0.256
-649.799	280.770	0.120	-0.219
-648.784	105.122	-0.228	-0.274
-647.770	71.291	-0.143	-0.151
-646.755	255.110	0.343	0.598
-645.741	639.902	-0.040	0.103
-644.726	-139.496	-0.117	-0.013
-643.711	-200.000	0.008	0.138
-642.697	-101.204	0.305	-0.076
-641.682	800.000	0.048	0.152
-640.668	-108.600	-0.282	-0.062
-639.653	35.750	0.236	-0.211
-638.638	-33.978	-0.425	0.238
-637.624	78.125	0.083	0.090
-636.609	-73.118	0.278	-0.104
-635.595	-78.070	0.290	-0.102
-634.580	-21.269	-0.324	-0.202
-633.565	131.800	0.071	0.093
-632.551	-58.021	-0.243	0.108
-631.536	-100.306	-0.295	0.075
-630.522	391.707	-0.072	0.153
-629.507	-95.016	0.396	-0.109
-628.492	-200.000	0.066	0.354
-627.478	167.631	0.107	-0.156
-626.463	-151.008	-0.216	0.017
-625.449	241.936	0.097	0.165
-624.434	800.000	-0.049	-0.145
-623.419	-200.000	0.018	-0.385
-622.405	800.000	-0.074	0.222
-621.390	-137.106	0.120	-0.014
-620.376	-107.103	-0.307	-0.069
-619.361	800.000	-0.056	-0.211
-618.346	135.653	0.096	0.127
-617.332	-200.000	-0.069	-0.323
-616.317	-191.648	0.277	0.003
-615.303	800.000	-0.071	0.244
-614.288	-200.000	0.018	0.101
-613.273	80.550	-0.099	0.108
-612.259	-80.348	-0.172	0.059
-611.244	417.949	-0.150	-0.327
-610.230	323.889	-0.107	-0.209
-609.215	70.601	-0.183	-0.193
-608.201	170.056	-0.212	-0.309
-607.186	-165.260	-0.142	0.006
-606.171	-200.000	0.003	0.119
-605.157	800.000	-0.105	-0.324
-604.142	57.667	0.355	-0.353
-603.128	215.876	0.013	-0.020
-602.113	316.166	0.208	-0.401
-601.098	-200.000	-0.045	-0.585
-600.084	-187.672	-0.330	0.004
-599.069	-200.000	-0.001	-0.132
-598.055	108.025	0.220	-0.266
-597.040	798.172	0.061	0.170
-596.025	-200.000	0.035	-0.232
-595.011	-15.870	-0.289	-0.188
-593.996	34.711	-0.134	-0.119
-592.982	800.000	-0.036	0.147
-591.967	66.324	-0.339	0.351
-590.952	-124.188	-0.160	-0.026
-589.938	-200.000	-0.016	0.181
-588.923	800.000	-0.107	0.306
-587.909	800.000	0.018	-0.055
-586.894	16.027	0.175	-0.140
-585.879	686.116	0.036	0.097
-584.865	-200.000	-0.008	0.100
-583.850	-131.947	0.114	0.015
-582.836	112.695	-0.083	-0.102
-581.821	-171.141	0.056	0.002
-580.806	-200.000	0.033	-0.291
-579.792	-116.734	-0.287	-0.054
-578.777	-7.010	-0.305	-0.210
-577.763	-149.866	-0.119	0.009
-576.748	-12.402	0.128	0.085
-575.733	-200.000	-0.020	-0.165
-574.719	-52.867	0.027	0.012
-573.704	549.132	0.032	0.079
-572.690	-112.467	0.248	-0.050
-571.675	-9.255	0.077	0.053
-570.661	186.793	-0.164	0.249
-569.646	-16.695	-0.060	0.039
-568.631	-200.000	0.021	-0.404
-567.617	107.608	-0.090	-0.109
-566.602	174.455	0.155	0.228
-565.588	800.000	-0.066	0.184
-564.573	-173.251	0.159	-0.005
-563.558	-40.115	0.286	-0.152
-562.544	569.681	-0.058	-0.142
-561.529	567.722	0.101	0.250
-560.515	19.456	0.284	0.232
-559.500	-43.954	0.403	0.206
-558.485	-95.620	-0.188	0.051
-557.471	800.000	-0.059	-0.233
-556.456	-45.454	-0.221	-0.111
-555.442	800.000	0.046	0.200
-554.427	800.000	0.047	-0.163
-553.412	54.289	0.170	0.166
-552.398	-59.771	-0.331	0.144
-551.383	111.061	0.155	0.190
-550.369	68.645	-0.184	0.192
-549.354	72.920	0.081	-0.086
-548.339	-200.000	-0.010	0.117
-547.325	-167.625	0.048	-0.002
-546.310	-50.700	-0.280	0.134
-545.296	369.285	-0.096	0.197
-544.281	-200.000	0.048	-0.336
-543.266	-200.000	-0.011	-0.256
-542.252	93.757	-0.212	0.244
-541.237	-23.874	-0.094	0.057
-540.223	183.688	-0.033	-0.050
-539.208	-200.000	0.014	-0.159
-538.193	800.000	0.089	0.266
-537.179	-43.164	0.068	0.035
-536.164	175.717	-0.354	0.522
-535.150	800.000	-0.086	0.281
-534.135	-87.044	0.308	0.095
-533.121	-145.882	0.374	0.034
-532.106	-101.684	-0.304	-0.075
-531.091	218.254	-0.029	0.048
-530.077	-200.000	0.006	0.051
-529.062	534.396	0.069	-0.166
-528.048	-77.525	-0.179	-0.063
-527.033	800.000	0.114	0.390
-526.018	101.247	0.079	-0.093
-525.004	281.982	0.109	0.198
-523.989	214.904	0.014	-0.023
-522.975	-101.813	-0.111	-0.027
-521.960	-103.928	0.107	0.025
-520.945	-200.000	-0.047	0.276
-519.931	-200.000	-0.027	0.382
-518.916	-114.493	-0.127	0.025
-517.902	486.707	-0.052	0.120
-516.887	362.248	-0.090	0.184
-515.872	144.585	-0.177	0.240
-514.858	-44.751	0.159	-0.081
-513.843	160.539	0.206	0.292
-512.829	-200.000	-0.008	0.328
-511.814	23.704	0.223	-0.186
-510.799	-200.000	-0.017	-0.093
-509.785	-200.000	0.003	0.061
-508.770	-94.792	-0.336	-0.093
-507.756	-8.307	-0.097	-0.066
-506.741	-39.673	0.435	-0.231
-505.726	-115.240	0.286	-0.055
-504.712	-45.222	0.022	0.011
-503.697	189.432	-0.099	-0.150
-502.683	-200.000	-0.048	-0.346
-501.668	141.350	-0.088	-0.118
-500.653	-136.944	-0.282	-0.033
-499.639	-200.000	-0.010	0.053
-498.624	-188.107	0.285	0.004
-497.610	30.823	0.027	0.024
-496.595	58.031	-0.091	-0.090
-495.581	382.188	-0.099	-0.207
-494.566	-62.345	-0.204	0.086
-493.551	-8.569	0.300	0.205
-492.537	-200.000	-0.024	-0.319
-491.522	363.127	-0.150	-0.305
-490.508	315.107	-0.105	0.200
-489.493	2.888	0.213	0.157
-488.478	91.463	-0.103	-0.118
-487.464	-200.000	-0.043	-0.285
-486.449	800.000	0.064	0.257
-485.435	-200.000	0.015	0.119
-484.420	-200.000	-0.004	-0.125
-483.405	-32.381	0.145	0.082
-482.391	-56.296	-0.221	-0.099
-481.376	800.000	0.033	0.120
-480.362	42.192	0.066	-0.061
-479.347	261.845	-0.130	-0.228
-478.332	-92.115	0.247	0.071
-477.318	-200.000	0.050	-0.233
-476.303	36.537	-0.120	0.107
-475.289	-200.000	-0.013	0.086
-474.274	-200.000	-0.006	-0.270
-473.259	-84.914	-0.160	-0.051
-472.245	-45.105	0.070	-0.035
-471.230	-43.444	0.401	-0.205
-470.216	92.347	0.169	0.193
-469.201	-28.044	-0.179	0.105
-468.186	554.883	-0.076	0.186
-467.172	-115.558	0.213	-0.041
-466.157	28.269	0.063	-0.054
-465.143	763.184	-0.029	0.081
-464.128	65.449	0.049	0.050
-463.113	-200.000	-0.035	-0.234
-462.099	-153.733	-0.022	-0.002
-461.084	-62.787	-0.192	0.081
-460.070	800.000	-0.031	-0.088
-459.055	-1.724	0.027	0.020
-458.040	120.307	0.115	0.144
-457.026	-61.488	0.123	0.052
-456.011	-29.015	0.201	0.117
-454.997	800.000	-0.038	-0.126
-453.982	38.150	0.115	0.104
-452.968	-43.901	0.038	0.019
-451.953	-200.000	-0.019	-0.148
-450.938	800.000	-0.148	0.417
-449.924	179.794	-0.166	0.247
-448.909	-177.474	-0.310	0.008
-447.895	94.590	-0.275	0.317
-446.880	-200.000	0.037	-0.211
-445.865	17.683	0.046	0.037
-444.851	-77.745	0.085	0.030
-443.836	-107.331	0.158	-0.035
-442.822	-36.792	0.028	-0.015
-441.807	-200.000	-0.007	-0.078
-440.792	135.807	0.184	-0.243
-439.778	161.703	-0.225	0.318
-438.763	-155.356	-0.299	-0.020
-437.749	186.598	-0.066	0.099
-436.734	-165.678	0.227	0.010
-435.719	656.654	-0.062	-0.160
-434.705	-87.791	0.325	-0.099
-433.690	335.450	-0.122	0.239
-432.676	-169.416	-0.268	0.010
-431.661	-121.273	-0.254	0.043
-430.646	-105.121	-0.223	0.052
-429.632	465.092	0.099	0.223
-428.617	572.927	-0.071	-0.175
-427.603	-179.028	0.450	0.010
-426.588	-25.153	0.256	0.153
-425.573	3.583	0.262	-0.193
-424.559	110.587	0.116	0.141
-423.544	96.714	-0.181	-0.210
-422.530	191.977	-0.225	0.344
-421.515	-68.720	0.136	0.053
-420.500	-52.177	-0.080	0.038
-419.486	-40.658	0.140	-0.074
-418.471	1.593	-0.149	-0.109
-417.457	-79.346	0.488	0.167
-416.442	-84.159	-0.358	0.115
-415.428	-40.997	-0.059	-0.031
-414.413	-133.485	0.069	-0.009
-413.398	-85.804	-0.139	-0.043
-412.384	-103.679	0.235	0.056
-411.369	-112.236	-0.067	-0.014
-410.355	13.544	-0.102	-0.080
-409.340	-200.000	0.037	-0.304
-408.325	-49.905	-0.213	0.102
-407.311	-87.161	-0.150	-0.046
-406.296	-200.000	0.044	0.345
-405.282	-200.000	-0.007	0.304
-404.267	-130.939	-0.249	-0.034
-403.252	-18.927	-0.266	-0.167
-402.238	-59.703	-0.111	0.048
-401.223	800.000	-0.060	-0.218
-400.209	-71.952	-0.313	-0.118
-399.194	61.044	-0.137	0.138
-398.179	-116.117	0.197	0.037
-397.165	544.729	-0.075	0.181
-396.150	-138.452	0.227	-0.025
-395.136	477.595	0.103	0.236
-394.121	-40.198	0.134	0.071
-393.106	-49.913	-0.224	0.107
-392.092	110.970	-0.097	0.119
-391.077	6.289	0.135	0.101
-390.063	-63.134	-0.334	-0.139
-389.048	-198.293	0.150	0.001
-388.033	223.463	0.037	-0.061
-387.019	-109.598	0.048	-0.010
-386.004	179.274	0.255	0.377
-384.990	419.473	0.159	-0.343
-383.975	80.355	0.120	-0.131
-382.960	800.000	-0.076	-0.230
-381.946	-34.650	0.167	-0.092
-380.931	-115.740	0.177	0.034
-379.917	800.000	0.079	0.228
-378.902	54.805	0.176	0.171
-377.888	-200.000	-0.007	0.072
-376.873	69.064	-0.055	-0.057
-375.858	588.611	-0.105	-0.262
-374.844	-168.029	0.377	-0.015
-373.829	-21.768	-0.118	0.072
-372.815	-111.010	0.283	-0.059
-371.800	387.270	0.128	0.268
-370.785	-200.000	-0.025	0.118
-369.771	-10.345	-0.261	0.175
-368.756	-73.490	-0.213	-0.078
-367.742	800.000	-0.088	-0.348
-366.727	295.523	-0.201	-0.371
-365.712	-200.000	-0.045	-0.209
-364.698	-200.000	0.025	-0.231
-363.683	800.000	0.056	0.177
-362.669	-21.794	-0.039	0.024
-361.654	234.731	0.030	0.051
-360.639	-77.095	0.216	0.076
-359.625	-200.000	0.009	-0.091
-358.610	-11.898	-0.088	-0.058
-357.596	800.000	-0.099	-0.321
-356.581	169.327	0.146	-0.210
-355.566	-118.313	-0.142	-0.025
-354.552	44.404	-0.231	-0.214
-353.537	203.166	0.145	-0.226
-352.523	-36.826	-0.312	-0.169
-351.508	-144.391	0.206	0.019
-350.493	-25.431	-0.212	-0.126
-349.479	-78.085	-0.069	0.024
-348.464	800.000	-0.106	-0.315
-347.450	-200.000	0.016	0.207
-346.435	-82.551	0.343	-0.112
-345.420	-43.129	-0.023	0.012
-344.406	33.471	0.308	-0.270
-343.391	-157.530	0.211	0.013
-342.377	20.188	-0.227	0.185
-341.362	-108.209	-0.095	0.021
-340.348	-139.642	-0.209	0.022
-339.333	36.547	-0.043	-0.038
-338.318	-140.252	-0.182	-0.019
-337.304	-78.373	0.201	-0.070
-336.289	800.000	0.017	0.051
-335.275	-100.140	0.247	0.062
-334.260	-151.612	0.180	-0.013
-333.245	78.806	-0.193	-0.208
-332.231	59.073	-0.299	0.297
-331.216	41.216	0.115	0.105
-330.202	228.108	0.131	0.214
-329.187	-156.818	0.044	-0.003
-328.172	5.049	0.046	-0.034
-327.158	-133.158	0.101	0.013
-326.143	-120.163	0.173	-0.030
-325.129	4.502	0.102	0.075
-324.114	-200.000	0.004	-0.326
-323.099	408.474	-0.087	-0.186
-322.085	64.148	-0.204	0.207
-321.070	-191.348	-0.345	0.004
-320.056	-160.032	0.360	0.020
-319.041	77.035	-0.070	-0.075
-318.026	800.000	-0.049	-0.199
-317.012	-42.975	0.229	0.117
-315.997	369.885	0.071	-0.145
-314.983	-200.000	-0.028	-0.146
-313.968	307.696	-0.126	-0.236
-312.953	18.502	-0.241	-0.194
-311.939	-120.897	-0.194	0.033
-310.924	-34.568	0.161	0.089
-309.910	-106.268	-0.318	0.072
-308.895	56.457	-0.084	-0.082
-307.880	268.128	0.058	-0.103
-306.866	-200.000	-0.000	0.105
-305.851	800.000	0.136	-0.424
-304.837	-118.786	0.258	-0.046
-303.822	117.331	-0.042	-0.052
-302.807	800.000	-0.168	-0.587
-301.793	-2.300	0.180	-0.127
-300.778	197.339	0.012	-0.019
-299.764	-92.266	-0.071	0.020
-298.749	-150.796	-0.338	0.026
-297.735	130.549	-0.104	-0.135
-296.720	173.995	0.130	0.189
-295.705	-163.528	0.190	-0.009
-294.691	-47.647	0.235	-0.115
-293.676	800.000	0.058	0.216
-292.662	-39.443	0.230	0.121
-291.647	-46.207	0.503	0.249
-290.632	-200.000	0.032	0.213
-289.618	-200.000	0.012	-0.336
-288.603	-200.000	-0.022	0.140
-287.589	413.408	0.176	-0.376
-286.574	725.628	-0.079	-0.212
-285.559	-106.004	0.107	-0.024
-284.545	294.024	-0.157	-0.288
-283.530	-82.304	0.300	0.098
-282.516	-152.472	0.222	0.016
-281.501	-200.000	0.429	0.002
-280.486	58.115	-0.178	-0.176
-279.472	390.051	0.096	0.200
-278.457	-102.538	-0.278	-0.067
-277.443	-157.667	-0.382	-0.023
-276.428	-200.000	-0.054	0.343
-275.413	-150.083	-0.304	-0.024
-274.399	-112.667	0.214	0.043
-273.384	158.866	-0.077	-0.108
-272.370	21.060	0.128	-0.105
-271.355	-200.000	0.107	0.692
-270.340	100.388	0.150	-0.175
-269.326	-130.660	0.329	-0.045
-268.311	198.819	-0.103	-0.159
-267.297	457.160	-0.080	0.179
-266.282	81.745	-0.272	0.296
-265.267	-89.110	-0.070	-0.021
-264.253	-200.000	0.205	-0.000
-263.238	-120.747	0.066	-0.011
-262.224	-117.380	0.382	0.070
-261.209	-63.032	-0.180	0.075
-260.195	-69.692	0.235	-0.090
-259.180	-71.664	0.105	0.039
-258.165	-200.000	-0.024	-0.213
-257.151	-200.000	0.079	-0.424
-256.136	-62.666	0.165	-0.069
-255.122	800.000	0.012	-0.037
-254.107	-133.572	0.347	0.044
-253.092	51.988	0.046	-0.044
-252.078	-200.000	0.009	0.242
-251.063	-200.000	-0.022	0.172
-250.049	-200.000	0.001	-0.042
-249.034	124.724	-0.116	-0.147
-248.019	330.810	-0.116	-0.225
-247.005	-200.000	-0.015	-0.182
-245.990	266.555	0.087	0.153
-244.976	655.818	-0.144	-0.370
-243.961	1.709	0.226	0.164
-242.946	-200.000	0.010	0.167
-241.932	6.704	-0.069	-0.051
-240.917	-141.529	-0.058	0.006
-239.903	-1.102	-0.107	0.076
-238.888	800.000	0.032	-0.119
-237.873	7.969	0.268	-0.202
-236.859	-108.704	-0.402	-0.086
-235.844	677.651	-0.076	0.197
-234.830	-65.458	0.155	0.063
-233.815	56.271	0.054	0.053
-232.800	99.243	0.257	0.298
-231.786	287.256	-0.111	0.202
-230.771	-98.172	0.028	0.007
-229.757	164.753	-0.034	-0.048
-228.742	144.739	-0.077	-0.103
-227.727	36.201	0.224	0.198
-226.713	368.692	0.116	-0.235
-225.698	800.000	0.014	0.048
-224.684	-52.367	0.135	-0.063
-223.669	-22.542	-0.170	0.103
-222.655	27.144	-0.076	-0.064
-221.640	-49.031	0.141	-0.067
-220.625	-35.138	-0.148	-0.081
-219.611	800.000	0.039	-0.152
-218.596	209.638	0.126	0.198
-217.582	60.839	0.311	0.309
-216.567	-188.877	-0.352	0.004
-215.552	-200.000	-0.061	-0.339
-214.538	0.805	0.190	0.136
-213.523	140.291	0.108	0.142
-212.509	-46.132	0.305	-0.151
-211.494	19.334	-0.155	0.124
-210.479	-200.000	0.016	0.223
-209.465	-200.000	-0.003	0.110
-208.450	-162.726	-0.385	-0.019
-207.436	201.317	0.160	0.247
-206.421	-88.773	-0.304	-0.090
-205.406	224.478	-0.069	-0.112
-204.392	-200.000	0.041	0.183
-203.377	111.278	0.109	0.132
-202.363	347.557	-0.005	0.010
-201.348	162.087	-0.064	0.091
-200.333	412.766	-0.129	-0.275
-199.319	-40.658	-0.126	-0.065
-198.304	-200.000	0.008	-0.071
-197.290	-200.000	-0.041	0.236
-196.275	-78.996	0.230	0.078
-195.260	-115.568	-0.238	0.045
-194.246	394.836	0.068	0.142
-193.231	80.646	0.145	0.156
-192.217	-200.000	0.005	-0.092
-191.202	-200.000	-0.014	0.078
-190.187	7.988	0.115	0.086
-189.173	-200.000	-0.056	-0.256
-188.158	-200.000	-0.014	-0.200
-187.144	76.318	-0.075	-0.080
-186.129	63.650	0.133	0.133
-185.114	-200.000	-0.005	-0.248
-184.100	85.104	-0.138	0.152
-183.085	610.962	0.063	-0.158
-182.071	800.000	0.029	0.115
-181.056	-200.000	0.066	0.476
-180.042	18.814	-0.191	0.153
-179.027	520.746	0.069	0.162
-178.012	-200.000	0.031	0.465
-176.998	454.304	0.094	0.209
-175.983	251.612	0.147	-0.251
-174.969	-200.000	0.088	0.000
-173.954	47.795	-0.103	-0.096
-172.939	81.212	-0.059	0.064
-171.925	-33.391	0.149	0.083
-170.910	800.000	-0.050	-0.173
-169.896	10.046	0.198	0.151
-168.881	-112.124	-0.464	-0.093
-167.866	-71.881	0.202	-0.075
-166.852	-200.000	-0.011	-0.060
-165.837	-31.754	-0.456	0.256
-164.823	-62.101	0.151	-0.063
-163.808	-200.000	-0.024	-0.150
-162.793	-128.258	0.088	-0.013
-161.779	-131.262	-0.080	0.011
-160.764	-200.000	0.005	0.206
-159.750	635.343	-0.169	0.429
-158.735	20.316	-0.080	-0.065
-157.720	112.556	-0.249	-0.301
-156.706	-200.000	-0.003	0.376
-155.691	-200.000	-0.022	0.101
-154.677	-40.225	-0.101	0.053
-153.662	200.281	-0.067	-0.102
-152.647	112.358	0.059	-0.071
-151.633	-68.171	-0.077	0.030
-150.618	47.066	-0.114	0.106
-149.604	241.435	-0.141	-0.235
-148.589	75.094	0.231	-0.244
-147.574	800.000	-0.089	0.369
-146.560	171.371	0.244	0.351
-145.545	-180.944	-0.413	-0.008
-144.531	-132.719	-0.163	0.021
-143.516	281.805	0.091	0.163
-142.502	-200.000	-0.002	0.111
-141.487	539.286	0.055	-0.131
-140.472	-81.816	-0.093	0.030
-139.458	-57.825	0.262	-0.115
-138.443	91.916	0.041	0.047
-137.429	-149.007	0.070	-0.006
-136.414	144.699	0.055	0.074
-135.399	367.339	0.134	-0.270
-134.385	-119.518	-0.122	0.021
-133.370	261.144	-0.149	-0.257
-132.356	800.000	-0.116	0.390
-131.341	110.688	0.073	-0.088
-130.326	-200.000	0.014	0.228
-129.312	344.175	0.144	0.282
-128.297	-42.576	0.250	-0.127
-127.283	621.122	0.083	-0.209
-126.268	326.968	0.029	-0.055
-125.253	800.000	-0.010	0.035
-124.239	437.801	0.049	-0.108
-123.224	411.912	-0.078	-0.166
-122.210	800.000	-0.095	0.409
-121.195	-200.000	0.021	0.177
