DTS Sentinel unit serial number:	SN413079Multiplexer serial number:	ORYXHardware model number:	OX4-SRSoftware version number:	ORYX F/W v4.00 Oryx Data Collector v3.7.2.0data status	okinstallation	princeton_trtdifferential loss correction	single-endedforward channel	channel 1reverse channel	N/Adate	2019/09/11time	02:40:11forward acquisition time	60.00reverse acquisition time	0.00gamma	496.2192k internal	0.2332k external	0.2332temperature offset calibration	0.9925default loss term (dB/km)	0.3790temperature slope calibration	1.0000multiplexer offset coefficient	1.0000multiplexer slope coefficient	1.0000fibre end	0.00T internal ref (°C)	29.25T ext. ref 1 (°C)	-0.29T ext. ref 2 (°C)	23.10length (m)	temperature (°C)	Stokes	anti-Stokes-747.200	327.486	-0.080	-0.155
-746.185	-200.000	0.037	0.308
-745.171	-35.860	-0.176	-0.096
-744.156	24.343	-0.347	0.289
-743.142	-104.145	0.082	-0.019
-742.127	712.889	-0.016	-0.041
-741.112	261.756	-0.085	0.149
-740.098	-119.455	0.103	0.018
-739.083	-12.469	0.031	0.020
-738.069	800.000	-0.071	0.288
-737.054	55.489	-0.169	-0.165
-736.039	-200.000	0.004	-0.090
-735.025	14.810	0.281	-0.221
-734.010	-200.000	0.007	-0.344
-732.996	-2.197	-0.201	-0.142
-731.981	-157.230	-0.124	0.008
-730.966	-184.960	0.160	0.003
-729.952	2.445	-0.224	-0.163
-728.937	-61.659	0.148	-0.062
-727.923	-200.000	-0.025	-0.339
-726.908	-32.570	0.084	0.047
-725.894	-148.065	-0.141	-0.012
-724.879	-200.000	0.023	-0.147
-723.864	-32.477	0.106	0.060
-722.850	-106.622	0.364	0.081
-721.835	202.134	-0.058	0.090
-720.821	-33.823	0.181	-0.100
-719.806	-129.161	0.094	0.013
-718.791	-107.181	-0.513	0.114
-717.777	51.105	0.256	0.244
-716.762	800.000	0.098	0.284
-715.748	14.769	0.125	-0.098
-714.733	800.000	-0.024	0.069
-713.718	706.042	-0.037	0.097
-712.704	-92.752	-0.346	0.097
-711.689	597.848	0.053	0.133
-710.675	-200.000	0.013	-0.265
-709.660	469.686	0.140	0.316
-708.645	800.000	-0.027	0.094
-707.631	-173.954	-0.371	0.011
-706.616	-59.483	-0.164	0.071
-705.602	-115.339	-0.150	-0.029
-704.587	800.000	0.108	-0.337
-703.572	347.410	-0.106	-0.210
-702.558	-200.000	0.017	0.139
-701.543	-78.511	0.273	-0.094
-700.529	320.253	-0.193	-0.369
-699.514	-114.519	-0.116	0.022
-698.499	-124.656	-0.154	-0.024
-697.485	143.502	-0.140	0.187
-696.470	262.649	-0.271	-0.472
-695.456	-200.000	0.009	-0.361
-694.441	-140.557	-0.272	0.028
-693.426	-200.000	-0.008	-0.036
-692.412	-106.590	-0.199	0.045
-691.397	60.605	-0.251	0.250
-690.383	38.923	0.096	-0.086
-689.368	80.696	0.218	-0.236
-688.354	4.539	0.157	0.116
-687.339	477.073	-0.131	-0.298
-686.324	84.486	-0.339	0.372
-685.310	-200.000	0.293	0.001
-684.295	-125.652	-0.127	-0.019
-683.281	69.784	0.126	0.131
-682.266	101.397	-0.116	0.136
-681.251	-55.617	0.169	-0.076
-680.237	483.181	0.098	-0.223
-679.222	692.189	0.070	-0.185
-678.208	66.280	-0.178	-0.181
-677.193	5.730	-0.124	0.092
-676.178	-152.795	0.186	0.013
-675.164	-200.000	-0.043	-0.190
-674.149	273.330	0.120	-0.213
-673.135	-115.344	-0.434	-0.082
-672.120	127.637	-0.068	0.087
-671.105	-200.000	-0.007	-0.184
-670.091	-143.131	-0.240	0.023
-669.076	156.520	-0.127	0.176
-668.062	-72.423	-0.073	0.027
-667.047	-39.909	0.163	-0.085
-666.032	365.183	-0.098	-0.197
-665.018	800.000	-0.057	0.184
-664.003	800.000	-0.069	0.303
-662.989	800.000	-0.046	0.180
-661.974	-200.000	-0.008	-0.337
-660.959	-200.000	-0.062	-0.295
-659.945	392.805	0.117	0.245
-658.930	800.000	-0.027	-0.101
-657.916	160.151	-0.192	0.269
-656.901	-97.812	-0.055	-0.014
-655.886	-99.390	0.283	-0.071
-654.872	-131.067	-0.140	0.019
-653.857	-200.000	0.007	0.143
-652.843	86.965	-0.151	0.167
-651.828	224.137	-0.208	-0.338
-650.814	-200.000	0.005	-0.086
-649.799	-200.000	-0.021	0.307
-648.784	-43.677	-0.203	-0.102
-647.770	-40.713	0.186	-0.097
-646.755	-148.327	-0.239	0.020
-645.741	-47.877	-0.256	0.124
-644.726	-82.436	0.163	0.053
-643.711	800.000	-0.027	-0.110
-642.697	-80.795	0.093	-0.031
-641.682	28.787	0.092	-0.078
-640.668	160.929	0.082	-0.115
-639.653	536.881	0.077	-0.182
-638.638	-123.112	-0.321	0.052
-637.624	-200.000	-0.010	-0.345
-636.609	-36.117	-0.074	0.040
-635.595	-36.926	-0.174	0.094
-634.580	289.916	0.247	0.449
-633.565	120.097	0.033	-0.041
-632.551	-86.089	-0.140	0.043
-631.536	-200.000	-0.006	0.037
-630.522	-159.219	-0.214	-0.012
-629.507	96.421	0.115	-0.131
-628.492	70.917	-0.053	-0.055
-627.478	370.678	-0.090	0.182
-626.463	19.306	0.297	0.239
-625.449	297.039	0.094	0.172
-624.434	-200.000	0.012	0.123
-623.419	617.445	-0.083	0.208
-622.405	-36.733	-0.215	-0.115
-621.390	6.400	0.208	-0.155
-620.376	561.187	-0.020	-0.048
-619.361	71.170	0.209	0.217
-618.346	544.423	-0.057	-0.136
-617.332	-1.499	-0.258	-0.182
-616.317	40.590	0.180	0.162
-615.303	-75.522	-0.425	-0.151
-614.288	-40.830	0.278	-0.144
-613.273	800.000	-0.083	-0.332
-612.259	-120.467	0.255	0.043
-611.244	-98.983	0.012	0.003
-610.230	60.467	0.106	0.105
-609.215	168.883	0.071	-0.102
-608.201	-155.193	-0.271	-0.018
-607.186	41.846	0.148	0.134
-606.171	118.563	0.173	0.213
-605.157	-200.000	-0.014	0.107
-604.142	13.543	-0.439	0.341
-603.128	-23.656	-0.233	-0.140
-602.113	-48.361	-0.181	-0.087
-601.098	294.072	-0.089	0.162
-600.084	-184.918	0.290	0.005
-599.069	63.791	0.197	0.199
-598.055	-38.561	0.158	-0.084
-597.040	510.290	0.079	-0.184
-596.025	-200.000	0.001	0.025
-595.011	-200.000	0.071	-0.461
-593.996	302.691	-0.182	-0.338
-592.982	-47.803	-0.102	-0.049
-591.967	-200.000	-0.001	-0.257
-590.952	-161.841	0.076	0.004
-589.938	-200.000	0.079	-0.435
-588.923	-76.554	-0.215	0.076
-587.909	-143.192	-0.190	0.018
-586.894	-139.588	0.239	-0.026
-585.879	286.861	0.080	-0.145
-584.865	-149.858	-0.133	-0.010
-583.850	189.675	0.176	0.263
-582.836	-23.490	0.088	-0.053
-581.821	113.589	-0.104	0.126
-580.806	-37.381	0.082	-0.044
-579.792	25.049	-0.097	-0.081
-578.777	25.575	-0.203	0.169
-577.763	63.415	0.088	0.088
-576.748	-116.015	-0.210	-0.039
-575.733	-200.000	-0.016	-0.492
-574.719	55.762	-0.213	0.206
-573.704	-130.618	0.507	-0.068
-572.690	303.302	0.052	0.097
-571.675	-151.216	-0.321	0.024
-570.661	121.987	-0.090	-0.112
-569.646	-27.218	0.191	-0.111
-568.631	59.930	-0.180	0.178
-567.617	-1.112	-0.194	-0.137
-566.602	48.210	-0.216	-0.202
-565.588	-200.000	0.016	0.097
-564.573	-87.968	-0.405	-0.122
-563.558	-200.000	0.175	-0.000
-562.544	-39.760	-0.220	-0.115
-561.529	456.112	-0.079	0.175
-560.515	-14.991	-0.359	-0.230
-559.500	-139.706	0.059	0.006
-558.485	-98.356	-0.480	0.123
-557.471	248.909	0.164	0.278
-556.456	-47.790	0.190	0.092
-555.442	1.715	-0.014	0.010
-554.427	800.000	-0.076	-0.220
-553.412	-93.962	-0.205	0.056
-552.398	-83.495	0.181	0.058
-551.383	-12.316	-0.125	0.082
-550.369	-153.408	0.082	0.006
-549.354	177.959	-0.092	-0.134
-548.339	-162.235	0.274	0.014
-547.325	459.615	-0.095	-0.212
-546.310	453.905	0.015	0.034
-545.296	-20.998	-0.263	0.161
-544.281	-108.238	-0.294	-0.063
-543.266	-16.856	-0.214	0.135
-542.252	170.232	-0.046	0.066
-541.237	-200.000	0.003	0.200
-540.223	37.379	-0.080	0.070
-539.208	-18.590	0.090	0.056
-538.193	0.043	-0.306	-0.218
-537.179	-200.000	-0.028	0.252
-536.164	6.733	-0.249	0.185
-535.150	-97.885	0.357	0.092
-534.135	277.005	-0.168	0.297
-533.121	60.815	0.286	-0.283
-532.106	-200.000	0.020	-0.103
-531.091	102.487	-0.134	-0.156
-530.077	99.446	-0.100	-0.116
-529.062	236.077	0.188	0.311
-528.048	-73.998	-0.273	0.099
-527.033	-13.457	0.178	-0.115
-526.018	74.937	0.151	-0.159
-525.004	-200.000	0.061	0.437
-523.989	-151.520	0.125	0.009
-522.975	-138.642	-0.386	0.042
-521.960	192.296	-0.154	-0.232
-520.945	-51.716	-0.493	-0.229
-519.931	-161.769	0.468	0.024
-518.916	28.843	-0.087	-0.073
-517.902	-200.000	0.041	-0.311
-516.887	-41.037	-0.205	0.106
-515.872	-200.000	0.015	-0.156
-514.858	-137.710	0.161	-0.018
-513.843	450.820	0.067	-0.147
-512.829	-4.177	0.216	-0.149
-511.814	-51.312	-0.212	0.099
-510.799	800.000	-0.096	0.268
-509.785	-109.147	-0.041	0.009
-508.770	-78.436	0.056	0.019
-507.756	-147.782	-0.189	0.016
-506.741	-66.696	0.271	-0.107
-505.726	534.440	0.126	0.299
-504.712	-58.239	-0.143	-0.062
-503.697	-95.198	0.393	0.106
-502.683	-136.759	-0.437	0.050
-501.668	155.504	0.193	0.264
-500.653	-5.752	-0.169	-0.116
-499.639	-200.000	0.003	-0.137
-498.624	270.518	-0.095	-0.167
-497.610	-16.568	0.287	0.181
-496.595	-160.533	-0.360	-0.019
-495.581	60.211	-0.048	0.047
-494.566	-93.580	0.185	-0.051
-493.551	-86.963	0.303	-0.092
-492.537	-23.066	-0.302	0.182
-491.522	-129.468	-0.160	0.022
-490.508	-200.000	0.008	0.311
-489.493	313.744	-0.133	0.249
-488.478	682.503	-0.059	0.153
-487.464	-146.128	0.103	0.009
-486.449	125.570	0.148	0.186
-485.435	-23.432	0.352	-0.211
-484.420	2.152	-0.176	-0.126
-483.405	159.045	-0.056	-0.077
-482.391	77.460	-0.185	-0.196
-481.376	-71.004	-0.210	0.079
-480.362	-200.000	0.023	0.243
-479.347	185.120	0.162	-0.239
-478.332	65.417	-0.140	0.141
-477.318	-141.761	0.342	-0.034
-476.303	619.063	-0.097	0.242
-475.289	-33.127	0.095	-0.053
-474.274	33.879	-0.221	0.192
-473.259	-98.549	-0.314	-0.080
-472.245	132.405	0.057	-0.073
-471.230	147.152	0.088	-0.118
-470.216	207.846	0.189	0.294
-469.201	-88.419	-0.427	0.127
-468.186	-58.351	0.215	0.093
-467.172	62.671	0.063	0.063
-466.157	-64.745	-0.343	0.138
-465.143	-137.477	-0.120	0.014
-464.128	-23.131	-0.063	-0.037
-463.113	-152.585	0.131	-0.009
-462.099	-38.258	0.279	0.147
-461.084	-55.204	-0.293	0.131
-460.070	248.431	-0.083	0.141
-459.055	-171.038	0.356	0.012
-458.040	-129.477	-0.230	-0.032
-457.026	-200.000	0.009	-0.174
-456.011	372.267	0.204	-0.413
-454.997	161.412	0.115	0.159
-453.982	-130.275	-0.322	-0.044
-452.968	29.543	-0.057	-0.048
-451.953	-21.116	-0.199	0.121
-450.938	52.420	0.076	0.073
-449.924	800.000	-0.115	0.490
-448.909	-200.000	0.026	0.311
-447.895	349.482	0.072	-0.142
-446.880	281.909	0.125	0.223
-445.865	-2.282	-0.101	-0.070
-444.851	27.983	-0.132	-0.110
-443.836	507.415	-0.014	0.033
-442.822	82.205	0.106	0.114
-441.807	-62.545	-0.335	-0.138
-440.792	98.258	0.228	0.261
-439.778	-73.219	0.268	0.097
-438.763	239.624	0.053	-0.087
-437.749	526.701	0.096	0.225
-436.734	-200.000	-0.049	0.345
-435.719	133.539	-0.167	0.215
-434.705	93.595	0.263	-0.296
-433.690	55.372	0.207	0.199
-432.676	-184.339	-0.274	0.004
-431.661	-200.000	0.020	0.364
-430.646	-182.338	0.072	-0.001
-429.632	-71.724	-0.132	-0.049
-428.617	-200.000	0.014	0.129
-427.603	201.385	-0.092	0.141
-426.588	-200.000	-0.070	0.391
-425.573	196.954	-0.091	0.137
-424.559	-200.000	-0.009	0.185
-423.544	-200.000	0.093	-0.506
-422.530	590.331	0.113	-0.277
-421.515	23.249	0.084	0.068
-420.500	296.681	-0.103	-0.187
-419.486	-200.000	-0.002	-0.032
-418.471	-104.326	0.472	-0.109
-417.457	56.951	0.061	-0.059
-416.442	-200.000	-0.047	-0.401
-415.428	697.478	0.088	0.231
-414.413	800.000	0.109	-0.439
-413.398	370.544	0.141	-0.284
-412.384	-65.012	0.161	-0.065
-411.369	-98.153	-0.102	-0.026
-410.355	8.903	-0.272	0.204
-409.340	-56.594	0.527	0.232
-408.325	23.669	-0.260	-0.212
-407.311	-137.074	0.397	0.045
-406.296	312.685	-0.063	-0.117
-405.282	151.153	0.077	0.104
-404.267	-200.000	0.070	-0.365
-403.252	212.641	0.119	-0.186
-402.238	440.941	-0.075	0.163
-401.223	548.820	0.041	-0.098
-400.209	92.046	-0.274	-0.306
-399.194	-200.000	-0.001	-0.049
-398.179	700.525	-0.051	0.133
-397.165	258.546	0.222	-0.379
-396.150	111.328	0.155	-0.185
-395.136	-200.000	0.003	-0.077
-394.121	404.169	-0.093	0.194
-393.106	-200.000	0.007	-0.286
-392.092	-200.000	0.050	-0.249
-391.077	-200.000	0.027	-0.237
-390.063	-200.000	0.055	-0.332
-389.048	-160.142	-0.038	0.002
-388.033	41.581	-0.167	-0.150
-387.019	69.207	0.136	0.138
-386.004	295.005	0.119	0.216
-384.990	265.670	-0.131	-0.227
-383.975	-33.567	-0.127	-0.070
-382.960	-200.000	0.002	-0.404
-381.946	-38.227	-0.227	-0.120
-380.931	-155.878	0.106	-0.007
-379.917	58.125	0.107	-0.104
-378.902	-16.052	0.287	-0.181
-377.888	-110.763	0.265	0.054
-376.873	-37.552	-0.255	0.135
-375.858	-187.753	-0.330	-0.004
-374.844	332.270	0.131	-0.251
-373.829	301.017	0.120	0.219
-372.815	-72.003	-0.171	-0.063
-371.800	-36.526	-0.230	-0.123
-370.785	-200.000	-0.043	0.228
-369.771	-26.681	0.162	0.094
-368.756	231.957	-0.063	-0.103
-367.742	258.234	0.059	-0.101
-366.727	27.436	0.091	0.076
-365.712	41.846	-0.173	0.156
-364.698	179.009	0.203	-0.294
-363.683	-34.754	-0.396	-0.215
-362.669	-93.717	-0.131	0.036
-361.654	-126.203	0.155	-0.023
-360.639	-54.298	-0.070	-0.032
-359.625	-200.000	-0.028	0.296
-358.610	-200.000	0.030	-0.287
-357.596	-79.013	-0.212	-0.071
-356.581	-35.479	-0.035	0.019
-355.566	-3.156	0.232	-0.160
-354.552	194.243	0.058	-0.088
-353.537	22.037	-0.050	-0.041
-352.523	-2.305	0.183	-0.127
-351.508	800.000	-0.047	0.146
-350.493	-200.000	0.016	-0.284
-349.479	113.329	0.059	0.071
-348.464	-200.000	-0.034	-0.194
-347.450	52.033	-0.012	0.012
-346.435	30.018	0.012	-0.010
-345.420	-200.000	0.002	0.116
-344.406	-200.000	-0.043	0.324
-343.391	800.000	0.025	-0.082
-342.377	-200.000	0.002	0.309
-341.362	800.000	0.073	0.255
-340.348	800.000	0.015	-0.052
-339.333	-76.742	0.063	0.022
-338.318	327.319	0.094	0.178
-337.304	62.115	-0.108	-0.106
-336.289	-200.000	0.007	0.106
-335.275	-85.033	-0.146	-0.045
-334.260	97.134	-0.009	-0.010
-333.245	122.347	0.155	-0.191
-332.231	-138.341	0.068	0.007
-331.216	147.082	0.187	0.249
-330.202	800.000	-0.031	-0.086
-329.187	-56.564	0.355	-0.156
-328.172	-98.672	0.204	-0.051
-327.158	-115.839	-0.178	0.033
-326.143	192.582	-0.032	0.049
-325.129	-105.467	-0.181	-0.041
-324.114	-153.937	-0.145	0.010
-323.099	296.226	-0.137	0.249
-322.085	-200.000	0.075	-0.374
-321.070	-200.000	0.016	-0.155
-320.056	-18.352	0.134	0.083
-319.041	15.839	-0.167	-0.130
-318.026	-165.260	0.333	0.015
-317.012	-200.000	0.019	-0.212
-315.997	273.113	-0.102	-0.179
-314.983	-52.134	0.415	0.190
-313.968	249.273	-0.263	0.441
-312.953	208.116	-0.085	0.132
-311.939	100.576	0.030	-0.034
-310.924	-49.083	-0.031	-0.015
-309.910	-142.621	0.202	0.020
-308.895	800.000	0.139	0.450
-307.880	21.742	-0.141	0.114
-306.866	33.613	0.197	-0.170
-305.851	-131.261	0.145	-0.019
-304.837	-145.414	-0.162	-0.014
-303.822	-20.921	0.123	0.075
-302.807	131.863	-0.102	0.130
-301.793	415.392	-0.150	0.315
-300.778	-28.882	0.116	-0.066
-299.764	-200.000	-0.036	0.235
-298.749	-200.000	0.036	-0.171
-297.735	6.327	0.321	-0.236
-296.720	338.210	0.108	0.208
-295.705	142.819	-0.117	-0.154
-294.691	-17.188	-0.225	-0.140
-293.676	-119.137	0.173	-0.030
-292.662	-110.196	-0.081	-0.017
-291.647	-200.000	-0.040	0.208
-290.632	675.669	-0.108	0.278
-289.618	-45.566	-0.063	0.031
-288.603	93.884	0.156	0.175
-287.589	-200.000	0.008	0.205
-286.574	329.424	0.037	-0.070
-285.559	-36.626	0.115	0.061
-284.545	-48.968	0.219	-0.104
-283.530	-10.950	-0.171	0.111
-282.516	-23.818	-0.104	-0.062
-281.501	-79.883	0.114	0.038
-280.486	-64.785	0.034	-0.014
-279.472	21.110	0.189	0.152
-278.457	-34.981	0.329	-0.177
-277.443	-57.685	-0.039	-0.017
-276.428	-40.436	-0.109	0.056
-275.413	800.000	0.076	-0.317
-274.399	-95.463	0.381	-0.101
-273.384	29.560	0.221	-0.185
-272.370	-200.000	0.039	-0.361
-271.355	-102.381	-0.346	-0.082
-270.340	454.898	0.173	-0.378
-269.326	-200.000	0.017	-0.335
-268.311	232.022	-0.089	0.144
-267.297	-130.362	-0.262	-0.035
-266.282	-200.000	0.025	-0.222
-265.267	687.202	0.045	0.117
-264.253	-200.000	-0.016	-0.084
-263.238	-200.000	0.003	-0.210
-262.224	-76.816	0.148	-0.051
-261.209	-68.507	-0.234	0.090
-260.195	264.305	-0.155	0.267
-259.180	-114.090	0.076	0.015
-258.165	-106.043	0.211	-0.047
-257.151	-200.000	-0.027	0.129
-256.136	644.861	0.061	-0.155
-255.122	-200.000	0.042	-0.192
-254.107	188.651	-0.078	0.115
-253.092	692.001	0.096	0.248
-252.078	-139.332	-0.182	0.019
-251.063	-93.853	-0.204	0.055
-250.049	-200.000	-0.026	0.303
-249.034	-91.529	0.186	-0.052
-248.019	525.177	0.095	0.220
-247.005	-86.146	0.263	0.080
-245.990	49.896	0.225	0.209
-244.976	86.748	-0.201	0.218
-243.961	-134.022	0.048	0.006
-242.946	-78.736	-0.053	-0.018
-241.932	-200.000	0.013	0.078
-240.917	-200.000	0.524	-0.002
-239.903	-200.000	-0.006	-0.049
-238.888	-200.000	0.052	-0.272
-237.873	26.207	0.211	0.174
-236.859	47.559	0.202	-0.186
-235.844	-114.404	0.147	0.028
-234.830	-200.000	0.038	-0.351
-233.815	77.658	0.074	0.077
-232.800	-78.175	-0.289	-0.098
-231.786	800.000	-0.079	-0.277
-230.771	-29.555	-0.196	-0.110
-229.757	37.598	0.140	-0.122
-228.742	86.802	0.491	0.534
-227.727	-78.515	-0.454	0.153
-226.713	219.275	-0.093	0.147
-225.698	140.337	0.263	-0.342
-224.684	-200.000	-0.001	0.183
-223.669	96.384	0.172	0.194
-222.655	-89.816	-0.149	0.043
-221.640	77.543	-0.082	0.086
-220.625	-200.000	0.011	-0.135
-219.611	111.133	0.185	0.220
-218.596	246.767	-0.178	-0.296
-217.582	31.011	-0.016	0.014
-216.567	-30.996	-0.105	-0.058
-215.552	-200.000	-0.001	0.047
-214.538	-182.852	0.328	-0.006
-213.523	120.984	0.091	-0.111
-212.509	-118.231	0.390	-0.068
-211.494	-80.050	-0.180	-0.060
-210.479	502.215	-0.120	-0.272
-209.465	433.524	-0.102	-0.217
-208.450	207.346	-0.127	0.196
-207.436	-200.000	0.023	0.114
-206.421	613.128	0.148	0.366
-205.406	46.360	-0.177	-0.161
-204.392	-80.768	-0.148	0.049
-203.377	-200.000	0.072	0.366
-202.363	-162.874	0.068	0.003
-201.348	54.513	0.144	0.136
-200.333	-200.000	0.023	0.188
-199.319	-72.587	0.125	-0.046
-198.304	-200.000	0.064	-0.360
-197.290	348.068	0.201	0.390
-196.275	-98.987	0.155	0.039
-195.260	-12.183	-0.340	0.219
-194.246	-200.000	-0.014	-0.076
-193.231	-6.100	0.071	0.048
-192.217	178.552	0.044	-0.063
-191.202	23.098	-0.221	-0.178
-190.187	27.151	0.029	0.024
-189.173	401.778	0.154	0.319
-188.158	-11.187	0.042	0.027
-187.144	-26.571	-0.113	0.065
-186.129	178.260	0.126	0.181
-185.114	644.722	0.138	0.346
-184.100	39.369	-0.234	-0.206
-183.085	30.446	-0.095	0.080
-182.071	175.248	-0.009	0.014
-181.056	-109.688	0.088	0.018
-180.042	209.523	-0.150	-0.232
-179.027	159.819	0.159	0.219
-178.012	-76.582	-0.412	-0.142
-176.998	-28.480	0.475	-0.269
-175.983	-1.871	-0.167	0.116
-174.969	447.809	0.128	0.276
-173.954	800.000	0.028	-0.078
-172.939	-35.699	-0.229	-0.122
-171.925	-111.871	0.385	0.076
-170.910	-27.785	-0.152	0.087
-169.896	417.940	-0.030	-0.063
-168.881	109.571	0.210	-0.248
-167.866	136.760	-0.034	-0.044
-166.852	1.005	-0.210	-0.148
-165.837	-128.092	-0.167	0.023
-164.823	46.696	-0.018	0.017
-163.808	-200.000	0.019	-0.200
-162.793	-200.000	-0.008	-0.191
-161.779	800.000	-0.050	-0.150
-160.764	221.098	0.258	0.408
-159.750	152.352	0.192	0.258
-158.735	42.119	0.175	-0.156
-157.720	-200.000	0.016	-0.212
-156.706	-141.067	-0.354	-0.036
-155.691	-84.078	-0.067	-0.021
-154.677	-92.633	0.055	-0.015
-153.662	-200.000	0.035	-0.430
-152.647	40.166	-0.288	0.254
-151.633	-27.173	-0.392	0.225
-150.618	-37.882	0.210	0.110
-149.604	205.985	0.159	-0.244
-148.589	-200.000	0.033	-0.234
-147.574	138.955	0.128	-0.165
-146.560	-200.000	-0.015	-0.203
-145.545	170.913	-0.205	-0.289
-144.531	562.898	-0.037	-0.088
-143.516	30.137	-0.126	0.106
-142.502	-29.182	-0.151	0.085
-141.487	226.019	0.217	-0.345
-140.472	297.918	0.142	0.256
-139.458	755.112	-0.124	0.329
-138.443	-109.642	0.425	0.088
-137.429	-21.679	0.084	0.050
-136.414	74.137	-0.156	-0.161
-135.399	-200.000	-0.013	0.193
-134.385	114.015	0.085	0.101
-133.370	-200.000	-0.046	0.440
-132.356	-70.219	0.349	0.130
-131.341	281.216	0.115	0.203
-130.326	132.677	-0.174	-0.220
-129.312	-59.748	0.232	0.098
-128.297	-200.000	-0.004	0.070
-127.283	-200.000	-0.064	0.406
-126.268	12.816	0.240	0.182
-125.253	-53.946	-0.085	-0.038
-124.239	-35.969	0.128	-0.068
-123.224	800.000	0.077	-0.294
-122.210	-200.000	0.025	-0.366
-121.195	-2.481	0.156	-0.107
