DTS Sentinel unit serial number:	SN413079Multiplexer serial number:	ORYXHardware model number:	OX4-SRSoftware version number:	ORYX F/W v4.00 Oryx Data Collector v3.7.2.0data status	okinstallation	princeton_trtdifferential loss correction	single-endedforward channel	channel 1reverse channel	N/Adate	2019/09/12time	16:16:11forward acquisition time	60.00reverse acquisition time	0.00gamma	496.2192k internal	0.2301k external	0.2301temperature offset calibration	1.0085default loss term (dB/km)	0.3790temperature slope calibration	1.0000multiplexer offset coefficient	1.0000multiplexer slope coefficient	1.0000fibre end	0.00T internal ref (°C)	38.14T ext. ref 1 (°C)	2.54T ext. ref 2 (°C)	30.85length (m)	temperature (°C)	Stokes	anti-Stokes-747.200	800.000	0.034	-0.102
-746.185	-77.991	-0.258	0.091
-745.171	-106.499	0.281	0.064
-744.156	-31.133	0.213	0.122
-743.142	-200.000	0.043	0.331
-742.127	72.497	0.143	0.152
-741.112	151.018	0.051	-0.070
-740.098	449.247	-0.211	0.475
-739.083	156.914	0.066	0.093
-738.069	-157.002	0.248	0.015
-737.054	327.437	0.136	-0.265
-736.039	308.682	0.121	0.230
-735.025	107.279	0.064	-0.078
-734.010	-124.006	-0.284	0.046
-732.996	95.356	0.110	0.128
-731.981	-121.988	-0.064	-0.011
-730.966	21.940	-0.119	0.099
-729.952	-199.574	0.363	-0.002
-728.937	-65.515	0.246	0.101
-727.923	-136.024	-0.208	-0.025
-726.908	-66.265	-0.217	0.088
-725.894	-117.008	-0.236	0.044
-724.879	800.000	0.080	-0.327
-723.864	800.000	0.033	-0.132
-722.850	65.807	-0.107	0.110
-721.835	800.000	-0.065	-0.273
-720.821	-105.370	-0.433	0.100
-719.806	800.000	0.038	-0.118
-718.791	-41.680	-0.257	-0.134
-717.777	-14.875	-0.200	-0.130
-716.762	51.527	0.369	0.357
-715.748	28.784	0.129	-0.111
-714.733	-200.000	-0.039	-0.347
-713.718	664.480	-0.080	0.211
-712.704	800.000	-0.044	-0.135
-711.689	241.978	-0.088	0.150
-710.675	-53.349	-0.069	-0.032
-709.660	-200.000	-0.004	-0.068
-708.645	-200.000	-0.028	-0.137
-707.631	431.286	-0.163	-0.358
-706.616	-200.000	0.020	-0.369
-705.602	800.000	0.090	-0.354
-704.587	-166.787	0.594	0.025
-703.572	-200.000	-0.010	-0.218
-702.558	-106.847	0.486	0.110
-701.543	-11.627	-0.245	-0.164
-700.529	-120.683	-0.203	0.035
-699.514	659.256	-0.196	-0.514
-698.499	-33.236	-0.151	0.085
-697.485	-73.034	-0.072	-0.027
-696.470	800.000	0.034	-0.153
-695.456	22.570	-0.333	0.277
-694.441	78.447	0.163	0.177
-693.426	271.049	-0.253	0.454
-692.412	109.561	0.159	0.194
-691.397	258.219	-0.022	0.038
-690.383	9.160	-0.151	-0.116
-689.368	-96.965	-0.353	0.094
-688.354	-98.316	0.362	0.095
-687.339	-170.844	0.208	-0.007
-686.324	-17.694	-0.242	0.154
-685.310	800.000	-0.021	-0.093
-684.295	-88.673	-0.132	-0.040
-683.281	-96.930	-0.240	-0.064
-682.266	800.000	-0.036	0.129
-681.251	-200.000	0.019	-0.103
-680.237	138.609	0.210	0.280
-679.222	800.000	-0.080	0.297
-678.208	-55.847	0.321	-0.146
-677.193	-95.154	0.083	0.023
-676.178	800.000	0.005	0.019
-675.164	-59.874	-0.147	-0.064
-674.149	-22.389	0.170	-0.105
-673.135	-200.000	0.012	0.210
-672.120	-94.683	-0.406	0.112
-671.105	-23.859	0.160	0.097
-670.091	-200.000	0.047	0.398
-669.076	-115.374	-0.155	-0.030
-668.062	-200.000	0.066	-0.462
-667.047	-172.602	0.098	0.003
-666.032	-42.353	0.206	-0.107
-665.018	-200.000	-0.014	-0.101
-664.003	14.069	-0.160	0.126
-662.989	111.093	-0.152	0.186
-661.974	12.886	0.406	0.319
-660.959	80.267	-0.255	0.279
-659.945	87.485	0.080	0.090
-658.930	-132.893	0.492	-0.064
-657.916	800.000	-0.078	-0.289
-656.901	80.688	0.146	-0.159
-655.886	800.000	0.020	-0.083
-654.872	-183.269	-0.140	-0.003
-653.857	-51.866	0.081	-0.038
-652.843	98.050	-0.155	-0.181
-651.828	800.000	0.120	0.391
-650.814	800.000	0.030	0.106
-649.799	-0.813	-0.161	0.116
-648.784	-65.283	0.354	-0.145
-647.770	-65.752	-0.259	-0.105
-646.755	131.064	-0.140	-0.182
-645.741	-94.615	-0.375	0.104
-644.726	-200.000	0.057	-0.361
-643.711	-120.867	-0.284	-0.049
-642.697	169.299	0.052	-0.075
-641.682	265.316	0.043	0.077
-640.668	-40.940	-0.176	0.092
-639.653	167.176	-0.190	0.273
-638.638	15.863	0.032	-0.026
-637.624	-110.761	-0.159	0.033
-636.609	546.124	-0.058	-0.140
-635.595	-200.000	0.036	-0.165
-634.580	-28.730	0.217	-0.127
-633.565	-54.699	-0.297	0.136
-632.551	503.096	-0.246	-0.577
-631.536	27.829	0.127	0.108
-630.522	455.778	0.080	0.180
-629.507	-15.464	-0.172	-0.112
-628.492	800.000	-0.018	-0.077
-627.478	-200.000	0.030	-0.268
-626.463	150.806	-0.158	-0.218
-625.449	363.348	-0.086	-0.175
-624.434	62.884	-0.143	-0.145
-623.419	134.591	0.263	0.346
-622.405	-29.973	0.140	-0.081
-621.390	-34.614	-0.254	-0.141
-620.376	-11.639	-0.082	-0.055
-619.361	-200.000	-0.038	-0.237
-618.346	-200.000	0.055	-0.340
-617.332	-146.623	0.243	0.021
-616.317	-153.323	-0.143	0.010
-615.303	-17.221	0.062	-0.040
-614.288	305.407	-0.077	-0.146
-613.273	-200.000	0.022	-0.194
-612.259	83.641	-0.274	-0.303
-611.244	10.417	-0.520	-0.402
-610.230	-59.131	0.168	-0.073
-609.215	-200.000	-0.002	-0.013
-608.201	800.000	0.066	-0.247
-607.186	-110.529	-0.078	0.016
-606.171	132.908	0.092	-0.120
-605.157	307.460	-0.211	-0.398
-604.142	800.000	0.055	0.202
-603.128	-50.729	-0.077	0.037
-602.113	-200.000	-0.004	0.175
-601.098	-93.598	0.251	0.070
-600.084	157.157	0.154	-0.217
-599.069	-157.791	-0.503	-0.030
-598.055	5.818	-0.395	0.296
-597.040	97.851	0.130	-0.152
-596.025	129.018	0.127	0.165
-595.011	-160.567	0.370	-0.020
-593.996	-77.349	0.172	0.061
-592.982	104.625	-0.051	-0.061
-591.967	-200.000	0.050	0.307
-590.952	-99.133	0.416	0.107
-589.938	-21.178	-0.276	-0.171
-588.923	800.000	-0.039	0.141
-587.909	-104.831	-0.360	0.084
-586.894	265.255	-0.061	-0.108
-585.879	-7.168	0.370	0.254
-584.865	800.000	0.046	-0.151
-583.850	43.900	-0.134	-0.125
-582.836	177.293	0.078	-0.114
-581.821	-200.000	0.012	-0.169
-580.806	-91.234	0.082	-0.024
-579.792	-19.438	-0.261	0.164
-578.777	-83.836	0.418	-0.135
-577.763	-94.975	0.248	0.068
-576.748	-146.260	-0.132	-0.012
-575.733	25.945	0.101	0.085
-574.719	-200.000	0.045	0.219
-573.704	-139.278	0.459	-0.050
-572.690	-200.000	0.002	-0.144
-571.675	30.201	0.188	0.162
-570.661	-200.000	0.025	0.204
-569.646	-200.000	0.049	-0.240
-568.631	-21.766	0.118	0.073
-567.617	53.225	0.105	0.102
-566.602	-200.000	0.036	0.325
-565.588	794.645	-0.111	0.310
-564.573	-74.420	0.227	0.083
-563.558	129.980	-0.078	-0.101
-562.544	-118.075	0.112	0.020
-561.529	-106.612	0.117	0.026
-560.515	146.288	-0.149	0.202
-559.500	-75.644	0.045	0.016
-558.485	800.000	0.092	-0.277
-557.471	-114.859	0.161	-0.031
-556.456	-200.000	0.044	0.209
-555.442	42.773	-0.183	-0.168
-554.427	16.958	-0.204	-0.164
-553.412	-145.051	0.270	-0.025
-552.398	-12.643	-0.142	0.094
-551.383	64.764	0.104	0.106
-550.369	676.553	0.066	-0.172
-549.354	92.011	0.146	0.166
-548.339	30.971	-0.092	0.080
-547.325	22.513	0.215	0.178
-546.310	-200.000	-0.035	-0.238
-545.296	-200.000	0.068	0.454
-544.281	-68.267	-0.012	-0.005
-543.266	15.653	0.200	-0.159
-542.252	800.000	0.106	-0.335
-541.237	0.189	0.256	0.185
-540.223	-96.846	0.266	-0.071
-539.208	-128.477	0.143	0.021
-538.193	238.758	0.085	0.142
-537.179	-200.000	-0.013	0.467
-536.164	-19.105	0.242	0.152
-535.150	-168.179	-0.277	0.011
-534.135	36.336	-0.249	-0.222
-533.121	613.198	-0.106	-0.267
-532.106	-70.258	0.097	0.037
-531.091	129.394	0.123	0.159
-530.077	-200.000	-0.013	0.137
-529.062	200.630	-0.132	0.205
-528.048	-131.037	0.168	-0.023
-527.033	52.781	0.161	0.155
-526.018	30.683	0.133	-0.115
-525.004	335.550	0.134	-0.263
-523.989	636.628	0.137	0.353
-522.975	83.828	-0.139	0.153
-521.960	800.000	-0.021	-0.085
-520.945	302.006	-0.063	0.117
-519.931	800.000	0.055	0.207
-518.916	-196.108	0.024	0.000
-517.902	335.554	0.073	0.144
-516.887	48.106	-0.070	-0.066
-515.872	800.000	0.062	-0.187
-514.858	-42.854	0.139	0.071
-513.843	-200.000	-0.030	0.149
-512.829	212.226	0.065	0.104
-511.814	-182.178	0.314	0.006
-510.799	45.008	0.157	0.146
-509.785	8.688	0.215	0.164
-508.770	109.806	-0.095	0.115
-507.756	31.906	0.114	-0.099
-506.741	-200.000	0.013	0.133
-505.726	209.488	-0.236	-0.374
-504.712	-67.910	-0.220	0.087
-503.697	80.109	-0.020	0.022
-502.683	-184.581	-0.271	-0.004
-501.668	800.000	0.028	0.100
-500.653	-200.000	-0.046	-0.359
-499.639	90.292	-0.235	-0.265
-498.624	-200.000	-0.008	-0.092
-497.610	-13.313	0.038	0.025
-496.595	685.972	0.112	-0.296
-495.581	-38.102	-0.154	-0.082
-494.566	203.696	-0.083	0.129
-493.551	239.663	0.124	-0.208
-492.537	155.431	0.136	-0.189
-491.522	-163.913	0.223	-0.011
-490.508	228.913	-0.069	-0.114
-489.493	-55.411	-0.501	-0.227
-488.478	38.983	-0.231	-0.208
-487.464	9.110	-0.210	-0.160
-486.449	-200.000	0.031	-0.164
-485.435	-63.771	0.400	-0.165
-484.420	-95.685	-0.117	0.031
-483.405	-200.000	-0.046	0.228
-482.391	82.722	-0.067	0.073
-481.376	625.510	0.036	-0.093
-480.362	-55.890	-0.118	0.053
-479.347	414.530	-0.063	0.135
-478.332	-50.125	0.146	-0.070
-477.318	-0.325	-0.138	-0.099
-476.303	78.941	-0.226	-0.244
-475.289	-186.732	0.187	-0.003
-474.274	-29.144	-0.226	0.131
-473.259	-67.228	0.120	-0.047
-472.245	-52.446	-0.017	0.008
-471.230	-200.000	-0.032	-0.144
-470.216	-147.227	-0.168	0.014
-469.201	-113.276	0.218	-0.043
-468.186	47.178	-0.179	0.168
-467.172	-200.000	0.014	0.155
-466.157	-200.000	-0.023	-0.171
-465.143	800.000	-0.031	-0.125
-464.128	195.992	0.019	-0.029
-463.113	705.192	-0.146	0.389
-462.099	22.684	-0.357	0.295
-461.084	-53.601	0.309	0.143
-460.070	447.852	-0.095	0.211
-459.055	374.516	0.055	-0.114
-458.040	131.592	-0.172	0.223
-457.026	102.494	-0.021	-0.025
-456.011	-37.637	0.086	0.046
-454.997	14.692	0.058	0.045
-453.982	-138.015	0.074	-0.008
-452.968	-200.000	-0.020	0.093
-451.953	-42.096	-0.149	0.077
-450.938	-52.663	0.128	-0.059
-449.924	-131.940	0.324	0.043
-448.909	276.581	0.077	-0.139
-447.895	605.004	0.058	0.147
-446.880	-200.000	0.048	-0.254
-445.865	-72.849	-0.283	0.105
-444.851	-82.024	0.243	0.080
-443.836	-89.764	-0.358	0.106
-442.822	-134.131	-0.227	-0.028
-441.807	-120.619	-0.447	0.076
-440.792	-160.225	0.288	-0.016
-439.778	359.443	0.183	0.370
-438.763	-97.882	-0.134	0.035
-437.749	-200.000	-0.049	0.309
-436.734	-82.141	0.216	-0.071
-435.719	-39.637	-0.398	-0.210
-434.705	-192.253	0.479	-0.005
-433.690	800.000	-0.043	-0.133
-432.676	-200.000	-0.025	-0.309
-431.661	-200.000	0.013	-0.096
-430.646	-200.000	-0.006	-0.375
-429.632	196.897	-0.156	0.240
-428.617	-200.000	-0.011	0.266
-427.603	-200.000	0.073	0.375
-426.588	-15.687	-0.074	-0.047
-425.573	293.181	-0.094	-0.172
-424.559	-47.807	-0.324	-0.158
-423.544	-59.241	-0.164	-0.071
-422.530	-200.000	0.029	0.340
-421.515	-55.848	0.086	0.038
-420.500	-200.000	0.000	0.130
-419.486	-103.515	-0.258	-0.061
-418.471	-73.897	-0.311	-0.114
-417.457	800.000	0.082	-0.270
-416.442	-152.426	-0.123	0.009
-415.428	384.249	0.040	0.082
-414.413	13.690	0.252	0.197
-413.398	-200.000	-0.014	-0.175
-412.384	-200.000	-0.028	0.179
-411.369	-36.846	0.208	-0.112
-410.355	330.673	0.123	0.239
-409.340	800.000	-0.018	0.060
-408.325	-64.588	-0.321	0.131
-407.311	53.532	0.026	0.025
-406.296	-129.862	0.198	0.027
-405.282	32.697	0.171	0.149
-404.267	-7.072	0.127	-0.087
-403.252	-54.629	0.098	0.044
-402.238	800.000	-0.079	-0.266
-401.223	-200.000	-0.010	0.167
-400.209	93.806	-0.197	-0.225
-399.194	-200.000	-0.035	-0.216
-398.179	390.765	0.161	0.337
-397.165	800.000	0.086	0.314
-396.150	800.000	0.039	0.168
-395.136	-74.509	-0.086	0.031
-394.121	703.342	-0.033	0.088
-393.106	19.825	0.237	-0.192
-392.092	11.181	-0.139	-0.107
-391.077	-107.870	-0.188	-0.041
-390.063	-143.184	0.202	-0.020
-389.048	76.437	-0.231	0.247
-388.033	116.125	-0.095	-0.117
-387.019	-7.043	0.399	-0.272
-386.004	-79.719	-0.288	0.098
-384.990	146.702	0.170	-0.229
-383.975	-200.000	-0.003	0.346
-382.960	-17.447	-0.157	-0.099
-381.946	-200.000	0.002	-0.103
-380.931	800.000	-0.008	-0.032
-379.917	38.940	0.036	0.032
-378.902	800.000	0.061	-0.170
-377.888	487.576	-0.211	0.485
-376.873	5.355	0.306	0.227
-375.858	331.937	-0.094	-0.182
-374.844	800.000	0.075	-0.212
-373.829	181.060	-0.160	0.236
-372.815	-133.482	-0.083	-0.011
-371.800	-200.000	0.005	0.156
-370.785	-200.000	0.038	-0.223
-369.771	800.000	0.054	0.182
-368.756	457.818	0.099	-0.222
-367.742	-200.000	-0.043	-0.253
-366.727	-200.000	-0.024	0.118
-365.712	29.916	-0.212	0.182
-364.698	-22.602	-0.456	-0.277
-363.683	-82.692	0.275	0.089
-362.669	-96.311	-0.360	0.096
-361.654	9.219	-0.199	-0.151
-360.639	-12.071	0.322	-0.212
-359.625	796.200	0.091	0.251
-358.610	169.704	0.076	0.110
-357.596	10.590	0.097	0.074
-356.581	-200.000	0.054	-0.298
-355.566	800.000	0.119	-0.360
-354.552	-162.302	-0.199	0.010
-353.537	34.667	0.279	0.245
-352.523	-200.000	0.025	-0.200
-351.508	-13.167	0.061	0.040
-350.493	800.000	0.101	-0.323
-349.479	-164.996	-0.103	-0.005
-348.464	-200.000	-0.025	0.129
-347.450	44.208	0.260	0.240
-346.435	262.787	-0.262	0.457
-345.420	489.304	-0.016	-0.036
-344.406	-29.602	-0.097	0.055
-343.391	379.271	-0.101	0.207
-342.377	-130.387	0.317	0.043
-341.362	123.950	-0.272	-0.343
-340.348	201.765	-0.105	-0.163
-339.333	-200.000	0.043	-0.502
-338.318	-200.000	0.029	0.423
-337.304	800.000	0.032	0.130
-336.289	-200.000	0.010	-0.259
-335.275	-128.270	0.336	0.048
-334.260	-82.767	0.054	-0.018
-333.245	-74.892	-0.209	-0.075
-332.231	483.750	0.101	0.230
-331.216	-110.906	0.373	0.077
-330.202	147.169	0.099	-0.133
-329.187	800.000	-0.080	0.324
-328.172	65.626	0.125	-0.127
-327.158	414.410	-0.080	0.170
-326.143	159.068	0.136	0.190
-325.129	-200.000	0.047	0.392
-324.114	3.657	0.261	0.191
-323.099	113.019	-0.079	-0.096
-322.085	-155.248	0.181	-0.012
-321.070	-41.120	-0.055	-0.029
-320.056	-15.266	0.337	-0.216
-319.041	-14.459	-0.297	-0.191
-318.026	-50.576	-0.207	-0.098
-317.012	-87.805	0.133	-0.040
-315.997	-34.239	0.255	0.141
-314.983	-32.848	-0.331	-0.185
-313.968	8.622	0.210	0.158
-312.953	234.718	0.268	0.443
-311.939	-12.506	0.164	0.107
-310.924	313.772	0.041	0.078
-309.910	88.961	-0.178	-0.199
-308.895	-71.930	0.339	-0.127
-307.880	87.182	0.141	0.156
-306.866	800.000	0.006	0.027
-305.851	362.882	-0.088	0.176
-304.837	-200.000	0.038	-0.326
-303.822	134.050	0.121	0.158
-302.807	289.784	0.136	-0.247
-301.793	-29.033	-0.153	0.088
-300.778	-82.429	-0.222	-0.072
-299.764	-68.917	-0.411	-0.159
-298.749	34.455	0.089	0.078
-297.735	185.674	-0.112	0.167
-296.720	-116.560	0.145	-0.027
-295.705	15.415	0.164	-0.129
-294.691	-7.203	0.348	-0.236
-293.676	-116.324	-0.228	-0.042
-292.662	-200.000	-0.029	-0.139
-291.647	353.513	-0.017	0.034
-290.632	14.760	-0.219	0.172
-289.618	291.183	-0.130	0.237
-288.603	-26.872	-0.526	0.308
-287.589	-200.000	0.046	0.211
-286.574	800.000	-0.009	0.030
-285.559	149.749	0.193	-0.262
-284.545	-200.000	-0.031	-0.189
-283.530	-200.000	0.087	0.565
-282.516	41.678	-0.112	-0.101
-281.501	-102.280	-0.261	0.063
-280.486	141.723	0.076	-0.101
-279.472	112.695	-0.021	-0.026
-278.457	155.299	0.100	0.138
-277.443	-200.000	0.030	-0.221
-276.428	104.022	-0.146	-0.172
-275.413	-2.313	0.253	-0.178
-274.399	-136.223	-0.136	-0.016
-273.384	-170.987	-0.231	0.008
-272.370	-139.241	-0.173	-0.019
-271.355	-200.000	0.069	-0.372
-270.340	-66.009	0.126	0.050
-269.326	-200.000	-0.004	0.269
-268.311	-151.280	-0.256	0.019
-267.297	-12.059	0.147	-0.096
-266.282	344.193	-0.141	0.276
-265.267	800.000	0.061	-0.173
-264.253	194.282	0.029	-0.043
-263.238	-68.475	-0.126	-0.049
-262.224	-88.701	-0.319	-0.095
-261.209	800.000	0.138	0.415
-260.195	-124.192	-0.224	-0.035
-259.180	800.000	-0.077	0.332
-258.165	391.042	0.161	0.334
-257.151	-153.709	-0.233	-0.016
-256.136	-200.000	-0.018	-0.096
-255.122	-123.074	-0.213	0.034
-254.107	-109.481	0.253	0.053
-253.092	-136.251	0.228	0.027
-252.078	614.657	0.149	-0.373
-251.063	53.018	-0.117	0.112
-250.049	-67.295	-0.355	0.140
-249.034	37.563	-0.182	-0.161
-248.019	-200.000	0.015	0.327
-247.005	310.557	-0.014	0.027
-245.990	149.983	-0.210	-0.285
-244.976	800.000	-0.085	-0.294
-243.961	80.923	0.069	0.074
-242.946	800.000	-0.018	-0.053
-241.932	53.116	-0.123	0.118
-240.917	30.926	-0.129	-0.111
-239.903	800.000	-0.153	-0.482
-238.888	-200.000	0.042	-0.419
-237.873	14.399	0.354	0.276
-236.859	800.000	-0.066	0.279
-235.844	-110.736	-0.224	-0.046
-234.830	92.338	-0.066	-0.074
-233.815	2.107	0.147	0.106
-232.800	-29.949	0.139	-0.079
-231.786	-66.375	0.411	-0.163
-230.771	28.228	-0.147	-0.124
-229.757	85.510	-0.210	0.231
-228.742	95.700	0.330	-0.377
-227.727	72.567	-0.019	-0.020
-226.713	37.199	0.121	-0.107
-225.698	-200.000	0.038	0.220
-224.684	-119.332	0.322	-0.056
-223.669	-200.000	0.059	-0.291
-222.655	139.723	-0.036	0.047
-221.640	-72.264	-0.161	-0.060
-220.625	-200.000	-0.034	-0.185
-219.611	54.304	0.215	0.207
-218.596	-200.000	-0.062	-0.319
-217.582	-200.000	0.020	0.122
-216.567	408.212	0.103	0.218
-215.552	800.000	0.114	0.396
-214.538	-200.000	-0.027	0.276
-213.523	-200.000	-0.018	-0.090
-212.509	8.481	-0.110	-0.083
-211.494	-160.119	0.287	-0.016
-210.479	800.000	0.013	0.037
-209.465	670.897	-0.096	0.249
-208.450	276.175	-0.076	-0.135
-207.436	-97.305	-0.338	0.088
-206.421	-148.699	-0.262	0.021
-205.406	433.527	0.146	-0.316
-204.392	145.592	-0.042	0.056
-203.377	-18.881	0.078	-0.048
-202.363	-29.565	-0.294	0.167
-201.348	-134.443	-0.103	-0.013
-200.333	-200.000	-0.022	0.127
-199.319	-200.000	0.038	-0.245
-198.304	-200.000	-0.002	0.064
-197.290	-14.898	-0.285	0.182
-196.275	-36.259	0.127	-0.068
-195.260	17.874	0.221	-0.176
-194.246	-129.730	0.425	-0.058
-193.231	239.720	-0.051	-0.085
-192.217	-121.360	-0.045	-0.008
-191.202	-131.500	0.193	-0.025
-190.187	-131.069	0.281	-0.037
-189.173	144.961	0.024	0.032
-188.158	410.727	-0.040	0.086
-187.144	-105.119	-0.092	0.021
-186.129	800.000	-0.082	0.293
-185.114	-124.293	-0.249	0.039
-184.100	-200.000	0.059	-0.273
-183.085	741.170	0.067	-0.181
-182.071	-20.007	-0.164	-0.101
-181.056	66.618	0.200	0.203
-180.042	22.321	0.172	-0.140
-179.027	800.000	-0.067	-0.246
-178.012	439.888	0.109	-0.237
-176.998	800.000	0.046	-0.129
-175.983	96.198	0.318	-0.363
-174.969	-6.178	-0.153	-0.104
-173.954	-21.286	-0.145	-0.088
-172.939	-21.250	-0.040	0.025
-171.925	-200.000	0.006	0.102
-170.910	-148.385	0.180	0.015
-169.896	-192.113	0.184	-0.002
-168.881	-124.822	0.203	0.031
-167.866	-200.000	-0.048	0.484
-166.852	368.344	-0.132	-0.267
-165.837	731.622	0.147	0.391
-164.823	-179.289	-0.525	0.012
-163.808	-103.479	-0.505	0.118
-162.793	-200.000	0.047	0.212
-161.779	800.000	-0.021	-0.071
-160.764	-9.938	-0.124	-0.082
-159.750	-9.573	0.075	0.050
-158.735	-18.269	0.101	0.063
-157.720	-200.000	-0.037	-0.172
-156.706	180.746	0.179	0.261
-155.691	-200.000	0.038	0.172
-154.677	-200.000	0.001	0.022
-153.662	150.003	0.088	0.119
-152.647	740.748	0.123	0.328
-151.633	-91.681	0.212	0.060
-150.618	-113.789	0.152	-0.030
-149.604	-67.400	-0.358	0.140
-148.589	-200.000	-0.016	-0.310
-147.574	-200.000	-0.001	0.018
-146.560	-200.000	0.011	-0.063
-145.545	-13.486	0.231	0.149
-144.531	800.000	0.056	0.194
-143.516	401.549	-0.122	-0.255
-142.502	-14.526	-0.148	0.095
-141.487	-79.710	-0.169	0.057
-140.472	66.792	0.070	-0.071
-139.458	-157.378	0.139	0.008
-138.443	-96.492	0.251	0.066
-137.429	152.894	-0.112	-0.153
-136.414	501.331	-0.146	-0.335
-135.399	-200.000	0.009	-0.107
-134.385	800.000	0.005	-0.020
-133.370	-200.000	-0.066	0.378
-132.356	86.785	0.163	0.179
-131.341	-164.909	0.136	-0.006
-130.326	800.000	-0.052	-0.151
-129.312	-66.301	0.040	-0.016
-128.297	60.257	0.207	0.204
-127.283	-200.000	0.010	0.105
-126.268	99.782	-0.228	-0.262
-125.253	26.274	0.116	0.097
-124.239	-200.000	-0.050	0.243
-123.224	-200.000	-0.008	-0.167
-122.210	-200.000	-0.036	-0.170
-121.195	-200.000	-0.007	0.106
