DTS Sentinel unit serial number:	SN413079Multiplexer serial number:	ORYXHardware model number:	OX4-SRSoftware version number:	ORYX F/W v4.00 Oryx Data Collector v3.7.2.0data status	okinstallation	princeton_trtdifferential loss correction	single-endedforward channel	channel 1reverse channel	N/Adate	2019/09/15time	10:38:35forward acquisition time	60.00reverse acquisition time	0.00gamma	496.2192k internal	0.2309k external	0.2309temperature offset calibration	0.9986default loss term (dB/km)	0.3790temperature slope calibration	1.0000multiplexer offset coefficient	1.0000multiplexer slope coefficient	1.0000fibre end	0.00T internal ref (°C)	34.25T ext. ref 1 (°C)	5.03T ext. ref 2 (°C)	29.64length (m)	temperature (°C)	Stokes	anti-Stokes-747.200	326.685	-0.086	-0.167
-746.185	54.350	0.218	-0.214
-745.171	-60.789	-0.140	-0.060
-744.156	800.000	-0.074	0.248
-743.142	-53.672	-0.268	0.124
-742.127	-200.000	-0.008	0.561
-741.112	-200.000	-0.101	0.488
-740.098	494.826	-0.113	0.264
-739.083	36.340	0.097	-0.087
-738.069	198.355	-0.098	-0.152
-737.054	-58.329	-0.242	-0.107
-736.039	-148.449	-0.296	-0.025
-735.025	177.460	0.053	0.078
-734.010	102.532	-0.074	0.088
-732.996	326.183	-0.051	0.098
-731.981	-5.252	0.231	-0.161
-730.966	800.000	0.050	0.193
-729.952	156.217	-0.127	0.177
-728.937	-105.717	0.335	-0.077
-727.923	-144.818	-0.155	-0.014
-726.908	-86.004	-0.018	-0.006
-725.894	-155.270	0.153	0.010
-724.879	-126.519	0.056	0.008
-723.864	87.162	-0.110	-0.124
-722.850	-2.341	0.265	0.189
-721.835	17.840	0.088	0.071
-720.821	35.248	0.108	-0.096
-719.806	-200.000	0.001	-0.125
-718.791	433.641	-0.056	-0.124
-717.777	-200.000	-0.019	-0.357
-716.762	-25.916	-0.130	0.077
-715.748	800.000	-0.041	0.163
-714.733	187.722	0.077	-0.117
-713.718	-50.330	0.188	-0.090
-712.704	-8.690	-0.341	-0.232
-711.689	-159.866	0.128	0.007
-710.675	552.145	0.116	0.282
-709.660	800.000	0.046	0.136
-708.645	307.021	-0.071	-0.135
-707.631	800.000	-0.072	0.220
-706.616	-34.498	-0.427	-0.237
-705.602	800.000	-0.023	0.073
-704.587	-200.000	-0.035	-0.317
-703.572	-137.471	0.250	0.029
-702.558	546.269	-0.037	0.090
-701.543	380.592	0.076	-0.159
-700.529	800.000	0.085	-0.254
-699.514	-119.913	0.061	0.011
-698.499	-185.474	-0.469	0.007
-697.485	212.263	-0.110	0.176
-696.470	-79.292	-0.279	-0.096
-695.456	86.107	0.139	-0.155
-694.441	-200.000	0.009	-0.121
-693.426	-200.000	0.024	-0.118
-692.412	-107.171	-0.204	0.046
-691.397	426.421	-0.017	0.038
-690.383	204.229	0.135	0.212
-689.368	-200.000	-0.035	-0.194
-688.354	-158.447	-0.359	0.021
-687.339	221.929	-0.047	0.077
-686.324	-134.556	0.300	-0.037
-685.310	-119.309	0.351	0.062
-684.295	49.016	0.183	-0.174
-683.281	498.490	0.080	0.188
-682.266	800.000	-0.051	-0.160
-681.251	-200.000	-0.017	-0.088
-680.237	-200.000	0.024	-0.553
-679.222	353.882	-0.165	-0.332
-678.208	6.048	-0.208	0.156
-677.193	-179.487	0.174	0.004
-676.178	68.080	0.154	-0.160
-675.164	-96.497	0.137	0.037
-674.149	-40.183	-0.278	0.147
-673.135	-135.937	0.114	0.014
-672.120	90.468	0.092	0.105
-671.105	39.190	0.215	0.195
-670.091	746.570	0.115	0.314
-669.076	18.141	-0.382	-0.308
-668.062	96.342	-0.055	0.063
-667.047	-65.287	-0.224	0.091
-666.032	43.496	0.360	-0.333
-665.018	236.043	0.097	-0.162
-664.003	402.054	0.183	-0.390
-662.989	-156.669	-0.206	0.013
-661.974	800.000	0.041	0.147
-660.959	127.038	0.303	0.390
-659.945	163.914	-0.129	0.184
-658.930	-200.000	-0.033	0.181
-657.916	43.541	-0.255	-0.236
-656.901	377.031	0.107	-0.222
-655.886	-4.774	0.095	0.066
-654.872	-24.235	-0.278	-0.168
-653.857	800.000	0.075	0.243
-652.843	-33.751	0.376	0.210
-651.828	-131.129	-0.350	-0.047
-650.814	800.000	-0.024	0.075
-649.799	800.000	0.116	0.489
-648.784	-200.000	0.017	-0.134
-647.770	-37.724	-0.240	-0.129
-646.755	141.626	0.120	0.161
-645.741	-105.254	-0.097	-0.022
-644.726	-200.000	-0.021	0.180
-643.711	800.000	-0.064	0.186
-642.697	643.175	0.033	0.085
-641.682	-200.000	0.017	-0.153
-640.668	-133.150	-0.182	-0.023
-639.653	-52.354	-0.173	-0.081
-638.638	-89.942	-0.176	0.052
-637.624	-200.000	0.028	-0.131
-636.609	-129.148	-0.126	0.018
-635.595	800.000	-0.093	0.297
-634.580	421.066	-0.038	0.083
-633.565	-200.000	0.022	0.194
-632.551	-22.460	-0.448	-0.275
-631.536	800.000	-0.085	-0.296
-630.522	-89.981	-0.332	0.098
-629.507	-146.345	0.447	0.040
-628.492	-200.000	-0.039	0.211
-627.478	-41.961	-0.059	0.031
-626.463	3.809	-0.442	-0.327
-625.449	222.591	-0.024	-0.038
-624.434	256.936	0.009	0.016
-623.419	-26.526	-0.251	-0.149
-622.405	202.246	0.097	-0.151
-621.390	0.913	-0.182	0.132
-620.376	465.648	0.105	0.238
-619.361	-200.000	-0.008	-0.247
-618.346	-200.000	0.031	0.481
-617.332	15.704	0.097	-0.077
-616.317	24.468	-0.123	-0.103
-615.303	-78.698	-0.052	0.018
-614.288	800.000	-0.055	-0.177
-613.273	-138.956	0.253	0.028
-612.259	241.803	-0.111	0.188
-611.244	800.000	-0.059	0.214
-610.230	-200.000	-0.027	-0.190
-609.215	497.407	-0.067	0.156
-608.201	-161.250	-0.104	0.005
-607.186	-200.000	0.075	-0.413
-606.171	267.685	-0.107	-0.189
-605.157	26.952	0.105	0.089
-604.142	-113.786	-0.127	-0.025
-603.128	-20.830	0.241	0.149
-602.113	-152.358	0.145	-0.011
-601.098	219.026	0.014	-0.022
-600.084	-126.773	-0.093	-0.014
-599.069	146.935	0.084	0.114
-598.055	-109.145	-0.198	0.043
-597.040	-200.000	0.025	-0.135
-596.025	-200.000	-0.034	-0.298
-595.011	54.228	0.130	-0.126
-593.996	18.203	-0.093	0.075
-592.982	800.000	0.056	0.228
-591.967	-200.000	0.004	-0.104
-590.952	118.253	0.087	0.109
-589.938	8.848	-0.202	0.154
-588.923	140.646	0.351	0.468
-587.909	-200.000	-0.028	0.151
-586.894	-61.032	-0.307	0.131
-585.879	-200.000	-0.006	0.074
-584.865	-200.000	-0.031	-0.445
-583.850	50.942	-0.127	-0.122
-582.836	800.000	-0.110	-0.373
-581.821	463.165	-0.047	0.106
-580.806	-200.000	-0.000	0.124
-579.792	-200.000	0.053	-0.363
-578.777	-59.730	-0.275	0.119
-577.763	161.625	-0.093	-0.131
-576.748	-200.000	0.018	-0.192
-575.733	240.553	0.137	0.230
-574.719	-200.000	0.025	0.224
-573.704	-17.464	0.178	0.113
-572.690	138.005	0.122	0.161
-571.675	184.139	0.104	0.156
-570.661	800.000	0.061	0.268
-569.646	-200.000	-0.006	0.049
-568.631	-112.038	0.150	0.031
-567.617	-136.342	-0.299	-0.035
-566.602	-112.022	0.264	-0.054
-565.588	59.184	-0.219	0.218
-564.573	-20.526	0.089	0.055
-563.558	800.000	0.009	0.031
-562.544	77.346	-0.095	0.101
-561.529	-101.445	-0.257	0.063
-560.515	-200.000	-0.005	0.070
-559.500	37.839	0.181	-0.162
-558.485	800.000	-0.071	0.266
-557.471	800.000	-0.064	0.235
-556.456	522.187	0.180	-0.426
-555.442	663.635	0.104	-0.271
-554.427	215.662	-0.130	-0.208
-553.412	-200.000	0.010	-0.256
-552.398	-73.190	-0.102	-0.038
-551.383	295.378	-0.061	0.112
-550.369	17.709	-0.078	0.063
-549.354	-63.471	0.261	-0.108
-548.339	176.141	-0.174	0.254
-547.325	-103.551	-0.229	-0.054
-546.310	-200.000	-0.041	-0.193
-545.296	-49.100	-0.013	0.006
-544.281	-172.378	0.268	-0.009
-543.266	-200.000	-0.014	-0.183
-542.252	39.495	0.166	0.150
-541.237	-97.735	0.302	0.079
-540.223	65.368	0.064	0.065
-539.208	27.683	-0.222	-0.189
-538.193	34.686	0.328	0.289
-537.179	-47.559	0.091	0.044
-536.164	800.000	-0.026	-0.095
-535.150	-91.434	0.234	-0.067
-534.135	800.000	0.026	0.111
-533.121	15.077	0.139	-0.110
-532.106	722.114	-0.020	0.054
-531.091	-28.998	0.292	-0.169
-530.077	103.857	0.039	0.046
-529.062	67.637	0.215	-0.221
-528.048	67.743	-0.048	-0.050
-527.033	-140.303	0.086	0.009
-526.018	-200.000	0.019	-0.429
-525.004	-104.490	-0.063	0.015
-523.989	-140.305	-0.248	0.026
-522.975	-200.000	0.011	0.069
-521.960	69.674	0.041	0.042
-520.945	252.829	-0.246	0.422
-519.931	-74.273	0.322	0.117
-518.916	-22.645	-0.111	0.068
-517.902	-200.000	0.043	-0.321
-516.887	225.704	0.157	-0.257
-515.872	132.836	0.052	0.067
-514.858	275.863	-0.095	0.169
-513.843	-166.807	-0.075	-0.003
-512.829	-36.326	-0.074	0.040
-511.814	800.000	0.092	-0.308
-510.799	-200.000	-0.034	-0.179
-509.785	190.906	0.157	-0.237
-508.770	84.762	-0.162	0.178
-507.756	83.229	0.211	-0.231
-506.741	229.178	-0.194	0.319
-505.726	69.070	0.101	-0.105
-504.712	395.292	-0.089	-0.188
-503.697	-200.000	-0.282	0.001
-502.683	760.257	0.033	-0.090
-501.668	-148.326	-0.127	-0.011
-500.653	-15.819	-0.271	-0.174
-499.639	-200.000	0.004	-0.110
-498.624	-128.260	-0.157	-0.023
-497.610	-200.000	0.018	-0.264
-496.595	360.512	-0.069	-0.138
-495.581	19.214	0.245	-0.198
-494.566	-200.000	0.010	-0.110
-493.551	630.243	-0.151	0.384
-492.537	578.401	0.025	-0.063
-491.522	60.837	-0.218	0.218
-490.508	507.288	0.095	0.221
-489.493	-135.221	-0.160	-0.019
-488.478	-200.000	-0.037	0.373
-487.464	-9.644	-0.375	0.251
-486.449	70.591	-0.205	0.214
-485.435	-89.642	-0.419	-0.124
-484.420	800.000	-0.037	-0.104
-483.405	-200.000	0.070	0.357
-482.391	235.693	-0.182	-0.302
-481.376	800.000	0.091	-0.368
-480.362	469.784	0.037	-0.084
-479.347	-159.336	-0.195	-0.011
-478.332	800.000	0.026	0.102
-477.318	-36.716	-0.114	-0.062
-476.303	-200.000	0.043	-0.312
-475.289	-200.000	0.029	-0.194
-474.274	350.968	-0.231	-0.459
-473.259	-163.875	-0.148	0.007
-472.245	-200.000	0.066	-0.294
-471.230	800.000	0.059	-0.253
-470.216	81.666	0.175	0.190
-469.201	364.146	-0.048	0.098
-468.186	15.869	0.209	0.166
-467.172	113.636	0.350	0.427
-466.157	375.628	-0.114	-0.233
-465.143	-200.000	-0.013	-0.348
-464.128	515.901	-0.035	0.082
-463.113	-180.644	-0.158	0.003
-462.099	800.000	-0.044	0.164
-461.084	-102.541	0.111	-0.027
-460.070	-75.281	-0.239	-0.086
-459.055	584.619	-0.083	0.206
-458.040	220.269	0.160	0.257
-457.026	-17.362	-0.192	0.121
-456.011	193.313	0.048	0.073
-454.997	-168.161	-0.335	0.013
-453.982	30.072	-0.048	0.041
-452.968	-162.542	0.149	0.007
-451.953	117.749	0.156	0.193
-450.938	-200.000	-0.256	-0.001
-449.924	66.840	0.285	-0.291
-448.909	-200.000	0.015	0.117
-447.895	-110.428	-0.073	0.015
-446.880	124.830	-0.090	0.114
-445.865	800.000	-0.009	-0.027
-444.851	558.804	-0.060	0.146
-443.836	-145.795	0.098	0.009
-442.822	-21.377	0.176	-0.108
-441.807	800.000	-0.012	-0.048
-440.792	-200.000	0.019	-0.086
-439.778	800.000	-0.074	-0.215
-438.763	-200.000	0.017	0.085
-437.749	800.000	0.087	-0.285
-436.734	-200.000	0.015	-0.089
-435.719	-120.647	0.348	-0.059
-434.705	102.033	-0.184	-0.216
-433.690	722.774	0.158	-0.422
-432.676	379.279	0.184	0.379
-431.661	120.413	0.083	-0.103
-430.646	-200.000	0.006	0.158
-429.632	38.856	-0.133	0.119
-428.617	-121.879	-0.113	0.019
-427.603	-116.201	0.420	0.078
-426.588	201.673	0.056	-0.086
-425.573	-198.021	0.299	0.002
-424.559	61.736	-0.220	0.219
-423.544	-200.000	-0.011	-0.144
-422.530	-200.000	0.031	0.360
-421.515	243.365	0.022	-0.037
-420.500	-98.692	0.041	0.010
-419.486	-10.744	-0.062	-0.041
-418.471	-71.003	0.142	-0.054
-417.457	-77.084	-0.390	0.136
-416.442	-120.722	-0.386	-0.065
-415.428	-200.000	-0.011	0.332
-414.413	-39.850	0.200	0.105
-413.398	-3.850	-0.156	-0.109
-412.384	-31.132	0.365	-0.207
-411.369	800.000	-0.087	0.282
-410.355	-92.152	-0.115	0.033
-409.340	-200.000	0.005	0.175
-408.325	142.321	0.082	0.109
-407.311	-52.744	0.154	0.071
-406.296	-200.000	0.008	-0.198
-405.282	-200.000	0.022	-0.231
-404.267	380.141	0.142	0.292
-403.252	65.950	0.063	0.064
-402.238	-84.110	-0.021	-0.007
-401.223	13.229	-0.251	0.195
-400.209	390.320	0.100	-0.207
-399.194	-102.645	-0.110	-0.026
-398.179	-200.000	-0.028	0.316
-397.165	-113.503	-0.039	-0.008
-396.150	-200.000	0.004	-0.114
-395.136	-53.026	0.074	0.034
-394.121	50.121	-0.210	0.199
-393.106	-15.936	0.156	0.099
-392.092	-38.195	0.324	-0.172
-391.077	-115.821	0.409	-0.077
-390.063	107.004	-0.103	0.122
-389.048	-3.664	0.310	-0.216
-388.033	69.318	-0.026	0.027
-387.019	-142.548	-0.101	-0.010
-386.004	-107.330	-0.261	-0.058
-384.990	73.701	-0.193	0.203
-383.975	-200.000	-0.035	0.164
-382.960	800.000	0.070	-0.194
-381.946	83.996	-0.150	-0.164
-380.931	-94.226	0.076	-0.021
-379.917	85.816	0.088	0.097
-378.902	78.849	0.116	0.124
-377.888	-1.924	0.087	0.061
-376.873	31.937	-0.190	-0.164
-375.858	-200.000	0.047	0.503
-374.844	800.000	0.034	0.149
-373.829	34.432	0.087	0.076
-372.815	-94.863	-0.090	0.024
-371.800	466.778	-0.142	-0.319
-370.785	18.318	0.174	-0.139
-369.771	-130.577	0.469	-0.063
-368.756	430.341	0.143	-0.309
-367.742	-133.369	0.166	-0.021
-366.727	-200.000	0.011	0.150
-365.712	12.317	0.511	-0.394
-364.698	-106.236	0.127	-0.028
-363.683	61.039	-0.058	0.058
-362.669	-200.000	0.024	-0.217
-361.654	149.270	0.227	-0.308
-360.639	-200.000	0.005	-0.026
-359.625	-200.000	-0.014	0.206
-358.610	160.167	-0.084	-0.117
-357.596	-56.790	0.180	-0.080
-356.581	-168.566	0.058	-0.002
-355.566	-137.061	-0.141	0.016
-354.552	-200.000	0.008	0.136
-353.537	-142.169	0.223	-0.022
-352.523	-200.000	-0.024	0.297
-351.508	84.191	0.123	0.135
-350.493	-24.125	0.195	0.116
-349.479	800.000	0.049	-0.153
-348.464	37.978	0.125	-0.111
-347.450	50.949	0.110	0.104
-346.435	10.707	0.243	-0.186
-345.420	314.162	0.047	0.088
-344.406	17.375	0.151	0.120
-343.391	679.049	0.124	0.323
-342.377	-63.956	-0.151	-0.062
-341.362	-200.000	0.028	0.329
-340.348	302.577	-0.094	0.173
-339.333	173.234	-0.223	0.321
-338.318	-137.884	0.129	-0.014
-337.304	-61.815	-0.152	-0.064
-336.289	-114.345	0.246	-0.047
-335.275	456.051	-0.200	-0.443
-334.260	-200.000	0.035	-0.268
-333.245	-92.784	0.164	0.046
-332.231	-200.000	0.039	-0.238
-331.216	-200.000	-0.022	-0.332
-330.202	-115.791	-0.165	-0.031
-329.187	150.135	-0.236	-0.321
-328.172	-200.000	-0.004	0.093
-327.158	-200.000	0.024	0.112
-326.143	111.884	0.242	0.292
-325.129	48.267	0.180	-0.168
-324.114	800.000	-0.002	-0.006
-323.099	-133.946	-0.140	-0.017
-322.085	40.002	0.138	0.124
-321.070	-182.160	0.197	0.004
-320.056	800.000	0.013	0.040
-319.041	101.506	0.137	0.159
-318.026	501.814	-0.025	0.058
-317.012	-200.000	-0.093	0.466
-315.997	-121.924	0.274	0.045
-314.983	154.848	-0.092	0.126
-313.968	405.895	0.083	0.175
-312.953	59.387	0.043	0.043
-311.939	-149.206	0.254	0.020
-310.924	-200.000	-0.053	-0.439
-309.910	-88.240	0.115	0.034
-308.895	17.767	-0.307	-0.244
-307.880	800.000	0.138	0.444
-306.866	-37.607	-0.027	-0.014
-305.851	800.000	-0.081	-0.268
-304.837	272.691	-0.072	-0.127
-303.822	-200.000	-0.049	-0.229
-302.807	800.000	-0.088	-0.246
-301.793	52.474	-0.222	0.212
-300.778	-27.726	-0.126	-0.073
-299.764	800.000	0.080	-0.328
-298.749	147.621	0.072	-0.096
-297.735	191.515	0.112	-0.169
-296.720	34.718	0.052	-0.045
-295.705	57.428	0.123	-0.120
-294.691	173.053	0.130	0.187
-293.676	-55.398	0.347	0.155
-292.662	-200.000	-0.006	0.096
-291.647	-200.000	-0.020	-0.266
-290.632	317.083	0.110	-0.207
-289.618	-15.705	0.140	0.089
-288.603	584.575	-0.146	0.357
-287.589	-200.000	-0.109	-0.000
-286.574	273.287	0.083	0.147
-285.559	-126.776	-0.155	-0.023
-284.545	800.000	-0.064	-0.223
-283.530	-95.778	0.155	0.041
-282.516	66.282	-0.172	0.174
-281.501	-200.000	-0.028	-0.221
-280.486	458.256	-0.051	-0.113
-279.472	-61.156	0.092	0.039
-278.457	231.108	0.125	0.204
-277.443	-89.085	0.117	0.035
-276.428	-200.000	-0.004	0.370
-275.413	-200.000	-0.034	0.210
-274.399	-58.670	-0.334	-0.144
-273.384	-131.865	-0.082	0.011
-272.370	116.089	-0.191	-0.234
-271.355	120.848	0.069	-0.086
-270.340	318.749	-0.039	-0.073
-269.326	462.256	-0.087	0.194
-268.311	-95.129	0.310	0.083
-267.297	-149.888	0.175	-0.014
-266.282	-191.419	-0.396	0.004
-265.267	-200.000	0.064	0.316
-264.253	-107.828	0.354	-0.077
-263.238	568.503	0.119	-0.289
-262.224	800.000	0.041	0.122
-261.209	-3.575	0.289	0.200
-260.195	-26.286	0.156	0.091
-259.180	-12.434	0.375	0.244
-258.165	-50.732	-0.182	0.085
-257.151	800.000	-0.092	0.267
-256.136	800.000	-0.017	-0.048
-255.122	639.821	0.057	-0.145
-254.107	-32.198	-0.184	0.103
-253.092	-89.790	0.308	0.090
-252.078	-101.926	0.199	0.048
-251.063	-200.000	0.082	0.603
-250.049	82.606	-0.114	0.124
-249.034	-200.000	-0.003	-0.093
-248.019	-200.000	-0.011	0.191
-247.005	736.391	0.053	-0.143
-245.990	-1.651	-0.266	0.187
-244.976	-200.000	0.028	0.173
-243.961	-39.373	0.185	0.097
-242.946	-161.323	-0.184	-0.009
-241.932	80.883	-0.204	0.219
-240.917	-200.000	0.007	0.170
-239.903	-65.633	0.225	0.090
-238.888	-21.338	-0.246	0.150
-237.873	372.879	-0.109	0.221
-236.859	-200.000	0.048	0.306
-235.844	17.379	0.079	0.063
-234.830	-51.240	-0.201	-0.094
-233.815	242.023	-0.121	-0.201
-232.800	87.689	-0.335	-0.370
-231.786	-35.367	0.087	-0.047
-230.771	192.849	-0.064	-0.096
-229.757	-4.557	0.223	0.153
-228.742	-143.611	-0.176	0.017
-227.727	-39.055	0.239	-0.125
-226.713	141.855	-0.278	0.367
-225.698	-49.505	0.209	-0.099
-224.684	-200.000	0.020	-0.140
-223.669	800.000	-0.138	-0.416
-222.655	-200.000	-0.009	0.126
-221.640	190.801	0.099	-0.148
-220.625	-4.378	0.103	0.071
-219.611	86.496	0.180	0.198
-218.596	54.922	-0.179	0.172
-217.582	-116.724	0.177	0.032
-216.567	-200.000	-0.048	0.394
-215.552	84.413	-0.150	0.163
-214.538	-40.881	-0.224	-0.116
-213.523	-43.910	0.204	0.102
-212.509	39.523	-0.152	-0.136
-211.494	-10.459	-0.309	0.204
-210.479	-79.550	0.249	-0.084
-209.465	293.998	0.192	0.348
-208.450	107.834	0.156	0.184
-207.436	13.949	-0.214	0.165
-206.421	800.000	-0.098	0.347
-205.406	648.043	0.035	0.088
-204.392	152.915	0.027	0.036
-203.377	-200.000	-0.075	-0.469
-202.363	-155.678	0.221	0.014
-201.348	-61.828	-0.068	-0.028
-200.333	-50.929	0.140	-0.065
-199.319	-33.199	-0.272	-0.150
-198.304	-200.000	0.006	-0.133
-197.290	-200.000	0.035	0.155
-196.275	78.023	-0.181	-0.192
-195.260	-7.720	-0.194	-0.130
-194.246	-138.015	-0.237	-0.026
-193.231	120.841	0.135	-0.166
-192.217	-200.000	0.003	-0.116
-191.202	297.577	-0.124	-0.227
-190.187	-42.609	-0.323	-0.163
-189.173	4.090	-0.098	0.071
-188.158	-82.337	0.063	-0.020
-187.144	141.053	-0.167	-0.219
-186.129	-32.193	-0.127	0.070
-185.114	-185.693	-0.387	-0.006
-184.100	33.543	-0.133	-0.115
-183.085	-135.196	0.200	-0.024
-182.071	734.616	-0.075	0.200
-181.056	122.449	0.092	-0.114
-180.042	30.038	0.199	-0.169
-179.027	654.369	-0.166	-0.422
-178.012	-200.000	0.042	0.206
-176.998	-168.509	-0.356	-0.014
-175.983	-200.000	-0.006	-0.068
-174.969	785.951	0.035	-0.095
-173.954	-107.024	-0.044	-0.010
-172.939	-95.221	0.403	0.108
-171.925	-102.275	-0.292	0.070
-170.910	-200.000	0.064	0.286
-169.896	800.000	-0.048	0.134
-168.881	-9.672	-0.060	-0.040
-167.866	-107.067	0.456	-0.100
-166.852	-56.865	-0.110	-0.048
-165.837	-20.854	0.109	-0.066
-164.823	157.090	0.133	-0.182
-163.808	-200.000	-0.047	-0.427
-162.793	510.656	0.130	-0.300
-161.779	-22.885	-0.140	-0.084
-160.764	-136.401	-0.258	-0.030
-159.750	88.120	0.199	0.219
-158.735	-200.000	0.033	-0.376
-157.720	-11.945	-0.051	0.033
-156.706	342.678	0.110	-0.214
-155.691	-52.836	-0.437	-0.200
-154.677	800.000	-0.119	-0.429
-153.662	-200.000	0.024	-0.377
-152.647	-41.292	0.144	-0.074
-151.633	-200.000	0.020	0.141
-150.618	260.783	0.129	-0.221
-149.604	375.500	-0.192	-0.389
-148.589	-73.098	0.353	0.129
-147.574	-200.000	-0.013	-0.134
-146.560	8.549	0.140	-0.105
-145.545	213.690	0.184	0.288
-144.531	-200.000	0.004	-0.167
-143.516	39.299	-0.146	0.130
-142.502	168.214	0.127	-0.179
-141.487	-92.811	0.196	0.054
-140.472	-42.205	-0.370	0.187
-139.458	800.000	0.012	0.044
-138.443	-200.000	0.031	0.184
-137.429	-200.000	-0.066	-0.362
-136.414	168.003	0.074	-0.105
-135.399	-54.568	-0.173	-0.078
-134.385	220.296	-0.104	0.166
-133.370	-200.000	-0.011	0.101
-132.356	-200.000	-0.028	-0.183
-131.341	467.786	0.112	0.249
-130.326	-65.840	-0.199	-0.079
-129.312	247.052	0.105	-0.175
-128.297	-200.000	0.009	-0.165
-127.283	-200.000	0.000	-0.170
-126.268	-90.777	0.112	-0.032
-125.253	-86.299	-0.115	0.035
-124.239	-154.367	-0.160	-0.011
-123.224	-31.121	0.125	0.070
-122.210	186.657	0.080	-0.119
