DTS Sentinel unit serial number:	SN413079Multiplexer serial number:	ORYXHardware model number:	OX4-SRSoftware version number:	ORYX F/W v4.00 Oryx Data Collector v3.7.2.0data status	okinstallation	princeton_trtdifferential loss correction	single-endedforward channel	channel 1reverse channel	N/Adate	2019/09/18time	21:02:35forward acquisition time	60.00reverse acquisition time	0.00gamma	496.2192k internal	0.2340k external	0.2340temperature offset calibration	1.0035default loss term (dB/km)	0.3790temperature slope calibration	1.0000multiplexer offset coefficient	1.0000multiplexer slope coefficient	1.0000fibre end	0.00T internal ref (°C)	26.44T ext. ref 1 (°C)	1.14T ext. ref 2 (°C)	18.09length (m)	temperature (°C)	Stokes	anti-Stokes-747.200	612.153	0.078	-0.195
-746.185	125.008	-0.128	0.162
-745.171	312.473	-0.040	-0.076
-744.156	48.191	-0.113	0.106
-743.142	-105.583	-0.361	-0.082
-742.127	-200.000	0.019	0.322
-741.112	-200.000	-0.003	-0.150
-740.098	741.083	-0.103	-0.278
-739.083	-200.000	0.000	0.066
-738.069	537.871	-0.126	0.301
-737.054	-67.916	-0.094	-0.037
-736.039	364.400	-0.086	-0.174
-735.025	-127.376	0.256	0.037
-734.010	99.801	0.093	-0.108
-732.996	190.088	0.038	0.057
-731.981	0.107	0.083	0.059
-730.966	-90.102	-0.319	-0.093
-729.952	248.932	0.061	-0.104
-728.937	392.806	-0.103	-0.215
-727.923	800.000	-0.084	0.236
-726.908	-36.813	-0.310	0.167
-725.894	37.680	-0.349	-0.310
-724.879	-63.908	-0.266	-0.109
-723.864	800.000	0.068	-0.225
-722.850	-48.420	0.065	-0.031
-721.835	47.069	-0.007	0.007
-720.821	800.000	0.031	0.128
-719.806	-154.607	-0.080	-0.005
-718.791	-200.000	-0.019	0.246
-717.777	-66.150	-0.129	-0.052
-716.762	59.416	0.070	-0.069
-715.748	-200.000	0.002	0.274
-714.733	452.309	-0.081	-0.178
-713.718	4.055	-0.286	-0.210
-712.704	-113.930	0.100	-0.019
-711.689	-17.805	-0.172	-0.108
-710.675	800.000	-0.071	-0.235
-709.660	-31.550	0.113	-0.064
-708.645	-101.607	-0.055	0.013
-707.631	-94.279	0.209	-0.057
-706.616	800.000	0.033	-0.124
-705.602	-111.230	-0.290	0.059
-704.587	100.729	-0.188	-0.218
-703.572	-126.129	-0.079	0.012
-702.558	800.000	-0.068	-0.253
-701.543	225.181	0.026	-0.042
-700.529	-74.659	-0.038	-0.014
-699.514	70.833	-0.093	0.097
-698.499	-142.659	0.336	0.033
-697.485	141.879	-0.030	-0.040
-696.470	28.495	-0.251	0.212
-695.456	615.001	-0.117	-0.292
-694.441	-200.000	-0.002	-0.030
-693.426	-59.430	-0.075	-0.032
-692.412	140.543	-0.112	-0.148
-691.397	-5.736	0.140	-0.096
-690.383	636.865	0.010	-0.024
-689.368	-184.350	-0.453	0.007
-688.354	167.958	-0.101	0.143
-687.339	-121.296	0.207	-0.035
-686.324	42.208	-0.279	0.253
-685.310	346.708	-0.049	-0.097
-684.295	-89.031	-0.330	-0.098
-683.281	139.074	-0.105	0.137
-682.266	242.506	0.147	0.245
-681.251	-81.837	-0.331	0.108
-680.237	491.773	0.086	0.197
-679.222	-50.379	0.080	-0.038
-678.208	-132.316	-0.249	-0.032
-677.193	-170.731	0.319	-0.011
-676.178	237.595	0.045	0.075
-675.164	800.000	-0.011	0.047
-674.149	-68.537	0.169	-0.065
-673.135	261.265	-0.033	0.057
-672.120	35.954	-0.049	0.043
-671.105	-184.165	0.143	0.002
-670.091	30.048	-0.146	-0.124
-669.076	-86.954	0.282	-0.086
-668.062	-119.747	-0.311	-0.054
-667.047	-22.019	-0.110	0.067
-666.032	291.463	-0.092	0.167
-665.018	-21.397	-0.280	-0.171
-664.003	31.391	0.161	-0.138
-662.989	24.323	0.145	0.119
-661.974	-140.302	0.288	-0.030
-660.959	25.893	-0.162	-0.135
-659.945	-200.000	-0.098	0.432
-658.930	319.006	0.061	0.115
-657.916	-200.000	-0.030	-0.137
-656.901	-158.980	-0.097	-0.005
-655.886	-48.127	0.041	0.020
-654.872	-0.301	0.114	0.081
-653.857	190.855	-0.129	0.193
-652.843	184.993	-0.186	-0.275
-651.828	-200.000	-0.045	-0.216
-650.814	800.000	-0.038	-0.133
-649.799	0.009	-0.159	0.113
-648.784	-101.655	0.217	-0.053
-647.770	800.000	-0.055	-0.181
-646.755	374.193	0.093	-0.189
-645.741	-148.272	0.072	-0.006
-644.726	-180.767	0.292	0.006
-643.711	-200.000	0.048	-0.408
-642.697	-85.699	-0.195	-0.061
-641.682	14.673	-0.242	-0.189
-640.668	446.933	-0.055	0.120
-639.653	-44.603	-0.293	0.146
-638.638	291.383	0.121	0.221
-637.624	-97.873	-0.395	-0.102
-636.609	-146.944	0.138	-0.012
-635.595	-6.696	0.394	-0.268
-634.580	-52.815	-0.401	-0.185
-633.565	18.746	0.096	0.077
-632.551	-120.247	-0.380	-0.065
-631.536	800.000	0.088	0.293
-630.522	129.889	0.086	0.110
-629.507	6.812	0.079	-0.058
-628.492	-89.832	0.172	0.050
-627.478	252.887	0.102	0.173
-626.463	13.451	-0.189	-0.146
-625.449	800.000	-0.045	0.174
-624.434	-114.823	-0.262	-0.050
-623.419	-200.000	0.261	0.001
-622.405	-174.052	-0.569	-0.017
-621.390	-200.000	0.078	0.387
-620.376	-200.000	0.049	-0.252
-619.361	-200.000	-0.009	-0.337
-618.346	-200.000	0.000	-0.030
-617.332	274.304	-0.214	0.377
-616.317	-86.808	0.065	0.020
-615.303	-124.525	0.245	0.038
-614.288	800.000	-0.053	-0.173
-613.273	-40.430	0.293	-0.152
-612.259	-86.040	-0.336	-0.103
-611.244	74.816	-0.107	-0.113
-610.230	-200.000	-0.057	-0.319
-609.215	-54.691	-0.400	-0.180
-608.201	-200.000	-0.021	-0.132
-607.186	295.910	0.118	-0.215
-606.171	-130.134	0.305	-0.041
-605.157	-61.143	-0.155	0.065
-604.142	-78.644	-0.241	-0.082
-603.128	-200.000	-0.016	-0.249
-602.113	-97.852	0.310	-0.080
-601.098	-114.442	0.166	-0.032
-600.084	-75.870	-0.338	0.119
-599.069	-200.000	-0.049	-0.293
-598.055	210.787	0.163	0.256
-597.040	243.109	-0.072	0.120
-596.025	-9.977	-0.008	-0.005
-595.011	-154.650	0.204	0.014
-593.996	-134.842	-0.234	0.028
-592.982	-65.746	-0.561	-0.224
-591.967	-130.957	0.465	0.062
-590.952	-200.000	-0.048	-0.287
-589.938	800.000	0.029	-0.084
-588.923	-200.000	-0.021	-0.159
-587.909	-200.000	-0.014	-0.469
-586.894	-138.776	0.407	0.044
-585.879	598.700	-0.143	0.353
-584.865	-152.767	0.250	0.018
-583.850	75.266	0.162	-0.171
-582.836	385.488	-0.114	-0.235
-581.821	-200.000	0.008	-0.183
-580.806	-138.301	-0.153	0.017
-579.792	-200.000	0.000	-0.186
-578.777	180.147	-0.019	0.028
-577.763	-97.861	-0.171	-0.044
-576.748	-149.791	0.119	-0.009
-575.733	-60.104	-0.339	-0.144
-574.719	188.413	0.011	-0.016
-573.704	-128.390	-0.207	0.029
-572.690	215.059	0.148	-0.234
-571.675	23.630	0.131	-0.107
-570.661	341.735	0.069	0.135
-569.646	438.566	0.107	0.231
-568.631	-156.457	0.083	-0.005
-567.617	-200.000	-0.062	0.374
-566.602	694.826	0.138	-0.360
-565.588	-123.564	0.277	-0.044
-564.573	-107.998	-0.261	0.056
-563.558	-130.384	-0.041	0.005
-562.544	-146.133	-0.214	0.019
-561.529	270.681	0.075	-0.131
-560.515	-124.291	-0.347	0.054
-559.500	-107.424	-0.148	-0.032
-558.485	240.370	0.188	0.311
-557.471	-102.909	-0.088	0.021
-556.456	403.385	-0.083	0.173
-555.442	-140.946	-0.087	0.009
-554.427	-20.115	-0.117	0.072
-553.412	215.635	-0.078	0.123
-552.398	-200.000	-0.040	0.205
-551.383	800.000	-0.070	-0.207
-550.369	178.688	-0.168	-0.244
-549.354	-108.262	0.110	0.024
-548.339	800.000	-0.086	0.243
-547.325	325.884	-0.067	0.128
-546.310	209.889	0.126	-0.197
-545.296	49.787	0.132	0.124
-544.281	453.439	0.089	0.195
-543.266	220.352	0.248	0.395
-542.252	225.112	0.216	0.348
-541.237	133.972	-0.184	-0.238
-540.223	160.411	-0.124	-0.172
-539.208	122.659	0.015	-0.018
-538.193	68.664	0.255	-0.260
-537.179	-53.171	-0.190	-0.087
-536.164	-81.659	-0.152	0.050
-535.150	599.676	0.157	0.389
-534.135	2.333	-0.075	-0.054
-533.121	800.000	0.087	-0.366
-532.106	78.090	-0.106	0.113
-531.091	356.659	0.089	-0.176
-530.077	135.753	0.196	0.253
-529.062	7.782	0.206	0.153
-528.048	-200.000	0.025	0.198
-527.033	-162.634	-0.125	0.006
-526.018	800.000	-0.107	0.323
-525.004	-192.786	-0.049	0.000
-523.989	-77.765	-0.256	0.088
-522.975	321.365	0.141	-0.266
-521.960	167.485	0.321	0.454
-520.945	-200.000	-0.004	-0.043
-519.931	-200.000	0.026	0.159
-518.916	32.417	-0.224	-0.193
-517.902	-200.000	0.046	0.352
-516.887	30.572	0.194	-0.165
-515.872	-154.696	0.141	-0.009
-514.858	383.769	0.167	0.341
-513.843	486.837	-0.053	0.121
-512.829	25.653	0.182	0.150
-511.814	-98.183	0.418	0.107
-510.799	-133.852	-0.115	-0.014
-509.785	-138.252	0.022	0.002
-508.770	37.032	0.175	-0.154
-507.756	500.287	-0.029	-0.067
-506.741	800.000	-0.061	0.183
-505.726	-83.470	-0.205	0.065
-504.712	-200.000	-0.046	0.211
-503.697	107.609	-0.106	0.126
-502.683	-178.265	0.140	-0.003
-501.668	386.771	-0.035	-0.072
-500.653	-78.448	-0.309	0.105
-499.639	257.081	0.159	-0.272
-498.624	-86.888	-0.210	-0.064
-497.610	416.713	-0.142	0.300
-496.595	-187.809	0.183	0.002
-495.581	210.743	-0.163	0.255
-494.566	-131.868	-0.327	-0.042
-493.551	60.120	0.166	0.162
-492.537	-200.000	0.022	-0.099
-491.522	-3.525	-0.074	-0.051
-490.508	-12.297	0.269	-0.175
-489.493	0.832	-0.132	0.094
-488.478	-27.704	-0.071	0.041
-487.464	-43.990	-0.316	-0.158
-486.449	20.795	-0.052	-0.042
-485.435	197.571	-0.086	0.131
-484.420	-94.305	-0.132	-0.036
-483.405	157.072	0.068	-0.094
-482.391	-136.912	-0.057	-0.007
-481.376	-182.373	-0.306	-0.006
-480.362	-27.355	0.354	0.204
-479.347	-39.546	-0.268	-0.139
-478.332	418.233	-0.030	0.064
-477.318	-41.317	0.276	-0.141
-476.303	-200.000	-0.004	-0.099
-475.289	-174.339	-0.058	0.002
-474.274	-149.730	0.099	-0.008
-473.259	58.164	0.149	-0.145
-472.245	417.983	0.141	0.299
-471.230	-23.172	0.111	0.066
-470.216	800.000	-0.029	-0.080
-469.201	-18.740	0.183	0.113
-468.186	35.776	-0.070	-0.061
-467.172	-60.674	-0.155	0.065
-466.157	-200.000	0.056	0.415
-465.143	-101.051	0.330	-0.080
-464.128	-200.000	0.084	-0.428
-463.113	-34.889	0.095	-0.051
-462.099	602.430	-0.052	-0.127
-461.084	-129.837	-0.638	0.087
-460.070	104.250	0.127	0.148
-459.055	800.000	-0.025	-0.070
-458.040	-76.569	0.315	-0.110
-457.026	721.702	-0.072	0.191
-456.011	800.000	-0.171	0.509
-454.997	-91.426	-0.367	-0.104
-453.982	-49.017	0.101	-0.048
-452.968	-126.373	-0.319	0.047
-451.953	197.834	0.327	0.495
-450.938	-200.000	-0.038	0.277
-449.924	-59.773	-0.125	-0.053
-448.909	50.253	0.221	-0.207
-447.895	-200.000	-0.011	-0.189
-446.880	-99.664	0.113	0.028
-445.865	102.328	-0.115	0.134
-444.851	289.608	0.170	0.306
-443.836	-200.000	0.004	0.031
-442.822	38.581	0.106	0.093
-441.807	55.487	0.292	0.280
-440.792	-109.678	0.242	0.051
-439.778	-200.000	-0.023	-0.130
-438.763	-200.000	0.024	0.203
-437.749	800.000	-0.036	-0.155
-436.734	800.000	0.097	-0.274
-435.719	142.742	-0.149	-0.196
-434.705	-98.757	-0.323	0.082
-433.690	-86.750	-0.041	-0.012
-432.676	70.354	0.247	-0.253
-431.661	-200.000	0.036	-0.237
-430.646	678.279	0.159	0.411
-429.632	-122.559	0.037	-0.006
-428.617	-82.872	-0.020	0.006
-427.603	104.843	0.138	0.161
-426.588	-104.758	0.099	0.023
-425.573	800.000	0.038	-0.111
-424.559	119.328	0.114	0.140
-423.544	-195.909	-0.253	-0.002
-422.530	-32.810	0.114	0.063
-421.515	800.000	0.024	0.093
-420.500	267.723	0.079	0.138
-419.486	-59.574	0.117	-0.050
-418.471	196.365	0.077	-0.116
-417.457	111.631	0.168	-0.200
-416.442	42.736	0.302	0.272
-415.428	28.384	0.151	-0.127
-414.413	99.026	-0.117	-0.134
-413.398	-200.000	-0.018	0.213
-412.384	87.890	-0.160	0.175
-411.369	26.958	0.099	-0.082
-410.355	157.363	-0.093	0.127
-409.340	108.664	0.090	0.106
-408.325	-160.427	-0.276	-0.015
-407.311	47.986	-0.105	0.097
-406.296	-94.831	0.193	-0.052
-405.282	229.046	-0.080	-0.129
-404.267	-158.847	-0.171	0.010
-403.252	169.083	-0.189	-0.266
-402.238	-200.000	-0.019	0.260
-401.223	-102.906	-0.270	-0.063
-400.209	-200.000	0.017	0.113
-399.194	-43.797	0.423	0.211
-398.179	-200.000	0.042	-0.275
-397.165	-100.460	0.034	-0.008
-396.150	800.000	-0.109	0.374
-395.136	323.519	-0.172	0.324
-394.121	49.272	-0.017	-0.016
-393.106	69.219	0.258	0.263
-392.092	261.539	-0.241	0.412
-391.077	-57.429	-0.019	0.008
-390.063	-36.210	0.316	-0.169
-389.048	-198.603	-0.240	0.001
-388.033	230.855	-0.122	0.197
-387.019	151.540	-0.105	-0.142
-386.004	800.000	0.036	0.111
-384.990	-47.622	-0.360	0.173
-383.975	-200.000	-0.026	0.375
-382.960	-26.388	-0.405	0.235
-381.946	106.594	0.290	-0.340
-380.931	-66.386	-0.027	0.011
-379.917	800.000	0.037	0.137
-378.902	-200.000	-0.001	-0.207
-377.888	22.055	0.061	-0.050
-376.873	375.381	0.172	-0.346
-375.858	75.252	0.052	-0.054
-374.844	-103.498	0.146	0.034
-373.829	800.000	-0.052	-0.146
-372.815	-200.000	-0.034	-0.258
-371.800	98.462	-0.069	-0.079
-370.785	-132.257	-0.102	0.013
-369.771	36.650	-0.153	0.134
-368.756	276.193	0.241	-0.423
-367.742	232.320	-0.162	-0.263
-366.727	73.967	0.059	-0.061
-365.712	27.700	0.150	0.125
-364.698	49.422	-0.150	-0.139
-363.683	41.193	0.157	-0.140
-362.669	671.532	-0.110	-0.282
-361.654	-57.751	-0.182	-0.079
-360.639	800.000	0.017	-0.070
-359.625	-38.193	-0.204	-0.107
-358.610	-48.045	0.068	0.032
-357.596	-78.105	-0.304	-0.103
-356.581	800.000	-0.116	-0.329
-355.566	-95.587	0.162	-0.043
-354.552	-162.365	-0.466	-0.023
-353.537	-21.866	0.232	-0.139
-352.523	-4.086	-0.266	-0.182
-351.508	800.000	0.117	0.458
-350.493	-76.054	-0.117	0.041
-349.479	462.329	0.124	-0.272
-348.464	800.000	-0.070	0.233
-347.450	78.098	0.183	0.192
-346.435	-42.771	-0.244	0.123
-345.420	-135.427	-0.075	-0.009
-344.406	126.670	-0.174	0.217
-343.391	99.768	-0.037	0.042
-342.377	19.428	-0.218	-0.173
-341.362	-15.039	-0.245	0.155
-340.348	101.355	-0.110	0.127
-339.333	-43.274	-0.122	-0.061
-338.318	792.287	-0.113	-0.306
-337.304	323.535	-0.178	-0.336
-336.289	183.450	0.166	-0.243
-335.275	118.551	-0.167	0.203
-334.260	-100.423	0.176	-0.043
-333.245	800.000	-0.043	-0.168
-332.231	-200.000	0.051	0.316
-331.216	-72.365	0.197	0.072
-330.202	-113.822	0.152	0.029
-329.187	-79.034	-0.141	0.047
-328.172	380.468	0.176	0.355
-327.158	547.579	0.045	0.107
-326.143	-87.363	-0.471	-0.141
-325.129	800.000	0.044	-0.162
-324.114	-140.669	-0.186	0.019
-323.099	428.299	0.127	-0.270
-322.085	12.250	0.204	0.155
-321.070	121.250	0.099	0.122
-320.056	-200.000	0.070	0.320
-319.041	-82.208	-0.218	0.070
-318.026	178.846	0.174	0.250
-317.012	-79.602	0.185	-0.061
-315.997	177.664	-0.044	0.064
-314.983	-200.000	-0.021	0.203
-313.968	23.077	-0.211	-0.170
-312.953	245.824	0.191	-0.317
-311.939	800.000	0.032	-0.125
-310.924	6.687	-0.263	-0.193
-309.910	415.700	-0.046	-0.097
-308.895	309.641	-0.101	-0.186
-307.880	84.540	-0.149	0.161
-306.866	18.996	-0.234	-0.185
-305.851	282.764	-0.182	-0.321
-304.837	-200.000	0.049	0.327
-303.822	-6.274	0.270	0.181
-302.807	-98.633	-0.293	0.074
-301.793	-74.754	0.107	0.038
-300.778	27.351	0.061	-0.051
-299.764	-200.000	0.037	-0.413
-298.749	172.298	0.040	-0.056
-297.735	-200.000	0.014	0.123
-296.720	-142.187	0.239	0.023
-295.705	-200.000	0.045	-0.248
-294.691	425.866	0.200	-0.425
-293.676	27.805	0.106	0.088
-292.662	273.478	-0.170	-0.296
-291.647	57.732	0.063	-0.061
-290.632	-144.179	0.285	-0.026
-289.618	-97.300	-0.259	0.066
-288.603	-1.365	-0.141	-0.098
-287.589	-78.775	0.219	0.074
-286.574	-200.000	0.016	-0.261
-285.559	20.861	-0.138	0.110
-284.545	129.190	0.134	0.169
-283.530	800.000	-0.059	0.168
-282.516	-15.767	-0.304	-0.191
-281.501	-86.226	0.054	0.016
-280.486	800.000	0.085	0.238
-279.472	-200.000	-0.009	0.119
-278.457	-66.071	0.042	0.017
-277.443	45.841	-0.103	-0.094
-276.428	-49.902	0.160	0.075
-275.413	86.712	-0.096	0.104
-274.399	-132.984	0.126	-0.016
-273.384	-200.000	0.014	0.268
-272.370	-7.999	0.507	-0.337
-271.355	-200.000	-0.014	0.088
-270.340	800.000	-0.054	0.162
-269.326	-83.480	-0.258	-0.081
-268.311	5.733	0.191	-0.139
-267.297	240.180	-0.236	-0.386
-266.282	-103.392	0.279	-0.065
-265.267	358.714	-0.054	0.107
-264.253	-144.933	-0.266	0.024
-263.238	800.000	0.138	-0.542
-262.224	372.586	-0.113	-0.226
-261.209	-111.934	-0.203	-0.040
-260.195	-3.492	-0.187	-0.128
-259.180	90.585	0.150	-0.165
-258.165	-24.016	-0.502	-0.295
-257.151	-200.000	0.030	0.136
-256.136	-200.000	0.013	0.079
-255.122	635.943	0.070	0.174
-254.107	145.563	-0.215	0.284
-253.092	124.094	0.070	-0.087
-252.078	11.078	-0.082	0.061
-251.063	800.000	0.060	-0.192
-250.049	-13.591	0.266	-0.170
-249.034	-26.124	-0.114	0.066
-248.019	-100.863	-0.127	0.031
-247.005	409.169	0.167	-0.347
-245.990	-168.531	-0.472	0.018
-244.976	-200.000	-0.023	0.197
-243.961	701.602	0.072	0.186
-242.946	-200.000	0.036	-0.240
-241.932	6.788	0.186	-0.136
-240.917	50.898	-0.169	0.158
-239.903	-200.000	-0.039	0.201
-238.888	273.635	-0.097	-0.168
-237.873	-31.977	0.070	-0.039
-236.859	-33.888	0.285	-0.154
-235.844	23.067	-0.186	-0.150
-234.830	81.677	0.062	0.066
-233.815	399.584	0.145	-0.299
-232.800	86.473	0.125	0.136
-231.786	149.408	0.213	-0.283
-230.771	800.000	-0.098	-0.381
-229.757	800.000	0.046	0.144
-228.742	-12.227	-0.139	0.090
-227.727	-88.092	0.344	-0.101
-226.713	800.000	-0.028	0.109
-225.698	-147.160	0.301	0.025
-224.684	-79.425	0.161	0.054
-223.669	-181.824	0.475	0.009
-222.655	9.289	0.101	0.075
-221.640	-187.370	0.110	-0.001
-220.625	-27.649	-0.211	0.121
-219.611	724.507	-0.043	-0.113
-218.596	800.000	-0.090	-0.316
-217.582	10.223	-0.099	-0.074
-216.567	26.447	0.227	0.186
-215.552	-200.000	-0.004	0.092
-214.538	146.604	0.179	0.237
-213.523	-135.722	0.180	-0.021
-212.509	-117.428	0.491	0.087
-211.494	42.554	-0.064	-0.057
-210.479	-200.000	0.039	0.190
-209.465	119.172	0.191	0.232
-208.450	-200.000	0.053	0.280
-207.436	-30.210	-0.227	-0.127
-206.421	800.000	0.085	0.275
-205.406	-51.465	-0.221	-0.101
-204.392	-63.502	0.198	-0.080
-203.377	45.160	0.137	-0.124
-202.363	0.079	-0.082	-0.057
-201.348	-29.808	0.087	-0.049
-200.333	800.000	-0.060	-0.185
-199.319	-200.000	-0.002	-0.022
-198.304	660.637	0.084	-0.212
-197.290	-200.000	-0.000	-0.104
-196.275	252.189	0.106	0.176
-195.260	20.007	0.242	0.191
-194.246	800.000	-0.119	-0.336
-193.231	-39.713	0.178	0.091
-192.217	-143.305	0.382	-0.036
-191.202	-105.963	0.163	-0.036
-190.187	-91.729	0.339	-0.094
-189.173	-110.529	0.338	-0.069
-188.158	265.530	0.048	0.082
-187.144	-39.051	-0.347	-0.179
-186.129	375.965	-0.074	-0.149
-185.114	-136.498	-0.188	-0.021
-184.100	-200.000	-0.013	0.182
-183.085	11.069	-0.189	-0.142
-182.071	-64.236	0.152	0.061
-181.056	169.838	-0.121	0.170
-180.042	800.000	-0.063	0.240
-179.027	40.192	0.183	0.161
-178.012	741.414	0.086	-0.227
-176.998	-151.396	-0.458	-0.033
-175.983	238.510	-0.204	0.332
-174.969	-200.000	-0.022	-0.105
-173.954	-33.471	0.152	0.082
-172.939	70.933	-0.105	-0.107
-171.925	-200.000	-0.018	0.089
-170.910	-96.839	-0.264	0.068
-169.896	159.619	0.118	0.161
-168.881	-84.680	0.228	0.070
-167.866	-200.000	0.009	0.306
-166.852	5.185	-0.193	-0.140
-165.837	-117.459	-0.106	-0.019
-164.823	800.000	-0.028	0.084
-163.808	800.000	0.123	0.470
-162.793	-87.793	0.323	-0.095
-161.779	573.671	0.090	0.216
-160.764	-200.000	0.014	0.152
-159.750	469.905	0.170	0.374
-158.735	800.000	-0.071	-0.231
-157.720	-96.223	-0.150	0.039
-156.706	-79.696	0.258	-0.085
-155.691	-14.177	0.234	0.148
-154.677	-184.514	-0.335	-0.005
-153.662	-16.680	-0.161	-0.100
-152.647	119.736	0.174	0.212
-151.633	-98.688	0.189	-0.047
-150.618	47.868	-0.205	-0.188
-149.604	64.281	0.231	-0.228
-148.589	-123.870	-0.228	-0.035
-147.574	85.169	-0.115	0.124
-146.560	-200.000	-0.011	0.300
-145.545	-200.000	-0.006	0.138
-144.531	107.935	0.119	0.139
-143.516	-200.000	0.010	0.050
-142.502	-200.000	0.018	-0.243
-141.487	344.537	-0.169	-0.324
-140.472	81.246	0.212	0.224
-139.458	2.323	0.026	-0.018
-138.443	-84.170	0.261	-0.081
-137.429	-200.000	-0.007	-0.080
-136.414	393.485	-0.103	-0.211
-135.399	450.458	0.077	-0.167
-134.385	257.714	-0.097	0.163
-133.370	71.629	-0.068	0.069
-132.356	205.060	-0.123	-0.187
-131.341	-125.556	0.122	-0.018
-130.326	800.000	0.032	-0.108
-129.312	800.000	0.021	0.088
-128.297	-43.033	0.272	0.135
-127.283	30.634	0.088	-0.074
-126.268	-134.298	-0.355	0.043
-125.253	368.159	0.161	-0.318
-124.239	800.000	-0.033	-0.089
-123.224	152.821	0.206	-0.276
-122.210	-120.807	0.031	0.005
