DTS Sentinel unit serial number:	SN413079Multiplexer serial number:	ORYXHardware model number:	OX4-SRSoftware version number:	ORYX F/W v4.00 Oryx Data Collector v3.7.2.0data status	okinstallation	princeton_trtdifferential loss correction	single-endedforward channel	channel 1reverse channel	N/Adate	2019/09/12time	11:44:11forward acquisition time	60.00reverse acquisition time	0.00gamma	496.2192k internal	0.2294k external	0.2294temperature offset calibration	1.0039default loss term (dB/km)	0.3790temperature slope calibration	1.0000multiplexer offset coefficient	1.0000multiplexer slope coefficient	1.0000fibre end	0.00T internal ref (°C)	39.80T ext. ref 1 (°C)	1.98T ext. ref 2 (°C)	37.65length (m)	temperature (°C)	Stokes	anti-Stokes-747.200	-92.567	-0.285	-0.082
-746.185	-68.892	-0.269	-0.106
-745.171	-200.000	-0.040	0.357
-744.156	26.253	-0.036	0.030
-743.142	-99.998	0.310	0.079
-742.127	18.089	-0.173	0.141
-741.112	246.129	-0.101	-0.174
-740.098	-133.840	0.248	-0.031
-739.083	-5.704	-0.374	0.262
-738.069	-115.154	-0.236	0.046
-737.054	800.000	0.047	-0.146
-736.039	148.610	-0.095	-0.131
-735.025	-178.087	0.122	0.003
-734.010	-23.506	-0.210	0.129
-732.996	138.014	-0.097	-0.130
-731.981	-41.843	0.190	-0.099
-730.966	-173.001	0.320	0.010
-729.952	-200.000	0.005	-0.078
-728.937	-56.942	-0.235	0.106
-727.923	24.957	0.099	0.084
-726.908	129.605	-0.158	-0.206
-725.894	18.351	0.093	-0.076
-724.879	-177.754	0.180	0.004
-723.864	124.784	-0.156	-0.201
-722.850	800.000	0.110	0.325
-721.835	-74.999	0.288	-0.105
-720.821	592.113	-0.117	-0.296
-719.806	-170.440	-0.237	-0.008
-718.791	800.000	0.014	-0.064
-717.777	-161.409	-0.185	-0.010
-716.762	-4.634	-0.154	0.109
-715.748	186.647	-0.234	-0.356
-714.733	19.381	-0.110	-0.091
-713.718	-11.185	0.198	-0.134
-712.704	-63.828	-0.329	-0.137
-711.689	-174.523	-0.102	0.003
-710.675	-114.653	-0.191	-0.037
-709.660	-42.430	0.097	0.051
-708.645	-200.000	-0.087	-0.400
-707.631	215.044	-0.095	-0.155
-706.616	133.910	0.074	-0.098
-705.602	-4.947	0.160	0.112
-704.587	-189.858	-0.256	0.003
-703.572	226.502	-0.234	-0.388
-702.558	-200.000	0.009	-0.384
-701.543	-85.650	0.364	0.115
-700.529	-200.000	0.034	-0.289
-699.514	800.000	-0.033	0.127
-698.499	285.322	-0.042	0.078
-697.485	-141.412	0.132	-0.014
-696.470	-57.608	0.245	-0.110
-695.456	116.077	0.153	-0.191
-694.441	-91.147	-0.135	0.040
-693.426	124.817	0.129	0.166
-692.412	152.690	-0.098	0.137
-691.397	121.628	-0.133	0.169
-690.383	307.644	0.137	-0.260
-689.368	95.990	-0.196	-0.228
-688.354	-200.000	0.024	0.132
-687.339	-134.438	-0.202	-0.025
-686.324	196.901	0.144	-0.224
-685.310	107.693	0.232	0.282
-684.295	-160.444	0.071	-0.004
-683.281	800.000	0.064	0.275
-682.266	-124.899	-0.126	0.020
-681.251	-118.512	-0.030	0.005
-680.237	414.185	0.103	-0.223
-679.222	-101.944	0.086	-0.021
-678.208	-116.014	0.093	-0.018
-677.193	-88.911	0.124	-0.037
-676.178	-29.754	-0.131	-0.076
-675.164	-109.774	0.290	-0.062
-674.149	30.028	-0.122	-0.106
-673.135	-200.000	-0.005	-0.107
-672.120	120.584	-0.224	0.284
-671.105	153.329	-0.157	-0.219
-670.091	103.220	0.131	-0.157
-669.076	-52.494	0.217	-0.102
-668.062	19.432	0.070	-0.057
-667.047	-33.425	0.105	-0.059
-666.032	-160.143	-0.650	-0.036
-665.018	800.000	-0.059	0.246
-664.003	-200.000	-0.043	-0.263
-662.989	-99.033	0.166	0.043
-661.974	213.163	0.099	-0.160
-660.959	-32.942	0.254	0.144
-659.945	-200.000	0.007	0.200
-658.930	304.562	-0.113	-0.215
-657.916	800.000	0.028	-0.088
-656.901	-4.129	-0.307	-0.217
-655.886	2.428	-0.177	-0.131
-654.872	210.931	-0.114	-0.182
-653.857	173.629	-0.109	0.161
-652.843	-172.692	0.199	-0.006
-651.828	-166.071	-0.524	-0.023
-650.814	4.854	-0.047	-0.035
-649.799	187.662	-0.018	-0.028
-648.784	155.538	-0.076	0.107
-647.770	-68.032	-0.256	-0.102
-646.755	36.615	-0.434	-0.390
-645.741	-31.619	0.058	-0.033
-644.726	-200.000	0.059	-0.514
-643.711	-71.197	-0.584	-0.223
-642.697	-172.819	0.172	-0.005
-641.682	-200.000	-0.009	-0.231
-640.668	83.371	-0.089	0.099
-639.653	-24.806	0.227	-0.137
-638.638	-185.624	-0.114	-0.002
-637.624	-40.378	-0.297	0.157
-636.609	173.339	-0.048	0.070
-635.595	-3.725	-0.338	-0.239
-634.580	-200.000	-0.027	0.239
-633.565	-130.657	0.324	0.044
-632.551	-200.000	-0.028	-0.371
-631.536	-200.000	0.005	-0.062
-630.522	-80.149	0.062	-0.021
-629.507	-156.218	-0.380	0.024
-628.492	800.000	0.062	0.220
-627.478	-200.000	-0.063	0.355
-626.463	800.000	-0.084	-0.281
-625.449	800.000	0.090	-0.319
-624.434	495.666	0.180	-0.421
-623.419	-91.750	-0.205	0.059
-622.405	-112.133	-0.152	0.031
-621.390	-80.113	-0.250	0.085
-620.376	-200.000	0.041	-0.194
-619.361	42.734	0.024	-0.022
-618.346	63.133	0.060	-0.062
-617.332	-163.564	-0.216	-0.010
-616.317	-106.545	-0.150	0.034
-615.303	-43.417	-0.260	-0.134
-614.288	-200.000	0.021	0.186
-613.273	721.393	-0.036	-0.099
-612.259	183.493	0.057	-0.086
-611.244	-6.787	-0.089	-0.062
-610.230	120.552	0.217	-0.275
-609.215	245.855	0.052	0.089
-608.201	69.112	0.068	-0.071
-607.186	-58.460	0.031	-0.014
-606.171	800.000	0.046	0.147
-605.157	-33.763	-0.090	0.050
-604.142	158.266	0.131	-0.185
-603.128	658.011	0.043	-0.112
-602.113	-200.000	-0.005	-0.138
-601.098	-200.000	0.003	-0.026
-600.084	800.000	0.036	-0.133
-599.069	394.616	-0.122	-0.260
-598.055	305.582	0.106	-0.200
-597.040	-200.000	-0.021	-0.155
-596.025	-67.951	-0.253	0.101
-595.011	-114.947	-0.351	0.068
-593.996	-134.263	-0.226	0.028
-592.982	800.000	-0.029	-0.087
-591.967	-169.487	-0.285	0.011
-590.952	289.900	-0.037	0.069
-589.938	800.000	0.065	0.287
-588.923	98.773	-0.062	0.073
-587.909	100.613	0.105	0.123
-586.894	800.000	0.098	-0.286
-585.879	6.594	-0.262	0.198
-584.865	-61.894	0.191	-0.081
-583.850	-200.000	0.005	-0.205
-582.836	-79.560	-0.389	-0.133
-581.821	-91.717	0.112	0.032
-580.806	183.053	-0.118	0.177
-579.792	-200.000	-0.001	0.143
-578.777	-93.445	0.070	0.020
-577.763	-30.592	-0.431	0.248
-576.748	41.331	-0.083	0.077
-575.733	292.363	-0.183	0.339
-574.719	-200.000	-0.049	0.496
-573.704	-13.805	-0.019	-0.012
-572.690	411.996	-0.040	0.086
-571.675	-93.106	0.204	-0.058
-570.661	-200.000	0.009	0.222
-569.646	671.997	-0.070	0.184
-568.631	440.591	-0.060	-0.134
-567.617	450.950	-0.034	0.075
-566.602	-200.000	-0.036	-0.200
-565.588	354.780	-0.067	-0.135
-564.573	800.000	0.094	0.307
-563.558	-196.184	0.445	0.003
-562.544	-82.163	-0.301	0.100
-561.529	-200.000	0.024	0.158
-560.515	62.198	-0.177	0.179
-559.500	-109.725	-0.206	-0.044
-558.485	11.632	-0.248	0.193
-557.471	-29.734	-0.120	0.070
-556.456	-154.710	-0.192	0.013
-555.442	448.865	0.150	0.337
-554.427	-102.795	-0.083	0.020
-553.412	800.000	0.107	0.360
-552.398	-200.000	-0.052	0.239
-551.383	-70.580	0.160	-0.061
-550.369	90.901	-0.061	-0.070
-549.354	168.344	0.041	-0.059
-548.339	71.804	-0.034	-0.036
-547.325	-138.710	0.153	0.017
-546.310	144.174	-0.107	-0.145
-545.296	249.382	-0.044	-0.076
-544.281	800.000	-0.059	0.239
-543.266	800.000	0.044	-0.143
-542.252	-75.850	-0.449	0.161
-541.237	583.228	-0.050	0.125
-540.223	-200.000	-0.290	0.001
-539.208	407.488	0.093	-0.199
-538.193	81.789	0.152	-0.167
-537.179	800.000	-0.069	-0.260
-536.164	-44.202	0.172	-0.088
-535.150	2.360	0.338	0.248
-534.135	57.064	-0.112	-0.110
-533.121	85.168	0.121	-0.135
-532.106	800.000	-0.032	0.113
-531.091	-60.137	-0.203	-0.088
-530.077	11.333	-0.051	-0.039
-529.062	-49.033	-0.209	0.102
-528.048	124.236	-0.024	-0.030
-527.033	-70.776	-0.058	0.022
-526.018	-85.365	0.203	0.064
-525.004	79.887	-0.212	-0.231
-523.989	-196.684	-0.196	0.001
-522.975	242.061	0.174	-0.295
-521.960	90.338	0.217	-0.246
-520.945	800.000	-0.030	-0.113
-519.931	-200.000	-0.031	0.537
-518.916	-200.000	-0.011	0.113
-517.902	47.273	-0.155	0.146
-516.887	800.000	0.158	0.639
-515.872	722.734	-0.016	0.043
-514.858	182.401	0.307	0.459
-513.843	-200.000	-0.013	0.261
-512.829	-200.000	0.054	-0.388
-511.814	800.000	0.033	0.138
-510.799	29.550	-0.071	-0.061
-509.785	-110.955	0.306	-0.064
-508.770	-33.869	0.156	0.087
-507.756	-105.867	0.063	-0.014
-506.741	-156.607	0.160	-0.010
-505.726	-200.000	-0.003	0.041
-504.712	243.989	0.126	-0.213
-503.697	-117.170	0.156	0.029
-502.683	-13.548	-0.182	0.120
-501.668	-88.586	-0.145	0.044
-500.653	-138.632	-0.285	-0.032
-499.639	-58.094	-0.202	0.089
-498.624	-200.000	0.022	-0.293
-497.610	97.823	-0.167	-0.195
-496.595	133.540	-0.138	-0.181
-495.581	22.533	0.267	-0.221
-494.566	42.231	-0.123	0.113
-493.551	-200.000	0.002	-0.021
-492.537	-49.182	0.138	0.067
-491.522	-189.816	0.231	0.003
-490.508	145.155	-0.250	0.339
-489.493	800.000	0.034	-0.107
-488.478	328.625	0.219	-0.426
-487.464	53.867	-0.199	0.194
-486.449	-40.058	-0.091	0.048
-485.435	190.150	0.062	0.094
-484.420	105.167	-0.062	-0.074
-483.405	-160.546	0.113	-0.006
-482.391	800.000	0.033	0.092
-481.376	41.801	0.140	-0.129
-480.362	63.315	0.182	0.185
-479.347	800.000	0.101	-0.350
-478.332	361.138	0.126	-0.256
-477.318	280.645	0.050	0.091
-476.303	-91.318	-0.205	0.059
-475.289	800.000	-0.090	-0.316
-474.274	-200.000	0.015	-0.068
-473.259	-20.479	0.387	0.241
-472.245	-107.600	-0.158	-0.035
-471.230	-71.425	0.189	0.072
-470.216	-54.611	0.034	-0.015
-469.201	526.467	-0.000	0.001
-468.186	538.211	0.060	0.145
-467.172	-14.584	-0.267	-0.174
-466.157	-94.049	0.046	-0.013
-465.143	-128.849	0.283	0.040
-464.128	36.597	-0.226	-0.201
-463.113	444.633	-0.195	-0.434
-462.099	254.176	-0.066	0.114
-461.084	15.409	-0.140	0.111
-460.070	492.387	-0.144	-0.334
-459.055	-46.020	0.205	0.102
-458.040	-44.122	0.143	-0.073
-457.026	67.574	-0.152	0.157
-456.011	565.745	-0.032	0.078
-454.997	510.512	0.057	0.134
-453.982	38.061	-0.327	0.294
-452.968	446.375	-0.171	0.381
-451.953	-158.045	0.090	0.005
-450.938	-200.000	-0.042	-0.338
-449.924	800.000	-0.044	0.144
-448.909	-8.336	0.294	-0.200
-447.895	-87.486	0.075	-0.023
-446.880	-115.263	0.267	0.051
-445.865	-38.922	-0.177	0.094
-444.851	549.156	0.200	-0.485
-443.836	108.989	-0.088	0.106
-442.822	-52.301	-0.262	-0.123
-441.807	-150.842	0.074	0.006
-440.792	-21.158	-0.104	-0.064
-439.778	-200.000	0.011	0.197
-438.763	-69.234	0.284	0.110
-437.749	-162.210	-0.256	0.013
-436.734	100.380	0.167	-0.196
-435.719	178.108	0.110	-0.162
-434.705	243.893	0.193	-0.326
-433.690	-82.952	-0.171	0.056
-432.676	-120.678	-0.084	-0.014
-431.661	19.898	0.055	0.045
-430.646	-127.759	0.121	-0.018
-429.632	277.995	0.073	0.131
-428.617	-42.819	-0.164	0.084
-427.603	155.811	-0.105	0.146
-426.588	-200.000	0.057	0.596
-425.573	124.923	-0.215	0.274
-424.559	-200.000	0.027	0.145
-423.544	800.000	0.026	-0.099
-422.530	21.758	0.198	-0.163
-421.515	-148.064	-0.330	0.028
-420.500	-200.000	-0.013	-0.098
-419.486	-69.495	0.055	0.021
-418.471	356.965	0.144	-0.290
-417.457	800.000	0.030	-0.113
-416.442	800.000	-0.081	0.241
-415.428	-200.000	-0.003	-0.125
-414.413	189.730	-0.254	-0.385
-413.398	-12.273	-0.291	-0.192
-412.384	-47.822	0.173	-0.085
-411.369	-200.000	-0.021	0.322
-410.355	231.611	-0.080	0.132
-409.340	326.532	0.237	-0.458
-408.325	180.960	0.095	-0.142
-407.311	-200.000	-0.059	-0.260
-406.296	-200.000	0.004	0.101
-405.282	349.350	-0.043	0.086
-404.267	53.744	-0.074	0.072
-403.252	-200.000	0.021	0.226
-402.238	350.883	0.187	0.373
-401.223	-159.287	-0.066	0.004
-400.209	-200.000	-0.008	-0.069
-399.194	546.203	0.074	0.179
-398.179	-200.000	0.033	0.155
-397.165	41.146	0.025	0.023
-396.150	-200.000	-0.019	-0.091
-395.136	115.307	0.241	0.297
-394.121	570.559	0.019	0.047
-393.106	28.597	0.163	-0.139
-392.092	-200.000	-0.038	-0.226
-391.077	-51.723	0.422	-0.198
-390.063	34.241	0.340	0.300
-389.048	85.217	-0.216	0.239
-388.033	-200.000	-0.013	0.193
-387.019	293.200	-0.158	-0.291
-386.004	15.056	0.071	0.056
-384.990	111.972	-0.255	-0.311
-383.975	800.000	-0.050	-0.145
-382.960	511.939	-0.058	-0.137
-381.946	-123.417	0.237	-0.038
-380.931	-200.000	-0.019	0.095
-379.917	102.228	0.034	0.041
-378.902	135.982	0.048	0.063
-377.888	-84.053	0.206	-0.066
-376.873	194.195	-0.044	-0.067
-375.858	-28.379	-0.180	0.104
-374.844	158.714	-0.275	0.385
-373.829	800.000	0.139	-0.388
-372.815	165.139	0.129	0.183
-371.800	800.000	-0.068	0.198
-370.785	-95.632	-0.227	-0.061
-369.771	-75.355	-0.095	-0.034
-368.756	-97.768	0.098	-0.026
-367.742	-200.000	-0.017	-0.151
-366.727	-200.000	-0.008	-0.128
-365.712	202.716	-0.158	0.246
-364.698	34.480	-0.065	-0.057
-363.683	333.172	-0.090	0.175
-362.669	-68.034	0.044	-0.017
-361.654	-127.006	0.052	0.008
-360.639	-200.000	0.014	0.200
-359.625	576.685	-0.133	0.326
-358.610	800.000	-0.076	-0.237
-357.596	-200.000	0.000	-0.180
-356.581	175.337	0.174	-0.254
-355.566	-200.000	-0.012	-0.282
-354.552	-200.000	0.013	0.067
-353.537	-145.704	0.078	0.007
-352.523	800.000	0.059	0.242
-351.508	-6.070	-0.082	0.057
-350.493	131.425	0.189	0.245
-349.479	13.083	-0.123	-0.096
-348.464	-90.747	-0.232	-0.067
-347.450	-151.849	-0.063	-0.005
-346.435	53.545	-0.054	-0.052
-345.420	202.209	-0.173	-0.268
-344.406	-135.043	-0.355	0.043
-343.391	119.413	-0.070	0.088
-342.377	-115.297	0.051	-0.010
-341.362	543.948	-0.094	0.227
-340.348	325.061	-0.169	0.326
-339.333	593.226	-0.081	-0.200
-338.318	191.790	0.026	-0.040
-337.304	120.638	0.117	-0.147
-336.289	-200.000	0.014	0.075
-335.275	800.000	-0.055	-0.238
-334.260	-71.908	0.363	-0.136
-333.245	75.923	0.237	-0.252
-332.231	-8.124	-0.105	0.071
-331.216	-90.337	0.136	0.040
-330.202	62.278	0.077	0.077
-329.187	26.912	-0.189	0.160
-328.172	66.422	0.140	0.143
-327.158	11.404	-0.147	-0.113
-326.143	-123.416	0.172	0.028
-325.129	-96.451	-0.148	-0.039
-324.114	-200.000	0.007	-0.052
-323.099	800.000	0.078	-0.277
-322.085	-3.212	-0.182	0.128
-321.070	-200.000	-0.014	-0.082
-320.056	523.951	-0.089	-0.209
-319.041	-200.000	0.022	-0.595
-318.026	194.190	0.089	-0.136
-317.012	-200.000	-0.039	0.231
-315.997	800.000	-0.061	0.235
-314.983	-200.000	0.020	0.200
-313.968	91.481	-0.056	0.063
-312.953	800.000	0.056	0.240
-311.939	46.323	-0.110	-0.103
-310.924	-72.606	0.237	-0.088
-309.910	-164.417	0.271	-0.012
-308.895	72.585	0.132	-0.139
-307.880	131.545	-0.192	-0.249
-306.866	147.256	0.117	0.158
-305.851	-145.419	-0.166	-0.015
-304.837	800.000	0.070	0.212
-303.822	-44.930	0.272	-0.136
-302.807	-75.817	0.237	0.085
-301.793	249.823	0.118	-0.201
-300.778	-101.641	-0.172	-0.042
-299.764	-58.298	-0.123	-0.054
-298.749	708.485	0.062	0.164
-297.735	-165.676	-0.105	-0.005
-296.720	-200.000	0.009	-0.200
-295.705	-200.000	0.039	-0.267
-294.691	680.049	0.038	-0.098
-293.676	1.590	0.137	-0.099
-292.662	800.000	-0.122	0.363
-291.647	-64.279	-0.156	0.064
-290.632	45.281	-0.199	0.185
-289.618	-150.167	0.229	0.018
-288.603	137.318	0.248	0.326
-287.589	-101.603	-0.196	0.048
-286.574	-200.000	0.015	-0.118
-285.559	5.238	-0.043	-0.031
-284.545	327.508	-0.062	0.120
-283.530	-200.000	-0.020	-0.146
-282.516	800.000	0.054	-0.180
-281.501	-82.564	-0.243	-0.079
-280.486	329.239	0.192	-0.371
-279.472	33.817	0.154	0.135
-278.457	-81.040	-0.144	0.048
-277.443	473.287	0.134	0.304
-276.428	-200.000	-0.002	-0.160
-275.413	-200.000	0.027	0.236
-274.399	800.000	-0.043	0.171
-273.384	122.027	0.079	0.099
-272.370	32.657	0.130	0.112
-271.355	258.248	0.243	0.421
-270.340	559.144	-0.024	-0.057
-269.326	78.346	0.172	0.184
-268.311	-200.000	0.016	0.157
-267.297	800.000	0.094	-0.319
-266.282	67.981	0.200	0.205
-265.267	72.315	0.100	-0.105
-264.253	131.449	-0.090	0.116
-263.238	148.281	-0.055	0.075
-262.224	103.631	0.123	0.145
-261.209	-200.000	0.023	0.184
-260.195	800.000	0.075	0.266
-259.180	-131.756	0.384	-0.050
-258.165	121.217	-0.236	0.295
-257.151	341.959	-0.032	0.063
-256.136	261.401	0.064	0.111
-255.122	547.472	-0.056	-0.134
-254.107	-200.000	-0.050	0.487
-253.092	148.354	0.227	-0.307
-252.078	-44.320	0.338	0.170
-251.063	126.235	0.188	-0.239
-250.049	746.613	-0.122	-0.329
-249.034	800.000	-0.032	0.123
-248.019	113.623	-0.059	-0.072
-247.005	32.193	0.264	-0.228
-245.990	800.000	0.119	-0.407
-244.976	110.197	-0.126	-0.152
-243.961	-38.543	-0.088	0.046
-242.946	124.599	0.249	-0.315
-241.932	-146.762	0.053	0.005
-240.917	21.147	-0.202	-0.165
-239.903	344.748	-0.213	-0.419
-238.888	378.513	-0.074	-0.151
-237.873	197.106	0.202	-0.309
-236.859	-74.778	0.286	0.103
-235.844	-144.871	0.358	-0.033
-234.830	774.950	-0.050	0.137
-233.815	127.070	0.046	0.058
-232.800	-66.695	-0.244	-0.097
-231.786	88.718	0.160	-0.178
-230.771	-136.117	-0.157	-0.018
-229.757	-99.871	0.228	-0.057
-228.742	-200.000	0.033	0.170
-227.727	-200.000	0.000	-0.075
-226.713	154.717	0.102	-0.141
-225.698	525.550	0.105	0.247
-224.684	-116.606	0.268	0.049
-223.669	-82.621	0.220	-0.071
-222.655	-198.108	-0.248	-0.001
-221.640	-115.893	0.210	0.039
-220.625	-76.990	-0.142	-0.050
-219.611	-1.339	-0.322	-0.228
-218.596	222.241	-0.048	0.077
-217.582	5.563	0.271	-0.200
-216.567	-138.137	-0.203	-0.023
-215.552	39.459	-0.247	-0.222
-214.538	-90.802	-0.102	0.029
-213.523	240.586	0.120	-0.201
-212.509	800.000	0.082	0.272
-211.494	-182.923	0.142	-0.003
-210.479	-119.475	0.251	0.044
-209.465	98.318	0.213	0.245
-208.450	-200.000	-0.014	0.144
-207.436	-69.897	-0.287	0.109
-206.421	-170.290	0.294	-0.010
-205.406	269.199	0.133	0.233
-204.392	-200.000	-0.118	-0.521
-203.377	-153.596	-0.501	0.035
-202.363	-81.394	0.107	0.035
-201.348	-60.037	0.217	0.093
-200.333	-200.000	0.023	0.216
-199.319	135.339	0.139	-0.182
-198.304	-200.000	-0.004	-0.353
-197.290	-46.713	-0.275	-0.135
-196.275	29.296	0.319	0.271
-195.260	-120.628	0.165	0.028
-194.246	-200.000	0.021	0.093
-193.231	-200.000	0.003	0.232
-192.217	-152.637	-0.089	-0.006
-191.202	34.371	-0.053	-0.046
-190.187	-200.000	-0.008	-0.053
-189.173	96.480	0.150	0.172
-188.158	-200.000	0.032	-0.201
-187.144	-112.700	0.385	-0.077
-186.129	48.723	0.229	-0.215
-185.114	103.692	0.162	0.191
-184.100	-129.530	-0.277	-0.038
-183.085	723.281	0.157	-0.418
-182.071	398.973	-0.031	-0.064
-181.056	-140.209	-0.139	0.015
-180.042	163.668	0.118	-0.166
-179.027	-81.721	0.171	0.056
-178.012	-175.665	-0.083	0.002
-176.998	10.100	0.088	-0.067
-175.983	59.834	0.057	0.056
-174.969	-139.289	0.200	0.022
-173.954	166.609	0.358	0.508
-172.939	-19.357	-0.283	0.175
-171.925	800.000	-0.085	0.360
-170.910	179.895	0.089	0.130
-169.896	-79.351	-0.079	0.027
-168.881	-21.859	-0.187	0.114
-167.866	3.438	0.205	-0.149
-166.852	716.269	-0.016	-0.042
-165.837	190.630	-0.155	0.234
-164.823	-200.000	-0.007	0.301
-163.808	800.000	0.083	-0.235
-162.793	-200.000	-0.017	-0.308
-161.779	-200.000	0.037	0.215
-160.764	800.000	0.083	0.316
-159.750	-137.170	-0.378	-0.043
-158.735	-179.370	0.263	-0.006
-157.720	-35.778	-0.153	0.083
-156.706	118.928	0.025	0.031
-155.691	-60.287	0.290	-0.123
-154.677	-123.089	-0.043	-0.007
-153.662	-200.000	-0.085	0.405
-152.647	387.064	-0.039	0.081
-151.633	147.486	0.134	0.180
-150.618	-200.000	0.016	-0.228
-149.604	-145.693	-0.255	-0.023
-148.589	-69.942	0.121	0.046
-147.574	800.000	-0.088	-0.287
-146.560	81.553	-0.079	-0.085
-145.545	526.345	0.132	0.310
-144.531	66.690	0.092	0.094
-143.516	230.583	0.141	-0.231
-142.502	-8.273	-0.321	-0.216
-141.487	-200.000	0.020	-0.289
-140.472	-55.815	-0.551	0.246
-139.458	-200.000	-0.002	0.106
-138.443	-4.195	0.309	0.213
-137.429	-168.013	-0.138	0.005
-136.414	171.540	-0.240	0.344
-135.399	-170.706	0.276	0.010
-134.385	445.315	-0.159	-0.350
-133.370	-1.108	-0.131	0.092
-132.356	-105.429	-0.019	0.004
-131.341	28.319	0.151	-0.127
-130.326	88.847	0.190	-0.211
-129.312	-171.909	0.397	-0.013
-128.297	-75.956	0.343	0.121
-127.283	270.049	-0.132	-0.232
-126.268	-85.945	0.279	0.086
-125.253	137.067	-0.226	-0.294
-124.239	562.359	-0.082	-0.197
-123.224	312.572	-0.053	-0.099
-122.210	-152.003	-0.174	-0.013
