DTS Sentinel unit serial number:	SN413079Multiplexer serial number:	ORYXHardware model number:	OX4-SRSoftware version number:	ORYX F/W v4.00 Oryx Data Collector v3.7.2.0data status	okinstallation	princeton_trtdifferential loss correction	single-endedforward channel	channel 1reverse channel	N/Adate	2019/09/12time	22:46:35forward acquisition time	60.00reverse acquisition time	0.00gamma	496.2192k internal	0.2327k external	0.2327temperature offset calibration	1.0146default loss term (dB/km)	0.3790temperature slope calibration	1.0000multiplexer offset coefficient	1.0000multiplexer slope coefficient	1.0000fibre end	0.00T internal ref (°C)	29.50T ext. ref 1 (°C)	3.73T ext. ref 2 (°C)	24.06length (m)	temperature (°C)	Stokes	anti-Stokes-747.200	8.121	-0.272	-0.206
-746.185	776.508	-0.093	0.255
-745.171	-51.328	-0.099	0.047
-744.156	-200.000	-0.007	0.211
-743.142	-200.000	-0.058	0.311
-742.127	291.348	0.068	0.125
-741.112	-170.026	0.203	-0.007
-740.098	762.953	-0.069	0.189
-739.083	-14.416	0.225	0.146
-738.069	606.350	0.116	-0.292
-737.054	42.731	-0.108	0.099
-736.039	-40.800	-0.149	-0.078
-735.025	-68.890	0.136	-0.053
-734.010	-200.000	0.013	-0.120
-732.996	-88.945	-0.226	0.068
-731.981	-55.024	-0.161	-0.073
-730.966	60.690	-0.169	-0.169
-729.952	-139.494	-0.347	0.037
-728.937	-76.619	0.252	0.089
-727.923	565.778	-0.075	-0.183
-726.908	-111.296	0.053	0.011
-725.894	62.814	-0.088	-0.089
-724.879	800.000	-0.112	0.359
-723.864	-54.342	0.145	-0.066
-722.850	800.000	-0.059	-0.237
-721.835	3.936	-0.316	-0.232
-720.821	-60.676	-0.062	-0.026
-719.806	-80.791	-0.124	0.042
-718.791	-200.000	0.029	-0.230
-717.777	43.569	-0.123	-0.113
-716.762	-178.751	0.285	-0.007
-715.748	-66.380	0.182	0.073
-714.733	-90.829	-0.448	0.130
-713.718	-63.043	-0.133	0.055
-712.704	-159.641	-0.088	-0.005
-711.689	172.831	0.152	0.220
-710.675	-171.229	-0.114	0.004
-709.660	181.932	-0.116	-0.172
-708.645	-59.040	0.165	-0.072
-707.631	-21.148	-0.118	-0.073
-706.616	1.465	-0.311	-0.225
-705.602	-94.653	0.214	-0.059
-704.587	-200.000	-0.022	0.260
-703.572	-200.000	0.003	-0.022
-702.558	-200.000	-0.036	0.241
-701.543	642.484	0.037	0.094
-700.529	-30.550	0.171	0.097
-699.514	800.000	0.152	0.550
-698.499	82.021	0.113	-0.123
-697.485	692.953	0.145	0.383
-696.470	-48.351	0.338	0.164
-695.456	-171.824	-0.527	0.017
-694.441	-92.771	0.191	0.054
-693.426	800.000	0.068	0.252
-692.412	800.000	-0.061	0.186
-691.397	712.115	-0.123	0.327
-690.383	72.019	-0.141	-0.147
-689.368	-40.326	-0.023	0.012
-688.354	-19.161	-0.403	-0.252
-687.339	-134.685	0.114	0.014
-686.324	133.175	-0.053	-0.069
-685.310	-145.576	-0.150	-0.014
-684.295	31.457	0.271	0.234
-683.281	-86.287	0.163	0.050
-682.266	-156.071	-0.582	-0.037
-681.251	313.035	-0.106	0.199
-680.237	420.998	0.085	-0.184
-679.222	6.848	0.200	0.150
-678.208	578.028	0.039	0.095
-677.193	288.475	-0.081	-0.148
-676.178	-200.000	0.010	0.319
-675.164	524.509	-0.042	0.100
-674.149	87.067	-0.153	0.170
-673.135	-166.539	0.194	0.008
-672.120	-200.000	-0.004	-0.022
-671.105	11.298	-0.250	-0.192
-670.091	-200.000	-0.029	0.210
-669.076	-110.837	-0.254	0.053
-668.062	-200.000	-0.014	0.273
-667.047	-35.040	0.179	-0.098
-666.032	236.687	-0.026	0.044
-665.018	-76.722	-0.150	-0.053
-664.003	-165.278	0.295	0.013
-662.989	-36.140	-0.048	-0.026
-661.974	24.027	-0.283	0.235
-660.959	-200.000	-0.028	-0.234
-659.945	-120.016	-0.247	0.043
-658.930	-200.000	0.024	-0.179
-657.916	550.334	-0.045	0.108
-656.901	-200.000	0.039	0.256
-655.886	15.940	-0.232	0.184
-654.872	-200.000	-0.004	-0.059
-653.857	144.423	-0.264	-0.354
-652.843	121.079	-0.195	0.244
-651.828	84.928	-0.061	-0.067
-650.814	-78.121	0.504	0.174
-649.799	46.153	-0.355	-0.330
-648.784	800.000	-0.005	-0.023
-647.770	416.614	0.135	-0.290
-646.755	-200.000	0.046	-0.209
-645.741	-99.359	0.162	-0.041
-644.726	54.903	-0.305	0.296
-643.711	-88.838	-0.332	0.099
-642.697	346.579	0.133	-0.262
-641.682	-176.710	-0.238	-0.006
-640.668	193.820	-0.088	-0.133
-639.653	800.000	0.113	-0.430
-638.638	71.458	0.164	-0.171
-637.624	-27.237	0.232	-0.136
-636.609	341.277	-0.032	0.062
-635.595	103.901	0.049	-0.058
-634.580	-2.742	0.239	-0.168
-633.565	-48.128	-0.364	-0.177
-632.551	-146.563	-0.083	0.007
-631.536	-25.156	-0.164	-0.097
-630.522	-44.689	-0.322	-0.161
-629.507	-163.245	0.368	-0.018
-628.492	75.835	0.130	0.138
-627.478	-200.000	-0.004	-0.189
-626.463	676.451	0.053	-0.138
-625.449	406.479	0.066	-0.139
-624.434	74.005	0.013	-0.014
-623.419	-138.281	0.257	0.029
-622.405	480.310	0.110	0.251
-621.390	247.898	-0.026	0.044
-620.376	-21.150	0.014	0.009
-619.361	102.066	-0.074	0.087
-618.346	758.959	0.031	0.085
-617.332	-200.000	-0.028	0.155
-616.317	-75.703	0.168	0.060
-615.303	320.770	-0.102	0.194
-614.288	255.239	-0.085	-0.147
-613.273	-133.869	0.157	0.020
-612.259	-79.732	-0.197	-0.067
-611.244	88.662	0.204	-0.227
-610.230	235.780	0.204	0.339
-609.215	800.000	-0.057	-0.211
-608.201	-49.045	0.126	0.060
-607.186	800.000	-0.075	0.312
-606.171	-200.000	0.004	-0.182
-605.157	20.916	0.187	0.152
-604.142	-200.000	-0.014	-0.302
-603.128	-200.000	0.005	-0.046
-602.113	-200.000	-0.035	-0.240
-601.098	590.958	0.101	0.251
-600.084	459.695	0.094	0.210
-599.069	-69.917	-0.135	0.052
-598.055	-89.442	-0.306	0.090
-597.040	-57.047	0.062	0.027
-596.025	800.000	-0.024	-0.089
-595.011	-82.282	-0.230	0.075
-593.996	215.900	-0.165	-0.262
-592.982	-82.420	-0.188	-0.061
-591.967	86.984	0.243	0.269
-590.952	-43.656	0.049	0.025
-589.938	157.289	-0.099	-0.138
-588.923	-73.590	-0.184	-0.067
-587.909	80.104	-0.109	-0.117
-586.894	-200.000	0.009	0.120
-585.879	-200.000	0.008	0.134
-584.865	-125.900	-0.253	0.038
-583.850	-75.880	-0.210	-0.074
-582.836	22.941	0.061	0.050
-581.821	-157.750	0.197	0.012
-580.806	-34.312	-0.281	-0.154
-579.792	-200.000	-0.036	0.299
-578.777	114.272	0.227	0.277
-577.763	113.319	0.186	0.226
-576.748	-122.145	0.106	0.017
-575.733	-24.129	-0.267	-0.160
-574.719	-36.978	0.072	0.038
-573.704	-117.282	0.125	0.023
-572.690	193.953	0.106	0.161
-571.675	-200.000	0.016	0.275
-570.661	800.000	-0.051	0.179
-569.646	205.466	-0.145	0.226
-568.631	-200.000	0.047	0.249
-567.617	-35.486	0.302	-0.164
-566.602	-200.000	-0.054	-0.336
-565.588	800.000	0.103	-0.368
-564.573	463.359	-0.109	-0.243
-563.558	-200.000	-0.022	-0.142
-562.544	-138.103	-0.247	-0.027
-561.529	169.300	-0.017	-0.024
-560.515	-148.806	0.222	-0.018
-559.500	-200.000	-0.018	-0.126
-558.485	76.104	0.232	0.246
-557.471	232.088	-0.148	0.244
-556.456	-200.000	0.010	0.054
-555.442	-45.873	-0.176	-0.087
-554.427	-200.000	0.031	0.168
-553.412	-46.892	-0.287	0.140
-552.398	-92.313	0.228	0.064
-551.383	-200.000	-0.015	-0.152
-550.369	193.499	-0.136	-0.206
-549.354	71.519	-0.215	0.223
-548.339	-200.000	-0.007	-0.117
-547.325	-23.549	0.268	-0.161
-546.310	-200.000	-0.003	-0.052
-545.296	496.981	-0.022	0.050
-544.281	-37.987	-0.236	-0.125
-543.266	37.954	-0.272	0.242
-542.252	224.836	0.146	-0.236
-541.237	-54.417	-0.403	0.183
-540.223	23.387	0.061	0.050
-539.208	383.426	-0.140	0.289
-538.193	-105.263	0.047	0.011
-537.179	-52.539	0.246	-0.114
-536.164	592.748	0.165	0.407
-535.150	-200.000	-0.033	-0.350
-534.135	-200.000	0.003	-0.166
-533.121	800.000	0.074	-0.235
-532.106	-125.961	-0.109	-0.016
-531.091	105.377	-0.157	-0.186
-530.077	800.000	-0.089	-0.271
-529.062	-110.249	0.359	0.075
-528.048	-200.000	-0.029	0.159
-527.033	-36.241	0.274	-0.148
-526.018	-59.634	0.090	-0.038
-525.004	-95.009	0.093	0.025
-523.989	-200.000	0.076	-0.368
-522.975	800.000	0.047	0.197
-521.960	-70.411	0.187	0.071
-520.945	-138.325	-0.045	-0.005
-519.931	-20.712	-0.120	0.074
-518.916	21.865	0.239	-0.194
-517.902	-200.000	0.005	0.401
-516.887	0.537	-0.251	0.179
-515.872	-101.223	0.181	-0.044
-514.858	242.205	0.093	-0.156
-513.843	316.814	0.171	0.322
-512.829	-115.485	0.254	-0.048
-511.814	-185.221	0.058	-0.001
-510.799	56.427	-0.138	0.134
-509.785	-38.138	0.131	-0.070
-508.770	-17.591	0.084	0.053
-507.756	-159.275	0.442	0.025
-506.741	-62.015	-0.451	0.188
-505.726	-129.199	-0.271	-0.038
-504.712	97.238	-0.113	0.130
-503.697	392.036	-0.121	0.252
-502.683	800.000	0.041	-0.142
-501.668	-121.942	0.041	0.007
-500.653	-200.000	-0.044	-0.256
-499.639	193.186	0.154	-0.233
-498.624	-200.000	-0.031	-0.137
-497.610	42.856	0.105	0.095
-496.595	123.438	0.215	0.269
-495.581	800.000	-0.085	0.242
-494.566	-200.000	0.009	0.042
-493.551	-116.589	0.292	0.054
-492.537	-74.373	-0.169	0.061
-491.522	-14.041	0.080	0.052
-490.508	-131.927	-0.221	-0.029
-489.493	-15.767	0.148	-0.094
-488.478	-32.892	-0.510	-0.283
-487.464	-178.635	0.187	0.004
-486.449	113.454	-0.157	0.190
-485.435	190.489	0.039	0.058
-484.420	-129.835	-0.436	-0.060
-483.405	171.887	-0.094	-0.135
-482.391	-23.298	0.427	0.256
-481.376	81.628	0.304	-0.328
-480.362	136.365	-0.124	-0.161
-479.347	800.000	0.076	-0.225
-478.332	-95.603	-0.444	0.119
-477.318	84.527	-0.218	-0.238
-476.303	-200.000	-0.035	0.236
-475.289	-96.630	-0.262	-0.069
-474.274	363.483	-0.191	-0.384
-473.259	58.190	-0.064	0.063
-472.245	-13.384	0.226	-0.146
-471.230	800.000	0.057	-0.189
-470.216	-79.783	-0.368	0.123
-469.201	234.089	0.138	0.227
-468.186	-200.000	-0.003	-0.282
-467.172	-83.493	-0.239	0.076
-466.157	800.000	0.055	0.177
-465.143	338.716	-0.098	-0.189
-464.128	800.000	0.072	-0.230
-463.113	208.136	0.199	-0.310
-462.099	-178.354	0.135	-0.003
-461.084	478.726	-0.021	-0.048
-460.070	-82.145	-0.121	-0.039
-459.055	-33.181	-0.328	-0.181
-458.040	800.000	-0.061	-0.180
-457.026	-95.958	0.196	-0.052
-456.011	-172.415	0.170	-0.005
-454.997	179.444	0.104	0.152
-453.982	-16.742	0.163	0.103
-452.968	-92.051	-0.250	0.070
-451.953	-65.508	0.255	0.102
-450.938	19.869	-0.238	0.191
-449.924	-118.597	-0.305	-0.054
-448.909	21.390	-0.196	-0.159
-447.895	-68.150	-0.114	0.044
-446.880	-63.430	-0.178	0.073
-445.865	-79.973	-0.198	-0.066
-444.851	82.550	0.297	-0.321
-443.836	-49.384	0.174	0.083
-442.822	745.886	0.040	0.107
-441.807	-60.591	-0.252	-0.107
-440.792	-67.215	-0.087	0.034
-439.778	32.842	-0.225	0.194
-438.763	132.057	-0.215	0.276
-437.749	59.382	0.372	-0.365
-436.734	-35.421	-0.229	-0.124
-435.719	580.387	-0.093	0.227
-434.705	-200.000	0.080	0.496
-433.690	-89.745	-0.133	-0.039
-432.676	-65.378	0.255	-0.102
-431.661	-200.000	0.009	0.050
-430.646	-200.000	0.055	0.385
-429.632	-200.000	-0.011	-0.118
-428.617	-171.791	-0.255	-0.008
-427.603	-200.000	-0.051	-0.293
-426.588	463.365	0.094	0.210
-425.573	612.851	0.080	0.200
-424.559	-200.000	-0.025	0.183
-423.544	98.136	0.223	0.255
-422.530	740.270	-0.128	-0.343
-421.515	323.581	-0.153	-0.290
-420.500	1.539	0.173	-0.124
-419.486	-109.846	-0.119	0.025
-418.471	68.837	-0.076	0.078
-417.457	-87.155	0.483	-0.146
-416.442	-200.000	0.000	0.398
-415.428	-200.000	0.016	-0.152
-414.413	112.333	-0.144	0.173
-413.398	87.806	-0.242	0.267
-412.384	556.157	0.088	-0.210
-411.369	452.383	0.040	-0.088
-410.355	800.000	-0.091	-0.314
-409.340	4.095	0.137	-0.100
-408.325	-87.546	0.240	-0.072
-407.311	370.541	-0.126	-0.254
-406.296	-94.097	0.160	-0.044
-405.282	-200.000	0.022	0.318
-404.267	-200.000	0.130	-0.000
-403.252	800.000	0.087	0.311
-402.238	102.560	0.148	-0.172
-401.223	-65.179	0.303	-0.122
-400.209	-200.000	-0.011	-0.134
-399.194	39.257	0.082	0.073
-398.179	80.162	-0.043	-0.047
-397.165	226.708	-0.038	0.062
-396.150	-200.000	-0.030	0.151
-395.136	-117.162	-0.148	0.027
-394.121	170.472	-0.083	-0.118
-393.106	8.708	-0.105	0.078
-392.092	173.064	-0.147	0.211
-391.077	-21.634	0.094	-0.057
-390.063	-123.340	0.336	0.053
-389.048	527.065	0.055	-0.129
-388.033	30.139	-0.128	-0.108
-387.019	696.178	0.040	0.105
-386.004	-97.720	0.180	-0.046
-384.990	4.916	0.089	0.065
-383.975	-134.163	0.114	-0.014
-382.960	741.093	0.147	-0.392
-381.946	219.001	-0.142	0.225
-380.931	240.804	0.179	0.297
-379.917	231.958	0.179	-0.291
-378.902	392.802	-0.107	-0.221
-377.888	-200.000	-0.009	0.390
-376.873	-200.000	0.016	-0.198
-375.858	15.130	-0.164	0.128
-374.844	800.000	-0.089	0.259
-373.829	-55.059	-0.078	-0.035
-372.815	-13.630	0.150	0.096
-371.800	800.000	0.029	-0.120
-370.785	-127.265	-0.380	-0.055
-369.771	224.542	-0.185	0.298
-368.756	-76.459	-0.296	-0.103
-367.742	-200.000	0.032	-0.173
-366.727	-200.000	-0.006	-0.141
-365.712	598.310	-0.092	-0.227
-364.698	360.050	0.193	-0.383
-363.683	60.798	0.122	0.120
-362.669	800.000	0.026	0.097
-361.654	56.075	-0.093	-0.090
-360.639	-105.780	0.471	-0.106
-359.625	533.127	-0.042	0.098
-358.610	122.287	0.058	-0.073
-357.596	800.000	0.162	0.445
-356.581	177.634	0.080	-0.116
-355.566	-98.658	0.034	-0.009
-354.552	-60.577	-0.460	-0.194
-353.537	800.000	0.033	0.126
-352.523	-33.477	-0.058	-0.032
-351.508	800.000	-0.012	0.039
-350.493	16.703	-0.080	0.063
-349.479	-200.000	0.019	-0.215
-348.464	-27.732	-0.271	0.156
-347.450	37.036	0.118	-0.103
-346.435	-18.433	-0.238	0.147
-345.420	29.778	0.174	-0.147
-344.406	182.495	0.068	-0.099
-343.391	140.768	0.116	0.152
-342.377	435.872	-0.048	-0.103
-341.362	116.698	-0.104	0.127
-340.348	112.148	0.046	0.056
-339.333	37.627	-0.097	0.085
-338.318	-200.000	0.085	0.527
-337.304	330.968	-0.043	0.082
-336.289	259.177	0.127	0.217
-335.275	800.000	0.085	0.286
-334.260	800.000	-0.046	0.140
-333.245	132.564	-0.249	-0.319
-332.231	800.000	0.110	-0.329
-331.216	-200.000	0.013	-0.217
-330.202	-39.979	0.379	0.196
-329.187	157.195	-0.241	0.331
-328.172	241.575	-0.170	-0.282
-327.158	-58.853	-0.086	-0.037
-326.143	-200.000	0.041	-0.187
-325.129	-200.000	-0.033	-0.306
-324.114	-200.000	0.013	0.166
-323.099	-159.950	-0.175	0.009
-322.085	29.558	-0.114	0.096
-321.070	-52.568	0.212	0.097
-320.056	229.928	-0.098	-0.159
-319.041	-200.000	0.046	-0.217
-318.026	800.000	-0.085	0.253
-317.012	-143.257	0.136	-0.013
-315.997	-71.440	0.624	0.232
-314.983	-200.000	-0.033	0.263
-313.968	-74.208	0.227	-0.082
-312.953	-200.000	-0.035	0.208
-311.939	800.000	0.044	-0.154
-310.924	-150.194	-0.107	-0.008
-309.910	240.952	0.076	-0.125
-308.895	24.512	-0.321	0.263
-307.880	108.650	0.228	0.270
-306.866	-200.000	0.044	-0.266
-305.851	475.100	-0.079	0.176
-304.837	-171.250	-0.080	0.003
-303.822	-81.148	-0.428	0.140
-302.807	17.587	0.188	-0.148
-301.793	151.147	-0.155	0.210
-300.778	-88.415	0.136	0.040
-299.764	37.261	-0.095	-0.084
-298.749	155.732	-0.222	-0.303
-297.735	800.000	0.066	-0.239
-296.720	378.269	0.186	0.378
-295.705	-44.575	0.048	-0.024
-294.691	30.553	-0.098	-0.083
-293.676	-34.594	0.102	0.056
-292.662	-200.000	0.019	-0.247
-291.647	177.711	0.117	0.169
-290.632	-200.000	0.013	0.142
-289.618	-68.471	0.353	-0.136
-288.603	800.000	-0.082	-0.329
-287.589	-125.571	-0.145	0.022
-286.574	-123.891	0.263	0.041
-285.559	800.000	0.028	-0.081
-284.545	387.929	-0.091	0.187
-283.530	284.185	-0.218	-0.389
-282.516	-121.674	-0.280	0.046
-281.501	-200.000	-0.059	0.267
-280.486	135.135	0.097	0.125
-279.472	65.183	-0.069	0.069
-278.457	-94.437	-0.173	0.047
-277.443	-69.521	0.372	-0.141
-276.428	-154.681	-0.178	0.012
-275.413	-82.078	-0.203	0.066
-274.399	115.909	-0.085	-0.103
-273.384	-52.959	0.215	-0.098
-272.370	800.000	0.082	0.276
-271.355	-136.025	-0.565	-0.066
-270.340	196.138	0.072	-0.109
-269.326	-136.185	0.070	0.008
-268.311	800.000	-0.046	-0.169
-267.297	136.689	0.114	0.147
-266.282	-95.658	-0.166	0.044
-265.267	11.425	-0.296	0.225
-264.253	-143.704	0.265	-0.025
-263.238	-1.528	0.050	0.035
-262.224	226.851	0.134	0.215
-261.209	262.174	-0.156	0.268
-260.195	-112.393	-0.335	0.066
-259.180	-73.789	-0.216	0.078
-258.165	188.432	0.082	-0.121
-257.151	-155.876	0.108	0.007
-256.136	16.201	0.021	0.016
-255.122	-40.998	-0.225	-0.115
-254.107	190.284	-0.201	-0.298
-253.092	-124.084	0.234	-0.036
-252.078	-4.519	-0.070	0.048
-251.063	-27.202	0.407	-0.235
-250.049	-21.490	0.210	-0.127
-249.034	139.222	0.139	0.180
-248.019	-200.000	-0.021	-0.188
-247.005	-200.000	-0.020	-0.164
-245.990	800.000	0.059	-0.239
-244.976	383.120	0.061	0.124
-243.961	-200.000	-0.001	0.128
-242.946	-92.708	0.069	-0.019
-241.932	-200.000	-0.032	0.251
-240.917	-200.000	0.047	0.343
-239.903	-7.910	-0.162	-0.108
-238.888	-200.000	-0.013	-0.122
-237.873	23.479	0.216	-0.176
-236.859	800.000	0.016	-0.058
-235.844	-200.000	0.081	0.000
-234.830	158.351	0.043	0.058
-233.815	-200.000	-0.028	0.381
-232.800	-200.000	-0.066	0.374
-231.786	35.228	-0.257	-0.223
-230.771	-16.358	0.134	-0.084
-229.757	212.583	-0.159	-0.247
-228.742	74.261	-0.172	-0.178
-227.727	5.987	0.216	0.158
-226.713	-200.000	0.046	-0.265
-225.698	-189.264	0.164	0.002
-224.684	27.190	-0.221	0.183
-223.669	800.000	0.019	-0.073
-222.655	-106.736	0.270	0.059
-221.640	-200.000	-0.017	-0.458
-220.625	750.433	-0.050	0.134
-219.611	-200.000	0.011	-0.057
-218.596	-72.874	0.369	0.134
-217.582	-200.000	0.004	-0.145
-216.567	419.824	-0.209	-0.442
-215.552	-200.000	-0.008	0.199
-214.538	187.158	0.081	-0.119
-213.523	-113.065	-0.107	-0.021
-212.509	367.528	-0.157	0.312
-211.494	-200.000	0.052	0.426
-210.479	133.871	0.156	0.199
-209.465	53.203	-0.278	0.263
-208.450	-43.472	-0.260	0.130
-207.436	-200.000	0.034	-0.195
-206.421	-111.909	0.193	-0.038
-205.406	-97.869	-0.094	-0.024
-204.392	-57.906	0.154	-0.066
-203.377	-5.182	0.106	0.072
-202.363	-200.000	0.014	0.067
-201.348	123.245	0.073	0.090
-200.333	-200.000	0.010	0.182
-199.319	48.476	0.040	0.037
-198.304	23.715	0.348	0.283
-197.290	-200.000	-0.033	0.160
-196.275	172.522	0.101	-0.144
-195.260	-1.054	-0.283	0.197
-194.246	475.350	0.045	-0.100
-193.231	216.620	0.018	0.028
-192.217	-200.000	0.070	0.392
-191.202	73.407	0.185	0.191
-190.187	50.029	-0.279	0.260
-189.173	-200.000	-0.015	0.262
-188.158	-86.661	0.155	0.047
-187.144	756.476	-0.070	0.186
-186.129	-200.000	0.011	-0.160
-185.114	800.000	0.017	0.058
-184.100	-146.699	0.275	-0.023
-183.085	-200.000	0.020	-0.152
-182.071	348.372	0.105	0.205
-181.056	-145.148	0.339	-0.030
-180.042	800.000	-0.053	-0.197
-179.027	-145.483	0.133	-0.012
-178.012	406.972	0.013	-0.027
-176.998	229.082	-0.096	0.154
-175.983	-200.000	-0.016	0.192
-174.969	-200.000	0.012	-0.159
-173.954	-200.000	-0.029	-0.158
-172.939	18.927	-0.199	0.157
-171.925	246.375	0.158	-0.263
-170.910	-18.250	-0.333	-0.205
-169.896	-141.069	0.250	0.025
-168.881	137.224	0.145	0.187
-167.866	800.000	0.027	-0.100
-166.852	-9.321	-0.319	-0.210
-165.837	43.267	-0.146	-0.131
-164.823	-100.428	0.304	-0.074
-163.808	359.009	0.069	0.137
-162.793	-200.000	-0.025	0.154
-161.779	-93.297	0.237	-0.065
-160.764	16.943	-0.105	-0.082
-159.750	-108.383	-0.187	-0.040
-158.735	-112.007	0.101	-0.020
-157.720	128.979	-0.075	0.094
-156.706	-23.147	-0.059	-0.035
-155.691	-58.159	-0.107	-0.046
-154.677	351.473	0.242	-0.471
-153.662	-153.687	0.184	0.012
-152.647	-132.291	0.103	-0.013
-151.633	182.308	-0.142	-0.206
-150.618	84.282	-0.113	-0.122
-149.604	498.977	0.149	0.339
-148.589	-167.672	-0.107	-0.004
-147.574	-127.752	-0.400	0.057
-146.560	-70.246	0.314	-0.117
-145.545	374.105	-0.166	-0.332
-144.531	-17.246	0.222	-0.138
-143.516	472.725	0.142	0.315
-142.502	18.661	0.327	0.257
-141.487	-48.206	-0.081	-0.039
-140.472	99.195	0.339	-0.386
-139.458	44.311	0.098	0.089
-138.443	-73.713	0.098	0.035
-137.429	-200.000	0.023	0.137
-136.414	-87.598	-0.248	0.074
-135.399	738.153	0.079	-0.209
-134.385	800.000	-0.129	-0.440
-133.370	-200.000	0.025	-0.130
-132.356	57.196	-0.156	0.150
-131.341	800.000	-0.044	-0.122
-130.326	-42.263	0.076	-0.038
-129.312	800.000	0.025	0.072
-128.297	30.157	-0.223	0.187
-127.283	62.981	0.148	0.146
-126.268	204.465	-0.114	-0.174
-125.253	-127.577	-0.072	0.010
-124.239	-112.183	0.136	-0.027
-123.224	-7.457	-0.121	0.081
-122.210	63.545	0.288	-0.285
-121.195	200.767	0.125	-0.189
