DTS Sentinel unit serial number:	SN413079Multiplexer serial number:	ORYXHardware model number:	OX4-SRSoftware version number:	ORYX F/W v4.00 Oryx Data Collector v3.7.2.0data status	okinstallation	princeton_trtdifferential loss correction	single-endedforward channel	channel 1reverse channel	N/Adate	2019/09/17time	15:10:35forward acquisition time	60.00reverse acquisition time	0.00gamma	496.2192k internal	0.2295k external	0.2295temperature offset calibration	0.9969default loss term (dB/km)	0.3790temperature slope calibration	1.0000multiplexer offset coefficient	1.0000multiplexer slope coefficient	1.0000fibre end	0.00T internal ref (°C)	37.69T ext. ref 1 (°C)	0.39T ext. ref 2 (°C)	34.43length (m)	temperature (°C)	Stokes	anti-Stokes-747.200	-39.474	0.128	0.068
-746.185	366.877	0.166	0.342
-745.171	-15.656	0.347	-0.227
-744.156	-29.445	0.179	0.104
-743.142	-200.000	-0.029	-0.290
-742.127	800.000	0.075	0.277
-741.112	-200.000	-0.017	0.232
-740.098	2.564	-0.257	0.190
-739.083	9.394	-0.130	-0.100
-738.069	23.518	0.190	0.160
-737.054	28.897	0.076	0.066
-736.039	-103.692	-0.393	-0.094
-735.025	-1.285	0.086	0.062
-734.010	438.643	-0.066	-0.147
-732.996	9.350	0.132	0.102
-731.981	10.469	0.215	0.168
-730.966	-155.955	-0.180	-0.012
-729.952	-143.267	0.028	-0.003
-728.937	-66.288	-0.437	0.178
-727.923	-41.979	-0.177	0.093
-726.908	-26.746	-0.088	-0.052
-725.894	-175.769	0.274	-0.008
-724.879	-73.046	-0.363	-0.136
-723.864	-67.216	-0.060	0.024
-722.850	-156.248	-0.173	-0.011
-721.835	11.884	-0.381	-0.299
-720.821	140.538	0.055	0.074
-719.806	-117.426	-0.163	-0.030
-718.791	-53.176	0.136	-0.064
-717.777	-125.221	0.136	-0.021
-716.762	-97.812	-0.407	0.108
-715.748	-84.373	-0.278	0.090
-714.733	-200.000	-0.005	-0.081
-713.718	178.142	0.212	-0.316
-712.704	-123.405	-0.370	0.060
-711.689	72.593	-0.083	-0.088
-710.675	800.000	-0.038	-0.130
-709.660	800.000	-0.056	-0.214
-708.645	475.432	0.006	0.015
-707.631	6.490	0.134	0.102
-706.616	800.000	0.096	0.296
-705.602	66.341	-0.154	-0.159
-704.587	6.137	-0.142	-0.107
-703.572	82.633	-0.083	0.093
-702.558	-200.000	-0.021	-0.114
-701.543	0.114	0.305	-0.222
-700.529	229.974	0.097	0.161
-699.514	-4.928	0.188	0.132
-698.499	-100.481	-0.341	-0.086
-697.485	-2.157	-0.053	0.038
-696.470	-111.756	-0.289	-0.060
-695.456	-200.000	0.001	0.228
-694.441	-70.539	-0.141	-0.055
-693.426	-137.481	0.291	0.034
-692.412	448.955	0.080	0.180
-691.397	-200.000	-0.033	-0.333
-690.383	800.000	0.031	-0.127
-689.368	-129.127	-0.042	0.006
-688.354	40.341	-0.217	-0.199
-687.339	-36.867	-0.193	-0.106
-686.324	56.021	-0.180	0.178
-685.310	-200.000	-0.014	-0.340
-684.295	-109.603	-0.110	-0.024
-683.281	-40.668	0.063	-0.033
-682.266	-200.000	-0.000	0.222
-681.251	141.610	0.065	0.087
-680.237	132.324	-0.180	-0.237
-679.222	-162.145	0.141	-0.007
-678.208	800.000	-0.051	0.177
-677.193	-183.166	-0.185	0.003
-676.178	399.297	-0.065	-0.140
-675.164	133.777	-0.061	0.080
-674.149	125.079	-0.068	-0.087
-673.135	634.949	-0.071	0.183
-672.120	800.000	0.048	-0.159
-671.105	-41.581	-0.122	0.064
-670.091	41.659	-0.135	-0.125
-669.076	5.022	0.203	-0.152
-668.062	-101.307	0.075	-0.019
-667.047	287.153	0.115	0.212
-666.032	800.000	-0.096	0.386
-665.018	-200.000	0.040	-0.205
-664.003	800.000	0.053	-0.198
-662.989	409.914	0.072	0.156
-661.974	-88.026	-0.125	-0.038
-660.959	128.937	0.182	0.237
-659.945	-97.904	-0.304	0.080
-658.930	469.447	0.165	0.378
-657.916	-200.000	0.010	0.232
-656.901	-68.497	0.279	-0.110
-655.886	349.776	0.065	-0.130
-654.872	-200.000	0.013	-0.101
-653.857	418.029	0.130	0.282
-652.843	800.000	-0.033	0.118
-651.828	-129.808	-0.149	-0.021
-650.814	-144.072	-0.338	-0.032
-649.799	-108.544	0.102	-0.022
-648.784	62.538	0.105	0.107
-647.770	-56.311	-0.100	0.045
-646.755	7.200	-0.160	-0.122
-645.741	-8.606	-0.140	-0.096
-644.726	578.648	0.084	-0.209
-643.711	-83.615	0.076	0.025
-642.697	95.398	0.214	0.248
-641.682	69.734	0.156	-0.164
-640.668	-200.000	0.013	0.129
-639.653	-75.048	-0.336	0.122
-638.638	193.685	0.150	0.232
-637.624	-170.305	0.320	0.011
-636.609	17.065	-0.264	-0.213
-635.595	-35.624	-0.251	0.139
-634.580	-41.610	0.163	0.085
-633.565	-195.486	-0.135	-0.001
-632.551	253.898	-0.101	-0.175
-631.536	-0.367	0.095	-0.069
-630.522	-200.000	-0.033	-0.186
-629.507	-86.430	-0.165	0.052
-628.492	176.162	-0.124	0.184
-627.478	-200.000	-0.007	0.088
-626.463	-200.000	0.020	-0.108
-625.449	-200.000	0.010	0.128
-624.434	-93.813	0.152	0.043
-623.419	-72.901	-0.147	-0.055
-622.405	-88.413	-0.113	0.034
-621.390	-200.000	-0.034	0.235
-620.376	121.000	0.122	-0.155
-619.361	-8.976	-0.164	0.112
-618.346	309.579	-0.106	-0.202
-617.332	-200.000	0.203	0.000
-616.317	-152.296	-0.220	-0.016
-615.303	202.424	0.117	0.184
-614.288	-167.455	0.181	-0.007
-613.273	605.967	0.167	-0.422
-612.259	-52.899	-0.154	0.072
-611.244	-200.000	0.057	-0.259
-610.230	800.000	0.081	-0.231
-609.215	800.000	0.058	-0.235
-608.201	-10.644	-0.076	0.051
-607.186	81.123	-0.255	0.280
-606.171	-36.126	0.149	0.082
-605.157	-154.883	0.054	0.004
-604.142	50.584	-0.143	-0.138
-603.128	-200.000	-0.018	-0.106
-602.113	-200.000	0.034	0.167
-601.098	-110.153	0.350	-0.074
-600.084	190.455	0.295	0.451
-599.069	-200.000	-0.022	-0.244
-598.055	-135.991	0.405	0.048
-597.040	-200.000	0.035	0.215
-596.025	769.318	0.110	-0.303
-595.011	-91.378	0.068	-0.020
-593.996	-105.976	-0.198	0.045
-592.982	-88.938	-0.272	0.082
-591.967	74.411	0.130	0.139
-590.952	471.102	-0.092	-0.210
-589.938	164.509	-0.247	0.354
-588.923	732.214	0.136	0.370
-587.909	-185.821	0.278	0.004
-586.894	679.048	-0.030	0.079
-585.879	800.000	-0.099	0.294
-584.865	-34.432	-0.056	0.031
-583.850	800.000	-0.047	0.138
-582.836	800.000	-0.094	-0.283
-581.821	-200.000	-0.024	-0.148
-580.806	82.629	0.049	-0.054
-579.792	-29.996	0.157	-0.091
-578.777	-133.258	0.109	-0.014
-577.763	360.213	-0.122	-0.247
-576.748	396.971	0.105	0.224
-575.733	-200.000	0.043	0.333
-574.719	-77.195	-0.316	-0.112
-573.704	-96.169	0.096	0.026
-572.690	-74.368	0.340	-0.125
-571.675	310.707	-0.025	-0.048
-570.661	-37.726	-0.199	-0.108
-569.646	65.102	-0.167	-0.172
-568.631	-120.288	0.130	-0.023
-567.617	-149.676	-0.385	0.031
-566.602	-40.497	0.196	0.103
-565.588	800.000	-0.072	0.315
-564.573	-4.659	0.114	0.080
-563.558	-126.996	0.224	0.033
-562.544	-198.418	-0.199	-0.001
-561.529	125.575	-0.307	-0.393
-560.515	141.179	0.328	-0.441
-559.500	155.907	-0.214	-0.299
-558.485	62.864	0.144	-0.146
-557.471	40.633	-0.198	0.181
-556.456	-48.157	-0.297	-0.146
-555.442	800.000	-0.074	0.224
-554.427	-200.000	0.009	-0.250
-553.412	-113.549	-0.362	0.072
-552.398	-161.396	-0.227	0.012
-551.383	123.880	0.076	0.097
-550.369	164.100	-0.106	-0.151
-549.354	86.546	0.066	-0.074
-548.339	-169.944	0.191	-0.007
-547.325	-33.047	-0.149	-0.084
-546.310	-64.848	0.222	0.091
-545.296	-139.378	0.126	-0.014
-544.281	55.932	-0.071	-0.070
-543.266	-200.000	0.026	0.200
-542.252	-200.000	0.009	-0.229
-541.237	-51.946	0.103	-0.049
-540.223	-111.146	0.028	-0.006
-539.208	145.377	-0.196	0.266
-538.193	-200.000	0.020	-0.110
-537.179	530.132	0.055	-0.133
-536.164	800.000	-0.022	-0.071
-535.150	-176.398	-0.376	-0.010
-534.135	222.419	-0.098	0.159
-533.121	-171.087	0.076	-0.003
-532.106	-98.209	-0.137	-0.036
-531.091	800.000	-0.037	-0.116
-530.077	148.069	0.121	-0.165
-529.062	-178.754	-0.382	-0.009
-528.048	-54.597	-0.045	-0.020
-527.033	-49.719	-0.266	0.128
-526.018	34.557	0.429	0.380
-525.004	180.533	0.086	-0.128
-523.989	-200.000	-0.027	-0.156
-522.975	436.516	-0.090	0.198
-521.960	-58.913	0.046	0.020
-520.945	-51.010	-0.416	-0.198
-519.931	-30.274	-0.265	0.153
-518.916	-200.000	-0.008	0.216
-517.902	-200.000	0.036	-0.262
-516.887	135.169	-0.177	-0.233
-515.872	16.087	0.091	0.073
-514.858	131.188	0.068	0.089
-513.843	36.317	0.199	0.178
-512.829	168.755	-0.140	-0.203
-511.814	53.334	0.184	-0.178
-510.799	-38.610	0.236	0.127
-509.785	208.989	-0.007	0.011
-508.770	-26.566	0.168	0.100
-507.756	218.944	0.062	0.100
-506.741	-141.889	-0.024	-0.002
-505.726	432.941	-0.108	0.238
-504.712	800.000	-0.006	-0.026
-503.697	-200.000	0.055	0.287
-502.683	191.883	-0.217	0.332
-501.668	-97.492	-0.460	-0.121
-500.653	-200.000	0.011	0.134
-499.639	154.468	0.063	0.087
-498.624	-200.000	-0.024	0.271
-497.610	-82.782	0.166	0.054
-496.595	45.119	0.254	0.237
-495.581	13.006	0.364	0.285
-494.566	-200.000	-0.022	0.238
-493.551	-164.507	-0.322	-0.015
-492.537	-146.239	-0.305	-0.027
-491.522	-185.470	-0.357	0.006
-490.508	136.032	-0.089	0.118
-489.493	-152.739	-0.335	0.024
-488.478	-4.904	-0.190	-0.133
-487.464	694.524	0.079	-0.211
-486.449	-200.000	0.055	-0.437
-485.435	350.838	0.042	-0.084
-484.420	-186.278	0.108	-0.002
-483.405	46.393	0.152	-0.142
-482.391	81.135	0.095	0.104
-481.376	-166.985	-0.331	0.014
-480.362	-114.051	-0.297	-0.058
-479.347	-98.055	-0.293	-0.076
-478.332	-94.417	-0.430	0.119
-477.318	-85.290	0.336	-0.106
-476.303	-200.000	0.003	-0.080
-475.289	-200.000	-0.018	-0.361
-474.274	-200.000	-0.009	0.076
-473.259	216.224	-0.180	-0.289
-472.245	462.275	-0.133	-0.301
-471.230	-200.000	-0.016	0.163
-470.216	-141.015	-0.396	-0.041
-469.201	-116.939	0.094	-0.017
-468.186	-91.995	-0.125	-0.036
-467.172	-118.947	-0.128	0.023
-466.157	344.767	0.092	0.183
-465.143	-200.000	0.030	0.246
-464.128	287.746	0.151	-0.275
-463.113	-89.346	0.117	0.035
-462.099	800.000	0.098	-0.360
-461.084	-200.000	-0.019	0.259
-460.070	800.000	0.104	0.310
-459.055	-31.797	-0.217	-0.123
-458.040	-200.000	0.019	-0.321
-457.026	175.907	-0.147	0.215
-456.011	1.363	-0.191	-0.139
-454.997	-86.221	0.141	0.044
-453.982	-63.043	0.335	0.140
-452.968	319.630	0.132	0.252
-451.953	-200.000	-0.018	-0.097
-450.938	-79.779	0.192	0.066
-449.924	-47.961	-0.127	-0.062
-448.909	-200.000	0.040	0.350
-447.895	163.055	-0.099	-0.141
-446.880	653.375	0.091	-0.236
-445.865	-21.223	0.191	-0.118
-444.851	-71.009	0.059	-0.022
-443.836	800.000	-0.011	-0.049
-442.822	-188.003	0.093	0.001
-441.807	-77.137	-0.232	0.082
-440.792	-200.000	0.009	0.378
-439.778	-26.398	-0.209	-0.124
-438.763	-200.000	-0.017	-0.162
-437.749	-91.911	0.481	0.138
-436.734	409.593	-0.071	0.153
-435.719	800.000	0.042	-0.165
-434.705	-188.365	0.306	0.004
-433.690	800.000	0.100	0.369
-432.676	-125.372	-0.256	0.039
-431.661	800.000	-0.086	0.367
-430.646	-33.181	0.127	-0.071
-429.632	-200.000	0.008	0.112
-428.617	23.832	0.095	-0.079
-427.603	-200.000	-0.001	0.217
-426.588	-113.306	-0.181	0.036
-425.573	800.000	-0.039	0.162
-424.559	181.018	-0.067	0.100
-423.544	-200.000	0.006	0.153
-422.530	-200.000	0.009	-0.232
-421.515	-63.499	-0.131	0.054
-420.500	-2.856	0.309	0.218
-419.486	47.878	0.167	-0.157
-418.471	268.208	0.089	0.157
-417.457	800.000	0.118	0.420
-416.442	54.250	-0.191	-0.186
-415.428	101.613	0.231	-0.272
-414.413	87.360	0.037	-0.042
-413.398	236.232	-0.087	-0.145
-412.384	800.000	-0.051	-0.216
-411.369	-200.000	-0.011	-0.129
-410.355	-115.809	-0.231	-0.044
-409.340	-46.815	0.030	-0.015
-408.325	-100.656	-0.232	-0.058
-407.311	-200.000	0.019	0.152
-406.296	-49.074	-0.169	0.081
-405.282	450.412	0.107	-0.238
-404.267	-80.295	-0.211	-0.071
-403.252	800.000	0.062	-0.264
-402.238	-10.285	0.232	0.155
-401.223	-71.018	-0.299	0.113
-400.209	800.000	0.079	0.262
-399.194	25.865	0.209	0.176
-398.179	10.888	0.183	-0.141
-397.165	-78.851	-0.100	0.034
-396.150	-147.316	-0.145	-0.012
-395.136	692.932	0.055	0.147
-394.121	-114.477	-0.252	-0.049
-393.106	-200.000	0.054	-0.253
-392.092	-70.329	0.150	-0.058
-391.077	-102.729	0.177	0.043
-390.063	-7.626	0.070	0.048
-389.048	-93.262	-0.146	-0.041
-388.033	-43.313	-0.104	0.053
-387.019	-161.167	0.363	0.019
-386.004	-200.000	0.062	0.303
-384.990	-200.000	-0.010	0.066
-383.975	544.789	-0.081	0.194
-382.960	-89.730	0.035	-0.010
-381.946	74.641	0.197	-0.209
-380.931	118.816	0.156	0.195
-379.917	-67.601	-0.143	0.056
-378.902	-70.305	0.152	-0.058
-377.888	-96.324	-0.209	-0.056
-376.873	83.415	-0.182	0.200
-375.858	-116.764	-0.192	-0.035
-374.844	47.358	-0.082	-0.077
-373.829	-57.292	-0.193	-0.086
-372.815	117.891	-0.027	-0.034
-371.800	157.779	0.153	0.213
-370.785	-53.447	0.168	-0.078
-369.771	800.000	0.081	0.230
-368.756	274.211	0.122	0.218
-367.742	17.960	0.157	0.126
-366.727	-49.069	0.050	0.024
-365.712	-134.786	-0.136	-0.017
-364.698	-127.467	-0.128	0.019
-363.683	-200.000	-0.081	0.365
-362.669	-200.000	0.050	-0.255
-361.654	104.675	-0.177	0.210
-360.639	310.274	0.052	0.098
-359.625	-37.217	0.240	-0.129
-358.610	-200.000	0.044	0.303
-357.596	-80.124	0.131	0.044
-356.581	448.247	0.026	0.059
-355.566	-200.000	0.036	0.167
-354.552	-200.000	-0.005	-0.240
-353.537	-200.000	-0.010	-0.191
-352.523	-200.000	-0.004	-0.072
-351.508	800.000	-0.058	-0.189
-350.493	-200.000	0.004	-0.260
-349.479	-110.781	-0.360	0.075
-348.464	-200.000	0.071	0.335
-347.450	-83.839	0.186	-0.060
-346.435	-139.906	0.114	-0.012
-345.420	53.834	-0.073	0.071
-344.406	-200.000	0.042	-0.211
-343.391	611.221	-0.084	-0.211
-342.377	-108.204	0.533	-0.116
-341.362	-200.000	-0.015	0.171
-340.348	-200.000	-0.017	-0.075
-339.333	269.432	0.146	0.259
-338.318	-16.618	0.053	0.034
-337.304	-65.076	0.096	-0.039
-336.289	-41.071	0.324	0.168
-335.275	-112.510	-0.096	-0.019
-334.260	9.624	0.153	-0.116
-333.245	1.889	-0.272	0.198
-332.231	27.238	-0.176	-0.149
-331.216	-200.000	-0.019	-0.234
-330.202	60.697	0.160	-0.160
-329.187	77.612	-0.306	0.328
-328.172	-200.000	-0.101	0.476
-327.158	-150.135	0.040	-0.003
-326.143	-102.369	-0.305	0.074
-325.129	-200.000	0.007	0.220
-324.114	422.447	0.021	0.046
-323.099	32.240	0.212	-0.184
-322.085	-200.000	-0.003	-0.204
-321.070	800.000	0.062	-0.262
-320.056	800.000	-0.087	-0.353
-319.041	188.725	0.232	-0.350
-318.026	-200.000	0.199	0.000
-317.012	-136.321	0.162	0.019
-315.997	-155.598	-0.123	-0.008
-314.983	-147.175	-0.056	0.005
-313.968	-46.277	0.312	-0.154
-312.953	92.878	-0.217	-0.247
-311.939	-173.110	0.239	-0.007
-310.924	-47.503	-0.205	-0.100
-309.910	-115.832	-0.616	-0.116
-308.895	-71.181	0.058	-0.022
-307.880	43.216	0.237	0.217
-306.866	-200.000	0.004	-0.036
-305.851	66.889	-0.369	0.377
-304.837	208.449	0.148	0.233
-303.822	-35.148	0.285	0.156
-302.807	800.000	0.081	0.240
-301.793	800.000	-0.070	0.273
-300.778	-200.000	0.005	0.255
-299.764	-184.415	0.465	0.008
-298.749	-29.872	0.268	0.153
-297.735	295.430	-0.101	-0.187
-296.720	-95.605	0.286	0.077
-295.705	-48.586	-0.079	-0.038
-294.691	-124.824	-0.104	0.016
-293.676	379.216	0.062	-0.128
-292.662	-123.101	0.210	0.034
-291.647	89.491	0.177	0.199
-290.632	-41.040	-0.244	-0.127
-289.618	-88.337	0.170	-0.051
-288.603	53.018	0.162	0.156
-287.589	-200.000	-0.073	-0.343
-286.574	-102.595	0.177	-0.042
-285.559	-200.000	-0.007	-0.256
-284.545	-85.526	-0.109	0.034
-283.530	-200.000	-0.049	-0.249
-282.516	-146.040	0.126	0.011
-281.501	800.000	0.051	0.217
-280.486	-16.420	-0.244	-0.155
-279.472	89.083	0.420	0.469
-278.457	-17.990	0.069	0.044
-277.443	-45.797	-0.496	-0.246
-276.428	320.429	-0.059	-0.112
-275.413	-141.099	-0.233	0.024
-274.399	-139.908	0.410	-0.043
-273.384	463.632	0.137	0.307
-272.370	-200.000	0.028	-0.221
-271.355	-95.304	-0.161	-0.044
-270.340	-22.626	-0.272	0.165
-269.326	800.000	0.040	-0.126
-268.311	800.000	-0.095	-0.323
-267.297	-49.947	-0.107	0.051
-266.282	-200.000	0.012	0.247
-265.267	230.310	-0.023	0.037
-264.253	-124.938	0.069	-0.011
-263.238	101.337	0.223	0.260
-262.224	-200.000	-0.002	-0.163
-261.209	125.865	-0.164	0.208
-260.195	-41.043	-0.269	-0.139
-259.180	78.980	0.109	0.117
-258.165	-107.435	-0.119	-0.026
-257.151	-62.447	0.107	0.044
-256.136	-200.000	0.076	0.563
-255.122	-65.629	-0.288	-0.116
-254.107	-18.460	-0.132	-0.083
-253.092	800.000	0.056	-0.201
-252.078	-85.436	0.264	0.082
-251.063	-142.632	-0.149	-0.015
-250.049	-73.315	0.082	-0.030
-249.034	-200.000	-0.023	-0.119
-248.019	-126.473	-0.020	0.003
-247.005	-115.664	0.387	0.073
-245.990	-30.606	0.248	0.141
-244.976	-34.002	-0.279	-0.154
-243.961	-63.511	0.271	0.112
-242.946	800.000	-0.063	0.207
-241.932	-136.633	-0.137	-0.016
-240.917	-76.103	0.277	-0.098
-239.903	72.352	0.120	-0.126
-238.888	-200.000	0.047	-0.366
-237.873	496.255	-0.031	0.072
-236.859	43.180	-0.125	-0.114
-235.844	13.932	-0.328	-0.256
-234.830	309.624	0.175	0.328
-233.815	800.000	0.062	0.190
-232.800	-84.732	-0.042	-0.013
-231.786	74.209	0.110	0.115
-230.771	-103.918	0.470	-0.110
-229.757	52.442	0.086	0.083
-228.742	-105.637	0.446	-0.101
-227.727	126.480	0.254	-0.322
-226.713	302.927	-0.042	0.078
-225.698	-163.492	-0.059	-0.003
-224.684	800.000	-0.051	0.191
-223.669	236.490	0.099	0.163
-222.655	36.686	0.069	-0.061
-221.640	-200.000	0.014	-0.246
-220.625	-200.000	0.054	-0.289
-219.611	311.217	-0.099	-0.187
-218.596	-70.354	-0.130	-0.050
-217.582	50.995	0.129	-0.122
-216.567	-94.320	0.225	0.062
-215.552	-200.000	-0.020	0.129
-214.538	357.895	0.030	0.060
-213.523	194.136	-0.208	-0.315
-212.509	-33.378	0.158	0.088
-211.494	474.492	-0.086	-0.194
-210.479	-93.422	-0.493	0.137
-209.465	-200.000	0.151	-0.000
-208.450	124.542	0.120	-0.151
-207.436	-200.000	-0.028	-0.133
-206.421	-182.476	0.239	-0.004
-205.406	18.133	-0.071	-0.057
-204.392	-200.000	-0.040	-0.234
-203.377	102.998	-0.168	0.196
-202.363	-200.000	0.008	0.388
-201.348	274.066	-0.057	-0.101
-200.333	141.543	0.096	-0.127
-199.319	29.719	-0.209	0.178
-198.304	81.237	0.125	0.136
-197.290	-89.966	-0.251	0.073
-196.275	-47.890	0.220	0.107
-195.260	-6.768	-0.267	-0.182
-194.246	-116.323	-0.254	0.047
-193.231	18.330	-0.081	0.065
-192.217	-153.978	0.149	-0.010
-191.202	-44.811	0.160	0.080
-190.187	-168.627	-0.150	0.006
-189.173	261.553	0.072	-0.125
-188.158	409.309	-0.044	-0.093
-187.144	-160.481	-0.277	-0.015
-186.129	260.496	-0.213	-0.368
-185.114	295.507	-0.058	0.106
-184.100	-200.000	0.004	-0.144
-183.085	-200.000	-0.002	-0.152
-182.071	-57.753	-0.102	0.045
-181.056	366.516	0.094	0.189
-180.042	-123.760	-0.358	0.057
-179.027	-85.841	0.363	-0.112
-178.012	-146.750	-0.360	-0.031
-176.998	53.922	0.159	-0.153
-175.983	800.000	-0.091	-0.254
-174.969	-200.000	-0.007	-0.099
-173.954	-129.839	-0.207	-0.028
-172.939	-18.963	0.281	0.174
-171.925	-49.266	0.233	-0.111
-170.910	221.815	-0.071	-0.114
-169.896	-24.212	0.310	0.185
-168.881	56.309	0.069	0.067
-167.866	4.206	-0.148	-0.108
-166.852	-131.480	-0.089	-0.012
-165.837	1.785	-0.078	0.056
-164.823	196.181	0.044	-0.068
-163.808	299.036	-0.071	-0.131
-162.793	-30.512	0.143	0.081
-161.779	738.046	0.114	-0.305
-160.764	-156.174	0.268	-0.017
-159.750	96.369	0.163	-0.186
-158.735	166.995	-0.102	-0.145
-157.720	6.394	0.245	0.182
-156.706	-40.872	-0.100	0.052
-155.691	-200.000	-0.073	-0.371
-154.677	178.212	0.043	-0.062
-153.662	-93.442	0.177	-0.049
-152.647	-30.556	-0.187	-0.106
-151.633	-41.877	-0.196	-0.100
-150.618	345.632	0.040	0.079
-149.604	159.763	0.126	-0.175
-148.589	-200.000	-0.001	0.187
-147.574	800.000	-0.032	-0.089
-146.560	248.493	-0.153	-0.259
-145.545	-105.593	0.344	0.078
-144.531	-113.005	-0.132	0.026
-143.516	368.720	-0.052	0.106
-142.502	-51.973	0.440	0.204
-141.487	122.955	0.097	0.121
-140.472	73.921	0.179	-0.188
-139.458	24.941	-0.223	0.184
-138.443	95.841	-0.107	0.122
-137.429	-11.862	0.180	-0.118
-136.414	-129.733	-0.181	-0.025
-135.399	0.312	-0.043	0.030
-134.385	229.597	-0.156	-0.254
-133.370	70.424	-0.108	0.111
-132.356	-200.000	0.019	0.197
-131.341	17.229	0.157	0.124
-130.326	-35.482	0.208	0.113
-129.312	-200.000	0.003	0.252
-128.297	-200.000	-0.009	-0.201
-127.283	570.319	0.087	-0.210
-126.268	-38.040	0.216	0.114
-125.253	602.953	-0.048	-0.119
-124.239	-73.390	0.306	0.112
-123.224	-38.327	-0.234	0.124
-122.210	96.517	0.228	0.261
