DTS Sentinel unit serial number:	SN413079Multiplexer serial number:	ORYXHardware model number:	OX4-SRSoftware version number:	ORYX F/W v4.00 Oryx Data Collector v3.7.2.0data status	okinstallation	princeton_trtdifferential loss correction	single-endedforward channel	channel 1reverse channel	N/Adate	2019/09/17time	00:14:35forward acquisition time	60.00reverse acquisition time	0.00gamma	496.2192k internal	0.2325k external	0.2325temperature offset calibration	0.9955default loss term (dB/km)	0.3790temperature slope calibration	1.0000multiplexer offset coefficient	1.0000multiplexer slope coefficient	1.0000fibre end	0.00T internal ref (°C)	29.55T ext. ref 1 (°C)	0.09T ext. ref 2 (°C)	23.72length (m)	temperature (°C)	Stokes	anti-Stokes-747.200	-128.047	-0.121	-0.017
-746.185	-55.571	-0.223	-0.101
-745.171	202.588	-0.036	-0.055
-744.156	596.337	0.006	-0.015
-743.142	-200.000	-0.027	0.195
-742.127	-76.655	-0.258	0.091
-741.112	-200.000	0.008	-0.059
-740.098	-74.308	-0.320	0.117
-739.083	256.227	-0.176	-0.305
-738.069	93.943	-0.095	-0.109
-737.054	-101.590	0.195	0.048
-736.039	-43.732	-0.315	0.160
-735.025	718.640	-0.114	0.305
-734.010	-200.000	-0.005	-0.260
-732.996	-200.000	0.009	0.282
-731.981	-51.878	-0.162	0.076
-730.966	357.606	-0.162	-0.325
-729.952	-50.821	-0.043	0.021
-728.937	-49.780	-0.267	0.128
-727.923	-4.557	-0.003	0.002
-726.908	-200.000	-0.020	-0.164
-725.894	15.869	0.080	-0.063
-724.879	800.000	0.064	-0.198
-723.864	-96.559	-0.186	-0.049
-722.850	-79.050	0.057	-0.019
-721.835	261.521	0.073	-0.127
-720.821	-170.829	0.220	0.008
-719.806	482.005	-0.090	0.206
-718.791	84.198	0.145	-0.159
-717.777	26.269	0.137	0.115
-716.762	-2.555	-0.236	-0.167
-715.748	800.000	-0.083	-0.299
-714.733	-90.799	0.076	-0.022
-713.718	56.611	-0.038	0.037
-712.704	186.971	0.172	-0.259
-711.689	-5.703	-0.447	-0.309
-710.675	-200.000	0.020	-0.145
-709.660	-181.570	-0.017	-0.000
-708.645	-106.590	0.039	0.009
-707.631	-62.900	0.156	-0.065
-706.616	320.213	0.052	0.099
-705.602	-63.025	0.045	0.019
-704.587	-105.287	0.201	0.046
-703.572	284.257	0.035	0.063
-702.558	90.062	-0.119	-0.133
-701.543	-56.608	-0.282	0.126
-700.529	-114.485	-0.264	-0.051
-699.514	-90.760	-0.080	0.023
-698.499	53.593	0.128	-0.124
-697.485	-126.514	-0.289	-0.043
-696.470	800.000	-0.098	0.286
-695.456	-123.029	0.388	-0.063
-694.441	-85.750	-0.045	-0.014
-693.426	-110.294	-0.156	0.033
-692.412	-102.843	-0.039	-0.009
-691.397	-128.695	-0.093	0.013
-690.383	90.385	-0.084	-0.094
-689.368	141.728	-0.177	0.237
-688.354	-200.000	-0.023	0.124
-687.339	137.061	-0.168	-0.222
-686.324	-37.167	-0.021	0.011
-685.310	-200.000	-0.004	0.036
-684.295	396.676	0.010	0.021
-683.281	-15.429	-0.072	0.046
-682.266	-200.000	0.068	-0.456
-681.251	-200.000	0.066	-0.309
-680.237	-200.000	0.023	0.250
-679.222	-174.767	0.189	-0.005
-678.208	800.000	-0.058	0.254
-677.193	259.496	-0.112	-0.195
-676.178	428.368	-0.026	0.057
-675.164	154.038	0.158	0.218
-674.149	-200.000	-0.008	-0.093
-673.135	114.191	0.153	-0.187
-672.120	131.387	-0.131	-0.169
-671.105	-75.612	0.282	-0.101
-670.091	16.801	-0.302	0.240
-669.076	-200.000	0.051	-0.247
-668.062	-152.023	-0.138	0.010
-667.047	242.972	-0.095	-0.161
-666.032	-66.396	-0.100	-0.040
-665.018	800.000	0.121	-0.385
-664.003	423.236	0.021	-0.045
-662.989	202.772	0.151	-0.235
-661.974	-156.587	0.083	-0.005
-660.959	99.467	0.213	-0.248
-659.945	-54.011	-0.360	-0.165
-658.930	203.414	0.074	0.116
-657.916	-29.339	0.278	-0.160
-656.901	16.420	-0.308	0.244
-655.886	234.866	0.090	0.150
-654.872	94.150	-0.156	-0.178
-653.857	-143.447	-0.152	0.015
-652.843	800.000	-0.046	-0.188
-651.828	398.715	0.021	0.044
-650.814	-4.619	0.151	0.105
-649.799	-166.277	-0.151	0.006
-648.784	-70.103	0.036	0.014
-647.770	110.441	-0.177	0.214
-646.755	334.075	0.074	-0.145
-645.741	-76.425	-0.123	-0.043
-644.726	4.581	0.209	-0.155
-643.711	800.000	-0.040	-0.163
-642.697	137.754	-0.295	0.388
-641.682	-34.446	0.333	0.183
-640.668	-67.471	-0.228	-0.090
-639.653	-66.460	-0.259	-0.103
-638.638	800.000	0.047	-0.175
-637.624	800.000	0.056	0.212
-636.609	-194.151	0.087	0.001
-635.595	7.600	-0.267	0.201
-634.580	289.347	-0.222	0.404
-633.565	71.124	-0.057	0.059
-632.551	-108.120	0.305	0.066
-631.536	141.578	0.074	0.099
-630.522	6.381	0.285	0.212
-629.507	633.937	-0.180	0.459
-628.492	-123.350	-0.354	0.057
-627.478	138.751	-0.116	-0.153
-626.463	-111.463	-0.431	0.088
-625.449	252.890	-0.137	-0.234
-624.434	-103.432	-0.387	0.092
-623.419	-200.000	-0.031	0.247
-622.405	-107.660	-0.071	0.016
-621.390	-139.016	0.277	0.030
-620.376	-200.000	-0.006	0.225
-619.361	-149.122	0.149	-0.012
-618.346	19.264	0.173	0.139
-617.332	-200.000	0.010	0.160
-616.317	93.243	-0.118	0.134
-615.303	111.737	0.090	-0.109
-614.288	-87.137	-0.225	0.069
-613.273	-66.040	-0.154	-0.062
-612.259	-105.913	-0.157	0.036
-611.244	319.982	-0.148	-0.283
-610.230	416.941	0.133	-0.284
-609.215	-144.983	-0.316	0.029
-608.201	-187.266	0.358	0.005
-607.186	-3.337	-0.044	-0.031
-606.171	-98.183	0.271	0.070
-605.157	713.068	-0.049	-0.130
-604.142	800.000	0.061	0.260
-603.128	540.487	0.147	-0.351
-602.113	-99.128	-0.301	-0.076
-601.098	-142.910	0.241	-0.023
-600.084	800.000	0.109	-0.353
-599.069	-1.697	-0.251	-0.178
-598.055	-200.000	0.040	-0.220
-597.040	164.118	-0.142	0.200
-596.025	-22.966	-0.299	-0.181
-595.011	221.174	0.099	-0.160
-593.996	576.846	-0.032	-0.080
-592.982	-65.386	0.355	0.143
-591.967	-35.695	0.156	-0.085
-590.952	2.109	0.246	-0.178
-589.938	539.385	-0.130	0.309
-588.923	800.000	-0.028	-0.093
-587.909	-147.955	-0.274	0.023
-586.894	-100.936	0.216	-0.053
-585.879	-18.426	-0.150	0.094
-584.865	-80.463	0.197	-0.066
-583.850	150.892	0.067	-0.091
-582.836	-113.838	0.219	0.043
-581.821	-102.836	0.396	0.095
-580.806	-63.301	-0.172	-0.071
-579.792	-71.686	0.164	0.061
-578.777	211.855	-0.123	0.193
-577.763	-189.460	-0.036	0.000
-576.748	440.303	-0.090	0.197
-575.733	800.000	0.076	0.261
-574.719	74.708	0.207	0.219
-573.704	231.701	-0.201	0.331
-572.690	76.048	-0.181	-0.191
-571.675	3.499	-0.354	0.259
-570.661	-200.000	0.019	-0.180
-569.646	-133.826	-0.186	0.023
-568.631	-200.000	0.009	0.248
-567.617	47.972	0.201	-0.188
-566.602	-47.233	0.303	-0.148
-565.588	-100.594	-0.336	0.083
-564.573	275.476	0.131	-0.233
-563.558	109.993	0.118	-0.142
-562.544	-118.423	0.041	-0.007
-561.529	-138.518	-0.474	0.052
-560.515	-89.684	-0.207	-0.061
-559.500	547.706	-0.136	-0.325
-558.485	259.247	0.194	-0.336
-557.471	-127.646	-0.187	-0.027
-556.456	-2.333	0.269	0.189
-555.442	26.704	-0.044	-0.037
-554.427	-23.413	-0.277	0.167
-553.412	-42.542	-0.258	-0.132
-552.398	482.210	-0.145	-0.329
-551.383	108.360	-0.013	0.016
-550.369	-200.000	0.037	0.183
-549.354	211.075	0.134	0.211
-548.339	-99.661	-0.214	-0.054
-547.325	-114.310	0.284	-0.055
-546.310	170.487	0.039	0.056
-545.296	800.000	-0.070	0.281
-544.281	28.189	-0.188	-0.159
-543.266	-200.000	0.010	0.375
-542.252	-176.031	0.245	-0.007
-541.237	-200.000	0.024	-0.171
-540.223	-200.000	0.030	0.190
-539.208	800.000	-0.029	0.094
-538.193	-200.000	0.021	0.349
-537.179	800.000	-0.018	-0.050
-536.164	-106.833	0.292	0.065
-535.150	468.880	-0.042	-0.094
-534.135	800.000	0.130	-0.517
-533.121	67.816	0.093	0.095
-532.106	-124.921	-0.256	0.040
-531.091	51.880	0.075	-0.072
-530.077	800.000	0.085	0.347
-529.062	-105.457	-0.134	0.030
-528.048	23.646	0.040	-0.033
-527.033	800.000	0.055	-0.216
-526.018	-50.543	0.103	-0.049
-525.004	-200.000	-0.008	0.140
-523.989	37.973	-0.094	0.084
-522.975	248.739	0.077	-0.130
-521.960	113.748	-0.209	-0.254
-520.945	-47.751	-0.085	-0.041
-519.931	524.501	0.083	0.196
-518.916	504.837	-0.118	0.273
-517.902	182.942	0.062	0.092
-516.887	-75.315	-0.325	-0.116
-515.872	249.364	-0.012	0.021
-514.858	-200.000	0.003	0.192
-513.843	-113.865	0.354	0.069
-512.829	40.407	0.277	-0.249
-511.814	-200.000	0.015	-0.176
-510.799	10.766	0.102	-0.078
-509.785	129.575	-0.081	0.103
-508.770	800.000	0.073	0.247
-507.756	-200.000	0.036	0.162
-506.741	-46.023	-0.290	0.143
-505.726	58.775	-0.146	-0.144
-504.712	800.000	0.031	0.097
-503.697	800.000	-0.088	0.250
-502.683	800.000	0.046	-0.151
-501.668	129.255	-0.108	-0.138
-500.653	-26.994	-0.250	-0.146
-499.639	4.169	0.267	0.196
-498.624	-62.101	-0.101	-0.042
-497.610	250.179	-0.214	0.363
-496.595	800.000	-0.134	0.388
-495.581	-200.000	-0.034	0.207
-494.566	-166.523	-0.131	0.005
-493.551	340.144	-0.084	-0.164
-492.537	109.462	-0.300	0.358
-491.522	128.253	0.064	0.081
-490.508	53.414	0.219	-0.210
-489.493	-32.595	0.138	-0.077
-488.478	118.116	-0.156	-0.192
-487.464	294.828	0.078	0.143
-486.449	-200.000	0.012	0.318
-485.435	-101.440	-0.047	0.011
-484.420	-94.481	-0.367	-0.100
-483.405	-200.000	-0.005	0.083
-482.391	800.000	-0.024	0.105
-481.376	96.390	0.141	0.161
-480.362	109.985	-0.238	0.285
-479.347	-200.000	0.034	-0.445
-478.332	800.000	-0.010	-0.040
-477.318	63.400	0.199	-0.200
-476.303	307.034	-0.088	0.163
-475.289	-200.000	0.032	0.144
-474.274	800.000	0.026	-0.104
-473.259	147.297	0.143	0.192
-472.245	103.339	0.327	-0.383
-471.230	-136.923	0.378	-0.043
-470.216	-55.115	-0.101	0.045
-469.201	2.818	-0.319	0.231
-468.186	53.716	-0.270	-0.258
-467.172	-200.000	-0.017	0.293
-466.157	800.000	-0.026	0.102
-465.143	-200.000	-0.028	0.360
-464.128	309.549	0.069	-0.129
-463.113	-138.225	-0.204	-0.023
-462.099	282.053	0.311	-0.557
-461.084	112.350	0.062	0.075
-460.070	615.942	-0.126	-0.316
-459.055	444.870	-0.256	-0.562
-458.040	-21.691	0.275	-0.167
-457.026	-19.786	-0.231	0.142
-456.011	-56.551	-0.340	0.150
-454.997	-123.189	-0.081	-0.013
-453.982	107.957	-0.137	0.163
-452.968	140.564	-0.129	0.169
-451.953	234.782	-0.145	-0.239
-450.938	800.000	0.068	-0.201
-449.924	800.000	0.084	0.274
-448.909	-52.058	-0.436	0.202
-447.895	134.026	-0.340	-0.439
-446.880	44.295	0.196	0.179
-445.865	-200.000	-0.018	-0.380
-444.851	-146.913	0.033	0.003
-443.836	321.820	0.057	-0.109
-442.822	-46.660	0.137	-0.067
-441.807	-30.846	-0.400	-0.225
-440.792	-2.546	0.137	0.095
-439.778	737.175	-0.072	0.191
-438.763	-146.894	0.277	-0.024
-437.749	214.078	0.170	0.268
-436.734	450.891	-0.112	-0.245
-435.719	100.954	-0.076	0.088
-434.705	-102.347	0.024	0.006
-433.690	-200.000	0.004	0.080
-432.676	-77.593	0.102	0.035
-431.661	-200.000	0.046	-0.282
-430.646	200.288	-0.073	0.111
-429.632	291.459	-0.043	0.079
-428.617	-24.148	0.032	-0.019
-427.603	-200.000	-0.010	0.349
-426.588	800.000	0.058	-0.223
-425.573	103.706	0.145	-0.169
-424.559	-51.395	-0.089	-0.041
-423.544	800.000	0.171	-0.508
-422.530	44.756	0.211	0.193
-421.515	414.087	-0.028	-0.059
-420.500	-42.188	-0.154	-0.079
-419.486	155.150	0.118	0.161
-418.471	-44.116	0.379	0.190
-417.457	200.985	-0.075	-0.116
-416.442	-58.635	0.119	-0.051
-415.428	66.447	-0.097	0.098
-414.413	5.234	0.102	0.075
-413.398	-18.075	-0.126	0.078
-412.384	71.303	0.187	-0.193
-411.369	-200.000	0.033	-0.303
-410.355	-200.000	0.014	0.102
-409.340	-197.496	0.356	0.002
-408.325	649.205	0.043	0.110
-407.311	-200.000	0.003	-0.084
-406.296	136.104	-0.212	-0.275
-405.282	-58.027	0.056	0.024
-404.267	-86.854	0.065	0.020
-403.252	-42.607	0.363	-0.184
-402.238	111.146	0.114	0.136
-401.223	688.477	-0.068	-0.177
-400.209	-169.859	-0.066	-0.002
-399.194	-86.424	-0.406	0.124
-398.179	127.772	-0.253	0.320
-397.165	-90.453	0.276	-0.080
-396.150	-20.779	0.152	0.093
-395.136	-166.623	-0.392	-0.016
-394.121	-200.000	0.091	0.557
-393.106	288.895	0.189	-0.341
-392.092	-200.000	-0.007	-0.162
-391.077	141.051	-0.178	0.234
-390.063	242.380	0.076	0.126
-389.048	-200.000	-0.007	0.074
-388.033	162.139	0.075	-0.104
-387.019	-47.776	0.066	0.032
-386.004	-36.126	0.158	0.085
-384.990	-139.659	0.102	0.011
-383.975	18.341	0.086	0.069
-382.960	-129.618	0.093	-0.013
-381.946	31.856	-0.098	-0.084
-380.931	93.773	0.183	-0.206
-379.917	-90.351	-0.243	-0.070
-378.902	-18.710	-0.287	0.178
-377.888	-138.614	0.090	-0.010
-376.873	-59.647	-0.210	0.090
-375.858	-112.717	0.396	-0.078
-374.844	-121.352	-0.338	0.056
-373.829	26.434	-0.089	0.074
-372.815	800.000	0.061	0.219
-371.800	-200.000	0.016	-0.198
-370.785	2.730	-0.365	-0.263
-369.771	85.334	-0.079	-0.086
-368.756	-200.000	0.044	0.432
-367.742	54.227	0.131	-0.125
-366.727	139.822	-0.152	0.199
-365.712	-152.496	-0.048	0.003
-364.698	-200.000	0.002	0.285
-363.683	-139.444	0.141	-0.015
-362.669	395.246	-0.047	0.098
-361.654	59.669	0.181	0.177
-360.639	-151.146	-0.104	-0.008
-359.625	245.339	-0.194	-0.325
-358.610	78.041	0.140	-0.149
-357.596	-98.632	-0.290	-0.073
-356.581	168.629	-0.039	0.055
-355.566	-94.306	0.366	0.099
-354.552	-31.196	-0.161	-0.090
-353.537	424.678	-0.055	-0.118
-352.523	-45.297	-0.092	-0.045
-351.508	-19.695	-0.146	0.090
-350.493	175.867	-0.049	0.071
-349.479	-64.747	0.198	-0.080
-348.464	800.000	0.095	0.263
-347.450	-154.475	0.096	-0.006
-346.435	-142.720	0.205	0.020
-345.420	155.143	-0.208	-0.284
-344.406	-200.000	0.048	0.213
-343.391	-94.694	-0.182	0.049
-342.377	516.795	0.141	-0.327
-341.362	219.675	-0.276	-0.439
-340.348	-200.000	0.025	-0.116
-339.333	-108.537	0.095	0.020
-338.318	393.183	-0.107	-0.220
-337.304	-77.387	-0.375	0.129
-336.289	1.162	0.203	0.145
-335.275	800.000	-0.099	0.295
-334.260	-82.379	0.229	0.074
-333.245	57.832	0.217	0.210
-332.231	-77.188	-0.114	0.039
-331.216	657.331	0.024	0.061
-330.202	335.272	-0.081	-0.156
-329.187	99.192	-0.072	-0.083
-328.172	-200.000	-0.005	-0.032
-327.158	-109.777	0.211	-0.044
-326.143	-65.715	0.342	-0.136
-325.129	9.940	-0.101	0.076
-324.114	-87.146	-0.016	0.005
-323.099	104.336	0.132	-0.154
-322.085	-104.680	0.299	0.068
-321.070	49.898	-0.321	-0.300
-320.056	-49.541	0.168	0.079
-319.041	106.541	0.097	0.114
-318.026	-200.000	-0.040	0.340
-317.012	800.000	-0.113	0.369
-315.997	-97.165	0.337	0.087
-314.983	-53.816	-0.252	0.114
-313.968	800.000	-0.038	-0.155
-312.953	-113.235	-0.277	-0.054
-311.939	-162.960	0.052	0.002
-310.924	-157.349	0.101	-0.006
-309.910	-159.152	-0.356	-0.020
-308.895	13.703	-0.053	-0.041
-307.880	-125.517	0.319	0.048
-306.866	-200.000	0.038	-0.322
-305.851	47.056	-0.101	-0.093
-304.837	165.271	-0.021	0.030
-303.822	-200.000	-0.000	-0.014
-302.807	63.770	0.144	0.143
-301.793	88.763	0.023	-0.025
-300.778	-81.632	0.214	0.070
-299.764	191.955	0.291	-0.435
-298.749	-200.000	-0.000	-0.207
-297.735	-26.021	0.187	-0.109
-296.720	800.000	-0.049	-0.208
-295.705	216.351	0.193	0.304
-294.691	216.517	0.118	0.186
-293.676	-146.309	0.252	-0.022
-292.662	-200.000	-0.015	0.114
-291.647	-89.982	-0.327	-0.095
-290.632	230.711	-0.063	0.103
-289.618	-82.699	0.316	0.101
-288.603	24.235	-0.282	-0.231
-287.589	-96.135	0.286	0.075
-286.574	-200.000	0.019	-0.144
-285.559	-119.979	-0.160	-0.027
-284.545	611.327	0.074	-0.183
-283.530	-200.000	-0.020	0.184
-282.516	800.000	0.073	0.239
-281.501	-200.000	-0.030	-0.159
-280.486	800.000	-0.062	-0.208
-279.472	-122.218	-0.193	-0.031
-278.457	-33.433	-0.207	-0.113
-277.443	-141.913	0.190	0.019
-276.428	5.315	-0.100	0.073
-275.413	230.998	-0.146	0.237
-274.399	309.991	0.059	0.109
-273.384	-142.448	0.159	-0.015
-272.370	-63.161	0.158	0.064
-271.355	36.319	0.304	0.265
-270.340	154.579	0.193	0.263
-269.326	-200.000	-0.049	0.235
-268.311	-200.000	-0.046	0.323
-267.297	-58.386	0.096	0.041
-266.282	-200.000	0.029	0.210
-265.267	-149.471	0.116	-0.009
-264.253	-43.539	0.040	-0.020
-263.238	-31.641	0.195	0.109
-262.224	-108.623	0.098	-0.021
-261.209	-187.258	-0.385	0.005
-260.195	-154.548	-0.233	-0.015
-259.180	323.513	0.151	-0.285
-258.165	-44.572	0.236	0.117
-257.151	49.764	0.011	-0.011
-256.136	272.299	0.118	0.206
-255.122	61.863	0.188	0.185
-254.107	-200.000	0.016	-0.186
-253.092	-98.976	0.261	0.065
-252.078	-200.000	-0.055	-0.371
-251.063	487.153	0.061	-0.137
-250.049	-94.671	-0.024	0.007
-249.034	595.928	-0.104	0.254
-248.019	128.925	0.172	-0.217
-247.005	-85.391	0.123	-0.038
-245.990	155.371	0.122	-0.166
-244.976	17.527	-0.155	-0.122
-243.961	-200.000	-0.028	-0.188
-242.946	-111.543	0.353	-0.071
-241.932	-54.501	-0.326	0.146
-240.917	-122.764	0.181	-0.029
-239.903	-200.000	-0.046	-0.402
-238.888	-66.057	0.089	-0.035
-237.873	800.000	-0.048	-0.142
-236.859	157.564	0.170	-0.233
-235.844	-89.890	-0.279	0.081
-234.830	24.857	-0.215	-0.177
-233.815	-59.384	-0.312	0.133
-232.800	-50.897	0.280	-0.130
-231.786	127.407	-0.136	0.171
-230.771	-47.127	0.486	0.235
-229.757	574.549	-0.035	0.085
-228.742	-143.477	-0.110	0.010
-227.727	-76.393	-0.092	-0.032
-226.713	494.802	0.145	-0.328
-225.698	-9.305	-0.165	-0.109
-224.684	-63.045	-0.227	0.093
-223.669	118.266	-0.039	-0.047
-222.655	-58.895	0.157	-0.067
-221.640	-200.000	0.017	-0.162
-220.625	-200.000	0.029	-0.348
-219.611	81.105	-0.114	-0.121
-218.596	-200.000	-0.018	-0.177
-217.582	-200.000	-0.018	0.232
-216.567	-46.903	0.315	0.152
-215.552	456.966	-0.047	0.103
-214.538	-92.816	-0.088	0.024
-213.523	374.558	0.020	0.041
-212.509	-45.329	0.255	-0.125
-211.494	3.449	0.140	-0.101
-210.479	-62.262	0.130	-0.054
-209.465	3.476	0.220	0.159
-208.450	-58.265	-0.428	0.184
-207.436	-52.970	-0.100	0.045
-206.421	551.193	0.115	-0.274
-205.406	-149.742	0.186	0.014
-204.392	167.816	-0.157	0.220
-203.377	253.359	0.138	-0.232
-202.363	-113.231	0.161	0.031
-201.348	800.000	-0.148	-0.415
-200.333	42.459	0.111	-0.100
-199.319	800.000	0.047	0.168
-198.304	-90.994	-0.339	0.096
-197.290	-27.998	-0.227	0.130
-196.275	34.493	0.258	-0.223
-195.260	-200.000	-0.004	-0.084
-194.246	-200.000	0.076	0.403
-193.231	800.000	0.059	0.237
-192.217	185.226	0.162	0.238
-191.202	-72.024	-0.249	-0.091
-190.187	-105.303	-0.120	-0.027
-189.173	-200.000	0.022	-0.390
-188.158	74.390	0.251	0.260
-187.144	800.000	0.118	-0.371
-186.129	800.000	0.034	-0.126
-185.114	105.782	0.286	-0.334
-184.100	635.586	0.108	-0.270
-183.085	-79.777	0.209	-0.070
-182.071	68.890	0.117	-0.119
-181.056	-96.335	0.102	0.027
-180.042	6.476	0.082	-0.060
-179.027	54.127	-0.054	-0.051
-178.012	338.845	0.100	-0.192
-176.998	-71.424	-0.193	-0.071
-175.983	-40.898	-0.176	0.090
-174.969	166.225	0.064	0.089
-173.954	-12.822	0.294	0.189
-172.939	212.746	-0.121	-0.188
-171.925	58.889	-0.232	0.225
-170.910	-125.881	-0.117	-0.017
-169.896	278.073	-0.079	0.138
-168.881	-117.066	-0.259	0.047
-167.866	-200.000	0.008	-0.082
-166.852	548.663	0.051	0.120
-165.837	146.336	-0.176	-0.234
-164.823	-46.882	0.056	0.027
-163.808	14.836	-0.219	0.169
-162.793	-46.435	-0.174	0.084
-161.779	33.549	-0.154	-0.132
-160.764	585.801	0.003	-0.007
-159.750	-200.000	-0.043	-0.209
-158.735	-101.620	0.324	0.078
-157.720	-96.668	0.151	-0.039
-156.706	234.377	-0.097	0.157
-155.691	251.784	0.065	-0.110
-154.677	-200.000	-0.038	-0.267
-153.662	574.337	0.013	0.032
-152.647	131.886	0.102	0.130
-151.633	92.658	0.137	-0.152
-150.618	-96.132	0.487	-0.128
-149.604	17.055	0.160	-0.125
-148.589	-35.459	0.102	-0.055
-147.574	14.112	-0.209	-0.160
-146.560	26.713	-0.084	-0.069
-145.545	273.264	0.142	0.248
-144.531	800.000	-0.021	0.068
-143.516	-116.110	0.297	-0.054
-142.502	20.805	0.087	-0.069
-141.487	800.000	0.026	-0.094
-140.472	-90.358	0.104	-0.030
-139.458	-65.639	-0.161	0.064
-138.443	76.628	0.120	0.126
-137.429	-182.364	-0.177	0.003
-136.414	-77.270	0.203	-0.069
-135.399	800.000	0.063	-0.209
-134.385	800.000	-0.025	0.095
-133.370	-134.277	-0.054	-0.007
-132.356	21.259	0.049	-0.039
-131.341	-200.000	0.063	-0.414
-130.326	784.203	-0.132	-0.358
-129.312	-100.451	0.272	-0.066
-128.297	-130.608	0.142	0.019
-127.283	630.153	0.043	0.108
-126.268	-107.121	-0.312	-0.068
-125.253	-188.421	-0.262	0.003
-124.239	83.545	-0.231	-0.248
-123.224	-200.000	0.000	-0.321
-122.210	-1.954	-0.198	0.137
-121.195	-143.566	-0.040	-0.004
