DTS Sentinel unit serial number:	SN413079Multiplexer serial number:	ORYXHardware model number:	OX4-SRSoftware version number:	ORYX F/W v4.00 Oryx Data Collector v3.7.2.0data status	okinstallation	princeton_trtdifferential loss correction	single-endedforward channel	channel 1reverse channel	N/Adate	2019/09/10time	21:00:11forward acquisition time	60.00reverse acquisition time	0.00gamma	496.2192k internal	0.2328k external	0.2328temperature offset calibration	0.9941default loss term (dB/km)	0.3790temperature slope calibration	1.0000multiplexer offset coefficient	1.0000multiplexer slope coefficient	1.0000fibre end	0.00T internal ref (°C)	31.62T ext. ref 1 (°C)	-0.31T ext. ref 2 (°C)	24.86length (m)	temperature (°C)	Stokes	anti-Stokes-747.200	459.435	0.039	-0.088
-746.185	-200.000	0.045	0.439
-745.171	6.601	0.294	0.220
-744.156	63.709	0.136	0.138
-743.142	69.571	0.174	-0.180
-742.127	-71.253	-0.094	0.035
-741.112	-11.401	0.192	-0.127
-740.098	260.201	-0.125	-0.218
-739.083	215.061	0.149	0.239
-738.069	-6.058	-0.402	0.277
-737.054	-200.000	-0.002	0.266
-736.039	-131.982	-0.539	-0.071
-735.025	-200.000	0.028	-0.281
-734.010	-70.887	0.071	0.027
-732.996	-111.869	-0.216	0.044
-731.981	-200.000	0.011	-0.198
-730.966	-134.247	-0.324	0.040
-729.952	-200.000	0.018	-0.203
-728.937	-83.156	-0.234	0.076
-727.923	-200.000	-0.008	0.102
-726.908	-200.000	-0.020	0.158
-725.894	800.000	0.052	-0.174
-724.879	-142.673	-0.199	-0.020
-723.864	-112.428	0.231	0.046
-722.850	-56.422	0.359	0.160
-721.835	30.213	-0.175	0.150
-720.821	800.000	-0.075	0.209
-719.806	800.000	0.056	-0.223
-718.791	44.727	0.186	0.172
-717.777	-10.955	-0.289	-0.192
-716.762	-39.050	-0.151	0.080
-715.748	-58.767	-0.209	-0.091
-714.733	-41.915	0.422	-0.218
-713.718	-68.307	-0.166	0.065
-712.704	173.796	-0.271	-0.394
-711.689	-48.953	0.300	-0.145
-710.675	-152.551	0.184	0.013
-709.660	30.064	0.163	0.140
-708.645	98.205	-0.100	0.115
-707.631	92.084	0.307	0.348
-706.616	-200.000	-0.027	-0.135
-705.602	-23.498	-0.325	-0.196
-704.587	800.000	-0.087	0.253
-703.572	322.698	0.079	-0.151
-702.558	150.819	0.205	-0.280
-701.543	-4.915	-0.205	0.142
-700.529	800.000	0.060	0.177
-699.514	-175.533	0.253	-0.007
-698.499	-119.121	-0.159	0.028
-697.485	-200.000	0.017	-0.387
-696.470	-177.694	-0.064	-0.002
-695.456	18.098	-0.306	0.246
-694.441	-24.125	0.192	-0.115
-693.426	-200.000	-0.054	0.299
-692.412	304.480	-0.157	-0.293
-691.397	74.231	-0.452	0.477
-690.383	45.801	0.321	-0.298
-689.368	-32.287	0.295	-0.165
-688.354	-74.509	0.291	-0.105
-687.339	800.000	0.026	0.099
-686.324	-71.154	-0.209	0.079
-685.310	351.232	0.162	-0.323
-684.295	-58.997	-0.143	0.062
-683.281	-71.369	-0.106	0.040
-682.266	44.410	-0.163	-0.151
-681.251	-58.502	-0.200	0.087
-680.237	45.334	-0.080	-0.074
-679.222	-67.187	0.250	-0.099
-678.208	58.026	-0.381	-0.375
-677.193	-92.881	-0.165	0.046
-676.178	78.148	0.267	-0.287
-675.164	-37.602	-0.055	-0.029
-674.149	172.528	-0.165	0.239
-673.135	-35.829	-0.227	0.124
-672.120	800.000	0.031	0.135
-671.105	92.223	0.307	0.347
-670.091	-156.529	-0.180	-0.011
-669.076	-200.000	0.017	0.310
-668.062	-31.462	0.113	0.064
-667.047	-39.483	-0.169	-0.089
-666.032	-143.676	0.174	-0.017
-665.018	107.222	-0.053	-0.063
-664.003	409.223	-0.132	0.280
-662.989	71.147	0.044	-0.046
-661.974	800.000	0.127	-0.511
-660.959	-45.874	0.361	-0.179
-659.945	6.295	0.125	0.093
-658.930	-47.011	0.089	0.043
-657.916	68.793	0.097	0.100
-656.901	-167.507	-0.280	-0.011
-655.886	29.392	-0.182	0.155
-654.872	-114.818	0.164	-0.031
-653.857	-18.202	0.094	-0.059
-652.843	-123.785	-0.178	-0.028
-651.828	-85.227	0.186	-0.058
-650.814	100.901	0.038	-0.045
-649.799	285.432	-0.239	0.432
-648.784	185.232	-0.082	-0.122
-647.770	-83.683	0.405	-0.130
-646.755	108.086	-0.192	-0.230
-645.741	-121.655	0.205	0.034
-644.726	-90.051	-0.205	0.060
-643.711	-10.761	-0.183	-0.121
-642.697	-0.754	0.150	0.107
-641.682	43.394	0.207	-0.190
-640.668	-38.338	-0.182	0.097
-639.653	-53.244	-0.218	0.100
-638.638	184.570	-0.144	-0.215
-637.624	-47.134	0.120	-0.059
-636.609	481.849	-0.099	-0.226
-635.595	-130.688	0.208	0.028
-634.580	-143.291	-0.192	-0.018
-633.565	-15.242	0.118	0.076
-632.551	-2.497	-0.036	-0.025
-631.536	-172.914	-0.408	0.013
-630.522	-200.000	-0.030	0.258
-629.507	800.000	0.081	0.247
-628.492	485.713	0.061	-0.139
-627.478	-4.692	-0.343	-0.237
-626.463	-14.374	-0.109	-0.070
-625.449	52.202	-0.218	-0.209
-624.434	132.721	-0.115	0.149
-623.419	-200.000	0.005	-0.258
-622.405	267.177	0.091	-0.159
-621.390	-200.000	0.002	0.012
-620.376	-4.185	0.128	0.089
-619.361	-178.029	0.271	0.006
-618.346	800.000	0.007	0.024
-617.332	-101.812	-0.257	-0.062
-616.317	14.866	0.146	-0.114
-615.303	-188.052	-0.375	-0.005
-614.288	-116.381	-0.522	0.097
-613.273	14.270	-0.257	-0.201
-612.259	-178.716	0.462	0.011
-611.244	94.527	-0.153	0.175
-610.230	-200.000	-0.096	-0.499
-609.215	-47.984	0.089	0.043
-608.201	-27.119	0.153	-0.089
-607.186	60.119	-0.315	0.312
-606.171	-93.174	0.057	-0.016
-605.157	-140.996	-0.223	0.023
-604.142	-98.677	0.323	-0.082
-603.128	74.923	0.062	0.066
-602.113	113.104	-0.114	0.138
-601.098	152.208	-0.190	0.260
-600.084	-28.577	-0.226	0.130
-599.069	-33.546	-0.279	-0.155
-598.055	125.663	0.168	0.212
-597.040	-69.814	-0.314	-0.120
-596.025	-16.595	-0.194	0.123
-595.011	-200.000	-0.006	-0.156
-593.996	800.000	-0.106	-0.328
-592.982	7.680	0.164	-0.123
-591.967	-89.596	0.316	-0.093
-590.952	800.000	0.049	0.164
-589.938	-92.533	0.370	-0.104
-588.923	-61.988	0.121	0.051
-587.909	-30.218	-0.044	0.025
-586.894	49.136	-0.129	-0.122
-585.879	-125.199	0.236	-0.036
-584.865	-200.000	-0.050	-0.266
-583.850	363.278	0.059	0.120
-582.836	-200.000	-0.022	0.130
-581.821	-84.981	-0.070	0.022
-580.806	622.528	-0.168	-0.424
-579.792	-152.047	-0.510	-0.037
-578.777	800.000	-0.120	-0.456
-577.763	316.952	0.096	-0.182
-576.748	8.175	0.118	-0.089
-575.733	-111.853	0.229	0.046
-574.719	-200.000	0.029	0.261
-573.704	49.481	-0.137	0.129
-572.690	89.896	0.149	0.166
-571.675	-49.652	-0.240	0.114
-570.661	-200.000	0.010	0.248
-569.646	-200.000	0.058	0.295
-568.631	749.371	0.011	0.029
-567.617	159.829	-0.220	0.307
-566.602	124.240	0.049	-0.061
-565.588	800.000	-0.046	-0.132
-564.573	-63.466	0.093	-0.038
-563.558	93.332	-0.143	-0.161
-562.544	-103.337	-0.259	0.061
-561.529	-171.185	-0.248	0.008
-560.515	-181.961	-0.356	-0.007
-559.500	-97.100	0.299	-0.078
-558.485	-77.938	0.125	-0.043
-557.471	198.777	-0.049	-0.076
-556.456	-200.000	-0.044	-0.249
-555.442	464.568	-0.034	-0.076
-554.427	96.780	-0.070	0.080
-553.412	283.723	0.280	0.503
-552.398	-81.925	-0.356	0.116
-551.383	-91.382	-0.118	-0.034
-550.369	-21.439	-0.187	0.114
-549.354	103.056	0.188	0.220
-548.339	49.334	-0.108	0.102
-547.325	57.172	-0.201	-0.196
-546.310	-200.000	-0.003	-0.462
-545.296	-98.949	-0.426	-0.108
-544.281	152.686	-0.156	-0.213
-543.266	-200.000	0.003	0.064
-542.252	62.231	-0.272	-0.272
-541.237	-1.453	-0.168	0.118
-540.223	116.130	0.201	-0.246
-539.208	71.638	-0.211	-0.219
-538.193	-200.000	-0.054	-0.242
-537.179	-18.180	0.249	-0.156
-536.164	-14.407	0.151	-0.097
-535.150	-21.800	0.004	0.003
-534.135	-200.000	-0.015	-0.200
-533.121	76.665	0.050	-0.053
-532.106	99.888	-0.170	0.197
-531.091	-161.992	-0.276	-0.014
-530.077	-200.000	0.015	0.367
-529.062	130.451	-0.110	0.141
-528.048	266.285	-0.170	-0.297
-527.033	323.807	-0.056	0.106
-526.018	-200.000	-0.017	0.157
-525.004	141.315	0.186	0.246
-523.989	-95.953	0.184	-0.049
-522.975	772.435	0.059	-0.160
-521.960	-122.533	0.125	-0.020
-520.945	213.676	0.181	0.286
-519.931	-200.000	0.043	0.204
-518.916	473.487	-0.129	-0.291
-517.902	219.865	-0.114	0.182
-516.887	-84.350	-0.225	-0.071
-515.872	-8.108	0.071	0.048
-514.858	-26.000	-0.219	0.129
-513.843	-137.387	0.096	0.011
-512.829	233.999	-0.076	-0.126
-511.814	-200.000	-0.027	0.152
-510.799	800.000	-0.081	0.347
-509.785	58.921	0.389	0.382
-508.770	-81.141	-0.477	0.157
-507.756	-101.708	-0.187	0.045
-506.741	230.415	-0.031	0.051
-505.726	144.781	0.036	0.048
-504.712	-161.164	-0.273	-0.014
-503.697	-185.671	0.123	0.002
-502.683	-200.000	-0.069	-0.345
-501.668	-92.905	0.243	-0.068
-500.653	-122.709	-0.283	-0.046
-499.639	800.000	-0.039	0.125
-498.624	323.428	0.019	0.036
-497.610	14.968	-0.249	-0.194
-496.595	239.330	0.148	0.246
-495.581	-17.990	0.116	-0.073
-494.566	479.246	0.037	0.083
-493.551	18.168	-0.172	-0.137
-492.537	314.396	0.085	-0.159
-491.522	388.707	-0.034	-0.069
-490.508	-200.000	-0.009	-0.117
-489.493	-200.000	-0.010	0.218
-488.478	190.644	-0.177	-0.265
-487.464	32.138	0.261	0.225
-486.449	109.358	0.112	0.134
-485.435	-200.000	0.000	-0.367
-484.420	65.355	-0.094	0.095
-483.405	9.982	0.097	-0.074
-482.391	-47.277	-0.081	-0.039
-481.376	81.537	-0.220	0.237
-480.362	12.357	-0.279	0.215
-479.347	335.168	-0.182	0.352
-478.332	-64.288	-0.261	0.106
-477.318	367.750	0.083	0.167
-476.303	800.000	-0.096	0.281
-475.289	-47.964	-0.113	-0.054
-474.274	25.105	-0.091	0.075
-473.259	-17.881	0.189	0.118
-472.245	-200.000	0.050	0.238
-471.230	465.460	0.244	0.544
-470.216	-57.542	0.012	0.005
-469.201	800.000	-0.117	-0.384
-468.186	800.000	-0.068	-0.195
-467.172	-21.101	-0.143	0.087
-466.157	228.000	0.212	0.344
-465.143	800.000	-0.041	0.118
-464.128	228.642	0.165	0.268
-463.113	-200.000	-0.049	-0.224
-462.099	344.009	-0.071	0.139
-461.084	-90.737	0.124	0.036
-460.070	800.000	-0.092	0.273
-459.055	590.814	-0.083	0.204
-458.040	-44.251	0.084	0.042
-457.026	280.690	-0.074	-0.131
-456.011	-21.655	0.259	-0.157
-454.997	-80.851	-0.305	0.101
-453.982	121.510	-0.192	-0.238
-452.968	-149.437	0.179	0.014
-451.953	-151.967	0.236	0.017
-450.938	80.936	-0.106	-0.114
-449.924	-196.545	0.142	0.001
-448.909	-200.000	-0.028	-0.139
-447.895	-3.719	0.182	-0.126
-446.880	417.890	0.043	0.091
-445.865	800.000	0.026	0.079
-444.851	-115.407	0.157	-0.029
-443.836	159.213	0.103	0.142
-442.822	131.772	0.063	0.081
-441.807	29.249	0.088	-0.075
-440.792	-200.000	0.014	-0.242
-439.778	-79.963	-0.165	0.055
-438.763	-200.000	-0.017	-0.079
-437.749	-73.676	0.364	0.132
-436.734	-158.727	0.433	0.025
-435.719	-56.622	-0.143	-0.063
-434.705	10.849	-0.184	0.140
-433.690	-105.396	0.311	-0.070
-432.676	-110.124	-0.372	0.077
-431.661	11.990	-0.150	-0.115
-430.646	-4.747	0.047	0.032
-429.632	-37.462	-0.182	-0.097
-428.617	-123.600	-0.070	-0.011
-427.603	461.300	0.043	0.096
-426.588	-64.967	-0.165	-0.066
-425.573	-64.812	-0.233	-0.094
-424.559	-44.011	-0.200	-0.100
-423.544	-156.957	-0.081	0.005
-422.530	-65.544	0.086	-0.035
-421.515	-85.716	-0.108	0.033
-420.500	-148.790	0.316	0.025
-419.486	-30.656	-0.120	0.067
-418.471	800.000	-0.052	-0.205
-417.457	-200.000	0.011	-0.175
-416.442	-54.153	0.208	-0.094
-415.428	800.000	-0.071	-0.227
-414.413	-169.159	-0.211	-0.008
-413.398	-115.782	-0.106	0.020
-412.384	-200.000	-0.020	0.237
-411.369	196.595	-0.082	-0.124
-410.355	-54.231	0.037	0.017
-409.340	-70.028	0.173	-0.065
-408.325	-200.000	-0.020	-0.302
-407.311	-108.392	-0.081	0.017
-406.296	-16.252	-0.196	0.124
-405.282	416.988	0.044	0.094
-404.267	800.000	0.073	0.272
-403.252	261.686	-0.088	-0.152
-402.238	272.070	-0.066	-0.116
-401.223	-123.666	0.149	-0.024
-400.209	-200.000	-0.006	0.050
-399.194	176.347	-0.266	0.384
-398.179	-13.605	0.130	0.084
-397.165	160.590	-0.068	0.095
-396.150	-8.281	0.213	0.142
-395.136	-200.000	0.035	-0.192
-394.121	7.036	0.157	0.116
-393.106	2.838	0.217	0.156
-392.092	-200.000	0.002	-0.242
-391.077	466.306	-0.133	0.295
-390.063	-63.912	0.145	-0.059
-389.048	-22.366	-0.206	0.124
-388.033	-47.710	-0.320	-0.154
-387.019	157.241	-0.010	0.014
-386.004	-140.936	0.238	-0.024
-384.990	-195.983	-0.245	-0.002
-383.975	22.036	0.210	0.170
-382.960	-95.842	0.206	-0.055
-381.946	26.372	-0.229	0.190
-380.931	-132.691	0.228	0.029
-379.917	80.466	0.154	-0.164
-378.902	-182.663	0.079	-0.001
-377.888	-152.942	0.196	0.014
-376.873	-80.773	0.187	-0.062
-375.858	-200.000	-0.009	0.281
-374.844	-23.566	-0.185	0.110
-373.829	800.000	-0.042	-0.119
-372.815	800.000	0.108	0.312
-371.800	800.000	-0.026	0.110
-370.785	187.396	0.123	-0.183
-369.771	800.000	-0.051	-0.202
-368.756	96.171	-0.088	-0.100
-367.742	800.000	-0.011	-0.042
-366.727	-127.205	0.270	-0.039
-365.712	-37.582	0.232	0.123
-364.698	-200.000	-0.102	-0.000
-363.683	94.170	0.237	-0.267
-362.669	-54.591	0.272	-0.122
-361.654	115.146	-0.156	-0.189
-360.639	114.530	0.170	-0.206
-359.625	-200.000	-0.009	0.189
-358.610	-28.454	0.208	-0.119
-357.596	21.229	-0.434	0.350
-356.581	-117.911	-0.185	0.033
-355.566	800.000	-0.137	0.393
-354.552	-200.000	-0.006	0.421
-353.537	57.438	-0.099	0.096
-352.523	-200.000	-0.009	0.123
-351.508	800.000	-0.051	0.200
-350.493	68.318	0.171	0.173
-349.479	-90.539	-0.300	0.086
-348.464	8.489	-0.106	-0.079
-347.450	19.852	0.263	-0.210
-346.435	60.358	0.366	-0.359
-345.420	-137.735	-0.387	-0.043
-344.406	36.849	-0.256	-0.225
-343.391	800.000	-0.014	-0.040
-342.377	136.743	-0.057	0.073
-341.362	-41.971	-0.168	-0.085
-340.348	280.224	0.175	0.310
-339.333	562.696	0.135	0.323
-338.318	-200.000	-0.047	0.207
-337.304	800.000	-0.041	0.157
-336.289	-125.323	-0.298	0.045
-335.275	800.000	0.015	0.064
-334.260	85.436	-0.113	-0.123
-333.245	-172.537	0.486	-0.015
-332.231	-9.006	-0.056	0.037
-331.216	-71.968	0.277	0.102
-330.202	104.573	-0.195	0.228
-329.187	59.743	-0.217	0.212
-328.172	-191.494	-0.291	-0.003
-327.158	109.640	0.109	-0.130
-326.143	800.000	-0.096	0.347
-325.129	-200.000	-0.015	0.271
-324.114	-134.925	0.155	0.019
-323.099	10.217	0.300	0.226
-322.085	-200.000	0.065	0.318
-321.070	681.698	0.053	0.137
-320.056	-180.746	-0.253	0.005
-319.041	-43.379	0.366	-0.183
-318.026	-48.859	0.184	0.088
-317.012	-86.839	0.175	-0.053
-315.997	-184.296	0.414	0.007
-314.983	-104.898	-0.039	0.009
-313.968	-51.352	0.226	-0.105
-312.953	-145.181	0.442	0.040
-311.939	45.805	-0.045	-0.041
-310.924	-45.790	-0.317	-0.155
-309.910	58.800	-0.226	-0.220
-308.895	-200.000	-0.015	0.217
-307.880	-15.998	0.247	-0.156
-306.866	307.155	-0.161	-0.297
-305.851	309.195	-0.040	-0.074
-304.837	52.178	-0.046	0.044
-303.822	800.000	-0.155	-0.496
-302.807	20.404	-0.118	0.094
-301.793	335.915	0.072	-0.138
-300.778	791.330	-0.036	0.098
-299.764	29.894	-0.173	-0.146
-298.749	-21.433	-0.049	-0.030
-297.735	237.289	0.221	0.363
-296.720	800.000	-0.176	-0.516
-295.705	-92.202	-0.244	-0.068
-294.691	-200.000	-0.028	-0.173
-293.676	-27.351	0.458	-0.264
-292.662	196.774	0.112	-0.168
-291.647	26.067	0.014	0.011
-290.632	301.473	-0.099	-0.181
-289.618	13.625	0.312	-0.240
-288.603	273.515	-0.035	0.062
-287.589	-166.178	0.416	-0.017
-286.574	-80.546	-0.219	0.072
-285.559	-200.000	-0.009	-0.101
-284.545	-186.096	0.159	-0.002
-283.530	-86.361	0.199	-0.061
-282.516	800.000	0.032	0.134
-281.501	-200.000	0.011	-0.121
-280.486	112.829	-0.148	0.178
-279.472	-146.489	0.314	-0.027
-278.457	-196.419	0.319	0.002
-277.443	-200.000	-0.015	-0.168
-276.428	667.580	0.063	-0.161
-275.413	800.000	-0.067	0.244
-274.399	800.000	0.042	0.118
-273.384	305.179	0.033	0.061
-272.370	1.166	0.328	-0.233
-271.355	-134.771	0.280	-0.034
-270.340	-92.668	0.226	0.063
-269.326	-128.007	0.077	0.011
-268.311	203.834	0.115	0.176
-267.297	-145.873	0.200	0.018
-266.282	91.303	-0.192	0.213
-265.267	-200.000	0.011	0.155
-264.253	-140.236	0.269	0.028
-263.238	800.000	-0.086	-0.243
-262.224	168.856	-0.311	-0.438
-261.209	81.770	0.095	-0.102
-260.195	-200.000	0.020	0.178
-259.180	-200.000	-0.042	0.308
-258.165	59.216	-0.175	-0.171
-257.151	12.734	-0.172	-0.131
-256.136	6.914	0.142	0.105
-255.122	800.000	0.089	0.338
-254.107	-200.000	-0.052	0.227
-253.092	-88.521	0.032	-0.009
-252.078	-104.727	0.250	-0.057
-251.063	800.000	0.033	-0.134
-250.049	227.479	0.049	0.078
-249.034	-156.245	-0.278	0.017
-248.019	-49.201	0.143	0.067
-247.005	107.168	0.142	0.167
-245.990	-200.000	-0.035	0.203
-244.976	87.763	-0.067	-0.073
-243.961	125.162	0.232	-0.289
-242.946	185.334	0.060	-0.088
-241.932	40.168	-0.360	-0.320
-240.917	800.000	-0.050	-0.175
-239.903	-47.387	-0.226	-0.108
-238.888	34.137	0.160	0.138
-237.873	49.980	0.063	-0.058
-236.859	214.308	0.157	-0.245
-235.844	-139.901	0.230	-0.024
-234.830	-145.219	0.215	0.019
-233.815	-76.342	-0.174	-0.061
-232.800	-200.000	0.019	0.185
-231.786	118.519	0.109	0.133
-230.771	34.776	-0.070	0.060
-229.757	-136.886	0.278	0.032
-228.742	284.409	-0.029	0.051
-227.727	107.006	0.109	-0.128
-226.713	-200.000	-0.004	0.381
-225.698	513.570	-0.033	-0.076
-224.684	576.939	-0.094	-0.226
-223.669	-89.227	-0.487	0.142
-222.655	50.873	0.174	-0.163
-221.640	-40.936	0.399	0.204
-220.625	-115.020	-0.091	-0.017
-219.611	-200.000	0.031	0.188
-218.596	-200.000	-0.015	0.207
-217.582	427.578	0.076	-0.163
-216.567	-200.000	0.027	-0.191
-215.552	505.142	-0.066	-0.152
-214.538	615.685	-0.080	-0.198
-213.523	488.725	-0.033	0.075
-212.509	-38.614	0.226	-0.118
-211.494	60.216	0.091	-0.088
-210.479	688.774	-0.045	-0.117
-209.465	629.037	-0.114	-0.285
-208.450	-134.137	0.179	0.022
-207.436	152.803	0.100	-0.135
-206.421	448.188	0.121	-0.263
-205.406	-200.000	-0.002	0.073
-204.392	279.198	0.027	0.047
-203.377	-128.557	0.109	0.015
-202.363	126.984	0.082	-0.102
-201.348	-200.000	0.013	0.154
-200.333	-200.000	0.026	0.116
-199.319	-200.000	-0.044	0.286
-198.304	352.710	-0.026	-0.052
-197.290	-87.361	-0.080	-0.024
-196.275	85.861	-0.196	-0.212
-195.260	-71.927	0.478	-0.176
-194.246	-175.795	0.109	0.003
-193.231	163.034	-0.179	0.248
-192.217	-67.390	0.156	-0.060
-191.202	87.330	0.127	-0.138
-190.187	800.000	0.074	-0.285
-189.173	-31.511	-0.189	0.105
-188.158	-157.279	-0.031	-0.002
-187.144	333.429	-0.210	0.400
-186.129	-3.721	0.345	-0.236
-185.114	47.739	0.111	-0.102
-184.100	246.943	0.135	-0.224
-183.085	415.119	-0.102	-0.214
-182.071	-98.304	0.161	0.041
-181.056	443.599	-0.046	-0.099
-180.042	78.847	-0.170	0.179
-179.027	800.000	0.080	-0.284
-178.012	265.184	-0.083	0.142
-176.998	-97.130	0.209	-0.054
-175.983	-11.353	-0.146	-0.095
-174.969	-151.302	0.096	0.007
-173.954	-29.066	0.068	-0.038
-172.939	695.239	-0.103	0.268
-171.925	-200.000	0.002	0.134
-170.910	641.769	0.039	-0.098
-169.896	-35.779	-0.190	0.101
-168.881	404.300	0.152	0.316
-167.866	-200.000	-0.020	0.212
-166.852	-30.081	0.225	-0.126
-165.837	-200.000	-0.008	-0.064
-164.823	303.760	0.104	-0.190
-163.808	-200.000	0.036	0.212
-162.793	-120.357	0.380	0.064
-161.779	-200.000	0.054	0.233
-160.764	135.898	0.159	-0.204
-159.750	53.677	-0.145	-0.137
-158.735	-200.000	0.010	-0.228
-157.720	292.327	-0.113	-0.202
-156.706	-100.673	-0.284	0.069
-155.691	-200.000	-0.021	-0.149
-154.677	-200.000	-0.062	-0.363
-153.662	457.245	0.017	-0.038
-152.647	-95.263	0.390	0.103
-151.633	195.919	0.037	0.055
-150.618	147.525	-0.242	0.322
-149.604	-42.380	0.152	-0.076
-148.589	-32.017	0.269	0.148
-147.574	313.164	0.165	-0.305
-146.560	-26.229	0.234	-0.135
-145.545	-74.097	0.197	-0.070
-144.531	-43.158	-0.041	-0.021
-143.516	174.171	0.065	-0.092
-142.502	-200.000	0.046	-0.217
-141.487	223.141	0.034	0.054
-140.472	27.083	-0.251	0.207
-139.458	-29.578	-0.117	-0.066
-138.443	-195.818	-0.285	-0.002
-137.429	800.000	0.100	-0.403
-136.414	-68.670	-0.007	0.003
-135.399	800.000	0.081	0.221
-134.385	-200.000	0.014	0.129
-133.370	-79.607	0.169	-0.056
-132.356	-200.000	0.010	-0.173
-131.341	-200.000	-0.009	-0.174
-130.326	50.613	-0.106	-0.099
-129.312	-95.682	-0.186	0.049
-128.297	747.643	0.066	0.174
-127.283	-200.000	-0.005	-0.084
-126.268	-105.138	0.037	0.008
-125.253	-200.000	0.039	-0.412
-124.239	257.741	0.055	0.093
-123.224	88.570	0.107	0.117
-122.210	800.000	0.052	-0.163
-121.195	-105.816	0.176	-0.039
