DTS Sentinel unit serial number:	SN413079Multiplexer serial number:	ORYXHardware model number:	OX4-SRSoftware version number:	ORYX F/W v4.00 Oryx Data Collector v3.7.2.0data status	okinstallation	princeton_trtdifferential loss correction	single-endedforward channel	channel 1reverse channel	N/Adate	2019/09/14time	04:58:35forward acquisition time	60.00reverse acquisition time	0.00gamma	496.2192k internal	0.2334k external	0.2334temperature offset calibration	1.0079default loss term (dB/km)	0.3790temperature slope calibration	1.0000multiplexer offset coefficient	1.0000multiplexer slope coefficient	1.0000fibre end	0.00T internal ref (°C)	26.87T ext. ref 1 (°C)	3.36T ext. ref 2 (°C)	22.00length (m)	temperature (°C)	Stokes	anti-Stokes-747.200	98.519	0.042	-0.048
-746.185	232.790	-0.182	0.301
-745.171	-62.177	0.128	0.054
-744.156	637.156	-0.091	0.233
-743.142	-192.729	0.233	0.002
-742.127	16.817	-0.222	-0.177
-741.112	-54.808	0.160	-0.073
-740.098	-200.000	0.077	0.432
-739.083	358.879	0.049	0.098
-738.069	-66.799	-0.178	-0.071
-737.054	396.804	0.041	0.087
-736.039	-24.359	-0.179	-0.107
-735.025	800.000	-0.046	-0.141
-734.010	272.948	-0.073	0.129
-732.996	-64.791	-0.131	0.053
-731.981	-32.806	-0.306	0.171
-730.966	241.148	0.047	-0.080
-729.952	-46.675	-0.150	-0.074
-728.937	138.037	-0.116	-0.153
-727.923	800.000	-0.071	-0.258
-726.908	49.195	-0.065	-0.062
-725.894	-21.487	-0.163	-0.100
-724.879	-64.463	0.259	0.106
-723.864	101.903	-0.088	-0.103
-722.850	-93.644	0.028	-0.008
-721.835	-200.000	0.027	-0.296
-720.821	412.115	0.037	0.078
-719.806	-200.000	0.047	0.414
-718.791	220.366	0.110	0.177
-717.777	-157.642	-0.130	-0.008
-716.762	-54.253	-0.032	0.015
-715.748	-200.000	0.018	0.284
-714.733	480.971	-0.074	0.169
-713.718	59.429	0.171	-0.169
-712.704	-200.000	0.015	0.104
-711.689	395.533	-0.106	-0.222
-710.675	-99.134	0.343	-0.087
-709.660	19.510	-0.190	-0.153
-708.645	81.821	-0.049	-0.053
-707.631	183.575	0.028	0.041
-706.616	-78.975	0.215	0.073
-705.602	35.945	-0.127	-0.112
-704.587	-32.217	-0.390	-0.219
-703.572	-17.532	-0.450	-0.284
-702.558	-108.821	0.170	-0.036
-701.543	371.783	0.194	-0.395
-700.529	-63.709	0.338	-0.139
-699.514	800.000	-0.099	-0.355
-698.499	371.354	0.169	-0.345
-697.485	2.819	-0.073	0.053
-696.470	-200.000	-0.029	-0.209
-695.456	800.000	-0.048	-0.204
-694.441	-83.330	-0.236	-0.076
-693.426	-32.354	-0.273	0.153
-692.412	-200.000	-0.045	-0.209
-691.397	-64.756	-0.167	0.068
-690.383	-144.526	0.238	-0.022
-689.368	56.976	0.051	0.050
-688.354	-112.861	-0.161	-0.032
-687.339	-49.639	0.095	0.045
-686.324	800.000	0.027	0.096
-685.310	-169.078	-0.225	0.008
-684.295	-30.101	-0.182	-0.104
-683.281	-115.456	-0.268	0.051
-682.266	214.838	-0.134	-0.214
-681.251	58.930	-0.267	-0.263
-680.237	-134.918	-0.303	-0.037
-679.222	-125.228	0.348	0.053
-678.208	-200.000	-0.002	-0.238
-677.193	61.155	-0.179	-0.178
-676.178	265.546	-0.121	-0.212
-675.164	33.334	-0.065	-0.057
-674.149	-200.000	0.036	0.381
-673.135	-113.876	0.120	0.023
-672.120	-30.685	0.137	0.078
-671.105	-53.967	0.128	0.058
-670.091	121.251	-0.101	-0.127
-669.076	-65.483	0.156	0.063
-668.062	39.801	-0.147	0.132
-667.047	27.930	-0.452	-0.382
-666.032	-47.091	-0.235	-0.115
-665.018	-200.000	0.045	0.236
-664.003	42.312	-0.081	-0.074
-662.989	396.886	0.155	-0.324
-661.974	800.000	0.029	0.119
-660.959	-22.992	-0.248	-0.150
-659.945	734.529	0.032	0.086
-658.930	77.180	0.103	-0.109
-657.916	-4.057	0.104	-0.072
-656.901	87.209	0.223	-0.247
-655.886	800.000	-0.056	0.155
-654.872	-25.534	0.258	0.153
-653.857	-23.592	0.268	-0.161
-652.843	-9.570	0.434	-0.290
-651.828	-169.032	-0.109	-0.004
-650.814	23.293	0.398	-0.328
-649.799	-59.207	0.226	-0.098
-648.784	800.000	-0.065	-0.217
-647.770	-111.737	-0.106	0.022
-646.755	208.612	-0.113	-0.177
-645.741	142.538	-0.155	0.207
-644.726	-115.038	0.433	0.082
-643.711	-140.531	0.249	0.026
-642.697	800.000	-0.057	-0.198
-641.682	1.146	-0.176	0.126
-640.668	27.324	-0.157	-0.132
-639.653	205.023	0.023	-0.035
-638.638	-183.513	-0.286	-0.005
-637.624	108.437	-0.173	-0.207
-636.609	328.212	-0.115	-0.222
-635.595	104.435	-0.173	0.203
-634.580	-200.000	0.030	-0.159
-633.565	6.432	-0.213	-0.159
-632.551	-200.000	0.010	-0.070
-631.536	588.673	-0.079	0.195
-630.522	99.992	0.281	0.326
-629.507	-28.067	0.291	0.168
-628.492	-7.073	-0.098	-0.067
-627.478	2.878	-0.106	0.077
-626.463	200.765	0.042	0.065
-625.449	13.757	-0.226	-0.176
-624.434	-200.000	0.031	-0.136
-623.419	-163.875	-0.078	-0.004
-622.405	139.796	0.055	-0.073
-621.390	-200.000	-0.028	0.315
-620.376	70.128	0.172	-0.177
-619.361	-200.000	-0.017	0.227
-618.346	181.217	-0.091	0.134
-617.332	139.959	-0.159	-0.210
-616.317	303.122	-0.085	-0.158
-615.303	-39.938	-0.064	-0.033
-614.288	16.139	-0.313	-0.247
-613.273	-100.368	0.104	-0.026
-612.259	208.493	-0.112	0.176
-611.244	-146.632	-0.211	-0.018
-610.230	-99.652	0.180	0.045
-609.215	-98.486	-0.180	0.046
-608.201	-120.983	0.235	0.039
-607.186	-200.000	-0.014	0.236
-606.171	-200.000	-0.005	-0.111
-605.157	65.712	-0.304	0.308
-604.142	26.526	-0.092	-0.077
-603.128	462.318	0.131	-0.292
-602.113	-154.871	-0.132	0.009
-601.098	-140.386	-0.157	0.016
-600.084	-0.015	-0.301	-0.214
-599.069	800.000	0.068	0.204
-598.055	-144.145	-0.118	-0.011
-597.040	-200.000	0.077	-0.446
-596.025	800.000	0.096	0.268
-595.011	396.034	-0.161	-0.336
-593.996	179.439	-0.223	-0.327
-592.982	-77.558	0.555	-0.192
-591.967	-143.390	0.255	-0.024
-590.952	800.000	0.047	0.177
-589.938	-200.000	0.044	-0.360
-588.923	-84.028	-0.177	-0.056
-587.909	-70.108	-0.312	0.119
-586.894	146.671	0.017	-0.023
-585.879	183.229	-0.204	-0.302
-584.865	-122.472	-0.152	0.025
-583.850	-6.789	-0.167	-0.114
-582.836	-200.000	0.045	0.292
-581.821	-35.022	0.154	0.084
-580.806	-129.293	0.401	0.056
-579.792	800.000	-0.117	-0.408
-578.777	73.521	0.090	0.094
-577.763	-32.639	-0.200	0.111
-576.748	800.000	0.055	0.195
-575.733	-20.808	0.195	-0.119
-574.719	20.934	-0.231	0.187
-573.704	85.468	0.193	-0.212
-572.690	373.254	0.092	-0.187
-571.675	129.687	0.132	-0.169
-570.661	-33.326	0.203	-0.112
-569.646	-82.238	-0.093	0.030
-568.631	-36.831	-0.237	-0.127
-567.617	-42.136	-0.163	-0.083
-566.602	-49.541	-0.200	-0.095
-565.588	-138.880	-0.236	-0.026
-564.573	-108.078	0.133	0.029
-563.558	150.206	0.150	-0.203
-562.544	-141.606	-0.416	-0.042
-561.529	107.479	-0.193	0.229
-560.515	-200.000	0.020	-0.121
-559.500	373.245	0.055	0.111
-558.485	-200.000	0.017	0.355
-557.471	148.698	-0.062	0.083
-556.456	-28.989	-0.136	-0.078
-555.442	39.556	0.130	-0.116
-554.427	24.295	-0.336	-0.277
-553.412	190.486	0.145	-0.217
-552.398	-200.000	0.034	0.241
-551.383	800.000	-0.024	-0.066
-550.369	199.613	0.063	-0.096
-549.354	800.000	0.068	0.228
-548.339	634.541	-0.067	0.170
-547.325	95.605	0.207	0.235
-546.310	-156.588	-0.114	-0.007
-545.296	6.992	0.201	0.149
-544.281	-200.000	0.020	-0.134
-543.266	-118.868	-0.432	0.076
-542.252	-200.000	0.033	-0.236
-541.237	-1.242	-0.220	-0.155
-540.223	342.179	-0.054	0.105
-539.208	390.850	-0.119	0.246
-538.193	-50.940	0.117	0.055
-537.179	256.769	-0.035	0.060
-536.164	637.260	0.098	0.248
-535.150	67.629	0.195	0.199
-534.135	-200.000	-0.016	0.280
-533.121	162.479	0.100	0.140
-532.106	-104.455	0.030	-0.007
-531.091	-102.958	0.236	-0.056
-530.077	800.000	-0.099	-0.276
-529.062	-178.259	0.163	0.004
-528.048	-200.000	0.021	0.160
-527.033	-84.760	-0.333	0.104
-526.018	-200.000	0.019	-0.122
-525.004	114.819	-0.125	-0.151
-523.989	125.886	0.141	-0.178
-522.975	-92.924	-0.170	0.047
-521.960	429.039	0.052	-0.112
-520.945	-200.000	0.009	0.211
-519.931	539.347	-0.021	-0.050
-518.916	32.088	-0.010	-0.008
-517.902	248.276	0.081	0.137
-516.887	-38.745	0.058	0.030
-515.872	800.000	-0.074	0.226
-514.858	-63.710	-0.158	0.065
-513.843	800.000	0.093	0.291
-512.829	-173.996	-0.186	0.005
-511.814	-109.313	0.189	-0.040
-510.799	633.585	-0.128	-0.323
-509.785	93.648	-0.036	-0.041
-508.770	-200.000	-0.035	0.177
-507.756	-200.000	-0.005	-0.082
-506.741	-95.917	-0.216	-0.057
-505.726	482.542	0.069	0.157
-504.712	-2.649	-0.233	-0.162
-503.697	-193.222	-0.109	0.001
-502.683	-200.000	-0.023	0.125
-501.668	158.029	-0.275	-0.380
-500.653	38.046	-0.153	-0.136
-499.639	-48.399	-0.288	0.138
-498.624	-121.291	-0.120	0.020
-497.610	88.705	0.266	-0.295
-496.595	145.343	0.070	-0.094
-495.581	-10.917	0.118	-0.078
-494.566	37.247	0.223	0.197
-493.551	-200.000	-0.010	0.188
-492.537	-110.848	-0.384	-0.079
-491.522	-200.000	0.024	-0.176
-490.508	10.502	0.165	-0.125
-489.493	800.000	-0.060	-0.200
-488.478	-68.463	-0.413	-0.160
-487.464	800.000	-0.068	-0.285
-486.449	-200.000	-0.013	-0.059
-485.435	453.715	0.103	-0.227
-484.420	-200.000	0.006	-0.069
-483.405	-177.650	0.255	0.006
-482.391	-200.000	0.019	-0.172
-481.376	95.279	-0.106	0.120
-480.362	109.548	-0.292	0.349
-479.347	396.407	-0.133	-0.276
-478.332	-113.215	-0.100	-0.020
-477.318	-71.814	-0.212	0.079
-476.303	-83.216	-0.157	0.050
-475.289	470.578	0.065	-0.144
-474.274	16.355	-0.296	0.232
-473.259	-200.000	-0.040	-0.211
-472.245	89.118	-0.102	-0.113
-471.230	-200.000	-0.013	-0.325
-470.216	257.320	0.023	0.039
-469.201	169.414	0.178	0.252
-468.186	-0.797	0.155	-0.109
-467.172	-77.334	-0.312	-0.108
-466.157	10.845	-0.254	-0.193
-465.143	599.888	0.037	-0.092
-464.128	-200.000	0.057	-0.356
-463.113	-80.908	0.220	-0.073
-462.099	526.227	0.011	0.026
-461.084	543.047	0.081	0.191
-460.070	-200.000	-0.036	0.214
-459.055	280.637	0.061	0.108
-458.040	-78.102	-0.337	0.115
-457.026	-94.775	0.073	0.020
-456.011	-200.000	0.022	0.124
-454.997	-45.268	0.159	0.079
-453.982	317.088	-0.054	0.102
-452.968	-73.230	-0.182	-0.066
-451.953	125.631	-0.069	-0.086
-450.938	133.224	0.086	0.110
-449.924	295.364	-0.010	-0.019
-448.909	147.242	-0.076	-0.101
-447.895	-95.252	0.387	0.104
-446.880	36.976	-0.226	-0.199
-445.865	-200.000	-0.018	0.084
-444.851	-200.000	-0.036	-0.268
-443.836	545.559	-0.147	-0.350
-442.822	632.426	-0.043	-0.107
-441.807	339.155	0.199	-0.386
-440.792	-41.574	-0.111	-0.057
-439.778	-102.827	-0.086	0.020
-438.763	328.821	0.075	0.143
-437.749	-51.193	0.173	-0.081
-436.734	-109.775	-0.052	0.011
-435.719	116.235	0.287	0.349
-434.705	-83.737	-0.174	0.055
-433.690	-75.591	-0.112	0.040
-432.676	15.279	-0.196	-0.152
-431.661	-200.000	0.013	-0.063
-430.646	103.337	-0.128	0.150
-429.632	-200.000	0.039	-0.247
-428.617	-200.000	0.012	0.228
-427.603	367.270	0.079	-0.158
-426.588	40.144	0.163	-0.146
-425.573	-72.193	0.337	0.124
-424.559	-200.000	0.011	-0.433
-423.544	-200.000	0.104	0.471
-422.530	539.562	-0.078	-0.183
-421.515	-69.186	0.231	0.088
-420.500	-60.326	0.154	0.065
-419.486	36.946	0.067	-0.059
-418.471	-97.544	0.151	-0.039
-417.457	110.676	-0.059	0.071
-416.442	25.979	-0.169	-0.139
-415.428	-55.594	-0.146	0.065
-414.413	-200.000	-0.022	0.204
-413.398	172.685	-0.211	0.302
-412.384	-3.963	0.136	-0.093
-411.369	-125.552	0.226	-0.034
-410.355	800.000	-0.053	-0.180
-409.340	66.887	-0.069	-0.070
-408.325	61.543	0.072	-0.071
-407.311	-32.442	0.194	0.107
-406.296	-76.905	0.216	0.075
-405.282	-36.403	-0.097	0.052
-404.267	-97.548	0.299	0.077
-403.252	686.907	0.020	0.053
-402.238	-2.362	0.205	-0.142
-401.223	-53.347	0.152	0.069
-400.209	-200.000	0.019	0.122
-399.194	-32.471	0.049	0.027
-398.179	7.391	-0.265	-0.197
-397.165	800.000	0.092	0.268
-396.150	-40.064	-0.127	0.065
-395.136	-51.817	0.344	0.159
-394.121	-200.000	-0.044	-0.321
-393.106	-75.864	0.311	-0.109
-392.092	1.148	0.226	-0.161
-391.077	224.224	-0.088	0.141
-390.063	-1.988	0.086	0.060
-389.048	425.104	-0.109	-0.232
-388.033	-115.185	-0.238	-0.045
-387.019	-22.656	-0.232	0.139
-386.004	283.485	-0.116	0.207
-384.990	-120.532	0.353	-0.059
-383.975	414.286	0.147	0.310
-382.960	800.000	-0.052	0.158
-381.946	-116.348	0.115	-0.021
-380.931	-113.179	0.149	-0.029
-379.917	-65.168	0.179	-0.072
-378.902	-104.421	-0.227	-0.052
-377.888	800.000	0.028	0.092
-376.873	-28.997	0.618	0.352
-375.858	-200.000	0.035	0.332
-374.844	438.045	-0.058	-0.126
-373.829	-75.857	-0.191	0.067
-372.815	-0.832	0.291	0.204
-371.800	664.354	-0.072	0.185
-370.785	-200.000	-0.011	-0.091
-369.771	572.610	-0.076	0.185
-368.756	-200.000	0.006	-0.069
-367.742	-100.516	0.109	-0.027
-366.727	-200.000	-0.119	-0.000
-365.712	800.000	-0.138	-0.400
-364.698	-90.723	-0.006	-0.002
-363.683	125.432	0.310	-0.388
-362.669	186.919	0.167	-0.246
-361.654	-1.728	-0.170	0.119
-360.639	471.077	0.160	0.356
-359.625	-116.858	0.356	0.065
-358.610	-200.000	0.020	0.228
-357.596	-112.823	-0.222	0.044
-356.581	-11.185	-0.183	0.119
-355.566	-103.118	-0.162	0.038
-354.552	53.986	-0.148	-0.141
-353.537	116.747	0.144	0.175
-352.523	125.976	-0.190	-0.238
-351.508	-200.000	-0.011	-0.137
-350.493	-28.521	0.359	0.205
-349.479	263.934	-0.086	0.149
-348.464	255.032	0.104	-0.177
-347.450	800.000	0.138	0.410
-346.435	-51.142	-0.311	0.144
-345.420	-57.443	0.147	0.064
-344.406	-126.389	-0.233	-0.034
-343.391	699.838	-0.049	-0.128
-342.377	-163.333	-0.252	-0.012
-341.362	800.000	-0.085	0.236
-340.348	406.237	-0.081	-0.169
-339.333	-67.838	-0.251	-0.097
-338.318	417.866	0.092	0.195
-337.304	-39.433	-0.091	0.047
-336.289	216.235	0.138	-0.218
-335.275	224.298	0.202	-0.323
-334.260	-200.000	-0.001	-0.026
-333.245	-44.500	-0.244	0.120
-332.231	-105.386	-0.239	0.054
-331.216	-144.487	0.158	-0.014
-330.202	25.612	-0.133	0.110
-329.187	494.834	0.131	-0.298
-328.172	208.643	-0.233	-0.361
-327.158	-10.436	0.180	-0.118
-326.143	-200.000	0.002	0.110
-325.129	-48.401	0.226	0.107
-324.114	-200.000	0.080	0.387
-323.099	119.108	-0.218	0.266
-322.085	13.174	-0.142	0.109
-321.070	800.000	0.049	0.213
-320.056	739.230	-0.069	-0.182
-319.041	590.075	0.090	0.220
-318.026	89.298	0.308	-0.339
-317.012	-157.096	0.226	0.014
-315.997	-200.000	-0.009	-0.334
-314.983	73.536	-0.213	-0.221
-313.968	-116.274	-0.146	0.027
-312.953	674.049	-0.101	0.260
-311.939	23.552	0.172	0.140
-310.924	202.404	0.104	0.158
-309.910	29.418	0.127	0.107
-308.895	-200.000	0.021	0.253
-307.880	37.040	0.153	-0.134
-306.866	244.373	0.057	0.094
-305.851	-200.000	0.032	-0.230
-304.837	708.424	-0.024	-0.062
-303.822	-91.759	0.128	-0.036
-302.807	-39.599	-0.167	0.087
-301.793	438.431	-0.061	-0.132
-300.778	-74.653	0.319	-0.113
-299.764	-64.047	0.111	-0.045
-298.749	-200.000	0.001	-0.057
-297.735	800.000	0.095	0.355
-296.720	614.980	0.100	0.249
-295.705	-200.000	0.052	0.258
-294.691	185.456	-0.081	0.119
-293.676	800.000	0.112	0.352
-292.662	-200.000	0.036	-0.292
-291.647	63.470	-0.272	0.269
-290.632	174.366	0.133	-0.190
-289.618	117.102	0.109	0.133
-288.603	539.104	0.111	0.260
-287.589	-168.853	0.235	0.009
-286.574	100.641	0.206	0.236
-285.559	167.510	-0.190	-0.266
-284.545	-110.154	-0.230	-0.047
-283.530	-96.795	-0.124	-0.032
-282.516	371.954	-0.078	-0.156
-281.501	22.387	-0.169	-0.137
-280.486	-57.086	0.301	0.131
-279.472	117.092	-0.202	0.245
-278.457	343.379	0.108	0.210
-277.443	-200.000	0.080	0.369
-276.428	-91.991	-0.331	-0.093
-275.413	97.139	-0.128	0.145
-274.399	224.972	0.087	-0.139
-273.384	65.982	0.282	-0.282
-272.370	-141.684	0.236	0.023
-271.355	-129.607	0.241	0.033
-270.340	-200.000	-0.014	-0.126
-269.326	-102.597	-0.177	-0.042
-268.311	336.637	0.043	-0.082
-267.297	24.389	0.110	-0.089
-266.282	-64.523	-0.133	0.053
-265.267	-200.000	0.024	-0.217
-264.253	-80.193	0.359	-0.119
-263.238	490.325	0.083	0.188
-262.224	169.831	0.142	-0.201
-261.209	-159.991	0.082	0.004
-260.195	-12.549	0.192	-0.124
-259.180	199.860	0.120	-0.182
-258.165	-200.000	-0.110	0.495
-257.151	-9.846	-0.360	0.236
-256.136	-106.158	-0.192	0.043
-255.122	129.389	-0.267	-0.336
-254.107	-200.000	-0.028	0.185
-253.092	-93.850	0.221	0.060
-252.078	-147.491	-0.129	-0.011
-251.063	301.373	-0.076	0.138
-250.049	-10.999	0.126	0.082
-249.034	-32.313	-0.268	0.148
-248.019	-77.456	0.229	-0.078
-247.005	800.000	0.123	0.379
-245.990	46.973	-0.069	-0.063
-244.976	-30.134	0.189	0.106
-243.961	-176.615	0.284	0.007
-242.946	-200.000	-0.002	-0.261
-241.932	-180.986	-0.430	0.009
-240.917	49.527	0.088	0.082
-239.903	800.000	0.169	-0.473
-238.888	251.257	0.190	0.318
-237.873	83.125	-0.154	0.165
-236.859	88.033	-0.132	-0.145
-235.844	30.543	0.053	-0.045
-234.830	-35.005	-0.105	-0.057
-233.815	-46.957	0.286	0.138
-232.800	-200.000	0.052	0.294
-231.786	-200.000	0.034	-0.394
-230.771	149.983	-0.120	-0.160
-229.757	322.514	0.102	-0.192
-228.742	-55.428	0.241	0.107
-227.727	-172.958	0.266	-0.008
-226.713	-68.028	0.218	-0.084
-225.698	52.043	0.157	-0.148
-224.684	-200.000	0.018	-0.284
-223.669	349.577	0.082	0.160
-222.655	-171.166	-0.363	-0.012
-221.640	800.000	-0.138	-0.423
-220.625	-105.363	-0.112	0.025
-219.611	167.615	-0.061	0.085
-218.596	-67.182	0.248	0.096
-217.582	-200.000	0.053	0.353
-216.567	-78.677	0.288	-0.097
-215.552	786.500	-0.059	-0.158
-214.538	-121.559	0.308	-0.050
-213.523	800.000	-0.019	0.080
-212.509	-101.250	-0.136	0.033
-211.494	203.900	-0.163	0.249
-210.479	-72.894	0.146	0.053
-209.465	138.006	-0.138	0.178
-208.450	-44.743	0.237	0.116
-207.436	800.000	-0.006	0.017
-206.421	269.343	0.115	-0.199
-205.406	78.903	-0.288	-0.303
-204.392	800.000	-0.167	0.476
-203.377	-200.000	-0.072	0.460
-202.363	-31.196	-0.139	-0.077
-201.348	45.110	-0.144	0.131
-200.333	-200.000	0.049	0.315
-199.319	-98.378	-0.101	0.025
-198.304	-200.000	0.012	-0.129
-197.290	-200.000	-0.025	0.159
-196.275	-87.268	0.263	0.079
-195.260	-103.009	-0.278	-0.065
-194.246	-200.000	-0.052	-0.333
-193.231	-200.000	-0.008	0.116
-192.217	307.708	0.088	-0.161
-191.202	362.590	0.031	0.061
-190.187	423.585	0.170	0.359
-189.173	800.000	0.088	-0.335
-188.158	7.138	0.325	-0.239
-187.144	388.893	-0.058	0.117
-186.129	573.946	0.150	0.359
-185.114	333.756	-0.158	0.300
-184.100	-32.091	-0.087	0.048
-183.085	71.896	-0.178	0.182
-182.071	-102.212	-0.103	0.024
-181.056	-48.578	0.180	0.085
-180.042	-94.448	0.262	-0.070
-179.027	237.860	0.061	-0.100
-178.012	190.682	0.083	-0.123
-176.998	-200.000	0.004	-0.108
-175.983	-200.000	-0.006	0.102
-174.969	-185.844	0.035	0.001
-173.954	-200.000	-0.020	-0.304
-172.939	-94.700	0.242	0.065
-171.925	201.013	0.151	-0.229
-170.910	800.000	0.116	-0.407
-169.896	-62.544	0.238	0.097
-168.881	-200.000	-0.023	0.198
-167.866	-200.000	-0.037	0.176
-166.852	-38.649	0.165	0.086
-165.837	-77.922	-0.442	0.150
-164.823	-105.817	0.186	0.041
-163.808	154.941	-0.056	0.076
-162.793	64.399	-0.213	-0.211
-161.779	800.000	0.048	-0.154
-160.764	-62.466	0.134	-0.055
-159.750	-200.000	0.021	-0.170
-158.735	800.000	-0.035	-0.116
-157.720	202.378	0.120	0.182
-156.706	129.789	-0.228	0.286
-155.691	-162.113	0.312	0.015
-154.677	-200.000	-0.044	-0.194
-153.662	-26.919	-0.347	-0.199
-152.647	800.000	0.038	-0.130
-151.633	-84.330	-0.194	0.060
-150.618	-42.184	-0.394	0.198
-149.604	-200.000	-0.001	0.074
-148.589	-114.008	-0.134	-0.025
-147.574	237.115	0.112	-0.182
-146.560	-9.336	-0.285	0.187
-145.545	-9.945	-0.323	0.211
-144.531	800.000	0.111	0.394
-143.516	491.159	0.219	0.493
-142.502	130.109	0.036	0.045
-141.487	-200.000	-0.014	-0.312
-140.472	438.160	0.066	-0.141
-139.458	-34.137	-0.139	-0.075
-138.443	15.300	0.285	-0.220
-137.429	800.000	-0.051	-0.178
-136.414	9.413	0.043	-0.032
-135.399	800.000	-0.042	-0.158
-134.385	357.202	0.022	0.043
-133.370	-4.203	0.370	0.251
-132.356	-200.000	0.275	0.000
-131.341	-131.750	-0.183	-0.024
-130.326	-200.000	-0.012	0.366
-129.312	473.293	-0.093	0.206
-128.297	-38.117	-0.237	0.123
-127.283	-200.000	0.017	0.194
-126.268	-190.579	0.077	0.001
-125.253	257.635	-0.052	-0.087
-124.239	-193.484	-0.358	0.003
-123.224	-19.011	0.255	-0.156
-122.210	32.130	0.241	0.203
-121.195	118.403	-0.027	-0.032
