DTS Sentinel unit serial number:	SN413079Multiplexer serial number:	ORYXHardware model number:	OX4-SRSoftware version number:	ORYX F/W v4.00 Oryx Data Collector v3.7.2.0data status	okinstallation	princeton_trtdifferential loss correction	single-endedforward channel	channel 1reverse channel	N/Adate	2019/09/18time	16:54:35forward acquisition time	60.00reverse acquisition time	0.00gamma	496.2192k internal	0.2292k external	0.2292temperature offset calibration	1.0001default loss term (dB/km)	0.3790temperature slope calibration	1.0000multiplexer offset coefficient	1.0000multiplexer slope coefficient	1.0000fibre end	0.00T internal ref (°C)	40.00T ext. ref 1 (°C)	0.86T ext. ref 2 (°C)	34.69length (m)	temperature (°C)	Stokes	anti-Stokes-747.200	-61.660	0.145	-0.062
-746.185	391.846	-0.098	0.209
-745.171	178.898	0.166	-0.249
-744.156	162.986	-0.271	0.390
-743.142	631.040	0.122	-0.316
-742.127	147.539	-0.091	-0.126
-741.112	800.000	-0.082	0.318
-740.098	800.000	0.084	0.314
-739.083	800.000	-0.023	-0.067
-738.069	483.785	0.025	0.058
-737.054	-138.737	-0.252	-0.028
-736.039	-66.564	-0.304	0.124
-735.025	-69.801	-0.241	-0.094
-734.010	-51.407	-0.335	-0.160
-732.996	5.213	-0.336	-0.254
-731.981	-35.631	-0.213	0.118
-730.966	-90.052	0.215	-0.064
-729.952	-200.000	0.059	-0.506
-728.937	-200.000	0.002	0.178
-727.923	-80.784	0.273	0.093
-726.908	-44.866	-0.097	0.050
-725.894	-13.238	0.139	-0.092
-724.879	-102.310	-0.380	-0.093
-723.864	405.841	-0.087	0.188
-722.850	166.694	0.160	0.232
-721.835	-78.271	0.232	0.081
-720.821	-61.539	0.302	0.130
-719.806	800.000	0.023	0.087
-718.791	-41.587	-0.075	0.039
-717.777	26.063	0.299	-0.255
-716.762	-200.000	-0.044	-0.471
-715.748	350.771	0.094	-0.189
-714.733	800.000	0.088	0.324
-713.718	-45.179	0.144	0.073
-712.704	800.000	0.112	0.350
-711.689	80.152	0.174	0.191
-710.675	64.002	-0.126	-0.130
-709.660	-65.332	0.042	-0.017
-708.645	125.039	0.259	-0.333
-707.631	800.000	-0.018	0.076
-706.616	565.480	-0.041	-0.101
-705.602	-123.865	0.088	0.014
-704.587	142.483	-0.044	-0.059
-703.572	800.000	-0.045	-0.179
-702.558	14.307	0.325	-0.259
-701.543	48.906	-0.035	-0.034
-700.529	0.728	0.041	0.030
-699.514	62.182	0.127	0.130
-698.499	410.244	-0.042	0.091
-697.485	-200.000	-0.191	0.001
-696.470	-38.691	0.384	-0.207
-695.456	-108.036	0.366	0.081
-694.441	314.286	0.069	-0.133
-693.426	-200.000	0.012	-0.234
-692.412	-200.000	0.008	0.199
-691.397	-28.356	0.194	0.114
-690.383	72.019	-0.250	-0.265
-689.368	553.646	-0.049	-0.120
-688.354	225.488	-0.087	-0.144
-687.339	800.000	0.080	-0.346
-686.324	62.364	-0.356	0.363
-685.310	-200.000	0.014	0.109
-684.295	39.138	-0.049	0.045
-683.281	-130.611	-0.215	0.030
-682.266	-21.733	-0.149	0.093
-681.251	-200.000	0.005	-0.256
-680.237	741.733	0.092	-0.252
-679.222	-103.751	-0.385	0.092
-678.208	-200.000	-0.006	-0.082
-677.193	800.000	0.045	0.191
-676.178	49.159	0.202	-0.194
-675.164	111.122	0.194	-0.238
-674.149	82.639	-0.048	0.053
-673.135	800.000	-0.056	0.248
-672.120	800.000	-0.135	-0.411
-671.105	64.967	-0.152	0.156
-670.091	800.000	-0.157	-0.481
-669.076	51.406	-0.279	0.271
-668.062	-200.000	0.055	0.411
-667.047	-87.955	0.237	0.073
-666.032	160.911	-0.192	0.274
-665.018	388.608	-0.137	0.290
-664.003	-19.725	0.147	-0.093
-662.989	-200.000	-0.010	-0.082
-661.974	-154.878	0.411	-0.028
-660.959	-52.307	-0.121	0.057
-659.945	-27.198	-0.129	0.077
-658.930	-50.099	0.387	-0.187
-657.916	-76.862	0.316	0.113
-656.901	606.433	-0.099	0.252
-655.886	381.117	0.101	0.212
-654.872	-200.000	-0.017	-0.146
-653.857	-76.525	-0.378	0.136
-652.843	-200.000	0.030	-0.196
-651.828	-146.995	-0.453	0.040
-650.814	-124.262	0.095	-0.015
-649.799	-82.946	0.118	0.039
-648.784	-200.000	-0.024	0.182
-647.770	800.000	-0.111	0.447
-646.755	125.233	-0.181	0.232
-645.741	-2.976	0.187	0.133
-644.726	-55.391	-0.356	0.163
-643.711	532.848	0.137	0.331
-642.697	-200.000	-0.026	0.345
-641.682	61.706	-0.151	0.153
-640.668	800.000	-0.077	-0.276
-639.653	109.664	0.174	-0.212
-638.638	264.051	0.159	-0.281
-637.624	366.673	0.116	-0.239
-636.609	103.800	-0.132	0.158
-635.595	-68.968	0.320	0.126
-634.580	-157.816	-0.133	0.008
-633.565	800.000	0.072	-0.209
-632.551	-154.371	-0.102	0.007
-631.536	-200.000	0.014	-0.195
-630.522	800.000	0.042	0.125
-629.507	-117.774	0.072	-0.013
-628.492	800.000	-0.090	0.284
-627.478	800.000	0.055	-0.170
-626.463	-200.000	-0.072	-0.498
-625.449	-119.286	0.231	0.041
-624.434	-67.888	0.391	-0.156
-623.419	34.321	0.195	-0.174
-622.405	84.435	0.266	-0.296
-621.390	-200.000	-0.007	-0.032
-620.376	-197.671	0.238	-0.001
-619.361	-99.989	-0.092	0.023
-618.346	-70.839	0.059	0.023
-617.332	-84.702	0.033	0.011
-616.317	-90.891	0.051	-0.015
-615.303	-45.001	-0.296	0.150
-614.288	247.802	0.092	-0.159
-613.273	800.000	0.052	0.148
-612.259	168.359	0.190	0.275
-611.244	198.204	0.113	-0.176
-610.230	-104.600	0.355	0.083
-609.215	-149.394	-0.149	-0.012
-608.201	-89.325	-0.175	-0.052
-607.186	-200.000	0.022	0.430
-606.171	-130.488	-0.191	-0.026
-605.157	-142.706	-0.038	-0.004
-604.142	-200.000	-0.050	0.263
-603.128	-135.102	-0.180	0.022
-602.113	-51.386	0.054	0.026
-601.098	-18.008	-0.412	0.263
-600.084	6.940	-0.177	-0.134
-599.069	115.782	-0.056	-0.069
-598.055	63.700	-0.190	-0.194
-597.040	34.140	-0.223	-0.197
-596.025	-176.659	-0.325	0.008
-595.011	800.000	-0.101	0.340
-593.996	800.000	-0.071	0.286
-592.982	-29.392	-0.125	0.073
-591.967	395.332	0.165	-0.351
-590.952	-41.405	-0.056	-0.029
-589.938	99.486	-0.165	-0.194
-588.923	-200.000	-0.027	0.187
-587.909	-45.359	-0.289	-0.146
-586.894	-200.000	-0.030	0.192
-585.879	-55.205	-0.191	0.087
-584.865	-98.474	-0.159	-0.041
-583.850	177.045	-0.060	-0.089
-582.836	-200.000	0.001	-0.272
-581.821	-200.000	0.046	0.304
-580.806	-200.000	-0.004	0.040
-579.792	127.062	0.087	0.112
-578.777	-87.866	-0.442	0.135
-577.763	476.843	0.122	-0.281
-576.748	-70.724	0.177	-0.068
-575.733	-200.000	0.044	0.201
-574.719	-104.397	-0.067	-0.016
-573.704	-151.705	-0.262	-0.020
-572.690	-200.000	0.003	0.056
-571.675	-200.000	0.043	0.204
-570.661	162.118	0.120	-0.171
-569.646	37.746	-0.091	0.082
-568.631	-25.417	-0.236	0.142
-567.617	-35.403	-0.059	0.032
-566.602	339.868	-0.082	-0.163
-565.588	800.000	-0.110	0.346
-564.573	-47.659	-0.108	-0.053
-563.558	10.103	-0.184	0.142
-562.544	76.490	-0.237	0.255
-561.529	97.452	-0.118	0.137
-560.515	-69.325	-0.044	0.017
-559.500	-107.287	-0.122	-0.027
-558.485	166.042	-0.149	-0.214
-557.471	91.992	0.193	0.220
-556.456	800.000	0.100	0.329
-555.442	800.000	0.063	-0.201
-554.427	182.038	-0.111	0.166
-553.412	800.000	-0.010	-0.036
-552.398	800.000	-0.084	-0.335
-551.383	105.617	-0.161	-0.194
-550.369	-82.708	0.256	-0.084
-549.354	800.000	-0.102	-0.338
-548.339	800.000	-0.064	-0.283
-547.325	57.253	-0.061	0.060
-546.310	-189.623	0.105	-0.001
-545.296	-112.582	0.291	0.059
-544.281	146.209	0.090	-0.123
-543.266	1.674	0.183	0.134
-542.252	102.215	-0.265	0.314
-541.237	-82.022	0.199	-0.066
-540.223	-200.000	0.001	-0.011
-539.208	529.813	-0.126	0.301
-538.193	28.219	-0.321	0.275
-537.179	-16.601	0.067	-0.043
-536.164	-124.841	-0.201	-0.032
-535.150	232.883	-0.101	-0.168
-534.135	-74.667	0.038	-0.014
-533.121	202.122	-0.159	-0.249
-532.106	154.721	-0.085	0.118
-531.091	800.000	0.118	-0.344
-530.077	106.290	-0.167	0.201
-529.062	76.619	-0.281	0.302
-528.048	-56.101	-0.177	-0.080
-527.033	-200.000	-0.010	-0.299
-526.018	9.946	-0.091	-0.070
-525.004	-70.625	-0.184	-0.071
-523.989	103.621	-0.205	0.244
-522.975	166.427	0.211	-0.304
-521.960	87.256	-0.176	-0.198
-520.945	191.679	-0.044	-0.068
-519.931	800.000	0.104	0.311
-518.916	151.724	-0.167	-0.231
-517.902	-91.302	0.306	-0.089
-516.887	-100.507	0.322	-0.081
-515.872	-200.000	0.053	0.434
-514.858	-126.002	-0.047	-0.007
-513.843	605.356	-0.142	-0.359
-512.829	303.922	0.187	-0.352
-511.814	-124.385	0.233	-0.037
-510.799	86.898	0.022	-0.024
-509.785	-200.000	0.039	0.377
-508.770	84.910	-0.166	-0.184
-507.756	387.060	0.121	-0.254
-506.741	-200.000	0.019	0.116
-505.726	-103.268	-0.188	0.045
-504.712	-130.787	0.156	-0.021
-503.697	800.000	-0.006	-0.025
-502.683	127.589	-0.025	0.033
-501.668	2.301	0.059	-0.043
-500.653	-178.582	0.082	-0.002
-499.639	800.000	-0.114	-0.330
-498.624	50.207	-0.121	-0.116
-497.610	-200.000	0.004	0.198
-496.595	139.337	0.033	-0.044
-495.581	222.848	-0.106	0.173
-494.566	-142.743	0.162	-0.016
-493.551	603.669	-0.115	0.290
-492.537	-200.000	-0.010	0.298
-491.522	-200.000	-0.005	0.084
-490.508	800.000	0.053	0.181
-489.493	-200.000	-0.053	-0.268
-488.478	-200.000	0.010	-0.050
-487.464	450.899	0.141	-0.317
-486.449	-200.000	-0.022	-0.109
-485.435	-31.732	0.230	-0.131
-484.420	437.136	0.140	-0.308
-483.405	-67.704	0.330	0.131
-482.391	-6.248	0.185	0.128
-481.376	-200.000	0.036	0.179
-480.362	-42.147	-0.047	-0.024
-479.347	167.369	-0.073	0.105
-478.332	18.392	-0.130	-0.106
-477.318	677.819	0.073	-0.193
-476.303	371.953	0.087	0.179
-475.289	247.841	0.104	-0.177
-474.274	-54.515	0.222	-0.102
-473.259	-137.863	0.076	-0.009
-472.245	-200.000	-0.011	-0.053
-471.230	800.000	-0.028	-0.121
-470.216	-101.915	-0.339	-0.083
-469.201	800.000	-0.051	0.211
-468.186	291.839	0.089	0.164
-467.172	67.094	0.138	-0.143
-466.157	84.121	-0.238	-0.263
-465.143	9.480	0.192	-0.147
-464.128	-127.357	0.221	0.033
-463.113	-200.000	-0.275	-0.001
-462.099	-80.873	0.130	0.044
-461.084	-34.828	0.436	0.241
-460.070	11.179	-0.260	0.201
-459.055	88.005	0.038	0.042
-458.040	-21.265	-0.198	-0.122
-457.026	-94.454	-0.247	-0.068
-456.011	236.338	0.075	-0.126
-454.997	30.802	-0.022	-0.019
-453.982	23.122	-0.208	0.172
-452.968	-200.000	0.012	0.110
-451.953	-90.532	0.059	-0.017
-450.938	181.092	-0.064	0.095
-449.924	-200.000	0.046	0.218
-448.909	307.032	-0.077	0.144
-447.895	-124.475	-0.276	0.044
-446.880	153.031	0.144	0.200
-445.865	129.708	-0.239	0.309
-444.851	800.000	0.061	-0.232
-443.836	800.000	-0.069	-0.255
-442.822	20.857	0.209	-0.171
-441.807	72.396	-0.212	-0.223
-440.792	-95.729	-0.245	0.066
-439.778	7.335	-0.095	0.072
-438.763	508.971	0.047	0.109
-437.749	800.000	0.037	-0.123
-436.734	800.000	0.093	-0.262
-435.719	199.794	0.044	-0.068
-434.705	199.276	-0.104	0.161
-433.690	132.033	-0.126	0.164
-432.676	-166.481	-0.096	-0.004
-431.661	-200.000	0.056	0.304
-430.646	-168.166	-0.258	-0.010
-429.632	-200.000	-0.005	-0.112
-428.617	-200.000	0.029	-0.282
-427.603	613.792	-0.073	0.184
-426.588	-200.000	0.029	0.433
-425.573	800.000	-0.083	-0.325
-424.559	767.630	0.049	-0.136
-423.544	-43.410	-0.099	0.050
-422.530	21.128	0.061	-0.050
-421.515	-177.080	-0.346	-0.009
-420.500	-200.000	-0.038	-0.352
-419.486	43.721	0.137	0.127
-418.471	20.748	-0.020	0.017
-417.457	-200.000	0.023	0.269
-416.442	800.000	-0.031	-0.110
-415.428	-97.116	0.438	0.116
-414.413	154.940	-0.110	-0.153
-413.398	25.132	0.190	0.160
-412.384	-109.189	-0.316	0.068
-411.369	800.000	0.025	-0.079
-410.355	45.514	0.163	0.152
-409.340	800.000	0.022	-0.086
-408.325	-200.000	-0.012	0.154
-407.311	-200.000	-0.011	-0.108
-406.296	-108.030	-0.119	0.026
-405.282	633.439	-0.059	0.151
-404.267	780.561	0.032	-0.087
-403.252	268.747	-0.181	-0.320
-402.238	244.678	0.079	-0.135
-401.223	40.829	-0.372	0.339
-400.209	800.000	0.031	-0.132
-399.194	140.042	-0.067	-0.090
-398.179	-62.409	0.136	0.057
-397.165	137.357	-0.198	0.262
-396.150	151.945	-0.119	0.165
-395.136	263.350	0.126	0.221
-394.121	800.000	0.060	0.188
-393.106	-68.655	0.212	0.083
-392.092	-200.000	-0.013	0.061
-391.077	-138.165	-0.170	-0.019
-390.063	800.000	0.062	-0.205
-389.048	-168.182	0.319	-0.012
-388.033	-200.000	0.007	-0.137
-387.019	-15.989	0.275	0.177
-386.004	-200.000	0.003	-0.164
-384.990	-102.367	-0.119	-0.029
-383.975	13.226	0.068	0.053
-382.960	175.084	-0.118	-0.172
-381.946	800.000	0.151	0.482
-380.931	-44.974	0.197	0.099
-379.917	533.002	-0.156	0.372
-378.902	-33.128	0.280	-0.156
-377.888	-200.000	0.006	-0.443
-376.873	297.022	0.152	0.281
-375.858	-120.645	0.324	0.055
-374.844	39.678	-0.201	-0.182
-373.829	-200.000	0.018	-0.088
-372.815	-200.000	0.058	-0.348
-371.800	800.000	0.083	0.303
-370.785	36.631	-0.277	0.247
-369.771	42.421	0.078	-0.071
-368.756	635.771	0.092	-0.236
-367.742	-200.000	-0.021	-0.213
-366.727	676.062	0.082	-0.215
-365.712	7.419	-0.135	-0.101
-364.698	-184.560	-0.319	0.005
-363.683	800.000	0.044	0.160
-362.669	-186.833	0.127	0.002
-361.654	602.020	0.034	0.085
-360.639	-191.255	0.259	0.003
-359.625	137.774	-0.407	-0.538
-358.610	-132.878	0.285	0.037
-357.596	800.000	-0.007	0.027
-356.581	-200.000	0.023	-0.199
-355.566	-69.362	0.370	-0.143
-354.552	97.698	-0.277	0.321
-353.537	800.000	-0.074	0.211
-352.523	58.226	0.216	0.214
-351.508	-18.318	-0.195	-0.123
-350.493	-2.400	0.224	0.158
-349.479	23.149	-0.285	-0.236
-348.464	-13.910	0.125	0.081
-347.450	-125.112	-0.309	0.048
-346.435	12.654	0.241	0.188
-345.420	410.085	0.035	-0.075
-344.406	-19.231	-0.171	0.107
-343.391	337.545	-0.070	0.137
-342.377	800.000	0.032	-0.102
-341.362	-20.739	-0.090	0.055
-340.348	295.898	-0.066	-0.121
-339.333	428.553	-0.057	0.124
-338.318	22.504	0.289	-0.238
-337.304	49.690	-0.056	-0.053
-336.289	20.558	0.052	-0.043
-335.275	-163.283	-0.263	-0.013
-334.260	-200.000	-0.007	0.059
-333.245	-60.590	-0.048	-0.021
-332.231	-34.683	-0.117	-0.065
-331.216	0.537	-0.180	-0.130
-330.202	155.824	0.268	-0.372
-329.187	148.266	0.158	0.215
-328.172	800.000	0.069	-0.232
-327.158	-49.235	0.188	-0.091
-326.143	-162.215	0.124	0.006
-325.129	-90.543	-0.127	-0.037
-324.114	-89.859	-0.203	-0.060
-323.099	711.982	-0.061	0.163
-322.085	-200.000	-0.017	0.447
-321.070	800.000	0.084	0.369
-320.056	285.695	0.059	0.108
-319.041	-200.000	-0.034	0.282
-318.026	-81.906	0.166	0.055
-317.012	797.100	0.053	-0.146
-315.997	800.000	-0.047	-0.151
-314.983	496.767	0.127	-0.294
-313.968	-40.125	0.090	-0.047
-312.953	651.304	0.086	-0.223
-311.939	253.946	0.199	0.342
-310.924	-75.291	0.175	-0.063
-309.910	-189.780	-0.453	-0.005
-308.895	-69.094	0.275	-0.106
-307.880	-155.365	-0.180	0.012
-306.866	-200.000	-0.011	0.083
-305.851	6.558	0.146	0.109
-304.837	-74.516	-0.152	0.055
-303.822	-74.453	-0.154	0.056
-302.807	93.533	0.237	0.270
-301.793	800.000	0.063	0.253
-300.778	-200.000	0.067	0.298
-299.764	-80.071	-0.203	0.068
-298.749	800.000	-0.050	0.196
-297.735	800.000	-0.031	0.090
-296.720	-161.675	0.374	-0.019
-295.705	-107.123	0.197	-0.044
-294.691	429.254	-0.095	-0.206
-293.676	-146.254	0.268	0.024
-292.662	-166.023	0.214	0.009
-291.647	-56.617	-0.341	-0.152
-290.632	-122.748	0.305	-0.050
-289.618	-44.340	-0.127	-0.064
-288.603	57.322	-0.135	0.133
-287.589	-39.041	-0.234	0.124
-286.574	-25.940	-0.212	0.126
-285.559	81.372	0.136	0.148
-284.545	362.717	-0.022	0.044
-283.530	-103.574	0.477	-0.113
-282.516	4.870	-0.022	-0.016
-281.501	-21.609	-0.262	-0.161
-280.486	-90.956	-0.132	-0.038
-279.472	121.562	-0.169	-0.211
-278.457	36.440	-0.151	-0.134
-277.443	134.862	0.094	-0.123
-276.428	53.257	0.169	-0.163
-275.413	-200.000	-0.001	0.006
-274.399	-63.976	-0.185	-0.076
-273.384	-191.293	0.174	0.002
-272.370	-22.788	0.146	0.089
-271.355	318.140	0.076	0.144
-270.340	-26.061	-0.229	0.136
-269.326	-135.331	-0.169	0.020
-268.311	279.858	-0.022	-0.040
-267.297	-156.107	0.302	0.019
-266.282	120.233	0.247	0.308
-265.267	-200.000	0.001	-0.041
-264.253	-88.150	-0.142	0.043
-263.238	-8.184	0.172	-0.116
-262.224	-200.000	-0.009	-0.221
-261.209	800.000	0.013	0.051
-260.195	174.851	0.186	-0.271
-259.180	-105.375	0.081	-0.018
-258.165	308.400	0.151	0.283
-257.151	-103.088	0.423	-0.101
-256.136	-153.643	0.443	-0.031
-255.122	386.976	-0.083	-0.172
-254.107	-8.763	-0.253	-0.170
-253.092	-200.000	0.040	0.285
-252.078	-167.029	0.224	0.009
-251.063	264.379	0.178	-0.312
-250.049	-41.297	-0.451	-0.233
-249.034	133.130	-0.029	-0.038
-248.019	-80.225	0.124	0.042
-247.005	800.000	-0.094	0.363
-245.990	-200.000	-0.009	0.125
-244.976	-200.000	-0.013	0.204
-243.961	-36.974	-0.119	-0.064
-242.946	-200.000	-0.018	0.150
-241.932	800.000	0.056	-0.176
-240.917	-91.893	0.052	0.015
-239.903	0.632	0.062	-0.044
-238.888	-73.440	-0.105	-0.038
-237.873	-114.854	0.082	0.016
-236.859	-33.057	0.157	0.087
-235.844	-76.895	0.293	-0.103
-234.830	-12.838	-0.245	0.160
-233.815	-200.000	0.010	0.186
-232.800	-200.000	0.057	-0.392
-231.786	321.931	0.227	0.433
-230.771	-98.227	0.352	-0.091
-229.757	-29.141	-0.257	-0.148
-228.742	-185.718	0.207	0.003
-227.727	-123.178	0.323	-0.052
-226.713	-200.000	-0.022	-0.110
-225.698	-200.000	0.069	-0.475
-224.684	-17.557	-0.050	0.031
-223.669	-54.186	0.255	-0.116
-222.655	-55.350	-0.129	-0.058
-221.640	-75.610	0.368	-0.131
-220.625	-200.000	0.043	-0.390
-219.611	283.372	0.140	-0.253
-218.596	45.617	-0.080	0.074
-217.582	-120.322	0.242	-0.041
-216.567	-200.000	0.016	-0.287
-215.552	392.550	-0.137	-0.286
-214.538	571.856	-0.114	0.278
-213.523	-46.357	-0.354	0.174
-212.509	-145.039	-0.073	-0.007
-211.494	800.000	0.044	0.184
-210.479	-21.757	0.113	-0.069
-209.465	613.119	-0.009	-0.023
-208.450	161.755	-0.133	-0.186
-207.436	800.000	-0.062	0.176
-206.421	673.149	-0.051	0.132
-205.406	344.188	0.116	-0.228
-204.392	-200.000	0.037	-0.175
-203.377	-50.813	-0.145	0.068
-202.363	246.206	0.200	0.338
-201.348	800.000	0.024	-0.079
-200.333	800.000	0.030	-0.117
-199.319	54.846	0.209	-0.202
-198.304	-200.000	0.010	-0.560
-197.290	-200.000	-0.032	-0.225
-196.275	547.609	0.066	-0.158
-195.260	-133.281	0.159	-0.020
-194.246	-200.000	-0.007	-0.113
-193.231	77.160	0.140	-0.149
-192.217	800.000	0.062	-0.173
-191.202	-159.639	0.306	-0.017
-190.187	-26.005	-0.220	0.130
-189.173	800.000	-0.116	-0.364
-188.158	-200.000	-0.139	0.644
-187.144	-74.809	0.152	-0.055
-186.129	800.000	0.045	-0.133
-185.114	141.116	0.074	-0.098
-184.100	628.417	-0.065	-0.166
-183.085	-200.000	-0.237	-0.001
-182.071	-200.000	0.051	0.377
-181.056	198.565	-0.127	-0.194
-180.042	71.151	0.158	-0.164
-179.027	-200.000	0.052	-0.305
-178.012	800.000	0.043	-0.128
-176.998	-163.210	0.165	-0.008
-175.983	70.096	0.074	-0.076
-174.969	71.700	-0.137	0.143
-173.954	44.273	0.097	0.090
-172.939	374.529	0.151	-0.308
-171.925	-63.922	-0.124	0.051
-170.910	16.623	-0.308	0.244
-169.896	115.301	0.103	-0.125
-168.881	-44.067	-0.194	0.097
-167.866	2.941	-0.048	0.035
-166.852	189.045	-0.222	0.333
-165.837	-123.957	-0.220	-0.035
-164.823	255.474	0.092	-0.157
-163.808	376.928	0.065	0.134
-162.793	-200.000	0.048	0.231
-161.779	38.859	-0.094	0.084
-160.764	173.609	-0.139	0.200
-159.750	-200.000	-0.001	0.153
-158.735	800.000	0.040	0.151
-157.720	37.157	0.007	-0.006
-156.706	-94.029	0.297	-0.082
-155.691	800.000	-0.063	0.182
-154.677	-79.773	-0.168	0.057
-153.662	-3.666	0.150	0.104
-152.647	134.980	-0.065	0.085
-151.633	58.351	-0.269	0.263
-150.618	-95.578	0.686	-0.184
-149.604	187.556	0.090	0.134
-148.589	-45.761	-0.206	0.102
-147.574	800.000	0.097	0.388
-146.560	741.074	-0.109	-0.293
-145.545	605.083	0.128	-0.318
-144.531	764.610	0.133	-0.362
-143.516	404.079	0.102	-0.214
-142.502	-116.236	-0.277	0.051
-141.487	-138.602	0.112	0.012
-140.472	800.000	-0.060	-0.204
-139.458	-200.000	-0.037	0.205
-138.443	-69.562	0.191	-0.073
-137.429	800.000	-0.122	-0.375
-136.414	-43.870	-0.179	-0.090
-135.399	138.502	0.136	0.178
-134.385	-150.639	0.319	0.024
-133.370	-109.923	0.162	-0.034
-132.356	18.927	-0.197	-0.158
-131.341	36.590	-0.224	-0.198
-130.326	120.724	0.213	0.265
-129.312	55.218	-0.082	-0.079
-128.297	309.094	0.028	0.053
-127.283	174.445	0.072	-0.104
-126.268	-41.489	-0.375	0.193
-125.253	244.944	-0.093	-0.156
-124.239	140.892	0.062	-0.082
-123.224	-111.161	-0.152	0.031
-122.210	800.000	-0.072	0.263
-121.195	88.836	0.085	0.094
