DTS Sentinel unit serial number:	SN413079Multiplexer serial number:	ORYXHardware model number:	OX4-SRSoftware version number:	ORYX F/W v4.00 Oryx Data Collector v3.7.2.0data status	okinstallation	princeton_trtdifferential loss correction	single-endedforward channel	channel 1reverse channel	N/Adate	2019/09/19time	10:02:35forward acquisition time	60.00reverse acquisition time	0.00gamma	496.2192k internal	0.2339k external	0.2339temperature offset calibration	1.0004default loss term (dB/km)	0.3790temperature slope calibration	1.0000multiplexer offset coefficient	1.0000multiplexer slope coefficient	1.0000fibre end	0.00T internal ref (°C)	23.78T ext. ref 1 (°C)	0.67T ext. ref 2 (°C)	19.56length (m)	temperature (°C)	Stokes	anti-Stokes-747.200	-133.672	0.157	-0.020
-746.185	-25.758	0.163	0.096
-745.171	-59.823	0.046	-0.020
-744.156	-2.928	-0.240	0.168
-743.142	153.486	-0.087	0.120
-742.127	-200.000	0.014	-0.161
-741.112	-66.645	0.109	-0.043
-740.098	800.000	0.002	-0.008
-739.083	-12.610	-0.109	-0.071
-738.069	-20.441	-0.174	-0.107
-737.054	-200.000	0.015	0.331
-736.039	-66.026	-0.363	0.145
-735.025	490.462	0.077	-0.176
-734.010	-200.000	0.015	0.120
-732.996	-3.350	0.076	-0.053
-731.981	-106.864	0.085	-0.019
-730.966	-102.182	-0.098	-0.024
-729.952	-138.027	0.250	-0.028
-728.937	70.336	0.176	-0.182
-727.923	800.000	0.020	0.080
-726.908	126.386	0.092	-0.117
-725.894	139.111	-0.034	-0.044
-724.879	136.896	0.048	0.063
-723.864	-200.000	0.099	-0.487
-722.850	-68.538	-0.201	0.078
-721.835	800.000	-0.061	0.203
-720.821	800.000	0.063	-0.183
-719.806	-173.034	-0.040	0.001
-718.791	133.441	-0.276	-0.358
-717.777	-84.718	0.277	-0.087
-716.762	-200.000	-0.029	0.194
-715.748	-127.684	-0.040	0.006
-714.733	723.154	0.057	-0.152
-713.718	-185.416	-0.123	-0.002
-712.704	-73.305	0.368	0.135
-711.689	198.205	-0.136	0.208
-710.675	-21.936	0.203	-0.124
-709.660	2.895	-0.228	0.166
-708.645	-104.938	-0.185	0.042
-707.631	-14.966	-0.333	-0.214
-706.616	775.593	-0.036	-0.098
-705.602	-65.117	0.210	-0.085
-704.587	-200.000	-0.006	0.056
-703.572	-200.000	-0.047	0.279
-702.558	-74.003	-0.168	-0.061
-701.543	-37.685	0.461	-0.246
-700.529	2.634	0.133	0.097
-699.514	-9.891	-0.252	0.168
-698.499	111.888	0.131	-0.158
-697.485	54.637	-0.144	0.139
-696.470	0.915	-0.054	0.038
-695.456	-200.000	0.006	0.031
-694.441	800.000	-0.036	-0.145
-693.426	-54.055	0.144	-0.066
-692.412	-108.373	-0.195	0.042
-691.397	194.421	0.152	-0.231
-690.383	-200.000	-0.025	0.229
-689.368	-26.077	0.120	0.071
-688.354	367.819	-0.253	-0.511
-687.339	218.878	-0.112	-0.179
-686.324	-200.000	-0.057	0.293
-685.310	800.000	-0.067	0.237
-684.295	-189.644	-0.280	-0.003
-683.281	-51.549	-0.082	0.038
-682.266	800.000	0.069	-0.222
-681.251	-200.000	0.066	-0.317
-680.237	-160.019	0.055	0.003
-679.222	-155.422	-0.566	-0.037
-678.208	-26.249	0.113	-0.066
-677.193	-50.860	-0.237	0.112
-676.178	33.915	-0.217	0.189
-675.164	-154.204	0.317	0.021
-674.149	14.736	-0.182	0.142
-673.135	800.000	0.060	0.202
-672.120	-200.000	0.004	-0.084
-671.105	-76.256	0.151	-0.053
-670.091	-150.818	-0.383	-0.029
-669.076	800.000	-0.044	-0.191
-668.062	-28.542	0.209	-0.121
-667.047	34.022	-0.131	0.114
-666.032	106.421	0.128	-0.151
-665.018	-136.605	0.418	-0.048
-664.003	-22.697	-0.126	0.076
-662.989	14.476	0.170	-0.133
-661.974	-200.000	0.039	-0.259
-660.959	-133.600	0.236	0.030
-659.945	-63.529	0.139	0.057
-658.930	291.649	-0.103	-0.187
-657.916	-200.000	-0.005	-0.113
-656.901	-166.178	0.173	0.007
-655.886	-200.000	-0.006	0.126
-654.872	-115.603	0.315	-0.059
-653.857	499.551	-0.152	-0.350
-652.843	-200.000	-0.033	-0.184
-651.828	-125.952	0.165	-0.025
-650.814	259.754	0.046	-0.079
-649.799	-170.137	0.183	-0.006
-648.784	-3.177	-0.405	-0.282
-647.770	38.019	-0.346	-0.307
-646.755	59.514	-0.120	-0.118
-645.741	-63.136	-0.153	0.063
-644.726	-8.248	0.027	-0.018
-643.711	-200.000	-0.013	-0.542
-642.697	-61.861	-0.195	0.082
-641.682	-138.696	-0.112	-0.012
-640.668	-88.367	0.252	-0.075
-639.653	-200.000	-0.012	-0.147
-638.638	444.941	-0.009	0.021
-637.624	-200.000	-0.045	-0.305
-636.609	122.031	-0.041	-0.051
-635.595	800.000	0.129	-0.377
-634.580	38.690	0.357	0.318
-633.565	-68.081	-0.410	-0.160
-632.551	800.000	-0.019	-0.067
-631.536	451.687	0.030	0.065
-630.522	-78.993	-0.282	0.096
-629.507	114.630	0.014	0.017
-628.492	-123.749	-0.114	-0.018
-627.478	-62.658	-0.263	-0.109
-626.463	-200.000	0.014	-0.151
-625.449	-200.000	0.017	-0.358
-624.434	-200.000	-0.037	-0.330
-623.419	-200.000	-0.071	-0.352
-622.405	-31.847	0.093	-0.052
-621.390	191.314	0.115	-0.173
-620.376	96.494	-0.151	-0.173
-619.361	-122.786	-0.096	-0.016
-618.346	800.000	-0.034	-0.124
-617.332	158.486	0.111	-0.154
-616.317	-62.514	0.077	-0.032
-615.303	-140.382	0.396	-0.041
-614.288	-68.063	0.058	0.023
-613.273	-200.000	-0.010	-0.227
-612.259	-132.886	0.219	-0.028
-611.244	82.032	0.125	-0.135
-610.230	-13.062	-0.221	-0.144
-609.215	161.171	-0.050	-0.069
-608.201	-174.425	-0.286	0.008
-607.186	45.400	0.112	-0.103
-606.171	-24.496	-0.083	0.049
-605.157	-200.000	-0.039	-0.362
-604.142	-25.148	-0.111	-0.066
-603.128	-5.552	-0.355	-0.243
-602.113	21.926	-0.178	0.145
-601.098	-115.922	-0.145	-0.027
-600.084	-81.373	-0.107	0.035
-599.069	562.809	0.095	0.230
-598.055	-128.518	-0.246	0.035
-597.040	-169.642	0.338	0.012
-596.025	127.225	0.237	0.300
-595.011	-200.000	-0.014	-0.085
-593.996	56.423	0.038	0.036
-592.982	-200.000	-0.006	-0.033
-591.967	-200.000	-0.014	0.101
-590.952	72.462	0.116	0.121
-589.938	-62.656	0.082	0.034
-588.923	363.953	-0.098	-0.196
-587.909	122.534	-0.133	-0.166
-586.894	-156.973	-0.109	-0.007
-585.879	-200.000	-0.035	0.209
-584.865	-52.430	0.075	-0.034
-583.850	800.000	-0.144	-0.536
-582.836	-129.820	0.199	-0.027
-581.821	30.035	0.217	0.185
-580.806	-148.906	0.113	0.009
-579.792	-58.227	0.239	0.103
-578.777	-200.000	0.021	-0.295
-577.763	800.000	0.071	-0.274
-576.748	131.368	-0.088	0.113
-575.733	334.536	-0.185	-0.357
-574.719	-134.533	0.199	0.024
-573.704	-200.000	0.016	-0.586
-572.690	-96.649	-0.176	0.046
-571.675	-54.309	0.053	-0.024
-570.661	-200.000	0.006	-0.331
-569.646	22.946	0.280	-0.228
-568.631	137.936	-0.115	-0.150
-567.617	-200.000	-0.053	-0.306
-566.602	800.000	-0.084	0.238
-565.588	-200.000	-0.042	-0.209
-564.573	459.788	-0.175	0.387
-563.558	218.997	0.267	0.425
-562.544	11.224	-0.240	-0.183
-561.529	-69.145	0.166	0.063
-560.515	104.354	-0.211	-0.247
-559.500	800.000	-0.154	-0.448
-558.485	-100.254	-0.354	-0.088
-557.471	171.392	-0.059	0.084
-556.456	-64.568	0.207	-0.084
-555.442	-105.586	0.128	0.029
-554.427	157.355	0.036	-0.049
-553.412	216.253	-0.213	0.338
-552.398	97.838	0.018	-0.020
-551.383	-23.725	-0.328	-0.196
-550.369	56.645	0.110	0.106
-549.354	-108.094	0.157	0.034
-548.339	-90.662	0.202	0.058
-547.325	662.383	0.067	0.173
-546.310	-83.065	-0.151	-0.048
-545.296	-56.471	-0.150	-0.066
-544.281	-53.633	-0.218	0.099
-543.266	224.579	-0.101	0.162
-542.252	154.152	0.092	-0.126
-541.237	-124.264	0.182	-0.028
-540.223	-140.929	0.293	-0.030
-539.208	-35.171	-0.257	0.139
-538.193	-200.000	-0.015	-0.281
-537.179	-54.948	0.417	0.187
-536.164	-54.277	-0.064	0.029
-535.150	-80.486	0.345	0.114
-534.135	8.889	0.216	0.162
-533.121	-53.529	0.161	0.073
-532.106	30.042	-0.164	-0.139
-531.091	-89.246	-0.088	0.026
-530.077	361.902	-0.116	-0.231
-529.062	73.060	0.263	-0.274
-528.048	-45.917	0.040	0.020
-527.033	166.981	0.227	-0.321
-526.018	151.833	0.151	0.205
-525.004	-200.000	0.030	-0.392
-523.989	500.851	-0.051	-0.117
-522.975	153.465	-0.082	-0.112
-521.960	-200.000	0.077	0.368
-520.945	-116.807	-0.088	0.016
-519.931	334.992	0.050	0.096
-518.916	-54.172	0.530	-0.239
-517.902	-72.833	-0.326	0.119
-516.887	-182.093	-0.172	-0.003
-515.872	-77.857	0.195	-0.067
-514.858	-44.762	-0.279	0.138
-513.843	615.092	-0.029	0.073
-512.829	-109.291	-0.234	-0.049
-511.814	800.000	0.046	-0.143
-510.799	800.000	-0.062	0.185
-509.785	800.000	-0.028	-0.083
-508.770	-116.733	-0.324	0.059
-507.756	-7.369	0.298	-0.200
-506.741	800.000	-0.108	0.300
-505.726	309.966	-0.094	-0.174
-504.712	40.095	-0.065	-0.058
-503.697	114.870	-0.171	-0.207
-502.683	-121.540	0.322	-0.053
-501.668	-200.000	-0.032	0.482
-500.653	-200.000	0.100	0.459
-499.639	18.599	0.090	0.071
-498.624	800.000	-0.084	-0.359
-497.610	175.354	0.208	0.300
-496.595	19.717	-0.236	-0.189
-495.581	-200.000	0.044	-0.196
-494.566	628.527	0.025	0.064
-493.551	298.904	-0.179	-0.328
-492.537	-87.692	0.414	-0.124
-491.522	-200.000	-0.002	0.204
-490.508	56.736	-0.219	-0.212
-489.493	86.202	-0.076	0.083
-488.478	127.453	-0.211	-0.266
-487.464	800.000	0.040	-0.115
-486.449	58.176	0.196	0.190
-485.435	332.325	-0.146	-0.280
-484.420	73.766	-0.424	-0.441
-483.405	-129.861	-0.370	0.050
-482.391	26.076	-0.294	0.243
-481.376	-41.571	0.209	0.107
-480.362	602.342	0.049	0.122
-479.347	13.900	-0.121	-0.093
-478.332	-200.000	0.008	-0.189
-477.318	-155.582	-0.306	-0.020
-476.303	-20.314	0.179	-0.109
-475.289	-200.000	-0.027	0.352
-474.274	15.968	-0.255	0.199
-473.259	-200.000	-0.023	-0.105
-472.245	251.662	0.169	-0.286
-471.230	-80.689	0.114	0.038
-470.216	-200.000	-0.031	-0.145
-469.201	401.906	-0.085	0.178
-468.186	483.883	-0.067	0.150
-467.172	-200.000	0.046	-0.420
-466.157	246.973	0.201	0.336
-465.143	137.405	0.187	0.243
-464.128	-187.941	0.159	-0.002
-463.113	-200.000	-0.027	0.160
-462.099	-200.000	0.130	-0.000
-461.084	-200.000	0.024	-0.224
-460.070	-128.335	-0.138	-0.020
-459.055	-145.126	0.142	0.013
-458.040	-10.214	-0.125	0.082
-457.026	-200.000	-0.018	0.111
-456.011	196.434	-0.106	-0.160
-454.997	181.505	0.279	0.406
-453.982	800.000	-0.059	-0.229
-452.968	-35.091	-0.431	-0.233
-451.953	222.415	0.075	0.119
-450.938	32.260	0.182	0.156
-449.924	-200.000	-0.019	-0.085
-448.909	-129.730	-0.068	-0.009
-447.895	-116.330	-0.229	-0.042
-446.880	-200.000	0.063	-0.481
-445.865	83.760	0.054	-0.059
-444.851	149.163	-0.230	-0.309
-443.836	737.219	-0.062	-0.164
-442.822	-157.932	-0.082	0.005
-441.807	756.006	-0.068	0.183
-440.792	800.000	0.100	-0.319
-439.778	274.850	-0.245	0.431
-438.763	-62.912	-0.197	0.081
-437.749	598.591	-0.072	-0.176
-436.734	800.000	-0.074	0.208
-435.719	-200.000	0.061	0.542
-434.705	509.305	-0.045	-0.103
-433.690	217.742	-0.138	0.219
-432.676	800.000	0.061	-0.190
-431.661	75.818	0.186	0.195
-430.646	-93.503	0.362	0.099
-429.632	-53.685	0.230	-0.104
-428.617	-89.393	-0.211	-0.062
-427.603	-200.000	0.018	0.124
-426.588	122.748	0.061	0.075
-425.573	120.644	0.126	0.155
-424.559	68.023	0.024	-0.024
-423.544	-52.118	-0.106	0.049
-422.530	13.193	-0.152	-0.117
-421.515	-200.000	0.062	0.407
-420.500	-139.982	-0.401	0.042
-419.486	-164.058	0.243	0.011
-418.471	56.227	0.125	0.120
-417.457	-55.066	0.172	0.077
-416.442	67.709	-0.302	0.306
-415.428	131.615	0.215	-0.274
-414.413	-88.398	-0.480	-0.142
-413.398	-7.770	0.106	-0.071
-412.384	-100.741	-0.124	0.030
-411.369	-15.835	-0.236	-0.149
-410.355	111.780	-0.194	0.232
-409.340	-200.000	-0.049	-0.244
-408.325	-36.551	0.160	-0.085
-407.311	800.000	0.063	-0.224
-406.296	-104.536	0.287	0.066
-405.282	800.000	0.113	-0.332
-404.267	-19.698	-0.301	-0.184
-403.252	58.748	-0.298	0.289
-402.238	-124.961	-0.252	0.038
-401.223	-164.499	0.121	-0.005
-400.209	-42.192	0.167	-0.084
-399.194	59.337	0.280	0.273
-398.179	18.853	0.039	0.031
-397.165	-200.000	-0.021	0.142
-396.150	72.973	-0.108	-0.111
-395.136	58.325	0.103	0.100
-394.121	372.587	-0.111	0.222
-393.106	194.902	0.079	0.118
-392.092	169.384	-0.062	0.087
-391.077	-122.317	-0.093	-0.015
-390.063	-111.955	0.403	-0.080
-389.048	257.890	-0.061	0.104
-388.033	-91.120	-0.481	0.137
-387.019	-101.193	0.141	0.034
-386.004	-87.301	-0.102	0.031
-384.990	-3.212	-0.079	-0.055
-383.975	-200.000	-0.019	0.125
-382.960	75.004	0.102	-0.107
-381.946	-109.145	0.169	-0.035
-380.931	-24.427	0.050	-0.030
-379.917	386.741	0.173	0.353
-378.902	264.182	0.099	-0.170
-377.888	-117.667	0.174	0.031
-376.873	-97.078	-0.121	0.031
-375.858	429.515	-0.050	0.107
-374.844	-200.000	-0.031	-0.247
-373.829	-38.585	0.331	-0.173
-372.815	264.092	0.033	0.057
-371.800	134.049	0.093	-0.119
-370.785	800.000	-0.027	0.108
-369.771	-53.771	-0.262	-0.118
-368.756	19.253	-0.072	-0.057
-367.742	-142.460	-0.349	0.034
-366.727	6.511	-0.118	0.086
-365.712	-87.593	-0.223	0.067
-364.698	-74.263	0.228	0.081
-363.683	-47.222	-0.139	0.067
-362.669	88.627	0.092	-0.101
-361.654	-97.539	-0.156	0.040
-360.639	-200.000	0.041	0.586
-359.625	48.415	-0.125	0.116
-358.610	152.732	0.115	0.156
-357.596	-70.583	-0.256	0.096
-356.581	403.354	0.022	-0.046
-355.566	-30.245	-0.238	-0.134
-354.552	519.104	-0.028	-0.066
-353.537	800.000	0.040	0.165
-352.523	-71.119	0.149	0.055
-351.508	-12.072	-0.184	0.119
-350.493	77.763	-0.028	-0.029
-349.479	800.000	-0.003	-0.012
-348.464	-56.082	0.061	0.027
-347.450	-76.964	-0.208	0.072
-346.435	472.344	0.020	0.045
-345.420	76.599	0.151	0.158
-344.406	-111.570	-0.089	-0.018
-343.391	-200.000	-0.088	0.385
-342.377	-71.951	0.196	-0.072
-341.362	399.959	0.044	-0.091
-340.348	-200.000	0.010	0.047
-339.333	800.000	-0.023	-0.088
-338.318	218.801	0.132	0.208
-337.304	270.259	-0.186	0.324
-336.289	-71.882	0.342	0.126
-335.275	-2.364	0.112	-0.077
-334.260	204.072	0.073	-0.112
-333.245	-12.032	-0.111	0.071
-332.231	-106.357	-0.274	-0.060
-331.216	-14.305	0.239	0.152
-330.202	-9.675	0.390	0.257
-329.187	-144.316	-0.266	-0.024
-328.172	-39.067	0.154	0.080
-327.158	-200.000	0.040	-0.228
-326.143	-3.287	0.100	0.068
-325.129	-82.840	0.217	-0.069
-324.114	-21.752	-0.208	0.125
-323.099	800.000	-0.036	-0.108
-322.085	408.255	0.108	0.226
-321.070	124.394	-0.133	0.165
-320.056	54.484	-0.093	-0.089
-319.041	102.228	0.035	0.040
-318.026	-200.000	-0.032	-0.229
-317.012	800.000	0.032	-0.094
-315.997	-151.726	0.217	0.016
-314.983	-5.011	0.325	-0.221
-313.968	-200.000	-0.014	0.306
-312.953	46.167	-0.125	0.114
-311.939	140.349	0.235	-0.306
-310.924	341.679	-0.077	0.148
-309.910	495.099	0.045	-0.103
-308.895	-13.733	-0.062	0.040
-307.880	164.250	0.134	0.187
-306.866	-200.000	0.016	0.112
-305.851	800.000	0.069	-0.214
-304.837	-147.719	0.217	-0.018
-303.822	80.316	-0.115	0.122
-302.807	194.239	0.122	-0.182
-301.793	270.273	-0.160	-0.278
-300.778	173.632	-0.071	-0.102
-299.764	488.261	-0.100	-0.225
-298.749	160.512	0.071	-0.097
-297.735	-79.661	-0.103	0.034
-296.720	-81.782	0.142	0.046
-295.705	55.829	0.269	0.257
-294.691	800.000	0.061	0.229
-293.676	-37.006	-0.100	0.053
-292.662	-60.256	0.174	0.073
-291.647	77.421	-0.216	0.227
-290.632	-109.112	0.309	-0.065
-289.618	-79.600	-0.288	0.096
-288.603	304.158	0.152	0.278
-287.589	172.947	-0.130	0.184
-286.574	800.000	-0.102	0.306
-285.559	800.000	-0.057	0.168
-284.545	54.228	0.327	-0.310
-283.530	800.000	-0.079	-0.243
-282.516	-131.710	0.603	0.078
-281.501	146.243	0.203	0.268
-280.486	-200.000	0.016	-0.333
-279.472	-200.000	-0.058	-0.340
-278.457	800.000	0.120	0.384
-277.443	-123.614	-0.473	-0.074
-276.428	-133.552	0.083	0.010
-275.413	-200.000	-0.022	0.154
-274.399	800.000	-0.067	0.225
-273.384	192.822	-0.107	-0.159
-272.370	800.000	0.041	-0.167
-271.355	216.702	0.034	-0.053
-270.340	124.350	0.078	0.097
-269.326	532.411	-0.052	0.122
-268.311	-200.000	0.022	-0.147
-267.297	-57.725	0.355	-0.153
-266.282	-125.247	-0.368	0.055
-265.267	494.730	0.119	0.270
-264.253	-200.000	0.085	0.415
-263.238	424.909	0.007	-0.015
-262.224	800.000	-0.109	0.303
-261.209	-174.145	-0.182	0.005
-260.195	596.149	-0.067	0.164
-259.180	-116.873	0.386	-0.070
-258.165	97.220	-0.337	-0.381
-257.151	-63.173	0.182	0.074
-256.136	119.564	0.108	-0.132
-255.122	45.825	-0.120	0.109
-254.107	223.451	0.098	-0.155
-253.092	-200.000	0.023	0.181
-252.078	-85.877	0.473	0.144
-251.063	646.674	0.179	0.449
-250.049	-171.639	0.312	0.010
-249.034	-115.485	-0.128	0.024
-248.019	-200.000	-0.049	0.213
-247.005	-136.900	-0.522	-0.059
-245.990	-175.110	0.134	-0.004
-244.976	-26.155	0.410	0.237
-243.961	9.305	0.198	0.147
-242.946	-135.882	-0.064	-0.007
-241.932	-92.373	0.050	-0.014
-240.917	-88.005	0.232	-0.068
-239.903	-58.762	0.254	-0.108
-238.888	-200.000	0.057	0.417
-237.873	-18.865	0.262	-0.160
-236.859	167.408	-0.167	-0.233
-235.844	0.678	0.302	0.213
-234.830	-99.934	0.066	-0.016
-233.815	33.741	0.073	-0.062
-232.800	74.503	-0.030	-0.031
-231.786	524.105	-0.197	-0.455
-230.771	223.552	0.104	-0.165
-229.757	150.126	0.191	0.254
-228.742	-77.402	-0.221	0.076
-227.727	-70.986	0.111	0.041
-226.713	-91.353	-0.224	0.063
-225.698	-129.162	-0.287	0.039
-224.684	-200.000	0.040	-0.257
-223.669	-77.134	0.210	-0.072
-222.655	-106.178	0.303	-0.067
-221.640	-200.000	0.079	0.360
-220.625	340.388	0.069	-0.132
-219.611	317.983	0.142	0.265
-218.596	-200.000	-0.046	0.212
-217.582	-72.532	-0.501	-0.182
-216.567	-111.105	-0.245	0.049
-215.552	-46.443	0.230	0.111
-214.538	-111.061	-0.211	-0.043
-213.523	194.916	0.236	0.352
-212.509	-200.000	0.061	-0.479
-211.494	-103.317	0.072	-0.017
-210.479	8.230	0.067	-0.049
-209.465	-122.206	-0.232	0.037
-208.450	81.983	0.361	-0.384
-207.436	-130.308	-0.064	0.009
-206.421	-106.855	-0.340	0.074
-205.406	-158.072	0.351	0.020
-204.392	-55.780	-0.151	0.066
-203.377	-113.893	0.151	-0.029
-202.363	391.923	0.014	-0.028
-201.348	-3.596	-0.076	-0.052
-200.333	-100.016	0.144	-0.035
-199.319	9.002	-0.043	-0.032
-198.304	12.663	0.066	-0.050
-197.290	800.000	0.094	0.272
-196.275	800.000	-0.124	0.344
-195.260	256.526	0.008	0.013
-194.246	728.020	-0.079	0.207
-193.231	-68.903	-0.142	0.054
-192.217	-200.000	0.138	0.000
-191.202	800.000	0.125	0.457
-190.187	276.314	-0.101	0.177
-189.173	334.684	-0.140	0.266
-188.158	61.005	-0.098	-0.095
-187.144	-200.000	-0.002	0.148
-186.129	637.334	0.028	-0.069
-185.114	-95.217	-0.123	0.033
-184.100	395.841	-0.065	-0.133
-183.085	292.501	0.164	0.293
-182.071	-200.000	0.027	-0.200
-181.056	1.744	0.174	-0.123
-180.042	175.294	-0.130	0.184
-179.027	32.499	0.130	0.110
-178.012	-200.000	-0.042	0.265
-176.998	-94.866	-0.252	0.067
-175.983	-200.000	0.030	-0.196
-174.969	345.854	-0.011	0.022
-173.954	-32.388	-0.040	0.022
-172.939	35.851	0.202	0.174
-171.925	-70.143	-0.104	-0.039
-170.910	-119.885	-0.148	-0.025
-169.896	-200.000	0.025	-0.179
-168.881	-200.000	-0.007	0.194
-167.866	800.000	0.059	0.247
-166.852	169.088	0.153	-0.214
-165.837	800.000	-0.045	-0.161
-164.823	800.000	-0.088	0.344
-163.808	-27.726	0.204	-0.116
-162.793	800.000	0.003	0.009
-161.779	-107.235	0.302	-0.065
-160.764	-76.099	-0.287	0.099
-159.750	-120.534	-0.225	-0.037
-158.735	68.409	0.299	-0.301
-157.720	-200.000	0.087	0.413
-156.706	-98.667	-0.205	-0.051
-155.691	-68.153	-0.386	-0.147
-154.677	-89.864	0.085	-0.024
-153.662	150.591	-0.120	0.159
-152.647	-0.949	0.200	-0.139
-151.633	-64.703	-0.095	-0.038
-150.618	44.328	0.155	-0.139
-149.604	800.000	-0.091	-0.298
-148.589	163.710	0.240	-0.331
-147.574	267.475	-0.048	0.082
-146.560	-65.464	-0.063	0.025
-145.545	-53.701	0.066	-0.029
-144.531	-200.000	0.000	-0.003
-143.516	165.963	-0.068	-0.094
-142.502	800.000	0.071	-0.199
-141.487	-200.000	-0.035	-0.320
-140.472	-122.504	0.111	-0.018
-139.458	-200.000	-0.050	0.267
-138.443	800.000	0.058	0.194
-137.429	-200.000	-0.006	-0.090
-136.414	65.488	0.190	0.188
-135.399	-90.725	0.453	0.128
-134.385	-200.000	-0.026	-0.251
-133.370	-145.396	-0.215	-0.019
-132.356	142.975	0.174	0.226
-131.341	-186.724	0.396	-0.005
-130.326	213.742	-0.162	0.251
-129.312	320.170	0.188	0.349
-128.297	800.000	-0.029	-0.089
-127.283	88.981	0.176	0.192
-126.268	60.974	-0.130	0.127
-125.253	-200.000	-0.016	0.193
-124.239	-87.698	-0.082	-0.024
-123.224	-154.295	0.078	-0.005
-122.210	-168.076	-0.096	-0.004
