DTS Sentinel unit serial number:	SN413079Multiplexer serial number:	ORYXHardware model number:	OX4-SRSoftware version number:	ORYX F/W v4.00 Oryx Data Collector v3.7.2.0data status	okinstallation	princeton_trtdifferential loss correction	single-endedforward channel	channel 1reverse channel	N/Adate	2019/09/13time	13:54:35forward acquisition time	60.00reverse acquisition time	0.00gamma	496.2192k internal	0.2303k external	0.2303temperature offset calibration	1.0163default loss term (dB/km)	0.3790temperature slope calibration	1.0000multiplexer offset coefficient	1.0000multiplexer slope coefficient	1.0000fibre end	0.00T internal ref (°C)	35.17T ext. ref 1 (°C)	4.57T ext. ref 2 (°C)	31.31length (m)	temperature (°C)	Stokes	anti-Stokes-747.200	200.868	-0.222	0.347
-746.185	-3.711	0.044	0.031
-745.171	242.600	0.039	0.067
-744.156	-200.000	0.024	-0.123
-743.142	-200.000	-0.010	-0.398
-742.127	-200.000	0.025	-0.163
-741.112	188.601	0.165	-0.251
-740.098	800.000	0.019	0.073
-739.083	36.234	0.115	0.103
-738.069	-113.645	0.167	0.033
-737.054	-56.982	-0.269	0.121
-736.039	-167.771	-0.274	0.011
-735.025	-10.674	0.132	-0.089
-734.010	-27.211	-0.349	0.207
-732.996	132.165	-0.146	-0.192
-731.981	7.105	-0.183	0.139
-730.966	-57.856	-0.209	0.093
-729.952	800.000	-0.034	0.149
-728.937	-200.000	0.007	0.148
-727.923	-63.291	-0.150	0.063
-726.908	-200.000	-0.006	-0.078
-725.894	-58.440	-0.143	-0.063
-724.879	800.000	-0.087	-0.261
-723.864	79.914	-0.076	-0.083
-722.850	-6.778	-0.183	-0.126
-721.835	306.924	0.208	-0.394
-720.821	29.248	-0.058	-0.050
-719.806	-200.000	0.047	-0.289
-718.791	285.853	-0.159	-0.292
-717.777	-131.369	-0.291	0.039
-716.762	477.333	0.056	0.128
-715.748	-200.000	-0.012	0.054
-714.733	-200.000	-0.008	-0.151
-713.718	335.851	0.099	0.196
-712.704	-20.660	0.173	-0.108
-711.689	239.261	-0.107	0.182
-710.675	-200.000	-0.037	0.366
-709.660	-107.364	-0.069	0.015
-708.645	-200.000	0.029	-0.550
-707.631	800.000	0.092	-0.307
-706.616	-200.000	-0.043	-0.255
-705.602	800.000	-0.050	-0.160
-704.587	49.687	-0.270	-0.259
-703.572	-68.906	0.280	-0.110
-702.558	4.100	-0.297	-0.221
-701.543	-162.933	0.223	0.011
-700.529	191.390	0.104	-0.160
-699.514	60.768	-0.076	-0.077
-698.499	-200.000	0.040	0.195
-697.485	374.666	0.061	-0.126
-696.470	-64.300	-0.369	-0.153
-695.456	-67.010	-0.306	-0.123
-694.441	800.000	0.022	0.093
-693.426	-200.000	-0.003	-0.185
-692.412	185.467	0.174	-0.263
-691.397	140.993	-0.351	-0.471
-690.383	-100.518	0.155	0.039
-689.368	-9.086	0.179	0.121
-688.354	800.000	-0.112	0.380
-687.339	-200.000	-0.022	0.142
-686.324	-200.000	-0.028	0.230
-685.310	-133.087	-0.087	-0.011
-684.295	-120.066	0.240	-0.042
-683.281	-126.992	-0.335	0.050
-682.266	195.097	0.266	0.411
-681.251	-51.545	-0.091	0.043
-680.237	-82.852	-0.322	0.106
-679.222	-200.000	0.036	0.374
-678.208	-11.323	0.015	-0.010
-677.193	-200.000	0.008	0.210
-676.178	-200.000	-0.005	0.105
-675.164	28.684	0.079	-0.068
-674.149	-11.826	0.130	0.086
-673.135	99.795	-0.101	-0.119
-672.120	-104.476	-0.350	0.082
-671.105	-200.000	0.019	-0.262
-670.091	-200.000	-0.064	-0.336
-669.076	-54.898	0.141	-0.065
-668.062	-200.000	0.008	-0.165
-667.047	-200.000	0.012	-0.281
-666.032	-133.203	0.147	0.019
-665.018	-10.547	0.092	0.062
-664.003	-84.198	-0.276	0.089
-662.989	673.775	0.087	0.229
-661.974	7.911	-0.074	0.057
-660.959	3.370	0.248	0.184
-659.945	614.517	-0.070	-0.177
-658.930	36.753	-0.130	-0.116
-657.916	161.597	-0.073	0.104
-656.901	-120.395	0.288	-0.050
-655.886	-145.146	-0.436	0.040
-654.872	307.231	0.075	-0.142
-653.857	537.260	-0.116	-0.280
-652.843	-200.000	0.006	-0.069
-651.828	-56.094	-0.315	0.142
-650.814	-94.080	0.257	-0.071
-649.799	18.548	-0.200	-0.162
-648.784	800.000	-0.048	0.210
-647.770	280.218	0.187	-0.339
-646.755	-86.060	-0.063	0.020
-645.741	-119.398	-0.145	-0.026
-644.726	154.708	-0.184	-0.257
-643.711	43.295	0.222	-0.205
-642.697	70.936	0.092	-0.096
-641.682	-200.000	-0.017	-0.113
-640.668	210.125	0.071	-0.112
-639.653	259.870	-0.152	0.267
-638.638	224.060	-0.047	-0.077
-637.624	46.346	-0.007	0.006
-636.609	48.614	-0.297	0.283
-635.595	-64.443	-0.100	0.041
-634.580	252.977	0.179	-0.309
-633.565	800.000	0.068	0.264
-632.551	-108.708	-0.328	0.071
-631.536	259.109	0.235	-0.412
-630.522	0.232	0.173	0.125
-629.507	-29.356	-0.076	0.044
-628.492	-20.878	-0.072	-0.045
-627.478	800.000	0.094	-0.310
-626.463	344.652	-0.106	0.211
-625.449	-9.721	-0.194	0.131
-624.434	-123.504	-0.063	0.010
-623.419	-108.938	0.191	0.041
-622.405	326.890	-0.081	0.158
-621.390	-115.887	-0.280	-0.053
-620.376	98.637	-0.220	0.257
-619.361	-114.003	-0.151	-0.030
-618.346	-200.000	0.002	-0.098
-617.332	109.267	-0.046	-0.056
-616.317	-67.517	-0.057	0.023
-615.303	71.658	0.098	0.103
-614.288	-33.655	-0.152	-0.085
-613.273	92.249	-0.160	-0.183
-612.259	139.123	0.136	0.181
-611.244	100.721	-0.085	0.100
-610.230	-200.000	0.016	-0.099
-609.215	200.493	-0.112	-0.175
-608.201	-127.091	-0.269	-0.040
-607.186	50.994	0.208	-0.200
-606.171	34.531	-0.321	0.284
-605.157	155.761	0.105	0.146
-604.142	-22.815	0.208	0.127
-603.128	-51.427	-0.292	0.138
-602.113	-125.111	0.146	-0.023
-601.098	-109.139	0.387	0.083
-600.084	-200.000	-0.021	0.123
-599.069	-130.148	-0.343	0.047
-598.055	137.401	0.255	0.338
-597.040	-107.235	-0.181	-0.040
-596.025	52.417	0.174	0.168
-595.011	141.723	0.142	0.191
-593.996	-155.871	0.293	0.019
-592.982	154.393	-0.077	-0.107
-591.967	-75.613	0.086	-0.031
-590.952	-55.512	0.191	-0.087
-589.938	800.000	-0.153	0.453
-588.923	-27.218	0.259	-0.153
-587.909	36.690	-0.199	-0.178
-586.894	26.440	0.272	0.230
-585.879	-200.000	0.006	0.067
-584.865	58.326	-0.096	0.095
-583.850	-116.123	-0.230	-0.043
-582.836	340.796	-0.040	-0.080
-581.821	-57.252	0.298	0.133
-580.806	116.112	0.227	0.281
-579.792	-200.000	0.020	0.195
-578.777	-131.225	0.189	0.025
-577.763	-24.722	0.301	-0.181
-576.748	239.971	0.156	0.263
-575.733	77.953	0.138	-0.149
-574.719	-153.808	-0.181	-0.013
-573.704	-50.075	0.155	0.074
-572.690	-70.788	-0.210	-0.080
-571.675	639.778	-0.057	-0.148
-570.661	-162.653	-0.336	-0.017
-569.646	-49.727	0.241	-0.116
-568.631	-151.439	-0.149	-0.011
-567.617	-13.497	0.281	-0.184
-566.602	-82.759	0.110	0.036
-565.588	-81.779	0.272	0.090
-564.573	327.039	0.060	0.116
-563.558	-155.120	0.036	-0.002
-562.544	-135.643	-0.259	0.031
-561.529	115.060	0.372	-0.459
-560.515	285.070	-0.079	0.144
-559.500	-139.546	-0.316	-0.034
-558.485	315.148	0.155	0.295
-557.471	-60.234	0.045	-0.019
-556.456	97.807	0.016	-0.019
-555.442	-11.367	0.155	-0.103
-554.427	-200.000	-0.000	0.346
-553.412	23.190	0.223	-0.185
-552.398	-138.169	-0.133	0.015
-551.383	700.357	0.054	-0.144
-550.369	-100.916	-0.184	-0.046
-549.354	-97.269	0.139	0.037
-548.339	-34.761	-0.133	-0.074
-547.325	-200.000	-0.038	-0.186
-546.310	61.945	0.101	0.101
-545.296	-41.795	0.260	0.135
-544.281	800.000	0.042	-0.175
-543.266	-200.000	0.000	-0.175
-542.252	-200.000	0.024	-0.166
-541.237	-47.754	0.066	0.033
-540.223	-49.592	0.271	-0.130
-539.208	800.000	0.036	0.112
-538.193	800.000	0.045	0.158
-537.179	-200.000	0.133	0.001
-536.164	-62.823	0.086	0.036
-535.150	-59.068	-0.111	-0.049
-534.135	370.437	-0.058	-0.119
-533.121	17.224	0.131	-0.105
-532.106	-200.000	-0.020	-0.180
-531.091	153.175	0.024	0.034
-530.077	-59.525	0.228	0.099
-529.062	-43.192	0.125	-0.064
-528.048	53.238	0.126	-0.121
-527.033	220.479	0.010	-0.016
-526.018	153.143	-0.140	-0.193
-525.004	-200.000	-0.026	0.384
-523.989	-200.000	0.036	0.472
-522.975	-42.426	0.144	-0.074
-521.960	-79.414	-0.321	-0.110
-520.945	-200.000	0.057	-0.483
-519.931	-11.625	-0.135	-0.089
-518.916	-10.566	0.151	0.101
-517.902	-79.200	0.175	-0.060
-516.887	17.615	-0.260	0.209
-515.872	-77.294	0.304	-0.107
-514.858	-200.000	-0.010	0.263
-513.843	174.615	0.119	0.174
-512.829	510.076	-0.130	-0.305
-511.814	360.175	-0.179	-0.362
-510.799	8.905	0.098	-0.075
-509.785	-9.221	0.095	0.064
-508.770	800.000	-0.075	-0.319
-507.756	-47.210	0.118	-0.058
-506.741	800.000	-0.061	0.184
-505.726	-120.097	0.127	-0.022
-504.712	653.847	0.061	0.159
-503.697	-9.107	0.138	0.093
-502.683	800.000	0.055	0.158
-501.668	-134.121	0.084	-0.010
-500.653	-46.943	-0.375	0.185
-499.639	57.333	-0.040	-0.039
-498.624	800.000	0.065	-0.239
-497.610	-38.629	0.121	0.065
-496.595	53.472	-0.297	-0.287
-495.581	96.677	-0.010	-0.011
-494.566	-33.444	-0.149	-0.083
-493.551	-95.216	0.413	-0.112
-492.537	-46.156	-0.314	0.156
-491.522	-55.079	0.163	-0.074
-490.508	186.809	-0.079	-0.119
-489.493	62.660	0.232	0.234
-488.478	553.089	0.059	-0.142
-487.464	-200.000	-0.029	-0.219
-486.449	-129.223	-0.232	-0.033
-485.435	-200.000	0.024	-0.180
-484.420	-132.980	-0.138	0.018
-483.405	-200.000	-0.008	-0.402
-482.391	-20.536	0.100	-0.062
-481.376	-200.000	0.008	-0.330
-480.362	11.095	-0.116	-0.089
-479.347	-200.000	0.004	0.029
-478.332	-200.000	0.079	-0.357
-477.318	-200.000	-0.014	0.212
-476.303	320.978	0.079	0.151
-475.289	182.256	0.199	0.295
-474.274	-200.000	0.030	-0.242
-473.259	-0.415	-0.246	0.176
-472.245	-200.000	-0.010	-0.090
-471.230	444.626	0.082	0.180
-470.216	-121.330	-0.181	-0.030
-469.201	-200.000	-0.018	-0.166
-468.186	-105.851	-0.444	0.101
-467.172	-175.041	0.081	-0.002
-466.157	-95.269	-0.054	-0.015
-465.143	-118.604	-0.403	-0.072
-464.128	-110.398	-0.228	-0.048
-463.113	-146.308	-0.089	0.008
-462.099	69.632	-0.102	-0.106
-461.084	-32.446	0.321	0.180
-460.070	324.108	0.125	0.240
-459.055	-72.646	-0.080	0.030
-458.040	65.564	0.446	0.455
-457.026	67.760	-0.027	0.027
-456.011	-101.060	0.179	-0.044
-454.997	336.505	-0.238	0.465
-453.982	30.821	-0.122	-0.105
-452.968	-120.414	0.259	-0.044
-451.953	-19.065	-0.154	0.097
-450.938	-140.768	-0.351	0.037
-449.924	-121.838	-0.214	0.036
-448.909	-59.381	-0.140	0.061
-447.895	-200.000	0.018	0.096
-446.880	800.000	-0.035	-0.137
-445.865	-200.000	0.061	-0.345
-444.851	-60.330	0.221	-0.095
-443.836	-200.000	0.011	-0.343
-442.822	-72.163	0.110	0.041
-441.807	-66.708	-0.374	0.149
-440.792	241.966	-0.227	0.382
-439.778	-114.486	-0.319	0.062
-438.763	-200.000	0.021	0.193
-437.749	111.149	0.210	0.255
-436.734	-141.839	-0.495	0.050
-435.719	220.555	-0.051	-0.082
-434.705	-110.476	-0.371	-0.077
-433.690	646.336	-0.110	0.282
-432.676	28.307	-0.230	0.195
-431.661	-107.309	-0.186	0.041
-430.646	800.000	0.032	-0.123
-429.632	-200.000	0.031	-0.184
-428.617	135.603	-0.160	-0.210
-427.603	82.859	0.168	0.183
-426.588	-200.000	0.020	0.194
-425.573	800.000	-0.063	-0.190
-424.559	-154.520	0.321	-0.022
-423.544	-51.158	-0.105	0.050
-422.530	800.000	0.095	-0.346
-421.515	-110.213	-0.293	-0.061
-420.500	-0.495	-0.183	-0.131
-419.486	-143.713	0.159	-0.015
-418.471	63.452	0.193	-0.194
-417.457	741.831	-0.049	-0.131
-416.442	-45.385	-0.128	0.064
-415.428	800.000	-0.043	-0.152
-414.413	-69.964	-0.083	-0.032
-413.398	709.393	-0.179	-0.476
-412.384	-161.948	0.066	0.003
-411.369	-28.408	0.350	-0.203
-410.355	-200.000	-0.058	-0.304
-409.340	-138.608	0.124	-0.014
-408.325	-200.000	-0.016	-0.146
-407.311	103.454	-0.130	0.153
-406.296	-90.083	0.351	-0.103
-405.282	-184.534	0.245	-0.004
-404.267	-200.000	0.024	-0.237
-403.252	-41.977	-0.038	0.020
-402.238	-200.000	0.024	-0.210
-401.223	15.729	-0.249	-0.197
-400.209	-96.182	-0.058	0.016
-399.194	153.452	-0.053	0.073
-398.179	-96.749	0.111	-0.029
-397.165	-85.549	0.327	-0.102
-396.150	-56.794	-0.165	-0.073
-395.136	800.000	0.096	0.295
-394.121	-151.563	0.280	-0.021
-393.106	-148.566	0.125	-0.010
-392.092	104.455	-0.027	-0.032
-391.077	539.956	0.147	-0.352
-390.063	317.514	0.204	-0.388
-389.048	-104.564	-0.179	-0.042
-388.033	-26.660	-0.304	-0.179
-387.019	-39.297	0.193	0.102
-386.004	-200.000	-0.014	0.210
-384.990	799.608	-0.114	0.317
-383.975	56.691	0.155	-0.152
-382.960	-44.117	0.442	0.223
-381.946	87.330	-0.063	0.070
-380.931	-200.000	-0.061	-0.538
-379.917	194.488	-0.196	0.299
-378.902	314.330	-0.056	0.106
-377.888	800.000	-0.046	0.144
-376.873	21.549	-0.152	-0.124
-375.858	772.232	0.059	-0.162
-374.844	153.038	0.054	-0.074
-373.829	376.077	0.084	0.172
-372.815	142.111	-0.124	0.165
-371.800	-111.524	-0.455	0.093
-370.785	800.000	-0.046	0.169
-369.771	175.788	-0.143	0.208
-368.756	-200.000	-0.050	0.305
-367.742	326.166	-0.122	0.234
-366.727	137.419	0.128	0.169
-365.712	95.856	0.132	-0.151
-364.698	-77.583	-0.168	-0.058
-363.683	101.283	-0.073	-0.085
-362.669	-124.120	0.299	-0.047
-361.654	96.272	-0.061	0.070
-360.639	-88.130	-0.194	-0.058
-359.625	-200.000	-0.013	-0.315
-358.610	58.803	0.194	0.192
-357.596	-51.322	0.213	0.100
-356.581	-106.189	0.207	-0.047
-355.566	-63.429	0.015	-0.006
-354.552	176.052	0.117	-0.170
-353.537	-200.000	0.012	0.121
-352.523	800.000	0.091	0.259
-351.508	-44.953	-0.195	0.097
-350.493	582.792	-0.078	-0.193
-349.479	81.204	-0.147	0.159
-348.464	-200.000	0.032	0.280
-347.450	800.000	0.116	0.483
-346.435	-120.589	0.381	0.065
-345.420	-200.000	0.053	-0.278
-344.406	-119.552	-0.226	0.039
-343.391	-200.000	-0.038	-0.288
-342.377	800.000	0.057	0.242
-341.362	94.960	-0.071	0.081
-340.348	-80.712	0.166	-0.055
-339.333	-200.000	0.046	-0.330
-338.318	118.891	-0.098	-0.121
-337.304	-126.414	0.335	-0.050
-336.289	-34.310	0.388	0.214
-335.275	-200.000	-0.039	0.227
-334.260	219.692	0.033	-0.053
-333.245	-70.168	0.093	0.035
-332.231	-128.584	-0.255	0.036
-331.216	351.357	-0.151	0.299
-330.202	-24.480	-0.112	0.067
-329.187	-9.485	-0.149	-0.100
-328.172	10.146	-0.264	0.201
-327.158	-122.564	0.212	0.035
-326.143	162.098	-0.072	0.101
-325.129	-81.395	-0.316	0.104
-324.114	559.697	0.050	0.122
-323.099	24.770	-0.052	-0.043
-322.085	-200.000	-0.037	0.233
-321.070	-36.434	0.117	0.063
-320.056	119.449	-0.096	-0.119
-319.041	-200.000	-0.035	-0.153
-318.026	619.059	0.107	0.269
-317.012	89.238	-0.064	-0.071
-315.997	-200.000	-0.007	-0.153
-314.983	-30.653	-0.311	0.176
-313.968	274.514	-0.112	0.198
-312.953	-200.000	-0.054	0.369
-311.939	-200.000	0.021	-0.100
-310.924	104.140	0.006	-0.007
-309.910	800.000	-0.039	-0.116
-308.895	204.376	0.124	0.193
-307.880	-104.017	-0.222	-0.052
-306.866	-86.290	0.308	0.095
-305.851	500.359	0.168	-0.388
-304.837	9.341	0.188	-0.142
-303.822	-64.988	-0.248	0.100
-302.807	-95.452	-0.254	0.068
-301.793	33.250	-0.160	0.139
-300.778	15.760	-0.057	0.045
-299.764	-110.117	-0.286	0.060
-298.749	-200.000	0.005	0.103
-297.735	-148.310	0.422	0.035
-296.720	-33.401	-0.269	0.149
-295.705	-200.000	0.010	-0.078
-294.691	-145.491	-0.214	-0.019
-293.676	-200.000	0.034	-0.164
-292.662	-68.125	0.250	-0.098
-291.647	87.436	-0.249	-0.276
-290.632	-91.483	0.104	0.030
-289.618	-200.000	0.027	0.135
-288.603	605.171	-0.033	0.081
-287.589	-29.184	0.055	-0.031
-286.574	448.202	0.025	0.055
-285.559	-200.000	0.020	-0.095
-284.545	-165.585	0.200	0.009
-283.530	-138.190	0.069	-0.008
-282.516	-115.065	0.147	-0.028
-281.501	-127.733	-0.306	0.044
-280.486	109.013	-0.115	0.138
-279.472	367.469	-0.085	-0.172
-278.457	800.000	0.091	-0.370
-277.443	-98.854	-0.035	0.009
-276.428	89.849	0.175	0.196
-275.413	293.139	0.143	-0.261
-274.399	-135.496	0.200	-0.024
-273.384	-200.000	0.003	0.197
-272.370	-57.592	0.128	0.056
-271.355	-116.515	-0.314	0.058
-270.340	-36.975	0.216	0.116
-269.326	-78.433	0.336	-0.115
-268.311	71.677	-0.069	-0.071
-267.297	-89.257	-0.353	0.104
-266.282	800.000	0.037	0.104
-265.267	-130.969	0.214	-0.029
-264.253	38.704	0.176	0.157
-263.238	-116.147	-0.202	0.037
-262.224	-62.132	0.378	0.157
-261.209	-40.119	0.151	-0.079
-260.195	800.000	-0.090	-0.259
-259.180	222.251	-0.047	0.076
-258.165	42.812	-0.201	-0.183
-257.151	-200.000	0.002	-0.043
-256.136	74.092	0.263	-0.276
-255.122	34.344	0.113	0.098
-254.107	-159.355	-0.145	0.008
-253.092	30.563	0.291	0.249
-252.078	18.763	-0.084	0.067
-251.063	800.000	0.031	0.102
-250.049	800.000	0.041	-0.136
-249.034	32.805	-0.304	-0.263
-248.019	64.292	-0.106	0.107
-247.005	-53.069	0.182	0.084
-245.990	-71.751	0.287	-0.107
-244.976	-200.000	0.002	0.254
-243.961	-51.363	-0.156	0.073
-242.946	524.991	-0.130	0.306
-241.932	-15.689	-0.291	-0.185
-240.917	800.000	0.018	-0.062
-239.903	-200.000	0.023	-0.234
-238.888	123.049	0.295	-0.369
-237.873	-130.990	-0.087	-0.012
-236.859	-200.000	0.050	-0.327
-235.844	-75.930	-0.172	-0.061
-234.830	347.093	-0.171	0.336
-233.815	-53.514	-0.014	0.006
-232.800	-176.302	0.166	0.004
-231.786	302.416	-0.128	-0.236
-230.771	637.141	-0.046	-0.116
-229.757	800.000	0.127	-0.402
-228.742	92.678	0.038	-0.043
-227.727	135.892	-0.047	0.061
-226.713	-119.343	-0.280	-0.049
-225.698	800.000	-0.142	-0.390
-224.684	-134.722	0.334	-0.041
-223.669	587.909	-0.061	0.149
-222.655	-59.110	0.307	-0.132
-221.640	13.802	-0.131	-0.102
-220.625	800.000	0.039	-0.140
-219.611	-56.947	0.116	-0.051
-218.596	800.000	0.085	-0.244
-217.582	-44.601	-0.256	-0.128
-216.567	-141.797	0.086	-0.009
-215.552	779.079	0.102	-0.278
-214.538	-137.583	-0.168	0.019
-213.523	363.229	0.241	0.482
-212.509	106.984	-0.078	0.092
-211.494	152.713	-0.039	0.053
-210.479	800.000	0.017	-0.054
-209.465	-200.000	-0.006	-0.051
-208.450	-8.820	-0.216	-0.145
-207.436	-57.258	0.174	0.076
-206.421	-57.448	0.217	0.095
-205.406	-200.000	0.015	0.329
-204.392	117.883	-0.037	0.046
-203.377	579.589	-0.076	0.186
-202.363	-124.303	0.140	-0.022
-201.348	16.146	-0.115	-0.091
-200.333	-89.385	-0.105	0.031
-199.319	454.565	0.105	0.231
-198.304	147.105	-0.350	0.469
-197.290	-200.000	-0.000	0.175
-196.275	174.105	0.148	0.214
-195.260	-200.000	-0.002	0.020
-194.246	65.112	-0.149	0.150
-193.231	72.797	-0.168	-0.174
-192.217	112.159	-0.201	0.242
-191.202	210.577	-0.170	0.267
-190.187	-127.554	0.268	0.039
-189.173	-14.796	-0.421	-0.269
-188.158	-120.869	0.133	0.022
-187.144	-121.441	-0.224	0.037
-186.129	-145.241	0.471	0.043
-185.114	-11.100	0.060	0.040
-184.100	627.026	-0.128	0.323
-183.085	-29.481	-0.167	0.095
-182.071	66.030	0.182	-0.184
-181.056	472.074	-0.100	0.224
-180.042	41.557	0.117	0.106
-179.027	800.000	0.094	-0.322
-178.012	800.000	-0.065	-0.211
-176.998	-122.195	0.121	-0.020
-175.983	-200.000	-0.008	0.056
-174.969	-100.772	0.138	-0.034
-173.954	-66.193	-0.221	-0.088
-172.939	800.000	-0.058	0.236
-171.925	-64.876	-0.253	-0.102
-170.910	-162.430	0.306	0.015
-169.896	585.424	-0.057	-0.140
-168.881	590.925	0.131	0.322
-167.866	89.413	0.236	-0.262
-166.852	-148.949	0.186	-0.015
-165.837	800.000	0.057	-0.229
-164.823	800.000	-0.113	0.380
-163.808	800.000	0.036	0.148
-162.793	-33.540	0.163	0.090
-161.779	800.000	0.044	0.130
-160.764	800.000	0.116	-0.337
-159.750	268.493	-0.160	-0.278
-158.735	-200.000	0.015	-0.423
-157.720	-70.596	-0.140	0.053
-156.706	800.000	0.083	0.293
-155.691	-120.127	-0.338	0.058
-154.677	800.000	-0.055	-0.171
-153.662	800.000	0.028	0.084
-152.647	-51.080	0.167	0.078
-151.633	-98.358	0.197	-0.050
-150.618	636.655	-0.149	0.377
-149.604	36.707	0.084	0.074
-148.589	-75.474	-0.337	0.119
-147.574	-2.458	0.218	0.152
-146.560	-28.804	-0.193	-0.110
-145.545	800.000	-0.043	0.124
-144.531	-116.936	-0.235	-0.043
-143.516	-61.916	-0.075	-0.031
-142.502	-96.445	0.109	0.029
-141.487	-200.000	-0.002	-0.262
-140.472	-200.000	0.023	0.214
-139.458	74.703	-0.137	-0.144
-138.443	8.883	0.257	-0.193
-137.429	-100.136	0.155	-0.038
-136.414	-95.126	0.276	-0.074
-135.399	79.802	-0.045	0.048
-134.385	-175.129	0.224	0.006
-133.370	14.631	-0.156	-0.121
-132.356	66.166	0.185	0.187
-131.341	139.515	-0.159	0.208
-130.326	-200.000	0.002	0.064
-129.312	177.770	0.245	-0.355
-128.297	-21.334	0.227	-0.138
-127.283	800.000	-0.143	0.581
-126.268	-89.415	0.173	-0.051
-125.253	211.821	-0.200	-0.313
-124.239	-164.858	-0.151	-0.007
-123.224	799.708	-0.069	-0.191
-122.210	-131.626	-0.110	0.014
