DTS Sentinel unit serial number:	SN413079Multiplexer serial number:	ORYXHardware model number:	OX4-SRSoftware version number:	ORYX F/W v4.00 Oryx Data Collector v3.7.2.0data status	okinstallation	princeton_trtdifferential loss correction	single-endedforward channel	channel 1reverse channel	N/Adate	2019/09/16time	12:18:35forward acquisition time	60.00reverse acquisition time	0.00gamma	496.2192k internal	0.2296k external	0.2296temperature offset calibration	0.9956default loss term (dB/km)	0.3790temperature slope calibration	1.0000multiplexer offset coefficient	1.0000multiplexer slope coefficient	1.0000fibre end	0.00T internal ref (°C)	39.25T ext. ref 1 (°C)	13.28T ext. ref 2 (°C)	36.67length (m)	temperature (°C)	Stokes	anti-Stokes-747.200	-91.069	0.487	0.143
-746.185	800.000	-0.069	0.219
-745.171	106.112	-0.136	-0.164
-744.156	800.000	0.058	0.195
-743.142	59.046	-0.017	-0.017
-742.127	-74.260	0.165	0.061
-741.112	-103.959	0.261	-0.062
-740.098	-200.000	0.013	0.148
-739.083	225.050	0.078	-0.129
-738.069	68.062	0.122	-0.128
-737.054	-67.929	0.264	-0.105
-736.039	-168.864	0.026	-0.001
-735.025	100.372	0.107	-0.127
-734.010	800.000	0.045	-0.163
-732.996	-141.372	-0.457	0.047
-731.981	800.000	-0.054	-0.226
-730.966	67.382	-0.032	0.033
-729.952	-200.000	-0.067	0.400
-728.937	73.502	0.075	-0.081
-727.923	-58.303	-0.244	-0.108
-726.908	444.608	-0.074	-0.167
-725.894	-41.011	-0.108	-0.057
-724.879	124.957	-0.253	-0.325
-723.864	-80.784	0.395	-0.134
-722.850	-31.737	-0.235	0.134
-721.835	356.188	0.036	-0.073
-720.821	-97.900	0.197	-0.052
-719.806	-103.332	-0.197	-0.047
-718.791	-89.437	0.308	0.093
-717.777	-200.000	-0.004	0.241
-716.762	-11.508	0.181	-0.121
-715.748	-17.681	0.186	-0.119
-714.733	-46.478	-0.250	-0.125
-713.718	437.558	-0.119	-0.264
-712.704	46.895	0.147	-0.139
-711.689	71.475	-0.135	-0.144
-710.675	542.058	0.138	-0.336
-709.660	-200.000	-0.032	-0.196
-708.645	49.134	-0.061	0.059
-707.631	31.604	0.238	-0.209
-706.616	-111.171	0.319	-0.067
-705.602	-12.480	0.214	0.143
-704.587	11.251	0.093	-0.073
-703.572	107.321	0.093	0.112
-702.558	-146.859	0.234	0.021
-701.543	27.040	-0.117	-0.100
-700.529	-142.009	-0.010	0.001
-699.514	272.863	-0.146	-0.264
-698.499	-4.846	0.115	-0.081
-697.485	-80.432	-0.254	0.086
-696.470	-200.000	0.045	0.241
-695.456	-200.000	0.014	0.425
-694.441	-200.000	0.042	-0.231
-693.426	31.653	0.145	-0.127
-692.412	11.778	-0.086	0.068
-691.397	253.459	-0.112	-0.195
-690.383	270.655	0.127	0.228
-689.368	516.371	-0.004	0.008
-688.354	800.000	-0.047	0.142
-687.339	-80.734	0.270	-0.091
-686.324	-20.307	-0.130	0.081
-685.310	41.300	0.168	-0.155
-684.295	800.000	-0.051	-0.200
-683.281	800.000	-0.069	-0.263
-682.266	20.336	-0.116	0.096
-681.251	-136.997	0.237	0.028
-680.237	-53.769	-0.062	0.029
-679.222	-77.254	0.342	-0.121
-678.208	-65.560	-0.231	0.095
-677.193	800.000	-0.065	0.231
-676.178	-192.706	-0.249	0.002
-675.164	-200.000	0.016	0.096
-674.149	134.736	-0.147	-0.195
-673.135	800.000	0.015	0.062
-672.120	-51.375	0.252	0.120
-671.105	-200.000	-0.059	-0.332
-670.091	-65.110	-0.063	-0.026
-669.076	16.211	0.206	-0.165
-668.062	800.000	0.068	-0.230
-667.047	-200.000	-0.061	-0.399
-666.032	-45.784	0.116	0.058
-665.018	-200.000	-0.006	0.051
-664.003	48.386	-0.024	-0.023
-662.989	-113.183	0.214	0.043
-661.974	-200.000	0.031	0.197
-660.959	-23.411	-0.388	0.237
-659.945	146.397	0.297	-0.406
-658.930	29.015	-0.118	0.102
-657.916	-200.000	0.007	-0.127
-656.901	442.758	-0.186	0.415
-655.886	-131.083	0.325	-0.044
-654.872	-104.792	-0.047	-0.011
-653.857	-2.354	-0.233	0.167
-652.843	95.190	-0.056	0.065
-651.828	13.972	-0.301	0.239
-650.814	-119.401	-0.231	-0.041
-649.799	800.000	-0.103	-0.317
-648.784	-200.000	0.017	-0.121
-647.770	-176.836	0.232	-0.006
-646.755	-96.034	-0.182	-0.049
-645.741	-92.767	-0.278	0.079
-644.726	-13.330	-0.156	-0.103
-643.711	60.536	-0.206	0.207
-642.697	51.968	0.237	0.229
-641.682	28.236	-0.311	0.268
-640.668	13.602	0.190	-0.150
-639.653	24.110	-0.149	-0.125
-638.638	-147.472	-0.262	-0.023
-637.624	-138.069	-0.041	-0.005
-636.609	-126.539	0.274	-0.041
-635.595	800.000	0.066	-0.206
-634.580	-72.689	0.393	-0.147
-633.565	253.235	-0.160	0.279
-632.551	-36.579	0.283	0.155
-631.536	-17.139	-0.437	-0.280
-630.522	-4.373	-0.126	-0.088
-629.507	-200.000	0.022	-0.225
-628.492	-200.000	0.078	0.384
-627.478	360.020	0.067	-0.135
-626.463	159.181	0.053	0.074
-625.449	-200.000	-0.033	0.260
-624.434	-131.862	-0.245	-0.033
-623.419	18.477	0.364	-0.296
-622.405	-123.442	0.107	0.017
-621.390	79.531	-0.115	-0.126
-620.376	-88.808	-0.233	0.070
-619.361	-200.000	-0.008	0.067
-618.346	-88.407	0.283	0.086
-617.332	16.998	0.366	-0.294
-616.317	800.000	-0.013	0.059
-615.303	101.299	0.066	-0.078
-614.288	-200.000	-0.063	0.363
-613.273	-99.195	0.075	-0.019
-612.259	-15.844	0.109	-0.070
-611.244	55.472	0.339	-0.333
-610.230	150.709	-0.106	0.146
-609.215	-79.848	-0.293	-0.100
-608.201	-200.000	0.056	-0.259
-607.186	36.946	0.151	-0.136
-606.171	-200.000	0.015	0.077
-605.157	-200.000	0.009	0.146
-604.142	328.701	0.086	0.167
-603.128	-54.288	0.221	-0.102
-602.113	114.444	0.201	-0.249
-601.098	557.789	0.119	0.291
-600.084	-198.325	-0.157	0.001
-599.069	135.222	0.101	-0.134
-598.055	-66.346	-0.242	0.098
-597.040	-200.000	0.018	-0.127
-596.025	52.572	-0.093	-0.090
-595.011	-141.192	0.058	-0.006
-593.996	-200.000	-0.031	-0.138
-592.982	270.712	0.039	0.070
-591.967	800.000	-0.025	-0.074
-590.952	271.280	0.080	-0.143
-589.938	-139.486	-0.277	-0.030
-588.923	-200.000	-0.016	-0.133
-587.909	328.049	-0.204	0.398
-586.894	443.581	0.077	-0.172
-585.879	392.301	-0.135	-0.285
-584.865	67.796	-0.081	-0.084
-583.850	-106.358	-0.174	-0.039
-582.836	124.025	-0.147	0.187
-581.821	125.511	-0.125	-0.160
-580.806	-91.427	-0.435	0.126
-579.792	-200.000	0.027	0.325
-578.777	-129.837	0.208	0.029
-577.763	-200.000	0.010	-0.230
-576.748	55.224	0.015	-0.015
-575.733	-37.319	-0.341	0.185
-574.719	471.031	-0.053	0.121
-573.704	-54.607	-0.235	0.108
-572.690	97.453	0.109	0.127
-571.675	-163.822	0.231	-0.011
-570.661	73.802	0.136	0.145
-569.646	-54.001	-0.213	-0.098
-568.631	516.761	0.029	-0.070
-567.617	-200.000	-0.060	-0.286
-566.602	-45.665	-0.312	-0.157
-565.588	-200.000	0.005	-0.545
-564.573	800.000	0.071	-0.285
-563.558	-129.372	-0.389	0.055
-562.544	193.230	-0.171	0.263
-561.529	-87.249	0.196	-0.060
-560.515	127.332	0.067	0.086
-559.500	-200.000	-0.007	-0.096
-558.485	261.500	0.062	-0.110
-557.471	-200.000	0.035	0.311
-556.456	283.157	-0.177	-0.322
-555.442	776.369	-0.057	-0.157
-554.427	-80.950	-0.451	-0.151
-553.412	-58.527	0.263	-0.116
-552.398	-56.259	-0.131	0.059
-551.383	-18.113	0.108	-0.069
-550.369	-25.923	-0.117	0.070
-549.354	-85.651	-0.087	-0.027
-548.339	-102.297	0.045	-0.011
-547.325	-70.313	0.245	-0.094
-546.310	-54.561	0.122	-0.056
-545.296	-104.935	-0.281	-0.065
-544.281	-65.851	-0.044	-0.018
-543.266	800.000	-0.064	-0.203
-542.252	-115.202	-0.281	0.054
-541.237	-200.000	0.004	-0.052
-540.223	-83.127	0.222	-0.072
-539.208	-60.220	-0.323	0.139
-538.193	37.152	-0.231	-0.207
-537.179	-86.987	0.083	0.026
-536.164	-142.164	-0.193	-0.019
-535.150	-200.000	-0.035	0.159
-534.135	-44.697	-0.008	0.004
-533.121	667.491	0.086	0.226
-532.106	100.811	-0.064	0.076
-531.091	596.953	0.146	-0.368
-530.077	-26.682	0.271	-0.160
-529.062	800.000	0.044	-0.155
-528.048	-75.609	0.268	0.097
-527.033	800.000	-0.032	-0.101
-526.018	261.988	-0.187	0.329
-525.004	-176.837	0.250	0.006
-523.989	-157.032	-0.164	-0.010
-522.975	171.305	0.225	0.327
-521.960	-25.281	-0.246	-0.147
-520.945	-99.553	-0.136	-0.035
-519.931	-42.626	-0.041	0.021
-518.916	-45.165	0.027	-0.013
-517.902	76.264	-0.195	0.209
-516.887	55.722	-0.400	0.393
-515.872	-96.702	0.383	0.102
-514.858	-176.533	-0.135	-0.004
-513.843	622.354	0.041	0.104
-512.829	-200.000	0.027	-0.188
-511.814	487.558	0.045	-0.105
-510.799	-104.862	0.120	0.028
-509.785	-23.820	-0.078	-0.047
-508.770	800.000	-0.012	-0.046
-507.756	-24.085	0.089	0.054
-506.741	800.000	-0.107	-0.353
-505.726	1.208	-0.126	0.091
-504.712	-116.821	0.206	-0.038
-503.697	-2.769	0.306	0.217
-502.683	296.439	0.059	0.110
-501.668	-200.000	-0.002	-0.184
-500.653	33.037	-0.174	0.153
-499.639	51.407	-0.245	0.235
-498.624	800.000	0.075	0.332
-497.610	134.963	-0.122	0.161
-496.595	-14.479	-0.113	0.074
-495.581	279.337	-0.031	-0.055
-494.566	103.554	-0.092	0.109
-493.551	208.481	0.166	0.262
-492.537	-200.000	-0.015	-0.261
-491.522	23.235	-0.270	0.225
-490.508	-200.000	0.020	0.120
-489.493	800.000	-0.035	-0.122
-488.478	-45.598	-0.116	-0.058
-487.464	94.425	-0.187	0.215
-486.449	-45.459	0.412	-0.207
-485.435	416.456	-0.187	0.404
-484.420	699.064	0.124	0.330
-483.405	140.908	0.056	-0.075
-482.391	-24.671	0.138	-0.083
-481.376	-200.000	0.013	-0.170
-480.362	36.668	0.246	0.220
-479.347	169.316	0.173	-0.250
-478.332	38.459	0.111	-0.100
-477.318	-47.198	0.153	0.076
-476.303	-51.679	-0.186	-0.088
-475.289	219.411	-0.165	-0.267
-474.274	-200.000	-0.013	0.278
-473.259	800.000	-0.106	0.347
-472.245	-107.676	-0.620	-0.137
-471.230	800.000	-0.085	0.315
-470.216	-200.000	0.005	0.313
-469.201	-136.133	0.079	0.009
-468.186	-65.090	-0.098	-0.040
-467.172	272.229	0.091	-0.162
-466.157	23.086	-0.368	0.305
-465.143	244.136	-0.195	-0.331
-464.128	-17.534	0.047	-0.030
-463.113	28.563	-0.119	0.101
-462.099	67.388	0.089	0.092
-461.084	260.513	0.033	-0.058
-460.070	-200.000	-0.001	-0.210
-459.055	-150.718	0.192	0.015
-458.040	60.468	0.198	-0.198
-457.026	-200.000	0.016	0.233
-456.011	13.386	-0.174	0.136
-454.997	-200.000	0.002	0.135
-453.982	-23.023	0.280	0.171
-452.968	-200.000	0.020	-0.185
-451.953	-92.612	-0.195	0.055
-450.938	-83.327	-0.213	-0.069
-449.924	-66.146	0.230	-0.093
-448.909	647.131	-0.025	-0.064
-447.895	466.713	-0.051	0.115
-446.880	191.214	-0.058	-0.087
-445.865	-200.000	-0.010	0.046
-444.851	-200.000	0.009	0.058
-443.836	-119.715	-0.410	0.071
-442.822	591.516	0.112	-0.280
-441.807	800.000	0.054	0.153
-440.792	151.249	0.147	-0.202
-439.778	66.632	0.068	-0.070
-438.763	66.066	0.088	0.090
-437.749	-135.878	0.244	-0.029
-436.734	-200.000	-0.008	-0.221
-435.719	-86.953	0.246	-0.076
-434.705	-200.000	-0.009	0.268
-433.690	97.981	0.156	0.181
-432.676	-200.000	0.010	0.319
-431.661	-61.189	-0.232	0.099
-430.646	279.544	-0.177	0.318
-429.632	-200.000	0.009	0.047
-428.617	118.753	-0.191	0.239
-427.603	9.300	0.108	-0.082
-426.588	-16.153	0.077	-0.049
-425.573	131.734	-0.160	-0.207
-424.559	-70.885	0.268	0.102
-423.544	183.573	0.094	-0.140
-422.530	-47.955	-0.419	-0.204
-421.515	-127.657	-0.155	0.023
-420.500	-117.488	0.165	-0.030
-419.486	-21.168	0.093	0.057
-418.471	-200.000	-0.023	0.103
-417.457	-200.000	0.002	-0.084
-416.442	176.309	-0.127	-0.186
-415.428	800.000	0.048	-0.157
-414.413	-200.000	-0.259	-0.001
-413.398	376.593	0.076	0.157
-412.384	41.093	0.111	0.101
-411.369	-200.000	0.003	-0.376
-410.355	-200.000	0.008	0.163
-409.340	482.145	0.119	-0.271
-408.325	55.778	-0.059	0.058
-407.311	400.700	-0.036	0.076
-406.296	288.137	-0.081	-0.147
-405.282	-112.796	-0.097	0.019
-404.267	-12.482	-0.329	-0.217
-403.252	-88.951	0.170	-0.051
-402.238	-200.000	-0.025	0.311
-401.223	-158.887	0.344	0.020
-400.209	41.752	-0.084	0.077
-399.194	-141.557	0.531	-0.054
-398.179	-118.395	0.215	0.038
-397.165	-168.347	0.321	-0.012
-396.150	800.000	-0.010	-0.040
-395.136	26.727	-0.092	-0.078
-394.121	28.888	0.200	0.171
-393.106	270.450	-0.151	0.267
-392.092	-200.000	-0.051	-0.257
-391.077	-200.000	0.061	0.474
-390.063	138.728	-0.065	0.086
-389.048	-157.560	-0.195	0.012
-388.033	800.000	-0.015	0.050
-387.019	-52.155	-0.027	-0.013
-386.004	-200.000	-0.034	0.196
-384.990	-44.634	-0.155	0.078
-383.975	-200.000	0.078	0.414
-382.960	6.529	-0.163	0.122
-381.946	-200.000	-0.046	-0.214
-380.931	-28.649	-0.008	-0.005
-379.917	282.790	0.059	-0.106
-378.902	79.914	-0.053	0.058
-377.888	449.101	0.075	0.167
-376.873	685.818	0.053	0.138
-375.858	-105.288	0.239	-0.055
-374.844	103.084	-0.160	0.188
-373.829	76.791	-0.017	0.018
-372.815	283.567	-0.093	0.169
-371.800	-11.471	-0.131	0.087
-370.785	13.667	-0.272	0.213
-369.771	800.000	-0.026	-0.108
-368.756	-99.884	-0.364	0.092
-367.742	-200.000	0.068	-0.324
-366.727	-88.083	-0.323	-0.098
-365.712	76.634	-0.266	0.284
-364.698	233.940	-0.102	0.169
-363.683	-200.000	-0.017	0.139
-362.669	-200.000	-0.028	-0.203
-361.654	-200.000	0.027	0.153
-360.639	-58.568	-0.044	-0.019
-359.625	800.000	0.096	-0.381
-358.610	-99.398	0.326	0.083
-357.596	-62.319	-0.250	-0.105
-356.581	-65.558	-0.198	-0.080
-355.566	270.374	-0.157	0.278
-354.552	125.318	-0.325	-0.413
-353.537	-25.680	-0.092	0.054
-352.523	194.047	-0.113	0.172
-351.508	-85.967	-0.397	-0.123
-350.493	-90.679	-0.270	-0.078
-349.479	-128.336	0.377	-0.054
-348.464	-154.277	0.184	0.012
-347.450	800.000	-0.029	-0.100
-346.435	283.398	0.135	-0.245
-345.420	27.180	-0.168	-0.142
-344.406	800.000	0.037	-0.125
-343.391	141.248	-0.192	-0.255
-342.377	370.571	-0.058	0.118
-341.362	-200.000	-0.036	0.341
-340.348	10.692	0.058	0.044
-339.333	-58.234	-0.200	0.088
-338.318	438.210	-0.033	-0.072
-337.304	-200.000	0.023	-0.169
-336.289	-11.636	0.060	0.039
-335.275	-45.818	0.519	-0.258
-334.260	141.627	-0.245	-0.326
-333.245	-200.000	0.019	-0.277
-332.231	800.000	0.041	-0.168
-331.216	98.626	0.272	0.316
-330.202	241.175	-0.108	0.181
-329.187	-200.000	-0.078	0.432
-328.172	-200.000	-0.001	0.258
-327.158	-142.051	-0.092	0.009
-326.143	-111.137	0.270	-0.055
-325.129	56.189	0.196	0.191
-324.114	-200.000	0.014	-0.086
-323.099	175.432	0.093	0.136
-322.085	580.516	0.066	-0.162
-321.070	643.447	0.076	-0.196
-320.056	291.726	0.102	0.187
-319.041	-200.000	-0.057	-0.338
-318.026	-200.000	0.010	0.083
-317.012	-25.733	0.127	-0.075
-315.997	-200.000	-0.049	0.453
-314.983	-197.843	0.032	-0.000
-313.968	335.895	0.079	-0.153
-312.953	181.610	0.053	0.078
-311.939	-34.101	0.117	-0.065
-310.924	-19.130	0.073	-0.045
-309.910	178.751	0.194	0.284
-308.895	-166.688	0.398	0.017
-307.880	-25.406	-0.153	-0.091
-306.866	-14.883	0.103	-0.066
-305.851	-178.286	0.056	-0.001
-304.837	13.382	-0.102	-0.080
-303.822	363.480	0.155	-0.313
-302.807	352.508	-0.066	-0.132
-301.793	324.615	-0.191	-0.367
-300.778	58.622	-0.100	-0.098
-299.764	-51.670	0.163	-0.076
-298.749	-40.865	-0.204	0.106
-297.735	93.558	0.199	-0.226
-296.720	800.000	-0.065	-0.210
-295.705	18.778	-0.236	-0.190
-294.691	-19.416	-0.124	0.077
-293.676	-91.569	0.208	0.060
-292.662	192.896	0.110	0.167
-291.647	-101.290	-0.270	0.066
-290.632	-171.371	0.432	0.015
-289.618	-200.000	-0.006	0.082
-288.603	437.205	0.051	-0.111
-287.589	800.000	-0.081	-0.321
-286.574	78.866	0.125	0.135
-285.559	-133.814	0.146	-0.018
-284.545	26.965	0.177	-0.149
-283.530	-200.000	-0.022	-0.141
-282.516	565.948	0.115	0.281
-281.501	408.319	-0.048	-0.102
-280.486	-60.363	0.119	-0.051
-279.472	386.656	0.162	-0.336
-278.457	-52.367	0.173	0.080
-277.443	-200.000	0.031	-0.149
-276.428	800.000	-0.108	-0.334
-275.413	299.831	0.201	-0.372
-274.399	19.753	-0.197	-0.159
-273.384	-110.959	-0.228	0.047
-272.370	10.888	-0.369	-0.283
-271.355	-200.000	-0.041	0.209
-270.340	699.425	-0.136	-0.358
-269.326	-126.279	0.188	0.028
-268.311	-108.953	0.081	-0.017
-267.297	346.557	0.088	-0.173
-266.282	-55.196	0.084	-0.038
-265.267	116.038	-0.073	0.090
-264.253	-94.622	-0.288	0.078
-263.238	-71.989	0.099	-0.037
-262.224	800.000	-0.027	-0.110
-261.209	-26.125	-0.141	0.083
-260.195	-67.488	-0.221	-0.087
-259.180	384.065	0.077	0.159
-258.165	51.364	-0.063	-0.060
-257.151	565.465	-0.146	0.355
-256.136	-52.689	-0.074	0.034
-255.122	-200.000	0.003	-0.228
-254.107	-106.230	0.211	-0.047
-253.092	-200.000	0.067	0.344
-252.078	-70.567	0.322	-0.122
-251.063	58.704	0.168	-0.165
-250.049	800.000	-0.036	0.127
-249.034	164.085	0.032	-0.045
-248.019	-97.974	-0.183	-0.047
-247.005	800.000	0.086	-0.365
-245.990	98.550	0.246	0.284
-244.976	14.723	0.180	0.141
-243.961	261.119	0.052	0.090
-242.946	-46.554	0.272	-0.134
-241.932	-63.424	-0.104	0.043
-240.917	800.000	-0.025	0.079
-239.903	-200.000	-0.007	0.133
-238.888	12.846	0.084	0.065
-237.873	-150.909	0.189	0.014
-236.859	-200.000	0.064	-0.320
-235.844	144.355	0.066	-0.088
-234.830	132.747	0.202	0.260
-233.815	385.254	0.273	0.565
-232.800	245.525	-0.257	-0.433
-231.786	-27.370	0.088	0.051
-230.771	54.334	-0.201	0.193
-229.757	592.243	-0.030	-0.074
-228.742	-200.000	-0.041	-0.313
-227.727	-90.859	-0.177	0.051
-226.713	-81.249	-0.281	-0.093
-225.698	248.521	0.049	-0.083
-224.684	-200.000	0.032	0.221
-223.669	-80.353	-0.147	0.049
-222.655	-86.825	0.203	-0.062
-221.640	31.497	-0.068	0.059
-220.625	-200.000	-0.077	0.405
-219.611	334.454	0.106	-0.205
-218.596	-200.000	-0.015	-0.111
-217.582	-115.808	0.350	-0.066
-216.567	62.789	-0.080	0.080
-215.552	376.554	-0.172	-0.351
-214.538	800.000	-0.033	-0.144
-213.523	-43.043	-0.089	-0.045
-212.509	7.704	-0.115	-0.086
-211.494	8.598	-0.231	-0.174
-210.479	66.738	-0.230	-0.234
-209.465	-38.530	-0.224	-0.118
-208.450	10.399	-0.062	-0.047
-207.436	-140.374	-0.125	0.013
-206.421	800.000	-0.064	0.184
-205.406	-1.676	0.221	0.156
-204.392	346.879	0.038	-0.075
-203.377	-200.000	0.017	-0.098
-202.363	800.000	-0.071	0.287
-201.348	-67.974	0.330	-0.129
-200.333	800.000	0.053	0.228
-199.319	673.346	0.067	0.174
-198.304	-4.317	0.066	0.046
-197.290	241.146	-0.071	-0.118
-196.275	161.774	0.090	-0.126
-195.260	-29.938	0.226	-0.128
-194.246	-200.000	0.032	0.297
-193.231	-99.132	0.220	-0.056
-192.217	68.625	0.189	0.194
-191.202	-109.855	0.394	0.083
-190.187	-113.538	-0.105	-0.020
-189.173	175.154	0.088	0.127
-188.158	-50.178	0.348	0.165
-187.144	-125.354	-0.136	0.021
-186.129	-74.763	-0.179	-0.064
-185.114	-76.035	0.047	0.016
-184.100	1.458	0.113	-0.081
-183.085	800.000	0.113	0.369
-182.071	320.567	-0.185	-0.351
-181.056	-144.745	0.379	-0.035
-180.042	-40.889	-0.099	0.051
-179.027	90.659	0.126	-0.141
-178.012	248.864	0.197	0.334
-176.998	645.385	-0.138	0.352
-175.983	-93.106	0.106	0.029
-174.969	-200.000	0.019	0.153
-173.954	800.000	-0.080	0.295
-172.939	178.799	-0.066	-0.097
-171.925	-180.173	0.161	-0.003
-170.910	275.446	-0.112	0.199
-169.896	-126.489	0.198	0.029
-168.881	15.355	0.124	0.097
-167.866	147.287	-0.124	-0.166
-166.852	-200.000	0.059	-0.376
-165.837	-10.533	0.166	-0.110
-164.823	-19.781	-0.149	0.092
-163.808	76.562	0.191	0.202
-162.793	329.276	-0.145	0.278
-161.779	-200.000	0.040	0.341
-160.764	-160.545	0.073	-0.004
-159.750	-118.912	0.248	0.044
-158.735	-15.628	0.355	0.226
-157.720	-1.373	0.172	-0.121
-156.706	-200.000	0.006	-0.030
-155.691	-200.000	-0.039	-0.234
-154.677	-88.142	0.167	0.050
-153.662	-68.911	-0.294	-0.113
-152.647	-183.715	0.084	0.001
-151.633	98.023	0.186	0.214
-150.618	-25.182	-0.067	-0.039
-149.604	-39.693	0.171	0.089
-148.589	-92.643	-0.176	0.049
-147.574	-200.000	0.002	-0.296
-146.560	522.399	-0.142	0.333
-145.545	61.036	0.168	-0.167
-144.531	-140.779	-0.070	0.007
-143.516	-200.000	0.015	0.134
-142.502	109.520	0.113	-0.135
-141.487	55.393	-0.081	-0.078
-140.472	-200.000	-0.010	-0.169
-139.458	-91.913	0.280	0.079
-138.443	800.000	-0.069	-0.213
-137.429	-80.795	0.499	-0.166
-136.414	111.939	-0.084	-0.101
-135.399	-88.843	0.170	0.050
-134.385	800.000	0.064	0.200
-133.370	-55.535	0.276	0.123
-132.356	-60.375	0.123	-0.052
-131.341	-84.958	-0.211	0.066
-130.326	9.724	-0.145	0.110
-129.312	28.003	0.054	0.045
-128.297	86.726	0.074	-0.081
-127.283	-180.131	-0.175	-0.004
-126.268	60.362	-0.152	-0.150
-125.253	62.947	0.104	0.104
-124.239	-45.418	0.128	-0.063
-123.224	-149.074	-0.239	-0.019
-122.210	-22.193	-0.191	0.115
-121.195	161.972	0.123	-0.172
