DTS Sentinel unit serial number:	SN413079Multiplexer serial number:	ORYXHardware model number:	OX4-SRSoftware version number:	ORYX F/W v4.00 Oryx Data Collector v3.7.2.0data status	okinstallation	princeton_trtdifferential loss correction	single-endedforward channel	channel 1reverse channel	N/Adate	2019/09/11time	23:20:11forward acquisition time	60.00reverse acquisition time	0.00gamma	496.2192k internal	0.2318k external	0.2318temperature offset calibration	1.0061default loss term (dB/km)	0.3790temperature slope calibration	1.0000multiplexer offset coefficient	1.0000multiplexer slope coefficient	1.0000fibre end	0.00T internal ref (°C)	34.37T ext. ref 1 (°C)	1.86T ext. ref 2 (°C)	28.60length (m)	temperature (°C)	Stokes	anti-Stokes-747.200	-178.352	0.131	0.003
-746.185	65.194	-0.395	0.404
-745.171	-200.000	0.010	0.113
-744.156	-31.956	-0.304	0.172
-743.142	-61.791	0.095	0.040
-742.127	-43.965	0.220	0.112
-741.112	-20.195	0.185	-0.116
-740.098	-95.053	-0.228	0.062
-739.083	-144.661	-0.251	0.023
-738.069	-7.850	-0.168	0.115
-737.054	-35.616	0.175	0.096
-736.039	800.000	-0.038	-0.166
-735.025	-43.870	0.216	0.110
-734.010	-69.821	-0.201	-0.078
-732.996	-184.047	-0.298	0.005
-731.981	-102.695	-0.147	-0.035
-730.966	-95.590	0.310	-0.084
-729.952	-165.514	-0.154	0.007
-728.937	-147.359	-0.365	0.031
-727.923	-118.342	0.121	-0.022
-726.908	-55.838	0.070	0.032
-725.894	625.328	-0.039	0.099
-724.879	5.918	0.327	-0.245
-723.864	-94.298	0.258	-0.071
-722.850	124.251	-0.153	-0.195
-721.835	574.410	0.088	-0.217
-720.821	337.879	-0.092	0.181
-719.806	44.758	0.112	0.104
-718.791	121.088	0.126	0.158
-717.777	-200.000	-0.003	-0.271
-716.762	-106.291	0.313	-0.071
-715.748	-140.881	-0.346	-0.036
-714.733	63.797	-0.197	0.200
-713.718	385.550	0.157	-0.328
-712.704	-15.300	-0.206	-0.133
-711.689	-127.026	0.351	-0.052
-710.675	-60.945	0.055	0.023
-709.660	800.000	-0.077	-0.220
-708.645	-7.971	-0.091	-0.062
-707.631	-86.916	-0.147	0.045
-706.616	-74.252	-0.368	-0.134
-705.602	586.669	-0.045	0.113
-704.587	63.064	-0.082	0.083
-703.572	-200.000	-0.005	-0.046
-702.558	13.041	-0.237	0.185
-701.543	-140.407	0.236	0.025
-700.529	97.536	-0.174	-0.202
-699.514	61.179	0.123	-0.123
-698.499	-11.502	0.190	-0.126
-697.485	-110.828	-0.164	0.034
-696.470	-200.000	0.001	0.045
-695.456	-20.416	0.204	-0.127
-694.441	-200.000	-0.035	0.252
-693.426	41.517	-0.168	-0.154
-692.412	-111.675	-0.167	-0.034
-691.397	96.695	0.149	-0.172
-690.383	155.337	-0.078	-0.108
-689.368	-152.478	-0.382	-0.028
-688.354	532.796	0.096	-0.230
-687.339	136.888	-0.109	0.144
-686.324	-66.423	0.411	0.165
-685.310	112.209	0.104	-0.127
-684.295	-170.345	0.284	0.010
-683.281	-4.786	-0.319	-0.222
-682.266	-200.000	-0.021	-0.132
-681.251	-200.000	-0.032	-0.196
-680.237	43.443	-0.137	-0.126
-679.222	800.000	-0.076	0.288
-678.208	-110.460	0.198	0.042
-677.193	-200.000	0.031	-0.354
-676.178	-169.542	-0.182	-0.007
-675.164	-78.484	-0.217	-0.075
-674.149	800.000	-0.070	0.256
-673.135	770.613	0.082	0.224
-672.120	-200.000	-0.015	0.153
-671.105	-200.000	-0.005	0.340
-670.091	-61.757	-0.176	0.074
-669.076	-200.000	-0.028	-0.454
-668.062	-17.796	-0.165	-0.104
-667.047	-119.211	0.051	0.009
-666.032	151.280	0.262	-0.360
-665.018	161.207	0.227	-0.321
-664.003	-200.000	0.095	-0.571
-662.989	-200.000	0.058	0.267
-661.974	329.140	-0.158	0.305
-660.959	-7.032	0.330	-0.226
-659.945	-126.291	-0.194	0.029
-658.930	-49.511	0.049	-0.024
-657.916	12.948	0.228	-0.178
-656.901	-200.000	-0.063	-0.287
-655.886	25.273	0.356	-0.298
-654.872	330.911	-0.129	-0.251
-653.857	13.711	0.020	0.015
-652.843	120.926	-0.101	-0.127
-651.828	254.013	-0.121	-0.208
-650.814	-124.857	-0.209	0.032
-649.799	-29.747	0.186	-0.107
-648.784	-56.238	-0.140	0.063
-647.770	-55.193	-0.283	-0.128
-646.755	-130.603	-0.257	-0.035
-645.741	-48.539	-0.163	-0.079
-644.726	229.817	-0.082	-0.135
-643.711	-200.000	0.018	-0.130
-642.697	64.088	0.135	-0.137
-641.682	-200.000	-0.010	-0.139
-640.668	0.549	0.233	0.168
-639.653	-102.186	-0.334	0.081
-638.638	-200.000	0.048	-0.428
-637.624	-29.832	0.061	-0.035
-636.609	-100.188	-0.199	0.050
-635.595	102.534	-0.349	-0.411
-634.580	-28.205	-0.098	-0.057
-633.565	-200.000	-0.037	-0.264
-632.551	-62.906	-0.378	-0.157
-631.536	96.150	0.073	-0.084
-630.522	-200.000	-0.009	-0.052
-629.507	461.625	0.025	0.056
-628.492	32.909	-0.279	-0.243
-627.478	34.110	-0.268	-0.235
-626.463	-79.493	-0.095	0.032
-625.449	-151.853	-0.324	-0.024
-624.434	212.301	0.069	-0.110
-623.419	435.133	-0.100	-0.220
-622.405	800.000	0.058	-0.217
-621.390	-47.874	0.338	-0.165
-620.376	130.216	0.185	-0.239
-619.361	21.818	0.067	0.055
-618.346	-102.145	-0.387	-0.094
-617.332	552.322	-0.013	-0.032
-616.317	-200.000	-0.013	0.121
-615.303	392.279	-0.024	0.051
-614.288	-98.054	-0.157	0.041
-613.273	32.808	-0.265	0.231
-612.259	14.637	-0.114	-0.090
-611.244	-29.419	0.390	-0.224
-610.230	-200.000	-0.003	-0.101
-609.215	19.852	0.127	-0.103
-608.201	-9.727	-0.107	0.071
-607.186	-117.099	-0.030	0.005
-606.171	800.000	0.059	-0.191
-605.157	-103.323	0.276	0.066
-604.142	-96.766	0.126	-0.033
-603.128	151.906	0.152	0.209
-602.113	800.000	0.112	-0.323
-601.098	-200.000	-0.009	-0.278
-600.084	11.756	0.146	-0.113
-599.069	298.005	-0.032	-0.059
-598.055	617.794	-0.153	0.386
-597.040	-69.834	0.320	0.123
-596.025	-130.500	-0.219	0.030
-595.011	135.668	-0.084	0.110
-593.996	73.867	0.173	0.183
-592.982	249.398	-0.176	-0.300
-591.967	427.226	-0.021	-0.047
-590.952	225.189	-0.271	0.441
-589.938	800.000	0.044	0.150
-588.923	143.150	0.110	-0.148
-587.909	443.037	0.224	0.493
-586.894	-36.706	-0.307	-0.166
-585.879	-35.728	-0.246	0.134
-584.865	304.501	0.133	0.248
-583.850	-200.000	-0.120	-0.000
-582.836	-110.802	0.361	0.075
-581.821	-200.000	-0.047	-0.289
-580.806	757.634	-0.064	-0.173
-579.792	-143.969	-0.175	-0.017
-578.777	92.539	0.259	0.294
-577.763	-39.945	0.138	0.072
-576.748	-200.000	-0.012	0.303
-575.733	243.859	-0.093	0.157
-574.719	164.711	0.239	0.338
-573.704	-189.026	-0.385	-0.005
-572.690	494.380	-0.175	0.405
-571.675	104.580	0.159	-0.188
-570.661	-21.424	-0.157	0.096
-569.646	-19.657	-0.036	-0.022
-568.631	336.765	0.088	0.171
-567.617	37.933	0.266	0.237
-566.602	800.000	-0.085	0.287
-565.588	-81.795	-0.236	0.078
-564.573	263.812	0.190	-0.332
-563.558	-127.649	-0.175	-0.025
-562.544	-7.645	0.100	0.068
-561.529	-21.607	0.237	-0.145
-560.515	347.004	-0.077	-0.153
-559.500	-139.412	0.202	0.022
-558.485	800.000	0.140	-0.421
-557.471	419.008	-0.097	-0.209
-556.456	-22.593	-0.253	-0.154
-555.442	-183.543	0.303	-0.005
-554.427	-8.472	0.144	0.097
-553.412	-120.161	0.304	-0.052
-552.398	189.423	0.251	-0.378
-551.383	800.000	0.023	0.069
-550.369	194.424	-0.049	0.074
-549.354	-79.942	0.116	-0.039
-548.339	286.516	0.207	-0.374
-547.325	31.978	0.135	-0.117
-546.310	-44.026	-0.063	-0.032
-545.296	-4.940	-0.091	-0.063
-544.281	-180.314	-0.078	-0.002
-543.266	-53.931	0.300	-0.137
-542.252	-200.000	0.036	0.224
-541.237	297.465	0.063	0.116
-540.223	1.717	0.330	-0.238
-539.208	113.377	0.294	-0.358
-538.193	-34.934	-0.145	0.080
-537.179	-17.583	0.344	0.217
-536.164	-51.403	-0.129	0.061
-535.150	-107.742	0.037	0.008
-534.135	800.000	-0.105	0.325
-533.121	-72.407	-0.326	0.121
-532.106	55.158	-0.091	0.088
-531.091	-200.000	-0.060	-0.381
-530.077	-200.000	0.054	-0.346
-529.062	33.054	-0.036	0.031
-528.048	-35.001	-0.174	0.095
-527.033	191.454	0.193	0.292
-526.018	19.474	0.082	0.066
-525.004	-46.938	-0.240	-0.118
-523.989	-200.000	0.074	0.485
-522.975	-37.700	-0.198	-0.106
-521.960	-20.813	0.109	-0.067
-520.945	-15.916	0.113	-0.072
-519.931	-65.000	0.145	0.059
-518.916	-57.225	-0.252	-0.111
-517.902	144.998	-0.097	-0.130
-516.887	-60.455	-0.071	0.030
-515.872	34.728	0.177	0.155
-514.858	-200.000	-0.071	0.320
-513.843	-97.437	0.221	-0.058
-512.829	-131.273	-0.122	0.016
-511.814	667.621	0.127	0.329
-510.799	-116.001	-0.109	0.020
-509.785	-104.615	-0.118	0.027
-508.770	91.321	-0.088	-0.099
-507.756	141.273	-0.019	0.025
-506.741	11.243	-0.277	-0.212
-505.726	-200.000	-0.022	0.159
-504.712	769.605	0.100	0.274
-503.697	-49.719	-0.300	0.143
-502.683	-200.000	0.048	0.224
-501.668	55.059	0.088	0.085
-500.653	-16.011	-0.308	0.196
-499.639	800.000	-0.122	-0.426
-498.624	141.957	-0.039	0.052
-497.610	116.776	-0.129	-0.159
-496.595	-165.748	-0.389	-0.017
-495.581	-104.306	-0.532	0.124
-494.566	800.000	0.080	-0.224
-493.551	-119.465	-0.500	-0.087
-492.537	70.615	0.069	0.072
-491.522	119.224	0.091	0.112
-490.508	172.929	0.119	0.171
-489.493	-200.000	0.010	0.211
-488.478	800.000	0.135	-0.393
-487.464	-73.180	-0.207	-0.076
-486.449	-200.000	-0.015	-0.212
-485.435	271.248	0.045	0.079
-484.420	-22.285	-0.279	-0.170
-483.405	-200.000	-0.006	-0.179
-482.391	71.385	0.157	-0.163
-481.376	-200.000	0.080	0.389
-480.362	14.915	0.139	0.109
-479.347	58.692	-0.212	-0.208
-478.332	299.918	-0.269	-0.497
-477.318	-119.461	-0.583	-0.101
-476.303	800.000	-0.054	0.181
-475.289	149.740	0.146	0.198
-474.274	148.945	0.116	-0.157
-473.259	-200.000	-0.009	-0.306
-472.245	-95.902	0.309	-0.083
-471.230	-97.608	-0.214	-0.056
-470.216	293.610	-0.071	0.129
-469.201	328.592	-0.158	0.303
-468.186	-58.027	0.123	0.054
-467.172	800.000	-0.107	-0.353
-466.157	728.576	0.018	-0.048
-465.143	-58.793	0.236	-0.102
-464.128	117.747	0.035	-0.043
-463.113	-21.935	-0.190	-0.115
-462.099	800.000	0.025	0.107
-461.084	-72.022	-0.107	0.040
-460.070	273.276	0.059	-0.104
-459.055	-2.933	0.179	0.125
-458.040	-200.000	0.015	0.220
-457.026	-165.396	-0.251	-0.011
-456.011	213.714	0.227	0.359
-454.997	153.787	-0.118	0.162
-453.982	-94.960	0.142	0.038
-452.968	-200.000	0.021	-0.205
-451.953	-140.988	-0.313	0.032
-450.938	531.705	0.011	0.026
-449.924	-126.789	-0.264	0.039
-448.909	166.646	-0.035	0.049
-447.895	76.173	0.252	0.267
-446.880	697.133	0.078	-0.205
-445.865	-67.166	0.190	-0.075
-444.851	-200.000	-0.003	-0.043
-443.836	800.000	-0.077	0.230
-442.822	784.710	0.197	0.539
-441.807	49.332	0.145	0.136
-440.792	-200.000	0.040	-0.414
-439.778	800.000	-0.059	-0.179
-438.763	-95.188	0.294	-0.079
-437.749	-200.000	-0.019	-0.168
-436.734	110.741	-0.071	0.085
-435.719	70.962	0.115	-0.119
-434.705	-100.345	-0.204	-0.050
-433.690	-101.250	-0.394	-0.096
-432.676	800.000	0.125	-0.464
-431.661	63.681	0.375	-0.376
-430.646	-145.666	-0.185	-0.016
-429.632	52.272	-0.164	0.157
-428.617	800.000	0.028	0.090
-427.603	185.156	-0.180	0.267
-426.588	-46.356	0.179	-0.088
-425.573	32.904	0.181	-0.157
-424.559	800.000	-0.042	-0.138
-423.544	-9.768	-0.151	-0.100
-422.530	-200.000	-0.016	-0.143
-421.515	51.569	0.140	-0.133
-420.500	-34.016	-0.110	0.060
-419.486	205.259	0.075	0.117
-418.471	-30.648	-0.225	-0.127
-417.457	-56.983	-0.274	0.121
-416.442	-200.000	0.032	0.278
-415.428	79.111	-0.037	0.039
-414.413	278.905	-0.047	0.084
-413.398	-39.914	0.283	0.148
-412.384	-58.385	-0.145	0.063
-411.369	-74.018	0.030	0.011
-410.355	800.000	-0.098	-0.312
-409.340	-121.024	0.134	-0.022
-408.325	-200.000	0.060	-0.430
-407.311	-200.000	0.012	-0.224
-406.296	213.131	-0.181	-0.285
-405.282	-32.606	0.167	-0.093
-404.267	-133.709	-0.129	-0.016
-403.252	53.770	-0.127	-0.121
-402.238	-174.476	-0.015	0.000
-401.223	800.000	-0.073	-0.315
-400.209	-55.660	-0.195	-0.087
-399.194	800.000	-0.098	-0.337
-398.179	-109.076	0.109	0.023
-397.165	-44.499	0.100	-0.050
-396.150	-116.058	-0.173	-0.032
-395.136	800.000	-0.098	0.271
-394.121	800.000	0.030	-0.103
-393.106	800.000	-0.029	-0.120
-392.092	-200.000	0.027	-0.328
-391.077	10.139	0.221	0.168
-390.063	46.414	-0.092	-0.085
-389.048	800.000	-0.082	-0.267
-388.033	648.087	0.130	0.333
-387.019	62.153	0.138	-0.137
-386.004	-145.107	-0.038	-0.003
-384.990	-200.000	-0.028	0.180
-383.975	77.513	0.250	0.265
-382.960	65.213	-0.039	0.039
-381.946	101.914	-0.233	0.271
-380.931	321.610	-0.237	0.450
-379.917	745.175	0.186	0.500
-378.902	-104.017	-0.135	0.031
-377.888	320.171	0.104	0.197
-376.873	437.301	0.060	-0.130
-375.858	800.000	0.024	-0.067
-374.844	78.868	0.165	-0.176
-373.829	-80.754	0.244	-0.081
-372.815	-41.964	-0.109	0.056
-371.800	64.879	0.160	0.161
-370.785	-104.191	-0.162	0.037
-369.771	185.011	-0.158	0.234
-368.756	-77.542	0.202	0.070
-367.742	-142.454	0.354	0.035
-366.727	800.000	-0.045	0.183
-365.712	800.000	-0.009	0.030
-364.698	47.458	-0.143	-0.133
-363.683	31.991	0.101	0.087
-362.669	684.801	-0.058	0.152
-361.654	25.381	0.074	-0.061
-360.639	-78.658	-0.421	-0.143
-359.625	800.000	0.094	0.305
-358.610	-200.000	0.008	0.254
-357.596	487.586	-0.131	-0.298
-356.581	-200.000	-0.019	-0.110
-355.566	142.693	-0.049	-0.065
-354.552	-200.000	-0.002	-0.289
-353.537	800.000	0.029	0.099
-352.523	-200.000	0.005	0.176
-351.508	800.000	0.044	-0.168
-350.493	-142.897	-0.054	-0.005
-349.479	81.622	0.277	-0.298
-348.464	48.354	-0.020	-0.019
-347.450	-6.113	-0.116	0.079
-346.435	-200.000	-0.002	0.195
-345.420	-164.531	-0.154	0.007
-344.406	-99.879	-0.181	0.045
-343.391	-15.468	-0.268	-0.170
-342.377	-57.048	0.398	-0.175
-341.362	-127.147	0.523	-0.076
-340.348	-55.456	-0.123	-0.055
-339.333	175.876	0.128	0.185
-338.318	595.137	-0.172	0.423
-337.304	7.706	-0.144	-0.107
-336.289	266.644	0.197	0.343
-335.275	115.753	0.104	-0.126
-334.260	-200.000	0.089	-0.445
-333.245	-124.050	0.117	0.018
-332.231	-3.107	0.054	0.038
-331.216	-162.038	-0.053	-0.003
-330.202	800.000	-0.075	-0.240
-329.187	149.442	-0.109	-0.147
-328.172	672.601	-0.067	-0.174
-327.158	776.552	0.124	0.336
-326.143	13.855	-0.170	0.132
-325.129	800.000	0.138	0.391
-324.114	-1.559	0.151	0.106
-323.099	-99.093	0.101	-0.026
-322.085	-102.537	-0.156	0.037
-321.070	93.938	0.216	0.244
-320.056	145.154	-0.046	0.062
-319.041	-81.926	-0.393	-0.128
-318.026	202.070	0.306	0.469
-317.012	70.702	-0.008	0.008
-315.997	-135.584	-0.086	0.010
-314.983	53.419	-0.066	0.063
-313.968	23.059	-0.041	0.033
-312.953	-71.445	-0.111	-0.041
-311.939	-130.524	0.206	0.028
-310.924	-200.000	0.008	0.159
-309.910	-153.823	0.082	0.006
-308.895	-200.000	-0.035	0.252
-307.880	361.492	-0.064	-0.127
-306.866	18.359	-0.177	-0.141
-305.851	-200.000	0.016	0.364
-304.837	57.603	0.142	-0.138
-303.822	-16.881	0.125	0.079
-302.807	594.558	-0.068	0.168
-301.793	-200.000	-0.030	-0.217
-300.778	800.000	0.060	-0.201
-299.764	800.000	-0.164	-0.501
-298.749	28.990	0.028	0.024
-297.735	68.897	-0.051	0.052
-296.720	800.000	0.087	-0.321
-295.705	162.154	-0.059	-0.082
-294.691	44.515	-0.043	-0.040
-293.676	-200.000	-0.005	0.236
-292.662	-1.168	0.133	-0.094
-291.647	-68.485	0.040	-0.015
-290.632	-200.000	0.047	0.254
-289.618	37.614	-0.151	-0.133
-288.603	8.359	0.142	0.106
-287.589	-37.493	-0.122	0.065
-286.574	800.000	0.062	-0.243
-285.559	79.241	-0.055	-0.058
-284.545	-133.025	0.092	-0.012
-283.530	572.096	0.078	-0.190
-282.516	800.000	-0.115	-0.316
-281.501	-159.595	-0.244	0.013
-280.486	393.836	0.029	-0.061
-279.472	-125.965	-0.172	0.026
-278.457	-124.309	-0.084	-0.013
-277.443	800.000	0.034	-0.142
-276.428	39.517	-0.182	0.162
-275.413	-83.028	0.178	0.057
-274.399	-13.440	0.153	0.099
-273.384	800.000	-0.076	-0.266
-272.370	240.010	0.066	0.109
-271.355	-57.850	0.287	-0.125
-270.340	-64.353	0.148	-0.060
-269.326	150.297	0.111	-0.150
-268.311	-200.000	-0.032	-0.312
-267.297	-106.438	-0.118	0.026
-266.282	79.553	0.369	0.393
-265.267	-200.000	-0.009	0.176
-264.253	-200.000	0.027	-0.178
-263.238	800.000	-0.044	-0.189
-262.224	-200.000	0.018	-0.146
-261.209	-200.000	-0.027	-0.196
-260.195	-200.000	-0.033	0.447
-259.180	-107.258	0.120	-0.026
-258.165	26.930	-0.229	0.191
-257.151	302.457	-0.060	-0.109
-256.136	-57.109	-0.272	-0.119
-255.122	-200.000	-0.016	0.214
-254.107	134.216	-0.086	-0.110
-253.092	-0.835	0.175	-0.123
-252.078	-200.000	-0.039	0.224
-251.063	248.935	0.183	0.308
-250.049	-117.951	0.363	-0.065
-249.034	434.974	0.093	0.202
-248.019	800.000	-0.013	0.048
-247.005	193.612	-0.125	0.188
-245.990	-103.639	-0.282	0.066
-244.976	172.714	-0.086	0.123
-243.961	-200.000	0.036	-0.219
-242.946	37.552	0.166	0.146
-241.932	71.824	-0.200	0.206
-240.917	-140.006	0.253	-0.026
-239.903	-75.448	0.261	-0.092
-238.888	-127.508	-0.161	-0.023
-237.873	-63.346	0.232	-0.095
-236.859	61.996	0.306	0.303
-235.844	713.523	0.044	-0.117
-234.830	7.318	0.054	0.040
-233.815	-200.000	0.046	-0.323
-232.800	-109.996	0.214	0.044
-231.786	31.464	0.240	-0.204
-230.771	127.418	0.116	-0.145
-229.757	-200.000	0.011	-0.056
-228.742	78.576	-0.240	-0.254
-227.727	165.300	0.153	0.215
-226.713	-200.000	0.021	0.413
-225.698	-200.000	-0.003	0.126
-224.684	800.000	-0.026	-0.081
-223.669	-73.410	-0.337	-0.122
-222.655	6.981	0.347	0.256
-221.640	289.568	-0.113	0.202
-220.625	211.023	0.079	-0.124
-219.611	-63.495	-0.052	0.021
-218.596	-27.985	0.070	0.040
-217.582	-200.000	-0.004	-0.166
-216.567	800.000	0.064	-0.212
-215.552	144.672	-0.119	0.158
-214.538	73.121	-0.161	0.167
-213.523	-23.815	0.329	-0.195
-212.509	-26.235	-0.430	0.250
-211.494	-31.273	-0.150	0.084
-210.479	-134.312	-0.230	0.028
-209.465	-200.000	-0.000	-0.194
-208.450	-114.046	0.287	-0.055
-207.436	754.689	-0.093	-0.250
-206.421	58.699	0.266	0.259
-205.406	215.946	0.199	0.314
-204.392	154.019	0.122	0.166
-203.377	800.000	0.110	0.302
-202.363	-54.464	0.095	0.043
-201.348	-120.886	-0.221	0.037
-200.333	800.000	-0.029	-0.123
-199.319	143.036	-0.011	0.015
-198.304	-126.557	-0.203	-0.030
-197.290	15.251	-0.151	0.117
-196.275	-200.000	-0.031	0.363
-195.260	291.175	0.105	-0.189
-194.246	370.635	0.241	0.484
-193.231	-200.000	-0.008	0.332
-192.217	651.831	0.125	0.317
-191.202	800.000	0.056	0.175
-190.187	93.325	0.148	-0.166
-189.173	800.000	-0.035	-0.119
-188.158	11.564	0.011	0.008
-187.144	-85.611	-0.165	0.051
-186.129	195.308	-0.076	0.114
-185.114	17.522	0.226	-0.178
-184.100	-200.000	-0.006	0.082
-183.085	-137.297	-0.177	-0.020
-182.071	-200.000	-0.014	0.091
-181.056	-200.000	0.011	0.180
-180.042	-62.299	0.283	-0.117
-179.027	-200.000	0.003	0.015
-178.012	-200.000	0.007	0.208
-176.998	-97.753	0.019	0.005
-175.983	274.130	-0.079	-0.138
-174.969	800.000	0.009	0.027
-173.954	-11.990	-0.291	0.189
-172.939	-137.142	0.335	0.038
-171.925	2.428	-0.128	0.092
-170.910	6.619	-0.102	0.075
-169.896	-172.378	-0.101	-0.003
-168.881	239.481	0.090	0.149
-167.866	-161.689	0.049	0.002
-166.852	-84.098	0.120	0.038
-165.837	692.038	-0.104	-0.271
-164.823	-16.269	-0.452	0.284
-163.808	29.398	0.270	-0.227
-162.793	-102.811	0.414	-0.098
-161.779	-108.276	0.210	0.045
-160.764	609.979	-0.037	-0.091
-159.750	-107.062	0.018	-0.004
-158.735	482.008	0.111	0.249
-157.720	-200.000	0.007	0.033
-156.706	32.327	0.240	-0.205
-155.691	191.717	0.090	-0.135
-154.677	-99.115	0.249	0.062
-153.662	-31.135	-0.124	0.069
-152.647	-200.000	0.002	0.032
-151.633	39.527	0.230	-0.204
-150.618	-200.000	-0.003	-0.155
-149.604	348.303	0.010	0.020
-148.589	50.922	0.182	-0.171
-147.574	-123.510	0.245	0.039
-146.560	-61.514	-0.103	0.043
-145.545	-44.457	0.082	-0.040
-144.531	223.034	-0.041	-0.065
-143.516	-77.489	-0.189	0.065
-142.502	-43.677	0.075	0.038
-141.487	-200.000	-0.015	0.077
-140.472	-110.329	0.142	-0.029
-139.458	-200.000	-0.023	-0.103
-138.443	-200.000	0.011	-0.092
-137.429	-200.000	0.021	-0.167
-136.414	294.038	0.156	0.281
-135.399	-147.228	0.329	-0.028
-134.385	129.351	0.102	0.128
-133.370	-91.561	-0.073	0.021
-132.356	133.911	0.107	0.137
-131.341	-200.000	-0.001	-0.198
-130.326	-52.218	0.108	0.049
-129.312	-59.025	0.145	-0.062
-128.297	266.746	0.252	0.435
-127.283	-34.084	0.087	0.047
-126.268	-119.792	0.165	-0.028
-125.253	-200.000	0.004	0.448
-124.239	-200.000	0.001	0.334
-123.224	-200.000	0.015	-0.320
-122.210	-32.087	-0.280	-0.155
-121.195	47.426	-0.481	-0.442
