DTS Sentinel unit serial number:	SN413079Multiplexer serial number:	ORYXHardware model number:	OX4-SRSoftware version number:	ORYX F/W v4.00 Oryx Data Collector v3.7.2.0data status	okinstallation	princeton_trtdifferential loss correction	single-endedforward channel	channel 1reverse channel	N/Adate	2019/09/11time	05:28:11forward acquisition time	60.00reverse acquisition time	0.00gamma	496.2192k internal	0.2331k external	0.2331temperature offset calibration	0.9924default loss term (dB/km)	0.3790temperature slope calibration	1.0000multiplexer offset coefficient	1.0000multiplexer slope coefficient	1.0000fibre end	0.00T internal ref (°C)	29.42T ext. ref 1 (°C)	-0.25T ext. ref 2 (°C)	23.35length (m)	temperature (°C)	Stokes	anti-Stokes-747.200	-32.082	0.119	-0.067
-746.185	-111.332	-0.278	0.057
-745.171	676.671	-0.025	0.066
-744.156	126.864	0.029	0.037
-743.142	-21.197	0.129	-0.080
-742.127	-69.947	0.145	-0.056
-741.112	58.969	-0.182	0.180
-740.098	-200.000	-0.014	0.093
-739.083	800.000	-0.015	-0.061
-738.069	-200.000	0.078	0.469
-737.054	598.459	0.059	0.147
-736.039	251.601	-0.036	0.062
-735.025	-6.947	0.293	0.200
-734.010	297.922	0.091	0.169
-732.996	-48.292	-0.358	-0.173
-731.981	-66.501	-0.134	0.053
-730.966	-200.000	0.009	-0.053
-729.952	-56.900	0.171	0.076
-728.937	392.309	-0.083	0.173
-727.923	-25.128	-0.081	-0.048
-726.908	99.745	-0.188	-0.219
-725.894	357.333	0.034	-0.069
-724.879	76.265	-0.225	-0.240
-723.864	-122.568	0.290	0.047
-722.850	-200.000	-0.000	-0.215
-721.835	408.308	-0.065	-0.138
-720.821	-200.000	-0.032	0.255
-719.806	-177.977	0.251	-0.006
-718.791	46.404	0.325	0.303
-717.777	-200.000	-0.010	-0.086
-716.762	-50.137	-0.230	0.109
-715.748	-83.115	-0.191	0.062
-714.733	36.555	-0.226	-0.200
-713.718	-101.088	-0.153	0.038
-712.704	-200.000	-0.006	-0.236
-711.689	-20.274	-0.241	-0.149
-710.675	-200.000	0.015	-0.147
-709.660	19.175	0.075	0.060
-708.645	-200.000	0.029	-0.139
-707.631	117.761	0.161	-0.199
-706.616	-200.000	0.033	-0.160
-705.602	15.135	-0.054	-0.043
-704.587	1.045	-0.065	-0.047
-703.572	-21.581	-0.358	-0.219
-702.558	-105.800	-0.342	-0.078
-701.543	-55.644	-0.090	-0.040
-700.529	-137.541	0.197	0.022
-699.514	28.366	0.094	0.080
-698.499	-80.032	0.102	-0.035
-697.485	-156.796	-0.212	0.013
-696.470	58.325	-0.012	-0.012
-695.456	-200.000	0.052	-0.289
-694.441	800.000	-0.034	-0.109
-693.426	-185.467	-0.199	-0.003
-692.412	111.822	-0.072	-0.087
-691.397	800.000	0.180	0.507
-690.383	-9.925	-0.248	-0.166
-689.368	-95.132	-0.203	0.055
-688.354	-62.140	0.330	-0.138
-687.339	571.108	-0.121	-0.297
-686.324	705.161	0.049	0.130
-685.310	800.000	-0.100	0.324
-684.295	-170.392	-0.167	-0.006
-683.281	-200.000	0.002	0.060
-682.266	753.400	0.130	-0.352
-681.251	213.741	0.130	0.206
-680.237	-200.000	0.015	0.138
-679.222	-30.753	-0.094	-0.054
-678.208	-200.000	0.024	0.148
-677.193	519.022	0.154	0.363
-676.178	-71.764	0.243	0.091
-675.164	-39.060	0.166	0.088
-674.149	-200.000	-0.020	-0.094
-673.135	-111.956	0.254	0.051
-672.120	800.000	-0.123	-0.434
-671.105	553.791	-0.167	-0.404
-670.091	192.166	-0.146	0.221
-669.076	-200.000	0.051	0.338
-668.062	-200.000	0.009	-0.283
-667.047	316.695	-0.053	0.101
-666.032	-42.918	0.371	-0.189
-665.018	155.204	0.074	-0.102
-664.003	55.467	-0.084	-0.081
-662.989	11.906	-0.160	0.124
-661.974	109.004	0.249	0.299
-660.959	-118.855	-0.239	0.042
-659.945	-122.331	-0.177	-0.029
-658.930	43.351	-0.060	0.055
-657.916	-44.901	0.385	-0.192
-656.901	-63.622	0.123	0.051
-655.886	625.627	-0.047	0.119
-654.872	211.500	-0.185	0.292
-653.857	-200.000	-0.013	0.093
-652.843	-200.000	-0.018	0.145
-651.828	800.000	0.011	0.049
-650.814	-173.034	0.377	-0.012
-649.799	41.421	-0.108	0.098
-648.784	33.903	0.076	0.066
-647.770	-5.316	0.142	0.098
-646.755	-84.722	0.281	0.089
-645.741	189.984	0.092	-0.139
-644.726	22.416	-0.156	-0.128
-643.711	-16.530	0.035	-0.022
-642.697	-127.124	0.126	0.018
-641.682	148.937	0.116	-0.158
-640.668	35.062	-0.105	0.092
-639.653	5.122	0.145	-0.107
-638.638	127.366	0.127	0.161
-637.624	195.947	-0.200	0.305
-636.609	-42.632	0.051	-0.026
-635.595	43.659	0.107	0.098
-634.580	2.852	0.240	-0.175
-633.565	800.000	-0.014	-0.055
-632.551	148.013	0.147	-0.198
-631.536	278.990	-0.187	-0.334
-630.522	-200.000	-0.022	-0.126
-629.507	800.000	0.098	-0.304
-628.492	-120.076	-0.211	0.036
-627.478	-117.753	0.288	0.052
-626.463	-46.584	0.295	-0.145
-625.449	-200.000	0.030	0.153
-624.434	697.145	-0.091	0.238
-623.419	296.007	0.098	0.180
-622.405	800.000	0.065	0.210
-621.390	-200.000	-0.009	0.199
-620.376	-17.295	-0.056	-0.035
-619.361	2.074	-0.099	-0.071
-618.346	226.175	-0.084	-0.137
-617.332	-200.000	0.031	-0.186
-616.317	-80.505	0.272	0.091
-615.303	-136.996	-0.217	-0.025
-614.288	-97.246	0.152	-0.040
-613.273	2.438	0.262	-0.190
-612.259	-55.034	0.179	0.081
-611.244	-200.000	0.029	-0.150
-610.230	800.000	0.052	-0.153
-609.215	16.471	-0.290	0.229
-608.201	-46.107	-0.195	0.096
-607.186	25.462	0.266	-0.222
-606.171	800.000	-0.044	0.184
-605.157	-200.000	-0.012	0.099
-604.142	-200.000	-0.033	0.158
-603.128	-48.373	-0.384	-0.185
-602.113	148.601	0.137	-0.185
-601.098	800.000	0.055	0.178
-600.084	-163.276	0.082	0.004
-599.069	152.909	0.084	0.115
-598.055	41.018	-0.116	0.105
-597.040	194.876	-0.038	-0.058
-596.025	52.490	0.242	0.231
-595.011	154.357	-0.097	0.133
-593.996	-200.000	0.016	-0.093
-592.982	168.497	0.065	-0.092
-591.967	800.000	0.040	-0.120
-590.952	129.452	0.088	0.113
-589.938	-13.145	0.137	0.089
-588.923	-200.000	0.000	-0.041
-587.909	316.073	0.061	-0.114
-586.894	67.813	0.088	-0.091
-585.879	29.188	0.174	0.148
-584.865	-79.488	-0.328	0.111
-583.850	-124.013	-0.429	0.067
-582.836	-190.277	0.184	-0.002
-581.821	-160.593	0.174	0.009
-580.806	-118.842	-0.306	0.054
-579.792	-86.890	-0.266	-0.081
-578.777	-95.718	-0.335	0.090
-577.763	106.219	0.021	-0.024
-576.748	-33.239	-0.090	-0.050
-575.733	800.000	0.037	-0.139
-574.719	313.052	-0.117	-0.220
-573.704	-112.332	-0.157	0.032
-572.690	41.358	0.197	0.178
-571.675	4.186	-0.122	-0.089
-570.661	728.318	0.094	0.251
-569.646	-74.438	-0.089	-0.032
-568.631	529.865	-0.089	-0.210
-567.617	-121.353	-0.324	-0.054
-566.602	-77.320	-0.140	0.049
-565.588	-124.041	-0.151	-0.024
-564.573	-1.515	0.083	-0.058
-563.558	800.000	0.037	0.143
-562.544	-52.959	-0.143	0.066
-561.529	800.000	-0.091	0.301
-560.515	-58.529	-0.267	0.116
-559.500	800.000	-0.090	-0.383
-558.485	-106.854	0.116	0.026
-557.471	217.876	0.135	-0.216
-556.456	-195.584	-0.231	0.002
-555.442	44.471	-0.172	0.158
-554.427	569.367	-0.288	-0.700
-553.412	-120.698	-0.295	0.050
-552.398	186.141	0.211	-0.313
-551.383	-15.619	0.176	-0.112
-550.369	26.985	-0.074	-0.062
-549.354	-200.000	0.044	0.212
-548.339	497.716	-0.141	-0.324
-547.325	551.039	-0.026	0.063
-546.310	-70.159	-0.231	-0.088
-545.296	723.143	0.084	0.225
-544.281	430.449	-0.065	0.140
-543.266	147.748	0.105	0.142
-542.252	78.890	-0.150	0.160
-541.237	-121.285	-0.353	0.059
-540.223	426.689	-0.125	-0.269
-539.208	144.859	-0.153	0.204
-538.193	-78.684	0.108	-0.037
-537.179	406.636	-0.156	-0.329
-536.164	-63.708	0.138	-0.057
-535.150	-11.431	0.172	0.113
-534.135	-33.640	-0.144	0.079
-533.121	-17.582	-0.331	-0.208
-532.106	-200.000	-0.029	-0.345
-531.091	500.674	-0.106	0.243
-530.077	2.720	-0.271	0.196
-529.062	203.318	-0.082	0.127
-528.048	111.511	0.225	-0.271
-527.033	140.317	0.089	-0.118
-526.018	800.000	-0.054	0.149
-525.004	-200.000	-0.054	-0.263
-523.989	-79.719	0.120	0.040
-522.975	-62.662	0.121	-0.050
-521.960	216.600	-0.162	0.257
-520.945	214.630	-0.039	-0.062
-519.931	26.432	0.097	0.081
-518.916	-169.944	-0.310	-0.011
-517.902	-101.255	0.199	0.049
-516.887	-133.872	0.330	-0.041
-515.872	91.483	0.186	0.208
-514.858	20.863	0.102	-0.082
-513.843	116.014	0.192	0.235
-512.829	-200.000	0.027	0.153
-511.814	90.952	-0.046	0.051
-510.799	-200.000	-0.015	-0.134
-509.785	-5.037	-0.378	-0.260
-508.770	-200.000	0.006	0.151
-507.756	106.944	-0.084	0.100
-506.741	-200.000	0.019	-0.106
-505.726	-92.678	-0.353	-0.099
-504.712	800.000	0.044	0.135
-503.697	122.274	-0.126	0.157
-502.683	-10.631	0.123	0.081
-501.668	48.109	-0.250	-0.233
-500.653	-60.233	-0.322	-0.137
-499.639	21.907	0.216	0.176
-498.624	193.778	0.069	0.104
-497.610	134.383	0.097	-0.125
-496.595	-200.000	0.002	-0.023
-495.581	-122.722	0.158	-0.025
-494.566	191.142	0.075	-0.113
-493.551	-200.000	0.002	0.024
-492.537	-135.777	0.299	0.035
-491.522	-143.133	0.112	0.011
-490.508	-45.285	-0.129	0.064
-489.493	259.611	-0.139	-0.239
-488.478	54.211	-0.168	-0.161
-487.464	-75.825	-0.105	-0.037
-486.449	142.351	-0.117	0.154
-485.435	-133.109	0.102	0.013
-484.420	191.422	-0.128	-0.192
-483.405	19.145	-0.126	0.101
-482.391	-200.000	-0.034	0.217
-481.376	-34.634	-0.159	0.087
-480.362	103.143	0.308	0.359
-479.347	100.085	-0.367	0.424
-478.332	800.000	0.022	-0.066
-477.318	265.505	0.114	0.198
-476.303	800.000	-0.050	-0.160
-475.289	-67.240	0.094	0.037
-474.274	-133.260	-0.206	-0.026
-473.259	-200.000	-0.030	-0.357
-472.245	150.253	-0.178	0.240
-471.230	-200.000	-0.004	0.604
-470.216	787.612	-0.045	-0.123
-469.201	28.348	-0.280	-0.236
-468.186	53.783	-0.164	-0.157
-467.172	-152.477	-0.155	-0.011
-466.157	-75.783	0.357	0.126
-465.143	225.543	-0.147	-0.236
-464.128	233.852	0.074	0.122
-463.113	550.373	0.140	0.335
-462.099	54.082	-0.186	0.178
-461.084	-155.404	-0.349	-0.023
-460.070	-78.259	0.024	0.008
-459.055	-0.876	0.237	0.167
-458.040	163.276	0.077	-0.108
-457.026	354.797	-0.122	0.241
-456.011	128.197	-0.092	-0.116
-454.997	188.845	-0.096	-0.143
-453.982	-152.643	0.143	-0.010
-452.968	65.415	0.134	0.135
-451.953	775.427	-0.041	-0.112
-450.938	-110.122	0.245	-0.051
-449.924	-147.968	0.383	0.032
-448.909	-35.614	-0.268	-0.145
-447.895	-121.503	-0.192	0.032
-446.880	-123.806	0.189	-0.030
-445.865	247.855	0.047	-0.079
-444.851	-200.000	-0.001	0.128
-443.836	6.168	-0.180	0.132
-442.822	80.369	0.227	-0.243
-441.807	128.917	0.150	0.190
-440.792	15.763	-0.218	0.170
-439.778	101.458	0.242	0.281
-438.763	-1.561	-0.183	0.128
-437.749	213.778	0.154	0.241
-436.734	-200.000	-0.020	0.147
-435.719	-99.722	0.180	-0.045
-434.705	-125.038	0.129	0.020
-433.690	-200.000	-0.062	-0.304
-432.676	-27.089	0.253	0.147
-431.661	-14.395	-0.206	0.132
-430.646	-25.736	0.187	0.110
-429.632	-200.000	-0.054	-0.392
-428.617	-200.000	0.033	-0.185
-427.603	800.000	0.120	0.406
-426.588	-54.465	-0.243	0.109
-425.573	111.691	0.235	-0.281
-424.559	800.000	-0.073	-0.286
-423.544	-29.773	0.148	-0.084
-422.530	-170.061	0.183	-0.006
-421.515	-19.433	0.181	-0.112
-420.500	-104.386	-0.072	0.017
-419.486	-162.153	-0.049	-0.002
-418.471	12.915	0.202	-0.155
-417.457	-200.000	-0.026	0.202
-416.442	-96.361	0.336	-0.088
-415.428	-11.907	-0.157	-0.103
-414.413	800.000	0.072	-0.244
-413.398	-200.000	-0.014	-0.276
-412.384	-160.143	0.338	-0.018
-411.369	-200.000	0.015	-0.258
-410.355	-94.661	0.366	-0.099
-409.340	-200.000	-0.007	-0.066
-408.325	600.906	-0.139	0.344
-407.311	134.716	0.129	0.167
-406.296	-68.205	0.155	0.060
-405.282	-113.190	0.226	-0.044
-404.267	-200.000	-0.003	-0.051
-403.252	112.337	-0.085	-0.103
-402.238	-54.961	-0.283	-0.127
-401.223	-23.522	-0.105	-0.063
-400.209	61.714	-0.046	0.046
-399.194	416.518	-0.076	-0.161
-398.179	159.242	0.077	-0.107
-397.165	800.000	-0.091	-0.323
-396.150	118.706	0.183	0.225
-395.136	-200.000	-0.074	-0.412
-394.121	244.551	-0.188	0.314
-393.106	31.796	0.168	0.144
-392.092	26.438	0.052	-0.043
-391.077	453.252	-0.111	-0.243
-390.063	26.312	0.105	0.087
-389.048	-90.281	0.285	0.082
-388.033	669.505	0.081	0.207
-387.019	-200.000	0.003	0.170
-386.004	-144.794	0.069	0.006
-384.990	76.688	-0.086	0.090
-383.975	-200.000	-0.025	-0.121
-382.960	45.563	-0.093	0.086
-381.946	-19.274	-0.142	-0.087
-380.931	-83.453	-0.047	0.015
-379.917	-117.868	-0.378	0.067
-378.902	73.364	0.130	-0.135
-377.888	-33.998	-0.052	-0.029
-376.873	-47.297	-0.110	0.053
-375.858	42.290	0.024	0.021
-374.844	-187.719	-0.244	0.003
-373.829	800.000	0.078	0.283
-372.815	-200.000	0.075	0.456
-371.800	-157.329	-0.172	0.010
-370.785	575.070	-0.071	0.173
-369.771	775.147	-0.088	-0.237
-368.756	110.762	-0.152	0.181
-367.742	-19.456	0.338	0.208
-366.727	-118.902	-0.164	0.029
-365.712	-107.393	0.335	-0.073
-364.698	64.910	-0.202	-0.202
-363.683	89.472	0.138	0.152
-362.669	-200.000	0.013	0.230
-361.654	103.165	-0.124	-0.144
-360.639	117.998	0.189	0.231
-359.625	183.985	0.104	-0.153
-358.610	-200.000	-0.024	0.202
-357.596	87.954	0.151	0.166
-356.581	184.838	-0.119	0.174
-355.566	-200.000	-0.004	0.226
-354.552	54.231	0.015	-0.014
-353.537	-65.669	-0.095	-0.038
-352.523	254.282	-0.091	-0.154
-351.508	-200.000	-0.026	-0.138
-350.493	-200.000	-0.009	-0.110
-349.479	-101.128	0.225	-0.055
-348.464	-63.941	-0.277	0.112
-347.450	198.769	-0.157	-0.239
-346.435	-200.000	0.009	-0.261
-345.420	-151.783	0.217	-0.016
-344.406	-160.459	0.253	-0.013
-343.391	800.000	-0.089	0.331
-342.377	767.352	0.114	0.306
-341.362	-200.000	0.067	0.301
-340.348	800.000	-0.076	-0.262
-339.333	93.729	0.126	0.142
-338.318	10.484	-0.309	0.233
-337.304	-30.668	0.094	0.052
-336.289	-63.305	-0.132	-0.054
-335.275	-46.649	0.420	-0.204
-334.260	-81.899	0.401	0.130
-333.245	40.415	0.150	0.134
-332.231	383.511	-0.038	-0.077
-331.216	-118.389	0.264	0.046
-330.202	41.557	0.129	0.116
-329.187	55.156	-0.196	0.188
-328.172	781.879	-0.047	0.127
-327.158	-43.312	0.098	-0.049
-326.143	-37.956	0.211	-0.111
-325.129	-159.331	0.129	0.007
-324.114	-67.194	0.227	0.088
-323.099	120.310	0.236	-0.290
-322.085	-112.705	0.114	-0.023
-321.070	-12.413	-0.166	0.107
-320.056	-128.602	-0.395	-0.055
-319.041	-62.166	0.241	0.100
-318.026	-119.125	0.384	-0.066
-317.012	100.715	-0.071	0.081
-315.997	-200.000	-0.099	0.570
-314.983	22.644	-0.168	-0.136
-313.968	-32.990	-0.144	0.079
-312.953	349.880	0.112	-0.219
-311.939	5.879	0.336	-0.246
-310.924	546.415	0.144	0.341
-309.910	389.217	0.111	-0.228
-308.895	-200.000	-0.004	0.069
-307.880	-78.516	0.260	0.088
-306.866	800.000	-0.020	-0.084
-305.851	800.000	-0.109	-0.322
-304.837	-109.267	-0.033	0.007
-303.822	-143.551	-0.235	0.022
-302.807	-200.000	0.004	-0.395
-301.793	332.333	0.008	-0.014
-300.778	-200.000	0.004	0.375
-299.764	-21.687	-0.309	-0.186
-298.749	322.471	0.083	0.156
-297.735	-2.345	-0.206	-0.143
-296.720	458.167	-0.036	-0.079
-295.705	17.761	0.058	0.046
-294.691	770.340	-0.083	0.225
-293.676	800.000	0.100	0.276
-292.662	364.654	-0.078	-0.155
-291.647	-174.631	0.124	0.003
-290.632	24.407	-0.061	0.050
-289.618	-200.000	0.053	0.323
-288.603	-24.857	0.339	0.199
-287.589	-132.439	0.276	-0.035
-286.574	800.000	0.084	-0.355
-285.559	85.311	0.111	-0.120
-284.545	-44.941	-0.289	-0.142
-283.530	426.714	0.099	-0.210
-282.516	111.456	0.207	-0.247
-281.501	800.000	0.095	0.380
-280.486	-49.520	-0.212	0.100
-279.472	-163.208	0.130	-0.006
-278.457	800.000	0.045	-0.190
-277.443	-112.197	0.170	0.034
-276.428	-200.000	0.002	-0.232
-275.413	-200.000	-0.015	-0.213
-274.399	-200.000	0.017	-0.306
-273.384	614.465	0.087	0.215
-272.370	-21.990	-0.218	-0.131
-271.355	-55.598	-0.146	0.064
-270.340	-135.432	-0.110	0.013
-269.326	-141.425	0.357	0.036
-268.311	800.000	0.004	-0.013
-267.297	800.000	0.055	-0.200
-266.282	800.000	0.009	-0.039
-265.267	-100.244	0.346	0.085
-264.253	19.793	-0.117	0.093
-263.238	-77.791	-0.275	0.094
-262.224	526.141	0.054	0.125
-261.209	60.525	0.390	-0.382
-260.195	800.000	-0.054	-0.192
-259.180	-132.832	-0.051	-0.006
-258.165	297.891	0.091	-0.165
-257.151	-84.870	-0.142	0.044
-256.136	556.455	0.063	0.150
-255.122	-200.000	0.023	-0.168
-254.107	-200.000	0.044	0.412
-253.092	-103.327	-0.331	-0.077
-252.078	-200.000	0.031	-0.269
-251.063	190.199	-0.063	0.093
-250.049	87.952	0.104	0.114
-249.034	49.053	-0.160	0.149
-248.019	136.481	-0.105	0.136
-247.005	-25.244	-0.182	0.106
-245.990	800.000	0.043	-0.146
-244.976	-200.000	0.005	-0.346
-243.961	43.466	-0.139	0.125
-242.946	-52.002	-0.275	0.126
-241.932	800.000	-0.073	0.204
-240.917	-200.000	-0.008	-0.069
-239.903	-22.738	-0.187	0.111
-238.888	-200.000	0.006	-0.197
-237.873	313.743	-0.078	0.145
-236.859	800.000	0.042	-0.163
-235.844	-200.000	-0.047	-0.228
-234.830	-200.000	0.026	-0.279
-233.815	-200.000	-0.009	-0.086
-232.800	98.593	0.065	-0.074
-231.786	-108.591	-0.070	0.015
-230.771	219.627	0.183	-0.289
-229.757	-99.319	0.184	-0.046
-228.742	-33.479	0.141	0.077
-227.727	-124.674	-0.175	-0.027
-226.713	72.307	-0.100	-0.103
-225.698	800.000	0.035	0.124
-224.684	-103.623	0.297	0.069
-223.669	84.031	0.038	-0.040
-222.655	-73.957	0.131	-0.047
-221.640	70.481	0.125	-0.127
-220.625	61.977	0.110	0.108
-219.611	-200.000	0.007	0.123
-218.596	118.636	-0.127	0.154
-217.582	62.904	-0.216	-0.214
-216.567	439.441	0.094	-0.203
-215.552	53.743	0.342	0.324
-214.538	-200.000	0.007	-0.199
-213.523	-92.911	-0.314	-0.086
-212.509	-65.793	-0.224	-0.088
-211.494	433.208	0.033	0.071
-210.479	800.000	-0.041	0.149
-209.465	20.639	-0.107	-0.086
-208.450	182.932	-0.210	-0.306
-207.436	56.473	-0.137	0.132
-206.421	390.443	-0.126	0.257
-205.406	-136.082	-0.042	0.005
-204.392	44.231	0.145	0.131
-203.377	-58.920	0.222	-0.095
-202.363	40.565	-0.401	-0.356
-201.348	492.607	0.073	-0.164
-200.333	-94.554	-0.414	0.111
-199.319	-65.638	-0.058	-0.023
-198.304	6.020	-0.096	0.070
-197.290	-81.792	-0.197	0.064
-196.275	-34.365	-0.212	-0.115
-195.260	-153.286	-0.279	0.019
-194.246	147.102	-0.055	-0.072
-193.231	265.558	0.111	0.191
-192.217	123.001	0.116	-0.143
-191.202	177.213	-0.069	-0.099
-190.187	-181.466	0.057	0.001
-189.173	201.305	-0.032	0.049
-188.158	-200.000	-0.000	0.193
-187.144	174.225	0.170	-0.242
-186.129	10.778	0.176	0.132
-185.114	456.644	-0.127	-0.277
-184.100	-183.673	-0.153	0.003
-183.085	-95.787	-0.160	-0.042
-182.071	75.204	0.239	-0.248
-181.056	-24.295	-0.269	-0.158
-180.042	94.328	-0.157	-0.175
-179.027	-200.000	0.000	0.106
-178.012	56.673	0.155	0.149
-176.998	-200.000	0.001	-0.140
-175.983	-91.571	-0.183	0.051
-174.969	28.700	0.382	0.318
-173.954	800.000	-0.111	0.460
-172.939	-13.108	-0.230	-0.147
-171.925	134.456	-0.107	0.136
-170.910	0.516	-0.035	-0.025
-169.896	-41.413	0.101	-0.051
-168.881	-200.000	0.016	0.184
-167.866	800.000	0.069	-0.196
-166.852	-75.807	0.112	0.039
-165.837	-67.219	-0.235	0.091
-164.823	-82.566	0.322	0.103
-163.808	-143.548	0.060	-0.006
-162.793	119.943	-0.179	0.219
-161.779	52.506	0.077	-0.072
-160.764	-53.959	0.319	-0.143
-159.750	-33.796	0.191	0.104
-158.735	800.000	0.079	-0.255
-157.720	62.744	0.199	0.195
-156.706	40.457	-0.017	-0.015
-155.691	-77.695	-0.449	0.153
-154.677	752.609	0.120	-0.318
-153.662	489.468	0.156	-0.350
-152.647	-9.524	0.332	0.218
-151.633	25.808	-0.098	0.081
-150.618	-56.363	-0.085	0.037
-149.604	84.966	0.094	0.101
-148.589	179.996	0.075	0.109
-147.574	-200.000	-0.006	-0.039
-146.560	-92.088	0.341	-0.095
-145.545	85.852	-0.122	-0.131
-144.531	-140.464	0.387	-0.040
-143.516	299.985	0.063	0.114
-142.502	-133.073	-0.325	-0.040
-141.487	800.000	0.033	0.129
-140.472	161.076	0.064	0.089
-139.458	489.364	0.143	-0.322
-138.443	-17.233	-0.199	0.123
-137.429	-95.647	0.265	-0.070
-136.414	-133.460	-0.221	-0.027
-135.399	-200.000	-0.001	-0.006
-134.385	-80.289	0.189	0.062
-133.370	547.441	0.049	0.115
-132.356	52.383	-0.467	-0.438
-131.341	65.240	0.246	0.244
-130.326	800.000	-0.030	-0.096
-129.312	-200.000	0.025	0.166
-128.297	-200.000	0.004	-0.055
-127.283	163.677	-0.220	-0.304
-126.268	-138.437	-0.137	-0.015
-125.253	124.825	0.110	-0.137
-124.239	-200.000	0.010	-0.080
-123.224	800.000	-0.078	0.307
-122.210	57.869	0.126	0.121
-121.195	-194.071	0.374	0.003
-120.180	-11.648	0.341	-0.220
