DTS Sentinel unit serial number:	SN413079Multiplexer serial number:	ORYXHardware model number:	OX4-SRSoftware version number:	ORYX F/W v4.00 Oryx Data Collector v3.7.2.0data status	okinstallation	princeton_trtdifferential loss correction	single-endedforward channel	channel 1reverse channel	N/Adate	2019/09/18time	08:42:35forward acquisition time	60.00reverse acquisition time	0.00gamma	496.2192k internal	0.2336k external	0.2336temperature offset calibration	0.9973default loss term (dB/km)	0.3790temperature slope calibration	1.0000multiplexer offset coefficient	1.0000multiplexer slope coefficient	1.0000fibre end	0.00T internal ref (°C)	24.58T ext. ref 1 (°C)	0.23T ext. ref 2 (°C)	20.38length (m)	temperature (°C)	Stokes	anti-Stokes-747.200	203.790	-0.060	0.093
-746.185	6.605	-0.303	-0.227
-745.171	43.921	-0.140	0.129
-744.156	-181.315	-0.435	-0.009
-743.142	-101.229	0.080	0.020
-742.127	-200.000	-0.022	0.218
-741.112	-117.733	-0.290	-0.052
-740.098	-77.091	-0.296	0.104
-739.083	110.682	-0.283	-0.342
-738.069	-158.543	0.180	-0.010
-737.054	-40.383	-0.133	0.070
-736.039	-63.505	-0.270	0.111
-735.025	-166.150	0.413	0.018
-734.010	-200.000	-0.014	-0.131
-732.996	-30.847	-0.324	0.184
-731.981	-200.000	-0.059	-0.337
-730.966	-200.000	-0.068	0.416
-729.952	-125.357	-0.120	0.018
-728.937	-200.000	0.044	0.240
-727.923	-173.173	-0.285	-0.009
-726.908	-133.668	-0.052	-0.006
-725.894	800.000	0.092	0.265
-724.879	-200.000	0.000	-0.289
-723.864	42.735	-0.319	-0.291
-722.850	-186.314	0.251	-0.004
-721.835	-200.000	0.020	0.338
-720.821	-132.445	-0.675	-0.087
-719.806	-200.000	0.009	0.227
-718.791	635.624	-0.066	-0.168
-717.777	40.379	-0.329	0.297
-716.762	56.066	-0.273	0.266
-715.748	-200.000	-0.037	-0.366
-714.733	221.213	0.059	-0.095
-713.718	501.063	0.058	-0.134
-712.704	306.464	-0.056	-0.105
-711.689	-15.018	-0.235	-0.151
-710.675	19.571	0.215	0.174
-709.660	-76.161	0.202	0.071
-708.645	800.000	-0.039	0.117
-707.631	-12.237	0.202	-0.133
-706.616	-71.870	-0.014	0.005
-705.602	-200.000	-0.068	-0.340
-704.587	-200.000	-0.030	-0.223
-703.572	354.451	-0.109	-0.218
-702.558	-1.951	0.145	0.102
-701.543	108.436	-0.245	-0.294
-700.529	52.289	0.044	0.042
-699.514	106.497	0.142	-0.169
-698.499	189.312	-0.172	-0.259
-697.485	45.236	-0.119	-0.110
-696.470	398.845	-0.054	0.114
-695.456	-107.763	0.091	0.020
-694.441	-81.120	0.138	0.046
-693.426	-114.325	-0.362	-0.070
-692.412	-99.915	-0.332	-0.083
-691.397	-200.000	0.017	-0.237
-690.383	-27.162	0.229	0.134
-689.368	-33.228	0.125	-0.069
-688.354	-97.714	-0.366	0.095
-687.339	201.477	0.056	0.086
-686.324	43.355	0.163	0.150
-685.310	143.480	0.145	-0.194
-684.295	-50.112	-0.063	0.030
-683.281	-35.809	-0.267	-0.145
-682.266	-82.256	-0.167	-0.054
-681.251	-63.285	0.053	0.022
-680.237	62.187	0.302	-0.302
-679.222	800.000	0.025	-0.075
-678.208	-200.000	-0.008	-0.138
-677.193	-19.520	0.257	0.159
-676.178	-45.552	-0.426	0.212
-675.164	-4.175	0.119	0.082
-674.149	-55.790	-0.339	-0.152
-673.135	-84.371	-0.072	0.023
-672.120	-87.650	-0.165	0.050
-671.105	-76.970	-0.450	-0.157
-670.091	-177.876	0.047	-0.001
-669.076	-33.927	0.091	-0.050
-668.062	136.366	0.225	0.294
-667.047	-26.261	-0.244	0.143
-666.032	-200.000	-0.089	0.466
-665.018	-200.000	0.014	-0.138
-664.003	75.923	0.108	0.115
-662.989	800.000	0.046	-0.142
-661.974	-18.000	-0.192	0.121
-660.959	43.684	-0.143	0.131
-659.945	414.823	0.014	0.030
-658.930	-51.106	-0.361	0.170
-657.916	295.530	0.083	-0.152
-656.901	184.542	0.207	-0.306
-655.886	-186.478	0.129	0.002
-654.872	122.109	-0.130	0.162
-653.857	800.000	0.051	-0.222
-652.843	-200.000	0.011	-0.315
-651.828	-200.000	0.028	0.244
-650.814	-200.000	0.003	0.114
-649.799	-31.482	0.060	0.034
-648.784	118.161	0.037	0.045
-647.770	-69.816	-0.018	-0.007
-646.755	-149.004	-0.134	0.011
-645.741	-73.266	0.139	-0.051
-644.726	-93.500	0.236	0.065
-643.711	-200.000	-0.040	0.248
-642.697	-119.612	-0.097	-0.017
-641.682	-9.413	0.116	-0.078
-640.668	-198.315	0.440	-0.003
-639.653	192.263	-0.118	-0.178
-638.638	26.956	-0.189	0.158
-637.624	166.484	0.055	-0.078
-636.609	-177.986	0.237	-0.006
-635.595	-37.543	0.304	-0.162
-634.580	13.547	-0.180	-0.140
-633.565	-200.000	-0.005	0.235
-632.551	-53.887	0.138	-0.063
-631.536	-96.034	0.021	0.006
-630.522	-79.923	0.303	0.102
-629.507	800.000	-0.067	0.264
-628.492	-77.669	-0.167	0.058
-627.478	23.009	-0.040	0.033
-626.463	177.459	0.096	-0.141
-625.449	-175.938	0.270	0.007
-624.434	-92.199	-0.147	-0.042
-623.419	-126.290	0.426	0.064
-622.405	800.000	-0.027	-0.081
-621.390	35.662	-0.193	0.169
-620.376	173.075	-0.075	0.108
-619.361	241.258	0.049	-0.081
-618.346	-138.546	-0.265	0.029
-617.332	-86.119	-0.068	0.021
-616.317	328.073	0.106	-0.204
-615.303	-190.622	0.034	0.000
-614.288	-80.217	0.312	-0.104
-613.273	61.101	-0.173	0.171
-612.259	181.963	0.191	0.281
-611.244	611.038	-0.029	0.072
-610.230	-200.000	-0.006	-0.295
-609.215	800.000	0.055	-0.198
-608.201	-178.935	0.053	-0.001
-607.186	-31.398	0.301	-0.169
-606.171	800.000	-0.087	0.274
-605.157	-131.844	-0.220	0.029
-604.142	-9.098	0.225	-0.150
-603.128	259.731	0.120	0.207
-602.113	218.496	-0.348	-0.555
-601.098	800.000	-0.062	-0.190
-600.084	-200.000	0.020	-0.199
-599.069	304.272	-0.162	0.300
-598.055	-6.426	0.267	0.182
-597.040	-148.307	0.275	0.023
-596.025	-200.000	0.064	-0.306
-595.011	-200.000	0.008	-0.267
-593.996	-183.018	-0.157	0.003
-592.982	800.000	-0.023	-0.080
-591.967	-200.000	0.022	0.185
-590.952	-66.231	-0.114	-0.045
-589.938	477.160	0.065	-0.146
-588.923	84.178	-0.219	-0.239
-587.909	18.687	-0.088	0.070
-586.894	-22.381	-0.285	0.172
-585.879	-130.224	0.182	0.025
-584.865	-61.104	0.302	-0.127
-583.850	-200.000	-0.013	-0.236
-582.836	22.557	-0.092	-0.075
-581.821	5.578	-0.455	-0.336
-580.806	800.000	-0.037	0.106
-579.792	66.471	-0.190	-0.193
-578.777	342.384	0.054	-0.106
-577.763	368.405	0.149	-0.300
-576.748	-200.000	0.050	-0.274
-575.733	-23.559	0.341	-0.204
-574.719	-52.089	-0.036	0.017
-573.704	-92.329	-0.047	0.013
-572.690	-200.000	-0.016	-0.200
-571.675	-11.328	0.198	0.130
-570.661	19.949	0.043	-0.035
-569.646	353.571	-0.072	0.142
-568.631	-67.790	0.113	0.044
-567.617	39.050	0.135	-0.120
-566.602	800.000	-0.178	-0.523
-565.588	17.190	-0.353	-0.279
-564.573	-0.921	-0.193	0.137
-563.558	-139.597	-0.484	0.051
-562.544	-8.645	-0.083	-0.055
-561.529	676.274	-0.057	-0.148
-560.515	307.546	-0.127	-0.236
-559.500	-3.545	0.241	-0.167
-558.485	534.902	-0.078	0.183
-557.471	-13.774	-0.111	0.072
-556.456	286.390	0.237	0.427
-555.442	-43.642	0.254	0.128
-554.427	-32.540	0.224	-0.125
-553.412	-29.212	0.032	0.018
-552.398	-200.000	-0.016	-0.210
-551.383	298.694	0.084	-0.155
-550.369	-11.893	0.380	0.248
-549.354	56.532	-0.100	-0.097
-548.339	106.093	-0.169	-0.199
-547.325	-115.651	0.336	0.063
-546.310	-62.746	-0.121	-0.050
-545.296	-84.387	0.277	-0.087
-544.281	-42.625	-0.238	-0.121
-543.266	481.425	-0.207	0.468
-542.252	-63.713	0.165	-0.067
-541.237	3.163	0.084	0.061
-540.223	158.362	0.118	-0.163
-539.208	-116.815	0.130	0.024
-538.193	270.194	-0.118	0.207
-537.179	18.083	-0.189	0.150
-536.164	53.181	-0.175	-0.167
-535.150	278.750	-0.094	0.167
-534.135	-187.401	0.160	0.002
-533.121	643.767	-0.124	-0.315
-532.106	126.592	-0.137	0.173
-531.091	-200.000	-0.037	-0.260
-530.077	8.225	-0.162	0.121
-529.062	-25.534	0.179	0.105
-528.048	-200.000	-0.032	0.259
-527.033	-0.195	-0.261	-0.185
-526.018	-51.955	0.211	-0.098
-525.004	-200.000	-0.055	-0.256
-523.989	269.106	-0.218	-0.381
-522.975	60.685	0.163	0.161
-521.960	401.003	0.028	-0.058
-520.945	800.000	-0.058	0.217
-519.931	-55.355	0.152	0.068
-518.916	194.576	-0.124	0.187
-517.902	-29.823	-0.294	0.167
-516.887	800.000	0.024	-0.095
-515.872	510.106	-0.058	0.133
-514.858	800.000	-0.021	-0.074
-513.843	237.274	-0.047	-0.077
-512.829	-200.000	-0.000	0.099
-511.814	132.357	0.175	0.224
-510.799	-73.827	0.261	-0.095
-509.785	-58.024	-0.448	0.195
-508.770	-11.895	0.166	-0.108
-507.756	-200.000	0.084	-0.377
-506.741	800.000	0.058	0.231
-505.726	207.314	0.182	0.283
-504.712	-59.009	-0.155	-0.067
-503.697	-200.000	-0.043	0.238
-502.683	80.067	-0.164	0.175
-501.668	-200.000	0.017	0.124
-500.653	415.544	-0.052	0.111
-499.639	-132.211	-0.297	0.038
-498.624	74.217	-0.224	-0.234
-497.610	-200.000	0.052	0.265
-496.595	-181.843	0.095	-0.002
-495.581	382.865	-0.105	0.215
-494.566	484.787	0.089	-0.201
-493.551	-200.000	-0.002	0.043
-492.537	-81.496	-0.164	-0.054
-491.522	800.000	0.111	0.435
-490.508	28.664	0.186	0.157
-489.493	65.382	-0.074	-0.074
-488.478	-200.000	-0.034	-0.185
-487.464	413.145	0.089	-0.188
-486.449	249.662	-0.108	-0.181
-485.435	-200.000	-0.074	-0.364
-484.420	86.541	0.017	-0.018
-483.405	-163.524	0.209	0.010
-482.391	63.505	0.214	0.214
-481.376	-200.000	-0.026	0.186
-480.362	190.150	-0.093	0.138
-479.347	-200.000	0.028	-0.222
-478.332	216.565	-0.016	0.026
-477.318	-4.563	0.261	-0.179
-476.303	800.000	0.043	0.181
-475.289	148.298	-0.162	0.217
-474.274	-200.000	0.036	-0.192
-473.259	-8.368	0.236	0.158
-472.245	800.000	0.034	-0.121
-471.230	-174.282	-0.168	-0.005
-470.216	270.813	0.077	0.135
-469.201	-75.785	-0.138	-0.049
-468.186	-65.966	-0.199	-0.079
-467.172	28.292	0.116	-0.098
-466.157	-14.780	-0.185	0.118
-465.143	-200.000	0.051	-0.252
-464.128	-200.000	-0.051	-0.322
-463.113	-45.987	0.283	0.139
-462.099	-72.366	-0.127	0.047
-461.084	-200.000	-0.010	-0.302
-460.070	9.779	0.257	0.193
-459.055	-61.915	-0.393	0.163
-458.040	-175.281	-0.276	0.008
-457.026	-21.361	-0.178	0.108
-456.011	-60.968	0.161	-0.068
-454.997	-200.000	-0.010	-0.223
-453.982	44.402	-0.121	-0.110
-452.968	241.107	-0.073	-0.120
-451.953	13.332	0.063	-0.049
-450.938	-200.000	-0.012	-0.332
-449.924	-34.104	-0.214	0.117
-448.909	-96.265	0.139	0.037
-447.895	30.765	-0.190	-0.162
-446.880	-24.541	0.175	-0.103
-445.865	-141.053	-0.359	-0.037
-444.851	80.143	0.164	0.175
-443.836	41.289	-0.166	-0.149
-442.822	48.394	0.305	-0.283
-441.807	7.916	-0.163	0.121
-440.792	-3.272	0.141	0.098
-439.778	800.000	0.120	0.433
-438.763	-78.397	-0.159	-0.054
-437.749	-115.482	-0.244	-0.046
-436.734	133.109	-0.167	-0.214
-435.719	-200.000	0.089	0.000
-434.705	220.003	-0.224	0.356
-433.690	347.067	-0.043	0.084
-432.676	800.000	0.082	0.252
-431.661	-67.222	0.127	0.050
-430.646	-130.510	0.219	-0.029
-429.632	-163.294	-0.391	-0.019
-428.617	-200.000	0.005	0.186
-427.603	143.125	-0.215	-0.284
-426.588	262.770	-0.073	0.126
-425.573	-119.334	0.012	0.002
-424.559	308.931	-0.150	0.278
-423.544	783.792	-0.085	0.232
-422.530	-106.545	0.118	0.026
-421.515	800.000	-0.011	0.047
-420.500	-200.000	-0.024	0.271
-419.486	710.864	0.044	0.116
-418.471	-74.396	-0.062	0.022
-417.457	215.771	-0.173	0.273
-416.442	-94.461	-0.330	0.089
-415.428	92.893	0.033	0.037
-414.413	36.936	-0.035	0.031
-413.398	-144.074	-0.169	-0.016
-412.384	-36.808	0.151	0.080
-411.369	-43.271	0.107	0.054
-410.355	-200.000	0.012	0.187
-409.340	-89.337	-0.139	-0.041
-408.325	-103.131	-0.122	0.029
-407.311	-200.000	0.081	-0.357
-406.296	32.491	0.245	-0.210
-405.282	-121.156	-0.220	0.036
-404.267	800.000	-0.089	-0.263
-403.252	68.260	-0.080	0.081
-402.238	-92.544	0.166	0.046
-401.223	800.000	-0.065	0.273
-400.209	-200.000	0.041	-0.285
-399.194	-144.930	-0.277	-0.025
-398.179	-200.000	-0.021	-0.177
-397.165	58.247	0.203	-0.197
-396.150	-47.244	0.251	0.121
-395.136	280.260	0.079	-0.139
-394.121	1.729	0.205	0.146
-393.106	124.059	-0.097	0.120
-392.092	800.000	0.082	0.281
-391.077	-192.096	-0.220	-0.002
-390.063	-171.092	-0.320	0.011
-389.048	-72.865	-0.145	0.053
-388.033	-116.497	0.203	0.037
-387.019	-83.032	-0.175	-0.056
-386.004	-200.000	-0.011	0.210
-384.990	-200.000	0.065	0.299
-383.975	642.398	-0.058	-0.145
-382.960	261.558	0.134	-0.229
-381.946	24.868	-0.105	0.086
-380.931	60.026	-0.259	-0.253
-379.917	144.518	0.198	0.262
-378.902	-148.279	0.068	-0.006
-377.888	137.647	0.153	0.199
-376.873	-127.618	-0.213	-0.031
-375.858	-32.004	-0.383	0.212
-374.844	234.176	-0.100	-0.164
-373.829	-71.557	-0.359	-0.133
-372.815	81.687	-0.034	-0.037
-371.800	-48.860	0.286	0.136
-370.785	56.946	-0.108	0.104
-369.771	-88.969	-0.247	-0.072
-368.756	800.000	-0.066	-0.180
-367.742	772.400	0.041	-0.111
-366.727	800.000	-0.089	-0.249
-365.712	-35.027	-0.299	-0.161
-364.698	-200.000	0.128	-0.000
-363.683	-200.000	0.004	0.147
-362.669	-200.000	0.008	0.143
-361.654	21.054	0.158	0.127
-360.639	64.992	0.098	0.098
-359.625	-54.297	0.069	-0.031
-358.610	-200.000	-0.022	0.160
-357.596	-200.000	0.003	-0.243
-356.581	460.265	-0.131	0.288
-355.566	231.757	-0.091	-0.148
-354.552	-158.934	0.240	-0.014
-353.537	-14.443	-0.138	0.088
-352.523	-175.350	0.065	0.002
-351.508	44.511	-0.226	-0.205
-350.493	-113.987	-0.309	0.059
-349.479	184.994	-0.161	-0.236
-348.464	800.000	-0.088	-0.305
-347.450	800.000	0.054	0.166
-346.435	-200.000	0.007	0.235
-345.420	-200.000	-0.025	-0.290
-344.406	-21.780	0.274	0.165
-343.391	271.591	-0.007	-0.013
-342.377	11.825	-0.029	-0.022
-341.362	11.640	0.117	-0.089
-340.348	-200.000	-0.023	-0.103
-339.333	800.000	-0.101	0.286
-338.318	800.000	-0.094	0.333
-337.304	48.438	0.254	-0.235
-336.289	-200.000	-0.005	0.209
-335.275	-24.439	0.192	0.113
-334.260	800.000	-0.115	0.326
-333.245	120.217	0.171	0.210
-332.231	271.954	0.169	-0.294
-331.216	-200.000	0.064	-0.301
-330.202	-70.665	0.225	0.084
-329.187	-114.672	-0.208	-0.039
-328.172	160.290	-0.092	-0.127
-327.158	-95.371	0.343	0.091
-326.143	-5.843	-0.061	-0.041
-325.129	-128.419	-0.274	0.038
-324.114	-200.000	0.011	0.394
-323.099	58.541	0.123	0.119
-322.085	-200.000	-0.055	0.254
-321.070	44.559	0.061	-0.055
-320.056	84.119	0.014	0.015
-319.041	41.347	-0.182	-0.163
-318.026	-200.000	0.007	-0.313
-317.012	436.265	-0.130	-0.279
-315.997	-134.880	0.063	0.008
-314.983	-66.833	-0.198	0.078
-313.968	38.107	0.034	-0.030
-312.953	-76.649	-0.037	0.013
-311.939	433.839	-0.061	-0.131
-310.924	-164.050	0.255	-0.012
-309.910	403.871	0.126	0.263
-308.895	222.818	0.151	0.241
-307.880	-121.116	0.232	-0.038
-306.866	-200.000	0.017	0.166
-305.851	-137.349	-0.339	0.038
-304.837	228.715	-0.272	-0.438
-303.822	73.858	0.218	-0.226
-302.807	-11.377	-0.274	-0.178
-301.793	118.851	0.178	0.217
-300.778	533.976	-0.093	0.218
-299.764	155.518	-0.111	0.151
-298.749	-84.837	0.101	0.031
-297.735	310.075	0.156	0.288
-296.720	-37.180	-0.234	0.123
-295.705	-136.007	0.166	0.019
-294.691	95.672	0.325	-0.366
-293.676	-51.228	0.161	-0.074
-292.662	61.414	0.221	0.217
-291.647	-153.706	0.420	-0.029
-290.632	-167.587	0.119	-0.005
-289.618	-92.011	-0.343	0.096
-288.603	-73.392	-0.072	0.026
-287.589	161.337	-0.053	-0.073
-286.574	212.770	0.116	-0.180
-285.559	-103.390	0.388	0.090
-284.545	-73.466	0.146	-0.053
-283.530	-49.856	0.114	0.053
-282.516	800.000	-0.033	0.128
-281.501	440.621	-0.098	-0.212
-280.486	-151.163	-0.081	0.006
-279.472	219.736	0.227	-0.359
-278.457	-60.971	0.141	0.059
-277.443	56.554	-0.178	0.171
-276.428	-200.000	-0.030	-0.131
-275.413	-85.467	-0.367	0.113
-274.399	-90.934	-0.329	-0.093
-273.384	205.818	-0.208	-0.319
-272.370	282.124	-0.046	0.081
-271.355	-133.570	0.463	-0.057
-270.340	-37.138	-0.377	-0.199
-269.326	267.027	0.062	-0.107
-268.311	230.342	0.144	0.232
-267.297	-200.000	-0.022	-0.118
-266.282	293.362	-0.113	-0.204
-265.267	45.593	0.376	0.342
-264.253	-63.056	-0.037	-0.015
-263.238	39.638	-0.121	0.107
-262.224	-200.000	-0.011	0.176
-261.209	-28.055	0.057	0.033
-260.195	79.646	0.123	0.130
-259.180	-200.000	-0.017	0.485
-258.165	156.173	-0.062	-0.084
-257.151	-200.000	0.048	-0.305
-256.136	227.622	0.066	0.106
-255.122	117.857	0.163	-0.198
-254.107	-200.000	-0.024	-0.152
-253.092	-117.128	0.194	-0.035
-252.078	-75.130	-0.178	-0.063
-251.063	94.795	0.276	0.309
-250.049	800.000	0.046	-0.161
-249.034	147.147	0.080	0.106
-248.019	-200.000	0.003	0.036
-247.005	-200.000	0.003	-0.273
-245.990	-126.217	0.247	0.036
-244.976	-166.487	0.390	-0.016
-243.961	800.000	-0.094	0.332
-242.946	800.000	0.097	0.348
-241.932	127.289	-0.075	-0.094
-240.917	-200.000	-0.045	0.474
-239.903	51.851	-0.273	0.255
-238.888	800.000	0.057	-0.211
-237.873	233.781	0.215	0.349
-236.859	800.000	-0.077	0.245
-235.844	167.499	-0.119	0.166
-234.830	-73.772	0.216	0.077
-233.815	-80.556	0.328	0.108
-232.800	608.559	-0.085	-0.210
-231.786	-136.177	0.207	0.024
-230.771	-99.441	-0.020	-0.005
-229.757	800.000	-0.060	0.204
-228.742	-66.670	0.274	0.107
-227.727	7.841	-0.106	-0.078
-226.713	-200.000	0.029	0.375
-225.698	-200.000	0.057	-0.375
-224.684	42.635	0.290	-0.260
-223.669	-46.446	-0.112	-0.054
-222.655	-200.000	-0.181	0.001
-221.640	-108.219	-0.281	-0.060
-220.625	800.000	-0.146	-0.518
-219.611	134.734	0.151	-0.193
-218.596	443.610	0.076	-0.164
-217.582	-79.967	-0.419	-0.139
-216.567	-11.309	0.100	0.065
-215.552	42.848	-0.149	0.134
-214.538	123.988	0.264	0.326
-213.523	-23.792	-0.247	-0.146
-212.509	800.000	0.082	0.227
-211.494	-200.000	0.026	0.135
-210.479	-78.626	0.208	-0.070
-209.465	-60.751	0.154	-0.064
-208.450	-171.020	0.169	-0.006
-207.436	-200.000	0.002	0.160
-206.421	68.174	0.187	-0.189
-205.406	544.679	0.112	-0.263
-204.392	-39.051	0.258	0.134
-203.377	-54.333	-0.192	-0.086
-202.363	800.000	-0.058	-0.246
-201.348	-8.413	0.020	-0.013
-200.333	-84.285	-0.288	0.090
-199.319	-200.000	-0.014	-0.300
-198.304	57.847	-0.230	0.221
-197.290	283.486	-0.081	0.143
-196.275	-43.460	-0.304	0.151
-195.260	-112.520	-0.190	-0.037
-194.246	-200.000	-0.006	0.416
-193.231	-200.000	0.034	-0.222
-192.217	-67.931	-0.193	-0.074
-191.202	-200.000	-0.013	-0.349
-190.187	136.408	0.106	-0.136
-189.173	800.000	-0.086	0.257
-188.158	505.026	0.113	0.256
-187.144	-143.176	0.023	0.002
-186.129	-165.020	-0.336	-0.015
-185.114	-54.893	0.236	0.105
-184.100	93.842	-0.100	-0.111
-183.085	123.287	0.072	-0.089
-182.071	-22.774	0.196	-0.116
-181.056	-58.539	0.179	-0.076
-180.042	66.945	0.180	-0.180
-179.027	-200.000	0.021	0.161
-178.012	-131.560	-0.061	-0.008
-176.998	139.048	0.135	0.175
-175.983	56.106	-0.249	0.237
-174.969	-200.000	0.030	-0.203
-173.954	182.382	-0.140	-0.202
-172.939	-24.529	0.203	-0.118
-171.925	-200.000	-0.074	0.404
-170.910	-35.262	0.152	-0.081
-169.896	-200.000	-0.052	-0.358
-168.881	-56.773	0.146	0.064
-167.866	-8.071	-0.092	-0.061
-166.852	55.946	-0.084	-0.080
-165.837	297.722	0.125	0.226
-164.823	-126.620	0.281	-0.041
-163.808	147.968	0.091	-0.120
-162.793	-200.000	0.017	0.092
-161.779	-38.906	-0.136	-0.071
-160.764	279.241	-0.018	0.032
-159.750	120.672	0.091	0.111
-158.735	101.700	0.108	0.123
-157.720	-13.529	-0.108	-0.069
-156.706	-118.636	0.201	-0.035
-155.691	143.618	-0.085	-0.111
-154.677	70.651	-0.067	-0.068
-153.662	138.070	0.099	-0.128
-152.647	-200.000	-0.052	0.235
-151.633	-200.000	0.018	-0.085
-150.618	-29.892	0.259	-0.145
-149.604	17.254	-0.163	0.127
-148.589	279.884	-0.051	0.089
-147.574	800.000	0.083	-0.290
-146.560	-98.587	-0.083	0.021
-145.545	-200.000	0.030	-0.167
-144.531	568.079	0.136	0.323
-143.516	800.000	0.025	0.095
-142.502	-200.000	-0.005	0.144
-141.487	-200.000	-0.012	-0.202
-140.472	331.991	-0.034	0.065
-139.458	-166.905	-0.110	0.004
-138.443	-200.000	-0.005	-0.086
-137.429	-11.132	0.177	0.114
-136.414	110.983	-0.181	-0.213
-135.399	-82.600	0.255	0.081
-134.385	-200.000	-0.016	0.243
-133.370	-52.887	0.097	-0.044
-132.356	-22.534	0.124	0.074
-131.341	-200.000	0.015	-0.177
-130.326	724.128	0.070	0.184
-129.312	441.276	0.098	-0.210
-128.297	101.050	0.056	0.064
-127.283	-150.526	0.332	0.025
-126.268	-200.000	-0.020	-0.102
-125.253	8.908	0.332	-0.246
-124.239	-45.865	-0.224	-0.109
-123.224	143.419	-0.169	0.220
-122.210	800.000	0.045	0.124
-121.195	-43.207	-0.189	-0.094
