DTS Sentinel unit serial number:	SN413079Multiplexer serial number:	ORYXHardware model number:	OX4-SRSoftware version number:	ORYX F/W v4.00 Oryx Data Collector v3.7.2.0data status	okinstallation	princeton_trtdifferential loss correction	single-endedforward channel	channel 1reverse channel	N/Adate	2019/09/14time	12:06:35forward acquisition time	60.00reverse acquisition time	0.00gamma	496.2192k internal	0.2296k external	0.2296temperature offset calibration	1.0085default loss term (dB/km)	0.3790temperature slope calibration	1.0000multiplexer offset coefficient	1.0000multiplexer slope coefficient	1.0000fibre end	0.00T internal ref (°C)	37.56T ext. ref 1 (°C)	4.68T ext. ref 2 (°C)	33.66length (m)	temperature (°C)	Stokes	anti-Stokes-747.200	-131.546	-0.359	-0.048
-746.185	-200.000	-0.051	0.308
-745.171	-200.000	0.004	0.079
-744.156	122.102	0.292	0.372
-743.142	-200.000	0.019	-0.234
-742.127	-112.808	-0.371	-0.075
-741.112	153.073	0.170	0.238
-740.098	217.633	0.111	0.181
-739.083	-200.000	0.000	-0.003
-738.069	144.116	-0.099	-0.136
-737.054	69.210	-0.058	-0.061
-736.039	91.052	-0.209	-0.240
-735.025	305.199	-0.157	0.298
-734.010	-102.096	-0.229	-0.056
-732.996	56.731	0.210	-0.209
-731.981	-200.000	-0.032	-0.186
-730.966	-200.000	-0.031	0.162
-729.952	-200.000	0.064	-0.310
-728.937	115.031	-0.223	-0.278
-727.923	-126.988	-0.203	0.030
-726.908	-125.688	0.109	0.017
-725.894	184.480	-0.135	-0.204
-724.879	-40.679	-0.111	-0.059
-723.864	285.633	-0.066	0.122
-722.850	-115.176	0.130	0.025
-721.835	38.948	-0.141	-0.129
-720.821	-70.574	0.113	-0.044
-719.806	800.000	0.100	0.439
-718.791	-200.000	-0.026	0.177
-717.777	380.095	-0.038	0.080
-716.762	-78.464	-0.384	0.134
-715.748	-41.109	-0.170	0.090
-714.733	244.056	-0.147	-0.252
-713.718	30.662	0.109	-0.095
-712.704	800.000	-0.006	-0.025
-711.689	-24.090	0.072	-0.044
-710.675	-151.076	-0.174	-0.013
-709.660	-200.000	0.036	-0.168
-708.645	354.636	-0.163	-0.330
-707.631	-54.603	0.287	0.133
-706.616	-200.000	0.002	0.059
-705.602	800.000	0.114	-0.326
-704.587	-200.000	-0.013	0.076
-703.572	110.900	-0.089	0.109
-702.558	273.136	-0.085	-0.154
-701.543	-32.455	0.077	-0.044
-700.529	-46.531	-0.267	0.134
-699.514	800.000	0.113	-0.404
-698.499	-200.000	0.008	0.092
-697.485	83.793	-0.075	-0.083
-696.470	-104.962	-0.261	0.061
-695.456	6.040	0.378	0.285
-694.441	322.168	-0.135	-0.262
-693.426	-101.810	-0.532	0.131
-692.412	-54.953	-0.135	-0.062
-691.397	-31.381	0.050	-0.029
-690.383	10.556	0.063	0.049
-689.368	266.987	0.174	-0.310
-688.354	537.692	0.004	0.011
-687.339	-200.000	0.000	-0.126
-686.324	64.459	-0.058	0.060
-685.310	-0.741	-0.101	0.073
-684.295	800.000	-0.006	-0.021
-683.281	7.929	0.216	-0.165
-682.266	102.272	0.134	-0.159
-681.251	28.958	0.218	-0.188
-680.237	-62.108	-0.087	0.037
-679.222	-66.849	-0.133	-0.053
-678.208	-200.000	0.021	0.487
-677.193	-80.360	-0.291	0.099
-676.178	800.000	0.071	-0.212
-675.164	-157.778	0.020	0.001
-674.149	-62.451	-0.127	-0.054
-673.135	800.000	-0.026	-0.105
-672.120	24.766	-0.067	0.057
-671.105	-30.374	-0.272	-0.157
-670.091	-200.000	0.017	-0.251
-669.076	162.013	-0.098	-0.139
-668.062	-7.801	0.094	-0.064
-667.047	-30.235	0.169	0.098
-666.032	70.192	0.271	0.285
-665.018	-32.173	-0.241	-0.137
-664.003	171.093	-0.203	0.297
-662.989	800.000	-0.095	0.372
-661.974	10.975	-0.187	0.146
-660.959	-200.000	0.014	-0.204
-659.945	800.000	0.128	0.509
-658.930	222.383	0.100	0.164
-657.916	-200.000	0.067	-0.319
-656.901	59.315	-0.042	-0.042
-655.886	-2.728	-0.283	0.201
-654.872	69.516	-0.146	-0.153
-653.857	-4.515	-0.120	0.084
-652.843	-154.320	-0.165	-0.011
-651.828	-71.672	-0.066	0.025
-650.814	99.563	-0.103	0.122
-649.799	160.688	-0.116	0.165
-648.784	263.472	0.048	0.085
-647.770	90.563	0.344	-0.392
-646.755	-200.000	0.008	-0.162
-645.741	57.916	0.157	0.157
-644.726	-83.260	0.076	0.025
-643.711	-12.194	-0.139	0.093
-642.697	4.660	-0.059	0.044
-641.682	-200.000	0.044	-0.476
-640.668	800.000	-0.083	-0.286
-639.653	800.000	0.040	-0.161
-638.638	70.442	0.174	0.183
-637.624	447.521	-0.036	-0.080
-636.609	-200.000	-0.016	-0.075
-635.595	-200.000	-0.026	0.122
-634.580	-28.280	-0.196	-0.115
-633.565	10.910	-0.246	-0.191
-632.551	-200.000	-0.032	-0.224
-631.536	800.000	-0.036	0.140
-630.522	160.550	0.225	-0.320
-629.507	21.930	0.205	-0.170
-628.492	-139.704	0.184	0.020
-627.478	136.491	0.185	-0.246
-626.463	-133.964	-0.156	0.020
-625.449	800.000	-0.046	0.194
-624.434	-137.328	0.360	-0.042
-623.419	22.240	0.063	0.052
-622.405	-44.977	0.082	0.042
-621.390	89.910	-0.036	-0.041
-620.376	-200.000	-0.024	-0.244
-619.361	28.114	-0.152	-0.131
-618.346	103.910	-0.164	0.197
-617.332	-58.279	-0.267	-0.118
-616.317	502.094	-0.093	0.218
-615.303	-193.257	-0.283	0.003
-614.288	-181.407	-0.193	-0.004
-613.273	312.632	0.078	-0.149
-612.259	800.000	-0.010	-0.032
-611.244	-200.000	-0.008	-0.040
-610.230	-113.918	-0.153	-0.030
-609.215	-72.413	0.318	-0.120
-608.201	315.925	0.129	-0.248
-607.186	800.000	0.066	0.213
-606.171	-200.000	0.031	0.229
-605.157	-159.269	0.266	0.015
-604.142	121.352	0.107	-0.135
-603.128	-200.000	-0.026	-0.353
-602.113	800.000	0.094	0.357
-601.098	388.429	-0.054	0.113
-600.084	431.836	0.035	-0.078
-599.069	82.643	-0.111	0.123
-598.055	-53.769	-0.058	-0.027
-597.040	26.456	-0.016	0.014
-596.025	93.117	-0.194	0.223
-595.011	-85.287	0.237	-0.075
-593.996	-200.000	-0.010	-0.119
-592.982	-54.157	-0.290	0.134
-591.967	168.166	0.062	0.089
-590.952	427.569	-0.099	0.217
-589.938	-84.752	0.252	0.080
-588.923	-176.163	0.100	0.003
-587.909	354.088	0.102	0.205
-586.894	-200.000	-0.027	-0.157
-585.879	-200.000	-0.023	-0.277
-584.865	-67.235	-0.196	0.078
-583.850	-57.191	0.253	-0.113
-582.836	18.676	0.163	0.133
-581.821	-95.030	0.163	0.045
-580.806	-40.890	0.098	0.051
-579.792	-92.010	-0.043	-0.012
-578.777	-160.590	-0.107	0.006
-577.763	494.444	-0.068	-0.158
-576.748	-125.516	0.279	-0.043
-575.733	166.298	-0.226	0.325
-574.719	145.222	-0.144	-0.196
-573.704	-25.288	-0.388	-0.233
-572.690	800.000	-0.029	-0.112
-571.675	164.394	-0.234	-0.334
-570.661	-200.000	0.009	-0.153
-569.646	-116.740	0.309	-0.058
-568.631	-200.000	-0.095	-0.530
-567.617	-85.576	-0.168	0.053
-566.602	-46.901	0.128	-0.064
-565.588	-85.395	-0.135	-0.043
-564.573	-200.000	-0.001	0.054
-563.558	687.014	0.026	-0.070
-562.544	800.000	-0.052	-0.185
-561.529	-87.091	0.238	0.074
-560.515	210.944	-0.221	0.353
-559.500	800.000	-0.091	0.349
-558.485	-200.000	-0.046	0.263
-557.471	108.673	0.126	-0.153
-556.456	-173.071	0.071	0.002
-555.442	302.181	-0.154	-0.289
-554.427	80.536	-0.144	-0.157
-553.412	-200.000	0.018	0.567
-552.398	800.000	-0.094	0.270
-551.383	-37.153	-0.269	0.146
-550.369	106.684	0.024	0.028
-549.354	93.235	0.337	0.386
-548.339	67.484	0.102	-0.105
-547.325	-200.000	-0.049	0.227
-546.310	243.033	0.251	-0.426
-545.296	-109.367	-0.222	0.048
-544.281	-98.960	-0.130	-0.033
-543.266	441.359	-0.113	-0.250
-542.252	-119.059	-0.445	0.079
-541.237	-200.000	0.007	-0.155
-540.223	-65.309	-0.046	-0.019
-539.208	481.873	0.245	-0.563
-538.193	472.386	-0.111	-0.255
-537.179	-200.000	-0.019	-0.108
-536.164	200.727	-0.153	-0.239
-535.150	237.159	-0.040	-0.068
-534.135	30.267	0.190	-0.164
-533.121	95.057	0.173	-0.199
-532.106	-83.717	-0.147	-0.048
-531.091	560.911	0.104	0.255
-530.077	314.146	-0.017	0.032
-529.062	-125.446	-0.349	-0.054
-528.048	-23.280	-0.082	-0.050
-527.033	-177.246	-0.107	0.003
-526.018	-15.597	0.315	-0.204
-525.004	551.542	0.033	0.080
-523.989	800.000	-0.095	0.389
-522.975	-35.656	-0.058	-0.032
-521.960	800.000	-0.038	0.119
-520.945	353.539	-0.079	-0.159
-519.931	-200.000	0.009	0.258
-518.916	85.558	0.221	0.246
-517.902	-59.600	0.320	0.139
-516.887	165.483	-0.088	0.127
-515.872	-200.000	0.054	0.249
-514.858	-106.136	-0.289	0.066
-513.843	-83.521	0.375	-0.122
-512.829	40.537	-0.297	0.271
-511.814	81.129	-0.338	0.369
-510.799	-54.423	-0.232	0.107
-509.785	-200.000	-0.023	0.140
-508.770	456.298	-0.111	0.250
-507.756	-200.000	0.003	-0.187
-506.741	-89.578	-0.283	-0.084
-505.726	-91.963	0.164	0.047
-504.712	56.098	0.034	0.033
-503.697	-200.000	-0.045	0.452
-502.683	45.329	0.063	-0.059
-501.668	-200.000	-0.001	-0.085
-500.653	6.998	-0.079	-0.059
-499.639	-50.726	-0.184	0.088
-498.624	203.057	0.104	-0.162
-497.610	800.000	0.111	-0.445
-496.595	142.918	-0.095	-0.128
-495.581	116.940	0.086	-0.107
-494.566	-200.000	-0.004	-0.173
-493.551	-27.238	0.108	-0.064
-492.537	-200.000	-0.010	0.164
-491.522	218.636	-0.072	0.116
-490.508	800.000	0.105	-0.379
-489.493	-200.000	-0.052	-0.397
-488.478	172.495	-0.044	-0.064
-487.464	-200.000	-0.022	-0.336
-486.449	800.000	0.113	0.377
-485.435	-42.883	0.244	0.125
-484.420	-141.465	-0.179	0.018
-483.405	58.887	0.074	-0.074
-482.391	-40.758	0.325	-0.170
-481.376	-19.189	-0.418	-0.263
-480.362	13.271	0.200	-0.157
-479.347	-149.003	-0.007	0.001
-478.332	25.059	-0.373	-0.313
-477.318	531.183	0.172	0.411
-476.303	178.251	-0.028	0.041
-475.289	-148.918	-0.197	0.016
-474.274	800.000	-0.042	0.156
-473.259	32.955	-0.261	-0.229
-472.245	1.745	-0.129	-0.094
-471.230	-22.713	-0.091	0.056
-470.216	-2.279	-0.174	0.124
-469.201	92.398	0.143	0.163
-468.186	-200.000	0.016	0.284
-467.172	-200.000	-0.003	0.248
-466.157	742.680	0.079	0.214
-465.143	-200.000	-0.008	-0.189
-464.128	48.528	0.146	-0.138
-463.113	800.000	-0.035	0.115
-462.099	-83.197	0.166	-0.054
-461.084	55.088	0.284	0.278
-460.070	149.054	0.231	0.317
-459.055	-26.855	-0.355	-0.210
-458.040	109.649	-0.268	0.325
-457.026	-200.000	0.324	-0.001
-456.011	19.833	0.290	-0.236
-454.997	800.000	0.019	0.072
-453.982	-200.000	0.027	-0.155
-452.968	-106.747	-0.205	-0.046
-451.953	-200.000	-0.011	0.059
-450.938	265.994	0.090	-0.159
-449.924	341.177	0.073	-0.145
-448.909	-96.269	0.212	-0.057
-447.895	-113.389	0.278	0.055
-446.880	-76.008	-0.195	0.070
-445.865	-200.000	0.034	-0.202
-444.851	-54.767	0.227	-0.104
-443.836	1.434	-0.275	-0.200
-442.822	-41.539	-0.164	0.085
-441.807	800.000	-0.053	0.218
-440.792	-141.337	-0.491	0.050
-439.778	-16.039	0.120	-0.077
-438.763	126.023	-0.112	0.142
-437.749	-200.000	0.027	0.466
-436.734	51.232	0.102	0.098
-435.719	305.739	-0.090	-0.169
-434.705	800.000	0.042	-0.124
-433.690	-49.141	0.208	-0.100
-432.676	23.403	0.109	0.090
-431.661	-33.044	-0.020	-0.011
-430.646	192.367	0.091	0.139
-429.632	22.388	-0.035	-0.029
-428.617	204.990	-0.092	-0.145
-427.603	-196.746	-0.446	0.003
-426.588	703.934	-0.060	0.160
-425.573	300.927	0.208	-0.387
-424.559	-200.000	0.011	0.083
-423.544	800.000	0.100	0.341
-422.530	4.453	-0.222	-0.164
-421.515	-200.000	0.027	0.234
-420.500	660.000	0.022	-0.056
-419.486	-63.979	-0.051	0.021
-418.471	414.638	-0.104	0.224
-417.457	665.307	0.197	0.512
-416.442	-120.935	-0.177	0.030
-415.428	381.902	-0.110	-0.229
-414.413	77.513	0.063	-0.068
-413.398	257.832	0.110	-0.192
-412.384	-148.966	0.411	0.033
-411.369	-200.000	-0.032	-0.216
-410.355	-200.000	-0.025	0.179
-409.340	-118.575	-0.057	-0.010
-408.325	-41.091	0.204	-0.106
-407.311	103.157	-0.038	0.045
-406.296	-7.082	-0.104	-0.071
-405.282	15.005	0.362	0.286
-404.267	800.000	-0.046	-0.130
-403.252	-60.739	0.337	-0.144
-402.238	-149.231	-0.074	-0.006
-401.223	-105.952	-0.205	-0.047
-400.209	528.887	-0.202	0.482
-399.194	800.000	0.027	0.077
-398.179	-200.000	-0.003	-0.059
-397.165	128.839	0.193	0.248
-396.150	-200.000	-0.028	-0.147
-395.136	135.919	-0.195	-0.257
-394.121	350.660	0.059	-0.117
-393.106	-64.953	0.182	0.074
-392.092	22.711	0.238	0.197
-391.077	800.000	0.025	-0.077
-390.063	-40.978	0.139	0.072
-389.048	-174.738	-0.161	-0.005
-388.033	-20.762	-0.296	-0.183
-387.019	76.465	0.127	0.135
-386.004	-200.000	-0.002	0.158
-384.990	777.376	0.087	0.240
-383.975	322.474	0.224	0.429
-382.960	-200.000	-0.007	-0.075
-381.946	185.015	-0.238	0.356
-380.931	800.000	-0.086	-0.284
-379.917	-4.052	-0.160	-0.112
-378.902	-52.661	-0.291	-0.136
-377.888	-96.760	0.148	-0.039
-376.873	123.945	-0.289	0.366
-375.858	-200.000	-0.053	0.244
-374.844	800.000	0.022	-0.076
-373.829	-147.123	-0.143	-0.012
-372.815	-29.702	-0.156	0.090
-371.800	21.949	-0.181	-0.149
-370.785	400.673	0.028	-0.058
-369.771	-200.000	-0.031	-0.178
-368.756	800.000	0.060	-0.193
-367.742	800.000	-0.079	-0.255
-366.727	622.480	0.032	-0.080
-365.712	12.770	-0.109	-0.085
-364.698	9.483	0.075	-0.057
-363.683	-200.000	-0.001	0.239
-362.669	-184.627	-0.202	0.003
-361.654	154.580	0.088	-0.122
-360.639	-172.872	-0.152	0.005
-359.625	681.581	0.126	-0.331
-358.610	-133.188	-0.214	0.027
-357.596	-200.000	-0.050	-0.222
-356.581	279.540	-0.064	0.115
-355.566	-140.913	0.353	0.037
-354.552	86.247	-0.056	0.062
-353.537	-117.073	-0.264	-0.048
-352.523	201.409	-0.045	0.069
-351.508	800.000	0.070	0.242
-350.493	168.846	0.069	0.100
-349.479	232.859	-0.148	-0.245
-348.464	800.000	-0.082	-0.309
-347.450	-152.461	-0.232	-0.017
-346.435	318.772	-0.158	0.300
-345.420	188.148	0.120	0.180
-344.406	-200.000	-0.036	0.186
-343.391	-200.000	-0.017	0.199
-342.377	-200.000	0.009	-0.142
-341.362	-53.924	-0.108	-0.049
-340.348	-200.000	0.005	-0.075
-339.333	758.179	-0.124	-0.339
-338.318	-68.410	0.243	0.095
-337.304	-183.381	-0.577	0.010
-336.289	-12.599	0.090	-0.059
-335.275	-51.135	0.187	-0.088
-334.260	-77.923	0.451	-0.156
-333.245	193.552	0.034	0.051
-332.231	-137.174	-0.257	0.029
-331.216	275.494	-0.059	-0.105
-330.202	216.056	-0.201	-0.321
-329.187	118.759	0.068	0.085
-328.172	-109.998	-0.102	-0.021
-327.158	379.979	-0.047	-0.098
-326.143	-159.909	-0.305	-0.017
-325.129	-61.923	0.162	0.068
-324.114	-200.000	-0.038	0.241
-323.099	-139.225	-0.162	0.018
-322.085	65.635	0.139	-0.142
-321.070	-200.000	-0.011	0.313
-320.056	165.593	-0.220	0.313
-319.041	-200.000	-0.018	0.131
-318.026	-3.040	-0.134	0.094
-317.012	-126.047	0.208	-0.031
-315.997	800.000	-0.033	-0.144
-314.983	800.000	-0.043	0.184
-313.968	733.247	0.035	-0.095
-312.953	-177.803	-0.313	0.008
-311.939	88.141	0.081	-0.091
-310.924	38.519	0.214	-0.192
-309.910	-200.000	0.010	0.084
-308.895	-98.192	0.292	0.075
-307.880	-168.908	-0.122	-0.005
-306.866	800.000	0.076	0.255
-305.851	26.688	-0.231	-0.194
-304.837	-200.000	0.057	0.264
-303.822	56.912	-0.106	-0.103
-302.807	64.293	0.315	-0.318
-301.793	302.274	-0.073	-0.136
-300.778	-200.000	0.019	0.201
-299.764	-165.459	-0.355	-0.016
-298.749	478.362	-0.108	-0.246
-297.735	-200.000	0.038	-0.187
-296.720	-112.607	0.134	-0.027
-295.705	-107.932	-0.413	-0.090
-294.691	-72.830	0.228	0.084
-293.676	449.962	-0.076	0.168
-292.662	304.447	-0.194	0.362
-291.647	5.891	0.276	0.205
-290.632	-163.511	0.381	-0.018
-289.618	-143.924	-0.094	0.009
-288.603	102.010	-0.201	-0.236
-287.589	91.688	0.234	0.264
-286.574	5.893	0.086	0.064
-285.559	-79.472	0.507	0.172
-284.545	-61.599	-0.338	-0.142
-283.530	270.624	-0.075	0.132
-282.516	-172.591	-0.221	-0.007
-281.501	-100.853	-0.299	-0.074
-280.486	278.580	0.045	-0.080
-279.472	800.000	0.063	-0.199
-278.457	800.000	-0.109	0.349
-277.443	-184.751	-0.223	0.004
-276.428	-117.154	0.313	0.057
-275.413	-70.854	-0.126	0.048
-274.399	-200.000	0.072	0.348
-273.384	-87.891	-0.051	-0.015
-272.370	800.000	0.095	0.338
-271.355	-200.000	0.074	0.356
-270.340	-183.173	-0.277	0.005
-269.326	-31.094	0.208	0.118
-268.311	749.870	0.041	0.110
-267.297	-142.680	0.464	-0.045
-266.282	-86.482	0.175	-0.054
-265.267	312.550	-0.111	-0.210
-264.253	-88.137	0.337	-0.101
-263.238	-123.315	-0.221	0.035
-262.224	14.459	0.218	0.171
-261.209	-180.045	-0.132	-0.003
-260.195	-144.592	-0.021	-0.002
-259.180	-26.063	-0.147	0.087
-258.165	-145.318	0.194	-0.018
-257.151	45.661	0.016	-0.015
-256.136	-36.556	-0.058	-0.031
-255.122	-60.786	0.201	0.085
-254.107	200.450	0.226	0.348
-253.092	-14.005	-0.041	0.026
-252.078	2.201	-0.289	0.209
-251.063	-19.621	-0.121	0.075
-250.049	-179.792	0.206	-0.004
-249.034	-200.000	-0.044	-0.197
-248.019	-35.769	-0.271	-0.147
-247.005	-199.747	0.410	0.002
-245.990	-91.188	-0.279	-0.080
-244.976	167.492	0.189	-0.269
-243.961	-200.000	-0.011	-0.284
-242.946	17.996	0.363	-0.290
-241.932	-2.432	0.132	0.092
-240.917	-200.000	0.034	0.371
-239.903	-37.207	0.073	0.039
-238.888	405.183	0.083	0.176
-237.873	-178.293	0.044	0.001
-236.859	56.095	0.048	0.047
-235.844	771.732	0.075	0.205
-234.830	-4.218	-0.173	0.120
-233.815	-21.145	0.051	-0.031
-232.800	-200.000	0.006	-0.208
-231.786	-66.147	-0.027	-0.011
-230.771	361.022	0.128	-0.258
-229.757	74.111	0.148	-0.156
-228.742	-67.124	-0.084	0.033
-227.727	800.000	-0.062	-0.193
-226.713	221.085	-0.222	0.356
-225.698	-63.477	0.160	-0.066
-224.684	296.888	0.086	-0.158
-223.669	800.000	-0.077	-0.273
-222.655	72.842	0.189	0.198
-221.640	-4.930	0.266	-0.184
-220.625	-36.879	-0.034	-0.018
-219.611	9.439	0.199	-0.151
-218.596	66.849	0.154	0.157
-217.582	-200.000	0.021	0.156
-216.567	-13.578	0.163	0.106
-215.552	761.738	-0.061	0.164
-214.538	-75.261	-0.121	-0.043
-213.523	392.784	0.153	0.319
-212.509	800.000	0.101	0.340
-211.494	-10.641	-0.076	-0.050
-210.479	-144.698	-0.152	0.014
-209.465	-172.186	-0.097	-0.003
-208.450	28.438	-0.203	-0.172
-207.436	-191.758	0.331	0.003
-206.421	241.500	0.133	-0.223
-205.406	13.701	0.235	-0.183
-204.392	-200.000	-0.003	0.015
-203.377	800.000	-0.051	-0.218
-202.363	25.715	0.076	-0.063
-201.348	144.463	-0.216	-0.288
-200.333	52.838	0.285	-0.272
-199.319	-58.487	0.105	0.046
-198.304	17.828	0.294	0.234
-197.290	13.510	-0.221	-0.171
-196.275	-200.000	-0.009	-0.210
-195.260	311.413	-0.116	-0.218
-194.246	-44.621	0.235	0.117
-193.231	159.549	0.128	0.178
-192.217	199.938	0.135	-0.207
-191.202	6.742	0.371	-0.276
-190.187	158.433	-0.219	-0.304
-189.173	-133.933	-0.224	0.028
-188.158	214.597	-0.160	0.253
-187.144	273.096	-0.129	0.228
-186.129	251.515	-0.054	0.092
-185.114	800.000	-0.051	0.176
-184.100	-200.000	-0.027	0.283
-183.085	-28.623	-0.186	0.107
-182.071	-83.025	0.393	0.127
-181.056	113.722	-0.150	-0.182
-180.042	131.604	-0.066	-0.084
-179.027	101.619	0.058	-0.067
-178.012	378.662	-0.114	0.233
-176.998	-200.000	-0.009	0.170
-175.983	-200.000	-0.006	-0.195
-174.969	-26.473	0.212	0.124
-173.954	-140.817	0.111	0.011
-172.939	-48.203	0.070	0.034
-171.925	171.358	0.047	-0.068
-170.910	660.867	-0.049	0.126
-169.896	800.000	0.065	-0.211
-168.881	282.062	-0.213	-0.382
-167.866	-36.907	0.188	-0.101
-166.852	-40.999	0.346	-0.178
-165.837	-40.868	-0.088	0.045
-164.823	800.000	0.021	0.082
-163.808	56.870	-0.223	-0.217
-162.793	380.069	0.073	0.150
-161.779	45.079	0.065	-0.060
-160.764	282.930	-0.051	-0.091
-159.750	-84.884	0.401	-0.126
-158.735	-116.120	-0.100	0.019
-157.720	-51.810	0.221	-0.103
-156.706	-185.243	-0.192	0.003
-155.691	-98.064	0.299	-0.077
-154.677	97.469	-0.195	0.223
-153.662	247.559	-0.216	0.365
-152.647	154.513	0.193	0.265
-151.633	-35.451	-0.040	-0.022
-150.618	800.000	-0.084	-0.260
-149.604	153.178	-0.048	-0.065
-148.589	-62.701	0.193	0.080
-147.574	738.303	-0.083	0.223
-146.560	552.718	-0.105	0.251
-145.545	54.614	-0.337	-0.325
-144.531	-21.545	-0.135	0.082
-143.516	-140.927	0.188	-0.019
-142.502	-123.522	-0.100	0.016
-141.487	-47.874	-0.280	0.135
-140.472	212.064	-0.045	0.071
-139.458	-16.478	-0.073	0.046
-138.443	-114.964	-0.236	-0.045
-137.429	-38.422	0.246	-0.130
-136.414	-27.337	0.165	-0.096
-135.399	533.349	0.025	-0.059
-134.385	-134.071	0.133	0.016
-133.370	-200.000	0.053	-0.275
-132.356	235.749	0.240	0.395
-131.341	145.663	-0.051	-0.068
-130.326	-67.001	0.117	-0.046
-129.312	-132.985	-0.201	-0.026
-128.297	328.112	-0.092	0.176
-127.283	570.981	-0.090	-0.220
-126.268	238.672	0.121	-0.200
-125.253	-200.000	-0.006	0.129
-124.239	-5.550	-0.274	-0.188
-123.224	-98.114	0.267	-0.069
-122.210	134.676	0.251	0.325
