DTS Sentinel unit serial number:	SN413079Multiplexer serial number:	ORYXHardware model number:	OX4-SRSoftware version number:	ORYX F/W v4.00 Oryx Data Collector v3.7.2.0data status	okinstallation	princeton_trtdifferential loss correction	single-endedforward channel	channel 1reverse channel	N/Adate	2019/09/17time	17:22:35forward acquisition time	60.00reverse acquisition time	0.00gamma	496.2192k internal	0.2291k external	0.2291temperature offset calibration	0.9954default loss term (dB/km)	0.3790temperature slope calibration	1.0000multiplexer offset coefficient	1.0000multiplexer slope coefficient	1.0000fibre end	0.00T internal ref (°C)	43.02T ext. ref 1 (°C)	0.35T ext. ref 2 (°C)	38.87length (m)	temperature (°C)	Stokes	anti-Stokes-747.200	-200.000	-0.111	0.529
-746.185	-93.564	-0.233	-0.066
-745.171	-9.123	0.114	-0.078
-744.156	-200.000	0.021	0.220
-743.142	389.235	0.094	-0.199
-742.127	-123.450	0.112	0.018
-741.112	-200.000	0.003	-0.198
-740.098	-0.414	-0.351	0.255
-739.083	146.605	-0.071	-0.097
-738.069	89.061	-0.045	-0.051
-737.054	-22.890	0.123	0.076
-736.039	-21.157	-0.188	0.117
-735.025	-112.649	0.193	0.039
-734.010	-143.524	-0.199	0.019
-732.996	-14.488	-0.295	0.195
-731.981	75.740	-0.095	-0.103
-730.966	516.657	0.104	-0.248
-729.952	-164.320	-0.354	-0.017
-728.937	19.957	0.137	0.113
-727.923	-9.137	0.036	-0.024
-726.908	104.087	-0.162	-0.194
-725.894	10.319	0.091	0.071
-724.879	-181.998	0.072	-0.001
-723.864	800.000	0.043	-0.165
-722.850	159.109	0.106	0.151
-721.835	30.985	0.259	-0.227
-720.821	-200.000	0.032	0.289
-719.806	45.570	-0.227	-0.215
-718.791	800.000	-0.040	-0.146
-717.777	33.295	-0.095	-0.084
-716.762	169.681	-0.067	0.098
-715.748	-200.000	0.026	-0.137
-714.733	-166.770	-0.223	-0.009
-713.718	-200.000	0.006	0.136
-712.704	141.166	0.179	0.243
-711.689	-112.166	-0.048	-0.010
-710.675	734.736	-0.116	0.317
-709.660	44.170	-0.180	0.169
-708.645	17.988	0.145	-0.118
-707.631	-140.351	-0.236	0.025
-706.616	-27.190	-0.055	0.033
-705.602	245.819	0.144	0.248
-704.587	89.237	0.127	0.144
-703.572	10.409	0.192	0.149
-702.558	91.282	-0.182	0.209
-701.543	-113.882	0.079	0.016
-700.529	83.680	0.099	-0.110
-699.514	800.000	0.049	0.165
-698.499	-97.275	0.457	-0.122
-697.485	-58.097	-0.437	0.195
-696.470	-176.940	-0.169	-0.004
-695.456	416.792	0.023	0.051
-694.441	-122.382	-0.218	-0.036
-693.426	165.692	0.115	0.166
-692.412	-3.655	0.104	0.074
-691.397	800.000	-0.075	0.257
-690.383	-64.109	-0.135	-0.056
-689.368	800.000	0.074	-0.233
-688.354	-67.261	0.228	0.091
-687.339	27.076	0.211	-0.181
-686.324	116.302	-0.050	-0.063
-685.310	269.289	0.082	-0.146
-684.295	8.787	-0.073	-0.056
-683.281	-8.924	0.100	0.069
-682.266	-4.614	-0.382	-0.269
-681.251	-44.966	0.029	-0.015
-680.237	11.030	-0.183	0.143
-679.222	79.458	-0.181	-0.198
-678.208	-112.452	-0.436	0.089
-677.193	-174.641	-0.101	-0.003
-676.178	-200.000	0.005	-0.456
-675.164	43.295	-0.087	0.081
-674.149	101.136	0.153	0.181
-673.135	-46.221	-0.341	0.171
-672.120	-120.691	0.173	0.030
-671.105	-138.793	-0.370	-0.041
-670.091	176.768	-0.088	-0.131
-669.076	-200.000	-0.003	-0.166
-668.062	800.000	-0.080	0.302
-667.047	151.601	-0.125	-0.173
-666.032	26.763	-0.087	0.075
-665.018	-14.427	0.302	-0.199
-664.003	-8.201	0.062	0.043
-662.989	-19.158	-0.138	0.088
-661.974	-27.487	-0.137	-0.081
-660.959	-47.321	-0.250	-0.124
-659.945	143.345	0.394	0.535
-658.930	-200.000	0.047	0.219
-657.916	800.000	-0.041	-0.141
-656.901	-102.847	-0.162	-0.039
-655.886	233.518	0.085	0.143
-654.872	800.000	0.042	-0.184
-653.857	-4.921	-0.072	0.051
-652.843	-4.760	0.227	-0.160
-651.828	122.847	-0.095	-0.121
-650.814	293.591	-0.120	-0.223
-649.799	-36.236	0.249	0.137
-648.784	-30.944	-0.213	0.123
-647.770	-32.431	0.284	-0.162
-646.755	-10.795	-0.049	-0.033
-645.741	-100.769	0.294	0.074
-644.726	18.300	0.259	0.211
-643.711	-16.061	0.078	-0.051
-642.697	658.196	0.148	-0.388
-641.682	-9.056	-0.160	-0.109
-640.668	18.394	-0.255	-0.208
-639.653	-82.544	0.242	-0.080
-638.638	-96.741	0.394	0.106
-637.624	32.821	-0.061	-0.054
-636.609	84.975	0.119	-0.133
-635.595	-200.000	-0.030	0.303
-634.580	367.658	-0.125	0.258
-633.565	413.281	0.035	-0.076
-632.551	-86.094	-0.199	-0.063
-631.536	45.388	-0.101	0.095
-630.522	-200.000	-0.002	-0.079
-629.507	-134.223	-0.036	-0.005
-628.492	-135.876	-0.224	-0.027
-627.478	16.214	-0.024	0.019
-626.463	800.000	-0.121	0.414
-625.449	91.767	-0.253	-0.290
-624.434	-118.191	0.442	-0.080
-623.419	-102.670	-0.339	0.082
-622.405	-151.947	0.080	0.006
-621.390	794.793	-0.021	0.059
-620.376	-6.226	-0.036	0.025
-619.361	-64.695	-0.119	0.049
-618.346	-11.307	-0.143	-0.096
-617.332	-108.473	-0.415	0.091
-616.317	-200.000	-0.004	-0.187
-615.303	800.000	-0.030	0.098
-614.288	-200.000	-0.008	-0.201
-613.273	800.000	0.046	0.184
-612.259	22.002	0.239	0.199
-611.244	800.000	-0.027	0.103
-610.230	800.000	0.044	-0.157
-609.215	32.114	-0.057	0.050
-608.201	-135.654	-0.291	0.035
-607.186	800.000	0.054	-0.215
-606.171	-42.584	-0.200	-0.104
-605.157	217.388	-0.198	-0.321
-604.142	-122.752	0.077	-0.013
-603.128	800.000	-0.070	0.241
-602.113	-150.687	-0.397	-0.031
-601.098	81.127	0.131	-0.143
-600.084	-118.974	0.273	-0.049
-599.069	-200.000	-0.007	0.105
-598.055	-45.584	-0.164	0.083
-597.040	-92.876	-0.156	0.044
-596.025	-49.132	0.253	0.123
-595.011	-200.000	0.008	0.192
-593.996	152.246	-0.206	0.286
-592.982	-0.114	-0.346	-0.251
-591.967	113.005	0.180	0.222
-590.952	147.054	0.137	0.188
-589.938	-200.000	-0.013	0.130
-588.923	322.107	-0.028	-0.053
-587.909	-87.891	-0.106	-0.032
-586.894	-108.576	0.112	0.024
-585.879	-87.929	0.043	-0.013
-584.865	163.131	-0.069	0.099
-583.850	37.706	-0.032	-0.029
-582.836	97.924	-0.062	0.073
-581.821	-57.322	-0.390	-0.174
-580.806	-183.867	0.256	0.004
-579.792	28.010	0.139	-0.120
-578.777	276.488	-0.076	0.137
-577.763	-121.194	0.522	0.089
-576.748	-107.895	-0.234	0.052
-575.733	-56.234	0.326	0.147
-574.719	-124.722	0.182	0.029
-573.704	-200.000	-0.065	0.336
-572.690	-200.000	-0.007	0.100
-571.675	-88.273	0.255	-0.078
-570.661	-46.645	0.203	0.101
-569.646	-45.394	0.102	0.051
-568.631	800.000	-0.043	-0.150
-567.617	490.224	0.009	0.022
-566.602	63.774	0.183	-0.187
-565.588	-100.927	0.297	-0.074
-564.573	24.083	-0.306	-0.256
-563.558	800.000	0.073	-0.267
-562.544	196.629	-0.030	-0.046
-561.529	-126.269	-0.212	0.032
-560.515	-111.036	0.285	0.060
-559.500	487.625	-0.100	-0.233
-558.485	11.949	0.353	0.276
-557.471	-7.150	-0.242	-0.167
-556.456	-139.702	0.307	0.033
-555.442	800.000	-0.127	0.396
-554.427	676.981	0.048	0.128
-553.412	800.000	0.036	0.145
-552.398	-112.779	0.240	0.048
-551.383	-45.972	0.187	0.094
-550.369	-27.597	-0.333	0.196
-549.354	85.328	-0.200	0.223
-548.339	683.716	0.041	-0.110
-547.325	-1.047	-0.214	-0.154
-546.310	-66.300	-0.140	0.057
-545.296	83.378	-0.027	-0.030
-544.281	14.849	-0.061	0.048
-543.266	-52.938	-0.138	0.064
-542.252	-178.485	-0.324	-0.008
-541.237	800.000	0.052	0.222
-540.223	-200.000	0.011	-0.172
-539.208	800.000	0.006	0.021
-538.193	223.334	0.186	0.304
-537.179	-200.000	0.056	-0.339
-536.164	605.562	0.086	0.217
-535.150	-48.313	0.168	-0.082
-534.135	-134.800	-0.082	-0.010
-533.121	-92.307	0.107	0.031
-532.106	696.191	-0.019	-0.051
-531.091	57.841	-0.055	0.055
-530.077	-200.000	-0.025	0.144
-529.062	-1.206	0.027	-0.019
-528.048	-74.340	-0.243	0.089
-527.033	514.926	0.039	-0.092
-526.018	-42.597	-0.284	-0.147
-525.004	-172.380	0.215	-0.007
-523.989	-66.485	0.217	0.087
-522.975	800.000	-0.061	0.178
-521.960	438.187	-0.095	0.210
-520.945	-134.998	-0.132	-0.016
-519.931	-112.963	-0.186	-0.037
-518.916	51.243	-0.051	-0.049
-517.902	-200.000	-0.017	-0.369
-516.887	-200.000	-0.006	-0.136
-515.872	-90.515	0.056	0.017
-514.858	-67.345	-0.128	-0.051
-513.843	778.194	-0.113	-0.313
-512.829	800.000	-0.048	-0.156
-511.814	-11.557	-0.147	0.098
-510.799	-105.649	-0.181	0.042
-509.785	97.813	0.066	0.076
-508.770	353.923	-0.051	0.102
-507.756	-60.063	-0.293	0.127
-506.741	800.000	0.060	0.175
-505.726	-87.804	0.313	0.096
-504.712	107.322	-0.094	0.113
-503.697	-200.000	-0.008	-0.449
-502.683	-11.614	0.054	-0.036
-501.668	-47.530	0.205	-0.101
-500.653	-98.878	-0.212	0.055
-499.639	9.036	0.146	0.112
-498.624	800.000	0.064	-0.215
-497.610	205.442	0.076	-0.119
-496.595	362.396	0.191	-0.389
-495.581	174.033	-0.077	0.113
-494.566	-39.860	0.111	-0.059
-493.551	-26.790	0.081	-0.048
-492.537	84.603	-0.173	-0.192
-491.522	409.667	-0.085	0.183
-490.508	28.284	0.181	-0.155
-489.493	55.183	0.032	0.031
-488.478	16.341	-0.142	-0.114
-487.464	-17.136	-0.376	0.241
-486.449	204.443	0.061	-0.096
-485.435	800.000	0.106	-0.332
-484.420	-200.000	-0.040	-0.258
-483.405	278.304	-0.089	0.160
-482.391	-43.849	-0.228	0.116
-481.376	240.437	0.114	0.193
-480.362	-124.243	0.426	-0.068
-479.347	94.862	-0.070	0.081
-478.332	-200.000	0.010	0.107
-477.318	62.360	-0.200	0.202
-476.303	459.138	0.110	-0.247
-475.289	-52.545	-0.139	0.065
-474.274	199.720	-0.154	0.239
-473.259	800.000	-0.058	-0.241
-472.245	800.000	-0.088	0.303
-471.230	-150.369	0.311	-0.024
-470.216	-183.212	-0.232	-0.004
-469.201	-23.762	0.110	0.067
-468.186	-200.000	-0.005	0.113
-467.172	-152.764	-0.197	0.014
-466.157	-72.589	-0.090	-0.034
-465.143	-119.665	-0.259	-0.045
-464.128	-27.242	-0.287	-0.169
-463.113	-36.194	0.309	-0.169
-462.099	107.903	0.047	0.057
-461.084	-146.386	0.051	0.005
-460.070	240.308	0.149	0.251
-459.055	-1.512	0.130	-0.093
-458.040	-21.789	0.141	0.087
-457.026	-200.000	0.108	-0.000
-456.011	-95.300	0.294	-0.080
-454.997	-200.000	-0.003	0.230
-453.982	42.234	0.304	-0.279
-452.968	-200.000	0.005	0.124
-451.953	-92.310	-0.141	-0.040
-450.938	77.389	-0.109	0.118
-449.924	-200.000	-0.041	0.211
-448.909	-102.738	-0.119	0.029
-447.895	800.000	0.058	-0.217
-446.880	207.234	-0.288	-0.454
-445.865	192.938	-0.176	-0.269
-444.851	131.369	0.071	-0.093
-443.836	-63.448	-0.094	0.039
-442.822	413.328	-0.099	0.214
-441.807	-98.321	0.118	0.031
-440.792	-97.111	-0.180	-0.048
-439.778	90.006	0.141	0.159
-438.763	219.481	-0.143	-0.231
-437.749	-200.000	-0.025	-0.294
-436.734	-200.000	-0.045	0.335
-435.719	-96.488	-0.114	-0.031
-434.705	203.835	-0.123	-0.193
-433.690	77.701	0.211	0.227
-432.676	-36.285	-0.160	0.087
-431.661	421.299	-0.168	-0.365
-430.646	-110.902	-0.245	-0.051
-429.632	201.730	-0.164	0.256
-428.617	371.544	-0.103	-0.212
-427.603	90.219	0.194	-0.220
-426.588	-156.806	0.149	0.009
-425.573	-200.000	-0.008	0.189
-424.559	404.194	0.208	-0.443
-423.544	-7.538	0.148	-0.101
-422.530	143.597	0.022	0.030
-421.515	102.191	-0.045	0.053
-420.500	800.000	-0.015	-0.057
-419.486	800.000	0.165	0.503
-418.471	284.710	-0.151	-0.275
-417.457	118.527	-0.150	-0.187
-416.442	800.000	0.050	-0.148
-415.428	-98.336	-0.163	0.042
-414.413	4.380	0.079	-0.058
-413.398	-169.739	-0.098	0.004
-412.384	-29.116	-0.253	-0.147
-411.369	-157.950	-0.333	-0.020
-410.355	188.327	-0.205	-0.309
-409.340	-64.265	-0.136	-0.056
-408.325	-33.543	0.337	-0.188
-407.311	800.000	0.088	-0.257
-406.296	-200.000	-0.126	0.622
-405.282	-200.000	0.018	0.237
-404.267	-175.236	0.110	0.003
-403.252	-200.000	-0.037	0.310
-402.238	270.079	-0.096	-0.171
-401.223	295.202	-0.183	0.339
-400.209	-40.525	-0.366	0.192
-399.194	-200.000	-0.026	-0.196
-398.179	-98.118	0.498	-0.130
-397.165	21.152	-0.121	0.099
-396.150	139.806	-0.098	0.131
-395.136	142.482	0.109	0.146
-394.121	97.461	-0.184	0.214
-393.106	800.000	0.082	-0.234
-392.092	70.963	0.281	0.294
-391.077	-116.879	0.194	-0.036
-390.063	-47.210	0.226	-0.111
-389.048	800.000	-0.111	-0.375
-388.033	-200.000	-0.017	-0.154
-387.019	456.932	0.150	0.337
-386.004	603.644	-0.079	-0.200
-384.990	234.860	0.066	0.111
-383.975	-200.000	0.042	-0.326
-382.960	800.000	-0.076	0.274
-381.946	-200.000	0.047	0.369
-380.931	-200.000	-0.022	-0.418
-379.917	146.337	0.130	0.176
-378.902	-200.000	-0.021	0.242
-377.888	-200.000	-0.026	0.136
-376.873	-196.626	0.355	0.002
-375.858	533.328	-0.063	-0.150
-374.844	-200.000	0.044	0.231
-373.829	-14.443	-0.245	0.159
-372.815	416.811	-0.059	-0.126
-371.800	800.000	-0.101	-0.293
-370.785	251.438	0.087	-0.150
-369.771	-165.456	0.331	-0.015
-368.756	800.000	-0.057	-0.185
-367.742	69.277	-0.167	0.173
-366.727	332.342	0.203	0.396
-365.712	-64.153	-0.140	0.058
-364.698	800.000	-0.040	-0.128
-363.683	-111.925	-0.159	0.032
-362.669	-119.009	-0.496	-0.088
-361.654	-200.000	0.108	0.477
-360.639	122.705	0.123	0.155
-359.625	-200.000	-0.069	0.329
-358.610	235.456	0.024	-0.040
-357.596	22.306	-0.227	0.187
-356.581	-55.421	0.281	-0.127
-355.566	-99.740	0.317	-0.080
-354.552	47.875	0.093	-0.088
-353.537	-34.840	0.320	-0.176
-352.523	-84.547	0.130	0.041
-351.508	83.807	-0.144	-0.159
-350.493	-24.629	0.383	0.230
-349.479	-200.000	-0.017	-0.375
-348.464	-176.073	0.116	-0.003
-347.450	800.000	-0.069	-0.225
-346.435	800.000	-0.037	-0.154
-345.420	-56.477	-0.214	-0.096
-344.406	-12.930	-0.397	0.260
-343.391	-119.543	-0.125	-0.022
-342.377	125.311	-0.230	0.292
-341.362	299.691	0.117	-0.217
-340.348	800.000	-0.063	-0.240
-339.333	244.820	0.132	0.224
-338.318	-71.986	-0.210	0.079
-337.304	-200.000	0.019	-0.374
-336.289	164.948	-0.133	-0.189
-335.275	-200.000	0.021	0.137
-334.260	-131.666	0.221	-0.029
-333.245	-141.275	-0.076	-0.008
-332.231	-90.886	-0.224	-0.065
-331.216	-49.472	-0.089	0.043
-330.202	235.339	0.223	0.371
-329.187	800.000	0.053	0.154
-328.172	-119.246	0.228	0.040
-327.158	105.383	0.201	0.240
-326.143	42.594	0.207	0.190
-325.129	800.000	-0.036	0.110
-324.114	-65.148	-0.175	-0.071
-323.099	370.492	0.129	0.262
-322.085	800.000	-0.109	0.330
-321.070	-88.295	-0.194	-0.058
-320.056	15.025	-0.220	-0.174
-319.041	145.670	-0.122	-0.164
-318.026	800.000	-0.038	0.152
-317.012	-72.352	-0.226	0.084
-315.997	268.875	-0.040	-0.071
-314.983	-108.573	0.227	0.049
-313.968	-34.696	0.273	-0.151
-312.953	-54.002	-0.064	0.029
-311.939	-81.162	0.296	0.098
-310.924	64.518	-0.251	0.254
-309.910	16.475	0.080	-0.064
-308.895	27.022	0.156	-0.132
-307.880	376.640	0.079	0.163
-306.866	-16.687	0.287	0.183
-305.851	-105.576	0.213	0.049
-304.837	-200.000	0.003	0.169
-303.822	-136.902	-0.314	-0.036
-302.807	800.000	-0.028	0.098
-301.793	-4.687	0.223	-0.155
-300.778	800.000	0.020	0.075
-299.764	-151.793	0.219	0.016
-298.749	800.000	0.058	0.238
-297.735	800.000	-0.105	0.312
-296.720	-23.544	0.016	-0.009
-295.705	-14.035	-0.217	-0.141
-294.691	-48.163	0.208	-0.101
-293.676	237.174	-0.137	-0.228
-292.662	-200.000	-0.018	-0.383
-291.647	52.144	-0.200	-0.192
-290.632	-200.000	-0.009	-0.140
-289.618	-1.381	-0.138	-0.098
-288.603	-4.124	0.102	0.071
-287.589	35.872	-0.311	-0.275
-286.574	612.726	0.076	-0.190
-285.559	-122.492	-0.409	0.067
-284.545	-85.271	-0.208	0.065
-283.530	546.682	-0.026	0.063
-282.516	-200.000	0.037	-0.169
-281.501	800.000	-0.145	-0.489
-280.486	-113.639	0.426	-0.084
-279.472	800.000	-0.046	-0.141
-278.457	-82.936	-0.357	0.116
-277.443	-36.008	-0.062	-0.033
-276.428	800.000	-0.102	0.324
-275.413	-200.000	-0.032	0.462
-274.399	-200.000	0.055	-0.360
-273.384	-16.079	0.353	0.226
-272.370	-175.960	0.231	0.006
-271.355	-13.166	-0.190	-0.124
-270.340	109.098	-0.176	-0.212
-269.326	-1.149	0.141	0.100
-268.311	239.640	-0.132	-0.221
-267.297	-47.921	0.210	-0.102
-266.282	299.722	0.039	0.073
-265.267	469.323	0.044	0.100
-264.253	116.917	0.187	-0.231
-263.238	-79.041	0.265	0.090
-262.224	38.252	-0.123	0.110
-261.209	-39.209	0.145	-0.077
-260.195	-57.329	0.239	0.105
-259.180	-146.226	0.259	-0.023
-258.165	-79.703	-0.202	-0.068
-257.151	800.000	-0.065	-0.186
-256.136	190.244	0.141	-0.212
-255.122	800.000	-0.046	0.132
-254.107	99.620	-0.063	0.073
-253.092	251.823	-0.060	-0.103
-252.078	-153.608	0.123	-0.009
-251.063	212.328	0.065	0.103
-250.049	115.143	0.085	0.104
-249.034	107.789	0.116	0.138
-248.019	800.000	0.037	-0.103
-247.005	-117.459	-0.431	0.078
-245.990	174.980	0.096	0.139
-244.976	-95.002	0.500	-0.136
-243.961	-163.493	-0.194	-0.009
-242.946	-94.112	0.280	0.077
-241.932	34.282	-0.135	0.118
-240.917	420.737	0.086	-0.186
-239.903	-30.898	-0.185	-0.105
-238.888	-62.297	0.448	-0.187
-237.873	148.142	0.232	-0.314
-236.859	-85.770	0.103	0.032
-235.844	800.000	-0.053	-0.150
-234.830	-43.437	-0.102	0.052
-233.815	-10.330	0.312	-0.208
-232.800	-62.325	0.358	0.150
-231.786	-200.000	0.028	0.124
-230.771	-84.488	0.131	-0.042
-229.757	185.909	0.103	0.154
-228.742	-200.000	0.006	-0.252
-227.727	800.000	0.040	0.159
-226.713	-7.628	-0.150	-0.102
-225.698	-105.961	0.323	-0.073
-224.684	343.838	0.053	-0.105
-223.669	-200.000	0.023	0.168
-222.655	-200.000	0.015	-0.186
-221.640	40.838	0.282	-0.255
-220.625	-200.000	0.007	0.181
-219.611	185.210	0.076	0.113
-218.596	-41.045	-0.385	-0.199
-217.582	196.570	-0.097	-0.149
-216.567	-200.000	0.012	0.210
-215.552	-200.000	0.048	0.508
-214.538	-39.770	0.075	-0.039
-213.523	-49.980	0.233	0.111
-212.509	-64.730	0.158	-0.064
-211.494	100.970	0.158	0.184
-210.479	-200.000	-0.009	0.054
-209.465	-21.247	-0.231	0.142
-208.450	-200.000	0.004	-0.134
-207.436	800.000	0.067	0.208
-206.421	-72.102	-0.285	0.106
-205.406	-200.000	0.006	0.230
-204.392	-134.652	-0.355	-0.043
-203.377	100.023	-0.034	0.039
-202.363	200.811	-0.163	0.252
-201.348	21.060	-0.135	-0.110
-200.333	-97.458	0.122	-0.032
-199.319	44.075	0.067	-0.061
-198.304	-200.000	0.048	-0.431
-197.290	28.444	-0.080	-0.068
-196.275	-25.044	-0.215	0.128
-195.260	-167.329	0.057	-0.002
-194.246	-200.000	0.049	0.287
-193.231	-200.000	-0.074	-0.406
-192.217	-31.570	-0.135	-0.076
-191.202	53.001	0.282	0.270
-190.187	-19.848	0.092	0.057
-189.173	-25.869	-0.174	-0.103
-188.158	363.248	0.082	-0.166
-187.144	-93.391	0.128	0.036
-186.129	-200.000	0.034	-0.214
-185.114	83.764	0.051	0.055
-184.100	246.523	-0.143	-0.241
-183.085	800.000	0.032	-0.111
-182.071	-107.596	-0.238	-0.052
-181.056	4.929	0.093	-0.069
-180.042	-7.221	0.231	0.157
-179.027	138.820	-0.137	-0.180
-178.012	150.958	0.146	0.199
-176.998	-63.095	-0.325	-0.134
-175.983	-121.611	-0.127	-0.021
-174.969	-63.437	0.023	0.010
-173.954	-42.904	0.141	0.072
-172.939	-200.000	-0.006	0.270
-171.925	-200.000	0.019	0.256
-170.910	-200.000	-0.022	-0.233
-169.896	37.342	-0.043	0.038
-168.881	548.285	-0.027	-0.065
-167.866	-66.279	-0.425	-0.169
-166.852	-200.000	-0.009	0.338
-165.837	600.675	-0.120	0.299
-164.823	0.474	0.283	-0.202
-163.808	280.301	-0.193	0.345
-162.793	119.027	0.129	0.160
-161.779	134.958	0.083	-0.108
-160.764	549.144	0.119	-0.285
-159.750	-200.000	-0.004	0.034
-158.735	276.588	-0.050	0.088
-157.720	-34.345	-0.088	0.048
-156.706	800.000	-0.116	-0.438
-155.691	215.468	0.158	-0.251
-154.677	-24.433	0.124	-0.074
-153.662	214.459	-0.073	-0.116
-152.647	122.580	0.109	-0.136
-151.633	-14.545	-0.125	0.080
-150.618	-40.489	-0.098	-0.051
-149.604	-46.492	-0.096	-0.047
-148.589	800.000	0.097	0.285
-147.574	-200.000	-0.012	0.066
-146.560	-200.000	0.060	0.345
-145.545	-105.402	-0.114	-0.026
-144.531	-114.643	0.181	-0.035
-143.516	-200.000	0.007	-0.143
-142.502	-107.056	-0.057	-0.013
-141.487	90.846	-0.171	0.192
-140.472	20.794	-0.332	0.269
-139.458	314.576	0.105	-0.198
-138.443	-143.191	-0.284	-0.027
-137.429	-6.247	-0.135	-0.092
-136.414	2.632	0.224	-0.162
-135.399	800.000	0.104	-0.316
-134.385	57.058	-0.133	-0.129
-133.370	-117.948	0.021	-0.004
-132.356	377.533	0.113	0.231
-131.341	-185.229	0.241	0.004
-130.326	-16.602	0.100	0.063
-129.312	800.000	0.050	0.195
-128.297	76.841	-0.179	-0.190
-127.283	718.629	0.204	-0.540
-126.268	-23.614	-0.049	0.030
-125.253	-200.000	0.006	0.096
-124.239	235.437	-0.012	-0.020
-123.224	189.264	0.219	-0.328
-122.210	72.551	-0.235	0.245
-121.195	102.309	-0.101	0.118
