DTS Sentinel unit serial number:	SN413079Multiplexer serial number:	ORYXHardware model number:	OX4-SRSoftware version number:	ORYX F/W v4.00 Oryx Data Collector v3.7.2.0data status	okinstallation	princeton_trtdifferential loss correction	single-endedforward channel	channel 1reverse channel	N/Adate	2019/09/17time	12:30:35forward acquisition time	60.00reverse acquisition time	0.00gamma	496.2192k internal	0.2318k external	0.2318temperature offset calibration	0.9972default loss term (dB/km)	0.3790temperature slope calibration	1.0000multiplexer offset coefficient	1.0000multiplexer slope coefficient	1.0000fibre end	0.00T internal ref (°C)	31.94T ext. ref 1 (°C)	0.42T ext. ref 2 (°C)	29.15length (m)	temperature (°C)	Stokes	anti-Stokes-747.200	800.000	-0.037	-0.155
-746.185	-127.159	-0.138	0.020
-745.171	196.606	0.120	0.185
-744.156	-152.550	-0.116	0.008
-743.142	327.634	-0.100	0.193
-742.127	162.135	0.176	0.250
-741.112	-88.056	-0.228	0.069
-740.098	-73.279	-0.425	-0.157
-739.083	77.541	0.046	-0.050
-738.069	246.304	-0.263	-0.448
-737.054	-65.412	-0.383	-0.156
-736.039	584.281	-0.157	-0.391
-735.025	800.000	0.069	-0.258
-734.010	-141.936	0.327	-0.033
-732.996	201.661	-0.209	-0.326
-731.981	-107.904	0.247	0.054
-730.966	800.000	0.031	0.112
-729.952	800.000	0.044	0.169
-728.937	-118.068	-0.433	0.078
-727.923	105.198	0.101	0.120
-726.908	81.913	-0.141	0.155
-725.894	31.461	0.205	-0.179
-724.879	-113.704	0.192	0.038
-723.864	-200.000	-0.250	0.001
-722.850	-118.515	-0.222	0.040
-721.835	-177.148	0.134	0.003
-720.821	-200.000	-0.018	0.136
-719.806	704.671	0.063	0.169
-718.791	573.688	0.095	-0.234
-717.777	-196.521	-0.234	0.002
-716.762	-34.860	-0.316	-0.174
-715.748	-200.000	0.063	-0.305
-714.733	-110.196	0.195	-0.041
-713.718	-25.394	-0.395	-0.236
-712.704	320.138	-0.142	-0.272
-711.689	226.499	-0.142	-0.233
-710.675	200.230	0.188	-0.292
-709.660	316.899	0.096	-0.184
-708.645	74.704	-0.093	0.099
-707.631	37.422	0.088	0.079
-706.616	202.413	0.186	-0.290
-705.602	800.000	-0.056	-0.203
-704.587	108.823	-0.265	-0.320
-703.572	-6.409	0.056	-0.038
-702.558	-77.908	0.129	0.045
-701.543	800.000	-0.008	-0.033
-700.529	-44.844	0.338	0.170
-699.514	-200.000	0.028	0.267
-698.499	-200.000	-0.004	-0.116
-697.485	-200.000	0.009	-0.068
-696.470	119.607	0.066	0.082
-695.456	531.894	-0.064	-0.153
-694.441	800.000	0.008	-0.030
-693.426	-200.000	0.076	-0.543
-692.412	483.748	0.008	-0.017
-691.397	150.004	0.204	-0.279
-690.383	53.737	-0.271	0.263
-689.368	-200.000	-0.030	0.164
-688.354	326.275	-0.032	0.061
-687.339	-72.939	0.280	0.104
-686.324	30.418	-0.379	0.327
-685.310	82.257	0.204	-0.224
-684.295	255.413	-0.155	-0.268
-683.281	-72.266	-0.118	0.044
-682.266	-200.000	0.031	0.251
-681.251	-200.000	-0.002	0.020
-680.237	-200.000	0.020	-0.193
-679.222	485.342	-0.057	0.130
-678.208	-80.976	0.176	-0.059
-677.193	43.905	-0.252	-0.233
-676.178	-112.087	-0.306	0.062
-675.164	-120.626	0.152	-0.026
-674.149	-33.321	0.082	-0.046
-673.135	-82.245	0.166	-0.055
-672.120	800.000	0.045	-0.137
-671.105	-94.321	-0.133	-0.037
-670.091	-87.485	0.074	-0.023
-669.076	-129.148	-0.094	0.013
-668.062	375.851	-0.022	-0.046
-667.047	25.427	0.145	0.122
-666.032	-180.426	0.347	0.007
-665.018	21.862	-0.123	-0.101
-664.003	-200.000	-0.014	0.241
-662.989	800.000	0.104	-0.398
-661.974	13.269	0.089	0.070
-660.959	-168.665	0.123	0.005
-659.945	-115.636	-0.268	0.051
-658.930	-89.724	0.286	0.085
-657.916	-172.070	-0.392	0.013
-656.901	621.633	-0.111	-0.281
-655.886	-125.397	-0.146	0.022
-654.872	-50.031	-0.140	-0.067
-653.857	-142.497	-0.270	0.027
-652.843	-200.000	-0.018	-0.086
-651.828	-110.655	-0.217	0.045
-650.814	-54.311	-0.153	-0.070
-649.799	-38.113	-0.176	0.094
-648.784	-139.128	0.178	0.019
-647.770	15.334	-0.288	-0.228
-646.755	800.000	-0.075	-0.228
-645.741	-81.617	-0.139	0.046
-644.726	-55.618	-0.257	-0.116
-643.711	-15.217	-0.093	-0.060
-642.697	800.000	0.056	-0.227
-641.682	-200.000	-0.015	-0.089
-640.668	-12.689	-0.068	-0.045
-639.653	-26.404	-0.072	0.042
-638.638	-200.000	-0.014	0.100
-637.624	205.600	0.083	0.130
-636.609	800.000	-0.097	0.278
-635.595	279.796	0.148	0.266
-634.580	50.432	-0.114	0.108
-633.565	-110.449	-0.395	-0.083
-632.551	54.167	0.105	0.101
-631.536	581.049	-0.021	-0.051
-630.522	56.768	0.098	0.096
-629.507	143.588	-0.110	0.147
-628.492	150.657	-0.186	-0.255
-627.478	259.711	-0.031	0.054
-626.463	183.581	-0.085	-0.127
-625.449	105.464	-0.137	-0.163
-624.434	-22.482	0.196	0.120
-623.419	-158.551	-0.064	-0.004
-622.405	-46.952	0.130	-0.064
-621.390	-200.000	-0.014	-0.122
-620.376	-13.684	-0.212	-0.138
-619.361	-200.000	-0.009	-0.045
-618.346	-126.212	-0.170	-0.026
-617.332	-113.385	-0.651	0.129
-616.317	339.353	-0.027	0.054
-615.303	-63.476	-0.141	-0.058
-614.288	-36.050	-0.157	-0.086
-613.273	370.413	0.073	0.150
-612.259	-0.038	-0.132	-0.094
-611.244	-115.861	-0.166	-0.031
-610.230	-200.000	0.010	-0.060
-609.215	-163.117	0.171	0.008
-608.201	-200.000	0.003	-0.284
-607.186	-200.000	-0.024	-0.213
-606.171	-13.268	-0.140	-0.092
-605.157	800.000	-0.010	-0.039
-604.142	-191.747	-0.257	-0.003
-603.128	-200.000	0.000	-0.177
-602.113	-131.717	-0.274	-0.036
-601.098	230.039	0.153	-0.251
-600.084	-36.973	-0.193	-0.104
-599.069	302.653	-0.056	0.105
-598.055	800.000	0.044	-0.175
-597.040	382.194	0.101	0.208
-596.025	515.834	-0.022	-0.052
-595.011	760.412	-0.045	0.124
-593.996	800.000	0.059	-0.195
-592.982	43.717	-0.068	0.062
-591.967	-47.547	0.202	0.099
-590.952	-83.174	0.262	-0.085
-589.938	37.132	0.170	0.152
-588.923	519.096	-0.102	-0.240
-587.909	740.956	0.026	0.071
-586.894	800.000	0.044	-0.134
-585.879	800.000	0.112	-0.490
-584.865	800.000	0.094	-0.293
-583.850	-45.378	-0.224	0.112
-582.836	-137.720	-0.242	0.027
-581.821	800.000	0.127	0.362
-580.806	-200.000	0.021	0.206
-579.792	-200.000	-0.037	-0.342
-578.777	80.011	0.022	-0.024
-577.763	78.776	0.235	0.252
-576.748	-159.687	-0.035	0.002
-575.733	524.951	0.121	0.287
-574.719	800.000	0.026	0.083
-573.704	-116.223	0.199	0.037
-572.690	-200.000	-0.032	0.181
-571.675	-113.302	-0.206	-0.041
-570.661	-85.054	0.298	0.094
-569.646	-51.776	-0.190	-0.089
-568.631	-26.672	0.255	0.150
-567.617	-59.246	-0.240	-0.104
-566.602	84.450	0.115	-0.126
-565.588	-61.010	-0.058	-0.025
-564.573	-69.662	-0.292	-0.112
-563.558	779.751	0.064	-0.176
-562.544	-105.515	0.161	-0.037
-561.529	218.378	0.147	0.236
-560.515	-166.062	-0.274	-0.012
-559.500	-83.102	-0.303	0.098
-558.485	-157.383	-0.326	-0.020
-557.471	-129.549	-0.348	0.048
-556.456	490.205	-0.074	-0.170
-555.442	-38.465	-0.127	0.068
-554.427	-184.158	0.276	-0.005
-553.412	-121.993	-0.506	-0.084
-552.398	290.318	0.140	-0.255
-551.383	89.267	0.072	-0.081
-550.369	-200.000	0.061	-0.318
-549.354	165.757	-0.077	-0.109
-548.339	-200.000	0.005	-0.232
-547.325	800.000	-0.091	0.256
-546.310	-3.300	0.331	0.232
-545.296	311.524	0.056	-0.106
-544.281	-90.275	0.084	0.025
-543.266	-174.894	-0.199	0.006
-542.252	-87.711	0.133	-0.040
-541.237	-200.000	-0.004	0.065
-540.223	-200.000	0.023	-0.175
-539.208	162.471	-0.190	-0.268
-538.193	33.598	0.035	0.030
-537.179	-195.966	0.172	-0.001
-536.164	-112.662	0.253	0.050
-535.150	800.000	-0.061	0.205
-534.135	-59.179	-0.185	0.080
-533.121	-86.521	-0.304	0.094
-532.106	-146.764	-0.204	-0.018
-531.091	-200.000	0.044	0.436
-530.077	134.940	-0.101	0.131
-529.062	-200.000	-0.001	0.198
-528.048	378.364	0.137	-0.281
-527.033	153.111	-0.025	0.034
-526.018	-76.160	-0.069	0.024
-525.004	-30.502	0.170	0.096
-523.989	51.538	-0.186	-0.178
-522.975	-128.413	0.236	-0.034
-521.960	40.555	-0.136	0.123
-520.945	91.536	0.082	0.093
-519.931	127.137	0.142	-0.180
-518.916	-200.000	0.177	0.001
-517.902	164.310	0.114	0.162
-516.887	21.674	0.166	0.135
-515.872	-200.000	-0.041	0.208
-514.858	800.000	0.048	-0.156
-513.843	17.242	0.230	-0.183
-512.829	179.061	-0.020	0.029
-511.814	346.402	0.065	-0.128
-510.799	-200.000	-0.021	0.145
-509.785	493.013	-0.053	0.123
-508.770	-200.000	-0.004	0.088
-507.756	800.000	-0.086	-0.302
-506.741	51.708	-0.195	-0.186
-505.726	-88.192	0.201	0.060
-504.712	-98.599	0.166	-0.043
-503.697	-200.000	0.028	-0.291
-502.683	-48.636	0.367	0.177
-501.668	-29.104	-0.103	-0.059
-500.653	-159.674	0.187	0.010
-499.639	800.000	-0.089	-0.272
-498.624	42.788	0.118	-0.108
-497.610	-36.662	0.220	0.119
-496.595	264.894	-0.020	-0.034
-495.581	-77.687	-0.234	-0.081
-494.566	-200.000	0.012	0.317
-493.551	571.619	-0.062	0.151
-492.537	-200.000	-0.017	0.142
-491.522	0.378	-0.190	-0.136
-490.508	59.848	-0.071	0.071
-489.493	109.084	-0.064	-0.077
-488.478	82.719	0.070	-0.077
-487.464	335.370	0.144	-0.281
-486.449	800.000	-0.040	0.133
-485.435	-145.089	0.191	0.017
-484.420	-83.522	0.244	-0.078
-483.405	121.577	-0.171	-0.214
-482.391	-200.000	0.004	-0.121
-481.376	704.283	0.069	-0.183
-480.362	141.855	0.217	0.288
-479.347	-24.479	0.278	-0.166
-478.332	348.818	0.133	-0.263
-477.318	230.292	0.030	0.050
-476.303	159.962	0.050	0.069
-475.289	285.287	-0.114	-0.206
-474.274	123.787	0.166	-0.209
-473.259	-200.000	0.076	-0.353
-472.245	800.000	0.053	0.177
-471.230	105.492	-0.090	0.106
-470.216	65.202	0.200	0.203
-469.201	-200.000	0.004	0.208
-468.186	88.623	0.225	-0.250
-467.172	212.875	0.251	0.397
-466.157	63.041	0.171	-0.172
-465.143	-138.353	-0.196	-0.022
-464.128	-200.000	0.051	-0.231
-463.113	-67.709	0.185	0.073
-462.099	800.000	0.080	0.341
-461.084	356.585	0.107	-0.213
-460.070	304.957	0.069	0.128
-459.055	362.094	-0.143	0.286
-458.040	-17.867	0.058	-0.037
-457.026	108.026	-0.168	0.200
-456.011	253.140	0.098	0.168
-454.997	682.047	0.075	0.196
-453.982	431.199	0.122	-0.265
-452.968	-200.000	-0.006	-0.121
-451.953	-151.724	0.119	-0.009
-450.938	-157.793	-0.410	-0.024
-449.924	-127.817	0.346	-0.050
-448.909	-200.000	-0.035	-0.277
-447.895	-164.294	0.083	0.004
-446.880	-37.526	0.166	0.089
-445.865	1.092	-0.147	0.105
-444.851	50.010	0.201	-0.190
-443.836	-200.000	-0.068	-0.427
-442.822	666.656	0.034	0.087
-441.807	-200.000	-0.048	0.267
-440.792	-35.705	0.306	-0.166
-439.778	-49.590	0.012	-0.006
-438.763	479.631	0.147	0.333
-437.749	190.350	-0.069	0.104
-436.734	800.000	0.039	0.163
-435.719	158.849	0.073	0.102
-434.705	-59.131	0.243	-0.105
-433.690	-38.697	0.231	-0.122
-432.676	800.000	-0.064	-0.266
-431.661	16.519	-0.202	-0.160
-430.646	800.000	0.042	0.172
-429.632	331.017	0.047	-0.090
-428.617	-77.627	-0.284	0.098
-427.603	800.000	-0.058	-0.165
-426.588	-120.513	0.083	0.014
-425.573	-89.218	-0.125	-0.037
-424.559	-23.379	0.055	0.033
-423.544	31.333	-0.217	0.186
-422.530	199.567	0.151	-0.232
-421.515	5.160	0.210	0.155
-420.500	484.637	0.108	0.245
-419.486	-85.987	-0.166	0.051
-418.471	-87.344	0.337	-0.102
-417.457	-89.490	0.127	0.037
-416.442	-169.524	0.204	0.007
-415.428	800.000	-0.087	0.366
-414.413	-169.823	0.281	0.010
-413.398	-135.674	-0.099	0.012
-412.384	50.152	0.013	-0.012
-411.369	52.876	0.151	0.145
-410.355	140.872	-0.127	0.168
-409.340	800.000	-0.087	0.365
-408.325	32.617	-0.156	-0.135
-407.311	311.464	-0.169	0.317
-406.296	800.000	0.027	0.091
-405.282	-117.839	0.154	0.028
-404.267	-139.816	-0.376	0.040
-403.252	-145.434	0.156	-0.014
-402.238	132.536	0.146	0.187
-401.223	365.412	-0.128	0.257
-400.209	-28.490	-0.162	0.093
-399.194	3.927	-0.067	0.049
-398.179	-88.647	-0.131	0.039
-397.165	-200.000	0.006	-0.107
-396.150	136.767	0.247	0.322
-395.136	-153.612	-0.204	0.014
-394.121	800.000	0.054	-0.208
-393.106	-200.000	0.015	-0.331
-392.092	99.645	0.095	-0.110
-391.077	-200.000	0.042	0.260
-390.063	-142.413	0.302	0.030
-389.048	-175.342	-0.386	-0.011
-388.033	79.663	0.096	0.102
-387.019	-118.263	0.157	-0.028
-386.004	800.000	-0.119	0.369
-384.990	-11.483	-0.360	0.236
-383.975	-112.490	0.077	-0.015
-382.960	-112.467	0.313	-0.062
-381.946	-200.000	0.017	-0.203
-380.931	-200.000	0.029	0.336
-379.917	800.000	0.015	-0.056
-378.902	-106.642	-0.146	-0.032
-377.888	333.775	-0.039	-0.075
-376.873	-34.154	0.204	0.112
-375.858	389.102	0.101	0.209
-374.844	31.749	-0.094	-0.081
-373.829	-33.963	-0.412	-0.226
-372.815	-5.456	0.107	0.073
-371.800	-114.092	-0.158	0.031
-370.785	171.532	-0.102	0.147
-369.771	607.874	0.074	0.185
-368.756	-200.000	-0.005	0.087
-367.742	-42.798	0.194	-0.098
-366.727	39.982	-0.100	0.090
-365.712	-131.195	-0.125	0.017
-364.698	-200.000	-0.035	-0.168
-363.683	0.698	0.182	-0.130
-362.669	104.947	0.171	-0.201
-361.654	273.219	0.071	0.125
-360.639	374.946	-0.122	0.249
-359.625	109.452	-0.369	0.441
-358.610	541.830	-0.125	-0.298
-357.596	-131.386	0.141	0.019
-356.581	415.887	-0.045	0.096
-355.566	276.503	-0.132	0.233
-354.552	11.004	0.111	-0.085
-353.537	-89.607	0.110	0.032
-352.523	6.727	-0.110	-0.082
-351.508	-191.798	0.152	0.001
-350.493	80.554	-0.214	-0.230
-349.479	430.190	-0.149	-0.321
-348.464	-161.309	0.081	-0.004
-347.450	800.000	0.097	0.379
-346.435	32.641	0.131	-0.113
-345.420	-120.701	-0.219	-0.037
-344.406	379.415	0.094	-0.191
-343.391	82.930	-0.286	0.310
-342.377	576.057	-0.151	-0.368
-341.362	800.000	-0.063	-0.234
-340.348	800.000	-0.014	0.057
-339.333	31.963	-0.241	0.207
-338.318	8.467	-0.095	0.072
-337.304	-200.000	-0.020	-0.232
-336.289	119.323	0.277	0.341
-335.275	259.156	-0.032	0.055
-334.260	-34.609	0.106	-0.058
-333.245	21.528	0.120	-0.098
-332.231	-40.047	0.086	-0.045
-331.216	45.004	0.249	-0.229
-330.202	128.322	-0.083	0.105
-329.187	93.389	-0.079	-0.090
-328.172	-200.000	-0.023	-0.173
-327.158	345.167	-0.084	0.164
-326.143	-200.000	0.026	-0.306
-325.129	20.302	-0.137	-0.110
-324.114	25.475	0.155	-0.128
-323.099	10.216	0.146	0.110
-322.085	-141.015	-0.152	0.016
-321.070	-49.241	-0.140	-0.067
-320.056	-200.000	-0.022	0.104
-319.041	280.373	-0.147	-0.262
-318.026	-29.616	-0.377	-0.214
-317.012	415.760	-0.142	-0.301
-315.997	-64.042	0.105	-0.043
-314.983	42.730	0.219	-0.199
-313.968	-20.048	-0.043	0.027
-312.953	-29.219	-0.174	-0.099
-311.939	41.976	-0.348	-0.315
-310.924	-200.000	0.018	-0.205
-309.910	-75.080	0.133	0.047
-308.895	16.813	0.207	-0.163
-307.880	-200.000	0.048	-0.288
-306.866	-38.754	-0.134	0.070
-305.851	117.763	-0.232	0.284
-304.837	374.881	0.149	0.302
-303.822	-200.000	-0.020	0.413
-302.807	800.000	-0.076	-0.212
-301.793	-65.806	0.067	-0.027
-300.778	33.357	-0.112	0.097
-299.764	-22.827	0.123	-0.074
-298.749	19.388	-0.232	-0.185
-297.735	86.518	0.200	0.220
-296.720	-132.203	-0.431	-0.056
-295.705	193.371	0.122	0.183
-294.691	96.488	0.241	0.274
-293.676	320.477	-0.101	0.192
-292.662	-158.907	0.252	-0.014
-291.647	17.161	0.190	-0.150
-290.632	800.000	-0.044	0.148
-289.618	241.715	0.116	-0.193
-288.603	800.000	0.039	0.143
-287.589	-79.074	-0.313	0.106
-286.574	-200.000	0.003	-0.235
-285.559	-104.682	-0.200	0.046
-284.545	271.267	0.213	-0.372
-283.530	296.490	-0.154	0.281
-282.516	21.487	0.458	0.370
-281.501	532.528	0.070	0.164
-280.486	-200.000	0.086	0.399
-279.472	-174.301	0.066	0.002
-278.457	407.951	-0.073	0.153
-277.443	398.876	-0.027	-0.056
-276.428	800.000	-0.052	-0.143
-275.413	-17.832	-0.080	-0.050
-274.399	-15.936	0.152	0.096
-273.384	-25.338	-0.400	0.235
-272.370	-200.000	-0.016	-0.135
-271.355	264.097	-0.063	-0.108
-270.340	-200.000	-0.058	-0.276
-269.326	29.903	-0.363	0.308
-268.311	-31.485	-0.545	0.305
-267.297	-166.628	-0.208	0.009
-266.282	-114.272	-0.286	-0.055
-265.267	-86.750	-0.180	0.055
-264.253	-200.000	-0.017	0.151
-263.238	235.636	0.099	-0.163
-262.224	62.133	-0.049	0.049
-261.209	583.631	0.131	-0.320
-260.195	-200.000	0.012	-0.068
-259.180	-106.874	0.034	0.007
-258.165	-113.548	-0.269	0.052
-257.151	800.000	-0.131	-0.430
-256.136	188.956	0.094	0.140
-255.122	111.870	-0.061	-0.073
-254.107	-96.467	0.259	-0.068
-253.092	20.396	0.088	0.071
-252.078	-56.357	0.201	0.089
-251.063	-200.000	0.043	-0.243
-250.049	-132.451	0.187	-0.024
-249.034	462.056	-0.078	-0.172
-248.019	105.566	0.129	0.151
-247.005	436.937	0.029	-0.063
-245.990	164.351	-0.083	0.116
-244.976	800.000	-0.049	-0.170
-243.961	800.000	0.018	-0.078
-242.946	800.000	0.038	0.134
-241.932	-84.908	-0.121	0.038
-240.917	800.000	-0.091	0.322
-239.903	-11.716	-0.195	-0.127
-238.888	-97.870	0.076	0.019
-237.873	-200.000	-0.059	-0.369
-236.859	-200.000	-0.019	-0.307
-235.844	761.219	-0.033	-0.090
-234.830	129.705	0.070	-0.089
-233.815	56.712	0.256	0.247
-232.800	-50.477	-0.152	0.071
-231.786	-40.895	-0.185	-0.095
-230.771	142.661	-0.048	0.063
-229.757	-200.000	0.045	0.255
-228.742	167.331	0.130	-0.183
-227.727	-200.000	-0.045	0.198
-226.713	-172.278	0.394	-0.013
-225.698	-60.353	0.188	0.079
-224.684	107.976	-0.124	-0.146
-223.669	27.087	0.129	0.108
-222.655	39.581	0.175	-0.156
-221.640	-7.587	0.113	-0.076
-220.625	301.389	0.108	0.198
-219.611	-200.000	-0.006	-0.137
-218.596	800.000	-0.095	-0.393
-217.582	-150.423	0.349	-0.027
-216.567	-200.000	0.026	0.117
-215.552	71.812	-0.216	0.223
-214.538	-123.737	-0.246	-0.039
-213.523	105.526	0.099	0.116
-212.509	638.112	-0.159	-0.400
-211.494	-161.789	0.439	0.022
-210.479	800.000	0.106	0.327
-209.465	-76.512	0.323	0.112
-208.450	-192.324	0.139	0.001
-207.436	19.419	0.191	0.152
-206.421	800.000	0.063	-0.248
-205.406	-200.000	-0.027	-0.202
-204.392	-47.793	0.119	0.057
-203.377	-200.000	-0.018	-0.373
-202.363	53.588	-0.197	0.187
-201.348	17.154	-0.005	-0.004
-200.333	-58.720	0.208	0.089
-199.319	800.000	-0.045	-0.146
-198.304	93.578	0.185	0.207
-197.290	183.903	0.123	-0.181
-196.275	33.398	0.152	-0.131
-195.260	-12.502	0.037	-0.024
-194.246	800.000	0.068	0.251
-193.231	-200.000	-0.015	0.418
-192.217	123.040	0.074	-0.091
-191.202	-200.000	-0.020	-0.085
-190.187	-51.580	-0.036	0.017
-189.173	-200.000	-0.049	0.226
-188.158	-59.188	0.204	-0.087
-187.144	800.000	0.083	0.264
-186.129	-200.000	0.006	0.075
-185.114	-70.861	0.238	-0.089
-184.100	-200.000	0.011	-0.168
-183.085	105.921	-0.022	0.025
-182.071	-112.418	0.175	-0.035
-181.056	-43.481	0.219	-0.109
-180.042	-200.000	0.013	0.250
-179.027	36.242	-0.332	0.290
-178.012	-117.615	0.389	-0.069
-176.998	-162.233	-0.195	0.010
-175.983	116.210	0.232	-0.281
-174.969	-135.917	-0.185	-0.022
-173.954	-200.000	0.003	0.211
-172.939	-200.000	-0.078	0.590
-171.925	671.982	-0.089	0.229
-170.910	-88.660	0.185	-0.054
-169.896	-63.631	-0.041	0.016
-168.881	775.882	0.054	0.146
-167.866	40.309	-0.308	0.274
-166.852	-200.000	0.044	0.275
-165.837	-37.942	0.257	-0.135
-164.823	-200.000	0.015	-0.220
-163.808	543.454	0.103	0.244
-162.793	-79.507	-0.205	0.069
-161.779	-200.000	-0.024	-0.162
-160.764	11.327	-0.092	0.070
-159.750	87.242	0.248	-0.272
-158.735	-173.466	-0.194	-0.006
-157.720	-200.000	0.011	0.178
-156.706	-6.974	-0.275	-0.185
-155.691	125.701	0.192	-0.240
-154.677	-54.137	-0.106	-0.048
-153.662	338.716	-0.199	-0.384
-152.647	44.634	-0.097	0.088
-151.633	-178.187	-0.177	0.004
-150.618	-200.000	-0.017	0.091
-149.604	-77.332	-0.118	-0.041
-148.589	-200.000	-0.026	0.239
-147.574	-200.000	-0.031	-0.140
-146.560	800.000	0.189	-0.574
-145.545	-94.548	0.131	-0.035
-144.531	-150.338	0.220	-0.017
-143.516	148.978	0.113	0.152
-142.502	156.097	0.037	0.050
-141.487	-137.602	0.118	-0.013
-140.472	800.000	-0.020	-0.069
-139.458	-4.556	-0.418	-0.286
-138.443	-122.890	-0.170	0.027
-137.429	23.430	0.174	-0.141
-136.414	255.780	0.094	-0.159
-135.399	-41.340	0.181	0.092
-134.385	88.150	-0.154	-0.168
-133.370	-200.000	0.082	0.369
-132.356	-200.000	0.016	-0.326
-131.341	-200.000	0.006	-0.331
-130.326	-178.528	-0.156	-0.004
-129.312	-120.684	0.636	-0.106
-128.297	-102.158	0.330	-0.078
-127.283	209.869	0.142	-0.220
-126.268	289.119	-0.046	0.082
-125.253	86.868	0.284	0.309
-124.239	338.612	-0.113	-0.217
-123.224	-175.041	-0.309	-0.008
-122.210	88.593	0.174	-0.192
