DTS Sentinel unit serial number:	SN413079Multiplexer serial number:	ORYXHardware model number:	OX4-SRSoftware version number:	ORYX F/W v4.00 Oryx Data Collector v3.7.2.0data status	okinstallation	princeton_trtdifferential loss correction	single-endedforward channel	channel 1reverse channel	N/Adate	2019/09/18time	23:14:35forward acquisition time	60.00reverse acquisition time	0.00gamma	496.2192k internal	0.2341k external	0.2341temperature offset calibration	1.0020default loss term (dB/km)	0.3790temperature slope calibration	1.0000multiplexer offset coefficient	1.0000multiplexer slope coefficient	1.0000fibre end	0.00T internal ref (°C)	23.91T ext. ref 1 (°C)	0.77T ext. ref 2 (°C)	17.30length (m)	temperature (°C)	Stokes	anti-Stokes-747.200	800.000	0.080	0.233
-746.185	64.968	-0.263	0.266
-745.171	497.723	-0.094	0.217
-744.156	-200.000	-0.054	0.344
-743.142	-72.478	0.170	0.063
-742.127	-102.686	-0.487	-0.116
-741.112	592.499	-0.105	0.261
-740.098	-200.000	0.055	0.283
-739.083	-28.816	0.302	0.174
-738.069	361.284	0.042	0.085
-737.054	365.636	-0.082	0.165
-736.039	-45.148	-0.030	-0.015
-735.025	-34.530	-0.050	0.027
-734.010	-200.000	-0.110	0.000
-732.996	2.804	0.064	-0.046
-731.981	37.146	0.276	0.244
-730.966	-200.000	0.009	-0.297
-729.952	82.761	-0.152	0.165
-728.937	-87.355	0.066	-0.020
-727.923	97.980	-0.243	0.280
-726.908	69.966	-0.097	-0.100
-725.894	-200.000	-0.031	-0.244
-724.879	800.000	0.075	-0.219
-723.864	24.751	-0.281	-0.233
-722.850	313.916	0.162	-0.305
-721.835	-101.927	-0.232	-0.056
-720.821	247.623	0.066	0.111
-719.806	-115.793	0.321	0.060
-718.791	181.896	-0.141	0.207
-717.777	-200.000	-0.016	-0.142
-716.762	-59.080	-0.243	-0.105
-715.748	-106.612	-0.278	-0.062
-714.733	800.000	-0.045	0.169
-713.718	-200.000	0.035	-0.225
-712.704	-152.635	0.177	-0.013
-711.689	141.400	0.174	-0.230
-710.675	-200.000	0.012	0.157
-709.660	-102.472	-0.198	-0.047
-708.645	47.621	0.232	0.216
-707.631	527.154	0.047	-0.110
-706.616	-3.777	-0.297	-0.207
-705.602	65.689	0.114	-0.116
-704.587	-6.661	-0.193	0.131
-703.572	800.000	-0.058	-0.167
-702.558	490.189	-0.297	-0.681
-701.543	-186.224	0.121	-0.002
-700.529	-4.168	0.281	-0.195
-699.514	-200.000	0.006	-0.175
-698.499	-75.419	-0.465	-0.166
-697.485	-200.000	0.037	-0.326
-696.470	-71.153	0.357	-0.134
-695.456	800.000	0.065	0.221
-694.441	746.334	-0.121	-0.325
-693.426	-200.000	0.017	-0.386
-692.412	-128.615	-0.519	-0.073
-691.397	12.648	0.108	0.084
-690.383	-200.000	0.031	0.292
-689.368	26.146	-0.155	-0.129
-688.354	587.246	-0.075	-0.186
-687.339	-6.987	0.145	0.099
-686.324	-55.354	-0.017	0.007
-685.310	-200.000	0.017	-0.344
-684.295	800.000	-0.094	0.379
-683.281	46.159	0.165	0.153
-682.266	145.106	0.086	0.115
-681.251	-200.000	-0.052	0.365
-680.237	-68.273	0.190	0.074
-679.222	800.000	0.055	0.186
-678.208	-33.443	-0.107	-0.059
-677.193	283.053	-0.171	-0.306
-676.178	159.900	-0.072	0.100
-675.164	-101.309	-0.155	0.038
-674.149	-200.000	0.029	0.141
-673.135	-58.802	0.109	-0.047
-672.120	-183.900	0.141	-0.002
-671.105	-92.878	-0.122	0.034
-670.091	123.267	0.146	-0.183
-669.076	-43.272	0.244	-0.123
-668.062	-13.669	-0.275	0.178
-667.047	340.605	0.098	0.191
-666.032	800.000	0.071	0.286
-665.018	-150.225	-0.497	0.038
-664.003	173.188	-0.136	0.196
-662.989	-200.000	0.003	0.267
-661.974	800.000	-0.038	0.141
-660.959	-46.235	-0.098	0.048
-659.945	800.000	0.026	0.094
-658.930	-173.496	-0.232	0.007
-657.916	-109.320	-0.294	-0.062
-656.901	-49.279	0.078	0.037
-655.886	-111.921	-0.104	0.021
-654.872	409.563	0.090	0.191
-653.857	-121.771	0.218	0.036
-652.843	-200.000	-0.358	0.000
-651.828	-2.663	0.216	-0.151
-650.814	-200.000	0.033	-0.272
-649.799	-200.000	0.019	-0.238
-648.784	-34.362	0.182	0.100
-647.770	-123.743	0.234	-0.037
-646.755	-128.851	0.119	0.017
-645.741	-200.000	-0.056	-0.305
-644.726	169.649	-0.143	-0.204
-643.711	-200.000	-0.031	-0.152
-642.697	-49.277	-0.158	-0.075
-641.682	4.049	0.252	-0.184
-640.668	-183.957	0.362	-0.006
-639.653	99.914	0.136	0.157
-638.638	-166.074	-0.067	0.003
-637.624	-89.271	0.369	0.109
-636.609	-149.827	-0.241	-0.019
-635.595	-74.675	-0.154	0.055
-634.580	-14.256	-0.163	-0.105
-633.565	53.858	0.056	0.054
-632.551	-200.000	0.008	-0.258
-631.536	800.000	0.082	-0.323
-630.522	-56.678	-0.081	0.036
-629.507	777.093	-0.053	0.146
-628.492	778.396	-0.007	0.019
-627.478	-200.000	-0.033	-0.183
-626.463	-105.236	-0.147	-0.034
-625.449	88.797	0.098	0.109
-624.434	-200.000	-0.368	-0.001
-623.419	87.754	-0.048	0.053
-622.405	-4.247	-0.048	0.033
-621.390	-200.000	-0.012	0.061
-620.376	-200.000	0.005	-0.321
-619.361	101.515	-0.059	-0.069
-618.346	-76.403	-0.133	-0.047
-617.332	800.000	-0.057	-0.185
-616.317	-65.209	0.422	0.170
-615.303	800.000	0.063	-0.257
-614.288	56.139	-0.129	-0.125
-613.273	-93.896	0.408	-0.112
-612.259	-200.000	-0.016	-0.184
-611.244	-59.897	-0.157	-0.067
-610.230	800.000	-0.077	0.219
-609.215	-59.220	0.136	0.059
-608.201	-77.772	0.138	-0.048
-607.186	259.322	0.086	-0.148
-606.171	562.563	0.060	0.144
-605.157	375.173	-0.092	-0.186
-604.142	462.881	0.049	-0.110
-603.128	517.520	0.050	0.116
-602.113	-85.405	0.139	-0.043
-601.098	3.662	0.386	-0.281
-600.084	320.963	0.108	-0.204
-599.069	414.616	-0.063	-0.133
-598.055	800.000	0.045	-0.142
-597.040	-200.000	-0.043	0.240
-596.025	-51.003	0.203	-0.095
-595.011	-200.000	-0.022	0.196
-593.996	574.609	0.190	0.463
-592.982	487.456	-0.018	-0.041
-591.967	-200.000	-0.033	-0.223
-590.952	17.254	-0.177	-0.140
-589.938	67.175	-0.231	-0.235
-588.923	-6.292	0.203	-0.138
-587.909	800.000	-0.092	-0.272
-586.894	20.520	-0.268	0.216
-585.879	733.371	-0.064	0.170
-584.865	267.972	-0.148	-0.258
-583.850	510.828	0.124	0.286
-582.836	49.095	0.218	0.204
-581.821	179.037	0.152	0.222
-580.806	-200.000	-0.049	0.287
-579.792	83.533	-0.110	0.120
-578.777	315.645	0.082	0.154
-577.763	-137.193	0.091	-0.010
-576.748	-45.382	-0.111	-0.055
-575.733	-70.582	0.126	0.047
-574.719	-122.007	0.138	0.023
-573.704	514.273	-0.065	0.150
-572.690	-126.340	0.036	-0.005
-571.675	73.353	-0.137	0.143
-570.661	3.635	0.154	0.112
-569.646	-92.236	0.324	0.091
-568.631	-91.477	-0.155	-0.044
-567.617	83.787	-0.104	-0.113
-566.602	-200.000	0.015	0.100
-565.588	-14.498	0.081	-0.052
-564.573	29.821	0.223	-0.189
-563.558	-200.000	-0.007	0.210
-562.544	-86.917	0.335	-0.102
-561.529	62.485	0.155	0.154
-560.515	232.477	-0.094	-0.154
-559.500	1.742	-0.239	0.172
-558.485	-155.263	0.408	0.026
-557.471	-30.068	-0.082	0.046
-556.456	-200.000	-0.065	0.293
-555.442	54.798	0.050	-0.048
-554.427	-200.000	0.004	0.051
-553.412	-40.457	-0.077	-0.040
-552.398	800.000	0.074	-0.229
-551.383	-200.000	-0.070	-0.443
-550.369	61.448	0.090	-0.089
-549.354	-146.045	-0.219	-0.019
-548.339	-200.000	0.041	0.425
-547.325	604.386	0.073	-0.180
-546.310	-119.167	-0.127	-0.022
-545.296	337.455	-0.087	0.168
-544.281	800.000	-0.046	-0.157
-543.266	-200.000	-0.037	-0.218
-542.252	-116.526	0.254	0.047
-541.237	157.441	-0.027	-0.037
-540.223	-200.000	-0.014	0.085
-539.208	-78.092	0.329	0.113
-538.193	800.000	0.025	0.079
-537.179	-144.966	-0.296	0.027
-536.164	-200.000	0.025	0.193
-535.150	-73.935	0.183	-0.066
-534.135	561.794	0.149	-0.358
-533.121	-70.890	0.175	0.066
-532.106	-66.823	-0.299	0.118
-531.091	34.342	0.313	-0.272
-530.077	-31.826	0.107	-0.060
-529.062	100.894	0.122	0.141
-528.048	-25.010	0.242	0.142
-527.033	-145.371	0.088	-0.008
-526.018	-200.000	-0.045	-0.214
-525.004	546.850	0.105	0.249
-523.989	-65.705	-0.114	-0.046
-522.975	-108.999	-0.228	-0.048
-521.960	164.152	-0.149	0.209
-520.945	800.000	0.052	-0.220
-519.931	-200.000	0.015	-0.449
-518.916	201.190	-0.026	0.041
-517.902	28.853	0.041	-0.034
-516.887	-56.312	0.298	0.131
-515.872	666.869	-0.086	0.220
-514.858	580.880	0.112	0.273
-513.843	-40.564	-0.149	-0.077
-512.829	314.618	0.037	-0.068
-511.814	-200.000	-0.046	0.210
-510.799	-200.000	0.000	0.172
-509.785	-99.886	-0.228	-0.057
-508.770	-145.918	0.243	0.021
-507.756	187.413	0.048	0.071
-506.741	95.166	-0.222	-0.252
-505.726	-200.000	0.061	0.290
-504.712	-143.613	0.365	0.034
-503.697	207.360	0.129	0.200
-502.683	800.000	-0.105	0.396
-501.668	-40.709	-0.389	0.200
-500.653	-30.194	0.232	-0.131
-499.639	-200.000	0.098	0.453
-498.624	144.588	0.055	0.073
-497.610	134.694	0.095	-0.122
-496.595	-55.672	0.154	0.068
-495.581	-137.413	-0.392	-0.044
-494.566	-140.258	-0.180	-0.019
-493.551	800.000	-0.061	-0.170
-492.537	557.454	0.040	0.095
-491.522	-154.238	0.084	0.006
-490.508	-21.884	-0.147	-0.089
-489.493	500.939	0.106	0.243
-488.478	-119.950	-0.038	-0.007
-487.464	800.000	-0.067	-0.241
-486.449	672.608	-0.033	-0.084
-485.435	-63.588	0.279	-0.114
-484.420	800.000	0.018	0.062
-483.405	-26.192	-0.123	-0.072
-482.391	8.327	-0.113	0.084
-481.376	74.768	-0.049	0.052
-480.362	239.141	-0.061	0.100
-479.347	-62.484	-0.260	-0.107
-478.332	-33.097	-0.176	-0.097
-477.318	-30.202	-0.352	0.198
-476.303	-14.067	-0.080	0.051
-475.289	-42.130	0.178	0.090
-474.274	164.521	0.123	-0.173
-473.259	-115.047	-0.054	-0.010
-472.245	-3.691	-0.290	-0.200
-471.230	-99.971	-0.251	-0.062
-470.216	-200.000	-0.018	-0.146
-469.201	446.709	0.038	-0.084
-468.186	-200.000	-0.089	-0.533
-467.172	800.000	0.086	-0.245
-466.157	-64.049	-0.120	-0.048
-465.143	-200.000	0.016	0.121
-464.128	-96.095	-0.246	-0.065
-463.113	-200.000	-0.001	-0.191
-462.099	200.581	0.163	-0.248
-461.084	-72.450	-0.156	0.057
-460.070	-200.000	-0.020	0.222
-459.055	800.000	0.040	-0.153
-458.040	-65.505	-0.245	0.097
-457.026	214.613	0.046	-0.072
-456.011	-200.000	-0.004	-0.071
-454.997	-14.058	-0.347	-0.222
-453.982	-200.000	-0.020	0.276
-452.968	-31.312	-0.124	0.069
-451.953	-200.000	-0.012	0.152
-450.938	16.764	-0.033	-0.026
-449.924	99.064	-0.155	-0.178
-448.909	12.427	0.316	0.242
-447.895	55.906	0.198	-0.191
-446.880	-149.962	-0.036	0.003
-445.865	-200.000	0.012	0.059
-444.851	124.043	0.204	0.254
-443.836	-129.610	-0.183	-0.025
-442.822	110.433	-0.181	-0.215
-441.807	-135.437	0.419	-0.050
-440.792	-200.000	0.051	0.269
-439.778	321.038	-0.072	0.136
-438.763	-20.798	0.090	-0.055
-437.749	-78.242	-0.290	-0.099
-436.734	268.702	0.059	-0.102
-435.719	-126.827	-0.084	-0.012
-434.705	171.718	0.109	0.156
-433.690	415.496	-0.094	-0.198
-432.676	800.000	-0.070	0.238
-431.661	74.770	-0.185	-0.193
-430.646	90.149	0.153	-0.170
-429.632	75.505	-0.028	0.029
-428.617	-76.472	-0.324	0.113
-427.603	85.560	0.111	0.121
-426.588	-67.559	-0.072	0.028
-425.573	-144.742	0.170	0.015
-424.559	-62.791	-0.214	0.088
-423.544	-200.000	-0.058	0.259
-422.530	489.003	-0.114	-0.257
-421.515	151.854	0.199	-0.269
-420.500	800.000	-0.052	-0.150
-419.486	-92.854	0.165	-0.046
-418.471	563.757	-0.138	-0.330
-417.457	-78.117	-0.258	-0.088
-416.442	-169.260	0.333	0.012
-415.428	790.041	0.050	0.136
-414.413	-33.168	0.090	0.049
-413.398	-93.373	0.111	0.031
-412.384	5.825	0.451	0.330
-411.369	-200.000	-0.005	0.203
-410.355	-65.492	-0.315	0.125
-409.340	800.000	-0.025	0.076
-408.325	8.096	0.189	-0.140
-407.311	-102.554	0.180	0.042
-406.296	224.593	0.135	-0.216
-405.282	-69.166	-0.191	-0.073
-404.267	339.220	-0.129	0.249
-403.252	800.000	0.072	-0.266
-402.238	223.740	0.051	0.081
-401.223	39.780	-0.101	-0.090
-400.209	49.532	-0.247	0.230
-399.194	800.000	-0.103	0.325
-398.179	-200.000	0.038	0.266
-397.165	-200.000	0.008	-0.066
-396.150	-200.000	0.013	0.135
-395.136	345.436	0.061	0.118
-394.121	227.075	-0.140	0.225
-393.106	-88.665	-0.075	0.022
-392.092	-92.458	0.336	0.093
-391.077	-200.000	-0.009	0.110
-390.063	-23.851	0.273	0.161
-389.048	-200.000	-0.014	-0.122
-388.033	-93.138	-0.145	-0.040
-387.019	-200.000	-0.013	0.138
-386.004	-86.771	-0.123	0.037
-384.990	-200.000	0.054	-0.404
-383.975	800.000	0.032	-0.119
-382.960	165.247	-0.078	-0.108
-381.946	22.641	-0.252	0.204
-380.931	-46.100	-0.327	-0.159
-379.917	25.617	0.308	0.253
-378.902	-28.410	-0.109	0.062
-377.888	587.742	-0.103	-0.252
-376.873	-70.349	0.146	0.055
-375.858	188.139	-0.168	0.248
-374.844	629.846	0.048	-0.121
-373.829	126.167	0.145	0.182
-372.815	-132.689	0.397	0.050
-371.800	-65.120	-0.107	0.043
-370.785	26.325	-0.134	0.110
-369.771	800.000	-0.056	-0.189
-368.756	-146.434	0.399	-0.034
-367.742	-200.000	-0.018	0.214
-366.727	-200.000	0.009	0.164
-365.712	-2.614	0.169	-0.117
-364.698	-200.000	-0.019	0.249
-363.683	68.751	0.080	0.081
-362.669	-100.066	0.094	0.023
-361.654	709.346	-0.053	0.139
-360.639	528.101	-0.093	0.216
-359.625	477.935	0.090	0.200
-358.610	-123.588	0.332	0.052
-357.596	-200.000	0.005	-0.042
-356.581	523.104	-0.042	0.097
-355.566	9.507	-0.138	-0.103
-354.552	-200.000	0.012	0.146
-353.537	-200.000	0.051	0.249
-352.523	-137.217	-0.111	0.012
-351.508	800.000	-0.073	-0.221
-350.493	1.135	-0.250	0.177
-349.479	661.709	-0.118	0.300
-348.464	-36.455	-0.219	0.116
-347.450	-48.613	0.025	0.012
-346.435	-146.836	0.254	-0.022
-345.420	-113.847	-0.224	0.043
-344.406	-105.225	0.154	0.035
-343.391	401.327	0.120	-0.248
-342.377	-200.000	-0.014	-0.380
-341.362	-39.129	0.261	-0.135
-340.348	-20.360	-0.147	0.089
-339.333	-200.000	-0.328	-0.001
-338.318	-200.000	0.046	-0.376
-337.304	-200.000	0.019	-0.361
-336.289	-138.668	-0.070	-0.008
-335.275	-200.000	0.027	0.149
-334.260	-44.406	0.278	-0.137
-333.245	68.181	-0.118	-0.119
-332.231	101.428	-0.067	0.077
-331.216	-128.055	-0.092	0.013
-330.202	-43.970	0.381	0.189
-329.187	340.278	-0.163	-0.314
-328.172	138.849	-0.441	-0.571
-327.158	85.840	0.127	-0.138
-326.143	-200.000	0.032	0.426
-325.129	68.329	-0.113	0.114
-324.114	-23.432	0.169	0.100
-323.099	6.795	0.137	-0.101
-322.085	-92.148	-0.297	0.083
-321.070	-200.000	0.027	-0.247
-320.056	-85.346	-0.291	-0.089
-319.041	112.196	0.059	-0.070
-318.026	-32.925	-0.090	-0.049
-317.012	800.000	-0.024	-0.074
-315.997	-200.000	-0.001	-0.110
-314.983	115.640	-0.181	-0.219
-313.968	152.879	0.104	-0.141
-312.953	151.844	0.105	0.141
-311.939	-83.306	0.354	0.112
-310.924	-125.476	-0.268	0.040
-309.910	800.000	-0.052	-0.171
-308.895	-166.526	0.209	-0.009
-307.880	-87.014	-0.366	0.110
-306.866	-200.000	-0.019	-0.196
-305.851	800.000	0.038	-0.154
-304.837	111.296	-0.041	-0.049
-303.822	433.859	0.066	0.142
-302.807	-70.130	0.035	-0.013
-301.793	800.000	-0.129	-0.475
-300.778	-22.691	-0.150	-0.089
-299.764	99.235	0.183	0.208
-298.749	600.356	0.152	0.371
-297.735	59.340	-0.201	0.195
-296.720	220.234	-0.103	-0.162
-295.705	-42.196	-0.296	-0.149
-294.691	134.110	0.044	0.056
-293.676	-200.000	0.000	-0.103
-292.662	206.625	-0.095	-0.146
-291.647	-8.600	0.111	0.073
-290.632	190.486	0.093	-0.138
-289.618	800.000	-0.042	0.172
-288.603	174.027	-0.070	-0.100
-287.589	-200.000	0.033	-0.171
-286.574	-200.000	-0.056	-0.326
-285.559	-25.513	-0.361	-0.210
-284.545	800.000	0.078	-0.327
-283.530	61.711	0.048	-0.047
-282.516	-54.979	-0.254	-0.113
-281.501	143.307	0.076	0.100
-280.486	-79.441	-0.017	-0.005
-279.472	-161.441	-0.239	-0.012
-278.457	593.424	0.123	0.299
-277.443	337.095	-0.056	-0.107
-276.428	-97.502	0.362	-0.093
-275.413	11.949	0.166	0.125
-274.399	35.863	0.250	0.216
-273.384	-69.829	-0.367	-0.138
-272.370	-76.698	-0.201	0.069
-271.355	-49.318	0.228	-0.107
-270.340	-46.570	-0.292	0.141
-269.326	282.667	0.088	0.155
-268.311	197.566	-0.115	0.172
-267.297	-109.438	0.519	0.108
-266.282	-200.000	0.046	0.268
-265.267	-200.000	0.036	0.223
-264.253	-200.000	-0.005	0.138
-263.238	-200.000	-0.027	-0.248
-262.224	129.249	0.139	-0.174
-261.209	18.979	-0.159	0.125
-260.195	129.182	-0.084	-0.105
-259.180	-156.021	-0.136	0.008
-258.165	800.000	0.089	0.329
-257.151	193.486	0.097	-0.145
-256.136	-200.000	0.033	-0.445
-255.122	-67.952	-0.120	-0.046
-254.107	173.759	0.018	0.026
-253.092	-200.000	0.005	0.061
-252.078	800.000	-0.046	0.149
-251.063	-39.005	0.170	0.088
-250.049	-200.000	-0.002	0.294
-249.034	46.065	-0.324	-0.295
-248.019	23.442	-0.148	-0.120
-247.005	-200.000	0.029	0.168
-245.990	64.693	-0.158	-0.157
-244.976	800.000	0.082	-0.257
-243.961	-124.216	-0.357	-0.055
-242.946	64.627	-0.041	0.041
-241.932	-200.000	-0.053	-0.430
-240.917	-124.698	0.143	-0.022
-239.903	168.311	-0.153	-0.215
-238.888	800.000	0.033	-0.116
-237.873	-5.761	0.098	0.066
-236.859	114.956	0.270	0.324
-235.844	124.795	-0.185	0.229
-234.830	102.603	-0.178	0.204
-233.815	0.753	0.140	-0.099
-232.800	-175.616	-0.307	-0.008
-231.786	-112.482	-0.203	0.040
-230.771	150.544	0.129	-0.172
-229.757	-32.459	0.404	-0.221
-228.742	291.395	0.166	-0.297
-227.727	-60.088	-0.253	0.106
-226.713	-170.310	0.245	0.008
-225.698	126.682	-0.050	-0.063
-224.684	-200.000	0.007	-0.075
-223.669	-200.000	-0.022	0.350
-222.655	54.572	0.079	-0.075
-221.640	-18.500	-0.111	-0.068
-220.625	-41.503	0.138	-0.070
-219.611	-92.200	0.111	-0.031
-218.596	-200.000	-0.019	-0.185
-217.582	-166.890	0.246	0.010
-216.567	-200.000	0.005	0.167
-215.552	-103.459	0.224	0.052
-214.538	-26.690	-0.484	0.278
-213.523	6.947	0.317	0.232
-212.509	-1.204	-0.164	0.114
-211.494	-1.111	-0.242	-0.168
-210.479	-28.263	-0.272	0.154
-209.465	-44.886	0.242	-0.118
-208.450	-140.057	-0.091	0.009
-207.436	-200.000	-0.029	0.159
-206.421	734.524	-0.056	0.148
-205.406	69.324	0.067	-0.068
-204.392	-200.000	-0.024	0.216
-203.377	-110.023	0.093	-0.019
-202.363	-24.780	0.137	0.080
-201.348	-200.000	0.065	-0.372
-200.333	-92.423	-0.137	-0.038
-199.319	-115.215	0.070	0.013
-198.304	-123.266	0.403	-0.063
-197.290	-115.933	-0.233	0.043
-196.275	45.640	-0.270	0.244
-195.260	350.335	-0.118	0.230
-194.246	-62.986	0.177	-0.072
-193.231	22.949	-0.105	-0.084
-192.217	-200.000	-0.004	-0.221
-191.202	-179.600	0.173	0.004
-190.187	262.746	-0.166	0.282
-189.173	-26.160	-0.359	0.207
-188.158	55.456	-0.124	-0.118
-187.144	397.514	-0.078	0.160
-186.129	-0.662	-0.106	-0.074
-185.114	183.051	0.190	-0.275
-184.100	55.903	-0.029	0.027
-183.085	-93.375	0.069	-0.019
-182.071	-200.000	0.019	0.219
-181.056	-108.958	0.266	0.056
-180.042	-80.086	0.366	-0.120
-179.027	152.641	-0.269	0.360
-178.012	-103.746	0.277	-0.063
-176.998	-200.000	-0.041	-0.189
-175.983	120.075	0.145	0.176
-174.969	-15.810	0.116	0.073
-173.954	316.230	-0.204	-0.378
-172.939	-49.656	-0.289	0.135
-171.925	202.499	0.039	-0.058
-170.910	-200.000	-0.019	-0.100
-169.896	-200.000	-0.005	0.068
-168.881	800.000	-0.068	0.227
-167.866	357.069	-0.099	0.194
-166.852	-200.000	0.029	-0.172
-165.837	650.878	0.067	0.169
-164.823	-67.995	0.323	-0.124
-163.808	27.107	0.083	0.068
-162.793	295.290	-0.067	0.120
-161.779	800.000	-0.080	0.246
-160.764	800.000	0.047	-0.152
-159.750	12.572	-0.107	0.081
-158.735	603.608	0.023	0.056
-157.720	184.292	0.268	0.388
-156.706	47.121	-0.121	0.110
-155.691	295.021	-0.018	0.032
-154.677	-200.000	0.004	0.027
-153.662	-110.938	0.111	-0.022
-152.647	-41.048	-0.122	0.062
-151.633	8.370	0.112	-0.082
-150.618	-170.930	-0.187	-0.006
-149.604	800.000	-0.087	-0.336
-148.589	-7.454	0.041	-0.027
-147.574	-17.992	-0.111	-0.068
-146.560	-200.000	0.034	0.247
-145.545	-200.000	0.015	-0.194
-144.531	-78.201	0.114	0.038
-143.516	57.737	0.189	0.181
-142.502	800.000	0.043	0.174
-141.487	800.000	-0.021	-0.060
-140.472	-200.000	-0.034	-0.249
-139.458	367.301	0.167	-0.329
-138.443	210.301	0.152	0.234
-137.429	-155.383	0.110	-0.007
-136.414	-157.553	-0.430	-0.025
-135.399	-101.975	0.217	0.051
-134.385	-104.051	0.278	-0.063
-133.370	223.537	-0.162	-0.256
-132.356	800.000	-0.071	0.220
-131.341	-76.044	-0.199	-0.069
-130.326	-200.000	0.020	0.140
-129.312	562.526	0.030	0.071
-128.297	521.191	-0.149	0.342
-127.283	-148.434	0.146	0.012
-126.268	-10.124	-0.086	-0.056
-125.253	-200.000	0.030	0.165
-124.239	483.411	0.069	-0.154
-123.224	-50.676	-0.073	-0.034
-122.210	800.000	0.094	0.373
