DTS Sentinel unit serial number:	SN413079Multiplexer serial number:	ORYXHardware model number:	OX4-SRSoftware version number:	ORYX F/W v4.00 Oryx Data Collector v3.7.2.0data status	okinstallation	princeton_trtdifferential loss correction	single-endedforward channel	channel 1reverse channel	N/Adate	2019/09/18time	22:34:35forward acquisition time	60.00reverse acquisition time	0.00gamma	496.2192k internal	0.2341k external	0.2341temperature offset calibration	1.0020default loss term (dB/km)	0.3790temperature slope calibration	1.0000multiplexer offset coefficient	1.0000multiplexer slope coefficient	1.0000fibre end	0.00T internal ref (°C)	24.19T ext. ref 1 (°C)	0.81T ext. ref 2 (°C)	17.99length (m)	temperature (°C)	Stokes	anti-Stokes-747.200	133.803	0.219	0.284
-746.185	-115.594	-0.402	-0.076
-745.171	260.517	0.107	0.186
-744.156	223.930	-0.305	0.494
-743.142	-171.011	-0.253	-0.009
-742.127	-129.784	-0.248	0.034
-741.112	-176.128	0.208	0.005
-740.098	253.980	-0.045	0.077
-739.083	-139.180	-0.188	-0.020
-738.069	-90.051	0.023	0.007
-737.054	19.969	0.109	0.088
-736.039	-72.417	-0.332	-0.123
-735.025	-200.000	0.001	0.198
-734.010	209.524	-0.081	0.127
-732.996	334.384	-0.024	-0.047
-731.981	-68.835	0.126	0.049
-730.966	-46.553	-0.430	-0.211
-729.952	-16.553	-0.089	0.056
-728.937	800.000	0.040	-0.116
-727.923	-1.346	0.214	-0.151
-726.908	527.571	0.067	0.158
-725.894	274.738	-0.159	-0.283
-724.879	-93.226	-0.075	0.021
-723.864	-139.760	0.251	0.027
-722.850	-95.275	-0.271	-0.073
-721.835	447.561	0.081	0.179
-720.821	-0.791	-0.375	-0.266
-719.806	-103.267	0.239	0.056
-718.791	-200.000	-0.008	-0.069
-717.777	-103.401	-0.006	0.001
-716.762	800.000	0.045	-0.158
-715.748	57.228	0.289	0.282
-714.733	-32.838	-0.027	0.015
-713.718	-72.442	-0.168	-0.062
-712.704	800.000	-0.041	0.139
-711.689	800.000	-0.067	-0.231
-710.675	31.030	-0.081	0.070
-709.660	-10.054	-0.347	-0.231
-708.645	-200.000	0.009	-0.110
-707.631	-190.255	-0.127	-0.001
-706.616	-73.093	-0.289	-0.106
-705.602	194.020	-0.156	-0.237
-704.587	366.832	0.222	-0.449
-703.572	-104.272	-0.439	-0.102
-702.558	-200.000	0.001	-0.042
-701.543	-103.243	-0.132	-0.031
-700.529	800.000	0.059	-0.205
-699.514	-115.254	0.060	0.011
-698.499	-1.021	0.039	0.028
-697.485	-153.946	-0.195	0.013
-696.470	-27.310	0.263	0.153
-695.456	-23.359	0.017	-0.010
-694.441	10.976	0.128	-0.098
-693.426	46.708	-0.155	-0.144
-692.412	-200.000	0.003	0.193
-691.397	16.786	-0.145	-0.115
-690.383	-200.000	-0.058	-0.426
-689.368	-200.000	-0.025	-0.448
-688.354	-200.000	-0.022	0.246
-687.339	-200.000	0.049	0.598
-686.324	-99.264	-0.168	0.042
-685.310	70.505	0.166	0.172
-684.295	-200.000	0.031	0.347
-683.281	184.370	-0.202	-0.299
-682.266	549.921	-0.060	-0.144
-681.251	-200.000	-0.032	-0.221
-680.237	78.049	-0.133	0.142
-679.222	511.298	-0.172	-0.401
-678.208	800.000	-0.076	-0.271
-677.193	130.102	0.037	0.048
-676.178	-56.275	-0.192	-0.085
-675.164	480.475	0.070	0.159
-674.149	30.316	-0.390	0.333
-673.135	9.779	0.099	0.075
-672.120	-127.010	0.038	0.006
-671.105	800.000	-0.052	-0.153
-670.091	-19.793	-0.119	-0.074
-669.076	90.684	0.008	0.008
-668.062	13.469	-0.142	-0.110
-667.047	-111.233	-0.557	0.114
-666.032	-200.000	-0.020	-0.138
-665.018	39.252	0.214	-0.191
-664.003	-147.839	0.372	0.031
-662.989	149.252	-0.229	-0.310
-661.974	-200.000	-0.017	0.297
-660.959	155.019	-0.127	0.175
-659.945	-186.659	-0.347	0.005
-658.930	800.000	0.088	0.274
-657.916	215.614	0.093	0.147
-656.901	-0.330	-0.208	0.148
-655.886	42.161	-0.292	-0.265
-654.872	42.614	-0.111	0.101
-653.857	-99.091	-0.341	-0.086
-652.843	-200.000	0.062	0.303
-651.828	-31.854	-0.266	0.149
-650.814	-91.989	-0.209	-0.059
-649.799	-200.000	0.010	0.264
-648.784	761.228	0.033	-0.088
-647.770	29.310	-0.209	-0.177
-646.755	169.484	-0.158	-0.225
-645.741	-67.963	0.286	-0.112
-644.726	-117.197	0.343	0.062
-643.711	751.550	-0.060	-0.161
-642.697	-54.397	0.314	0.142
-641.682	6.551	0.095	-0.070
-640.668	-44.057	0.139	0.069
-639.653	-200.000	-0.029	0.349
-638.638	-14.379	-0.057	0.036
-637.624	800.000	-0.029	-0.088
-636.609	226.808	0.175	-0.284
-635.595	399.674	-0.256	-0.536
-634.580	220.634	0.145	0.232
-633.565	13.394	0.107	-0.083
-632.551	37.172	-0.288	0.255
-631.536	-200.000	0.036	-0.213
-630.522	-166.016	-0.194	-0.008
-629.507	-82.632	0.095	-0.031
-628.492	8.471	0.194	-0.146
-627.478	486.318	-0.070	-0.159
-626.463	67.762	0.180	-0.184
-625.449	-80.817	-0.078	-0.026
-624.434	473.394	-0.096	-0.217
-623.419	123.241	-0.159	-0.199
-622.405	38.851	-0.091	-0.081
-621.390	800.000	-0.048	0.206
-620.376	-200.000	0.045	-0.228
-619.361	800.000	-0.124	0.462
-618.346	-31.926	-0.209	0.117
-617.332	-200.000	-0.039	0.431
-616.317	-200.000	0.009	0.251
-615.303	-54.704	0.462	-0.208
-614.288	441.301	-0.112	-0.244
-613.273	100.872	0.124	-0.143
-612.259	-69.430	0.278	-0.106
-611.244	81.645	0.155	-0.168
-610.230	-70.587	0.417	-0.157
-609.215	-32.637	-0.089	-0.049
-608.201	197.117	0.073	-0.111
-607.186	0.306	-0.148	-0.105
-606.171	-65.676	-0.307	-0.123
-605.157	800.000	-0.059	-0.196
-604.142	13.223	-0.134	0.103
-603.128	-200.000	-0.001	-0.076
-602.113	-200.000	0.013	-0.424
-601.098	93.008	-0.217	0.245
-600.084	-35.094	-0.249	0.135
-599.069	-19.361	0.248	0.153
-598.055	-61.866	-0.356	0.148
-597.040	800.000	0.086	-0.345
-596.025	800.000	0.096	-0.416
-595.011	-112.374	-0.033	0.007
-593.996	302.627	0.124	-0.229
-592.982	155.989	0.090	-0.123
-591.967	-96.399	-0.141	-0.037
-590.952	-19.456	0.288	0.178
-589.938	-200.000	-0.023	-0.307
-588.923	18.433	0.231	0.184
-587.909	-110.778	-0.292	-0.060
-586.894	25.983	0.277	0.230
-585.879	-146.824	-0.309	-0.027
-584.865	12.796	0.065	0.050
-583.850	-84.430	-0.109	0.034
-582.836	470.421	-0.284	-0.635
-581.821	-2.855	-0.106	-0.073
-580.806	-24.057	-0.159	0.095
-579.792	800.000	0.093	-0.373
-578.777	496.427	-0.165	-0.377
-577.763	-184.361	0.159	-0.003
-576.748	-139.415	-0.181	0.019
-575.733	4.892	0.083	-0.061
-574.719	-1.816	-0.284	0.199
-573.704	6.266	0.086	0.064
-572.690	-106.064	-0.271	-0.061
-571.675	800.000	0.029	0.103
-570.661	329.580	-0.187	0.357
-569.646	-72.991	-0.333	0.122
-568.631	58.519	-0.106	-0.103
-567.617	-151.556	-0.160	-0.012
-566.602	-9.158	0.011	0.007
-565.588	60.060	0.190	0.187
-564.573	132.175	0.134	-0.172
-563.558	-121.636	-0.374	-0.062
-562.544	-200.000	0.022	-0.105
-561.529	-131.332	-0.292	-0.039
-560.515	263.421	0.089	-0.154
-559.500	-118.985	0.336	-0.059
-558.485	800.000	0.052	0.143
-557.471	-200.000	0.012	-0.058
-556.456	40.959	0.284	-0.255
-555.442	120.417	0.286	-0.354
-554.427	-92.640	-0.070	0.019
-553.412	-79.839	0.310	0.104
-552.398	-104.569	0.389	-0.089
-551.383	-200.000	0.081	-0.388
-550.369	-124.194	-0.274	-0.043
-549.354	-3.659	0.202	-0.140
-548.339	-200.000	0.020	0.236
-547.325	18.822	-0.191	-0.152
-546.310	66.979	-0.085	0.086
-545.296	-133.539	-0.106	0.013
-544.281	-35.486	-0.426	-0.230
-543.266	800.000	0.071	-0.259
-542.252	-200.000	0.021	0.092
-541.237	-29.540	0.315	0.179
-540.223	-200.000	0.061	-0.339
-539.208	-90.821	0.416	-0.119
-538.193	790.663	-0.079	0.215
-537.179	539.439	-0.042	-0.099
-536.164	268.047	-0.075	0.130
-535.150	-200.000	0.021	0.169
-534.135	733.249	-0.058	-0.154
-533.121	-90.541	-0.132	-0.038
-532.106	-102.587	-0.203	0.048
-531.091	747.550	-0.050	0.133
-530.077	-143.251	-0.112	-0.011
-529.062	-43.198	0.237	-0.119
-528.048	19.037	0.298	0.238
-527.033	-200.000	0.005	0.327
-526.018	321.394	-0.058	-0.109
-525.004	-138.702	0.050	-0.005
-523.989	-33.780	-0.158	0.086
-522.975	-126.877	0.193	0.028
-521.960	-200.000	0.028	0.198
-520.945	-151.793	-0.131	-0.010
-519.931	-105.605	-0.059	0.013
-518.916	139.661	0.143	-0.187
-517.902	83.749	-0.042	-0.045
-516.887	73.079	-0.171	0.177
-515.872	-152.335	0.181	-0.013
-514.858	25.318	0.043	-0.036
-513.843	-25.658	-0.191	0.112
-512.829	800.000	0.070	0.295
-511.814	-200.000	-0.009	0.247
-510.799	100.555	0.151	-0.174
-509.785	-200.000	-0.049	-0.348
-508.770	6.189	0.327	0.241
-507.756	-198.416	0.077	0.000
-506.741	107.557	0.100	0.118
-505.726	69.195	0.094	0.096
-504.712	-200.000	-0.016	0.173
-503.697	-89.448	-0.422	-0.123
-502.683	-99.985	0.144	-0.036
-501.668	125.105	-0.440	-0.550
-500.653	219.693	0.119	-0.189
-499.639	-200.000	0.008	0.106
-498.624	-30.818	0.463	0.260
-497.610	214.087	0.094	-0.147
-496.595	83.892	-0.155	-0.168
-495.581	146.589	-0.015	0.020
-494.566	-47.035	-0.223	-0.108
-493.551	800.000	0.097	0.365
-492.537	221.511	0.156	-0.249
-491.522	-70.693	0.176	-0.066
-490.508	-14.044	0.145	0.093
-489.493	224.705	-0.155	0.249
-488.478	-200.000	-0.009	0.144
-487.464	-200.000	0.075	-0.462
-486.449	-164.677	-0.167	-0.007
-485.435	588.383	0.069	0.168
-484.420	110.615	-0.084	-0.100
-483.405	342.717	-0.097	0.189
-482.391	-21.802	-0.051	0.031
-481.376	-79.744	-0.298	-0.100
-480.362	800.000	0.077	-0.238
-479.347	-124.540	-0.060	-0.009
-478.332	201.967	-0.006	-0.009
-477.318	289.600	0.162	0.291
-476.303	-200.000	0.029	-0.212
-475.289	431.236	0.041	0.088
-474.274	16.900	-0.148	0.116
-473.259	181.380	-0.049	0.072
-472.245	-81.398	-0.103	0.034
-471.230	-59.025	0.102	-0.044
-470.216	100.853	-0.111	0.128
-469.201	-68.664	-0.076	-0.029
-468.186	292.104	0.121	-0.218
-467.172	-200.000	-0.035	0.286
-466.157	-26.880	0.162	-0.094
-465.143	139.275	-0.171	-0.223
-464.128	166.867	-0.196	-0.275
-463.113	107.497	0.182	0.214
-462.099	-200.000	0.065	0.290
-461.084	-57.638	0.217	0.094
-460.070	638.367	0.017	0.043
-459.055	-200.000	0.025	-0.116
-458.040	695.695	0.080	-0.207
-457.026	-95.952	0.282	0.075
-456.011	36.587	-0.141	-0.124
-454.997	62.645	0.215	-0.213
-453.982	-169.142	0.095	-0.003
-452.968	-12.233	0.502	0.326
-451.953	168.367	-0.095	0.134
-450.938	204.141	0.075	0.115
-449.924	83.219	0.032	0.035
-448.909	182.503	0.075	-0.110
-447.895	-145.861	0.095	0.008
-446.880	466.814	0.058	0.129
-445.865	167.039	0.043	-0.061
-444.851	214.647	0.035	0.054
-443.836	800.000	-0.020	-0.069
-442.822	64.243	0.083	0.083
-441.807	-200.000	-0.047	0.203
-440.792	-130.806	0.262	0.035
-439.778	15.402	-0.262	-0.203
-438.763	337.832	-0.058	-0.112
-437.749	66.939	0.172	0.174
-436.734	8.007	-0.188	-0.140
-435.719	163.518	-0.078	-0.109
-434.705	-65.985	0.310	0.122
-433.690	194.533	0.261	0.391
-432.676	-200.000	-0.022	0.422
-431.661	17.437	-0.198	0.156
-430.646	88.241	-0.064	-0.070
-429.632	-153.746	0.482	-0.033
-428.617	-200.000	0.024	0.207
-427.603	243.102	-0.108	-0.179
-426.588	-124.158	-0.350	0.054
-425.573	175.404	0.042	-0.060
-424.559	759.628	0.141	-0.378
-423.544	-200.000	-0.247	0.000
-422.530	-24.033	-0.098	0.058
-421.515	-152.852	-0.376	-0.026
-420.500	227.101	-0.035	-0.056
-419.486	-54.199	0.415	-0.187
-418.471	800.000	0.104	0.445
-417.457	-97.389	-0.358	-0.092
-416.442	194.716	-0.033	0.050
-415.428	-48.452	0.213	-0.101
-414.413	-166.133	-0.326	-0.014
-413.398	6.391	-0.037	0.027
-412.384	153.274	-0.101	0.137
-411.369	800.000	0.045	-0.140
-410.355	-28.881	-0.187	0.106
-409.340	403.098	-0.029	0.060
-408.325	378.286	0.081	0.165
-407.311	-91.244	-0.042	-0.012
-406.296	117.648	0.176	-0.214
-405.282	349.151	-0.108	-0.210
-404.267	61.542	0.172	0.169
-403.252	-200.000	0.003	-0.044
-402.238	-200.000	-0.011	0.413
-401.223	46.705	-0.100	-0.092
-400.209	800.000	0.012	0.042
-399.194	-126.063	0.388	0.058
-398.179	-130.678	-0.248	-0.033
-397.165	-200.000	-0.245	-0.001
-396.150	323.522	0.014	0.027
-395.136	-139.445	-0.093	-0.010
-394.121	-174.198	-0.201	0.006
-393.106	771.966	0.017	-0.045
-392.092	83.610	0.081	0.087
-391.077	170.913	-0.168	-0.237
-390.063	321.855	0.101	-0.190
-389.048	-135.124	-0.149	-0.018
-388.033	51.009	-0.032	0.030
-387.019	156.478	0.182	-0.249
-386.004	-126.062	0.131	0.019
-384.990	-64.013	0.291	-0.117
-383.975	-86.598	-0.139	-0.042
-382.960	-57.099	0.224	0.098
-381.946	-141.795	-0.123	0.012
-380.931	186.807	-0.227	0.334
-379.917	-200.000	-0.005	-0.159
-378.902	-172.117	-0.725	0.023
-377.888	-200.000	0.086	0.385
-376.873	22.512	0.344	-0.278
-375.858	471.886	-0.035	0.077
-374.844	-200.000	-0.058	-0.295
-373.829	-55.193	-0.216	0.096
-372.815	150.291	-0.188	-0.252
-371.800	-122.873	-0.367	-0.059
-370.785	676.035	0.055	0.140
-369.771	-16.531	0.102	-0.064
-368.756	351.820	-0.032	-0.063
-367.742	363.376	-0.200	-0.398
-366.727	528.001	0.111	-0.259
-365.712	459.414	0.173	0.379
-364.698	53.001	-0.057	0.053
-363.683	-200.000	-0.020	-0.104
-362.669	73.954	-0.253	-0.262
-361.654	-200.000	-0.012	-0.144
-360.639	-133.831	-0.307	0.038
-359.625	42.445	0.229	0.206
-358.610	-200.000	-0.015	0.138
-357.596	-33.460	-0.155	0.085
-356.581	92.336	-0.183	0.204
-355.566	-200.000	0.023	-0.182
-354.552	10.182	0.149	-0.112
-353.537	74.343	0.258	0.268
-352.523	-124.756	-0.133	0.020
-351.508	-4.207	0.229	-0.156
-350.493	-42.128	0.209	-0.105
-349.479	148.436	0.081	-0.109
-348.464	38.179	0.153	0.134
-347.450	-200.000	0.012	0.078
-346.435	-11.275	-0.191	0.124
-345.420	76.179	0.318	0.332
-344.406	-59.613	0.051	0.021
-343.391	-200.000	0.022	0.240
-342.377	282.050	0.105	0.186
-341.362	-200.000	0.006	-0.039
-340.348	406.762	-0.095	0.199
-339.333	170.545	-0.032	0.045
-338.318	-112.988	0.281	0.055
-337.304	-15.900	-0.076	0.048
-336.289	32.173	0.217	0.185
-335.275	-136.949	0.201	0.023
-334.260	787.585	0.252	-0.682
-333.245	299.903	0.015	0.027
-332.231	-200.000	-0.012	0.055
-331.216	184.152	0.211	-0.308
-330.202	-113.699	0.051	-0.010
-329.187	-33.684	-0.050	-0.027
-328.172	389.309	0.068	0.138
-327.158	487.786	0.068	-0.152
-326.143	-130.558	-0.305	-0.041
-325.129	377.036	-0.108	-0.217
-324.114	-62.358	0.310	0.127
-323.099	-159.966	-0.223	0.012
-322.085	-85.174	-0.182	-0.056
-321.070	107.865	0.238	-0.280
-320.056	352.319	-0.204	0.398
-319.041	-83.403	-0.395	-0.125
-318.026	-130.049	0.145	0.020
-317.012	-12.721	-0.182	-0.117
-315.997	571.151	0.019	0.045
-314.983	800.000	-0.044	-0.180
-313.968	-35.600	-0.421	-0.225
-312.953	-158.172	-0.268	0.015
-311.939	165.529	0.255	-0.355
-310.924	350.937	0.094	-0.184
-309.910	130.174	0.079	0.100
-308.895	800.000	0.081	-0.225
-307.880	-140.208	0.318	-0.033
-306.866	-0.751	-0.359	-0.250
-305.851	118.561	-0.094	-0.114
-304.837	-52.574	-0.349	0.159
-303.822	-200.000	0.000	0.416
-302.807	4.808	0.166	-0.120
-301.793	205.745	0.091	0.140
-300.778	58.074	0.319	-0.308
-299.764	389.073	-0.110	0.224
-298.749	76.640	0.305	-0.318
-297.735	-200.000	-0.038	0.283
-296.720	-7.188	-0.155	0.104
-295.705	800.000	0.111	-0.378
-294.691	-105.850	-0.259	-0.058
-293.676	105.777	0.077	-0.089
-292.662	-92.213	0.295	0.082
-291.647	128.240	-0.292	-0.365
-290.632	176.514	-0.109	-0.156
-289.618	229.663	-0.046	-0.073
-288.603	32.770	0.150	0.128
-287.589	339.197	-0.128	0.246
-286.574	176.147	-0.149	-0.213
-285.559	-200.000	0.022	0.181
-284.545	372.820	0.173	0.346
-283.530	-95.619	0.250	-0.066
-282.516	60.132	0.180	0.175
-281.501	183.266	0.151	-0.220
-280.486	188.216	-0.111	-0.164
-279.472	-113.113	-0.209	-0.041
-278.457	-200.000	-0.034	-0.258
-277.443	-40.588	-0.188	0.096
-276.428	-200.000	-0.024	-0.166
-275.413	800.000	0.021	0.078
-274.399	401.829	-0.104	-0.216
-273.384	93.681	0.176	0.196
-272.370	-200.000	-0.043	0.386
-271.355	-200.000	0.010	0.386
-270.340	-200.000	-0.026	-0.137
-269.326	651.291	0.120	0.302
-268.311	41.442	0.274	0.244
-267.297	-135.566	-0.102	0.012
-266.282	81.249	-0.115	0.122
-265.267	-83.351	-0.401	-0.126
-264.253	-148.600	0.293	-0.023
-263.238	-200.000	0.018	0.148
-262.224	8.903	0.156	0.116
-261.209	800.000	0.051	-0.140
-260.195	800.000	-0.138	-0.429
-259.180	16.358	-0.153	-0.119
-258.165	800.000	-0.062	-0.198
-257.151	53.814	0.214	0.202
-256.136	-124.610	-0.339	0.052
-255.122	38.716	-0.086	0.076
-254.107	-90.137	0.363	-0.104
-253.092	39.515	-0.101	-0.089
-252.078	68.160	0.122	0.123
-251.063	-57.341	0.309	0.134
-250.049	-55.675	-0.066	-0.029
-249.034	26.026	-0.137	0.112
-248.019	-24.869	0.123	-0.072
-247.005	-200.000	0.012	-0.098
-245.990	-200.000	0.038	0.185
-244.976	69.642	-0.294	0.298
-243.961	800.000	-0.075	0.212
-242.946	-118.536	-0.356	0.062
-241.932	-75.195	0.434	-0.152
-240.917	-26.399	-0.184	0.106
-239.903	-200.000	0.003	0.184
-238.888	15.120	0.028	-0.022
-237.873	94.881	0.172	-0.192
-236.859	564.585	0.174	0.414
-235.844	-82.783	0.355	0.113
-234.830	800.000	-0.031	0.100
-233.815	-20.596	-0.443	0.267
-232.800	800.000	0.122	0.371
-231.786	109.274	-0.190	-0.223
-230.771	-200.000	-0.014	-0.104
-229.757	281.407	-0.056	0.099
-228.742	-135.001	-0.110	0.013
-227.727	-41.574	0.129	-0.065
-226.713	-88.749	0.257	-0.075
-225.698	800.000	-0.079	0.290
-224.684	202.279	0.066	0.100
-223.669	645.540	-0.059	-0.149
-222.655	-56.918	0.148	0.064
-221.640	33.863	-0.064	-0.055
-220.625	77.088	0.062	0.065
-219.611	79.649	-0.175	-0.184
-218.596	349.907	-0.093	-0.180
-217.582	-78.809	-0.116	0.039
-216.567	521.650	-0.069	0.159
-215.552	43.490	0.079	0.071
-214.538	-22.156	-0.232	0.138
-213.523	-200.000	-0.037	0.191
-212.509	800.000	0.008	0.031
-211.494	568.330	-0.061	-0.146
-210.479	-32.621	0.078	0.042
-209.465	0.586	0.108	-0.076
-208.450	-200.000	0.057	0.325
-207.436	164.295	-0.082	0.113
-206.421	-64.375	0.070	-0.028
-205.406	238.411	0.028	0.046
-204.392	40.628	-0.410	0.362
-203.377	800.000	-0.088	0.372
-202.363	175.823	-0.155	-0.221
-201.348	335.623	0.086	-0.163
-200.333	223.134	-0.139	0.219
-199.319	-200.000	-0.007	-0.306
-198.304	-141.716	-0.093	0.009
-197.290	244.404	-0.143	-0.236
-196.275	49.439	0.245	0.226
-195.260	140.947	-0.113	-0.147
-194.246	22.923	-0.191	-0.153
-193.231	-64.224	-0.297	-0.119
-192.217	-99.426	-0.178	0.044
-191.202	-200.000	-0.010	0.128
-190.187	-133.246	0.189	-0.023
-189.173	95.918	-0.102	-0.114
-188.158	-80.501	-0.459	0.150
-187.144	215.474	-0.107	0.167
-186.129	-200.000	0.048	0.219
-185.114	-200.000	-0.049	0.364
-184.100	-107.412	0.303	-0.065
-183.085	800.000	0.068	-0.215
-182.071	-200.000	0.040	0.203
-181.056	-200.000	-0.044	0.264
-180.042	-200.000	0.004	-0.028
-179.027	-102.311	0.314	0.074
-178.012	-52.349	0.143	-0.065
-176.998	118.489	0.241	0.292
-175.983	333.011	-0.131	0.249
-174.969	109.670	0.185	-0.217
-173.954	-128.698	-0.002	-0.000
-172.939	19.607	0.117	0.092
-171.925	352.178	0.150	0.291
-170.910	-86.486	-0.087	-0.026
-169.896	104.768	0.222	-0.257
-168.881	101.434	0.097	0.111
-167.866	29.275	-0.202	0.168
-166.852	-58.654	0.066	0.028
-165.837	800.000	0.001	0.004
-164.823	74.810	0.243	0.251
-163.808	-102.096	0.218	0.051
-162.793	29.050	-0.226	-0.188
-161.779	-200.000	-0.033	0.145
-160.764	-89.267	-0.125	0.036
-159.750	160.260	0.155	0.212
-158.735	183.938	-0.131	0.190
-157.720	103.819	-0.048	0.056
-156.706	111.667	0.115	0.135
-155.691	227.822	-0.145	0.232
-154.677	-123.567	0.202	0.031
-153.662	-200.000	0.050	-0.250
-152.647	-200.000	0.024	-0.249
-151.633	-1.483	-0.186	-0.129
-150.618	531.987	0.107	0.248
-149.604	800.000	0.119	0.367
-148.589	-32.916	-0.221	0.120
-147.574	-41.677	-0.093	0.047
-146.560	-200.000	0.003	-0.167
-145.545	318.426	0.126	-0.233
-144.531	-200.000	-0.052	0.435
-143.516	-59.102	-0.170	-0.072
-142.502	237.598	-0.140	0.228
-141.487	-53.402	-0.133	-0.060
-140.472	-34.996	0.191	0.102
-139.458	368.206	0.093	0.184
-138.443	-145.019	-0.270	0.024
-137.429	79.510	0.021	0.022
-136.414	-166.733	0.180	0.007
-135.399	473.275	-0.064	0.141
-134.385	-3.903	-0.319	-0.216
-133.370	-72.757	0.152	0.055
-132.356	74.800	-0.096	0.099
-131.341	-12.986	0.386	0.246
-130.326	-47.855	-0.365	-0.173
-129.312	-113.962	-0.172	0.033
-128.297	-8.981	0.122	0.080
-127.283	320.046	-0.160	-0.296
-126.268	-11.666	-0.335	-0.215
-125.253	-150.425	-0.114	0.009
-124.239	-200.000	-0.012	-0.150
-123.224	16.868	0.032	-0.025
-122.210	151.610	-0.128	0.171
-121.195	204.234	0.093	0.141
