DTS Sentinel unit serial number:	SN413079Multiplexer serial number:	ORYXHardware model number:	OX4-SRSoftware version number:	ORYX F/W v4.00 Oryx Data Collector v3.7.2.0data status	okinstallation	princeton_trtdifferential loss correction	single-endedforward channel	channel 1reverse channel	N/Adate	2019/09/14time	20:02:35forward acquisition time	60.00reverse acquisition time	0.00gamma	496.2192k internal	0.2315k external	0.2315temperature offset calibration	1.0029default loss term (dB/km)	0.3790temperature slope calibration	1.0000multiplexer offset coefficient	1.0000multiplexer slope coefficient	1.0000fibre end	0.00T internal ref (°C)	34.02T ext. ref 1 (°C)	4.87T ext. ref 2 (°C)	28.33length (m)	temperature (°C)	Stokes	anti-Stokes-747.200	0.828	-0.319	0.232
-746.185	-168.824	-0.303	0.012
-745.171	365.200	-0.034	0.070
-744.156	497.404	-0.133	0.311
-743.142	100.657	0.080	-0.095
-742.127	800.000	0.145	0.461
-741.112	800.000	0.053	-0.168
-740.098	-200.000	0.001	0.205
-739.083	461.442	-0.076	0.173
-738.069	-20.362	0.252	0.157
-737.054	-27.926	-0.257	-0.151
-736.039	137.038	-0.259	-0.343
-735.025	546.255	0.136	-0.330
-734.010	770.334	0.070	0.193
-732.996	-65.743	-0.128	0.052
-731.981	-114.817	0.125	-0.024
-730.966	352.905	0.115	0.232
-729.952	-126.849	0.095	-0.014
-728.937	59.947	-0.078	-0.078
-727.923	-161.393	0.199	-0.010
-726.908	-200.000	0.013	-0.402
-725.894	-65.246	-0.246	0.100
-724.879	71.992	0.064	-0.067
-723.864	195.583	0.142	0.219
-722.850	116.462	0.089	-0.111
-721.835	25.440	-0.153	-0.129
-720.821	-136.283	-0.190	0.022
-719.806	-166.034	-0.231	-0.010
-718.791	800.000	0.045	-0.146
-717.777	-36.844	0.306	0.166
-716.762	-200.000	-0.022	0.173
-715.748	78.241	0.220	0.238
-714.733	-29.294	0.132	0.077
-713.718	-86.430	-0.135	0.042
-712.704	800.000	-0.030	-0.119
-711.689	12.431	-0.128	-0.100
-710.675	110.189	-0.102	-0.124
-709.660	69.860	0.161	-0.169
-708.645	12.994	-0.073	0.057
-707.631	124.628	0.126	0.160
-706.616	800.000	-0.093	-0.278
-705.602	-200.000	-0.018	-0.184
-704.587	-144.216	-0.518	-0.049
-703.572	175.982	0.099	0.145
-702.558	662.910	0.149	0.388
-701.543	-90.509	-0.034	-0.010
-700.529	7.416	-0.305	-0.230
-699.514	-124.338	0.412	0.065
-698.499	299.647	-0.147	0.274
-697.485	271.934	-0.069	0.123
-696.470	-83.579	-0.093	0.030
-695.456	-200.000	-0.010	-0.212
-694.441	-27.654	0.277	0.163
-693.426	-137.336	-0.176	-0.020
-692.412	-113.896	0.112	-0.022
-691.397	726.908	0.076	-0.204
-690.383	421.852	0.192	-0.416
-689.368	-73.685	-0.343	-0.126
-688.354	-147.589	-0.286	-0.024
-687.339	800.000	0.051	-0.158
-686.324	-27.074	0.214	-0.126
-685.310	800.000	-0.070	-0.273
-684.295	-56.669	-0.146	-0.065
-683.281	-111.074	-0.229	-0.047
-682.266	-170.338	0.057	-0.002
-681.251	46.219	-0.198	-0.186
-680.237	800.000	0.045	-0.138
-679.222	-70.155	0.208	-0.080
-678.208	135.161	0.052	-0.068
-677.193	79.844	0.094	-0.102
-676.178	800.000	-0.023	-0.098
-675.164	114.827	0.068	0.084
-674.149	6.026	0.317	0.237
-673.135	-163.359	0.151	0.007
-672.120	100.715	-0.262	0.308
-671.105	-67.055	0.167	-0.066
-670.091	32.660	0.196	-0.171
-669.076	142.244	-0.132	-0.177
-668.062	548.370	0.120	-0.290
-667.047	-36.509	-0.330	-0.179
-666.032	4.260	0.323	-0.239
-665.018	-200.000	0.038	-0.286
-664.003	5.004	-0.113	-0.084
-662.989	-43.121	-0.176	0.090
-661.974	-185.713	-0.209	0.003
-660.959	-158.295	-0.533	0.031
-659.945	481.163	-0.088	0.201
-658.930	529.819	-0.047	0.111
-657.916	186.155	0.169	-0.254
-656.901	-15.710	-0.098	-0.063
-655.886	679.379	-0.098	0.258
-654.872	800.000	-0.096	0.297
-653.857	-200.000	0.059	0.343
-652.843	-92.041	0.222	-0.063
-651.828	714.886	-0.088	-0.235
-650.814	-200.000	-0.035	0.392
-649.799	-20.127	-0.324	-0.202
-648.784	-200.000	0.002	-0.221
-647.770	-173.523	0.241	0.007
-646.755	-200.000	-0.012	-0.350
-645.741	-144.517	0.252	0.024
-644.726	-78.181	-0.226	-0.078
-643.711	-200.000	0.026	-0.180
-642.697	153.852	0.081	-0.112
-641.682	363.852	0.158	-0.321
-640.668	135.725	0.059	-0.077
-639.653	76.844	-0.161	-0.172
-638.638	-112.108	-0.206	-0.042
-637.624	-107.710	0.354	-0.078
-636.609	-111.056	-0.247	-0.051
-635.595	-4.738	0.349	-0.243
-634.580	-10.291	0.038	-0.025
-633.565	-110.750	-0.195	0.041
-632.551	800.000	0.018	-0.056
-631.536	24.279	-0.378	-0.315
-630.522	-121.480	-0.386	-0.065
-629.507	800.000	0.064	-0.180
-628.492	-3.096	0.261	-0.184
-627.478	-0.280	0.209	-0.150
-626.463	-61.542	-0.196	-0.083
-625.449	108.873	-0.095	0.115
-624.434	-98.514	-0.154	-0.040
-623.419	280.345	0.182	-0.329
-622.405	12.893	0.145	-0.113
-621.390	22.202	-0.057	0.047
-620.376	-169.290	-0.516	-0.019
-619.361	154.696	0.105	0.145
-618.346	-97.323	-0.250	0.066
-617.332	16.899	-0.150	-0.119
-616.317	800.000	0.026	-0.113
-615.303	-80.342	-0.160	-0.054
-614.288	-6.608	-0.158	0.109
-613.273	-200.000	0.002	-0.024
-612.259	-132.582	0.204	0.026
-611.244	69.420	-0.271	0.281
-610.230	-200.000	0.029	-0.343
-609.215	-78.972	0.063	0.022
-608.201	430.496	0.139	-0.303
-607.186	-73.148	0.129	-0.048
-606.171	0.664	-0.235	-0.170
-605.157	120.437	-0.142	0.178
-604.142	-97.794	0.131	-0.034
-603.128	361.277	0.048	-0.097
-602.113	-200.000	-0.016	0.199
-601.098	183.944	0.036	0.053
-600.084	-100.189	0.423	0.106
-599.069	-25.534	-0.060	0.036
-598.055	-144.187	0.248	0.023
-597.040	-81.324	0.175	0.058
-596.025	800.000	-0.073	-0.212
-595.011	-13.382	-0.177	-0.116
-593.996	-200.000	0.029	0.241
-592.982	666.921	0.115	-0.298
-591.967	-190.772	-0.140	-0.001
-590.952	-200.000	-0.058	0.362
-589.938	-119.242	0.279	0.049
-588.923	66.382	0.095	-0.097
-587.909	1.220	0.098	-0.071
-586.894	-87.662	-0.090	-0.027
-585.879	-48.233	-0.274	0.133
-584.865	800.000	0.013	0.036
-583.850	-42.445	0.167	-0.086
-582.836	143.197	-0.114	-0.153
-581.821	-200.000	0.006	-0.119
-580.806	-127.837	-0.159	0.023
-579.792	-131.549	-0.179	-0.024
-578.777	56.795	-0.113	-0.111
-577.763	28.787	-0.033	-0.028
-576.748	-29.968	0.125	-0.072
-575.733	53.884	-0.139	-0.134
-574.719	19.709	0.197	-0.159
-573.704	93.880	-0.174	-0.199
-572.690	-200.000	0.004	-0.017
-571.675	184.063	0.100	-0.148
-570.661	-200.000	-0.019	-0.205
-569.646	267.442	-0.050	0.088
-568.631	-105.022	0.080	-0.018
-567.617	-25.625	0.021	-0.012
-566.602	-200.000	0.036	-0.269
-565.588	-200.000	0.009	0.108
-564.573	-200.000	-0.001	0.152
-563.558	123.425	0.035	0.045
-562.544	161.414	-0.042	-0.059
-561.529	-2.390	-0.256	0.180
-560.515	520.296	-0.027	0.064
-559.500	-144.186	-0.336	0.032
-558.485	-121.103	0.267	0.045
-557.471	-155.829	0.202	-0.013
-556.456	-70.440	-0.174	0.066
-555.442	-13.569	-0.168	-0.110
-554.427	74.645	-0.329	-0.349
-553.412	122.190	-0.197	-0.248
-552.398	-84.222	0.125	0.040
-551.383	52.188	0.165	0.158
-550.369	17.048	-0.160	-0.128
-549.354	154.892	0.164	-0.227
-548.339	-83.980	-0.200	0.064
-547.325	-21.725	0.031	-0.019
-546.310	-105.556	0.121	0.028
-545.296	-184.670	-0.055	0.001
-544.281	-43.688	-0.370	0.188
-543.266	345.855	0.038	-0.074
-542.252	367.859	-0.126	-0.257
-541.237	99.654	-0.168	-0.196
-540.223	-200.000	0.003	0.206
-539.208	532.152	-0.100	0.239
-538.193	-89.738	0.258	0.076
-537.179	-195.932	-0.249	0.002
-536.164	144.895	-0.191	-0.257
-535.150	-200.000	0.034	-0.219
-534.135	15.730	-0.085	-0.067
-533.121	-200.000	0.012	0.219
-532.106	-200.000	-0.001	-0.074
-531.091	-102.403	0.218	0.052
-530.077	74.384	0.126	0.133
-529.062	-55.312	-0.152	-0.069
-528.048	-47.248	0.043	0.021
-527.033	-123.219	-0.102	0.016
-526.018	145.654	-0.134	-0.180
-525.004	40.797	0.091	-0.083
-523.989	-95.537	-0.075	-0.020
-522.975	800.000	0.014	0.060
-521.960	-93.676	0.260	0.072
-520.945	-25.276	-0.143	0.085
-519.931	171.647	-0.041	0.059
-518.916	-88.896	-0.104	-0.031
-517.902	800.000	-0.037	-0.130
-516.887	61.470	-0.218	-0.218
-515.872	-135.153	0.141	0.017
-514.858	127.371	0.159	-0.202
-513.843	-171.239	0.050	0.002
-512.829	-200.000	-0.012	-0.101
-511.814	-148.279	-0.221	0.018
-510.799	650.831	-0.104	0.267
-509.785	-111.404	0.157	-0.032
-508.770	-11.405	0.058	-0.039
-507.756	-31.193	-0.025	0.014
-506.741	268.186	-0.101	0.178
-505.726	-141.076	-0.188	-0.019
-504.712	164.683	0.209	0.295
-503.697	-60.144	0.093	0.040
-502.683	226.507	0.024	-0.040
-501.668	489.371	-0.113	0.259
-500.653	573.487	0.123	-0.301
-499.639	223.468	0.201	0.326
-498.624	-200.000	-0.001	0.057
-497.610	-52.273	0.134	0.062
-496.595	161.209	-0.114	0.160
-495.581	-175.644	0.144	0.004
-494.566	60.389	0.189	-0.188
-493.551	84.705	0.139	0.153
-492.537	-128.694	0.236	0.033
-491.522	73.780	-0.150	-0.157
-490.508	-164.884	-0.291	-0.013
-489.493	-43.030	-0.133	-0.068
-488.478	75.617	0.091	-0.096
-487.464	800.000	-0.089	-0.343
-486.449	-111.984	0.042	0.008
-485.435	-137.103	0.233	-0.027
-484.420	241.778	0.121	0.203
-483.405	800.000	-0.083	-0.306
-482.391	-116.616	0.315	0.058
-481.376	-88.818	0.387	-0.115
-480.362	-200.000	-0.525	-0.001
-479.347	210.099	0.143	0.226
-478.332	800.000	-0.058	-0.197
-477.318	-200.000	0.012	-0.183
-476.303	-14.465	0.379	-0.245
-475.289	40.411	0.202	0.183
-474.274	-179.684	0.314	0.007
-473.259	800.000	0.078	0.220
-472.245	-37.549	0.099	0.053
-471.230	-200.000	-0.054	0.256
-470.216	-23.137	-0.182	-0.110
-469.201	-200.000	0.014	0.172
-468.186	-200.000	-0.027	0.223
-467.172	800.000	0.124	-0.392
-466.157	-20.670	-0.159	-0.098
-465.143	-38.121	0.237	-0.126
-464.128	67.122	0.120	-0.122
-463.113	-93.831	-0.113	-0.031
-462.099	-145.028	-0.089	0.008
-461.084	-106.013	-0.044	0.010
-460.070	622.415	0.045	0.115
-459.055	323.962	0.209	-0.400
-458.040	117.593	-0.126	0.156
-457.026	-74.639	0.179	-0.065
-456.011	-200.000	0.066	-0.448
-454.997	-145.513	-0.232	0.021
-453.982	775.059	-0.124	-0.338
-452.968	-114.321	0.214	0.041
-451.953	-200.000	-0.001	0.184
-450.938	-45.868	0.208	0.103
-449.924	16.237	0.036	-0.028
-448.909	-104.067	-0.294	0.069
-447.895	800.000	-0.047	-0.141
-446.880	-109.419	-0.097	-0.021
-445.865	-70.049	0.146	-0.056
-444.851	-105.155	0.095	-0.022
-443.836	515.780	0.040	0.093
-442.822	-42.061	0.140	-0.072
-441.807	99.431	-0.283	0.328
-440.792	-102.787	0.078	0.019
-439.778	234.134	-0.100	0.165
-438.763	-48.934	-0.258	-0.124
-437.749	-138.433	0.162	-0.018
-436.734	800.000	0.095	0.406
-435.719	800.000	0.074	0.209
-434.705	-88.501	0.018	0.005
-433.690	82.803	0.061	0.067
-432.676	-112.444	0.393	0.079
-431.661	-200.000	-0.003	0.133
-430.646	708.675	-0.115	-0.304
-429.632	94.562	-0.064	0.073
-428.617	71.989	-0.175	0.182
-427.603	-200.000	-0.011	-0.316
-426.588	180.121	-0.004	-0.006
-425.573	141.751	0.111	-0.148
-424.559	-200.000	0.014	-0.147
-423.544	-84.576	-0.046	-0.014
-422.530	-200.000	0.021	-0.359
-421.515	-200.000	0.032	0.155
-420.500	-34.082	-0.096	0.053
-419.486	-200.000	-0.056	-0.248
-418.471	161.672	0.168	0.235
-417.457	800.000	0.056	-0.166
-416.442	-9.551	0.286	-0.191
-415.428	345.815	-0.075	-0.148
-414.413	-200.000	0.024	0.190
-413.398	-45.351	-0.279	0.139
-412.384	292.082	-0.099	-0.181
-411.369	-200.000	-0.065	0.315
-410.355	-200.000	-0.004	0.229
-409.340	103.027	-0.190	0.222
-408.325	-126.245	-0.183	0.027
-407.311	-200.000	0.009	-0.076
-406.296	140.306	0.235	-0.310
-405.282	-122.853	0.088	0.014
-404.267	800.000	-0.022	0.091
-403.252	-200.000	-0.007	0.275
-402.238	-82.790	0.067	0.022
-401.223	40.788	0.060	0.054
-400.209	-200.000	0.057	0.402
-399.194	-76.923	-0.152	0.053
-398.179	-200.000	-0.058	0.332
-397.165	12.759	0.201	-0.155
-396.150	-51.927	-0.375	0.174
-395.136	800.000	0.099	0.374
-394.121	38.980	-0.329	0.294
-393.106	410.642	-0.078	0.165
-392.092	-2.153	-0.130	0.091
-391.077	-101.008	0.298	-0.073
-390.063	-200.000	0.008	0.366
-389.048	800.000	0.079	0.223
-388.033	97.298	0.139	-0.160
-387.019	14.393	0.163	0.127
-386.004	148.055	-0.128	0.173
-384.990	-126.502	0.206	0.031
-383.975	-92.487	-0.186	0.052
-382.960	168.955	0.016	0.022
-381.946	-200.000	0.008	0.077
-380.931	164.594	-0.104	0.146
-379.917	-59.285	0.208	0.090
-378.902	-137.690	-0.503	0.056
-377.888	-200.000	0.078	0.432
-376.873	800.000	0.015	0.048
-375.858	103.706	0.130	-0.152
-374.844	-30.225	0.249	-0.141
-373.829	-200.000	0.008	0.131
-372.815	34.965	0.293	0.256
-371.800	-200.000	-0.158	0.000
-370.785	23.194	-0.162	0.133
-369.771	104.816	-0.166	0.195
-368.756	-139.072	-0.344	-0.037
-367.742	-5.687	-0.056	0.038
-366.727	6.606	0.186	-0.138
-365.712	-200.000	0.022	0.271
-364.698	800.000	-0.052	-0.181
-363.683	267.787	-0.035	0.060
-362.669	89.606	-0.076	-0.085
-361.654	194.791	0.126	-0.191
-360.639	-84.434	0.271	0.086
-359.625	74.747	-0.281	0.295
-358.610	-200.000	0.024	-0.140
-357.596	684.317	-0.118	-0.308
-356.581	-139.687	-0.222	0.024
-355.566	101.069	-0.085	0.098
-354.552	-85.961	-0.356	0.110
-353.537	-146.124	0.179	-0.016
-352.523	800.000	-0.047	0.200
-351.508	246.674	0.059	0.099
-350.493	598.503	0.114	0.282
-349.479	-200.000	0.014	-0.115
-348.464	800.000	0.051	0.214
-347.450	286.545	0.141	-0.254
-346.435	42.554	0.316	-0.287
-345.420	-200.000	0.070	0.312
-344.406	-109.351	0.207	0.044
-343.391	-145.777	0.199	0.018
-342.377	800.000	0.081	0.342
-341.362	400.185	-0.089	-0.185
-340.348	-60.296	-0.251	-0.107
-339.333	-131.667	0.323	-0.042
-338.318	800.000	-0.036	0.120
-337.304	-112.894	0.163	-0.032
-336.289	-64.491	0.398	-0.161
-335.275	239.735	-0.153	-0.255
-334.260	236.464	0.108	-0.179
-333.245	-54.260	-0.148	0.067
-332.231	-48.370	-0.162	-0.078
-331.216	-142.224	-0.249	0.025
-330.202	800.000	-0.030	0.126
-329.187	732.861	0.113	0.300
-328.172	-103.575	0.110	0.026
-327.158	368.825	0.115	0.232
-326.143	-181.004	0.371	0.007
-325.129	-25.217	0.103	0.061
-324.114	202.890	0.277	0.426
-323.099	-104.056	-0.232	0.054
-322.085	-100.505	0.305	0.075
-321.070	-89.769	0.406	-0.119
-320.056	-66.151	-0.276	-0.110
-319.041	478.072	0.017	0.039
-318.026	-120.619	0.118	0.020
-317.012	800.000	0.017	0.048
-315.997	196.626	0.037	0.057
-314.983	-28.178	0.201	0.116
-313.968	-143.377	0.058	-0.006
-312.953	-78.075	0.103	0.035
-311.939	-98.598	-0.218	-0.055
-310.924	20.318	0.175	0.141
-309.910	-59.226	-0.131	0.056
-308.895	113.338	0.244	0.295
-307.880	-117.055	-0.228	-0.041
-306.866	22.495	0.176	-0.143
-305.851	-200.000	-0.084	0.453
-304.837	-200.000	-0.027	0.135
-303.822	109.614	-0.168	-0.201
-302.807	245.909	-0.154	-0.258
-301.793	275.160	-0.081	0.143
-300.778	-41.581	0.340	0.174
-299.764	-22.675	-0.222	0.134
-298.749	-200.000	-0.077	-0.456
-297.735	78.722	0.154	0.164
-296.720	-53.788	0.131	-0.059
-295.705	-74.253	0.174	-0.063
-294.691	203.454	-0.061	0.094
-293.676	-166.308	-0.064	-0.003
-292.662	-31.533	-0.114	0.064
-291.647	18.610	-0.188	-0.150
-290.632	111.151	-0.271	0.325
-289.618	159.399	-0.118	0.164
-288.603	-94.534	0.317	-0.086
-287.589	-110.885	0.104	0.021
-286.574	-53.231	0.086	-0.039
-285.559	800.000	0.060	0.208
-284.545	26.430	-0.022	-0.018
-283.530	703.860	0.095	-0.250
-282.516	34.497	-0.239	0.207
-281.501	103.786	0.041	0.048
-280.486	-82.935	-0.111	0.036
-279.472	-200.000	0.109	0.486
-278.457	34.326	0.101	-0.088
-277.443	273.057	-0.034	0.060
-276.428	159.864	-0.119	0.165
-275.413	-120.564	-0.244	0.041
-274.399	-158.943	-0.116	0.007
-273.384	-55.992	-0.121	0.054
-272.370	102.213	-0.444	0.516
-271.355	-200.000	0.026	0.313
-270.340	-200.000	-0.010	-0.098
-269.326	-98.229	0.218	0.056
-268.311	205.098	-0.242	0.373
-267.297	800.000	0.026	0.098
-266.282	-73.325	0.157	0.057
-265.267	492.408	-0.029	-0.066
-264.253	11.114	0.165	0.126
-263.238	182.850	-0.154	-0.225
-262.224	-40.876	-0.107	-0.055
-261.209	86.466	0.143	-0.156
-260.195	800.000	-0.032	-0.109
-259.180	-93.440	0.165	-0.045
-258.165	-153.790	-0.143	-0.010
-257.151	-65.666	-0.154	0.062
-256.136	-42.270	-0.200	0.102
-255.122	16.733	-0.321	0.253
-254.107	186.889	0.210	-0.311
-253.092	-200.000	0.122	0.000
-252.078	154.395	0.045	-0.062
-251.063	-70.356	0.217	0.082
-250.049	-200.000	0.043	-0.325
-249.034	37.048	0.382	-0.336
-248.019	-46.892	0.058	0.028
-247.005	-200.000	0.023	-0.150
-245.990	800.000	0.024	-0.086
-244.976	-93.301	0.273	0.075
-243.961	417.525	-0.086	0.183
-242.946	237.894	-0.069	-0.113
-241.932	46.854	-0.068	0.063
-240.917	-2.104	-0.159	-0.111
-239.903	14.319	-0.217	0.168
-238.888	-124.788	0.244	0.037
-237.873	61.089	0.241	-0.238
-236.859	-157.608	-0.133	-0.008
-235.844	-123.027	-0.254	0.041
-234.830	777.094	0.083	0.226
-233.815	177.629	-0.036	0.053
-232.800	-163.430	0.160	0.008
-231.786	330.538	-0.084	-0.161
-230.771	-200.000	-0.015	-0.127
-229.757	-180.042	0.122	0.003
-228.742	-7.941	-0.245	0.164
-227.727	-112.421	0.208	0.041
-226.713	-97.883	0.221	-0.057
-225.698	-67.594	-0.120	-0.047
-224.684	-200.000	0.016	0.146
-223.669	262.698	0.189	0.325
-222.655	34.018	-0.056	0.048
-221.640	800.000	-0.025	-0.086
-220.625	195.927	0.038	0.057
-219.611	683.800	0.074	-0.193
-218.596	-2.455	0.220	-0.153
-217.582	274.612	-0.161	-0.283
-216.567	-200.000	0.016	-0.612
-215.552	447.010	0.080	-0.174
-214.538	-200.000	0.166	0.000
-213.523	476.494	-0.080	0.179
-212.509	-111.910	0.136	-0.027
-211.494	800.000	-0.058	0.172
-210.479	53.705	0.122	0.116
-209.465	-200.000	-0.060	0.459
-208.450	800.000	-0.116	0.386
-207.436	-200.000	0.020	-0.319
-206.421	-200.000	0.033	-0.350
-205.406	-200.000	0.003	0.051
-204.392	135.196	0.277	0.357
-203.377	-200.000	0.005	0.138
-202.363	800.000	0.043	-0.124
-201.348	800.000	-0.007	-0.028
-200.333	23.234	-0.145	0.118
-199.319	-112.422	-0.229	0.046
-198.304	-200.000	-0.010	-0.174
-197.290	-43.527	0.286	0.143
-196.275	-16.118	0.241	-0.152
-195.260	646.847	-0.059	-0.149
-194.246	-200.000	-0.008	0.080
-193.231	-200.000	-0.020	-0.281
-192.217	78.144	-0.088	-0.093
-191.202	-200.000	-0.018	-0.137
-190.187	72.541	-0.202	-0.209
-189.173	115.770	0.271	-0.328
-188.158	-200.000	0.005	0.265
-187.144	-108.225	-0.303	-0.065
-186.129	-37.587	0.168	-0.089
-185.114	-200.000	0.104	-0.576
-184.100	48.073	0.097	-0.089
-183.085	-142.482	-0.187	0.018
-182.071	540.496	0.110	-0.259
-181.056	-46.407	0.092	-0.045
-180.042	636.013	-0.047	-0.119
-179.027	-102.537	0.087	0.021
-178.012	14.286	-0.070	0.054
-176.998	120.096	0.083	-0.102
-175.983	497.893	0.116	0.266
-174.969	-200.000	0.004	-0.122
-173.954	800.000	0.018	0.070
-172.939	-83.364	-0.312	-0.099
-171.925	543.484	0.049	0.115
-170.910	-86.896	-0.150	0.045
-169.896	-102.327	-0.234	-0.056
-168.881	800.000	-0.101	-0.317
-167.866	-200.000	0.008	0.156
-166.852	39.316	-0.150	0.133
-165.837	-200.000	-0.002	-0.092
-164.823	-56.453	0.119	0.052
-163.808	-114.459	-0.144	0.027
-162.793	-48.944	0.109	-0.052
-161.779	-110.529	0.130	0.027
-160.764	2.384	-0.093	0.067
-159.750	-29.362	-0.197	-0.112
-158.735	800.000	-0.100	0.400
-157.720	800.000	-0.014	-0.059
-156.706	-87.907	-0.317	0.094
-155.691	-34.816	-0.174	0.094
-154.677	-31.291	-0.320	0.178
-153.662	-200.000	-0.052	-0.336
-152.647	-200.000	0.018	0.142
-151.633	-109.087	-0.035	-0.007
-150.618	359.250	0.121	-0.239
-149.604	-91.380	-0.199	-0.056
-148.589	194.942	-0.159	0.240
-147.574	-200.000	-0.016	0.148
-146.560	-200.000	0.044	-0.258
-145.545	-125.261	0.224	-0.034
-144.531	-160.350	0.180	-0.010
-143.516	105.194	-0.145	0.169
-142.502	800.000	-0.137	-0.562
-141.487	397.458	0.058	0.119
-140.472	800.000	0.032	0.139
-139.458	-112.300	-0.354	0.070
-138.443	106.417	-0.123	0.145
-137.429	-44.572	-0.174	-0.086
-136.414	-74.229	0.186	0.067
-135.399	-42.922	0.257	0.129
-134.385	-119.551	0.201	-0.034
-133.370	-200.000	0.037	0.337
-132.356	-5.055	0.349	-0.238
-131.341	-200.000	0.122	-0.000
-130.326	163.045	-0.104	0.144
-129.312	16.036	-0.087	0.068
-128.297	150.900	-0.214	-0.289
-127.283	524.904	0.146	-0.340
-126.268	598.509	0.164	0.402
-125.253	800.000	-0.031	0.128
-124.239	155.970	0.074	0.101
-123.224	-200.000	-0.064	-0.461
-122.210	-83.167	0.028	0.009
-121.195	-176.279	-0.120	0.003
