DTS Sentinel unit serial number:	SN413079Multiplexer serial number:	ORYXHardware model number:	OX4-SRSoftware version number:	ORYX F/W v4.00 Oryx Data Collector v3.7.2.0data status	okinstallation	princeton_trtdifferential loss correction	single-endedforward channel	channel 1reverse channel	N/Adate	2019/09/14time	08:58:35forward acquisition time	60.00reverse acquisition time	0.00gamma	496.2192k internal	0.2325k external	0.2325temperature offset calibration	1.0070default loss term (dB/km)	0.3790temperature slope calibration	1.0000multiplexer offset coefficient	1.0000multiplexer slope coefficient	1.0000fibre end	0.00T internal ref (°C)	29.81T ext. ref 1 (°C)	3.72T ext. ref 2 (°C)	28.07length (m)	temperature (°C)	Stokes	anti-Stokes-747.200	-200.000	-0.078	0.364
-746.185	-139.395	-0.297	-0.032
-745.171	-200.000	-0.049	0.474
-744.156	30.710	-0.201	0.174
-743.142	-200.000	0.086	0.418
-742.127	-117.556	-0.256	-0.047
-741.112	245.562	0.066	0.113
-740.098	-192.933	0.152	-0.001
-739.083	176.081	-0.152	0.223
-738.069	13.813	0.362	0.284
-737.054	37.635	-0.128	0.115
-736.039	-93.500	-0.370	-0.103
-735.025	-94.881	-0.342	0.093
-734.010	-200.000	0.008	-0.069
-732.996	-200.000	0.003	-0.153
-731.981	-24.582	-0.105	-0.063
-730.966	612.074	-0.030	-0.074
-729.952	278.595	0.140	-0.251
-728.937	162.177	0.057	-0.080
-727.923	54.975	-0.248	0.242
-726.908	-149.001	-0.240	0.019
-725.894	-26.261	-0.319	-0.189
-724.879	800.000	-0.129	0.462
-723.864	-200.000	0.041	0.208
-722.850	-52.030	-0.332	0.155
-721.835	-125.213	-0.168	-0.026
-720.821	348.402	-0.112	-0.223
-719.806	-200.000	0.066	0.334
-718.791	205.827	0.159	-0.249
-717.777	800.000	-0.036	0.126
-716.762	-200.000	-0.010	0.183
-715.748	-200.000	-0.006	-0.164
-714.733	-86.733	-0.351	0.108
-713.718	-2.145	-0.161	-0.114
-712.704	38.825	-0.298	-0.268
-711.689	-200.000	0.050	-0.321
-710.675	422.879	-0.117	0.252
-709.660	-90.261	-0.132	-0.039
-708.645	-95.640	-0.218	-0.059
-707.631	-183.086	0.189	0.003
-706.616	191.841	-0.227	-0.344
-705.602	-71.206	0.154	-0.058
-704.587	-44.473	-0.158	0.080
-703.572	-200.000	0.056	-0.281
-702.558	138.515	-0.056	-0.073
-701.543	800.000	-0.009	0.033
-700.529	299.423	0.009	0.017
-699.514	-54.633	-0.184	-0.084
-698.499	-90.756	-0.067	0.019
-697.485	800.000	-0.090	-0.290
-696.470	-123.022	-0.333	0.054
-695.456	-5.907	-0.167	-0.115
-694.441	425.388	0.097	-0.211
-693.426	9.015	-0.180	0.137
-692.412	800.000	0.020	-0.077
-691.397	-57.807	0.233	0.103
-690.383	-200.000	-0.034	0.289
-689.368	3.057	-0.235	0.172
-688.354	-200.000	0.017	-0.167
-687.339	138.363	-0.164	-0.216
-686.324	121.813	0.100	0.125
-685.310	184.065	0.101	0.150
-684.295	-85.555	-0.190	-0.060
-683.281	102.790	-0.206	-0.242
-682.266	800.000	0.055	-0.154
-681.251	117.526	-0.214	-0.265
-680.237	-5.616	0.121	0.084
-679.222	239.023	-0.086	-0.145
-678.208	-194.996	0.251	0.002
-677.193	303.054	0.112	0.209
-676.178	-200.000	-0.009	-0.056
-675.164	74.911	-0.121	-0.129
-674.149	255.432	-0.176	-0.304
-673.135	-200.000	-0.005	-0.260
-672.120	-89.175	0.146	-0.043
-671.105	-12.833	-0.226	-0.148
-670.091	-41.194	-0.209	0.109
-669.076	-138.318	0.166	-0.018
-668.062	61.839	-0.174	-0.175
-667.047	-200.000	0.016	0.098
-666.032	800.000	-0.084	-0.330
-665.018	382.443	-0.159	-0.329
-664.003	-66.512	-0.191	0.076
-662.989	792.789	0.043	-0.118
-661.974	17.350	-0.107	-0.086
-660.959	-200.000	0.014	-0.170
-659.945	10.286	0.076	0.058
-658.930	162.438	0.214	0.302
-657.916	-200.000	-0.038	0.381
-656.901	-68.264	0.116	-0.046
-655.886	451.654	0.186	0.413
-654.872	161.066	0.149	-0.209
-653.857	23.142	-0.183	-0.151
-652.843	28.217	-0.291	-0.247
-651.828	192.567	-0.206	-0.313
-650.814	8.431	0.282	-0.213
-649.799	295.843	-0.050	-0.092
-648.784	-200.000	-0.026	-0.207
-647.770	800.000	-0.072	-0.244
-646.755	-200.000	0.007	-0.120
-645.741	-95.396	-0.153	0.041
-644.726	-127.794	-0.318	0.046
-643.711	79.852	0.150	0.162
-642.697	-200.000	0.039	0.196
-641.682	-200.000	-0.007	0.092
-640.668	800.000	-0.090	-0.296
-639.653	345.181	0.038	0.074
-638.638	108.615	0.127	0.153
-637.624	365.412	-0.154	-0.311
-636.609	-23.301	0.046	-0.028
-635.595	-134.797	-0.305	-0.037
-634.580	-192.714	0.447	0.004
-633.565	-200.000	-0.013	0.141
-632.551	216.523	0.148	0.237
-631.536	494.600	0.094	-0.217
-630.522	580.234	-0.071	0.174
-629.507	-156.613	0.122	-0.008
-628.492	-39.208	0.070	-0.037
-627.478	-200.000	0.017	-0.104
-626.463	221.198	0.059	0.096
-625.449	184.834	-0.067	-0.100
-624.434	224.249	0.175	0.284
-623.419	84.928	0.242	-0.266
-622.405	-64.856	0.336	0.136
-621.390	29.741	-0.069	0.059
-620.376	-200.000	-0.010	-0.083
-619.361	381.123	-0.031	-0.064
-618.346	180.906	0.114	-0.167
-617.332	800.000	0.066	0.284
-616.317	-28.409	0.065	-0.038
-615.303	-32.407	-0.180	-0.101
-614.288	-189.860	-0.166	0.002
-613.273	618.667	0.077	0.195
-612.259	800.000	-0.093	0.405
-611.244	-200.000	-0.041	-0.329
-610.230	439.090	-0.126	0.275
-609.215	-153.270	-0.250	0.018
-608.201	-156.152	-0.231	-0.015
-607.186	34.641	0.131	-0.115
-606.171	101.557	0.209	-0.244
-605.157	-81.982	0.095	0.031
-604.142	-200.000	0.009	0.377
-603.128	42.402	-0.060	0.055
-602.113	-70.599	0.145	0.055
-601.098	-1.765	-0.126	0.089
-600.084	253.745	0.150	-0.258
-599.069	-91.730	-0.120	0.034
-598.055	138.864	0.080	0.105
-597.040	-200.000	-0.058	-0.589
-596.025	199.296	0.120	-0.184
-595.011	50.595	-0.352	-0.334
-593.996	241.144	0.163	-0.273
-592.982	-53.451	0.146	0.067
-591.967	136.329	0.167	0.219
-590.952	-200.000	0.002	-0.098
-589.938	-72.005	-0.340	-0.127
-588.923	-36.604	0.068	0.036
-587.909	-41.402	0.137	0.071
-586.894	-73.168	-0.199	-0.073
-585.879	398.618	0.179	0.375
-584.865	-112.472	-0.026	-0.005
-583.850	-103.966	-0.174	-0.041
-582.836	-200.000	0.027	-0.439
-581.821	800.000	0.067	0.258
-580.806	-200.000	0.033	0.315
-579.792	800.000	-0.097	-0.351
-578.777	-200.000	0.022	0.225
-577.763	177.919	0.196	0.287
-576.748	800.000	0.047	0.149
-575.733	800.000	-0.086	0.328
-574.719	291.205	-0.138	0.251
-573.704	800.000	0.039	-0.154
-572.690	-19.153	0.239	0.149
-571.675	-92.235	0.139	-0.039
-570.661	13.691	0.121	-0.094
-569.646	-200.000	0.010	-0.172
-568.631	-47.281	0.014	0.007
-567.617	-68.795	-0.053	-0.020
-566.602	-54.003	-0.355	-0.162
-565.588	-101.217	0.077	0.019
-564.573	233.028	-0.206	0.339
-563.558	-200.000	0.007	-0.079
-562.544	122.053	0.131	-0.164
-561.529	188.988	-0.151	-0.226
-560.515	376.217	0.092	0.188
-559.500	-200.000	-0.020	-0.273
-558.485	-126.126	-0.256	-0.038
-557.471	-200.000	-0.033	0.268
-556.456	800.000	0.037	0.115
-555.442	-200.000	-0.013	-0.087
-554.427	152.085	-0.170	-0.233
-553.412	-28.979	0.429	-0.247
-552.398	242.262	-0.195	0.326
-551.383	546.407	0.024	-0.056
-550.369	-110.136	0.173	-0.036
-549.354	49.295	-0.372	-0.350
-548.339	-66.760	0.172	0.068
-547.325	-71.231	0.037	0.014
-546.310	281.872	-0.067	0.119
-545.296	102.741	0.325	-0.381
-544.281	800.000	0.087	0.259
-543.266	36.505	0.129	-0.114
-542.252	-100.361	-0.057	-0.014
-541.237	50.491	0.073	-0.069
-540.223	-46.962	-0.024	0.012
-539.208	-59.480	-0.171	0.074
-538.193	-63.596	-0.129	-0.053
-537.179	25.702	-0.050	0.042
-536.164	124.600	-0.194	-0.245
-535.150	352.042	0.103	0.204
-534.135	800.000	-0.033	-0.098
-533.121	29.590	0.153	0.130
-532.106	-200.000	-0.063	0.338
-531.091	-171.859	0.147	-0.005
-530.077	52.734	0.307	0.293
-529.062	136.368	-0.118	-0.154
-528.048	-200.000	-0.012	0.216
-527.033	-14.614	-0.103	-0.066
-526.018	-200.000	-0.002	-0.015
-525.004	-200.000	0.039	-0.234
-523.989	-160.277	0.132	0.007
-522.975	10.082	0.111	-0.084
-521.960	572.585	-0.132	0.323
-520.945	7.964	0.036	-0.027
-519.931	800.000	-0.080	-0.346
-518.916	-200.000	-0.002	0.035
-517.902	800.000	-0.036	0.111
-516.887	541.242	-0.099	0.236
-515.872	-53.865	-0.057	-0.026
-514.858	5.304	0.180	0.132
-513.843	800.000	-0.052	-0.178
-512.829	-107.432	-0.229	0.050
-511.814	71.145	-0.192	-0.199
-510.799	10.822	0.081	0.062
-509.785	74.398	-0.239	-0.251
-508.770	-135.479	-0.150	-0.018
-507.756	-12.079	-0.121	-0.079
-506.741	-7.320	-0.143	-0.097
-505.726	800.000	-0.040	-0.154
-504.712	-139.001	0.185	-0.020
-503.697	-200.000	-0.075	0.493
-502.683	-71.595	-0.373	0.139
-501.668	800.000	-0.105	-0.356
-500.653	-140.141	0.181	0.019
-499.639	-119.410	-0.163	0.028
-498.624	-200.000	0.013	-0.162
-497.610	-200.000	-0.018	0.110
-496.595	-200.000	0.047	0.381
-495.581	-23.585	0.071	-0.042
-494.566	717.856	0.130	-0.345
-493.551	-123.269	-0.160	-0.026
-492.537	-5.986	0.171	-0.117
-491.522	800.000	-0.131	0.407
-490.508	530.783	0.041	-0.098
-489.493	89.827	-0.201	-0.224
-488.478	-135.473	-0.267	-0.032
-487.464	365.739	-0.067	0.136
-486.449	51.241	0.105	0.099
-485.435	-109.442	0.421	0.089
-484.420	303.844	0.145	0.269
-483.405	-126.489	-0.437	0.065
-482.391	179.194	-0.219	0.320
-481.376	-200.000	0.039	-0.210
-480.362	97.497	-0.112	0.129
-479.347	-200.000	-0.036	0.190
-478.332	-58.400	0.094	-0.041
-477.318	800.000	0.165	0.566
-476.303	-115.345	-0.491	0.093
-475.289	-200.000	0.029	-0.261
-474.274	-90.386	-0.119	0.035
-473.259	-200.000	-0.001	0.232
-472.245	-91.113	0.100	-0.029
-471.230	-200.000	0.015	0.184
-470.216	299.331	0.086	0.159
-469.201	267.100	0.024	-0.042
-468.186	-164.141	-0.133	-0.006
-467.172	-101.940	-0.246	0.059
-466.157	-16.617	0.164	-0.104
-465.143	-200.000	-0.014	-0.117
-464.128	-200.000	-0.004	0.159
-463.113	72.770	0.206	0.214
-462.099	23.410	0.211	0.173
-461.084	800.000	0.075	-0.258
-460.070	38.656	0.154	-0.137
-459.055	-84.230	0.123	-0.039
-458.040	-103.631	0.096	-0.022
-457.026	-122.698	0.104	-0.017
-456.011	21.366	0.094	-0.076
-454.997	-117.818	-0.149	-0.027
-453.982	-200.000	0.029	-0.436
-452.968	186.672	0.119	-0.177
-451.953	-107.606	-0.042	-0.009
-450.938	-29.088	-0.275	-0.157
-449.924	228.344	0.086	-0.140
-448.909	-131.607	-0.393	-0.052
-447.895	92.314	-0.153	-0.172
-446.880	44.590	-0.279	-0.256
-445.865	-161.235	-0.246	0.013
-444.851	-29.943	0.406	-0.231
-443.836	-18.971	-0.107	-0.066
-442.822	4.802	-0.134	-0.099
-441.807	138.653	-0.042	0.055
-440.792	-63.062	-0.249	-0.102
-439.778	-68.803	-0.247	0.095
-438.763	-85.603	0.238	-0.074
-437.749	-65.636	0.365	0.146
-436.734	50.456	0.076	-0.072
-435.719	203.959	0.108	-0.167
-434.705	-57.918	-0.177	0.077
-433.690	-200.000	0.020	-0.180
-432.676	-2.954	0.112	-0.078
-431.661	-200.000	0.002	-0.186
-430.646	242.727	-0.180	-0.301
-429.632	26.718	0.293	-0.244
-428.617	-128.699	-0.301	-0.042
-427.603	-139.053	0.163	-0.018
-426.588	-134.446	0.240	-0.029
-425.573	-117.217	-0.159	-0.029
-424.559	312.369	-0.123	0.230
-423.544	157.113	-0.203	0.279
-422.530	-200.000	0.016	0.254
-421.515	-163.688	-0.321	-0.015
-420.500	-69.326	0.387	0.148
-419.486	165.055	-0.113	0.159
-418.471	800.000	0.063	0.214
-417.457	-200.000	0.007	-0.107
-416.442	-200.000	0.064	0.293
-415.428	159.875	-0.109	0.151
-414.413	-112.751	0.022	-0.004
-413.398	-143.885	0.123	0.012
-412.384	-162.033	0.536	-0.027
-411.369	10.246	0.208	-0.157
-410.355	703.532	0.139	-0.364
-409.340	-89.854	-0.266	0.077
-408.325	-200.000	-0.062	0.288
-407.311	-73.736	0.160	0.058
-406.296	800.000	-0.089	0.270
-405.282	800.000	0.082	0.265
-404.267	800.000	0.110	-0.303
-403.252	392.423	-0.190	-0.393
-402.238	800.000	-0.027	0.093
-401.223	-94.271	-0.265	0.072
-400.209	39.012	-0.242	-0.215
-399.194	-181.523	-0.297	0.006
-398.179	140.768	0.333	-0.438
-397.165	623.750	0.089	0.223
-396.150	92.279	-0.179	-0.201
-395.136	31.879	0.310	-0.266
-394.121	-23.122	0.253	-0.151
-393.106	20.719	0.093	-0.075
-392.092	-103.321	-0.031	-0.007
-391.077	124.048	-0.198	-0.247
-390.063	256.668	-0.236	0.403
-389.048	138.809	0.100	-0.130
-388.033	-37.925	-0.120	0.063
-387.019	38.256	0.087	0.077
-386.004	-5.798	-0.185	-0.126
-384.990	4.584	-0.341	0.249
-383.975	-127.121	0.297	-0.043
-382.960	-23.800	0.124	0.074
-381.946	-200.000	-0.003	-0.173
-380.931	47.905	-0.181	-0.168
-379.917	-93.239	-0.077	0.021
-378.902	7.352	-0.019	-0.014
-377.888	-109.765	-0.343	0.072
-376.873	800.000	-0.064	-0.215
-375.858	-18.555	-0.250	-0.155
-374.844	35.176	-0.077	0.067
-373.829	328.050	-0.069	-0.131
-372.815	-61.030	-0.155	0.065
-371.800	-103.114	0.339	-0.080
-370.785	-55.321	0.244	-0.109
-369.771	-83.632	-0.151	-0.048
-368.756	-39.637	-0.128	-0.067
-367.742	-5.434	0.188	-0.128
-366.727	434.557	0.108	0.234
-365.712	-55.974	-0.137	0.061
-364.698	-4.218	-0.167	-0.115
-363.683	-121.353	0.235	0.039
-362.669	-90.015	-0.100	0.029
-361.654	30.721	-0.140	0.119
-360.639	800.000	-0.040	-0.168
-359.625	11.661	0.259	-0.197
-358.610	-134.638	-0.323	-0.039
-357.596	173.249	0.123	-0.176
-356.581	-200.000	-0.012	-0.176
-355.566	66.919	-0.092	0.093
-354.552	108.175	-0.046	0.054
-353.537	-200.000	0.083	-0.448
-352.523	12.517	-0.296	-0.227
-351.508	391.123	-0.185	-0.381
-350.493	105.431	0.178	0.209
-349.479	-75.304	-0.158	-0.056
-348.464	-117.626	0.126	-0.023
-347.450	-200.000	-0.009	-0.223
-346.435	-106.835	-0.233	-0.051
-345.420	800.000	0.055	-0.237
-344.406	29.042	-0.188	0.158
-343.391	-82.011	0.048	-0.015
-342.377	316.491	0.044	0.083
-341.362	-39.769	-0.321	-0.166
-340.348	-47.411	0.148	-0.071
-339.333	-144.809	0.385	0.035
-338.318	-34.535	0.294	-0.160
-337.304	13.100	0.233	-0.179
-336.289	-69.367	0.110	-0.042
-335.275	83.009	-0.207	0.223
-334.260	8.099	-0.124	0.093
-333.245	-80.774	0.190	-0.063
-332.231	-94.089	-0.208	-0.057
-331.216	-47.699	-0.272	-0.131
-330.202	52.783	-0.423	-0.402
-329.187	-200.000	0.018	-0.099
-328.172	-122.010	0.114	0.019
-327.158	-139.265	-0.140	0.015
-326.143	-29.242	0.079	-0.045
-325.129	104.757	-0.191	0.224
-324.114	-163.439	-0.068	0.003
-323.099	-200.000	0.059	0.257
-322.085	150.587	0.085	-0.114
-321.070	800.000	-0.012	0.042
-320.056	-3.145	0.352	-0.243
-319.041	-75.337	0.259	-0.092
-318.026	-31.283	-0.116	-0.065
-317.012	-150.664	0.214	0.016
-315.997	316.461	0.006	-0.012
-314.983	-107.275	-0.274	-0.060
-313.968	-19.960	0.087	0.053
-312.953	-200.000	0.013	-0.131
-311.939	-29.294	0.072	-0.041
-310.924	-200.000	-0.000	0.201
-309.910	-75.412	-0.225	-0.080
-308.895	-200.000	-0.017	0.205
-307.880	-128.097	-0.299	0.042
-306.866	3.248	0.077	-0.055
-305.851	52.969	-0.192	0.182
-304.837	-104.689	-0.217	-0.049
-303.822	-200.000	-0.005	0.118
-302.807	-200.000	-0.001	0.171
-301.793	-67.686	0.205	-0.080
-300.778	800.000	0.055	-0.171
-299.764	-135.410	-0.031	0.004
-298.749	-78.501	0.142	-0.048
-297.735	37.974	0.094	0.083
-296.720	395.346	0.090	-0.187
-295.705	470.327	-0.097	-0.216
-294.691	-200.000	0.013	0.093
-293.676	-70.949	-0.358	0.134
-292.662	-147.095	0.331	-0.028
-291.647	800.000	-0.026	-0.080
-290.632	53.736	-0.282	0.268
-289.618	-70.856	-0.112	0.042
-288.603	24.970	0.241	0.199
-287.589	800.000	-0.054	0.224
-286.574	-36.994	-0.106	0.056
-285.559	417.979	0.185	-0.392
-284.545	-200.000	0.009	0.364
-283.530	-47.081	0.255	-0.124
-282.516	740.419	-0.040	0.107
-281.501	406.187	0.085	0.177
-280.486	784.258	-0.125	-0.338
-279.472	242.157	-0.183	0.304
-278.457	800.000	0.025	-0.095
-277.443	53.535	0.123	-0.117
-276.428	-200.000	-0.051	-0.272
-275.413	707.608	-0.131	-0.344
-274.399	-200.000	0.094	0.472
-273.384	-108.887	0.305	-0.065
-272.370	381.646	0.136	-0.277
-271.355	-71.214	-0.139	0.052
-270.340	800.000	-0.055	-0.178
-269.326	-12.361	0.083	0.054
-268.311	800.000	0.118	-0.465
-267.297	800.000	-0.039	0.138
-266.282	161.454	0.051	0.071
-265.267	-135.538	0.181	0.021
-264.253	-63.979	0.225	-0.091
-263.238	800.000	0.164	-0.614
-262.224	53.363	-0.232	0.220
-261.209	800.000	0.118	0.368
-260.195	800.000	0.047	0.180
-259.180	766.001	0.093	0.250
-258.165	255.290	0.154	-0.261
-257.151	-200.000	-0.001	-0.286
-256.136	-165.591	0.086	-0.004
-255.122	342.925	0.166	0.321
-254.107	67.656	-0.151	-0.153
-253.092	-200.000	0.052	0.347
-252.078	-22.870	0.076	-0.045
-251.063	-200.000	-0.286	0.000
-250.049	534.021	0.054	0.126
-249.034	-200.000	0.088	0.603
-248.019	-173.225	0.128	0.004
-247.005	800.000	0.047	-0.185
-245.990	800.000	-0.061	-0.208
-244.976	56.288	0.100	-0.096
-243.961	-87.843	0.277	0.082
-242.946	-33.808	-0.159	0.087
-241.932	553.624	-0.086	0.203
-240.917	-57.503	0.225	0.098
-239.903	8.130	0.065	0.049
-238.888	21.865	0.189	-0.152
-237.873	800.000	0.043	-0.183
-236.859	147.362	0.129	0.171
-235.844	-106.752	0.292	0.064
-234.830	135.374	0.071	-0.091
-233.815	14.457	0.069	-0.053
-232.800	-127.504	-0.072	-0.010
-231.786	362.607	0.198	0.393
-230.771	616.084	-0.104	-0.259
-229.757	-10.725	-0.308	0.201
-228.742	-85.034	-0.351	0.109
-227.727	34.788	0.140	0.121
-226.713	-156.112	-0.222	-0.014
-225.698	98.254	-0.044	0.051
-224.684	800.000	-0.030	-0.119
-223.669	-167.353	-0.262	0.010
-222.655	-134.135	0.241	0.029
-221.640	-147.911	0.391	0.032
-220.625	125.398	-0.188	0.234
-219.611	-68.859	0.211	-0.080
-218.596	-200.000	0.030	-0.248
-217.582	-131.865	0.072	-0.009
-216.567	64.000	-0.239	0.238
-215.552	-200.000	0.051	0.526
-214.538	-8.783	0.183	0.121
-213.523	-111.735	-0.041	-0.008
-212.509	-118.529	0.332	0.058
-211.494	177.483	-0.055	0.079
-210.479	685.997	0.118	-0.303
-209.465	-140.758	0.497	0.051
-208.450	-200.000	0.071	0.322
-207.436	800.000	0.147	0.511
-206.421	9.667	-0.092	0.069
-205.406	42.857	-0.114	0.103
-204.392	255.672	0.212	0.360
-203.377	-73.122	0.195	0.071
-202.363	-84.942	-0.543	-0.168
-201.348	148.583	0.077	0.103
-200.333	146.016	-0.179	0.238
-199.319	-139.930	0.167	0.017
-198.304	-113.852	0.137	0.026
-197.290	184.137	-0.062	-0.091
-196.275	509.895	-0.098	-0.226
-195.260	800.000	0.059	0.202
-194.246	800.000	-0.018	0.069
-193.231	106.821	0.146	-0.172
-192.217	-200.000	0.069	-0.334
-191.202	-63.638	-0.112	0.045
-190.187	-58.642	0.431	-0.184
-189.173	185.728	0.065	0.096
-188.158	800.000	0.008	0.028
-187.144	-112.125	0.178	0.035
-186.129	23.496	-0.236	-0.192
-185.114	330.604	0.129	0.245
-184.100	800.000	0.046	0.146
-183.085	-200.000	-0.006	0.102
-182.071	38.596	0.052	0.046
-181.056	168.093	0.136	0.191
-180.042	267.826	-0.054	-0.093
-179.027	-151.958	-0.134	0.010
-178.012	34.372	-0.177	-0.152
-176.998	140.786	0.095	-0.124
-175.983	647.287	0.245	0.617
-174.969	-200.000	0.024	-0.210
-173.954	-111.704	-0.085	-0.017
-172.939	-27.473	0.175	0.101
-171.925	-106.895	0.311	0.068
-170.910	-81.303	0.289	0.094
-169.896	50.221	-0.204	0.190
-168.881	19.844	0.115	-0.092
-167.866	-200.000	-0.003	-0.163
-166.852	112.707	0.209	0.250
-165.837	-19.943	-0.262	0.160
-164.823	-34.415	-0.161	-0.087
-163.808	-110.192	-0.162	-0.033
-162.793	53.622	-0.265	-0.251
-161.779	-50.411	-0.301	0.140
-160.764	508.954	-0.232	0.531
-159.750	-40.074	-0.154	-0.079
-158.735	32.538	-0.122	0.104
-157.720	-95.499	0.060	0.016
-156.706	-43.090	-0.213	-0.107
-155.691	800.000	-0.056	0.156
-154.677	-200.000	-0.019	0.257
-153.662	-24.220	0.159	-0.094
-152.647	-200.000	-0.056	-0.337
-151.633	334.416	0.119	0.227
-150.618	-200.000	-0.010	-0.160
-149.604	-83.381	0.248	-0.078
-148.589	-110.713	-0.407	0.083
-147.574	594.348	0.030	-0.073
-146.560	17.493	-0.117	0.092
-145.545	-95.654	-0.179	0.047
-144.531	-117.973	-0.061	-0.011
-143.516	88.100	0.236	0.258
-142.502	69.362	0.355	-0.360
-141.487	685.091	0.065	-0.168
-140.472	85.342	0.129	0.139
-139.458	-145.527	-0.021	0.002
-138.443	425.771	-0.149	0.316
-137.429	-200.000	-0.012	-0.193
-136.414	-200.000	-0.055	0.510
-135.399	-72.419	-0.079	0.029
-134.385	800.000	0.057	-0.221
-133.370	-131.781	0.240	-0.031
-132.356	-3.836	-0.106	-0.073
-131.341	-112.380	-0.021	-0.004
-130.326	267.358	-0.120	-0.207
-129.312	800.000	0.037	0.142
-128.297	-149.688	0.096	-0.007
-127.283	-35.664	-0.096	-0.051
-126.268	28.057	0.298	-0.248
-125.253	43.510	-0.154	-0.139
-124.239	56.398	-0.131	-0.125
-123.224	474.468	-0.042	-0.094
-122.210	-33.260	0.150	-0.082
