DTS Sentinel unit serial number:	SN413079Multiplexer serial number:	ORYXHardware model number:	OX4-SRSoftware version number:	ORYX F/W v4.00 Oryx Data Collector v3.7.2.0data status	okinstallation	princeton_trtdifferential loss correction	single-endedforward channel	channel 1reverse channel	N/Adate	2019/09/18time	21:18:36forward acquisition time	60.00reverse acquisition time	0.00gamma	496.2192k internal	0.2341k external	0.2341temperature offset calibration	1.0021default loss term (dB/km)	0.3790temperature slope calibration	1.0000multiplexer offset coefficient	1.0000multiplexer slope coefficient	1.0000fibre end	0.00T internal ref (°C)	25.70T ext. ref 1 (°C)	0.84T ext. ref 2 (°C)	18.02length (m)	temperature (°C)	Stokes	anti-Stokes-747.200	-80.674	-0.343	0.114
-746.185	8.469	-0.160	0.120
-745.171	-48.470	-0.026	-0.013
-744.156	355.476	-0.118	0.236
-743.142	550.453	0.033	-0.080
-742.127	41.314	-0.180	0.163
-741.112	2.575	0.074	-0.054
-740.098	-117.070	0.310	-0.057
-739.083	137.902	0.272	-0.358
-738.069	800.000	0.051	0.207
-737.054	800.000	0.140	0.464
-736.039	-29.946	-0.222	-0.127
-735.025	54.870	0.102	0.098
-734.010	-200.000	0.038	0.193
-732.996	-110.204	-0.146	-0.030
-731.981	-200.000	-0.000	0.175
-730.966	26.199	-0.096	0.080
-729.952	262.058	-0.111	0.193
-728.937	-136.478	0.312	-0.036
-727.923	-52.062	0.379	-0.176
-726.908	-99.786	-0.165	-0.041
-725.894	670.131	0.169	-0.437
-724.879	-10.180	0.194	-0.129
-723.864	72.092	0.072	-0.075
-722.850	122.554	-0.102	-0.127
-721.835	-22.791	0.052	0.032
-720.821	800.000	-0.055	0.161
-719.806	428.956	0.077	0.167
-718.791	800.000	0.038	-0.159
-717.777	385.682	0.022	-0.045
-716.762	-85.657	0.302	-0.094
-715.748	12.538	-0.046	-0.036
-714.733	63.219	-0.050	0.050
-713.718	377.881	-0.035	-0.071
-712.704	-64.351	-0.172	0.070
-711.689	-25.021	0.098	0.058
-710.675	54.310	0.192	-0.185
-709.660	463.963	0.119	-0.267
-708.645	800.000	-0.039	-0.169
-707.631	-200.000	-0.014	-0.145
-706.616	52.881	-0.164	-0.157
-705.602	800.000	-0.038	-0.143
-704.587	56.558	-0.164	-0.160
-703.572	14.678	0.182	-0.142
-702.558	-82.901	0.376	0.122
-701.543	-200.000	-0.085	0.418
-700.529	209.279	0.067	0.105
-699.514	-113.270	-0.234	-0.046
-698.499	-200.000	-0.040	-0.425
-697.485	-42.873	0.189	0.096
-696.470	33.865	0.133	0.115
-695.456	33.210	0.259	0.225
-694.441	190.796	-0.065	0.098
-693.426	-76.118	-0.362	0.128
-692.412	-109.013	0.233	0.050
-691.397	312.485	-0.073	-0.137
-690.383	438.184	0.080	-0.174
-689.368	632.495	-0.088	0.223
-688.354	87.556	-0.184	0.204
-687.339	800.000	0.047	-0.136
-686.324	-200.000	-0.028	-0.287
-685.310	-200.000	0.018	-0.112
-684.295	677.192	-0.224	-0.581
-683.281	340.766	-0.081	-0.158
-682.266	800.000	0.182	-0.522
-681.251	-153.240	-0.149	-0.010
-680.237	-52.729	0.420	-0.193
-679.222	253.787	0.178	0.304
-678.208	32.997	-0.053	0.046
-677.193	800.000	0.072	-0.212
-676.178	208.365	0.175	-0.273
-675.164	-70.208	-0.136	-0.052
-674.149	800.000	0.091	-0.366
-673.135	-71.875	-0.361	-0.134
-672.120	-200.000	0.007	-0.295
-671.105	800.000	-0.065	-0.272
-670.091	114.891	-0.219	-0.267
-669.076	-33.551	0.174	-0.096
-668.062	-200.000	-0.014	-0.222
-667.047	-93.421	-0.089	0.025
-666.032	48.626	0.192	-0.180
-665.018	210.070	0.103	-0.162
-664.003	-113.720	0.120	-0.023
-662.989	-45.193	0.277	0.137
-661.974	745.284	0.104	0.279
-660.959	-65.936	0.114	-0.045
-659.945	800.000	0.041	0.135
-658.930	-200.000	0.154	0.000
-657.916	-200.000	0.026	0.249
-656.901	145.695	0.162	-0.217
-655.886	78.461	-0.125	-0.134
-654.872	-40.454	-0.243	0.126
-653.857	-59.619	0.360	0.154
-652.843	756.413	0.117	-0.317
-651.828	3.588	-0.181	-0.132
-650.814	-32.551	0.093	0.052
-649.799	186.511	0.085	-0.126
-648.784	-92.002	0.187	0.053
-647.770	330.191	0.121	-0.232
-646.755	-200.000	0.029	0.255
-645.741	-145.233	0.131	0.012
-644.726	81.834	-0.228	-0.246
-643.711	800.000	-0.105	-0.375
-642.697	-102.271	-0.117	0.028
-641.682	-43.883	0.007	0.004
-640.668	178.743	-0.109	-0.159
-639.653	46.964	0.269	-0.249
-638.638	-46.996	-0.128	0.062
-637.624	-99.625	0.257	-0.064
-636.609	-200.000	0.031	0.182
-635.595	-174.912	0.176	-0.005
-634.580	-200.000	-0.017	-0.080
-633.565	-90.112	0.141	0.041
-632.551	53.070	-0.046	-0.044
-631.536	-106.539	0.018	0.004
-630.522	-200.000	0.095	-0.438
-629.507	-34.648	-0.262	0.143
-628.492	280.108	-0.121	0.215
-627.478	129.118	0.094	0.119
-626.463	181.233	0.104	-0.153
-625.449	-96.607	-0.070	0.018
-624.434	-102.818	0.226	0.054
-623.419	-188.918	0.120	0.001
-622.405	-200.000	-0.023	0.211
-621.390	800.000	0.065	-0.212
-620.376	83.035	-0.105	-0.114
-619.361	-200.000	0.016	0.224
-618.346	37.695	0.163	-0.144
-617.332	0.463	-0.130	-0.093
-616.317	73.925	0.090	0.094
-615.303	800.000	0.048	-0.177
-614.288	-200.000	0.007	-0.083
-613.273	800.000	-0.068	-0.222
-612.259	80.073	0.042	-0.045
-611.244	120.601	-0.127	0.158
-610.230	-91.340	-0.184	0.052
-609.215	481.627	-0.060	-0.136
-608.201	800.000	0.071	0.271
-607.186	650.476	-0.034	0.087
-606.171	-94.714	0.346	0.094
-605.157	328.090	-0.061	0.117
-604.142	37.312	0.067	-0.059
-603.128	63.527	-0.058	0.058
-602.113	38.006	0.276	0.244
-601.098	54.343	-0.189	-0.182
-600.084	-18.733	0.072	0.045
-599.069	-16.757	0.215	-0.136
-598.055	308.838	0.140	-0.260
-597.040	-41.247	0.114	0.059
-596.025	-89.906	0.334	-0.097
-595.011	165.049	-0.127	-0.179
-593.996	35.633	0.046	-0.040
-592.982	-200.000	0.031	-0.334
-591.967	110.120	0.181	-0.216
-590.952	-200.000	-0.054	-0.363
-589.938	-200.000	-0.045	-0.239
-588.923	-32.842	-0.151	-0.083
-587.909	-172.557	-0.271	-0.009
-586.894	-60.195	-0.067	0.028
-585.879	-200.000	0.043	0.265
-584.865	-200.000	0.029	-0.201
-583.850	269.062	0.097	-0.170
-582.836	32.082	-0.236	-0.202
-581.821	131.729	-0.170	0.218
-580.806	-169.316	-0.276	-0.010
-579.792	142.994	0.142	-0.188
-578.777	-114.810	0.315	-0.060
-577.763	800.000	-0.066	-0.185
-576.748	-36.401	0.182	-0.098
-575.733	76.774	0.112	-0.118
-574.719	-200.000	0.042	0.216
-573.704	-152.670	-0.319	0.023
-572.690	-100.583	0.323	0.080
-571.675	367.257	0.092	0.184
-570.661	-33.551	-0.113	0.062
-569.646	-56.457	0.129	-0.057
-568.631	-79.482	-0.172	0.058
-567.617	249.814	-0.170	-0.287
-566.602	-115.060	0.100	-0.019
-565.588	800.000	-0.072	0.250
-564.573	-122.856	-0.244	-0.039
-563.558	-103.680	0.167	0.039
-562.544	-178.963	0.276	0.006
-561.529	-133.734	-0.278	-0.034
-560.515	81.644	-0.232	-0.249
-559.500	-60.453	-0.402	-0.170
-558.485	13.817	0.262	-0.203
-557.471	262.665	0.175	-0.301
-556.456	-7.236	0.099	0.067
-555.442	-41.591	0.077	-0.039
-554.427	-45.751	-0.081	0.040
-553.412	-88.732	-0.046	0.014
-552.398	-83.334	-0.190	0.061
-551.383	27.327	-0.080	-0.067
-550.369	-149.487	0.179	-0.014
-549.354	-99.629	-0.142	0.035
-548.339	44.479	-0.218	0.199
-547.325	800.000	0.082	0.256
-546.310	-46.900	-0.417	-0.203
-545.296	243.108	-0.312	-0.520
-544.281	-64.233	-0.154	-0.062
-543.266	-32.945	0.282	-0.156
-542.252	-200.000	-0.040	0.267
-541.237	232.599	0.056	0.092
-540.223	-83.274	0.204	0.065
-539.208	-52.278	-0.280	-0.129
-538.193	800.000	0.071	0.223
-537.179	331.726	0.117	0.225
-536.164	708.994	-0.067	0.175
-535.150	-96.281	-0.224	0.059
-534.135	-115.180	-0.324	0.061
-533.121	800.000	-0.073	0.291
-532.106	-100.243	0.114	-0.028
-531.091	800.000	-0.067	0.198
-530.077	800.000	-0.053	-0.171
-529.062	34.478	-0.086	0.074
-528.048	-158.247	0.150	0.009
-527.033	61.397	0.198	0.196
-526.018	800.000	0.073	0.248
-525.004	18.774	0.236	-0.188
-523.989	353.497	0.087	-0.173
-522.975	-94.506	-0.321	-0.087
-521.960	-200.000	-0.031	-0.190
-520.945	-200.000	-0.006	-0.267
-519.931	-31.739	0.195	-0.108
-518.916	74.906	-0.245	-0.256
-517.902	-0.933	0.266	-0.187
-516.887	-200.000	-0.005	0.034
-515.872	324.113	0.154	0.293
-514.858	-200.000	0.016	0.099
-513.843	-109.787	-0.145	-0.030
-512.829	-88.014	0.228	0.068
-511.814	276.988	-0.069	0.123
-510.799	262.881	-0.082	-0.141
-509.785	22.243	0.035	-0.028
-508.770	-89.836	-0.089	0.026
-507.756	191.936	0.085	-0.127
-506.741	198.926	0.064	0.097
-505.726	-200.000	-0.037	-0.167
-504.712	-200.000	-0.013	-0.083
-503.697	76.969	-0.096	0.101
-502.683	-200.000	-0.016	0.323
-501.668	-71.491	0.163	0.060
-500.653	43.013	-0.026	-0.024
-499.639	-35.431	0.264	0.143
-498.624	364.389	-0.082	0.163
-497.610	186.352	-0.235	-0.347
-496.595	10.256	0.172	0.130
-495.581	800.000	0.029	0.112
-494.566	186.921	0.050	0.073
-493.551	-200.000	-0.058	0.282
-492.537	142.281	-0.119	0.157
-491.522	145.466	0.084	-0.112
-490.508	-200.000	0.010	-0.470
-489.493	29.413	-0.280	0.236
-488.478	800.000	-0.096	0.274
-487.464	-85.215	-0.199	0.062
-486.449	-132.101	0.267	-0.034
-485.435	465.690	0.027	-0.059
-484.420	-70.997	0.089	0.033
-483.405	800.000	-0.047	0.139
-482.391	-200.000	-0.047	-0.396
-481.376	627.569	0.041	0.102
-480.362	-54.628	-0.179	0.080
-479.347	-166.270	0.294	0.012
-478.332	-200.000	-0.067	0.342
-477.318	20.416	0.128	-0.103
-476.303	-200.000	0.005	-0.555
-475.289	435.497	-0.043	-0.093
-474.274	101.979	0.014	-0.016
-473.259	-40.403	0.219	-0.113
-472.245	-104.149	-0.302	0.070
-471.230	66.466	-0.105	-0.106
-470.216	364.129	-0.128	-0.256
-469.201	284.644	0.038	-0.068
-468.186	36.788	-0.117	-0.103
-467.172	-78.952	-0.274	0.093
-466.157	140.440	-0.117	-0.154
-465.143	-50.754	-0.171	0.080
-464.128	19.506	0.117	-0.093
-463.113	404.602	0.124	0.260
-462.099	521.578	0.135	0.313
-461.084	74.422	-0.290	-0.302
-460.070	20.624	-0.086	-0.069
-459.055	-115.094	-0.165	-0.031
-458.040	-157.614	0.089	0.005
-457.026	-15.072	0.183	-0.116
-456.011	105.776	0.115	0.135
-454.997	578.412	-0.111	-0.269
-453.982	800.000	0.107	0.359
-452.968	290.399	0.119	-0.214
-451.953	-70.840	-0.054	-0.020
-450.938	138.880	-0.083	-0.109
-449.924	315.901	0.204	0.381
-448.909	30.825	-0.084	-0.071
-447.895	-31.011	0.431	-0.241
-446.880	388.827	-0.132	0.271
-445.865	-200.000	-0.042	0.355
-444.851	-96.639	0.435	-0.114
-443.836	122.168	0.360	-0.445
-442.822	-1.305	0.165	-0.115
-441.807	76.099	0.014	-0.014
-440.792	-40.953	0.291	0.149
-439.778	-200.000	-0.048	-0.234
-438.763	102.666	0.104	0.121
-437.749	-65.293	-0.258	-0.103
-436.734	636.705	-0.086	-0.215
-435.719	800.000	-0.068	-0.238
-434.705	800.000	-0.037	-0.119
-433.690	49.191	0.058	0.054
-432.676	633.885	0.109	0.274
-431.661	17.662	0.125	0.099
-430.646	-109.792	0.076	0.016
-429.632	387.872	-0.037	-0.077
-428.617	-3.479	-0.233	-0.161
-427.603	688.264	-0.183	-0.473
-426.588	-112.872	0.166	0.033
-425.573	-43.386	-0.305	0.152
-424.559	33.354	-0.157	-0.135
-423.544	248.011	-0.196	-0.328
-422.530	141.967	0.138	0.181
-421.515	800.000	-0.095	0.269
-420.500	-63.277	0.137	0.056
-419.486	222.436	-0.054	-0.087
-418.471	-91.877	-0.135	0.038
-417.457	800.000	-0.066	-0.253
-416.442	218.929	-0.059	0.093
-415.428	70.839	-0.300	0.308
-414.413	215.200	-0.027	-0.043
-413.398	-25.882	-0.144	0.084
-412.384	10.714	0.095	-0.072
-411.369	-109.979	0.212	-0.044
-410.355	-13.943	0.200	-0.128
-409.340	-200.000	-0.004	-0.046
-408.325	414.226	-0.041	0.087
-407.311	-136.699	0.259	-0.030
-406.296	796.208	-0.077	-0.210
-405.282	-44.672	0.175	0.086
-404.267	215.416	-0.162	0.255
-403.252	35.624	0.127	0.110
-402.238	-84.270	0.143	0.045
-401.223	325.955	-0.102	0.192
-400.209	-117.741	-0.190	0.034
-399.194	288.795	-0.035	-0.063
-398.179	729.351	0.034	-0.090
-397.165	204.665	0.118	-0.181
-396.150	-133.115	0.280	-0.035
-395.136	800.000	0.027	0.104
-394.121	800.000	-0.048	0.138
-393.106	25.114	-0.042	0.034
-392.092	-2.483	0.295	-0.205
-391.077	253.140	-0.210	0.355
-390.063	-74.359	-0.185	-0.066
-389.048	408.708	-0.140	0.293
-388.033	-200.000	0.037	0.196
-387.019	-16.933	-0.094	-0.059
-386.004	35.031	-0.237	0.205
-384.990	-200.000	-0.000	-0.046
-383.975	-65.595	-0.204	0.081
-382.960	-67.295	0.267	-0.104
-381.946	-17.674	-0.175	-0.109
-380.931	-63.548	-0.280	0.114
-379.917	-42.927	0.153	0.077
-378.902	-200.000	0.003	0.126
-377.888	65.103	-0.124	-0.124
-376.873	-137.783	-0.248	-0.028
-375.858	214.007	-0.190	-0.297
-374.844	98.230	-0.190	-0.216
-373.829	67.454	-0.154	-0.155
-372.815	162.816	-0.148	-0.205
-371.800	773.577	0.087	0.234
-370.785	-157.035	0.358	-0.022
-369.771	728.151	-0.027	-0.072
-368.756	-127.405	0.146	0.021
-367.742	800.000	-0.088	0.298
-366.727	-200.000	-0.010	0.523
-365.712	137.771	-0.066	-0.085
-364.698	-88.297	-0.224	-0.066
-363.683	60.217	-0.129	-0.126
-362.669	-200.000	-0.008	0.547
-361.654	-8.471	0.243	0.161
-360.639	-111.323	-0.122	0.025
-359.625	233.262	-0.080	0.129
-358.610	431.676	0.016	0.034
-357.596	112.313	-0.115	-0.137
-356.581	-95.924	0.334	-0.088
-355.566	514.183	-0.110	0.252
-354.552	-200.000	0.016	0.091
-353.537	-47.510	0.181	0.087
-352.523	-200.000	0.071	0.464
-351.508	88.014	-0.072	0.079
-350.493	422.348	0.126	-0.267
-349.479	-142.762	-0.284	0.027
-348.464	368.354	-0.106	0.211
-347.450	117.818	0.160	0.195
-346.435	56.964	0.126	-0.121
-345.420	-116.494	-0.380	0.069
-344.406	740.965	0.141	-0.374
-343.391	-200.000	0.018	-0.136
-342.377	-40.270	-0.258	0.133
-341.362	459.046	-0.100	-0.220
-340.348	-41.366	-0.121	0.062
-339.333	-179.362	-0.046	0.001
-338.318	-142.067	0.124	0.012
-337.304	-163.097	-0.133	0.006
-336.289	133.242	0.058	0.074
-335.275	741.532	-0.101	0.269
-334.260	-36.659	0.322	0.171
-333.245	-110.045	-0.106	0.022
-332.231	156.274	0.268	0.365
-331.216	-134.509	0.251	0.030
-330.202	89.434	-0.110	0.121
-329.187	800.000	0.047	0.162
-328.172	-11.624	-0.112	-0.072
-327.158	61.360	-0.152	-0.149
-326.143	-200.000	0.030	0.244
-325.129	259.299	-0.221	-0.375
-324.114	676.106	0.094	-0.241
-323.099	130.766	-0.138	0.175
-322.085	800.000	0.052	0.185
-321.070	-93.407	0.172	-0.047
-320.056	-200.000	-0.010	-0.088
-319.041	1.641	-0.047	0.033
-318.026	-105.593	0.143	0.032
-317.012	286.560	-0.077	0.137
-315.997	666.338	-0.148	0.377
-314.983	470.822	0.068	0.151
-313.968	-29.893	0.172	0.097
-312.953	661.113	0.148	0.376
-311.939	-200.000	-0.220	0.000
-310.924	-200.000	-0.029	0.229
-309.910	-72.008	-0.096	-0.035
-308.895	-120.853	0.256	0.043
-307.880	102.481	-0.145	0.167
-306.866	-93.645	0.256	-0.070
-305.851	-200.000	-0.052	0.439
-304.837	-200.000	0.030	0.167
-303.822	-98.044	-0.026	0.007
-302.807	-68.100	0.203	0.078
-301.793	-58.083	0.184	-0.079
-300.778	-3.003	-0.041	-0.028
-299.764	-140.352	0.391	0.040
-298.749	367.364	0.116	0.231
-297.735	-78.255	-0.279	-0.094
-296.720	275.465	-0.060	0.105
-295.705	360.893	0.111	-0.219
-294.691	-120.872	-0.161	-0.027
-293.676	183.632	0.077	-0.113
-292.662	58.856	-0.284	-0.275
-291.647	-166.877	0.278	0.011
-290.632	-111.453	0.292	-0.059
-289.618	699.802	0.078	-0.203
-288.603	-45.085	0.164	-0.080
-287.589	11.463	0.160	0.121
-286.574	-19.282	0.112	0.068
-285.559	-200.000	-0.015	-0.067
-284.545	785.953	0.036	0.096
-283.530	74.243	0.189	0.195
-282.516	-166.868	-0.016	-0.001
-281.501	100.110	-0.044	0.050
-280.486	265.047	-0.040	-0.069
-279.472	-63.181	-0.216	-0.087
-278.457	-92.488	-0.213	-0.059
-277.443	24.167	0.084	-0.068
-276.428	-41.244	0.442	-0.224
-275.413	23.208	0.163	-0.132
-274.399	-106.917	-0.097	0.021
-273.384	-105.146	-0.224	-0.050
-272.370	-127.212	0.267	-0.038
-271.355	-146.160	0.177	-0.015
-270.340	28.837	0.262	-0.219
-269.326	8.870	-0.196	0.146
-268.311	-43.456	-0.076	0.038
-267.297	279.575	0.026	-0.045
-266.282	-58.731	0.128	0.055
-265.267	-131.976	0.327	-0.042
-264.253	-200.000	0.053	0.271
-263.238	81.268	0.125	0.133
-262.224	-106.139	-0.298	0.066
-261.209	46.562	0.186	0.169
-260.195	800.000	-0.099	0.354
-259.180	-64.477	0.223	-0.089
-258.165	-95.243	-0.311	-0.082
-257.151	-41.864	-0.080	-0.040
-256.136	-200.000	-0.012	-0.147
-255.122	800.000	-0.043	-0.170
-254.107	260.755	-0.086	-0.147
-253.092	-200.000	-0.003	0.237
-252.078	-56.798	-0.250	-0.109
-251.063	-200.000	-0.015	0.137
-250.049	224.208	-0.117	0.185
-249.034	-200.000	-0.015	-0.116
-248.019	-200.000	-0.031	-0.182
-247.005	800.000	-0.008	0.026
-245.990	-55.742	-0.104	0.046
-244.976	-1.243	0.189	0.131
-243.961	-113.742	-0.264	-0.051
-242.946	613.309	-0.067	-0.166
-241.932	115.581	-0.127	0.152
-240.917	-200.000	0.002	0.101
-239.903	-200.000	-0.006	0.164
-238.888	-123.845	0.175	-0.027
-237.873	72.524	0.244	0.250
-236.859	-59.628	-0.238	0.100
-235.844	-58.978	-0.363	-0.154
-234.830	-61.060	-0.279	0.116
-233.815	-41.684	0.101	-0.051
-232.800	-200.000	0.014	-0.250
-231.786	-19.045	0.117	0.071
-230.771	-200.000	0.009	-0.259
-229.757	-200.000	-0.017	-0.181
-228.742	-200.000	-0.045	-0.209
-227.727	289.959	0.043	-0.076
-226.713	25.508	0.156	0.127
-225.698	188.703	0.047	-0.070
-224.684	264.593	-0.098	-0.168
-223.669	65.325	-0.163	-0.162
-222.655	-200.000	0.014	0.068
-221.640	-164.182	0.129	-0.006
-220.625	-200.000	0.025	0.225
-219.611	-200.000	-0.051	0.322
-218.596	-39.111	0.186	-0.096
-217.582	-19.388	-0.048	-0.029
-216.567	52.027	0.237	-0.222
-215.552	-200.000	0.028	-0.210
-214.538	33.752	-0.225	-0.192
-213.523	-121.621	0.211	-0.034
-212.509	-11.087	-0.274	-0.177
-211.494	247.704	-0.098	-0.162
-210.479	-22.250	-0.163	0.097
-209.465	-58.528	0.160	0.068
-208.450	130.010	-0.091	-0.115
-207.436	-13.071	0.267	0.170
-206.421	-74.455	0.017	0.006
-205.406	-140.931	-0.377	-0.038
-204.392	253.201	0.161	-0.270
-203.377	-200.000	0.008	0.144
-202.363	-28.437	-0.431	-0.244
-201.348	49.120	-0.138	-0.127
-200.333	-200.000	-0.016	0.083
-199.319	-132.141	0.217	-0.028
-198.304	435.135	0.043	0.093
-197.290	800.000	-0.069	-0.203
-196.275	208.860	0.074	-0.113
-195.260	28.176	0.207	0.171
-194.246	365.392	-0.028	0.056
-193.231	701.839	-0.034	0.088
-192.217	-76.566	-0.252	0.087
-191.202	-120.643	0.286	0.047
-190.187	-74.926	-0.282	-0.099
-189.173	-97.865	0.452	-0.114
-188.158	-200.000	-0.005	-0.021
-187.144	-200.000	-0.037	0.276
-186.129	86.091	-0.178	0.193
-185.114	-6.783	-0.092	-0.061
-184.100	348.520	0.047	0.091
-183.085	256.243	0.018	0.030
-182.071	-200.000	0.006	-0.253
-181.056	-8.410	-0.099	0.065
-180.042	-159.854	-0.183	-0.010
-179.027	-144.470	-0.015	-0.001
-178.012	130.668	0.183	-0.231
-176.998	-28.242	0.039	-0.022
-175.983	228.091	-0.105	0.168
-174.969	-100.401	-0.129	-0.031
-173.954	-60.864	-0.152	-0.063
-172.939	-200.000	-0.012	-0.317
-171.925	-200.000	0.033	0.384
-170.910	-22.680	-0.194	0.115
-169.896	-156.860	-0.150	0.009
-168.881	21.501	0.323	0.257
-167.866	10.598	-0.057	0.043
-166.852	-200.000	0.031	-0.213
-165.837	-65.306	0.106	-0.042
-164.823	-174.999	0.126	-0.003
-163.808	-16.323	-0.098	0.061
-162.793	-11.094	-0.044	0.028
-161.779	121.094	0.112	0.137
-160.764	37.802	-0.091	0.080
-159.750	277.840	0.132	-0.231
-158.735	173.970	-0.174	0.247
-157.720	-142.728	0.090	0.009
-156.706	217.187	0.142	0.221
-155.691	-65.534	-0.212	-0.083
-154.677	800.000	0.051	0.158
-153.662	-45.129	0.370	-0.180
-152.647	-200.000	0.032	0.325
-151.633	60.157	0.075	0.073
-150.618	-73.029	0.135	0.048
-149.604	19.568	-0.091	-0.071
-148.589	-200.000	-0.046	0.250
-147.574	-153.933	0.048	0.003
-146.560	21.865	0.315	0.251
-145.545	296.113	-0.085	-0.153
-144.531	-67.875	0.254	-0.097
-143.516	-86.380	0.160	0.048
-142.502	-82.349	-0.047	0.015
-141.487	-25.813	0.149	-0.086
-140.472	150.818	-0.200	0.267
-139.458	-74.433	0.098	-0.035
-138.443	-95.803	0.239	0.062
-137.429	20.323	0.041	0.032
-136.414	-200.000	-0.021	-0.184
-135.399	-53.773	-0.464	0.207
-134.385	-200.000	0.009	-0.156
-133.370	-164.825	0.129	-0.006
-132.356	-110.627	0.193	0.039
-131.341	-183.787	-0.262	-0.004
-130.326	96.793	0.261	0.292
-129.312	-200.000	-0.004	0.164
-128.297	74.165	-0.126	0.130
-127.283	73.073	-0.129	0.132
-126.268	-146.679	0.382	-0.032
-125.253	800.000	-0.082	0.274
-124.239	177.911	-0.118	0.168
-123.224	-200.000	-0.002	0.263
-122.210	192.446	-0.164	0.242
-121.195	7.282	-0.251	-0.184
