DTS Sentinel unit serial number:	SN413079Multiplexer serial number:	ORYXHardware model number:	OX4-SRSoftware version number:	ORYX F/W v4.00 Oryx Data Collector v3.7.2.0data status	okinstallation	princeton_trtdifferential loss correction	single-endedforward channel	channel 1reverse channel	N/Adate	2019/09/12time	19:27:34forward acquisition time	15.00reverse acquisition time	0.00gamma	496.2192k internal	0.2322k external	0.2322temperature offset calibration	1.0122default loss term (dB/km)	0.3790temperature slope calibration	1.0000multiplexer offset coefficient	1.0000multiplexer slope coefficient	1.0000fibre end	0.00T internal ref (°C)	32.31T ext. ref 1 (°C)	3.24T ext. ref 2 (°C)	26.87length (m)	temperature (°C)	Stokes	anti-Stokes-747.200	406.171	0.167	-0.356
-746.185	655.632	-0.385	-0.999
-745.171	-146.262	-0.615	-0.055
-744.156	33.315	0.318	0.279
-743.142	-148.498	1.011	-0.084
-742.127	95.438	0.709	-0.817
-741.112	13.617	-0.429	-0.337
-740.098	94.216	-0.559	-0.641
-739.083	-95.114	-0.594	0.162
-738.069	-42.799	-0.393	-0.202
-737.054	213.379	-0.188	-0.299
-736.039	-78.039	0.459	-0.160
-735.025	218.635	0.260	0.419
-734.010	67.383	-0.469	-0.483
-732.996	-60.902	-1.172	-0.501
-731.981	-200.000	-0.107	-1.209
-730.966	180.881	-0.456	-0.676
-729.952	-47.373	0.497	-0.244
-728.937	-113.549	-0.633	-0.125
-727.923	-19.042	-0.204	-0.128
-726.908	-172.278	-0.838	-0.027
-725.894	-83.830	-0.730	0.235
-724.879	-65.277	-0.283	0.115
-723.864	21.697	0.005	0.004
-722.850	-200.000	0.083	-0.590
-721.835	737.836	0.062	-0.168
-720.821	-126.590	-0.676	-0.101
-719.806	-102.040	-0.358	-0.087
-718.791	-200.000	-0.066	-0.319
-717.777	800.000	0.249	-1.096
-716.762	30.201	0.520	-0.448
-715.748	-34.753	-0.418	-0.230
-714.733	101.569	0.330	-0.388
-713.718	-12.325	-0.200	-0.132
-712.704	320.003	-0.098	-0.189
-711.689	103.096	0.615	-0.728
-710.675	-100.381	-0.524	-0.131
-709.660	-79.872	0.414	0.140
-708.645	800.000	0.044	0.186
-707.631	-58.543	-0.150	-0.066
-706.616	-5.796	0.632	0.437
-705.602	162.610	-0.127	0.180
-704.587	320.364	-0.489	-0.937
-703.572	184.578	-0.054	-0.080
-702.558	-156.428	-0.610	-0.038
-701.543	-98.347	-0.521	0.135
-700.529	249.568	-0.051	0.087
-699.514	693.353	-0.204	0.538
-698.499	-17.261	-0.249	-0.158
-697.485	-63.329	-0.294	-0.122
-696.470	-200.000	0.103	0.634
-695.456	-88.331	-0.236	-0.071
-694.441	-139.189	-0.247	0.027
-693.426	-200.000	0.033	-0.230
-692.412	-104.893	-0.566	0.131
-691.397	800.000	0.144	-0.555
-690.383	38.110	0.526	0.472
-689.368	-78.942	0.260	0.089
-688.354	-168.323	0.674	-0.026
-687.339	-68.696	0.253	-0.099
-686.324	-56.145	-0.507	0.227
-685.310	-34.327	-0.194	0.107
-684.295	-52.197	0.669	0.313
-683.281	28.454	-0.115	-0.098
-682.266	487.616	-0.124	-0.286
-681.251	56.773	0.196	0.192
-680.237	-200.000	-0.072	0.580
-679.222	800.000	0.092	0.257
-678.208	-18.102	0.331	-0.209
-677.193	281.325	0.342	-0.617
-676.178	800.000	-0.131	0.454
-675.164	663.812	0.166	-0.430
-674.149	108.980	0.323	-0.389
-673.135	55.860	-0.341	-0.333
-672.120	-3.727	0.540	-0.378
-671.105	-114.512	0.279	0.054
-670.091	755.496	-0.362	-0.985
-669.076	281.206	0.293	-0.529
-668.062	-103.974	-0.756	-0.178
-667.047	380.713	0.536	-1.108
-666.032	144.464	-0.276	-0.371
-665.018	800.000	0.024	-0.073
-664.003	4.698	-0.219	-0.162
-662.989	-127.480	0.315	0.046
-661.974	-91.663	-0.204	0.058
-660.959	106.175	0.362	-0.432
-659.945	-133.236	-1.090	-0.139
-658.930	800.000	-0.080	0.245
-657.916	151.208	-0.485	-0.664
-656.901	-32.516	0.225	0.126
-655.886	-200.000	0.011	-0.142
-654.872	-195.005	0.566	0.004
-653.857	253.088	-0.310	0.532
-652.843	30.871	-0.351	0.303
-651.828	120.100	0.338	-0.422
-650.814	203.566	0.177	0.275
-649.799	-161.707	-0.600	0.031
-648.784	-200.000	-0.014	-0.879
-647.770	-100.331	-0.277	-0.069
-646.755	-48.701	0.651	-0.315
-645.741	800.000	-0.148	0.632
-644.726	466.420	0.157	0.354
-643.711	405.886	0.341	-0.724
-642.697	446.419	0.344	-0.762
-641.682	-7.553	0.376	-0.256
-640.668	508.725	-0.301	-0.702
-639.653	174.357	0.438	-0.637
-638.638	-200.000	-0.039	0.812
-637.624	800.000	-0.194	-0.627
-636.609	738.599	-0.265	-0.716
-635.595	800.000	0.106	0.402
-634.580	48.104	-0.502	-0.472
-633.565	800.000	0.046	-0.141
-632.551	139.181	0.366	0.484
-631.536	-200.000	0.107	0.613
-630.522	-81.869	0.488	0.161
-629.507	-200.000	0.102	-0.745
-628.492	-200.000	-0.086	0.738
-627.478	482.981	-0.071	0.162
-626.463	-52.280	-0.405	-0.189
-625.449	-109.892	-0.663	-0.140
-624.434	48.983	-0.272	0.256
-623.419	-137.544	-0.830	-0.094
-622.405	14.672	-0.585	0.460
-621.390	-69.202	-0.823	-0.318
-620.376	-68.594	0.541	-0.211
-619.361	-200.000	-0.056	-0.267
-618.346	-200.000	-0.014	-0.763
-617.332	800.000	0.211	0.852
-616.317	48.074	-0.558	-0.525
-615.303	112.018	0.503	-0.610
-614.288	-154.118	0.644	0.044
-613.273	96.330	0.346	-0.398
-612.259	800.000	0.417	1.177
-611.244	-83.451	0.404	0.130
-610.230	-200.000	0.131	-0.944
-609.215	37.089	-0.512	-0.456
-608.201	-60.073	-0.074	0.032
-607.186	-84.640	0.197	0.062
-606.171	800.000	-0.013	-0.044
-605.157	46.298	0.324	0.302
-604.142	-200.000	0.015	-0.488
-603.128	-22.403	0.548	0.334
-602.113	175.603	-0.431	0.629
-601.098	50.731	0.112	-0.107
-600.084	27.523	0.600	-0.507
-599.069	-69.149	0.511	-0.197
-598.055	-76.527	-0.459	-0.162
-597.040	800.000	-0.170	-0.568
-596.025	-85.463	-0.475	0.149
-595.011	-200.000	0.076	0.386
-593.996	-102.685	-0.587	-0.141
-592.982	800.000	-0.138	-0.448
-591.967	-25.873	-0.101	0.060
-590.952	-139.851	-0.546	0.058
-589.938	-200.000	0.082	-1.119
-588.923	-17.363	-0.255	-0.161
-587.909	26.906	-0.390	-0.329
-586.894	653.710	-0.205	0.529
-585.879	729.598	-0.059	-0.157
-584.865	-148.546	-0.642	-0.053
-583.850	54.433	0.223	-0.216
-582.836	80.845	0.558	-0.604
-581.821	-110.934	0.207	-0.043
-580.806	800.000	-0.160	-0.634
-579.792	-200.000	0.132	-0.730
-578.777	57.720	0.450	-0.442
-577.763	-98.883	0.396	0.101
-576.748	-72.283	0.486	-0.181
-575.733	800.000	-0.049	0.168
-574.719	97.150	0.774	-0.891
-573.704	-51.859	0.257	-0.120
-572.690	-104.562	-0.172	0.040
-571.675	702.417	-0.201	0.532
-570.661	800.000	0.055	-0.222
-569.646	-173.165	-0.427	-0.013
-568.631	614.208	0.104	0.260
-567.617	-43.137	0.461	-0.234
-566.602	-200.000	0.043	-0.966
-565.588	27.583	0.322	-0.272
-564.573	0.294	0.613	-0.439
-563.558	48.396	0.695	0.652
-562.544	-200.000	-0.094	-0.933
-561.529	98.193	0.104	0.120
-560.515	-200.000	-0.016	0.705
-559.500	676.035	-0.218	-0.569
-558.485	-27.825	-0.294	-0.171
-557.471	37.055	-0.646	0.573
-556.456	-8.006	-0.149	0.101
-555.442	-58.054	0.553	0.242
-554.427	-200.000	-0.031	0.828
-553.412	8.924	-0.370	-0.280
-552.398	-4.702	0.642	0.444
-551.383	461.974	0.147	-0.330
-550.369	-90.960	0.509	0.147
-549.354	13.692	-0.300	-0.234
-548.339	-39.241	0.155	0.082
-547.325	-16.268	0.504	-0.321
-546.310	-130.735	-0.418	0.056
-545.296	21.913	0.030	0.025
-544.281	147.732	0.387	-0.522
-543.266	383.557	0.322	0.663
-542.252	-200.000	-0.027	0.724
-541.237	800.000	0.149	0.547
-540.223	39.864	0.486	0.437
-539.208	42.696	0.722	-0.659
-538.193	-124.990	0.858	0.132
-537.179	-132.681	-0.575	0.074
-536.164	549.083	-0.267	0.642
-535.150	-15.491	-0.152	0.097
-534.135	-162.000	-0.816	0.041
-533.121	-175.145	-1.109	0.031
-532.106	95.758	-0.178	0.203
-531.091	69.738	-0.383	-0.396
-530.077	-40.926	-0.393	0.204
-529.062	-21.496	-0.557	-0.341
-528.048	-101.213	0.165	0.040
-527.033	800.000	0.037	-0.138
-526.018	800.000	-0.052	-0.185
-525.004	753.031	0.132	0.357
-523.989	656.800	0.265	-0.682
-522.975	-82.476	-0.869	0.282
-521.960	-30.652	-0.750	0.425
-520.945	-27.398	-0.198	0.116
-519.931	51.339	-0.280	0.267
-518.916	-143.110	0.361	-0.035
-517.902	7.298	-0.463	-0.346
-516.887	-125.479	-1.107	-0.169
-515.872	161.705	0.138	-0.193
-514.858	98.014	0.350	-0.403
-513.843	391.691	-0.251	-0.521
-512.829	398.217	-0.444	-0.929
-511.814	-48.023	-0.353	0.171
-510.799	80.417	0.252	0.272
-509.785	-200.000	-0.187	0.946
-508.770	347.341	-0.385	-0.759
-507.756	12.916	0.704	0.544
-506.741	-149.043	-0.412	-0.033
-505.726	-200.000	-0.054	-0.547
-504.712	-54.228	-0.221	-0.100
-503.697	-200.000	0.047	0.272
-502.683	12.117	0.218	0.168
-501.668	249.223	0.653	-1.107
-500.653	-113.769	-0.954	0.186
-499.639	-82.322	-0.204	0.066
-498.624	115.411	-0.353	0.432
-497.610	584.279	-0.101	-0.249
-496.595	151.731	0.101	0.138
-495.581	-163.140	0.352	0.017
-494.566	-200.000	0.027	0.841
-493.551	79.371	0.210	-0.225
-492.537	-105.855	0.387	0.087
-491.522	-130.446	0.741	0.100
-490.508	292.686	0.442	0.806
-489.493	-52.116	-0.243	0.113
-488.478	-140.631	-0.179	0.019
-487.464	65.703	0.034	-0.034
-486.449	225.226	0.309	0.500
-485.435	181.086	0.394	-0.578
-484.420	250.691	0.191	0.325
-483.405	394.757	-0.317	0.661
-482.391	800.000	-0.064	-0.263
-481.376	-66.069	0.331	-0.132
-480.362	-41.122	0.559	0.288
-479.347	466.411	0.137	-0.307
-478.332	366.713	0.389	0.785
-477.318	230.753	0.178	0.291
-476.303	-136.963	-0.576	0.066
-475.289	74.728	-0.195	-0.205
-474.274	-117.000	0.357	0.065
-473.259	-30.453	-0.775	0.439
-472.245	449.127	0.116	0.255
-471.230	-170.277	0.325	0.011
-470.216	-200.000	0.017	-0.313
-469.201	-200.000	0.102	0.509
-468.186	153.621	0.372	0.509
-467.172	-200.000	0.008	-0.082
-466.157	-17.361	0.163	0.103
-465.143	87.440	-0.379	-0.419
-464.128	550.377	0.237	0.568
-463.113	71.814	0.381	0.396
-462.099	68.215	0.446	0.456
-461.084	224.810	0.442	0.715
-460.070	-17.088	0.542	-0.342
-459.055	9.649	0.388	-0.294
-458.040	72.823	-0.335	0.349
-457.026	-36.481	-0.445	0.239
-456.011	-149.451	0.722	-0.057
-454.997	15.893	0.521	0.409
-453.982	251.132	-0.150	-0.255
-452.968	175.432	0.274	0.396
-451.953	-101.657	0.386	-0.094
-450.938	-122.270	-0.487	0.080
-449.924	-200.000	-0.013	0.234
-448.909	-7.685	0.512	0.346
-447.895	800.000	-0.178	0.672
-446.880	-36.760	-0.350	0.187
-445.865	-96.019	-0.483	0.128
-444.851	-171.174	-0.858	0.029
-443.836	330.069	0.111	-0.212
-442.822	-40.166	-0.669	-0.348
-441.807	-158.089	0.994	0.058
-440.792	139.077	-0.510	0.669
-439.778	-200.000	0.026	-0.314
-438.763	-58.857	-0.441	-0.190
-437.749	-62.233	-0.546	-0.227
-436.734	17.377	-0.643	0.510
-435.719	800.000	-0.299	-0.983
-434.705	-200.000	0.022	-0.555
-433.690	564.712	-0.154	-0.373
-432.676	-200.000	0.032	0.588
-431.661	-75.898	-0.363	0.128
-430.646	-200.000	-0.101	-0.907
-429.632	800.000	-0.317	-0.885
-428.617	191.310	0.163	-0.244
-427.603	-200.000	-0.024	1.085
-426.588	596.921	-0.264	0.652
-425.573	7.341	0.249	-0.185
-424.559	-49.249	0.627	0.299
-423.544	265.533	-0.356	0.620
-422.530	-31.181	0.217	0.122
-421.515	800.000	-0.244	0.859
-420.500	800.000	0.198	0.578
-419.486	-62.212	-0.910	0.378
-418.471	157.766	-0.199	-0.275
-417.457	-31.668	-0.374	-0.209
-416.442	-200.000	0.018	0.294
-415.428	-200.000	-0.012	0.459
-414.413	-67.834	0.232	0.090
-413.398	54.345	-0.311	-0.299
-412.384	-127.043	0.597	-0.087
-411.369	161.164	0.442	0.615
-410.355	599.984	-0.228	0.563
-409.340	223.705	0.467	0.752
-408.325	-200.000	-0.034	0.241
-407.311	96.407	0.643	0.734
-406.296	-99.247	-1.306	-0.329
-405.282	-200.000	-0.029	0.938
-404.267	535.829	-0.243	-0.574
-403.252	-137.948	0.260	0.029
-402.238	-60.080	1.203	-0.512
-401.223	176.416	-0.374	-0.542
-400.209	-0.344	0.481	0.341
-399.194	-22.300	0.238	-0.144
-398.179	-200.000	-0.063	0.889
-397.165	70.021	-0.361	-0.371
-396.150	149.948	0.161	-0.218
-395.136	-200.000	0.083	-0.411
-394.121	-200.000	-0.858	0.002
-393.106	110.688	0.404	-0.484
-392.092	-169.945	-0.562	-0.020
-391.077	783.713	-0.091	0.249
-390.063	-135.373	-0.559	0.067
-389.048	-121.300	-0.674	-0.112
-388.033	800.000	-0.266	0.817
-387.019	-200.000	-0.157	1.443
-386.004	-95.698	-0.434	-0.116
-384.990	-200.000	-0.144	-0.755
-383.975	89.038	-0.406	-0.450
-382.960	-41.974	0.327	0.167
-381.946	-92.907	0.821	0.228
-380.931	10.076	0.866	0.655
-379.917	186.046	0.461	0.682
-378.902	33.279	0.305	0.263
-377.888	155.657	0.241	-0.331
-376.873	95.974	0.223	0.254
-375.858	-200.000	-0.024	0.262
-374.844	-42.823	0.444	-0.225
-373.829	800.000	-0.244	0.989
-372.815	-0.007	-0.303	0.215
-371.800	-50.448	0.034	0.016
-370.785	-119.253	0.927	0.161
-369.771	66.647	-0.464	-0.470
-368.756	-200.000	-0.093	-1.004
-367.742	93.866	0.179	0.202
-366.727	278.787	-0.299	-0.530
-365.712	108.875	-0.325	-0.386
-364.698	373.100	0.420	-0.850
-363.683	-72.638	-0.636	-0.233
-362.669	-23.144	-0.210	0.126
-361.654	-125.103	-0.430	0.066
-360.639	800.000	0.199	-0.678
-359.625	-122.929	0.316	0.051
-358.610	-200.000	0.003	0.295
-357.596	212.954	0.086	0.135
-356.581	-200.000	0.034	-0.268
-355.566	-70.183	0.204	-0.077
-354.552	800.000	-0.284	-0.782
-353.537	44.337	0.432	-0.394
-352.523	-200.000	0.003	-0.316
-351.508	23.242	-0.407	-0.333
-350.493	-20.819	-1.154	-0.704
-349.479	89.156	-0.511	-0.566
-348.464	-62.952	-0.334	-0.137
-347.450	-53.459	-0.330	-0.150
-346.435	800.000	0.031	-0.102
-345.420	385.601	0.134	-0.276
-344.406	-200.000	-0.012	0.482
-343.391	-111.727	0.260	0.052
-342.377	-181.325	1.040	-0.020
-341.362	620.778	-0.357	0.893
-340.348	800.000	-0.047	0.136
-339.333	-20.843	-0.323	-0.197
-338.318	44.203	0.128	0.117
-337.304	-164.467	0.141	0.006
-336.289	-200.000	-0.054	-0.827
-335.275	800.000	0.205	-0.776
-334.260	-91.772	0.277	0.078
-333.245	136.622	-0.266	-0.346
-332.231	320.817	-0.350	0.661
-331.216	108.485	0.547	0.650
-330.202	-43.827	-0.860	0.431
-329.187	617.192	-0.153	-0.382
-328.172	800.000	0.132	0.381
-327.158	800.000	-0.127	-0.497
-326.143	-200.000	-0.031	-0.785
-325.129	-200.000	-0.045	-0.298
-324.114	626.244	0.077	0.192
-323.099	-200.000	0.071	0.685
-322.085	111.412	-0.256	0.307
-321.070	573.106	0.587	1.421
-320.056	31.117	-0.388	-0.330
-319.041	-200.000	0.125	0.556
-318.026	127.174	0.132	0.166
-317.012	800.000	-0.059	-0.257
-315.997	93.175	-0.331	-0.372
-314.983	73.073	-0.593	-0.615
-313.968	172.410	-0.342	-0.488
-312.953	-120.423	0.301	0.051
-311.939	-45.515	1.054	0.519
-310.924	-51.895	-0.766	0.354
-309.910	307.311	0.348	-0.645
-308.895	-46.656	-0.225	0.110
-307.880	-150.180	0.422	0.032
-306.866	-32.027	-0.491	-0.273
-305.851	-200.000	0.020	-0.108
-304.837	113.159	-0.741	0.893
-303.822	214.949	0.202	0.317
-302.807	30.464	0.568	-0.482
-301.793	-58.585	0.261	-0.112
-300.778	-48.554	-0.797	0.381
-299.764	-186.072	-0.861	-0.013
-298.749	-25.462	0.073	0.043
-297.735	-47.504	0.588	0.284
-296.720	-171.661	-0.473	0.015
-295.705	-52.785	0.191	-0.087
-294.691	43.357	0.141	0.128
-293.676	-200.000	0.044	-0.930
-292.662	76.676	-0.607	0.639
-291.647	-47.710	-0.343	-0.165
-290.632	-102.666	0.841	0.199
-289.618	25.028	-0.461	-0.379
-288.603	-153.955	0.410	-0.028
-287.589	-20.940	0.380	0.231
-286.574	-10.966	-0.556	0.364
-285.559	800.000	-0.130	-0.397
-284.545	33.384	0.460	-0.396
-283.530	160.914	-0.087	-0.121
-282.516	-200.000	0.009	-0.119
-281.501	-200.000	-0.029	0.547
-280.486	-113.515	0.442	0.086
-279.472	-38.369	-0.608	-0.319
-278.457	-99.778	0.660	0.164
-277.443	599.397	0.310	-0.764
-276.428	8.995	-0.886	-0.663
-275.413	99.569	0.332	-0.381
-274.399	-21.315	0.604	-0.366
-273.384	114.821	0.724	0.876
-272.370	0.803	0.995	0.707
-271.355	33.555	0.412	-0.355
-270.340	800.000	-0.244	-0.759
-269.326	255.452	-0.278	0.472
-268.311	-99.513	-0.848	-0.211
-267.297	-78.928	-0.206	0.070
-266.282	-149.663	0.155	0.012
-265.267	266.757	-0.114	0.198
-264.253	-34.291	-0.370	0.201
-263.238	-28.826	0.339	-0.193
-262.224	-136.784	0.699	-0.080
-261.209	-200.000	-0.048	-0.574
-260.195	95.522	0.268	-0.303
-259.180	-22.872	-0.086	0.051
-258.165	214.486	-0.488	-0.766
-257.151	-93.381	0.671	-0.184
-256.136	-200.000	-0.163	0.969
-255.122	-183.167	0.737	-0.013
-254.107	154.877	0.145	0.198
-253.092	221.044	0.306	0.486
-252.078	-75.252	0.113	0.040
-251.063	-59.317	0.393	0.167
-250.049	-29.373	0.402	-0.228
-249.034	-119.776	-0.392	0.067
-248.019	182.428	-0.559	-0.816
-247.005	-200.000	-0.008	0.250
-245.990	800.000	0.139	0.497
-244.976	-155.250	-0.302	-0.019
-243.961	100.614	0.282	-0.325
-242.946	-57.016	-0.905	-0.395
-241.932	-131.011	0.218	0.029
-240.917	101.950	0.347	-0.401
-239.903	12.904	0.152	-0.116
-238.888	-153.457	-0.238	0.016
-237.873	327.889	0.202	-0.383
-236.859	-95.103	1.039	0.278
-235.844	-43.359	-0.482	0.241
-234.830	800.000	-0.028	0.111
-233.815	62.684	-0.254	-0.251
-232.800	-90.847	-0.251	0.072
-231.786	268.198	0.224	0.388
-230.771	-67.688	0.318	-0.123
-229.757	65.342	0.767	0.768
-228.742	-200.000	-0.002	-0.288
-227.727	800.000	-0.182	0.755
-226.713	745.313	0.159	-0.423
-225.698	-155.822	0.920	-0.058
-224.684	185.295	-0.340	0.499
-223.669	86.335	-0.322	0.351
-222.655	-127.886	-0.892	0.127
-221.640	122.459	-0.238	-0.294
-220.625	-124.997	0.631	0.096
-219.611	-92.842	-0.582	0.161
-218.596	800.000	-0.167	-0.637
-217.582	-54.818	0.349	0.156
-216.567	-200.000	0.002	0.030
-215.552	192.107	0.227	-0.338
-214.538	-51.572	-0.383	-0.177
-213.523	288.266	0.081	0.146
-212.509	-90.679	1.006	0.287
-211.494	14.637	0.645	-0.499
-210.479	-200.000	0.084	-0.792
-209.465	-33.660	0.824	0.450
-208.450	-26.025	-0.643	-0.374
-207.436	132.979	0.337	0.430
-206.421	-50.076	-0.382	0.179
-205.406	-200.000	-0.168	0.798
-204.392	-164.406	0.531	-0.024
-203.377	-69.961	-0.667	-0.252
-202.363	-200.000	0.032	0.495
-201.348	217.830	-0.536	0.846
-200.333	-66.799	-0.443	0.173
-199.319	-157.828	0.352	0.021
-198.304	800.000	0.115	-0.399
-197.290	460.652	-0.080	-0.175
-196.275	-200.000	0.076	0.518
-195.260	-70.669	0.831	-0.311
-194.246	68.180	-0.593	0.600
-193.231	-20.412	0.482	0.293
-192.217	4.552	-0.184	-0.134
-191.202	46.299	-0.310	-0.284
-190.187	-185.970	-0.690	0.010
-189.173	-200.000	-0.003	-0.237
-188.158	425.463	0.169	-0.359
-187.144	116.351	-0.232	0.281
-186.129	-26.921	-0.264	-0.152
-185.114	42.762	0.319	-0.287
-184.100	-200.000	-0.028	0.501
-183.085	16.604	1.011	0.790
-182.071	-200.000	0.055	-0.496
-181.056	-93.411	-0.680	0.186
-180.042	-132.143	0.392	-0.050
-179.027	-110.239	-0.338	0.070
-178.012	3.076	0.248	-0.178
-176.998	-150.802	0.372	0.028
-175.983	-40.252	0.354	-0.182
-174.969	519.225	0.269	-0.622
-173.954	-183.473	-0.452	-0.008
-172.939	-111.866	-0.966	-0.193
-171.925	67.737	0.529	0.534
-170.910	-169.240	0.162	-0.006
-169.896	14.861	0.581	0.449
-168.881	-200.000	0.153	-0.931
-167.866	215.806	-0.401	-0.630
-166.852	-0.465	-0.187	-0.131
-165.837	-200.000	0.018	0.640
-164.823	-200.000	0.032	0.240
-163.808	198.421	0.053	-0.080
-162.793	-200.000	0.059	-0.456
-161.779	58.542	-0.844	0.818
-160.764	-200.000	-0.026	-0.689
-159.750	-200.000	0.054	0.770
-158.735	800.000	0.020	-0.071
-157.720	-66.747	0.581	0.227
-156.706	594.712	0.303	-0.740
-155.691	46.173	-0.737	0.674
-154.677	533.409	-0.207	-0.483
-153.662	32.839	-0.275	0.235
-152.647	-60.415	-0.339	-0.142
-151.633	190.143	0.357	0.529
-150.618	-200.000	-0.002	0.241
-149.604	-200.000	0.002	-0.408
-148.589	-118.299	0.223	0.039
-147.574	-87.662	-0.251	-0.075
-146.560	83.172	-0.752	-0.808
-145.545	-0.466	-0.288	0.202
-144.531	57.664	0.515	-0.497
-143.516	64.555	-0.520	0.517
-142.502	-123.113	0.509	-0.081
-141.487	33.746	0.553	0.475
-140.472	76.648	-0.228	-0.239
-139.458	-155.037	-0.730	-0.047
-138.443	-58.526	-0.509	0.218
-137.429	-44.673	0.247	-0.122
-136.414	-200.000	0.039	0.350
-135.399	-4.344	0.114	-0.078
-134.385	432.130	0.203	-0.434
-133.370	556.386	0.448	1.064
-132.356	-189.353	0.569	-0.007
-131.341	471.491	0.141	0.312
-130.326	-86.414	-1.063	-0.322
-129.312	-147.589	-0.502	-0.042
-128.297	-148.609	-0.623	-0.050
-127.283	-200.000	-0.004	-0.503
-126.268	-200.000	-0.144	-0.802
-125.253	-200.000	0.174	-0.781
-124.239	-200.000	-0.039	-0.231
-123.224	-10.707	-0.648	-0.423
-122.210	84.975	0.424	-0.459
-121.195	-200.000	0.006	0.309
