DTS Sentinel unit serial number:	SN413079Multiplexer serial number:	ORYXHardware model number:	OX4-SRSoftware version number:	ORYX F/W v4.00 Oryx Data Collector v3.7.2.0data status	okinstallation	princeton_trtdifferential loss correction	single-endedforward channel	channel 1reverse channel	N/Adate	2019/09/18time	09:46:35forward acquisition time	60.00reverse acquisition time	0.00gamma	496.2192k internal	0.2333k external	0.2333temperature offset calibration	0.9971default loss term (dB/km)	0.3790temperature slope calibration	1.0000multiplexer offset coefficient	1.0000multiplexer slope coefficient	1.0000fibre end	0.00T internal ref (°C)	26.94T ext. ref 1 (°C)	0.29T ext. ref 2 (°C)	23.53length (m)	temperature (°C)	Stokes	anti-Stokes-747.200	-19.736	-0.181	-0.113
-746.185	-44.649	0.134	-0.067
-745.171	57.461	0.095	0.093
-744.156	-173.865	-0.342	-0.010
-743.142	82.847	0.217	-0.237
-742.127	-200.000	0.104	0.509
-741.112	32.805	-0.047	-0.041
-740.098	-59.591	0.172	-0.074
-739.083	-30.322	-0.306	0.174
-738.069	533.238	0.071	0.168
-737.054	301.945	0.065	0.121
-736.039	441.953	-0.044	0.097
-735.025	-149.589	0.426	-0.034
-734.010	387.628	0.055	-0.114
-732.996	-155.510	0.313	-0.020
-731.981	800.000	0.106	0.340
-730.966	8.860	0.402	-0.305
-729.952	70.109	-0.249	-0.258
-728.937	-136.001	-0.078	0.009
-727.923	-4.962	-0.150	-0.104
-726.908	-79.328	-0.244	-0.083
-725.894	-10.761	0.130	0.086
-724.879	-87.329	0.398	-0.121
-723.864	113.269	-0.052	0.063
-722.850	-111.198	0.341	0.070
-721.835	-87.679	0.197	0.060
-720.821	-102.608	-0.495	-0.119
-719.806	208.211	-0.225	-0.354
-718.791	-4.583	0.051	0.035
-717.777	800.000	0.079	-0.305
-716.762	-24.731	-0.084	-0.050
-715.748	-142.740	-0.122	-0.012
-714.733	390.497	-0.057	0.118
-713.718	-154.621	0.314	-0.021
-712.704	-46.720	0.191	-0.094
-711.689	-99.329	0.423	0.107
-710.675	116.646	-0.204	0.252
-709.660	-43.868	-0.173	-0.087
-708.645	-29.815	0.255	0.146
-707.631	40.576	0.069	0.062
-706.616	-173.457	-0.197	0.006
-705.602	621.992	0.010	-0.026
-704.587	-27.545	0.105	-0.061
-703.572	-200.000	0.008	0.258
-702.558	-29.987	0.206	-0.118
-701.543	-150.387	0.312	0.024
-700.529	-200.000	0.007	0.125
-699.514	800.000	0.011	0.032
-698.499	107.442	0.411	-0.491
-697.485	-101.247	0.138	0.034
-696.470	-80.376	-0.411	0.138
-695.456	-17.434	0.065	-0.041
-694.441	-200.000	-0.007	0.159
-693.426	-68.635	0.341	0.132
-692.412	39.213	0.101	0.091
-691.397	-200.000	-0.016	-0.086
-690.383	-66.152	-0.028	0.011
-689.368	-113.136	0.200	-0.040
-688.354	-29.200	-0.259	0.149
-687.339	277.004	0.085	-0.152
-686.324	-101.027	0.203	-0.050
-685.310	-170.756	0.191	0.007
-684.295	-79.025	0.283	-0.097
-683.281	-200.000	-0.008	0.217
-682.266	800.000	0.053	-0.211
-681.251	-76.844	0.241	-0.085
-680.237	118.808	-0.098	0.121
-679.222	102.961	0.111	-0.130
-678.208	-49.860	0.184	-0.088
-677.193	43.081	-0.148	0.136
-676.178	-200.000	-0.009	0.248
-675.164	607.651	-0.156	0.390
-674.149	43.627	-0.136	0.124
-673.135	-139.320	0.366	-0.039
-672.120	-17.702	-0.080	0.050
-671.105	-131.989	0.211	0.028
-670.091	185.826	0.155	-0.231
-669.076	-200.000	0.019	-0.239
-668.062	-139.711	0.302	0.032
-667.047	800.000	-0.062	0.237
-666.032	224.161	0.211	0.341
-665.018	-10.112	0.053	0.035
-664.003	-104.191	0.317	-0.074
-662.989	110.128	0.222	0.267
-661.974	59.173	0.036	0.036
-660.959	8.464	-0.151	0.114
-659.945	759.589	-0.047	-0.126
-658.930	451.108	-0.016	-0.035
-657.916	413.899	0.100	0.213
-656.901	112.965	0.094	0.114
-655.886	-200.000	0.032	-0.162
-654.872	-91.523	-0.341	-0.098
-653.857	666.763	-0.105	-0.273
-652.843	-155.317	-0.193	-0.013
-651.828	-120.913	0.015	-0.002
-650.814	-87.872	0.234	-0.071
-649.799	18.584	-0.153	0.123
-648.784	800.000	-0.086	-0.272
-647.770	-200.000	-0.026	-0.437
-646.755	-200.000	0.022	-0.240
-645.741	5.051	0.166	0.122
-644.726	-175.829	-0.307	-0.008
-643.711	-200.000	0.024	0.183
-642.697	19.324	-0.435	0.350
-641.682	-127.320	-0.262	-0.038
-640.668	385.760	0.092	-0.189
-639.653	36.314	-0.231	0.204
-638.638	112.596	-0.067	-0.081
-637.624	-56.978	0.133	-0.059
-636.609	800.000	0.034	-0.100
-635.595	-45.340	0.605	0.301
-634.580	-200.000	-0.004	-0.258
-633.565	800.000	0.052	-0.206
-632.551	-73.554	0.292	-0.106
-631.536	96.401	0.269	-0.309
-630.522	-73.924	0.244	0.089
-629.507	-37.142	-0.157	-0.084
-628.492	-30.169	-0.092	0.052
-627.478	24.487	0.197	-0.164
-626.463	134.525	-0.137	-0.178
-625.449	98.773	0.075	-0.086
-624.434	-200.000	-0.014	-0.224
-623.419	-105.044	-0.166	-0.038
-622.405	-151.130	-0.123	-0.009
-621.390	234.049	0.032	0.053
-620.376	-200.000	0.007	0.068
-619.361	800.000	0.046	-0.148
-618.346	800.000	-0.032	-0.096
-617.332	378.136	0.052	0.106
-616.317	-89.356	0.214	-0.063
-615.303	539.124	-0.136	-0.325
-614.288	800.000	0.071	0.205
-613.273	-200.000	0.044	0.367
-612.259	342.015	0.154	0.301
-611.244	-7.500	-0.331	0.224
-610.230	-35.007	-0.142	-0.078
-609.215	101.055	0.132	-0.154
-608.201	260.542	-0.071	0.123
-607.186	-200.000	0.012	0.127
-606.171	800.000	-0.093	-0.312
-605.157	-97.042	0.434	-0.114
-604.142	-8.913	0.388	0.260
-603.128	4.099	0.158	-0.116
-602.113	-25.906	0.227	-0.134
-601.098	89.728	-0.136	0.152
-600.084	-163.056	-0.026	-0.001
-599.069	-200.000	-0.195	0.001
-598.055	-132.939	0.145	0.018
-597.040	133.824	-0.122	-0.158
-596.025	7.430	-0.113	0.085
-595.011	-67.409	0.270	0.106
-593.996	-5.593	0.190	-0.131
-592.982	389.010	-0.166	0.344
-591.967	128.242	0.107	0.136
-590.952	163.907	0.063	0.089
-589.938	-166.916	0.208	0.009
-588.923	-155.963	-0.213	0.014
-587.909	-119.306	-0.076	0.013
-586.894	-154.846	-0.015	-0.001
-585.879	74.279	0.062	0.065
-584.865	-200.000	-0.002	-0.165
-583.850	43.757	-0.153	0.140
-582.836	77.606	0.211	-0.225
-581.821	98.022	-0.043	0.049
-580.806	-86.879	-0.411	0.125
-579.792	-82.696	-0.114	0.037
-578.777	-175.046	0.303	-0.008
-577.763	-128.020	-0.301	-0.043
-576.748	-6.491	0.154	-0.105
-575.733	285.046	-0.172	-0.310
-574.719	-200.000	0.010	-0.218
-573.704	-165.132	-0.176	0.008
-572.690	-47.118	-0.123	0.060
-571.675	-65.931	0.185	-0.074
-570.661	-126.916	0.015	-0.002
-569.646	-11.346	0.152	0.100
-568.631	17.725	0.217	-0.172
-567.617	-58.528	0.119	0.052
-566.602	-136.148	0.049	-0.006
-565.588	800.000	-0.008	0.032
-564.573	-57.234	-0.201	0.088
-563.558	-10.877	0.070	-0.046
-562.544	-179.491	-0.361	0.008
-561.529	264.874	-0.024	-0.042
-560.515	270.740	0.072	0.127
-559.500	-200.000	-0.049	-0.328
-558.485	-188.633	-0.352	0.004
-557.471	-70.104	0.285	0.108
-556.456	-152.458	0.188	-0.013
-555.442	800.000	-0.049	-0.163
-554.427	-200.000	0.018	0.124
-553.412	800.000	0.048	0.154
-552.398	6.249	-0.077	0.057
-551.383	36.223	-0.068	0.059
-550.369	13.068	-0.065	0.050
-549.354	36.700	0.197	0.174
-548.339	265.286	0.090	-0.156
-547.325	-11.222	0.164	0.108
-546.310	149.650	-0.131	-0.177
-545.296	41.063	0.238	0.214
-544.281	294.338	-0.071	-0.130
-543.266	800.000	-0.070	0.254
-542.252	790.232	-0.013	-0.036
-541.237	-47.875	-0.283	-0.137
-540.223	-200.000	0.005	-0.187
-539.208	-200.000	0.003	0.204
-538.193	15.976	-0.185	-0.146
-537.179	52.419	-0.201	0.191
-536.164	40.033	-0.098	-0.088
-535.150	-50.785	0.074	0.035
-534.135	-200.000	0.031	0.193
-533.121	173.422	0.134	-0.193
-532.106	734.870	0.144	-0.384
-531.091	800.000	0.092	0.281
-530.077	800.000	0.080	0.348
-529.062	28.539	-0.229	-0.193
-528.048	-200.000	0.004	-0.067
-527.033	800.000	-0.060	0.240
-526.018	800.000	0.020	-0.076
-525.004	-186.521	0.235	0.003
-523.989	800.000	-0.059	-0.246
-522.975	-200.000	0.015	-0.324
-521.960	333.393	0.092	0.177
-520.945	-200.000	-0.060	0.288
-519.931	43.333	-0.017	0.016
-518.916	-141.297	-0.430	-0.044
-517.902	66.461	0.188	0.190
-516.887	800.000	-0.066	0.199
-515.872	-180.955	-0.031	0.001
-514.858	-113.105	0.266	0.052
-513.843	-200.000	0.034	0.177
-512.829	-4.803	0.277	0.191
-511.814	-78.982	0.416	0.141
-510.799	-62.962	0.234	0.096
-509.785	-38.138	-0.153	-0.081
-508.770	7.833	-0.070	-0.052
-507.756	-35.908	-0.337	-0.182
-506.741	-24.237	0.018	0.011
-505.726	-200.000	-0.009	-0.177
-504.712	-68.602	0.291	-0.112
-503.697	215.164	0.158	0.250
-502.683	-50.262	-0.127	0.060
-501.668	3.741	-0.166	0.121
-500.653	-77.426	0.129	-0.045
-499.639	67.022	0.156	0.159
-498.624	-61.043	0.299	-0.126
-497.610	73.411	0.064	-0.067
-496.595	655.021	-0.020	-0.050
-495.581	-111.722	-0.204	-0.041
-494.566	-200.000	-0.033	-0.336
-493.551	-200.000	0.008	0.093
-492.537	800.000	-0.112	-0.354
-491.522	-200.000	-0.066	-0.300
-490.508	-141.319	-0.312	0.032
-489.493	-200.000	-0.029	-0.384
-488.478	110.060	-0.231	-0.276
-487.464	37.227	-0.143	-0.126
-486.449	-197.074	0.105	0.001
-485.435	362.738	0.108	0.216
-484.420	64.137	-0.175	-0.175
-483.405	169.410	-0.213	-0.302
-482.391	254.430	-0.088	-0.150
-481.376	157.622	0.104	-0.143
-480.362	-200.000	-0.003	0.110
-479.347	-97.969	-0.284	0.073
-478.332	-64.813	-0.366	0.148
-477.318	-103.899	0.381	-0.089
-476.303	120.570	0.039	0.048
-475.289	-200.000	-0.015	0.257
-474.274	-200.000	0.018	0.172
-473.259	-95.729	-0.173	0.046
-472.245	-199.010	-0.316	0.002
-471.230	-147.194	-0.089	-0.008
-470.216	-70.650	0.199	0.075
-469.201	-61.268	0.285	-0.120
-468.186	374.730	0.062	0.127
-467.172	-200.000	0.133	0.001
-466.157	119.352	0.182	0.224
-465.143	-33.236	-0.218	-0.120
-464.128	-6.633	-0.158	0.107
-463.113	-19.888	-0.354	0.218
-462.099	799.551	-0.073	-0.200
-461.084	-27.563	-0.286	0.165
-460.070	-80.990	-0.191	-0.063
-459.055	60.879	-0.081	0.080
-458.040	-4.441	0.169	-0.116
-457.026	119.066	-0.102	-0.125
-456.011	-200.000	0.022	0.395
-454.997	-200.000	0.012	0.173
-453.982	645.537	0.059	-0.150
-452.968	800.000	-0.026	-0.076
-451.953	178.597	-0.175	-0.254
-450.938	742.061	0.063	0.168
-449.924	-26.313	-0.109	0.064
-448.909	106.392	-0.094	-0.111
-447.895	107.349	0.166	0.196
-446.880	800.000	0.037	0.130
-445.865	-1.080	0.081	-0.057
-444.851	-17.123	0.346	0.217
-443.836	-200.000	0.327	0.001
-442.822	-6.060	-0.297	0.202
-441.807	-200.000	-0.020	-0.130
-440.792	-200.000	-0.018	0.147
-439.778	-200.000	0.031	-0.316
-438.763	435.874	-0.085	0.184
-437.749	-73.715	0.127	-0.046
-436.734	-92.491	-0.058	0.016
-435.719	-125.115	0.044	0.007
-434.705	305.762	0.150	0.277
-433.690	693.593	0.085	0.221
-432.676	7.821	-0.050	-0.038
-431.661	-35.665	0.191	0.103
-430.646	-91.154	0.142	-0.040
-429.632	301.578	-0.080	-0.146
-428.617	-146.626	-0.215	-0.019
-427.603	42.925	0.077	-0.070
-426.588	90.766	-0.152	0.169
-425.573	-200.000	-0.015	-0.123
-424.559	623.874	0.133	-0.332
-423.544	21.197	-0.336	0.271
-422.530	411.150	0.042	0.088
-421.515	-30.404	-0.157	-0.089
-420.500	800.000	-0.112	-0.449
-419.486	-200.000	0.015	-0.135
-418.471	7.658	-0.174	-0.129
-417.457	800.000	0.063	0.202
-416.442	-200.000	0.051	0.395
-415.428	640.006	-0.056	0.142
-414.413	198.631	0.107	-0.162
-413.398	505.491	0.100	-0.229
-412.384	-181.905	0.112	0.002
-411.369	-77.748	0.190	0.065
-410.355	-108.963	0.412	0.087
-409.340	-137.633	-0.129	-0.014
-408.325	-39.921	-0.049	-0.025
-407.311	-143.385	0.176	0.017
-406.296	-102.779	-0.197	0.046
-405.282	800.000	0.075	0.271
-404.267	-200.000	0.015	0.126
-403.252	-36.329	-0.203	0.109
-402.238	264.853	0.025	-0.043
-401.223	497.091	-0.057	0.130
-400.209	-92.270	-0.156	0.044
-399.194	-48.980	0.347	0.165
-398.179	-73.332	-0.238	-0.086
-397.165	-18.146	-0.146	-0.090
-396.150	-200.000	0.016	-0.114
-395.136	-200.000	0.024	-0.283
-394.121	250.753	0.248	0.418
-393.106	-12.670	-0.103	0.067
-392.092	-83.273	-0.207	0.066
-391.077	117.260	-0.249	0.304
-390.063	800.000	0.115	0.388
-389.048	-68.740	-0.213	0.082
-388.033	800.000	-0.044	-0.175
-387.019	210.427	0.258	-0.403
-386.004	177.233	-0.033	0.048
-384.990	42.687	-0.190	-0.171
-383.975	-200.000	0.005	0.024
-382.960	-154.229	-0.185	0.012
-381.946	261.602	0.181	-0.311
-380.931	375.171	0.073	0.147
-379.917	-35.705	0.228	0.122
-378.902	19.617	-0.227	0.181
-377.888	200.045	-0.056	0.086
-376.873	-58.569	-0.077	0.033
-375.858	14.556	0.173	0.134
-374.844	800.000	-0.091	-0.343
-373.829	353.115	-0.117	-0.230
-372.815	144.523	0.141	0.187
-371.800	80.675	0.249	0.266
-370.785	600.981	0.105	-0.259
-369.771	800.000	0.065	0.223
-368.756	-27.435	0.130	0.075
-367.742	-200.000	0.021	0.136
-366.727	152.697	0.124	0.168
-365.712	-200.000	-0.014	-0.081
-364.698	-8.136	0.064	-0.043
-363.683	558.467	0.039	0.094
-362.669	-200.000	0.002	-0.014
-361.654	-200.000	-0.078	0.386
-360.639	718.654	0.054	0.142
-359.625	-200.000	0.023	-0.385
-358.610	-87.082	-0.297	0.090
-357.596	228.218	0.014	0.023
-356.581	167.405	-0.176	0.248
-355.566	235.255	-0.301	0.493
-354.552	-150.974	0.178	0.013
-353.537	-89.506	0.244	0.071
-352.523	125.455	0.156	0.195
-351.508	800.000	0.020	0.070
-350.493	-200.000	-0.078	0.355
-349.479	88.630	-0.114	-0.125
-348.464	800.000	-0.047	-0.131
-347.450	-138.281	-0.120	-0.013
-346.435	50.702	-0.180	-0.169
-345.420	-67.852	0.073	-0.028
-344.406	-10.403	0.171	0.112
-343.391	-26.984	-0.188	0.108
-342.377	53.977	-0.203	-0.193
-341.362	333.610	0.110	-0.210
-340.348	800.000	-0.053	0.213
-339.333	-200.000	-0.002	-0.114
-338.318	216.058	-0.037	0.058
-337.304	-200.000	0.176	-0.000
-336.289	23.035	0.376	-0.305
-335.275	-28.382	-0.112	0.064
-334.260	66.157	0.124	0.124
-333.245	-94.325	0.168	0.045
-332.231	800.000	0.011	-0.041
-331.216	136.023	0.036	0.047
-330.202	-200.000	0.031	0.473
-329.187	-32.695	0.044	0.024
-328.172	11.289	-0.206	-0.156
-327.158	456.969	0.095	0.209
-326.143	-200.000	0.022	0.360
-325.129	-157.273	0.070	0.004
-324.114	74.981	0.102	0.106
-323.099	-200.000	0.000	0.316
-322.085	-200.000	-0.051	0.226
-321.070	19.412	0.082	-0.065
-320.056	-25.442	-0.029	-0.017
-319.041	800.000	0.053	-0.171
-318.026	-54.556	0.177	0.079
-317.012	68.224	-0.071	-0.072
-315.997	187.494	-0.123	-0.181
-314.983	-124.147	-0.074	-0.012
-313.968	800.000	-0.036	-0.100
-312.953	-35.760	0.124	0.067
-311.939	-200.000	0.035	-0.429
-310.924	-39.880	-0.155	-0.080
-309.910	15.112	-0.204	0.158
-308.895	-200.000	-0.017	0.231
-307.880	-135.033	0.186	-0.022
-306.866	800.000	0.084	0.248
-305.851	189.705	0.133	-0.198
-304.837	125.809	-0.174	-0.217
-303.822	191.092	-0.172	-0.256
-302.807	13.317	0.183	-0.140
-301.793	429.934	-0.023	0.050
-300.778	-118.626	-0.269	0.047
-299.764	-77.283	-0.327	0.112
-298.749	28.467	0.118	-0.099
-297.735	-119.425	-0.255	-0.044
-296.720	8.061	-0.082	-0.061
-295.705	800.000	0.054	0.196
-294.691	182.325	-0.070	0.103
-293.676	380.392	0.024	0.049
-292.662	-143.911	0.148	-0.014
-291.647	266.698	-0.107	-0.184
-290.632	78.052	-0.250	0.263
-289.618	-104.231	-0.251	-0.058
-288.603	-200.000	0.042	-0.370
-287.589	794.964	-0.156	0.424
-286.574	336.002	0.091	-0.175
-285.559	-200.000	0.048	-0.274
-284.545	-200.000	0.035	-0.170
-283.530	448.898	-0.069	0.149
-282.516	106.477	-0.188	-0.220
-281.501	212.552	-0.055	-0.085
-280.486	278.992	0.025	-0.044
-279.472	34.775	-0.136	-0.117
-278.457	-94.329	-0.246	-0.066
-277.443	-124.578	0.172	0.026
-276.428	-3.210	-0.171	-0.118
-275.413	800.000	-0.097	-0.279
-274.399	180.438	0.190	-0.275
-273.384	437.222	0.120	0.258
-272.370	-13.500	0.195	0.125
-271.355	-36.431	-0.305	-0.162
-270.340	-29.453	-0.199	-0.112
-269.326	-200.000	-0.033	-0.207
-268.311	-54.000	0.179	0.080
-267.297	-200.000	0.044	0.377
-266.282	-31.332	0.112	0.062
-265.267	-78.301	0.153	0.052
-264.253	-200.000	0.004	0.042
-263.238	-179.284	-0.221	0.005
-262.224	212.579	-0.102	-0.158
-261.209	-200.000	0.005	-0.240
-260.195	-80.910	-0.153	0.050
-259.180	-144.272	-0.336	-0.031
-258.165	-28.608	0.298	-0.169
-257.151	169.085	-0.193	-0.272
-256.136	-200.000	-0.032	-0.166
-255.122	-200.000	0.000	-0.052
-254.107	-36.058	-0.154	0.082
-253.092	800.000	0.040	0.170
-252.078	-152.368	-0.267	-0.019
-251.063	80.465	0.071	0.075
-250.049	-200.000	-0.046	0.308
-249.034	800.000	-0.059	0.176
-248.019	800.000	-0.053	0.150
-247.005	-121.863	0.254	0.041
-245.990	-75.097	0.123	0.043
-244.976	62.588	0.116	-0.114
-243.961	800.000	0.011	0.036
-242.946	159.368	-0.180	-0.247
-241.932	332.655	0.190	-0.363
-240.917	-200.000	-0.024	-0.153
-239.903	28.587	-0.238	0.198
-238.888	800.000	0.017	0.052
-237.873	-200.000	-0.054	-0.365
-236.859	110.080	-0.096	0.114
-235.844	-12.901	0.112	0.072
-234.830	-23.829	0.281	-0.166
-233.815	-31.532	0.293	0.162
-232.800	-152.981	0.334	0.023
-231.786	-88.901	-0.235	0.069
-230.771	-104.623	-0.094	0.021
-229.757	-157.641	-0.297	-0.017
-228.742	5.294	-0.186	-0.135
-227.727	-85.756	0.313	0.096
-226.713	516.227	0.156	-0.359
-225.698	67.985	0.274	-0.276
-224.684	89.492	0.126	0.138
-223.669	-200.000	0.010	-0.067
-222.655	79.342	-0.221	0.233
-221.640	-140.310	-0.222	-0.023
-220.625	128.014	0.158	-0.198
-219.611	-14.901	0.328	-0.207
-218.596	800.000	0.091	-0.266
-217.582	29.083	0.206	0.173
-216.567	-115.302	-0.163	-0.030
-215.552	-23.148	0.096	0.057
-214.538	-46.149	0.291	-0.141
-213.523	-102.633	0.380	0.089
-212.509	-200.000	0.006	0.152
-211.494	-82.239	0.066	0.021
-210.479	382.045	0.064	-0.130
-209.465	745.174	-0.114	-0.302
-208.450	-200.000	0.072	-0.360
-207.436	-175.448	0.128	0.003
-206.421	-38.954	0.202	0.105
-205.406	50.141	-0.037	0.034
-204.392	-200.000	0.023	0.117
-203.377	35.259	0.185	0.160
-202.363	80.496	0.318	0.338
-201.348	-142.686	0.203	0.019
-200.333	452.323	0.108	-0.236
-199.319	7.193	-0.143	-0.105
-198.304	247.960	0.037	0.062
-197.290	-67.144	0.194	-0.075
-196.275	297.376	0.102	0.185
-195.260	-139.482	0.161	0.017
-194.246	-200.000	-0.001	-0.086
-193.231	255.003	0.152	-0.257
-192.217	218.845	0.088	-0.138
-191.202	-159.056	0.191	-0.011
-190.187	-149.037	0.192	0.015
-189.173	-200.000	0.021	-0.259
-188.158	-43.189	-0.289	-0.144
-187.144	94.142	0.031	-0.035
-186.129	-159.788	0.089	0.005
-185.114	-110.328	-0.239	0.049
-184.100	800.000	0.063	-0.257
-183.085	-130.240	-0.222	-0.030
-182.071	-77.266	0.154	0.053
-181.056	-145.596	0.337	0.030
-180.042	-160.339	0.139	-0.007
-179.027	65.015	-0.159	-0.158
-178.012	57.459	-0.174	0.167
-176.998	-15.975	-0.171	-0.107
-175.983	-200.000	0.007	-0.089
-174.969	5.062	0.131	0.095
-173.954	184.861	0.118	0.172
-172.939	-164.730	-0.202	0.009
-171.925	151.162	0.195	0.261
-170.910	159.179	0.052	0.071
-169.896	-20.271	-0.200	0.121
-168.881	-23.143	-0.298	-0.176
-167.866	-190.107	0.034	0.000
-166.852	-200.000	-0.026	-0.250
-165.837	109.378	0.096	0.113
-164.823	629.209	-0.230	0.573
-163.808	-200.000	-0.002	0.035
-162.793	159.608	0.081	0.111
-161.779	-200.000	-0.028	0.123
-160.764	-31.662	-0.477	0.263
-159.750	-200.000	0.021	-0.260
-158.735	-73.899	0.112	0.040
-157.720	417.788	-0.038	0.080
-156.706	370.436	-0.099	-0.197
-155.691	-117.071	-0.130	0.023
-154.677	-35.669	0.142	0.076
-153.662	-126.959	-0.105	0.015
-152.647	-55.609	-0.082	0.036
-151.633	-101.427	-0.379	-0.091
-150.618	576.431	0.054	0.129
-149.604	-104.934	-0.136	0.031
-148.589	770.678	-0.015	-0.040
-147.574	229.749	0.104	-0.167
-146.560	800.000	-0.036	-0.105
-145.545	-179.253	-0.316	0.007
-144.531	121.254	0.200	-0.245
-143.516	800.000	-0.033	-0.105
-142.502	-200.000	0.002	0.363
-141.487	29.495	0.139	-0.116
-140.472	398.981	0.057	-0.117
-139.458	65.984	-0.154	0.154
-138.443	71.555	-0.271	0.276
-137.429	-146.344	0.008	0.001
-136.414	-66.436	0.057	0.022
-135.399	-33.156	0.098	-0.053
-134.385	-57.115	0.276	-0.119
-133.370	-73.988	-0.241	0.086
-132.356	-85.001	-0.058	0.018
-131.341	689.275	-0.169	0.433
-130.326	-102.592	0.164	-0.038
-129.312	422.674	0.097	-0.205
-128.297	332.509	0.098	0.186
-127.283	-200.000	0.003	-0.112
-126.268	-200.000	0.009	-0.106
-125.253	-116.744	-0.412	-0.074
-124.239	381.325	0.072	0.144
-123.224	-165.789	-0.209	0.009
-122.210	11.645	0.246	0.185
-121.195	-51.747	-0.336	0.154
-120.180	-137.509	0.089	0.010
