DTS Sentinel unit serial number:	SN413079Multiplexer serial number:	ORYXHardware model number:	OX4-SRSoftware version number:	ORYX F/W v4.00 Oryx Data Collector v3.7.2.0data status	okinstallation	princeton_trtdifferential loss correction	single-endedforward channel	channel 1reverse channel	N/Adate	2019/09/12time	10:48:11forward acquisition time	60.00reverse acquisition time	0.00gamma	496.2192k internal	0.2295k external	0.2295temperature offset calibration	1.0047default loss term (dB/km)	0.3790temperature slope calibration	1.0000multiplexer offset coefficient	1.0000multiplexer slope coefficient	1.0000fibre end	0.00T internal ref (°C)	37.86T ext. ref 1 (°C)	1.91T ext. ref 2 (°C)	36.56length (m)	temperature (°C)	Stokes	anti-Stokes-747.200	84.201	0.141	0.158
-746.185	-81.546	0.276	0.093
-745.171	128.941	0.096	0.125
-744.156	57.143	-0.194	0.194
-743.142	800.000	-0.119	-0.339
-742.127	61.126	0.156	0.158
-741.112	-138.730	0.460	0.051
-740.098	294.685	-0.223	0.417
-739.083	82.688	0.242	-0.269
-738.069	189.078	-0.187	0.287
-737.054	-90.869	0.178	-0.052
-736.039	154.264	-0.182	-0.255
-735.025	800.000	0.104	0.419
-734.010	-23.271	-0.333	0.204
-732.996	-124.099	0.114	-0.018
-731.981	-133.708	-0.174	0.022
-730.966	-66.853	-0.018	-0.007
-729.952	353.583	-0.160	-0.324
-728.937	115.243	0.186	0.232
-727.923	800.000	-0.066	-0.213
-726.908	-91.486	0.030	0.009
-725.894	23.893	-0.229	-0.193
-724.879	-59.071	-0.554	-0.244
-723.864	-200.000	0.025	-0.192
-722.850	800.000	0.069	0.218
-721.835	-90.866	-0.031	-0.009
-720.821	578.245	-0.064	-0.160
-719.806	-43.513	-0.140	0.072
-718.791	-200.000	0.066	-0.423
-717.777	-196.786	-0.161	0.001
-716.762	-103.535	-0.240	-0.058
-715.748	543.831	0.169	-0.412
-714.733	69.814	0.103	0.109
-713.718	-119.378	0.090	-0.016
-712.704	-101.042	-0.122	-0.031
-711.689	-37.827	0.091	0.050
-710.675	45.910	0.197	-0.186
-709.660	452.244	0.059	-0.132
-708.645	2.830	0.368	-0.273
-707.631	345.545	-0.029	-0.058
-706.616	-18.829	0.041	0.026
-705.602	-11.223	-0.070	0.047
-704.587	800.000	-0.102	0.320
-703.572	-200.000	-0.006	0.368
-702.558	800.000	0.023	0.091
-701.543	-200.000	0.021	-0.142
-700.529	428.079	0.068	-0.151
-699.514	354.577	0.123	-0.250
-698.499	-200.000	-0.019	0.146
-697.485	-111.942	-0.321	-0.066
-696.470	-79.454	-0.075	0.026
-695.456	-146.576	-0.095	-0.008
-694.441	-13.164	0.064	0.042
-693.426	132.776	-0.173	-0.227
-692.412	-136.001	-0.188	0.023
-691.397	446.739	-0.089	-0.200
-690.383	155.050	-0.197	0.277
-689.368	5.143	0.355	-0.266
-688.354	-173.671	-0.160	0.005
-687.339	-87.263	-0.247	0.076
-686.324	120.070	0.146	0.185
-685.310	-57.165	-0.062	0.028
-684.295	18.295	-0.193	0.157
-683.281	27.350	0.198	0.169
-682.266	398.929	-0.062	-0.133
-681.251	680.593	0.089	0.238
-680.237	-23.299	-0.287	-0.176
-679.222	-15.425	0.124	-0.081
-678.208	-54.457	0.282	0.130
-677.193	-115.493	-0.223	-0.043
-676.178	-66.410	0.102	-0.041
-675.164	-134.527	0.296	0.037
-674.149	47.802	0.074	-0.070
-673.135	5.964	0.090	-0.068
-672.120	646.351	-0.119	-0.309
-671.105	30.904	-0.249	-0.217
-670.091	609.841	-0.127	-0.324
-669.076	-52.174	0.102	-0.048
-668.062	800.000	0.021	0.073
-667.047	48.652	0.266	-0.254
-666.032	-200.000	-0.004	0.204
-665.018	-200.000	-0.022	-0.177
-664.003	-56.176	-0.111	-0.050
-662.989	-163.512	0.257	-0.012
-661.974	-92.028	0.152	-0.044
-660.959	383.035	-0.110	-0.231
-659.945	240.824	-0.163	0.277
-658.930	-154.576	0.162	0.011
-657.916	800.000	0.091	0.260
-656.901	-200.000	-0.015	-0.084
-655.886	-117.638	-0.056	0.010
-654.872	221.754	0.062	-0.101
-653.857	-84.803	-0.333	0.107
-652.843	-30.258	-0.125	0.072
-651.828	51.854	0.123	0.119
-650.814	159.244	0.162	0.229
-649.799	67.774	0.279	-0.291
-648.784	800.000	0.051	-0.208
-647.770	800.000	-0.068	-0.248
-646.755	-200.000	0.007	-0.262
-645.741	167.797	-0.129	0.187
-644.726	800.000	0.031	-0.122
-643.711	-93.053	-0.364	0.103
-642.697	-112.287	-0.039	0.008
-641.682	-44.795	-0.266	0.135
-640.668	36.593	0.051	-0.046
-639.653	256.127	-0.058	0.101
-638.638	800.000	-0.076	0.329
-637.624	-200.000	-0.044	-0.229
-636.609	800.000	-0.066	0.287
-635.595	39.348	-0.110	-0.100
-634.580	-116.504	0.235	-0.044
-633.565	105.219	-0.131	0.158
-632.551	396.054	0.132	0.281
-631.536	24.970	-0.225	0.190
-630.522	258.685	0.200	-0.351
-629.507	490.661	-0.059	-0.137
-628.492	-69.945	-0.132	-0.051
-627.478	800.000	-0.032	0.097
-626.463	-75.691	0.118	-0.043
-625.449	99.091	-0.171	0.201
-624.434	696.382	-0.145	0.386
-623.419	316.359	-0.148	0.284
-622.405	598.401	-0.026	-0.065
-621.390	-74.807	0.365	-0.133
-620.376	-200.000	0.037	-0.198
-619.361	90.047	0.219	0.249
-618.346	65.081	0.102	-0.105
-617.332	286.297	0.097	-0.178
-616.317	-138.755	-0.246	-0.027
-615.303	-65.162	0.096	-0.040
-614.288	88.331	0.406	0.459
-613.273	-200.000	0.046	-0.366
-612.259	-200.000	-0.034	-0.275
-611.244	379.204	0.143	0.298
-610.230	-43.802	-0.243	-0.124
-609.215	98.379	-0.056	0.066
-608.201	-200.000	-0.011	0.166
-607.186	-200.000	-0.016	0.229
-606.171	800.000	0.080	-0.307
-605.157	7.783	-0.224	-0.170
-604.142	753.902	-0.105	0.288
-603.128	330.950	-0.050	0.097
-602.113	800.000	0.109	-0.326
-601.098	800.000	-0.062	-0.187
-600.084	485.972	-0.074	0.170
-599.069	-16.574	0.095	0.061
-598.055	74.246	-0.045	-0.048
-597.040	-123.959	0.183	0.029
-596.025	-200.000	0.035	-0.175
-595.011	129.882	-0.122	0.159
-593.996	-200.000	-0.038	0.268
-592.982	-200.000	-0.053	0.254
-591.967	800.000	0.038	-0.128
-590.952	-200.000	-0.019	0.204
-589.938	617.241	0.081	-0.205
-588.923	328.348	-0.057	0.111
-587.909	-200.000	0.002	-0.282
-586.894	-41.794	-0.251	-0.131
-585.879	4.324	0.384	-0.286
-584.865	161.787	-0.206	0.293
-583.850	166.470	-0.096	-0.139
-582.836	3.452	0.127	-0.094
-581.821	-200.000	-0.055	-0.247
-580.806	0.810	-0.166	-0.121
-579.792	161.088	-0.045	0.064
-578.777	224.063	0.186	-0.305
-577.763	-100.215	-0.152	0.038
-576.748	-64.573	0.199	0.082
-575.733	-155.808	-0.226	-0.015
-574.719	-114.121	-0.261	0.051
-573.704	121.294	0.207	-0.261
-572.690	454.288	0.039	-0.088
-571.675	148.315	0.179	-0.245
-570.661	80.344	0.172	0.188
-569.646	-200.000	-0.006	-0.508
-568.631	-200.000	0.051	-0.278
-567.617	-60.463	-0.141	-0.061
-566.602	-47.480	0.300	-0.148
-565.588	-32.894	-0.131	0.074
-564.573	220.568	0.105	0.171
-563.558	-127.730	-0.419	0.061
-562.544	-102.142	0.171	-0.042
-561.529	-87.982	-0.257	0.078
-560.515	143.982	0.235	0.318
-559.500	79.445	-0.029	0.031
-558.485	800.000	-0.034	-0.098
-557.471	-174.104	0.149	-0.004
-556.456	42.026	-0.287	0.264
-555.442	538.025	0.147	0.355
-554.427	800.000	-0.033	0.130
-553.412	-200.000	0.032	-0.384
-552.398	-121.650	0.197	-0.033
-551.383	557.188	-0.020	0.049
-550.369	800.000	-0.054	0.223
-549.354	49.430	-0.140	0.134
-548.339	45.645	-0.187	0.175
-547.325	-200.000	-0.014	-0.097
-546.310	166.714	0.132	0.190
-545.296	171.969	0.085	0.123
-544.281	157.879	0.104	0.146
-543.266	-67.442	0.280	-0.112
-542.252	-79.155	0.156	0.054
-541.237	-151.889	0.155	-0.012
-540.223	202.998	0.082	-0.128
-539.208	-99.432	0.366	0.093
-538.193	-81.630	-0.455	0.151
-537.179	88.489	0.108	0.121
-536.164	229.161	-0.271	-0.448
-535.150	449.365	-0.144	0.323
-534.135	800.000	0.092	0.355
-533.121	-174.235	-0.118	0.003
-532.106	57.296	0.224	-0.222
-531.091	-153.713	0.129	-0.009
-530.077	-40.523	-0.249	0.131
-529.062	486.414	0.063	-0.146
-528.048	-200.000	-0.067	-0.342
-527.033	-66.576	-0.205	-0.082
-526.018	-25.353	-0.129	-0.077
-525.004	-41.895	-0.062	0.032
-523.989	332.917	-0.095	0.185
-522.975	-200.000	0.001	-0.255
-521.960	411.009	0.110	0.237
-520.945	156.095	-0.119	-0.166
-519.931	800.000	-0.159	-0.649
-518.916	800.000	-0.025	-0.104
-517.902	-200.000	-0.022	-0.427
-516.887	-200.000	0.018	-0.344
-515.872	43.839	0.417	-0.387
-514.858	-87.872	-0.141	0.043
-513.843	-65.642	0.167	-0.068
-512.829	-28.043	-0.110	0.064
-511.814	14.602	0.154	0.122
-510.799	272.926	-0.035	0.062
-509.785	-41.050	0.231	-0.121
-508.770	165.477	0.066	0.094
-507.756	-80.622	0.173	0.058
-506.741	-5.031	-0.231	0.161
-505.726	800.000	0.075	-0.215
-504.712	800.000	-0.071	0.232
-503.697	164.752	-0.139	-0.199
-502.683	-41.865	-0.175	-0.091
-501.668	-200.000	-0.008	-0.349
-500.653	-200.000	0.104	0.529
-499.639	800.000	-0.013	-0.045
-498.624	-92.068	-0.313	-0.090
-497.610	318.655	0.082	-0.157
-496.595	297.034	-0.140	-0.260
-495.581	-98.605	-0.164	-0.042
-494.566	78.672	0.034	-0.037
-493.551	467.206	0.101	0.230
-492.537	78.509	0.172	0.186
-491.522	-16.152	0.172	0.111
-490.508	-20.741	-0.214	0.133
-489.493	-32.014	-0.112	-0.064
-488.478	-78.732	0.022	0.007
-487.464	-200.000	-0.025	0.249
-486.449	-200.000	-0.051	-0.261
-485.435	-134.882	0.369	0.045
-484.420	160.481	0.181	-0.256
-483.405	120.841	-0.072	-0.091
-482.391	635.166	0.032	-0.082
-481.376	156.274	-0.274	-0.382
-480.362	-184.197	-0.242	0.004
-479.347	75.962	0.038	-0.041
-478.332	187.914	0.223	0.337
-477.318	-200.000	0.003	-0.286
-476.303	242.513	-0.081	0.138
-475.289	-103.511	0.258	0.061
-474.274	-200.000	0.013	0.091
-473.259	57.325	-0.135	-0.133
-472.245	175.965	-0.204	0.299
-471.230	-200.000	-0.004	-0.190
-470.216	800.000	0.136	0.458
-469.201	-200.000	0.018	0.146
-468.186	-176.271	0.150	-0.004
-467.172	78.419	-0.129	-0.139
-466.157	485.901	0.127	-0.292
-465.143	-78.291	0.134	-0.047
-464.128	292.163	0.062	0.114
-463.113	-37.313	0.168	-0.091
-462.099	-141.655	0.056	0.006
-461.084	-27.602	0.199	-0.117
-460.070	-200.000	0.026	-0.183
-459.055	800.000	-0.082	0.250
-458.040	-36.078	-0.276	0.151
-457.026	-147.471	0.104	0.009
-456.011	10.981	0.054	0.041
-454.997	-82.920	0.114	-0.037
-453.982	77.777	0.104	-0.112
-452.968	-83.830	0.052	0.017
-451.953	113.582	0.107	-0.131
-450.938	-9.549	-0.176	0.119
-449.924	-200.000	-0.025	0.125
-448.909	349.917	0.107	0.214
-447.895	-28.352	-0.374	-0.218
-446.880	-200.000	0.012	0.144
-445.865	176.136	-0.048	-0.071
-444.851	170.994	0.055	0.079
-443.836	128.963	-0.108	0.139
-442.822	161.492	0.060	0.085
-441.807	111.044	-0.046	-0.056
-440.792	-119.178	-0.400	-0.071
-439.778	800.000	-0.051	0.174
-438.763	-38.810	-0.290	0.154
-437.749	190.251	-0.145	-0.219
-436.734	-148.153	-0.122	0.010
-435.719	-70.982	-0.263	0.100
-434.705	-108.140	-0.180	0.039
-433.690	177.542	0.128	0.188
-432.676	55.967	0.073	-0.071
-431.661	-4.025	-0.118	-0.083
-430.646	-161.826	0.096	-0.005
-429.632	-200.000	-0.301	0.001
-428.617	-200.000	0.018	-0.337
-427.603	800.000	0.040	-0.165
-426.588	239.908	-0.159	-0.267
-425.573	40.512	0.190	0.173
-424.559	128.164	0.174	-0.224
-423.544	-111.323	0.078	0.016
-422.530	-94.810	0.214	-0.059
-421.515	800.000	0.058	0.215
-420.500	320.669	-0.269	-0.515
-419.486	668.844	0.094	0.246
-418.471	77.897	-0.210	0.226
-417.457	121.101	0.114	-0.143
-416.442	145.445	0.118	-0.159
-415.428	26.866	0.077	-0.065
-414.413	-200.000	0.111	-0.595
-413.398	-200.000	0.024	-0.277
-412.384	-14.136	0.325	-0.211
-411.369	106.899	0.430	-0.516
-410.355	-55.891	-0.090	0.040
-409.340	782.653	0.034	0.095
-408.325	-122.233	0.149	-0.025
-407.311	233.823	-0.107	-0.177
-406.296	-115.301	0.282	-0.054
-405.282	-33.373	-0.173	0.097
-404.267	-200.000	0.008	0.365
-403.252	-200.000	-0.006	0.149
-402.238	272.791	-0.100	0.178
-401.223	800.000	-0.057	-0.248
-400.209	800.000	-0.027	0.088
-399.194	-200.000	-0.059	0.545
-398.179	800.000	0.089	0.304
-397.165	-139.046	-0.280	0.031
-396.150	-87.574	0.320	0.097
-395.136	618.481	0.152	0.386
-394.121	24.312	0.388	0.323
-393.106	-200.000	0.012	0.166
-392.092	232.191	0.129	-0.214
-391.077	313.365	0.150	-0.284
-390.063	71.616	0.141	-0.148
-389.048	1.221	0.123	-0.089
-388.033	-66.429	-0.263	-0.105
-387.019	182.012	0.050	0.074
-386.004	-28.175	-0.273	0.159
-384.990	-52.977	0.125	-0.058
-383.975	-71.707	0.053	-0.020
-382.960	-59.688	-0.388	-0.168
-381.946	34.602	-0.243	-0.214
-380.931	-5.157	0.151	0.104
-379.917	-200.000	0.022	-0.109
-378.902	-58.904	-0.250	0.109
-377.888	-200.000	-0.017	-0.105
-376.873	-173.904	-0.111	0.003
-375.858	-53.310	-0.131	0.061
-374.844	800.000	0.031	0.121
-373.829	800.000	-0.035	-0.154
-372.815	-200.000	-0.021	0.211
-371.800	-200.000	0.058	-0.371
-370.785	-200.000	-0.006	0.210
-369.771	-132.411	-0.383	-0.050
-368.756	-200.000	0.009	-0.482
-367.742	143.179	0.220	-0.295
-366.727	671.081	0.116	-0.302
-365.712	800.000	-0.076	-0.215
-364.698	288.672	-0.189	0.344
-363.683	-181.832	-0.364	-0.007
-362.669	-200.000	-0.022	-0.129
-361.654	116.200	0.176	-0.217
-360.639	800.000	-0.066	0.242
-359.625	21.892	0.098	-0.080
-358.610	-155.706	0.245	-0.016
-357.596	721.841	-0.072	0.194
-356.581	4.718	-0.076	-0.056
-355.566	-82.990	0.066	0.021
-354.552	-200.000	0.019	0.087
-353.537	-43.750	0.065	-0.033
-352.523	-11.408	0.190	-0.126
-351.508	-200.000	-0.041	0.236
-350.493	27.488	-0.215	-0.182
-349.479	-200.000	0.008	0.062
-348.464	570.788	0.050	-0.122
-347.450	-200.000	0.003	-0.175
-346.435	-31.122	-0.148	-0.084
-345.420	97.572	-0.122	-0.141
-344.406	-55.209	-0.095	0.043
-343.391	-157.981	-0.206	-0.012
-342.377	26.877	0.036	-0.030
-341.362	88.685	-0.172	-0.192
-340.348	-75.028	0.056	0.020
-339.333	-170.759	0.245	-0.008
-338.318	-42.351	0.165	0.085
-337.304	786.568	0.059	-0.163
-336.289	185.503	0.214	0.320
-335.275	4.279	-0.292	0.215
-334.260	-200.000	-0.006	0.117
-333.245	-101.115	0.135	-0.033
-332.231	800.000	0.088	0.278
-331.216	259.292	0.074	0.128
-330.202	26.264	0.071	0.060
-329.187	312.290	0.048	-0.091
-328.172	-75.220	-0.111	-0.040
-327.158	-12.082	-0.086	0.057
-326.143	158.020	-0.235	0.328
-325.129	800.000	0.009	-0.026
-324.114	184.796	-0.045	-0.067
-323.099	147.587	0.202	0.274
-322.085	-113.674	0.078	0.015
-321.070	-122.383	-0.068	-0.011
-320.056	-27.442	-0.284	-0.166
-319.041	-53.547	-0.193	-0.089
-318.026	800.000	-0.021	-0.059
-317.012	800.000	0.131	-0.421
-315.997	80.047	0.121	-0.131
-314.983	-74.254	-0.013	0.005
-313.968	-104.517	-0.039	-0.009
-312.953	32.274	-0.022	-0.019
-311.939	505.180	-0.149	-0.346
-310.924	-200.000	-0.012	0.508
-309.910	-185.450	0.374	-0.006
-308.895	-10.480	-0.167	0.111
-307.880	800.000	-0.053	-0.207
-306.866	-200.000	0.014	-0.088
-305.851	-10.451	-0.208	0.138
-304.837	58.828	0.142	-0.140
-303.822	-149.592	0.157	-0.012
-302.807	692.542	-0.059	0.155
-301.793	135.499	0.148	0.193
-300.778	-200.000	-0.040	0.237
-299.764	-16.198	0.325	0.207
-298.749	308.462	0.034	0.064
-297.735	18.763	0.239	0.192
-296.720	-84.782	-0.131	-0.041
-295.705	800.000	0.072	0.221
-294.691	-200.000	0.008	-0.171
-293.676	-200.000	-0.016	-0.355
-292.662	-84.352	-0.377	-0.120
-291.647	-91.275	-0.112	-0.032
-290.632	-65.935	0.133	0.053
-289.618	-200.000	0.068	0.439
-288.603	173.454	-0.116	0.168
-287.589	800.000	0.044	0.142
-286.574	-200.000	0.026	-0.163
-285.559	175.844	-0.172	0.250
-284.545	800.000	0.065	-0.198
-283.530	-108.295	-0.145	0.032
-282.516	-200.000	0.000	-0.133
-281.501	-23.224	0.177	0.107
-280.486	129.009	0.068	-0.087
-279.472	800.000	-0.014	0.049
-278.457	-200.000	0.006	-0.059
-277.443	-103.894	-0.086	0.020
-276.428	-14.384	-0.061	0.039
-275.413	-121.102	-0.222	-0.037
-274.399	208.862	0.142	0.223
-273.384	-146.481	0.169	-0.015
-272.370	167.594	0.319	0.454
-271.355	19.681	0.341	-0.275
-270.340	-116.122	-0.105	-0.020
-269.326	377.657	-0.085	-0.174
-268.311	-200.000	0.046	-0.292
-267.297	186.412	-0.082	-0.122
-266.282	-38.286	-0.250	0.133
-265.267	-68.855	-0.250	-0.097
-264.253	-97.667	-0.236	0.061
-263.238	166.406	0.135	-0.191
-262.224	-83.849	0.315	0.101
-261.209	54.053	-0.086	-0.083
-260.195	-200.000	0.002	0.014
-259.180	-12.241	-0.129	0.084
-258.165	475.289	-0.038	-0.086
-257.151	373.886	0.045	-0.091
-256.136	-2.812	0.169	0.118
-255.122	136.321	-0.151	0.198
-254.107	-200.000	-0.001	0.046
-253.092	-200.000	0.025	0.119
-252.078	-200.000	0.023	0.138
-251.063	71.087	0.159	-0.165
-250.049	662.970	0.120	0.309
-249.034	8.546	0.119	-0.090
-248.019	79.433	-0.156	0.168
-247.005	-77.987	0.237	0.082
-245.990	39.873	-0.215	0.194
-244.976	-85.471	0.296	-0.092
-243.961	196.837	-0.205	0.314
-242.946	-200.000	0.000	-0.007
-241.932	-57.365	0.064	0.028
-240.917	-200.000	0.109	0.479
-239.903	-84.327	0.070	0.022
-238.888	39.492	-0.199	0.179
-237.873	12.557	-0.237	-0.183
-236.859	-33.162	-0.231	-0.128
-235.844	2.688	0.031	0.022
-234.830	117.694	-0.193	0.238
-233.815	76.190	-0.193	0.205
-232.800	24.399	-0.169	-0.140
-231.786	-98.108	0.205	0.053
-230.771	-1.583	0.145	0.102
-229.757	-200.000	0.015	-0.122
-228.742	209.429	-0.129	-0.203
-227.727	-87.070	0.181	-0.055
-226.713	129.685	-0.098	-0.125
-225.698	-5.018	0.078	0.054
-224.684	52.103	0.169	-0.162
-223.669	800.000	0.062	0.230
-222.655	-134.289	0.308	-0.038
-221.640	-32.012	-0.276	0.155
-220.625	-200.000	0.029	0.133
-219.611	-118.288	0.222	0.040
-218.596	-44.335	-0.185	-0.093
-217.582	2.280	0.191	0.138
-216.567	-109.124	-0.060	0.013
-215.552	-200.000	-0.006	-0.258
-214.538	249.329	-0.071	-0.120
-213.523	800.000	0.091	-0.288
-212.509	-200.000	-0.034	0.313
-211.494	-127.244	-0.237	0.035
-210.479	80.593	0.141	0.152
-209.465	389.195	-0.168	0.349
-208.450	-35.721	0.265	-0.144
-207.436	681.005	0.139	-0.362
-206.421	205.795	-0.051	-0.079
-205.406	-200.000	0.007	0.063
-204.392	30.394	-0.369	-0.316
-203.377	-89.905	-0.090	0.026
-202.363	-143.986	0.225	-0.021
-201.348	39.820	0.134	-0.120
-200.333	20.594	-0.088	0.071
-199.319	800.000	-0.012	0.044
-198.304	194.769	-0.175	0.266
-197.290	524.189	-0.097	0.228
-196.275	495.546	-0.100	0.230
-195.260	-200.000	-0.016	0.424
-194.246	-200.000	-0.069	0.394
-193.231	-107.833	-0.376	0.082
-192.217	520.259	0.086	0.201
-191.202	800.000	-0.095	0.325
-190.187	-200.000	-0.042	-0.219
-189.173	-48.147	0.181	0.088
-188.158	366.728	-0.175	-0.352
-187.144	82.773	0.331	-0.360
-186.129	215.509	0.184	-0.292
-185.114	11.040	0.264	0.202
-184.100	-200.000	-0.021	0.113
-183.085	2.109	0.263	0.190
-182.071	-97.468	-0.074	0.019
-181.056	800.000	0.074	0.212
-180.042	-200.000	0.032	-0.209
-179.027	84.076	-0.155	-0.170
-178.012	-166.083	0.329	0.014
-176.998	-13.408	-0.149	0.097
-175.983	-200.000	0.034	-0.320
-174.969	7.928	-0.254	-0.190
-173.954	-75.987	0.096	-0.034
-172.939	-78.642	-0.095	-0.032
-171.925	-200.000	0.027	0.396
-170.910	403.371	0.106	0.222
-169.896	247.477	-0.029	-0.048
-168.881	193.108	0.028	0.042
-167.866	-200.000	-0.019	0.124
-166.852	-108.926	0.293	0.063
-165.837	-162.091	0.332	0.017
-164.823	170.521	0.100	-0.143
-163.808	-200.000	-0.044	0.269
-162.793	547.071	0.113	-0.270
-161.779	-200.000	0.015	-0.133
-160.764	800.000	-0.135	0.420
-159.750	91.702	-0.073	0.082
-158.735	800.000	0.028	0.102
-157.720	54.366	0.115	0.110
-156.706	306.910	-0.152	-0.282
-155.691	97.403	0.047	-0.054
-154.677	-200.000	0.008	0.097
-153.662	-200.000	-0.003	-0.196
-152.647	-61.599	-0.137	0.057
-151.633	-39.408	0.090	-0.047
-150.618	-16.019	0.187	0.119
-149.604	-5.804	-0.281	0.192
-148.589	98.670	0.182	-0.209
-147.574	-101.406	0.089	-0.022
-146.560	-65.272	0.339	-0.136
-145.545	-200.000	0.006	-0.073
-144.531	-77.606	0.302	0.104
-143.516	-171.804	0.026	-0.001
-142.502	-200.000	0.008	0.052
-141.487	-36.947	-0.218	0.117
-140.472	-200.000	0.035	0.156
-139.458	145.654	0.253	0.338
-138.443	-45.798	-0.350	-0.172
-137.429	-80.418	-0.085	-0.028
-136.414	-200.000	0.031	0.355
-135.399	299.372	-0.100	0.184
-134.385	-132.259	-0.190	-0.025
-133.370	0.594	0.218	0.156
-132.356	-32.610	-0.254	-0.141
-131.341	611.105	0.195	-0.488
-130.326	-96.484	0.190	-0.050
-129.312	85.260	0.170	0.186
-128.297	-120.738	-0.282	-0.048
-127.283	-126.618	-0.185	0.027
-126.268	800.000	-0.032	0.119
-125.253	-41.611	-0.059	-0.030
-124.239	5.763	0.141	0.104
-123.224	-129.571	0.238	0.033
-122.210	-131.544	-0.097	-0.013
-121.195	-176.220	0.106	-0.003
-120.180	-57.957	0.202	0.088
