DTS Sentinel unit serial number:	SN413079Multiplexer serial number:	ORYXHardware model number:	OX4-SRSoftware version number:	ORYX F/W v4.00 Oryx Data Collector v3.7.2.0data status	okinstallation	princeton_trtdifferential loss correction	single-endedforward channel	channel 1reverse channel	N/Adate	2019/09/17time	17:50:35forward acquisition time	60.00reverse acquisition time	0.00gamma	496.2192k internal	0.2292k external	0.2292temperature offset calibration	0.9951default loss term (dB/km)	0.3790temperature slope calibration	1.0000multiplexer offset coefficient	1.0000multiplexer slope coefficient	1.0000fibre end	0.00T internal ref (°C)	43.45T ext. ref 1 (°C)	0.34T ext. ref 2 (°C)	38.82length (m)	temperature (°C)	Stokes	anti-Stokes-747.200	356.725	-0.024	0.049
-746.185	602.066	-0.112	0.285
-745.171	-106.243	-0.212	-0.049
-744.156	54.852	-0.189	0.187
-743.142	800.000	-0.072	0.268
-742.127	654.904	0.070	0.184
-741.112	800.000	-0.091	-0.259
-740.098	-200.000	-0.069	0.454
-739.083	292.296	0.241	-0.450
-738.069	326.535	-0.106	0.208
-737.054	-10.148	0.116	-0.079
-736.039	-55.720	0.165	0.075
-735.025	134.174	-0.095	0.126
-734.010	4.814	-0.166	-0.125
-732.996	-200.000	-0.073	-0.379
-731.981	-20.371	0.348	-0.219
-730.966	-191.004	-0.153	-0.002
-729.952	-82.757	0.317	-0.105
-728.937	-123.107	-0.200	-0.033
-727.923	-55.877	-0.176	0.080
-726.908	-78.288	-0.138	0.048
-725.894	183.658	-0.081	-0.122
-724.879	800.000	-0.065	-0.223
-723.864	186.335	-0.179	0.273
-722.850	-200.000	-0.015	-0.370
-721.835	800.000	-0.030	0.105
-720.821	-50.833	-0.160	-0.077
-719.806	-81.915	0.237	0.079
-718.791	-142.779	0.391	-0.039
-717.777	-175.801	-0.071	-0.002
-716.762	98.014	0.108	-0.127
-715.748	-90.929	0.321	-0.094
-714.733	46.422	-0.116	-0.110
-713.718	800.000	0.033	0.148
-712.704	134.344	0.059	0.078
-711.689	-18.283	0.155	-0.099
-710.675	-200.000	0.013	0.213
-709.660	-96.458	-0.179	-0.048
-708.645	800.000	0.100	-0.309
-707.631	800.000	-0.013	-0.043
-706.616	593.984	0.046	-0.117
-705.602	-66.473	0.150	0.061
-704.587	12.799	0.061	0.048
-703.572	304.882	0.115	0.218
-702.558	4.612	0.068	-0.051
-701.543	160.971	0.232	0.332
-700.529	102.602	0.262	-0.313
-699.514	800.000	-0.055	0.170
-698.499	800.000	-0.066	-0.280
-697.485	-73.641	-0.108	0.040
-696.470	10.153	-0.262	0.204
-695.456	-200.000	0.017	-0.089
-694.441	157.712	0.213	0.301
-693.426	-97.840	-0.213	0.056
-692.412	-109.524	-0.247	-0.053
-691.397	285.726	0.048	0.088
-690.383	216.969	-0.135	0.219
-689.368	109.515	0.072	-0.089
-688.354	-133.029	-0.229	-0.030
-687.339	-138.834	-0.258	-0.029
-686.324	-155.631	-0.086	0.006
-685.310	-16.404	-0.253	0.164
-684.295	-200.000	0.005	0.026
-683.281	58.352	0.204	-0.205
-682.266	120.155	0.056	-0.071
-681.251	-33.035	0.035	-0.020
-680.237	-200.000	0.030	0.256
-679.222	42.716	-0.074	-0.069
-678.208	48.506	-0.189	0.180
-677.193	-2.402	-0.289	-0.207
-676.178	-200.000	-0.069	-0.422
-675.164	-200.000	0.003	0.029
-674.149	-200.000	0.002	-0.033
-673.135	-86.897	0.152	-0.047
-672.120	-161.062	0.106	-0.006
-671.105	4.111	-0.173	-0.129
-670.091	456.240	0.260	0.588
-669.076	242.683	0.191	0.326
-668.062	112.706	-0.098	-0.121
-667.047	82.289	0.043	0.048
-666.032	-134.541	0.046	-0.006
-665.018	-200.000	-0.054	-0.292
-664.003	144.499	0.192	0.262
-662.989	-62.974	-0.171	0.072
-661.974	-200.000	0.011	-0.070
-660.959	-200.000	-0.011	-0.059
-659.945	59.592	-0.232	0.234
-658.930	13.826	0.299	0.237
-657.916	-200.000	-0.003	-0.112
-656.901	-150.285	0.149	-0.012
-655.886	-31.972	0.100	-0.057
-654.872	-200.000	-0.007	-0.215
-653.857	-125.876	-0.095	0.015
-652.843	9.852	0.444	-0.344
-651.828	-2.299	-0.125	-0.090
-650.814	0.315	0.148	-0.108
-649.799	97.738	-0.082	0.096
-648.784	-200.000	0.005	0.157
-647.770	127.740	0.098	-0.128
-646.755	92.940	-0.104	-0.120
-645.741	-46.366	-0.198	-0.099
-644.726	-75.079	-0.188	0.069
-643.711	-63.264	-0.414	0.174
-642.697	800.000	-0.024	0.081
-641.682	-200.000	-0.011	-0.057
-640.668	1.678	0.139	-0.102
-639.653	800.000	0.080	-0.263
-638.638	-32.492	0.260	0.148
-637.624	7.819	-0.098	-0.075
-636.609	800.000	0.099	-0.314
-635.595	-21.312	0.173	0.108
-634.580	127.035	-0.163	0.211
-633.565	-48.256	-0.341	0.168
-632.551	-92.459	0.215	-0.062
-631.536	248.943	-0.145	-0.251
-630.522	-110.538	0.039	0.008
-629.507	142.821	0.042	-0.056
-628.492	70.868	-0.150	-0.158
-627.478	-200.000	0.016	0.113
-626.463	800.000	0.071	0.206
-625.449	-50.021	-0.058	-0.028
-624.434	-133.389	-0.516	0.066
-623.419	341.394	-0.140	-0.279
-622.405	13.401	-0.200	0.158
-621.390	-64.542	0.103	0.043
-620.376	-200.000	0.126	-0.597
-619.361	-75.948	0.245	-0.088
-618.346	17.716	0.039	-0.032
-617.332	162.319	-0.056	-0.081
-616.317	102.444	0.132	0.158
-615.303	61.155	-0.074	-0.075
-614.288	-120.809	-0.485	-0.083
-613.273	-37.485	-0.239	0.130
-612.259	397.188	0.118	-0.252
-611.244	800.000	-0.021	-0.075
-610.230	33.072	-0.286	-0.253
-609.215	-200.000	0.033	0.270
-608.201	289.624	-0.153	0.283
-607.186	-7.574	0.149	-0.103
-606.171	-200.000	-0.004	-0.124
-605.157	800.000	-0.071	-0.293
-604.142	48.310	0.097	-0.093
-603.128	800.000	0.090	-0.273
-602.113	-200.000	-0.032	-0.175
-601.098	157.371	-0.091	-0.128
-600.084	51.716	0.088	-0.085
-599.069	-35.712	-0.056	0.031
-598.055	-10.490	0.107	-0.072
-597.040	-200.000	0.001	-0.262
-596.025	115.455	-0.148	0.184
-595.011	800.000	-0.101	-0.365
-593.996	-143.342	-0.134	-0.013
-592.982	160.607	-0.052	0.074
-591.967	-71.324	0.255	-0.097
-590.952	179.895	-0.216	-0.321
-589.938	-42.877	-0.080	-0.041
-588.923	514.558	-0.129	0.307
-587.909	131.689	0.161	-0.211
-586.894	-105.891	0.368	-0.085
-585.879	503.639	-0.065	-0.153
-584.865	-200.000	0.061	0.298
-583.850	-200.000	0.024	0.258
-582.836	-200.000	0.023	-0.135
-581.821	89.341	0.144	0.164
-580.806	-137.387	-0.063	0.007
-579.792	55.327	0.090	-0.089
-578.777	800.000	0.136	-0.446
-577.763	651.275	-0.145	0.379
-576.748	-174.335	-0.283	0.008
-575.733	-68.793	-0.347	0.136
-574.719	-101.259	-0.077	-0.019
-573.704	91.215	0.145	-0.166
-572.690	-200.000	0.000	0.180
-571.675	-70.227	0.095	0.037
-570.661	-200.000	-0.020	0.520
-569.646	-106.411	0.139	-0.032
-568.631	542.372	0.057	-0.138
-567.617	257.425	0.090	-0.157
-566.602	323.776	0.036	-0.070
-565.588	137.959	0.234	-0.312
-564.573	-120.206	-0.364	-0.063
-563.558	2.137	-0.123	0.090
-562.544	-80.063	0.361	-0.123
-561.529	210.581	0.059	-0.094
-560.515	-93.382	-0.244	0.069
-559.500	-179.565	-0.295	-0.007
-558.485	-101.908	0.384	-0.094
-557.471	-93.476	0.108	0.030
-556.456	192.152	0.208	0.318
-555.442	181.962	-0.219	-0.327
-554.427	227.074	0.140	-0.231
-553.412	-48.102	0.283	-0.139
-552.398	27.314	-0.163	-0.139
-551.383	-111.273	-0.145	-0.030
-550.369	-200.000	0.002	0.036
-549.354	800.000	-0.039	0.156
-548.339	800.000	-0.030	-0.086
-547.325	593.636	-0.064	-0.162
-546.310	-200.000	-0.006	-0.131
-545.296	800.000	-0.016	0.064
-544.281	800.000	0.118	0.442
-543.266	-51.963	-0.296	-0.140
-542.252	800.000	0.051	-0.216
-541.237	83.048	-0.233	0.258
-540.223	-114.899	-0.227	0.044
-539.208	76.679	-0.177	0.190
-538.193	-88.622	-0.177	0.054
-537.179	-200.000	-0.010	0.121
-536.164	-11.003	-0.093	0.062
-535.150	-72.945	-0.343	0.128
-534.135	146.684	-0.147	0.201
-533.121	-200.000	-0.318	-0.001
-532.106	-26.458	-0.145	-0.086
-531.091	384.233	0.129	-0.271
-530.077	800.000	-0.045	0.133
-529.062	-200.000	-0.002	-0.158
-528.048	-151.711	0.469	0.035
-527.033	-11.248	0.223	-0.149
-526.018	800.000	0.080	-0.262
-525.004	80.636	0.149	-0.163
-523.989	800.000	0.084	0.243
-522.975	-25.852	-0.290	0.174
-521.960	232.799	-0.053	0.088
-520.945	-146.807	0.351	-0.031
-519.931	-134.419	0.164	-0.020
-518.916	236.254	0.189	0.318
-517.902	-200.000	-0.025	0.215
-516.887	1.291	0.264	-0.192
-515.872	800.000	0.045	-0.133
-514.858	-200.000	-0.024	-0.213
-513.843	-176.957	0.192	-0.005
-512.829	-142.174	-0.375	-0.038
-511.814	198.511	0.230	-0.357
-510.799	-27.264	0.292	0.173
-509.785	-53.424	-0.139	-0.064
-508.770	-182.828	0.318	-0.006
-507.756	-63.137	-0.180	-0.075
-506.741	800.000	-0.076	-0.237
-505.726	-118.442	-0.237	-0.043
-504.712	-86.622	-0.051	0.016
-503.697	-137.714	-0.271	0.031
-502.683	470.217	-0.028	-0.064
-501.668	-160.767	0.058	-0.003
-500.653	-97.068	0.389	-0.103
-499.639	-34.358	-0.256	-0.143
-498.624	-113.268	-0.189	-0.038
-497.610	58.782	-0.247	0.246
-496.595	-200.000	0.043	-0.246
-495.581	800.000	0.102	0.341
-494.566	800.000	-0.107	0.322
-493.551	-64.043	0.133	-0.055
-492.537	113.649	-0.195	0.240
-491.522	-72.723	-0.180	0.067
-490.508	160.361	0.112	-0.159
-489.493	-14.842	-0.117	0.076
-488.478	-111.305	0.382	0.079
-487.464	65.004	-0.118	0.121
-486.449	-80.380	-0.190	0.064
-485.435	253.802	0.034	-0.058
-484.420	-200.000	-0.058	0.357
-483.405	93.756	0.125	0.144
-482.391	-98.400	0.197	-0.051
-481.376	-200.000	-0.066	-0.612
-480.362	-83.351	-0.124	-0.040
-479.347	116.118	-0.052	0.065
-478.332	424.035	0.102	0.221
-477.318	52.077	-0.009	0.009
-476.303	-1.119	0.263	-0.189
-475.289	-1.367	-0.262	-0.187
-474.274	762.156	-0.024	-0.065
-473.259	-113.269	-0.118	0.023
-472.245	800.000	-0.095	0.371
-471.230	-200.000	-0.024	0.219
-470.216	-200.000	0.022	-0.185
-469.201	800.000	-0.121	-0.391
-468.186	-200.000	-0.036	-0.236
-467.172	-135.240	0.204	-0.025
-466.157	349.227	-0.050	0.099
-465.143	-45.398	-0.234	0.118
-464.128	-200.000	-0.092	0.000
-463.113	78.994	-0.106	-0.115
-462.099	123.628	-0.016	-0.020
-461.084	-151.685	-0.173	0.013
-460.070	-200.000	0.015	0.277
-459.055	-182.672	0.242	0.004
-458.040	-89.629	-0.314	-0.093
-457.026	-61.564	-0.231	-0.098
-456.011	-200.000	0.027	-0.168
-454.997	211.579	0.033	-0.053
-453.982	138.844	-0.032	-0.043
-452.968	-69.843	0.064	0.025
-451.953	-200.000	-0.038	0.199
-450.938	129.994	0.096	0.124
-449.924	-98.932	0.173	-0.045
-448.909	-115.857	0.280	-0.053
-447.895	-119.678	0.257	0.045
-446.880	211.881	-0.061	-0.098
-445.865	187.622	-0.100	-0.151
-444.851	-200.000	-0.017	-0.352
-443.836	-107.716	-0.293	0.065
-442.822	59.146	0.133	0.132
-441.807	-200.000	0.022	-0.263
-440.792	-200.000	0.051	-0.255
-439.778	-200.000	-0.008	-0.201
-438.763	236.955	-0.207	-0.346
-437.749	-200.000	0.026	-0.263
-436.734	-200.000	0.060	-0.486
-435.719	-172.819	0.142	-0.004
-434.705	-200.000	0.017	0.180
-433.690	396.013	0.136	-0.286
-432.676	-15.599	0.090	-0.058
-431.661	131.627	0.267	-0.347
-430.646	-34.716	0.100	-0.055
-429.632	296.231	-0.178	0.329
-428.617	-200.000	0.013	0.067
-427.603	94.036	-0.161	0.184
-426.588	23.920	0.086	0.071
-425.573	-200.000	-0.044	-0.518
-424.559	-200.000	-0.008	0.401
-423.544	97.019	-0.188	0.218
-422.530	-69.417	0.186	0.072
-421.515	52.894	-0.094	-0.091
-420.500	36.534	0.192	0.172
-419.486	-7.885	-0.258	0.176
-418.471	603.823	0.060	0.150
-417.457	181.459	-0.103	0.153
-416.442	106.351	-0.123	0.147
-415.428	75.019	-0.021	-0.022
-414.413	90.406	0.156	-0.176
-413.398	21.777	-0.139	0.114
-412.384	-51.419	-0.242	0.114
-411.369	372.240	0.037	0.077
-410.355	-200.000	-0.003	0.226
-409.340	-110.712	0.401	0.084
-408.325	-93.340	-0.439	-0.123
-407.311	-200.000	-0.050	0.303
-406.296	50.118	0.269	0.257
-405.282	800.000	-0.038	-0.156
-404.267	158.639	0.199	0.279
-403.252	800.000	0.071	-0.253
-402.238	131.112	0.051	-0.066
-401.223	-28.425	0.281	-0.164
-400.209	800.000	0.016	0.068
-399.194	113.072	-0.095	-0.117
-398.179	-79.852	-0.124	0.042
-397.165	-200.000	-0.025	-0.267
-396.150	-200.000	-0.022	0.210
-395.136	-63.061	-0.301	-0.126
-394.121	-200.000	0.007	0.114
-393.106	334.214	-0.128	-0.250
-392.092	-102.293	0.082	-0.020
-391.077	-200.000	0.013	0.065
-390.063	69.952	0.304	-0.317
-389.048	72.810	0.193	-0.203
-388.033	353.423	0.058	0.116
-387.019	-30.394	0.046	-0.026
-386.004	-200.000	0.007	0.232
-384.990	-36.970	0.154	0.083
-383.975	480.856	-0.056	0.127
-382.960	83.829	0.278	-0.307
-381.946	-112.897	-0.103	-0.021
-380.931	354.926	-0.061	-0.123
-379.917	-121.351	-0.139	0.023
-378.902	800.000	-0.038	0.168
-377.888	48.089	0.157	0.148
-376.873	187.061	-0.085	-0.128
-375.858	-82.014	0.279	0.092
-374.844	-200.000	-0.012	0.067
-373.829	800.000	-0.056	0.190
-372.815	-200.000	-0.003	-0.094
-371.800	230.822	0.068	-0.113
-370.785	-63.134	-0.134	-0.056
-369.771	19.137	0.031	-0.025
-368.756	66.919	0.099	-0.101
-367.742	-82.069	-0.101	-0.033
-366.727	328.481	0.096	-0.187
-365.712	-108.874	-0.283	0.061
-364.698	4.454	0.263	0.195
-363.683	247.192	-0.055	0.093
-362.669	-83.908	0.278	0.089
-361.654	131.103	0.125	-0.162
-360.639	-200.000	-0.002	-0.219
-359.625	800.000	0.034	-0.102
-358.610	800.000	0.072	-0.290
-357.596	-133.388	-0.179	0.023
-356.581	-200.000	0.001	0.014
-355.566	800.000	0.072	-0.219
-354.552	399.022	0.192	-0.406
-353.537	-200.000	0.077	0.000
-352.523	162.621	0.209	0.296
-351.508	-200.000	0.007	0.134
-350.493	-117.060	0.126	-0.023
-349.479	425.236	0.099	0.215
-348.464	208.505	0.124	0.195
-347.450	487.651	0.020	-0.047
-346.435	-78.569	0.292	-0.101
-345.420	100.432	-0.071	-0.084
-344.406	-200.000	0.051	0.277
-343.391	-81.326	-0.206	-0.068
-342.377	-127.961	0.295	0.043
-341.362	476.493	-0.085	0.193
-340.348	-200.000	0.016	0.098
-339.333	-28.436	0.549	-0.319
-338.318	-12.171	0.290	-0.191
-337.304	-8.015	0.119	0.081
-336.289	431.809	0.127	0.278
-335.275	176.484	-0.076	-0.111
-334.260	71.901	-0.028	-0.029
-333.245	-200.000	-0.031	-0.249
-332.231	294.529	0.087	0.160
-331.216	-151.766	0.213	-0.016
-330.202	619.998	0.070	0.178
-329.187	-30.693	0.188	0.107
-328.172	115.351	0.032	-0.040
-327.158	-54.519	0.133	-0.061
-326.143	800.000	0.049	-0.188
-325.129	224.536	0.131	0.213
-324.114	-37.940	-0.122	0.065
-323.099	86.410	-0.042	0.046
-322.085	215.612	-0.073	-0.117
-321.070	533.343	0.132	0.314
-320.056	-159.365	-0.056	-0.003
-319.041	725.644	0.052	-0.141
-318.026	-28.973	0.172	0.100
-317.012	800.000	-0.125	0.521
-315.997	522.969	0.099	0.235
-314.983	-200.000	0.003	0.165
-313.968	36.411	-0.231	0.205
-312.953	168.905	0.078	-0.111
-311.939	22.064	-0.219	-0.180
-310.924	83.584	-0.163	0.179
-309.910	143.087	0.104	0.139
-308.895	-200.000	0.027	0.122
-307.880	800.000	-0.070	0.216
-306.866	280.632	0.184	0.331
-305.851	252.843	0.047	0.081
-304.837	-163.462	-0.276	0.013
-303.822	74.240	0.118	0.125
-302.807	-161.473	-0.186	0.010
-301.793	432.680	-0.040	0.088
-300.778	-87.275	-0.158	0.048
-299.764	-59.231	-0.085	0.037
-298.749	-200.000	-0.017	-0.245
-297.735	-96.202	0.520	-0.139
-296.720	-200.000	0.008	-0.304
-295.705	273.969	0.118	0.210
-294.691	-140.186	0.065	-0.007
-293.676	-81.968	-0.124	0.041
-292.662	-140.860	-0.092	0.010
-291.647	-6.243	-0.137	-0.094
-290.632	82.873	-0.202	0.220
-289.618	-146.267	-0.027	-0.002
-288.603	-88.534	-0.089	0.027
-287.589	-24.463	-0.376	0.225
-286.574	-38.787	0.243	0.129
-285.559	-65.440	0.159	0.064
-284.545	-47.371	-0.160	-0.078
-283.530	-78.716	-0.215	-0.074
-282.516	-138.890	-0.217	0.024
-281.501	15.979	0.194	0.154
-280.486	-194.429	-0.055	0.000
-279.472	111.500	-0.227	0.275
-278.457	21.103	-0.133	0.109
-277.443	3.969	-0.113	-0.083
-276.428	37.723	0.020	-0.018
-275.413	-118.418	0.328	-0.058
-274.399	392.702	-0.083	-0.174
-273.384	-63.676	-0.148	0.061
-272.370	-152.824	-0.019	-0.001
-271.355	727.217	0.212	0.568
-270.340	-163.344	0.115	-0.005
-269.326	553.032	-0.082	-0.197
-268.311	154.655	0.033	0.045
-267.297	800.000	0.035	0.127
-266.282	-116.288	-0.114	-0.021
-265.267	24.134	-0.139	-0.116
-264.253	10.366	0.195	0.149
-263.238	136.968	0.158	0.207
-262.224	-200.000	0.015	0.262
-261.209	-88.886	0.242	0.072
-260.195	-200.000	-0.039	-0.172
-259.180	800.000	0.059	0.236
-258.165	-36.754	0.183	-0.099
-257.151	-140.475	0.330	0.034
-256.136	-56.355	0.085	-0.038
-255.122	-200.000	-0.039	-0.179
-254.107	-200.000	0.000	0.130
-253.092	-147.613	0.042	-0.004
-252.078	125.144	-0.251	-0.317
-251.063	11.048	-0.106	0.082
-250.049	-200.000	-0.027	0.200
-249.034	-200.000	0.000	-0.069
-248.019	-132.774	-0.203	0.026
-247.005	-87.076	0.163	0.050
-245.990	181.113	0.326	-0.480
-244.976	-200.000	0.011	-0.230
-243.961	741.114	-0.124	0.335
-242.946	-200.000	0.027	-0.269
-241.932	-147.538	0.358	-0.030
-240.917	182.733	-0.102	-0.151
-239.903	-68.133	0.234	0.092
-238.888	-200.000	-0.002	0.012
-237.873	-45.613	-0.341	0.169
-236.859	-118.733	-0.011	0.002
-235.844	-43.628	-0.180	0.091
-234.830	-82.137	0.214	0.070
-233.815	-116.428	0.107	-0.020
-232.800	-68.680	-0.337	-0.131
-231.786	-163.967	-0.461	0.022
-230.771	-79.263	0.197	0.067
-229.757	-200.000	0.019	0.106
-228.742	526.970	0.065	0.153
-227.727	137.785	-0.130	-0.171
-226.713	46.856	-0.218	0.203
-225.698	-0.005	0.338	-0.241
-224.684	46.847	0.237	0.221
-223.669	91.326	0.145	0.163
-222.655	-159.853	0.143	-0.008
-221.640	157.361	0.080	0.111
-220.625	-1.008	0.136	0.097
-219.611	160.899	0.116	-0.162
-218.596	-21.897	-0.345	0.210
-217.582	669.964	-0.102	0.264
-216.567	-183.295	-0.331	-0.006
-215.552	213.580	0.227	0.359
-214.538	82.213	-0.149	0.162
-213.523	40.404	-0.206	-0.186
-212.509	800.000	-0.005	0.021
-211.494	92.942	0.067	-0.076
-210.479	-200.000	-0.020	-0.182
-209.465	8.673	0.054	-0.041
-208.450	17.528	-0.230	-0.183
-207.436	261.401	-0.101	0.176
-206.421	-200.000	0.019	0.336
-205.406	142.310	0.181	-0.241
-204.392	-34.518	0.132	-0.073
-203.377	-136.702	0.207	-0.024
-202.363	119.429	-0.017	-0.021
-201.348	-17.677	0.130	-0.082
-200.333	233.577	-0.139	0.229
-199.319	32.597	-0.317	0.275
-198.304	-73.100	0.154	-0.057
-197.290	63.218	0.077	-0.077
-196.275	-83.338	-0.108	-0.035
-195.260	61.256	0.258	-0.256
-194.246	-93.931	-0.162	-0.045
-193.231	42.448	-0.233	-0.212
-192.217	-200.000	-0.043	-0.240
-191.202	94.616	0.162	0.184
-190.187	-97.644	0.216	-0.056
-189.173	317.250	-0.205	0.388
-188.158	-200.000	-0.025	-0.137
-187.144	-32.851	-0.163	0.090
-186.129	464.322	-0.053	0.119
-185.114	-120.367	0.084	-0.014
-184.100	-200.000	-0.009	0.142
-183.085	-120.717	0.165	-0.028
-182.071	-120.137	-0.150	-0.026
-181.056	800.000	-0.085	-0.322
-180.042	-145.427	0.064	0.006
-179.027	46.124	0.179	-0.166
-178.012	-185.946	0.270	0.004
-176.998	-200.000	-0.033	-0.166
-175.983	-39.476	-0.217	-0.114
-174.969	-52.707	0.173	0.080
-173.954	-200.000	-0.024	0.280
-172.939	-78.585	-0.125	-0.043
-171.925	800.000	0.036	0.133
-170.910	190.249	-0.055	-0.083
-169.896	0.884	-0.335	-0.240
-168.881	800.000	0.069	-0.280
-167.866	800.000	-0.068	0.205
-166.852	-200.000	-0.001	0.046
-165.837	-131.681	-0.239	-0.031
-164.823	-106.831	0.386	-0.086
-163.808	15.299	-0.140	0.110
-162.793	-180.348	0.107	0.002
-161.779	-200.000	-0.030	0.368
-160.764	148.606	0.144	0.195
-159.750	-200.000	0.020	0.329
-158.735	-200.000	-0.007	0.259
-157.720	-21.817	-0.113	-0.069
-156.706	-145.164	0.203	-0.018
-155.691	-200.000	0.032	0.144
-154.677	9.754	0.093	-0.070
-153.662	-119.473	-0.199	-0.034
-152.647	63.465	-0.075	0.075
-151.633	27.034	-0.225	-0.189
-150.618	-22.038	0.194	0.118
-149.604	-123.906	-0.158	0.025
-148.589	-200.000	0.032	-0.194
-147.574	-130.805	0.211	0.028
-146.560	-200.000	-0.005	-0.280
-145.545	-159.137	0.113	0.006
-144.531	195.798	-0.109	0.165
-143.516	-40.183	0.245	-0.128
-142.502	-35.835	-0.274	0.149
-141.487	800.000	-0.055	0.171
-140.472	12.382	0.250	-0.193
-139.458	55.418	-0.069	0.067
-138.443	800.000	0.046	0.179
-137.429	-147.277	-0.243	-0.021
-136.414	800.000	-0.075	0.284
-135.399	94.862	0.120	0.137
-134.385	-27.854	-0.446	-0.258
-133.370	-63.824	-0.033	-0.013
-132.356	-131.106	0.115	0.015
-131.341	-17.558	0.285	0.179
-130.326	3.077	0.185	0.134
-129.312	215.152	-0.141	0.224
-128.297	-105.789	-0.184	0.042
-127.283	469.754	0.116	0.260
-126.268	25.141	-0.235	0.195
-125.253	-200.000	-0.038	0.260
-124.239	-200.000	-0.113	0.559
-123.224	-200.000	-0.031	-0.163
-122.210	12.628	0.350	-0.270
