DTS Sentinel unit serial number:	SN413079Multiplexer serial number:	ORYXHardware model number:	OX4-SRSoftware version number:	ORYX F/W v4.00 Oryx Data Collector v3.7.2.0data status	okinstallation	princeton_trtdifferential loss correction	single-endedforward channel	channel 1reverse channel	N/Adate	2019/09/17time	02:46:35forward acquisition time	60.00reverse acquisition time	0.00gamma	496.2192k internal	0.2323k external	0.2323temperature offset calibration	0.9957default loss term (dB/km)	0.3790temperature slope calibration	1.0000multiplexer offset coefficient	1.0000multiplexer slope coefficient	1.0000fibre end	0.00T internal ref (°C)	29.87T ext. ref 1 (°C)	0.13T ext. ref 2 (°C)	24.86length (m)	temperature (°C)	Stokes	anti-Stokes-747.200	84.919	0.097	0.108
-746.185	1.398	-0.129	0.094
-745.171	800.000	0.067	0.201
-744.156	-113.077	-0.093	0.019
-743.142	-62.462	-0.450	0.189
-742.127	-97.622	-0.056	-0.015
-741.112	-176.566	0.111	0.003
-740.098	-200.000	-0.024	0.299
-739.083	-200.000	0.008	0.128
-738.069	798.078	0.095	0.266
-737.054	201.640	-0.107	-0.166
-736.039	143.127	-0.145	-0.195
-735.025	704.470	0.045	0.120
-734.010	-83.291	-0.253	-0.082
-732.996	-0.455	-0.407	-0.292
-731.981	123.462	-0.074	-0.093
-730.966	-149.299	0.442	-0.036
-729.952	-133.931	-0.580	-0.073
-728.937	28.330	-0.346	0.295
-727.923	-141.939	0.046	0.005
-726.908	-42.674	-0.309	-0.159
-725.894	-82.754	0.249	0.081
-724.879	-200.000	0.002	-0.364
-723.864	-39.322	0.034	-0.018
-722.850	-63.059	-0.294	0.122
-721.835	-57.753	-0.168	-0.074
-720.821	-200.000	-0.025	-0.312
-719.806	109.389	0.119	-0.144
-718.791	-15.772	0.109	0.070
-717.777	196.553	-0.079	0.122
-716.762	-101.741	-0.486	-0.119
-715.748	-115.653	-0.302	-0.057
-714.733	-105.232	0.193	-0.044
-713.718	-200.000	-0.006	-0.126
-712.704	-84.351	-0.348	-0.111
-711.689	203.519	0.026	-0.041
-710.675	-56.201	0.070	-0.031
-709.660	102.975	0.225	-0.266
-708.645	581.159	-0.139	-0.344
-707.631	76.079	0.251	-0.268
-706.616	145.529	-0.071	0.095
-705.602	-14.088	-0.204	-0.133
-704.587	-19.241	-0.132	0.083
-703.572	257.945	-0.116	-0.201
-702.558	418.271	0.123	-0.265
-701.543	534.827	0.123	-0.295
-700.529	5.513	-0.206	-0.154
-699.514	412.822	-0.064	-0.136
-698.499	-200.000	0.044	-0.242
-697.485	106.771	-0.169	-0.202
-696.470	800.000	0.149	-0.423
-695.456	-52.601	-0.164	-0.077
-694.441	800.000	-0.098	0.281
-693.426	-191.883	-0.345	0.003
-692.412	-17.884	0.147	-0.093
-691.397	-128.858	0.301	-0.043
-690.383	-189.669	0.251	-0.003
-689.368	800.000	0.116	-0.420
-688.354	-182.105	0.098	0.002
-687.339	-154.665	0.368	0.025
-686.324	-80.333	0.236	-0.080
-685.310	-52.885	0.257	-0.119
-684.295	236.684	-0.117	-0.195
-683.281	-96.552	0.382	-0.102
-682.266	800.000	-0.109	0.361
-681.251	176.709	-0.092	0.135
-680.237	800.000	-0.124	-0.410
-679.222	-60.667	-0.023	-0.010
-678.208	117.505	-0.249	-0.309
-677.193	-94.514	-0.116	0.032
-676.178	529.476	-0.036	0.086
-675.164	51.551	0.231	-0.221
-674.149	800.000	-0.178	0.578
-673.135	-7.506	0.314	-0.214
-672.120	34.350	0.234	-0.206
-671.105	-133.895	0.096	-0.012
-670.091	-25.018	0.298	-0.178
-669.076	-126.224	0.137	-0.021
-668.062	98.762	-0.202	-0.234
-667.047	-200.000	-0.010	-0.172
-666.032	548.220	0.062	-0.149
-665.018	800.000	-0.151	0.490
-664.003	197.576	0.221	0.339
-662.989	84.167	-0.149	0.164
-661.974	-117.147	0.142	0.026
-660.959	-200.000	-0.024	-0.489
-659.945	-21.970	-0.161	0.099
-658.930	-64.405	0.360	0.147
-657.916	-200.000	-0.027	0.183
-656.901	-105.381	-0.230	0.053
-655.886	254.952	-0.058	0.100
-654.872	-124.269	0.053	-0.008
-653.857	-200.000	0.000	-0.505
-652.843	-200.000	0.031	-0.191
-651.828	-12.495	-0.051	0.033
-650.814	182.631	-0.310	0.460
-649.799	140.013	0.177	0.234
-648.784	-22.228	0.209	0.128
-647.770	-37.817	-0.532	-0.285
-646.755	-133.917	-0.230	-0.029
-645.741	-70.600	0.159	0.060
-644.726	22.556	-0.128	0.105
-643.711	303.392	0.067	0.125
-642.697	-12.086	0.241	0.159
-641.682	-58.349	-0.159	0.069
-640.668	-95.544	0.304	-0.082
-639.653	800.000	-0.069	0.245
-638.638	280.405	-0.201	-0.361
-637.624	-5.673	0.139	0.096
-636.609	408.905	-0.018	-0.037
-635.595	299.473	-0.152	-0.281
-634.580	800.000	0.101	-0.355
-633.565	-7.490	-0.105	-0.071
-632.551	-47.983	-0.377	-0.183
-631.536	-115.102	0.243	-0.046
-630.522	-32.733	-0.133	-0.074
-629.507	-84.450	0.173	-0.055
-628.492	-25.213	-0.217	0.129
-627.478	800.000	-0.110	-0.307
-626.463	-100.485	-0.088	0.022
-625.449	173.102	0.139	0.202
-624.434	-93.743	-0.158	0.044
-623.419	-200.000	0.037	0.205
-622.405	-18.745	-0.244	0.153
-621.390	-200.000	0.050	-0.469
-620.376	-43.458	0.344	-0.175
-619.361	68.967	0.106	-0.109
-618.346	47.995	0.084	-0.079
-617.332	-131.520	-0.097	0.013
-616.317	-6.637	-0.197	-0.135
-615.303	800.000	-0.154	-0.555
-614.288	-160.904	-0.213	0.011
-613.273	-65.399	0.242	0.098
-612.259	427.457	-0.125	0.272
-611.244	-101.718	-0.241	0.059
-610.230	87.366	0.059	0.066
-609.215	329.478	0.062	-0.119
-608.201	-129.730	0.107	-0.015
-607.186	-140.882	-0.226	0.023
-606.171	-117.682	-0.329	-0.060
-605.157	49.876	-0.065	0.062
-604.142	-147.147	-0.201	0.017
-603.128	152.519	0.032	-0.044
-602.113	116.420	-0.167	-0.206
-601.098	-51.730	-0.194	-0.091
-600.084	49.753	0.113	0.107
-599.069	9.884	-0.174	-0.133
-598.055	-200.000	-0.027	0.182
-597.040	-80.075	0.264	0.089
-596.025	-101.621	0.079	-0.019
-595.011	406.902	0.205	-0.435
-593.996	-124.188	-0.129	-0.020
-592.982	5.096	-0.168	0.124
-591.967	-159.458	-0.217	0.012
-590.952	-127.507	-0.136	0.020
-589.938	800.000	0.020	-0.065
-588.923	14.904	-0.086	-0.068
-587.909	-48.497	-0.130	0.063
-586.894	-103.283	0.078	0.018
-585.879	-94.663	-0.362	-0.099
-584.865	-200.000	0.045	-0.396
-583.850	1.571	-0.129	0.093
-582.836	800.000	-0.042	0.167
-581.821	-145.699	-0.105	-0.009
-580.806	-180.404	-0.075	-0.002
-579.792	32.094	0.400	-0.346
-578.777	-123.768	-0.293	0.047
-577.763	-200.000	-0.012	-0.100
-576.748	41.046	0.160	-0.145
-575.733	-139.452	0.462	-0.050
-574.719	-200.000	0.010	-0.208
-573.704	116.523	0.061	0.075
-572.690	743.819	-0.053	0.144
-571.675	-156.351	-0.234	-0.015
-570.661	-200.000	0.033	-0.229
-569.646	298.330	0.144	0.266
-568.631	250.502	0.226	0.386
-567.617	57.539	0.078	-0.076
-566.602	219.461	0.161	0.258
-565.588	-200.000	-0.032	-0.218
-564.573	800.000	-0.062	-0.182
-563.558	-138.299	-0.161	0.018
-562.544	478.085	-0.106	-0.240
-561.529	357.498	-0.099	-0.199
-560.515	-70.133	0.191	-0.073
-559.500	800.000	0.016	0.046
-558.485	-48.994	0.394	-0.189
-557.471	-55.741	-0.175	0.078
-556.456	-168.052	-0.321	-0.013
-555.442	-49.574	0.245	0.117
-554.427	-28.507	0.201	0.116
-553.412	467.548	-0.089	-0.200
-552.398	192.894	-0.139	0.210
-551.383	97.797	0.282	-0.325
-550.369	157.204	0.101	0.140
-549.354	-107.808	0.250	-0.055
-548.339	766.203	0.045	0.123
-547.325	-142.968	0.193	0.019
-546.310	302.480	0.053	-0.099
-545.296	-89.817	-0.161	0.047
-544.281	-200.000	0.001	0.108
-543.266	-133.826	0.255	-0.032
-542.252	-82.617	0.307	-0.100
-541.237	-87.846	0.145	0.044
-540.223	-163.770	-0.150	0.007
-539.208	704.591	-0.070	-0.186
-538.193	-43.963	-0.148	0.075
-537.179	-200.000	0.051	0.316
-536.164	130.841	-0.040	-0.051
-535.150	-153.130	0.239	-0.017
-534.135	-200.000	-0.017	-0.172
-533.121	-174.310	0.184	0.005
-532.106	-200.000	-0.009	-0.171
-531.091	-18.195	-0.165	0.103
-530.077	106.175	-0.262	0.311
-529.062	35.811	0.126	-0.111
-528.048	-200.000	-0.038	0.339
-527.033	8.909	0.019	0.015
-526.018	179.149	-0.156	-0.228
-525.004	37.090	-0.072	-0.064
-523.989	-74.559	-0.203	-0.073
-522.975	800.000	0.055	-0.190
-521.960	649.744	-0.084	-0.216
-520.945	800.000	-0.023	-0.093
-519.931	-58.644	0.132	-0.057
-518.916	88.942	0.230	-0.256
-517.902	45.698	-0.101	-0.094
-516.887	-7.210	-0.339	0.230
-515.872	697.254	0.242	0.637
-514.858	41.290	-0.054	-0.049
-513.843	-200.000	-0.019	-0.160
-512.829	-66.922	0.203	-0.080
-511.814	800.000	0.016	-0.045
-510.799	501.557	0.043	0.099
-509.785	-87.571	0.319	-0.096
-508.770	-142.630	0.244	-0.024
-507.756	191.502	0.083	0.125
-506.741	-102.035	-0.012	0.003
-505.726	-200.000	-0.036	-0.279
-504.712	-124.348	0.208	0.033
-503.697	172.203	0.107	0.154
-502.683	184.264	-0.113	-0.167
-501.668	-200.000	0.009	-0.108
-500.653	707.303	0.037	-0.098
-499.639	212.924	0.116	0.184
-498.624	-168.929	0.282	-0.011
-497.610	116.137	-0.082	0.101
-496.595	-200.000	0.017	-0.372
-495.581	-162.895	0.044	0.002
-494.566	180.280	0.191	0.280
-493.551	31.667	-0.307	0.264
-492.537	800.000	-0.036	-0.117
-491.522	338.716	0.034	-0.067
-490.508	158.151	-0.146	0.202
-489.493	-110.740	-0.498	-0.103
-488.478	-200.000	-0.005	0.064
-487.464	-99.006	-0.162	-0.041
-486.449	57.560	-0.243	0.237
-485.435	-200.000	-0.043	0.189
-484.420	6.275	-0.270	0.200
-483.405	-39.321	-0.119	-0.062
-482.391	800.000	-0.041	-0.147
-481.376	-3.224	-0.198	-0.138
-480.362	-49.104	0.326	0.156
-479.347	800.000	-0.056	-0.194
-478.332	155.397	-0.173	-0.239
-477.318	670.735	0.074	-0.191
-476.303	153.445	-0.328	0.448
-475.289	-96.034	-0.054	0.014
-474.274	-110.442	0.308	-0.064
-473.259	-127.058	-0.350	-0.051
-472.245	295.336	-0.116	-0.213
-471.230	609.027	0.024	-0.061
-470.216	90.682	0.047	-0.052
-469.201	-44.805	0.106	0.053
-468.186	-200.000	-0.029	0.152
-467.172	-200.000	-0.030	0.232
-466.157	800.000	0.060	-0.242
-465.143	330.011	0.054	0.104
-464.128	-200.000	0.031	0.299
-463.113	41.344	0.198	0.179
-462.099	-200.000	-0.007	0.091
-461.084	-83.638	0.257	-0.082
-460.070	-200.000	0.006	-0.316
-459.055	-119.776	0.345	-0.059
-458.040	-10.179	0.090	0.060
-457.026	-200.000	-0.013	-0.314
-456.011	-200.000	0.019	-0.161
-454.997	-200.000	-0.019	0.305
-453.982	-31.918	-0.096	-0.054
-452.968	-69.348	0.087	-0.034
-451.953	-41.821	-0.082	0.042
-450.938	-14.904	0.359	0.230
-449.924	763.663	0.034	0.092
-448.909	-73.223	0.129	0.047
-447.895	-200.000	0.066	0.328
-446.880	-200.000	-0.058	0.455
-445.865	29.997	-0.078	0.067
-444.851	-58.323	0.138	-0.060
-443.836	800.000	0.047	0.151
-442.822	-200.000	-0.024	-0.136
-441.807	588.604	-0.088	-0.217
-440.792	-77.537	-0.117	-0.040
-439.778	80.804	0.163	-0.175
-438.763	-200.000	-0.006	-0.210
-437.749	281.789	-0.076	-0.135
-436.734	-200.000	-0.012	0.158
-435.719	361.395	-0.024	0.047
-434.705	289.280	-0.159	-0.289
-433.690	438.935	0.076	-0.165
-432.676	-116.345	0.483	0.089
-431.661	-200.000	-0.034	0.165
-430.646	453.509	-0.100	-0.221
-429.632	-25.644	0.100	-0.059
-428.617	800.000	-0.043	-0.172
-427.603	32.298	0.144	-0.124
-426.588	-200.000	-0.011	-0.099
-425.573	40.921	-0.145	-0.130
-424.559	137.317	-0.100	-0.130
-423.544	-48.779	-0.186	0.089
-422.530	10.696	0.469	0.357
-421.515	-75.256	-0.351	-0.125
-420.500	313.375	-0.079	0.149
-419.486	197.067	-0.195	-0.297
-418.471	369.772	-0.171	-0.345
-417.457	225.563	-0.101	0.163
-416.442	115.652	0.095	-0.116
-415.428	-22.283	0.420	-0.254
-414.413	98.297	0.133	-0.153
-413.398	-200.000	-0.019	-0.145
-412.384	-22.822	-0.246	0.148
-411.369	173.872	0.173	0.249
-410.355	79.892	0.136	0.146
-409.340	-200.000	0.016	0.161
-408.325	-190.658	0.049	-0.001
-407.311	-94.337	0.392	0.107
-406.296	800.000	0.039	0.167
-405.282	800.000	0.084	-0.305
-404.267	-106.605	0.318	-0.070
-403.252	50.186	-0.240	-0.226
-402.238	-163.429	-0.211	0.010
-401.223	239.343	-0.051	-0.084
-400.209	-76.274	0.073	-0.026
-399.194	-106.926	0.042	-0.009
-398.179	8.398	0.160	0.120
-397.165	21.672	-0.104	-0.084
-396.150	-200.000	-0.021	0.248
-395.136	-92.882	-0.105	0.029
-394.121	643.119	0.135	0.342
-393.106	-200.000	-0.010	-0.261
-392.092	-83.688	0.013	0.004
-391.077	-200.000	-0.042	0.407
-390.063	35.334	-0.172	0.150
-389.048	18.421	0.216	-0.172
-388.033	-64.435	-0.318	-0.129
-387.019	77.201	0.226	0.239
-386.004	-66.339	0.145	-0.058
-384.990	-36.112	-0.221	-0.119
-383.975	38.018	-0.098	-0.086
-382.960	-63.878	0.086	-0.035
-381.946	-200.000	-0.040	0.217
-380.931	-200.000	-0.039	0.373
-379.917	121.085	-0.086	0.107
-378.902	247.181	0.054	-0.090
-377.888	403.887	0.205	-0.430
-376.873	384.381	-0.067	0.138
-375.858	-28.956	-0.177	-0.101
-374.844	-139.733	-0.218	-0.023
-373.829	704.261	0.071	-0.186
-372.815	359.169	0.233	-0.465
-371.800	800.000	0.023	-0.070
-370.785	-157.080	0.259	0.016
-369.771	93.576	0.166	-0.187
-368.756	294.138	0.124	0.225
-367.742	-200.000	0.014	-0.108
-366.727	45.050	0.254	-0.233
-365.712	-141.062	0.323	0.033
-364.698	-200.000	0.011	0.461
-363.683	245.990	-0.191	0.321
-362.669	40.621	-0.027	0.024
-361.654	-22.860	-0.306	-0.184
-360.639	-53.695	0.250	0.114
-359.625	4.378	-0.297	-0.217
-358.610	-10.098	-0.139	0.092
-357.596	106.909	0.036	0.043
-356.581	13.993	0.224	0.173
-355.566	-90.746	-0.241	-0.069
-354.552	163.504	0.117	-0.164
-353.537	-200.000	0.010	-0.098
-352.523	800.000	-0.061	0.189
-351.508	85.259	-0.152	0.166
-350.493	-86.992	-0.534	-0.162
-349.479	-200.000	-0.003	-0.525
-348.464	-118.010	0.195	-0.035
-347.450	-159.419	0.125	-0.007
-346.435	-35.822	-0.182	0.098
-345.420	-13.793	-0.098	-0.063
-344.406	-140.739	-0.156	0.016
-343.391	-200.000	0.035	0.435
-342.377	-30.888	-0.122	0.068
-341.362	-97.206	-0.235	-0.061
-340.348	-200.000	-0.071	-0.320
-339.333	800.000	0.042	-0.139
-338.318	190.207	0.271	0.404
-337.304	-116.268	-0.078	0.014
-336.289	-78.524	-0.158	-0.054
-335.275	-200.000	-0.050	-0.221
-334.260	283.538	-0.114	0.204
-333.245	-88.196	0.108	-0.032
-332.231	386.991	-0.031	0.063
-331.216	-125.003	0.521	-0.080
-330.202	251.169	0.050	-0.084
-329.187	800.000	0.046	-0.198
-328.172	276.440	0.192	-0.338
-327.158	294.429	0.108	0.197
-326.143	20.429	-0.276	-0.222
-325.129	158.983	0.406	0.561
-324.114	676.378	-0.010	0.025
-323.099	-200.000	-0.063	0.429
-322.085	178.971	0.137	-0.199
-321.070	231.974	-0.099	-0.161
-320.056	-89.297	-0.266	-0.078
-319.041	-95.693	0.306	-0.081
-318.026	-38.497	-0.370	0.194
-317.012	154.056	0.112	0.152
-315.997	-200.000	0.060	0.319
-314.983	277.894	0.141	-0.250
-313.968	164.930	0.204	-0.286
-312.953	-200.000	-0.049	0.489
-311.939	112.670	-0.163	0.196
-310.924	-38.430	0.134	0.070
-309.910	174.165	0.158	-0.226
-308.895	800.000	-0.041	-0.154
-307.880	-95.040	-0.338	0.091
-306.866	9.567	-0.163	0.123
-305.851	-85.359	0.191	-0.059
-304.837	673.663	-0.179	-0.461
-303.822	-200.000	0.006	0.227
-302.807	800.000	-0.105	-0.394
-301.793	-81.253	-0.270	-0.089
-300.778	-137.534	0.250	0.028
-299.764	-200.000	-0.020	0.093
-298.749	267.679	0.158	0.274
-297.735	92.404	0.080	0.090
-296.720	42.284	-0.088	0.079
-295.705	7.679	0.242	-0.180
-294.691	51.877	0.193	0.182
-293.676	311.863	-0.148	0.276
-292.662	-118.367	-0.029	0.005
-291.647	-128.084	0.359	0.051
-290.632	-65.273	-0.181	0.072
-289.618	24.953	-0.058	0.048
-288.603	800.000	-0.016	0.067
-287.589	150.049	0.025	0.034
-286.574	-145.531	-0.206	-0.018
-285.559	-200.000	0.037	-0.170
-284.545	54.779	0.093	-0.089
-283.530	800.000	0.047	-0.179
-282.516	-200.000	-0.068	0.342
-281.501	800.000	0.069	0.284
-280.486	295.162	0.039	-0.070
-279.472	3.747	-0.121	-0.088
-278.457	-200.000	0.010	0.083
-277.443	-91.273	-0.294	0.083
-276.428	-200.000	-0.086	-0.374
-275.413	-101.857	0.350	0.084
-274.399	75.662	-0.303	-0.318
-273.384	-17.429	0.303	-0.189
-272.370	615.900	0.042	0.105
-271.355	-5.064	-0.260	-0.177
-270.340	97.393	-0.028	0.032
-269.326	268.675	-0.132	0.229
-268.311	-200.000	0.011	0.350
-267.297	563.470	-0.053	0.127
-266.282	-65.317	0.150	0.060
-265.267	-200.000	-0.035	-0.193
-264.253	-173.378	0.225	-0.007
-263.238	728.341	-0.040	0.106
-262.224	-200.000	-0.017	0.180
-261.209	-125.485	-0.135	-0.020
-260.195	366.061	0.088	0.176
-259.180	-88.723	-0.351	0.103
-258.165	598.751	-0.091	-0.224
-257.151	144.188	-0.143	-0.189
-256.136	800.000	-0.074	-0.224
-255.122	-61.310	-0.326	0.136
-254.107	380.285	0.131	-0.267
-253.092	8.317	0.091	0.068
-252.078	110.107	0.178	-0.212
-251.063	-36.887	0.259	-0.138
-250.049	283.531	-0.154	-0.275
-249.034	-142.603	-0.159	-0.015
-248.019	-11.360	-0.207	0.135
-247.005	97.405	-0.207	0.235
-245.990	130.038	-0.099	0.125
-244.976	177.637	-0.089	0.128
-243.961	18.982	-0.067	-0.053
-242.946	-35.305	0.218	-0.118
-241.932	-116.537	0.301	-0.055
-240.917	-75.814	0.187	-0.066
-239.903	102.940	-0.227	0.263
-238.888	-173.325	-0.233	-0.007
-237.873	710.668	-0.026	-0.068
-236.859	-41.398	0.292	-0.149
-235.844	405.582	0.026	0.055
-234.830	-83.909	0.099	-0.031
-233.815	-200.000	0.055	0.260
-232.800	-127.677	0.113	0.016
-231.786	306.609	-0.044	-0.081
-230.771	-119.599	0.167	-0.029
-229.757	800.000	0.041	0.174
-228.742	800.000	0.076	0.323
-227.727	47.008	0.056	-0.051
-226.713	800.000	-0.052	0.159
-225.698	800.000	-0.035	0.127
-224.684	757.852	0.248	0.663
-223.669	94.778	-0.202	0.227
-222.655	-66.499	0.335	0.132
-221.640	-134.032	-0.141	-0.017
-220.625	243.302	-0.121	0.200
-219.611	-200.000	-0.012	-0.095
-218.596	-118.478	0.187	-0.033
-217.582	-163.972	0.150	0.007
-216.567	800.000	-0.006	0.017
-215.552	-200.000	-0.007	0.054
-214.538	74.735	-0.052	0.054
-213.523	-200.000	-0.049	0.293
-212.509	-200.000	-0.024	0.105
-211.494	-22.926	0.212	0.126
-210.479	509.878	0.105	-0.242
-209.465	250.993	-0.148	0.248
-208.450	27.139	0.072	-0.060
-207.436	800.000	0.054	0.226
-206.421	-135.018	0.142	0.017
-205.406	479.470	0.092	0.207
-204.392	-113.510	0.032	-0.006
-203.377	610.165	0.070	0.173
-202.363	800.000	-0.098	0.353
-201.348	800.000	-0.139	-0.412
-200.333	-109.203	0.208	-0.044
-199.319	-140.125	0.361	-0.038
-198.304	800.000	-0.072	-0.277
-197.290	-95.453	0.243	0.064
-196.275	-51.743	-0.255	0.118
-195.260	19.308	0.182	-0.145
-194.246	-144.311	-0.034	-0.003
-193.231	-41.275	0.185	-0.094
-192.217	299.393	0.101	0.184
-191.202	571.776	-0.071	0.170
-190.187	385.313	-0.066	0.135
-189.173	238.515	-0.103	-0.169
-188.158	800.000	-0.041	0.114
-187.144	-161.054	-0.309	-0.016
-186.129	20.395	0.241	-0.193
-185.114	241.162	0.048	0.079
-184.100	-100.599	-0.343	0.084
-183.085	19.816	-0.268	-0.213
-182.071	-200.000	0.020	0.199
-181.056	-145.185	0.190	-0.017
-180.042	196.744	0.106	0.159
-179.027	-27.591	-0.084	-0.048
-178.012	-23.721	0.205	-0.121
-176.998	634.894	0.064	0.161
-175.983	-200.000	-0.008	0.057
-174.969	83.024	0.114	-0.122
-173.954	407.682	0.108	-0.226
-172.939	500.062	-0.128	0.293
-171.925	586.932	-0.050	0.123
-170.910	96.856	-0.195	0.221
-169.896	-68.738	0.155	0.059
-168.881	-6.817	-0.118	-0.079
-167.866	800.000	-0.106	-0.363
-166.852	-135.734	-0.300	0.035
-165.837	-149.765	0.186	0.014
-164.823	100.827	-0.145	0.166
-163.808	-153.038	-0.114	-0.008
-162.793	-31.485	-0.318	-0.176
-161.779	71.652	-0.270	-0.277
-160.764	253.548	-0.116	-0.196
-159.750	-52.320	-0.140	0.064
-158.735	41.066	-0.160	-0.143
-157.720	163.480	-0.086	0.119
-156.706	-34.318	0.251	0.136
-155.691	79.359	-0.162	0.171
-154.677	-45.751	0.148	0.072
-153.662	-108.978	0.221	-0.047
-152.647	-200.000	0.042	0.250
-151.633	156.038	-0.077	-0.105
-150.618	800.000	-0.075	0.244
-149.604	-47.337	0.300	0.144
-148.589	330.108	0.108	-0.205
-147.574	-67.972	0.225	-0.087
-146.560	145.759	-0.306	0.405
-145.545	-200.000	0.013	-0.165
-144.531	58.290	-0.228	0.220
-143.516	-86.120	0.199	0.060
-142.502	720.995	0.117	-0.307
-141.487	-141.302	-0.200	-0.020
-140.472	-77.109	0.357	0.123
-139.458	-161.459	0.365	0.019
-138.443	-107.705	0.263	-0.057
-137.429	-148.434	-0.239	-0.019
-136.414	137.916	0.178	0.231
-135.399	-200.000	0.013	0.179
-134.385	378.766	0.022	0.045
-133.370	192.529	0.228	0.339
-132.356	-31.958	-0.334	-0.184
-131.341	169.386	0.238	-0.335
-130.326	800.000	0.054	-0.201
-129.312	265.036	-0.097	-0.167
-128.297	-115.170	0.253	-0.047
-127.283	40.445	-0.019	0.017
-126.268	-56.190	-0.024	0.010
-125.253	-200.000	-0.067	0.000
-124.239	136.136	0.165	-0.212
-123.224	72.980	-0.173	-0.178
-122.210	673.266	0.030	0.078
