DTS Sentinel unit serial number:	SN413079Multiplexer serial number:	ORYXHardware model number:	OX4-SRSoftware version number:	ORYX F/W v4.00 Oryx Data Collector v3.7.2.0data status	okinstallation	princeton_trtdifferential loss correction	single-endedforward channel	channel 1reverse channel	N/Adate	2019/09/18time	01:18:35forward acquisition time	60.00reverse acquisition time	0.00gamma	496.2192k internal	0.2341k external	0.2341temperature offset calibration	0.9983default loss term (dB/km)	0.3790temperature slope calibration	1.0000multiplexer offset coefficient	1.0000multiplexer slope coefficient	1.0000fibre end	0.00T internal ref (°C)	23.16T ext. ref 1 (°C)	0.16T ext. ref 2 (°C)	16.90length (m)	temperature (°C)	Stokes	anti-Stokes-747.200	-200.000	-0.028	0.364
-746.185	-108.085	0.113	-0.025
-745.171	-2.785	-0.207	0.145
-744.156	764.549	0.110	0.300
-743.142	-54.549	-0.322	0.146
-742.127	60.648	-0.160	0.159
-741.112	-163.509	0.121	-0.006
-740.098	-200.000	-0.000	0.218
-739.083	323.555	0.086	-0.164
-738.069	800.000	-0.059	0.213
-737.054	-41.651	0.172	0.089
-736.039	-39.016	-0.295	-0.156
-735.025	400.401	0.179	0.377
-734.010	296.875	-0.139	0.256
-732.996	465.294	-0.114	-0.255
-731.981	-31.313	0.198	-0.112
-730.966	-88.464	-0.421	0.126
-729.952	139.314	-0.140	-0.185
-728.937	6.128	0.230	-0.171
-727.923	259.507	-0.101	-0.175
-726.908	800.000	-0.020	0.079
-725.894	744.448	-0.166	-0.448
-724.879	-83.276	-0.221	-0.071
-723.864	-166.216	0.346	0.015
-722.850	-113.047	-0.232	0.046
-721.835	-150.006	-0.149	-0.012
-720.821	86.102	0.111	-0.122
-719.806	-104.285	-0.167	0.039
-718.791	-13.164	-0.142	-0.092
-717.777	-85.592	0.399	0.124
-716.762	18.157	-0.185	0.147
-715.748	663.733	0.068	0.176
-714.733	-110.136	-0.336	-0.070
-713.718	289.851	0.089	-0.163
-712.704	-200.000	-0.039	-0.395
-711.689	-54.943	-0.244	-0.110
-710.675	173.428	0.139	0.201
-709.660	223.621	-0.096	0.155
-708.645	-43.324	0.134	0.068
-707.631	-200.000	0.000	0.234
-706.616	3.270	-0.060	0.044
-705.602	265.865	0.080	-0.140
-704.587	3.419	-0.296	-0.216
-703.572	26.753	-0.270	-0.227
-702.558	-200.000	0.025	-0.190
-701.543	-93.660	-0.227	0.063
-700.529	-200.000	0.006	-0.184
-699.514	800.000	-0.098	0.326
-698.499	-160.369	0.294	-0.016
-697.485	-78.521	0.191	-0.066
-696.470	502.439	0.045	0.104
-695.456	800.000	0.086	0.343
-694.441	210.735	-0.178	0.280
-693.426	205.326	-0.152	0.236
-692.412	-138.556	-0.104	-0.011
-691.397	-136.013	0.166	0.020
-690.383	-144.575	0.190	0.018
-689.368	158.278	-0.054	-0.076
-688.354	46.523	0.063	-0.059
-687.339	-15.123	-0.421	0.269
-686.324	-111.978	0.331	0.067
-685.310	-200.000	0.025	0.156
-684.295	121.054	-0.211	-0.263
-683.281	-34.674	0.311	-0.170
-682.266	-200.000	-0.049	-0.435
-681.251	299.931	0.068	-0.126
-680.237	-185.482	-0.275	0.004
-679.222	-91.269	-0.147	0.042
-678.208	145.865	-0.082	-0.110
-677.193	60.481	0.197	-0.195
-676.178	-39.806	0.200	0.105
-675.164	-64.139	0.261	-0.106
-674.149	800.000	-0.042	0.171
-673.135	-149.783	0.290	-0.023
-672.120	112.251	0.184	0.222
-671.105	59.753	0.024	0.024
-670.091	-200.000	0.057	0.307
-669.076	-91.035	-0.095	-0.027
-668.062	255.536	0.118	-0.203
-667.047	-200.000	0.019	-0.268
-666.032	-106.394	-0.285	0.064
-665.018	83.967	-0.076	0.083
-664.003	-71.507	0.133	-0.050
-662.989	-200.000	0.009	0.114
-661.974	-57.474	0.212	0.093
-660.959	17.939	-0.137	-0.109
-659.945	-200.000	0.021	0.104
-658.930	799.286	0.038	-0.106
-657.916	-59.238	-0.102	0.044
-656.901	-3.115	0.030	-0.021
-655.886	262.300	0.138	0.239
-654.872	-97.003	-0.088	0.023
-653.857	-200.000	0.010	-0.266
-652.843	-61.404	-0.140	-0.059
-651.828	33.437	0.275	-0.238
-650.814	107.847	-0.109	-0.130
-649.799	800.000	0.020	0.086
-648.784	800.000	-0.081	0.240
-647.770	-24.520	-0.211	-0.125
-646.755	-200.000	0.032	0.271
-645.741	226.064	0.070	0.113
-644.726	800.000	-0.039	-0.161
-643.711	-146.993	-0.293	0.025
-642.697	-168.013	0.085	-0.003
-641.682	-200.000	0.014	-0.155
-640.668	253.778	-0.111	-0.189
-639.653	209.305	0.124	-0.194
-638.638	-96.815	-0.105	0.027
-637.624	-200.000	-0.038	-0.240
-636.609	60.415	0.117	-0.116
-635.595	800.000	-0.063	0.198
-634.580	-112.152	-0.196	-0.039
-633.565	220.640	0.113	-0.181
-632.551	-200.000	-0.042	-0.201
-631.536	26.293	0.218	-0.182
-630.522	-130.442	0.105	-0.014
-629.507	800.000	0.075	-0.209
-628.492	-142.020	0.216	0.021
-627.478	147.882	-0.151	0.203
-626.463	466.293	0.156	0.349
-625.449	-113.774	-0.255	0.050
-624.434	147.853	0.092	0.123
-623.419	202.806	-0.019	-0.029
-622.405	-70.237	-0.269	-0.102
-621.390	-130.791	0.173	0.023
-620.376	800.000	0.053	0.164
-619.361	-123.443	-0.289	-0.046
-618.346	89.128	0.127	-0.141
-617.332	-46.350	0.185	0.091
-616.317	17.242	-0.204	-0.161
-615.303	-70.444	-0.182	-0.069
-614.288	-200.000	0.007	-0.236
-613.273	-200.000	0.055	0.432
-612.259	-88.128	-0.447	0.134
-611.244	84.297	0.090	-0.098
-610.230	495.666	0.156	-0.357
-609.215	795.421	-0.131	0.360
-608.201	55.751	-0.091	-0.088
-607.186	-26.454	-0.146	-0.085
-606.171	-200.000	-0.004	0.071
-605.157	511.863	-0.036	0.084
-604.142	622.222	0.103	0.259
-603.128	-24.739	0.371	-0.220
-602.113	800.000	0.086	-0.287
-601.098	331.205	-0.064	0.123
-600.084	-200.000	0.008	0.262
-599.069	-8.966	0.136	0.091
-598.055	-200.000	-0.045	0.248
-597.040	-174.047	0.230	0.007
-596.025	-159.844	-0.118	-0.006
-595.011	775.552	-0.142	-0.387
-593.996	-71.396	-0.078	-0.029
-592.982	53.846	-0.201	-0.192
-591.967	485.108	0.113	0.257
-590.952	-152.987	0.209	-0.015
-589.938	-85.921	0.316	0.097
-588.923	205.752	-0.043	-0.067
-587.909	-8.170	-0.077	0.052
-586.894	37.635	-0.122	-0.108
-585.879	776.379	0.047	0.128
-584.865	17.813	-0.135	-0.107
-583.850	800.000	0.038	0.115
-582.836	-102.148	-0.239	0.057
-581.821	24.672	0.189	0.156
-580.806	64.255	0.223	0.224
-579.792	-12.377	-0.322	0.209
-578.777	-150.411	0.193	-0.015
-577.763	-137.361	-0.357	-0.040
-576.748	-200.000	0.015	-0.206
-575.733	800.000	0.063	0.185
-574.719	-200.000	0.013	-0.157
-573.704	-95.150	0.270	0.072
-572.690	127.977	-0.082	-0.104
-571.675	-136.143	0.216	0.025
-570.661	15.429	0.216	-0.169
-569.646	-79.267	-0.181	-0.061
-568.631	242.623	0.239	-0.398
-567.617	-118.705	-0.291	0.051
-566.602	-200.000	-0.009	0.175
-565.588	184.776	-0.078	-0.116
-564.573	70.206	0.032	0.033
-563.558	-85.013	0.099	0.031
-562.544	800.000	0.090	0.340
-561.529	316.843	-0.071	-0.133
-560.515	-81.338	0.040	-0.013
-559.500	-21.435	-0.069	0.042
-558.485	381.482	-0.119	-0.242
-557.471	273.563	0.138	0.243
-556.456	-66.665	-0.076	-0.030
-555.442	-166.037	-0.068	-0.003
-554.427	66.266	-0.382	0.386
-553.412	-26.007	0.278	0.163
-552.398	615.711	0.040	0.099
-551.383	158.734	0.063	-0.087
-550.369	-184.280	0.215	-0.004
-549.354	-113.840	-0.106	-0.021
-548.339	32.494	-0.056	-0.048
-547.325	-200.000	-0.014	-0.119
-546.310	-200.000	-0.014	-0.106
-545.296	132.120	-0.064	0.082
-544.281	-122.697	0.116	0.019
-543.266	-152.767	-0.457	0.032
-542.252	-35.679	-0.113	-0.061
-541.237	16.959	-0.307	-0.242
-540.223	-48.752	0.124	-0.059
-539.208	-200.000	0.018	-0.179
-538.193	168.980	-0.064	0.090
-537.179	500.743	0.078	-0.180
-536.164	-24.365	-0.202	0.120
-535.150	11.801	0.127	0.097
-534.135	-150.136	-0.148	-0.011
-533.121	-139.368	0.389	0.042
-532.106	14.698	-0.058	-0.045
-531.091	58.925	0.158	0.155
-530.077	686.957	-0.044	-0.115
-529.062	-37.689	0.093	-0.049
-528.048	-170.203	0.354	-0.012
-527.033	-114.043	-0.498	-0.096
-526.018	155.290	0.154	0.211
-525.004	343.972	-0.031	0.060
-523.989	-29.431	0.079	0.045
-522.975	-24.332	0.274	0.162
-521.960	-135.392	-0.336	-0.040
-520.945	-155.783	-0.097	0.006
-519.931	800.000	0.155	-0.433
-518.916	-200.000	0.058	-0.285
-517.902	49.549	0.032	0.030
-516.887	752.335	-0.118	0.316
-515.872	-77.671	-0.262	-0.090
-514.858	-28.028	-0.174	0.100
-513.843	-167.275	0.101	0.004
-512.829	-200.000	0.024	-0.349
-511.814	666.109	-0.122	-0.313
-510.799	224.641	0.178	-0.286
-509.785	-59.407	-0.119	-0.051
-508.770	800.000	0.083	-0.266
-507.756	26.806	-0.155	-0.129
-506.741	-200.000	0.009	0.371
-505.726	800.000	-0.055	0.162
-504.712	15.866	-0.251	-0.196
-503.697	-14.091	0.139	0.089
-502.683	-200.000	0.035	0.304
-501.668	-166.776	-0.494	0.020
-500.653	-108.673	-0.214	0.046
-499.639	157.083	-0.164	-0.225
-498.624	619.536	-0.058	-0.144
-497.610	385.920	0.118	0.242
-496.595	302.121	-0.025	0.046
-495.581	-200.000	0.020	0.284
-494.566	347.189	0.094	0.184
-493.551	-126.022	0.403	0.060
-492.537	238.427	-0.119	-0.196
-491.522	-67.071	0.049	0.019
-490.508	-125.637	0.256	0.039
-489.493	-200.000	-0.054	0.411
-488.478	28.093	-0.261	0.219
-487.464	260.924	0.047	-0.080
-486.449	-105.788	0.179	0.040
-485.435	49.481	-0.069	-0.065
-484.420	138.407	0.251	-0.327
-483.405	-200.000	0.075	-0.392
-482.391	22.549	-0.115	-0.093
-481.376	-4.990	-0.185	0.126
-480.362	-13.857	0.142	0.091
-479.347	-200.000	-0.019	0.125
-478.332	800.000	0.075	-0.247
-477.318	-144.884	-0.146	0.013
-476.303	-96.549	-0.404	-0.106
-475.289	-195.161	0.045	0.000
-474.274	-185.905	-0.205	-0.003
-473.259	800.000	-0.016	0.059
-472.245	-13.209	-0.323	0.208
-471.230	-92.318	0.204	0.057
-470.216	140.113	0.109	0.142
-469.201	-200.000	-0.005	-0.027
-468.186	-44.204	-0.319	-0.158
-467.172	285.639	0.118	0.212
-466.157	47.484	-0.077	0.071
-465.143	-114.655	-0.221	0.042
-464.128	9.253	0.281	0.211
-463.113	140.775	-0.022	-0.029
-462.099	800.000	0.105	-0.390
-461.084	-37.492	-0.262	-0.138
-460.070	430.378	0.093	-0.199
-459.055	42.853	-0.252	-0.227
-458.040	177.608	-0.114	-0.165
-457.026	99.682	0.219	-0.251
-456.011	180.135	0.019	-0.027
-454.997	29.080	0.144	0.121
-453.982	-52.919	-0.499	-0.228
-452.968	-68.601	-0.128	-0.049
-451.953	248.961	-0.111	-0.186
-450.938	-9.130	-0.092	-0.061
-449.924	24.554	-0.040	0.033
-448.909	-116.746	-0.287	0.052
-447.895	120.876	-0.110	0.136
-446.880	43.252	0.073	0.066
-445.865	-200.000	0.004	0.116
-444.851	273.667	0.180	0.315
-443.836	-144.267	-0.216	0.020
-442.822	-60.963	0.191	-0.080
-441.807	-132.788	-0.057	-0.007
-440.792	-200.000	-0.025	0.247
-439.778	-200.000	-0.087	0.436
-438.763	-200.000	0.011	0.060
-437.749	160.192	0.253	-0.350
-436.734	-34.729	0.129	0.070
-435.719	-169.595	-0.151	0.005
-434.705	-104.750	-0.024	0.006
-433.690	-200.000	0.062	-0.383
-432.676	-200.000	0.072	-0.328
-431.661	-200.000	-0.005	0.075
-430.646	-31.174	0.325	-0.181
-429.632	-200.000	-0.017	0.115
-428.617	-200.000	-0.003	-0.096
-427.603	-200.000	0.006	-0.106
-426.588	-66.906	-0.274	0.107
-425.573	-31.676	-0.196	-0.109
-424.559	120.527	-0.094	-0.115
-423.544	220.833	-0.072	-0.114
-422.530	236.728	0.023	0.037
-421.515	-142.411	0.270	-0.026
-420.500	-135.246	0.270	0.032
-419.486	-50.850	0.131	-0.061
-418.471	-27.818	0.128	-0.073
-417.457	800.000	-0.069	0.194
-416.442	-42.845	-0.048	-0.024
-415.428	-49.901	-0.223	-0.105
-414.413	17.927	0.186	0.147
-413.398	-200.000	-0.017	0.233
-412.384	671.014	0.046	-0.117
-411.369	-200.000	0.004	-0.053
-410.355	17.184	-0.155	-0.122
-409.340	-200.000	-0.014	0.242
-408.325	-47.252	0.118	0.057
-407.311	177.354	0.125	0.180
-406.296	-91.484	0.120	-0.034
-405.282	800.000	0.052	0.152
-404.267	216.704	-0.055	0.087
-403.252	198.167	0.194	0.293
-402.238	48.711	-0.094	-0.087
-401.223	-200.000	0.007	-0.067
-400.209	-179.610	-0.050	0.001
-399.194	-200.000	0.017	-0.350
-398.179	800.000	0.166	-0.487
-397.165	-144.661	0.212	-0.019
-396.150	-95.334	0.036	-0.010
-395.136	48.128	0.190	-0.175
-394.121	800.000	-0.060	0.166
-393.106	139.970	-0.175	-0.228
-392.092	445.892	0.044	0.097
-391.077	148.296	-0.306	-0.408
-390.063	-200.000	-0.026	-0.135
-389.048	332.934	-0.061	-0.116
-388.033	181.017	-0.096	-0.139
-387.019	-29.901	0.171	-0.097
-386.004	-88.294	-0.213	-0.063
-384.990	188.928	0.091	-0.134
-383.975	-200.000	0.030	-0.140
-382.960	-77.320	0.194	-0.067
-381.946	260.261	-0.135	-0.231
-380.931	-61.600	0.179	-0.074
-379.917	-41.199	-0.320	0.163
-378.902	-200.000	0.046	-0.397
-377.888	86.840	0.064	-0.070
-376.873	-72.121	-0.176	0.065
-375.858	-168.356	-0.520	0.020
-374.844	-110.780	-0.179	-0.036
-373.829	-150.818	-0.146	-0.011
-372.815	800.000	-0.051	0.219
-371.800	14.738	0.159	0.123
-370.785	-107.888	0.157	-0.034
-369.771	800.000	0.076	-0.290
-368.756	-200.000	-0.049	0.245
-367.742	46.352	-0.069	-0.063
-366.727	121.556	0.143	0.176
-365.712	-200.000	0.010	-0.124
-364.698	-63.014	0.080	0.033
-363.683	-27.150	0.150	0.087
-362.669	-200.000	-0.018	0.227
-361.654	800.000	0.015	0.056
-360.639	-124.928	-0.388	0.059
-359.625	9.595	-0.145	0.109
-358.610	-90.112	-0.504	0.145
-357.596	-55.838	0.403	0.178
-356.581	-49.938	-0.117	0.055
-355.566	146.189	0.009	0.011
-354.552	-98.608	0.333	-0.084
-353.537	748.165	-0.036	0.095
-352.523	-200.000	-0.025	0.184
-351.508	99.233	-0.045	0.051
-350.493	261.547	0.094	0.161
-349.479	109.015	0.058	0.069
-348.464	357.928	0.144	-0.284
-347.450	30.265	0.158	0.133
-346.435	-35.201	0.245	-0.131
-345.420	56.245	-0.338	0.324
-344.406	-13.139	0.223	0.143
-343.391	22.709	-0.033	0.026
-342.377	-200.000	-0.013	0.211
-341.362	-200.000	0.079	0.517
-340.348	-200.000	-0.015	0.201
-339.333	269.103	-0.104	-0.179
-338.318	-72.505	-0.284	0.104
-337.304	800.000	-0.040	0.171
-336.289	-154.739	0.151	0.010
-335.275	-154.747	0.154	-0.010
-334.260	-34.995	0.179	0.096
-333.245	-114.387	0.197	-0.037
-332.231	47.260	-0.203	-0.187
-331.216	428.949	-0.022	-0.047
-330.202	243.124	0.065	0.107
-329.187	-200.000	0.061	0.329
-328.172	143.535	0.107	-0.141
-327.158	-200.000	-0.001	0.043
-326.143	-9.346	0.047	0.031
-325.129	-66.487	0.252	-0.099
-324.114	800.000	-0.047	-0.179
-323.099	-74.259	-0.162	-0.058
-322.085	-111.088	0.171	0.035
-321.070	142.074	-0.141	-0.184
-320.056	325.125	-0.077	-0.145
-319.041	-200.000	-0.004	0.072
-318.026	357.944	0.084	-0.165
-317.012	-200.000	-0.020	-0.274
-315.997	68.019	0.252	-0.254
-314.983	-17.155	0.065	-0.041
-313.968	43.119	0.228	-0.205
-312.953	62.424	-0.150	-0.148
-311.939	57.965	0.150	-0.144
-310.924	-200.000	0.020	-0.172
-309.910	-61.616	0.145	-0.060
-308.895	800.000	0.043	-0.128
-307.880	-74.336	-0.175	0.062
-306.866	-200.000	-0.024	0.120
-305.851	-174.860	0.078	0.002
-304.837	-95.375	-0.352	0.093
-303.822	273.643	-0.158	-0.275
-302.807	-122.063	0.103	0.017
-301.793	-101.640	-0.189	0.045
-300.778	-153.475	-0.495	-0.034
-299.764	-31.036	-0.124	-0.069
-298.749	-125.379	-0.281	0.042
-297.735	800.000	-0.079	-0.297
-296.720	307.437	-0.054	0.100
-295.705	5.644	-0.180	0.131
-294.691	119.007	0.077	-0.094
-293.676	-8.023	0.122	-0.081
-292.662	245.729	0.137	-0.227
-291.647	73.295	-0.328	0.338
-290.632	-200.000	-0.021	-0.121
-289.618	-102.755	0.174	-0.041
-288.603	107.397	0.142	0.167
-287.589	-48.356	0.068	0.032
-286.574	22.659	-0.277	0.223
-285.559	-117.691	0.227	-0.040
-284.545	800.000	-0.061	0.199
-283.530	73.641	0.113	0.116
-282.516	141.956	0.158	-0.206
-281.501	289.030	0.143	0.255
-280.486	19.606	0.268	0.212
-279.472	-200.000	0.014	-0.180
-278.457	-180.200	-0.274	0.006
-277.443	-84.289	-0.253	0.079
-276.428	-200.000	-0.046	0.230
-275.413	-67.237	-0.231	-0.089
-274.399	100.556	-0.110	-0.126
-273.384	800.000	0.042	0.176
-272.370	-200.000	0.020	0.000
-271.355	8.173	0.279	0.206
-270.340	-126.727	0.379	0.055
-269.326	-200.000	-0.015	-0.120
-268.311	120.488	-0.130	-0.159
-267.297	800.000	-0.071	-0.221
-266.282	-69.464	0.291	0.110
-265.267	42.916	0.339	0.304
-264.253	43.360	0.055	-0.050
-263.238	-36.959	0.194	0.103
-262.224	-146.862	-0.311	0.026
-261.209	-122.571	-0.022	0.004
-260.195	-200.000	-0.052	-0.237
-259.180	156.344	-0.296	0.402
-258.165	-200.000	0.018	0.153
-257.151	-125.164	0.283	0.043
-256.136	318.747	-0.225	-0.419
-255.122	800.000	0.048	-0.201
-254.107	433.805	0.108	-0.230
-253.092	160.978	-0.167	0.230
-252.078	164.989	0.226	0.313
-251.063	-200.000	0.048	-0.254
-250.049	477.224	-0.112	0.248
-249.034	-77.754	0.334	0.114
-248.019	131.163	0.172	-0.217
-247.005	14.893	-0.245	0.188
-245.990	-34.113	0.240	-0.130
-244.976	131.386	0.310	-0.392
-243.961	6.412	0.378	0.276
-242.946	-134.548	0.015	-0.002
-241.932	26.390	0.332	0.273
-240.917	-58.795	-0.195	-0.083
-239.903	37.779	0.234	-0.204
-238.888	-117.174	-0.181	-0.032
-237.873	-80.124	0.043	0.014
-236.859	32.473	-0.350	-0.297
-235.844	155.164	-0.243	-0.328
-234.830	-60.689	-0.310	-0.129
-233.815	-72.032	0.118	0.043
-232.800	26.066	0.138	0.113
-231.786	-64.636	0.254	-0.101
-230.771	104.726	-0.019	-0.022
-229.757	-200.000	0.006	0.065
-228.742	772.094	0.117	-0.314
-227.727	-200.000	0.054	-0.260
-226.713	735.233	0.022	0.058
-225.698	800.000	0.054	0.223
-224.684	334.009	-0.027	-0.051
-223.669	-52.954	0.174	0.079
-222.655	-172.351	-0.193	0.006
-221.640	507.322	-0.198	0.451
-220.625	291.204	0.059	-0.106
-219.611	-164.314	-0.230	-0.010
-218.596	328.415	0.044	0.083
-217.582	-2.294	-0.042	0.029
-216.567	-12.284	0.050	-0.032
-215.552	115.959	0.076	0.091
-214.538	91.845	0.098	0.108
-213.523	673.517	-0.099	-0.252
-212.509	-56.669	-0.281	-0.122
-211.494	-200.000	-0.027	-0.338
-210.479	-200.000	0.074	0.420
-209.465	653.401	-0.185	0.465
-208.450	239.996	0.173	-0.283
-207.436	-88.455	0.258	-0.076
-206.421	-70.339	0.116	-0.043
-205.406	-200.000	-0.021	-0.212
-204.392	-39.887	0.099	0.051
-203.377	-5.692	0.284	-0.191
-202.363	91.039	-0.223	-0.245
-201.348	-54.337	0.281	0.125
-200.333	-133.484	-0.014	-0.002
-199.319	163.782	-0.185	0.255
-198.304	51.950	0.055	-0.052
-197.290	-200.000	0.025	-0.127
-196.275	-75.331	0.243	-0.085
-195.260	210.870	-0.073	-0.113
-194.246	-200.000	-0.005	-0.315
-193.231	-200.000	-0.052	0.277
-192.217	-99.295	-0.224	-0.056
-191.202	800.000	-0.017	0.071
-190.187	-200.000	-0.001	0.062
-189.173	91.848	-0.234	-0.258
-188.158	-200.000	0.030	0.276
-187.144	-63.742	0.596	0.239
-186.129	-200.000	0.048	0.299
-185.114	-149.339	-0.283	-0.022
-184.100	-114.212	0.188	0.036
-183.085	-130.671	0.229	-0.030
-182.071	-38.481	-0.233	0.121
-181.056	-61.216	0.311	-0.129
-180.042	85.008	0.307	0.330
-179.027	-200.000	0.005	0.117
-178.012	770.127	0.104	0.277
-176.998	-18.234	0.399	0.245
-175.983	-158.331	-0.220	-0.013
-174.969	81.492	0.270	0.286
-173.954	-125.979	-0.224	0.033
-172.939	800.000	0.059	-0.167
-171.925	128.219	0.096	-0.119
-170.910	-92.578	-0.146	0.040
-169.896	-97.737	0.206	-0.052
-168.881	-200.000	0.014	-0.154
-167.866	-200.000	0.027	0.187
-166.852	-13.264	0.329	0.209
-165.837	34.974	0.200	-0.171
-164.823	51.007	-0.318	0.295
-163.808	-119.277	0.215	0.037
-162.793	551.276	0.067	0.156
-161.779	-103.384	0.324	-0.075
-160.764	-69.662	-0.357	-0.134
-159.750	109.521	-0.181	0.212
-158.735	220.895	0.173	0.271
-157.720	12.864	-0.126	0.095
-156.706	8.235	-0.204	0.150
-155.691	8.820	0.107	-0.079
-154.677	6.310	-0.218	-0.159
-153.662	76.932	0.096	0.100
-152.647	-119.619	-0.435	0.074
-151.633	215.840	0.229	0.356
-150.618	800.000	-0.074	0.272
-149.604	57.598	0.182	-0.174
-148.589	-29.690	-0.338	0.189
-147.574	-113.156	0.307	0.059
-146.560	445.712	-0.181	0.388
-145.545	-146.213	0.161	-0.014
-144.531	-96.659	-0.143	-0.037
-143.516	694.454	-0.142	0.366
-142.502	367.488	-0.187	0.371
-141.487	800.000	0.145	0.406
-140.472	403.621	0.209	-0.431
-139.458	472.262	-0.130	-0.287
-138.443	-146.264	-0.048	-0.004
-137.429	169.792	-0.060	-0.084
-136.414	262.280	-0.161	0.274
-135.399	29.090	-0.195	-0.162
-134.385	178.207	0.159	0.227
-133.370	228.122	-0.056	-0.089
-132.356	-137.633	0.407	0.045
-131.341	-24.969	-0.076	-0.044
-130.326	30.614	-0.180	-0.151
-129.312	-200.000	0.000	0.041
-128.297	-113.089	-0.052	0.010
-127.283	-9.497	0.163	0.106
-126.268	406.750	0.120	0.249
-125.253	800.000	-0.013	0.055
-124.239	221.762	0.168	-0.264
-123.224	-160.269	0.217	-0.011
-122.210	-121.354	0.128	0.021
-121.195	-139.569	0.039	0.004
