DTS Sentinel unit serial number:	SN413079Multiplexer serial number:	ORYXHardware model number:	OX4-SRSoftware version number:	ORYX F/W v4.00 Oryx Data Collector v3.7.2.0data status	okinstallation	princeton_trtdifferential loss correction	single-endedforward channel	channel 1reverse channel	N/Adate	2019/09/19time	02:54:35forward acquisition time	60.00reverse acquisition time	0.00gamma	496.2192k internal	0.2344k external	0.2344temperature offset calibration	1.0018default loss term (dB/km)	0.3790temperature slope calibration	1.0000multiplexer offset coefficient	1.0000multiplexer slope coefficient	1.0000fibre end	0.00T internal ref (°C)	20.87T ext. ref 1 (°C)	0.65T ext. ref 2 (°C)	14.69length (m)	temperature (°C)	Stokes	anti-Stokes-747.200	228.202	-0.076	-0.125
-746.185	59.090	-0.041	0.040
-745.171	-68.381	0.283	0.110
-744.156	800.000	0.055	-0.158
-743.142	-90.860	-0.293	0.084
-742.127	-102.169	0.135	-0.033
-741.112	-200.000	-0.036	0.312
-740.098	-158.705	-0.348	-0.020
-739.083	-157.803	-0.209	0.012
-738.069	-46.752	0.018	-0.009
-737.054	-183.598	0.288	0.005
-736.039	-48.108	-0.230	0.111
-735.025	-53.369	0.381	0.175
-734.010	304.612	-0.130	-0.242
-732.996	277.605	0.035	-0.062
-731.981	800.000	-0.112	0.314
-730.966	800.000	0.040	0.160
-729.952	-200.000	-0.010	-0.331
-728.937	124.949	0.094	-0.118
-727.923	-200.000	-0.029	-0.229
-726.908	-92.420	0.137	0.039
-725.894	-64.345	-0.302	-0.123
-724.879	-125.874	0.191	0.029
-723.864	427.119	-0.145	0.314
-722.850	-132.242	0.215	0.028
-721.835	-80.670	0.158	-0.053
-720.821	-37.785	-0.030	-0.016
-719.806	-138.891	-0.175	-0.019
-718.791	-133.824	-0.274	0.034
-717.777	198.156	0.042	0.064
-716.762	-60.851	-0.132	-0.056
-715.748	317.805	-0.195	0.369
-714.733	74.898	0.078	0.082
-713.718	77.846	0.094	0.100
-712.704	-200.000	-0.021	0.149
-711.689	-40.050	0.170	-0.089
-710.675	800.000	0.062	-0.181
-709.660	88.570	0.200	-0.222
-708.645	785.751	-0.064	-0.174
-707.631	-200.000	0.003	0.072
-706.616	25.618	-0.273	-0.227
-705.602	592.554	0.016	-0.039
-704.587	-105.697	-0.101	-0.023
-703.572	80.693	-0.131	0.141
-702.558	199.677	0.184	0.282
-701.543	58.893	0.278	-0.273
-700.529	800.000	0.065	0.181
-699.514	665.255	-0.045	0.116
-698.499	-200.000	-0.024	0.270
-697.485	73.782	0.180	0.188
-696.470	-55.788	0.162	0.072
-695.456	-82.701	0.139	-0.045
-694.441	26.312	0.193	-0.161
-693.426	-200.000	-0.009	0.183
-692.412	-2.909	-0.116	-0.081
-691.397	800.000	0.035	0.111
-690.383	170.279	-0.245	0.350
-689.368	800.000	-0.038	0.142
-688.354	0.689	-0.126	-0.090
-687.339	-100.860	-0.068	-0.017
-686.324	90.184	-0.162	0.180
-685.310	3.636	0.096	0.070
-684.295	800.000	0.061	-0.209
-683.281	800.000	0.099	0.330
-682.266	-9.276	-0.173	-0.116
-681.251	-100.941	0.148	0.036
-680.237	-200.000	-0.036	-0.159
-679.222	237.439	-0.056	0.092
-678.208	140.017	0.041	0.054
-677.193	-12.903	0.203	0.132
-676.178	483.229	0.112	-0.254
-675.164	177.722	-0.165	0.241
-674.149	102.595	-0.197	0.230
-673.135	-65.365	0.322	0.129
-672.120	20.733	-0.078	-0.063
-671.105	141.680	-0.036	0.047
-670.091	228.783	-0.118	0.192
-669.076	13.843	-0.431	-0.334
-668.062	-200.000	0.050	0.227
-667.047	474.899	0.122	-0.276
-666.032	-107.656	-0.256	0.056
-665.018	-66.949	0.204	0.080
-664.003	-72.377	0.129	0.048
-662.989	769.765	0.129	0.351
-661.974	-26.114	-0.221	-0.129
-660.959	98.188	0.079	-0.091
-659.945	332.838	-0.123	-0.238
-658.930	158.191	0.258	0.357
-657.916	-68.767	-0.172	0.066
-656.901	168.911	0.078	-0.111
-655.886	-98.028	0.218	-0.056
-654.872	-93.007	-0.314	-0.087
-653.857	-44.095	0.071	-0.035
-652.843	-5.702	0.145	0.099
-651.828	-200.000	-0.185	-0.000
-650.814	-53.225	-0.147	-0.067
-649.799	-200.000	0.057	-0.299
-648.784	-200.000	0.005	-0.126
-647.770	-101.502	-0.180	-0.044
-646.755	49.458	-0.061	0.057
-645.741	-11.063	-0.218	-0.143
-644.726	94.297	0.026	0.030
-643.711	-90.953	0.126	0.036
-642.697	21.444	-0.211	0.171
-641.682	-200.000	0.005	-0.071
-640.668	26.039	0.156	-0.130
-639.653	-200.000	0.025	-0.274
-638.638	-200.000	-0.016	0.120
-637.624	123.497	-0.171	0.214
-636.609	83.418	0.199	0.216
-635.595	81.191	0.207	0.223
-634.580	-200.000	0.029	-0.147
-633.565	-200.000	0.028	-0.366
-632.551	-82.239	0.184	0.060
-631.536	-200.000	0.013	0.083
-630.522	23.611	0.259	-0.212
-629.507	-115.362	0.356	0.067
-628.492	800.000	0.074	0.268
-627.478	-200.000	-0.026	0.241
-626.463	74.049	-0.126	-0.132
-625.449	800.000	-0.069	0.230
-624.434	-73.027	-0.148	-0.054
-623.419	-55.566	-0.040	0.018
-622.405	256.571	0.102	-0.175
-621.390	800.000	-0.020	-0.065
-620.376	438.520	0.076	0.166
-619.361	59.477	-0.105	-0.103
-618.346	800.000	0.087	-0.240
-617.332	-86.231	0.194	0.059
-616.317	-94.366	-0.354	-0.096
-615.303	-132.867	0.131	-0.017
-614.288	54.713	0.143	-0.137
-613.273	193.466	-0.163	0.246
-612.259	-200.000	0.002	0.187
-611.244	-200.000	0.030	-0.151
-610.230	-108.894	-0.350	-0.074
-609.215	-200.000	0.040	-0.441
-608.201	290.324	-0.071	-0.128
-607.186	249.226	0.196	0.330
-606.171	-136.060	-0.295	-0.035
-605.157	261.484	0.211	-0.364
-604.142	-113.479	0.108	-0.021
-603.128	800.000	-0.079	0.259
-602.113	319.647	-0.106	-0.201
-601.098	-84.237	-0.120	-0.038
-600.084	134.267	0.249	-0.321
-599.069	-200.000	0.041	0.221
-598.055	-141.923	-0.167	0.017
-597.040	-65.193	0.150	0.060
-596.025	624.260	-0.139	0.349
-595.011	-59.163	-0.218	0.094
-593.996	91.260	0.123	0.138
-592.982	-200.000	0.025	0.112
-591.967	-0.539	0.273	-0.192
-590.952	-20.978	0.117	-0.071
-589.938	12.345	-0.287	0.220
-588.923	236.919	-0.224	0.369
-587.909	-139.548	-0.020	-0.002
-586.894	-118.854	0.165	-0.029
-585.879	-151.641	-0.307	0.023
-584.865	734.782	0.120	-0.320
-583.850	-200.000	0.033	-0.150
-582.836	-134.628	-0.187	-0.023
-581.821	148.872	0.250	0.336
-580.806	-179.026	-0.460	0.010
-579.792	518.965	0.098	0.229
-578.777	-145.304	0.282	0.025
-577.763	-10.011	-0.112	0.074
-576.748	-110.649	-0.102	0.021
-575.733	92.809	-0.042	-0.047
-574.719	51.404	0.203	-0.192
-573.704	-200.000	-0.020	-0.144
-572.690	73.501	0.105	-0.110
-571.675	-200.000	-0.003	-0.101
-570.661	-109.633	-0.010	0.002
-569.646	589.465	-0.109	0.266
-568.631	800.000	0.025	-0.100
-567.617	800.000	0.110	-0.344
-566.602	-68.540	-0.330	-0.127
-565.588	-127.107	0.020	-0.003
-564.573	-200.000	0.013	0.093
-563.558	-16.930	0.256	-0.161
-562.544	584.416	0.048	-0.116
-561.529	-43.316	-0.226	-0.113
-560.515	-200.000	-0.030	-0.209
-559.500	79.295	0.214	-0.228
-558.485	-73.565	-0.452	0.164
-557.471	252.229	-0.185	-0.313
-556.456	180.563	-0.046	-0.068
-555.442	-155.975	0.296	-0.019
-554.427	205.717	-0.097	0.150
-553.412	186.349	-0.097	-0.144
-552.398	-0.461	0.180	0.127
-551.383	-27.017	0.315	-0.182
-550.369	79.538	0.259	0.276
-549.354	-100.825	-0.196	0.048
-548.339	-200.000	0.486	0.002
-547.325	-77.156	-0.146	-0.051
-546.310	-67.556	-0.198	0.077
-545.296	-200.000	0.009	-0.038
-544.281	99.060	-0.072	0.082
-543.266	800.000	0.039	0.109
-542.252	-171.687	-0.310	0.010
-541.237	-50.005	-0.185	-0.087
-540.223	-126.310	-0.382	0.057
-539.208	51.080	0.379	-0.357
-538.193	-200.000	0.029	-0.137
-537.179	-51.397	0.102	0.047
-536.164	-200.000	-0.040	0.222
-535.150	97.319	0.049	0.056
-534.135	800.000	0.052	0.192
-533.121	-148.570	0.168	0.014
-532.106	159.339	0.215	-0.297
-531.091	-51.457	-0.182	-0.085
-530.077	800.000	-0.030	0.112
-529.062	183.902	0.057	-0.083
-528.048	-29.805	0.219	-0.124
-527.033	-120.493	0.363	-0.061
-526.018	-110.600	-0.110	-0.023
-525.004	-157.750	-0.218	-0.013
-523.989	-200.000	0.041	0.258
-522.975	-115.499	0.335	-0.063
-521.960	-82.163	0.235	0.076
-520.945	800.000	-0.043	0.135
-519.931	429.717	0.170	-0.366
-518.916	99.517	-0.125	-0.144
-517.902	-33.856	-0.214	0.117
-516.887	-120.520	-0.231	0.039
-515.872	3.028	0.050	0.036
-514.858	-73.603	-0.431	-0.156
-513.843	-200.000	-0.054	-0.377
-512.829	-28.003	0.138	-0.079
-511.814	-95.263	-0.346	-0.093
-510.799	-117.595	-0.290	0.052
-509.785	-174.192	-0.230	-0.007
-508.770	163.461	-0.088	-0.122
-507.756	800.000	-0.038	-0.154
-506.741	511.925	0.165	0.380
-505.726	49.532	-0.085	0.080
-504.712	5.576	-0.352	0.258
-503.697	-83.761	-0.190	0.060
-502.683	800.000	-0.078	0.256
-501.668	72.999	0.148	0.153
-500.653	139.189	-0.272	0.354
-499.639	-2.255	-0.175	0.122
-498.624	-44.227	0.012	-0.006
-497.610	718.284	0.011	0.029
-496.595	42.284	-0.244	0.220
-495.581	-200.000	-0.021	-0.302
-494.566	-136.671	-0.308	-0.035
-493.551	-40.019	0.289	-0.150
-492.537	-38.344	-0.213	-0.112
-491.522	-200.000	0.035	-0.186
-490.508	-115.830	-0.226	-0.042
-489.493	456.379	0.083	0.182
-488.478	522.702	-0.075	-0.175
-487.464	140.689	0.210	-0.275
-486.449	139.894	-0.211	-0.275
-485.435	79.041	0.291	0.309
-484.420	-54.570	0.190	0.085
-483.405	800.000	0.072	-0.257
-482.391	-129.745	-0.117	0.016
-481.376	84.518	-0.023	0.025
-480.362	-200.000	0.028	-0.372
-479.347	-112.609	-0.190	-0.038
-478.332	1.413	-0.046	0.033
-477.318	-93.576	-0.266	-0.073
-476.303	100.537	0.042	-0.048
-475.289	34.202	0.188	-0.163
-474.274	160.571	-0.068	-0.094
-473.259	-16.765	0.235	-0.147
-472.245	76.597	-0.237	0.248
-471.230	114.367	-0.066	0.080
-470.216	-200.000	-0.007	-0.180
-469.201	-200.000	0.004	-0.130
-468.186	315.658	-0.197	-0.368
-467.172	495.444	-0.011	0.025
-466.157	-200.000	-0.016	0.082
-465.143	136.282	-0.050	-0.065
-464.128	800.000	0.047	-0.189
-463.113	115.588	-0.019	-0.023
-462.099	-32.142	0.307	0.170
-461.084	-41.364	-0.209	-0.107
-460.070	82.711	0.356	0.383
-459.055	-164.040	-0.014	0.001
-458.040	-73.368	-0.292	0.106
-457.026	642.139	-0.170	-0.430
-456.011	278.510	-0.087	-0.153
-454.997	-143.744	-0.064	0.006
-453.982	246.360	-0.051	-0.085
-452.968	-131.436	-0.159	0.021
-451.953	-59.941	0.344	0.146
-450.938	800.000	0.070	-0.208
-449.924	282.417	-0.157	-0.279
-448.909	800.000	-0.084	0.289
-447.895	-107.738	0.385	0.083
-446.880	800.000	0.178	-0.530
-445.865	-20.169	-0.450	-0.275
-444.851	51.975	-0.211	0.199
-443.836	134.656	0.172	0.221
-442.822	-8.425	-0.210	0.140
-441.807	-200.000	-0.061	0.324
-440.792	518.890	-0.088	-0.203
-439.778	178.133	0.200	0.288
-438.763	-36.971	-0.129	0.068
-437.749	-200.000	-0.014	0.118
-436.734	-98.327	0.436	-0.111
-435.719	-200.000	-0.022	0.148
-434.705	-97.825	0.106	-0.027
-433.690	23.381	0.046	-0.037
-432.676	-12.641	0.096	0.062
-431.661	-200.000	-0.015	-0.252
-430.646	96.114	0.072	0.081
-429.632	-200.000	0.010	-0.305
-428.617	-147.258	-0.183	-0.015
-427.603	-28.212	-0.213	0.122
-426.588	-107.336	0.310	-0.067
-425.573	24.764	-0.286	0.234
-424.559	-139.457	-0.114	0.012
-423.544	-6.357	0.066	0.045
-422.530	138.277	0.128	0.166
-421.515	800.000	-0.042	0.157
-420.500	54.585	0.233	0.222
-419.486	-134.004	0.126	0.015
-418.471	229.096	-0.207	0.333
-417.457	800.000	-0.079	0.271
-416.442	-200.000	-0.001	-0.164
-415.428	-161.687	0.428	-0.022
-414.413	330.928	-0.084	-0.160
-413.398	-28.205	-0.313	0.179
-412.384	536.663	0.123	0.289
-411.369	-18.718	-0.398	0.245
-410.355	160.729	0.154	-0.212
-409.340	800.000	-0.080	-0.249
-408.325	-107.969	0.033	0.007
-407.311	-200.000	0.014	-0.080
-406.296	-105.925	-0.285	-0.063
-405.282	-68.240	0.349	-0.134
-404.267	-200.000	-0.037	0.285
-403.252	-200.000	0.035	0.229
-402.238	-88.143	-0.520	-0.154
-401.223	-146.110	0.175	-0.015
-400.209	121.733	-0.051	-0.063
-399.194	-35.053	-0.148	0.080
-398.179	-59.540	-0.076	-0.032
-397.165	800.000	-0.053	0.182
-396.150	77.825	0.235	0.248
-395.136	394.649	-0.101	0.207
-394.121	197.501	0.168	-0.254
-393.106	-200.000	0.022	0.195
-392.092	238.781	0.237	0.388
-391.077	-136.884	0.319	0.036
-390.063	-123.602	-0.254	-0.040
-389.048	764.406	0.063	0.169
-388.033	233.280	-0.055	-0.090
-387.019	29.857	0.065	-0.055
-386.004	-14.613	0.295	-0.187
-384.990	272.377	0.301	-0.523
-383.975	-22.287	0.107	-0.064
-382.960	-94.655	-0.189	-0.051
-381.946	60.656	0.297	0.291
-380.931	-200.000	0.033	0.633
-379.917	-200.000	0.027	0.196
-378.902	-99.823	-0.215	-0.053
-377.888	-33.178	0.393	0.215
-376.873	800.000	0.058	0.246
-375.858	67.921	-0.069	-0.069
-374.844	-200.000	0.049	0.217
-373.829	64.924	-0.080	0.080
-372.815	718.837	0.048	-0.126
-371.800	-72.257	0.260	0.095
-370.785	22.437	0.567	0.457
-369.771	-99.941	-0.270	-0.067
-368.756	800.000	0.040	0.132
-367.742	-200.000	0.029	-0.145
-366.727	300.857	0.125	-0.228
-365.712	-200.000	0.001	0.297
-364.698	-41.225	-0.142	0.072
-363.683	148.153	-0.143	-0.190
-362.669	-118.185	-0.327	-0.057
-361.654	800.000	0.051	-0.166
-360.639	-151.297	-0.025	-0.002
-359.625	306.271	0.049	0.090
-358.610	800.000	0.074	0.282
-357.596	232.540	0.099	0.160
-356.581	-75.659	0.184	0.064
-355.566	-200.000	-0.014	0.105
-354.552	403.996	-0.128	0.265
-353.537	800.000	0.044	-0.120
-352.523	99.596	0.228	0.260
-351.508	-15.498	0.217	0.137
-350.493	-200.000	-0.026	-0.185
-349.479	266.818	-0.250	-0.431
-348.464	86.811	-0.130	-0.141
-347.450	-200.000	0.021	0.147
-346.435	-68.559	-0.298	0.114
-345.420	800.000	0.014	0.051
-344.406	535.611	-0.015	-0.036
-343.391	-157.045	-0.086	-0.005
-342.377	-200.000	0.017	-0.239
-341.362	386.434	0.095	0.194
-340.348	333.703	-0.038	0.072
-339.333	50.112	0.078	-0.073
-338.318	-200.000	-0.006	-0.116
-337.304	800.000	0.033	0.140
-336.289	416.495	-0.026	-0.055
-335.275	-153.458	-0.295	-0.020
-334.260	353.808	0.031	-0.061
-333.245	109.354	-0.122	0.144
-332.231	126.080	0.126	0.156
-331.216	-16.923	0.088	0.055
-330.202	-200.000	0.036	0.165
-329.187	-68.504	-0.132	-0.050
-328.172	107.147	0.118	0.138
-327.158	46.503	-0.184	-0.168
-326.143	-143.282	-0.377	0.036
-325.129	439.115	-0.072	-0.155
-324.114	800.000	-0.031	0.105
-323.099	129.342	0.065	-0.081
-322.085	-166.740	0.246	-0.010
-321.070	74.879	-0.093	0.096
-320.056	-200.000	0.016	-0.226
-319.041	-200.000	0.041	0.499
-318.026	-67.300	-0.165	-0.064
-317.012	291.324	-0.132	-0.237
-315.997	-66.266	0.119	0.047
-314.983	-21.141	-0.345	0.208
-313.968	800.000	0.086	0.308
-312.953	233.861	-0.018	-0.030
-311.939	10.516	-0.121	-0.091
-310.924	217.482	0.066	-0.103
-309.910	-103.108	0.158	-0.037
-308.895	-84.205	0.274	0.086
-307.880	9.845	0.047	-0.035
-306.866	122.199	-0.169	0.207
-305.851	66.887	0.177	0.178
-304.837	-104.832	0.437	-0.099
-303.822	428.237	-0.041	-0.086
-302.807	-69.440	-0.435	-0.164
-301.793	800.000	0.047	0.151
-300.778	-200.000	-0.091	-0.447
-299.764	800.000	-0.063	-0.232
-298.749	99.944	-0.178	-0.202
-297.735	-69.974	0.305	-0.114
-296.720	800.000	-0.058	0.249
-295.705	2.493	-0.239	-0.170
-294.691	-200.000	0.009	-0.342
-293.676	583.458	-0.090	0.217
-292.662	-200.000	-0.001	0.060
-291.647	-186.076	0.272	-0.004
-290.632	135.322	-0.104	0.133
-289.618	-38.467	-0.182	-0.095
-288.603	158.202	-0.167	0.228
-287.589	136.034	0.069	0.088
-286.574	109.931	0.142	-0.168
-285.559	-55.532	0.174	-0.077
-284.545	78.920	-0.200	-0.210
-283.530	-18.552	-0.188	-0.115
-282.516	-63.737	0.396	0.159
-281.501	459.360	-0.115	-0.251
-280.486	800.000	-0.030	0.115
-279.472	-156.323	0.423	-0.026
-278.457	-10.461	-0.118	0.077
-277.443	-200.000	-0.012	0.274
-276.428	-67.773	0.180	0.069
-275.413	-200.000	-0.002	-0.122
-274.399	47.397	0.118	0.109
-273.384	-200.000	-0.022	0.256
-272.370	-200.000	-0.003	-0.189
-271.355	800.000	0.086	-0.313
-270.340	-144.987	-0.050	0.005
-269.326	510.594	-0.079	-0.180
-268.311	236.531	-0.186	-0.302
-267.297	-34.337	-0.255	0.137
-266.282	652.171	0.033	0.083
-265.267	-150.604	0.175	0.013
-264.253	-104.373	0.314	0.072
-263.238	10.122	0.204	0.153
-262.224	129.862	0.160	0.202
-261.209	55.895	0.081	0.077
-260.195	-200.000	0.054	-0.310
-259.180	72.740	-0.112	0.115
-258.165	800.000	0.030	-0.122
-257.151	-138.818	0.055	-0.006
-256.136	800.000	-0.063	0.229
-255.122	-7.241	-0.320	-0.213
-254.107	800.000	0.073	0.251
-253.092	48.084	-0.031	-0.029
-252.078	-47.751	0.049	0.023
-251.063	-5.557	-0.399	-0.269
-250.049	27.370	-0.264	0.218
-249.034	-13.826	-0.105	0.067
-248.019	617.359	-0.046	0.114
-247.005	-27.373	0.094	0.054
-245.990	-50.289	-0.481	0.223
-244.976	-200.000	-0.242	0.001
-243.961	-12.558	0.184	-0.118
-242.946	103.238	0.212	-0.244
-241.932	-200.000	0.019	0.088
-240.917	49.584	0.211	0.195
-239.903	51.107	-0.182	-0.169
-238.888	-200.000	-0.019	0.104
-237.873	-200.000	0.005	-0.196
-236.859	45.267	0.155	-0.140
-235.844	800.000	0.022	-0.067
-234.830	-200.000	0.018	-0.268
-233.815	800.000	-0.098	-0.270
-232.800	-45.473	0.098	0.047
-231.786	-119.569	0.034	0.006
-230.771	296.080	0.143	0.258
-229.757	-40.696	-0.479	0.243
-228.742	66.816	-0.135	-0.135
-227.727	-119.433	-0.449	-0.076
-226.713	800.000	0.013	0.047
-225.698	247.605	0.158	0.261
-224.684	-91.509	-0.134	-0.037
-223.669	-58.586	-0.045	-0.019
-222.655	72.970	-0.078	0.080
-221.640	126.390	-0.098	-0.121
-220.625	417.004	0.048	0.100
-219.611	288.841	-0.115	-0.205
-218.596	261.418	-0.137	0.233
-217.582	204.034	0.135	0.205
-216.567	10.642	-0.070	-0.053
-215.552	-65.318	0.164	-0.065
-214.538	-200.000	0.040	0.179
-213.523	-138.403	0.182	0.020
-212.509	-174.080	0.215	0.006
-211.494	-200.000	-0.017	0.168
-210.479	-121.720	0.135	0.022
-209.465	800.000	0.023	-0.066
-208.450	291.108	-0.041	-0.073
-207.436	800.000	0.023	-0.074
-206.421	65.117	0.182	0.180
-205.406	-40.817	0.038	-0.019
-204.392	800.000	-0.055	0.204
-203.377	241.917	-0.055	0.090
-202.363	-73.279	0.061	-0.022
-201.348	800.000	-0.027	0.073
-200.333	-200.000	-0.068	-0.402
-199.319	-73.773	0.083	0.029
-198.304	82.830	0.245	0.261
-197.290	12.925	0.267	0.203
-196.275	43.766	0.147	0.131
-195.260	-109.844	0.194	-0.040
-194.246	34.776	0.146	-0.125
-193.231	-103.934	0.167	0.038
-192.217	-119.375	-0.332	-0.057
-191.202	-120.116	0.310	0.052
-190.187	37.296	0.127	-0.110
-189.173	-126.480	0.372	0.054
-188.158	-180.396	-0.230	0.005
-187.144	-122.245	-0.078	-0.012
-186.129	-152.073	-0.151	-0.011
-185.114	58.223	0.037	-0.035
-184.100	-80.455	0.363	0.118
-183.085	-17.761	0.210	0.129
-182.071	30.140	-0.092	-0.077
-181.056	167.274	0.322	0.448
-180.042	-200.000	0.070	-0.414
-179.027	201.993	0.069	0.104
-178.012	-200.000	-0.018	-0.130
-176.998	800.000	0.081	-0.313
-175.983	-125.491	0.083	0.012
-174.969	-200.000	0.013	-0.184
-173.954	-200.000	-0.047	-0.272
-172.939	30.547	0.136	0.114
-171.925	-104.268	-0.143	-0.032
-170.910	-200.000	-0.030	-0.212
-169.896	-4.859	-0.143	-0.096
-168.881	-119.538	-0.048	0.008
-167.866	-24.620	0.084	-0.049
-166.852	-200.000	0.005	0.125
-165.837	-6.467	0.248	-0.165
-164.823	-57.564	-0.235	0.101
-163.808	-130.522	0.339	0.045
-162.793	3.944	-0.142	0.102
-161.779	-78.922	0.010	-0.003
-160.764	-200.000	-0.003	-0.350
-159.750	440.026	0.047	-0.101
-158.735	-49.783	0.227	-0.105
-157.720	-200.000	0.041	-0.373
-156.706	-11.638	-0.039	-0.025
-155.691	278.767	0.037	0.064
-154.677	51.427	-0.205	-0.190
-153.662	181.092	0.072	0.104
-152.647	340.985	-0.148	0.283
-151.633	-200.000	0.011	-0.078
-150.618	179.682	-0.112	0.160
-149.604	-93.746	0.235	0.063
-148.589	-200.000	0.033	0.186
-147.574	-163.361	-0.125	-0.006
-146.560	123.300	-0.118	0.144
-145.545	-151.817	0.134	0.010
-144.531	109.876	0.182	-0.214
-143.516	-200.000	0.033	0.217
-142.502	-200.000	0.017	0.158
-141.487	800.000	0.043	-0.126
-140.472	-200.000	0.024	0.417
-139.458	145.391	0.127	-0.166
-138.443	-118.815	-0.303	0.052
-137.429	800.000	0.030	0.118
-136.414	290.332	-0.086	0.152
-135.399	-200.000	0.009	0.233
-134.385	-33.751	0.149	0.080
-133.370	800.000	0.110	0.359
-132.356	-81.564	0.239	-0.077
-131.341	-200.000	0.031	0.189
-130.326	-12.334	-0.234	0.150
-129.312	-68.217	0.096	0.036
-128.297	-5.946	0.080	-0.054
-127.283	-161.687	-0.102	-0.005
-126.268	161.293	0.018	0.024
-125.253	-200.000	0.003	-0.154
-124.239	13.065	-0.110	0.083
-123.224	-200.000	0.005	-0.141
-122.210	-76.993	0.419	0.143
-121.195	247.215	0.180	0.296
