DTS Sentinel unit serial number:	SN413079Multiplexer serial number:	ORYXHardware model number:	OX4-SRSoftware version number:	ORYX F/W v4.00 Oryx Data Collector v3.7.2.0data status	okinstallation	princeton_trtdifferential loss correction	single-endedforward channel	channel 1reverse channel	N/Adate	2019/09/18time	22:54:35forward acquisition time	60.00reverse acquisition time	0.00gamma	496.2192k internal	0.2341k external	0.2341temperature offset calibration	1.0016default loss term (dB/km)	0.3790temperature slope calibration	1.0000multiplexer offset coefficient	1.0000multiplexer slope coefficient	1.0000fibre end	0.00T internal ref (°C)	24.06T ext. ref 1 (°C)	0.79T ext. ref 2 (°C)	17.99length (m)	temperature (°C)	Stokes	anti-Stokes-747.200	-25.050	0.033	0.020
-746.185	80.798	0.009	-0.009
-745.171	-150.908	0.356	0.027
-744.156	227.999	-0.146	0.238
-743.142	-1.642	-0.113	0.080
-742.127	800.000	0.105	0.324
-741.112	-37.540	0.306	0.164
-740.098	-200.000	0.061	0.335
-739.083	-98.230	-0.190	-0.049
-738.069	-200.000	0.062	0.314
-737.054	-200.000	-0.074	0.347
-736.039	-10.884	0.215	-0.142
-735.025	-14.084	-0.302	-0.195
-734.010	-25.405	-0.364	-0.216
-732.996	800.000	-0.004	-0.016
-731.981	-200.000	0.009	-0.149
-730.966	186.348	-0.198	-0.296
-729.952	-65.469	-0.211	0.085
-728.937	-86.253	-0.333	-0.103
-727.923	237.978	0.052	-0.086
-726.908	33.761	-0.244	-0.213
-725.894	14.224	0.225	-0.175
-724.879	271.979	0.036	0.063
-723.864	348.592	-0.053	0.106
-722.850	-103.708	-0.219	-0.051
-721.835	62.360	0.193	-0.193
-720.821	-33.806	-0.127	0.070
-719.806	-58.662	-0.344	-0.149
-718.791	-152.027	-0.191	0.014
-717.777	194.452	0.270	0.410
-716.762	-15.269	0.072	0.046
-715.748	800.000	0.075	-0.257
-714.733	-200.000	-0.055	0.350
-713.718	-62.167	0.045	0.019
-712.704	-99.776	-0.147	-0.037
-711.689	-106.504	-0.225	0.050
-710.675	-14.259	-0.153	-0.099
-709.660	54.624	-0.159	-0.153
-708.645	195.251	0.167	0.254
-707.631	177.167	0.185	0.269
-706.616	-200.000	0.008	0.070
-705.602	-144.969	0.052	-0.005
-704.587	-74.695	-0.305	0.110
-703.572	-200.000	0.005	0.204
-702.558	-108.069	0.283	0.061
-701.543	168.029	-0.038	0.053
-700.529	515.662	-0.159	0.371
-699.514	-22.941	-0.180	-0.108
-698.499	578.095	-0.075	-0.184
-697.485	271.060	0.124	0.219
-696.470	-87.364	0.117	0.036
-695.456	63.344	-0.106	0.107
-694.441	104.510	0.181	0.213
-693.426	-200.000	0.004	0.247
-692.412	-200.000	0.000	0.161
-691.397	-175.230	0.117	-0.003
-690.383	-200.000	0.082	-0.453
-689.368	78.937	-0.079	-0.085
-688.354	-200.000	0.071	-0.531
-687.339	157.516	0.129	0.179
-686.324	89.461	0.167	-0.186
-685.310	86.531	-0.018	0.019
-684.295	453.547	-0.089	0.197
-683.281	140.060	-0.090	-0.119
-682.266	57.916	0.240	0.235
-681.251	-75.738	0.257	0.091
-680.237	69.448	0.196	0.201
-679.222	800.000	0.043	0.148
-678.208	362.486	-0.173	-0.347
-677.193	-65.230	-0.222	-0.089
-676.178	462.209	0.099	-0.221
-675.164	-200.000	0.019	0.099
-674.149	-132.885	0.179	-0.023
-673.135	-118.478	-0.461	0.082
-672.120	-200.000	0.000	-0.014
-671.105	-200.000	0.016	0.091
-670.091	800.000	-0.084	-0.289
-669.076	348.481	-0.135	-0.266
-668.062	43.109	0.080	-0.073
-667.047	11.821	0.120	0.092
-666.032	375.991	-0.203	-0.414
-665.018	480.788	0.085	0.193
-664.003	447.923	0.122	0.269
-662.989	-164.239	-0.170	-0.008
-661.974	599.865	-0.103	-0.256
-660.959	-112.879	-0.080	0.016
-659.945	-118.720	0.212	0.037
-658.930	800.000	-0.098	-0.303
-657.916	-42.622	-0.230	0.117
-656.901	-136.778	-0.173	-0.020
-655.886	-2.926	-0.276	-0.192
-654.872	0.390	-0.090	0.064
-653.857	2.970	-0.139	-0.101
-652.843	-49.437	-0.357	-0.170
-651.828	-34.487	0.283	-0.155
-650.814	-133.413	0.359	-0.045
-649.799	126.560	-0.120	0.152
-648.784	-61.295	-0.111	0.047
-647.770	-83.890	-0.346	0.110
-646.755	130.486	-0.068	-0.087
-645.741	38.185	0.131	0.117
-644.726	-175.772	0.481	-0.013
-643.711	-90.040	-0.284	0.083
-642.697	-92.231	-0.126	0.035
-641.682	-96.875	-0.091	-0.024
-640.668	-97.954	0.348	0.090
-639.653	-47.390	0.046	0.022
-638.638	-102.327	0.122	0.029
-637.624	8.902	-0.064	0.048
-636.609	18.583	-0.191	-0.152
-635.595	774.019	-0.204	-0.555
-634.580	84.649	-0.142	0.155
-633.565	451.744	-0.017	0.038
-632.551	136.781	-0.286	-0.373
-631.536	-200.000	-0.004	0.019
-630.522	-200.000	-0.005	0.039
-629.507	10.581	-0.193	-0.147
-628.492	-25.062	0.134	0.079
-627.478	-6.588	0.238	0.162
-626.463	-200.000	0.006	-0.074
-625.449	7.703	-0.182	-0.136
-624.434	800.000	0.093	-0.279
-623.419	308.285	0.148	-0.276
-622.405	-146.796	-0.099	-0.009
-621.390	39.319	0.261	-0.233
-620.376	216.032	-0.082	-0.131
-619.361	-200.000	-0.015	0.355
-618.346	-200.000	0.060	-0.375
-617.332	361.751	0.146	-0.292
-616.317	227.486	-0.226	0.367
-615.303	62.139	0.154	0.154
-614.288	-112.848	-0.176	0.035
-613.273	-5.158	-0.114	0.078
-612.259	-18.196	-0.249	-0.155
-611.244	-161.590	0.178	-0.009
-610.230	-117.357	-0.211	0.038
-609.215	-34.590	-0.458	-0.250
-608.201	-154.981	0.252	0.017
-607.186	-6.086	0.086	0.059
-606.171	-88.713	0.076	0.023
-605.157	167.488	-0.292	0.414
-604.142	141.444	-0.095	-0.125
-603.128	-17.027	0.267	-0.168
-602.113	393.719	-0.110	-0.228
-601.098	-4.629	0.048	-0.033
-600.084	-103.085	-0.322	-0.076
-599.069	-200.000	0.003	0.106
-598.055	-61.786	-0.236	-0.099
-597.040	800.000	-0.034	0.103
-596.025	-49.640	-0.386	0.183
-595.011	-200.000	-0.004	0.089
-593.996	157.763	0.153	0.211
-592.982	34.386	-0.105	0.091
-591.967	140.556	-0.202	0.266
-590.952	-59.474	0.076	-0.032
-589.938	-200.000	0.015	0.135
-588.923	-126.283	-0.066	0.010
-587.909	-114.007	-0.304	0.059
-586.894	178.543	-0.125	-0.182
-585.879	-87.874	-0.193	0.058
-584.865	-71.214	0.252	0.094
-583.850	-147.661	0.271	-0.023
-582.836	-75.360	-0.164	-0.058
-581.821	101.546	0.069	0.080
-580.806	-49.444	-0.273	0.129
-579.792	38.986	-0.095	-0.085
-578.777	71.775	0.213	0.220
-577.763	242.949	-0.086	0.144
-576.748	800.000	0.055	0.192
-575.733	-76.742	0.530	-0.185
-574.719	324.466	-0.203	-0.386
-573.704	-17.549	0.252	-0.158
-572.690	-200.000	-0.018	-0.278
-571.675	35.908	-0.167	-0.146
-570.661	464.077	0.145	0.322
-569.646	-123.991	0.178	0.028
-568.631	-165.882	-0.221	0.009
-567.617	258.649	0.210	-0.361
-566.602	-95.055	0.072	0.019
-565.588	-168.260	-0.121	0.005
-564.573	-200.000	0.004	0.064
-563.558	83.027	0.147	-0.159
-562.544	-113.102	-0.310	-0.061
-561.529	425.845	-0.092	-0.198
-560.515	800.000	-0.056	0.199
-559.500	199.724	-0.162	0.248
-558.485	792.435	0.123	0.338
-557.471	-143.632	0.241	-0.023
-556.456	88.410	-0.069	-0.076
-555.442	-92.511	-0.124	-0.035
-554.427	52.095	-0.443	0.420
-553.412	704.621	-0.123	0.322
-552.398	308.332	0.137	-0.254
-551.383	94.125	-0.059	0.067
-550.369	208.424	-0.069	0.108
-549.354	297.912	-0.084	-0.154
-548.339	-114.563	0.174	-0.033
-547.325	-21.719	0.260	-0.157
-546.310	154.375	0.128	-0.175
-545.296	-200.000	-0.046	0.213
-544.281	-89.611	0.172	0.050
-543.266	-179.529	0.234	0.005
-542.252	-200.000	0.025	0.364
-541.237	15.219	-0.238	-0.186
-540.223	151.066	-0.151	-0.205
-539.208	17.532	0.092	0.072
-538.193	-200.000	0.011	0.323
-537.179	-74.421	-0.160	0.057
-536.164	-97.539	-0.193	-0.050
-535.150	-87.657	0.188	0.056
-534.135	372.679	-0.035	-0.070
-533.121	-27.453	0.157	0.091
-532.106	800.000	-0.072	-0.298
-531.091	31.183	0.170	0.145
-530.077	-9.821	0.042	-0.028
-529.062	-95.489	0.289	-0.077
-528.048	-18.107	-0.048	0.030
-527.033	396.834	-0.067	0.138
-526.018	37.076	-0.260	0.229
-525.004	800.000	-0.020	0.077
-523.989	-179.782	-0.224	-0.005
-522.975	800.000	0.124	-0.476
-521.960	800.000	-0.030	0.084
-520.945	-111.991	0.070	0.014
-519.931	-73.832	0.157	-0.057
-518.916	-23.955	-0.103	-0.061
-517.902	156.844	-0.158	0.216
-516.887	-200.000	-0.125	0.653
-515.872	-125.143	0.192	0.029
-514.858	-200.000	0.021	0.135
-513.843	-200.000	-0.022	0.130
-512.829	-44.060	-0.046	-0.023
-511.814	-134.801	-0.387	-0.047
-510.799	32.888	0.296	-0.255
-509.785	128.217	0.045	0.057
-508.770	576.786	0.131	-0.319
-507.756	-96.110	0.172	-0.045
-506.741	-200.000	-0.024	0.496
-505.726	-98.872	0.225	-0.057
-504.712	800.000	-0.069	-0.247
-503.697	143.634	-0.095	0.126
-502.683	800.000	0.079	-0.249
-501.668	-183.229	0.139	-0.002
-500.653	-65.053	-0.290	0.116
-499.639	33.128	-0.009	-0.008
-498.624	-158.747	-0.105	0.006
-497.610	-200.000	0.038	0.260
-496.595	-87.396	0.251	-0.075
-495.581	-77.501	-0.444	-0.153
-494.566	-60.229	0.138	-0.058
-493.551	-200.000	-0.033	0.445
-492.537	5.890	0.034	-0.025
-491.522	-130.512	0.181	0.024
-490.508	85.514	0.172	0.188
-489.493	-200.000	-0.039	-0.240
-488.478	349.726	0.112	-0.220
-487.464	-109.627	0.284	0.059
-486.449	-200.000	-0.054	0.324
-485.435	-200.000	0.279	0.001
-484.420	-200.000	0.019	0.293
-483.405	-27.173	0.141	0.081
-482.391	617.502	-0.075	-0.186
-481.376	-16.346	0.245	-0.154
-480.362	-97.157	-0.164	-0.043
-479.347	-200.000	-0.007	0.126
-478.332	267.504	0.093	-0.162
-477.318	-200.000	0.002	-0.365
-476.303	102.138	0.138	0.160
-475.289	-163.833	0.098	0.005
-474.274	177.360	0.043	0.062
-473.259	-200.000	-0.019	0.207
-472.245	800.000	0.053	0.209
-471.230	-200.000	0.018	-0.212
-470.216	-200.000	0.016	0.133
-469.201	139.795	-0.113	0.147
-468.186	-22.192	0.077	0.047
-467.172	362.205	0.014	-0.027
-466.157	216.178	-0.088	-0.139
-465.143	-43.822	-0.167	-0.083
-464.128	52.038	0.020	0.019
-463.113	771.285	-0.100	-0.271
-462.099	-200.000	0.002	0.096
-461.084	-200.000	0.000	-0.207
-460.070	-82.910	0.305	-0.097
-459.055	-4.347	-0.195	-0.134
-458.040	-11.765	-0.212	-0.138
-457.026	-53.895	0.453	0.205
-456.011	615.103	0.102	-0.252
-454.997	489.519	-0.090	0.203
-453.982	358.223	0.038	0.076
-452.968	800.000	-0.007	-0.026
-451.953	-36.849	-0.048	0.026
-450.938	-67.652	0.382	0.148
-449.924	-170.315	-0.468	-0.016
-448.909	75.392	-0.123	-0.128
-447.895	-116.477	-0.204	-0.037
-446.880	-82.152	0.107	0.035
-445.865	-115.437	0.124	0.023
-444.851	-51.883	-0.311	-0.143
-443.836	-138.182	0.211	0.023
-442.822	-200.000	0.027	-0.141
-441.807	800.000	0.032	0.135
-440.792	-89.165	-0.283	-0.083
-439.778	-111.500	-0.285	0.058
-438.763	800.000	-0.068	-0.187
-437.749	174.701	-0.262	0.375
-436.734	101.905	-0.078	0.090
-435.719	-200.000	-0.003	-0.020
-434.705	-144.789	0.044	0.004
-433.690	-54.467	-0.182	-0.081
-432.676	440.149	-0.073	-0.158
-431.661	43.211	0.145	0.131
-430.646	-75.885	0.146	-0.051
-429.632	6.672	0.033	-0.024
-428.617	-115.115	0.313	0.059
-427.603	800.000	0.070	-0.224
-426.588	-112.638	-0.294	-0.058
-425.573	-65.288	0.106	0.042
-424.559	-34.726	0.125	-0.068
-423.544	520.991	-0.075	0.174
-422.530	303.088	0.135	-0.248
-421.515	-102.908	0.367	-0.086
-420.500	-62.073	-0.179	0.074
-419.486	800.000	-0.032	-0.112
-418.471	712.908	-0.038	0.100
-417.457	49.689	0.113	0.105
-416.442	-200.000	-0.057	0.273
-415.428	800.000	-0.113	-0.352
-414.413	-51.891	-0.287	0.132
-413.398	439.917	-0.019	-0.041
-412.384	372.587	0.058	-0.117
-411.369	-185.292	-0.133	-0.002
-410.355	-200.000	0.041	0.236
-409.340	44.107	0.094	0.085
-408.325	154.945	-0.212	-0.288
-407.311	-106.863	0.092	-0.020
-406.296	-25.595	-0.191	0.111
-405.282	-196.397	-0.279	-0.002
-404.267	-78.619	0.289	0.098
-403.252	-113.580	-0.279	-0.054
-402.238	800.000	-0.076	0.246
-401.223	-51.318	0.140	-0.065
-400.209	-200.000	-0.055	0.318
-399.194	162.717	-0.202	-0.281
-398.179	-200.000	0.001	-0.073
-397.165	7.181	-0.093	-0.069
-396.150	308.876	0.136	-0.251
-395.136	525.033	0.053	-0.124
-394.121	-3.110	-0.098	-0.067
-393.106	-200.000	0.016	0.096
-392.092	-200.000	-0.049	0.343
-391.077	-200.000	0.005	-0.029
-390.063	-172.805	-0.080	0.002
-389.048	-108.178	0.182	-0.039
-388.033	-200.000	0.003	0.098
-387.019	218.809	-0.114	-0.180
-386.004	359.223	-0.039	-0.077
-384.990	569.496	0.072	0.173
-383.975	-200.000	0.022	-0.284
-382.960	-76.176	-0.135	0.047
-381.946	187.894	-0.007	0.010
-380.931	800.000	0.117	0.360
-379.917	-200.000	0.014	0.111
-378.902	321.383	-0.116	0.219
-377.888	-101.044	-0.341	0.082
-376.873	-27.227	-0.329	-0.189
-375.858	63.033	0.261	-0.258
-374.844	75.966	0.117	0.122
-373.829	-103.379	-0.227	0.053
-372.815	-136.709	-0.355	0.040
-371.800	-101.485	0.570	-0.137
-370.785	-200.000	-0.023	-0.143
-369.771	-50.733	-0.273	-0.127
-368.756	-123.651	0.047	0.007
-367.742	-200.000	-0.041	0.334
-366.727	51.158	0.140	0.131
-365.712	-41.519	-0.130	-0.066
-364.698	735.188	0.054	-0.142
-363.683	9.441	-0.056	0.042
-362.669	-200.000	-0.052	-0.366
-361.654	800.000	-0.084	0.247
-360.639	-68.919	-0.234	0.089
-359.625	46.782	-0.160	0.147
-358.610	800.000	-0.036	-0.144
-357.596	181.651	-0.110	0.160
-356.581	139.787	0.190	-0.247
-355.566	44.252	0.048	0.044
-354.552	-72.845	0.096	0.035
-353.537	-158.143	0.045	-0.003
-352.523	-90.032	-0.210	-0.060
-351.508	571.069	0.026	0.061
-350.493	531.963	-0.115	-0.269
-349.479	-0.009	0.208	-0.146
-348.464	-43.036	0.109	0.054
-347.450	-90.598	0.104	0.030
-346.435	-19.211	0.077	-0.047
-345.420	209.681	0.120	0.185
-344.406	761.108	0.100	0.268
-343.391	736.937	0.077	-0.203
-342.377	-122.623	-0.148	-0.024
-341.362	-129.736	0.357	-0.048
-340.348	-150.405	-0.152	-0.012
-339.333	-18.653	0.123	0.076
-338.318	121.382	0.099	0.121
-337.304	-200.000	-0.009	-0.495
-336.289	-17.903	0.289	-0.179
-335.275	-190.957	0.336	-0.003
-334.260	-200.000	0.555	0.001
-333.245	-49.551	-0.178	0.084
-332.231	-7.112	0.102	-0.068
-331.216	-200.000	-0.017	0.096
-330.202	45.698	-0.157	0.143
-329.187	-72.484	-0.280	-0.102
-328.172	20.881	-0.029	-0.023
-327.158	-131.936	0.035	0.005
-326.143	207.071	0.169	0.260
-325.129	267.340	-0.092	-0.160
-324.114	227.248	0.095	0.152
-323.099	-134.823	-0.241	-0.029
-322.085	-158.185	-0.225	0.013
-321.070	-127.225	0.439	0.063
-320.056	13.872	0.054	-0.041
-319.041	-116.242	0.455	0.083
-318.026	-95.709	-0.174	-0.046
-317.012	800.000	-0.069	-0.233
-315.997	-10.246	0.177	0.116
-314.983	550.907	-0.079	-0.186
-313.968	-200.000	-0.045	0.330
-312.953	-143.923	-0.199	0.019
-311.939	-72.583	0.114	-0.042
-310.924	-200.000	-0.266	0.001
-309.910	-51.019	0.056	0.026
-308.895	-40.387	-0.349	-0.179
-307.880	-143.087	0.203	0.019
-306.866	-126.374	-0.146	0.021
-305.851	-115.674	0.222	-0.041
-304.837	800.000	-0.023	0.091
-303.822	-102.962	-0.247	0.058
-302.807	-147.467	0.152	-0.013
-301.793	-200.000	-0.004	0.219
-300.778	644.526	0.128	-0.321
-299.764	-95.060	0.262	0.070
-298.749	-9.771	-0.219	0.144
-297.735	-51.650	-0.222	-0.102
-296.720	-46.169	-0.206	-0.100
-295.705	-132.346	0.487	0.062
-294.691	211.040	-0.139	0.215
-293.676	8.893	0.194	0.144
-292.662	-200.000	0.020	-0.175
-291.647	-200.000	0.037	-0.189
-290.632	-51.460	-0.152	0.070
-289.618	20.595	-0.121	-0.097
-288.603	-6.358	-0.083	0.056
-287.589	800.000	-0.049	0.150
-286.574	-100.316	0.076	0.019
-285.559	127.011	-0.177	-0.221
-284.545	248.042	-0.248	-0.413
-283.530	-200.000	0.048	-0.311
-282.516	-106.251	-0.089	0.020
-281.501	-122.495	-0.262	-0.042
-280.486	271.615	0.087	0.151
-279.472	-144.935	-0.338	-0.030
-278.457	269.781	0.227	-0.392
-277.443	13.783	-0.162	0.124
-276.428	57.405	0.322	0.309
-275.413	-61.661	0.193	-0.080
-274.399	800.000	-0.019	-0.081
-273.384	-148.784	-0.096	-0.008
-272.370	38.873	0.142	-0.125
-271.355	-200.000	0.000	-0.063
-270.340	-61.832	-0.203	-0.084
-269.326	239.849	0.091	0.149
-268.311	-200.000	0.038	0.266
-267.297	90.495	-0.083	-0.091
-266.282	176.671	0.164	-0.234
-265.267	-108.338	0.108	0.023
-264.253	119.077	0.028	0.034
-263.238	660.259	-0.130	-0.329
-262.224	-157.991	-0.309	0.018
-261.209	-80.688	0.183	0.060
-260.195	-146.951	-0.319	-0.027
-259.180	47.192	0.153	-0.140
-258.165	217.910	0.181	0.283
-257.151	-28.741	0.063	-0.035
-256.136	54.495	0.200	-0.190
-255.122	-200.000	-0.038	-0.688
-254.107	800.000	-0.051	0.172
-253.092	194.909	0.040	0.060
-252.078	108.031	-0.038	0.044
-251.063	442.637	0.086	0.184
-250.049	-101.035	-0.039	-0.009
-249.034	-10.264	0.241	0.157
-248.019	-143.034	0.581	0.055
-247.005	-200.000	0.003	0.044
-245.990	22.165	0.038	-0.031
-244.976	800.000	-0.076	0.208
-243.961	-26.856	0.214	0.123
-242.946	64.008	-0.061	0.060
-241.932	473.486	-0.136	-0.302
-240.917	800.000	-0.048	0.201
-239.903	-15.461	0.399	-0.251
-238.888	9.337	0.105	-0.078
-237.873	-160.358	0.123	0.006
-236.859	-200.000	0.021	0.264
-235.844	-200.000	-0.007	-0.111
-234.830	-41.027	0.111	-0.057
-233.815	578.007	-0.067	-0.161
-232.800	85.825	0.333	0.360
-231.786	68.981	-0.056	-0.057
-230.771	197.307	0.189	-0.283
-229.757	592.713	-0.122	-0.295
-228.742	91.183	0.114	-0.126
-227.727	-200.000	-0.017	0.127
-226.713	-200.000	-0.068	-0.493
-225.698	247.650	-0.043	-0.071
-224.684	57.493	0.030	-0.029
-223.669	663.305	0.062	0.156
-222.655	-200.000	-0.012	-0.320
-221.640	356.033	0.218	0.427
-220.625	-145.250	-0.482	0.043
-219.611	81.974	0.117	0.125
-218.596	108.795	0.054	-0.063
-217.582	-96.157	0.287	0.075
-216.567	4.584	0.349	0.252
-215.552	-60.636	0.178	0.074
-214.538	33.051	-0.238	0.202
-213.523	-200.000	-0.009	0.206
-212.509	334.697	-0.088	0.168
-211.494	-72.125	0.357	-0.130
-210.479	625.174	0.109	0.269
-209.465	-7.646	0.192	-0.128
-208.450	-64.771	0.429	-0.171
-207.436	-143.572	0.215	-0.020
-206.421	-21.690	0.196	-0.117
-205.406	-200.000	0.047	-0.266
-204.392	800.000	0.098	-0.406
-203.377	800.000	-0.048	-0.180
-202.363	-200.000	0.013	0.559
-201.348	39.759	0.333	0.293
-200.333	-102.143	-0.072	0.017
-199.319	10.539	0.349	0.261
-198.304	545.038	-0.007	-0.017
-197.290	-60.017	-0.150	-0.063
-196.275	-102.907	0.107	0.025
-195.260	241.368	-0.197	-0.323
-194.246	800.000	-0.039	-0.116
-193.231	-16.598	0.225	0.140
-192.217	-88.192	-0.256	-0.075
-191.202	-109.420	0.040	0.008
-190.187	-165.839	0.167	0.007
-189.173	-200.000	0.000	-0.345
-188.158	-107.627	0.362	0.078
-187.144	-21.355	0.056	0.034
-186.129	12.710	-0.181	-0.137
-185.114	-200.000	-0.043	-0.268
-184.100	-71.906	-0.175	0.064
-183.085	-122.798	0.269	-0.043
-182.071	208.700	-0.134	0.206
-181.056	64.611	-0.054	0.054
-180.042	-18.483	-0.175	-0.107
-179.027	-111.852	0.038	-0.007
-178.012	-200.000	0.004	0.253
-176.998	800.000	0.030	0.093
-175.983	-144.987	-0.250	-0.022
-174.969	211.848	-0.170	-0.262
-173.954	145.401	0.139	0.182
-172.939	488.913	-0.149	0.335
-171.925	-200.000	-0.008	0.399
-170.910	-23.037	-0.067	0.039
-169.896	-25.624	-0.081	-0.047
-168.881	132.141	-0.053	0.067
-167.866	-144.008	-0.088	-0.008
-166.852	97.381	-0.218	-0.245
-165.837	-191.098	-0.142	-0.001
-164.823	-43.456	-0.221	-0.110
-163.808	-88.766	-0.354	0.103
-162.793	-200.000	0.075	0.430
-161.779	530.230	-0.147	0.340
-160.764	-63.937	-0.120	-0.048
-159.750	227.489	0.085	-0.136
-158.735	104.369	0.157	-0.181
-157.720	800.000	0.105	-0.335
-156.706	-200.000	0.052	0.259
-155.691	-73.439	-0.248	-0.089
-154.677	800.000	0.056	0.194
-153.662	186.701	-0.252	0.368
-152.647	800.000	-0.061	-0.259
-151.633	-45.092	0.055	-0.027
-150.618	-200.000	0.007	0.244
-149.604	-5.735	0.237	0.159
-148.589	404.867	0.131	-0.269
-147.574	-129.952	0.316	-0.042
-146.560	508.492	0.036	0.082
-145.545	-155.841	0.253	0.016
-144.531	127.203	-0.171	0.212
-143.516	-70.169	-0.141	0.053
-142.502	91.914	0.255	0.281
-141.487	-200.000	0.050	0.421
-140.472	96.242	0.094	-0.105
-139.458	-125.403	-0.101	0.015
-138.443	-200.000	-0.024	0.229
-137.429	-27.044	-0.213	0.121
-136.414	267.086	0.034	-0.059
-135.399	511.127	-0.138	-0.315
-134.385	27.720	-0.158	-0.130
-133.370	-200.000	0.021	-0.093
-132.356	140.511	0.170	0.219
-131.341	-200.000	-0.021	-0.137
-130.326	53.194	0.065	0.061
-129.312	31.323	-0.363	0.305
-128.297	-200.000	0.085	0.402
-127.283	194.323	-0.108	-0.161
-126.268	32.318	0.115	-0.097
-125.253	-28.395	0.302	-0.171
-124.239	10.925	0.203	-0.152
-123.224	-22.755	-0.269	0.159
-122.210	800.000	-0.116	-0.328
-121.195	-200.000	0.002	0.527
