DTS Sentinel unit serial number:	SN413079Multiplexer serial number:	ORYXHardware model number:	OX4-SRSoftware version number:	ORYX F/W v4.00 Oryx Data Collector v3.7.2.0data status	okinstallation	princeton_trtdifferential loss correction	single-endedforward channel	channel 1reverse channel	N/Adate	2019/09/15time	22:26:35forward acquisition time	60.00reverse acquisition time	0.00gamma	496.2192k internal	0.2331k external	0.2331temperature offset calibration	0.9967default loss term (dB/km)	0.3790temperature slope calibration	1.0000multiplexer offset coefficient	1.0000multiplexer slope coefficient	1.0000fibre end	0.00T internal ref (°C)	29.25T ext. ref 1 (°C)	8.72T ext. ref 2 (°C)	22.70length (m)	temperature (°C)	Stokes	anti-Stokes-747.200	-200.000	0.054	0.316
-746.185	170.248	-0.175	0.253
-745.171	102.141	-0.132	0.155
-744.156	-200.000	-0.065	0.416
-743.142	20.012	-0.174	0.141
-742.127	-100.599	-0.205	0.051
-741.112	208.873	0.188	0.296
-740.098	-136.940	-0.166	-0.019
-739.083	-200.000	-0.004	-0.076
-738.069	-200.000	-0.045	0.253
-737.054	-200.000	-0.017	-0.213
-736.039	-98.617	-0.324	0.083
-735.025	182.694	-0.087	0.129
-734.010	-200.000	-0.024	-0.205
-732.996	502.781	-0.126	-0.292
-731.981	-86.583	0.068	-0.021
-730.966	-153.535	-0.229	0.016
-729.952	-16.871	-0.521	-0.331
-728.937	-58.773	-0.206	0.090
-727.923	-8.326	-0.087	0.059
-726.908	-152.523	-0.144	-0.010
-725.894	-200.000	-0.000	0.032
-724.879	800.000	-0.032	0.106
-723.864	536.387	0.131	-0.312
-722.850	-66.323	0.036	-0.014
-721.835	30.359	0.083	-0.071
-720.821	148.602	0.141	0.192
-719.806	-20.422	-0.109	-0.067
-718.791	-200.000	-0.029	-0.192
-717.777	-200.000	-0.212	-0.000
-716.762	-50.817	-0.047	0.022
-715.748	359.525	-0.091	-0.184
-714.733	-200.000	0.001	0.255
-713.718	66.041	-0.234	-0.238
-712.704	543.469	-0.111	0.267
-711.689	238.082	-0.040	-0.067
-710.675	417.795	-0.228	-0.489
-709.660	95.137	-0.143	0.163
-708.645	296.287	-0.038	0.069
-707.631	24.667	0.308	0.257
-706.616	414.051	0.105	-0.224
-705.602	-133.638	-0.208	-0.026
-704.587	800.000	-0.017	-0.074
-703.572	531.112	0.056	-0.134
-702.558	-135.652	0.147	0.018
-701.543	134.462	-0.018	0.024
-700.529	398.617	0.068	0.143
-699.514	-82.476	0.100	-0.033
-698.499	800.000	-0.071	-0.269
-697.485	-53.300	-0.069	0.032
-696.470	800.000	-0.078	0.267
-695.456	-148.022	0.079	-0.007
-694.441	-66.512	-0.097	0.039
-693.426	-122.933	-0.353	-0.057
-692.412	59.284	0.230	-0.228
-691.397	369.268	0.135	-0.275
-690.383	220.044	0.055	0.088
-689.368	382.448	0.091	0.187
-688.354	-41.982	-0.119	-0.061
-687.339	-117.717	0.206	-0.037
-686.324	-200.000	0.021	0.135
-685.310	138.659	0.167	0.220
-684.295	84.356	-0.082	-0.090
-683.281	-58.013	-0.402	-0.176
-682.266	203.703	0.076	-0.118
-681.251	320.993	-0.053	-0.100
-680.237	-127.596	0.211	0.031
-679.222	-128.148	-0.255	-0.037
-678.208	800.000	-0.016	0.049
-677.193	-48.885	0.339	0.163
-676.178	-126.308	-0.224	-0.034
-675.164	-200.000	0.062	0.348
-674.149	-200.000	0.053	0.310
-673.135	-22.421	-0.319	0.194
-672.120	6.655	0.217	0.162
-671.105	-108.707	0.178	0.038
-670.091	-2.366	-0.295	0.208
-669.076	-109.253	0.234	-0.050
-668.062	189.144	0.031	-0.047
-667.047	-85.951	0.174	-0.054
-666.032	800.000	-0.054	0.204
-665.018	-200.000	0.033	-0.239
-664.003	-46.921	-0.192	-0.094
-662.989	-193.440	-0.124	-0.001
-661.974	-156.406	-0.259	0.016
-660.959	138.957	-0.134	0.177
-659.945	511.690	-0.045	-0.106
-658.930	286.706	0.027	-0.049
-657.916	222.282	-0.164	0.265
-656.901	120.324	0.094	-0.118
-655.886	10.686	-0.141	-0.108
-654.872	391.060	0.126	0.262
-653.857	87.802	0.096	0.106
-652.843	-38.098	-0.181	-0.097
-651.828	-148.280	0.413	-0.034
-650.814	743.639	0.066	0.178
-649.799	107.650	0.351	0.419
-648.784	-14.760	0.115	0.074
-647.770	-200.000	-0.071	-0.315
-646.755	800.000	0.081	-0.257
-645.741	-22.793	-0.140	-0.085
-644.726	656.369	-0.047	-0.122
-643.711	-99.747	-0.434	-0.109
-642.697	111.962	0.024	0.029
-641.682	546.304	-0.110	0.264
-640.668	-93.866	-0.204	-0.056
-639.653	-64.025	0.092	-0.038
-638.638	-102.885	-0.122	0.029
-637.624	-97.702	-0.203	-0.053
-636.609	800.000	-0.069	0.206
-635.595	-200.000	-0.016	0.204
-634.580	-83.965	-0.109	-0.035
-633.565	608.088	0.049	0.123
-632.551	47.571	-0.332	0.310
-631.536	494.006	0.209	0.482
-630.522	-200.000	0.087	0.508
-629.507	247.106	-0.096	-0.163
-628.492	-43.047	-0.098	0.050
-627.478	-149.494	-0.301	-0.024
-626.463	-109.184	-0.054	-0.011
-625.449	-200.000	0.001	0.171
-624.434	-200.000	0.046	0.374
-623.419	-41.427	-0.132	-0.068
-622.405	575.625	-0.173	-0.424
-621.390	69.641	-0.089	-0.092
-620.376	-98.167	0.103	-0.026
-619.361	270.088	0.040	-0.070
-618.346	318.899	-0.172	0.326
-617.332	56.406	0.091	0.089
-616.317	-200.000	-0.000	0.117
-615.303	250.589	0.122	0.208
-614.288	-200.000	0.005	-0.183
-613.273	800.000	-0.160	-0.480
-612.259	-37.480	0.105	-0.056
-611.244	699.189	-0.111	-0.294
-610.230	50.571	0.184	0.174
-609.215	96.736	0.204	0.234
-608.201	800.000	0.101	0.415
-607.186	7.738	-0.081	-0.060
-606.171	-200.000	-0.028	0.186
-605.157	-161.211	0.276	-0.014
-604.142	-80.170	0.159	0.053
-603.128	54.460	-0.131	0.126
-602.113	239.295	0.170	0.283
-601.098	-163.756	0.214	-0.010
-600.084	-200.000	-0.057	-0.300
-599.069	446.906	-0.035	0.078
-598.055	-200.000	-0.053	0.275
-597.040	173.791	0.162	0.234
-596.025	-78.325	0.293	-0.101
-595.011	145.676	-0.218	-0.292
-593.996	-200.000	0.011	-0.119
-592.982	698.890	-0.160	-0.422
-591.967	-136.082	0.112	0.013
-590.952	-20.498	0.229	0.141
-589.938	-161.852	-0.662	-0.034
-588.923	-64.025	-0.162	0.066
-587.909	34.141	-0.235	0.205
-586.894	-200.000	-0.027	0.348
-585.879	153.069	-0.161	-0.220
-584.865	46.279	-0.216	0.201
-583.850	-93.697	-0.092	0.025
-582.836	-5.417	-0.144	-0.099
-581.821	800.000	-0.056	-0.157
-580.806	-200.000	0.007	0.119
-579.792	-200.000	-0.060	0.344
-578.777	-45.993	0.246	-0.121
-577.763	-108.999	0.125	0.027
-576.748	-93.428	-0.226	-0.063
-575.733	180.748	0.047	-0.069
-574.719	-200.000	-0.016	-0.305
-573.704	800.000	0.058	-0.210
-572.690	208.573	-0.208	0.325
-571.675	-200.000	-0.066	-0.294
-570.661	-200.000	-0.046	0.204
-569.646	-114.286	0.149	0.029
-568.631	800.000	-0.079	0.330
-567.617	218.978	0.089	-0.142
-566.602	-51.108	0.026	0.012
-565.588	-200.000	0.003	0.071
-564.573	-120.021	-0.399	0.068
-563.558	-94.028	-0.086	-0.023
-562.544	-200.000	0.008	0.168
-561.529	-114.932	0.191	-0.036
-560.515	228.417	0.153	0.249
-559.500	-200.000	0.025	-0.161
-558.485	6.681	0.162	-0.120
-557.471	-112.004	-0.470	-0.095
-556.456	-200.000	0.018	-0.374
-555.442	-17.874	0.266	-0.166
-554.427	-2.298	-0.189	-0.132
-553.412	-95.112	0.213	-0.057
-552.398	710.527	0.104	0.276
-551.383	389.115	-0.137	-0.283
-550.369	-88.261	0.117	-0.035
-549.354	668.308	0.080	-0.208
-548.339	-151.837	-0.208	-0.015
-547.325	290.641	0.143	0.260
-546.310	93.452	0.051	0.058
-545.296	170.963	-0.177	-0.253
-544.281	-197.020	0.304	0.002
-543.266	-200.000	-0.035	0.273
-542.252	-129.656	-0.138	0.019
-541.237	774.372	0.061	-0.166
-540.223	36.987	0.199	-0.176
-539.208	490.777	-0.093	-0.213
-538.193	-47.622	-0.295	0.143
-537.179	-122.396	0.148	0.024
-536.164	-1.194	-0.151	-0.106
-535.150	422.678	-0.050	-0.108
-534.135	148.863	0.067	0.090
-533.121	18.984	-0.100	0.080
-532.106	-40.231	0.334	0.174
-531.091	-151.878	0.325	0.024
-530.077	-68.610	-0.389	0.150
-529.062	9.450	0.138	-0.105
-528.048	38.818	-0.171	0.153
-527.033	-185.499	-0.227	-0.003
-526.018	93.214	-0.086	0.097
-525.004	-102.497	-0.289	-0.069
-523.989	-200.000	0.014	0.307
-522.975	70.838	0.101	0.104
-521.960	516.139	-0.067	0.156
-520.945	-27.038	0.232	-0.135
-519.931	117.502	0.192	-0.236
-518.916	-70.039	0.385	0.146
-517.902	118.318	-0.173	-0.213
-516.887	-25.851	0.127	0.075
-515.872	108.966	0.056	0.067
-514.858	-179.669	0.033	0.001
-513.843	228.240	-0.050	-0.081
-512.829	311.781	-0.064	-0.119
-511.814	179.212	0.163	-0.238
-510.799	160.881	-0.015	-0.021
-509.785	-200.000	0.013	-0.200
-508.770	504.142	0.057	-0.132
-507.756	344.712	0.054	0.106
-506.741	36.755	-0.016	0.014
-505.726	-72.413	-0.133	0.049
-504.712	301.095	0.137	-0.252
-503.697	321.144	0.164	0.312
-502.683	272.771	-0.083	-0.147
-501.668	183.114	0.155	0.229
-500.653	66.008	-0.208	0.211
-499.639	-200.000	0.053	0.343
-498.624	190.359	0.088	-0.131
-497.610	-156.876	0.173	0.011
-496.595	-17.783	0.083	-0.052
-495.581	-200.000	0.039	0.173
-494.566	-152.534	0.154	-0.011
-493.551	23.377	-0.285	0.233
-492.537	-107.826	-0.507	0.110
-491.522	120.321	-0.250	-0.309
-490.508	50.216	0.148	0.139
-489.493	-127.714	0.263	0.038
-488.478	-200.000	0.076	-0.388
-487.464	-200.000	-0.020	-0.150
-486.449	-19.349	-0.024	-0.015
-485.435	800.000	-0.084	-0.299
-484.420	94.649	-0.342	-0.387
-483.405	-14.611	-0.211	-0.135
-482.391	397.947	-0.151	-0.316
-481.376	-59.431	-0.178	-0.076
-480.362	123.688	0.094	-0.117
-479.347	16.468	-0.156	0.122
-478.332	-73.489	0.256	0.093
-477.318	-132.810	0.378	-0.048
-476.303	-140.556	-0.221	0.023
-475.289	-8.105	-0.083	0.056
-474.274	67.221	0.286	-0.291
-473.259	130.831	0.121	-0.155
-472.245	800.000	-0.088	-0.315
-471.230	23.824	-0.194	0.159
-470.216	62.726	0.298	0.297
-469.201	-74.170	-0.122	-0.044
-468.186	231.633	0.279	0.455
-467.172	-52.270	0.198	-0.091
-466.157	158.229	-0.193	0.266
-465.143	-49.594	-0.171	-0.081
-464.128	560.629	0.069	-0.165
-463.113	-200.000	0.039	-0.400
-462.099	-200.000	-0.012	-0.094
-461.084	-62.735	-0.258	0.106
-460.070	729.098	-0.067	0.178
-459.055	-68.461	-0.157	-0.061
-458.040	-55.475	0.131	0.058
-457.026	-137.224	-0.179	0.020
-456.011	516.370	0.104	-0.243
-454.997	294.940	-0.198	-0.360
-453.982	267.709	0.057	0.100
-452.968	800.000	0.112	-0.313
-451.953	-45.963	0.175	-0.086
-450.938	120.237	0.064	-0.079
-449.924	800.000	-0.130	0.361
-448.909	275.434	-0.257	0.454
-447.895	-153.458	-0.058	0.004
-446.880	800.000	0.041	0.117
-445.865	-142.993	0.269	-0.026
-444.851	800.000	-0.079	-0.263
-443.836	160.325	-0.138	-0.191
-442.822	-80.702	0.214	-0.071
-441.807	-105.054	-0.083	0.019
-440.792	-67.611	-0.271	-0.106
-439.778	462.267	-0.021	0.047
-438.763	800.000	-0.081	0.283
-437.749	-68.037	0.290	-0.112
-436.734	-36.979	-0.166	0.089
-435.719	-50.177	-0.304	0.143
-434.705	-53.265	-0.357	-0.163
-433.690	550.897	0.064	0.153
-432.676	438.089	-0.063	0.138
-431.661	-88.032	0.336	-0.100
-430.646	-165.975	0.259	0.011
-429.632	-200.000	-0.028	-0.161
-428.617	-36.267	0.197	-0.106
-427.603	-200.000	-0.001	0.167
-426.588	-71.589	0.143	0.053
-425.573	-173.755	-0.305	0.009
-424.559	-171.749	0.149	-0.005
-423.544	-200.000	0.007	-0.058
-422.530	324.222	0.136	0.258
-421.515	-32.101	-0.168	0.094
-420.500	45.983	-0.233	-0.214
-419.486	-200.000	0.025	0.184
-418.471	-21.443	0.078	-0.047
-417.457	800.000	0.213	-0.590
-416.442	-133.260	0.128	-0.016
-415.428	72.506	-0.162	-0.168
-414.413	33.190	0.130	-0.112
-413.398	-200.000	-0.051	0.322
-412.384	26.786	-0.246	0.204
-411.369	-15.480	0.086	0.055
-410.355	-133.134	0.149	0.019
-409.340	3.166	-0.292	0.211
-408.325	656.155	0.104	-0.265
-407.311	267.344	0.059	-0.102
-406.296	111.180	-0.149	-0.178
-405.282	494.932	-0.141	-0.321
-404.267	493.241	0.074	0.169
-403.252	720.636	-0.090	0.238
-402.238	-72.133	-0.204	0.075
-401.223	-108.870	0.159	0.034
-400.209	84.891	0.138	0.150
-399.194	-83.267	-0.295	-0.094
-398.179	-38.934	0.133	0.069
-397.165	371.330	0.137	0.276
-396.150	583.220	0.055	-0.134
-395.136	-200.000	0.014	0.158
-394.121	217.756	-0.026	0.041
-393.106	-11.283	0.195	0.127
-392.092	-130.530	-0.279	-0.037
-391.077	68.679	0.164	0.167
-390.063	-200.000	-0.009	-0.080
-389.048	-200.000	0.060	-0.340
-388.033	-129.600	0.096	-0.013
-387.019	503.356	-0.139	0.319
-386.004	-77.292	0.480	-0.166
-384.990	-200.000	0.038	0.208
-383.975	-19.957	0.108	-0.066
-382.960	190.389	0.129	-0.192
-381.946	71.880	-0.121	-0.125
-380.931	-78.802	0.152	-0.051
-379.917	-200.000	0.018	0.178
-378.902	800.000	0.073	-0.265
-377.888	-143.793	-0.241	0.023
-376.873	-100.737	0.210	0.051
-375.858	290.573	-0.019	-0.034
-374.844	30.711	-0.349	0.297
-373.829	52.463	-0.060	0.057
-372.815	-200.000	0.044	0.242
-371.800	-167.332	0.103	-0.004
-370.785	-200.000	-0.017	0.153
-369.771	-172.432	0.190	0.006
-368.756	-186.432	-0.243	-0.003
-367.742	383.392	-0.075	-0.153
-366.727	218.881	-0.075	0.119
-365.712	-68.471	0.217	0.083
-364.698	-200.000	-0.007	-0.328
-363.683	-200.000	0.028	-0.133
-362.669	106.869	0.047	0.056
-361.654	-158.515	0.446	0.026
-360.639	-200.000	-0.082	0.424
-359.625	140.342	0.159	0.208
-358.610	292.233	0.157	0.284
-357.596	-87.026	-0.224	0.068
-356.581	124.390	-0.251	-0.313
-355.566	490.195	-0.136	0.307
-354.552	6.652	0.165	0.121
-353.537	42.762	-0.086	0.078
-352.523	157.414	-0.035	-0.048
-351.508	304.809	0.048	0.088
-350.493	5.957	-0.215	0.158
-349.479	73.780	-0.159	0.165
-348.464	78.149	-0.077	0.082
-347.450	-200.000	-0.007	0.143
-346.435	-200.000	-0.022	-0.450
-345.420	800.000	-0.059	-0.203
-344.406	-158.675	-0.085	0.005
-343.391	-106.333	-0.099	-0.022
-342.377	-58.655	0.404	0.173
-341.362	212.715	0.195	-0.305
-340.348	71.162	-0.133	-0.136
-339.333	449.948	-0.095	-0.208
-338.318	364.933	0.042	0.085
-337.304	800.000	0.052	0.225
-336.289	800.000	-0.057	0.245
-335.275	800.000	-0.124	-0.341
-334.260	-33.603	0.113	-0.062
-333.245	9.049	-0.028	-0.021
-332.231	11.806	0.190	-0.144
-331.216	800.000	0.122	-0.345
-330.202	-200.000	-0.005	0.081
-329.187	-200.000	0.026	-0.388
-328.172	-200.000	0.023	-0.127
-327.158	44.740	0.055	0.050
-326.143	-84.566	0.258	-0.081
-325.129	-200.000	0.043	0.235
-324.114	104.764	-0.128	-0.149
-323.099	800.000	-0.021	-0.064
-322.085	-11.717	0.212	0.138
-321.070	-108.764	0.153	0.032
-320.056	-5.308	-0.167	0.113
-319.041	-200.000	0.012	0.089
-318.026	-52.687	-0.141	0.065
-317.012	53.802	-0.087	-0.083
-315.997	28.957	-0.065	-0.055
-314.983	-200.000	0.010	-0.136
-313.968	-65.201	-0.253	0.101
-312.953	406.399	0.025	-0.052
-311.939	291.313	0.031	0.056
-310.924	-94.952	-0.291	0.078
-309.910	-180.575	-0.246	0.005
-308.895	-159.540	0.288	-0.016
-307.880	-84.277	0.194	-0.061
-306.866	-54.085	0.227	-0.102
-305.851	-180.959	-0.121	-0.002
-304.837	-200.000	0.007	-0.289
-303.822	46.451	0.049	-0.045
-302.807	-200.000	-0.007	0.146
-301.793	-200.000	-0.012	0.135
-300.778	186.944	0.137	-0.201
-299.764	163.149	0.138	-0.191
-298.749	769.058	0.092	0.247
-297.735	800.000	0.052	0.189
-296.720	800.000	0.112	0.486
-295.705	-200.000	-0.023	0.000
-294.691	-136.141	0.312	0.036
-293.676	-33.565	0.301	0.165
-292.662	299.073	-0.066	-0.121
-291.647	53.625	0.091	0.087
-290.632	-84.485	-0.016	0.005
-289.618	800.000	-0.049	0.197
-288.603	17.068	0.193	-0.151
-287.589	-3.427	0.226	-0.156
-286.574	528.325	0.114	0.266
-285.559	800.000	-0.039	0.166
-284.545	-200.000	0.011	-0.091
-283.530	7.779	-0.084	-0.062
-282.516	-200.000	-0.024	0.109
-281.501	-54.741	0.195	0.087
-280.486	116.839	-0.133	0.161
-279.472	323.824	-0.058	-0.109
-278.457	-142.531	-0.416	-0.040
-277.443	156.246	0.084	-0.114
-276.428	-13.552	-0.070	0.045
-275.413	-11.419	0.141	-0.092
-274.399	-200.000	0.031	-0.146
-273.384	14.082	-0.161	-0.124
-272.370	158.814	0.207	0.284
-271.355	-142.167	-0.522	0.051
-270.340	62.781	0.066	0.065
-269.326	-143.910	-0.308	-0.029
-268.311	-44.511	0.188	0.093
-267.297	-70.780	-0.230	-0.086
-266.282	-200.000	0.004	-0.124
-265.267	-134.291	0.172	0.021
-264.253	800.000	-0.082	0.338
-263.238	70.145	-0.164	0.168
-262.224	-101.188	0.165	0.040
-261.209	23.864	-0.135	-0.110
-260.195	800.000	-0.129	0.362
-259.180	800.000	-0.146	0.408
-258.165	-52.634	0.396	0.181
-257.151	-88.863	0.185	0.054
-256.136	-67.774	-0.179	-0.069
-255.122	448.154	-0.093	-0.203
-254.107	-20.678	0.189	0.115
-253.092	-200.000	0.016	0.127
-252.078	-200.000	-0.035	-0.162
-251.063	2.516	-0.221	-0.158
-250.049	-200.000	0.026	-0.296
-249.034	-163.566	0.182	-0.008
-248.019	261.332	0.100	-0.171
-247.005	-58.334	-0.247	0.106
-245.990	-4.782	0.203	-0.138
-244.976	85.221	-0.197	0.213
-243.961	392.544	0.102	-0.210
-242.946	-8.137	0.085	0.057
-241.932	27.720	0.207	0.172
-240.917	11.573	0.165	-0.125
-239.903	-200.000	0.008	-0.315
-238.888	800.000	0.056	-0.157
-237.873	-69.202	0.224	-0.085
-236.859	20.901	-0.242	-0.194
-235.844	-5.102	-0.042	0.029
-234.830	8.005	0.160	-0.118
-233.815	-47.581	-0.053	-0.026
-232.800	-3.175	0.217	0.149
-231.786	800.000	0.055	-0.156
-230.771	-75.861	-0.198	0.069
-229.757	-46.754	-0.161	0.078
-228.742	800.000	-0.120	-0.385
-227.727	-85.155	-0.366	-0.113
-226.713	-18.587	-0.073	-0.045
-225.698	192.290	-0.170	0.253
-224.684	-30.637	-0.188	-0.105
-223.669	-3.955	-0.061	-0.041
-222.655	-45.249	-0.365	0.179
-221.640	-47.340	-0.427	0.205
-220.625	137.651	0.263	0.340
-219.611	-62.269	-0.140	-0.057
-218.596	736.947	0.073	0.192
-217.582	-66.422	0.151	0.059
-216.567	155.647	-0.105	-0.143
-215.552	152.167	0.036	-0.049
-214.538	302.795	0.088	-0.161
-213.523	-200.000	0.104	-0.470
-212.509	193.227	-0.070	0.104
-211.494	-0.670	0.232	-0.162
-210.479	-35.060	-0.280	-0.150
-209.465	800.000	0.052	0.175
-208.450	541.510	-0.048	-0.114
-207.436	-200.000	0.000	0.222
-206.421	310.763	-0.089	0.164
-205.406	800.000	0.035	-0.150
-204.392	-200.000	-0.021	-0.238
-203.377	-200.000	0.001	0.187
-202.363	234.698	-0.024	-0.040
-201.348	-64.356	0.259	0.104
-200.333	-138.187	0.216	0.024
-199.319	-68.632	-0.105	-0.040
-198.304	115.024	0.075	0.091
-197.290	763.856	-0.123	0.328
-196.275	285.287	0.168	-0.298
-195.260	-18.620	-0.178	-0.109
-194.246	-200.000	0.003	-0.286
-193.231	204.911	-0.150	0.229
-192.217	-123.380	-0.068	0.011
-191.202	-6.302	-0.191	-0.129
-190.187	165.825	-0.158	-0.221
-189.173	-137.020	0.172	-0.019
-188.158	-192.097	0.341	0.003
-187.144	394.753	-0.120	-0.246
-186.129	800.000	0.131	0.373
-185.114	659.260	0.049	-0.124
-184.100	31.423	0.067	-0.057
-183.085	127.845	0.222	-0.278
-182.071	-65.260	-0.144	0.057
-181.056	-200.000	-0.023	-0.277
-180.042	-21.757	-0.188	0.113
-179.027	-21.916	-0.155	-0.092
-178.012	264.256	0.072	-0.123
-176.998	315.769	0.144	-0.267
-175.983	-42.912	0.229	0.115
-174.969	-112.760	-0.050	0.010
-173.954	492.887	0.087	-0.197
-172.939	-200.000	0.089	0.515
-171.925	-68.399	0.389	-0.149
-170.910	-42.298	0.178	-0.090
-169.896	105.673	-0.132	0.153
-168.881	-72.604	-0.302	0.110
-167.866	226.646	-0.117	-0.187
-166.852	-200.000	-0.017	-0.115
-165.837	-109.905	-0.256	-0.053
-164.823	199.578	0.188	0.284
-163.808	-161.271	0.649	-0.033
-162.793	-167.454	-0.012	0.000
-161.779	-200.000	0.019	0.256
-160.764	-90.928	0.195	0.055
-159.750	800.000	0.060	0.187
-158.735	25.656	0.047	-0.039
-157.720	-200.000	-0.026	0.154
-156.706	-200.000	0.024	-0.353
-155.691	134.443	0.242	-0.309
-154.677	-43.469	0.111	-0.055
-153.662	24.776	-0.104	-0.085
-152.647	84.628	0.206	-0.222
-151.633	-168.029	0.119	0.005
-150.618	-135.818	-0.480	0.056
-149.604	49.367	0.146	-0.135
-148.589	800.000	-0.076	-0.325
-147.574	-200.000	0.021	-0.162
-146.560	100.048	-0.240	0.273
-145.545	141.995	0.017	0.023
-144.531	160.100	0.056	0.077
-143.516	-200.000	0.004	-0.035
-142.502	-68.063	0.440	0.169
-141.487	172.985	0.103	0.146
-140.472	-200.000	0.020	-0.094
-139.458	-70.411	-0.203	-0.076
-138.443	17.415	-0.056	0.044
-137.429	-200.000	0.131	0.000
-136.414	296.428	0.089	-0.161
-135.399	81.177	0.152	-0.162
-134.385	-28.533	0.177	0.100
-133.370	-106.712	-0.301	-0.066
-132.356	-35.479	0.398	0.213
-131.341	800.000	0.076	0.269
-130.326	361.999	-0.139	0.274
-129.312	-161.090	0.206	-0.011
-128.297	230.576	-0.036	-0.059
-127.283	-200.000	-0.016	0.166
-126.268	-200.000	-0.021	-0.128
-125.253	743.448	0.069	0.182
-124.239	800.000	-0.059	0.236
-123.224	800.000	0.194	0.663
-122.210	-39.646	0.239	0.123
-121.195	-200.000	-0.039	-0.229
