DTS Sentinel unit serial number:	SN413079Multiplexer serial number:	ORYXHardware model number:	OX4-SRSoftware version number:	ORYX F/W v4.00 Oryx Data Collector v3.7.2.0data status	okinstallation	princeton_trtdifferential loss correction	single-endedforward channel	channel 1reverse channel	N/Adate	2019/09/12time	19:23:34forward acquisition time	15.00reverse acquisition time	0.00gamma	496.2192k internal	0.2322k external	0.2322temperature offset calibration	1.0112default loss term (dB/km)	0.3790temperature slope calibration	1.0000multiplexer offset coefficient	1.0000multiplexer slope coefficient	1.0000fibre end	0.00T internal ref (°C)	32.37T ext. ref 1 (°C)	3.22T ext. ref 2 (°C)	26.89length (m)	temperature (°C)	Stokes	anti-Stokes-747.200	800.000	0.140	-0.488
-746.185	-71.822	0.441	0.166
-745.171	199.804	-0.063	0.098
-744.156	800.000	-0.102	0.394
-743.142	80.070	0.322	-0.350
-742.127	800.000	0.199	0.706
-741.112	-109.062	0.305	-0.066
-740.098	69.673	0.250	0.260
-739.083	-149.628	0.485	0.039
-738.069	800.000	-0.101	-0.430
-737.054	-52.220	0.598	-0.280
-736.039	-73.051	-1.084	0.402
-735.025	-96.151	0.493	0.132
-734.010	223.412	-0.279	0.455
-732.996	542.191	-0.104	-0.251
-731.981	119.059	0.494	0.617
-730.966	-200.000	0.126	-0.616
-729.952	-139.658	0.569	0.061
-728.937	-27.527	0.104	0.061
-727.923	-200.000	0.074	-0.469
-726.908	800.000	0.134	0.427
-725.894	173.406	-0.190	0.277
-724.879	84.215	0.584	0.644
-723.864	-59.497	0.428	-0.185
-722.850	75.882	0.883	-0.943
-721.835	-200.000	-0.205	1.326
-720.821	246.421	0.396	0.674
-719.806	-180.983	0.902	0.018
-718.791	315.544	0.367	0.698
-717.777	-200.000	-0.024	-0.213
-716.762	371.203	-0.333	0.682
-715.748	103.167	-0.008	-0.009
-714.733	26.963	0.444	0.376
-713.718	-41.233	0.682	0.355
-712.704	-175.671	-0.244	-0.007
-711.689	54.213	-0.447	0.434
-710.675	-36.681	1.089	-0.591
-709.660	800.000	0.116	-0.462
-708.645	608.812	0.293	-0.738
-707.631	-200.000	-0.006	-0.509
-706.616	800.000	-0.049	-0.149
-705.602	-102.138	0.342	0.083
-704.587	28.627	-0.328	0.280
-703.572	192.384	-0.253	-0.385
-702.558	-181.051	0.744	-0.015
-701.543	12.123	0.673	-0.522
-700.529	-163.421	-0.394	-0.019
-699.514	-95.424	-0.866	-0.235
-698.499	72.560	0.441	0.464
-697.485	658.893	-0.244	-0.633
-696.470	-144.157	-0.574	0.054
-695.456	15.969	0.961	-0.763
-694.441	-200.000	0.048	0.356
-693.426	47.907	-0.498	-0.469
-692.412	-53.690	-0.237	-0.109
-691.397	-142.066	-0.568	-0.057
-690.383	-93.289	-0.473	0.133
-689.368	800.000	-0.188	0.587
-688.354	-63.696	0.562	0.232
-687.339	-61.852	-0.676	-0.285
-686.324	37.673	0.699	0.626
-685.310	-89.395	-0.501	0.149
-684.295	92.286	-0.185	0.210
-683.281	27.302	-0.574	0.486
-682.266	14.771	0.308	0.242
-681.251	28.340	-0.390	-0.332
-680.237	286.888	0.357	0.651
-679.222	-200.000	0.083	-0.517
-678.208	-128.322	-0.344	0.049
-677.193	341.120	-0.522	-1.027
-676.178	-129.797	-0.201	0.028
-675.164	-55.874	0.491	0.221
-674.149	35.896	0.275	0.244
-673.135	2.311	-0.565	0.412
-672.120	-200.000	0.021	-0.149
-671.105	-165.037	-0.346	0.016
-670.091	275.056	0.183	-0.326
-669.076	155.416	-0.322	0.447
-668.062	-30.509	-0.448	0.256
-667.047	400.698	-0.164	0.346
-666.032	573.988	-0.244	-0.601
-665.018	-59.949	0.433	-0.187
-664.003	15.862	-0.423	0.336
-662.989	631.412	0.413	1.054
-661.974	503.356	-0.317	-0.738
-660.959	-164.779	0.177	-0.008
-659.945	29.617	0.400	-0.343
-658.930	-120.164	-0.235	0.040
-657.916	-200.000	0.004	-0.054
-656.901	-132.727	-0.214	-0.028
-655.886	-8.463	0.329	-0.223
-654.872	-66.453	0.845	0.338
-653.857	-200.000	-0.067	0.581
-652.843	566.465	0.157	0.385
-651.828	-65.198	0.641	0.260
-650.814	-200.000	0.185	-1.381
-649.799	-200.000	-0.104	-0.605
-648.784	-100.387	-0.888	-0.222
-647.770	-200.000	-0.001	-0.010
-646.755	-112.379	0.021	-0.004
-645.741	-79.401	-0.265	0.090
-644.726	16.044	0.350	-0.278
-643.711	-200.000	-0.061	0.347
-642.697	-49.619	0.728	0.348
-641.682	-106.778	0.329	-0.074
-640.668	-84.134	-0.348	-0.111
-639.653	113.493	-0.239	-0.292
-638.638	329.822	-0.294	0.570
-637.624	132.753	-0.478	-0.621
-636.609	57.963	-0.492	-0.484
-635.595	-76.023	-0.201	-0.072
-634.580	45.192	0.313	-0.290
-633.565	-142.290	0.548	0.055
-632.551	408.780	0.068	-0.144
-631.536	129.577	0.354	0.455
-630.522	-200.000	-0.002	-0.170
-629.507	647.966	0.346	-0.889
-628.492	-9.690	-0.834	0.559
-627.478	238.041	-0.411	0.687
-626.463	249.262	0.410	0.700
-625.449	-200.000	-0.020	0.100
-624.434	-125.822	0.270	-0.041
-623.419	-109.560	0.983	-0.209
-622.405	-174.168	-0.750	-0.022
-621.390	130.363	0.392	0.505
-620.376	448.974	0.277	-0.613
-619.361	-177.261	0.643	-0.016
-618.346	125.942	0.292	-0.371
-617.332	800.000	-0.083	-0.251
-616.317	-200.000	0.022	-0.792
-615.303	305.737	-0.439	0.821
-614.288	524.821	-0.252	-0.595
-613.273	-200.000	-0.007	0.031
-612.259	-132.860	0.486	-0.062
-611.244	-29.365	-0.429	-0.247
-610.230	-64.081	0.493	-0.202
-609.215	507.987	-0.246	0.573
-608.201	-138.220	0.858	-0.096
-607.186	-200.000	-0.017	-0.583
-606.171	-52.338	-0.790	0.367
-605.157	227.907	-0.284	0.464
-604.142	-26.185	-0.481	0.284
-603.128	21.694	0.388	-0.318
-602.113	-15.505	-0.621	-0.398
-601.098	30.172	0.677	0.581
-600.084	74.849	-0.195	-0.206
-599.069	34.747	-0.395	0.347
-598.055	-84.798	0.470	0.149
-597.040	-167.362	-0.535	-0.022
-596.025	-10.820	-0.633	-0.420
-595.011	149.375	0.147	0.200
-593.996	478.510	0.125	-0.284
-592.982	149.992	0.260	-0.354
-591.967	187.890	0.335	0.502
-590.952	-33.924	-0.517	0.286
-589.938	800.000	-0.187	0.666
-588.923	-45.973	0.297	-0.147
-587.909	39.465	0.170	-0.153
-586.894	-79.535	0.377	0.128
-585.879	40.815	-0.226	-0.205
-584.865	-90.256	1.090	-0.318
-583.850	-35.106	0.451	-0.247
-582.836	-94.792	-0.217	0.059
-581.821	-200.000	-0.114	-0.750
-580.806	-90.382	-0.831	-0.242
-579.792	-167.149	-0.219	0.009
-578.777	-55.454	0.298	0.134
-577.763	242.459	0.369	-0.620
-576.748	-21.775	0.494	0.302
-575.733	-25.991	-0.423	0.250
-574.719	-166.562	0.586	0.024
-573.704	-200.000	-0.010	0.050
-572.690	-138.926	0.697	0.076
-571.675	238.947	-0.303	0.505
-570.661	-18.854	0.162	0.101
-569.646	8.059	-0.453	-0.341
-568.631	-161.741	0.156	0.008
-567.617	-200.000	0.031	-0.247
-566.602	800.000	-0.114	0.365
-565.588	-200.000	0.004	0.230
-564.573	173.880	0.283	0.410
-563.558	3.676	-0.555	-0.406
-562.544	-34.481	0.770	-0.423
-561.529	-200.000	-0.121	0.567
-560.515	33.508	0.136	-0.118
-559.500	-21.552	0.582	-0.356
-558.485	-121.179	-0.623	0.105
-557.471	-200.000	-0.019	-0.619
-556.456	-200.000	0.152	-0.975
-555.442	222.395	-0.410	-0.661
-554.427	-42.539	-0.701	0.358
-553.412	6.909	0.469	0.350
-552.398	-200.000	0.037	-0.230
-551.383	-111.254	-0.312	0.064
-550.369	81.435	-0.344	0.373
-549.354	-89.586	-0.482	0.142
-548.339	760.309	-0.389	-1.056
-547.325	213.540	0.362	-0.573
-546.310	-87.793	0.143	0.043
-545.296	-200.000	-0.030	0.478
-544.281	-60.532	0.626	0.267
-543.266	-68.995	0.692	0.267
-542.252	-200.000	0.039	0.294
-541.237	-141.886	-0.326	0.033
-540.223	361.968	0.188	0.379
-539.208	9.138	-0.158	0.120
-538.193	-25.239	-0.526	0.312
-537.179	-200.000	-0.037	0.488
-536.164	-200.000	-0.083	0.556
-535.150	-97.314	-0.517	0.135
-534.135	800.000	-0.358	-0.995
-533.121	-200.000	-0.023	-0.470
-532.106	37.158	-0.649	0.576
-531.091	-32.396	-0.230	-0.129
-530.077	800.000	-0.175	0.492
-529.062	61.094	-0.442	0.439
-528.048	19.479	1.025	0.826
-527.033	-39.939	0.701	0.367
-526.018	-200.000	-0.031	0.575
-525.004	522.056	-0.079	-0.186
-523.989	-191.513	0.217	-0.002
-522.975	450.374	-0.201	0.445
-521.960	24.139	0.748	0.618
-520.945	125.824	-0.098	-0.124
-519.931	292.960	0.297	0.542
-518.916	124.952	-0.196	0.247
-517.902	-200.000	-0.024	-0.195
-516.887	30.691	0.267	0.229
-515.872	113.062	0.141	-0.171
-514.858	205.654	0.185	-0.288
-513.843	-123.625	-0.697	0.111
-512.829	800.000	-0.145	0.499
-511.814	214.432	-0.195	-0.310
-510.799	800.000	0.031	0.131
-509.785	-41.039	-0.317	0.164
-508.770	-99.597	0.890	-0.224
-507.756	-61.278	-0.276	0.117
-506.741	-44.013	0.221	0.111
-505.726	-72.292	-0.428	0.159
-504.712	-126.572	0.470	-0.070
-503.697	-40.005	-0.945	-0.493
-502.683	800.000	0.094	-0.353
-501.668	-200.000	0.014	-0.276
-500.653	-198.717	-0.742	0.004
-499.639	-73.701	-0.633	-0.231
-498.624	2.680	-0.201	0.146
-497.610	-59.162	0.999	-0.431
-496.595	-45.725	0.772	-0.382
-495.581	-200.000	0.067	-0.344
-494.566	-180.642	1.430	-0.029
-493.551	24.443	-0.667	0.552
-492.537	69.411	0.685	0.705
-491.522	-53.992	0.215	0.098
-490.508	-94.926	-0.091	0.025
-489.493	-117.533	-0.483	-0.087
-488.478	143.063	-0.241	-0.320
-487.464	800.000	-0.218	-0.675
-486.449	-29.818	-0.320	0.183
-485.435	-200.000	0.025	0.210
-484.420	-26.123	0.507	0.298
-483.405	-51.077	0.696	0.327
-482.391	300.077	0.141	0.260
-481.376	9.975	0.499	-0.379
-480.362	-62.375	-0.417	-0.174
-479.347	-72.640	0.639	-0.236
-478.332	-58.722	0.461	0.199
-477.318	236.104	-0.491	0.813
-476.303	800.000	-0.139	0.512
-475.289	-25.929	0.215	0.127
-474.274	800.000	-0.109	0.452
-473.259	155.721	-0.350	-0.483
-472.245	-200.000	-0.126	-1.151
-471.230	502.351	0.291	0.672
-470.216	-14.172	0.705	-0.454
-469.201	-70.309	-0.281	-0.106
-468.186	99.771	-0.507	0.586
-467.172	-200.000	0.089	-0.405
-466.157	76.990	-0.579	0.615
-465.143	-102.611	-1.370	0.327
-464.128	111.990	0.150	0.181
-463.113	272.927	-0.046	0.082
-462.099	7.456	0.106	0.079
-461.084	252.236	0.221	-0.376
-460.070	-200.000	-0.045	-0.730
-459.055	-76.050	-0.573	0.202
-458.040	-105.939	0.454	-0.102
-457.026	-47.541	-1.218	0.591
-456.011	156.898	0.154	-0.213
-454.997	-200.000	-0.091	-0.603
-453.982	-175.034	-0.161	0.004
-452.968	800.000	-0.124	0.444
-451.953	-148.523	0.776	-0.063
-450.938	-52.602	-0.860	-0.397
-449.924	226.022	-0.219	-0.355
-448.909	-18.754	-0.504	0.314
-447.895	389.325	0.144	-0.299
-446.880	-42.431	-0.175	-0.089
-445.865	-112.378	0.684	-0.137
-444.851	-200.000	-0.018	-0.187
-443.836	-200.000	-0.074	-0.771
-442.822	140.927	0.342	-0.451
-441.807	-200.000	-0.004	1.091
-440.792	17.149	0.533	-0.422
-439.778	19.616	0.414	0.332
-438.763	-72.949	-0.337	-0.124
-437.749	-40.098	-0.577	0.300
-436.734	-200.000	-0.003	0.144
-435.719	34.960	0.414	-0.361
-434.705	-200.000	-0.011	-0.174
-433.690	800.000	-0.384	-1.100
-432.676	225.205	-0.367	-0.594
-431.661	92.416	0.209	-0.235
-430.646	-200.000	-0.562	-0.002
-429.632	166.876	-0.473	0.670
-428.617	400.783	-0.202	0.424
-427.603	513.178	0.096	-0.224
-426.588	-200.000	-0.007	-0.178
-425.573	114.539	0.269	-0.327
-424.559	154.853	0.802	1.100
-423.544	-200.000	0.008	0.176
-422.530	-1.746	0.208	0.146
-421.515	800.000	-0.302	-0.999
-420.500	37.011	0.326	0.288
-419.486	-200.000	0.013	-0.127
-418.471	-152.709	0.806	-0.057
-417.457	-200.000	0.024	0.511
-416.442	-65.777	0.146	0.058
-415.428	10.434	-0.279	-0.212
-414.413	599.100	-0.092	0.229
-413.398	87.751	0.083	0.091
-412.384	255.021	0.140	-0.239
-411.369	-5.202	0.411	-0.282
-410.355	-200.000	0.050	0.597
-409.340	-93.661	0.315	0.087
-408.325	-200.000	-0.014	-0.132
-407.311	-200.000	-0.031	0.294
-406.296	273.089	0.158	0.278
-405.282	65.507	0.116	-0.117
-404.267	196.105	0.129	0.196
-403.252	445.419	0.339	0.743
-402.238	-49.403	-0.273	-0.130
-401.223	197.513	0.080	0.121
-400.209	-13.370	0.907	0.587
-399.194	-103.068	0.598	0.141
-398.179	160.126	0.612	0.851
-397.165	-200.000	0.012	-0.277
-396.150	-119.666	-0.386	0.066
-395.136	800.000	-0.119	0.388
-394.121	200.842	-0.277	-0.425
-393.106	800.000	0.196	-0.749
-392.092	129.663	0.012	0.015
-391.077	30.560	0.505	0.431
-390.063	463.476	0.112	0.250
-389.048	-114.955	-0.241	-0.046
-388.033	64.624	-0.181	-0.182
-387.019	11.726	0.298	0.228
-386.004	-200.000	0.011	0.319
-384.990	61.778	0.459	0.455
-383.975	6.574	0.155	-0.115
-382.960	19.279	0.378	-0.303
-381.946	77.901	0.444	-0.472
-380.931	121.880	-0.524	-0.651
-379.917	-200.000	-0.031	0.326
-378.902	-3.429	0.733	0.508
-377.888	-14.201	0.582	-0.374
-376.873	-124.303	-0.713	-0.111
-375.858	-111.506	-0.728	-0.148
-374.844	-200.000	0.002	0.503
-373.829	-118.657	0.113	-0.020
-372.815	-113.169	0.466	0.091
-371.800	95.357	0.527	0.598
-370.785	-72.308	-0.323	0.119
-369.771	-145.943	0.454	-0.040
-368.756	257.835	0.351	-0.602
-367.742	603.021	0.203	0.503
-366.727	-71.691	0.346	0.128
-365.712	-7.968	-0.699	0.470
-364.698	-105.159	0.320	0.073
-363.683	-45.125	0.886	-0.438
-362.669	-116.880	0.572	0.104
-361.654	654.287	0.144	-0.369
-360.639	800.000	-0.172	0.691
-359.625	-200.000	0.172	1.003
-358.610	46.950	0.650	-0.601
-357.596	520.769	0.232	-0.541
-356.581	800.000	0.051	-0.149
-355.566	800.000	-0.044	0.172
-354.552	3.305	-0.471	0.341
-353.537	47.728	-0.892	0.828
-352.523	182.098	0.268	-0.393
-351.508	800.000	0.034	-0.114
-350.493	-114.735	-0.623	-0.118
-349.479	659.010	-0.179	-0.457
-348.464	-200.000	0.080	0.598
-347.450	57.761	-0.697	-0.679
-346.435	79.781	-0.162	0.173
-345.420	725.654	0.263	0.699
-344.406	14.640	0.216	0.168
-343.391	-200.000	0.081	-0.611
-342.377	487.529	-0.320	0.725
-341.362	-85.445	0.503	0.156
-340.348	-12.161	0.135	0.088
-339.333	-79.920	0.425	-0.142
-338.318	-200.000	-0.058	0.508
-337.304	800.000	0.146	-0.468
-336.289	800.000	-0.125	0.518
-335.275	148.915	0.379	0.510
-334.260	282.148	0.082	-0.146
-333.245	-136.872	-0.559	0.064
-332.231	12.071	0.551	0.421
-331.216	646.561	0.236	0.599
-330.202	-120.634	-0.269	-0.045
-329.187	-10.609	-1.026	0.675
-328.172	-69.003	0.282	-0.108
-327.158	10.211	0.471	0.356
-326.143	-189.432	-0.126	0.001
-325.129	-89.209	-0.415	0.122
-324.114	-136.442	-0.331	-0.038
-323.099	408.323	0.127	0.268
-322.085	-79.721	0.632	-0.212
-321.070	-72.954	-0.241	0.088
-320.056	-23.612	0.434	0.259
-319.041	304.115	-0.246	-0.453
-318.026	7.434	-0.748	0.556
-317.012	698.494	-0.132	-0.346
-315.997	-25.147	-0.405	-0.238
-314.983	-200.000	0.107	0.575
-313.968	800.000	-0.155	0.641
-312.953	-14.407	-0.164	0.105
-311.939	189.850	-0.285	-0.425
-310.924	53.467	-0.444	-0.423
-309.910	-97.890	0.433	0.111
-308.895	43.129	0.420	-0.380
-307.880	-200.000	0.001	-0.100
-306.866	-112.322	-0.777	-0.155
-305.851	-158.962	0.623	0.035
-304.837	800.000	-0.106	-0.401
-303.822	-200.000	-0.035	-0.185
-302.807	-30.895	0.412	-0.231
-301.793	238.721	-0.043	0.070
-300.778	800.000	-0.138	0.381
-299.764	-109.606	-0.377	-0.079
-298.749	600.421	0.220	-0.541
-297.735	-75.268	-0.378	-0.134
-296.720	74.657	0.324	0.338
-295.705	28.898	0.606	0.510
-294.691	800.000	-0.071	0.307
-293.676	-132.738	-0.527	0.067
-292.662	-67.584	0.696	-0.271
-291.647	354.259	-0.441	-0.869
-290.632	-200.000	-0.002	-0.659
-289.618	-135.989	0.050	0.006
-288.603	-63.692	0.492	-0.200
-287.589	567.620	-0.204	-0.491
-286.574	39.188	-0.565	-0.502
-285.559	-153.462	-0.605	-0.042
-284.545	-200.000	0.006	-0.287
-283.530	-130.042	0.332	-0.045
-282.516	-116.782	-0.258	-0.047
-281.501	11.367	0.197	0.150
-280.486	-82.558	0.450	0.145
-279.472	800.000	-0.306	-0.868
-278.457	11.640	0.575	-0.438
-277.443	-200.000	0.062	-0.279
-276.428	-97.979	0.227	-0.058
-275.413	-24.595	0.927	0.547
-274.399	-165.259	-0.741	0.032
-273.384	-102.564	0.256	0.061
-272.370	12.391	-0.398	0.304
-271.355	-157.551	-0.646	-0.038
-270.340	-26.387	-0.064	-0.037
-269.326	16.576	-0.950	-0.744
-268.311	120.620	-0.076	0.093
-267.297	-50.610	0.414	0.193
-266.282	-73.217	-0.243	-0.088
-265.267	800.000	0.162	-0.450
-264.253	-165.624	-0.650	-0.028
-263.238	-60.864	1.092	-0.458
-262.224	-13.999	0.079	0.051
-261.209	92.988	-0.583	0.653
-260.195	-45.516	-0.331	-0.163
-259.180	-200.000	0.083	-0.732
-258.165	-37.887	0.421	-0.222
-257.151	-22.658	-0.334	0.200
-256.136	61.344	-0.163	0.160
-255.122	-200.000	-0.007	0.099
-254.107	-200.000	-0.082	0.907
-253.092	-54.968	-0.276	-0.123
-252.078	-8.166	0.269	-0.180
-251.063	161.084	0.281	0.389
-250.049	224.215	0.505	0.808
-249.034	-140.479	-0.161	0.017
-248.019	-85.227	-0.464	0.144
-247.005	-200.000	-0.068	0.531
-245.990	800.000	-0.091	0.315
-244.976	317.276	-0.109	0.204
-243.961	676.700	0.366	0.943
-242.946	-200.000	0.073	0.610
-241.932	-200.000	-0.093	-0.797
-240.917	-150.549	0.258	0.020
-239.903	-67.945	0.289	-0.112
-238.888	24.955	0.233	0.191
-237.873	763.605	-0.250	-0.672
-236.859	108.538	-0.340	-0.402
-235.844	673.999	-0.122	0.314
-234.830	800.000	-0.017	-0.068
-233.815	800.000	0.271	-0.888
-232.800	106.286	-0.205	0.240
-231.786	-200.000	-0.090	-0.570
-230.771	-113.148	0.731	-0.143
-229.757	316.424	-0.293	-0.548
-228.742	-200.000	-0.032	-0.997
-227.727	258.740	0.294	-0.501
-226.713	800.000	0.284	-0.808
-225.698	44.789	-0.573	-0.522
-224.684	-200.000	0.056	0.606
-223.669	734.177	-0.157	0.416
-222.655	-200.000	0.075	1.370
-221.640	-142.027	0.032	-0.003
-220.625	800.000	0.075	0.306
-219.611	14.197	-1.009	0.778
-218.596	-116.524	-0.375	-0.069
-217.582	-28.722	1.017	-0.579
-216.567	113.823	0.209	0.251
-215.552	-130.323	0.746	-0.100
-214.538	-147.684	-1.084	0.090
-213.523	227.035	-0.043	-0.069
-212.509	240.609	0.317	-0.524
-211.494	800.000	0.150	-0.486
-210.479	-11.651	-0.088	0.057
-209.465	800.000	0.297	-0.945
-208.450	-100.161	-0.856	-0.211
-207.436	28.735	0.278	-0.233
-206.421	-200.000	0.042	-0.382
-205.406	-200.000	0.002	-0.884
-204.392	-200.000	-0.071	0.547
-203.377	233.928	-0.147	0.239
-202.363	-200.000	-0.084	0.427
-201.348	-115.882	-0.234	-0.043
-200.333	163.226	-0.117	0.162
-199.319	-48.201	0.067	0.032
-198.304	55.806	-0.333	-0.319
-197.290	-3.364	0.622	-0.428
-196.275	15.108	1.102	-0.854
-195.260	-97.406	0.190	-0.049
-194.246	-157.275	0.513	-0.031
-193.231	658.033	0.164	-0.418
-192.217	-46.323	-0.447	-0.217
-191.202	127.340	-0.429	0.539
-190.187	-15.823	-0.537	0.338
-189.173	-68.264	-0.155	-0.060
-188.158	-121.899	-0.968	0.158
-187.144	-22.277	0.973	-0.583
-186.129	800.000	-0.094	-0.294
-185.114	324.883	-0.129	0.244
-184.100	37.390	-0.167	0.146
-183.085	11.559	0.248	0.188
-182.071	-178.708	0.823	-0.019
-181.056	-31.446	-0.305	-0.170
-180.042	-200.000	0.122	-0.822
-179.027	-130.336	-0.860	-0.115
-178.012	-21.967	-0.374	-0.224
-176.998	-51.160	-0.520	-0.241
-175.983	-200.000	-0.033	0.348
-174.969	149.928	0.424	-0.568
-173.954	74.479	0.063	0.065
-172.939	-53.539	-0.956	-0.432
-171.925	-119.503	-0.291	-0.050
-170.910	-102.906	-0.338	-0.079
-169.896	124.952	0.243	0.303
-168.881	800.000	0.221	0.924
-167.866	-200.000	0.089	0.460
-166.852	-33.727	-0.355	0.193
-165.837	800.000	0.105	-0.439
-164.823	-46.932	0.067	-0.033
-163.808	-13.361	-0.980	-0.628
-162.793	-200.000	0.046	-0.310
-161.779	79.668	-0.415	0.440
-160.764	188.946	-0.185	0.273
-159.750	-21.991	-0.395	0.237
-158.735	346.306	-0.306	0.594
-157.720	-20.779	-0.519	0.315
-156.706	-58.654	0.481	-0.206
-155.691	101.298	-0.336	0.387
-154.677	32.459	0.241	-0.206
-153.662	111.000	-0.492	0.585
-152.647	800.000	0.182	-0.501
-151.633	-164.683	-0.233	0.010
-150.618	-2.244	1.031	-0.714
-149.604	123.443	0.172	-0.213
-148.589	146.570	0.530	-0.703
-147.574	-200.000	-0.004	-0.068
-146.560	-46.951	0.355	-0.171
-145.545	43.579	-0.095	-0.086
-144.531	800.000	0.179	-0.550
-143.516	800.000	0.038	0.163
-142.502	-200.000	0.046	-0.385
-141.487	-200.000	0.010	-0.178
-140.472	-73.657	0.695	0.250
-139.458	108.692	-0.391	0.461
-138.443	800.000	0.132	-0.475
-137.429	800.000	-0.302	-1.251
-136.414	-27.358	0.875	0.502
-135.399	-82.941	-0.314	-0.100
-134.385	96.689	0.085	-0.097
-133.370	-154.305	0.835	-0.055
-132.356	-130.388	0.667	-0.089
-131.341	-200.000	-0.062	-0.344
-130.326	-200.000	-0.003	-0.133
-129.312	210.662	0.336	0.521
-128.297	14.542	-0.357	0.275
-127.283	-200.000	0.244	1.108
-126.268	173.660	-0.155	0.220
-125.253	95.524	-0.183	-0.205
-124.239	-110.842	-0.806	-0.164
-123.224	-62.275	0.170	-0.070
-122.210	-171.811	-0.375	0.012
-121.195	-200.000	-0.056	-0.551
