DTS Sentinel unit serial number:	SN413079Multiplexer serial number:	ORYXHardware model number:	OX4-SRSoftware version number:	ORYX F/W v4.00 Oryx Data Collector v3.7.2.0data status	okinstallation	princeton_trtdifferential loss correction	single-endedforward channel	channel 1reverse channel	N/Adate	2019/09/18time	11:50:35forward acquisition time	60.00reverse acquisition time	0.00gamma	496.2192k internal	0.2324k external	0.2324temperature offset calibration	0.9975default loss term (dB/km)	0.3790temperature slope calibration	1.0000multiplexer offset coefficient	1.0000multiplexer slope coefficient	1.0000fibre end	0.00T internal ref (°C)	31.27T ext. ref 1 (°C)	0.47T ext. ref 2 (°C)	28.22length (m)	temperature (°C)	Stokes	anti-Stokes-747.200	122.570	0.120	-0.152
-746.185	-200.000	-0.002	0.202
-745.171	56.199	0.177	0.173
-744.156	-103.651	-0.124	0.029
-743.142	-158.781	-0.192	0.011
-742.127	341.251	0.053	0.105
-741.112	-199.863	-0.108	0.001
-740.098	-3.660	-0.356	0.250
-739.083	-200.000	0.057	0.330
-738.069	249.057	-0.100	0.171
-737.054	-1.163	-0.093	0.066
-736.039	-121.600	-0.472	0.079
-735.025	-110.983	0.054	0.011
-734.010	81.918	-0.136	-0.149
-732.996	20.957	-0.120	-0.098
-731.981	144.137	0.179	-0.241
-730.966	143.449	0.147	-0.197
-729.952	-83.140	-0.172	-0.056
-728.937	-55.408	-0.393	-0.178
-727.923	-63.491	-0.438	-0.182
-726.908	-99.968	-0.300	-0.076
-725.894	92.303	0.129	0.146
-724.879	-74.219	-0.326	-0.119
-723.864	203.401	-0.183	0.286
-722.850	-200.000	0.031	0.144
-721.835	-74.408	-0.111	-0.040
-720.821	62.155	-0.260	-0.261
-719.806	-86.458	-0.477	0.148
-718.791	4.604	-0.420	-0.311
-717.777	-48.102	-0.112	0.054
-716.762	3.921	-0.129	-0.095
-715.748	-95.682	-0.364	-0.098
-714.733	9.104	-0.418	-0.318
-713.718	-52.612	-0.087	-0.040
-712.704	6.916	-0.441	-0.331
-711.689	536.658	-0.020	-0.047
-710.675	19.796	-0.007	0.006
-709.660	0.377	0.085	-0.061
-708.645	317.390	-0.276	-0.526
-707.631	-13.166	0.101	0.066
-706.616	-200.000	-0.052	-0.311
-705.602	-48.132	-0.191	-0.093
-704.587	154.859	0.159	0.220
-703.572	106.797	-0.205	0.245
-702.558	127.213	0.077	0.099
-701.543	295.930	0.028	0.052
-700.529	717.543	-0.104	-0.280
-699.514	-200.000	0.002	0.127
-698.499	37.177	0.101	0.090
-697.485	512.734	-0.032	0.076
-696.470	73.495	0.203	-0.215
-695.456	-200.000	0.009	-0.109
-694.441	130.853	-0.123	-0.159
-693.426	-200.000	0.000	-0.240
-692.412	702.325	-0.054	0.145
-691.397	-114.312	0.194	0.038
-690.383	800.000	-0.056	0.212
-689.368	-36.294	-0.027	0.015
-688.354	189.655	0.143	0.216
-687.339	82.316	0.065	-0.071
-686.324	800.000	0.077	0.268
-685.310	186.951	0.069	0.104
-684.295	-200.000	-0.012	-0.068
-683.281	-16.505	0.095	-0.061
-682.266	-79.088	-0.204	-0.070
-681.251	444.005	-0.169	-0.372
-680.237	-62.693	-0.207	-0.086
-679.222	26.714	-0.300	-0.253
-678.208	414.565	-0.099	-0.211
-677.193	8.528	0.182	0.138
-676.178	-200.000	0.055	-0.439
-675.164	-200.000	0.069	-0.345
-674.149	392.376	0.127	-0.265
-673.135	-105.679	0.353	-0.080
-672.120	20.379	-0.113	-0.092
-671.105	-200.000	0.014	0.098
-670.091	-90.982	-0.195	-0.056
-669.076	106.466	-0.122	-0.145
-668.062	-102.839	-0.378	-0.091
-667.047	-109.454	0.142	-0.030
-666.032	-46.053	0.372	-0.184
-665.018	155.243	0.098	-0.136
-664.003	-31.401	-0.054	0.031
-662.989	53.055	-0.276	-0.266
-661.974	284.932	0.051	-0.093
-660.959	129.019	-0.251	-0.322
-659.945	-67.904	0.374	-0.147
-658.930	-64.529	0.265	-0.108
-657.916	52.707	-0.144	-0.139
-656.901	-200.000	-0.026	-0.181
-655.886	408.207	0.095	-0.203
-654.872	232.101	0.197	-0.325
-653.857	-116.121	0.386	0.072
-652.843	-43.945	0.187	-0.094
-651.828	-200.000	0.003	0.061
-650.814	800.000	-0.022	0.081
-649.799	54.710	0.241	-0.234
-648.784	157.326	-0.167	0.233
-647.770	53.999	0.096	0.092
-646.755	-121.926	-0.335	-0.055
-645.741	-36.848	0.204	-0.110
-644.726	-23.648	-0.173	-0.104
-643.711	452.367	0.103	0.230
-642.697	128.788	0.248	0.318
-641.682	-52.693	-0.130	-0.060
-640.668	-200.000	0.010	-0.371
-639.653	-45.796	-0.187	0.093
-638.638	-9.001	-0.084	0.056
-637.624	-200.000	0.007	-0.228
-636.609	-200.000	-0.037	0.302
-635.595	134.993	-0.085	0.111
-634.580	-200.000	0.016	-0.241
-633.565	155.625	0.055	-0.076
-632.551	241.422	0.110	-0.185
-631.536	19.646	0.145	-0.117
-630.522	-31.882	-0.268	-0.151
-629.507	430.314	0.110	-0.239
-628.492	-76.975	-0.249	-0.087
-627.478	182.177	0.128	-0.190
-626.463	-118.618	0.256	-0.045
-625.449	10.653	0.146	0.112
-624.434	114.971	-0.160	0.196
-623.419	800.000	0.088	-0.285
-622.405	-16.338	-0.318	-0.203
-621.390	-200.000	-0.005	0.222
-620.376	-39.624	0.376	-0.198
-619.361	718.950	0.022	-0.060
-618.346	-139.661	-0.242	0.026
-617.332	195.730	0.112	-0.172
-616.317	322.119	-0.025	0.049
-615.303	-200.000	-0.043	0.203
-614.288	800.000	0.079	0.222
-613.273	800.000	0.084	-0.246
-612.259	800.000	-0.137	0.403
-611.244	800.000	-0.075	0.225
-610.230	129.270	-0.195	0.250
-609.215	136.091	-0.207	0.271
-608.201	-14.460	0.267	-0.172
-607.186	-200.000	-0.031	0.160
-606.171	-146.034	0.287	-0.025
-605.157	-23.278	-0.156	0.094
-604.142	-0.860	-0.123	0.087
-603.128	513.308	-0.154	-0.361
-602.113	800.000	0.061	0.228
-601.098	-153.823	-0.321	0.022
-600.084	173.839	-0.048	-0.069
-599.069	-96.024	-0.142	-0.038
-598.055	-51.885	-0.382	-0.178
-597.040	-125.236	-0.480	0.074
-596.025	-41.028	0.181	0.094
-595.011	800.000	-0.055	-0.199
-593.996	-0.320	-0.216	-0.154
-592.982	135.438	-0.332	0.433
-591.967	-200.000	0.006	0.129
-590.952	345.264	-0.117	0.230
-589.938	-130.277	0.414	-0.056
-588.923	-200.000	0.050	-0.478
-587.909	-200.000	0.017	-0.235
-586.894	-30.208	-0.198	-0.113
-585.879	464.544	0.114	0.255
-584.865	517.904	0.061	-0.144
-583.850	-60.243	0.432	-0.184
-582.836	76.701	-0.314	-0.334
-581.821	63.573	-0.070	0.071
-580.806	-200.000	0.007	0.343
-579.792	506.094	-0.059	0.137
-578.777	185.490	0.076	0.114
-577.763	-139.282	0.163	0.018
-576.748	-162.887	0.339	-0.017
-575.733	-89.902	-0.224	-0.066
-574.719	-200.000	-0.029	-0.297
-573.704	349.765	-0.115	-0.228
-572.690	341.037	0.077	0.150
-571.675	-200.000	0.011	0.163
-570.661	332.235	0.109	0.211
-569.646	-89.077	0.103	-0.031
-568.631	-200.000	0.019	0.349
-567.617	800.000	0.065	0.234
-566.602	800.000	0.019	-0.070
-565.588	29.614	0.062	-0.053
-564.573	5.184	-0.216	0.160
-563.558	-200.000	0.067	-0.341
-562.544	2.989	-0.072	-0.052
-561.529	800.000	0.099	-0.318
-560.515	209.189	-0.146	0.229
-559.500	19.924	-0.259	-0.209
-558.485	-53.939	-0.297	-0.136
-557.471	247.536	0.077	-0.131
-556.456	-79.782	0.160	-0.054
-555.442	-54.749	0.069	0.031
-554.427	-5.582	0.181	0.124
-553.412	-200.000	-0.044	0.214
-552.398	800.000	-0.072	-0.271
-551.383	9.542	-0.068	0.052
-550.369	41.814	-0.185	-0.168
-549.354	-157.376	-0.313	-0.019
-548.339	14.275	-0.112	0.087
-547.325	-200.000	-0.004	-0.241
-546.310	-5.183	-0.418	0.288
-545.296	800.000	0.036	0.126
-544.281	-132.923	-0.325	-0.041
-543.266	335.295	0.108	-0.211
-542.252	38.903	-0.108	-0.097
-541.237	78.860	0.114	-0.122
-540.223	16.353	0.055	-0.044
-539.208	473.616	0.107	-0.242
-538.193	354.197	0.095	-0.188
-537.179	-121.731	-0.323	0.053
-536.164	-86.113	-0.030	-0.009
-535.150	-200.000	-0.005	-0.163
-534.135	-200.000	0.041	0.248
-533.121	-132.483	0.100	-0.013
-532.106	148.773	-0.302	-0.409
-531.091	120.491	0.145	0.180
-530.077	209.674	-0.238	0.374
-529.062	95.114	0.118	0.134
-528.048	-76.158	-0.110	0.039
-527.033	180.343	0.026	-0.038
-526.018	-17.859	-0.179	0.112
-525.004	221.687	0.197	0.317
-523.989	-200.000	0.004	0.065
-522.975	-151.243	0.189	-0.014
-521.960	-200.000	0.060	-0.458
-520.945	662.306	-0.133	-0.344
-519.931	800.000	0.158	-0.472
-518.916	-19.391	-0.209	-0.130
-517.902	-34.835	0.080	0.044
-516.887	774.288	-0.123	0.336
-515.872	-200.000	-0.003	0.151
-514.858	-200.000	-0.053	0.419
-513.843	-38.497	0.081	-0.043
-512.829	-39.682	0.387	0.203
-511.814	-93.328	0.065	-0.018
-510.799	338.672	-0.133	-0.259
-509.785	260.879	-0.037	0.064
-508.770	-200.000	-0.074	-0.410
-507.756	409.015	0.013	-0.027
-506.741	800.000	0.098	-0.277
-505.726	-83.240	0.107	-0.034
-504.712	-17.485	-0.074	-0.046
-503.697	-133.663	0.127	0.016
-502.683	-84.327	-0.280	-0.089
-501.668	-129.293	0.206	-0.029
-500.653	335.865	-0.130	0.253
-499.639	-66.618	-0.059	-0.023
-498.624	276.281	-0.082	0.146
-497.610	-127.165	0.158	0.023
-496.595	133.403	0.198	0.256
-495.581	-105.139	-0.264	0.060
-494.566	800.000	-0.107	0.338
-493.551	22.777	-0.114	-0.093
-492.537	-93.321	-0.273	-0.076
-491.522	-117.181	0.298	0.054
-490.508	137.579	-0.121	-0.158
-489.493	497.016	0.115	0.264
-488.478	141.437	0.203	0.268
-487.464	-91.537	-0.077	0.022
-486.449	51.421	0.141	-0.134
-485.435	314.488	-0.102	-0.192
-484.420	-116.217	-0.260	0.048
-483.405	270.603	0.136	0.240
-482.391	-138.276	-0.420	0.046
-481.376	-34.709	0.391	-0.213
-480.362	-133.431	0.195	-0.024
-479.347	-133.609	-0.233	-0.029
-478.332	-47.036	0.131	0.064
-477.318	768.491	0.101	-0.275
-476.303	122.378	0.223	0.279
-475.289	-19.586	-0.194	0.120
-474.274	-178.552	-0.074	0.002
-473.259	-103.554	0.055	-0.013
-472.245	-200.000	-0.055	0.266
-471.230	136.306	0.079	0.103
-470.216	32.857	-0.240	0.207
-469.201	-200.000	0.041	0.279
-468.186	20.235	0.073	0.059
-467.172	-183.845	-0.252	0.004
-466.157	-61.590	-0.226	-0.095
-465.143	-149.627	0.124	0.010
-464.128	-200.000	0.003	0.182
-463.113	-26.181	-0.115	0.068
-462.099	124.793	0.082	-0.103
-461.084	1.641	0.022	-0.015
-460.070	259.310	0.127	0.218
-459.055	32.026	0.023	-0.020
-458.040	235.797	0.344	0.567
-457.026	15.294	-0.159	0.125
-456.011	25.032	-0.359	0.297
-454.997	365.669	-0.053	0.106
-453.982	-200.000	-0.061	-0.319
-452.968	-147.413	0.066	0.006
-451.953	-200.000	-0.025	0.116
-450.938	-200.000	-0.084	0.427
-449.924	800.000	-0.085	0.272
-448.909	277.303	0.141	-0.250
-447.895	-27.377	0.253	0.147
-446.880	112.678	-0.089	0.108
-445.865	-89.467	0.429	-0.126
-444.851	-200.000	0.008	-0.085
-443.836	800.000	0.026	0.100
-442.822	-200.000	-0.006	-0.154
-441.807	-124.691	-0.116	-0.018
-440.792	-124.851	-0.029	-0.004
-439.778	-66.436	-0.205	-0.081
-438.763	96.415	-0.218	-0.249
-437.749	800.000	-0.038	-0.122
-436.734	-200.000	0.403	-0.000
-435.719	226.099	-0.221	-0.357
-434.705	-200.000	0.035	0.236
-433.690	260.079	0.049	-0.085
-432.676	800.000	-0.110	-0.376
-431.661	-125.000	0.055	-0.008
-430.646	-39.243	-0.133	0.070
-429.632	-24.623	-0.219	-0.130
-428.617	52.154	0.241	-0.229
-427.603	-200.000	-0.024	-0.107
-426.588	-84.073	0.340	0.108
-425.573	219.720	0.171	-0.273
-424.559	85.077	-0.017	-0.018
-423.544	289.176	-0.064	-0.115
-422.530	212.419	0.090	0.141
-421.515	121.413	-0.170	-0.211
-420.500	-0.759	-0.084	-0.059
-419.486	212.836	0.215	0.338
-418.471	-113.098	0.068	0.013
-417.457	289.798	-0.036	-0.066
-416.442	42.751	0.176	-0.160
-415.428	-127.436	0.486	0.070
-414.413	169.159	-0.089	0.126
-413.398	52.791	-0.227	-0.217
-412.384	-71.708	0.238	-0.089
-411.369	35.274	-0.057	-0.050
-410.355	233.748	-0.077	-0.127
-409.340	-83.685	-0.440	-0.140
-408.325	-43.343	0.188	-0.095
-407.311	-150.180	-0.318	-0.025
-406.296	119.677	-0.248	-0.305
-405.282	-200.000	-0.092	0.424
-404.267	149.974	0.166	0.224
-403.252	-147.168	-0.169	-0.014
-402.238	62.583	-0.051	-0.050
-401.223	-200.000	0.225	-0.001
-400.209	166.234	0.098	-0.139
-399.194	2.879	0.418	-0.302
-398.179	800.000	0.038	-0.138
-397.165	-62.323	-0.236	0.098
-396.150	-200.000	-0.032	0.393
-395.136	800.000	-0.020	0.065
-394.121	-101.816	0.069	-0.017
-393.106	170.737	-0.119	0.169
-392.092	-126.376	-0.127	-0.019
-391.077	-200.000	0.031	0.272
-390.063	47.220	-0.044	-0.041
-389.048	-64.780	-0.199	0.080
-388.033	-200.000	-0.003	0.135
-387.019	-23.640	-0.206	0.123
-386.004	-185.810	0.067	0.001
-384.990	81.566	0.131	-0.142
-383.975	354.876	-0.099	0.196
-382.960	-187.814	-0.313	0.004
-381.946	-13.874	0.193	-0.124
-380.931	-93.964	-0.261	-0.071
-379.917	-125.733	0.218	0.033
-378.902	128.286	0.137	-0.174
-377.888	126.588	0.180	0.227
-376.873	-39.573	-0.176	0.091
-375.858	-154.165	-0.278	-0.019
-374.844	4.606	-0.113	0.083
-373.829	241.585	0.074	0.123
-372.815	-10.102	0.203	-0.134
-371.800	47.389	-0.218	-0.202
-370.785	503.077	-0.076	0.175
-369.771	-176.907	-0.014	-0.000
-368.756	56.912	-0.191	-0.185
-367.742	-75.396	-0.153	-0.054
-366.727	-33.961	0.292	-0.160
-365.712	37.406	0.165	-0.146
-364.698	-36.109	0.254	0.136
-363.683	-29.466	0.005	0.003
-362.669	392.039	-0.065	0.133
-361.654	90.379	0.169	0.188
-360.639	205.668	-0.072	-0.112
-359.625	-200.000	0.041	0.225
-358.610	-132.824	0.107	0.014
-357.596	-165.272	0.016	0.001
-356.581	357.084	0.117	0.232
-355.566	-86.114	-0.266	0.082
-354.552	-80.974	-0.074	0.024
-353.537	-200.000	-0.035	-0.162
-352.523	-102.774	0.155	-0.037
-351.508	-61.815	-0.106	0.044
-350.493	30.333	-0.074	-0.063
-349.479	46.228	0.080	-0.074
-348.464	211.544	0.201	0.315
-347.450	-83.610	-0.082	-0.026
-346.435	-200.000	-0.086	0.462
-345.420	193.724	-0.104	-0.156
-344.406	-145.352	0.137	-0.012
-343.391	132.327	0.036	-0.046
-342.377	-5.155	0.138	0.094
-341.362	15.152	0.114	-0.089
-340.348	-55.867	-0.259	-0.115
-339.333	-97.858	0.054	0.014
-338.318	1.675	-0.065	0.046
-337.304	-200.000	-0.052	0.240
-336.289	800.000	0.141	0.446
-335.275	118.672	-0.059	-0.073
-334.260	-200.000	-0.041	0.406
-333.245	-120.165	-0.148	-0.025
-332.231	504.216	0.089	-0.205
-331.216	-127.770	-0.089	0.013
-330.202	-200.000	0.015	0.240
-329.187	-73.153	0.465	0.169
-328.172	-155.960	0.171	-0.011
-327.158	-132.511	-0.209	0.027
-326.143	-200.000	-0.025	-0.192
-325.129	-90.736	0.095	0.027
-324.114	69.491	-0.061	0.062
-323.099	13.709	0.111	-0.086
-322.085	402.695	-0.130	0.272
-321.070	452.045	0.068	0.150
-320.056	136.191	0.026	0.034
-319.041	-95.123	0.122	0.033
-318.026	-74.987	-0.203	0.072
-317.012	-94.942	-0.310	-0.083
-315.997	-8.849	0.251	-0.167
-314.983	62.979	-0.193	0.192
-313.968	-200.000	-0.034	0.215
-312.953	-200.000	0.004	0.421
-311.939	-107.976	0.208	-0.045
-310.924	20.120	0.325	0.260
-309.910	-46.734	0.104	0.051
-308.895	-200.000	0.003	0.119
-307.880	-46.143	-0.235	-0.115
-306.866	-47.505	0.227	-0.109
-305.851	-118.171	-0.374	0.066
-304.837	316.000	-0.134	-0.252
-303.822	243.196	0.103	-0.170
-302.807	341.564	0.100	-0.193
-301.793	-200.000	-0.010	0.059
-300.778	255.313	0.071	-0.121
-299.764	-31.699	-0.026	0.014
-298.749	125.357	-0.145	-0.181
-297.735	-4.894	0.267	0.182
-296.720	204.374	0.056	0.086
-295.705	800.000	-0.010	-0.037
-294.691	60.495	0.387	-0.380
-293.676	-200.000	0.022	0.138
-292.662	-163.702	0.182	-0.009
-291.647	-36.722	-0.329	-0.175
-290.632	-31.670	-0.195	-0.109
-289.618	-200.000	0.057	0.256
-288.603	84.141	0.254	0.275
-287.589	149.216	-0.153	0.206
-286.574	625.480	-0.078	0.195
-285.559	49.131	0.120	0.112
-284.545	-200.000	-0.047	-0.295
-283.530	410.503	0.081	0.171
-282.516	76.451	0.124	-0.130
-281.501	125.310	0.206	0.258
-280.486	-61.720	-0.084	0.035
-279.472	249.978	-0.017	-0.029
-278.457	37.725	-0.272	-0.239
-277.443	53.031	-0.302	-0.287
-276.428	-78.191	0.107	0.037
-275.413	800.000	-0.054	0.228
-274.399	-72.273	-0.297	0.109
-273.384	458.297	-0.045	-0.100
-272.370	693.938	0.064	-0.167
-271.355	45.299	0.171	0.156
-270.340	-42.296	-0.084	-0.042
-269.326	85.642	-0.139	-0.151
-268.311	52.961	-0.191	0.181
-267.297	-133.201	-0.107	0.013
-266.282	-2.150	-0.336	-0.234
-265.267	800.000	0.133	-0.413
-264.253	30.624	0.248	0.211
-263.238	0.524	0.189	0.134
-262.224	-11.876	-0.240	0.156
-261.209	-65.798	0.276	0.109
-260.195	-17.272	0.081	0.051
-259.180	-87.861	0.334	-0.100
-258.165	-49.196	0.088	-0.041
-257.151	-112.309	0.454	0.090
-256.136	-200.000	-0.015	0.129
-255.122	-49.399	-0.311	-0.147
-254.107	-200.000	-0.011	-0.061
-253.092	5.649	-0.072	-0.053
-252.078	-200.000	0.016	0.173
-251.063	202.280	0.053	-0.082
-250.049	-200.000	0.051	0.263
-249.034	800.000	-0.085	0.278
-248.019	-200.000	0.013	0.161
-247.005	-200.000	0.027	-0.154
-245.990	-200.000	0.062	0.455
-244.976	-200.000	0.230	-0.000
-243.961	-128.134	-0.120	0.017
-242.946	-200.000	-0.036	-0.205
-241.932	-200.000	-0.073	-0.316
-240.917	493.914	0.117	-0.265
-239.903	-71.706	0.354	0.131
-238.888	602.666	-0.136	0.335
-237.873	-200.000	0.017	-0.187
-236.859	141.641	0.091	0.119
-235.844	238.921	0.210	-0.346
-234.830	47.531	-0.183	-0.169
-233.815	-200.000	0.018	-0.184
-232.800	-163.723	-0.196	-0.009
-231.786	87.110	0.093	0.102
-230.771	-17.796	-0.211	0.131
-229.757	54.162	0.171	0.162
-228.742	-114.363	-0.209	-0.040
-227.727	309.502	0.095	0.176
-226.713	199.613	-0.109	-0.166
-225.698	-44.968	0.233	-0.115
-224.684	-200.000	-0.031	0.161
-223.669	193.162	-0.004	0.007
-222.655	800.000	0.039	-0.123
-221.640	800.000	-0.072	0.210
-220.625	-51.721	-0.135	-0.062
-219.611	43.946	0.069	0.062
-218.596	-66.853	-0.265	-0.104
-217.582	800.000	-0.019	-0.071
-216.567	517.257	0.156	0.360
-215.552	1.081	-0.349	0.248
-214.538	800.000	-0.094	0.268
-213.523	800.000	0.057	0.217
-212.509	207.664	0.139	-0.214
-211.494	-0.163	-0.165	0.116
-210.479	51.704	0.139	-0.131
-209.465	-181.384	0.120	0.002
-208.450	323.990	0.128	-0.242
-207.436	800.000	0.119	-0.357
-206.421	-200.000	0.004	-0.089
-205.406	-95.365	0.119	-0.032
-204.392	-112.241	0.433	0.086
-203.377	-141.211	0.284	0.029
-202.363	70.567	0.167	-0.170
-201.348	40.566	0.088	0.079
-200.333	-59.501	-0.116	-0.049
-199.319	511.892	-0.083	0.191
-198.304	-200.000	0.044	-0.312
-197.290	-120.193	0.111	-0.019
-196.275	137.083	0.181	-0.233
-195.260	109.352	0.137	-0.162
-194.246	52.089	0.162	-0.153
-193.231	57.316	-0.213	0.205
-192.217	-200.000	-0.008	-0.113
-191.202	-31.631	-0.400	-0.222
-190.187	800.000	-0.030	-0.097
-189.173	47.345	-0.122	-0.112
-188.158	-123.220	-0.160	0.025
-187.144	-200.000	0.008	-0.100
-186.129	-101.876	0.039	0.009
-185.114	-99.738	0.128	-0.032
-184.100	40.760	0.191	-0.170
-183.085	-200.000	-0.034	0.256
-182.071	-11.981	0.086	0.056
-181.056	14.167	0.247	-0.190
-180.042	9.881	0.169	-0.127
-179.027	449.574	0.111	-0.243
-178.012	112.368	-0.192	-0.229
-176.998	-142.134	-0.094	-0.009
-175.983	214.995	0.146	-0.228
-174.969	-49.858	0.058	-0.027
-173.954	574.771	0.082	-0.198
-172.939	-14.546	-0.292	-0.185
-171.925	101.958	0.311	-0.359
-170.910	-107.482	-0.288	-0.062
-169.896	-103.685	-0.249	-0.058
-168.881	-75.239	0.340	0.120
-167.866	-147.437	-0.088	0.007
-166.852	271.850	-0.166	0.289
-165.837	607.008	0.076	-0.187
-164.823	32.675	0.117	-0.100
-163.808	68.294	0.107	-0.109
-162.793	-200.000	-0.029	-0.349
-161.779	-68.422	-0.200	-0.077
-160.764	573.915	-0.018	-0.044
-159.750	-149.774	0.240	0.019
-158.735	-97.971	0.275	0.070
-157.720	-11.978	0.297	-0.192
-156.706	-200.000	-0.003	0.359
-155.691	-200.000	-0.060	-0.304
-154.677	-116.767	-0.051	0.009
-153.662	-80.077	0.172	-0.057
-152.647	-50.721	0.157	-0.073
-151.633	279.757	0.103	0.182
-150.618	-62.755	0.025	0.010
-149.604	318.626	-0.126	-0.235
-148.589	593.918	-0.161	-0.393
-147.574	-61.005	0.167	-0.070
-146.560	-59.452	-0.155	-0.066
-145.545	-94.470	-0.122	-0.033
-144.531	-200.000	-0.015	-0.189
-143.516	-29.664	0.242	-0.136
-142.502	-120.983	-0.337	0.056
-141.487	800.000	-0.050	0.143
-140.472	-18.663	0.057	-0.035
-139.458	75.575	-0.233	-0.243
-138.443	-70.714	-0.203	-0.076
-137.429	257.445	-0.135	0.230
-136.414	28.677	-0.089	0.074
-135.399	-27.145	-0.224	-0.129
-134.385	-47.325	0.270	0.130
-133.370	115.568	-0.200	-0.241
-132.356	-142.853	0.233	0.022
-131.341	800.000	0.069	-0.214
-130.326	230.839	0.031	-0.050
-129.312	-130.494	0.158	0.021
-128.297	36.726	0.153	-0.133
-127.283	332.665	0.228	-0.434
-126.268	800.000	-0.016	-0.063
-125.253	-200.000	0.010	-0.073
-124.239	14.551	0.181	-0.139
-123.224	-53.743	0.186	0.083
-122.210	800.000	-0.045	0.142
-121.195	114.392	-0.086	0.103
