DTS Sentinel unit serial number:	SN413079Multiplexer serial number:	ORYXHardware model number:	OX4-SRSoftware version number:	ORYX F/W v4.00 Oryx Data Collector v3.7.2.0data status	okinstallation	princeton_trtdifferential loss correction	single-endedforward channel	channel 1reverse channel	N/Adate	2019/09/15time	20:18:35forward acquisition time	60.00reverse acquisition time	0.00gamma	496.2192k internal	0.2320k external	0.2320temperature offset calibration	0.9956default loss term (dB/km)	0.3790temperature slope calibration	1.0000multiplexer offset coefficient	1.0000multiplexer slope coefficient	1.0000fibre end	0.00T internal ref (°C)	34.25T ext. ref 1 (°C)	7.71T ext. ref 2 (°C)	25.47length (m)	temperature (°C)	Stokes	anti-Stokes-747.200	209.372	-0.121	0.192
-746.185	-1.100	0.424	0.303
-745.171	-120.174	-0.064	-0.011
-744.156	-130.514	-0.198	-0.027
-743.142	-86.034	-0.131	-0.041
-742.127	800.000	0.093	0.283
-741.112	110.204	0.141	0.171
-740.098	-200.000	-0.118	0.741
-739.083	-54.806	0.140	0.064
-738.069	-200.000	-0.044	0.485
-737.054	800.000	0.062	0.179
-736.039	-91.859	-0.275	0.079
-735.025	633.238	0.130	0.332
-734.010	-21.704	0.080	-0.049
-732.996	165.316	0.120	-0.171
-731.981	106.829	-0.084	-0.101
-730.966	17.560	-0.200	0.160
-729.952	-200.000	0.013	-0.174
-728.937	51.109	-0.055	-0.052
-727.923	800.000	-0.068	-0.282
-726.908	146.787	-0.073	-0.099
-725.894	2.573	0.177	0.129
-724.879	-26.494	-0.121	-0.071
-723.864	800.000	0.032	-0.134
-722.850	331.042	-0.137	0.267
-721.835	1.016	-0.287	0.208
-720.821	209.745	-0.117	-0.186
-719.806	286.156	0.147	0.267
-718.791	-79.834	-0.150	-0.051
-717.777	310.999	0.044	-0.083
-716.762	-6.324	-0.082	0.056
-715.748	-6.430	-0.172	-0.118
-714.733	-200.000	-0.062	0.291
-713.718	-137.622	0.342	0.039
-712.704	266.818	0.102	0.181
-711.689	800.000	0.014	0.053
-710.675	137.605	-0.027	0.035
-709.660	357.810	0.100	-0.201
-708.645	178.390	-0.183	-0.270
-707.631	67.430	0.016	-0.016
-706.616	-200.000	-0.053	-0.321
-705.602	170.755	-0.192	-0.278
-704.587	-200.000	0.001	-0.061
-703.572	-27.299	-0.246	-0.144
-702.558	6.579	-0.202	-0.152
-701.543	-14.556	-0.197	-0.128
-700.529	800.000	0.100	-0.309
-699.514	-200.000	0.009	0.095
-698.499	-200.000	-0.012	0.236
-697.485	-13.459	-0.285	-0.187
-696.470	800.000	-0.054	0.173
-695.456	176.624	-0.141	0.207
-694.441	-200.000	0.017	-0.258
-693.426	40.829	0.264	0.240
-692.412	-200.000	0.023	0.313
-691.397	-147.590	0.168	0.014
-690.383	-200.000	0.023	-0.130
-689.368	-200.000	0.021	-0.150
-688.354	31.630	0.128	-0.111
-687.339	-110.714	-0.341	0.071
-686.324	-103.300	0.103	0.024
-685.310	223.229	-0.188	0.305
-684.295	-82.151	-0.173	-0.057
-683.281	145.699	-0.042	0.057
-682.266	-118.324	-0.139	-0.025
-681.251	-200.000	-0.063	0.376
-680.237	-67.559	-0.327	0.129
-679.222	-200.000	0.036	0.384
-678.208	-200.000	0.056	-0.330
-677.193	800.000	-0.035	0.107
-676.178	22.909	-0.083	0.068
-675.164	566.848	-0.127	-0.311
-674.149	134.772	-0.021	0.027
-673.135	-4.519	0.261	0.182
-672.120	109.936	0.173	0.209
-671.105	417.836	0.031	-0.067
-670.091	224.503	0.064	-0.104
-669.076	41.712	-0.295	0.269
-668.062	237.572	-0.063	-0.106
-667.047	-100.321	-0.082	0.021
-666.032	-200.000	0.042	-0.234
-665.018	208.345	0.065	-0.102
-664.003	-90.411	-0.116	0.034
-662.989	693.435	-0.087	-0.231
-661.974	-98.862	-0.202	-0.052
-660.959	334.905	-0.030	-0.058
-659.945	352.795	-0.060	-0.121
-658.930	-183.375	-0.026	-0.000
-657.916	-92.604	-0.406	-0.115
-656.901	502.294	0.099	0.229
-655.886	37.340	0.125	-0.111
-654.872	-200.000	0.018	0.165
-653.857	-200.000	-0.016	-0.126
-652.843	-76.613	-0.102	0.036
-651.828	-104.943	-0.274	0.063
-650.814	433.459	0.118	0.258
-649.799	-158.694	-0.408	0.024
-648.784	-64.139	-0.178	-0.073
-647.770	-100.671	0.233	0.058
-646.755	79.145	0.101	-0.110
-645.741	800.000	-0.026	-0.072
-644.726	-57.126	-0.220	0.098
-643.711	610.353	-0.047	0.118
-642.697	-3.435	-0.311	-0.218
-641.682	-200.000	0.004	0.027
-640.668	63.428	-0.067	0.068
-639.653	-135.864	0.215	0.026
-638.638	17.396	0.226	-0.181
-637.624	800.000	0.049	-0.196
-636.609	800.000	-0.052	-0.197
-635.595	133.265	0.061	0.080
-634.580	-150.794	0.019	0.001
-633.565	-200.000	-0.018	0.098
-632.551	451.482	-0.175	-0.389
-631.536	-47.584	-0.128	-0.063
-630.522	127.135	-0.174	0.223
-629.507	-200.000	0.040	-0.324
-628.492	-200.000	0.059	-0.263
-627.478	-200.000	-0.002	-0.011
-626.463	-24.160	-0.188	-0.113
-625.449	-122.357	0.041	0.007
-624.434	417.717	0.088	0.189
-623.419	25.066	-0.146	0.122
-622.405	159.950	-0.157	0.221
-621.390	-200.000	-0.037	0.439
-620.376	85.190	0.185	0.205
-619.361	-48.228	-0.419	-0.203
-618.346	575.003	-0.050	0.123
-617.332	76.227	-0.059	-0.062
-616.317	16.999	0.095	0.076
-615.303	-128.026	0.142	0.020
-614.288	277.750	-0.216	-0.386
-613.273	-200.000	0.083	-0.409
-612.259	-200.000	-0.003	-0.027
-611.244	-81.757	0.424	0.140
-610.230	118.416	0.148	0.183
-609.215	-200.000	-0.038	-0.166
-608.201	-200.000	0.087	-0.449
-607.186	7.310	-0.353	-0.265
-606.171	-140.899	0.399	0.041
-605.157	-200.000	0.009	-0.048
-604.142	272.576	-0.105	-0.187
-603.128	51.635	-0.222	0.212
-602.113	-129.086	-0.124	-0.017
-601.098	800.000	-0.094	-0.349
-600.084	757.879	0.080	-0.217
-599.069	-38.459	-0.409	-0.218
-598.055	-9.110	-0.180	0.121
-597.040	504.302	-0.101	-0.236
-596.025	-112.246	-0.165	0.033
-595.011	-105.226	-0.371	0.085
-593.996	661.401	0.084	0.218
-592.982	679.349	-0.035	-0.092
-591.967	90.751	0.136	-0.154
-590.952	-122.522	0.133	-0.022
-589.938	-66.626	-0.156	0.062
-588.923	-200.000	0.041	0.216
-587.909	250.894	-0.114	0.195
-586.894	87.281	0.020	0.022
-585.879	-65.879	0.465	0.187
-584.865	216.001	0.135	-0.216
-583.850	-116.447	-0.119	-0.022
-582.836	15.616	-0.320	0.253
-581.821	-46.421	0.034	0.017
-580.806	65.697	0.166	-0.169
-579.792	-33.268	-0.250	-0.139
-578.777	800.000	0.047	-0.161
-577.763	186.857	-0.071	0.106
-576.748	-88.114	-0.313	0.094
-575.733	-91.946	-0.249	-0.071
-574.719	800.000	-0.094	-0.403
-573.704	-91.889	-0.320	-0.091
-572.690	22.614	0.240	-0.198
-571.675	214.189	0.169	0.269
-570.661	-62.267	0.078	-0.033
-569.646	1.677	-0.141	0.102
-568.631	407.723	0.049	0.103
-567.617	245.640	-0.140	-0.237
-566.602	62.396	0.062	-0.063
-565.588	-200.000	0.028	0.269
-564.573	26.086	-0.374	0.314
-563.558	-82.728	0.127	-0.041
-562.544	135.982	0.186	-0.244
-561.529	742.825	-0.112	0.303
-560.515	-19.667	0.215	-0.134
-559.500	-19.223	0.297	0.185
-558.485	-21.367	-0.185	0.113
-557.471	138.738	-0.129	0.171
-556.456	292.851	0.112	0.205
-555.442	-200.000	-0.014	-0.102
-554.427	31.236	-0.172	0.148
-553.412	-117.685	-0.097	-0.018
-552.398	800.000	-0.076	0.294
-551.383	-140.478	-0.029	-0.003
-550.369	41.515	-0.247	0.225
-549.354	-70.246	0.070	-0.027
-548.339	186.033	-0.202	-0.301
-547.325	-48.315	-0.294	-0.142
-546.310	-200.000	-0.051	0.355
-545.296	-156.031	0.203	0.013
-544.281	-73.929	-0.078	-0.029
-543.266	-9.709	-0.117	0.079
-542.252	-50.750	0.181	-0.085
-541.237	-164.944	0.139	-0.006
-540.223	-157.329	-0.323	-0.020
-539.208	-55.678	0.192	-0.086
-538.193	410.079	-0.222	-0.471
-537.179	-158.918	-0.143	0.008
-536.164	-148.420	0.236	-0.019
-535.150	-200.000	0.002	0.193
-534.135	-200.000	0.014	-0.199
-533.121	-51.469	-0.204	0.096
-532.106	-8.305	0.128	0.086
-531.091	-117.116	-0.350	-0.064
-530.077	-200.000	-0.081	0.437
-529.062	-19.008	-0.307	0.191
-528.048	2.975	0.337	0.246
-527.033	-85.909	0.126	-0.039
-526.018	36.711	-0.072	-0.064
-525.004	-200.000	-0.069	0.305
-523.989	773.019	0.025	-0.068
-522.975	38.251	-0.208	-0.186
-521.960	-42.725	-0.214	0.109
-520.945	53.878	-0.212	0.204
-519.931	800.000	0.075	-0.324
-518.916	800.000	-0.042	0.123
-517.902	-52.994	0.122	-0.056
-516.887	800.000	0.048	-0.181
-515.872	97.748	0.079	-0.091
-514.858	-34.541	0.288	0.158
-513.843	-87.264	-0.415	0.126
-512.829	-125.882	-0.309	-0.047
-511.814	-117.820	0.117	0.021
-510.799	-30.413	-0.209	-0.119
-509.785	53.833	0.107	0.103
-508.770	-20.889	-0.205	-0.126
-507.756	-200.000	-0.012	0.168
-506.741	16.976	0.127	0.101
-505.726	217.352	0.068	-0.108
-504.712	82.715	0.129	0.141
-503.697	-200.000	0.004	-0.133
-502.683	-48.794	0.250	0.120
-501.668	-72.775	-0.219	0.081
-500.653	800.000	-0.086	-0.264
-499.639	-127.409	-0.149	0.022
-498.624	-63.230	0.190	0.078
-497.610	800.000	-0.028	-0.114
-496.595	-40.531	-0.156	-0.081
-495.581	-69.113	0.194	-0.075
-494.566	225.311	0.044	0.072
-493.551	-125.858	-0.115	0.017
-492.537	136.072	0.149	-0.194
-491.522	357.865	0.061	-0.122
-490.508	-157.933	0.083	0.005
-489.493	150.500	0.090	0.123
-488.478	-200.000	-0.008	-0.223
-487.464	-86.986	-0.134	0.041
-486.449	-23.463	0.333	0.200
-485.435	-115.924	0.477	-0.089
-484.420	-200.000	-0.021	0.161
-483.405	59.337	0.041	0.041
-482.391	23.125	0.363	0.298
-481.376	148.604	0.145	-0.196
-480.362	117.179	-0.246	0.302
-479.347	-76.263	-0.226	-0.080
-478.332	-200.000	0.027	-0.227
-477.318	83.762	-0.279	-0.305
-476.303	-65.604	0.279	-0.112
-475.289	-11.117	-0.115	0.076
-474.274	-5.702	-0.044	-0.030
-473.259	800.000	0.088	-0.285
-472.245	-139.621	-0.402	-0.043
-471.230	-46.949	0.165	-0.081
-470.216	800.000	-0.040	-0.164
-469.201	-23.738	0.278	-0.166
-468.186	-200.000	0.041	0.188
-467.172	800.000	-0.084	-0.321
-466.157	-200.000	0.008	-0.206
-465.143	229.547	-0.136	0.222
-464.128	-89.897	0.158	0.046
-463.113	10.305	0.218	-0.166
-462.099	-200.000	0.005	0.191
-461.084	382.526	-0.041	-0.085
-460.070	-88.819	0.263	0.078
-459.055	-90.548	-0.286	-0.083
-458.040	-81.603	0.265	-0.087
-457.026	-200.000	0.025	-0.190
-456.011	95.417	-0.117	0.134
-454.997	27.007	-0.121	0.101
-453.982	-200.000	0.018	0.162
-452.968	-38.242	-0.376	0.199
-451.953	-47.923	-0.240	-0.116
-450.938	800.000	0.068	0.247
-449.924	697.314	0.118	0.311
-448.909	-65.638	-0.195	-0.078
-447.895	73.608	0.101	0.106
-446.880	122.927	0.162	-0.203
-445.865	-24.329	-0.156	0.093
-444.851	-138.255	-0.339	-0.038
-443.836	-46.360	0.251	0.123
-442.822	-200.000	-0.006	-0.466
-441.807	-50.060	0.239	0.113
-440.792	800.000	0.011	0.033
-439.778	-49.992	-0.216	-0.102
-438.763	-98.571	0.095	-0.024
-437.749	-26.926	-0.127	0.074
-436.734	-23.059	-0.374	-0.225
-435.719	589.312	0.042	-0.102
-434.705	-200.000	0.019	-0.126
-433.690	106.757	0.103	-0.122
-432.676	-200.000	-0.051	0.233
-431.661	123.899	0.047	0.059
-430.646	-115.868	0.195	-0.036
-429.632	-35.357	-0.297	-0.161
-428.617	184.554	-0.108	0.160
-427.603	28.017	0.066	0.055
-426.588	151.807	0.223	-0.303
-425.573	281.128	0.021	0.037
-424.559	42.814	-0.147	-0.134
-423.544	0.344	0.112	-0.080
-422.530	117.864	-0.201	-0.247
-421.515	-200.000	0.212	0.001
-420.500	-171.874	-0.164	0.005
-419.486	-120.192	-0.411	0.070
-418.471	-103.745	0.183	0.043
-417.457	-57.838	-0.182	-0.079
-416.442	-152.860	-0.143	0.010
-415.428	-200.000	0.008	-0.189
-414.413	-200.000	0.027	0.164
-413.398	83.342	0.185	0.201
-412.384	-54.277	0.368	0.167
-411.369	159.174	-0.119	0.165
-410.355	800.000	-0.091	0.282
-409.340	-200.000	-0.016	0.240
-408.325	18.347	0.093	-0.075
-407.311	-200.000	0.051	-0.333
-406.296	800.000	0.023	0.089
-405.282	-136.315	-0.307	0.036
-404.267	452.490	0.028	-0.061
-403.252	-73.900	0.166	-0.060
-402.238	-183.078	0.151	-0.003
-401.223	449.911	0.085	-0.187
-400.209	-200.000	-0.010	-0.121
-399.194	-183.186	-0.186	-0.003
-398.179	-200.000	-0.042	-0.322
-397.165	244.116	0.249	-0.417
-396.150	17.092	0.093	0.073
-395.136	-49.748	0.200	-0.095
-394.121	-96.521	0.240	0.063
-393.106	-200.000	-0.003	-0.097
-392.092	62.092	-0.290	-0.288
-391.077	-72.653	0.299	-0.110
-390.063	-25.670	0.129	-0.076
-389.048	120.705	0.155	-0.192
-388.033	-118.347	-0.185	0.033
-387.019	587.565	0.070	0.172
-386.004	224.542	-0.130	0.210
-384.990	-20.877	0.075	0.046
-383.975	-170.387	0.128	-0.004
-382.960	-200.000	-0.021	0.102
-381.946	-7.201	-0.143	0.096
-380.931	-200.000	-0.008	0.192
-379.917	-76.852	0.165	-0.057
-378.902	126.993	0.184	0.232
-377.888	-62.921	0.320	-0.132
-376.873	249.321	-0.167	-0.282
-375.858	-139.173	0.615	-0.066
-374.844	2.243	-0.214	0.154
-373.829	-112.857	0.137	0.027
-372.815	-200.000	0.023	-0.385
-371.800	-7.443	-0.212	-0.143
-370.785	-181.429	0.098	0.002
-369.771	-200.000	0.039	0.274
-368.756	-133.532	0.096	0.012
-367.742	219.836	0.113	0.181
-366.727	-49.940	-0.262	-0.124
-365.712	92.610	-0.098	0.110
-364.698	12.875	0.077	-0.059
-363.683	137.484	0.197	-0.257
-362.669	800.000	0.034	-0.102
-361.654	800.000	0.174	0.481
-360.639	-200.000	-0.008	-0.129
-359.625	299.831	-0.062	-0.114
-358.610	32.360	0.116	0.099
-357.596	50.182	0.147	0.139
-356.581	-200.000	-0.034	0.298
-355.566	-200.000	-0.071	0.337
-354.552	-20.430	-0.094	-0.057
-353.537	-24.315	0.290	0.172
-352.523	78.985	-0.111	0.119
-351.508	115.393	-0.259	0.315
-350.493	800.000	-0.056	0.243
-349.479	-34.664	0.123	-0.067
-348.464	800.000	0.041	-0.123
-347.450	70.061	0.108	0.111
-346.435	800.000	-0.004	-0.015
-345.420	-200.000	-0.014	-0.184
-344.406	85.182	0.100	-0.109
-343.391	-21.351	0.124	0.076
-342.377	310.629	-0.114	-0.213
-341.362	-200.000	0.007	0.045
-340.348	-142.297	0.275	0.027
-339.333	715.710	-0.120	0.317
-338.318	-68.894	-0.231	-0.089
-337.304	64.623	0.126	0.126
-336.289	48.276	-0.260	-0.242
-335.275	2.383	0.210	0.151
-334.260	-55.133	0.118	0.053
-333.245	800.000	-0.014	0.044
-332.231	-35.043	-0.170	0.092
-331.216	258.510	0.188	-0.322
-330.202	80.141	-0.120	0.128
-329.187	-93.749	-0.339	-0.093
-328.172	-29.183	-0.183	-0.105
-327.158	256.773	0.124	0.213
-326.143	-200.000	0.062	0.332
-325.129	-68.534	0.234	0.090
-324.114	-85.143	0.127	-0.039
-323.099	538.881	-0.101	0.239
-322.085	800.000	0.051	-0.211
-321.070	48.264	0.216	0.201
-320.056	-58.291	-0.267	0.115
-319.041	281.346	0.210	-0.374
-318.026	800.000	-0.019	-0.070
-317.012	221.724	-0.075	0.120
-315.997	-200.000	0.037	-0.293
-314.983	-16.621	0.188	-0.119
-313.968	57.125	0.083	0.081
-312.953	320.329	-0.256	-0.483
-311.939	-69.660	0.325	-0.123
-310.924	-98.497	-0.058	0.015
-309.910	-200.000	0.029	0.488
-308.895	42.080	-0.172	-0.156
-307.880	-4.395	-0.254	-0.174
-306.866	100.126	-0.042	-0.048
-305.851	305.783	-0.118	0.218
-304.837	-64.342	0.124	0.050
-303.822	-200.000	-0.019	0.290
-302.807	197.636	0.072	0.109
-301.793	752.721	-0.032	0.087
-300.778	-78.755	0.289	0.098
-299.764	-200.000	-0.004	-0.173
-298.749	-200.000	-0.033	0.147
-297.735	151.014	0.192	0.260
-296.720	106.289	-0.309	0.364
-295.705	367.218	0.079	0.158
-294.691	343.643	0.135	-0.263
-293.676	-117.358	-0.021	-0.004
-292.662	800.000	0.047	-0.159
-291.647	-26.780	0.112	-0.065
-290.632	-200.000	-0.008	-0.127
-289.618	-200.000	0.030	0.227
-288.603	-200.000	0.004	-0.172
-287.589	-139.332	0.136	-0.015
-286.574	-66.912	-0.169	0.066
-285.559	-47.609	-0.398	0.192
-284.545	-200.000	0.051	0.243
-283.530	85.789	0.206	0.225
-282.516	-105.880	0.380	0.085
-281.501	-27.893	-0.315	0.182
-280.486	-200.000	0.042	0.219
-279.472	-55.476	0.346	0.154
-278.457	-200.000	0.012	-0.058
-277.443	21.981	-0.468	-0.379
-276.428	-200.000	0.023	-0.300
-275.413	29.391	-0.215	-0.181
-274.399	78.955	0.201	-0.214
-273.384	98.891	-0.165	-0.189
-272.370	8.901	-0.234	-0.175
-271.355	-98.519	0.215	0.055
-270.340	504.191	-0.067	0.154
-269.326	213.701	0.077	-0.122
-268.311	800.000	0.104	-0.356
-267.297	-105.054	0.481	-0.109
-266.282	-200.000	0.111	0.503
-265.267	148.441	0.042	-0.057
-264.253	175.532	0.037	-0.053
-263.238	179.125	0.247	0.358
-262.224	-11.938	0.079	0.052
-261.209	-21.186	-0.174	-0.105
-260.195	-8.172	-0.099	0.066
-259.180	565.056	-0.054	0.131
-258.165	48.919	-0.172	0.160
-257.151	117.495	0.199	0.243
-256.136	-69.145	0.154	-0.059
-255.122	276.189	-0.050	-0.088
-254.107	286.608	-0.270	0.484
-253.092	-200.000	0.068	0.304
-252.078	-93.146	0.323	-0.089
-251.063	109.205	-0.048	0.057
-250.049	800.000	0.115	0.377
-249.034	-34.319	0.257	-0.140
-248.019	-12.075	-0.211	0.137
-247.005	-63.412	-0.273	-0.111
-245.990	-77.485	0.139	-0.048
-244.976	-6.174	-0.218	0.148
-243.961	251.474	0.104	-0.176
-242.946	-175.801	0.162	0.004
-241.932	-200.000	-0.005	0.049
-240.917	-159.089	-0.551	0.031
-239.903	605.339	-0.118	0.292
-238.888	173.555	-0.189	-0.270
-237.873	-52.447	-0.126	0.058
-236.859	800.000	-0.032	-0.095
-235.844	546.755	0.119	-0.283
-234.830	0.828	-0.114	0.081
-233.815	-200.000	-0.003	-0.158
-232.800	-93.045	0.182	-0.050
-231.786	118.488	0.187	-0.229
-230.771	-62.747	0.127	0.052
-229.757	800.000	0.073	-0.261
-228.742	648.351	0.152	-0.386
-227.727	-200.000	-0.041	0.240
-226.713	800.000	0.131	0.537
-225.698	330.111	0.107	0.204
-224.684	-7.893	-0.323	-0.216
-223.669	-58.166	0.065	-0.028
-222.655	800.000	0.072	0.295
-221.640	-200.000	0.061	-0.302
-220.625	-111.268	0.210	-0.042
-219.611	51.817	-0.315	0.297
-218.596	389.569	-0.083	-0.170
-217.582	-143.792	0.266	-0.025
-216.567	3.288	0.200	-0.145
-215.552	-100.766	0.074	0.018
-214.538	-7.184	0.111	-0.075
-213.523	-145.151	0.142	-0.013
-212.509	489.376	0.038	0.087
-211.494	425.021	-0.114	0.243
-210.479	441.362	0.142	-0.307
-209.465	-51.785	0.051	0.024
-208.450	509.381	-0.060	-0.138
-207.436	-101.788	0.134	0.032
-206.421	78.402	0.211	-0.224
-205.406	211.525	0.086	-0.133
-204.392	-96.755	0.084	-0.022
-203.377	-111.843	-0.383	-0.077
-202.363	31.553	0.070	-0.059
-201.348	800.000	-0.139	0.559
-200.333	319.287	-0.043	-0.080
-199.319	13.740	-0.168	-0.129
-198.304	-31.964	-0.269	-0.149
-197.290	49.524	0.196	0.183
-196.275	-200.000	0.016	-0.166
-195.260	-80.453	-0.195	-0.064
-194.246	800.000	0.036	-0.152
-193.231	398.891	-0.050	0.104
-192.217	800.000	0.185	-0.542
-191.202	1.682	0.177	-0.126
-190.187	-200.000	0.033	0.205
-189.173	-200.000	0.028	0.179
-188.158	-195.394	0.160	0.001
-187.144	-73.440	0.324	0.117
-186.129	800.000	0.025	0.110
-185.114	-51.328	0.144	0.067
-184.100	48.053	0.047	-0.043
-183.085	-184.499	-0.323	0.005
-182.071	-158.573	0.305	-0.017
-181.056	9.114	-0.093	0.069
-180.042	28.516	0.026	0.022
-179.027	133.809	-0.060	-0.076
-178.012	800.000	-0.117	0.370
-176.998	5.225	-0.136	0.099
-175.983	196.844	-0.137	-0.206
-174.969	354.822	0.118	0.232
-173.954	775.585	-0.027	-0.074
-172.939	800.000	0.057	0.157
-171.925	51.599	0.196	0.184
-170.910	69.891	-0.140	-0.143
-169.896	184.304	0.127	0.185
-168.881	-58.007	-0.082	-0.035
-167.866	800.000	-0.052	-0.190
-166.852	-59.110	0.088	0.037
-165.837	-194.773	0.136	-0.001
-164.823	-45.006	-0.078	0.039
-163.808	-159.203	-0.206	-0.011
-162.793	23.638	-0.185	-0.151
-161.779	-18.737	0.234	0.144
-160.764	-66.086	0.172	0.068
-159.750	-14.802	-0.164	0.104
-158.735	206.703	0.044	0.067
-157.720	-113.424	0.073	0.014
-156.706	-140.682	0.136	0.014
-155.691	-1.500	0.078	-0.054
-154.677	165.516	-0.155	0.217
-153.662	627.910	-0.107	-0.266
-152.647	66.605	-0.083	-0.083
-151.633	-124.718	0.385	-0.059
-150.618	-91.775	-0.094	-0.026
-149.604	578.046	0.009	0.022
-148.589	-141.691	-0.036	0.004
-147.574	86.577	0.109	0.119
-146.560	800.000	-0.101	-0.406
-145.545	800.000	-0.096	-0.272
-144.531	800.000	0.032	0.129
-143.516	-200.000	0.008	0.073
-142.502	-48.380	0.058	-0.027
-141.487	-108.926	-0.101	-0.021
-140.472	-58.114	-0.227	0.098
-139.458	-200.000	-0.007	0.051
-138.443	521.486	0.160	0.372
-137.429	23.660	0.159	-0.129
-136.414	800.000	0.032	-0.133
-135.399	281.027	-0.042	-0.075
-134.385	-66.024	-0.049	0.019
-133.370	-198.311	-0.128	0.001
-132.356	248.525	0.149	0.249
-131.341	89.093	-0.070	0.077
-130.326	-63.263	-0.148	-0.060
-129.312	800.000	0.014	0.038
-128.297	244.604	0.122	-0.203
-127.283	-200.000	0.037	0.305
-126.268	-112.112	0.073	-0.014
-125.253	-129.596	0.060	-0.008
-124.239	-93.963	-0.342	0.093
-123.224	-200.000	-0.009	-0.090
-122.210	170.941	-0.237	0.335
-121.195	-60.682	-0.143	-0.060
-120.180	-32.564	-0.222	-0.122
