DTS Sentinel unit serial number:	SN413079Multiplexer serial number:	ORYXHardware model number:	OX4-SRSoftware version number:	ORYX F/W v4.00 Oryx Data Collector v3.7.2.0data status	okinstallation	princeton_trtdifferential loss correction	single-endedforward channel	channel 1reverse channel	N/Adate	2019/09/10time	18:20:11forward acquisition time	60.00reverse acquisition time	0.00gamma	496.2192k internal	0.2304k external	0.2304temperature offset calibration	0.9929default loss term (dB/km)	0.3790temperature slope calibration	1.0000multiplexer offset coefficient	1.0000multiplexer slope coefficient	1.0000fibre end	0.00T internal ref (°C)	36.33T ext. ref 1 (°C)	-0.39T ext. ref 2 (°C)	28.42length (m)	temperature (°C)	Stokes	anti-Stokes-747.200	51.988	-0.265	-0.257
-746.185	68.253	-0.084	0.087
-745.171	129.483	0.073	0.096
-744.156	-7.172	0.279	0.193
-743.142	-113.963	-0.180	0.036
-742.127	145.157	0.046	-0.063
-741.112	-200.000	0.008	0.046
-740.098	125.576	-0.329	0.423
-739.083	-105.734	0.138	-0.032
-738.069	16.926	-0.193	0.156
-737.054	-33.944	0.150	0.084
-736.039	-156.483	-0.172	-0.011
-735.025	26.351	0.242	0.206
-734.010	800.000	-0.112	-0.474
-732.996	89.505	-0.348	-0.395
-731.981	78.411	-0.127	-0.138
-730.966	-15.672	-0.267	-0.173
-729.952	-58.385	0.162	-0.072
-728.937	-40.656	-0.149	0.078
-727.923	800.000	-0.119	-0.412
-726.908	-77.527	-0.183	0.064
-725.894	-196.245	-0.326	0.002
-724.879	-51.906	-0.075	0.035
-723.864	483.012	-0.150	0.347
-722.850	-200.000	0.009	0.165
-721.835	-63.079	-0.175	-0.073
-720.821	-102.041	-0.287	-0.070
-719.806	185.276	-0.181	0.273
-718.791	64.282	-0.278	-0.285
-717.777	-200.000	-0.067	-0.302
-716.762	-113.166	0.069	-0.014
-715.748	-154.580	-0.086	0.006
-714.733	-50.282	-0.083	-0.040
-713.718	-43.715	-0.171	0.087
-712.704	800.000	0.055	-0.203
-711.689	13.048	-0.238	0.187
-710.675	-200.000	-0.009	-0.204
-709.660	-84.296	0.097	0.031
-708.645	-80.442	0.135	0.046
-707.631	-34.613	-0.369	-0.205
-706.616	-112.334	-0.158	0.032
-705.602	629.157	0.118	0.303
-704.587	-136.655	-0.264	0.031
-703.572	-200.000	0.010	-0.057
-702.558	109.775	-0.166	-0.203
-701.543	53.877	0.052	-0.050
-700.529	800.000	-0.088	-0.250
-699.514	-200.000	0.022	0.127
-698.499	102.067	-0.110	-0.130
-697.485	143.184	-0.049	-0.066
-696.470	79.907	-0.283	-0.309
-695.456	-106.286	0.137	0.031
-694.441	800.000	-0.013	0.053
-693.426	-32.802	0.216	-0.122
-692.412	-47.320	0.076	0.038
-691.397	-123.883	0.132	-0.021
-690.383	59.589	0.042	-0.042
-689.368	59.581	-0.322	0.323
-688.354	315.390	-0.024	0.046
-687.339	-122.170	-0.149	0.025
-686.324	800.000	0.140	-0.441
-685.310	435.829	-0.092	-0.204
-684.295	661.901	0.075	-0.197
-683.281	-116.172	-0.210	-0.040
-682.266	253.973	-0.125	-0.217
-681.251	120.914	-0.056	0.071
-680.237	-200.000	-0.026	-0.260
-679.222	800.000	-0.137	-0.411
-678.208	-190.443	0.265	0.003
-677.193	-200.000	0.005	0.188
-676.178	800.000	0.065	-0.199
-675.164	-61.837	0.175	-0.074
-674.149	-51.313	-0.134	0.064
-673.135	80.602	-0.334	-0.365
-672.120	65.167	-0.194	-0.199
-671.105	37.900	-0.245	0.221
-670.091	62.912	-0.094	-0.095
-669.076	800.000	-0.036	0.133
-668.062	313.031	-0.049	0.094
-667.047	201.272	0.106	0.166
-666.032	179.170	-0.146	-0.217
-665.018	149.106	0.062	-0.085
-664.003	-142.526	-0.361	-0.036
-662.989	-200.000	-0.023	0.301
-661.974	-87.735	-0.044	0.013
-660.959	195.679	0.221	-0.341
-659.945	-30.440	-0.086	0.049
-658.930	269.020	0.058	-0.103
-657.916	-109.036	0.193	-0.042
-656.901	152.417	-0.108	0.149
-655.886	50.947	-0.464	-0.446
-654.872	160.117	0.046	-0.065
-653.857	45.636	-0.193	0.181
-652.843	-200.000	-0.019	-0.360
-651.828	-200.000	0.037	-0.212
-650.814	31.352	-0.160	-0.139
-649.799	-48.345	0.355	-0.173
-648.784	165.448	0.148	0.212
-647.770	-148.454	-0.228	0.019
-646.755	-49.447	-0.524	-0.253
-645.741	-200.000	0.036	-0.284
-644.726	-51.204	-0.237	0.113
-643.711	-200.000	-0.046	0.401
-642.697	50.423	-0.187	0.179
-641.682	261.308	-0.116	0.204
-640.668	-4.440	-0.103	-0.072
-639.653	27.138	-0.048	0.041
-638.638	162.557	0.031	0.044
-637.624	490.356	-0.058	-0.135
-636.609	14.967	0.051	-0.041
-635.595	-200.000	-0.017	-0.205
-634.580	133.348	-0.268	-0.351
-633.565	-200.000	-0.002	0.271
-632.551	38.433	-0.374	0.338
-631.536	40.971	-0.269	-0.246
-630.522	145.771	0.125	-0.170
-629.507	494.039	0.103	-0.240
-628.492	800.000	-0.092	0.276
-627.478	-200.000	0.036	-0.170
-626.463	-95.332	0.125	0.034
-625.449	-78.088	0.138	0.048
-624.434	51.137	-0.068	-0.065
-623.419	-81.759	-0.099	0.033
-622.405	14.902	0.037	-0.030
-621.390	-80.304	0.259	-0.088
-620.376	800.000	-0.057	0.244
-619.361	277.669	0.081	0.146
-618.346	-83.368	-0.359	0.117
-617.332	800.000	-0.073	-0.260
-616.317	99.071	-0.097	-0.114
-615.303	-46.645	-0.154	-0.076
-614.288	-139.144	0.047	0.005
-613.273	800.000	0.049	0.212
-612.259	79.206	-0.049	0.053
-611.244	148.407	0.010	-0.014
-610.230	-131.746	-0.287	-0.038
-609.215	768.694	-0.074	-0.204
-608.201	50.238	0.148	-0.141
-607.186	-200.000	-0.069	0.356
-606.171	313.401	0.048	0.091
-605.157	-69.391	-0.258	-0.100
-604.142	-200.000	0.005	-0.352
-603.128	32.322	-0.219	-0.192
-602.113	-99.036	0.051	0.013
-601.098	74.953	0.199	0.212
-600.084	-163.963	-0.061	0.003
-599.069	-52.320	-0.242	-0.114
-598.055	235.511	-0.213	0.355
-597.040	61.936	0.144	-0.146
-596.025	-167.378	-0.202	0.008
-595.011	289.160	-0.125	-0.230
-593.996	-106.057	-0.254	-0.058
-592.982	276.511	-0.055	0.099
-591.967	660.021	-0.048	0.125
-590.952	62.032	-0.090	0.091
-589.938	-128.387	0.244	0.035
-588.923	-83.335	-0.339	0.110
-587.909	-200.000	-0.041	-0.275
-586.894	-23.126	0.456	0.278
-585.879	-131.206	0.317	-0.043
-584.865	622.044	0.067	0.171
-583.850	200.180	0.058	0.089
-582.836	36.667	-0.265	-0.237
-581.821	241.819	-0.099	-0.168
-580.806	-49.031	0.409	0.198
-579.792	4.351	0.248	0.184
-578.777	-37.706	-0.171	0.092
-577.763	77.890	0.252	-0.272
-576.748	-159.103	-0.548	0.031
-575.733	-200.000	0.011	-0.263
-574.719	-114.729	-0.330	-0.064
-573.704	-200.000	0.018	0.355
-572.690	800.000	0.020	0.075
-571.675	20.657	0.214	-0.175
-570.661	25.204	-0.034	0.028
-569.646	-15.748	0.404	-0.260
-568.631	-110.543	0.089	0.019
-567.617	800.000	-0.032	0.121
-566.602	-200.000	-0.049	0.258
-565.588	-158.870	0.163	0.009
-564.573	-148.884	-0.188	-0.015
-563.558	-200.000	0.002	-0.068
-562.544	-102.167	-0.265	0.065
-561.529	629.582	0.110	0.281
-560.515	-200.000	0.011	0.202
-559.500	73.768	-0.125	0.133
-558.485	800.000	-0.049	-0.174
-557.471	-111.840	0.249	-0.051
-556.456	-56.588	-0.228	0.102
-555.442	14.537	0.120	-0.095
-554.427	4.089	-0.032	0.023
-553.412	328.797	-0.105	-0.203
-552.398	132.742	0.039	-0.051
-551.383	-141.479	0.155	-0.016
-550.369	-200.000	-0.078	-0.482
-549.354	558.967	-0.107	-0.261
-548.339	175.481	0.105	0.154
-547.325	176.690	0.242	-0.355
-546.310	301.280	-0.076	0.142
-545.296	17.336	-0.230	-0.185
-544.281	-25.215	0.142	-0.085
-543.266	-200.000	0.017	0.103
-542.252	20.987	-0.337	-0.276
-541.237	-137.569	-0.438	-0.050
-540.223	58.378	-0.253	-0.251
-539.208	202.779	0.125	0.194
-538.193	-75.269	-0.175	-0.063
-537.179	-200.000	0.012	-0.199
-536.164	-62.968	0.232	-0.097
-535.150	-5.109	-0.255	-0.177
-534.135	186.051	-0.140	-0.210
-533.121	37.649	-0.079	0.070
-532.106	12.915	-0.143	0.111
-531.091	-56.496	-0.100	0.045
-530.077	-136.229	-0.164	0.019
-529.062	-200.000	0.012	-0.107
-528.048	-35.397	-0.290	0.159
-527.033	-85.513	-0.408	-0.128
-526.018	-200.000	0.068	-0.332
-525.004	269.736	0.140	-0.248
-523.989	-200.000	-0.026	-0.203
-522.975	38.759	0.270	-0.244
-521.960	-30.559	-0.123	0.070
-520.945	224.476	0.125	-0.204
-519.931	80.228	0.096	-0.104
-518.916	85.419	0.056	0.062
-517.902	800.000	0.059	-0.231
-516.887	800.000	-0.047	0.184
-515.872	433.293	0.170	0.373
-514.858	-113.683	-0.067	0.013
-513.843	-200.000	-0.027	0.234
-512.829	800.000	-0.076	0.261
-511.814	-200.000	0.023	0.176
-510.799	43.985	0.241	0.223
-509.785	-52.889	0.334	0.155
-508.770	-47.874	-0.202	0.099
-507.756	-34.362	-0.301	-0.166
-506.741	244.109	0.248	-0.420
-505.726	800.000	-0.116	-0.408
-504.712	7.083	-0.113	0.085
-503.697	289.069	0.166	0.304
-502.683	-136.808	-0.099	-0.012
-501.668	-63.207	-0.118	-0.049
-500.653	-5.456	-0.207	0.143
-499.639	800.000	0.004	-0.016
-498.624	658.568	0.158	0.409
-497.610	510.748	-0.084	0.197
-496.595	-97.024	0.507	-0.134
-495.581	-41.354	-0.438	-0.228
-494.566	393.215	-0.100	-0.210
-493.551	-152.026	0.342	-0.025
-492.537	-200.000	-0.037	0.322
-491.522	2.131	0.169	-0.123
-490.508	-81.367	0.197	0.066
-489.493	-83.268	0.416	0.135
-488.478	-38.451	-0.062	-0.033
-487.464	-112.225	-0.105	0.021
-486.449	116.956	-0.291	0.360
-485.435	800.000	0.089	0.283
-484.420	-153.093	0.129	-0.009
-483.405	42.628	0.215	-0.197
-482.391	-200.000	0.015	-0.160
-481.376	162.597	-0.092	0.130
-480.362	-200.000	-0.013	0.164
-479.347	185.916	0.061	-0.091
-478.332	-93.729	0.203	-0.057
-477.318	4.104	0.262	0.193
-476.303	-87.034	0.318	-0.098
-475.289	299.927	-0.026	0.048
-474.274	154.657	0.112	0.155
-473.259	800.000	0.099	0.359
-472.245	19.354	-0.184	0.149
-471.230	-68.757	0.257	0.100
-470.216	226.314	0.178	-0.291
-469.201	13.127	-0.069	0.053
-468.186	272.483	-0.037	-0.065
-467.172	-129.824	0.192	0.027
-466.157	273.745	0.133	-0.238
-465.143	198.661	-0.229	-0.354
-464.128	1.259	-0.191	0.138
-463.113	323.103	-0.076	-0.146
-462.099	-8.952	-0.278	0.187
-461.084	-200.000	-0.010	-0.049
-460.070	-121.227	-0.201	0.034
-459.055	-91.047	0.299	-0.086
-458.040	111.779	-0.064	0.078
-457.026	800.000	0.035	0.142
-456.011	197.693	0.083	0.127
-454.997	-170.425	-0.297	-0.010
-453.982	401.547	-0.094	-0.198
-452.968	-27.686	-0.174	-0.102
-451.953	109.091	0.150	0.181
-450.938	-200.000	-0.001	-0.449
-449.924	-96.405	-0.131	-0.035
-448.909	-95.200	-0.142	0.039
-447.895	45.841	-0.231	0.215
-446.880	148.749	-0.194	0.264
-445.865	-200.000	0.029	0.272
-444.851	61.747	0.290	0.290
-443.836	-57.752	-0.111	0.049
-442.822	133.575	0.097	-0.126
-441.807	232.612	-0.166	-0.275
-440.792	-162.462	-0.281	-0.014
-439.778	163.883	0.228	0.323
-438.763	-107.158	-0.023	0.005
-437.749	-200.000	-0.038	0.224
-436.734	-102.790	-0.055	0.013
-435.719	-43.654	0.129	-0.065
-434.705	23.099	0.073	0.061
-433.690	-163.918	-0.033	-0.002
-432.676	-200.000	-0.037	0.268
-431.661	45.160	0.236	-0.219
-430.646	367.975	0.069	0.141
-429.632	800.000	0.137	0.455
-428.617	-41.987	-0.312	0.161
-427.603	103.539	0.098	-0.116
-426.588	82.617	0.122	0.133
-425.573	654.753	0.039	-0.101
-424.559	183.035	0.023	-0.033
-423.544	93.673	-0.068	-0.077
-422.530	-200.000	0.057	-0.296
-421.515	237.058	0.127	-0.212
-420.500	-200.000	0.038	0.270
-419.486	-123.733	0.282	-0.045
-418.471	24.082	0.127	0.105
-417.457	335.429	-0.041	0.080
-416.442	-200.000	-0.018	-0.335
-415.428	-73.546	0.191	0.070
-414.413	214.622	0.051	0.081
-413.398	172.365	-0.136	0.196
-412.384	-200.000	0.014	-0.139
-411.369	124.376	-0.056	-0.071
-410.355	58.477	0.090	-0.089
-409.340	146.418	-0.119	-0.161
-408.325	-200.000	-0.042	0.194
-407.311	-115.987	-0.087	0.016
-406.296	449.179	0.040	-0.088
-405.282	-40.076	0.346	-0.181
-404.267	-59.123	0.154	0.067
-403.252	64.333	0.224	0.227
-402.238	114.322	0.178	0.218
-401.223	-2.556	-0.285	0.201
-400.209	102.940	-0.143	-0.168
-399.194	-200.000	0.042	0.274
-398.179	-157.536	0.090	0.005
-397.165	-170.442	0.230	0.008
-396.150	-176.575	-0.445	-0.011
-395.136	47.484	0.061	-0.057
-394.121	41.079	-0.187	-0.170
-393.106	-200.000	-0.028	-0.304
-392.092	62.236	0.276	0.277
-391.077	-77.067	0.051	0.018
-390.063	-66.448	-0.084	0.033
-389.048	90.350	0.043	-0.049
-388.033	-200.000	-0.004	0.269
-387.019	-146.776	-0.124	0.011
-386.004	-35.916	-0.228	-0.124
-384.990	-200.000	0.026	-0.163
-383.975	-153.707	-0.324	0.022
-382.960	-200.000	-0.012	0.183
-381.946	-200.000	-0.034	-0.179
-380.931	184.705	-0.080	0.120
-379.917	32.169	0.340	-0.295
-378.902	569.120	-0.116	0.282
-377.888	-63.998	0.187	-0.077
-376.873	-26.832	-0.254	-0.149
-375.858	-64.604	0.221	0.090
-374.844	441.225	0.043	-0.094
-373.829	-79.634	-0.240	-0.081
-372.815	531.034	-0.036	0.085
-371.800	-190.308	0.288	-0.003
-370.785	-200.000	0.036	-0.236
-369.771	81.584	-0.072	-0.078
-368.756	-143.742	-0.410	0.039
-367.742	794.231	0.064	-0.175
-366.727	182.078	-0.157	-0.232
-365.712	-189.535	0.273	-0.003
-364.698	-134.255	0.405	0.050
-363.683	-200.000	0.009	-0.190
-362.669	176.363	-0.118	0.172
-361.654	-102.234	0.142	0.034
-360.639	-200.000	-0.001	0.081
-359.625	-178.112	0.134	-0.003
-358.610	-58.218	-0.174	0.076
-357.596	65.047	-0.300	0.304
-356.581	800.000	0.041	0.126
-355.566	-64.999	0.145	0.059
-354.552	325.588	0.043	0.083
-353.537	-200.000	-0.028	0.274
-352.523	800.000	0.079	-0.299
-351.508	800.000	-0.010	-0.032
-350.493	235.167	0.280	0.464
-349.479	-200.000	0.062	-0.326
-348.464	199.512	0.129	-0.199
-347.450	-53.022	0.092	0.043
-346.435	-87.317	0.255	0.077
-345.420	579.954	-0.108	0.266
-344.406	-106.049	0.330	-0.074
-343.391	-107.007	-0.108	-0.024
-342.377	-103.382	-0.287	-0.068
-341.362	569.229	0.016	0.039
-340.348	-150.657	0.094	0.007
-339.333	43.512	-0.100	0.092
-338.318	-15.701	-0.385	0.246
-337.304	54.183	-0.290	-0.279
-336.289	719.201	0.042	0.111
-335.275	27.362	0.130	-0.110
-334.260	158.613	0.080	-0.111
-333.245	-19.075	-0.222	0.138
-332.231	800.000	0.055	-0.185
-331.216	-46.615	0.191	-0.094
-330.202	2.748	0.097	0.071
-329.187	-13.059	0.225	-0.146
-328.172	768.454	0.097	-0.263
-327.158	-106.252	0.284	0.064
-326.143	-200.000	-0.006	-0.250
-325.129	-200.000	0.353	-0.000
-324.114	190.464	-0.062	0.093
-323.099	137.442	0.150	-0.196
-322.085	-200.000	0.021	0.143
-321.070	-130.064	0.208	0.028
-320.056	73.379	0.151	0.158
-319.041	-48.028	0.127	-0.061
-318.026	60.748	0.263	-0.261
-317.012	-15.666	0.154	-0.099
-315.997	3.363	-0.284	-0.207
-314.983	18.568	0.209	0.167
-313.968	800.000	0.048	-0.166
-312.953	-200.000	-0.022	0.125
-311.939	80.218	0.160	-0.172
-310.924	89.740	-0.154	0.172
-309.910	-200.000	0.034	-0.240
-308.895	354.249	-0.114	0.227
-307.880	25.148	-0.155	0.129
-306.866	-49.083	-0.038	0.018
-305.851	-35.385	-0.165	-0.090
-304.837	-103.863	0.263	-0.062
-303.822	477.915	0.078	-0.177
-302.807	-51.238	0.376	-0.176
-301.793	-40.395	0.279	0.145
-300.778	66.027	-0.308	0.313
-299.764	-200.000	-0.014	-0.219
-298.749	-200.000	-0.010	-0.410
-297.735	40.406	0.138	0.124
-296.720	543.877	0.176	-0.419
-295.705	-36.509	-0.279	0.150
-294.691	-86.346	0.081	0.025
-293.676	-115.445	-0.047	0.009
-292.662	-159.878	-0.148	0.008
-291.647	-164.542	0.136	-0.006
-290.632	-200.000	-0.001	-0.056
-289.618	270.242	-0.058	-0.102
-288.603	-11.473	0.285	0.188
-287.589	-113.605	-0.169	0.033
-286.574	399.110	0.154	0.323
-285.559	99.729	0.175	-0.202
-284.545	54.369	-0.199	0.192
-283.530	57.707	0.188	-0.184
-282.516	-200.000	-0.040	-0.190
-281.501	382.318	0.208	0.428
-280.486	-46.543	0.186	-0.091
-279.472	7.480	-0.380	-0.284
-278.457	-78.361	-0.170	-0.058
-277.443	-200.000	-0.071	0.421
-276.428	-89.545	-0.234	-0.069
-275.413	-150.650	-0.287	-0.022
-274.399	205.303	0.119	-0.185
-273.384	-154.327	-0.268	0.018
-272.370	207.903	-0.090	-0.141
-271.355	-200.000	0.014	-0.395
-270.340	68.218	0.024	0.025
-269.326	66.735	0.251	0.256
-268.311	62.420	-0.345	0.344
-267.297	-4.024	0.114	0.079
-266.282	-200.000	-0.009	-0.053
-265.267	-56.282	0.182	-0.081
-264.253	-55.607	0.281	0.126
-263.238	-108.638	0.067	0.014
-262.224	30.529	0.091	0.078
-261.209	122.959	-0.084	-0.105
-260.195	-79.582	0.091	0.031
-259.180	-125.565	0.238	0.036
-258.165	-78.149	-0.071	0.024
-257.151	-200.000	-0.009	0.137
-256.136	800.000	-0.120	-0.400
-255.122	-64.298	-0.303	-0.123
-254.107	605.449	-0.192	-0.477
-253.092	-94.805	-0.102	0.028
-252.078	-200.000	-0.029	-0.145
-251.063	-97.359	0.245	-0.064
-250.049	66.153	0.353	-0.358
-249.034	57.623	-0.242	0.236
-248.019	173.363	0.173	0.250
-247.005	-2.714	-0.260	0.182
-245.990	-200.000	0.054	0.277
-244.976	-55.159	-0.180	-0.081
-243.961	-120.621	0.248	0.042
-242.946	-111.840	0.330	-0.067
-241.932	201.386	-0.155	-0.239
-240.917	286.924	0.017	0.030
-239.903	30.131	0.107	-0.091
-238.888	-101.232	-0.142	-0.035
-237.873	-200.000	-0.003	0.076
-236.859	-55.378	0.349	0.156
-235.844	643.453	0.042	-0.108
-234.830	-200.000	-0.042	-0.326
-233.815	46.113	-0.188	-0.174
-232.800	-123.077	-0.295	0.047
-231.786	-88.310	0.244	-0.073
-230.771	-200.000	0.001	-0.074
-229.757	-200.000	0.020	0.145
-228.742	-83.814	0.192	0.061
-227.727	543.545	0.020	-0.048
-226.713	105.953	0.071	0.084
-225.698	301.785	0.055	0.102
-224.684	-21.067	-0.398	0.243
-223.669	76.083	0.135	-0.142
-222.655	-107.442	0.476	0.104
-221.640	277.825	0.094	-0.167
-220.625	800.000	-0.063	-0.234
-219.611	800.000	-0.091	0.268
-218.596	8.371	-0.250	-0.187
-217.582	-122.666	-0.468	-0.076
-216.567	800.000	0.101	0.281
-215.552	100.763	0.227	0.263
-214.538	-7.275	-0.092	-0.062
-213.523	166.575	0.169	0.240
-212.509	-200.000	0.006	-0.100
-211.494	800.000	-0.097	0.397
-210.479	-81.227	0.386	-0.127
-209.465	8.607	-0.149	0.112
-208.450	-147.317	0.122	-0.010
-207.436	-200.000	-0.019	0.169
-206.421	800.000	0.017	0.059
-205.406	-69.560	-0.370	-0.141
-204.392	-164.866	-0.284	-0.013
-203.377	800.000	0.112	0.390
-202.363	37.771	0.132	-0.117
-201.348	-200.000	-0.001	0.020
-200.333	-114.928	0.285	0.054
-199.319	148.551	0.129	-0.174
-198.304	477.944	-0.091	-0.206
-197.290	270.112	-0.153	-0.268
-196.275	-35.739	-0.046	-0.025
-195.260	800.000	-0.054	-0.203
-194.246	29.421	0.221	0.187
-193.231	181.226	0.140	0.204
-192.217	4.157	-0.104	-0.076
-191.202	-200.000	-0.021	-0.209
-190.187	-56.192	-0.590	-0.261
-189.173	129.992	0.130	0.165
-188.158	36.917	0.095	0.084
-187.144	68.572	0.197	0.202
-186.129	69.373	-0.078	-0.080
-185.114	63.954	-0.113	-0.114
-184.100	181.717	-0.053	0.077
-183.085	-134.502	0.052	-0.006
-182.071	-134.873	-0.392	-0.047
-181.056	331.511	0.113	-0.217
-180.042	36.354	-0.150	0.132
-179.027	-109.156	-0.228	0.048
-178.012	243.734	-0.047	0.078
-176.998	100.155	0.112	0.129
-175.983	-91.435	0.175	0.050
-174.969	-200.000	0.002	-0.124
-173.954	-21.849	0.255	0.154
-172.939	-23.111	-0.167	0.100
-171.925	85.255	0.168	-0.184
-170.910	-54.313	0.259	-0.117
-169.896	-54.405	-0.194	-0.088
-168.881	-56.770	-0.185	0.081
-167.866	800.000	0.064	0.256
-166.852	-33.267	-0.116	0.064
-165.837	-117.294	0.161	0.029
-164.823	800.000	-0.030	0.102
-163.808	-200.000	-0.038	0.165
-162.793	-101.255	0.326	0.079
-161.779	546.983	0.023	-0.054
-160.764	-55.339	-0.185	-0.083
-159.750	-200.000	0.107	-0.000
-158.735	210.722	-0.137	-0.214
-157.720	63.028	0.052	0.052
-156.706	103.159	0.037	0.044
-155.691	800.000	0.081	-0.303
-154.677	800.000	-0.099	0.320
-153.662	499.495	-0.149	0.341
-152.647	2.338	0.255	0.184
-151.633	27.663	-0.090	0.076
-150.618	-200.000	0.075	-0.414
-149.604	311.385	-0.074	-0.137
-148.589	-200.000	-0.036	0.326
-147.574	-200.000	0.083	-0.568
-146.560	673.372	-0.072	-0.186
-145.545	-66.394	-0.219	0.087
-144.531	-151.430	-0.246	0.018
-143.516	-182.759	0.376	-0.007
-142.502	21.591	0.044	-0.036
-141.487	-132.561	-0.096	0.012
-140.472	-200.000	-0.045	0.210
-139.458	67.665	0.101	0.102
-138.443	-58.911	0.197	0.085
-137.429	157.737	-0.147	-0.203
-136.414	-59.996	-0.346	-0.147
-135.399	-200.000	0.044	0.283
-134.385	205.378	0.099	-0.154
-133.370	384.559	0.154	0.315
-132.356	-117.736	0.398	-0.071
-131.341	-60.093	0.227	-0.096
-130.326	-129.662	-0.317	0.043
-129.312	216.695	-0.122	-0.194
-128.297	-91.111	0.328	-0.093
-127.283	-29.365	-0.171	0.097
-126.268	-49.938	-0.327	-0.154
-125.253	232.223	-0.050	-0.081
-124.239	74.272	0.110	-0.115
-123.224	17.614	0.077	0.061
-122.210	-162.047	-0.265	-0.013
-121.195	233.442	-0.157	0.257
