DTS Sentinel unit serial number:	SN413079Multiplexer serial number:	ORYXHardware model number:	OX4-SRSoftware version number:	ORYX F/W v4.00 Oryx Data Collector v3.7.2.0data status	okinstallation	princeton_trtdifferential loss correction	single-endedforward channel	channel 1reverse channel	N/Adate	2019/09/18time	15:10:35forward acquisition time	60.00reverse acquisition time	0.00gamma	496.2192k internal	0.2305k external	0.2305temperature offset calibration	0.9987default loss term (dB/km)	0.3790temperature slope calibration	1.0000multiplexer offset coefficient	1.0000multiplexer slope coefficient	1.0000fibre end	0.00T internal ref (°C)	35.44T ext. ref 1 (°C)	0.75T ext. ref 2 (°C)	32.71length (m)	temperature (°C)	Stokes	anti-Stokes-747.200	-108.016	-0.105	0.023
-746.185	-65.255	-0.113	0.046
-745.171	6.528	-0.120	0.091
-744.156	-200.000	0.074	0.564
-743.142	86.670	-0.270	-0.304
-742.127	-200.000	-0.068	0.489
-741.112	210.779	-0.170	-0.272
-740.098	475.220	-0.021	-0.049
-739.083	800.000	0.109	0.409
-738.069	379.227	0.085	0.177
-737.054	-102.834	-0.164	0.040
-736.039	52.836	0.175	0.171
-735.025	-178.329	0.233	0.006
-734.010	-67.410	-0.393	-0.157
-732.996	-175.916	-0.287	0.008
-731.981	-132.914	0.253	0.033
-730.966	-42.217	0.177	-0.092
-729.952	-200.000	0.017	0.174
-728.937	-69.728	0.092	0.036
-727.923	691.403	-0.061	-0.163
-726.908	-200.000	0.032	-0.149
-725.894	463.819	0.031	-0.070
-724.879	-70.127	-0.220	0.085
-723.864	-63.361	0.221	-0.093
-722.850	234.262	0.128	-0.215
-721.835	-5.408	-0.189	0.132
-720.821	-168.487	0.192	0.007
-719.806	800.000	0.051	0.152
-718.791	-170.411	-0.236	-0.008
-717.777	-200.000	0.020	-0.238
-716.762	-110.112	-0.415	-0.088
-715.748	437.552	0.062	0.137
-714.733	800.000	-0.077	-0.251
-713.718	-200.000	0.053	-0.351
-712.704	2.276	-0.166	-0.122
-711.689	229.634	-0.104	0.173
-710.675	-200.000	-0.002	0.147
-709.660	197.183	-0.172	0.267
-708.645	136.403	-0.133	-0.176
-707.631	288.107	0.138	0.254
-706.616	-112.597	-0.341	-0.069
-705.602	-191.462	-0.067	-0.001
-704.587	50.608	0.295	-0.284
-703.572	9.362	-0.249	0.191
-702.558	666.865	-0.040	0.106
-701.543	4.035	-0.123	0.091
-700.529	-121.025	-0.154	0.026
-699.514	-55.120	0.164	0.075
-698.499	694.588	0.095	0.252
-697.485	-200.000	0.005	-0.095
-696.470	412.270	-0.156	-0.338
-695.456	800.000	-0.055	0.229
-694.441	-99.419	-0.228	-0.058
-693.426	128.895	-0.111	-0.144
-692.412	-77.196	-0.234	0.083
-691.397	178.049	-0.036	0.054
-690.383	41.725	-0.239	-0.220
-689.368	-10.223	0.180	-0.121
-688.354	-200.000	-0.053	-0.358
-687.339	-101.771	-0.245	0.060
-686.324	-11.981	-0.230	0.153
-685.310	-122.446	0.334	0.055
-684.295	-154.025	-0.328	-0.023
-683.281	-172.220	0.281	-0.009
-682.266	-78.979	0.042	0.014
-681.251	560.647	0.072	0.177
-680.237	364.749	-0.117	0.239
-679.222	-35.066	-0.152	-0.084
-678.208	-83.617	0.161	-0.052
-677.193	52.591	0.111	-0.107
-676.178	493.319	0.130	-0.302
-675.164	-200.000	-0.032	-0.181
-674.149	-51.575	-0.220	0.104
-673.135	-200.000	0.034	0.202
-672.120	-84.968	0.218	-0.069
-671.105	-200.000	-0.014	0.073
-670.091	-200.000	-0.034	0.319
-669.076	141.160	0.060	-0.081
-668.062	-128.655	0.184	-0.026
-667.047	361.593	-0.138	0.282
-666.032	-71.762	-0.171	-0.065
-665.018	18.879	0.337	-0.274
-664.003	-200.000	0.012	-0.169
-662.989	48.340	-0.182	-0.172
-661.974	-65.398	0.257	0.105
-660.959	238.319	-0.092	-0.156
-659.945	-200.000	-0.083	-0.456
-658.930	-200.000	-0.157	0.000
-657.916	-200.000	0.010	0.046
-656.901	575.168	-0.125	-0.308
-655.886	301.991	0.026	-0.049
-654.872	482.009	-0.070	-0.161
-653.857	10.969	0.226	-0.175
-652.843	-200.000	-0.013	-0.120
-651.828	-143.435	0.094	0.009
-650.814	9.743	0.376	-0.289
-649.799	-200.000	-0.032	-0.247
-648.784	-200.000	0.055	-0.355
-647.770	-103.660	0.351	-0.083
-646.755	-200.000	0.015	-0.115
-645.741	-89.589	0.364	0.108
-644.726	489.573	-0.040	-0.093
-643.711	-200.000	-0.006	-0.400
-642.697	492.451	0.026	-0.061
-641.682	-158.577	0.233	-0.014
-640.668	-200.000	-0.000	0.044
-639.653	253.274	-0.164	0.284
-638.638	-115.285	-0.191	-0.037
-637.624	-26.768	-0.047	0.028
-636.609	-85.447	-0.322	-0.102
-635.595	-2.143	0.162	0.115
-634.580	-200.000	-0.001	-0.084
-633.565	-200.000	-0.031	-0.464
-632.551	-28.170	-0.197	0.115
-631.536	-85.360	-0.223	0.070
-630.522	-105.217	-0.096	0.022
-629.507	-44.429	-0.185	-0.094
-628.492	800.000	0.056	-0.248
-627.478	-118.658	-0.146	0.026
-626.463	53.786	-0.119	0.116
-625.449	-200.000	-0.048	-0.326
-624.434	800.000	-0.044	-0.191
-623.419	-170.425	-0.103	-0.004
-622.405	-134.626	-0.229	0.028
-621.390	-4.116	-0.220	0.154
-620.376	-170.133	-0.288	-0.010
-619.361	-130.420	0.165	-0.023
-618.346	38.599	0.081	0.073
-617.332	79.397	-0.145	-0.158
-616.317	800.000	-0.044	-0.139
-615.303	800.000	0.038	0.111
-614.288	18.656	-0.071	-0.057
-613.273	-137.147	0.158	0.018
-612.259	-66.533	-0.098	-0.039
-611.244	-131.237	-0.091	0.012
-610.230	-158.386	0.397	0.023
-609.215	46.259	0.166	-0.156
-608.201	108.388	-0.222	0.269
-607.186	-138.215	0.157	0.018
-606.171	87.892	-0.049	-0.055
-605.157	-185.815	0.337	0.005
-604.142	-200.000	0.033	0.329
-603.128	54.102	-0.253	-0.246
-602.113	-3.591	0.175	0.123
-601.098	111.993	0.076	0.093
-600.084	-72.664	0.218	0.081
-599.069	-36.035	-0.128	-0.070
-598.055	677.994	0.021	-0.054
-597.040	193.070	-0.197	-0.302
-596.025	707.730	-0.035	0.094
-595.011	-34.018	-0.378	0.211
-593.996	-28.760	-0.237	-0.138
-592.982	-55.247	-0.206	0.094
-591.967	522.745	-0.050	-0.118
-590.952	147.320	-0.178	-0.242
-589.938	-111.376	-0.206	-0.043
-588.923	-200.000	-0.046	0.307
-587.909	-70.291	0.299	0.115
-586.894	138.770	-0.143	0.189
-585.879	3.426	-0.150	-0.110
-584.865	58.811	-0.223	-0.222
-583.850	-14.905	-0.200	-0.130
-582.836	591.074	-0.064	-0.160
-581.821	-37.451	-0.285	-0.154
-580.806	-20.535	-0.093	0.058
-579.792	-200.000	0.020	-0.162
-578.777	800.000	0.103	-0.380
-577.763	-107.884	-0.340	-0.075
-576.748	800.000	-0.012	0.053
-575.733	-33.778	-0.249	0.139
-574.719	800.000	-0.097	-0.288
-573.704	315.548	-0.042	-0.080
-572.690	800.000	-0.074	-0.263
-571.675	-200.000	-0.045	-0.226
-570.661	-166.195	0.165	-0.007
-569.646	-118.843	-0.080	-0.014
-568.631	800.000	-0.036	-0.129
-567.617	479.135	0.052	0.118
-566.602	-47.072	0.212	0.105
-565.588	-62.933	0.283	0.118
-564.573	800.000	0.025	0.112
-563.558	-117.495	0.139	-0.025
-562.544	38.562	-0.111	-0.100
-561.529	619.488	-0.009	-0.023
-560.515	-90.673	-0.168	-0.049
-559.500	33.925	-0.082	-0.072
-558.485	534.401	-0.040	0.095
-557.471	-200.000	0.042	0.257
-556.456	259.157	-0.060	0.104
-555.442	-200.000	-0.030	0.297
-554.427	-108.662	-0.399	0.086
-553.412	-152.538	0.190	0.014
-552.398	-200.000	-0.016	-0.108
-551.383	-123.066	-0.293	-0.048
-550.369	-117.700	-0.201	-0.037
-549.354	-104.101	0.283	0.067
-548.339	-91.052	0.493	0.143
-547.325	-103.952	0.082	-0.019
-546.310	-138.832	0.276	0.030
-545.296	-27.956	0.107	0.063
-544.281	-31.360	0.182	0.104
-543.266	-108.363	0.408	0.089
-542.252	-198.478	-0.163	0.001
-541.237	-27.960	0.331	-0.194
-540.223	-95.438	-0.214	-0.058
-539.208	-99.549	-0.182	0.046
-538.193	-49.771	0.234	-0.112
-537.179	-142.013	-0.389	-0.039
-536.164	800.000	-0.031	0.119
-535.150	800.000	-0.098	-0.325
-534.135	800.000	0.085	-0.288
-533.121	155.701	0.094	0.131
-532.106	-14.297	-0.094	0.061
-531.091	109.829	0.105	0.127
-530.077	158.203	-0.167	0.234
-529.062	-200.000	0.009	0.128
-528.048	-200.000	-0.057	0.359
-527.033	-138.398	0.037	0.004
-526.018	295.313	-0.107	0.198
-525.004	48.738	0.129	-0.122
-523.989	-107.854	0.036	0.008
-522.975	800.000	0.050	-0.187
-521.960	185.965	0.049	-0.074
-520.945	176.209	0.063	-0.092
-519.931	-122.046	0.019	0.003
-518.916	37.574	0.075	0.067
-517.902	383.137	0.026	-0.054
-516.887	-129.655	-0.146	0.020
-515.872	-85.145	0.265	0.084
-514.858	-87.128	0.326	0.100
-513.843	165.605	0.109	-0.155
-512.829	-97.817	-0.280	0.073
-511.814	-200.000	-0.030	0.332
-510.799	-69.319	-0.270	0.105
-509.785	-200.000	0.010	0.360
-508.770	-109.023	-0.173	-0.037
-507.756	587.725	0.119	0.297
-506.741	-200.000	0.042	-0.199
-505.726	-86.762	-0.207	0.064
-504.712	-68.882	0.248	0.097
-503.697	-95.790	0.415	-0.112
-502.683	-134.805	0.315	-0.039
-501.668	505.136	0.144	0.336
-500.653	-170.822	0.126	0.004
-499.639	-62.216	-0.338	0.142
-498.624	9.868	-0.222	-0.170
-497.610	800.000	0.048	0.149
-496.595	-162.014	-0.066	-0.003
-495.581	800.000	-0.082	-0.245
-494.566	92.988	0.348	-0.397
-493.551	140.278	0.101	-0.135
-492.537	800.000	0.064	-0.222
-491.522	81.742	0.098	-0.107
-490.508	-10.012	-0.280	-0.188
-489.493	-110.505	-0.260	0.054
-488.478	78.147	-0.141	-0.152
-487.464	-23.525	-0.141	-0.085
-486.449	16.090	0.095	-0.075
-485.435	-45.356	0.071	0.036
-484.420	375.630	-0.029	0.059
-483.405	-91.011	0.402	-0.116
-482.391	261.239	-0.077	0.135
-481.376	-200.000	-0.064	-0.376
-480.362	-75.661	0.244	-0.087
-479.347	750.784	-0.096	-0.260
-478.332	79.673	0.151	0.164
-477.318	800.000	-0.015	0.048
-476.303	-200.000	0.053	0.709
-475.289	-74.754	0.304	0.110
-474.274	181.543	0.225	0.334
-473.259	-108.219	0.171	0.037
-472.245	-200.000	0.011	0.166
-471.230	-67.943	0.148	-0.058
-470.216	154.840	0.040	0.055
-469.201	800.000	0.065	0.205
-468.186	63.089	0.140	0.142
-467.172	255.504	-0.130	0.224
-466.157	167.031	0.140	-0.199
-465.143	-98.914	0.153	0.039
-464.128	-12.036	-0.203	-0.134
-463.113	-100.426	-0.256	0.064
-462.099	144.137	0.048	0.065
-461.084	-102.050	-0.130	-0.032
-460.070	-100.924	0.022	0.005
-459.055	62.099	-0.163	-0.163
-458.040	269.663	-0.050	0.089
-457.026	-200.000	-0.004	0.031
-456.011	-200.000	0.011	0.453
-454.997	-66.691	-0.398	-0.159
-453.982	-59.253	-0.207	-0.090
-452.968	-127.256	-0.322	0.047
-451.953	734.879	0.052	0.139
-450.938	800.000	0.027	-0.096
-449.924	41.020	0.178	-0.162
-448.909	-83.605	0.173	0.056
-447.895	-86.636	0.328	-0.101
-446.880	-36.243	-0.286	0.155
-445.865	800.000	-0.047	0.199
-444.851	800.000	-0.068	-0.298
-443.836	800.000	0.073	-0.255
-442.822	-70.282	0.374	0.143
-441.807	-69.904	-0.099	-0.038
-440.792	-200.000	0.012	0.233
-439.778	400.845	-0.092	-0.195
-438.763	334.327	0.110	0.214
-437.749	31.762	0.173	-0.150
-436.734	-14.831	-0.119	0.076
-435.719	490.469	-0.095	0.219
-434.705	-72.390	-0.331	0.123
-433.690	257.988	-0.085	-0.146
-432.676	-27.484	0.148	-0.086
-431.661	-200.000	-0.024	-0.365
-430.646	-50.133	-0.174	-0.083
-429.632	-130.145	-0.244	0.033
-428.617	800.000	0.062	0.206
-427.603	-91.390	0.531	-0.153
-426.588	-155.026	0.343	0.023
-425.573	-11.687	0.172	0.114
-424.559	265.487	-0.068	0.119
-423.544	-125.743	0.072	-0.011
-422.530	187.057	-0.223	-0.333
-421.515	800.000	-0.083	-0.236
-420.500	-179.317	-0.209	0.005
-419.486	162.143	-0.276	-0.388
-418.471	-67.740	-0.155	0.061
-417.457	-200.000	-0.012	0.252
-416.442	-145.373	0.060	-0.005
-415.428	-23.069	-0.123	-0.074
-414.413	-200.000	-0.011	-0.118
-413.398	136.936	-0.079	0.103
-412.384	169.949	0.064	-0.092
-411.369	-95.803	0.244	-0.066
-410.355	-200.000	0.075	0.368
-409.340	-81.706	0.160	0.053
-408.325	800.000	-0.081	0.306
-407.311	5.233	0.297	-0.220
-406.296	-200.000	0.054	-0.476
-405.282	-88.525	-0.387	-0.116
-404.267	-1.474	0.148	0.105
-403.252	237.082	-0.073	-0.122
-402.238	-47.770	0.239	-0.116
-401.223	411.600	0.051	0.108
-400.209	-66.290	-0.132	-0.053
-399.194	-200.000	0.024	-0.181
-398.179	157.194	-0.034	0.048
-397.165	66.304	-0.122	0.125
-396.150	-200.000	0.021	-0.246
-395.136	-58.212	0.100	0.044
-394.121	-131.329	-0.047	-0.006
-393.106	628.630	0.053	0.135
-392.092	484.856	0.168	0.383
-391.077	565.586	-0.059	0.143
-390.063	199.511	-0.274	-0.422
-389.048	24.021	-0.088	0.073
-388.033	796.868	0.016	-0.045
-387.019	-24.237	-0.404	-0.242
-386.004	-200.000	-0.045	-0.222
-384.990	-76.389	0.229	0.081
-383.975	-136.390	-0.407	0.048
-382.960	-200.000	0.008	-0.113
-381.946	-58.442	0.158	-0.069
-380.931	-109.081	0.352	0.075
-379.917	800.000	-0.065	-0.277
-378.902	-144.127	0.302	0.028
-377.888	351.753	0.084	0.166
-376.873	343.646	-0.148	-0.291
-375.858	-200.000	-0.022	0.107
-374.844	10.152	-0.254	-0.194
-373.829	-87.190	0.289	0.088
-372.815	800.000	-0.115	0.454
-371.800	-150.078	-0.188	-0.015
-370.785	-185.945	-0.396	-0.006
-369.771	115.853	-0.033	-0.040
-368.756	-57.760	0.355	-0.156
-367.742	-92.836	-0.160	-0.045
-366.727	-200.000	0.024	-0.109
-365.712	800.000	0.082	0.258
-364.698	199.574	-0.051	-0.079
-363.683	86.412	0.132	-0.146
-362.669	108.822	-0.052	0.062
-361.654	131.613	-0.145	-0.187
-360.639	-200.000	0.025	-0.345
-359.625	-130.863	0.178	0.024
-358.610	94.581	-0.052	-0.059
-357.596	27.110	0.026	0.022
-356.581	-33.766	-0.076	-0.042
-355.566	-121.345	-0.275	0.046
-354.552	-200.000	0.018	-0.173
-353.537	-114.239	0.123	0.024
-352.523	-21.385	-0.087	0.053
-351.508	-194.023	-0.405	-0.003
-350.493	-200.000	-0.013	-0.242
-349.479	321.298	-0.152	-0.289
-348.464	-18.501	0.191	0.120
-347.450	-124.156	-0.265	-0.042
-346.435	-105.723	0.254	-0.058
-345.420	-44.166	0.281	0.141
-344.406	-200.000	0.070	-0.473
-343.391	222.007	0.117	0.189
-342.377	-73.260	-0.027	-0.010
-341.362	-159.065	-0.069	0.004
-340.348	-200.000	0.013	0.127
-339.333	800.000	0.102	0.408
-338.318	316.688	-0.102	0.192
-337.304	-74.261	0.236	-0.085
-336.289	107.729	0.199	0.238
-335.275	-34.713	-0.141	-0.077
-334.260	4.447	-0.357	-0.262
-333.245	97.476	0.077	-0.088
-332.231	126.376	-0.161	0.204
-331.216	-23.315	-0.022	0.013
-330.202	-37.309	-0.072	-0.039
-329.187	56.387	-0.253	0.246
-328.172	97.247	-0.156	0.180
-327.158	258.475	-0.202	0.348
-326.143	-70.043	-0.179	0.068
-325.129	800.000	-0.024	0.101
-324.114	180.326	-0.198	0.291
-323.099	146.680	0.110	0.148
-322.085	-89.000	0.345	0.102
-321.070	-27.387	-0.128	0.075
-320.056	800.000	0.107	-0.355
-319.041	800.000	0.078	-0.227
-318.026	-142.419	0.268	-0.026
-317.012	-156.595	-0.242	0.015
-315.997	196.371	0.041	0.062
-314.983	95.239	-0.030	0.034
-313.968	-200.000	-0.053	-0.292
-312.953	-76.530	-0.015	-0.005
-311.939	87.203	0.128	0.142
-310.924	76.357	0.202	-0.214
-309.910	19.629	0.189	-0.152
-308.895	106.273	0.110	-0.131
-307.880	-35.716	-0.309	-0.167
-306.866	246.258	-0.198	-0.334
-305.851	66.844	0.130	-0.132
-304.837	349.844	0.082	-0.162
-303.822	-1.420	-0.059	-0.042
-302.807	47.399	-0.241	-0.224
-301.793	800.000	0.152	0.430
-300.778	-200.000	0.011	-0.232
-299.764	-200.000	-0.071	-0.339
-298.749	-130.936	0.390	0.052
-297.735	54.308	-0.127	0.122
-296.720	198.473	-0.259	-0.396
-295.705	800.000	0.005	0.014
-294.691	-24.092	-0.120	0.071
-293.676	-129.455	-0.160	-0.022
-292.662	-200.000	0.002	-0.027
-291.647	306.531	-0.107	0.199
-290.632	-200.000	-0.003	0.110
-289.618	800.000	0.066	-0.203
-288.603	-200.000	-0.070	-0.438
-287.589	120.428	0.206	-0.256
-286.574	-76.373	0.150	0.053
-285.559	-78.580	0.267	-0.091
-284.545	726.577	-0.076	0.202
-283.530	-89.299	-0.167	0.049
-282.516	-102.110	-0.096	0.023
-281.501	-106.647	0.535	0.119
-280.486	187.180	0.184	0.275
-279.472	92.364	0.182	0.205
-278.457	387.225	-0.047	0.096
-277.443	84.483	0.167	0.182
-276.428	232.963	-0.095	0.157
-275.413	37.301	-0.195	-0.173
-274.399	29.569	0.249	0.212
-273.384	362.948	0.023	0.046
-272.370	82.543	-0.099	0.108
-271.355	-200.000	0.004	0.121
-270.340	-49.267	0.259	-0.124
-269.326	-29.152	-0.310	-0.177
-268.311	106.267	0.303	0.359
-267.297	-71.126	0.478	0.180
-266.282	-78.429	-0.151	0.052
-265.267	-26.511	-0.156	0.091
-264.253	23.002	0.187	-0.153
-263.238	102.189	0.202	0.236
-262.224	151.698	0.078	0.107
-261.209	-8.135	0.200	-0.135
-260.195	144.778	0.203	0.271
-259.180	118.203	-0.161	0.199
-258.165	-44.713	-0.104	-0.052
-257.151	97.452	-0.148	0.170
-256.136	341.932	0.050	-0.097
-255.122	-28.618	-0.212	0.122
-254.107	-37.181	0.117	0.062
-253.092	800.000	0.047	0.201
-252.078	192.144	0.148	-0.224
-251.063	38.911	-0.105	-0.094
-250.049	-68.713	-0.188	0.072
-249.034	-135.310	-0.128	0.015
-248.019	-51.618	-0.255	0.119
-247.005	-174.081	0.220	0.006
-245.990	27.678	-0.118	0.099
-244.976	-13.770	-0.138	0.089
-243.961	343.684	-0.145	0.284
-242.946	112.332	-0.166	-0.200
-241.932	374.643	0.015	-0.030
-240.917	18.195	-0.120	-0.095
-239.903	33.563	0.277	0.240
-238.888	148.244	-0.059	-0.079
-237.873	74.350	-0.209	-0.219
-236.859	159.731	-0.171	0.237
-235.844	-106.803	0.197	0.044
-234.830	-84.659	0.208	0.066
-233.815	-18.597	-0.395	0.246
-232.800	-113.964	-0.468	0.091
-231.786	-118.698	-0.362	-0.064
-230.771	5.506	-0.265	0.195
-229.757	-115.694	-0.311	0.058
-228.742	66.101	0.229	0.232
-227.727	-200.000	-0.000	0.123
-226.713	275.654	-0.065	-0.114
-225.698	204.811	0.041	0.064
-224.684	-200.000	-0.032	0.170
-223.669	-110.893	0.228	-0.047
-222.655	-143.499	0.275	0.026
-221.640	118.222	0.265	-0.326
-220.625	-111.654	0.393	0.079
-219.611	-200.000	0.104	0.000
-218.596	99.210	-0.184	-0.213
-217.582	-93.135	0.167	-0.046
-216.567	800.000	-0.113	-0.321
-215.552	-128.587	0.272	-0.038
-214.538	124.827	0.142	0.179
-213.523	-200.000	0.056	0.247
-212.509	800.000	-0.068	0.201
-211.494	-31.924	0.481	-0.269
-210.479	28.011	0.140	0.117
-209.465	-79.992	-0.101	-0.034
-208.450	-128.733	0.084	-0.012
-207.436	-7.802	0.272	-0.183
-206.421	54.525	-0.318	-0.305
-205.406	800.000	-0.017	-0.056
-204.392	24.802	-0.396	0.327
-203.377	-200.000	0.017	0.275
-202.363	-200.000	0.024	-0.211
-201.348	-200.000	-0.025	-0.204
-200.333	62.706	0.246	0.245
-199.319	53.320	0.129	-0.123
-198.304	-126.434	-0.290	0.043
-197.290	77.369	0.238	-0.252
-196.275	157.569	-0.062	-0.086
-195.260	-29.668	0.287	0.163
-194.246	179.702	-0.045	-0.065
-193.231	265.326	-0.013	-0.023
-192.217	-20.960	0.159	0.097
-191.202	208.155	-0.032	0.050
-190.187	305.091	0.065	-0.121
-189.173	122.288	0.032	-0.039
-188.158	-66.039	0.309	0.123
-187.144	217.445	-0.091	-0.145
-186.129	-15.010	-0.298	0.190
-185.114	-135.747	-0.432	0.051
-184.100	26.266	-0.216	-0.180
-183.085	-111.908	0.251	0.051
-182.071	-200.000	-0.056	0.281
-181.056	800.000	-0.122	0.355
-180.042	284.378	0.105	0.188
-179.027	-76.725	0.132	-0.046
-178.012	-200.000	0.021	0.287
-176.998	-199.243	-0.233	0.001
-175.983	-200.000	0.002	0.012
-174.969	-23.118	0.276	0.165
-173.954	285.628	0.087	-0.157
-172.939	-16.266	0.224	0.141
-171.925	115.467	0.162	0.197
-170.910	-133.296	0.175	0.022
-169.896	-200.000	-0.004	-0.063
-168.881	-200.000	0.028	-0.360
-167.866	-21.902	0.061	-0.037
-166.852	60.432	0.255	0.251
-165.837	-164.966	0.082	0.004
-164.823	-75.883	-0.077	0.027
-163.808	-200.000	0.035	0.179
-162.793	-59.151	-0.063	0.027
-161.779	-126.805	0.197	-0.029
-160.764	79.596	0.229	0.244
-159.750	267.981	0.168	0.293
-158.735	-178.283	0.068	-0.002
-157.720	-200.000	-0.013	0.235
-156.706	21.248	-0.303	-0.245
-155.691	-200.000	0.040	-0.223
-154.677	54.779	0.211	-0.202
-153.662	207.176	-0.141	-0.219
-152.647	800.000	0.026	0.082
-151.633	245.769	-0.064	0.107
-150.618	800.000	-0.091	0.303
-149.604	142.609	0.070	0.093
-148.589	-71.463	-0.313	-0.116
-147.574	800.000	-0.127	-0.471
-146.560	-52.010	-0.231	-0.107
-145.545	0.107	-0.278	-0.197
-144.531	-25.549	0.430	0.252
-143.516	800.000	0.038	0.124
-142.502	-107.957	0.293	-0.063
-141.487	-22.304	0.190	-0.114
-140.472	-200.000	-0.013	-0.116
-139.458	128.826	0.258	-0.327
-138.443	-37.367	-0.053	-0.028
-137.429	800.000	0.021	-0.081
-136.414	-77.841	0.101	0.035
-135.399	-200.000	-0.027	-0.121
-134.385	429.667	-0.183	-0.394
-133.370	-125.035	0.224	0.034
-132.356	337.379	0.163	-0.315
-131.341	-79.327	0.193	-0.065
-130.326	-90.460	0.173	-0.050
-129.312	800.000	0.040	-0.127
-128.297	725.539	-0.124	0.329
-127.283	129.227	-0.104	0.132
-126.268	20.052	0.236	-0.189
-125.253	91.880	0.108	0.121
-124.239	-200.000	0.005	-0.126
-123.224	-107.070	0.232	-0.051
-122.210	170.972	-0.083	0.118
