DTS Sentinel unit serial number:	SN413079Multiplexer serial number:	ORYXHardware model number:	OX4-SRSoftware version number:	ORYX F/W v4.00 Oryx Data Collector v3.7.2.0data status	okinstallation	princeton_trtdifferential loss correction	single-endedforward channel	channel 1reverse channel	N/Adate	2019/09/13time	10:58:35forward acquisition time	60.00reverse acquisition time	0.00gamma	496.2192k internal	0.2319k external	0.2319temperature offset calibration	1.0158default loss term (dB/km)	0.3790temperature slope calibration	1.0000multiplexer offset coefficient	1.0000multiplexer slope coefficient	1.0000fibre end	0.00T internal ref (°C)	31.81T ext. ref 1 (°C)	4.63T ext. ref 2 (°C)	28.43length (m)	temperature (°C)	Stokes	anti-Stokes-747.200	-200.000	-0.014	-0.479
-746.185	-200.000	-0.027	-0.185
-745.171	-200.000	-0.007	-0.110
-744.156	-1.612	-0.556	0.397
-743.142	522.066	0.085	-0.203
-742.127	800.000	0.078	0.271
-741.112	-80.593	-0.088	0.030
-740.098	-116.160	-0.318	0.060
-739.083	252.660	0.101	-0.175
-738.069	-24.983	-0.037	0.022
-737.054	168.162	0.113	0.162
-736.039	800.000	-0.065	0.287
-735.025	14.459	-0.147	-0.116
-734.010	596.759	-0.038	-0.095
-732.996	-2.639	0.264	-0.187
-731.981	-172.980	-0.172	-0.005
-730.966	-82.086	0.261	-0.086
-729.952	-200.000	0.041	-0.393
-728.937	185.150	-0.171	0.257
-727.923	274.988	0.075	-0.134
-726.908	223.715	-0.117	0.191
-725.894	62.249	-0.177	-0.178
-724.879	-200.000	-0.054	-0.300
-723.864	-68.837	-0.396	-0.155
-722.850	-200.000	0.038	-0.180
-721.835	407.530	-0.065	-0.140
-720.821	121.790	-0.133	-0.168
-719.806	85.657	0.118	0.131
-718.791	-26.260	-0.135	0.080
-717.777	-99.878	-0.187	-0.047
-716.762	-61.095	0.235	-0.100
-715.748	-200.000	0.009	-0.075
-714.733	-28.780	0.120	0.070
-713.718	99.368	-0.193	0.226
-712.704	69.655	0.135	0.140
-711.689	70.229	-0.247	-0.258
-710.675	-94.451	-0.379	0.104
-709.660	307.282	-0.047	-0.088
-708.645	78.734	0.139	0.150
-707.631	-37.258	-0.148	-0.080
-706.616	-200.000	0.002	-0.053
-705.602	-87.166	0.261	0.080
-704.587	800.000	-0.086	0.321
-703.572	63.087	-0.317	0.321
-702.558	800.000	-0.056	0.218
-701.543	-149.631	-0.193	0.015
-700.529	-200.000	0.001	0.095
-699.514	-9.773	0.105	0.071
-698.499	800.000	0.050	-0.158
-697.485	-200.000	-0.014	-0.081
-696.470	-29.630	0.038	0.022
-695.456	15.366	-0.181	-0.143
-694.441	800.000	-0.059	-0.177
-693.426	-200.000	0.003	0.125
-692.412	-185.435	0.092	-0.001
-691.397	36.121	-0.273	0.243
-690.383	545.754	0.068	0.165
-689.368	630.371	-0.120	-0.306
-688.354	-75.536	-0.536	-0.192
-687.339	-200.000	0.033	0.354
-686.324	-67.466	-0.127	-0.050
-685.310	800.000	0.054	-0.199
-684.295	800.000	0.050	0.187
-683.281	-27.948	0.029	-0.017
-682.266	-200.000	0.052	-0.279
-681.251	-145.775	-0.335	0.030
-680.237	241.510	-0.133	-0.224
-679.222	111.292	0.016	-0.019
-678.208	800.000	0.068	-0.246
-677.193	-118.763	0.261	0.046
-676.178	-31.676	0.069	0.039
-675.164	-63.697	-0.211	-0.087
-674.149	-103.523	0.086	-0.020
-673.135	251.471	-0.122	-0.210
-672.120	-10.146	0.303	-0.203
-671.105	-6.650	-0.158	0.108
-670.091	800.000	-0.014	0.043
-669.076	58.315	0.085	-0.084
-668.062	38.310	0.162	0.145
-667.047	-200.000	0.025	0.233
-666.032	195.983	-0.050	-0.077
-665.018	285.293	-0.039	-0.071
-664.003	-22.709	0.238	0.145
-662.989	23.304	0.159	-0.132
-661.974	-136.059	-0.097	0.012
-660.959	-70.610	0.361	0.138
-659.945	176.610	0.195	-0.285
-658.930	-151.867	-0.211	0.016
-657.916	28.002	-0.103	-0.087
-656.901	-14.847	0.217	-0.141
-655.886	-48.895	0.090	0.044
-654.872	-200.000	-0.007	-0.197
-653.857	-163.819	-0.134	-0.006
-652.843	-57.492	0.230	-0.102
-651.828	-200.000	0.004	0.140
-650.814	487.269	-0.137	-0.316
-649.799	34.375	0.237	-0.208
-648.784	266.727	0.169	-0.297
-647.770	272.345	-0.109	-0.193
-646.755	-200.000	0.002	0.241
-645.741	-200.000	-0.017	0.212
-644.726	-33.499	0.342	-0.190
-643.711	-200.000	-0.022	-0.189
-642.697	286.978	-0.079	-0.143
-641.682	43.717	0.168	0.155
-640.668	-200.000	0.045	0.265
-639.653	-200.000	-0.050	-0.336
-638.638	-36.733	-0.153	0.083
-637.624	-39.504	-0.128	-0.068
-636.609	736.451	0.063	-0.171
-635.595	28.618	0.230	0.196
-634.580	47.715	0.115	-0.108
-633.565	-200.000	0.033	0.212
-632.551	-29.767	0.200	-0.115
-631.536	-116.720	-0.224	-0.041
-630.522	-200.000	0.027	-0.270
-629.507	82.993	-0.389	0.426
-628.492	-200.000	0.016	-0.329
-627.478	-200.000	-0.043	-0.343
-626.463	246.406	0.179	0.304
-625.449	22.853	0.022	-0.018
-624.434	-82.039	0.275	-0.091
-623.419	119.852	-0.104	0.130
-622.405	-126.806	-0.184	0.027
-621.390	1.396	0.061	0.044
-620.376	88.121	-0.174	0.194
-619.361	-166.775	-0.581	0.024
-618.346	25.851	-0.264	0.221
-617.332	207.997	-0.081	-0.128
-616.317	-95.918	-0.247	0.066
-615.303	-25.833	-0.120	0.071
-614.288	239.355	-0.145	0.243
-613.273	-12.246	0.126	0.083
-612.259	319.109	0.061	-0.116
-611.244	8.851	0.161	-0.122
-610.230	207.516	0.095	0.149
-609.215	-68.100	0.167	-0.066
-608.201	142.771	-0.133	0.179
-607.186	-44.001	-0.184	-0.093
-606.171	-173.114	-0.311	0.010
-605.157	17.457	-0.345	0.276
-604.142	25.656	-0.165	-0.138
-603.128	188.579	-0.289	0.435
-602.113	-200.000	0.067	-0.341
-601.098	165.129	-0.181	-0.257
-600.084	-200.000	0.023	0.315
-599.069	800.000	-0.040	0.117
-598.055	300.500	0.089	0.165
-597.040	-200.000	0.033	0.182
-596.025	-68.640	0.211	0.082
-595.011	-101.948	0.375	-0.091
-593.996	-20.019	-0.159	0.099
-592.982	-90.774	0.351	-0.102
-591.967	-200.000	-0.002	-0.163
-590.952	800.000	0.038	-0.108
-589.938	-200.000	-0.033	-0.265
-588.923	20.998	-0.192	-0.157
-587.909	94.575	0.010	0.011
-586.894	-130.895	0.047	0.006
-585.879	-130.193	0.276	0.038
-584.865	-34.249	-0.247	-0.137
-583.850	796.022	0.046	0.128
-582.836	-111.670	-0.206	-0.042
-581.821	800.000	-0.132	-0.430
-580.806	105.991	-0.218	-0.259
-579.792	79.097	-0.149	0.161
-578.777	262.748	-0.172	0.300
-577.763	-117.023	0.210	0.038
-576.748	347.246	0.127	0.252
-575.733	-54.783	0.034	-0.015
-574.719	427.712	0.020	0.044
-573.704	25.522	-0.281	0.235
-572.690	-62.457	0.182	0.076
-571.675	200.472	-0.190	0.294
-570.661	-100.197	0.131	0.033
-569.646	113.919	-0.047	-0.058
-568.631	-200.000	0.047	-0.268
-567.617	326.423	0.066	-0.127
-566.602	-200.000	-0.041	0.257
-565.588	209.386	-0.091	0.143
-564.573	96.258	-0.132	0.152
-563.558	-200.000	-0.022	0.118
-562.544	-124.771	-0.269	-0.042
-561.529	560.995	0.024	-0.059
-560.515	-200.000	-0.026	-0.355
-559.500	412.173	0.067	0.142
-558.485	800.000	0.032	-0.089
-557.471	-200.000	0.009	0.351
-556.456	-80.203	-0.350	0.118
-555.442	135.366	-0.200	0.261
-554.427	-59.787	0.072	-0.031
-553.412	371.904	-0.151	0.309
-552.398	-48.262	0.329	0.159
-551.383	472.817	0.088	-0.199
-550.369	-110.490	0.144	0.030
-549.354	270.856	-0.098	0.173
-548.339	113.489	0.120	0.146
-547.325	800.000	0.037	0.159
-546.310	-66.047	-0.236	0.094
-545.296	-37.225	-0.175	0.094
-544.281	-34.609	0.157	0.087
-543.266	-200.000	-0.030	-0.157
-542.252	800.000	0.051	-0.186
-541.237	-200.000	0.058	-0.465
-540.223	2.298	0.082	-0.059
-539.208	289.758	-0.064	-0.116
-538.193	-10.289	-0.034	0.022
-537.179	214.223	-0.051	-0.081
-536.164	-86.866	-0.172	0.053
-535.150	348.512	0.058	0.114
-534.135	-186.770	-0.091	-0.001
-533.121	-200.000	0.018	-0.359
-532.106	-31.044	0.213	-0.121
-531.091	-200.000	-0.047	-0.297
-530.077	-25.453	0.158	-0.094
-529.062	-71.928	0.277	0.104
-528.048	-19.288	0.310	-0.193
-527.033	337.034	-0.096	-0.188
-526.018	318.963	-0.126	0.239
-525.004	-200.000	-0.014	-0.231
-523.989	-25.734	0.365	-0.216
-522.975	14.043	-0.096	-0.075
-521.960	-200.000	-0.003	0.079
-520.945	-91.016	-0.285	-0.082
-519.931	-143.657	0.102	0.010
-518.916	-200.000	0.010	0.068
-517.902	-200.000	0.010	-0.154
-516.887	-59.673	-0.059	0.026
-515.872	15.095	0.091	0.072
-514.858	-91.327	0.247	0.071
-513.843	125.251	0.056	-0.071
-512.829	-113.655	0.426	0.083
-511.814	16.630	0.215	0.171
-510.799	32.083	0.097	-0.084
-509.785	93.903	0.135	0.154
-508.770	-200.000	-0.012	-0.063
-507.756	103.465	-0.008	-0.010
-506.741	-109.712	-0.301	-0.063
-505.726	-45.724	-0.134	0.067
-504.712	-200.000	-0.053	0.300
-503.697	-200.000	-0.049	-0.241
-502.683	100.367	-0.112	-0.130
-501.668	351.793	-0.103	0.204
-500.653	116.853	0.111	0.137
-499.639	405.079	-0.051	0.108
-498.624	800.000	0.037	0.157
-497.610	-200.000	0.001	-0.300
-496.595	103.013	0.095	-0.111
-495.581	-89.087	0.145	-0.043
-494.566	-3.107	-0.102	0.071
-493.551	636.442	-0.027	0.070
-492.537	179.328	-0.211	0.309
-491.522	550.228	-0.079	-0.189
-490.508	-200.000	-0.042	-0.223
-489.493	48.659	0.214	0.201
-488.478	18.783	-0.027	-0.022
-487.464	-200.000	-0.005	-0.040
-486.449	241.222	-0.309	0.516
-485.435	542.970	0.108	0.257
-484.420	800.000	0.102	-0.349
-483.405	115.332	-0.100	0.122
-482.391	184.339	-0.116	0.172
-481.376	-19.617	-0.235	-0.145
-480.362	-0.536	-0.237	0.169
-479.347	-73.156	-0.128	-0.047
-478.332	-84.953	0.043	-0.014
-477.318	-70.242	-0.203	0.077
-476.303	397.930	0.156	0.326
-475.289	-13.656	0.413	-0.267
-474.274	-110.363	-0.309	0.064
-473.259	-14.034	0.147	-0.095
-472.245	90.817	0.204	-0.229
-471.230	289.997	0.047	-0.085
-470.216	-200.000	0.015	0.212
-469.201	154.817	-0.139	0.191
-468.186	-100.245	-0.160	-0.040
-467.172	53.666	-0.055	0.053
-466.157	150.984	0.153	0.208
-465.143	83.233	-0.099	-0.108
-464.128	-66.337	0.242	0.097
-463.113	74.450	0.202	-0.212
-462.099	-88.749	0.215	0.064
-461.084	800.000	0.048	-0.157
-460.070	-200.000	-0.011	0.169
-459.055	-175.178	-0.218	-0.006
-458.040	-172.120	-0.174	0.006
-457.026	32.210	0.167	0.144
-456.011	-122.336	0.095	-0.015
-454.997	429.587	-0.055	0.119
-453.982	-200.000	-0.046	-0.224
-452.968	337.371	-0.164	0.319
-451.953	233.270	-0.116	-0.190
-450.938	-86.341	0.374	0.115
-449.924	800.000	0.039	-0.146
-448.909	-200.000	-0.029	0.169
-447.895	-65.452	0.095	0.038
-446.880	310.387	0.225	-0.421
-445.865	-200.000	0.000	-0.115
-444.851	800.000	-0.050	0.210
-443.836	-50.120	0.390	-0.185
-442.822	800.000	0.022	-0.082
-441.807	18.869	-0.337	0.270
-440.792	800.000	-0.110	-0.331
-439.778	-200.000	-0.026	-0.300
-438.763	800.000	-0.050	0.160
-437.749	433.571	-0.044	-0.095
-436.734	-159.123	0.249	0.014
-435.719	419.335	0.065	0.139
-434.705	-45.987	0.052	-0.025
-433.690	-111.146	-0.085	-0.017
-432.676	-29.556	0.303	-0.173
-431.661	800.000	0.017	-0.074
-430.646	24.394	0.035	0.029
-429.632	37.670	0.229	-0.204
-428.617	800.000	-0.024	0.084
-427.603	-132.044	-0.336	-0.044
-426.588	195.898	0.214	-0.325
-425.573	-80.963	-0.496	0.164
-424.559	-20.201	-0.208	-0.128
-423.544	414.917	-0.108	-0.229
-422.530	118.419	-0.136	-0.168
-421.515	-119.356	0.383	-0.067
-420.500	-79.086	0.221	0.075
-419.486	-22.883	-0.346	-0.209
-418.471	800.000	0.100	-0.328
-417.457	278.327	0.089	-0.159
-416.442	-200.000	0.030	0.216
-415.428	-200.000	0.060	0.308
-414.413	-200.000	0.006	0.221
-413.398	800.000	0.022	0.094
-412.384	120.099	0.289	0.358
-411.369	212.154	0.006	0.010
-410.355	88.043	-0.115	0.128
-409.340	-79.989	0.179	0.060
-408.325	-8.590	0.084	-0.056
-407.311	-200.000	-0.036	0.266
-406.296	83.000	0.106	0.115
-405.282	509.369	-0.131	-0.305
-404.267	-18.483	0.220	-0.137
-403.252	-54.875	-0.295	-0.133
-402.238	7.894	0.463	0.347
-401.223	-101.328	0.291	0.071
-400.209	-68.797	-0.425	0.164
-399.194	-200.000	0.029	-0.142
-398.179	88.430	-0.138	-0.152
-397.165	800.000	-0.043	-0.163
-396.150	-95.945	-0.388	0.103
-395.136	-200.000	0.013	-0.165
-394.121	8.521	-0.351	0.264
-393.106	-200.000	-0.015	-0.149
-392.092	98.921	0.201	-0.231
-391.077	-67.512	0.181	-0.071
-390.063	-200.000	-0.007	-0.253
-389.048	206.217	0.102	-0.158
-388.033	800.000	-0.039	0.127
-387.019	404.963	0.051	-0.107
-386.004	-86.464	-0.357	-0.109
-384.990	58.113	0.181	0.177
-383.975	-28.792	0.129	-0.074
-382.960	611.457	0.075	-0.186
-381.946	-70.170	0.120	0.046
-380.931	192.209	-0.027	-0.041
-379.917	-200.000	-0.002	-0.024
-378.902	-64.889	-0.094	0.038
-377.888	53.592	0.189	-0.180
-376.873	-11.932	0.160	0.105
-375.858	-12.350	0.127	0.083
-374.844	-120.516	-0.106	0.018
-373.829	21.283	0.301	-0.244
-372.815	74.154	-0.349	0.366
-371.800	-200.000	0.030	0.224
-370.785	481.780	0.118	-0.268
-369.771	4.047	0.170	-0.124
-368.756	-200.000	0.039	0.200
-367.742	78.058	0.057	-0.061
-366.727	70.125	-0.034	-0.035
-365.712	68.292	0.010	-0.011
-364.698	67.263	-0.126	0.128
-363.683	-42.167	-0.187	-0.095
-362.669	-139.551	0.207	-0.022
-361.654	-200.000	-0.006	-0.158
-360.639	-200.000	0.007	0.061
-359.625	-118.418	-0.357	0.063
-358.610	-97.627	0.358	-0.093
-357.596	15.760	-0.018	0.014
-356.581	-48.732	0.268	0.128
-355.566	-23.303	0.153	0.092
-354.552	-200.000	0.071	-0.394
-353.537	800.000	-0.106	-0.398
-352.523	-87.154	0.212	0.064
-351.508	800.000	-0.065	-0.182
-350.493	-178.718	-0.164	-0.004
-349.479	-107.576	0.375	-0.082
-348.464	440.107	-0.087	0.189
-347.450	-200.000	-0.009	0.163
-346.435	800.000	0.077	0.225
-345.420	58.962	0.084	-0.082
-344.406	-200.000	-0.038	0.292
-343.391	602.309	0.019	-0.048
-342.377	293.707	-0.041	0.075
-341.362	191.684	0.074	0.111
-340.348	49.148	-0.140	-0.131
-339.333	231.614	-0.065	-0.106
-338.318	-18.466	0.193	-0.120
-337.304	-26.722	-0.049	0.028
-336.289	-106.944	-0.190	0.042
-335.275	-113.918	-0.264	-0.051
-334.260	-200.000	-0.019	0.123
-333.245	-132.537	0.345	0.044
-332.231	244.447	-0.038	0.063
-331.216	800.000	0.008	0.027
-330.202	800.000	-0.085	-0.341
-329.187	-144.240	0.105	-0.010
-328.172	271.998	-0.057	0.101
-327.158	-116.565	0.116	0.021
-326.143	-200.000	0.001	0.009
-325.129	26.439	-0.070	0.058
-324.114	-200.000	-0.032	0.190
-323.099	-200.000	-0.036	-0.341
-322.085	88.377	0.084	-0.093
-321.070	100.180	-0.097	0.112
-320.056	-36.423	-0.268	-0.144
-319.041	-200.000	-0.024	-0.118
-318.026	-109.226	-0.461	-0.097
-317.012	-200.000	0.021	-0.338
-315.997	331.374	0.108	0.206
-314.983	-71.356	-0.051	-0.019
-313.968	394.998	-0.024	-0.050
-312.953	123.297	0.056	0.069
-311.939	59.604	-0.074	-0.072
-310.924	800.000	-0.069	0.223
-309.910	-66.959	-0.467	0.183
-308.895	-32.567	0.074	0.041
-307.880	-19.107	0.224	-0.138
-306.866	-143.878	-0.166	-0.016
-305.851	-168.213	0.167	-0.006
-304.837	-47.864	-0.262	0.126
-303.822	-59.276	0.044	0.019
-302.807	-200.000	-0.019	-0.250
-301.793	-200.000	0.058	0.359
-300.778	-148.601	-0.148	-0.012
-299.764	404.502	0.030	-0.064
-298.749	-33.843	0.243	-0.133
-297.735	-26.888	-0.021	-0.012
-296.720	-4.085	0.285	0.196
-295.705	-200.000	-0.020	-0.367
-294.691	-200.000	0.024	-0.190
-293.676	165.597	-0.325	0.457
-292.662	800.000	0.056	0.223
-291.647	204.274	-0.038	0.059
-290.632	606.232	0.093	0.230
-289.618	21.486	0.127	-0.103
-288.603	-171.201	0.326	-0.011
-287.589	800.000	-0.045	-0.144
-286.574	-138.958	-0.614	-0.066
-285.559	143.978	-0.043	0.056
-284.545	-200.000	-0.013	0.092
-283.530	-73.379	-0.174	0.063
-282.516	-186.382	-0.411	-0.006
-281.501	64.729	0.146	0.147
-280.486	-123.424	-0.194	0.031
-279.472	-113.976	0.320	0.062
-278.457	48.420	0.161	0.150
-277.443	-100.494	0.287	0.071
-276.428	-68.320	-0.229	0.089
-275.413	93.952	-0.129	0.146
-274.399	-200.000	-0.023	-0.151
-273.384	402.230	0.076	0.159
-272.370	562.190	0.094	-0.226
-271.355	-136.268	0.608	0.071
-270.340	-200.000	-0.008	0.055
-269.326	800.000	0.036	-0.108
-268.311	-58.606	-0.185	-0.080
-267.297	-52.884	0.259	-0.119
-266.282	-200.000	0.011	0.117
-265.267	-200.000	0.017	-0.280
-264.253	-31.960	-0.227	-0.126
-263.238	800.000	-0.034	0.125
-262.224	-200.000	0.078	-0.355
-261.209	800.000	0.091	-0.257
-260.195	-135.228	0.309	0.037
-259.180	-73.193	0.283	-0.103
-258.165	800.000	-0.040	0.146
-257.151	100.414	0.161	-0.185
-256.136	-168.998	-0.283	-0.010
-255.122	208.803	0.145	-0.226
-254.107	89.879	-0.292	0.324
-253.092	-200.000	-0.053	0.248
-252.078	-159.122	-0.412	0.023
-251.063	-34.823	-0.166	0.090
-250.049	-3.648	-0.145	0.100
-249.034	-166.886	-0.192	0.008
-248.019	35.247	0.148	0.129
-247.005	73.584	0.086	-0.090
-245.990	68.300	-0.339	-0.345
-244.976	-145.022	-0.446	-0.040
-243.961	253.249	0.090	0.152
-242.946	-200.000	0.005	0.240
-241.932	-155.637	-0.041	-0.003
-240.917	-134.436	0.295	-0.036
-239.903	549.367	0.071	-0.168
-238.888	-163.690	0.344	-0.016
-237.873	145.101	0.335	0.445
-236.859	463.034	-0.162	0.359
-235.844	-200.000	-0.032	0.305
-234.830	175.584	0.135	0.195
-233.815	-76.157	-0.283	0.099
-232.800	25.405	-0.060	-0.050
-231.786	800.000	0.062	-0.208
-230.771	-45.735	-0.281	-0.138
-229.757	-188.170	0.406	-0.005
-228.742	0.263	-0.259	0.184
-227.727	-200.000	-0.001	-0.160
-226.713	-200.000	-0.022	-0.149
-225.698	-200.000	-0.032	-0.491
-224.684	39.735	-0.132	-0.118
-223.669	-200.000	0.002	-0.122
-222.655	-200.000	-0.441	0.002
-221.640	800.000	-0.061	0.217
-220.625	-200.000	-0.056	-0.360
-219.611	332.092	0.066	0.127
-218.596	-41.709	0.034	-0.017
-217.582	-41.613	-0.278	0.141
-216.567	160.400	0.102	0.141
-215.552	-200.000	-0.024	0.191
-214.538	-149.944	-0.268	0.021
-213.523	-200.000	-0.018	0.094
-212.509	-91.730	0.441	-0.124
-211.494	-115.201	0.247	-0.046
-210.479	-123.854	0.118	-0.018
-209.465	-200.000	0.009	-0.056
-208.450	-200.000	-0.028	-0.186
-207.436	-129.182	0.365	-0.050
-206.421	-16.463	0.508	0.319
-205.406	-200.000	-0.018	0.343
-204.392	43.941	-0.086	-0.078
-203.377	209.483	-0.146	0.227
-202.363	435.967	0.227	-0.490
-201.348	-133.102	0.056	-0.007
-200.333	800.000	0.092	-0.301
-199.319	-200.000	0.024	-0.302
-198.304	-90.629	0.389	0.111
-197.290	-151.197	-0.147	-0.011
-196.275	-200.000	0.009	0.139
-195.260	-172.543	-0.221	-0.007
-194.246	83.042	0.174	-0.188
-193.231	-47.028	0.044	-0.021
-192.217	-200.000	-0.010	-0.233
-191.202	-92.287	0.235	0.066
-190.187	800.000	-0.015	-0.054
-189.173	-6.724	-0.078	-0.053
-188.158	107.631	-0.228	0.269
-187.144	800.000	0.047	0.182
-186.129	197.286	0.164	0.248
-185.114	800.000	-0.040	-0.113
-184.100	158.721	-0.169	0.232
-183.085	-108.883	-0.399	-0.084
-182.071	-103.792	-0.176	0.041
-181.056	-163.503	-0.157	-0.007
-180.042	266.253	-0.050	-0.086
-179.027	-27.707	-0.041	-0.024
-178.012	62.806	-0.153	-0.152
-176.998	245.180	-0.126	0.210
-175.983	272.549	0.135	-0.235
-174.969	484.811	0.033	-0.075
-173.954	-200.000	0.016	0.402
-172.939	16.480	0.266	0.208
-171.925	800.000	-0.170	0.531
-170.910	-53.639	0.088	-0.040
-169.896	-82.770	0.148	0.047
-168.881	800.000	0.060	0.205
-167.866	-148.891	-0.055	0.004
-166.852	-200.000	0.070	-0.429
-165.837	9.266	0.124	0.092
-164.823	-186.989	0.352	0.005
-163.808	79.025	-0.122	-0.130
-162.793	-185.516	-0.123	0.002
-161.779	89.008	0.154	-0.170
-160.764	-80.519	-0.089	0.029
-159.750	293.557	-0.203	-0.366
-158.735	20.112	0.059	0.047
-157.720	-35.121	0.167	-0.090
-156.706	178.287	0.150	0.216
-155.691	82.435	-0.115	-0.123
-154.677	152.903	0.056	0.076
-153.662	-76.916	-0.102	-0.035
-152.647	188.331	0.071	-0.105
-151.633	86.400	0.078	0.086
-150.618	12.018	-0.145	-0.110
-149.604	90.710	0.056	0.062
-148.589	102.140	0.148	-0.170
-147.574	57.562	-0.110	-0.107
-146.560	518.163	0.074	-0.170
-145.545	625.967	0.091	-0.228
-144.531	-98.501	0.091	0.023
-143.516	-55.309	0.185	0.082
-142.502	62.844	-0.205	0.203
-141.487	-75.259	0.207	-0.073
-140.472	800.000	0.047	-0.174
-139.458	-20.008	-0.365	0.222
-138.443	111.191	0.104	0.124
-137.429	-30.246	-0.147	0.082
-136.414	-23.580	0.444	0.263
-135.399	-61.557	-0.086	0.035
-134.385	24.706	-0.202	0.165
-133.370	-103.537	-0.135	-0.031
-132.356	800.000	-0.049	-0.137
-131.341	-200.000	0.017	-0.096
-130.326	-112.656	0.504	-0.099
-129.312	225.305	0.101	0.162
-128.297	-129.511	0.157	0.021
-127.283	42.581	0.232	-0.209
-126.268	297.918	-0.124	0.225
-125.253	-46.030	0.078	-0.038
-124.239	-200.000	-0.022	0.448
-123.224	800.000	-0.057	0.191
-122.210	153.319	-0.226	-0.306
