DTS Sentinel unit serial number:	SN413079Multiplexer serial number:	ORYXHardware model number:	OX4-SRSoftware version number:	ORYX F/W v4.00 Oryx Data Collector v3.7.2.0data status	okinstallation	princeton_trtdifferential loss correction	single-endedforward channel	channel 1reverse channel	N/Adate	2019/09/18time	02:42:35forward acquisition time	60.00reverse acquisition time	0.00gamma	496.2192k internal	0.2341k external	0.2341temperature offset calibration	0.9974default loss term (dB/km)	0.3790temperature slope calibration	1.0000multiplexer offset coefficient	1.0000multiplexer slope coefficient	1.0000fibre end	0.00T internal ref (°C)	22.81T ext. ref 1 (°C)	0.17T ext. ref 2 (°C)	16.63length (m)	temperature (°C)	Stokes	anti-Stokes-747.200	332.571	-0.119	0.231
-746.185	800.000	-0.081	0.275
-745.171	34.027	0.301	0.263
-744.156	-200.000	0.012	0.179
-743.142	-200.000	-0.006	0.378
-742.127	565.104	0.016	-0.039
-741.112	21.341	0.071	-0.057
-740.098	-113.829	-0.306	-0.060
-739.083	-143.510	0.206	-0.020
-738.069	-168.240	-0.267	0.010
-737.054	220.472	0.107	-0.172
-736.039	-74.910	-0.411	-0.148
-735.025	-11.190	0.277	-0.183
-734.010	136.882	-0.207	-0.271
-732.996	-200.000	-0.037	0.278
-731.981	-39.754	-0.135	-0.071
-730.966	-125.696	-0.062	0.009
-729.952	156.426	-0.053	0.073
-728.937	-101.867	-0.307	-0.074
-727.923	175.180	-0.116	0.168
-726.908	-200.000	-0.020	-0.348
-725.894	143.337	-0.068	0.090
-724.879	-69.057	-0.434	-0.168
-723.864	-34.121	-0.355	-0.195
-722.850	-126.792	0.260	-0.039
-721.835	332.638	0.044	0.085
-720.821	19.266	0.202	0.162
-719.806	-200.000	-0.001	-0.412
-718.791	-42.288	0.031	0.016
-717.777	-103.235	0.183	-0.043
-716.762	340.385	-0.255	-0.498
-715.748	-114.249	0.054	-0.010
-714.733	496.154	-0.095	0.219
-713.718	-126.473	0.260	-0.039
-712.704	-4.576	-0.065	0.045
-711.689	-200.000	0.037	-0.215
-710.675	-200.000	-0.002	0.044
-709.660	434.445	-0.114	0.247
-708.645	-200.000	0.027	-0.119
-707.631	270.803	0.093	0.163
-706.616	276.864	0.104	-0.186
-705.602	-33.450	-0.372	-0.206
-704.587	383.287	0.047	-0.096
-703.572	-180.816	0.118	-0.002
-702.558	130.831	0.036	0.046
-701.543	-200.000	0.224	0.000
-700.529	-5.986	-0.234	0.160
-699.514	800.000	0.074	0.214
-698.499	800.000	-0.048	0.148
-697.485	-38.698	-0.220	-0.116
-696.470	-51.165	0.014	-0.006
-695.456	236.411	-0.072	0.120
-694.441	800.000	0.055	0.158
-693.426	-179.977	-0.284	0.006
-692.412	707.404	-0.147	-0.388
-691.397	-200.000	0.031	0.345
-690.383	-82.321	-0.365	0.119
-689.368	-56.526	0.270	0.120
-688.354	23.762	-0.144	0.119
-687.339	121.854	0.062	-0.077
-686.324	-47.180	-0.294	-0.143
-685.310	-130.227	-0.075	0.010
-684.295	-200.000	0.007	0.393
-683.281	-85.724	0.219	-0.068
-682.266	609.220	0.165	-0.411
-681.251	-50.252	-0.205	-0.097
-680.237	-19.244	-0.282	-0.175
-679.222	116.375	0.253	-0.309
-678.208	-3.227	0.078	-0.055
-677.193	-84.596	-0.332	0.105
-676.178	378.647	0.073	0.149
-675.164	-112.101	-0.353	0.071
-674.149	10.021	-0.303	-0.230
-673.135	73.582	-0.177	-0.185
-672.120	-141.728	0.076	0.008
-671.105	-114.795	-0.081	-0.015
-670.091	-200.000	-0.004	-0.217
-669.076	-72.170	-0.148	0.055
-668.062	-39.302	-0.001	-0.000
-667.047	-108.818	0.137	0.029
-666.032	-3.224	0.101	0.071
-665.018	81.812	-0.144	0.156
-664.003	660.751	-0.123	-0.316
-662.989	-85.291	-0.187	-0.058
-661.974	-110.393	0.122	-0.025
-660.959	269.463	0.109	-0.191
-659.945	-200.000	-0.051	-0.432
-658.930	-0.228	0.136	0.096
-657.916	-131.947	-0.182	-0.024
-656.901	239.803	-0.172	-0.286
-655.886	-200.000	-0.329	-0.001
-654.872	208.596	-0.200	-0.313
-653.857	-200.000	0.039	0.397
-652.843	130.109	-0.110	0.141
-651.828	800.000	-0.027	-0.105
-650.814	800.000	-0.067	0.196
-649.799	31.510	-0.135	-0.116
-648.784	-8.561	-0.085	-0.057
-647.770	145.067	-0.130	-0.173
-646.755	-20.970	0.189	0.116
-645.741	51.968	-0.092	-0.087
-644.726	96.380	0.157	-0.180
-643.711	-200.000	0.020	-0.184
-642.697	-20.893	0.137	-0.084
-641.682	-76.394	0.175	0.061
-640.668	145.024	-0.077	0.102
-639.653	604.665	0.051	0.127
-638.638	-131.470	0.546	0.072
-637.624	515.935	-0.053	0.123
-636.609	800.000	-0.055	0.186
-635.595	-99.328	-0.138	-0.035
-634.580	421.999	0.135	-0.290
-633.565	94.381	-0.101	0.114
-632.551	529.885	0.112	-0.265
-631.536	-35.196	-0.144	-0.078
-630.522	-200.000	-0.008	-0.353
-629.507	-200.000	0.034	-0.188
-628.492	-4.769	0.226	0.156
-627.478	-29.986	-0.228	-0.130
-626.463	800.000	0.038	0.111
-625.449	248.742	-0.258	0.436
-624.434	-200.000	0.012	0.122
-623.419	39.657	-0.150	0.134
-622.405	800.000	0.043	-0.182
-621.390	213.078	-0.143	-0.225
-620.376	-19.857	0.257	0.159
-619.361	180.814	0.101	-0.148
-618.346	2.115	-0.050	-0.036
-617.332	-29.336	-0.266	-0.152
-616.317	-200.000	0.021	-0.165
-615.303	-13.003	-0.297	-0.193
-614.288	-200.000	0.060	0.316
-613.273	-72.369	-0.115	-0.042
-612.259	-115.301	-0.398	0.075
-611.244	51.097	-0.165	-0.156
-610.230	239.581	0.122	-0.203
-609.215	-154.770	0.163	0.011
-608.201	-63.344	0.238	-0.098
-607.186	17.196	-0.157	0.124
-606.171	-100.397	0.222	-0.055
-605.157	-200.000	-0.029	-0.173
-604.142	78.000	0.115	-0.122
-603.128	520.718	0.151	-0.353
-602.113	800.000	-0.113	-0.354
-601.098	-26.065	0.276	-0.162
-600.084	380.887	0.038	0.078
-599.069	-200.000	0.030	-0.393
-598.055	698.302	-0.043	-0.112
-597.040	-27.229	0.103	-0.060
-596.025	-66.375	0.219	0.087
-595.011	140.922	0.094	0.124
-593.996	-38.590	0.064	-0.034
-592.982	5.090	0.054	-0.039
-591.967	-200.000	-0.003	0.224
-590.952	-200.000	-0.024	0.168
-589.938	-68.569	0.355	0.137
-588.923	48.425	-0.098	0.092
-587.909	44.133	-0.041	0.037
-586.894	-84.628	-0.479	-0.150
-585.879	-121.666	0.174	-0.029
-584.865	151.732	0.115	-0.156
-583.850	421.073	0.054	0.116
-582.836	241.088	-0.045	0.075
-581.821	-200.000	-0.050	0.357
-580.806	49.729	-0.232	-0.218
-579.792	-108.455	-0.315	0.068
-578.777	30.813	0.132	0.112
-577.763	800.000	0.019	-0.073
-576.748	-200.000	0.022	0.281
-575.733	-55.225	0.236	0.106
-574.719	-200.000	0.020	-0.189
-573.704	130.401	0.243	-0.309
-572.690	29.477	-0.198	0.167
-571.675	780.591	0.023	-0.064
-570.661	103.463	0.078	0.091
-569.646	100.104	0.076	0.088
-568.631	-9.797	0.384	0.254
-567.617	21.328	-0.019	-0.015
-566.602	800.000	-0.085	-0.337
-565.588	397.840	0.164	-0.341
-564.573	-55.476	-0.148	0.066
-563.558	-40.469	-0.071	-0.037
-562.544	-123.429	0.272	-0.043
-561.529	48.731	0.144	0.134
-560.515	-200.000	0.003	-0.310
-559.500	-98.469	-0.185	0.047
-558.485	122.020	0.085	0.106
-557.471	65.508	-0.225	-0.227
-556.456	-47.647	-0.206	-0.099
-555.442	281.993	0.066	-0.117
-554.427	-40.310	-0.084	0.044
-553.412	-139.335	0.068	-0.007
-552.398	118.729	0.104	-0.127
-551.383	263.898	-0.273	-0.472
-550.369	46.007	-0.147	0.135
-549.354	665.541	-0.170	-0.436
-548.339	17.712	0.076	0.060
-547.325	800.000	0.060	-0.219
-546.310	102.632	0.138	0.161
-545.296	-200.000	0.035	0.250
-544.281	-200.000	-0.033	0.187
-543.266	260.866	0.143	-0.246
-542.252	6.971	-0.375	-0.278
-541.237	-152.008	0.117	-0.008
-540.223	198.841	-0.077	-0.117
-539.208	-200.000	-0.024	-0.111
-538.193	-108.595	-0.048	-0.010
-537.179	640.546	-0.066	-0.168
-536.164	188.499	0.125	0.186
-535.150	-42.044	0.117	-0.059
-534.135	-48.548	0.201	0.096
-533.121	770.068	0.060	-0.164
-532.106	800.000	0.048	0.132
-531.091	-107.241	-0.389	-0.085
-530.077	-1.206	-0.111	0.078
-529.062	-160.329	0.159	-0.008
-528.048	461.564	0.173	-0.384
-527.033	657.205	0.076	0.194
-526.018	96.112	-0.200	0.228
-525.004	329.073	-0.148	-0.282
-523.989	-200.000	-0.026	-0.262
-522.975	236.737	0.100	0.165
-521.960	-200.000	0.021	0.246
-520.945	-200.000	-0.036	0.177
-519.931	800.000	0.073	0.283
-518.916	-195.035	-0.200	-0.002
-517.902	-122.485	0.081	0.013
-516.887	-112.651	-0.327	-0.065
-515.872	-200.000	-0.064	0.329
-514.858	-129.875	-0.207	-0.028
-513.843	703.172	0.046	0.120
-512.829	291.146	-0.153	0.277
-511.814	-200.000	-0.051	0.372
-510.799	17.812	0.232	-0.183
-509.785	434.168	-0.119	0.257
-508.770	-83.421	0.246	0.078
-507.756	-200.000	0.050	-0.254
-506.741	244.840	0.241	-0.402
-505.726	800.000	-0.029	0.087
-504.712	-47.916	-0.114	0.055
-503.697	-58.465	0.066	-0.028
-502.683	205.498	0.113	0.174
-501.668	-136.123	0.225	0.026
-500.653	22.985	-0.167	0.136
-499.639	-200.000	-0.002	0.064
-498.624	-79.833	0.257	-0.086
-497.610	-200.000	0.011	0.047
-496.595	-118.485	0.235	-0.041
-495.581	-200.000	-0.001	-0.135
-494.566	-200.000	-0.027	0.206
-493.551	10.664	-0.289	0.219
-492.537	521.038	-0.140	-0.326
-491.522	-195.757	0.216	0.002
-490.508	141.298	-0.100	-0.132
-489.493	-200.000	-0.013	-0.073
-488.478	-115.138	0.161	0.030
-487.464	-47.375	0.165	0.079
-486.449	336.245	-0.077	-0.148
-485.435	-20.772	-0.139	0.084
-484.420	-9.309	-0.220	-0.146
-483.405	-9.817	-0.179	0.118
-482.391	-83.968	-0.050	0.016
-481.376	66.569	-0.198	-0.199
-480.362	98.659	0.290	0.332
-479.347	540.339	0.152	-0.359
-478.332	-122.899	-0.142	-0.023
-477.318	-9.512	0.269	-0.178
-476.303	-14.691	-0.079	-0.050
-475.289	-155.901	-0.344	0.022
-474.274	82.897	0.177	-0.191
-473.259	654.603	0.135	-0.343
-472.245	800.000	-0.011	-0.037
-471.230	43.128	0.085	-0.077
-470.216	-78.137	0.132	0.045
-469.201	-96.716	0.141	0.037
-468.186	-59.125	0.151	-0.064
-467.172	158.180	-0.146	-0.201
-466.157	130.805	-0.246	-0.312
-465.143	-66.561	-0.252	0.099
-464.128	-125.829	0.147	0.022
-463.113	800.000	-0.141	-0.548
-462.099	-166.365	0.090	-0.004
-461.084	-159.218	0.081	-0.005
-460.070	125.202	0.089	0.111
-459.055	-160.472	-0.189	-0.010
-458.040	-126.930	-0.207	-0.030
-457.026	-138.299	-0.132	0.014
-456.011	-200.000	-0.052	0.425
-454.997	-200.000	-0.043	0.480
-453.982	-200.000	-0.019	-0.229
-452.968	-200.000	-0.001	0.141
-451.953	-131.865	0.343	0.044
-450.938	521.695	0.021	-0.048
-449.924	-88.621	-0.180	0.053
-448.909	-200.000	-0.015	0.087
-447.895	-126.309	0.311	-0.046
-446.880	-123.744	0.471	-0.074
-445.865	-68.879	-0.156	-0.060
-444.851	-89.479	-0.163	-0.048
-443.836	157.612	-0.045	0.062
-442.822	29.598	0.129	-0.108
-441.807	-200.000	0.003	-0.077
-440.792	-141.773	0.247	0.025
-439.778	-33.938	-0.242	0.132
-438.763	152.488	0.051	-0.069
-437.749	25.845	-0.203	-0.168
-436.734	12.984	-0.143	0.110
-435.719	92.060	0.212	0.236
-434.705	-200.000	0.019	-0.312
-433.690	614.788	-0.053	0.131
-432.676	8.742	-0.369	-0.275
-431.661	-13.403	0.225	0.145
-430.646	-88.555	-0.057	0.017
-429.632	361.528	0.062	0.124
-428.617	557.540	0.153	-0.366
-427.603	-48.833	0.148	-0.070
-426.588	239.137	0.146	0.241
-425.573	-200.000	0.019	0.092
-424.559	-72.259	-0.097	-0.036
-423.544	-200.000	-0.085	-0.459
-422.530	186.727	-0.098	0.144
-421.515	-200.000	0.003	-0.106
-420.500	163.149	0.100	0.140
-419.486	-27.885	-0.107	0.062
-418.471	-98.450	-0.249	0.063
-417.457	-141.567	0.163	0.016
-416.442	-122.355	-0.271	0.044
-415.428	716.288	-0.094	0.246
-414.413	800.000	0.057	0.230
-413.398	-200.000	-0.045	-0.202
-412.384	-61.835	0.082	-0.034
-411.369	-90.283	0.157	-0.045
-410.355	98.500	0.210	-0.239
-409.340	303.092	0.116	-0.212
-408.325	94.018	0.104	-0.117
-407.311	-172.553	-0.034	-0.001
-406.296	-74.933	-0.070	0.025
-405.282	-82.715	0.098	0.031
-404.267	800.000	0.027	0.095
-403.252	-29.384	-0.331	0.187
-402.238	-200.000	0.004	0.045
-401.223	313.781	0.065	-0.120
-400.209	-40.835	0.139	-0.071
-399.194	-28.612	0.226	0.129
-398.179	-200.000	-0.037	0.363
-397.165	27.468	0.109	0.091
-396.150	443.706	0.061	-0.131
-395.136	-200.000	0.016	0.143
-394.121	-63.677	0.281	0.114
-393.106	-146.493	0.257	-0.022
-392.092	325.129	-0.108	-0.204
-391.077	-99.689	-0.162	0.040
-390.063	-33.998	0.095	-0.052
-389.048	-91.463	-0.178	-0.050
-388.033	-175.640	0.176	-0.005
-387.019	-68.932	-0.409	0.156
-386.004	-94.209	-0.080	-0.022
-384.990	124.595	0.058	-0.072
-383.975	89.813	-0.174	-0.192
-382.960	800.000	-0.095	0.312
-381.946	800.000	-0.026	-0.110
-380.931	800.000	0.033	0.108
-379.917	-200.000	0.015	-0.133
-378.902	240.952	0.071	-0.116
-377.888	382.214	0.037	-0.075
-376.873	371.358	-0.114	-0.228
-375.858	-200.000	-0.002	0.189
-374.844	113.917	0.093	0.112
-373.829	133.719	-0.216	0.276
-372.815	-200.000	0.020	-0.295
-371.800	578.735	-0.027	-0.064
-370.785	22.237	0.030	-0.024
-369.771	292.132	-0.158	0.283
-368.756	369.422	0.071	0.143
-367.742	293.017	0.068	-0.123
-366.727	800.000	-0.116	0.457
-365.712	-200.000	0.028	-0.306
-364.698	-84.471	-0.217	0.068
-363.683	-58.590	0.175	0.075
-362.669	800.000	0.096	0.293
-361.654	330.013	0.036	-0.069
-360.639	-35.381	0.149	-0.080
-359.625	-81.410	0.165	-0.054
-358.610	-114.494	-0.313	-0.059
-357.596	-88.468	-0.073	-0.021
-356.581	800.000	0.072	0.206
-355.566	90.405	-0.156	0.173
-354.552	2.060	-0.172	0.123
-353.537	-12.873	0.366	0.235
-352.523	479.762	0.129	-0.290
-351.508	719.688	0.055	-0.145
-350.493	194.086	0.188	-0.281
-349.479	-200.000	0.007	-0.063
-348.464	-116.643	-0.370	-0.067
-347.450	-200.000	0.026	-0.264
-346.435	-103.620	-0.098	-0.023
-345.420	-51.465	0.346	-0.159
-344.406	-74.328	-0.236	0.084
-343.391	-33.817	0.157	-0.085
-342.377	800.000	0.069	0.273
-341.362	800.000	-0.081	0.262
-340.348	-64.076	0.307	-0.124
-339.333	-38.826	-0.090	-0.047
-338.318	-153.194	0.311	0.021
-337.304	-153.167	-0.117	0.008
-336.289	-27.533	-0.292	0.167
-335.275	383.793	0.027	-0.055
-334.260	-200.000	-0.002	-0.075
-333.245	800.000	0.039	0.122
-332.231	-200.000	0.033	-0.310
-331.216	-9.277	0.328	0.216
-330.202	-56.735	-0.272	0.119
-329.187	529.643	0.057	-0.132
-328.172	-75.202	-0.253	0.089
-327.158	118.048	0.123	-0.150
-326.143	-50.761	-0.284	-0.132
-325.129	89.179	0.191	0.210
-324.114	68.978	-0.062	0.062
-323.099	-137.236	0.211	-0.024
-322.085	-168.284	-0.408	0.016
-321.070	-98.303	-0.189	0.048
-320.056	-73.108	-0.146	0.053
-319.041	346.933	0.132	-0.257
-318.026	108.236	-0.106	0.124
-317.012	277.866	-0.143	0.251
-315.997	604.289	-0.025	-0.061
-314.983	-4.700	0.273	-0.186
-313.968	-200.000	0.031	-0.244
-312.953	-18.772	-0.152	-0.093
-311.939	800.000	0.133	0.463
-310.924	-200.000	-0.059	0.266
-309.910	-200.000	0.022	0.219
-308.895	-63.168	-0.308	0.125
-307.880	23.562	0.174	-0.141
-306.866	-16.313	0.294	0.184
-305.851	-200.000	0.032	0.312
-304.837	335.513	0.163	-0.311
-303.822	189.581	-0.196	-0.290
-302.807	800.000	-0.062	0.189
-301.793	325.876	-0.060	-0.113
-300.778	93.781	-0.251	0.280
-299.764	-200.000	-0.005	-0.104
-298.749	-200.000	-0.029	-0.127
-297.735	8.701	-0.164	-0.122
-296.720	-200.000	0.045	0.340
-295.705	-200.000	0.040	0.256
-294.691	509.295	0.038	-0.087
-293.676	-200.000	0.046	0.332
-292.662	168.222	-0.257	0.360
-291.647	800.000	-0.102	0.352
-290.632	-200.000	-0.059	0.511
-289.618	-58.201	-0.174	0.075
-288.603	-200.000	0.011	-0.079
-287.589	-98.134	-0.190	-0.048
-286.574	-200.000	0.005	0.081
-285.559	-200.000	-0.036	-0.157
-284.545	800.000	-0.140	0.518
-283.530	116.172	-0.221	0.266
-282.516	197.080	0.041	0.061
-281.501	800.000	-0.050	0.197
-280.486	-2.388	-0.147	0.102
-279.472	-106.591	0.181	0.040
-278.457	-200.000	0.015	0.172
-277.443	800.000	0.021	-0.072
-276.428	-38.841	0.231	-0.120
-275.413	-16.145	-0.228	0.143
-274.399	-31.890	0.307	-0.169
-273.384	84.137	0.271	0.291
-272.370	-54.100	0.176	-0.079
-271.355	62.170	0.043	-0.042
-270.340	-89.317	0.130	0.038
-269.326	-200.000	-0.002	-0.153
-268.311	16.523	0.051	0.040
-267.297	-125.300	0.100	-0.015
-266.282	50.121	0.377	-0.350
-265.267	-174.508	0.299	0.008
-264.253	-200.000	0.005	-0.202
-263.238	-200.000	0.015	-0.315
-262.224	-27.255	-0.067	-0.039
-261.209	-200.000	0.067	-0.330
-260.195	-107.149	0.204	-0.044
-259.180	-200.000	-0.052	0.279
-258.165	-26.313	0.210	0.121
-257.151	-191.915	-0.306	0.003
-256.136	63.678	-0.217	-0.214
-255.122	266.729	0.091	-0.156
-254.107	-1.441	-0.139	-0.097
-253.092	-36.989	0.182	-0.096
-252.078	-173.366	-0.504	0.015
-251.063	-200.000	0.007	0.341
-250.049	800.000	-0.111	-0.454
-249.034	-48.103	0.201	-0.096
-248.019	-116.765	0.270	-0.049
-247.005	495.173	-0.064	0.145
-245.990	-137.514	0.346	-0.038
-244.976	-200.000	-0.021	-0.140
-243.961	-94.438	-0.057	0.015
-242.946	192.564	-0.299	-0.444
-241.932	-200.000	-0.016	0.110
-240.917	-104.948	-0.160	-0.036
-239.903	258.478	-0.195	-0.330
-238.888	424.915	0.124	-0.262
-237.873	-186.948	0.301	-0.004
-236.859	800.000	0.062	0.234
-235.844	568.451	-0.055	0.132
-234.830	287.733	-0.069	0.122
-233.815	-18.182	0.148	0.091
-232.800	141.420	0.281	0.365
-231.786	150.851	0.211	0.282
-230.771	-43.974	0.394	0.194
-229.757	223.891	-0.124	0.197
-228.742	-200.000	-0.022	0.154
-227.727	-104.719	-0.218	0.049
-226.713	-157.865	-0.557	-0.032
-225.698	-200.000	-0.023	-0.127
-224.684	-111.585	0.332	0.066
-223.669	60.187	-0.151	-0.146
-222.655	-200.000	0.036	-0.201
-221.640	44.586	-0.094	0.085
-220.625	-200.000	0.014	0.078
-219.611	190.136	-0.179	-0.265
-218.596	-200.000	-0.003	0.233
-217.582	-200.000	-0.066	0.311
-216.567	31.817	-0.121	-0.102
-215.552	-12.397	-0.239	-0.153
-214.538	-88.327	0.137	0.040
-213.523	51.729	-0.136	0.127
-212.509	94.935	0.165	-0.185
-211.494	800.000	-0.111	0.453
-210.479	-129.349	-0.290	0.040
-209.465	-15.627	0.319	-0.200
-208.450	-74.124	0.248	0.088
-207.436	-27.041	0.058	-0.033
-206.421	-200.000	-0.019	0.120
-205.406	633.416	0.049	0.121
-204.392	800.000	-0.051	-0.194
-203.377	-69.769	-0.260	0.098
-202.363	41.042	-0.521	0.461
-201.348	106.737	0.106	0.123
-200.333	23.817	0.176	0.143
-199.319	-62.797	0.188	0.076
-198.304	477.635	0.063	-0.139
-197.290	37.362	-0.352	-0.306
-196.275	-200.000	-0.003	-0.033
-195.260	80.559	0.114	-0.120
-194.246	800.000	0.079	0.244
-193.231	800.000	0.077	0.244
-192.217	-200.000	-0.030	0.236
-191.202	-163.504	-0.142	0.007
-190.187	6.256	-0.050	-0.037
-189.173	800.000	0.050	-0.162
-188.158	88.397	0.097	0.105
-187.144	800.000	0.009	-0.032
-186.129	-136.876	-0.415	-0.047
-185.114	800.000	0.011	-0.036
-184.100	-63.932	-0.175	-0.070
-183.085	71.382	0.182	-0.185
-182.071	452.754	0.139	-0.302
-181.056	61.051	-0.208	0.202
-180.042	-200.000	-0.008	-0.390
-179.027	-119.282	0.076	-0.013
-178.012	-35.127	-0.057	-0.030
-176.998	254.811	0.149	0.250
-175.983	167.294	-0.374	0.520
-174.969	58.405	0.207	0.199
-173.954	-15.841	-0.151	0.094
-172.939	6.459	0.184	-0.134
-171.925	-20.186	-0.256	0.155
-170.910	800.000	-0.056	0.198
-169.896	-8.863	-0.196	-0.129
-168.881	800.000	-0.028	-0.105
-167.866	46.419	0.257	-0.234
-166.852	-128.999	-0.205	0.028
-165.837	403.295	-0.182	-0.375
-164.823	50.686	0.240	-0.223
-163.808	800.000	0.115	0.354
-162.793	-56.697	-0.071	0.031
-161.779	-51.301	-0.291	0.133
-160.764	-200.000	0.072	0.339
-159.750	23.190	0.189	-0.152
-158.735	26.497	-0.329	-0.269
-157.720	-26.897	0.186	-0.106
-156.706	-18.232	0.220	-0.135
-155.691	-36.881	-0.193	-0.101
-154.677	-200.000	-0.022	0.206
-153.662	-16.442	0.266	0.165
-152.647	-107.063	0.226	0.049
-151.633	83.189	0.072	0.077
-150.618	352.251	-0.051	0.100
-149.604	559.666	-0.079	0.186
-148.589	37.762	0.119	-0.103
-147.574	-163.139	0.295	0.014
-146.560	-200.000	-0.002	-0.117
-145.545	-47.450	0.272	0.129
-144.531	800.000	-0.074	-0.243
-143.516	25.782	-0.210	-0.171
-142.502	44.792	0.192	0.173
-141.487	432.183	-0.179	-0.379
-140.472	800.000	-0.104	0.315
-139.458	-107.200	0.261	0.056
-138.443	731.948	-0.031	0.081
-137.429	-200.000	-0.069	0.467
-136.414	3.916	0.144	0.103
-135.399	71.196	-0.108	-0.109
-134.385	-200.000	0.024	-0.233
-133.370	-50.573	-0.332	-0.153
-132.356	-93.400	-0.267	-0.072
-131.341	-82.951	0.214	-0.068
-130.326	800.000	-0.067	0.247
-129.312	-176.069	0.196	-0.005
-128.297	-161.790	0.374	-0.019
-127.283	-47.653	-0.293	-0.139
-126.268	58.954	0.210	0.202
-125.253	-200.000	0.021	-0.371
-124.239	-20.950	0.222	-0.133
-123.224	185.174	0.293	-0.426
-122.210	800.000	-0.027	0.081
