DTS Sentinel unit serial number:	SN413079Multiplexer serial number:	ORYXHardware model number:	OX4-SRSoftware version number:	ORYX F/W v4.00 Oryx Data Collector v3.7.2.0data status	okinstallation	princeton_trtdifferential loss correction	single-endedforward channel	channel 1reverse channel	N/Adate	2019/09/18time	15:38:35forward acquisition time	60.00reverse acquisition time	0.00gamma	496.2192k internal	0.2300k external	0.2300temperature offset calibration	1.0002default loss term (dB/km)	0.3790temperature slope calibration	1.0000multiplexer offset coefficient	1.0000multiplexer slope coefficient	1.0000fibre end	0.00T internal ref (°C)	36.36T ext. ref 1 (°C)	0.79T ext. ref 2 (°C)	30.56length (m)	temperature (°C)	Stokes	anti-Stokes-747.200	9.159	-0.037	-0.029
-746.185	30.318	-0.199	0.173
-745.171	-34.870	0.258	-0.144
-744.156	60.907	-0.252	-0.255
-743.142	294.180	0.072	-0.133
-742.127	305.837	-0.110	0.208
-741.112	503.548	0.155	0.367
-740.098	-200.000	-0.010	0.073
-739.083	-200.000	-0.008	-0.204
-738.069	257.155	0.129	0.226
-737.054	-108.205	0.242	-0.053
-736.039	-160.631	0.162	0.009
-735.025	-22.016	0.107	0.066
-734.010	-81.574	-0.304	-0.102
-732.996	-58.097	-0.117	-0.052
-731.981	510.156	0.081	-0.192
-730.966	84.050	-0.146	-0.163
-729.952	452.799	-0.166	0.375
-728.937	572.154	0.116	-0.288
-727.923	59.396	-0.047	0.047
-726.908	-200.000	0.047	-0.222
-725.894	-68.042	-0.211	-0.084
-724.879	75.571	-0.140	-0.150
-723.864	-200.000	0.005	-0.036
-722.850	128.237	0.122	0.158
-721.835	-18.963	0.219	-0.139
-720.821	61.288	-0.260	0.263
-719.806	800.000	-0.046	-0.197
-718.791	-200.000	-0.007	-0.039
-717.777	-72.901	-0.181	0.068
-716.762	-146.464	-0.159	0.014
-715.748	124.033	0.200	-0.256
-714.733	671.375	-0.059	0.155
-713.718	-24.216	0.086	0.052
-712.704	3.600	-0.271	-0.201
-711.689	34.962	-0.137	0.122
-710.675	-55.547	-0.115	-0.052
-709.660	-31.077	0.245	0.141
-708.645	-119.707	-0.245	-0.043
-707.631	-104.277	0.395	-0.093
-706.616	24.991	0.082	-0.069
-705.602	-200.000	0.012	-0.267
-704.587	209.377	-0.132	0.210
-703.572	-200.000	0.023	0.171
-702.558	207.418	-0.160	0.255
-701.543	-200.000	-0.038	-0.348
-700.529	-8.736	0.063	-0.043
-699.514	-148.696	0.120	-0.010
-698.499	35.992	0.250	-0.224
-697.485	800.000	0.054	-0.204
-696.470	56.768	-0.125	-0.124
-695.456	224.168	-0.120	0.197
-694.441	-32.431	-0.043	0.024
-693.426	262.669	0.138	0.243
-692.412	225.889	-0.185	0.306
-691.397	-32.973	0.100	0.056
-690.383	-148.692	0.058	0.005
-689.368	-200.000	-0.001	-0.032
-688.354	-111.051	-0.161	-0.034
-687.339	-200.000	-0.007	-0.106
-686.324	800.000	-0.055	-0.157
-685.310	-59.414	0.196	0.086
-684.295	800.000	-0.105	-0.466
-683.281	-200.000	0.016	0.294
-682.266	-200.000	0.007	0.169
-681.251	-1.755	0.383	0.274
-680.237	192.497	0.096	-0.148
-679.222	800.000	-0.041	0.145
-678.208	164.457	0.076	0.109
-677.193	-200.000	0.046	0.222
-676.178	-33.362	-0.221	0.125
-675.164	235.436	0.136	-0.229
-674.149	-46.558	-0.347	-0.173
-673.135	-200.000	-0.017	-0.145
-672.120	156.611	-0.110	-0.155
-671.105	-200.000	0.056	-0.250
-670.091	-200.000	0.002	0.117
-669.076	223.469	-0.046	0.076
-668.062	32.637	0.034	-0.030
-667.047	-121.335	0.082	-0.014
-666.032	102.298	0.090	0.107
-665.018	-20.988	-0.169	0.105
-664.003	236.727	0.188	0.317
-662.989	-200.000	-0.011	0.064
-661.974	364.469	0.126	0.257
-660.959	40.614	0.103	0.094
-659.945	-200.000	-0.043	-0.255
-658.930	-200.000	-0.042	0.226
-657.916	73.702	-0.177	-0.188
-656.901	-172.452	0.323	0.010
-655.886	54.493	-0.212	-0.207
-654.872	378.210	-0.048	0.100
-653.857	800.000	-0.075	-0.255
-652.843	76.965	-0.112	-0.121
-651.828	275.691	0.169	0.305
-650.814	311.234	0.155	0.294
-649.799	65.430	-0.150	-0.155
-648.784	315.759	0.158	0.303
-647.770	-39.283	0.221	0.118
-646.755	365.759	-0.191	-0.391
-645.741	-200.000	-0.006	0.106
-644.726	-67.486	0.101	0.040
-643.711	337.820	0.085	-0.168
-642.697	349.785	-0.175	-0.352
-641.682	-156.920	-0.186	0.012
-640.668	800.000	0.147	-0.479
-639.653	144.687	0.133	-0.181
-638.638	-76.483	-0.049	-0.018
-637.624	75.382	-0.231	-0.248
-636.609	-63.448	0.336	-0.140
-635.595	440.951	-0.142	-0.315
-634.580	97.139	0.145	-0.168
-633.565	16.984	-0.048	-0.039
-632.551	423.757	-0.190	-0.415
-631.536	-200.000	0.011	-0.079
-630.522	-82.304	0.196	0.065
-629.507	800.000	0.021	0.081
-628.492	2.005	0.185	-0.135
-627.478	-10.068	-0.243	0.164
-626.463	-200.000	-0.155	0.000
-625.449	-200.000	-0.000	-0.153
-624.434	800.000	-0.013	0.051
-623.419	20.849	0.162	-0.133
-622.405	800.000	-0.068	-0.209
-621.390	103.027	0.071	0.084
-620.376	37.891	0.167	-0.151
-619.361	-186.833	0.365	-0.005
-618.346	224.735	-0.225	0.369
-617.332	800.000	-0.086	0.301
-616.317	-25.079	-0.326	-0.196
-615.303	-200.000	0.064	0.318
-614.288	18.129	0.084	-0.068
-613.273	-200.000	0.021	0.223
-612.259	-79.324	0.256	0.088
-611.244	94.984	0.035	0.040
-610.230	151.515	-0.170	-0.234
-609.215	-200.000	-0.033	-0.392
-608.201	786.966	-0.220	-0.612
-607.186	-200.000	0.041	-0.475
-606.171	5.599	-0.047	0.035
-605.157	248.125	0.115	-0.197
-604.142	-63.724	0.098	0.041
-603.128	274.861	0.061	-0.109
-602.113	17.883	-0.399	-0.322
-601.098	536.643	-0.099	0.238
-600.084	-71.402	0.324	-0.123
-599.069	-114.464	-0.225	-0.044
-598.055	-200.000	0.002	-0.400
-597.040	-200.000	0.035	0.247
-596.025	-200.000	0.001	-0.087
-595.011	-101.903	0.302	-0.074
-593.996	-11.188	-0.261	-0.174
-592.982	326.048	-0.230	-0.446
-591.967	68.609	-0.194	0.202
-590.952	-25.876	0.065	-0.039
-589.938	453.124	0.126	-0.283
-588.923	800.000	-0.110	-0.383
-587.909	-120.620	-0.289	0.050
-586.894	-129.372	0.239	-0.034
-585.879	-61.150	0.209	0.089
-584.865	800.000	0.050	0.199
-583.850	-200.000	-0.035	0.271
-582.836	800.000	-0.063	0.278
-581.821	-66.179	-0.103	0.042
-580.806	384.528	-0.088	-0.185
-579.792	174.398	-0.145	-0.212
-578.777	-150.048	-0.342	-0.027
-577.763	166.997	0.060	0.086
-576.748	-32.720	-0.298	-0.168
-575.733	-104.820	-0.175	0.041
-574.719	-166.931	0.322	0.013
-573.704	277.581	-0.095	-0.171
-572.690	740.521	-0.037	0.102
-571.675	-59.299	0.218	0.095
-570.661	224.467	-0.115	-0.188
-569.646	-124.587	-0.096	0.015
-568.631	62.637	0.213	-0.216
-567.617	-12.970	0.038	-0.025
-566.602	41.528	-0.035	-0.032
-565.588	363.178	-0.146	-0.298
-564.573	-145.149	0.213	-0.020
-563.558	-2.070	0.114	-0.081
-562.544	457.519	-0.077	0.172
-561.529	800.000	-0.046	0.191
-560.515	29.202	-0.150	-0.129
-559.500	203.957	0.097	-0.152
-558.485	98.706	0.073	0.085
-557.471	127.184	0.237	0.304
-556.456	-48.502	-0.096	-0.047
-555.442	-25.316	0.198	0.119
-554.427	-58.780	0.198	0.087
-553.412	-200.000	0.075	0.423
-552.398	291.777	-0.207	0.381
-551.383	-87.977	-0.123	0.037
-550.369	11.106	-0.119	0.092
-549.354	-15.386	-0.095	0.062
-548.339	-12.831	-0.079	-0.052
-547.325	-38.082	-0.166	-0.089
-546.310	-200.000	-0.064	-0.319
-545.296	31.579	-0.133	-0.115
-544.281	-32.761	0.201	0.113
-543.266	-28.263	0.123	-0.072
-542.252	7.276	-0.098	-0.074
-541.237	252.167	0.069	0.119
-540.223	-200.000	0.034	-0.188
-539.208	337.076	0.197	0.387
-538.193	39.530	-0.160	-0.145
-537.179	-86.941	-0.276	0.085
-536.164	800.000	-0.085	0.278
-535.150	-99.469	0.187	-0.047
-534.135	-200.000	0.039	-0.225
-533.121	120.147	-0.140	-0.175
-532.106	476.047	0.056	-0.128
-531.091	-138.198	-0.253	-0.028
-530.077	-1.920	-0.242	0.172
-529.062	-20.280	-0.317	0.197
-528.048	-69.086	-0.241	0.094
-527.033	-121.794	0.051	-0.008
-526.018	-104.938	-0.289	-0.067
-525.004	-101.446	-0.129	0.032
-523.989	-200.000	0.064	0.388
-522.975	110.725	-0.064	-0.078
-521.960	-99.656	-0.304	-0.077
-520.945	-145.020	0.076	0.007
-519.931	-36.019	-0.219	-0.120
-518.916	-200.000	-0.034	0.238
-517.902	93.424	0.058	-0.066
-516.887	-200.000	0.114	-0.525
-515.872	-200.000	-0.037	0.207
-514.858	286.899	-0.123	-0.224
-513.843	-133.077	-0.331	-0.042
-512.829	-200.000	-0.036	0.248
-511.814	800.000	-0.135	0.540
-510.799	800.000	-0.073	-0.207
-509.785	-200.000	-0.013	-0.060
-508.770	176.487	0.097	-0.142
-507.756	-84.263	-0.010	-0.003
-506.741	-200.000	-0.019	-0.097
-505.726	100.602	0.019	0.022
-504.712	80.451	-0.066	0.072
-503.697	-200.000	0.021	0.137
-502.683	174.203	-0.085	-0.124
-501.668	220.508	-0.150	-0.243
-500.653	-10.917	0.301	0.201
-499.639	-2.608	0.183	-0.130
-498.624	-124.096	-0.084	0.013
-497.610	201.264	0.059	0.092
-496.595	-12.408	0.051	-0.034
-495.581	135.507	-0.047	-0.062
-494.566	-200.000	0.012	-0.069
-493.551	55.485	0.179	-0.175
-492.537	478.989	0.126	-0.287
-491.522	-200.000	0.073	-0.440
-490.508	135.161	-0.223	-0.292
-489.493	194.963	-0.129	-0.198
-488.478	-149.727	0.122	0.010
-487.464	800.000	0.060	0.210
-486.449	431.695	-0.048	0.105
-485.435	-29.743	-0.185	-0.107
-484.420	-200.000	0.007	-0.205
-483.405	-43.507	0.149	0.076
-482.391	-200.000	0.031	0.220
-481.376	615.441	-0.113	0.285
-480.362	-8.797	-0.072	-0.049
-479.347	-56.572	-0.316	0.141
-478.332	-68.075	0.204	0.080
-477.318	-200.000	-0.003	-0.081
-476.303	17.346	0.075	0.060
-475.289	-96.522	-0.080	0.021
-474.274	-200.000	0.015	0.196
-473.259	-77.449	-0.200	-0.070
-472.245	-94.046	0.393	0.109
-471.230	193.703	-0.062	0.094
-470.216	-15.305	0.134	-0.087
-469.201	-10.932	0.152	-0.101
-468.186	-55.831	-0.130	-0.058
-467.172	-200.000	0.005	-0.283
-466.157	-157.058	-0.115	-0.007
-465.143	409.078	0.128	-0.274
-464.128	146.580	-0.122	-0.166
-463.113	80.246	-0.026	0.028
-462.099	-87.959	0.160	0.049
-461.084	-200.000	0.007	-0.220
-460.070	800.000	0.083	-0.299
-459.055	-12.397	-0.116	-0.076
-458.040	-122.388	0.080	-0.013
-457.026	-55.378	0.120	0.054
-456.011	-120.531	-0.080	0.014
-454.997	256.036	0.123	-0.213
-453.982	-138.070	0.125	-0.014
-452.968	-101.985	0.318	0.077
-451.953	-144.451	-0.241	-0.023
-450.938	351.688	0.020	0.039
-449.924	74.851	-0.134	0.142
-448.909	-200.000	0.012	-0.135
-447.895	-200.000	0.032	0.174
-446.880	-200.000	0.006	-0.074
-445.865	-200.000	-0.003	-0.105
-444.851	800.000	0.092	-0.389
-443.836	231.538	-0.105	0.174
-442.822	66.015	0.046	-0.047
-441.807	-200.000	-0.003	0.062
-440.792	-14.910	-0.132	0.085
-439.778	-72.004	-0.105	0.039
-438.763	-16.512	0.131	-0.084
-437.749	-120.562	0.236	0.040
-436.734	-124.118	0.069	0.011
-435.719	49.849	-0.219	0.208
-434.705	800.000	0.096	0.274
-433.690	325.165	-0.055	0.107
-432.676	-143.927	-0.403	-0.038
-431.661	800.000	-0.087	-0.313
-430.646	800.000	0.043	0.133
-429.632	-24.894	-0.038	-0.023
-428.617	15.797	0.151	-0.120
-427.603	-187.278	0.307	0.004
-426.588	-151.585	-0.220	0.016
-425.573	213.254	0.160	0.255
-424.559	156.902	-0.023	-0.032
-423.544	468.482	-0.098	0.222
-422.530	-26.225	-0.143	0.085
-421.515	-160.721	-0.197	-0.011
-420.500	-200.000	0.022	-0.185
-419.486	800.000	-0.042	0.125
-418.471	-200.000	0.046	0.281
-417.457	-52.441	0.145	0.068
-416.442	-132.329	0.200	-0.026
-415.428	99.292	-0.179	0.208
-414.413	-135.286	-0.207	0.025
-413.398	-124.101	-0.262	0.041
-412.384	-174.703	0.282	0.008
-411.369	82.323	-0.183	0.199
-410.355	544.575	0.191	-0.459
-409.340	-102.886	-0.105	-0.025
-408.325	-153.934	-0.450	0.031
-407.311	260.998	0.039	0.067
-406.296	-200.000	0.004	0.098
-405.282	-131.066	-0.191	-0.026
-404.267	-200.000	-0.039	0.210
-403.252	420.565	-0.057	0.124
-402.238	-200.000	0.002	0.093
-401.223	159.987	-0.108	0.151
-400.209	800.000	0.133	0.381
-399.194	-50.127	-0.089	-0.042
-398.179	111.751	-0.187	0.227
-397.165	-16.859	-0.232	0.148
-396.150	-200.000	0.027	-0.173
-395.136	68.260	0.130	-0.134
-394.121	-146.987	0.117	-0.010
-393.106	-88.948	0.187	0.056
-392.092	-72.079	-0.094	-0.035
-391.077	-120.160	-0.088	-0.015
-390.063	111.654	0.112	0.136
-389.048	36.485	-0.129	0.114
-388.033	-78.772	-0.199	-0.068
-387.019	-12.631	-0.242	0.159
-386.004	-51.454	0.288	0.135
-384.990	-121.697	-0.257	0.043
-383.975	-54.839	-0.122	0.055
-382.960	-129.881	0.369	-0.051
-381.946	-121.532	0.169	-0.028
-380.931	-159.285	-0.179	0.010
-379.917	-101.571	0.174	-0.042
-378.902	-200.000	-0.048	-0.374
-377.888	-75.313	-0.110	-0.039
-376.873	-70.590	0.397	-0.151
-375.858	-23.247	-0.234	-0.142
-374.844	-170.329	-0.138	-0.005
-373.829	592.077	0.165	0.410
-372.815	-200.000	-0.019	0.102
-371.800	275.166	0.145	-0.258
-370.785	51.931	0.273	0.261
-369.771	-43.076	-0.227	0.116
-368.756	398.649	0.137	0.288
-367.742	-144.863	-0.192	-0.018
-366.727	-101.384	-0.333	0.082
-365.712	-57.525	0.397	-0.175
-364.698	-200.000	0.008	0.079
-363.683	-7.404	0.104	0.071
-362.669	800.000	0.044	-0.160
-361.654	-137.155	-0.341	-0.039
-360.639	-200.000	-0.042	0.185
-359.625	125.128	0.063	0.079
-358.610	293.091	-0.157	0.288
-357.596	-167.287	0.136	0.006
-356.581	-37.164	0.143	0.077
-355.566	800.000	0.021	0.080
-354.552	275.538	-0.015	0.027
-353.537	102.477	0.052	-0.061
-352.523	-129.282	0.363	0.051
-351.508	-200.000	0.038	-0.283
-350.493	710.818	0.087	-0.233
-349.479	-54.655	-0.221	-0.100
-348.464	73.204	0.216	0.227
-347.450	-137.673	0.217	-0.024
-346.435	277.602	-0.105	-0.187
-345.420	80.879	-0.133	-0.144
-344.406	-4.042	-0.106	-0.074
-343.391	176.549	0.095	0.139
-342.377	-200.000	0.054	0.354
-341.362	800.000	0.104	0.308
-340.348	-11.290	0.235	0.155
-339.333	656.077	0.192	0.495
-338.318	-106.924	0.233	0.052
-337.304	43.492	0.126	0.115
-336.289	39.472	0.257	-0.231
-335.275	-80.771	-0.114	-0.038
-334.260	-200.000	0.034	-0.152
-333.245	-49.047	-0.225	-0.108
-332.231	800.000	-0.022	0.074
-331.216	404.063	0.048	0.101
-330.202	-109.473	0.469	-0.099
-329.187	-200.000	-0.002	0.244
-328.172	-135.099	0.123	-0.015
-327.158	-112.110	-0.165	-0.033
-326.143	-36.448	0.119	-0.064
-325.129	-200.000	-0.013	-0.158
-324.114	-138.309	-0.041	-0.005
-323.099	800.000	0.094	0.287
-322.085	1.296	-0.024	0.017
-321.070	230.484	-0.063	-0.103
-320.056	67.454	-0.087	-0.089
-319.041	30.241	0.188	-0.161
-318.026	-200.000	-0.019	0.098
-317.012	-145.232	-0.221	0.020
-315.997	296.386	-0.094	-0.173
-314.983	-100.611	0.104	-0.026
-313.968	800.000	-0.058	-0.234
-312.953	-126.299	-0.177	-0.027
-311.939	-10.770	-0.230	0.152
-310.924	35.504	0.094	0.083
-309.910	117.278	0.094	0.116
-308.895	3.634	-0.467	-0.342
-307.880	-84.366	0.045	0.014
-306.866	20.587	-0.123	0.100
-305.851	-60.295	-0.273	-0.117
-304.837	-35.132	-0.171	-0.094
-303.822	-200.000	-0.017	0.257
-302.807	-113.976	0.228	-0.044
-301.793	-0.547	-0.147	0.105
-300.778	-200.000	0.000	0.309
-299.764	-128.135	-0.099	0.014
-298.749	-32.840	0.144	0.080
-297.735	-200.000	0.062	0.289
-296.720	-88.405	0.149	-0.045
-295.705	-21.949	0.149	0.090
-294.691	200.747	-0.111	-0.170
-293.676	-13.321	0.179	-0.116
-292.662	-181.544	-0.265	-0.005
-291.647	-106.347	0.269	0.060
-290.632	-102.350	0.207	0.050
-289.618	-56.502	0.219	0.097
-288.603	252.421	0.169	0.289
-287.589	11.177	0.149	0.115
-286.574	630.558	-0.012	-0.031
-285.559	6.505	-0.147	-0.109
-284.545	-60.229	0.105	-0.045
-283.530	-17.645	-0.158	0.100
-282.516	-55.788	0.163	-0.073
-281.501	263.406	-0.114	0.199
-280.486	-200.000	0.008	0.428
-279.472	-24.952	0.275	0.163
-278.457	-71.322	0.262	0.098
-277.443	-200.000	-0.019	0.123
-276.428	5.237	-0.195	-0.144
-275.413	117.281	0.121	-0.148
-274.399	-200.000	-0.017	0.107
-273.384	800.000	-0.103	-0.371
-272.370	194.283	-0.123	-0.187
-271.355	278.482	0.091	-0.162
-270.340	800.000	0.031	-0.132
-269.326	-21.024	0.068	0.042
-268.311	170.635	-0.214	0.306
-267.297	-200.000	-0.060	0.285
-266.282	-200.000	0.026	-0.118
-265.267	108.359	0.194	-0.232
-264.253	-5.335	-0.357	0.245
-263.238	-200.000	-0.000	0.254
-262.224	-80.027	0.252	-0.085
-261.209	189.373	0.086	0.130
-260.195	9.185	-0.099	-0.075
-259.180	-109.157	0.331	-0.070
-258.165	195.859	-0.251	0.382
-257.151	23.033	0.192	-0.158
-256.136	-200.000	0.047	-0.224
-255.122	106.866	0.059	0.070
-254.107	-200.000	0.001	0.258
-253.092	-88.451	0.413	-0.123
-252.078	-94.594	-0.194	-0.053
-251.063	152.601	0.083	-0.113
-250.049	729.938	0.050	0.132
-249.034	-126.951	-0.232	-0.034
-248.019	-200.000	-0.009	0.580
-247.005	-200.000	0.032	-0.231
-245.990	701.390	-0.107	-0.283
-244.976	800.000	0.102	-0.300
-243.961	-200.000	-0.019	-0.208
-242.946	24.822	0.082	-0.068
-241.932	47.573	0.070	0.065
-240.917	36.223	-0.207	0.182
-239.903	-39.122	0.134	0.071
-238.888	26.785	-0.189	-0.159
-237.873	-151.875	0.609	0.045
-236.859	25.766	-0.215	-0.179
-235.844	-200.000	-0.012	-0.218
-234.830	-156.356	0.124	0.008
-233.815	70.034	0.077	0.079
-232.800	-171.873	0.254	-0.008
-231.786	-200.000	-0.019	-0.094
-230.771	109.965	0.204	0.245
-229.757	-75.229	0.148	0.053
-228.742	-4.964	-0.127	0.087
-227.727	-200.000	0.047	0.300
-226.713	-200.000	0.005	-0.097
-225.698	-200.000	0.075	-0.343
-224.684	-200.000	0.012	-0.057
-223.669	-101.423	0.114	0.028
-222.655	-113.532	-0.271	-0.053
-221.640	140.155	-0.178	0.234
-220.625	23.296	-0.200	0.165
-219.611	-141.152	-0.166	0.017
-218.596	174.312	-0.293	0.424
-217.582	31.052	-0.093	0.080
-216.567	800.000	0.049	-0.143
-215.552	-94.819	0.118	-0.032
-214.538	-24.815	0.248	0.147
-213.523	177.975	-0.246	0.358
-212.509	48.347	-0.094	-0.088
-211.494	-136.361	0.236	0.027
-210.479	-200.000	-0.025	0.148
-209.465	24.842	0.268	-0.222
-208.450	800.000	-0.103	0.356
-207.436	800.000	0.015	-0.047
-206.421	460.106	-0.137	-0.304
-205.406	-48.554	-0.056	0.027
-204.392	100.747	-0.023	0.026
-203.377	-100.763	0.124	-0.031
-202.363	-15.296	0.084	0.054
-201.348	34.898	0.243	0.212
-200.333	-140.941	-0.200	-0.020
-199.319	-2.191	-0.109	-0.076
-198.304	-41.867	0.122	-0.062
-197.290	244.866	0.011	-0.018
-196.275	27.054	0.041	-0.034
-195.260	319.569	-0.141	0.267
-194.246	319.335	0.049	0.092
-193.231	-182.450	-0.079	-0.001
-192.217	122.338	-0.030	0.038
-191.202	-55.920	0.249	0.111
-190.187	-200.000	-0.042	-0.286
-189.173	800.000	0.098	-0.292
-188.158	27.380	-0.118	0.099
-187.144	-53.757	-0.046	-0.021
-186.129	81.847	0.219	0.237
-185.114	343.089	0.096	0.187
-184.100	203.238	0.106	0.163
-183.085	207.784	-0.234	-0.365
-182.071	-125.516	0.099	0.015
-181.056	-114.494	0.294	-0.056
-180.042	22.531	-0.077	-0.063
-179.027	-200.000	-0.054	0.382
-178.012	-39.849	-0.256	0.134
-176.998	-21.539	-0.063	-0.039
-175.983	-65.315	0.116	-0.046
-174.969	54.802	0.062	0.060
-173.954	-102.312	0.085	0.020
-172.939	-164.508	-0.040	0.002
-171.925	124.611	-0.252	0.317
-170.910	20.536	0.349	0.282
-169.896	-200.000	-0.023	0.286
-168.881	-125.429	-0.203	-0.031
-167.866	-11.410	0.142	-0.093
-166.852	391.932	0.158	-0.326
-165.837	-144.216	0.183	-0.017
-164.823	307.081	0.125	-0.232
-163.808	-43.887	-0.271	-0.136
-162.793	-85.359	0.231	-0.072
-161.779	-55.857	0.160	0.071
-160.764	2.302	0.147	0.106
-159.750	-200.000	-0.038	0.175
-158.735	-37.281	-0.059	0.032
-157.720	-200.000	-0.005	0.206
-156.706	-92.081	0.208	-0.059
-155.691	-200.000	-0.049	-0.268
-154.677	-200.000	0.087	-0.394
-153.662	14.300	-0.171	-0.133
-152.647	800.000	0.130	0.485
-151.633	-200.000	-0.022	-0.169
-150.618	-200.000	0.008	0.249
-149.604	-44.232	0.354	-0.177
-148.589	18.131	-0.111	-0.088
-147.574	800.000	-0.027	-0.077
-146.560	-55.015	-0.201	-0.090
-145.545	-76.204	-0.342	0.120
-144.531	-127.290	0.439	0.064
-143.516	320.837	-0.034	0.064
-142.502	-200.000	0.041	-0.352
-141.487	-6.460	0.334	0.226
-140.472	56.519	-0.186	0.180
-139.458	517.189	-0.040	0.094
-138.443	800.000	0.026	0.074
-137.429	-118.935	-0.009	-0.002
-136.414	-88.297	0.194	0.058
-135.399	-0.951	0.205	0.144
-134.385	271.605	0.059	-0.104
-133.370	83.709	0.115	0.125
-132.356	-181.503	-0.277	0.005
-131.341	135.956	0.060	0.078
-130.326	-10.474	0.257	-0.169
-129.312	-142.833	-0.408	-0.039
-128.297	-200.000	0.020	0.096
-127.283	642.817	0.078	0.198
-126.268	-140.177	-0.171	0.018
-125.253	-154.896	-0.303	0.020
-124.239	800.000	0.116	0.343
-123.224	29.725	0.084	-0.071
-122.210	-64.363	0.114	0.046
