DTS Sentinel unit serial number:	SN413079Multiplexer serial number:	ORYXHardware model number:	OX4-SRSoftware version number:	ORYX F/W v4.00 Oryx Data Collector v3.7.2.0data status	okinstallation	princeton_trtdifferential loss correction	single-endedforward channel	channel 1reverse channel	N/Adate	2019/09/10time	19:56:11forward acquisition time	60.00reverse acquisition time	0.00gamma	496.2192k internal	0.2324k external	0.2324temperature offset calibration	0.9929default loss term (dB/km)	0.3790temperature slope calibration	1.0000multiplexer offset coefficient	1.0000multiplexer slope coefficient	1.0000fibre end	0.00T internal ref (°C)	32.75T ext. ref 1 (°C)	-0.31T ext. ref 2 (°C)	25.74length (m)	temperature (°C)	Stokes	anti-Stokes-747.200	80.418	0.259	0.282
-746.185	78.900	-0.237	0.256
-745.171	-34.344	-0.306	0.169
-744.156	-184.881	0.160	0.003
-743.142	132.517	0.135	0.175
-742.127	-33.227	0.137	0.076
-741.112	325.554	0.055	-0.106
-740.098	-37.163	-0.054	0.029
-739.083	121.486	0.071	0.089
-738.069	117.356	-0.269	0.335
-737.054	800.000	0.026	0.089
-736.039	-91.543	-0.275	-0.079
-735.025	8.205	-0.126	-0.096
-734.010	-200.000	-0.012	-0.104
-732.996	468.234	-0.046	-0.105
-731.981	-42.357	-0.183	0.094
-730.966	-141.576	-0.287	0.029
-729.952	-1.782	0.187	-0.133
-728.937	-84.729	-0.308	-0.098
-727.923	218.022	-0.175	-0.281
-726.908	474.211	-0.071	-0.162
-725.894	293.577	-0.044	0.080
-724.879	-200.000	0.044	-0.394
-723.864	-104.733	-0.345	-0.080
-722.850	156.243	-0.146	-0.203
-721.835	800.000	-0.035	-0.122
-720.821	-55.344	-0.259	-0.117
-719.806	-200.000	0.000	-0.339
-718.791	638.384	0.103	-0.264
-717.777	-119.430	0.244	-0.043
-716.762	15.963	-0.118	0.093
-715.748	800.000	-0.085	0.308
-714.733	178.810	-0.102	0.150
-713.718	56.090	0.042	-0.041
-712.704	-4.362	0.124	-0.086
-711.689	-143.257	0.488	0.047
-710.675	-62.480	-0.360	-0.151
-709.660	315.153	0.103	0.196
-708.645	-133.291	-0.240	0.031
-707.631	-154.972	0.218	0.014
-706.616	24.060	0.129	-0.107
-705.602	-72.096	-0.025	0.009
-704.587	-200.000	-0.003	0.267
-703.572	702.945	-0.077	-0.205
-702.558	94.094	0.187	-0.214
-701.543	800.000	-0.070	0.296
-700.529	-176.205	-0.168	0.004
-699.514	-200.000	0.028	-0.224
-698.499	800.000	0.064	-0.210
-697.485	-18.343	0.214	-0.135
-696.470	38.389	0.365	-0.328
-695.456	126.612	0.124	-0.159
-694.441	-139.096	-0.165	-0.018
-693.426	75.264	-0.102	0.108
-692.412	44.325	0.174	-0.161
-691.397	-78.882	-0.204	-0.070
-690.383	-200.000	0.022	-0.138
-689.368	-132.384	0.221	0.029
-688.354	-83.302	0.049	0.016
-687.339	355.531	-0.064	-0.129
-686.324	800.000	-0.034	-0.133
-685.310	455.276	0.078	0.175
-684.295	-120.096	-0.413	0.071
-683.281	269.864	-0.123	-0.218
-682.266	-83.354	-0.180	-0.058
-681.251	-94.051	0.230	0.064
-680.237	-103.406	-0.146	0.035
-679.222	-42.412	-0.347	-0.178
-678.208	380.240	0.082	-0.169
-677.193	-200.000	-0.013	0.269
-676.178	10.206	-0.121	-0.093
-675.164	-28.571	0.098	0.057
-674.149	-189.084	0.187	-0.002
-673.135	56.081	0.248	-0.243
-672.120	-200.000	-0.042	0.385
-671.105	-200.000	-0.003	-0.077
-670.091	139.427	-0.235	-0.311
-669.076	5.450	-0.106	0.079
-668.062	-35.177	-0.267	-0.147
-667.047	-200.000	0.021	0.154
-666.032	-200.000	0.065	0.352
-665.018	-128.794	-0.323	0.046
-664.003	800.000	-0.014	-0.043
-662.989	596.937	0.042	0.104
-661.974	-96.090	-0.237	0.063
-660.959	-127.196	-0.175	-0.026
-659.945	239.005	-0.072	0.120
-658.930	-73.762	-0.294	0.108
-657.916	196.675	-0.160	-0.246
-656.901	348.301	-0.162	0.322
-655.886	-98.785	-0.437	0.112
-654.872	282.684	0.177	-0.320
-653.857	-138.563	-0.054	0.006
-652.843	-124.971	-0.226	0.035
-651.828	282.708	-0.157	-0.284
-650.814	547.900	0.070	0.170
-649.799	-98.682	0.089	-0.023
-648.784	-200.000	-0.007	-0.237
-647.770	180.072	0.240	0.354
-646.755	-39.315	-0.101	-0.054
-645.741	320.767	0.193	-0.368
-644.726	499.459	-0.100	-0.232
-643.711	-49.800	-0.155	-0.074
-642.697	406.072	0.094	-0.199
-641.682	158.861	-0.294	-0.410
-640.668	-200.000	0.062	0.305
-639.653	89.114	0.215	0.241
-638.638	800.000	0.066	0.214
-637.624	800.000	0.131	0.394
-636.609	178.764	0.050	0.073
-635.595	-46.031	-0.309	-0.153
-634.580	216.003	-0.158	0.253
-633.565	252.694	0.125	0.214
-632.551	-85.984	-0.395	0.123
-631.536	800.000	-0.017	0.060
-630.522	134.532	0.247	-0.322
-629.507	-64.731	0.279	-0.114
-628.492	68.339	-0.290	-0.299
-627.478	-149.765	-0.361	-0.029
-626.463	217.636	-0.184	0.295
-625.449	173.807	-0.056	-0.081
-624.434	-200.000	-0.025	-0.360
-623.419	66.563	0.180	0.184
-622.405	374.084	0.081	0.167
-621.390	13.379	0.106	-0.082
-620.376	-1.556	-0.151	-0.107
-619.361	-48.302	0.156	0.075
-618.346	-77.726	-0.194	0.067
-617.332	231.448	-0.143	-0.236
-616.317	-61.109	-0.311	-0.132
-615.303	800.000	0.035	-0.141
-614.288	-119.728	0.229	0.040
-613.273	-103.761	-0.190	-0.045
-612.259	-80.032	-0.168	0.056
-611.244	800.000	-0.066	0.266
-610.230	30.530	0.278	0.239
-609.215	-22.687	-0.224	0.136
-608.201	-97.527	-0.282	-0.074
-607.186	-200.000	0.041	-0.219
-606.171	-200.000	-0.030	0.137
-605.157	-49.477	-0.038	0.018
-604.142	478.150	-0.082	0.187
-603.128	184.428	0.151	-0.225
-602.113	137.854	0.148	-0.194
-601.098	-116.262	0.061	-0.011
-600.084	79.771	-0.081	0.088
-599.069	-120.906	-0.217	0.037
-598.055	82.386	0.045	-0.049
-597.040	-15.506	-0.336	0.215
-596.025	244.790	-0.186	0.314
-595.011	800.000	-0.049	0.140
-593.996	600.064	-0.045	0.113
-592.982	574.698	0.006	-0.014
-591.967	-200.000	0.006	0.244
-590.952	314.029	-0.039	-0.074
-589.938	-80.981	-0.414	-0.138
-588.923	-200.000	0.074	-0.464
-587.909	158.310	-0.139	-0.193
-586.894	18.356	-0.101	-0.081
-585.879	139.816	-0.117	0.155
-584.865	-89.400	0.274	0.081
-583.850	145.819	0.146	-0.197
-582.836	201.403	0.161	0.249
-581.821	762.968	0.023	-0.062
-580.806	180.156	0.242	0.355
-579.792	-200.000	0.047	-0.252
-578.777	-166.102	0.011	-0.000
-577.763	246.582	0.202	0.341
-576.748	-174.651	0.233	0.007
-575.733	464.604	-0.017	-0.037
-574.719	-123.264	-0.333	-0.053
-573.704	9.792	-0.138	0.105
-572.690	-200.000	0.020	0.114
-571.675	248.927	0.066	-0.113
-570.661	139.935	0.252	-0.333
-569.646	800.000	-0.048	-0.187
-568.631	170.778	-0.131	-0.189
-567.617	170.550	-0.040	-0.057
-566.602	561.300	-0.041	0.100
-565.588	192.417	0.110	0.166
-564.573	-200.000	0.069	0.325
-563.558	145.182	0.021	-0.029
-562.544	-20.554	-0.137	-0.084
-561.529	-109.179	-0.162	0.034
-560.515	-23.692	0.210	0.126
-559.500	-56.343	0.069	0.031
-558.485	43.167	0.027	0.025
-557.471	800.000	-0.032	0.106
-556.456	222.637	0.119	-0.192
-555.442	-37.910	-0.372	-0.198
-554.427	743.824	0.045	0.121
-553.412	800.000	0.072	-0.253
-552.398	75.141	0.145	-0.153
-551.383	21.649	0.335	0.273
-550.369	-9.363	-0.332	0.222
-549.354	415.773	0.053	-0.112
-548.339	800.000	-0.112	0.326
-547.325	343.888	-0.195	-0.384
-546.310	-200.000	-0.031	0.278
-545.296	800.000	-0.053	0.213
-544.281	-5.719	-0.073	-0.050
-543.266	77.933	0.142	-0.152
-542.252	-13.736	-0.141	0.092
-541.237	583.051	-0.095	0.234
-540.223	233.906	-0.208	-0.343
-539.208	-200.000	0.013	-0.147
-538.193	281.848	0.127	0.228
-537.179	800.000	-0.015	0.045
-536.164	659.706	0.126	-0.324
-535.150	-104.401	-0.399	0.093
-534.135	211.686	-0.124	-0.195
-533.121	800.000	0.065	0.242
-532.106	-99.690	-0.327	0.082
-531.091	-122.742	-0.231	-0.037
-530.077	-43.124	0.152	-0.077
-529.062	282.940	-0.048	-0.087
-528.048	-42.355	0.388	0.198
-527.033	800.000	0.107	0.317
-526.018	-73.459	-0.192	-0.070
-525.004	12.217	-0.311	-0.240
-523.989	189.692	-0.294	-0.441
-522.975	211.802	0.063	-0.099
-521.960	-43.670	0.087	0.044
-520.945	800.000	-0.048	-0.176
-519.931	-190.217	-0.105	0.001
-518.916	-176.477	-0.220	0.006
-517.902	-66.954	0.252	-0.100
-516.887	59.749	-0.217	0.214
-515.872	-12.865	-0.158	0.103
-514.858	-200.000	0.013	0.100
-513.843	16.553	0.052	-0.041
-512.829	579.701	0.074	-0.182
-511.814	241.217	-0.120	-0.201
-510.799	90.713	0.142	-0.160
-509.785	-15.048	0.035	-0.022
-508.770	51.832	0.073	0.069
-507.756	294.591	0.200	-0.366
-506.741	113.243	0.113	-0.138
-505.726	58.967	0.104	0.103
-504.712	-104.560	0.406	0.094
-503.697	-102.283	0.217	-0.052
-502.683	-36.746	0.100	0.053
-501.668	400.869	0.132	-0.276
-500.653	331.879	-0.054	0.104
-499.639	-33.513	-0.357	-0.197
-498.624	800.000	0.051	-0.158
-497.610	2.398	0.314	-0.227
-496.595	404.695	-0.024	-0.050
-495.581	-88.536	0.122	-0.036
-494.566	-10.048	-0.541	0.359
-493.551	209.260	-0.066	0.103
-492.537	84.776	0.233	-0.255
-491.522	-103.309	-0.181	-0.043
-490.508	626.006	-0.045	-0.115
-489.493	-200.000	-0.068	-0.306
-488.478	-100.737	0.109	-0.027
-487.464	-121.815	0.209	-0.034
-486.449	-67.967	-0.144	0.056
-485.435	340.530	0.047	-0.091
-484.420	-10.522	0.285	-0.189
-483.405	0.527	0.094	0.067
-482.391	43.406	0.118	-0.108
-481.376	-123.695	-0.238	0.038
-480.362	-200.000	-0.025	0.290
-479.347	800.000	0.011	0.038
-478.332	-97.907	-0.371	-0.096
-477.318	268.104	-0.261	-0.456
-476.303	138.101	-0.071	0.093
-475.289	-200.000	0.012	0.118
-474.274	184.239	0.027	0.040
-473.259	-163.596	0.189	-0.009
-472.245	530.339	-0.053	-0.125
-471.230	10.219	-0.306	-0.233
-470.216	29.502	0.061	0.051
-469.201	-200.000	-0.011	-0.146
-468.186	-99.809	-0.301	0.075
-467.172	-134.940	-0.262	0.032
-466.157	3.781	0.324	0.237
-465.143	22.375	-0.305	0.249
-464.128	188.342	0.069	0.104
-463.113	-200.000	-0.043	-0.257
-462.099	-158.353	-0.333	0.019
-461.084	800.000	-0.130	0.359
-460.070	-200.000	-0.058	0.273
-459.055	110.153	-0.129	0.155
-458.040	-200.000	-0.006	-0.279
-457.026	-200.000	0.030	0.226
-456.011	-80.130	0.229	-0.077
-454.997	167.530	0.066	0.093
-453.982	-18.774	-0.348	-0.217
-452.968	-74.264	-0.250	0.090
-451.953	-42.049	0.244	-0.125
-450.938	-200.000	0.021	0.154
-449.924	-154.056	0.306	-0.021
-448.909	-128.690	0.137	0.019
-447.895	171.288	0.242	0.347
-446.880	-78.045	0.196	0.068
-445.865	800.000	-0.074	-0.240
-444.851	800.000	-0.119	-0.341
-443.836	-200.000	0.001	-0.093
-442.822	472.838	-0.045	0.101
-441.807	800.000	-0.033	-0.123
-440.792	-200.000	-0.055	0.392
-439.778	-200.000	0.034	-0.313
-438.763	-200.000	0.026	0.175
-437.749	-188.576	-0.129	-0.002
-436.734	800.000	-0.048	-0.208
-435.719	21.243	0.184	0.149
-434.705	-94.056	0.371	0.102
-433.690	800.000	-0.049	-0.202
-432.676	-43.378	-0.175	0.088
-431.661	16.775	0.275	-0.217
-430.646	-155.149	-0.431	-0.028
-429.632	-200.000	-0.016	0.120
-428.617	800.000	-0.059	-0.206
-427.603	179.667	0.165	-0.241
-426.588	-200.000	0.077	0.400
-425.573	800.000	0.033	0.105
-424.559	-34.616	0.080	-0.044
-423.544	-46.380	0.074	-0.036
-422.530	-74.174	0.312	-0.113
-421.515	-40.042	0.108	-0.056
-420.500	-71.645	0.084	-0.031
-419.486	800.000	0.035	0.116
-418.471	89.741	-0.078	0.087
-417.457	-51.794	-0.161	-0.075
-416.442	-200.000	0.034	-0.158
-415.428	238.551	0.075	-0.125
-414.413	47.970	0.085	0.079
-413.398	-19.457	0.026	-0.016
-412.384	-108.704	0.150	0.032
-411.369	334.463	0.082	0.159
-410.355	-69.841	0.097	0.037
-409.340	641.091	0.115	0.292
-408.325	-28.844	-0.060	0.034
-407.311	-200.000	-0.013	0.155
-406.296	-200.000	-0.077	-0.428
-405.282	-83.678	-0.134	-0.043
-404.267	-130.834	-0.194	0.026
-403.252	58.209	0.119	-0.117
-402.238	-166.082	-0.346	0.015
-401.223	106.688	0.086	-0.102
-400.209	512.331	0.072	-0.166
-399.194	-175.700	0.073	0.002
-398.179	-18.394	-0.028	0.017
-397.165	-42.721	0.167	0.084
-396.150	-200.000	0.054	-0.245
-395.136	-63.758	0.171	-0.070
-394.121	-200.000	-0.013	-0.106
-393.106	335.587	0.077	-0.148
-392.092	800.000	0.057	0.218
-391.077	-200.000	0.031	-0.163
-390.063	-106.343	0.241	-0.054
-389.048	-96.877	0.165	0.043
-388.033	-23.509	0.052	-0.031
-387.019	104.323	-0.143	0.167
-386.004	800.000	0.040	-0.132
-384.990	-200.000	-0.011	-0.228
-383.975	-42.270	0.143	0.073
-382.960	57.271	-0.280	-0.272
-381.946	294.332	-0.060	-0.110
-380.931	125.258	-0.334	-0.419
-379.917	-200.000	0.002	0.197
-378.902	-166.696	0.143	-0.006
-377.888	117.753	-0.145	-0.178
-376.873	-134.980	-0.199	-0.024
-375.858	401.308	-0.068	-0.141
-374.844	218.714	-0.080	-0.128
-373.829	-59.783	0.116	-0.050
-372.815	-72.346	0.294	0.108
-371.800	800.000	-0.080	-0.272
-370.785	-200.000	0.016	-0.219
-369.771	800.000	-0.042	0.139
-368.756	6.388	0.056	0.041
-367.742	-79.245	0.177	0.060
-366.727	-161.959	-0.538	0.027
-365.712	-200.000	0.014	0.138
-364.698	-29.927	-0.380	-0.215
-363.683	425.763	0.067	-0.144
-362.669	169.591	-0.193	-0.274
-361.654	-100.133	-0.053	0.013
-360.639	-200.000	-0.022	-0.180
-359.625	69.045	0.060	-0.061
-358.610	4.396	0.252	0.184
-357.596	79.155	0.090	0.096
-356.581	186.344	-0.031	0.046
-355.566	-200.000	0.015	-0.104
-354.552	99.356	-0.208	-0.240
-353.537	-70.345	-0.213	-0.080
-352.523	-117.191	0.245	-0.044
-351.508	-139.812	0.219	0.023
-350.493	28.274	-0.049	-0.041
-349.479	-97.666	0.249	-0.064
-348.464	-161.979	0.344	0.017
-347.450	62.378	-0.112	-0.112
-346.435	367.877	-0.028	0.056
-345.420	-200.000	0.029	0.193
-344.406	249.916	0.115	0.194
-343.391	190.885	0.117	0.174
-342.377	149.731	-0.099	0.134
-341.362	-200.000	-0.013	-0.066
-340.348	-200.000	0.000	-0.212
-339.333	-121.809	0.163	-0.027
-338.318	800.000	0.093	0.360
-337.304	67.277	0.075	-0.076
-336.289	-64.928	0.215	-0.086
-335.275	30.269	-0.164	0.140
-334.260	18.926	-0.070	0.056
-333.245	408.187	-0.142	0.299
-332.231	256.271	0.058	-0.098
-331.216	-200.000	0.000	0.159
-330.202	800.000	0.039	-0.142
-329.187	-127.324	0.313	0.045
-328.172	-130.856	-0.354	0.047
-327.158	-94.187	-0.243	-0.066
-326.143	-109.969	0.200	-0.042
-325.129	-200.000	-0.034	0.285
-324.114	-200.000	-0.061	0.370
-323.099	-200.000	0.028	0.166
-322.085	-102.963	0.145	-0.034
-321.070	-6.845	-0.152	0.103
-320.056	-169.407	-0.054	0.002
-319.041	800.000	-0.014	0.048
-318.026	346.781	-0.019	-0.038
-317.012	6.638	-0.165	-0.122
-315.997	-63.223	-0.476	-0.195
-314.983	-46.189	0.115	0.056
-313.968	144.282	-0.115	-0.152
-312.953	800.000	0.090	0.306
-311.939	-115.582	-0.249	0.047
-310.924	-0.419	-0.390	0.275
-309.910	-200.000	-0.091	-0.000
-308.895	800.000	0.052	-0.212
-307.880	-118.021	-0.293	0.052
-306.866	-35.610	-0.032	-0.017
-305.851	353.698	-0.080	-0.158
-304.837	7.991	0.147	-0.109
-303.822	489.904	-0.046	-0.104
-302.807	-200.000	0.006	0.060
-301.793	-78.611	0.222	-0.075
-300.778	32.306	0.176	0.151
-299.764	-200.000	-0.016	0.114
-298.749	-76.618	0.018	-0.006
-297.735	-200.000	-0.031	0.298
-296.720	-11.958	-0.273	0.177
-295.705	696.225	-0.103	0.269
-294.691	538.634	0.073	0.172
-293.676	-97.685	-0.057	0.015
-292.662	54.614	-0.026	-0.025
-291.647	455.012	0.023	0.051
-290.632	-143.100	-0.408	0.039
-289.618	-143.782	0.336	0.032
-288.603	-76.338	0.181	0.063
-287.589	47.531	-0.192	0.177
-286.574	50.313	-0.144	0.135
-285.559	-107.937	0.504	0.109
-284.545	66.359	0.110	0.111
-283.530	800.000	0.045	0.138
-282.516	-58.793	0.376	-0.161
-281.501	129.023	-0.112	-0.141
-280.486	-62.038	0.259	-0.107
-279.472	91.766	-0.162	-0.180
-278.457	-91.435	-0.160	0.045
-277.443	-200.000	-0.030	0.159
-276.428	-75.008	-0.057	-0.020
-275.413	11.825	0.152	-0.116
-274.399	-6.484	-0.172	-0.116
-273.384	-61.742	0.091	-0.038
-272.370	-200.000	-0.048	-0.330
-271.355	-200.000	0.036	-0.175
-270.340	143.380	-0.119	0.157
-269.326	104.211	0.035	0.040
-268.311	179.714	0.019	0.027
-267.297	800.000	0.007	0.025
-266.282	-16.507	0.208	-0.130
-265.267	66.310	-0.361	0.364
-264.253	800.000	0.076	0.258
-263.238	5.758	-0.136	0.099
-262.224	-200.000	-0.005	0.117
-261.209	42.354	0.083	0.075
-260.195	-200.000	-0.049	-0.265
-259.180	-200.000	-0.008	0.108
-258.165	37.908	0.191	0.168
-257.151	134.417	-0.141	0.181
-256.136	29.476	0.195	-0.164
-255.122	73.415	0.134	-0.138
-254.107	-111.187	-0.110	-0.022
-253.092	292.598	0.097	0.175
-252.078	-70.144	-0.152	-0.057
-251.063	-16.693	-0.088	0.055
-250.049	77.306	-0.134	0.141
-249.034	74.590	0.097	-0.101
-248.019	-200.000	0.034	-0.158
-247.005	-200.000	-0.046	-0.222
-245.990	65.116	-0.104	-0.104
-244.976	-69.101	0.128	-0.049
-243.961	51.673	-0.028	0.026
-242.946	-200.000	0.004	0.275
-241.932	-145.573	0.155	0.014
-240.917	476.533	-0.093	0.209
-239.903	19.057	0.252	-0.200
-238.888	190.533	-0.146	0.216
-237.873	25.936	0.238	-0.197
-236.859	-8.153	-0.085	0.057
-235.844	306.247	0.089	-0.163
-234.830	-136.666	0.060	0.007
-233.815	331.298	-0.106	0.202
-232.800	-104.160	-0.420	-0.097
-231.786	800.000	-0.037	-0.134
-230.771	-69.674	0.162	-0.061
-229.757	310.608	0.109	0.202
-228.742	17.911	-0.055	0.044
-227.727	42.266	-0.227	-0.204
-226.713	-143.465	-0.238	0.022
-225.698	163.115	-0.025	-0.035
-224.684	-110.416	0.107	0.022
-223.669	30.536	-0.179	0.152
-222.655	41.579	-0.081	-0.072
-221.640	-48.525	-0.077	0.037
-220.625	28.239	0.161	0.134
-219.611	102.067	-0.190	-0.220
-218.596	-200.000	0.014	-0.109
-217.582	-105.248	0.185	-0.042
-216.567	224.083	0.115	-0.184
-215.552	800.000	0.030	0.124
-214.538	-109.314	-0.080	0.017
-213.523	-50.802	0.338	0.157
-212.509	-200.000	0.016	-0.092
-211.494	142.036	0.190	0.249
-210.479	-166.482	0.480	-0.020
-209.465	11.032	0.068	0.051
-208.450	800.000	0.011	-0.045
-207.436	-200.000	0.033	0.219
-206.421	65.674	-0.040	-0.040
-205.406	800.000	-0.039	0.171
-204.392	-200.000	0.047	0.523
-203.377	800.000	-0.119	0.346
-202.363	-200.000	-0.011	0.126
-201.348	800.000	0.048	-0.137
-200.333	319.571	0.058	-0.108
-199.319	173.396	-0.206	-0.294
-198.304	-130.920	0.237	0.031
-197.290	-46.366	-0.412	0.200
-196.275	-200.000	-0.013	-0.112
-195.260	240.176	-0.051	-0.083
-194.246	-151.660	0.365	0.027
-193.231	800.000	0.009	0.039
-192.217	-105.277	0.315	0.071
-191.202	-52.110	0.213	-0.098
-190.187	-63.851	-0.046	0.018
-189.173	-66.405	-0.092	-0.036
-188.158	-123.381	0.280	0.044
-187.144	458.215	0.072	-0.159
-186.129	31.529	0.232	-0.197
-185.114	710.065	-0.019	-0.049
-184.100	800.000	0.080	0.229
-183.085	550.436	-0.105	0.249
-182.071	30.888	0.168	0.142
-181.056	-200.000	-0.013	-0.170
-180.042	-10.862	0.126	-0.082
-179.027	-181.828	0.347	-0.007
-178.012	-17.353	-0.140	0.087
-176.998	-84.357	0.240	0.075
-175.983	42.191	0.202	-0.181
-174.969	40.370	0.171	-0.152
-173.954	106.879	-0.036	0.042
-172.939	-3.990	-0.061	0.042
-171.925	-77.094	-0.296	0.102
-170.910	-47.355	-0.198	0.095
-169.896	32.322	0.196	0.167
-168.881	149.419	-0.195	-0.261
-167.866	-126.109	0.303	0.045
-166.852	-147.990	0.120	-0.010
-165.837	431.763	0.084	0.180
-164.823	-66.782	0.133	0.052
-163.808	88.948	0.178	-0.195
-162.793	-200.000	0.002	-0.074
-161.779	213.875	0.042	0.066
-160.764	-200.000	0.006	-0.026
-159.750	-115.320	0.367	-0.068
-158.735	-200.000	-0.004	0.098
-157.720	800.000	-0.061	0.205
-156.706	15.506	-0.154	0.119
-155.691	-86.230	-0.353	-0.107
-154.677	-200.000	0.064	0.387
-153.662	-57.934	0.250	-0.108
-152.647	228.530	0.049	-0.079
-151.633	17.840	0.247	0.194
-150.618	-200.000	0.033	0.340
-149.604	-93.792	0.195	0.053
-148.589	36.857	-0.241	0.210
-147.574	-200.000	0.015	-0.169
-146.560	29.776	-0.072	0.061
-145.545	-39.088	-0.330	0.171
-144.531	102.706	-0.162	-0.187
-143.516	37.363	-0.161	-0.141
-142.502	348.643	-0.140	0.273
-141.487	-62.554	0.098	-0.040
-140.472	-41.705	-0.382	-0.194
-139.458	15.179	-0.191	-0.148
-138.443	76.717	0.106	-0.111
-137.429	-151.476	0.116	0.009
-136.414	68.107	-0.232	-0.234
-135.399	-147.600	0.101	-0.008
-134.385	-106.295	-0.122	0.027
-133.370	29.780	0.072	-0.061
-132.356	-67.021	-0.239	-0.093
-131.341	-200.000	0.049	-0.255
-130.326	271.496	-0.094	0.163
-129.312	582.701	0.041	-0.099
-128.297	-61.407	-0.403	0.167
-127.283	-200.000	0.000	0.127
-126.268	74.052	0.059	0.061
-125.253	-132.416	-0.007	0.001
-124.239	800.000	-0.064	-0.264
-123.224	-95.631	0.296	-0.078
-122.210	-26.495	-0.218	-0.126
-121.195	66.122	0.129	-0.129
